节点500_285_QEPB04081__192__14-58-45-107.txt的数据

Date: Wed Nov 12 14:58:45 CST 2025
User: PC
Spectrometer: QEPB0408
触发模式: 0
积分时间 (秒): 1.000000E-2
Scans to average: 1
启用暗噪声校正: true
启用非线性校正: false
滑动平均宽度: 0
X轴模式: Wavelengths
Number of Pixels in Spectrum: 1044
>>>>>Begin Spectral Data<<<<<
220.843	-0.62
221.644	0.38
222.444	2.38
223.244	1.38
224.045	1.38
224.845	2.38
225.645	2.38
226.445	2.38
227.245	2.38
228.045	2.38
228.845	1.38
229.645	3.38
230.444	2.38
231.244	1.38
232.043	4.38
232.843	2.38
233.642	2.38
234.442	6.38
235.241	5.38
236.04	6.38
236.839	3.38
237.638	4.38
238.437	2.38
239.236	4.38
240.035	5.38
240.833	5.38
241.632	4.38
242.43	5.38
243.229	3.38
244.027	3.38
244.826	5.38
245.624	5.38
246.422	4.38
247.22	6.38
248.018	6.38
248.816	8.38
249.614	6.38
250.412	4.38
251.21	6.38
252.007	6.38
252.805	7.38
253.602	6.38
254.4	10.38
255.197	8.38
255.994	8.38
256.791	9.38
257.589	6.38
258.386	8.38
259.183	10.38
259.979	8.38
260.776	10.38
261.573	10.38
262.37	12.38
263.166	11.38
263.963	12.38
264.759	14.38
265.556	15.38
266.352	13.38
267.148	15.38
267.944	12.38
268.74	14.38
269.536	13.38
270.332	16.38
271.128	15.38
271.924	19.38
272.719	15.38
273.515	15.38
274.311	20.38
275.106	13.38
275.901	17.38
276.697	17.38
277.492	18.38
278.287	19.38
279.082	18.38
279.877	20.38
280.672	17.38
281.467	17.38
282.262	20.38
283.056	20.38
283.851	19.38
284.646	16.38
285.44	20.38
286.234	20.38
287.029	20.38
287.823	18.38
288.617	18.38
289.411	19.38
290.205	20.38
290.999	19.38
291.793	18.38
292.587	15.38
293.381	17.38
294.174	18.38
294.968	15.38
295.761	16.38
296.555	14.38
297.348	14.38
298.141	16.38
298.935	17.38
299.728	12.38
300.521	15.38
301.314	13.38
302.107	15.38
302.899	14.38
303.692	12.38
304.485	12.38
305.277	12.38
306.07	13.38
306.862	12.38
307.655	12.38
308.447	9.38
309.239	9.38
310.031	10.38
310.823	7.38
311.615	12.38
312.407	9.38
313.199	8.38
313.991	11.38
314.783	8.38
315.574	9.38
316.366	9.38
317.157	7.38
317.949	9.38
318.74	7.38
319.531	6.38
320.322	5.38
321.113	8.38
321.904	7.38
322.695	7.38
323.486	9.38
324.277	8.38
325.068	8.38
325.858	6.38
326.649	7.38
327.439	5.38
328.23	6.38
329.02	5.38
329.81	7.38
330.6	6.38
331.391	4.38
332.181	7.38
332.971	7.38
333.76	5.38
334.55	7.38
335.34	4.38
336.13	5.38
336.919	6.38
337.709	7.38
338.498	5.38
339.287	6.38
340.077	9.38
340.866	6.38
341.655	5.38
342.444	5.38
343.233	6.38
344.022	7.38
344.811	6.38
345.6	7.38
346.388	6.38
347.177	7.38
347.965	7.38
348.754	7.38
349.542	7.38
350.33	4.38
351.119	5.38
351.907	4.38
352.695	4.38
353.483	4.38
354.271	7.38
355.059	6.38
355.846	6.38
356.634	4.38
357.422	6.38
358.209	5.38
358.997	5.38
359.784	4.38
360.571	5.38
361.359	6.38
362.146	3.38
362.933	7.38
363.72	5.38
364.507	6.38
365.294	5.38
366.081	6.38
366.867	4.38
367.654	7.38
368.44	4.38
369.227	6.38
370.013	4.38
370.8	6.38
371.586	6.38
372.372	6.38
373.158	3.38
373.944	4.38
374.73	4.38
375.516	1.38
376.302	7.38
377.088	7.38
377.873	5.38
378.659	5.38
379.445	4.38
380.23	5.38
381.015	2.38
381.801	6.38
382.586	3.38
383.371	7.38
384.156	7.38
384.941	2.38
385.726	5.38
386.511	5.38
387.296	5.38
388.08	5.38
388.865	6.38
389.649	6.38
390.434	6.38
391.218	6.38
392.003	6.38
392.787	5.38
393.571	7.38
394.355	4.38
395.139	6.38
395.923	4.38
396.707	6.38
397.491	4.38
398.274	6.38
399.058	8.38
399.842	6.38
400.625	9.38
401.408	7.38
402.192	6.38
402.975	8.38
403.758	7.38
404.541	8.38
405.324	5.38
406.107	7.38
406.89	5.38
407.673	8.38
408.456	6.38
409.238	5.38
410.021	9.38
410.803	8.38
411.586	8.38
412.368	10.38
413.151	9.38
413.933	10.38
414.715	9.38
415.497	9.38
416.279	9.38
417.061	6.38
417.843	10.38
418.624	8.38
419.406	12.38
420.188	9.38
420.969	10.38
421.751	12.38
422.532	9.38
423.313	7.38
424.095	10.38
424.876	11.38
425.657	11.38
426.438	11.38
427.219	11.38
428	15.38
428.78	13.38
429.561	13.38
430.342	14.38
431.122	15.38
431.903	15.38
432.683	13.38
433.464	15.38
434.244	13.38
435.024	14.38
435.804	19.38
436.584	18.38
437.364	18.38
438.144	18.38
438.924	18.38
439.704	23.38
440.483	22.38
441.263	22.38
442.042	23.38
442.822	27.38
443.601	28.38
444.38	28.38
445.16	32.38
445.939	33.38
446.718	35.38
447.497	41.38
448.276	39.38
449.054	45.38
449.833	46.38
450.612	47.38
451.391	55.38
452.169	56.38
452.948	66.38
453.726	72.38
454.504	76.38
455.282	90.38
456.061	93.38
456.839	107.38
457.617	118.38
458.395	133.38
459.172	141.38
459.95	160.38
460.728	182.38
461.506	201.38
462.283	222.38
463.061	252.38
463.838	278.38
464.615	306.38
465.393	345.38
466.17	389.38
466.947	439.38
467.724	489.38
468.501	538.38
469.278	602.38
470.055	669.38
470.831	742.38
471.608	837.38
472.385	926.38
473.161	1051.38
473.938	1151.38
474.714	1277.38
475.49	1420.38
476.266	1558.38
477.043	1729.38
477.819	1910.38
478.595	2135.38
479.371	2342.38
480.146	2585.38
480.922	2876.38
481.698	3178.38
482.473	3511.38
483.249	3862.38
484.024	4265.38
484.8	4673.38
485.575	5192.38
486.35	5686.38
487.126	6259.38
487.901	6888.38
488.676	7547.38
489.451	8286.38
490.225	9069.38
491	9984.38
491.775	10890.38
492.55	11891.38
493.324	12905.38
494.099	13935.38
494.873	15018.38
495.647	16197.38
496.422	17417.38
497.196	18663.38
497.97	19913.38
498.744	21178.38
499.518	22342.38
500.292	23467.38
501.066	24597.38
501.839	25526.38
502.613	26431.38
503.387	27142.38
504.16	27753.38
504.934	27996.38
505.707	28164.38
506.48	28124.38
507.253	27911.38
508.027	27629.38
508.8	27171.38
509.573	26723.38
510.346	25965.38
511.118	25115.38
511.891	24261.38
512.664	23423.38
513.437	22504.38
514.209	21482.38
514.982	20528.38
515.754	19606.38
516.526	18718.38
517.298	17974.38
518.071	17121.38
518.843	16476.38
519.615	15864.38
520.387	15204.38
521.159	14596.38
521.93	14040.38
522.702	13417.38
523.474	12907.38
524.245	12359.38
525.017	11826.38
525.788	11334.38
526.56	10857.38
527.331	10339.38
528.102	9862.38
528.873	9363.38
529.644	8903.38
530.415	8462.38
531.186	8041.38
531.957	7613.38
532.728	7214.38
533.498	6839.38
534.269	6435.38
535.039	6086.38
535.81	5736.38
536.58	5408.38
537.351	5100.38
538.121	4848.38
538.891	4587.38
539.661	4339.38
540.431	4091.38
541.201	3852.38
541.971	3643.38
542.741	3472.38
543.51	3286.38
544.28	3144.38
545.05	2977.38
545.819	2827.38
546.588	2677.38
547.358	2548.38
548.127	2423.38
548.896	2314.38
549.665	2192.38
550.434	2069.38
551.203	1953.38
551.972	1858.38
552.741	1758.38
553.51	1648.38
554.278	1549.38
555.047	1479.38
555.815	1381.38
556.584	1309.38
557.352	1219.38
558.121	1159.38
558.889	1109.38
559.657	1040.38
560.425	983.38
561.193	921.38
561.961	872.38
562.729	831.38
563.496	788.38
564.264	729.38
565.032	705.38
565.799	654.38
566.567	628.38
567.334	579.38
568.101	559.38
568.869	516.38
569.636	495.38
570.403	461.38
571.17	445.38
571.937	409.38
572.704	391.38
573.471	372.38
574.237	345.38
575.004	329.38
575.771	312.38
576.537	290.38
577.303	275.38
578.07	257.38
578.836	242.38
579.602	230.38
580.368	227.38
581.134	202.38
581.9	192.38
582.666	188.38
583.432	176.38
584.198	165.38
584.964	160.38
585.729	143.38
586.495	141.38
587.26	130.38
588.025	124.38
588.791	116.38
589.556	111.38
590.321	110.38
591.086	101.38
591.851	99.38
592.616	94.38
593.381	91.38
594.146	83.38
594.911	80.38
595.675	75.38
596.44	74.38
597.204	68.38
597.969	65.38
598.733	65.38
599.497	60.38
600.261	60.38
601.025	57.38
601.79	55.38
602.553	53.38
603.317	49.38
604.081	47.38
604.845	43.38
605.609	45.38
606.372	40.38
607.136	39.38
607.899	39.38
608.662	34.38
609.426	35.38
610.189	32.38
610.952	31.38
611.715	31.38
612.478	29.38
613.241	27.38
614.004	25.38
614.767	27.38
615.529	25.38
616.292	21.38
617.055	23.38
617.817	20.38
618.579	25.38
619.342	23.38
620.104	20.38
620.866	23.38
621.628	19.38
622.39	17.38
623.152	18.38
623.914	16.38
624.676	16.38
625.438	17.38
626.199	16.38
626.961	13.38
627.722	13.38
628.484	15.38
629.245	12.38
630.006	15.38
630.768	16.38
631.529	12.38
632.29	13.38
633.051	13.38
633.812	13.38
634.573	9.38
635.333	12.38
636.094	11.38
636.855	10.38
637.615	9.38
638.376	12.38
639.136	9.38
639.896	9.38
640.657	7.38
641.417	11.38
642.177	6.38
642.937	8.38
643.697	8.38
644.457	7.38
645.216	5.38
645.976	9.38
646.736	8.38
647.495	7.38
648.255	7.38
649.014	9.38
649.774	6.38
650.533	9.38
651.292	6.38
652.051	5.38
652.81	6.38
653.569	9.38
654.328	7.38
655.087	5.38
655.846	5.38
656.604	5.38
657.363	7.38
658.121	6.38
658.88	5.38
659.638	7.38
660.397	4.38
661.155	3.38
661.913	5.38
662.671	8.38
663.429	7.38
664.187	5.38
664.945	5.38
665.703	4.38
666.46	6.38
667.218	2.38
667.976	5.38
668.733	6.38
669.49	5.38
670.248	1.38
671.005	6.38
671.762	6.38
672.519	4.38
673.276	4.38
674.033	4.38
674.79	5.38
675.547	5.38
676.304	4.38
677.06	4.38
677.817	5.38
678.574	5.38
679.33	1.38
680.086	2.38
680.843	6.38
681.599	4.38
682.355	3.38
683.111	5.38
683.867	3.38
684.623	4.38
685.379	3.38
686.135	4.38
686.89	2.38
687.646	2.38
688.402	4.38
689.157	2.38
689.912	6.38
690.668	3.38
691.423	2.38
692.178	3.38
692.933	4.38
693.688	4.38
694.443	4.38
695.198	4.38
695.953	3.38
696.708	2.38
697.462	2.38
698.217	3.38
698.972	6.38
699.726	2.38
700.48	5.38
701.235	2.38
701.989	2.38
702.743	4.38
703.497	1.38
704.251	3.38
705.005	2.38
705.759	1.38
706.513	3.38
707.266	4.38
708.02	2.38
708.774	2.38
709.527	4.38
710.28	2.38
711.034	3.38
711.787	4.38
712.54	3.38
713.293	5.38
714.046	6.38
714.799	2.38
715.552	3.38
716.305	2.38
717.058	3.38
717.81	3.38
718.563	6.38
719.315	4.38
720.068	5.38
720.82	5.38
721.573	4.38
722.325	5.38
723.077	3.38
723.829	5.38
724.581	3.38
725.333	1.38
726.085	1.38
726.836	4.38
727.588	4.38
728.34	5.38
729.091	3.38
729.843	3.38
730.594	3.38
731.346	4.38
732.097	3.38
732.848	3.38
733.599	3.38
734.35	4.38
735.101	3.38
735.852	5.38
736.603	2.38
737.354	4.38
738.104	5.38
738.855	4.38
739.605	3.38
740.356	6.38
741.106	1.38
741.856	4.38
742.607	3.38
743.357	5.38
744.107	4.38
744.857	2.38
745.607	5.38
746.357	1.38
747.106	4.38
747.856	6.38
748.606	6.38
749.355	4.38
750.105	5.38
750.854	8.38
751.603	7.38
752.353	4.38
753.102	5.38
753.851	6.38
754.6	6.38
755.349	4.38
756.098	7.38
756.847	5.38
757.595	5.38
758.344	5.38
759.093	4.38
759.841	6.38
760.589	5.38
761.338	6.38
762.086	8.38
762.834	6.38
763.582	7.38
764.331	6.38
765.079	9.38
765.826	7.38
766.574	6.38
767.322	6.38
768.07	7.38
768.817	8.38
769.565	8.38
770.312	6.38
771.06	7.38
771.807	7.38
772.554	10.38
773.302	6.38
774.049	8.38
774.796	6.38
775.543	7.38
776.29	9.38
777.036	7.38
777.783	9.38
778.53	10.38
779.276	12.38
780.023	8.38
780.769	7.38
781.516	10.38
782.262	7.38
783.008	11.38
783.754	8.38
784.5	7.38
785.246	9.38
785.992	8.38
786.738	10.38
787.484	8.38
788.23	9.38
788.975	9.38
789.721	8.38
790.466	7.38
791.212	7.38
791.957	9.38
792.702	7.38
793.447	7.38
794.193	9.38
794.938	6.38
795.683	7.38
796.427	7.38
797.172	8.38
797.917	10.38
798.662	7.38
799.406	7.38
800.151	7.38
800.895	6.38
801.64	7.38
802.384	7.38
803.128	5.38
803.872	7.38
804.616	6.38
805.36	5.38
806.104	7.38
806.848	6.38
807.592	8.38
808.336	3.38
809.079	6.38
809.823	5.38
810.566	5.38
811.31	5.38
812.053	7.38
812.796	5.38
813.539	4.38
814.283	3.38
815.026	7.38
815.769	4.38
816.511	5.38
817.254	3.38
817.997	4.38
818.74	4.38
819.482	4.38
820.225	6.38
820.967	5.38
821.71	2.38
822.452	5.38
823.194	4.38
823.936	4.38
824.678	5.38
825.42	4.38
826.162	4.38
826.904	3.38
827.646	4.38
828.388	3.38
829.129	5.38
829.871	0.38
830.612	3.38
831.354	4.38
832.095	6.38
832.836	3.38
833.577	1.38
834.319	5.38
835.06	4.38
835.801	3.38
836.542	3.38
837.282	3.38
838.023	2.38
838.764	2.38
839.504	3.38
840.245	1.38
840.985	3.38
841.726	4.38
842.466	2.38
843.206	4.38
843.946	4.38
844.687	4.38
845.427	4.38
846.166	1.38
846.906	4.38
847.646	4.38
848.386	3.38
849.125	4.38
849.865	3.38
850.605	3.38
851.344	4.38
852.083	0.38
852.823	2.38
853.562	1.38
854.301	3.38
855.04	2.38
855.779	2.38
856.518	1.38
857.257	2.38
857.995	-0.62
858.734	0.38
859.473	1.38
860.211	0.38
860.95	1.38
861.688	1.38
862.426	2.38
863.165	1.38
863.903	4.38
864.641	3.38
865.379	-1.62
866.117	2.38
866.855	0.38
867.593	0.38
868.33	2.38
869.068	0.38
869.806	4.38
870.543	1.38
871.28	1.38
872.018	1.38
872.755	2.38
873.492	3.38
874.229	2.38
874.967	1.38
875.703	1.38
876.44	1.38
877.177	-0.62
877.914	1.38
878.651	-1.62
879.387	1.38
880.124	1.38
880.86	2.38
881.597	0.38
882.333	2.38
883.069	2.38
883.806	0.38
884.542	1.38
885.278	-1.62
886.014	0.38
886.749	1.38
887.485	1.38
888.221	1.38
888.957	-0.62
889.692	1.38
890.428	-0.62
891.163	1.38
891.899	1.38
892.634	-0.62
893.369	-0.62
894.104	-0.62
894.839	-0.62
895.574	-0.62
896.309	1.38
897.044	1.38
897.779	0.38
898.514	-0.62
899.248	-1.62
899.983	3.38
900.717	-0.62
901.452	0.38
902.186	0.38
902.92	-0.62
903.654	-0.62
904.389	0.38
905.123	-0.62
905.857	1.38
906.59	0.38
907.324	2.38
908.058	2.38
908.792	-0.62
909.525	1.38
910.259	1.38
910.992	-0.62
911.726	0.38
912.459	0.38
913.192	-0.62
913.925	0.38
914.658	0.38
915.391	0.38
916.124	0.38
916.857	-1.62
917.59	-0.62
918.323	0.38
919.055	0.38
919.788	-2.62
920.521	-0.62
921.253	-0.62
921.985	-1.62
922.718	0.38
923.45	-0.62
924.182	1.38
924.914	3.38
925.646	-0.62
926.378	0.38
927.11	-1.62
927.841	0.38
928.573	-0.62
929.305	1.38
930.036	-0.62
930.768	0.38
931.499	1.38
932.23	1.38
932.962	0.38
933.693	0.38
934.424	0.38
935.155	2.38
935.886	2.38
936.617	1.38
937.348	-0.62
938.078	-0.62
938.809	-0.62
939.54	0.38
940.27	-0.62
941.001	-2.62
941.731	0.38
942.461	0.38
943.191	0.38
943.922	0.38
944.652	-0.62
945.382	-0.62
946.112	-0.62
946.841	-0.62
947.571	1.38
948.301	-0.62
949.031	1.38
949.76	-1.62
950.49	1.38
951.219	-0.62
951.948	0.38
952.678	-1.62
953.407	-0.62
954.136	-0.62
954.865	-2.62
955.594	1.38
956.323	0.38
957.052	2.38
957.78	1.38
958.509	3.38
959.238	1.38
959.966	0.38
960.695	-0.62
961.423	2.38
962.151	-0.62
962.88	-0.62
963.608	0.38
964.336	1.38
965.064	-0.62
965.792	-1.62
966.52	-1.62
967.247	0.38
967.975	1.38
968.703	2.38
969.43	1.38
970.158	1.38
970.885	1.38
971.613	-0.62
972.34	-1.62
973.067	1.38
973.794	0.38
974.521	0.38
975.248	0.38
975.975	-0.62
976.702	0.38
977.429	1.38
978.156	1.38
978.882	1.38
979.609	0.38
980.335	0.38
981.062	-1.62
981.788	0.38
982.514	0.38
983.24	-1.62
983.967	-0.62
984.693	0.38
985.419	1.38
986.144	0.38
986.87	1.38
987.596	0.38
988.322	1.38
989.047	-1.62
989.773	0.38
990.498	0.38
991.224	1.38
991.949	1.38
992.674	-0.62
993.399	1.38
994.124	1.38
994.849	0.38
995.574	0.38
996.299	-3.62
997.024	-1.62
997.749	1.38
998.473	1.38
999.198	1.38
999.922	0.38
1000.647	0.38
1001.371	4.38
1002.095	-0.62
1002.82	-1.62
1003.544	-0.62
1004.268	-0.62
1004.992	1.38
1005.716	1.38
1006.439	2.38
1007.163	2.38
1007.887	1.38
1008.611	-0.62
1009.334	0.38
1010.058	0.38
1010.781	-0.62
1011.504	-0.62
1012.228	1.38
1012.951	-1.62
1013.674	2.38
1014.397	-1.62
1015.12	-0.62
