节点500_285_QEPB04081__672__15-06-43-969.txt的数据

Date: Wed Nov 12 15:06:43 CST 2025
User: PC
Spectrometer: QEPB0408
触发模式: 0
积分时间 (秒): 1.000000E-2
Scans to average: 1
启用暗噪声校正: true
启用非线性校正: false
滑动平均宽度: 0
X轴模式: Wavelengths
Number of Pixels in Spectrum: 1044
>>>>>Begin Spectral Data<<<<<
220.843	0.75
221.644	-0.25
222.444	-0.25
223.244	2.75
224.045	0.75
224.845	0.75
225.645	3.75
226.445	0.75
227.245	3.75
228.045	0.75
228.845	1.75
229.645	3.75
230.444	1.75
231.244	1.75
232.043	3.75
232.843	2.75
233.642	2.75
234.442	2.75
235.241	2.75
236.04	0.75
236.839	0.75
237.638	2.75
238.437	2.75
239.236	3.75
240.035	3.75
240.833	3.75
241.632	3.75
242.43	3.75
243.229	3.75
244.027	4.75
244.826	4.75
245.624	3.75
246.422	5.75
247.22	4.75
248.018	4.75
248.816	4.75
249.614	5.75
250.412	5.75
251.21	6.75
252.007	5.75
252.805	3.75
253.602	5.75
254.4	4.75
255.197	8.75
255.994	7.75
256.791	7.75
257.589	7.75
258.386	7.75
259.183	8.75
259.979	10.75
260.776	7.75
261.573	9.75
262.37	9.75
263.166	8.75
263.963	8.75
264.759	11.75
265.556	10.75
266.352	10.75
267.148	12.75
267.944	12.75
268.74	12.75
269.536	10.75
270.332	13.75
271.128	15.75
271.924	12.75
272.719	15.75
273.515	14.75
274.311	14.75
275.106	17.75
275.901	16.75
276.697	17.75
277.492	14.75
278.287	15.75
279.082	15.75
279.877	13.75
280.672	15.75
281.467	14.75
282.262	15.75
283.056	18.75
283.851	18.75
284.646	16.75
285.44	15.75
286.234	16.75
287.029	14.75
287.823	19.75
288.617	13.75
289.411	14.75
290.205	16.75
290.999	15.75
291.793	15.75
292.587	16.75
293.381	17.75
294.174	13.75
294.968	15.75
295.761	16.75
296.555	13.75
297.348	14.75
298.141	13.75
298.935	15.75
299.728	16.75
300.521	14.75
301.314	15.75
302.107	14.75
302.899	12.75
303.692	13.75
304.485	14.75
305.277	10.75
306.07	13.75
306.862	12.75
307.655	16.75
308.447	13.75
309.239	12.75
310.031	11.75
310.823	9.75
311.615	9.75
312.407	10.75
313.199	9.75
313.991	8.75
314.783	7.75
315.574	10.75
316.366	8.75
317.157	6.75
317.949	9.75
318.74	7.75
319.531	7.75
320.322	7.75
321.113	3.75
321.904	7.75
322.695	5.75
323.486	6.75
324.277	8.75
325.068	4.75
325.858	7.75
326.649	8.75
327.439	6.75
328.23	7.75
329.02	6.75
329.81	3.75
330.6	7.75
331.391	6.75
332.181	5.75
332.971	6.75
333.76	3.75
334.55	7.75
335.34	5.75
336.13	6.75
336.919	6.75
337.709	5.75
338.498	8.75
339.287	4.75
340.077	7.75
340.866	4.75
341.655	6.75
342.444	6.75
343.233	5.75
344.022	6.75
344.811	4.75
345.6	7.75
346.388	5.75
347.177	7.75
347.965	3.75
348.754	4.75
349.542	2.75
350.33	4.75
351.119	7.75
351.907	3.75
352.695	5.75
353.483	6.75
354.271	3.75
355.059	6.75
355.846	4.75
356.634	4.75
357.422	5.75
358.209	6.75
358.997	3.75
359.784	3.75
360.571	7.75
361.359	5.75
362.146	4.75
362.933	5.75
363.72	2.75
364.507	6.75
365.294	2.75
366.081	1.75
366.867	2.75
367.654	6.75
368.44	4.75
369.227	2.75
370.013	7.75
370.8	2.75
371.586	3.75
372.372	4.75
373.158	2.75
373.944	3.75
374.73	1.75
375.516	4.75
376.302	4.75
377.088	5.75
377.873	5.75
378.659	4.75
379.445	5.75
380.23	3.75
381.015	4.75
381.801	2.75
382.586	3.75
383.371	4.75
384.156	4.75
384.941	5.75
385.726	4.75
386.511	4.75
387.296	4.75
388.08	4.75
388.865	4.75
389.649	3.75
390.434	6.75
391.218	5.75
392.003	4.75
392.787	7.75
393.571	8.75
394.355	7.75
395.139	2.75
395.923	7.75
396.707	4.75
397.491	6.75
398.274	7.75
399.058	5.75
399.842	5.75
400.625	8.75
401.408	6.75
402.192	6.75
402.975	5.75
403.758	6.75
404.541	4.75
405.324	7.75
406.107	6.75
406.89	6.75
407.673	6.75
408.456	4.75
409.238	6.75
410.021	6.75
410.803	8.75
411.586	7.75
412.368	6.75
413.151	6.75
413.933	8.75
414.715	8.75
415.497	7.75
416.279	8.75
417.061	8.75
417.843	8.75
418.624	8.75
419.406	8.75
420.188	8.75
420.969	9.75
421.751	11.75
422.532	7.75
423.313	11.75
424.095	11.75
424.876	11.75
425.657	10.75
426.438	9.75
427.219	12.75
428	12.75
428.78	11.75
429.561	9.75
430.342	9.75
431.122	13.75
431.903	16.75
432.683	13.75
433.464	15.75
434.244	13.75
435.024	16.75
435.804	17.75
436.584	17.75
437.364	18.75
438.144	22.75
438.924	18.75
439.704	19.75
440.483	22.75
441.263	24.75
442.042	23.75
442.822	26.75
443.601	28.75
444.38	28.75
445.16	30.75
445.939	34.75
446.718	37.75
447.497	41.75
448.276	39.75
449.054	48.75
449.833	51.75
450.612	54.75
451.391	61.75
452.169	64.75
452.948	72.75
453.726	78.75
454.504	89.75
455.282	94.75
456.061	101.75
456.839	118.75
457.617	138.75
458.395	147.75
459.172	168.75
459.95	182.75
460.728	201.75
461.506	221.75
462.283	254.75
463.061	281.75
463.838	311.75
464.615	348.75
465.393	381.75
466.17	430.75
466.947	475.75
467.724	528.75
468.501	584.75
469.278	654.75
470.055	728.75
470.831	815.75
471.608	883.75
472.385	985.75
473.161	1087.75
473.938	1206.75
474.714	1337.75
475.49	1468.75
476.266	1588.75
477.043	1769.75
477.819	1926.75
478.595	2134.75
479.371	2353.75
480.146	2577.75
480.922	2811.75
481.698	3076.75
482.473	3347.75
483.249	3704.75
484.024	4030.75
484.8	4404.75
485.575	4809.75
486.35	5293.75
487.126	5747.75
487.901	6273.75
488.676	6782.75
489.451	7434.75
490.225	8088.75
491	8790.75
491.775	9579.75
492.55	10406.75
493.324	11234.75
494.099	12062.75
494.873	12912.75
495.647	13873.75
496.422	14917.75
497.196	15981.75
497.97	17007.75
498.744	18114.75
499.518	19141.75
500.292	20212.75
501.066	21274.75
501.839	22194.75
502.613	23142.75
503.387	23926.75
504.16	24624.75
504.934	25115.75
505.707	25367.75
506.48	25593.75
507.253	25686.75
508.027	25745.75
508.8	25557.75
509.573	25394.75
510.346	25015.75
511.118	24365.75
511.891	23812.75
512.664	23147.75
513.437	22330.75
514.209	21573.75
514.982	20680.75
515.754	19921.75
516.526	19077.75
517.298	18267.75
518.071	17608.75
518.843	16907.75
519.615	16245.75
520.387	15554.75
521.159	14992.75
521.93	14360.75
522.702	13846.75
523.474	13238.75
524.245	12693.75
525.017	12161.75
525.788	11685.75
526.56	11173.75
527.331	10684.75
528.102	10261.75
528.873	9799.75
529.644	9327.75
530.415	8905.75
531.186	8473.75
531.957	8044.75
532.728	7671.75
533.498	7284.75
534.269	6854.75
535.039	6528.75
535.81	6168.75
536.58	5790.75
537.351	5483.75
538.121	5201.75
538.891	4942.75
539.661	4668.75
540.431	4398.75
541.201	4158.75
541.971	3933.75
542.741	3716.75
543.51	3552.75
544.28	3380.75
545.05	3194.75
545.819	3063.75
546.588	2885.75
547.358	2748.75
548.127	2629.75
548.896	2489.75
549.665	2358.75
550.434	2237.75
551.203	2110.75
551.972	2007.75
552.741	1910.75
553.51	1805.75
554.278	1704.75
555.047	1616.75
555.815	1520.75
556.584	1445.75
557.352	1359.75
558.121	1296.75
558.889	1217.75
559.657	1133.75
560.425	1085.75
561.193	1023.75
561.961	972.75
562.729	912.75
563.496	863.75
564.264	815.75
565.032	767.75
565.799	737.75
566.567	693.75
567.334	657.75
568.101	613.75
568.869	583.75
569.636	547.75
570.403	518.75
571.17	481.75
571.937	454.75
572.704	435.75
573.471	404.75
574.237	387.75
575.004	353.75
575.771	340.75
576.537	317.75
577.303	304.75
578.07	287.75
578.836	264.75
579.602	253.75
580.368	241.75
581.134	228.75
581.9	213.75
582.666	207.75
583.432	194.75
584.198	184.75
584.964	173.75
585.729	162.75
586.495	155.75
587.26	152.75
588.025	137.75
588.791	131.75
589.556	125.75
590.321	119.75
591.086	110.75
591.851	109.75
592.616	103.75
593.381	95.75
594.146	89.75
594.911	83.75
595.675	83.75
596.44	76.75
597.204	72.75
597.969	68.75
598.733	68.75
599.497	66.75
600.261	61.75
601.025	59.75
601.79	60.75
602.553	55.75
603.317	54.75
604.081	49.75
604.845	44.75
605.609	47.75
606.372	45.75
607.136	41.75
607.899	36.75
608.662	42.75
609.426	39.75
610.189	37.75
610.952	33.75
611.715	29.75
612.478	30.75
613.241	29.75
614.004	29.75
614.767	26.75
615.529	28.75
616.292	23.75
617.055	24.75
617.817	22.75
618.579	20.75
619.342	20.75
620.104	22.75
620.866	21.75
621.628	20.75
622.39	19.75
623.152	20.75
623.914	16.75
624.676	17.75
625.438	16.75
626.199	16.75
626.961	15.75
627.722	14.75
628.484	17.75
629.245	16.75
630.006	15.75
630.768	13.75
631.529	12.75
632.29	14.75
633.051	13.75
633.812	13.75
634.573	11.75
635.333	10.75
636.094	10.75
636.855	8.75
637.615	12.75
638.376	10.75
639.136	12.75
639.896	9.75
640.657	8.75
641.417	7.75
642.177	4.75
642.937	8.75
643.697	6.75
644.457	7.75
645.216	6.75
645.976	8.75
646.736	7.75
647.495	5.75
648.255	8.75
649.014	9.75
649.774	7.75
650.533	7.75
651.292	4.75
652.051	7.75
652.81	2.75
653.569	4.75
654.328	6.75
655.087	6.75
655.846	5.75
656.604	6.75
657.363	7.75
658.121	5.75
658.88	5.75
659.638	5.75
660.397	4.75
661.155	8.75
661.913	5.75
662.671	6.75
663.429	5.75
664.187	4.75
664.945	5.75
665.703	4.75
666.46	4.75
667.218	0.75
667.976	5.75
668.733	3.75
669.49	3.75
670.248	2.75
671.005	3.75
671.762	6.75
672.519	3.75
673.276	6.75
674.033	2.75
674.79	4.75
675.547	3.75
676.304	4.75
677.06	3.75
677.817	2.75
678.574	3.75
679.33	2.75
680.086	2.75
680.843	1.75
681.599	0.75
682.355	3.75
683.111	5.75
683.867	2.75
684.623	5.75
685.379	1.75
686.135	2.75
686.89	4.75
687.646	3.75
688.402	3.75
689.157	2.75
689.912	6.75
690.668	3.75
691.423	2.75
692.178	1.75
692.933	2.75
693.688	2.75
694.443	3.75
695.198	4.75
695.953	2.75
696.708	3.75
697.462	2.75
698.217	3.75
698.972	1.75
699.726	2.75
700.48	3.75
701.235	3.75
701.989	2.75
702.743	3.75
703.497	3.75
704.251	5.75
705.005	4.75
705.759	1.75
706.513	4.75
707.266	4.75
708.02	2.75
708.774	2.75
709.527	3.75
710.28	-0.25
711.034	2.75
711.787	1.75
712.54	3.75
713.293	5.75
714.046	6.75
714.799	3.75
715.552	1.75
716.305	3.75
717.058	2.75
717.81	1.75
718.563	4.75
719.315	2.75
720.068	5.75
720.82	1.75
721.573	3.75
722.325	5.75
723.077	6.75
723.829	1.75
724.581	2.75
725.333	0.75
726.085	2.75
726.836	2.75
727.588	3.75
728.34	2.75
729.091	3.75
729.843	1.75
730.594	3.75
731.346	1.75
732.097	5.75
732.848	3.75
733.599	3.75
734.35	2.75
735.101	2.75
735.852	5.75
736.603	4.75
737.354	4.75
738.104	4.75
738.855	1.75
739.605	5.75
740.356	5.75
741.106	4.75
741.856	1.75
742.607	5.75
743.357	2.75
744.107	2.75
744.857	5.75
745.607	4.75
746.357	4.75
747.106	3.75
747.856	4.75
748.606	4.75
749.355	3.75
750.105	3.75
750.854	2.75
751.603	3.75
752.353	4.75
753.102	5.75
753.851	2.75
754.6	5.75
755.349	3.75
756.098	4.75
756.847	4.75
757.595	5.75
758.344	5.75
759.093	2.75
759.841	4.75
760.589	5.75
761.338	4.75
762.086	3.75
762.834	5.75
763.582	4.75
764.331	4.75
765.079	5.75
765.826	4.75
766.574	4.75
767.322	7.75
768.07	6.75
768.817	5.75
769.565	6.75
770.312	6.75
771.06	7.75
771.807	7.75
772.554	7.75
773.302	4.75
774.049	6.75
774.796	5.75
775.543	6.75
776.29	9.75
777.036	7.75
777.783	5.75
778.53	5.75
779.276	7.75
780.023	8.75
780.769	6.75
781.516	6.75
782.262	7.75
783.008	6.75
783.754	8.75
784.5	7.75
785.246	8.75
785.992	6.75
786.738	9.75
787.484	8.75
788.23	9.75
788.975	6.75
789.721	6.75
790.466	7.75
791.212	6.75
791.957	8.75
792.702	5.75
793.447	4.75
794.193	6.75
794.938	6.75
795.683	6.75
796.427	8.75
797.172	7.75
797.917	6.75
798.662	7.75
799.406	6.75
800.151	5.75
800.895	9.75
801.64	5.75
802.384	6.75
803.128	6.75
803.872	6.75
804.616	6.75
805.36	3.75
806.104	6.75
806.848	4.75
807.592	6.75
808.336	4.75
809.079	3.75
809.823	4.75
810.566	3.75
811.31	2.75
812.053	4.75
812.796	2.75
813.539	4.75
814.283	3.75
815.026	6.75
815.769	6.75
816.511	5.75
817.254	1.75
817.997	3.75
818.74	4.75
819.482	3.75
820.225	4.75
820.967	4.75
821.71	4.75
822.452	1.75
823.194	1.75
823.936	3.75
824.678	3.75
825.42	4.75
826.162	4.75
826.904	3.75
827.646	4.75
828.388	1.75
829.129	3.75
829.871	3.75
830.612	3.75
831.354	2.75
832.095	2.75
832.836	3.75
833.577	2.75
834.319	3.75
835.06	2.75
835.801	2.75
836.542	2.75
837.282	2.75
838.023	3.75
838.764	2.75
839.504	4.75
840.245	2.75
840.985	1.75
841.726	3.75
842.466	1.75
843.206	2.75
843.946	1.75
844.687	3.75
845.427	2.75
846.166	1.75
846.906	1.75
847.646	1.75
848.386	2.75
849.125	0.75
849.865	1.75
850.605	1.75
851.344	3.75
852.083	1.75
852.823	-0.25
853.562	1.75
854.301	2.75
855.04	0.75
855.779	1.75
856.518	-1.25
857.257	1.75
857.995	1.75
858.734	-0.25
859.473	0.75
860.211	0.75
860.95	1.75
861.688	2.75
862.426	1.75
863.165	0.75
863.903	1.75
864.641	2.75
865.379	1.75
866.117	2.75
866.855	1.75
867.593	0.75
868.33	0.75
869.068	-0.25
869.806	1.75
870.543	0.75
871.28	2.75
872.018	-0.25
872.755	0.75
873.492	1.75
874.229	0.75
874.967	0.75
875.703	0.75
876.44	1.75
877.177	0.75
877.914	0.75
878.651	0.75
879.387	1.75
880.124	0.75
880.86	1.75
881.597	0.75
882.333	1.75
883.069	1.75
883.806	1.75
884.542	0.75
885.278	-0.25
886.014	-1.25
886.749	2.75
887.485	-0.25
888.221	-0.25
888.957	0.75
889.692	1.75
890.428	-0.25
891.163	0.75
891.899	-0.25
892.634	0.75
893.369	-2.25
894.104	1.75
894.839	-1.25
895.574	0.75
896.309	0.75
897.044	0.75
897.779	-0.25
898.514	-0.25
899.248	0.75
899.983	-0.25
900.717	1.75
901.452	-0.25
902.186	-0.25
902.92	0.75
903.654	-0.25
904.389	-0.25
905.123	1.75
905.857	0.75
906.59	1.75
907.324	1.75
908.058	2.75
908.792	-0.25
909.525	1.75
910.259	-1.25
910.992	-0.25
911.726	-0.25
912.459	-1.25
913.192	1.75
913.925	-0.25
914.658	0.75
915.391	-1.25
916.124	-0.25
916.857	-0.25
917.59	-0.25
918.323	1.75
919.055	-1.25
919.788	-1.25
920.521	0.75
921.253	0.75
921.985	-2.25
922.718	-2.25
923.45	-0.25
924.182	0.75
924.914	1.75
925.646	1.75
926.378	-2.25
927.11	-0.25
927.841	-0.25
928.573	0.75
929.305	-2.25
930.036	0.75
930.768	0.75
931.499	-0.25
932.23	1.75
932.962	2.75
933.693	2.75
934.424	0.75
935.155	1.75
935.886	-1.25
936.617	-0.25
937.348	-0.25
938.078	-0.25
938.809	0.75
939.54	0.75
940.27	0.75
941.001	-1.25
941.731	1.75
942.461	1.75
943.191	0.75
943.922	0.75
944.652	-0.25
945.382	-1.25
946.112	-0.25
946.841	-2.25
947.571	1.75
948.301	-1.25
949.031	-2.25
949.76	1.75
950.49	-0.25
951.219	-2.25
951.948	0.75
952.678	-0.25
953.407	-0.25
954.136	0.75
954.865	-2.25
955.594	-0.25
956.323	1.75
957.052	-1.25
957.78	-0.25
958.509	0.75
959.238	-0.25
959.966	-1.25
960.695	0.75
961.423	0.75
962.151	0.75
962.88	0.75
963.608	-1.25
964.336	-0.25
965.064	-0.25
965.792	-2.25
966.52	-0.25
967.247	0.75
967.975	0.75
968.703	-2.25
969.43	0.75
970.158	-0.25
970.885	-0.25
971.613	1.75
972.34	1.75
973.067	-1.25
973.794	0.75
974.521	-2.25
975.248	-0.25
975.975	-0.25
976.702	-2.25
977.429	2.75
978.156	-0.25
978.882	-0.25
979.609	0.75
980.335	1.75
981.062	-0.25
981.788	-1.25
982.514	-1.25
983.24	-0.25
983.967	-0.25
984.693	-1.25
985.419	-2.25
986.144	-1.25
986.87	1.75
987.596	-0.25
988.322	0.75
989.047	-2.25
989.773	-0.25
990.498	-1.25
991.224	-0.25
991.949	0.75
992.674	-0.25
993.399	1.75
994.124	0.75
994.849	1.75
995.574	-0.25
996.299	-0.25
997.024	0.75
997.749	0.75
998.473	-1.25
999.198	1.75
999.922	-1.25
1000.647	-1.25
1001.371	1.75
1002.095	-1.25
1002.82	-0.25
1003.544	-1.25
1004.268	0.75
1004.992	-0.25
1005.716	1.75
1006.439	1.75
1007.163	0.75
1007.887	1.75
1008.611	0.75
1009.334	-1.25
1010.058	1.75
1010.781	0.75
1011.504	-0.25
1012.228	-0.25
1012.951	1.75
1013.674	-1.25
1014.397	-0.25
1015.12	0.75
