节点500_285_QEPB04081__827__15-09-18-741.txt的数据

Date: Wed Nov 12 15:09:18 CST 2025
User: PC
Spectrometer: QEPB0408
触发模式: 0
积分时间 (秒): 1.000000E-2
Scans to average: 1
启用暗噪声校正: true
启用非线性校正: false
滑动平均宽度: 0
X轴模式: Wavelengths
Number of Pixels in Spectrum: 1044
>>>>>Begin Spectral Data<<<<<
220.843	0.5
221.644	0.5
222.444	1.5
223.244	0.5
224.045	2.5
224.845	0.5
225.645	2.5
226.445	3.5
227.245	1.5
228.045	0.5
228.845	1.5
229.645	1.5
230.444	3.5
231.244	1.5
232.043	1.5
232.843	1.5
233.642	3.5
234.442	4.5
235.241	3.5
236.04	4.5
236.839	2.5
237.638	1.5
238.437	1.5
239.236	4.5
240.035	1.5
240.833	3.5
241.632	4.5
242.43	2.5
243.229	5.5
244.027	5.5
244.826	4.5
245.624	4.5
246.422	3.5
247.22	5.5
248.018	3.5
248.816	5.5
249.614	5.5
250.412	7.5
251.21	7.5
252.007	6.5
252.805	5.5
253.602	2.5
254.4	5.5
255.197	3.5
255.994	6.5
256.791	5.5
257.589	4.5
258.386	9.5
259.183	9.5
259.979	6.5
260.776	6.5
261.573	6.5
262.37	6.5
263.166	9.5
263.963	6.5
264.759	8.5
265.556	7.5
266.352	11.5
267.148	11.5
267.944	11.5
268.74	10.5
269.536	12.5
270.332	10.5
271.128	12.5
271.924	12.5
272.719	11.5
273.515	12.5
274.311	13.5
275.106	15.5
275.901	14.5
276.697	13.5
277.492	12.5
278.287	14.5
279.082	17.5
279.877	13.5
280.672	14.5
281.467	16.5
282.262	16.5
283.056	14.5
283.851	17.5
284.646	17.5
285.44	12.5
286.234	16.5
287.029	15.5
287.823	18.5
288.617	16.5
289.411	16.5
290.205	15.5
290.999	16.5
291.793	14.5
292.587	15.5
293.381	15.5
294.174	13.5
294.968	11.5
295.761	14.5
296.555	15.5
297.348	13.5
298.141	13.5
298.935	18.5
299.728	12.5
300.521	12.5
301.314	12.5
302.107	11.5
302.899	13.5
303.692	10.5
304.485	10.5
305.277	11.5
306.07	11.5
306.862	12.5
307.655	11.5
308.447	10.5
309.239	11.5
310.031	12.5
310.823	10.5
311.615	10.5
312.407	12.5
313.199	9.5
313.991	8.5
314.783	7.5
315.574	5.5
316.366	8.5
317.157	8.5
317.949	8.5
318.74	8.5
319.531	5.5
320.322	7.5
321.113	6.5
321.904	7.5
322.695	5.5
323.486	7.5
324.277	6.5
325.068	7.5
325.858	6.5
326.649	7.5
327.439	4.5
328.23	9.5
329.02	5.5
329.81	4.5
330.6	7.5
331.391	7.5
332.181	6.5
332.971	4.5
333.76	6.5
334.55	4.5
335.34	5.5
336.13	4.5
336.919	6.5
337.709	5.5
338.498	5.5
339.287	4.5
340.077	8.5
340.866	5.5
341.655	4.5
342.444	5.5
343.233	6.5
344.022	5.5
344.811	4.5
345.6	5.5
346.388	6.5
347.177	5.5
347.965	5.5
348.754	6.5
349.542	4.5
350.33	3.5
351.119	5.5
351.907	6.5
352.695	4.5
353.483	3.5
354.271	3.5
355.059	4.5
355.846	6.5
356.634	4.5
357.422	3.5
358.209	2.5
358.997	2.5
359.784	7.5
360.571	4.5
361.359	6.5
362.146	6.5
362.933	7.5
363.72	3.5
364.507	5.5
365.294	3.5
366.081	4.5
366.867	3.5
367.654	4.5
368.44	3.5
369.227	3.5
370.013	2.5
370.8	4.5
371.586	3.5
372.372	6.5
373.158	6.5
373.944	6.5
374.73	3.5
375.516	5.5
376.302	5.5
377.088	3.5
377.873	4.5
378.659	3.5
379.445	4.5
380.23	6.5
381.015	3.5
381.801	4.5
382.586	5.5
383.371	5.5
384.156	3.5
384.941	4.5
385.726	6.5
386.511	6.5
387.296	4.5
388.08	4.5
388.865	3.5
389.649	3.5
390.434	6.5
391.218	7.5
392.003	4.5
392.787	7.5
393.571	2.5
394.355	6.5
395.139	4.5
395.923	3.5
396.707	5.5
397.491	5.5
398.274	5.5
399.058	6.5
399.842	6.5
400.625	5.5
401.408	5.5
402.192	7.5
402.975	5.5
403.758	5.5
404.541	7.5
405.324	8.5
406.107	6.5
406.89	6.5
407.673	5.5
408.456	8.5
409.238	6.5
410.021	7.5
410.803	7.5
411.586	9.5
412.368	6.5
413.151	8.5
413.933	7.5
414.715	10.5
415.497	10.5
416.279	8.5
417.061	10.5
417.843	7.5
418.624	8.5
419.406	9.5
420.188	9.5
420.969	9.5
421.751	8.5
422.532	11.5
423.313	8.5
424.095	10.5
424.876	9.5
425.657	10.5
426.438	12.5
427.219	11.5
428	13.5
428.78	11.5
429.561	10.5
430.342	13.5
431.122	13.5
431.903	13.5
432.683	13.5
433.464	13.5
434.244	17.5
435.024	18.5
435.804	16.5
436.584	16.5
437.364	19.5
438.144	19.5
438.924	21.5
439.704	22.5
440.483	22.5
441.263	22.5
442.042	25.5
442.822	30.5
443.601	24.5
444.38	30.5
445.16	33.5
445.939	33.5
446.718	37.5
447.497	42.5
448.276	42.5
449.054	49.5
449.833	51.5
450.612	56.5
451.391	61.5
452.169	66.5
452.948	72.5
453.726	81.5
454.504	92.5
455.282	107.5
456.061	112.5
456.839	122.5
457.617	130.5
458.395	154.5
459.172	168.5
459.95	188.5
460.728	205.5
461.506	232.5
462.283	259.5
463.061	290.5
463.838	322.5
464.615	357.5
465.393	393.5
466.17	435.5
466.947	490.5
467.724	547.5
468.501	610.5
469.278	669.5
470.055	739.5
470.831	816.5
471.608	914.5
472.385	1005.5
473.161	1098.5
473.938	1200.5
474.714	1341.5
475.49	1467.5
476.266	1605.5
477.043	1770.5
477.819	1956.5
478.595	2120.5
479.371	2328.5
480.146	2555.5
480.922	2776.5
481.698	3035.5
482.473	3313.5
483.249	3611.5
484.024	3968.5
484.8	4327.5
485.575	4698.5
486.35	5119.5
487.126	5568.5
487.901	6064.5
488.676	6592.5
489.451	7157.5
490.225	7801.5
491	8486.5
491.775	9202.5
492.55	9964.5
493.324	10743.5
494.099	11504.5
494.873	12361.5
495.647	13276.5
496.422	14253.5
497.196	15223.5
497.97	16272.5
498.744	17305.5
499.518	18288.5
500.292	19311.5
501.066	20323.5
501.839	21228.5
502.613	22096.5
503.387	22932.5
504.16	23638.5
504.934	24165.5
505.707	24536.5
506.48	24759.5
507.253	24876.5
508.027	24958.5
508.8	24993.5
509.573	24822.5
510.346	24471.5
511.118	24019.5
511.891	23397.5
512.664	22859.5
513.437	22168.5
514.209	21452.5
514.982	20607.5
515.754	19870.5
516.526	19087.5
517.298	18321.5
518.071	17571.5
518.843	16927.5
519.615	16298.5
520.387	15612.5
521.159	15014.5
521.93	14371.5
522.702	13883.5
523.474	13287.5
524.245	12749.5
525.017	12226.5
525.788	11712.5
526.56	11235.5
527.331	10693.5
528.102	10283.5
528.873	9838.5
529.644	9387.5
530.415	8970.5
531.186	8579.5
531.957	8132.5
532.728	7732.5
533.498	7365.5
534.269	6965.5
535.039	6593.5
535.81	6245.5
536.58	5909.5
537.351	5591.5
538.121	5275.5
538.891	4992.5
539.661	4729.5
540.431	4494.5
541.201	4215.5
541.971	3991.5
542.741	3808.5
543.51	3609.5
544.28	3432.5
545.05	3284.5
545.819	3114.5
546.588	2947.5
547.358	2797.5
548.127	2676.5
548.896	2540.5
549.665	2410.5
550.434	2271.5
551.203	2168.5
551.972	2068.5
552.741	1930.5
553.51	1848.5
554.278	1734.5
555.047	1641.5
555.815	1548.5
556.584	1480.5
557.352	1394.5
558.121	1313.5
558.889	1232.5
559.657	1177.5
560.425	1097.5
561.193	1037.5
561.961	981.5
562.729	940.5
563.496	878.5
564.264	838.5
565.032	792.5
565.799	749.5
566.567	707.5
567.334	662.5
568.101	631.5
568.869	606.5
569.636	562.5
570.403	523.5
571.17	502.5
571.937	464.5
572.704	442.5
573.471	412.5
574.237	395.5
575.004	367.5
575.771	350.5
576.537	330.5
577.303	311.5
578.07	295.5
578.836	274.5
579.602	267.5
580.368	249.5
581.134	234.5
581.9	216.5
582.666	210.5
583.432	200.5
584.198	192.5
584.964	182.5
585.729	171.5
586.495	165.5
587.26	153.5
588.025	144.5
588.791	139.5
589.556	129.5
590.321	117.5
591.086	119.5
591.851	108.5
592.616	105.5
593.381	92.5
594.146	90.5
594.911	91.5
595.675	86.5
596.44	87.5
597.204	76.5
597.969	75.5
598.733	71.5
599.497	69.5
600.261	66.5
601.025	62.5
601.79	58.5
602.553	53.5
603.317	56.5
604.081	51.5
604.845	50.5
605.609	45.5
606.372	45.5
607.136	44.5
607.899	42.5
608.662	39.5
609.426	37.5
610.189	35.5
610.952	33.5
611.715	33.5
612.478	30.5
613.241	30.5
614.004	29.5
614.767	28.5
615.529	26.5
616.292	25.5
617.055	24.5
617.817	28.5
618.579	20.5
619.342	21.5
620.104	22.5
620.866	21.5
621.628	22.5
622.39	19.5
623.152	20.5
623.914	19.5
624.676	17.5
625.438	17.5
626.199	17.5
626.961	16.5
627.722	14.5
628.484	13.5
629.245	14.5
630.006	13.5
630.768	12.5
631.529	11.5
632.29	15.5
633.051	11.5
633.812	9.5
634.573	10.5
635.333	9.5
636.094	10.5
636.855	9.5
637.615	10.5
638.376	9.5
639.136	10.5
639.896	8.5
640.657	8.5
641.417	8.5
642.177	8.5
642.937	9.5
643.697	9.5
644.457	8.5
645.216	7.5
645.976	7.5
646.736	5.5
647.495	9.5
648.255	8.5
649.014	6.5
649.774	6.5
650.533	8.5
651.292	5.5
652.051	6.5
652.81	4.5
653.569	6.5
654.328	5.5
655.087	6.5
655.846	7.5
656.604	4.5
657.363	6.5
658.121	3.5
658.88	3.5
659.638	5.5
660.397	4.5
661.155	5.5
661.913	3.5
662.671	4.5
663.429	3.5
664.187	5.5
664.945	4.5
665.703	5.5
666.46	4.5
667.218	4.5
667.976	4.5
668.733	3.5
669.49	4.5
670.248	4.5
671.005	3.5
671.762	3.5
672.519	6.5
673.276	4.5
674.033	4.5
674.79	4.5
675.547	3.5
676.304	3.5
677.06	5.5
677.817	5.5
678.574	3.5
679.33	5.5
680.086	0.5
680.843	6.5
681.599	1.5
682.355	4.5
683.111	4.5
683.867	0.5
684.623	4.5
685.379	0.5
686.135	2.5
686.89	2.5
687.646	2.5
688.402	2.5
689.157	2.5
689.912	1.5
690.668	1.5
691.423	2.5
692.178	3.5
692.933	5.5
693.688	1.5
694.443	2.5
695.198	5.5
695.953	2.5
696.708	3.5
697.462	3.5
698.217	2.5
698.972	2.5
699.726	0.5
700.48	2.5
701.235	3.5
701.989	4.5
702.743	3.5
703.497	1.5
704.251	1.5
705.005	3.5
705.759	3.5
706.513	2.5
707.266	4.5
708.02	1.5
708.774	3.5
709.527	1.5
710.28	4.5
711.034	3.5
711.787	1.5
712.54	4.5
713.293	2.5
714.046	1.5
714.799	3.5
715.552	1.5
716.305	3.5
717.058	4.5
717.81	3.5
718.563	2.5
719.315	2.5
720.068	1.5
720.82	1.5
721.573	2.5
722.325	1.5
723.077	3.5
723.829	2.5
724.581	2.5
725.333	3.5
726.085	3.5
726.836	2.5
727.588	2.5
728.34	1.5
729.091	1.5
729.843	5.5
730.594	5.5
731.346	4.5
732.097	4.5
732.848	2.5
733.599	-0.5
734.35	3.5
735.101	3.5
735.852	3.5
736.603	4.5
737.354	1.5
738.104	2.5
738.855	1.5
739.605	2.5
740.356	1.5
741.106	1.5
741.856	1.5
742.607	4.5
743.357	1.5
744.107	6.5
744.857	3.5
745.607	2.5
746.357	3.5
747.106	1.5
747.856	4.5
748.606	4.5
749.355	3.5
750.105	4.5
750.854	2.5
751.603	3.5
752.353	3.5
753.102	2.5
753.851	5.5
754.6	4.5
755.349	3.5
756.098	4.5
756.847	4.5
757.595	3.5
758.344	3.5
759.093	4.5
759.841	4.5
760.589	6.5
761.338	4.5
762.086	2.5
762.834	6.5
763.582	4.5
764.331	5.5
765.079	2.5
765.826	5.5
766.574	5.5
767.322	7.5
768.07	7.5
768.817	2.5
769.565	6.5
770.312	5.5
771.06	4.5
771.807	7.5
772.554	4.5
773.302	8.5
774.049	5.5
774.796	8.5
775.543	6.5
776.29	7.5
777.036	5.5
777.783	6.5
778.53	6.5
779.276	7.5
780.023	9.5
780.769	5.5
781.516	7.5
782.262	5.5
783.008	7.5
783.754	4.5
784.5	8.5
785.246	5.5
785.992	5.5
786.738	6.5
787.484	8.5
788.23	6.5
788.975	6.5
789.721	7.5
790.466	7.5
791.212	7.5
791.957	5.5
792.702	6.5
793.447	6.5
794.193	7.5
794.938	4.5
795.683	5.5
796.427	5.5
797.172	5.5
797.917	6.5
798.662	5.5
799.406	6.5
800.151	6.5
800.895	6.5
801.64	7.5
802.384	6.5
803.128	6.5
803.872	8.5
804.616	7.5
805.36	4.5
806.104	6.5
806.848	5.5
807.592	5.5
808.336	6.5
809.079	4.5
809.823	5.5
810.566	6.5
811.31	4.5
812.053	5.5
812.796	5.5
813.539	6.5
814.283	5.5
815.026	4.5
815.769	5.5
816.511	4.5
817.254	4.5
817.997	0.5
818.74	4.5
819.482	4.5
820.225	1.5
820.967	2.5
821.71	4.5
822.452	4.5
823.194	-1.5
823.936	2.5
824.678	4.5
825.42	3.5
826.162	4.5
826.904	4.5
827.646	2.5
828.388	3.5
829.129	4.5
829.871	3.5
830.612	2.5
831.354	4.5
832.095	2.5
832.836	2.5
833.577	0.5
834.319	3.5
835.06	4.5
835.801	4.5
836.542	2.5
837.282	0.5
838.023	3.5
838.764	1.5
839.504	4.5
840.245	1.5
840.985	4.5
841.726	3.5
842.466	1.5
843.206	4.5
843.946	1.5
844.687	1.5
845.427	2.5
846.166	1.5
846.906	2.5
847.646	1.5
848.386	2.5
849.125	4.5
849.865	2.5
850.605	2.5
851.344	0.5
852.083	2.5
852.823	1.5
853.562	1.5
854.301	1.5
855.04	1.5
855.779	-0.5
856.518	2.5
857.257	1.5
857.995	2.5
858.734	3.5
859.473	1.5
860.211	4.5
860.95	0.5
861.688	-0.5
862.426	1.5
863.165	2.5
863.903	1.5
864.641	1.5
865.379	-0.5
866.117	-0.5
866.855	0.5
867.593	1.5
868.33	0.5
869.068	2.5
869.806	0.5
870.543	-2.5
871.28	1.5
872.018	1.5
872.755	1.5
873.492	-0.5
874.229	1.5
874.967	1.5
875.703	-0.5
876.44	-0.5
877.177	-1.5
877.914	-0.5
878.651	0.5
879.387	0.5
880.124	1.5
880.86	0.5
881.597	1.5
882.333	0.5
883.069	0.5
883.806	1.5
884.542	-1.5
885.278	1.5
886.014	0.5
886.749	1.5
887.485	0.5
888.221	2.5
888.957	1.5
889.692	1.5
890.428	1.5
891.163	1.5
891.899	2.5
892.634	2.5
893.369	-0.5
894.104	1.5
894.839	-2.5
895.574	1.5
896.309	0.5
897.044	0.5
897.779	-1.5
898.514	2.5
899.248	-1.5
899.983	0.5
900.717	2.5
901.452	-1.5
902.186	-0.5
902.92	1.5
903.654	1.5
904.389	0.5
905.123	0.5
905.857	2.5
906.59	0.5
907.324	0.5
908.058	-0.5
908.792	-2.5
909.525	3.5
910.259	0.5
910.992	-1.5
911.726	-0.5
912.459	1.5
913.192	1.5
913.925	-0.5
914.658	0.5
915.391	-0.5
916.124	1.5
916.857	-0.5
917.59	-0.5
918.323	-0.5
919.055	-1.5
919.788	-1.5
920.521	1.5
921.253	1.5
921.985	0.5
922.718	-0.5
923.45	0.5
924.182	-1.5
924.914	-0.5
925.646	-0.5
926.378	0.5
927.11	-2.5
927.841	-1.5
928.573	1.5
929.305	0.5
930.036	0.5
930.768	-0.5
931.499	-2.5
932.23	-0.5
932.962	0.5
933.693	-2.5
934.424	0.5
935.155	-0.5
935.886	0.5
936.617	-1.5
937.348	-0.5
938.078	0.5
938.809	-0.5
939.54	-0.5
940.27	0.5
941.001	0.5
941.731	2.5
942.461	-1.5
943.191	0.5
943.922	-0.5
944.652	0.5
945.382	0.5
946.112	-0.5
946.841	0.5
947.571	-0.5
948.301	-0.5
949.031	0.5
949.76	-1.5
950.49	1.5
951.219	-0.5
951.948	-0.5
952.678	0.5
953.407	-0.5
954.136	1.5
954.865	0.5
955.594	-0.5
956.323	0.5
957.052	1.5
957.78	1.5
958.509	0.5
959.238	-0.5
959.966	0.5
960.695	0.5
961.423	-1.5
962.151	1.5
962.88	0.5
963.608	-0.5
964.336	1.5
965.064	0.5
965.792	0.5
966.52	-3.5
967.247	-0.5
967.975	1.5
968.703	0.5
969.43	1.5
970.158	-0.5
970.885	-1.5
971.613	1.5
972.34	-0.5
973.067	0.5
973.794	-0.5
974.521	-1.5
975.248	-0.5
975.975	-2.5
976.702	-0.5
977.429	-1.5
978.156	-1.5
978.882	2.5
979.609	-2.5
980.335	1.5
981.062	0.5
981.788	0.5
982.514	-0.5
983.24	-0.5
983.967	-1.5
984.693	0.5
985.419	-0.5
986.144	-0.5
986.87	0.5
987.596	-1.5
988.322	-1.5
989.047	0.5
989.773	-0.5
990.498	-0.5
991.224	-1.5
991.949	-0.5
992.674	-0.5
993.399	-1.5
994.124	-2.5
994.849	-0.5
995.574	0.5
996.299	1.5
997.024	0.5
997.749	-2.5
998.473	-0.5
999.198	0.5
999.922	-2.5
1000.647	1.5
1001.371	1.5
1002.095	-2.5
1002.82	0.5
1003.544	-1.5
1004.268	-1.5
1004.992	4.5
1005.716	0.5
1006.439	1.5
1007.163	-0.5
1007.887	0.5
1008.611	-1.5
1009.334	-0.5
1010.058	-1.5
1010.781	-0.5
1011.504	0.5
1012.228	-0.5
1012.951	0.5
1013.674	0.5
1014.397	-0.5
1015.12	1.5
