节点500_285_QEPB04081__863__15-09-54-655.txt的数据

Date: Wed Nov 12 15:09:54 CST 2025
User: PC
Spectrometer: QEPB0408
触发模式: 0
积分时间 (秒): 1.000000E-2
Scans to average: 1
启用暗噪声校正: true
启用非线性校正: false
滑动平均宽度: 0
X轴模式: Wavelengths
Number of Pixels in Spectrum: 1044
>>>>>Begin Spectral Data<<<<<
220.843	2
221.644	0
222.444	2
223.244	-2
224.045	2
224.845	2
225.645	2
226.445	3
227.245	1
228.045	2
228.845	2
229.645	2
230.444	1
231.244	4
232.043	3
232.843	1
233.642	3
234.442	2
235.241	5
236.04	3
236.839	4
237.638	4
238.437	5
239.236	6
240.035	5
240.833	3
241.632	3
242.43	5
243.229	3
244.027	4
244.826	3
245.624	5
246.422	6
247.22	4
248.018	3
248.816	7
249.614	5
250.412	4
251.21	5
252.007	7
252.805	7
253.602	7
254.4	5
255.197	6
255.994	7
256.791	7
257.589	8
258.386	8
259.183	8
259.979	8
260.776	7
261.573	10
262.37	8
263.166	9
263.963	10
264.759	11
265.556	12
266.352	12
267.148	12
267.944	11
268.74	13
269.536	12
270.332	11
271.128	12
271.924	10
272.719	16
273.515	14
274.311	16
275.106	14
275.901	13
276.697	14
277.492	14
278.287	13
279.082	17
279.877	16
280.672	14
281.467	16
282.262	14
283.056	16
283.851	18
284.646	17
285.44	14
286.234	21
287.029	17
287.823	16
288.617	17
289.411	15
290.205	17
290.999	15
291.793	16
292.587	16
293.381	15
294.174	16
294.968	19
295.761	15
296.555	14
297.348	14
298.141	17
298.935	16
299.728	13
300.521	13
301.314	13
302.107	14
302.899	12
303.692	14
304.485	10
305.277	12
306.07	12
306.862	14
307.655	12
308.447	14
309.239	10
310.031	12
310.823	10
311.615	10
312.407	10
313.199	9
313.991	10
314.783	10
315.574	11
316.366	10
317.157	12
317.949	8
318.74	10
319.531	10
320.322	8
321.113	9
321.904	10
322.695	9
323.486	8
324.277	6
325.068	8
325.858	9
326.649	7
327.439	6
328.23	7
329.02	6
329.81	9
330.6	6
331.391	8
332.181	5
332.971	4
333.76	6
334.55	9
335.34	6
336.13	6
336.919	7
337.709	6
338.498	7
339.287	4
340.077	7
340.866	4
341.655	7
342.444	7
343.233	5
344.022	6
344.811	7
345.6	3
346.388	6
347.177	7
347.965	5
348.754	5
349.542	6
350.33	2
351.119	7
351.907	5
352.695	5
353.483	6
354.271	5
355.059	5
355.846	5
356.634	6
357.422	5
358.209	4
358.997	5
359.784	4
360.571	5
361.359	5
362.146	6
362.933	5
363.72	5
364.507	5
365.294	5
366.081	6
366.867	4
367.654	5
368.44	5
369.227	4
370.013	4
370.8	3
371.586	4
372.372	5
373.158	3
373.944	6
374.73	5
375.516	5
376.302	6
377.088	4
377.873	3
378.659	6
379.445	6
380.23	7
381.015	5
381.801	5
382.586	2
383.371	4
384.156	6
384.941	4
385.726	3
386.511	5
387.296	5
388.08	4
388.865	4
389.649	7
390.434	5
391.218	4
392.003	6
392.787	7
393.571	6
394.355	7
395.139	6
395.923	5
396.707	6
397.491	5
398.274	5
399.058	7
399.842	7
400.625	3
401.408	7
402.192	6
402.975	6
403.758	8
404.541	8
405.324	7
406.107	5
406.89	6
407.673	9
408.456	7
409.238	9
410.021	8
410.803	7
411.586	7
412.368	8
413.151	6
413.933	9
414.715	7
415.497	9
416.279	9
417.061	10
417.843	10
418.624	7
419.406	10
420.188	10
420.969	8
421.751	10
422.532	10
423.313	9
424.095	11
424.876	9
425.657	13
426.438	11
427.219	11
428	10
428.78	11
429.561	14
430.342	13
431.122	15
431.903	12
432.683	13
433.464	17
434.244	15
435.024	18
435.804	17
436.584	18
437.364	18
438.144	19
438.924	20
439.704	21
440.483	22
441.263	24
442.042	23
442.822	28
443.601	30
444.38	32
445.16	33
445.939	38
446.718	36
447.497	39
448.276	44
449.054	49
449.833	52
450.612	55
451.391	62
452.169	68
452.948	76
453.726	86
454.504	90
455.282	104
456.061	114
456.839	123
457.617	139
458.395	157
459.172	175
459.95	193
460.728	209
461.506	236
462.283	259
463.061	290
463.838	322
464.615	357
465.393	401
466.17	445
466.947	500
467.724	548
468.501	613
469.278	664
470.055	751
470.831	816
471.608	912
472.385	1001
473.161	1103
473.938	1211
474.714	1323
475.49	1474
476.266	1619
477.043	1765
477.819	1935
478.595	2125
479.371	2298
480.146	2551
480.922	2781
481.698	3060
482.473	3315
483.249	3616
484.024	3941
484.8	4302
485.575	4691
486.35	5064
487.126	5531
487.901	6030
488.676	6553
489.451	7138
490.225	7723
491	8394
491.775	9133
492.55	9888
493.324	10659
494.099	11449
494.873	12188
495.647	13123
496.422	14097
497.196	15059
497.97	16116
498.744	17094
499.518	18137
500.292	19176
501.066	20084
501.839	21030
502.613	21936
503.387	22761
504.16	23504
504.934	23987
505.707	24326
506.48	24640
507.253	24894
508.027	24866
508.8	24819
509.573	24761
510.346	24375
511.118	23906
511.891	23386
512.664	22872
513.437	22132
514.209	21410
514.982	20656
515.754	19813
516.526	19022
517.298	18323
518.071	17609
518.843	16886
519.615	16329
520.387	15696
521.159	15048
521.93	14448
522.702	13890
523.474	13276
524.245	12734
525.017	12212
525.788	11768
526.56	11263
527.331	10764
528.102	10291
528.873	9873
529.644	9418
530.415	9010
531.186	8572
531.957	8150
532.728	7794
533.498	7412
534.269	6974
535.039	6632
535.81	6273
536.58	5940
537.351	5613
538.121	5291
538.891	5016
539.661	4762
540.431	4486
541.201	4219
541.971	4025
542.741	3828
543.51	3615
544.28	3438
545.05	3287
545.819	3119
546.588	2974
547.358	2813
548.127	2671
548.896	2552
549.665	2412
550.434	2293
551.203	2163
551.972	2058
552.741	1952
553.51	1845
554.278	1750
555.047	1650
555.815	1561
556.584	1486
557.352	1395
558.121	1321
558.889	1251
559.657	1184
560.425	1116
561.193	1051
561.961	987
562.729	946
563.496	889
564.264	832
565.032	791
565.799	752
566.567	707
567.334	672
568.101	626
568.869	599
569.636	565
570.403	520
571.17	503
571.937	475
572.704	437
573.471	418
574.237	397
575.004	377
575.771	352
576.537	328
577.303	317
578.07	299
578.836	273
579.602	266
580.368	244
581.134	239
581.9	222
582.666	209
583.432	200
584.198	188
584.964	178
585.729	165
586.495	164
587.26	153
588.025	145
588.791	135
589.556	130
590.321	120
591.086	118
591.851	114
592.616	106
593.381	101
594.146	95
594.911	92
595.675	90
596.44	81
597.204	75
597.969	76
598.733	72
599.497	66
600.261	71
601.025	60
601.79	56
602.553	56
603.317	55
604.081	51
604.845	52
605.609	49
606.372	47
607.136	42
607.899	44
608.662	45
609.426	42
610.189	37
610.952	35
611.715	33
612.478	32
613.241	36
614.004	33
614.767	29
615.529	27
616.292	27
617.055	26
617.817	23
618.579	25
619.342	26
620.104	22
620.866	20
621.628	22
622.39	19
623.152	22
623.914	18
624.676	17
625.438	17
626.199	20
626.961	18
627.722	16
628.484	16
629.245	14
630.006	14
630.768	14
631.529	15
632.29	12
633.051	14
633.812	14
634.573	11
635.333	12
636.094	11
636.855	11
637.615	11
638.376	14
639.136	7
639.896	8
640.657	11
641.417	6
642.177	8
642.937	8
643.697	8
644.457	8
645.216	7
645.976	8
646.736	9
647.495	4
648.255	7
649.014	7
649.774	8
650.533	8
651.292	8
652.051	8
652.81	8
653.569	7
654.328	6
655.087	8
655.846	7
656.604	7
657.363	8
658.121	6
658.88	8
659.638	7
660.397	5
661.155	5
661.913	5
662.671	7
663.429	4
664.187	8
664.945	5
665.703	4
666.46	6
667.218	7
667.976	5
668.733	5
669.49	4
670.248	5
671.005	6
671.762	4
672.519	3
673.276	4
674.033	4
674.79	6
675.547	5
676.304	3
677.06	4
677.817	4
678.574	3
679.33	3
680.086	1
680.843	5
681.599	3
682.355	2
683.111	2
683.867	5
684.623	4
685.379	3
686.135	1
686.89	5
687.646	4
688.402	2
689.157	3
689.912	3
690.668	3
691.423	3
692.178	4
692.933	5
693.688	3
694.443	3
695.198	4
695.953	4
696.708	4
697.462	3
698.217	2
698.972	5
699.726	3
700.48	1
701.235	5
701.989	4
702.743	4
703.497	5
704.251	3
705.005	3
705.759	2
706.513	3
707.266	3
708.02	2
708.774	4
709.527	1
710.28	4
711.034	4
711.787	2
712.54	3
713.293	2
714.046	5
714.799	3
715.552	2
716.305	2
717.058	5
717.81	4
718.563	2
719.315	4
720.068	3
720.82	4
721.573	7
722.325	5
723.077	3
723.829	2
724.581	4
725.333	2
726.085	5
726.836	5
727.588	3
728.34	4
729.091	4
729.843	3
730.594	6
731.346	2
732.097	5
732.848	4
733.599	4
734.35	4
735.101	5
735.852	6
736.603	4
737.354	5
738.104	2
738.855	5
739.605	3
740.356	1
741.106	5
741.856	5
742.607	7
743.357	5
744.107	4
744.857	3
745.607	4
746.357	5
747.106	4
747.856	5
748.606	4
749.355	5
750.105	6
750.854	5
751.603	2
752.353	4
753.102	7
753.851	5
754.6	4
755.349	6
756.098	6
756.847	5
757.595	5
758.344	7
759.093	6
759.841	6
760.589	7
761.338	4
762.086	6
762.834	7
763.582	7
764.331	4
765.079	5
765.826	6
766.574	4
767.322	8
768.07	6
768.817	9
769.565	6
770.312	7
771.06	6
771.807	7
772.554	7
773.302	6
774.049	7
774.796	5
775.543	6
776.29	6
777.036	8
777.783	5
778.53	7
779.276	7
780.023	8
780.769	7
781.516	9
782.262	10
783.008	9
783.754	7
784.5	7
785.246	11
785.992	8
786.738	6
787.484	8
788.23	10
788.975	6
789.721	8
790.466	9
791.212	9
791.957	9
792.702	10
793.447	9
794.193	8
794.938	8
795.683	6
796.427	7
797.172	8
797.917	7
798.662	5
799.406	7
800.151	6
800.895	7
801.64	6
802.384	7
803.128	5
803.872	6
804.616	8
805.36	5
806.104	6
806.848	6
807.592	7
808.336	5
809.079	5
809.823	4
810.566	5
811.31	6
812.053	5
812.796	7
813.539	5
814.283	5
815.026	5
815.769	4
816.511	5
817.254	2
817.997	5
818.74	5
819.482	5
820.225	5
820.967	5
821.71	5
822.452	4
823.194	3
823.936	6
824.678	4
825.42	7
826.162	4
826.904	5
827.646	6
828.388	5
829.129	3
829.871	3
830.612	4
831.354	3
832.095	6
832.836	3
833.577	5
834.319	3
835.06	2
835.801	4
836.542	3
837.282	3
838.023	4
838.764	2
839.504	2
840.245	6
840.985	4
841.726	1
842.466	2
843.206	2
843.946	3
844.687	2
845.427	3
846.166	4
846.906	0
847.646	4
848.386	1
849.125	3
849.865	2
850.605	2
851.344	3
852.083	3
852.823	2
853.562	3
854.301	1
855.04	4
855.779	3
856.518	2
857.257	0
857.995	3
858.734	3
859.473	2
860.211	3
860.95	2
861.688	3
862.426	3
863.165	3
863.903	2
864.641	1
865.379	6
866.117	3
866.855	2
867.593	0
868.33	3
869.068	2
869.806	3
870.543	1
871.28	1
872.018	1
872.755	1
873.492	1
874.229	0
874.967	3
875.703	3
876.44	1
877.177	1
877.914	2
878.651	2
879.387	2
880.124	0
880.86	1
881.597	2
882.333	2
883.069	0
883.806	2
884.542	1
885.278	2
886.014	2
886.749	1
887.485	0
888.221	2
888.957	1
889.692	1
890.428	2
891.163	2
891.899	1
892.634	0
893.369	1
894.104	-1
894.839	4
895.574	1
896.309	1
897.044	1
897.779	2
898.514	-2
899.248	2
899.983	1
900.717	0
901.452	3
902.186	-2
902.92	2
903.654	1
904.389	1
905.123	1
905.857	-1
906.59	1
907.324	0
908.058	1
908.792	1
909.525	-1
910.259	1
910.992	-1
911.726	0
912.459	0
913.192	1
913.925	1
914.658	-1
915.391	2
916.124	0
916.857	0
917.59	2
918.323	1
919.055	1
919.788	-2
920.521	0
921.253	0
921.985	1
922.718	0
923.45	0
924.182	0
924.914	-3
925.646	0
926.378	1
927.11	-1
927.841	-1
928.573	0
929.305	-2
930.036	1
930.768	1
931.499	2
932.23	-2
932.962	1
933.693	1
934.424	1
935.155	2
935.886	0
936.617	1
937.348	-1
938.078	2
938.809	-1
939.54	0
940.27	-2
941.001	1
941.731	2
942.461	1
943.191	2
943.922	0
944.652	0
945.382	1
946.112	1
946.841	1
947.571	2
948.301	1
949.031	0
949.76	-1
950.49	-2
951.219	1
951.948	1
952.678	-1
953.407	0
954.136	0
954.865	-1
955.594	1
956.323	-1
957.052	2
957.78	2
958.509	1
959.238	-1
959.966	-2
960.695	0
961.423	-2
962.151	0
962.88	0
963.608	-2
964.336	1
965.064	-1
965.792	1
966.52	-1
967.247	1
967.975	2
968.703	1
969.43	1
970.158	0
970.885	1
971.613	-1
972.34	-1
973.067	1
973.794	0
974.521	0
975.248	-2
975.975	1
976.702	0
977.429	-1
978.156	0
978.882	-1
979.609	0
980.335	-1
981.062	0
981.788	2
982.514	0
983.24	1
983.967	0
984.693	3
985.419	-2
986.144	1
986.87	0
987.596	1
988.322	-2
989.047	1
989.773	-1
990.498	-1
991.224	1
991.949	1
992.674	1
993.399	1
994.124	0
994.849	0
995.574	-2
996.299	1
997.024	2
997.749	0
998.473	-1
999.198	-1
999.922	1
1000.647	1
1001.371	1
1002.095	0
1002.82	0
1003.544	0
1004.268	1
1004.992	1
1005.716	1
1006.439	2
1007.163	0
1007.887	2
1008.611	0
1009.334	0
1010.058	1
1010.781	1
1011.504	1
1012.228	0
1012.951	0
1013.674	0
1014.397	1
1015.12	-2
