节点500_285_QEPB04081__0__14-55-35-504.txt的数据

Date: Wed Nov 12 14:55:35 CST 2025
User: PC
Spectrometer: QEPB0408
触发模式: 0
积分时间 (秒): 1.000000E-2
Scans to average: 1
启用暗噪声校正: true
启用非线性校正: false
滑动平均宽度: 0
X轴模式: Wavelengths
Number of Pixels in Spectrum: 1044
>>>>>Begin Spectral Data<<<<<
220.843	-4.25
221.644	-1.25
222.444	-1.25
223.244	-2.25
224.045	-0.25
224.845	-0.25
225.645	-3.25
226.445	-1.25
227.245	-1.25
228.045	-0.25
228.845	-1.25
229.645	0.75
230.444	-3.25
231.244	-3.25
232.043	-1.25
232.843	-1.25
233.642	0.75
234.442	-1.25
235.241	-3.25
236.04	-1.25
236.839	-2.25
237.638	-1.25
238.437	0.75
239.236	-2.25
240.035	-1.25
240.833	-3.25
241.632	-3.25
242.43	-1.25
243.229	1.75
244.027	-1.25
244.826	-2.25
245.624	0.75
246.422	-1.25
247.22	-2.25
248.018	-1.25
248.816	-0.25
249.614	-2.25
250.412	-0.25
251.21	1.75
252.007	-0.25
252.805	-2.25
253.602	-0.25
254.4	-1.25
255.197	-1.25
255.994	-0.25
256.791	-1.25
257.589	-0.25
258.386	-1.25
259.183	-0.25
259.979	-1.25
260.776	-1.25
261.573	-2.25
262.37	-1.25
263.166	-2.25
263.963	-1.25
264.759	-0.25
265.556	-0.25
266.352	-2.25
267.148	-1.25
267.944	-2.25
268.74	0.75
269.536	-1.25
270.332	-0.25
271.128	-1.25
271.924	-0.25
272.719	-1.25
273.515	-1.25
274.311	0.75
275.106	0.75
275.901	-0.25
276.697	-0.25
277.492	-2.25
278.287	1.75
279.082	-0.25
279.877	-2.25
280.672	-0.25
281.467	-1.25
282.262	-0.25
283.056	-2.25
283.851	-0.25
284.646	-0.25
285.44	-1.25
286.234	0.75
287.029	-1.25
287.823	-0.25
288.617	0.75
289.411	-1.25
290.205	-1.25
290.999	-3.25
291.793	-1.25
292.587	0.75
293.381	-1.25
294.174	-0.25
294.968	-1.25
295.761	1.75
296.555	-3.25
297.348	-0.25
298.141	-1.25
298.935	-1.25
299.728	0.75
300.521	-2.25
301.314	-1.25
302.107	-0.25
302.899	1.75
303.692	0.75
304.485	-1.25
305.277	1.75
306.07	-0.25
306.862	-1.25
307.655	0.75
308.447	-0.25
309.239	0.75
310.031	-2.25
310.823	-1.25
311.615	0.75
312.407	-2.25
313.199	-1.25
313.991	-0.25
314.783	-0.25
315.574	-0.25
316.366	0.75
317.157	1.75
317.949	-0.25
318.74	-0.25
319.531	-1.25
320.322	-1.25
321.113	1.75
321.904	-1.25
322.695	-1.25
323.486	-0.25
324.277	-0.25
325.068	-0.25
325.858	-0.25
326.649	-0.25
327.439	-0.25
328.23	-1.25
329.02	-0.25
329.81	0.75
330.6	0.75
331.391	-2.25
332.181	1.75
332.971	0.75
333.76	0.75
334.55	-0.25
335.34	-0.25
336.13	-0.25
336.919	-3.25
337.709	-0.25
338.498	-0.25
339.287	0.75
340.077	-0.25
340.866	-1.25
341.655	-0.25
342.444	0.75
343.233	-1.25
344.022	-0.25
344.811	-1.25
345.6	-0.25
346.388	-0.25
347.177	-0.25
347.965	-0.25
348.754	-1.25
349.542	0.75
350.33	-0.25
351.119	-1.25
351.907	-3.25
352.695	-1.25
353.483	-0.25
354.271	0.75
355.059	-0.25
355.846	-1.25
356.634	-1.25
357.422	1.75
358.209	-0.25
358.997	1.75
359.784	-0.25
360.571	-1.25
361.359	-2.25
362.146	-0.25
362.933	-0.25
363.72	-1.25
364.507	0.75
365.294	-2.25
366.081	0.75
366.867	0.75
367.654	-2.25
368.44	-0.25
369.227	-2.25
370.013	-1.25
370.8	-0.25
371.586	-0.25
372.372	1.75
373.158	-0.25
373.944	0.75
374.73	1.75
375.516	-0.25
376.302	-0.25
377.088	0.75
377.873	0.75
378.659	-1.25
379.445	-1.25
380.23	-0.25
381.015	-0.25
381.801	-1.25
382.586	-1.25
383.371	-0.25
384.156	-0.25
384.941	-1.25
385.726	-2.25
386.511	-1.25
387.296	-0.25
388.08	-0.25
388.865	-2.25
389.649	1.75
390.434	-2.25
391.218	0.75
392.003	-0.25
392.787	-0.25
393.571	-0.25
394.355	0.75
395.139	-0.25
395.923	1.75
396.707	-0.25
397.491	-0.25
398.274	1.75
399.058	-1.25
399.842	-0.25
400.625	1.75
401.408	0.75
402.192	-1.25
402.975	0.75
403.758	-0.25
404.541	0.75
405.324	-0.25
406.107	-0.25
406.89	1.75
407.673	-0.25
408.456	-1.25
409.238	-0.25
410.021	-1.25
410.803	-1.25
411.586	-0.25
412.368	0.75
413.151	0.75
413.933	0.75
414.715	-0.25
415.497	1.75
416.279	0.75
417.061	-0.25
417.843	1.75
418.624	-0.25
419.406	-1.25
420.188	-0.25
420.969	-1.25
421.751	-0.25
422.532	-1.25
423.313	-1.25
424.095	-0.25
424.876	-0.25
425.657	-0.25
426.438	0.75
427.219	1.75
428	-1.25
428.78	-0.25
429.561	-0.25
430.342	-2.25
431.122	3.75
431.903	-0.25
432.683	-0.25
433.464	-0.25
434.244	-2.25
435.024	-1.25
435.804	-0.25
436.584	-0.25
437.364	-0.25
438.144	-2.25
438.924	0.75
439.704	-3.25
440.483	0.75
441.263	0.75
442.042	-1.25
442.822	0.75
443.601	-0.25
444.38	-0.25
445.16	-1.25
445.939	1.75
446.718	-1.25
447.497	-0.25
448.276	-0.25
449.054	1.75
449.833	0.75
450.612	-0.25
451.391	-0.25
452.169	0.75
452.948	-3.25
453.726	0.75
454.504	-0.25
455.282	0.75
456.061	1.75
456.839	-1.25
457.617	-0.25
458.395	-0.25
459.172	-1.25
459.95	1.75
460.728	-3.25
461.506	-0.25
462.283	-1.25
463.061	0.75
463.838	-1.25
464.615	0.75
465.393	0.75
466.17	0.75
466.947	0.75
467.724	0.75
468.501	-0.25
469.278	-1.25
470.055	-0.25
470.831	-0.25
471.608	-0.25
472.385	-0.25
473.161	0.75
473.938	0.75
474.714	0.75
475.49	-1.25
476.266	0.75
477.043	-0.25
477.819	-0.25
478.595	-0.25
479.371	-0.25
480.146	0.75
480.922	-1.25
481.698	0.75
482.473	1.75
483.249	0.75
484.024	-1.25
484.8	-1.25
485.575	1.75
486.35	-0.25
487.126	-3.25
487.901	0.75
488.676	-3.25
489.451	0.75
490.225	-0.25
491	-0.25
491.775	-0.25
492.55	-0.25
493.324	-0.25
494.099	-0.25
494.873	3.75
495.647	-1.25
496.422	-0.25
497.196	-1.25
497.97	-1.25
498.744	0.75
499.518	0.75
500.292	-1.25
501.066	-3.25
501.839	1.75
502.613	1.75
503.387	-0.25
504.16	-0.25
504.934	-0.25
505.707	-0.25
506.48	-0.25
507.253	0.75
508.027	-1.25
508.8	-1.25
509.573	-0.25
510.346	0.75
511.118	-0.25
511.891	1.75
512.664	-0.25
513.437	0.75
514.209	0.75
514.982	0.75
515.754	0.75
516.526	1.75
517.298	-1.25
518.071	-0.25
518.843	-1.25
519.615	0.75
520.387	-1.25
521.159	-1.25
521.93	1.75
522.702	-0.25
523.474	0.75
524.245	-1.25
525.017	0.75
525.788	-1.25
526.56	-0.25
527.331	-0.25
528.102	-2.25
528.873	0.75
529.644	0.75
530.415	-0.25
531.186	-2.25
531.957	0.75
532.728	0.75
533.498	-1.25
534.269	1.75
535.039	-2.25
535.81	-0.25
536.58	0.75
537.351	-1.25
538.121	0.75
538.891	1.75
539.661	0.75
540.431	1.75
541.201	-1.25
541.971	0.75
542.741	-2.25
543.51	-0.25
544.28	-0.25
545.05	-1.25
545.819	-0.25
546.588	-0.25
547.358	2.75
548.127	-0.25
548.896	0.75
549.665	-0.25
550.434	-1.25
551.203	1.75
551.972	-2.25
552.741	-1.25
553.51	-0.25
554.278	0.75
555.047	0.75
555.815	-1.25
556.584	-1.25
557.352	-1.25
558.121	0.75
558.889	-1.25
559.657	0.75
560.425	0.75
561.193	0.75
561.961	1.75
562.729	-0.25
563.496	-1.25
564.264	-1.25
565.032	-0.25
565.799	1.75
566.567	-0.25
567.334	1.75
568.101	-0.25
568.869	0.75
569.636	1.75
570.403	-2.25
571.17	-0.25
571.937	-1.25
572.704	2.75
573.471	-0.25
574.237	0.75
575.004	0.75
575.771	0.75
576.537	0.75
577.303	-1.25
578.07	0.75
578.836	-0.25
579.602	-1.25
580.368	1.75
581.134	0.75
581.9	-1.25
582.666	-0.25
583.432	-1.25
584.198	-1.25
584.964	-2.25
585.729	0.75
586.495	-1.25
587.26	-1.25
588.025	0.75
588.791	-0.25
589.556	0.75
590.321	0.75
591.086	-0.25
591.851	0.75
592.616	0.75
593.381	2.75
594.146	-1.25
594.911	-0.25
595.675	0.75
596.44	-0.25
597.204	0.75
597.969	-2.25
598.733	-1.25
599.497	2.75
600.261	1.75
601.025	0.75
601.79	0.75
602.553	0.75
603.317	-0.25
604.081	-2.25
604.845	0.75
605.609	0.75
606.372	0.75
607.136	0.75
607.899	-1.25
608.662	0.75
609.426	0.75
610.189	0.75
610.952	0.75
611.715	-1.25
612.478	0.75
613.241	-2.25
614.004	-0.25
614.767	-2.25
615.529	1.75
616.292	0.75
617.055	-0.25
617.817	-1.25
618.579	-0.25
619.342	-0.25
620.104	-2.25
620.866	2.75
621.628	0.75
622.39	-0.25
623.152	0.75
623.914	-0.25
624.676	-0.25
625.438	0.75
626.199	-0.25
626.961	0.75
627.722	0.75
628.484	-1.25
629.245	-1.25
630.006	-0.25
630.768	0.75
631.529	-3.25
632.29	-0.25
633.051	-0.25
633.812	1.75
634.573	0.75
635.333	0.75
636.094	-2.25
636.855	-1.25
637.615	-1.25
638.376	-0.25
639.136	-0.25
639.896	0.75
640.657	0.75
641.417	-1.25
642.177	0.75
642.937	-1.25
643.697	-0.25
644.457	-1.25
645.216	0.75
645.976	-0.25
646.736	0.75
647.495	-0.25
648.255	-1.25
649.014	0.75
649.774	-1.25
650.533	0.75
651.292	-0.25
652.051	-0.25
652.81	-0.25
653.569	0.75
654.328	0.75
655.087	0.75
655.846	-0.25
656.604	0.75
657.363	-0.25
658.121	-1.25
658.88	-0.25
659.638	2.75
660.397	0.75
661.155	-1.25
661.913	1.75
662.671	-0.25
663.429	0.75
664.187	0.75
664.945	-0.25
665.703	-1.25
666.46	-0.25
667.218	0.75
667.976	-1.25
668.733	-1.25
669.49	0.75
670.248	-0.25
671.005	0.75
671.762	-0.25
672.519	0.75
673.276	-0.25
674.033	-1.25
674.79	1.75
675.547	0.75
676.304	0.75
677.06	-0.25
677.817	0.75
678.574	-0.25
679.33	0.75
680.086	0.75
680.843	-0.25
681.599	0.75
682.355	0.75
683.111	-0.25
683.867	-0.25
684.623	-0.25
685.379	-0.25
686.135	0.75
686.89	-1.25
687.646	-0.25
688.402	-2.25
689.157	-0.25
689.912	-1.25
690.668	-0.25
691.423	-1.25
692.178	-0.25
692.933	-1.25
693.688	-1.25
694.443	-3.25
695.198	0.75
695.953	-1.25
696.708	-1.25
697.462	1.75
698.217	-1.25
698.972	-0.25
699.726	-0.25
700.48	1.75
701.235	0.75
701.989	2.75
702.743	0.75
703.497	-0.25
704.251	0.75
705.005	-0.25
705.759	0.75
706.513	0.75
707.266	-0.25
708.02	1.75
708.774	1.75
709.527	0.75
710.28	-0.25
711.034	-1.25
711.787	-1.25
712.54	0.75
713.293	-0.25
714.046	-0.25
714.799	-1.25
715.552	-0.25
716.305	-0.25
717.058	0.75
717.81	-1.25
718.563	0.75
719.315	-0.25
720.068	0.75
720.82	0.75
721.573	-0.25
722.325	0.75
723.077	1.75
723.829	0.75
724.581	0.75
725.333	-0.25
726.085	0.75
726.836	0.75
727.588	-0.25
728.34	0.75
729.091	0.75
729.843	-0.25
730.594	0.75
731.346	-0.25
732.097	-0.25
732.848	-1.25
733.599	-1.25
734.35	-2.25
735.101	1.75
735.852	-0.25
736.603	-0.25
737.354	2.75
738.104	0.75
738.855	0.75
739.605	0.75
740.356	-1.25
741.106	0.75
741.856	0.75
742.607	0.75
743.357	-1.25
744.107	-3.25
744.857	-0.25
745.607	0.75
746.357	-2.25
747.106	-2.25
747.856	-1.25
748.606	0.75
749.355	1.75
750.105	1.75
750.854	-0.25
751.603	-1.25
752.353	-0.25
753.102	-0.25
753.851	1.75
754.6	0.75
755.349	0.75
756.098	0.75
756.847	-0.25
757.595	0.75
758.344	0.75
759.093	-0.25
759.841	0.75
760.589	-1.25
761.338	0.75
762.086	-1.25
762.834	-1.25
763.582	-0.25
764.331	-1.25
765.079	0.75
765.826	1.75
766.574	-1.25
767.322	-0.25
768.07	-0.25
768.817	1.75
769.565	-0.25
770.312	-2.25
771.06	0.75
771.807	-1.25
772.554	-0.25
773.302	2.75
774.049	-1.25
774.796	-1.25
775.543	-0.25
776.29	1.75
777.036	-0.25
777.783	0.75
778.53	0.75
779.276	-1.25
780.023	0.75
780.769	0.75
781.516	0.75
782.262	1.75
783.008	-1.25
783.754	-0.25
784.5	-1.25
785.246	1.75
785.992	0.75
786.738	-0.25
787.484	0.75
788.23	1.75
788.975	-0.25
789.721	0.75
790.466	0.75
791.212	1.75
791.957	-0.25
792.702	1.75
793.447	0.75
794.193	-0.25
794.938	0.75
795.683	-1.25
796.427	-1.25
797.172	0.75
797.917	0.75
798.662	-0.25
799.406	-1.25
800.151	0.75
800.895	0.75
801.64	0.75
802.384	0.75
803.128	-1.25
803.872	0.75
804.616	-1.25
805.36	2.75
806.104	0.75
806.848	0.75
807.592	0.75
808.336	0.75
809.079	1.75
809.823	-0.25
810.566	-0.25
811.31	0.75
812.053	0.75
812.796	-0.25
813.539	-1.25
814.283	1.75
815.026	0.75
815.769	0.75
816.511	1.75
817.254	-0.25
817.997	1.75
818.74	-1.25
819.482	-0.25
820.225	1.75
820.967	-0.25
821.71	0.75
822.452	-1.25
823.194	0.75
823.936	-1.25
824.678	-1.25
825.42	1.75
826.162	-1.25
826.904	0.75
827.646	0.75
828.388	0.75
829.129	1.75
829.871	0.75
830.612	1.75
831.354	-0.25
832.095	-0.25
832.836	0.75
833.577	-0.25
834.319	-0.25
835.06	0.75
835.801	0.75
836.542	-0.25
837.282	1.75
838.023	0.75
838.764	-0.25
839.504	-0.25
840.245	0.75
840.985	0.75
841.726	0.75
842.466	0.75
843.206	1.75
843.946	0.75
844.687	0.75
845.427	0.75
846.166	0.75
846.906	1.75
847.646	-0.25
848.386	-0.25
849.125	-2.25
849.865	0.75
850.605	0.75
851.344	-2.25
852.083	-2.25
852.823	0.75
853.562	1.75
854.301	-2.25
855.04	0.75
855.779	0.75
856.518	-3.25
857.257	1.75
857.995	0.75
858.734	-1.25
859.473	-0.25
860.211	0.75
860.95	0.75
861.688	-0.25
862.426	0.75
863.165	-0.25
863.903	0.75
864.641	1.75
865.379	-1.25
866.117	0.75
866.855	1.75
867.593	0.75
868.33	0.75
869.068	0.75
869.806	-1.25
870.543	0.75
871.28	0.75
872.018	1.75
872.755	2.75
873.492	-0.25
874.229	-0.25
874.967	1.75
875.703	-0.25
876.44	0.75
877.177	-1.25
877.914	0.75
878.651	-0.25
879.387	-0.25
880.124	0.75
880.86	-0.25
881.597	-0.25
882.333	0.75
883.069	0.75
883.806	-0.25
884.542	-0.25
885.278	0.75
886.014	-1.25
886.749	2.75
887.485	-0.25
888.221	-0.25
888.957	-0.25
889.692	0.75
890.428	-1.25
891.163	0.75
891.899	-1.25
892.634	0.75
893.369	-1.25
894.104	1.75
894.839	1.75
895.574	-1.25
896.309	-0.25
897.044	-0.25
897.779	2.75
898.514	-0.25
899.248	-0.25
899.983	1.75
900.717	-0.25
901.452	-1.25
902.186	-0.25
902.92	-0.25
903.654	-0.25
904.389	-1.25
905.123	1.75
905.857	-2.25
906.59	-1.25
907.324	-0.25
908.058	-1.25
908.792	0.75
909.525	-0.25
910.259	-1.25
910.992	0.75
911.726	1.75
912.459	0.75
913.192	-0.25
913.925	1.75
914.658	0.75
915.391	-0.25
916.124	-1.25
916.857	-1.25
917.59	4.75
918.323	-0.25
919.055	-0.25
919.788	-0.25
920.521	0.75
921.253	0.75
921.985	2.75
922.718	2.75
923.45	0.75
924.182	-0.25
924.914	-0.25
925.646	-1.25
926.378	-0.25
927.11	-0.25
927.841	-3.25
928.573	1.75
929.305	-0.25
930.036	-1.25
930.768	0.75
931.499	-0.25
932.23	0.75
932.962	0.75
933.693	1.75
934.424	-1.25
935.155	0.75
935.886	-0.25
936.617	-0.25
937.348	0.75
938.078	-1.25
938.809	-0.25
939.54	-0.25
940.27	0.75
941.001	1.75
941.731	0.75
942.461	-2.25
943.191	-0.25
943.922	2.75
944.652	-1.25
945.382	-0.25
946.112	0.75
946.841	-0.25
947.571	-1.25
948.301	0.75
949.031	-0.25
949.76	0.75
950.49	0.75
951.219	1.75
951.948	-1.25
952.678	-0.25
953.407	-0.25
954.136	-1.25
954.865	0.75
955.594	-1.25
956.323	0.75
957.052	-0.25
957.78	-1.25
958.509	1.75
959.238	-2.25
959.966	0.75
960.695	0.75
961.423	-0.25
962.151	-1.25
962.88	-0.25
963.608	1.75
964.336	-0.25
965.064	-0.25
965.792	-0.25
966.52	-1.25
967.247	-0.25
967.975	0.75
968.703	-2.25
969.43	2.75
970.158	1.75
970.885	-0.25
971.613	0.75
972.34	0.75
973.067	-0.25
973.794	-0.25
974.521	0.75
975.248	-1.25
975.975	-0.25
976.702	-0.25
977.429	0.75
978.156	1.75
978.882	-1.25
979.609	0.75
980.335	-4.25
981.062	-0.25
981.788	1.75
982.514	-0.25
983.24	0.75
983.967	-1.25
984.693	-0.25
985.419	1.75
986.144	2.75
986.87	-0.25
987.596	1.75
988.322	0.75
989.047	0.75
989.773	-1.25
990.498	0.75
991.224	-2.25
991.949	0.75
992.674	-1.25
993.399	1.75
994.124	1.75
994.849	-1.25
995.574	-0.25
996.299	-0.25
997.024	-1.25
997.749	-2.25
998.473	1.75
999.198	1.75
999.922	0.75
1000.647	0.75
1001.371	3.75
1002.095	-1.25
1002.82	-3.25
1003.544	-1.25
1004.268	-2.25
1004.992	-2.25
1005.716	-3.25
1006.439	-1.25
1007.163	-2.25
1007.887	-0.25
1008.611	-0.25
1009.334	0.75
1010.058	-0.25
1010.781	-2.25
1011.504	-0.25
1012.228	0.75
1012.951	-0.25
1013.674	-1.25
1014.397	1.75
1015.12	1.75
