节点500_285_QEPB04081__547__15-04-39-289.txt的数据

Date: Wed Nov 12 15:04:39 CST 2025
User: PC
Spectrometer: QEPB0408
触发模式: 0
积分时间 (秒): 1.000000E-2
Scans to average: 1
启用暗噪声校正: true
启用非线性校正: false
滑动平均宽度: 0
X轴模式: Wavelengths
Number of Pixels in Spectrum: 1044
>>>>>Begin Spectral Data<<<<<
220.843	3.75
221.644	1.75
222.444	1.75
223.244	1.75
224.045	0.75
224.845	1.75
225.645	0.75
226.445	3.75
227.245	1.75
228.045	1.75
228.845	-0.25
229.645	-0.25
230.444	0.75
231.244	3.75
232.043	4.75
232.843	3.75
233.642	4.75
234.442	3.75
235.241	1.75
236.04	1.75
236.839	2.75
237.638	5.75
238.437	5.75
239.236	3.75
240.035	3.75
240.833	4.75
241.632	3.75
242.43	4.75
243.229	4.75
244.027	3.75
244.826	2.75
245.624	3.75
246.422	5.75
247.22	6.75
248.018	3.75
248.816	6.75
249.614	6.75
250.412	5.75
251.21	6.75
252.007	4.75
252.805	5.75
253.602	6.75
254.4	6.75
255.197	7.75
255.994	9.75
256.791	6.75
257.589	6.75
258.386	7.75
259.183	6.75
259.979	8.75
260.776	11.75
261.573	9.75
262.37	11.75
263.166	9.75
263.963	11.75
264.759	9.75
265.556	11.75
266.352	13.75
267.148	12.75
267.944	12.75
268.74	12.75
269.536	11.75
270.332	13.75
271.128	12.75
271.924	17.75
272.719	14.75
273.515	13.75
274.311	16.75
275.106	17.75
275.901	15.75
276.697	16.75
277.492	16.75
278.287	18.75
279.082	17.75
279.877	17.75
280.672	19.75
281.467	19.75
282.262	18.75
283.056	17.75
283.851	15.75
284.646	18.75
285.44	18.75
286.234	16.75
287.029	17.75
287.823	20.75
288.617	18.75
289.411	16.75
290.205	18.75
290.999	15.75
291.793	17.75
292.587	17.75
293.381	15.75
294.174	16.75
294.968	14.75
295.761	16.75
296.555	17.75
297.348	12.75
298.141	14.75
298.935	13.75
299.728	15.75
300.521	13.75
301.314	12.75
302.107	11.75
302.899	9.75
303.692	13.75
304.485	12.75
305.277	11.75
306.07	12.75
306.862	12.75
307.655	13.75
308.447	11.75
309.239	10.75
310.031	9.75
310.823	10.75
311.615	9.75
312.407	11.75
313.199	11.75
313.991	8.75
314.783	9.75
315.574	6.75
316.366	8.75
317.157	7.75
317.949	7.75
318.74	9.75
319.531	5.75
320.322	7.75
321.113	7.75
321.904	6.75
322.695	7.75
323.486	6.75
324.277	4.75
325.068	7.75
325.858	4.75
326.649	7.75
327.439	7.75
328.23	5.75
329.02	6.75
329.81	5.75
330.6	7.75
331.391	7.75
332.181	3.75
332.971	6.75
333.76	7.75
334.55	6.75
335.34	8.75
336.13	5.75
336.919	6.75
337.709	4.75
338.498	5.75
339.287	5.75
340.077	5.75
340.866	5.75
341.655	6.75
342.444	3.75
343.233	6.75
344.022	4.75
344.811	4.75
345.6	4.75
346.388	4.75
347.177	5.75
347.965	4.75
348.754	6.75
349.542	8.75
350.33	6.75
351.119	6.75
351.907	3.75
352.695	7.75
353.483	5.75
354.271	5.75
355.059	4.75
355.846	6.75
356.634	3.75
357.422	5.75
358.209	5.75
358.997	6.75
359.784	5.75
360.571	5.75
361.359	2.75
362.146	4.75
362.933	6.75
363.72	5.75
364.507	5.75
365.294	4.75
366.081	6.75
366.867	3.75
367.654	2.75
368.44	1.75
369.227	3.75
370.013	4.75
370.8	6.75
371.586	5.75
372.372	3.75
373.158	4.75
373.944	5.75
374.73	3.75
375.516	3.75
376.302	5.75
377.088	5.75
377.873	2.75
378.659	4.75
379.445	5.75
380.23	2.75
381.015	4.75
381.801	5.75
382.586	7.75
383.371	3.75
384.156	5.75
384.941	5.75
385.726	6.75
386.511	5.75
387.296	4.75
388.08	5.75
388.865	3.75
389.649	4.75
390.434	7.75
391.218	6.75
392.003	5.75
392.787	5.75
393.571	5.75
394.355	2.75
395.139	6.75
395.923	5.75
396.707	6.75
397.491	6.75
398.274	3.75
399.058	6.75
399.842	7.75
400.625	4.75
401.408	4.75
402.192	5.75
402.975	6.75
403.758	5.75
404.541	5.75
405.324	5.75
406.107	8.75
406.89	5.75
407.673	6.75
408.456	7.75
409.238	7.75
410.021	5.75
410.803	7.75
411.586	8.75
412.368	8.75
413.151	9.75
413.933	10.75
414.715	8.75
415.497	6.75
416.279	9.75
417.061	7.75
417.843	6.75
418.624	9.75
419.406	9.75
420.188	10.75
420.969	9.75
421.751	8.75
422.532	9.75
423.313	9.75
424.095	11.75
424.876	12.75
425.657	12.75
426.438	10.75
427.219	11.75
428	8.75
428.78	13.75
429.561	10.75
430.342	12.75
431.122	13.75
431.903	10.75
432.683	13.75
433.464	15.75
434.244	16.75
435.024	16.75
435.804	18.75
436.584	18.75
437.364	20.75
438.144	18.75
438.924	21.75
439.704	20.75
440.483	25.75
441.263	23.75
442.042	24.75
442.822	23.75
443.601	28.75
444.38	25.75
445.16	32.75
445.939	32.75
446.718	33.75
447.497	40.75
448.276	42.75
449.054	45.75
449.833	49.75
450.612	54.75
451.391	58.75
452.169	66.75
452.948	72.75
453.726	82.75
454.504	86.75
455.282	96.75
456.061	105.75
456.839	114.75
457.617	132.75
458.395	141.75
459.172	163.75
459.95	177.75
460.728	193.75
461.506	209.75
462.283	242.75
463.061	271.75
463.838	302.75
464.615	339.75
465.393	379.75
466.17	418.75
466.947	470.75
467.724	524.75
468.501	584.75
469.278	641.75
470.055	702.75
470.831	794.75
471.608	877.75
472.385	971.75
473.161	1078.75
473.938	1189.75
474.714	1319.75
475.49	1462.75
476.266	1595.75
477.043	1771.75
477.819	1950.75
478.595	2141.75
479.371	2364.75
480.146	2583.75
480.922	2853.75
481.698	3151.75
482.473	3450.75
483.249	3774.75
484.024	4107.75
484.8	4517.75
485.575	4934.75
486.35	5419.75
487.126	5923.75
487.901	6480.75
488.676	7091.75
489.451	7764.75
490.225	8459.75
491	9224.75
491.775	10025.75
492.55	10906.75
493.324	11785.75
494.099	12607.75
494.873	13658.75
495.647	14689.75
496.422	15801.75
497.196	16883.75
497.97	18065.75
498.744	19178.75
499.518	20322.75
500.292	21331.75
501.066	22395.75
501.839	23341.75
502.613	24286.75
503.387	25187.75
504.16	25807.75
504.934	26176.75
505.707	26401.75
506.48	26601.75
507.253	26653.75
508.027	26474.75
508.8	26311.75
509.573	25990.75
510.346	25453.75
511.118	24748.75
511.891	24120.75
512.664	23357.75
513.437	22577.75
514.209	21680.75
514.982	20871.75
515.754	19947.75
516.526	19089.75
517.298	18280.75
518.071	17438.75
518.843	16766.75
519.615	16196.75
520.387	15575.75
521.159	14939.75
521.93	14317.75
522.702	13755.75
523.474	13253.75
524.245	12635.75
525.017	12106.75
525.788	11669.75
526.56	11148.75
527.331	10579.75
528.102	10142.75
528.873	9683.75
529.644	9241.75
530.415	8801.75
531.186	8367.75
531.957	7929.75
532.728	7539.75
533.498	7170.75
534.269	6773.75
535.039	6408.75
535.81	6051.75
536.58	5705.75
537.351	5395.75
538.121	5091.75
538.891	4862.75
539.661	4573.75
540.431	4290.75
541.201	4065.75
541.971	3853.75
542.741	3663.75
543.51	3476.75
544.28	3297.75
545.05	3153.75
545.819	2990.75
546.588	2837.75
547.358	2696.75
548.127	2562.75
548.896	2442.75
549.665	2313.75
550.434	2202.75
551.203	2080.75
551.972	1965.75
552.741	1867.75
553.51	1770.75
554.278	1656.75
555.047	1583.75
555.815	1479.75
556.584	1405.75
557.352	1322.75
558.121	1235.75
558.889	1177.75
559.657	1113.75
560.425	1058.75
561.193	992.75
561.961	937.75
562.729	881.75
563.496	838.75
564.264	787.75
565.032	755.75
565.799	711.75
566.567	676.75
567.334	625.75
568.101	604.75
568.869	571.75
569.636	528.75
570.403	501.75
571.17	465.75
571.937	445.75
572.704	423.75
573.471	399.75
574.237	377.75
575.004	350.75
575.771	333.75
576.537	302.75
577.303	296.75
578.07	279.75
578.836	259.75
579.602	242.75
580.368	229.75
581.134	225.75
581.9	213.75
582.666	196.75
583.432	190.75
584.198	178.75
584.964	168.75
585.729	163.75
586.495	153.75
587.26	145.75
588.025	130.75
588.791	121.75
589.556	118.75
590.321	120.75
591.086	112.75
591.851	102.75
592.616	105.75
593.381	91.75
594.146	87.75
594.911	82.75
595.675	84.75
596.44	75.75
597.204	72.75
597.969	69.75
598.733	64.75
599.497	66.75
600.261	59.75
601.025	57.75
601.79	57.75
602.553	53.75
603.317	52.75
604.081	51.75
604.845	45.75
605.609	42.75
606.372	45.75
607.136	40.75
607.899	40.75
608.662	37.75
609.426	35.75
610.189	33.75
610.952	33.75
611.715	31.75
612.478	31.75
613.241	30.75
614.004	28.75
614.767	28.75
615.529	27.75
616.292	26.75
617.055	22.75
617.817	24.75
618.579	21.75
619.342	21.75
620.104	21.75
620.866	21.75
621.628	20.75
622.39	21.75
623.152	19.75
623.914	18.75
624.676	14.75
625.438	15.75
626.199	14.75
626.961	14.75
627.722	17.75
628.484	15.75
629.245	15.75
630.006	13.75
630.768	14.75
631.529	13.75
632.29	13.75
633.051	13.75
633.812	14.75
634.573	11.75
635.333	9.75
636.094	12.75
636.855	9.75
637.615	11.75
638.376	9.75
639.136	11.75
639.896	11.75
640.657	8.75
641.417	9.75
642.177	9.75
642.937	7.75
643.697	7.75
644.457	7.75
645.216	9.75
645.976	7.75
646.736	9.75
647.495	6.75
648.255	7.75
649.014	5.75
649.774	7.75
650.533	7.75
651.292	7.75
652.051	5.75
652.81	4.75
653.569	4.75
654.328	2.75
655.087	6.75
655.846	6.75
656.604	4.75
657.363	6.75
658.121	6.75
658.88	6.75
659.638	6.75
660.397	6.75
661.155	6.75
661.913	3.75
662.671	4.75
663.429	5.75
664.187	4.75
664.945	4.75
665.703	4.75
666.46	4.75
667.218	5.75
667.976	4.75
668.733	1.75
669.49	4.75
670.248	6.75
671.005	5.75
671.762	6.75
672.519	4.75
673.276	3.75
674.033	5.75
674.79	0.75
675.547	3.75
676.304	1.75
677.06	5.75
677.817	3.75
678.574	2.75
679.33	3.75
680.086	2.75
680.843	4.75
681.599	1.75
682.355	4.75
683.111	1.75
683.867	4.75
684.623	4.75
685.379	1.75
686.135	4.75
686.89	3.75
687.646	0.75
688.402	4.75
689.157	6.75
689.912	2.75
690.668	4.75
691.423	2.75
692.178	2.75
692.933	3.75
693.688	0.75
694.443	3.75
695.198	4.75
695.953	2.75
696.708	4.75
697.462	4.75
698.217	0.75
698.972	4.75
699.726	0.75
700.48	1.75
701.235	4.75
701.989	5.75
702.743	4.75
703.497	2.75
704.251	5.75
705.005	0.75
705.759	6.75
706.513	4.75
707.266	4.75
708.02	3.75
708.774	3.75
709.527	1.75
710.28	2.75
711.034	1.75
711.787	3.75
712.54	2.75
713.293	4.75
714.046	2.75
714.799	6.75
715.552	3.75
716.305	1.75
717.058	2.75
717.81	2.75
718.563	2.75
719.315	2.75
720.068	4.75
720.82	3.75
721.573	4.75
722.325	2.75
723.077	1.75
723.829	4.75
724.581	6.75
725.333	3.75
726.085	2.75
726.836	3.75
727.588	1.75
728.34	1.75
729.091	2.75
729.843	5.75
730.594	2.75
731.346	7.75
732.097	2.75
732.848	4.75
733.599	3.75
734.35	3.75
735.101	2.75
735.852	4.75
736.603	6.75
737.354	2.75
738.104	3.75
738.855	4.75
739.605	5.75
740.356	6.75
741.106	2.75
741.856	5.75
742.607	5.75
743.357	4.75
744.107	3.75
744.857	3.75
745.607	5.75
746.357	5.75
747.106	4.75
747.856	3.75
748.606	7.75
749.355	5.75
750.105	4.75
750.854	6.75
751.603	3.75
752.353	4.75
753.102	4.75
753.851	5.75
754.6	5.75
755.349	4.75
756.098	4.75
756.847	3.75
757.595	5.75
758.344	6.75
759.093	4.75
759.841	5.75
760.589	8.75
761.338	6.75
762.086	5.75
762.834	6.75
763.582	6.75
764.331	5.75
765.079	5.75
765.826	5.75
766.574	6.75
767.322	6.75
768.07	7.75
768.817	6.75
769.565	4.75
770.312	6.75
771.06	5.75
771.807	5.75
772.554	5.75
773.302	8.75
774.049	6.75
774.796	9.75
775.543	7.75
776.29	8.75
777.036	7.75
777.783	7.75
778.53	9.75
779.276	7.75
780.023	10.75
780.769	7.75
781.516	7.75
782.262	9.75
783.008	6.75
783.754	4.75
784.5	10.75
785.246	9.75
785.992	7.75
786.738	8.75
787.484	8.75
788.23	8.75
788.975	6.75
789.721	7.75
790.466	6.75
791.212	6.75
791.957	7.75
792.702	8.75
793.447	8.75
794.193	8.75
794.938	8.75
795.683	5.75
796.427	8.75
797.172	7.75
797.917	6.75
798.662	7.75
799.406	6.75
800.151	7.75
800.895	6.75
801.64	6.75
802.384	7.75
803.128	7.75
803.872	6.75
804.616	3.75
805.36	6.75
806.104	5.75
806.848	5.75
807.592	6.75
808.336	4.75
809.079	8.75
809.823	4.75
810.566	5.75
811.31	7.75
812.053	3.75
812.796	2.75
813.539	3.75
814.283	5.75
815.026	4.75
815.769	4.75
816.511	3.75
817.254	2.75
817.997	6.75
818.74	2.75
819.482	6.75
820.225	5.75
820.967	6.75
821.71	2.75
822.452	2.75
823.194	3.75
823.936	3.75
824.678	4.75
825.42	3.75
826.162	3.75
826.904	4.75
827.646	1.75
828.388	3.75
829.129	2.75
829.871	3.75
830.612	5.75
831.354	1.75
832.095	4.75
832.836	2.75
833.577	2.75
834.319	4.75
835.06	4.75
835.801	3.75
836.542	2.75
837.282	4.75
838.023	2.75
838.764	5.75
839.504	4.75
840.245	3.75
840.985	5.75
841.726	3.75
842.466	2.75
843.206	1.75
843.946	1.75
844.687	2.75
845.427	2.75
846.166	2.75
846.906	2.75
847.646	4.75
848.386	0.75
849.125	4.75
849.865	4.75
850.605	2.75
851.344	2.75
852.083	2.75
852.823	4.75
853.562	2.75
854.301	2.75
855.04	2.75
855.779	1.75
856.518	3.75
857.257	-0.25
857.995	3.75
858.734	4.75
859.473	1.75
860.211	0.75
860.95	1.75
861.688	4.75
862.426	-0.25
863.165	0.75
863.903	0.75
864.641	0.75
865.379	2.75
866.117	1.75
866.855	1.75
867.593	1.75
868.33	1.75
869.068	0.75
869.806	1.75
870.543	1.75
871.28	0.75
872.018	-0.25
872.755	2.75
873.492	1.75
874.229	1.75
874.967	1.75
875.703	3.75
876.44	0.75
877.177	0.75
877.914	-2.25
878.651	2.75
879.387	0.75
880.124	0.75
880.86	3.75
881.597	1.75
882.333	1.75
883.069	0.75
883.806	1.75
884.542	1.75
885.278	-1.25
886.014	1.75
886.749	-0.25
887.485	0.75
888.221	-1.25
888.957	-0.25
889.692	2.75
890.428	1.75
891.163	-1.25
891.899	1.75
892.634	0.75
893.369	-0.25
894.104	0.75
894.839	-0.25
895.574	-0.25
896.309	2.75
897.044	2.75
897.779	-0.25
898.514	0.75
899.248	-0.25
899.983	2.75
900.717	1.75
901.452	-0.25
902.186	1.75
902.92	0.75
903.654	-0.25
904.389	-0.25
905.123	1.75
905.857	-1.25
906.59	-0.25
907.324	2.75
908.058	0.75
908.792	1.75
909.525	-0.25
910.259	1.75
910.992	1.75
911.726	-0.25
912.459	-0.25
913.192	-2.25
913.925	1.75
914.658	-3.25
915.391	0.75
916.124	-0.25
916.857	1.75
917.59	-1.25
918.323	1.75
919.055	-1.25
919.788	-0.25
920.521	1.75
921.253	1.75
921.985	1.75
922.718	-0.25
923.45	-0.25
924.182	0.75
924.914	-0.25
925.646	-0.25
926.378	1.75
927.11	0.75
927.841	1.75
928.573	-2.25
929.305	2.75
930.036	-0.25
930.768	0.75
931.499	0.75
932.23	-0.25
932.962	-1.25
933.693	-0.25
934.424	1.75
935.155	1.75
935.886	-1.25
936.617	-0.25
937.348	-2.25
938.078	-2.25
938.809	-1.25
939.54	0.75
940.27	2.75
941.001	0.75
941.731	-0.25
942.461	-3.25
943.191	0.75
943.922	0.75
944.652	1.75
945.382	-2.25
946.112	1.75
946.841	0.75
947.571	-2.25
948.301	-0.25
949.031	0.75
949.76	-1.25
950.49	-1.25
951.219	-0.25
951.948	-0.25
952.678	0.75
953.407	-0.25
954.136	1.75
954.865	-0.25
955.594	-0.25
956.323	-1.25
957.052	-3.25
957.78	1.75
958.509	-3.25
959.238	0.75
959.966	-0.25
960.695	-0.25
961.423	-0.25
962.151	-0.25
962.88	1.75
963.608	-0.25
964.336	-0.25
965.064	-0.25
965.792	-2.25
966.52	0.75
967.247	0.75
967.975	0.75
968.703	-0.25
969.43	1.75
970.158	-1.25
970.885	1.75
971.613	2.75
972.34	-0.25
973.067	-1.25
973.794	0.75
974.521	1.75
975.248	-1.25
975.975	0.75
976.702	0.75
977.429	0.75
978.156	-2.25
978.882	-0.25
979.609	1.75
980.335	-2.25
981.062	0.75
981.788	0.75
982.514	0.75
983.24	-0.25
983.967	-2.25
984.693	-2.25
985.419	2.75
986.144	-0.25
986.87	-0.25
987.596	-1.25
988.322	0.75
989.047	-2.25
989.773	1.75
990.498	-0.25
991.224	0.75
991.949	-2.25
992.674	0.75
993.399	-1.25
994.124	-1.25
994.849	-0.25
995.574	0.75
996.299	-0.25
997.024	-0.25
997.749	-0.25
998.473	0.75
999.198	-0.25
999.922	-1.25
1000.647	0.75
1001.371	4.75
1002.095	0.75
1002.82	-0.25
1003.544	-1.25
1004.268	0.75
1004.992	-0.25
1005.716	-2.25
1006.439	1.75
1007.163	2.75
1007.887	1.75
1008.611	-1.25
1009.334	-1.25
1010.058	1.75
1010.781	0.75
1011.504	1.75
1012.228	0.75
1012.951	-0.25
1013.674	-1.25
1014.397	-0.25
1015.12	-2.25
