节点500_285_QEPB04081__59__14-56-32-354.txt的数据

Date: Wed Nov 12 14:56:32 CST 2025
User: PC
Spectrometer: QEPB0408
触发模式: 0
积分时间 (秒): 1.000000E-2
Scans to average: 1
启用暗噪声校正: true
启用非线性校正: false
滑动平均宽度: 0
X轴模式: Wavelengths
Number of Pixels in Spectrum: 1044
>>>>>Begin Spectral Data<<<<<
220.843	2.12
221.644	1.12
222.444	0.12
223.244	2.12
224.045	-0.88
224.845	0.12
225.645	3.12
226.445	1.12
227.245	3.12
228.045	4.12
228.845	4.12
229.645	1.12
230.444	2.12
231.244	5.12
232.043	4.12
232.843	2.12
233.642	3.12
234.442	3.12
235.241	4.12
236.04	4.12
236.839	3.12
237.638	6.12
238.437	6.12
239.236	5.12
240.035	4.12
240.833	3.12
241.632	5.12
242.43	6.12
243.229	7.12
244.027	6.12
244.826	4.12
245.624	3.12
246.422	6.12
247.22	7.12
248.018	4.12
248.816	7.12
249.614	8.12
250.412	8.12
251.21	5.12
252.007	9.12
252.805	7.12
253.602	9.12
254.4	9.12
255.197	8.12
255.994	8.12
256.791	9.12
257.589	7.12
258.386	8.12
259.183	9.12
259.979	9.12
260.776	11.12
261.573	13.12
262.37	9.12
263.166	12.12
263.963	13.12
264.759	16.12
265.556	15.12
266.352	13.12
267.148	14.12
267.944	16.12
268.74	14.12
269.536	15.12
270.332	15.12
271.128	17.12
271.924	17.12
272.719	17.12
273.515	17.12
274.311	20.12
275.106	20.12
275.901	19.12
276.697	20.12
277.492	18.12
278.287	19.12
279.082	19.12
279.877	17.12
280.672	20.12
281.467	21.12
282.262	18.12
283.056	20.12
283.851	21.12
284.646	23.12
285.44	18.12
286.234	18.12
287.029	19.12
287.823	19.12
288.617	18.12
289.411	18.12
290.205	21.12
290.999	17.12
291.793	19.12
292.587	21.12
293.381	17.12
294.174	17.12
294.968	16.12
295.761	17.12
296.555	19.12
297.348	15.12
298.141	17.12
298.935	18.12
299.728	17.12
300.521	14.12
301.314	13.12
302.107	13.12
302.899	13.12
303.692	13.12
304.485	13.12
305.277	12.12
306.07	15.12
306.862	11.12
307.655	15.12
308.447	13.12
309.239	8.12
310.031	12.12
310.823	10.12
311.615	13.12
312.407	11.12
313.199	9.12
313.991	8.12
314.783	10.12
315.574	9.12
316.366	9.12
317.157	10.12
317.949	7.12
318.74	8.12
319.531	9.12
320.322	8.12
321.113	9.12
321.904	9.12
322.695	9.12
323.486	7.12
324.277	8.12
325.068	9.12
325.858	7.12
326.649	8.12
327.439	7.12
328.23	7.12
329.02	7.12
329.81	9.12
330.6	5.12
331.391	7.12
332.181	5.12
332.971	9.12
333.76	6.12
334.55	6.12
335.34	7.12
336.13	7.12
336.919	5.12
337.709	6.12
338.498	7.12
339.287	6.12
340.077	9.12
340.866	7.12
341.655	7.12
342.444	6.12
343.233	7.12
344.022	7.12
344.811	6.12
345.6	8.12
346.388	5.12
347.177	5.12
347.965	7.12
348.754	7.12
349.542	6.12
350.33	7.12
351.119	6.12
351.907	5.12
352.695	4.12
353.483	6.12
354.271	7.12
355.059	7.12
355.846	5.12
356.634	5.12
357.422	8.12
358.209	7.12
358.997	5.12
359.784	6.12
360.571	6.12
361.359	9.12
362.146	6.12
362.933	6.12
363.72	3.12
364.507	8.12
365.294	6.12
366.081	5.12
366.867	7.12
367.654	4.12
368.44	6.12
369.227	6.12
370.013	6.12
370.8	4.12
371.586	7.12
372.372	6.12
373.158	5.12
373.944	5.12
374.73	7.12
375.516	5.12
376.302	7.12
377.088	5.12
377.873	6.12
378.659	6.12
379.445	5.12
380.23	6.12
381.015	6.12
381.801	7.12
382.586	5.12
383.371	5.12
384.156	5.12
384.941	6.12
385.726	7.12
386.511	8.12
387.296	5.12
388.08	5.12
388.865	7.12
389.649	7.12
390.434	6.12
391.218	7.12
392.003	7.12
392.787	7.12
393.571	6.12
394.355	5.12
395.139	6.12
395.923	7.12
396.707	10.12
397.491	4.12
398.274	7.12
399.058	5.12
399.842	5.12
400.625	9.12
401.408	8.12
402.192	7.12
402.975	6.12
403.758	7.12
404.541	6.12
405.324	6.12
406.107	7.12
406.89	8.12
407.673	9.12
408.456	9.12
409.238	8.12
410.021	10.12
410.803	8.12
411.586	7.12
412.368	10.12
413.151	9.12
413.933	11.12
414.715	9.12
415.497	9.12
416.279	9.12
417.061	9.12
417.843	11.12
418.624	11.12
419.406	10.12
420.188	12.12
420.969	13.12
421.751	13.12
422.532	9.12
423.313	13.12
424.095	9.12
424.876	10.12
425.657	11.12
426.438	12.12
427.219	11.12
428	11.12
428.78	15.12
429.561	14.12
430.342	14.12
431.122	16.12
431.903	13.12
432.683	15.12
433.464	18.12
434.244	16.12
435.024	18.12
435.804	16.12
436.584	17.12
437.364	16.12
438.144	18.12
438.924	20.12
439.704	20.12
440.483	21.12
441.263	24.12
442.042	26.12
442.822	27.12
443.601	29.12
444.38	28.12
445.16	32.12
445.939	33.12
446.718	30.12
447.497	38.12
448.276	40.12
449.054	40.12
449.833	45.12
450.612	52.12
451.391	55.12
452.169	57.12
452.948	65.12
453.726	71.12
454.504	75.12
455.282	81.12
456.061	89.12
456.839	99.12
457.617	113.12
458.395	130.12
459.172	135.12
459.95	153.12
460.728	167.12
461.506	184.12
462.283	212.12
463.061	236.12
463.838	266.12
464.615	296.12
465.393	333.12
466.17	374.12
466.947	416.12
467.724	458.12
468.501	523.12
469.278	580.12
470.055	642.12
470.831	715.12
471.608	812.12
472.385	916.12
473.161	1004.12
473.938	1112.12
474.714	1240.12
475.49	1383.12
476.266	1543.12
477.043	1705.12
477.819	1893.12
478.595	2096.12
479.371	2335.12
480.146	2601.12
480.922	2897.12
481.698	3198.12
482.473	3552.12
483.249	3907.12
484.024	4330.12
484.8	4800.12
485.575	5295.12
486.35	5862.12
487.126	6460.12
487.901	7132.12
488.676	7852.12
489.451	8637.12
490.225	9482.12
491	10378.12
491.775	11374.12
492.55	12475.12
493.324	13549.12
494.099	14622.12
494.873	15832.12
495.647	17111.12
496.422	18391.12
497.196	19605.12
497.97	20980.12
498.744	22321.12
499.518	23543.12
500.292	24666.12
501.066	25798.12
501.839	26761.12
502.613	27548.12
503.387	28251.12
504.16	28827.12
504.934	28964.12
505.707	28963.12
506.48	28842.12
507.253	28582.12
508.027	28074.12
508.8	27598.12
509.573	26976.12
510.346	26103.12
511.118	25205.12
511.891	24199.12
512.664	23305.12
513.437	22290.12
514.209	21320.12
514.982	20391.12
515.754	19409.12
516.526	18535.12
517.298	17693.12
518.071	16973.12
518.843	16306.12
519.615	15637.12
520.387	15064.12
521.159	14405.12
521.93	13859.12
522.702	13372.12
523.474	12756.12
524.245	12175.12
525.017	11645.12
525.788	11199.12
526.56	10671.12
527.331	10171.12
528.102	9679.12
528.873	9204.12
529.644	8691.12
530.415	8256.12
531.186	7846.12
531.957	7403.12
532.728	7016.12
533.498	6628.12
534.269	6262.12
535.039	5911.12
535.81	5570.12
536.58	5268.12
537.351	4904.12
538.121	4665.12
538.891	4441.12
539.661	4204.12
540.431	3928.12
541.201	3749.12
541.971	3546.12
542.741	3372.12
543.51	3190.12
544.28	3037.12
545.05	2900.12
545.819	2764.12
546.588	2607.12
547.358	2482.12
548.127	2341.12
548.896	2238.12
549.665	2117.12
550.434	1999.12
551.203	1887.12
551.972	1808.12
552.741	1690.12
553.51	1596.12
554.278	1507.12
555.047	1420.12
555.815	1334.12
556.584	1261.12
557.352	1192.12
558.121	1137.12
558.889	1049.12
559.657	1005.12
560.425	947.12
561.193	891.12
561.961	836.12
562.729	792.12
563.496	756.12
564.264	710.12
565.032	670.12
565.799	642.12
566.567	598.12
567.334	561.12
568.101	536.12
568.869	504.12
569.636	479.12
570.403	450.12
571.17	421.12
571.937	399.12
572.704	371.12
573.471	360.12
574.237	337.12
575.004	315.12
575.771	296.12
576.537	282.12
577.303	260.12
578.07	252.12
578.836	231.12
579.602	219.12
580.368	202.12
581.134	195.12
581.9	187.12
582.666	177.12
583.432	169.12
584.198	157.12
584.964	151.12
585.729	141.12
586.495	138.12
587.26	134.12
588.025	120.12
588.791	114.12
589.556	110.12
590.321	104.12
591.086	97.12
591.851	93.12
592.616	87.12
593.381	87.12
594.146	82.12
594.911	76.12
595.675	74.12
596.44	69.12
597.204	67.12
597.969	65.12
598.733	60.12
599.497	59.12
600.261	55.12
601.025	54.12
601.79	54.12
602.553	52.12
603.317	46.12
604.081	41.12
604.845	43.12
605.609	46.12
606.372	39.12
607.136	39.12
607.899	38.12
608.662	35.12
609.426	34.12
610.189	35.12
610.952	30.12
611.715	29.12
612.478	28.12
613.241	29.12
614.004	24.12
614.767	26.12
615.529	25.12
616.292	22.12
617.055	22.12
617.817	23.12
618.579	20.12
619.342	20.12
620.104	23.12
620.866	21.12
621.628	19.12
622.39	19.12
623.152	17.12
623.914	18.12
624.676	16.12
625.438	19.12
626.199	16.12
626.961	16.12
627.722	13.12
628.484	15.12
629.245	16.12
630.006	13.12
630.768	15.12
631.529	12.12
632.29	14.12
633.051	13.12
633.812	12.12
634.573	11.12
635.333	12.12
636.094	11.12
636.855	11.12
637.615	9.12
638.376	12.12
639.136	12.12
639.896	9.12
640.657	9.12
641.417	7.12
642.177	7.12
642.937	5.12
643.697	8.12
644.457	9.12
645.216	8.12
645.976	10.12
646.736	7.12
647.495	8.12
648.255	7.12
649.014	6.12
649.774	7.12
650.533	6.12
651.292	7.12
652.051	8.12
652.81	8.12
653.569	7.12
654.328	4.12
655.087	8.12
655.846	4.12
656.604	7.12
657.363	6.12
658.121	7.12
658.88	7.12
659.638	7.12
660.397	7.12
661.155	5.12
661.913	7.12
662.671	6.12
663.429	6.12
664.187	7.12
664.945	6.12
665.703	6.12
666.46	5.12
667.218	6.12
667.976	6.12
668.733	5.12
669.49	6.12
670.248	2.12
671.005	4.12
671.762	4.12
672.519	6.12
673.276	4.12
674.033	3.12
674.79	3.12
675.547	5.12
676.304	6.12
677.06	5.12
677.817	5.12
678.574	5.12
679.33	3.12
680.086	4.12
680.843	3.12
681.599	5.12
682.355	7.12
683.111	5.12
683.867	2.12
684.623	3.12
685.379	4.12
686.135	5.12
686.89	4.12
687.646	4.12
688.402	3.12
689.157	5.12
689.912	4.12
690.668	2.12
691.423	4.12
692.178	3.12
692.933	5.12
693.688	4.12
694.443	4.12
695.198	5.12
695.953	3.12
696.708	6.12
697.462	4.12
698.217	4.12
698.972	4.12
699.726	3.12
700.48	3.12
701.235	3.12
701.989	5.12
702.743	4.12
703.497	3.12
704.251	3.12
705.005	4.12
705.759	4.12
706.513	5.12
707.266	3.12
708.02	5.12
708.774	4.12
709.527	2.12
710.28	5.12
711.034	5.12
711.787	4.12
712.54	5.12
713.293	6.12
714.046	1.12
714.799	3.12
715.552	3.12
716.305	4.12
717.058	3.12
717.81	5.12
718.563	2.12
719.315	2.12
720.068	6.12
720.82	3.12
721.573	2.12
722.325	3.12
723.077	4.12
723.829	3.12
724.581	1.12
725.333	3.12
726.085	3.12
726.836	2.12
727.588	6.12
728.34	3.12
729.091	6.12
729.843	2.12
730.594	4.12
731.346	2.12
732.097	2.12
732.848	5.12
733.599	4.12
734.35	4.12
735.101	4.12
735.852	3.12
736.603	6.12
737.354	4.12
738.104	5.12
738.855	2.12
739.605	7.12
740.356	6.12
741.106	4.12
741.856	4.12
742.607	3.12
743.357	5.12
744.107	6.12
744.857	5.12
745.607	6.12
746.357	6.12
747.106	4.12
747.856	5.12
748.606	4.12
749.355	3.12
750.105	4.12
750.854	4.12
751.603	4.12
752.353	4.12
753.102	6.12
753.851	8.12
754.6	4.12
755.349	7.12
756.098	5.12
756.847	6.12
757.595	7.12
758.344	6.12
759.093	5.12
759.841	7.12
760.589	7.12
761.338	8.12
762.086	5.12
762.834	6.12
763.582	9.12
764.331	9.12
765.079	7.12
765.826	8.12
766.574	6.12
767.322	6.12
768.07	7.12
768.817	9.12
769.565	8.12
770.312	8.12
771.06	6.12
771.807	8.12
772.554	7.12
773.302	10.12
774.049	9.12
774.796	9.12
775.543	8.12
776.29	10.12
777.036	9.12
777.783	10.12
778.53	7.12
779.276	9.12
780.023	8.12
780.769	5.12
781.516	10.12
782.262	9.12
783.008	10.12
783.754	9.12
784.5	9.12
785.246	9.12
785.992	10.12
786.738	9.12
787.484	9.12
788.23	11.12
788.975	9.12
789.721	10.12
790.466	9.12
791.212	9.12
791.957	9.12
792.702	9.12
793.447	8.12
794.193	6.12
794.938	9.12
795.683	7.12
796.427	7.12
797.172	9.12
797.917	7.12
798.662	9.12
799.406	7.12
800.151	9.12
800.895	9.12
801.64	7.12
802.384	8.12
803.128	6.12
803.872	7.12
804.616	6.12
805.36	7.12
806.104	7.12
806.848	4.12
807.592	4.12
808.336	5.12
809.079	5.12
809.823	5.12
810.566	6.12
811.31	5.12
812.053	5.12
812.796	7.12
813.539	5.12
814.283	6.12
815.026	7.12
815.769	4.12
816.511	8.12
817.254	6.12
817.997	5.12
818.74	6.12
819.482	5.12
820.225	3.12
820.967	4.12
821.71	4.12
822.452	5.12
823.194	3.12
823.936	3.12
824.678	3.12
825.42	2.12
826.162	5.12
826.904	4.12
827.646	4.12
828.388	4.12
829.129	4.12
829.871	4.12
830.612	3.12
831.354	6.12
832.095	2.12
832.836	3.12
833.577	3.12
834.319	3.12
835.06	3.12
835.801	2.12
836.542	5.12
837.282	4.12
838.023	4.12
838.764	4.12
839.504	4.12
840.245	4.12
840.985	3.12
841.726	1.12
842.466	2.12
843.206	5.12
843.946	3.12
844.687	4.12
845.427	3.12
846.166	2.12
846.906	4.12
847.646	3.12
848.386	1.12
849.125	4.12
849.865	4.12
850.605	6.12
851.344	3.12
852.083	2.12
852.823	3.12
853.562	1.12
854.301	5.12
855.04	2.12
855.779	1.12
856.518	3.12
857.257	3.12
857.995	3.12
858.734	1.12
859.473	3.12
860.211	2.12
860.95	2.12
861.688	4.12
862.426	1.12
863.165	1.12
863.903	1.12
864.641	2.12
865.379	2.12
866.117	1.12
866.855	1.12
867.593	1.12
868.33	3.12
869.068	1.12
869.806	-0.88
870.543	1.12
871.28	0.12
872.018	1.12
872.755	3.12
873.492	2.12
874.229	1.12
874.967	-0.88
875.703	1.12
876.44	0.12
877.177	2.12
877.914	-0.88
878.651	1.12
879.387	1.12
880.124	0.12
880.86	1.12
881.597	0.12
882.333	0.12
883.069	0.12
883.806	1.12
884.542	2.12
885.278	2.12
886.014	1.12
886.749	2.12
887.485	2.12
888.221	3.12
888.957	0.12
889.692	1.12
890.428	1.12
891.163	1.12
891.899	4.12
892.634	0.12
893.369	1.12
894.104	0.12
894.839	2.12
895.574	2.12
896.309	0.12
897.044	3.12
897.779	0.12
898.514	2.12
899.248	1.12
899.983	0.12
900.717	1.12
901.452	1.12
902.186	1.12
902.92	1.12
903.654	0.12
904.389	2.12
905.123	0.12
905.857	2.12
906.59	1.12
907.324	3.12
908.058	2.12
908.792	1.12
909.525	1.12
910.259	1.12
910.992	0.12
911.726	0.12
912.459	0.12
913.192	0.12
913.925	-0.88
914.658	0.12
915.391	0.12
916.124	0.12
916.857	-0.88
917.59	1.12
918.323	-0.88
919.055	-0.88
919.788	0.12
920.521	1.12
921.253	0.12
921.985	2.12
922.718	-0.88
923.45	0.12
924.182	0.12
924.914	2.12
925.646	2.12
926.378	1.12
927.11	1.12
927.841	0.12
928.573	-1.88
929.305	-0.88
930.036	1.12
930.768	1.12
931.499	2.12
932.23	1.12
932.962	-4.88
933.693	3.12
934.424	0.12
935.155	2.12
935.886	0.12
936.617	0.12
937.348	1.12
938.078	0.12
938.809	0.12
939.54	1.12
940.27	-0.88
941.001	-1.88
941.731	-0.88
942.461	1.12
943.191	0.12
943.922	0.12
944.652	1.12
945.382	-0.88
946.112	0.12
946.841	0.12
947.571	-0.88
948.301	1.12
949.031	1.12
949.76	1.12
950.49	-0.88
951.219	0.12
951.948	2.12
952.678	0.12
953.407	2.12
954.136	-0.88
954.865	-0.88
955.594	1.12
956.323	1.12
957.052	1.12
957.78	0.12
958.509	3.12
959.238	1.12
959.966	2.12
960.695	1.12
961.423	-0.88
962.151	0.12
962.88	0.12
963.608	2.12
964.336	-0.88
965.064	-1.88
965.792	3.12
966.52	2.12
967.247	0.12
967.975	0.12
968.703	-1.88
969.43	0.12
970.158	0.12
970.885	0.12
971.613	0.12
972.34	1.12
973.067	0.12
973.794	0.12
974.521	0.12
975.248	-0.88
975.975	1.12
976.702	-1.88
977.429	0.12
978.156	0.12
978.882	2.12
979.609	1.12
980.335	0.12
981.062	1.12
981.788	0.12
982.514	0.12
983.24	2.12
983.967	1.12
984.693	0.12
985.419	0.12
986.144	0.12
986.87	-0.88
987.596	0.12
988.322	0.12
989.047	1.12
989.773	1.12
990.498	-1.88
991.224	1.12
991.949	0.12
992.674	-1.88
993.399	-0.88
994.124	1.12
994.849	3.12
995.574	1.12
996.299	0.12
997.024	0.12
997.749	-0.88
998.473	1.12
999.198	-2.88
999.922	0.12
1000.647	0.12
1001.371	5.12
1002.095	-0.88
1002.82	-1.88
1003.544	-2.88
1004.268	2.12
1004.992	-0.88
1005.716	0.12
1006.439	0.12
1007.163	3.12
1007.887	2.12
1008.611	0.12
1009.334	0.12
1010.058	1.12
1010.781	1.12
1011.504	1.12
1012.228	-0.88
1012.951	0.12
1013.674	-0.88
1014.397	-0.88
1015.12	2.12
