节点500_285_QEPB04081__644__15-06-16-041.txt的数据

Date: Wed Nov 12 15:06:16 CST 2025
User: PC
Spectrometer: QEPB0408
触发模式: 0
积分时间 (秒): 1.000000E-2
Scans to average: 1
启用暗噪声校正: true
启用非线性校正: false
滑动平均宽度: 0
X轴模式: Wavelengths
Number of Pixels in Spectrum: 1044
>>>>>Begin Spectral Data<<<<<
220.843	1.25
221.644	0.25
222.444	1.25
223.244	2.25
224.045	2.25
224.845	2.25
225.645	5.25
226.445	1.25
227.245	0.25
228.045	3.25
228.845	3.25
229.645	5.25
230.444	2.25
231.244	2.25
232.043	4.25
232.843	4.25
233.642	3.25
234.442	3.25
235.241	5.25
236.04	3.25
236.839	6.25
237.638	5.25
238.437	4.25
239.236	6.25
240.035	4.25
240.833	5.25
241.632	6.25
242.43	5.25
243.229	3.25
244.027	4.25
244.826	5.25
245.624	5.25
246.422	7.25
247.22	4.25
248.018	5.25
248.816	5.25
249.614	3.25
250.412	4.25
251.21	7.25
252.007	6.25
252.805	6.25
253.602	5.25
254.4	7.25
255.197	6.25
255.994	10.25
256.791	7.25
257.589	8.25
258.386	7.25
259.183	8.25
259.979	9.25
260.776	9.25
261.573	10.25
262.37	10.25
263.166	10.25
263.963	8.25
264.759	10.25
265.556	12.25
266.352	9.25
267.148	12.25
267.944	14.25
268.74	13.25
269.536	11.25
270.332	12.25
271.128	13.25
271.924	12.25
272.719	16.25
273.515	18.25
274.311	14.25
275.106	12.25
275.901	15.25
276.697	15.25
277.492	16.25
278.287	14.25
279.082	17.25
279.877	14.25
280.672	16.25
281.467	16.25
282.262	17.25
283.056	19.25
283.851	19.25
284.646	18.25
285.44	18.25
286.234	18.25
287.029	17.25
287.823	16.25
288.617	16.25
289.411	19.25
290.205	21.25
290.999	15.25
291.793	17.25
292.587	15.25
293.381	17.25
294.174	16.25
294.968	18.25
295.761	14.25
296.555	14.25
297.348	14.25
298.141	15.25
298.935	16.25
299.728	16.25
300.521	14.25
301.314	13.25
302.107	12.25
302.899	13.25
303.692	15.25
304.485	11.25
305.277	12.25
306.07	12.25
306.862	13.25
307.655	10.25
308.447	12.25
309.239	13.25
310.031	10.25
310.823	12.25
311.615	12.25
312.407	11.25
313.199	9.25
313.991	8.25
314.783	8.25
315.574	7.25
316.366	9.25
317.157	10.25
317.949	9.25
318.74	8.25
319.531	8.25
320.322	10.25
321.113	6.25
321.904	9.25
322.695	7.25
323.486	9.25
324.277	8.25
325.068	7.25
325.858	6.25
326.649	6.25
327.439	5.25
328.23	7.25
329.02	6.25
329.81	8.25
330.6	7.25
331.391	6.25
332.181	7.25
332.971	7.25
333.76	5.25
334.55	5.25
335.34	6.25
336.13	5.25
336.919	6.25
337.709	5.25
338.498	3.25
339.287	6.25
340.077	5.25
340.866	6.25
341.655	6.25
342.444	6.25
343.233	5.25
344.022	5.25
344.811	6.25
345.6	6.25
346.388	5.25
347.177	5.25
347.965	6.25
348.754	6.25
349.542	5.25
350.33	6.25
351.119	4.25
351.907	8.25
352.695	7.25
353.483	5.25
354.271	6.25
355.059	6.25
355.846	8.25
356.634	7.25
357.422	4.25
358.209	7.25
358.997	5.25
359.784	6.25
360.571	6.25
361.359	6.25
362.146	6.25
362.933	4.25
363.72	5.25
364.507	3.25
365.294	5.25
366.081	5.25
366.867	5.25
367.654	6.25
368.44	5.25
369.227	3.25
370.013	4.25
370.8	7.25
371.586	3.25
372.372	5.25
373.158	5.25
373.944	5.25
374.73	5.25
375.516	5.25
376.302	7.25
377.088	4.25
377.873	5.25
378.659	4.25
379.445	3.25
380.23	4.25
381.015	5.25
381.801	5.25
382.586	6.25
383.371	5.25
384.156	5.25
384.941	4.25
385.726	5.25
386.511	4.25
387.296	6.25
388.08	6.25
388.865	6.25
389.649	5.25
390.434	5.25
391.218	4.25
392.003	5.25
392.787	5.25
393.571	5.25
394.355	8.25
395.139	7.25
395.923	5.25
396.707	7.25
397.491	6.25
398.274	6.25
399.058	5.25
399.842	6.25
400.625	8.25
401.408	7.25
402.192	9.25
402.975	4.25
403.758	10.25
404.541	7.25
405.324	9.25
406.107	6.25
406.89	7.25
407.673	9.25
408.456	6.25
409.238	7.25
410.021	7.25
410.803	8.25
411.586	7.25
412.368	9.25
413.151	8.25
413.933	9.25
414.715	10.25
415.497	8.25
416.279	9.25
417.061	11.25
417.843	12.25
418.624	9.25
419.406	7.25
420.188	9.25
420.969	10.25
421.751	10.25
422.532	10.25
423.313	10.25
424.095	13.25
424.876	9.25
425.657	11.25
426.438	11.25
427.219	12.25
428	12.25
428.78	12.25
429.561	13.25
430.342	12.25
431.122	14.25
431.903	14.25
432.683	12.25
433.464	15.25
434.244	15.25
435.024	16.25
435.804	15.25
436.584	18.25
437.364	19.25
438.144	22.25
438.924	23.25
439.704	21.25
440.483	25.25
441.263	23.25
442.042	25.25
442.822	27.25
443.601	27.25
444.38	31.25
445.16	34.25
445.939	33.25
446.718	39.25
447.497	39.25
448.276	45.25
449.054	47.25
449.833	50.25
450.612	58.25
451.391	60.25
452.169	65.25
452.948	67.25
453.726	80.25
454.504	89.25
455.282	95.25
456.061	106.25
456.839	119.25
457.617	133.25
458.395	143.25
459.172	168.25
459.95	188.25
460.728	200.25
461.506	226.25
462.283	259.25
463.061	286.25
463.838	315.25
464.615	356.25
465.393	388.25
466.17	428.25
466.947	477.25
467.724	539.25
468.501	588.25
469.278	654.25
470.055	724.25
470.831	802.25
471.608	900.25
472.385	989.25
473.161	1085.25
473.938	1190.25
474.714	1335.25
475.49	1468.25
476.266	1602.25
477.043	1760.25
477.819	1947.25
478.595	2147.25
479.371	2324.25
480.146	2574.25
480.922	2830.25
481.698	3090.25
482.473	3377.25
483.249	3715.25
484.024	4054.25
484.8	4440.25
485.575	4857.25
486.35	5297.25
487.126	5787.25
487.901	6273.25
488.676	6878.25
489.451	7503.25
490.225	8140.25
491	8847.25
491.775	9646.25
492.55	10474.25
493.324	11346.25
494.099	12166.25
494.873	13088.25
495.647	14151.25
496.422	15133.25
497.196	16196.25
497.97	17190.25
498.744	18349.25
499.518	19394.25
500.292	20472.25
501.066	21480.25
501.839	22409.25
502.613	23379.25
503.387	24193.25
504.16	24891.25
504.934	25320.25
505.707	25592.25
506.48	25890.25
507.253	25858.25
508.027	25872.25
508.8	25740.25
509.573	25498.25
510.346	25012.25
511.118	24521.25
511.891	23799.25
512.664	23116.25
513.437	22431.25
514.209	21537.25
514.982	20823.25
515.754	19914.25
516.526	19051.25
517.298	18370.25
518.071	17556.25
518.843	16873.25
519.615	16262.25
520.387	15637.25
521.159	14990.25
521.93	14342.25
522.702	13856.25
523.474	13255.25
524.245	12700.25
525.017	12145.25
525.788	11655.25
526.56	11133.25
527.331	10682.25
528.102	10217.25
528.873	9756.25
529.644	9265.25
530.415	8910.25
531.186	8430.25
531.957	8031.25
532.728	7611.25
533.498	7259.25
534.269	6833.25
535.039	6535.25
535.81	6142.25
536.58	5796.25
537.351	5444.25
538.121	5169.25
538.891	4854.25
539.661	4625.25
540.431	4380.25
541.201	4137.25
541.971	3913.25
542.741	3717.25
543.51	3545.25
544.28	3344.25
545.05	3176.25
545.819	3041.25
546.588	2888.25
547.358	2761.25
548.127	2610.25
548.896	2476.25
549.665	2348.25
550.434	2221.25
551.203	2114.25
551.972	2002.25
552.741	1897.25
553.51	1801.25
554.278	1712.25
555.047	1603.25
555.815	1510.25
556.584	1432.25
557.352	1352.25
558.121	1286.25
558.889	1217.25
559.657	1142.25
560.425	1076.25
561.193	1018.25
561.961	947.25
562.729	904.25
563.496	865.25
564.264	813.25
565.032	757.25
565.799	724.25
566.567	689.25
567.334	646.25
568.101	615.25
568.869	573.25
569.636	540.25
570.403	515.25
571.17	477.25
571.937	459.25
572.704	429.25
573.471	408.25
574.237	385.25
575.004	360.25
575.771	341.25
576.537	316.25
577.303	304.25
578.07	277.25
578.836	269.25
579.602	255.25
580.368	242.25
581.134	228.25
581.9	208.25
582.666	198.25
583.432	192.25
584.198	187.25
584.964	174.25
585.729	166.25
586.495	158.25
587.26	146.25
588.025	145.25
588.791	129.25
589.556	125.25
590.321	119.25
591.086	113.25
591.851	105.25
592.616	105.25
593.381	94.25
594.146	90.25
594.911	88.25
595.675	82.25
596.44	77.25
597.204	74.25
597.969	70.25
598.733	69.25
599.497	64.25
600.261	60.25
601.025	64.25
601.79	56.25
602.553	58.25
603.317	50.25
604.081	52.25
604.845	49.25
605.609	42.25
606.372	46.25
607.136	43.25
607.899	41.25
608.662	38.25
609.426	38.25
610.189	36.25
610.952	33.25
611.715	35.25
612.478	31.25
613.241	31.25
614.004	26.25
614.767	28.25
615.529	26.25
616.292	26.25
617.055	27.25
617.817	21.25
618.579	22.25
619.342	22.25
620.104	24.25
620.866	24.25
621.628	18.25
622.39	20.25
623.152	19.25
623.914	18.25
624.676	16.25
625.438	19.25
626.199	14.25
626.961	15.25
627.722	16.25
628.484	13.25
629.245	15.25
630.006	15.25
630.768	13.25
631.529	14.25
632.29	13.25
633.051	13.25
633.812	9.25
634.573	12.25
635.333	11.25
636.094	11.25
636.855	12.25
637.615	11.25
638.376	12.25
639.136	10.25
639.896	8.25
640.657	10.25
641.417	9.25
642.177	10.25
642.937	10.25
643.697	7.25
644.457	10.25
645.216	10.25
645.976	8.25
646.736	8.25
647.495	7.25
648.255	7.25
649.014	9.25
649.774	6.25
650.533	9.25
651.292	9.25
652.051	6.25
652.81	5.25
653.569	5.25
654.328	6.25
655.087	7.25
655.846	4.25
656.604	6.25
657.363	6.25
658.121	7.25
658.88	4.25
659.638	3.25
660.397	5.25
661.155	6.25
661.913	5.25
662.671	4.25
663.429	6.25
664.187	5.25
664.945	4.25
665.703	5.25
666.46	6.25
667.218	7.25
667.976	4.25
668.733	5.25
669.49	2.25
670.248	5.25
671.005	6.25
671.762	4.25
672.519	4.25
673.276	7.25
674.033	4.25
674.79	5.25
675.547	3.25
676.304	3.25
677.06	5.25
677.817	5.25
678.574	4.25
679.33	6.25
680.086	5.25
680.843	5.25
681.599	3.25
682.355	3.25
683.111	3.25
683.867	6.25
684.623	6.25
685.379	3.25
686.135	4.25
686.89	3.25
687.646	2.25
688.402	2.25
689.157	6.25
689.912	3.25
690.668	5.25
691.423	5.25
692.178	4.25
692.933	2.25
693.688	6.25
694.443	4.25
695.198	5.25
695.953	5.25
696.708	2.25
697.462	5.25
698.217	4.25
698.972	3.25
699.726	3.25
700.48	3.25
701.235	5.25
701.989	2.25
702.743	3.25
703.497	5.25
704.251	4.25
705.005	4.25
705.759	3.25
706.513	4.25
707.266	3.25
708.02	4.25
708.774	2.25
709.527	4.25
710.28	2.25
711.034	3.25
711.787	4.25
712.54	1.25
713.293	3.25
714.046	4.25
714.799	3.25
715.552	1.25
716.305	4.25
717.058	6.25
717.81	5.25
718.563	6.25
719.315	3.25
720.068	3.25
720.82	3.25
721.573	2.25
722.325	5.25
723.077	1.25
723.829	5.25
724.581	2.25
725.333	2.25
726.085	4.25
726.836	1.25
727.588	3.25
728.34	4.25
729.091	3.25
729.843	3.25
730.594	5.25
731.346	5.25
732.097	4.25
732.848	5.25
733.599	7.25
734.35	2.25
735.101	4.25
735.852	3.25
736.603	5.25
737.354	4.25
738.104	5.25
738.855	3.25
739.605	4.25
740.356	5.25
741.106	5.25
741.856	5.25
742.607	8.25
743.357	4.25
744.107	5.25
744.857	4.25
745.607	6.25
746.357	5.25
747.106	5.25
747.856	2.25
748.606	5.25
749.355	5.25
750.105	3.25
750.854	5.25
751.603	5.25
752.353	3.25
753.102	5.25
753.851	4.25
754.6	7.25
755.349	7.25
756.098	6.25
756.847	3.25
757.595	4.25
758.344	6.25
759.093	6.25
759.841	5.25
760.589	3.25
761.338	5.25
762.086	5.25
762.834	7.25
763.582	8.25
764.331	7.25
765.079	6.25
765.826	6.25
766.574	6.25
767.322	8.25
768.07	9.25
768.817	7.25
769.565	6.25
770.312	7.25
771.06	7.25
771.807	8.25
772.554	7.25
773.302	9.25
774.049	7.25
774.796	4.25
775.543	8.25
776.29	11.25
777.036	9.25
777.783	7.25
778.53	8.25
779.276	6.25
780.023	9.25
780.769	7.25
781.516	9.25
782.262	9.25
783.008	9.25
783.754	8.25
784.5	9.25
785.246	8.25
785.992	10.25
786.738	9.25
787.484	6.25
788.23	8.25
788.975	9.25
789.721	9.25
790.466	7.25
791.212	9.25
791.957	10.25
792.702	7.25
793.447	9.25
794.193	9.25
794.938	10.25
795.683	8.25
796.427	7.25
797.172	6.25
797.917	6.25
798.662	8.25
799.406	6.25
800.151	7.25
800.895	6.25
801.64	9.25
802.384	7.25
803.128	4.25
803.872	5.25
804.616	4.25
805.36	4.25
806.104	7.25
806.848	6.25
807.592	7.25
808.336	4.25
809.079	6.25
809.823	7.25
810.566	6.25
811.31	4.25
812.053	4.25
812.796	8.25
813.539	6.25
814.283	7.25
815.026	6.25
815.769	4.25
816.511	6.25
817.254	3.25
817.997	4.25
818.74	7.25
819.482	6.25
820.225	4.25
820.967	4.25
821.71	3.25
822.452	3.25
823.194	2.25
823.936	4.25
824.678	4.25
825.42	2.25
826.162	2.25
826.904	5.25
827.646	3.25
828.388	6.25
829.129	4.25
829.871	6.25
830.612	4.25
831.354	1.25
832.095	5.25
832.836	3.25
833.577	3.25
834.319	5.25
835.06	2.25
835.801	4.25
836.542	3.25
837.282	4.25
838.023	2.25
838.764	4.25
839.504	4.25
840.245	2.25
840.985	4.25
841.726	2.25
842.466	4.25
843.206	2.25
843.946	1.25
844.687	2.25
845.427	1.25
846.166	3.25
846.906	4.25
847.646	2.25
848.386	3.25
849.125	3.25
849.865	2.25
850.605	1.25
851.344	4.25
852.083	1.25
852.823	3.25
853.562	2.25
854.301	3.25
855.04	2.25
855.779	5.25
856.518	3.25
857.257	2.25
857.995	1.25
858.734	2.25
859.473	2.25
860.211	3.25
860.95	0.25
861.688	3.25
862.426	2.25
863.165	2.25
863.903	1.25
864.641	2.25
865.379	2.25
866.117	2.25
866.855	2.25
867.593	3.25
868.33	3.25
869.068	0.25
869.806	3.25
870.543	3.25
871.28	4.25
872.018	0.25
872.755	2.25
873.492	0.25
874.229	0.25
874.967	2.25
875.703	1.25
876.44	0.25
877.177	0.25
877.914	2.25
878.651	2.25
879.387	1.25
880.124	1.25
880.86	3.25
881.597	0.25
882.333	2.25
883.069	1.25
883.806	1.25
884.542	2.25
885.278	1.25
886.014	1.25
886.749	1.25
887.485	0.25
888.221	3.25
888.957	0.25
889.692	3.25
890.428	0.25
891.163	-0.75
891.899	1.25
892.634	0.25
893.369	1.25
894.104	-0.75
894.839	1.25
895.574	0.25
896.309	2.25
897.044	1.25
897.779	1.25
898.514	2.25
899.248	0.25
899.983	1.25
900.717	1.25
901.452	1.25
902.186	0.25
902.92	1.25
903.654	1.25
904.389	2.25
905.123	1.25
905.857	2.25
906.59	1.25
907.324	4.25
908.058	0.25
908.792	-0.75
909.525	1.25
910.259	-0.75
910.992	2.25
911.726	0.25
912.459	3.25
913.192	-1.75
913.925	0.25
914.658	2.25
915.391	1.25
916.124	1.25
916.857	-0.75
917.59	-0.75
918.323	-0.75
919.055	1.25
919.788	1.25
920.521	2.25
921.253	1.25
921.985	0.25
922.718	3.25
923.45	0.25
924.182	0.25
924.914	2.25
925.646	-1.75
926.378	-0.75
927.11	-1.75
927.841	-0.75
928.573	-1.75
929.305	-0.75
930.036	1.25
930.768	0.25
931.499	-0.75
932.23	1.25
932.962	1.25
933.693	0.25
934.424	0.25
935.155	2.25
935.886	-1.75
936.617	2.25
937.348	1.25
938.078	3.25
938.809	0.25
939.54	-0.75
940.27	-0.75
941.001	-0.75
941.731	1.25
942.461	1.25
943.191	1.25
943.922	1.25
944.652	-1.75
945.382	-0.75
946.112	1.25
946.841	2.25
947.571	1.25
948.301	1.25
949.031	-0.75
949.76	1.25
950.49	0.25
951.219	1.25
951.948	0.25
952.678	1.25
953.407	-0.75
954.136	1.25
954.865	0.25
955.594	1.25
956.323	-1.75
957.052	2.25
957.78	2.25
958.509	1.25
959.238	2.25
959.966	0.25
960.695	0.25
961.423	0.25
962.151	1.25
962.88	0.25
963.608	1.25
964.336	3.25
965.064	-0.75
965.792	1.25
966.52	0.25
967.247	0.25
967.975	2.25
968.703	-2.75
969.43	1.25
970.158	0.25
970.885	0.25
971.613	0.25
972.34	-0.75
973.067	-0.75
973.794	2.25
974.521	2.25
975.248	-0.75
975.975	3.25
976.702	1.25
977.429	-1.75
978.156	1.25
978.882	1.25
979.609	0.25
980.335	1.25
981.062	0.25
981.788	1.25
982.514	-0.75
983.24	0.25
983.967	0.25
984.693	1.25
985.419	-0.75
986.144	-0.75
986.87	0.25
987.596	-1.75
988.322	0.25
989.047	-1.75
989.773	1.25
990.498	1.25
991.224	0.25
991.949	0.25
992.674	-0.75
993.399	0.25
994.124	0.25
994.849	2.25
995.574	2.25
996.299	0.25
997.024	0.25
997.749	1.25
998.473	1.25
999.198	0.25
999.922	2.25
1000.647	0.25
1001.371	2.25
1002.095	-3.75
1002.82	0.25
1003.544	-1.75
1004.268	0.25
1004.992	2.25
1005.716	0.25
1006.439	2.25
1007.163	1.25
1007.887	2.25
1008.611	0.25
1009.334	1.25
1010.058	0.25
1010.781	0.25
1011.504	-0.75
1012.228	1.25
1012.951	1.25
1013.674	1.25
1014.397	-0.75
1015.12	1.25
