节点500_285_QEPB04081__413__15-02-25-586.txt的数据

Date: Wed Nov 12 15:02:25 CST 2025
User: PC
Spectrometer: QEPB0408
触发模式: 0
积分时间 (秒): 1.000000E-2
Scans to average: 1
启用暗噪声校正: true
启用非线性校正: false
滑动平均宽度: 0
X轴模式: Wavelengths
Number of Pixels in Spectrum: 1044
>>>>>Begin Spectral Data<<<<<
220.843	0.62
221.644	1.62
222.444	1.62
223.244	0.62
224.045	0.62
224.845	0.62
225.645	1.62
226.445	0.62
227.245	3.62
228.045	1.62
228.845	-0.38
229.645	2.62
230.444	2.62
231.244	0.62
232.043	1.62
232.843	1.62
233.642	1.62
234.442	4.62
235.241	3.62
236.04	3.62
236.839	4.62
237.638	4.62
238.437	4.62
239.236	1.62
240.035	2.62
240.833	3.62
241.632	2.62
242.43	5.62
243.229	4.62
244.027	1.62
244.826	5.62
245.624	6.62
246.422	5.62
247.22	3.62
248.018	5.62
248.816	4.62
249.614	6.62
250.412	8.62
251.21	5.62
252.007	7.62
252.805	6.62
253.602	3.62
254.4	9.62
255.197	4.62
255.994	8.62
256.791	7.62
257.589	8.62
258.386	9.62
259.183	7.62
259.979	8.62
260.776	8.62
261.573	7.62
262.37	8.62
263.166	10.62
263.963	13.62
264.759	8.62
265.556	10.62
266.352	10.62
267.148	11.62
267.944	11.62
268.74	14.62
269.536	12.62
270.332	13.62
271.128	13.62
271.924	16.62
272.719	15.62
273.515	15.62
274.311	14.62
275.106	15.62
275.901	15.62
276.697	17.62
277.492	15.62
278.287	13.62
279.082	15.62
279.877	17.62
280.672	16.62
281.467	17.62
282.262	18.62
283.056	14.62
283.851	14.62
284.646	19.62
285.44	15.62
286.234	18.62
287.029	18.62
287.823	16.62
288.617	16.62
289.411	18.62
290.205	19.62
290.999	19.62
291.793	17.62
292.587	17.62
293.381	16.62
294.174	19.62
294.968	14.62
295.761	16.62
296.555	13.62
297.348	15.62
298.141	14.62
298.935	15.62
299.728	13.62
300.521	14.62
301.314	12.62
302.107	13.62
302.899	10.62
303.692	13.62
304.485	12.62
305.277	12.62
306.07	13.62
306.862	12.62
307.655	10.62
308.447	10.62
309.239	9.62
310.031	11.62
310.823	10.62
311.615	9.62
312.407	7.62
313.199	9.62
313.991	7.62
314.783	11.62
315.574	7.62
316.366	7.62
317.157	8.62
317.949	7.62
318.74	7.62
319.531	7.62
320.322	8.62
321.113	7.62
321.904	9.62
322.695	7.62
323.486	7.62
324.277	6.62
325.068	7.62
325.858	7.62
326.649	5.62
327.439	3.62
328.23	7.62
329.02	6.62
329.81	5.62
330.6	3.62
331.391	5.62
332.181	5.62
332.971	4.62
333.76	4.62
334.55	6.62
335.34	8.62
336.13	8.62
336.919	9.62
337.709	5.62
338.498	6.62
339.287	6.62
340.077	6.62
340.866	6.62
341.655	5.62
342.444	8.62
343.233	5.62
344.022	4.62
344.811	7.62
345.6	5.62
346.388	4.62
347.177	5.62
347.965	5.62
348.754	3.62
349.542	5.62
350.33	4.62
351.119	8.62
351.907	7.62
352.695	4.62
353.483	6.62
354.271	6.62
355.059	4.62
355.846	7.62
356.634	2.62
357.422	4.62
358.209	5.62
358.997	5.62
359.784	4.62
360.571	4.62
361.359	4.62
362.146	7.62
362.933	2.62
363.72	6.62
364.507	5.62
365.294	6.62
366.081	6.62
366.867	4.62
367.654	5.62
368.44	4.62
369.227	4.62
370.013	6.62
370.8	6.62
371.586	5.62
372.372	3.62
373.158	5.62
373.944	1.62
374.73	6.62
375.516	3.62
376.302	6.62
377.088	6.62
377.873	3.62
378.659	6.62
379.445	4.62
380.23	4.62
381.015	3.62
381.801	4.62
382.586	5.62
383.371	4.62
384.156	6.62
384.941	4.62
385.726	5.62
386.511	7.62
387.296	4.62
388.08	5.62
388.865	5.62
389.649	6.62
390.434	5.62
391.218	6.62
392.003	7.62
392.787	5.62
393.571	6.62
394.355	6.62
395.139	6.62
395.923	6.62
396.707	6.62
397.491	5.62
398.274	7.62
399.058	8.62
399.842	4.62
400.625	5.62
401.408	5.62
402.192	6.62
402.975	6.62
403.758	5.62
404.541	7.62
405.324	5.62
406.107	6.62
406.89	6.62
407.673	4.62
408.456	8.62
409.238	6.62
410.021	7.62
410.803	6.62
411.586	6.62
412.368	7.62
413.151	7.62
413.933	9.62
414.715	9.62
415.497	9.62
416.279	10.62
417.061	9.62
417.843	9.62
418.624	8.62
419.406	12.62
420.188	9.62
420.969	7.62
421.751	9.62
422.532	9.62
423.313	11.62
424.095	9.62
424.876	11.62
425.657	11.62
426.438	11.62
427.219	10.62
428	11.62
428.78	11.62
429.561	12.62
430.342	12.62
431.122	14.62
431.903	11.62
432.683	14.62
433.464	16.62
434.244	14.62
435.024	17.62
435.804	16.62
436.584	14.62
437.364	18.62
438.144	18.62
438.924	19.62
439.704	18.62
440.483	24.62
441.263	23.62
442.042	29.62
442.822	23.62
443.601	28.62
444.38	28.62
445.16	32.62
445.939	33.62
446.718	36.62
447.497	39.62
448.276	40.62
449.054	45.62
449.833	48.62
450.612	49.62
451.391	57.62
452.169	60.62
452.948	68.62
453.726	72.62
454.504	81.62
455.282	90.62
456.061	100.62
456.839	110.62
457.617	117.62
458.395	139.62
459.172	149.62
459.95	173.62
460.728	186.62
461.506	204.62
462.283	237.62
463.061	260.62
463.838	295.62
464.615	325.62
465.393	372.62
466.17	409.62
466.947	460.62
467.724	511.62
468.501	558.62
469.278	636.62
470.055	692.62
470.831	768.62
471.608	856.62
472.385	944.62
473.161	1052.62
473.938	1183.62
474.714	1303.62
475.49	1433.62
476.266	1583.62
477.043	1751.62
477.819	1941.62
478.595	2129.62
479.371	2368.62
480.146	2596.62
480.922	2858.62
481.698	3142.62
482.473	3455.62
483.249	3796.62
484.024	4177.62
484.8	4583.62
485.575	5012.62
486.35	5503.62
487.126	6051.62
487.901	6605.62
488.676	7237.62
489.451	7907.62
490.225	8637.62
491	9448.62
491.775	10299.62
492.55	11215.62
493.324	12083.62
494.099	13051.62
494.873	14081.62
495.647	15164.62
496.422	16314.62
497.196	17515.62
497.97	18600.62
498.744	19778.62
499.518	20959.62
500.292	22053.62
501.066	23129.62
501.839	24071.62
502.613	25020.62
503.387	25787.62
504.16	26408.62
504.934	26776.62
505.707	27047.62
506.48	27101.62
507.253	27033.62
508.027	26833.62
508.8	26574.62
509.573	26172.62
510.346	25638.62
511.118	24927.62
511.891	24193.62
512.664	23428.62
513.437	22432.62
514.209	21586.62
514.982	20693.62
515.754	19821.62
516.526	18994.62
517.298	18089.62
518.071	17368.62
518.843	16651.62
519.615	16057.62
520.387	15403.62
521.159	14761.62
521.93	14186.62
522.702	13683.62
523.474	13113.62
524.245	12532.62
525.017	11984.62
525.788	11546.62
526.56	10993.62
527.331	10496.62
528.102	10043.62
528.873	9589.62
529.644	9121.62
530.415	8691.62
531.186	8243.62
531.957	7801.62
532.728	7409.62
533.498	7067.62
534.269	6632.62
535.039	6291.62
535.81	5939.62
536.58	5595.62
537.351	5272.62
538.121	4974.62
538.891	4718.62
539.661	4482.62
540.431	4216.62
541.201	3981.62
541.971	3776.62
542.741	3569.62
543.51	3386.62
544.28	3227.62
545.05	3078.62
545.819	2935.62
546.588	2789.62
547.358	2650.62
548.127	2509.62
548.896	2378.62
549.665	2270.62
550.434	2153.62
551.203	2005.62
551.972	1931.62
552.741	1817.62
553.51	1716.62
554.278	1623.62
555.047	1544.62
555.815	1444.62
556.584	1374.62
557.352	1287.62
558.121	1206.62
558.889	1149.62
559.657	1085.62
560.425	1026.62
561.193	961.62
561.961	909.62
562.729	865.62
563.496	814.62
564.264	773.62
565.032	744.62
565.799	690.62
566.567	655.62
567.334	623.62
568.101	584.62
568.869	551.62
569.636	517.62
570.403	485.62
571.17	459.62
571.937	426.62
572.704	418.62
573.471	387.62
574.237	361.62
575.004	344.62
575.771	321.62
576.537	295.62
577.303	288.62
578.07	268.62
578.836	251.62
579.602	241.62
580.368	226.62
581.134	217.62
581.9	198.62
582.666	190.62
583.432	183.62
584.198	172.62
584.964	166.62
585.729	162.62
586.495	151.62
587.26	138.62
588.025	131.62
588.791	123.62
589.556	118.62
590.321	111.62
591.086	107.62
591.851	104.62
592.616	96.62
593.381	92.62
594.146	87.62
594.911	81.62
595.675	74.62
596.44	73.62
597.204	72.62
597.969	69.62
598.733	62.62
599.497	58.62
600.261	61.62
601.025	57.62
601.79	52.62
602.553	53.62
603.317	48.62
604.081	51.62
604.845	46.62
605.609	43.62
606.372	38.62
607.136	39.62
607.899	37.62
608.662	34.62
609.426	37.62
610.189	31.62
610.952	34.62
611.715	33.62
612.478	30.62
613.241	29.62
614.004	25.62
614.767	27.62
615.529	25.62
616.292	24.62
617.055	22.62
617.817	22.62
618.579	23.62
619.342	21.62
620.104	22.62
620.866	22.62
621.628	21.62
622.39	20.62
623.152	19.62
623.914	18.62
624.676	15.62
625.438	14.62
626.199	16.62
626.961	16.62
627.722	13.62
628.484	16.62
629.245	14.62
630.006	11.62
630.768	14.62
631.529	12.62
632.29	11.62
633.051	12.62
633.812	12.62
634.573	11.62
635.333	10.62
636.094	8.62
636.855	11.62
637.615	10.62
638.376	10.62
639.136	8.62
639.896	8.62
640.657	9.62
641.417	9.62
642.177	9.62
642.937	4.62
643.697	8.62
644.457	8.62
645.216	8.62
645.976	9.62
646.736	5.62
647.495	9.62
648.255	8.62
649.014	5.62
649.774	7.62
650.533	5.62
651.292	7.62
652.051	6.62
652.81	5.62
653.569	6.62
654.328	6.62
655.087	7.62
655.846	4.62
656.604	6.62
657.363	3.62
658.121	4.62
658.88	5.62
659.638	5.62
660.397	5.62
661.155	6.62
661.913	7.62
662.671	3.62
663.429	5.62
664.187	4.62
664.945	4.62
665.703	5.62
666.46	6.62
667.218	5.62
667.976	2.62
668.733	4.62
669.49	3.62
670.248	3.62
671.005	5.62
671.762	4.62
672.519	3.62
673.276	3.62
674.033	5.62
674.79	4.62
675.547	3.62
676.304	4.62
677.06	2.62
677.817	2.62
678.574	3.62
679.33	2.62
680.086	4.62
680.843	0.62
681.599	4.62
682.355	2.62
683.111	2.62
683.867	3.62
684.623	2.62
685.379	3.62
686.135	5.62
686.89	4.62
687.646	1.62
688.402	3.62
689.157	3.62
689.912	1.62
690.668	3.62
691.423	3.62
692.178	4.62
692.933	5.62
693.688	0.62
694.443	3.62
695.198	2.62
695.953	4.62
696.708	3.62
697.462	2.62
698.217	3.62
698.972	2.62
699.726	3.62
700.48	1.62
701.235	3.62
701.989	6.62
702.743	4.62
703.497	2.62
704.251	3.62
705.005	2.62
705.759	0.62
706.513	5.62
707.266	3.62
708.02	4.62
708.774	3.62
709.527	3.62
710.28	4.62
711.034	1.62
711.787	3.62
712.54	2.62
713.293	3.62
714.046	4.62
714.799	1.62
715.552	1.62
716.305	2.62
717.058	4.62
717.81	1.62
718.563	1.62
719.315	4.62
720.068	1.62
720.82	1.62
721.573	5.62
722.325	2.62
723.077	4.62
723.829	2.62
724.581	3.62
725.333	2.62
726.085	4.62
726.836	4.62
727.588	1.62
728.34	4.62
729.091	0.62
729.843	1.62
730.594	3.62
731.346	5.62
732.097	3.62
732.848	3.62
733.599	3.62
734.35	2.62
735.101	7.62
735.852	4.62
736.603	4.62
737.354	3.62
738.104	3.62
738.855	4.62
739.605	4.62
740.356	6.62
741.106	3.62
741.856	2.62
742.607	3.62
743.357	3.62
744.107	3.62
744.857	3.62
745.607	4.62
746.357	5.62
747.106	4.62
747.856	4.62
748.606	4.62
749.355	4.62
750.105	4.62
750.854	4.62
751.603	5.62
752.353	5.62
753.102	4.62
753.851	4.62
754.6	5.62
755.349	5.62
756.098	2.62
756.847	5.62
757.595	3.62
758.344	6.62
759.093	8.62
759.841	5.62
760.589	4.62
761.338	8.62
762.086	5.62
762.834	4.62
763.582	5.62
764.331	4.62
765.079	5.62
765.826	8.62
766.574	7.62
767.322	8.62
768.07	6.62
768.817	8.62
769.565	8.62
770.312	8.62
771.06	6.62
771.807	6.62
772.554	8.62
773.302	6.62
774.049	6.62
774.796	8.62
775.543	7.62
776.29	8.62
777.036	8.62
777.783	12.62
778.53	7.62
779.276	9.62
780.023	10.62
780.769	7.62
781.516	8.62
782.262	7.62
783.008	6.62
783.754	7.62
784.5	5.62
785.246	7.62
785.992	9.62
786.738	11.62
787.484	10.62
788.23	11.62
788.975	8.62
789.721	9.62
790.466	9.62
791.212	7.62
791.957	8.62
792.702	5.62
793.447	7.62
794.193	7.62
794.938	5.62
795.683	8.62
796.427	7.62
797.172	6.62
797.917	7.62
798.662	7.62
799.406	8.62
800.151	4.62
800.895	7.62
801.64	7.62
802.384	8.62
803.128	5.62
803.872	6.62
804.616	8.62
805.36	7.62
806.104	7.62
806.848	5.62
807.592	5.62
808.336	6.62
809.079	3.62
809.823	5.62
810.566	6.62
811.31	6.62
812.053	6.62
812.796	4.62
813.539	3.62
814.283	4.62
815.026	3.62
815.769	6.62
816.511	3.62
817.254	1.62
817.997	4.62
818.74	3.62
819.482	4.62
820.225	6.62
820.967	4.62
821.71	4.62
822.452	5.62
823.194	2.62
823.936	5.62
824.678	3.62
825.42	3.62
826.162	4.62
826.904	4.62
827.646	3.62
828.388	3.62
829.129	5.62
829.871	4.62
830.612	1.62
831.354	3.62
832.095	1.62
832.836	4.62
833.577	2.62
834.319	1.62
835.06	2.62
835.801	3.62
836.542	3.62
837.282	1.62
838.023	4.62
838.764	2.62
839.504	4.62
840.245	3.62
840.985	3.62
841.726	6.62
842.466	1.62
843.206	3.62
843.946	2.62
844.687	3.62
845.427	1.62
846.166	2.62
846.906	3.62
847.646	1.62
848.386	2.62
849.125	4.62
849.865	2.62
850.605	4.62
851.344	1.62
852.083	0.62
852.823	4.62
853.562	2.62
854.301	1.62
855.04	0.62
855.779	4.62
856.518	2.62
857.257	0.62
857.995	3.62
858.734	0.62
859.473	4.62
860.211	2.62
860.95	3.62
861.688	2.62
862.426	0.62
863.165	0.62
863.903	2.62
864.641	0.62
865.379	0.62
866.117	-0.38
866.855	1.62
867.593	-0.38
868.33	3.62
869.068	-2.38
869.806	1.62
870.543	1.62
871.28	0.62
872.018	-0.38
872.755	0.62
873.492	1.62
874.229	-0.38
874.967	0.62
875.703	2.62
876.44	0.62
877.177	2.62
877.914	0.62
878.651	0.62
879.387	0.62
880.124	1.62
880.86	-0.38
881.597	0.62
882.333	-1.38
883.069	1.62
883.806	1.62
884.542	0.62
885.278	-1.38
886.014	1.62
886.749	-0.38
887.485	2.62
888.221	0.62
888.957	1.62
889.692	0.62
890.428	-0.38
891.163	1.62
891.899	-0.38
892.634	0.62
893.369	0.62
894.104	2.62
894.839	-0.38
895.574	-0.38
896.309	1.62
897.044	0.62
897.779	1.62
898.514	-0.38
899.248	0.62
899.983	1.62
900.717	0.62
901.452	0.62
902.186	-1.38
902.92	0.62
903.654	1.62
904.389	1.62
905.123	0.62
905.857	-1.38
906.59	1.62
907.324	0.62
908.058	-0.38
908.792	0.62
909.525	2.62
910.259	-2.38
910.992	-2.38
911.726	1.62
912.459	0.62
913.192	0.62
913.925	-0.38
914.658	0.62
915.391	-0.38
916.124	-0.38
916.857	-0.38
917.59	-0.38
918.323	-1.38
919.055	-0.38
919.788	0.62
920.521	0.62
921.253	-0.38
921.985	0.62
922.718	0.62
923.45	-1.38
924.182	-0.38
924.914	-1.38
925.646	1.62
926.378	-1.38
927.11	1.62
927.841	-0.38
928.573	0.62
929.305	1.62
930.036	-1.38
930.768	0.62
931.499	0.62
932.23	0.62
932.962	-1.38
933.693	0.62
934.424	-0.38
935.155	1.62
935.886	-1.38
936.617	-1.38
937.348	-0.38
938.078	-0.38
938.809	0.62
939.54	-1.38
940.27	-0.38
941.001	-0.38
941.731	1.62
942.461	-0.38
943.191	-2.38
943.922	-1.38
944.652	-0.38
945.382	1.62
946.112	1.62
946.841	-0.38
947.571	-1.38
948.301	1.62
949.031	-0.38
949.76	-1.38
950.49	2.62
951.219	-0.38
951.948	-2.38
952.678	0.62
953.407	0.62
954.136	-2.38
954.865	0.62
955.594	-0.38
956.323	-0.38
957.052	-0.38
957.78	-0.38
958.509	0.62
959.238	0.62
959.966	-0.38
960.695	-0.38
961.423	-1.38
962.151	0.62
962.88	-0.38
963.608	0.62
964.336	-1.38
965.064	0.62
965.792	3.62
966.52	-0.38
967.247	1.62
967.975	-2.38
968.703	-1.38
969.43	-1.38
970.158	1.62
970.885	0.62
971.613	-0.38
972.34	2.62
973.067	-1.38
973.794	-1.38
974.521	-1.38
975.248	-1.38
975.975	0.62
976.702	-0.38
977.429	1.62
978.156	0.62
978.882	1.62
979.609	0.62
980.335	0.62
981.062	0.62
981.788	-0.38
982.514	-0.38
983.24	-1.38
983.967	-0.38
984.693	1.62
985.419	-0.38
986.144	0.62
986.87	1.62
987.596	0.62
988.322	0.62
989.047	-1.38
989.773	0.62
990.498	-0.38
991.224	1.62
991.949	-1.38
992.674	0.62
993.399	0.62
994.124	0.62
994.849	-1.38
995.574	0.62
996.299	0.62
997.024	-1.38
997.749	-1.38
998.473	-0.38
999.198	-0.38
999.922	0.62
1000.647	-0.38
1001.371	5.62
1002.095	-1.38
1002.82	-1.38
1003.544	-0.38
1004.268	-1.38
1004.992	1.62
1005.716	2.62
1006.439	0.62
1007.163	0.62
1007.887	1.62
1008.611	-2.38
1009.334	0.62
1010.058	-0.38
1010.781	-0.38
1011.504	0.62
1012.228	-0.38
1012.951	-0.38
1013.674	-0.38
1014.397	-0.38
1015.12	-1.38
