节点500_285_QEPB04081__864__15-09-55-645.txt的数据

Date: Wed Nov 12 15:09:55 CST 2025
User: PC
Spectrometer: QEPB0408
触发模式: 0
积分时间 (秒): 1.000000E-2
Scans to average: 1
启用暗噪声校正: true
启用非线性校正: false
滑动平均宽度: 0
X轴模式: Wavelengths
Number of Pixels in Spectrum: 1044
>>>>>Begin Spectral Data<<<<<
220.843	1.38
221.644	1.38
222.444	2.38
223.244	3.38
224.045	4.38
224.845	0.38
225.645	3.38
226.445	3.38
227.245	3.38
228.045	6.38
228.845	1.38
229.645	2.38
230.444	3.38
231.244	3.38
232.043	2.38
232.843	2.38
233.642	3.38
234.442	1.38
235.241	4.38
236.04	4.38
236.839	5.38
237.638	6.38
238.437	5.38
239.236	4.38
240.035	3.38
240.833	3.38
241.632	3.38
242.43	6.38
243.229	3.38
244.027	6.38
244.826	4.38
245.624	5.38
246.422	6.38
247.22	5.38
248.018	6.38
248.816	6.38
249.614	3.38
250.412	5.38
251.21	5.38
252.007	7.38
252.805	6.38
253.602	8.38
254.4	6.38
255.197	2.38
255.994	8.38
256.791	5.38
257.589	10.38
258.386	6.38
259.183	10.38
259.979	9.38
260.776	9.38
261.573	11.38
262.37	9.38
263.166	9.38
263.963	11.38
264.759	11.38
265.556	10.38
266.352	9.38
267.148	14.38
267.944	12.38
268.74	12.38
269.536	11.38
270.332	12.38
271.128	14.38
271.924	11.38
272.719	16.38
273.515	13.38
274.311	12.38
275.106	14.38
275.901	14.38
276.697	14.38
277.492	12.38
278.287	16.38
279.082	14.38
279.877	17.38
280.672	15.38
281.467	17.38
282.262	16.38
283.056	17.38
283.851	17.38
284.646	18.38
285.44	17.38
286.234	16.38
287.029	18.38
287.823	17.38
288.617	18.38
289.411	18.38
290.205	16.38
290.999	15.38
291.793	18.38
292.587	16.38
293.381	18.38
294.174	17.38
294.968	13.38
295.761	16.38
296.555	16.38
297.348	14.38
298.141	13.38
298.935	17.38
299.728	14.38
300.521	17.38
301.314	15.38
302.107	13.38
302.899	12.38
303.692	14.38
304.485	12.38
305.277	11.38
306.07	12.38
306.862	14.38
307.655	10.38
308.447	13.38
309.239	9.38
310.031	13.38
310.823	13.38
311.615	11.38
312.407	10.38
313.199	7.38
313.991	10.38
314.783	7.38
315.574	7.38
316.366	8.38
317.157	9.38
317.949	8.38
318.74	9.38
319.531	7.38
320.322	8.38
321.113	9.38
321.904	9.38
322.695	7.38
323.486	7.38
324.277	6.38
325.068	7.38
325.858	9.38
326.649	9.38
327.439	6.38
328.23	5.38
329.02	8.38
329.81	6.38
330.6	7.38
331.391	6.38
332.181	7.38
332.971	6.38
333.76	7.38
334.55	6.38
335.34	5.38
336.13	7.38
336.919	6.38
337.709	7.38
338.498	6.38
339.287	5.38
340.077	7.38
340.866	7.38
341.655	6.38
342.444	6.38
343.233	5.38
344.022	4.38
344.811	6.38
345.6	7.38
346.388	5.38
347.177	4.38
347.965	3.38
348.754	4.38
349.542	7.38
350.33	5.38
351.119	5.38
351.907	5.38
352.695	4.38
353.483	7.38
354.271	7.38
355.059	5.38
355.846	7.38
356.634	4.38
357.422	4.38
358.209	3.38
358.997	6.38
359.784	4.38
360.571	5.38
361.359	7.38
362.146	6.38
362.933	5.38
363.72	7.38
364.507	4.38
365.294	6.38
366.081	5.38
366.867	6.38
367.654	7.38
368.44	6.38
369.227	5.38
370.013	5.38
370.8	5.38
371.586	4.38
372.372	4.38
373.158	6.38
373.944	5.38
374.73	6.38
375.516	7.38
376.302	4.38
377.088	5.38
377.873	6.38
378.659	4.38
379.445	3.38
380.23	4.38
381.015	6.38
381.801	4.38
382.586	7.38
383.371	5.38
384.156	5.38
384.941	4.38
385.726	4.38
386.511	6.38
387.296	6.38
388.08	6.38
388.865	6.38
389.649	6.38
390.434	4.38
391.218	2.38
392.003	4.38
392.787	6.38
393.571	7.38
394.355	7.38
395.139	7.38
395.923	7.38
396.707	7.38
397.491	7.38
398.274	7.38
399.058	5.38
399.842	8.38
400.625	7.38
401.408	5.38
402.192	5.38
402.975	9.38
403.758	6.38
404.541	7.38
405.324	6.38
406.107	8.38
406.89	8.38
407.673	8.38
408.456	7.38
409.238	7.38
410.021	8.38
410.803	8.38
411.586	7.38
412.368	9.38
413.151	9.38
413.933	9.38
414.715	9.38
415.497	10.38
416.279	7.38
417.061	10.38
417.843	8.38
418.624	9.38
419.406	9.38
420.188	11.38
420.969	7.38
421.751	11.38
422.532	8.38
423.313	11.38
424.095	11.38
424.876	11.38
425.657	12.38
426.438	11.38
427.219	11.38
428	15.38
428.78	15.38
429.561	16.38
430.342	12.38
431.122	12.38
431.903	14.38
432.683	15.38
433.464	15.38
434.244	15.38
435.024	14.38
435.804	14.38
436.584	18.38
437.364	17.38
438.144	19.38
438.924	21.38
439.704	23.38
440.483	23.38
441.263	24.38
442.042	25.38
442.822	27.38
443.601	30.38
444.38	31.38
445.16	29.38
445.939	36.38
446.718	38.38
447.497	40.38
448.276	47.38
449.054	48.38
449.833	56.38
450.612	61.38
451.391	66.38
452.169	73.38
452.948	79.38
453.726	81.38
454.504	92.38
455.282	98.38
456.061	112.38
456.839	121.38
457.617	142.38
458.395	158.38
459.172	170.38
459.95	197.38
460.728	216.38
461.506	236.38
462.283	264.38
463.061	290.38
463.838	329.38
464.615	361.38
465.393	403.38
466.17	442.38
466.947	491.38
467.724	542.38
468.501	611.38
469.278	679.38
470.055	733.38
470.831	820.38
471.608	902.38
472.385	992.38
473.161	1101.38
473.938	1211.38
474.714	1335.38
475.49	1487.38
476.266	1614.38
477.043	1757.38
477.819	1936.38
478.595	2126.38
479.371	2320.38
480.146	2545.38
480.922	2781.38
481.698	3057.38
482.473	3294.38
483.249	3621.38
484.024	3937.38
484.8	4306.38
485.575	4674.38
486.35	5112.38
487.126	5539.38
487.901	6039.38
488.676	6567.38
489.451	7116.38
490.225	7753.38
491	8391.38
491.775	9132.38
492.55	9875.38
493.324	10634.38
494.099	11430.38
494.873	12223.38
495.647	13162.38
496.422	14076.38
497.196	15065.38
497.97	16075.38
498.744	17123.38
499.518	18109.38
500.292	19130.38
501.066	20108.38
501.839	21038.38
502.613	21957.38
503.387	22752.38
504.16	23464.38
504.934	23972.38
505.707	24386.38
506.48	24609.38
507.253	24786.38
508.027	24851.38
508.8	24829.38
509.573	24696.38
510.346	24420.38
511.118	23911.38
511.891	23392.38
512.664	22832.38
513.437	22176.38
514.209	21285.38
514.982	20666.38
515.754	19889.38
516.526	19077.38
517.298	18318.38
518.071	17595.38
518.843	16937.38
519.615	16365.38
520.387	15703.38
521.159	15063.38
521.93	14422.38
522.702	13855.38
523.474	13332.38
524.245	12727.38
525.017	12213.38
525.788	11722.38
526.56	11259.38
527.331	10753.38
528.102	10314.38
528.873	9851.38
529.644	9399.38
530.415	8982.38
531.186	8571.38
531.957	8108.38
532.728	7775.38
533.498	7398.38
534.269	6958.38
535.039	6627.38
535.81	6297.38
536.58	5933.38
537.351	5591.38
538.121	5301.38
538.891	5010.38
539.661	4740.38
540.431	4496.38
541.201	4244.38
541.971	4004.38
542.741	3803.38
543.51	3619.38
544.28	3464.38
545.05	3287.38
545.819	3134.38
546.588	2974.38
547.358	2810.38
548.127	2693.38
548.896	2542.38
549.665	2428.38
550.434	2293.38
551.203	2172.38
551.972	2063.38
552.741	1942.38
553.51	1839.38
554.278	1758.38
555.047	1666.38
555.815	1566.38
556.584	1477.38
557.352	1389.38
558.121	1323.38
558.889	1254.38
559.657	1180.38
560.425	1115.38
561.193	1049.38
561.961	991.38
562.729	942.38
563.496	894.38
564.264	838.38
565.032	791.38
565.799	751.38
566.567	707.38
567.334	662.38
568.101	633.38
568.869	604.38
569.636	572.38
570.403	532.38
571.17	503.38
571.937	470.38
572.704	438.38
573.471	421.38
574.237	396.38
575.004	377.38
575.771	349.38
576.537	325.38
577.303	322.38
578.07	296.38
578.836	286.38
579.602	262.38
580.368	248.38
581.134	236.38
581.9	222.38
582.666	210.38
583.432	202.38
584.198	187.38
584.964	176.38
585.729	172.38
586.495	163.38
587.26	152.38
588.025	148.38
588.791	140.38
589.556	126.38
590.321	126.38
591.086	116.38
591.851	107.38
592.616	106.38
593.381	97.38
594.146	93.38
594.911	93.38
595.675	86.38
596.44	82.38
597.204	81.38
597.969	76.38
598.733	73.38
599.497	69.38
600.261	68.38
601.025	63.38
601.79	55.38
602.553	58.38
603.317	55.38
604.081	55.38
604.845	48.38
605.609	47.38
606.372	45.38
607.136	41.38
607.899	42.38
608.662	41.38
609.426	39.38
610.189	38.38
610.952	37.38
611.715	33.38
612.478	35.38
613.241	33.38
614.004	28.38
614.767	30.38
615.529	27.38
616.292	28.38
617.055	27.38
617.817	23.38
618.579	24.38
619.342	26.38
620.104	21.38
620.866	23.38
621.628	20.38
622.39	24.38
623.152	19.38
623.914	20.38
624.676	19.38
625.438	17.38
626.199	19.38
626.961	17.38
627.722	15.38
628.484	16.38
629.245	14.38
630.006	14.38
630.768	14.38
631.529	14.38
632.29	14.38
633.051	14.38
633.812	12.38
634.573	11.38
635.333	14.38
636.094	12.38
636.855	12.38
637.615	11.38
638.376	9.38
639.136	11.38
639.896	10.38
640.657	10.38
641.417	7.38
642.177	9.38
642.937	11.38
643.697	8.38
644.457	10.38
645.216	8.38
645.976	7.38
646.736	9.38
647.495	9.38
648.255	8.38
649.014	5.38
649.774	9.38
650.533	8.38
651.292	7.38
652.051	6.38
652.81	10.38
653.569	5.38
654.328	7.38
655.087	7.38
655.846	6.38
656.604	6.38
657.363	8.38
658.121	6.38
658.88	5.38
659.638	3.38
660.397	3.38
661.155	7.38
661.913	5.38
662.671	6.38
663.429	5.38
664.187	7.38
664.945	6.38
665.703	7.38
666.46	5.38
667.218	5.38
667.976	4.38
668.733	7.38
669.49	6.38
670.248	6.38
671.005	6.38
671.762	4.38
672.519	3.38
673.276	4.38
674.033	5.38
674.79	4.38
675.547	6.38
676.304	6.38
677.06	7.38
677.817	4.38
678.574	3.38
679.33	6.38
680.086	4.38
680.843	2.38
681.599	6.38
682.355	6.38
683.111	5.38
683.867	5.38
684.623	6.38
685.379	4.38
686.135	6.38
686.89	5.38
687.646	2.38
688.402	4.38
689.157	5.38
689.912	5.38
690.668	4.38
691.423	2.38
692.178	5.38
692.933	6.38
693.688	6.38
694.443	3.38
695.198	3.38
695.953	4.38
696.708	3.38
697.462	4.38
698.217	4.38
698.972	3.38
699.726	4.38
700.48	4.38
701.235	4.38
701.989	5.38
702.743	2.38
703.497	1.38
704.251	3.38
705.005	5.38
705.759	2.38
706.513	4.38
707.266	2.38
708.02	2.38
708.774	4.38
709.527	4.38
710.28	6.38
711.034	3.38
711.787	5.38
712.54	4.38
713.293	4.38
714.046	4.38
714.799	3.38
715.552	5.38
716.305	2.38
717.058	5.38
717.81	3.38
718.563	5.38
719.315	4.38
720.068	3.38
720.82	4.38
721.573	3.38
722.325	2.38
723.077	3.38
723.829	4.38
724.581	3.38
725.333	2.38
726.085	5.38
726.836	2.38
727.588	4.38
728.34	5.38
729.091	4.38
729.843	3.38
730.594	4.38
731.346	6.38
732.097	5.38
732.848	4.38
733.599	4.38
734.35	5.38
735.101	2.38
735.852	4.38
736.603	4.38
737.354	4.38
738.104	5.38
738.855	4.38
739.605	4.38
740.356	3.38
741.106	5.38
741.856	4.38
742.607	4.38
743.357	4.38
744.107	4.38
744.857	7.38
745.607	5.38
746.357	6.38
747.106	2.38
747.856	4.38
748.606	2.38
749.355	4.38
750.105	7.38
750.854	5.38
751.603	4.38
752.353	7.38
753.102	5.38
753.851	2.38
754.6	8.38
755.349	4.38
756.098	6.38
756.847	9.38
757.595	6.38
758.344	7.38
759.093	5.38
759.841	7.38
760.589	7.38
761.338	5.38
762.086	8.38
762.834	6.38
763.582	5.38
764.331	5.38
765.079	9.38
765.826	6.38
766.574	7.38
767.322	5.38
768.07	4.38
768.817	5.38
769.565	4.38
770.312	7.38
771.06	6.38
771.807	9.38
772.554	8.38
773.302	5.38
774.049	6.38
774.796	7.38
775.543	8.38
776.29	6.38
777.036	6.38
777.783	7.38
778.53	8.38
779.276	9.38
780.023	9.38
780.769	9.38
781.516	6.38
782.262	7.38
783.008	6.38
783.754	7.38
784.5	8.38
785.246	8.38
785.992	8.38
786.738	9.38
787.484	7.38
788.23	9.38
788.975	7.38
789.721	8.38
790.466	7.38
791.212	6.38
791.957	8.38
792.702	5.38
793.447	8.38
794.193	8.38
794.938	9.38
795.683	8.38
796.427	6.38
797.172	6.38
797.917	7.38
798.662	8.38
799.406	8.38
800.151	4.38
800.895	4.38
801.64	7.38
802.384	9.38
803.128	7.38
803.872	7.38
804.616	5.38
805.36	7.38
806.104	5.38
806.848	8.38
807.592	6.38
808.336	5.38
809.079	5.38
809.823	6.38
810.566	6.38
811.31	3.38
812.053	4.38
812.796	6.38
813.539	6.38
814.283	4.38
815.026	7.38
815.769	4.38
816.511	3.38
817.254	5.38
817.997	6.38
818.74	4.38
819.482	5.38
820.225	4.38
820.967	3.38
821.71	7.38
822.452	2.38
823.194	5.38
823.936	4.38
824.678	3.38
825.42	6.38
826.162	5.38
826.904	5.38
827.646	3.38
828.388	5.38
829.129	3.38
829.871	6.38
830.612	3.38
831.354	4.38
832.095	5.38
832.836	3.38
833.577	6.38
834.319	4.38
835.06	3.38
835.801	1.38
836.542	5.38
837.282	5.38
838.023	3.38
838.764	6.38
839.504	3.38
840.245	2.38
840.985	3.38
841.726	3.38
842.466	5.38
843.206	5.38
843.946	4.38
844.687	5.38
845.427	3.38
846.166	4.38
846.906	3.38
847.646	3.38
848.386	5.38
849.125	3.38
849.865	3.38
850.605	4.38
851.344	2.38
852.083	3.38
852.823	4.38
853.562	4.38
854.301	3.38
855.04	1.38
855.779	3.38
856.518	3.38
857.257	2.38
857.995	4.38
858.734	4.38
859.473	2.38
860.211	3.38
860.95	3.38
861.688	2.38
862.426	1.38
863.165	4.38
863.903	2.38
864.641	2.38
865.379	0.38
866.117	1.38
866.855	4.38
867.593	2.38
868.33	2.38
869.068	2.38
869.806	2.38
870.543	3.38
871.28	2.38
872.018	3.38
872.755	0.38
873.492	2.38
874.229	3.38
874.967	1.38
875.703	1.38
876.44	0.38
877.177	1.38
877.914	2.38
878.651	0.38
879.387	1.38
880.124	1.38
880.86	2.38
881.597	0.38
882.333	-0.62
883.069	2.38
883.806	1.38
884.542	1.38
885.278	0.38
886.014	3.38
886.749	0.38
887.485	2.38
888.221	-0.62
888.957	-0.62
889.692	0.38
890.428	-0.62
891.163	1.38
891.899	2.38
892.634	0.38
893.369	2.38
894.104	0.38
894.839	2.38
895.574	1.38
896.309	1.38
897.044	1.38
897.779	2.38
898.514	1.38
899.248	2.38
899.983	1.38
900.717	0.38
901.452	1.38
902.186	-1.62
902.92	0.38
903.654	0.38
904.389	-0.62
905.123	0.38
905.857	-0.62
906.59	1.38
907.324	2.38
908.058	2.38
908.792	2.38
909.525	-0.62
910.259	0.38
910.992	0.38
911.726	4.38
912.459	1.38
913.192	0.38
913.925	0.38
914.658	-0.62
915.391	3.38
916.124	-1.62
916.857	2.38
917.59	2.38
918.323	0.38
919.055	1.38
919.788	-0.62
920.521	2.38
921.253	-1.62
921.985	2.38
922.718	-0.62
923.45	-0.62
924.182	-0.62
924.914	-1.62
925.646	0.38
926.378	-0.62
927.11	1.38
927.841	1.38
928.573	0.38
929.305	0.38
930.036	0.38
930.768	0.38
931.499	-0.62
932.23	1.38
932.962	1.38
933.693	0.38
934.424	0.38
935.155	1.38
935.886	2.38
936.617	-0.62
937.348	1.38
938.078	-0.62
938.809	1.38
939.54	1.38
940.27	-1.62
941.001	-1.62
941.731	2.38
942.461	-0.62
943.191	0.38
943.922	-0.62
944.652	2.38
945.382	-0.62
946.112	2.38
946.841	0.38
947.571	0.38
948.301	1.38
949.031	2.38
949.76	3.38
950.49	2.38
951.219	2.38
951.948	1.38
952.678	-0.62
953.407	0.38
954.136	1.38
954.865	-1.62
955.594	2.38
956.323	-0.62
957.052	2.38
957.78	2.38
958.509	2.38
959.238	0.38
959.966	1.38
960.695	-0.62
961.423	0.38
962.151	1.38
962.88	0.38
963.608	0.38
964.336	0.38
965.064	0.38
965.792	1.38
966.52	1.38
967.247	2.38
967.975	-1.62
968.703	2.38
969.43	-1.62
970.158	-0.62
970.885	1.38
971.613	0.38
972.34	1.38
973.067	1.38
973.794	1.38
974.521	0.38
975.248	0.38
975.975	1.38
976.702	-0.62
977.429	2.38
978.156	0.38
978.882	0.38
979.609	1.38
980.335	-0.62
981.062	2.38
981.788	-0.62
982.514	0.38
983.24	1.38
983.967	2.38
984.693	-0.62
985.419	0.38
986.144	1.38
986.87	0.38
987.596	0.38
988.322	0.38
989.047	0.38
989.773	-0.62
990.498	0.38
991.224	0.38
991.949	1.38
992.674	0.38
993.399	-0.62
994.124	0.38
994.849	2.38
995.574	1.38
996.299	1.38
997.024	0.38
997.749	1.38
998.473	0.38
999.198	0.38
999.922	1.38
1000.647	-0.62
1001.371	5.38
1002.095	0.38
1002.82	-1.62
1003.544	-1.62
1004.268	1.38
1004.992	0.38
1005.716	3.38
1006.439	1.38
1007.163	3.38
1007.887	4.38
1008.611	0.38
1009.334	2.38
1010.058	0.38
1010.781	-0.62
1011.504	2.38
1012.228	2.38
1012.951	0.38
1013.674	-0.62
1014.397	-0.62
1015.12	-1.62
