节点500_285_QEPB04081__414__15-02-26-579.txt的数据

Date: Wed Nov 12 15:02:26 CST 2025
User: PC
Spectrometer: QEPB0408
触发模式: 0
积分时间 (秒): 1.000000E-2
Scans to average: 1
启用暗噪声校正: true
启用非线性校正: false
滑动平均宽度: 0
X轴模式: Wavelengths
Number of Pixels in Spectrum: 1044
>>>>>Begin Spectral Data<<<<<
220.843	-0.62
221.644	0.38
222.444	3.38
223.244	0.38
224.045	3.38
224.845	3.38
225.645	5.38
226.445	3.38
227.245	2.38
228.045	3.38
228.845	4.38
229.645	2.38
230.444	4.38
231.244	4.38
232.043	5.38
232.843	1.38
233.642	4.38
234.442	4.38
235.241	2.38
236.04	2.38
236.839	6.38
237.638	4.38
238.437	3.38
239.236	4.38
240.035	4.38
240.833	6.38
241.632	4.38
242.43	4.38
243.229	7.38
244.027	4.38
244.826	6.38
245.624	6.38
246.422	6.38
247.22	5.38
248.018	5.38
248.816	6.38
249.614	6.38
250.412	8.38
251.21	6.38
252.007	8.38
252.805	7.38
253.602	8.38
254.4	8.38
255.197	8.38
255.994	7.38
256.791	10.38
257.589	10.38
258.386	11.38
259.183	11.38
259.979	10.38
260.776	10.38
261.573	11.38
262.37	9.38
263.166	11.38
263.963	14.38
264.759	11.38
265.556	12.38
266.352	9.38
267.148	12.38
267.944	13.38
268.74	12.38
269.536	13.38
270.332	16.38
271.128	14.38
271.924	14.38
272.719	15.38
273.515	16.38
274.311	16.38
275.106	17.38
275.901	14.38
276.697	18.38
277.492	17.38
278.287	16.38
279.082	20.38
279.877	20.38
280.672	20.38
281.467	21.38
282.262	20.38
283.056	19.38
283.851	20.38
284.646	21.38
285.44	17.38
286.234	21.38
287.029	18.38
287.823	18.38
288.617	18.38
289.411	18.38
290.205	20.38
290.999	17.38
291.793	16.38
292.587	19.38
293.381	17.38
294.174	16.38
294.968	15.38
295.761	18.38
296.555	16.38
297.348	16.38
298.141	18.38
298.935	16.38
299.728	15.38
300.521	12.38
301.314	16.38
302.107	14.38
302.899	13.38
303.692	14.38
304.485	12.38
305.277	13.38
306.07	12.38
306.862	12.38
307.655	14.38
308.447	13.38
309.239	13.38
310.031	10.38
310.823	13.38
311.615	12.38
312.407	10.38
313.199	10.38
313.991	9.38
314.783	8.38
315.574	6.38
316.366	9.38
317.157	7.38
317.949	9.38
318.74	10.38
319.531	8.38
320.322	8.38
321.113	8.38
321.904	6.38
322.695	8.38
323.486	6.38
324.277	8.38
325.068	6.38
325.858	7.38
326.649	6.38
327.439	8.38
328.23	7.38
329.02	7.38
329.81	5.38
330.6	5.38
331.391	6.38
332.181	5.38
332.971	8.38
333.76	5.38
334.55	8.38
335.34	8.38
336.13	6.38
336.919	6.38
337.709	5.38
338.498	5.38
339.287	8.38
340.077	5.38
340.866	6.38
341.655	7.38
342.444	5.38
343.233	7.38
344.022	7.38
344.811	9.38
345.6	8.38
346.388	7.38
347.177	5.38
347.965	5.38
348.754	7.38
349.542	7.38
350.33	8.38
351.119	6.38
351.907	4.38
352.695	6.38
353.483	5.38
354.271	5.38
355.059	7.38
355.846	5.38
356.634	7.38
357.422	5.38
358.209	7.38
358.997	6.38
359.784	6.38
360.571	7.38
361.359	6.38
362.146	6.38
362.933	6.38
363.72	6.38
364.507	3.38
365.294	9.38
366.081	7.38
366.867	6.38
367.654	5.38
368.44	8.38
369.227	6.38
370.013	6.38
370.8	6.38
371.586	6.38
372.372	5.38
373.158	6.38
373.944	4.38
374.73	5.38
375.516	5.38
376.302	8.38
377.088	4.38
377.873	5.38
378.659	5.38
379.445	6.38
380.23	5.38
381.015	6.38
381.801	4.38
382.586	7.38
383.371	6.38
384.156	7.38
384.941	4.38
385.726	6.38
386.511	4.38
387.296	6.38
388.08	6.38
388.865	6.38
389.649	8.38
390.434	8.38
391.218	5.38
392.003	6.38
392.787	5.38
393.571	3.38
394.355	4.38
395.139	7.38
395.923	8.38
396.707	7.38
397.491	8.38
398.274	7.38
399.058	8.38
399.842	7.38
400.625	8.38
401.408	7.38
402.192	7.38
402.975	9.38
403.758	8.38
404.541	9.38
405.324	10.38
406.107	7.38
406.89	8.38
407.673	8.38
408.456	9.38
409.238	7.38
410.021	8.38
410.803	11.38
411.586	8.38
412.368	9.38
413.151	9.38
413.933	10.38
414.715	12.38
415.497	9.38
416.279	8.38
417.061	10.38
417.843	11.38
418.624	9.38
419.406	9.38
420.188	9.38
420.969	11.38
421.751	12.38
422.532	12.38
423.313	13.38
424.095	12.38
424.876	14.38
425.657	11.38
426.438	9.38
427.219	12.38
428	13.38
428.78	13.38
429.561	15.38
430.342	14.38
431.122	14.38
431.903	14.38
432.683	18.38
433.464	16.38
434.244	16.38
435.024	17.38
435.804	19.38
436.584	17.38
437.364	21.38
438.144	20.38
438.924	20.38
439.704	23.38
440.483	24.38
441.263	22.38
442.042	27.38
442.822	24.38
443.601	29.38
444.38	30.38
445.16	30.38
445.939	34.38
446.718	38.38
447.497	41.38
448.276	44.38
449.054	47.38
449.833	53.38
450.612	52.38
451.391	58.38
452.169	63.38
452.948	67.38
453.726	77.38
454.504	87.38
455.282	90.38
456.061	102.38
456.839	108.38
457.617	125.38
458.395	139.38
459.172	157.38
459.95	171.38
460.728	197.38
461.506	215.38
462.283	234.38
463.061	262.38
463.838	295.38
464.615	326.38
465.393	364.38
466.17	404.38
466.947	457.38
467.724	512.38
468.501	562.38
469.278	622.38
470.055	698.38
470.831	778.38
471.608	859.38
472.385	950.38
473.161	1057.38
473.938	1180.38
474.714	1300.38
475.49	1440.38
476.266	1591.38
477.043	1757.38
477.819	1929.38
478.595	2120.38
479.371	2347.38
480.146	2590.38
480.922	2875.38
481.698	3148.38
482.473	3464.38
483.249	3778.38
484.024	4157.38
484.8	4578.38
485.575	4996.38
486.35	5525.38
487.126	6042.38
487.901	6634.38
488.676	7246.38
489.451	7920.38
490.225	8646.38
491	9428.38
491.775	10318.38
492.55	11190.38
493.324	12129.38
494.099	13055.38
494.873	14106.38
495.647	15150.38
496.422	16292.38
497.196	17422.38
497.97	18598.38
498.744	19807.38
499.518	20881.38
500.292	22073.38
501.066	23108.38
501.839	24127.38
502.613	24967.38
503.387	25709.38
504.16	26400.38
504.934	26800.38
505.707	27002.38
506.48	27134.38
507.253	27096.38
508.027	26841.38
508.8	26576.38
509.573	26219.38
510.346	25671.38
511.118	24877.38
511.891	24143.38
512.664	23345.38
513.437	22506.38
514.209	21603.38
514.982	20714.38
515.754	19809.38
516.526	18947.38
517.298	18153.38
518.071	17319.38
518.843	16660.38
519.615	16011.38
520.387	15391.38
521.159	14805.38
521.93	14201.38
522.702	13646.38
523.474	13082.38
524.245	12503.38
525.017	11955.38
525.788	11513.38
526.56	10996.38
527.331	10533.38
528.102	10037.38
528.873	9558.38
529.644	9101.38
530.415	8672.38
531.186	8234.38
531.957	7816.38
532.728	7405.38
533.498	7017.38
534.269	6662.38
535.039	6266.38
535.81	5958.38
536.58	5622.38
537.351	5265.38
538.121	5004.38
538.891	4732.38
539.661	4479.38
540.431	4192.38
541.201	4017.38
541.971	3781.38
542.741	3568.38
543.51	3393.38
544.28	3234.38
545.05	3082.38
545.819	2937.38
546.588	2785.38
547.358	2643.38
548.127	2530.38
548.896	2392.38
549.665	2274.38
550.434	2129.38
551.203	2016.38
551.972	1923.38
552.741	1822.38
553.51	1708.38
554.278	1626.38
555.047	1544.38
555.815	1449.38
556.584	1364.38
557.352	1299.38
558.121	1213.38
558.889	1164.38
559.657	1085.38
560.425	1024.38
561.193	963.38
561.961	913.38
562.729	869.38
563.496	818.38
564.264	764.38
565.032	736.38
565.799	680.38
566.567	655.38
567.334	624.38
568.101	590.38
568.869	558.38
569.636	509.38
570.403	485.38
571.17	457.38
571.937	439.38
572.704	415.38
573.471	391.38
574.237	366.38
575.004	343.38
575.771	328.38
576.537	304.38
577.303	292.38
578.07	274.38
578.836	245.38
579.602	242.38
580.368	226.38
581.134	211.38
581.9	204.38
582.666	195.38
583.432	179.38
584.198	174.38
584.964	163.38
585.729	155.38
586.495	150.38
587.26	139.38
588.025	128.38
588.791	123.38
589.556	121.38
590.321	115.38
591.086	108.38
591.851	100.38
592.616	96.38
593.381	94.38
594.146	90.38
594.911	83.38
595.675	80.38
596.44	80.38
597.204	72.38
597.969	68.38
598.733	68.38
599.497	62.38
600.261	61.38
601.025	59.38
601.79	55.38
602.553	50.38
603.317	50.38
604.081	51.38
604.845	47.38
605.609	46.38
606.372	42.38
607.136	44.38
607.899	40.38
608.662	38.38
609.426	34.38
610.189	33.38
610.952	33.38
611.715	34.38
612.478	31.38
613.241	26.38
614.004	28.38
614.767	25.38
615.529	27.38
616.292	26.38
617.055	26.38
617.817	28.38
618.579	23.38
619.342	22.38
620.104	23.38
620.866	21.38
621.628	20.38
622.39	21.38
623.152	18.38
623.914	20.38
624.676	16.38
625.438	19.38
626.199	15.38
626.961	17.38
627.722	15.38
628.484	15.38
629.245	17.38
630.006	12.38
630.768	15.38
631.529	12.38
632.29	12.38
633.051	14.38
633.812	14.38
634.573	14.38
635.333	10.38
636.094	14.38
636.855	12.38
637.615	11.38
638.376	12.38
639.136	9.38
639.896	11.38
640.657	10.38
641.417	8.38
642.177	7.38
642.937	7.38
643.697	9.38
644.457	7.38
645.216	10.38
645.976	8.38
646.736	7.38
647.495	8.38
648.255	7.38
649.014	9.38
649.774	8.38
650.533	9.38
651.292	9.38
652.051	9.38
652.81	8.38
653.569	6.38
654.328	8.38
655.087	5.38
655.846	6.38
656.604	6.38
657.363	6.38
658.121	8.38
658.88	8.38
659.638	7.38
660.397	6.38
661.155	5.38
661.913	7.38
662.671	5.38
663.429	4.38
664.187	7.38
664.945	6.38
665.703	6.38
666.46	4.38
667.218	6.38
667.976	4.38
668.733	4.38
669.49	6.38
670.248	7.38
671.005	6.38
671.762	4.38
672.519	5.38
673.276	5.38
674.033	5.38
674.79	6.38
675.547	5.38
676.304	5.38
677.06	6.38
677.817	2.38
678.574	5.38
679.33	6.38
680.086	4.38
680.843	2.38
681.599	5.38
682.355	5.38
683.111	6.38
683.867	4.38
684.623	5.38
685.379	7.38
686.135	3.38
686.89	6.38
687.646	4.38
688.402	2.38
689.157	4.38
689.912	2.38
690.668	4.38
691.423	4.38
692.178	3.38
692.933	3.38
693.688	5.38
694.443	6.38
695.198	6.38
695.953	3.38
696.708	3.38
697.462	4.38
698.217	6.38
698.972	4.38
699.726	5.38
700.48	5.38
701.235	5.38
701.989	3.38
702.743	5.38
703.497	5.38
704.251	4.38
705.005	4.38
705.759	4.38
706.513	4.38
707.266	4.38
708.02	4.38
708.774	4.38
709.527	3.38
710.28	6.38
711.034	5.38
711.787	5.38
712.54	4.38
713.293	2.38
714.046	6.38
714.799	5.38
715.552	4.38
716.305	5.38
717.058	2.38
717.81	5.38
718.563	5.38
719.315	5.38
720.068	1.38
720.82	4.38
721.573	5.38
722.325	4.38
723.077	4.38
723.829	4.38
724.581	4.38
725.333	5.38
726.085	3.38
726.836	4.38
727.588	3.38
728.34	4.38
729.091	1.38
729.843	5.38
730.594	3.38
731.346	4.38
732.097	6.38
732.848	4.38
733.599	4.38
734.35	4.38
735.101	5.38
735.852	2.38
736.603	5.38
737.354	6.38
738.104	5.38
738.855	4.38
739.605	5.38
740.356	6.38
741.106	6.38
741.856	5.38
742.607	5.38
743.357	6.38
744.107	5.38
744.857	5.38
745.607	8.38
746.357	3.38
747.106	3.38
747.856	4.38
748.606	4.38
749.355	4.38
750.105	6.38
750.854	4.38
751.603	7.38
752.353	5.38
753.102	8.38
753.851	6.38
754.6	8.38
755.349	8.38
756.098	7.38
756.847	6.38
757.595	7.38
758.344	8.38
759.093	5.38
759.841	6.38
760.589	8.38
761.338	3.38
762.086	6.38
762.834	9.38
763.582	7.38
764.331	4.38
765.079	7.38
765.826	8.38
766.574	9.38
767.322	9.38
768.07	5.38
768.817	6.38
769.565	8.38
770.312	8.38
771.06	8.38
771.807	7.38
772.554	8.38
773.302	6.38
774.049	6.38
774.796	8.38
775.543	5.38
776.29	7.38
777.036	8.38
777.783	9.38
778.53	8.38
779.276	7.38
780.023	10.38
780.769	9.38
781.516	9.38
782.262	8.38
783.008	8.38
783.754	8.38
784.5	9.38
785.246	7.38
785.992	8.38
786.738	9.38
787.484	10.38
788.23	10.38
788.975	7.38
789.721	8.38
790.466	10.38
791.212	11.38
791.957	10.38
792.702	7.38
793.447	7.38
794.193	8.38
794.938	8.38
795.683	9.38
796.427	7.38
797.172	7.38
797.917	7.38
798.662	8.38
799.406	8.38
800.151	10.38
800.895	8.38
801.64	8.38
802.384	8.38
803.128	8.38
803.872	8.38
804.616	7.38
805.36	8.38
806.104	7.38
806.848	6.38
807.592	4.38
808.336	7.38
809.079	9.38
809.823	7.38
810.566	5.38
811.31	6.38
812.053	4.38
812.796	5.38
813.539	8.38
814.283	7.38
815.026	6.38
815.769	5.38
816.511	6.38
817.254	6.38
817.997	4.38
818.74	7.38
819.482	5.38
820.225	6.38
820.967	4.38
821.71	4.38
822.452	4.38
823.194	5.38
823.936	6.38
824.678	4.38
825.42	5.38
826.162	5.38
826.904	5.38
827.646	5.38
828.388	4.38
829.129	6.38
829.871	4.38
830.612	6.38
831.354	3.38
832.095	4.38
832.836	6.38
833.577	4.38
834.319	4.38
835.06	5.38
835.801	5.38
836.542	4.38
837.282	5.38
838.023	2.38
838.764	2.38
839.504	6.38
840.245	4.38
840.985	4.38
841.726	4.38
842.466	3.38
843.206	2.38
843.946	2.38
844.687	4.38
845.427	4.38
846.166	4.38
846.906	4.38
847.646	2.38
848.386	3.38
849.125	3.38
849.865	3.38
850.605	3.38
851.344	2.38
852.083	2.38
852.823	0.38
853.562	2.38
854.301	2.38
855.04	2.38
855.779	4.38
856.518	2.38
857.257	3.38
857.995	1.38
858.734	4.38
859.473	3.38
860.211	3.38
860.95	4.38
861.688	2.38
862.426	3.38
863.165	1.38
863.903	4.38
864.641	3.38
865.379	4.38
866.117	2.38
866.855	1.38
867.593	2.38
868.33	0.38
869.068	1.38
869.806	3.38
870.543	2.38
871.28	0.38
872.018	-1.62
872.755	2.38
873.492	2.38
874.229	2.38
874.967	0.38
875.703	1.38
876.44	2.38
877.177	1.38
877.914	-0.62
878.651	1.38
879.387	1.38
880.124	3.38
880.86	-0.62
881.597	2.38
882.333	1.38
883.069	1.38
883.806	-2.62
884.542	0.38
885.278	1.38
886.014	-1.62
886.749	1.38
887.485	2.38
888.221	2.38
888.957	2.38
889.692	3.38
890.428	2.38
891.163	0.38
891.899	3.38
892.634	0.38
893.369	-0.62
894.104	1.38
894.839	1.38
895.574	0.38
896.309	4.38
897.044	1.38
897.779	-0.62
898.514	3.38
899.248	0.38
899.983	0.38
900.717	2.38
901.452	0.38
902.186	0.38
902.92	2.38
903.654	0.38
904.389	4.38
905.123	3.38
905.857	-0.62
906.59	0.38
907.324	1.38
908.058	1.38
908.792	0.38
909.525	3.38
910.259	0.38
910.992	2.38
911.726	-0.62
912.459	-0.62
913.192	3.38
913.925	2.38
914.658	2.38
915.391	-1.62
916.124	2.38
916.857	2.38
917.59	0.38
918.323	2.38
919.055	0.38
919.788	-1.62
920.521	2.38
921.253	0.38
921.985	2.38
922.718	1.38
923.45	3.38
924.182	3.38
924.914	1.38
925.646	1.38
926.378	0.38
927.11	1.38
927.841	1.38
928.573	-0.62
929.305	1.38
930.036	0.38
930.768	2.38
931.499	0.38
932.23	3.38
932.962	1.38
933.693	1.38
934.424	0.38
935.155	0.38
935.886	1.38
936.617	-0.62
937.348	0.38
938.078	2.38
938.809	2.38
939.54	2.38
940.27	1.38
941.001	1.38
941.731	1.38
942.461	1.38
943.191	2.38
943.922	-1.62
944.652	2.38
945.382	0.38
946.112	1.38
946.841	-0.62
947.571	1.38
948.301	-0.62
949.031	3.38
949.76	3.38
950.49	2.38
951.219	1.38
951.948	1.38
952.678	0.38
953.407	1.38
954.136	2.38
954.865	0.38
955.594	2.38
956.323	2.38
957.052	0.38
957.78	0.38
958.509	3.38
959.238	2.38
959.966	0.38
960.695	2.38
961.423	0.38
962.151	0.38
962.88	-0.62
963.608	1.38
964.336	-0.62
965.064	2.38
965.792	-0.62
966.52	1.38
967.247	1.38
967.975	1.38
968.703	1.38
969.43	0.38
970.158	0.38
970.885	0.38
971.613	0.38
972.34	2.38
973.067	1.38
973.794	0.38
974.521	-0.62
975.248	3.38
975.975	0.38
976.702	1.38
977.429	1.38
978.156	3.38
978.882	0.38
979.609	1.38
980.335	0.38
981.062	2.38
981.788	-0.62
982.514	0.38
983.24	1.38
983.967	0.38
984.693	0.38
985.419	0.38
986.144	0.38
986.87	0.38
987.596	2.38
988.322	0.38
989.047	1.38
989.773	2.38
990.498	2.38
991.224	3.38
991.949	1.38
992.674	2.38
993.399	2.38
994.124	-0.62
994.849	3.38
995.574	0.38
996.299	1.38
997.024	1.38
997.749	-1.62
998.473	1.38
999.198	1.38
999.922	1.38
1000.647	0.38
1001.371	4.38
1002.095	-2.62
1002.82	-0.62
1003.544	-1.62
1004.268	3.38
1004.992	-0.62
1005.716	2.38
1006.439	0.38
1007.163	1.38
1007.887	4.38
1008.611	3.38
1009.334	-0.62
1010.058	0.38
1010.781	2.38
1011.504	-0.62
1012.228	2.38
1012.951	1.38
1013.674	0.38
1014.397	-1.62
1015.12	0.38
