节点500_285_QEPB04081__578__15-05-10-190.txt的数据

Date: Wed Nov 12 15:05:10 CST 2025
User: PC
Spectrometer: QEPB0408
触发模式: 0
积分时间 (秒): 1.000000E-2
Scans to average: 1
启用暗噪声校正: true
启用非线性校正: false
滑动平均宽度: 0
X轴模式: Wavelengths
Number of Pixels in Spectrum: 1044
>>>>>Begin Spectral Data<<<<<
220.843	1.38
221.644	2.38
222.444	0.38
223.244	2.38
224.045	2.38
224.845	2.38
225.645	3.38
226.445	0.38
227.245	2.38
228.045	2.38
228.845	4.38
229.645	1.38
230.444	4.38
231.244	3.38
232.043	2.38
232.843	6.38
233.642	5.38
234.442	4.38
235.241	4.38
236.04	2.38
236.839	6.38
237.638	4.38
238.437	6.38
239.236	3.38
240.035	4.38
240.833	7.38
241.632	5.38
242.43	6.38
243.229	6.38
244.027	5.38
244.826	7.38
245.624	4.38
246.422	5.38
247.22	6.38
248.018	6.38
248.816	6.38
249.614	7.38
250.412	7.38
251.21	5.38
252.007	5.38
252.805	7.38
253.602	7.38
254.4	6.38
255.197	5.38
255.994	8.38
256.791	6.38
257.589	8.38
258.386	7.38
259.183	10.38
259.979	8.38
260.776	9.38
261.573	9.38
262.37	7.38
263.166	11.38
263.963	12.38
264.759	10.38
265.556	10.38
266.352	14.38
267.148	13.38
267.944	12.38
268.74	16.38
269.536	13.38
270.332	14.38
271.128	14.38
271.924	15.38
272.719	15.38
273.515	16.38
274.311	15.38
275.106	16.38
275.901	13.38
276.697	17.38
277.492	16.38
278.287	17.38
279.082	17.38
279.877	16.38
280.672	18.38
281.467	14.38
282.262	20.38
283.056	18.38
283.851	18.38
284.646	21.38
285.44	20.38
286.234	19.38
287.029	17.38
287.823	19.38
288.617	16.38
289.411	17.38
290.205	15.38
290.999	18.38
291.793	19.38
292.587	17.38
293.381	18.38
294.174	18.38
294.968	15.38
295.761	16.38
296.555	14.38
297.348	14.38
298.141	15.38
298.935	18.38
299.728	14.38
300.521	15.38
301.314	12.38
302.107	12.38
302.899	15.38
303.692	11.38
304.485	12.38
305.277	12.38
306.07	14.38
306.862	12.38
307.655	10.38
308.447	12.38
309.239	10.38
310.031	10.38
310.823	11.38
311.615	11.38
312.407	10.38
313.199	7.38
313.991	9.38
314.783	9.38
315.574	10.38
316.366	10.38
317.157	9.38
317.949	8.38
318.74	6.38
319.531	8.38
320.322	9.38
321.113	9.38
321.904	9.38
322.695	7.38
323.486	7.38
324.277	8.38
325.068	7.38
325.858	8.38
326.649	7.38
327.439	5.38
328.23	6.38
329.02	10.38
329.81	6.38
330.6	7.38
331.391	6.38
332.181	8.38
332.971	7.38
333.76	6.38
334.55	7.38
335.34	8.38
336.13	7.38
336.919	7.38
337.709	3.38
338.498	7.38
339.287	8.38
340.077	8.38
340.866	7.38
341.655	6.38
342.444	4.38
343.233	7.38
344.022	6.38
344.811	7.38
345.6	7.38
346.388	7.38
347.177	7.38
347.965	9.38
348.754	6.38
349.542	6.38
350.33	5.38
351.119	7.38
351.907	5.38
352.695	2.38
353.483	4.38
354.271	4.38
355.059	8.38
355.846	6.38
356.634	4.38
357.422	6.38
358.209	5.38
358.997	5.38
359.784	6.38
360.571	7.38
361.359	7.38
362.146	6.38
362.933	7.38
363.72	4.38
364.507	7.38
365.294	5.38
366.081	4.38
366.867	7.38
367.654	6.38
368.44	4.38
369.227	7.38
370.013	4.38
370.8	4.38
371.586	5.38
372.372	5.38
373.158	5.38
373.944	5.38
374.73	6.38
375.516	5.38
376.302	2.38
377.088	3.38
377.873	4.38
378.659	5.38
379.445	7.38
380.23	5.38
381.015	5.38
381.801	7.38
382.586	5.38
383.371	7.38
384.156	6.38
384.941	7.38
385.726	7.38
386.511	3.38
387.296	6.38
388.08	4.38
388.865	5.38
389.649	4.38
390.434	5.38
391.218	6.38
392.003	6.38
392.787	7.38
393.571	5.38
394.355	6.38
395.139	7.38
395.923	6.38
396.707	10.38
397.491	6.38
398.274	6.38
399.058	6.38
399.842	7.38
400.625	6.38
401.408	8.38
402.192	7.38
402.975	5.38
403.758	7.38
404.541	9.38
405.324	9.38
406.107	9.38
406.89	9.38
407.673	9.38
408.456	9.38
409.238	8.38
410.021	8.38
410.803	8.38
411.586	8.38
412.368	8.38
413.151	7.38
413.933	10.38
414.715	8.38
415.497	8.38
416.279	10.38
417.061	10.38
417.843	8.38
418.624	11.38
419.406	11.38
420.188	13.38
420.969	9.38
421.751	10.38
422.532	12.38
423.313	11.38
424.095	11.38
424.876	9.38
425.657	10.38
426.438	12.38
427.219	12.38
428	13.38
428.78	13.38
429.561	15.38
430.342	12.38
431.122	16.38
431.903	14.38
432.683	16.38
433.464	14.38
434.244	17.38
435.024	17.38
435.804	17.38
436.584	17.38
437.364	18.38
438.144	17.38
438.924	23.38
439.704	19.38
440.483	22.38
441.263	24.38
442.042	23.38
442.822	26.38
443.601	27.38
444.38	28.38
445.16	35.38
445.939	36.38
446.718	38.38
447.497	39.38
448.276	44.38
449.054	45.38
449.833	52.38
450.612	58.38
451.391	60.38
452.169	64.38
452.948	72.38
453.726	75.38
454.504	86.38
455.282	96.38
456.061	111.38
456.839	120.38
457.617	129.38
458.395	149.38
459.172	166.38
459.95	176.38
460.728	204.38
461.506	223.38
462.283	246.38
463.061	286.38
463.838	307.38
464.615	338.38
465.393	378.38
466.17	433.38
466.947	473.38
467.724	524.38
468.501	589.38
469.278	650.38
470.055	729.38
470.831	805.38
471.608	890.38
472.385	989.38
473.161	1082.38
473.938	1193.38
474.714	1311.38
475.49	1446.38
476.266	1599.38
477.043	1765.38
477.819	1941.38
478.595	2119.38
479.371	2347.38
480.146	2586.38
480.922	2853.38
481.698	3107.38
482.473	3416.38
483.249	3736.38
484.024	4094.38
484.8	4514.38
485.575	4945.38
486.35	5392.38
487.126	5902.38
487.901	6425.38
488.676	7005.38
489.451	7662.38
490.225	8345.38
491	9078.38
491.775	9930.38
492.55	10786.38
493.324	11632.38
494.099	12503.38
494.873	13480.38
495.647	14499.38
496.422	15541.38
497.196	16675.38
497.97	17802.38
498.744	18876.38
499.518	19996.38
500.292	21131.38
501.066	22168.38
501.839	23097.38
502.613	24007.38
503.387	24796.38
504.16	25517.38
504.934	25900.38
505.707	26213.38
506.48	26335.38
507.253	26420.38
508.027	26249.38
508.8	26137.38
509.573	25843.38
510.346	25341.38
511.118	24700.38
511.891	24072.38
512.664	23280.38
513.437	22549.38
514.209	21649.38
514.982	20794.38
515.754	19961.38
516.526	19147.38
517.298	18336.38
518.071	17555.38
518.843	16877.38
519.615	16166.38
520.387	15617.38
521.159	14934.38
521.93	14363.38
522.702	13816.38
523.474	13229.38
524.245	12644.38
525.017	12130.38
525.788	11746.38
526.56	11137.38
527.331	10629.38
528.102	10149.38
528.873	9731.38
529.644	9232.38
530.415	8824.38
531.186	8390.38
531.957	7950.38
532.728	7592.38
533.498	7205.38
534.269	6775.38
535.039	6433.38
535.81	6070.38
536.58	5745.38
537.351	5417.38
538.121	5109.38
538.891	4874.38
539.661	4552.38
540.431	4343.38
541.201	4085.38
541.971	3882.38
542.741	3680.38
543.51	3495.38
544.28	3328.38
545.05	3156.38
545.819	3001.38
546.588	2852.38
547.358	2724.38
548.127	2577.38
548.896	2444.38
549.665	2337.38
550.434	2214.38
551.203	2083.38
551.972	1963.38
552.741	1878.38
553.51	1764.38
554.278	1686.38
555.047	1581.38
555.815	1490.38
556.584	1422.38
557.352	1333.38
558.121	1249.38
558.889	1202.38
559.657	1120.38
560.425	1059.38
561.193	1010.38
561.961	954.38
562.729	888.38
563.496	834.38
564.264	804.38
565.032	758.38
565.799	707.38
566.567	680.38
567.334	638.38
568.101	606.38
568.869	569.38
569.636	527.38
570.403	498.38
571.17	478.38
571.937	454.38
572.704	421.38
573.471	403.38
574.237	378.38
575.004	354.38
575.771	339.38
576.537	309.38
577.303	299.38
578.07	286.38
578.836	260.38
579.602	253.38
580.368	237.38
581.134	221.38
581.9	206.38
582.666	203.38
583.432	191.38
584.198	181.38
584.964	169.38
585.729	160.38
586.495	153.38
587.26	146.38
588.025	135.38
588.791	131.38
589.556	124.38
590.321	118.38
591.086	113.38
591.851	108.38
592.616	99.38
593.381	93.38
594.146	92.38
594.911	85.38
595.675	81.38
596.44	81.38
597.204	74.38
597.969	72.38
598.733	67.38
599.497	64.38
600.261	62.38
601.025	59.38
601.79	58.38
602.553	55.38
603.317	56.38
604.081	47.38
604.845	49.38
605.609	46.38
606.372	44.38
607.136	41.38
607.899	39.38
608.662	39.38
609.426	37.38
610.189	37.38
610.952	34.38
611.715	33.38
612.478	34.38
613.241	35.38
614.004	27.38
614.767	29.38
615.529	27.38
616.292	26.38
617.055	26.38
617.817	24.38
618.579	24.38
619.342	24.38
620.104	23.38
620.866	23.38
621.628	21.38
622.39	20.38
623.152	20.38
623.914	18.38
624.676	18.38
625.438	19.38
626.199	15.38
626.961	16.38
627.722	16.38
628.484	13.38
629.245	15.38
630.006	11.38
630.768	14.38
631.529	15.38
632.29	12.38
633.051	12.38
633.812	12.38
634.573	14.38
635.333	11.38
636.094	12.38
636.855	10.38
637.615	8.38
638.376	10.38
639.136	9.38
639.896	9.38
640.657	10.38
641.417	10.38
642.177	10.38
642.937	8.38
643.697	10.38
644.457	8.38
645.216	12.38
645.976	7.38
646.736	7.38
647.495	10.38
648.255	7.38
649.014	7.38
649.774	9.38
650.533	6.38
651.292	8.38
652.051	6.38
652.81	7.38
653.569	7.38
654.328	6.38
655.087	8.38
655.846	6.38
656.604	5.38
657.363	5.38
658.121	8.38
658.88	6.38
659.638	5.38
660.397	7.38
661.155	6.38
661.913	8.38
662.671	5.38
663.429	5.38
664.187	6.38
664.945	6.38
665.703	9.38
666.46	5.38
667.218	7.38
667.976	7.38
668.733	3.38
669.49	6.38
670.248	3.38
671.005	5.38
671.762	5.38
672.519	4.38
673.276	4.38
674.033	5.38
674.79	5.38
675.547	5.38
676.304	5.38
677.06	5.38
677.817	4.38
678.574	5.38
679.33	2.38
680.086	4.38
680.843	3.38
681.599	5.38
682.355	4.38
683.111	4.38
683.867	5.38
684.623	3.38
685.379	5.38
686.135	5.38
686.89	5.38
687.646	2.38
688.402	3.38
689.157	3.38
689.912	3.38
690.668	5.38
691.423	2.38
692.178	4.38
692.933	3.38
693.688	3.38
694.443	2.38
695.198	4.38
695.953	5.38
696.708	2.38
697.462	4.38
698.217	4.38
698.972	6.38
699.726	7.38
700.48	3.38
701.235	5.38
701.989	5.38
702.743	6.38
703.497	2.38
704.251	5.38
705.005	5.38
705.759	3.38
706.513	0.38
707.266	5.38
708.02	3.38
708.774	4.38
709.527	6.38
710.28	4.38
711.034	4.38
711.787	4.38
712.54	4.38
713.293	3.38
714.046	2.38
714.799	4.38
715.552	6.38
716.305	2.38
717.058	3.38
717.81	3.38
718.563	4.38
719.315	3.38
720.068	2.38
720.82	3.38
721.573	5.38
722.325	2.38
723.077	4.38
723.829	2.38
724.581	3.38
725.333	5.38
726.085	5.38
726.836	3.38
727.588	1.38
728.34	2.38
729.091	4.38
729.843	5.38
730.594	5.38
731.346	6.38
732.097	3.38
732.848	3.38
733.599	5.38
734.35	5.38
735.101	6.38
735.852	3.38
736.603	4.38
737.354	7.38
738.104	2.38
738.855	5.38
739.605	1.38
740.356	4.38
741.106	4.38
741.856	5.38
742.607	2.38
743.357	6.38
744.107	4.38
744.857	6.38
745.607	6.38
746.357	4.38
747.106	4.38
747.856	2.38
748.606	3.38
749.355	8.38
750.105	4.38
750.854	4.38
751.603	4.38
752.353	6.38
753.102	7.38
753.851	5.38
754.6	7.38
755.349	5.38
756.098	6.38
756.847	6.38
757.595	5.38
758.344	6.38
759.093	7.38
759.841	7.38
760.589	6.38
761.338	5.38
762.086	4.38
762.834	8.38
763.582	5.38
764.331	8.38
765.079	7.38
765.826	6.38
766.574	7.38
767.322	8.38
768.07	5.38
768.817	7.38
769.565	7.38
770.312	6.38
771.06	7.38
771.807	8.38
772.554	9.38
773.302	8.38
774.049	7.38
774.796	8.38
775.543	8.38
776.29	9.38
777.036	7.38
777.783	10.38
778.53	8.38
779.276	8.38
780.023	8.38
780.769	8.38
781.516	7.38
782.262	10.38
783.008	8.38
783.754	7.38
784.5	11.38
785.246	10.38
785.992	8.38
786.738	8.38
787.484	7.38
788.23	9.38
788.975	8.38
789.721	9.38
790.466	9.38
791.212	7.38
791.957	8.38
792.702	10.38
793.447	10.38
794.193	10.38
794.938	7.38
795.683	10.38
796.427	8.38
797.172	8.38
797.917	7.38
798.662	9.38
799.406	6.38
800.151	6.38
800.895	6.38
801.64	7.38
802.384	8.38
803.128	6.38
803.872	6.38
804.616	10.38
805.36	8.38
806.104	8.38
806.848	6.38
807.592	8.38
808.336	8.38
809.079	6.38
809.823	5.38
810.566	4.38
811.31	7.38
812.053	5.38
812.796	7.38
813.539	4.38
814.283	4.38
815.026	4.38
815.769	5.38
816.511	7.38
817.254	6.38
817.997	6.38
818.74	4.38
819.482	4.38
820.225	3.38
820.967	4.38
821.71	5.38
822.452	4.38
823.194	6.38
823.936	4.38
824.678	4.38
825.42	6.38
826.162	6.38
826.904	4.38
827.646	4.38
828.388	2.38
829.129	5.38
829.871	4.38
830.612	6.38
831.354	3.38
832.095	4.38
832.836	4.38
833.577	5.38
834.319	4.38
835.06	5.38
835.801	3.38
836.542	1.38
837.282	5.38
838.023	2.38
838.764	3.38
839.504	4.38
840.245	3.38
840.985	4.38
841.726	3.38
842.466	3.38
843.206	4.38
843.946	5.38
844.687	3.38
845.427	3.38
846.166	5.38
846.906	1.38
847.646	1.38
848.386	2.38
849.125	3.38
849.865	5.38
850.605	4.38
851.344	5.38
852.083	2.38
852.823	2.38
853.562	1.38
854.301	2.38
855.04	5.38
855.779	2.38
856.518	2.38
857.257	2.38
857.995	2.38
858.734	3.38
859.473	2.38
860.211	5.38
860.95	2.38
861.688	1.38
862.426	3.38
863.165	4.38
863.903	5.38
864.641	2.38
865.379	3.38
866.117	2.38
866.855	0.38
867.593	2.38
868.33	4.38
869.068	1.38
869.806	2.38
870.543	3.38
871.28	2.38
872.018	2.38
872.755	3.38
873.492	0.38
874.229	3.38
874.967	0.38
875.703	1.38
876.44	1.38
877.177	1.38
877.914	1.38
878.651	2.38
879.387	2.38
880.124	1.38
880.86	2.38
881.597	1.38
882.333	0.38
883.069	2.38
883.806	1.38
884.542	1.38
885.278	2.38
886.014	0.38
886.749	2.38
887.485	1.38
888.221	1.38
888.957	0.38
889.692	1.38
890.428	0.38
891.163	1.38
891.899	3.38
892.634	0.38
893.369	2.38
894.104	2.38
894.839	0.38
895.574	0.38
896.309	-0.62
897.044	4.38
897.779	1.38
898.514	0.38
899.248	0.38
899.983	0.38
900.717	2.38
901.452	0.38
902.186	1.38
902.92	0.38
903.654	1.38
904.389	1.38
905.123	1.38
905.857	1.38
906.59	0.38
907.324	0.38
908.058	1.38
908.792	0.38
909.525	2.38
910.259	-0.62
910.992	1.38
911.726	-0.62
912.459	1.38
913.192	1.38
913.925	-0.62
914.658	2.38
915.391	2.38
916.124	1.38
916.857	1.38
917.59	1.38
918.323	1.38
919.055	2.38
919.788	1.38
920.521	1.38
921.253	1.38
921.985	2.38
922.718	-0.62
923.45	2.38
924.182	0.38
924.914	1.38
925.646	0.38
926.378	0.38
927.11	1.38
927.841	1.38
928.573	1.38
929.305	-0.62
930.036	3.38
930.768	-1.62
931.499	0.38
932.23	0.38
932.962	1.38
933.693	1.38
934.424	-1.62
935.155	1.38
935.886	0.38
936.617	0.38
937.348	0.38
938.078	1.38
938.809	2.38
939.54	-2.62
940.27	1.38
941.001	0.38
941.731	0.38
942.461	3.38
943.191	0.38
943.922	1.38
944.652	-0.62
945.382	0.38
946.112	0.38
946.841	0.38
947.571	0.38
948.301	-2.62
949.031	-0.62
949.76	1.38
950.49	0.38
951.219	2.38
951.948	2.38
952.678	1.38
953.407	1.38
954.136	1.38
954.865	0.38
955.594	1.38
956.323	-0.62
957.052	-1.62
957.78	0.38
958.509	-0.62
959.238	-0.62
959.966	0.38
960.695	-0.62
961.423	1.38
962.151	1.38
962.88	0.38
963.608	2.38
964.336	-1.62
965.064	1.38
965.792	-0.62
966.52	1.38
967.247	1.38
967.975	0.38
968.703	-0.62
969.43	0.38
970.158	2.38
970.885	0.38
971.613	1.38
972.34	0.38
973.067	0.38
973.794	-0.62
974.521	-1.62
975.248	1.38
975.975	-0.62
976.702	1.38
977.429	-0.62
978.156	0.38
978.882	-0.62
979.609	2.38
980.335	0.38
981.062	1.38
981.788	1.38
982.514	-0.62
983.24	0.38
983.967	1.38
984.693	2.38
985.419	0.38
986.144	0.38
986.87	0.38
987.596	-1.62
988.322	-0.62
989.047	-0.62
989.773	-0.62
990.498	2.38
991.224	1.38
991.949	0.38
992.674	2.38
993.399	-0.62
994.124	1.38
994.849	1.38
995.574	1.38
996.299	1.38
997.024	1.38
997.749	3.38
998.473	1.38
999.198	0.38
999.922	0.38
1000.647	1.38
1001.371	3.38
1002.095	-0.62
1002.82	-1.62
1003.544	-1.62
1004.268	1.38
1004.992	1.38
1005.716	1.38
1006.439	2.38
1007.163	4.38
1007.887	1.38
1008.611	1.38
1009.334	3.38
1010.058	0.38
1010.781	0.38
1011.504	2.38
1012.228	0.38
1012.951	2.38
1013.674	-1.62
1014.397	1.38
1015.12	-1.62
