节点500_285_QEPB04081__802__15-08-53-750.txt的数据

Date: Wed Nov 12 15:08:53 CST 2025
User: PC
Spectrometer: QEPB0408
触发模式: 0
积分时间 (秒): 1.000000E-2
Scans to average: 1
启用暗噪声校正: true
启用非线性校正: false
滑动平均宽度: 0
X轴模式: Wavelengths
Number of Pixels in Spectrum: 1044
>>>>>Begin Spectral Data<<<<<
220.843	1.25
221.644	3.25
222.444	0.25
223.244	2.25
224.045	2.25
224.845	2.25
225.645	3.25
226.445	0.25
227.245	3.25
228.045	2.25
228.845	3.25
229.645	3.25
230.444	0.25
231.244	3.25
232.043	3.25
232.843	3.25
233.642	3.25
234.442	3.25
235.241	3.25
236.04	1.25
236.839	2.25
237.638	2.25
238.437	4.25
239.236	4.25
240.035	4.25
240.833	4.25
241.632	3.25
242.43	4.25
243.229	4.25
244.027	8.25
244.826	5.25
245.624	5.25
246.422	5.25
247.22	5.25
248.018	5.25
248.816	6.25
249.614	5.25
250.412	6.25
251.21	6.25
252.007	4.25
252.805	4.25
253.602	7.25
254.4	7.25
255.197	7.25
255.994	7.25
256.791	9.25
257.589	10.25
258.386	8.25
259.183	11.25
259.979	8.25
260.776	8.25
261.573	9.25
262.37	10.25
263.166	11.25
263.963	10.25
264.759	11.25
265.556	9.25
266.352	13.25
267.148	10.25
267.944	9.25
268.74	13.25
269.536	12.25
270.332	12.25
271.128	12.25
271.924	13.25
272.719	15.25
273.515	12.25
274.311	14.25
275.106	18.25
275.901	17.25
276.697	15.25
277.492	13.25
278.287	16.25
279.082	14.25
279.877	19.25
280.672	16.25
281.467	16.25
282.262	18.25
283.056	14.25
283.851	19.25
284.646	17.25
285.44	17.25
286.234	17.25
287.029	18.25
287.823	16.25
288.617	16.25
289.411	19.25
290.205	18.25
290.999	19.25
291.793	17.25
292.587	16.25
293.381	16.25
294.174	16.25
294.968	17.25
295.761	13.25
296.555	14.25
297.348	14.25
298.141	16.25
298.935	15.25
299.728	14.25
300.521	13.25
301.314	13.25
302.107	14.25
302.899	14.25
303.692	12.25
304.485	14.25
305.277	10.25
306.07	13.25
306.862	14.25
307.655	11.25
308.447	13.25
309.239	11.25
310.031	13.25
310.823	11.25
311.615	10.25
312.407	10.25
313.199	11.25
313.991	9.25
314.783	8.25
315.574	10.25
316.366	8.25
317.157	9.25
317.949	9.25
318.74	8.25
319.531	7.25
320.322	9.25
321.113	8.25
321.904	8.25
322.695	7.25
323.486	9.25
324.277	7.25
325.068	6.25
325.858	9.25
326.649	7.25
327.439	8.25
328.23	7.25
329.02	7.25
329.81	4.25
330.6	7.25
331.391	6.25
332.181	6.25
332.971	6.25
333.76	4.25
334.55	7.25
335.34	6.25
336.13	8.25
336.919	6.25
337.709	7.25
338.498	4.25
339.287	7.25
340.077	6.25
340.866	6.25
341.655	6.25
342.444	7.25
343.233	7.25
344.022	7.25
344.811	5.25
345.6	7.25
346.388	4.25
347.177	6.25
347.965	6.25
348.754	4.25
349.542	7.25
350.33	6.25
351.119	7.25
351.907	6.25
352.695	5.25
353.483	4.25
354.271	5.25
355.059	4.25
355.846	5.25
356.634	5.25
357.422	9.25
358.209	5.25
358.997	6.25
359.784	5.25
360.571	7.25
361.359	5.25
362.146	3.25
362.933	2.25
363.72	3.25
364.507	5.25
365.294	7.25
366.081	5.25
366.867	3.25
367.654	5.25
368.44	3.25
369.227	2.25
370.013	5.25
370.8	5.25
371.586	6.25
372.372	6.25
373.158	5.25
373.944	4.25
374.73	7.25
375.516	5.25
376.302	3.25
377.088	6.25
377.873	6.25
378.659	3.25
379.445	5.25
380.23	4.25
381.015	4.25
381.801	5.25
382.586	3.25
383.371	3.25
384.156	5.25
384.941	7.25
385.726	6.25
386.511	6.25
387.296	6.25
388.08	6.25
388.865	6.25
389.649	7.25
390.434	6.25
391.218	6.25
392.003	7.25
392.787	5.25
393.571	5.25
394.355	5.25
395.139	6.25
395.923	7.25
396.707	5.25
397.491	7.25
398.274	6.25
399.058	7.25
399.842	9.25
400.625	4.25
401.408	6.25
402.192	5.25
402.975	8.25
403.758	6.25
404.541	5.25
405.324	9.25
406.107	8.25
406.89	10.25
407.673	5.25
408.456	6.25
409.238	10.25
410.021	4.25
410.803	5.25
411.586	6.25
412.368	10.25
413.151	7.25
413.933	7.25
414.715	9.25
415.497	8.25
416.279	10.25
417.061	9.25
417.843	9.25
418.624	9.25
419.406	8.25
420.188	9.25
420.969	8.25
421.751	11.25
422.532	10.25
423.313	10.25
424.095	12.25
424.876	11.25
425.657	14.25
426.438	11.25
427.219	11.25
428	11.25
428.78	12.25
429.561	12.25
430.342	15.25
431.122	14.25
431.903	13.25
432.683	15.25
433.464	18.25
434.244	15.25
435.024	16.25
435.804	18.25
436.584	18.25
437.364	17.25
438.144	20.25
438.924	19.25
439.704	20.25
440.483	25.25
441.263	24.25
442.042	27.25
442.822	27.25
443.601	30.25
444.38	30.25
445.16	33.25
445.939	34.25
446.718	37.25
447.497	41.25
448.276	42.25
449.054	46.25
449.833	54.25
450.612	57.25
451.391	62.25
452.169	72.25
452.948	77.25
453.726	82.25
454.504	89.25
455.282	100.25
456.061	107.25
456.839	125.25
457.617	141.25
458.395	152.25
459.172	169.25
459.95	185.25
460.728	210.25
461.506	230.25
462.283	258.25
463.061	285.25
463.838	328.25
464.615	365.25
465.393	388.25
466.17	441.25
466.947	485.25
467.724	545.25
468.501	601.25
469.278	664.25
470.055	736.25
470.831	828.25
471.608	901.25
472.385	1007.25
473.161	1093.25
473.938	1191.25
474.714	1322.25
475.49	1458.25
476.266	1617.25
477.043	1771.25
477.819	1934.25
478.595	2100.25
479.371	2319.25
480.146	2547.25
480.922	2778.25
481.698	3081.25
482.473	3324.25
483.249	3621.25
484.024	3992.25
484.8	4358.25
485.575	4727.25
486.35	5145.25
487.126	5621.25
487.901	6109.25
488.676	6625.25
489.451	7228.25
490.225	7853.25
491	8496.25
491.775	9270.25
492.55	10036.25
493.324	10826.25
494.099	11606.25
494.873	12437.25
495.647	13417.25
496.422	14326.25
497.196	15335.25
497.97	16401.25
498.744	17429.25
499.518	18446.25
500.292	19498.25
501.066	20491.25
501.839	21426.25
502.613	22374.25
503.387	23216.25
504.16	23832.25
504.934	24327.25
505.707	24682.25
506.48	24925.25
507.253	25053.25
508.027	25118.25
508.8	25066.25
509.573	24863.25
510.346	24545.25
511.118	24053.25
511.891	23522.25
512.664	22846.25
513.437	22170.25
514.209	21375.25
514.982	20646.25
515.754	19898.25
516.526	19049.25
517.298	18313.25
518.071	17548.25
518.843	16841.25
519.615	16242.25
520.387	15616.25
521.159	14972.25
521.93	14361.25
522.702	13803.25
523.474	13277.25
524.245	12711.25
525.017	12201.25
525.788	11721.25
526.56	11188.25
527.331	10684.25
528.102	10266.25
528.873	9776.25
529.644	9358.25
530.415	8946.25
531.186	8490.25
531.957	8090.25
532.728	7716.25
533.498	7315.25
534.269	6952.25
535.039	6549.25
535.81	6246.25
536.58	5889.25
537.351	5542.25
538.121	5238.25
538.891	4986.25
539.661	4729.25
540.431	4464.25
541.201	4205.25
541.971	3984.25
542.741	3794.25
543.51	3576.25
544.28	3406.25
545.05	3251.25
545.819	3065.25
546.588	2919.25
547.358	2791.25
548.127	2651.25
548.896	2522.25
549.665	2393.25
550.434	2282.25
551.203	2150.25
551.972	2036.25
552.741	1920.25
553.51	1814.25
554.278	1728.25
555.047	1633.25
555.815	1537.25
556.584	1455.25
557.352	1385.25
558.121	1306.25
558.889	1235.25
559.657	1166.25
560.425	1105.25
561.193	1042.25
561.961	971.25
562.729	918.25
563.496	867.25
564.264	831.25
565.032	786.25
565.799	730.25
566.567	711.25
567.334	665.25
568.101	620.25
568.869	589.25
569.636	563.25
570.403	522.25
571.17	497.25
571.937	465.25
572.704	441.25
573.471	410.25
574.237	385.25
575.004	375.25
575.771	350.25
576.537	327.25
577.303	314.25
578.07	296.25
578.836	275.25
579.602	260.25
580.368	243.25
581.134	232.25
581.9	215.25
582.666	208.25
583.432	192.25
584.198	188.25
584.964	176.25
585.729	167.25
586.495	161.25
587.26	149.25
588.025	141.25
588.791	136.25
589.556	131.25
590.321	124.25
591.086	116.25
591.851	107.25
592.616	102.25
593.381	99.25
594.146	92.25
594.911	93.25
595.675	89.25
596.44	81.25
597.204	72.25
597.969	73.25
598.733	71.25
599.497	70.25
600.261	65.25
601.025	63.25
601.79	58.25
602.553	59.25
603.317	52.25
604.081	49.25
604.845	49.25
605.609	49.25
606.372	47.25
607.136	43.25
607.899	41.25
608.662	39.25
609.426	36.25
610.189	36.25
610.952	36.25
611.715	37.25
612.478	35.25
613.241	34.25
614.004	33.25
614.767	29.25
615.529	28.25
616.292	27.25
617.055	26.25
617.817	23.25
618.579	24.25
619.342	25.25
620.104	23.25
620.866	23.25
621.628	22.25
622.39	21.25
623.152	19.25
623.914	18.25
624.676	18.25
625.438	18.25
626.199	17.25
626.961	16.25
627.722	13.25
628.484	14.25
629.245	15.25
630.006	14.25
630.768	12.25
631.529	13.25
632.29	14.25
633.051	11.25
633.812	12.25
634.573	12.25
635.333	12.25
636.094	13.25
636.855	10.25
637.615	9.25
638.376	10.25
639.136	11.25
639.896	8.25
640.657	6.25
641.417	10.25
642.177	8.25
642.937	10.25
643.697	9.25
644.457	8.25
645.216	7.25
645.976	8.25
646.736	9.25
647.495	8.25
648.255	8.25
649.014	6.25
649.774	8.25
650.533	8.25
651.292	6.25
652.051	6.25
652.81	8.25
653.569	5.25
654.328	8.25
655.087	6.25
655.846	6.25
656.604	8.25
657.363	5.25
658.121	2.25
658.88	8.25
659.638	4.25
660.397	4.25
661.155	7.25
661.913	5.25
662.671	5.25
663.429	3.25
664.187	4.25
664.945	4.25
665.703	6.25
666.46	4.25
667.218	5.25
667.976	6.25
668.733	5.25
669.49	3.25
670.248	4.25
671.005	4.25
671.762	6.25
672.519	4.25
673.276	6.25
674.033	7.25
674.79	6.25
675.547	3.25
676.304	2.25
677.06	5.25
677.817	4.25
678.574	4.25
679.33	5.25
680.086	4.25
680.843	5.25
681.599	2.25
682.355	5.25
683.111	4.25
683.867	5.25
684.623	5.25
685.379	6.25
686.135	5.25
686.89	1.25
687.646	6.25
688.402	4.25
689.157	3.25
689.912	3.25
690.668	3.25
691.423	4.25
692.178	5.25
692.933	6.25
693.688	5.25
694.443	4.25
695.198	5.25
695.953	5.25
696.708	4.25
697.462	4.25
698.217	5.25
698.972	5.25
699.726	3.25
700.48	3.25
701.235	2.25
701.989	3.25
702.743	5.25
703.497	4.25
704.251	4.25
705.005	3.25
705.759	4.25
706.513	2.25
707.266	3.25
708.02	2.25
708.774	4.25
709.527	5.25
710.28	3.25
711.034	4.25
711.787	0.25
712.54	6.25
713.293	2.25
714.046	2.25
714.799	3.25
715.552	3.25
716.305	3.25
717.058	3.25
717.81	4.25
718.563	5.25
719.315	2.25
720.068	5.25
720.82	4.25
721.573	5.25
722.325	2.25
723.077	5.25
723.829	3.25
724.581	2.25
725.333	4.25
726.085	2.25
726.836	5.25
727.588	5.25
728.34	5.25
729.091	5.25
729.843	4.25
730.594	2.25
731.346	4.25
732.097	3.25
732.848	1.25
733.599	4.25
734.35	3.25
735.101	5.25
735.852	4.25
736.603	3.25
737.354	5.25
738.104	3.25
738.855	4.25
739.605	4.25
740.356	4.25
741.106	3.25
741.856	4.25
742.607	2.25
743.357	5.25
744.107	6.25
744.857	4.25
745.607	6.25
746.357	3.25
747.106	2.25
747.856	5.25
748.606	2.25
749.355	4.25
750.105	4.25
750.854	4.25
751.603	6.25
752.353	5.25
753.102	7.25
753.851	6.25
754.6	6.25
755.349	5.25
756.098	6.25
756.847	6.25
757.595	3.25
758.344	7.25
759.093	4.25
759.841	6.25
760.589	6.25
761.338	2.25
762.086	7.25
762.834	5.25
763.582	8.25
764.331	5.25
765.079	4.25
765.826	7.25
766.574	7.25
767.322	7.25
768.07	7.25
768.817	6.25
769.565	7.25
770.312	9.25
771.06	7.25
771.807	4.25
772.554	7.25
773.302	5.25
774.049	7.25
774.796	7.25
775.543	7.25
776.29	8.25
777.036	6.25
777.783	7.25
778.53	7.25
779.276	5.25
780.023	8.25
780.769	6.25
781.516	10.25
782.262	8.25
783.008	9.25
783.754	6.25
784.5	7.25
785.246	8.25
785.992	8.25
786.738	8.25
787.484	8.25
788.23	8.25
788.975	8.25
789.721	6.25
790.466	8.25
791.212	7.25
791.957	9.25
792.702	8.25
793.447	8.25
794.193	7.25
794.938	9.25
795.683	8.25
796.427	7.25
797.172	9.25
797.917	6.25
798.662	4.25
799.406	5.25
800.151	7.25
800.895	7.25
801.64	7.25
802.384	8.25
803.128	5.25
803.872	7.25
804.616	7.25
805.36	4.25
806.104	5.25
806.848	4.25
807.592	6.25
808.336	5.25
809.079	5.25
809.823	5.25
810.566	8.25
811.31	6.25
812.053	5.25
812.796	7.25
813.539	5.25
814.283	6.25
815.026	4.25
815.769	4.25
816.511	7.25
817.254	4.25
817.997	4.25
818.74	4.25
819.482	5.25
820.225	5.25
820.967	2.25
821.71	4.25
822.452	3.25
823.194	4.25
823.936	2.25
824.678	4.25
825.42	8.25
826.162	4.25
826.904	5.25
827.646	3.25
828.388	4.25
829.129	2.25
829.871	4.25
830.612	3.25
831.354	4.25
832.095	4.25
832.836	4.25
833.577	3.25
834.319	4.25
835.06	2.25
835.801	5.25
836.542	3.25
837.282	5.25
838.023	4.25
838.764	2.25
839.504	5.25
840.245	1.25
840.985	5.25
841.726	0.25
842.466	5.25
843.206	2.25
843.946	3.25
844.687	2.25
845.427	4.25
846.166	2.25
846.906	2.25
847.646	2.25
848.386	4.25
849.125	2.25
849.865	2.25
850.605	2.25
851.344	3.25
852.083	2.25
852.823	2.25
853.562	3.25
854.301	1.25
855.04	4.25
855.779	3.25
856.518	4.25
857.257	3.25
857.995	2.25
858.734	2.25
859.473	3.25
860.211	3.25
860.95	2.25
861.688	4.25
862.426	4.25
863.165	0.25
863.903	1.25
864.641	2.25
865.379	3.25
866.117	0.25
866.855	2.25
867.593	0.25
868.33	1.25
869.068	1.25
869.806	1.25
870.543	4.25
871.28	2.25
872.018	3.25
872.755	0.25
873.492	0.25
874.229	0.25
874.967	2.25
875.703	1.25
876.44	-0.75
877.177	1.25
877.914	0.25
878.651	2.25
879.387	2.25
880.124	0.25
880.86	-0.75
881.597	0.25
882.333	-0.75
883.069	1.25
883.806	0.25
884.542	1.25
885.278	0.25
886.014	-0.75
886.749	2.25
887.485	1.25
888.221	1.25
888.957	0.25
889.692	0.25
890.428	2.25
891.163	1.25
891.899	2.25
892.634	0.25
893.369	1.25
894.104	-0.75
894.839	-1.75
895.574	-0.75
896.309	1.25
897.044	0.25
897.779	-1.75
898.514	2.25
899.248	0.25
899.983	1.25
900.717	1.25
901.452	1.25
902.186	1.25
902.92	0.25
903.654	0.25
904.389	1.25
905.123	0.25
905.857	0.25
906.59	1.25
907.324	2.25
908.058	1.25
908.792	1.25
909.525	2.25
910.259	1.25
910.992	2.25
911.726	1.25
912.459	2.25
913.192	-1.75
913.925	0.25
914.658	2.25
915.391	1.25
916.124	-0.75
916.857	0.25
917.59	1.25
918.323	3.25
919.055	4.25
919.788	2.25
920.521	-0.75
921.253	1.25
921.985	2.25
922.718	-0.75
923.45	0.25
924.182	0.25
924.914	1.25
925.646	2.25
926.378	3.25
927.11	0.25
927.841	-0.75
928.573	0.25
929.305	-1.75
930.036	2.25
930.768	-1.75
931.499	-0.75
932.23	-1.75
932.962	1.25
933.693	0.25
934.424	0.25
935.155	1.25
935.886	-0.75
936.617	2.25
937.348	1.25
938.078	0.25
938.809	2.25
939.54	1.25
940.27	-1.75
941.001	2.25
941.731	1.25
942.461	1.25
943.191	1.25
943.922	0.25
944.652	-1.75
945.382	1.25
946.112	2.25
946.841	1.25
947.571	0.25
948.301	1.25
949.031	1.25
949.76	1.25
950.49	0.25
951.219	0.25
951.948	-0.75
952.678	1.25
953.407	-0.75
954.136	-0.75
954.865	1.25
955.594	-0.75
956.323	1.25
957.052	0.25
957.78	0.25
958.509	-1.75
959.238	1.25
959.966	1.25
960.695	2.25
961.423	1.25
962.151	-1.75
962.88	-1.75
963.608	-1.75
964.336	0.25
965.064	2.25
965.792	0.25
966.52	0.25
967.247	0.25
967.975	0.25
968.703	-1.75
969.43	0.25
970.158	-0.75
970.885	1.25
971.613	1.25
972.34	1.25
973.067	1.25
973.794	1.25
974.521	1.25
975.248	0.25
975.975	0.25
976.702	1.25
977.429	-0.75
978.156	1.25
978.882	1.25
979.609	0.25
980.335	0.25
981.062	-1.75
981.788	2.25
982.514	0.25
983.24	0.25
983.967	-1.75
984.693	0.25
985.419	-0.75
986.144	-1.75
986.87	1.25
987.596	-1.75
988.322	1.25
989.047	0.25
989.773	1.25
990.498	1.25
991.224	0.25
991.949	0.25
992.674	1.25
993.399	1.25
994.124	-0.75
994.849	-0.75
995.574	1.25
996.299	0.25
997.024	1.25
997.749	0.25
998.473	0.25
999.198	-0.75
999.922	1.25
1000.647	0.25
1001.371	3.25
1002.095	-0.75
1002.82	-1.75
1003.544	-0.75
1004.268	1.25
1004.992	1.25
1005.716	0.25
1006.439	1.25
1007.163	1.25
1007.887	1.25
1008.611	-0.75
1009.334	2.25
1010.058	0.25
1010.781	1.25
1011.504	1.25
1012.228	2.25
1012.951	-1.75
1013.674	1.25
1014.397	0.25
1015.12	0.25
