节点500_285_QEPB04081__408__15-02-20-610.txt的数据

Date: Wed Nov 12 15:02:20 CST 2025
User: PC
Spectrometer: QEPB0408
触发模式: 0
积分时间 (秒): 1.000000E-2
Scans to average: 1
启用暗噪声校正: true
启用非线性校正: false
滑动平均宽度: 0
X轴模式: Wavelengths
Number of Pixels in Spectrum: 1044
>>>>>Begin Spectral Data<<<<<
220.843	2.12
221.644	2.12
222.444	1.12
223.244	3.12
224.045	2.12
224.845	1.12
225.645	4.12
226.445	3.12
227.245	4.12
228.045	3.12
228.845	3.12
229.645	4.12
230.444	2.12
231.244	5.12
232.043	4.12
232.843	4.12
233.642	4.12
234.442	2.12
235.241	5.12
236.04	4.12
236.839	3.12
237.638	3.12
238.437	6.12
239.236	3.12
240.035	2.12
240.833	5.12
241.632	3.12
242.43	7.12
243.229	4.12
244.027	4.12
244.826	7.12
245.624	4.12
246.422	6.12
247.22	9.12
248.018	6.12
248.816	4.12
249.614	7.12
250.412	7.12
251.21	7.12
252.007	6.12
252.805	7.12
253.602	8.12
254.4	9.12
255.197	8.12
255.994	10.12
256.791	8.12
257.589	9.12
258.386	10.12
259.183	8.12
259.979	10.12
260.776	8.12
261.573	9.12
262.37	10.12
263.166	9.12
263.963	12.12
264.759	15.12
265.556	15.12
266.352	11.12
267.148	9.12
267.944	14.12
268.74	14.12
269.536	14.12
270.332	15.12
271.128	15.12
271.924	16.12
272.719	14.12
273.515	16.12
274.311	16.12
275.106	17.12
275.901	15.12
276.697	17.12
277.492	16.12
278.287	19.12
279.082	16.12
279.877	19.12
280.672	17.12
281.467	19.12
282.262	21.12
283.056	21.12
283.851	18.12
284.646	18.12
285.44	18.12
286.234	18.12
287.029	19.12
287.823	21.12
288.617	19.12
289.411	19.12
290.205	19.12
290.999	15.12
291.793	17.12
292.587	17.12
293.381	17.12
294.174	18.12
294.968	15.12
295.761	18.12
296.555	18.12
297.348	17.12
298.141	15.12
298.935	16.12
299.728	14.12
300.521	16.12
301.314	14.12
302.107	9.12
302.899	11.12
303.692	11.12
304.485	11.12
305.277	15.12
306.07	12.12
306.862	14.12
307.655	11.12
308.447	14.12
309.239	14.12
310.031	13.12
310.823	10.12
311.615	11.12
312.407	13.12
313.199	11.12
313.991	9.12
314.783	11.12
315.574	9.12
316.366	9.12
317.157	7.12
317.949	8.12
318.74	9.12
319.531	8.12
320.322	8.12
321.113	9.12
321.904	10.12
322.695	7.12
323.486	8.12
324.277	8.12
325.068	6.12
325.858	9.12
326.649	7.12
327.439	6.12
328.23	6.12
329.02	8.12
329.81	8.12
330.6	7.12
331.391	7.12
332.181	7.12
332.971	6.12
333.76	5.12
334.55	7.12
335.34	8.12
336.13	9.12
336.919	6.12
337.709	5.12
338.498	5.12
339.287	7.12
340.077	3.12
340.866	6.12
341.655	7.12
342.444	9.12
343.233	6.12
344.022	9.12
344.811	7.12
345.6	6.12
346.388	7.12
347.177	7.12
347.965	7.12
348.754	9.12
349.542	8.12
350.33	4.12
351.119	7.12
351.907	9.12
352.695	5.12
353.483	7.12
354.271	7.12
355.059	7.12
355.846	6.12
356.634	6.12
357.422	6.12
358.209	4.12
358.997	5.12
359.784	8.12
360.571	5.12
361.359	4.12
362.146	5.12
362.933	6.12
363.72	5.12
364.507	5.12
365.294	8.12
366.081	4.12
366.867	6.12
367.654	5.12
368.44	4.12
369.227	5.12
370.013	6.12
370.8	7.12
371.586	6.12
372.372	4.12
373.158	5.12
373.944	6.12
374.73	8.12
375.516	5.12
376.302	5.12
377.088	4.12
377.873	6.12
378.659	3.12
379.445	5.12
380.23	8.12
381.015	7.12
381.801	5.12
382.586	6.12
383.371	5.12
384.156	9.12
384.941	6.12
385.726	7.12
386.511	6.12
387.296	5.12
388.08	5.12
388.865	6.12
389.649	9.12
390.434	6.12
391.218	4.12
392.003	8.12
392.787	9.12
393.571	5.12
394.355	6.12
395.139	6.12
395.923	8.12
396.707	8.12
397.491	6.12
398.274	8.12
399.058	6.12
399.842	8.12
400.625	8.12
401.408	5.12
402.192	9.12
402.975	7.12
403.758	8.12
404.541	5.12
405.324	8.12
406.107	5.12
406.89	9.12
407.673	6.12
408.456	8.12
409.238	9.12
410.021	8.12
410.803	7.12
411.586	8.12
412.368	10.12
413.151	9.12
413.933	11.12
414.715	8.12
415.497	8.12
416.279	10.12
417.061	10.12
417.843	10.12
418.624	9.12
419.406	10.12
420.188	14.12
420.969	12.12
421.751	7.12
422.532	11.12
423.313	13.12
424.095	12.12
424.876	12.12
425.657	11.12
426.438	13.12
427.219	14.12
428	11.12
428.78	16.12
429.561	10.12
430.342	12.12
431.122	12.12
431.903	17.12
432.683	20.12
433.464	13.12
434.244	14.12
435.024	17.12
435.804	14.12
436.584	16.12
437.364	20.12
438.144	19.12
438.924	20.12
439.704	21.12
440.483	23.12
441.263	23.12
442.042	21.12
442.822	26.12
443.601	30.12
444.38	30.12
445.16	35.12
445.939	35.12
446.718	36.12
447.497	39.12
448.276	39.12
449.054	45.12
449.833	51.12
450.612	52.12
451.391	62.12
452.169	62.12
452.948	67.12
453.726	78.12
454.504	87.12
455.282	90.12
456.061	102.12
456.839	115.12
457.617	126.12
458.395	141.12
459.172	151.12
459.95	177.12
460.728	192.12
461.506	208.12
462.283	242.12
463.061	257.12
463.838	286.12
464.615	328.12
465.393	365.12
466.17	405.12
466.947	456.12
467.724	505.12
468.501	557.12
469.278	617.12
470.055	686.12
470.831	764.12
471.608	854.12
472.385	949.12
473.161	1056.12
473.938	1173.12
474.714	1298.12
475.49	1444.12
476.266	1585.12
477.043	1774.12
477.819	1925.12
478.595	2140.12
479.371	2349.12
480.146	2583.12
480.922	2853.12
481.698	3135.12
482.473	3447.12
483.249	3784.12
484.024	4154.12
484.8	4576.12
485.575	5022.12
486.35	5505.12
487.126	6035.12
487.901	6633.12
488.676	7248.12
489.451	7916.12
490.225	8666.12
491	9459.12
491.775	10297.12
492.55	11242.12
493.324	12131.12
494.099	13126.12
494.873	14060.12
495.647	15209.12
496.422	16299.12
497.196	17511.12
497.97	18651.12
498.744	19850.12
499.518	20955.12
500.292	22077.12
501.066	23155.12
501.839	24105.12
502.613	25063.12
503.387	25847.12
504.16	26483.12
504.934	26842.12
505.707	26977.12
506.48	27070.12
507.253	27054.12
508.027	26915.12
508.8	26560.12
509.573	26240.12
510.346	25668.12
511.118	24874.12
511.891	24163.12
512.664	23318.12
513.437	22486.12
514.209	21615.12
514.982	20723.12
515.754	19801.12
516.526	18936.12
517.298	18095.12
518.071	17287.12
518.843	16620.12
519.615	16029.12
520.387	15390.12
521.159	14790.12
521.93	14195.12
522.702	13636.12
523.474	13052.12
524.245	12478.12
525.017	11959.12
525.788	11537.12
526.56	10965.12
527.331	10492.12
528.102	10039.12
528.873	9583.12
529.644	9094.12
530.415	8642.12
531.186	8226.12
531.957	7801.12
532.728	7419.12
533.498	7050.12
534.269	6659.12
535.039	6296.12
535.81	5923.12
536.58	5622.12
537.351	5235.12
538.121	4971.12
538.891	4730.12
539.661	4479.12
540.431	4215.12
541.201	3972.12
541.971	3768.12
542.741	3574.12
543.51	3400.12
544.28	3226.12
545.05	3074.12
545.819	2925.12
546.588	2789.12
547.358	2623.12
548.127	2507.12
548.896	2383.12
549.665	2272.12
550.434	2152.12
551.203	2034.12
551.972	1925.12
552.741	1806.12
553.51	1721.12
554.278	1621.12
555.047	1528.12
555.815	1426.12
556.584	1366.12
557.352	1295.12
558.121	1211.12
558.889	1143.12
559.657	1087.12
560.425	1027.12
561.193	966.12
561.961	908.12
562.729	850.12
563.496	815.12
564.264	772.12
565.032	729.12
565.799	686.12
566.567	652.12
567.334	609.12
568.101	581.12
568.869	559.12
569.636	520.12
570.403	484.12
571.17	460.12
571.937	436.12
572.704	408.12
573.471	387.12
574.237	365.12
575.004	342.12
575.771	323.12
576.537	306.12
577.303	282.12
578.07	272.12
578.836	256.12
579.602	236.12
580.368	226.12
581.134	214.12
581.9	204.12
582.666	191.12
583.432	184.12
584.198	177.12
584.964	165.12
585.729	157.12
586.495	148.12
587.26	140.12
588.025	132.12
588.791	125.12
589.556	119.12
590.321	110.12
591.086	106.12
591.851	99.12
592.616	95.12
593.381	90.12
594.146	91.12
594.911	83.12
595.675	78.12
596.44	76.12
597.204	71.12
597.969	72.12
598.733	68.12
599.497	67.12
600.261	63.12
601.025	60.12
601.79	55.12
602.553	53.12
603.317	50.12
604.081	48.12
604.845	47.12
605.609	43.12
606.372	44.12
607.136	42.12
607.899	42.12
608.662	38.12
609.426	37.12
610.189	37.12
610.952	31.12
611.715	30.12
612.478	31.12
613.241	30.12
614.004	30.12
614.767	26.12
615.529	27.12
616.292	23.12
617.055	23.12
617.817	26.12
618.579	26.12
619.342	24.12
620.104	24.12
620.866	21.12
621.628	22.12
622.39	18.12
623.152	19.12
623.914	19.12
624.676	18.12
625.438	16.12
626.199	17.12
626.961	14.12
627.722	14.12
628.484	16.12
629.245	14.12
630.006	15.12
630.768	14.12
631.529	13.12
632.29	14.12
633.051	14.12
633.812	13.12
634.573	14.12
635.333	14.12
636.094	12.12
636.855	10.12
637.615	13.12
638.376	8.12
639.136	12.12
639.896	12.12
640.657	9.12
641.417	8.12
642.177	8.12
642.937	12.12
643.697	8.12
644.457	8.12
645.216	10.12
645.976	7.12
646.736	7.12
647.495	8.12
648.255	7.12
649.014	9.12
649.774	6.12
650.533	10.12
651.292	4.12
652.051	6.12
652.81	7.12
653.569	7.12
654.328	7.12
655.087	8.12
655.846	9.12
656.604	6.12
657.363	6.12
658.121	5.12
658.88	7.12
659.638	8.12
660.397	5.12
661.155	5.12
661.913	8.12
662.671	5.12
663.429	4.12
664.187	6.12
664.945	5.12
665.703	5.12
666.46	6.12
667.218	6.12
667.976	3.12
668.733	5.12
669.49	3.12
670.248	6.12
671.005	7.12
671.762	4.12
672.519	4.12
673.276	6.12
674.033	4.12
674.79	6.12
675.547	4.12
676.304	4.12
677.06	6.12
677.817	3.12
678.574	4.12
679.33	5.12
680.086	3.12
680.843	4.12
681.599	7.12
682.355	4.12
683.111	6.12
683.867	5.12
684.623	3.12
685.379	4.12
686.135	2.12
686.89	4.12
687.646	2.12
688.402	5.12
689.157	3.12
689.912	4.12
690.668	3.12
691.423	4.12
692.178	3.12
692.933	5.12
693.688	5.12
694.443	4.12
695.198	4.12
695.953	4.12
696.708	3.12
697.462	5.12
698.217	2.12
698.972	5.12
699.726	4.12
700.48	4.12
701.235	3.12
701.989	2.12
702.743	4.12
703.497	1.12
704.251	4.12
705.005	4.12
705.759	4.12
706.513	2.12
707.266	3.12
708.02	4.12
708.774	4.12
709.527	5.12
710.28	5.12
711.034	3.12
711.787	4.12
712.54	5.12
713.293	3.12
714.046	3.12
714.799	2.12
715.552	6.12
716.305	3.12
717.058	6.12
717.81	3.12
718.563	5.12
719.315	6.12
720.068	1.12
720.82	5.12
721.573	3.12
722.325	1.12
723.077	3.12
723.829	3.12
724.581	4.12
725.333	3.12
726.085	4.12
726.836	4.12
727.588	3.12
728.34	5.12
729.091	3.12
729.843	5.12
730.594	6.12
731.346	2.12
732.097	4.12
732.848	6.12
733.599	3.12
734.35	4.12
735.101	5.12
735.852	4.12
736.603	6.12
737.354	4.12
738.104	6.12
738.855	5.12
739.605	3.12
740.356	1.12
741.106	6.12
741.856	5.12
742.607	3.12
743.357	5.12
744.107	5.12
744.857	6.12
745.607	5.12
746.357	7.12
747.106	6.12
747.856	4.12
748.606	5.12
749.355	7.12
750.105	5.12
750.854	6.12
751.603	7.12
752.353	5.12
753.102	7.12
753.851	7.12
754.6	8.12
755.349	6.12
756.098	7.12
756.847	9.12
757.595	6.12
758.344	4.12
759.093	6.12
759.841	8.12
760.589	6.12
761.338	6.12
762.086	8.12
762.834	6.12
763.582	7.12
764.331	6.12
765.079	7.12
765.826	7.12
766.574	8.12
767.322	9.12
768.07	9.12
768.817	7.12
769.565	10.12
770.312	7.12
771.06	9.12
771.807	8.12
772.554	8.12
773.302	10.12
774.049	7.12
774.796	9.12
775.543	9.12
776.29	9.12
777.036	10.12
777.783	12.12
778.53	9.12
779.276	8.12
780.023	9.12
780.769	8.12
781.516	12.12
782.262	5.12
783.008	10.12
783.754	8.12
784.5	9.12
785.246	9.12
785.992	8.12
786.738	11.12
787.484	9.12
788.23	7.12
788.975	9.12
789.721	9.12
790.466	9.12
791.212	12.12
791.957	11.12
792.702	10.12
793.447	9.12
794.193	7.12
794.938	8.12
795.683	9.12
796.427	9.12
797.172	8.12
797.917	9.12
798.662	9.12
799.406	10.12
800.151	7.12
800.895	9.12
801.64	5.12
802.384	9.12
803.128	7.12
803.872	8.12
804.616	6.12
805.36	7.12
806.104	6.12
806.848	6.12
807.592	6.12
808.336	7.12
809.079	5.12
809.823	6.12
810.566	7.12
811.31	6.12
812.053	7.12
812.796	6.12
813.539	5.12
814.283	6.12
815.026	7.12
815.769	4.12
816.511	6.12
817.254	5.12
817.997	6.12
818.74	5.12
819.482	3.12
820.225	6.12
820.967	3.12
821.71	6.12
822.452	5.12
823.194	4.12
823.936	3.12
824.678	4.12
825.42	5.12
826.162	5.12
826.904	5.12
827.646	4.12
828.388	5.12
829.129	5.12
829.871	2.12
830.612	2.12
831.354	5.12
832.095	6.12
832.836	3.12
833.577	4.12
834.319	7.12
835.06	3.12
835.801	4.12
836.542	3.12
837.282	3.12
838.023	3.12
838.764	3.12
839.504	2.12
840.245	4.12
840.985	5.12
841.726	4.12
842.466	1.12
843.206	4.12
843.946	3.12
844.687	3.12
845.427	5.12
846.166	3.12
846.906	4.12
847.646	5.12
848.386	2.12
849.125	1.12
849.865	3.12
850.605	3.12
851.344	4.12
852.083	3.12
852.823	2.12
853.562	3.12
854.301	1.12
855.04	4.12
855.779	2.12
856.518	0.12
857.257	4.12
857.995	1.12
858.734	4.12
859.473	2.12
860.211	4.12
860.95	1.12
861.688	3.12
862.426	1.12
863.165	0.12
863.903	3.12
864.641	1.12
865.379	1.12
866.117	2.12
866.855	2.12
867.593	2.12
868.33	2.12
869.068	1.12
869.806	1.12
870.543	1.12
871.28	-0.88
872.018	3.12
872.755	2.12
873.492	1.12
874.229	2.12
874.967	2.12
875.703	1.12
876.44	1.12
877.177	0.12
877.914	2.12
878.651	4.12
879.387	1.12
880.124	2.12
880.86	4.12
881.597	2.12
882.333	1.12
883.069	4.12
883.806	0.12
884.542	0.12
885.278	2.12
886.014	2.12
886.749	5.12
887.485	1.12
888.221	1.12
888.957	2.12
889.692	1.12
890.428	0.12
891.163	2.12
891.899	1.12
892.634	0.12
893.369	0.12
894.104	2.12
894.839	1.12
895.574	1.12
896.309	1.12
897.044	2.12
897.779	1.12
898.514	1.12
899.248	1.12
899.983	0.12
900.717	0.12
901.452	2.12
902.186	2.12
902.92	2.12
903.654	1.12
904.389	2.12
905.123	0.12
905.857	-0.88
906.59	0.12
907.324	0.12
908.058	2.12
908.792	1.12
909.525	2.12
910.259	1.12
910.992	2.12
911.726	0.12
912.459	1.12
913.192	2.12
913.925	-0.88
914.658	2.12
915.391	0.12
916.124	0.12
916.857	1.12
917.59	-2.88
918.323	2.12
919.055	1.12
919.788	-0.88
920.521	3.12
921.253	1.12
921.985	1.12
922.718	1.12
923.45	0.12
924.182	0.12
924.914	4.12
925.646	1.12
926.378	2.12
927.11	1.12
927.841	1.12
928.573	1.12
929.305	1.12
930.036	-3.88
930.768	1.12
931.499	1.12
932.23	0.12
932.962	-0.88
933.693	1.12
934.424	-0.88
935.155	0.12
935.886	-1.88
936.617	2.12
937.348	1.12
938.078	0.12
938.809	3.12
939.54	0.12
940.27	-1.88
941.001	0.12
941.731	-0.88
942.461	2.12
943.191	1.12
943.922	1.12
944.652	0.12
945.382	-0.88
946.112	1.12
946.841	-0.88
947.571	2.12
948.301	-1.88
949.031	1.12
949.76	-0.88
950.49	1.12
951.219	0.12
951.948	1.12
952.678	0.12
953.407	1.12
954.136	-0.88
954.865	1.12
955.594	2.12
956.323	2.12
957.052	2.12
957.78	1.12
958.509	0.12
959.238	1.12
959.966	2.12
960.695	0.12
961.423	0.12
962.151	1.12
962.88	2.12
963.608	1.12
964.336	0.12
965.064	1.12
965.792	1.12
966.52	0.12
967.247	0.12
967.975	0.12
968.703	-0.88
969.43	2.12
970.158	0.12
970.885	0.12
971.613	0.12
972.34	0.12
973.067	1.12
973.794	3.12
974.521	2.12
975.248	1.12
975.975	0.12
976.702	1.12
977.429	1.12
978.156	0.12
978.882	0.12
979.609	0.12
980.335	-1.88
981.062	2.12
981.788	0.12
982.514	-0.88
983.24	1.12
983.967	1.12
984.693	2.12
985.419	1.12
986.144	0.12
986.87	0.12
987.596	2.12
988.322	-0.88
989.047	2.12
989.773	0.12
990.498	1.12
991.224	2.12
991.949	2.12
992.674	-1.88
993.399	1.12
994.124	1.12
994.849	2.12
995.574	-0.88
996.299	1.12
997.024	1.12
997.749	-0.88
998.473	0.12
999.198	1.12
999.922	1.12
1000.647	0.12
1001.371	2.12
1002.095	-0.88
1002.82	0.12
1003.544	-1.88
1004.268	0.12
1004.992	2.12
1005.716	0.12
1006.439	4.12
1007.163	2.12
1007.887	3.12
1008.611	-1.88
1009.334	-1.88
1010.058	0.12
1010.781	1.12
1011.504	-0.88
1012.228	1.12
1012.951	-0.88
1013.674	0.12
1014.397	-0.88
1015.12	2.12
