节点500_285_QEPB04081__635__15-06-07-071.txt的数据

Date: Wed Nov 12 15:06:07 CST 2025
User: PC
Spectrometer: QEPB0408
触发模式: 0
积分时间 (秒): 1.000000E-2
Scans to average: 1
启用暗噪声校正: true
启用非线性校正: false
滑动平均宽度: 0
X轴模式: Wavelengths
Number of Pixels in Spectrum: 1044
>>>>>Begin Spectral Data<<<<<
220.843	0.88
221.644	-0.12
222.444	1.88
223.244	1.88
224.045	1.88
224.845	-0.12
225.645	1.88
226.445	0.88
227.245	1.88
228.045	3.88
228.845	1.88
229.645	0.88
230.444	1.88
231.244	3.88
232.043	2.88
232.843	2.88
233.642	4.88
234.442	2.88
235.241	3.88
236.04	5.88
236.839	2.88
237.638	2.88
238.437	3.88
239.236	3.88
240.035	5.88
240.833	2.88
241.632	2.88
242.43	3.88
243.229	5.88
244.027	4.88
244.826	4.88
245.624	4.88
246.422	4.88
247.22	5.88
248.018	4.88
248.816	5.88
249.614	4.88
250.412	5.88
251.21	5.88
252.007	4.88
252.805	7.88
253.602	2.88
254.4	7.88
255.197	6.88
255.994	5.88
256.791	5.88
257.589	6.88
258.386	9.88
259.183	7.88
259.979	8.88
260.776	7.88
261.573	9.88
262.37	11.88
263.166	9.88
263.963	10.88
264.759	10.88
265.556	7.88
266.352	9.88
267.148	13.88
267.944	10.88
268.74	13.88
269.536	12.88
270.332	13.88
271.128	12.88
271.924	13.88
272.719	13.88
273.515	12.88
274.311	13.88
275.106	15.88
275.901	14.88
276.697	17.88
277.492	16.88
278.287	16.88
279.082	13.88
279.877	15.88
280.672	16.88
281.467	16.88
282.262	17.88
283.056	17.88
283.851	17.88
284.646	16.88
285.44	17.88
286.234	16.88
287.029	16.88
287.823	18.88
288.617	17.88
289.411	15.88
290.205	15.88
290.999	14.88
291.793	17.88
292.587	17.88
293.381	14.88
294.174	16.88
294.968	14.88
295.761	15.88
296.555	16.88
297.348	14.88
298.141	15.88
298.935	16.88
299.728	14.88
300.521	13.88
301.314	12.88
302.107	11.88
302.899	10.88
303.692	9.88
304.485	13.88
305.277	13.88
306.07	11.88
306.862	10.88
307.655	13.88
308.447	12.88
309.239	11.88
310.031	10.88
310.823	10.88
311.615	9.88
312.407	9.88
313.199	9.88
313.991	8.88
314.783	7.88
315.574	6.88
316.366	7.88
317.157	8.88
317.949	7.88
318.74	9.88
319.531	8.88
320.322	6.88
321.113	9.88
321.904	5.88
322.695	9.88
323.486	5.88
324.277	6.88
325.068	4.88
325.858	5.88
326.649	6.88
327.439	8.88
328.23	7.88
329.02	5.88
329.81	7.88
330.6	6.88
331.391	4.88
332.181	6.88
332.971	8.88
333.76	7.88
334.55	5.88
335.34	6.88
336.13	6.88
336.919	5.88
337.709	6.88
338.498	5.88
339.287	6.88
340.077	8.88
340.866	5.88
341.655	5.88
342.444	5.88
343.233	5.88
344.022	5.88
344.811	5.88
345.6	5.88
346.388	7.88
347.177	4.88
347.965	5.88
348.754	6.88
349.542	3.88
350.33	6.88
351.119	4.88
351.907	5.88
352.695	6.88
353.483	4.88
354.271	2.88
355.059	3.88
355.846	5.88
356.634	4.88
357.422	6.88
358.209	1.88
358.997	5.88
359.784	6.88
360.571	5.88
361.359	3.88
362.146	5.88
362.933	3.88
363.72	4.88
364.507	4.88
365.294	4.88
366.081	4.88
366.867	6.88
367.654	3.88
368.44	3.88
369.227	6.88
370.013	4.88
370.8	3.88
371.586	4.88
372.372	6.88
373.158	3.88
373.944	3.88
374.73	4.88
375.516	3.88
376.302	3.88
377.088	2.88
377.873	3.88
378.659	5.88
379.445	4.88
380.23	5.88
381.015	4.88
381.801	5.88
382.586	6.88
383.371	4.88
384.156	4.88
384.941	4.88
385.726	5.88
386.511	4.88
387.296	6.88
388.08	4.88
388.865	2.88
389.649	3.88
390.434	7.88
391.218	4.88
392.003	4.88
392.787	4.88
393.571	5.88
394.355	4.88
395.139	5.88
395.923	3.88
396.707	6.88
397.491	5.88
398.274	6.88
399.058	7.88
399.842	6.88
400.625	7.88
401.408	4.88
402.192	6.88
402.975	6.88
403.758	3.88
404.541	6.88
405.324	6.88
406.107	4.88
406.89	5.88
407.673	5.88
408.456	8.88
409.238	7.88
410.021	8.88
410.803	8.88
411.586	7.88
412.368	7.88
413.151	7.88
413.933	7.88
414.715	6.88
415.497	8.88
416.279	8.88
417.061	7.88
417.843	8.88
418.624	8.88
419.406	11.88
420.188	10.88
420.969	11.88
421.751	7.88
422.532	10.88
423.313	11.88
424.095	12.88
424.876	11.88
425.657	8.88
426.438	12.88
427.219	10.88
428	10.88
428.78	10.88
429.561	11.88
430.342	14.88
431.122	11.88
431.903	13.88
432.683	13.88
433.464	14.88
434.244	14.88
435.024	13.88
435.804	17.88
436.584	14.88
437.364	19.88
438.144	21.88
438.924	18.88
439.704	20.88
440.483	23.88
441.263	22.88
442.042	22.88
442.822	25.88
443.601	28.88
444.38	28.88
445.16	35.88
445.939	32.88
446.718	38.88
447.497	39.88
448.276	44.88
449.054	49.88
449.833	52.88
450.612	54.88
451.391	60.88
452.169	65.88
452.948	72.88
453.726	84.88
454.504	89.88
455.282	96.88
456.061	106.88
456.839	116.88
457.617	134.88
458.395	143.88
459.172	159.88
459.95	181.88
460.728	194.88
461.506	225.88
462.283	244.88
463.061	277.88
463.838	309.88
464.615	349.88
465.393	389.88
466.17	435.88
466.947	480.88
467.724	528.88
468.501	597.88
469.278	656.88
470.055	719.88
470.831	799.88
471.608	881.88
472.385	982.88
473.161	1092.88
473.938	1202.88
474.714	1332.88
475.49	1469.88
476.266	1610.88
477.043	1769.88
477.819	1949.88
478.595	2131.88
479.371	2344.88
480.146	2574.88
480.922	2828.88
481.698	3104.88
482.473	3397.88
483.249	3698.88
484.024	4058.88
484.8	4473.88
485.575	4847.88
486.35	5285.88
487.126	5785.88
487.901	6342.88
488.676	6900.88
489.451	7511.88
490.225	8187.88
491	8881.88
491.775	9699.88
492.55	10521.88
493.324	11388.88
494.099	12206.88
494.873	13162.88
495.647	14151.88
496.422	15161.88
497.196	16204.88
497.97	17311.88
498.744	18405.88
499.518	19543.88
500.292	20512.88
501.066	21592.88
501.839	22569.88
502.613	23473.88
503.387	24264.88
504.16	24939.88
504.934	25395.88
505.707	25748.88
506.48	25878.88
507.253	25981.88
508.027	25929.88
508.8	25816.88
509.573	25575.88
510.346	25139.88
511.118	24486.88
511.891	23841.88
512.664	23149.88
513.437	22389.88
514.209	21611.88
514.982	20787.88
515.754	19899.88
516.526	18992.88
517.298	18304.88
518.071	17516.88
518.843	16841.88
519.615	16273.88
520.387	15576.88
521.159	14998.88
521.93	14418.88
522.702	13808.88
523.474	13225.88
524.245	12692.88
525.017	12150.88
525.788	11684.88
526.56	11178.88
527.331	10597.88
528.102	10199.88
528.873	9744.88
529.644	9287.88
530.415	8899.88
531.186	8445.88
531.957	8000.88
532.728	7613.88
533.498	7245.88
534.269	6821.88
535.039	6484.88
535.81	6142.88
536.58	5766.88
537.351	5455.88
538.121	5181.88
538.891	4887.88
539.661	4626.88
540.431	4394.88
541.201	4143.88
541.971	3915.88
542.741	3711.88
543.51	3518.88
544.28	3363.88
545.05	3220.88
545.819	3026.88
546.588	2879.88
547.358	2735.88
548.127	2590.88
548.896	2487.88
549.665	2351.88
550.434	2220.88
551.203	2116.88
551.972	2028.88
552.741	1885.88
553.51	1790.88
554.278	1681.88
555.047	1604.88
555.815	1496.88
556.584	1423.88
557.352	1346.88
558.121	1272.88
558.889	1205.88
559.657	1129.88
560.425	1073.88
561.193	1020.88
561.961	954.88
562.729	925.88
563.496	855.88
564.264	803.88
565.032	766.88
565.799	718.88
566.567	678.88
567.334	645.88
568.101	603.88
568.869	573.88
569.636	550.88
570.403	511.88
571.17	475.88
571.937	468.88
572.704	422.88
573.471	408.88
574.237	382.88
575.004	362.88
575.771	341.88
576.537	316.88
577.303	299.88
578.07	281.88
578.836	267.88
579.602	255.88
580.368	238.88
581.134	225.88
581.9	211.88
582.666	202.88
583.432	193.88
584.198	179.88
584.964	171.88
585.729	160.88
586.495	151.88
587.26	142.88
588.025	139.88
588.791	131.88
589.556	123.88
590.321	117.88
591.086	113.88
591.851	107.88
592.616	100.88
593.381	97.88
594.146	90.88
594.911	84.88
595.675	81.88
596.44	76.88
597.204	74.88
597.969	71.88
598.733	70.88
599.497	66.88
600.261	59.88
601.025	57.88
601.79	56.88
602.553	55.88
603.317	54.88
604.081	51.88
604.845	47.88
605.609	45.88
606.372	42.88
607.136	42.88
607.899	41.88
608.662	38.88
609.426	37.88
610.189	35.88
610.952	33.88
611.715	35.88
612.478	31.88
613.241	33.88
614.004	28.88
614.767	25.88
615.529	28.88
616.292	27.88
617.055	25.88
617.817	25.88
618.579	22.88
619.342	22.88
620.104	23.88
620.866	21.88
621.628	20.88
622.39	18.88
623.152	20.88
623.914	18.88
624.676	17.88
625.438	17.88
626.199	16.88
626.961	15.88
627.722	17.88
628.484	13.88
629.245	15.88
630.006	15.88
630.768	11.88
631.529	12.88
632.29	12.88
633.051	11.88
633.812	11.88
634.573	12.88
635.333	13.88
636.094	9.88
636.855	10.88
637.615	9.88
638.376	11.88
639.136	9.88
639.896	7.88
640.657	9.88
641.417	8.88
642.177	10.88
642.937	7.88
643.697	7.88
644.457	7.88
645.216	7.88
645.976	7.88
646.736	7.88
647.495	6.88
648.255	7.88
649.014	8.88
649.774	8.88
650.533	7.88
651.292	7.88
652.051	5.88
652.81	7.88
653.569	6.88
654.328	4.88
655.087	7.88
655.846	6.88
656.604	5.88
657.363	3.88
658.121	6.88
658.88	6.88
659.638	5.88
660.397	5.88
661.155	6.88
661.913	7.88
662.671	4.88
663.429	4.88
664.187	5.88
664.945	5.88
665.703	5.88
666.46	4.88
667.218	4.88
667.976	5.88
668.733	4.88
669.49	1.88
670.248	3.88
671.005	3.88
671.762	3.88
672.519	4.88
673.276	2.88
674.033	4.88
674.79	1.88
675.547	2.88
676.304	3.88
677.06	1.88
677.817	4.88
678.574	1.88
679.33	3.88
680.086	5.88
680.843	1.88
681.599	2.88
682.355	3.88
683.111	5.88
683.867	2.88
684.623	3.88
685.379	5.88
686.135	1.88
686.89	2.88
687.646	0.88
688.402	4.88
689.157	5.88
689.912	2.88
690.668	4.88
691.423	3.88
692.178	2.88
692.933	1.88
693.688	2.88
694.443	3.88
695.198	2.88
695.953	1.88
696.708	5.88
697.462	1.88
698.217	5.88
698.972	1.88
699.726	4.88
700.48	2.88
701.235	4.88
701.989	3.88
702.743	1.88
703.497	2.88
704.251	2.88
705.005	3.88
705.759	1.88
706.513	2.88
707.266	4.88
708.02	2.88
708.774	5.88
709.527	4.88
710.28	5.88
711.034	1.88
711.787	2.88
712.54	2.88
713.293	4.88
714.046	6.88
714.799	4.88
715.552	0.88
716.305	3.88
717.058	0.88
717.81	3.88
718.563	0.88
719.315	1.88
720.068	1.88
720.82	2.88
721.573	4.88
722.325	3.88
723.077	2.88
723.829	3.88
724.581	3.88
725.333	2.88
726.085	4.88
726.836	3.88
727.588	4.88
728.34	4.88
729.091	1.88
729.843	6.88
730.594	3.88
731.346	3.88
732.097	4.88
732.848	3.88
733.599	3.88
734.35	0.88
735.101	4.88
735.852	3.88
736.603	4.88
737.354	4.88
738.104	3.88
738.855	2.88
739.605	6.88
740.356	2.88
741.106	4.88
741.856	5.88
742.607	4.88
743.357	2.88
744.107	4.88
744.857	3.88
745.607	3.88
746.357	5.88
747.106	4.88
747.856	6.88
748.606	3.88
749.355	2.88
750.105	2.88
750.854	5.88
751.603	4.88
752.353	4.88
753.102	4.88
753.851	4.88
754.6	3.88
755.349	6.88
756.098	5.88
756.847	5.88
757.595	4.88
758.344	4.88
759.093	4.88
759.841	3.88
760.589	7.88
761.338	6.88
762.086	4.88
762.834	2.88
763.582	5.88
764.331	6.88
765.079	6.88
765.826	3.88
766.574	6.88
767.322	6.88
768.07	7.88
768.817	5.88
769.565	7.88
770.312	5.88
771.06	5.88
771.807	6.88
772.554	8.88
773.302	6.88
774.049	7.88
774.796	5.88
775.543	6.88
776.29	8.88
777.036	6.88
777.783	7.88
778.53	8.88
779.276	6.88
780.023	8.88
780.769	6.88
781.516	6.88
782.262	7.88
783.008	7.88
783.754	6.88
784.5	6.88
785.246	5.88
785.992	6.88
786.738	6.88
787.484	9.88
788.23	4.88
788.975	8.88
789.721	6.88
790.466	6.88
791.212	8.88
791.957	7.88
792.702	6.88
793.447	6.88
794.193	7.88
794.938	6.88
795.683	8.88
796.427	5.88
797.172	9.88
797.917	7.88
798.662	6.88
799.406	7.88
800.151	5.88
800.895	6.88
801.64	8.88
802.384	7.88
803.128	6.88
803.872	6.88
804.616	7.88
805.36	6.88
806.104	8.88
806.848	6.88
807.592	5.88
808.336	7.88
809.079	4.88
809.823	5.88
810.566	5.88
811.31	6.88
812.053	4.88
812.796	3.88
813.539	4.88
814.283	5.88
815.026	3.88
815.769	5.88
816.511	3.88
817.254	5.88
817.997	4.88
818.74	3.88
819.482	3.88
820.225	6.88
820.967	3.88
821.71	3.88
822.452	4.88
823.194	4.88
823.936	5.88
824.678	3.88
825.42	6.88
826.162	2.88
826.904	4.88
827.646	2.88
828.388	2.88
829.129	3.88
829.871	5.88
830.612	2.88
831.354	1.88
832.095	2.88
832.836	3.88
833.577	2.88
834.319	2.88
835.06	3.88
835.801	3.88
836.542	1.88
837.282	4.88
838.023	5.88
838.764	3.88
839.504	4.88
840.245	6.88
840.985	3.88
841.726	2.88
842.466	4.88
843.206	2.88
843.946	1.88
844.687	3.88
845.427	0.88
846.166	0.88
846.906	4.88
847.646	4.88
848.386	3.88
849.125	1.88
849.865	3.88
850.605	4.88
851.344	4.88
852.083	3.88
852.823	1.88
853.562	1.88
854.301	0.88
855.04	1.88
855.779	0.88
856.518	3.88
857.257	2.88
857.995	0.88
858.734	3.88
859.473	0.88
860.211	2.88
860.95	2.88
861.688	-0.12
862.426	5.88
863.165	0.88
863.903	-0.12
864.641	-0.12
865.379	0.88
866.117	-0.12
866.855	1.88
867.593	2.88
868.33	1.88
869.068	1.88
869.806	0.88
870.543	2.88
871.28	1.88
872.018	0.88
872.755	1.88
873.492	-0.12
874.229	1.88
874.967	0.88
875.703	0.88
876.44	0.88
877.177	0.88
877.914	2.88
878.651	-0.12
879.387	1.88
880.124	1.88
880.86	-0.12
881.597	0.88
882.333	-0.12
883.069	0.88
883.806	0.88
884.542	1.88
885.278	0.88
886.014	0.88
886.749	1.88
887.485	-0.12
888.221	-1.12
888.957	1.88
889.692	-0.12
890.428	0.88
891.163	-0.12
891.899	2.88
892.634	3.88
893.369	0.88
894.104	-0.12
894.839	-2.12
895.574	-2.12
896.309	0.88
897.044	0.88
897.779	-2.12
898.514	3.88
899.248	0.88
899.983	-2.12
900.717	-0.12
901.452	-0.12
902.186	2.88
902.92	1.88
903.654	1.88
904.389	1.88
905.123	-0.12
905.857	-0.12
906.59	1.88
907.324	-1.12
908.058	0.88
908.792	-0.12
909.525	1.88
910.259	0.88
910.992	-0.12
911.726	1.88
912.459	0.88
913.192	-0.12
913.925	0.88
914.658	0.88
915.391	-0.12
916.124	1.88
916.857	-1.12
917.59	0.88
918.323	-2.12
919.055	-0.12
919.788	1.88
920.521	-2.12
921.253	1.88
921.985	-0.12
922.718	-0.12
923.45	-1.12
924.182	-0.12
924.914	-0.12
925.646	0.88
926.378	1.88
927.11	-0.12
927.841	1.88
928.573	1.88
929.305	-1.12
930.036	0.88
930.768	-1.12
931.499	1.88
932.23	0.88
932.962	-0.12
933.693	-1.12
934.424	-1.12
935.155	1.88
935.886	0.88
936.617	0.88
937.348	0.88
938.078	-2.12
938.809	0.88
939.54	-0.12
940.27	-0.12
941.001	-1.12
941.731	-1.12
942.461	-1.12
943.191	0.88
943.922	0.88
944.652	-0.12
945.382	0.88
946.112	-0.12
946.841	-2.12
947.571	-2.12
948.301	0.88
949.031	-0.12
949.76	0.88
950.49	1.88
951.219	-2.12
951.948	0.88
952.678	-1.12
953.407	0.88
954.136	-0.12
954.865	0.88
955.594	-0.12
956.323	0.88
957.052	-0.12
957.78	-0.12
958.509	0.88
959.238	1.88
959.966	-1.12
960.695	-0.12
961.423	0.88
962.151	-0.12
962.88	0.88
963.608	-0.12
964.336	-0.12
965.064	0.88
965.792	-0.12
966.52	1.88
967.247	0.88
967.975	1.88
968.703	-0.12
969.43	2.88
970.158	-0.12
970.885	0.88
971.613	-0.12
972.34	0.88
973.067	1.88
973.794	-0.12
974.521	-2.12
975.248	-0.12
975.975	-0.12
976.702	0.88
977.429	-1.12
978.156	-0.12
978.882	1.88
979.609	-0.12
980.335	0.88
981.062	-0.12
981.788	0.88
982.514	1.88
983.24	0.88
983.967	-0.12
984.693	0.88
985.419	-0.12
986.144	-2.12
986.87	0.88
987.596	-2.12
988.322	1.88
989.047	1.88
989.773	1.88
990.498	0.88
991.224	-0.12
991.949	-0.12
992.674	-0.12
993.399	0.88
994.124	1.88
994.849	-1.12
995.574	1.88
996.299	-0.12
997.024	-1.12
997.749	-0.12
998.473	0.88
999.198	0.88
999.922	-0.12
1000.647	0.88
1001.371	3.88
1002.095	-1.12
1002.82	-0.12
1003.544	-0.12
1004.268	1.88
1004.992	-0.12
1005.716	1.88
1006.439	1.88
1007.163	-0.12
1007.887	1.88
1008.611	0.88
1009.334	0.88
1010.058	-1.12
1010.781	-0.12
1011.504	-1.12
1012.228	0.88
1012.951	0.88
1013.674	-0.12
1014.397	-2.12
1015.12	-1.12
