节点500_285_QEPB04081__486__15-03-38-436.txt的数据

Date: Wed Nov 12 15:03:38 CST 2025
User: PC
Spectrometer: QEPB0408
触发模式: 0
积分时间 (秒): 1.000000E-2
Scans to average: 1
启用暗噪声校正: true
启用非线性校正: false
滑动平均宽度: 0
X轴模式: Wavelengths
Number of Pixels in Spectrum: 1044
>>>>>Begin Spectral Data<<<<<
220.843	0.38
221.644	1.38
222.444	0.38
223.244	1.38
224.045	1.38
224.845	0.38
225.645	2.38
226.445	3.38
227.245	1.38
228.045	2.38
228.845	1.38
229.645	2.38
230.444	0.38
231.244	1.38
232.043	2.38
232.843	3.38
233.642	2.38
234.442	4.38
235.241	2.38
236.04	2.38
236.839	3.38
237.638	4.38
238.437	2.38
239.236	2.38
240.035	6.38
240.833	3.38
241.632	4.38
242.43	4.38
243.229	3.38
244.027	5.38
244.826	6.38
245.624	5.38
246.422	3.38
247.22	5.38
248.018	3.38
248.816	7.38
249.614	3.38
250.412	7.38
251.21	5.38
252.007	8.38
252.805	6.38
253.602	8.38
254.4	6.38
255.197	6.38
255.994	7.38
256.791	7.38
257.589	9.38
258.386	7.38
259.183	5.38
259.979	9.38
260.776	9.38
261.573	11.38
262.37	9.38
263.166	9.38
263.963	12.38
264.759	10.38
265.556	10.38
266.352	13.38
267.148	12.38
267.944	13.38
268.74	11.38
269.536	13.38
270.332	12.38
271.128	15.38
271.924	15.38
272.719	15.38
273.515	15.38
274.311	15.38
275.106	17.38
275.901	13.38
276.697	17.38
277.492	17.38
278.287	14.38
279.082	18.38
279.877	17.38
280.672	18.38
281.467	15.38
282.262	18.38
283.056	17.38
283.851	17.38
284.646	20.38
285.44	19.38
286.234	19.38
287.029	16.38
287.823	17.38
288.617	16.38
289.411	16.38
290.205	19.38
290.999	16.38
291.793	15.38
292.587	18.38
293.381	15.38
294.174	15.38
294.968	14.38
295.761	15.38
296.555	13.38
297.348	15.38
298.141	13.38
298.935	15.38
299.728	17.38
300.521	14.38
301.314	14.38
302.107	11.38
302.899	12.38
303.692	10.38
304.485	13.38
305.277	14.38
306.07	14.38
306.862	11.38
307.655	13.38
308.447	10.38
309.239	10.38
310.031	12.38
310.823	11.38
311.615	10.38
312.407	11.38
313.199	8.38
313.991	9.38
314.783	9.38
315.574	7.38
316.366	5.38
317.157	7.38
317.949	5.38
318.74	8.38
319.531	10.38
320.322	6.38
321.113	8.38
321.904	8.38
322.695	4.38
323.486	6.38
324.277	7.38
325.068	6.38
325.858	10.38
326.649	8.38
327.439	7.38
328.23	6.38
329.02	4.38
329.81	7.38
330.6	5.38
331.391	8.38
332.181	4.38
332.971	4.38
333.76	5.38
334.55	4.38
335.34	6.38
336.13	5.38
336.919	5.38
337.709	7.38
338.498	8.38
339.287	5.38
340.077	7.38
340.866	7.38
341.655	2.38
342.444	7.38
343.233	6.38
344.022	5.38
344.811	7.38
345.6	5.38
346.388	4.38
347.177	6.38
347.965	5.38
348.754	4.38
349.542	5.38
350.33	5.38
351.119	4.38
351.907	4.38
352.695	6.38
353.483	3.38
354.271	5.38
355.059	6.38
355.846	5.38
356.634	5.38
357.422	2.38
358.209	5.38
358.997	5.38
359.784	5.38
360.571	5.38
361.359	5.38
362.146	3.38
362.933	4.38
363.72	5.38
364.507	4.38
365.294	4.38
366.081	7.38
366.867	4.38
367.654	4.38
368.44	4.38
369.227	3.38
370.013	2.38
370.8	4.38
371.586	5.38
372.372	6.38
373.158	5.38
373.944	3.38
374.73	6.38
375.516	4.38
376.302	5.38
377.088	4.38
377.873	4.38
378.659	5.38
379.445	2.38
380.23	4.38
381.015	4.38
381.801	2.38
382.586	3.38
383.371	4.38
384.156	8.38
384.941	4.38
385.726	5.38
386.511	5.38
387.296	5.38
388.08	5.38
388.865	5.38
389.649	4.38
390.434	6.38
391.218	6.38
392.003	4.38
392.787	4.38
393.571	7.38
394.355	3.38
395.139	7.38
395.923	6.38
396.707	5.38
397.491	5.38
398.274	8.38
399.058	6.38
399.842	5.38
400.625	5.38
401.408	7.38
402.192	4.38
402.975	6.38
403.758	7.38
404.541	7.38
405.324	9.38
406.107	6.38
406.89	8.38
407.673	7.38
408.456	6.38
409.238	7.38
410.021	7.38
410.803	7.38
411.586	6.38
412.368	8.38
413.151	7.38
413.933	6.38
414.715	8.38
415.497	10.38
416.279	9.38
417.061	7.38
417.843	10.38
418.624	7.38
419.406	10.38
420.188	9.38
420.969	12.38
421.751	9.38
422.532	12.38
423.313	10.38
424.095	8.38
424.876	11.38
425.657	13.38
426.438	11.38
427.219	16.38
428	10.38
428.78	12.38
429.561	12.38
430.342	13.38
431.122	10.38
431.903	14.38
432.683	13.38
433.464	13.38
434.244	15.38
435.024	17.38
435.804	19.38
436.584	20.38
437.364	16.38
438.144	20.38
438.924	20.38
439.704	21.38
440.483	20.38
441.263	26.38
442.042	24.38
442.822	26.38
443.601	29.38
444.38	28.38
445.16	29.38
445.939	35.38
446.718	36.38
447.497	37.38
448.276	39.38
449.054	47.38
449.833	45.38
450.612	52.38
451.391	59.38
452.169	63.38
452.948	70.38
453.726	71.38
454.504	86.38
455.282	96.38
456.061	101.38
456.839	116.38
457.617	120.38
458.395	141.38
459.172	153.38
459.95	170.38
460.728	188.38
461.506	207.38
462.283	241.38
463.061	267.38
463.838	301.38
464.615	332.38
465.393	370.38
466.17	411.38
466.947	450.38
467.724	506.38
468.501	567.38
469.278	631.38
470.055	701.38
470.831	770.38
471.608	867.38
472.385	947.38
473.161	1059.38
473.938	1175.38
474.714	1311.38
475.49	1449.38
476.266	1597.38
477.043	1770.38
477.819	1940.38
478.595	2145.38
479.371	2351.38
480.146	2579.38
480.922	2841.38
481.698	3128.38
482.473	3426.38
483.249	3779.38
484.024	4136.38
484.8	4554.38
485.575	4977.38
486.35	5462.38
487.126	5988.38
487.901	6545.38
488.676	7160.38
489.451	7820.38
490.225	8569.38
491	9327.38
491.775	10164.38
492.55	11077.38
493.324	11968.38
494.099	12867.38
494.873	13877.38
495.647	15001.38
496.422	16125.38
497.196	17217.38
497.97	18389.38
498.744	19461.38
499.518	20683.38
500.292	21777.38
501.066	22834.38
501.839	23733.38
502.613	24710.38
503.387	25457.38
504.16	26095.38
504.934	26521.38
505.707	26685.38
506.48	26866.38
507.253	26940.38
508.027	26637.38
508.8	26450.38
509.573	26074.38
510.346	25531.38
511.118	24839.38
511.891	24106.38
512.664	23341.38
513.437	22487.38
514.209	21604.38
514.982	20727.38
515.754	19846.38
516.526	18972.38
517.298	18165.38
518.071	17370.38
518.843	16689.38
519.615	16124.38
520.387	15440.38
521.159	14834.38
521.93	14247.38
522.702	13698.38
523.474	13125.38
524.245	12563.38
525.017	12015.38
525.788	11572.38
526.56	11075.38
527.331	10517.38
528.102	10105.38
528.873	9635.38
529.644	9156.38
530.415	8705.38
531.186	8266.38
531.957	7834.38
532.728	7489.38
533.498	7093.38
534.269	6689.38
535.039	6340.38
535.81	5968.38
536.58	5640.38
537.351	5296.38
538.121	5046.38
538.891	4772.38
539.661	4476.38
540.431	4234.38
541.201	4008.38
541.971	3807.38
542.741	3609.38
543.51	3435.38
544.28	3264.38
545.05	3105.38
545.819	2960.38
546.588	2789.38
547.358	2669.38
548.127	2537.38
548.896	2401.38
549.665	2279.38
550.434	2140.38
551.203	2032.38
551.972	1941.38
552.741	1820.38
553.51	1737.38
554.278	1645.38
555.047	1552.38
555.815	1465.38
556.584	1384.38
557.352	1310.38
558.121	1244.38
558.889	1169.38
559.657	1114.38
560.425	1040.38
561.193	972.38
561.961	924.38
562.729	876.38
563.496	825.38
564.264	774.38
565.032	741.38
565.799	691.38
566.567	661.38
567.334	621.38
568.101	590.38
568.869	559.38
569.636	525.38
570.403	492.38
571.17	467.38
571.937	439.38
572.704	409.38
573.471	392.38
574.237	370.38
575.004	347.38
575.771	331.38
576.537	305.38
577.303	291.38
578.07	273.38
578.836	252.38
579.602	245.38
580.368	222.38
581.134	219.38
581.9	209.38
582.666	197.38
583.432	185.38
584.198	173.38
584.964	165.38
585.729	155.38
586.495	151.38
587.26	140.38
588.025	132.38
588.791	127.38
589.556	117.38
590.321	110.38
591.086	105.38
591.851	104.38
592.616	98.38
593.381	93.38
594.146	89.38
594.911	81.38
595.675	82.38
596.44	75.38
597.204	71.38
597.969	67.38
598.733	67.38
599.497	60.38
600.261	63.38
601.025	56.38
601.79	58.38
602.553	48.38
603.317	52.38
604.081	47.38
604.845	43.38
605.609	45.38
606.372	41.38
607.136	41.38
607.899	38.38
608.662	39.38
609.426	35.38
610.189	33.38
610.952	32.38
611.715	31.38
612.478	32.38
613.241	26.38
614.004	29.38
614.767	27.38
615.529	27.38
616.292	20.38
617.055	22.38
617.817	23.38
618.579	23.38
619.342	21.38
620.104	21.38
620.866	19.38
621.628	20.38
622.39	18.38
623.152	17.38
623.914	17.38
624.676	17.38
625.438	16.38
626.199	16.38
626.961	13.38
627.722	16.38
628.484	15.38
629.245	13.38
630.006	12.38
630.768	12.38
631.529	11.38
632.29	12.38
633.051	10.38
633.812	10.38
634.573	12.38
635.333	10.38
636.094	12.38
636.855	10.38
637.615	9.38
638.376	12.38
639.136	9.38
639.896	7.38
640.657	7.38
641.417	8.38
642.177	10.38
642.937	11.38
643.697	8.38
644.457	7.38
645.216	9.38
645.976	6.38
646.736	8.38
647.495	6.38
648.255	8.38
649.014	5.38
649.774	5.38
650.533	8.38
651.292	6.38
652.051	7.38
652.81	3.38
653.569	8.38
654.328	7.38
655.087	5.38
655.846	5.38
656.604	6.38
657.363	3.38
658.121	7.38
658.88	6.38
659.638	7.38
660.397	4.38
661.155	7.38
661.913	4.38
662.671	7.38
663.429	3.38
664.187	7.38
664.945	4.38
665.703	2.38
666.46	3.38
667.218	6.38
667.976	6.38
668.733	3.38
669.49	2.38
670.248	3.38
671.005	3.38
671.762	4.38
672.519	1.38
673.276	2.38
674.033	4.38
674.79	3.38
675.547	5.38
676.304	3.38
677.06	4.38
677.817	3.38
678.574	5.38
679.33	3.38
680.086	4.38
680.843	5.38
681.599	5.38
682.355	1.38
683.111	3.38
683.867	2.38
684.623	4.38
685.379	2.38
686.135	3.38
686.89	5.38
687.646	4.38
688.402	2.38
689.157	2.38
689.912	4.38
690.668	2.38
691.423	2.38
692.178	4.38
692.933	1.38
693.688	4.38
694.443	3.38
695.198	3.38
695.953	1.38
696.708	4.38
697.462	2.38
698.217	0.38
698.972	4.38
699.726	4.38
700.48	2.38
701.235	6.38
701.989	5.38
702.743	1.38
703.497	3.38
704.251	2.38
705.005	4.38
705.759	3.38
706.513	3.38
707.266	3.38
708.02	3.38
708.774	1.38
709.527	4.38
710.28	0.38
711.034	4.38
711.787	2.38
712.54	3.38
713.293	1.38
714.046	-0.62
714.799	4.38
715.552	3.38
716.305	3.38
717.058	2.38
717.81	1.38
718.563	3.38
719.315	4.38
720.068	3.38
720.82	3.38
721.573	3.38
722.325	4.38
723.077	2.38
723.829	3.38
724.581	2.38
725.333	0.38
726.085	5.38
726.836	3.38
727.588	4.38
728.34	3.38
729.091	3.38
729.843	4.38
730.594	2.38
731.346	4.38
732.097	3.38
732.848	2.38
733.599	4.38
734.35	3.38
735.101	2.38
735.852	3.38
736.603	4.38
737.354	1.38
738.104	4.38
738.855	4.38
739.605	2.38
740.356	5.38
741.106	5.38
741.856	4.38
742.607	2.38
743.357	3.38
744.107	4.38
744.857	4.38
745.607	4.38
746.357	3.38
747.106	4.38
747.856	3.38
748.606	6.38
749.355	4.38
750.105	4.38
750.854	4.38
751.603	2.38
752.353	5.38
753.102	3.38
753.851	6.38
754.6	3.38
755.349	5.38
756.098	4.38
756.847	2.38
757.595	6.38
758.344	5.38
759.093	4.38
759.841	4.38
760.589	5.38
761.338	6.38
762.086	4.38
762.834	6.38
763.582	7.38
764.331	4.38
765.079	6.38
765.826	6.38
766.574	6.38
767.322	5.38
768.07	6.38
768.817	7.38
769.565	6.38
770.312	6.38
771.06	4.38
771.807	3.38
772.554	7.38
773.302	8.38
774.049	7.38
774.796	7.38
775.543	5.38
776.29	6.38
777.036	7.38
777.783	7.38
778.53	9.38
779.276	10.38
780.023	7.38
780.769	7.38
781.516	6.38
782.262	6.38
783.008	10.38
783.754	7.38
784.5	6.38
785.246	6.38
785.992	8.38
786.738	10.38
787.484	5.38
788.23	7.38
788.975	7.38
789.721	7.38
790.466	7.38
791.212	9.38
791.957	8.38
792.702	9.38
793.447	10.38
794.193	7.38
794.938	9.38
795.683	11.38
796.427	6.38
797.172	7.38
797.917	6.38
798.662	6.38
799.406	4.38
800.151	7.38
800.895	5.38
801.64	7.38
802.384	6.38
803.128	4.38
803.872	7.38
804.616	4.38
805.36	6.38
806.104	5.38
806.848	8.38
807.592	8.38
808.336	4.38
809.079	4.38
809.823	5.38
810.566	6.38
811.31	5.38
812.053	5.38
812.796	3.38
813.539	7.38
814.283	4.38
815.026	5.38
815.769	5.38
816.511	5.38
817.254	4.38
817.997	4.38
818.74	4.38
819.482	3.38
820.225	4.38
820.967	4.38
821.71	4.38
822.452	2.38
823.194	6.38
823.936	5.38
824.678	5.38
825.42	2.38
826.162	3.38
826.904	2.38
827.646	3.38
828.388	5.38
829.129	2.38
829.871	3.38
830.612	3.38
831.354	3.38
832.095	3.38
832.836	2.38
833.577	2.38
834.319	2.38
835.06	2.38
835.801	3.38
836.542	1.38
837.282	4.38
838.023	4.38
838.764	3.38
839.504	3.38
840.245	3.38
840.985	1.38
841.726	1.38
842.466	4.38
843.206	4.38
843.946	1.38
844.687	3.38
845.427	2.38
846.166	3.38
846.906	2.38
847.646	3.38
848.386	2.38
849.125	3.38
849.865	1.38
850.605	2.38
851.344	1.38
852.083	0.38
852.823	1.38
853.562	3.38
854.301	3.38
855.04	1.38
855.779	0.38
856.518	3.38
857.257	4.38
857.995	1.38
858.734	1.38
859.473	3.38
860.211	1.38
860.95	1.38
861.688	3.38
862.426	2.38
863.165	-0.62
863.903	1.38
864.641	2.38
865.379	0.38
866.117	0.38
866.855	-0.62
867.593	0.38
868.33	1.38
869.068	2.38
869.806	1.38
870.543	1.38
871.28	1.38
872.018	3.38
872.755	0.38
873.492	2.38
874.229	1.38
874.967	0.38
875.703	0.38
876.44	2.38
877.177	-0.62
877.914	-0.62
878.651	0.38
879.387	1.38
880.124	0.38
880.86	-0.62
881.597	0.38
882.333	0.38
883.069	0.38
883.806	1.38
884.542	2.38
885.278	0.38
886.014	1.38
886.749	0.38
887.485	0.38
888.221	0.38
888.957	0.38
889.692	3.38
890.428	1.38
891.163	0.38
891.899	-1.62
892.634	0.38
893.369	0.38
894.104	0.38
894.839	-0.62
895.574	0.38
896.309	0.38
897.044	1.38
897.779	-1.62
898.514	1.38
899.248	-1.62
899.983	1.38
900.717	-1.62
901.452	1.38
902.186	-0.62
902.92	0.38
903.654	2.38
904.389	1.38
905.123	-0.62
905.857	1.38
906.59	-0.62
907.324	1.38
908.058	-2.62
908.792	-0.62
909.525	0.38
910.259	-0.62
910.992	-0.62
911.726	-0.62
912.459	1.38
913.192	-1.62
913.925	-1.62
914.658	-0.62
915.391	-0.62
916.124	0.38
916.857	0.38
917.59	1.38
918.323	-1.62
919.055	-0.62
919.788	3.38
920.521	-0.62
921.253	-2.62
921.985	-1.62
922.718	0.38
923.45	-0.62
924.182	2.38
924.914	-0.62
925.646	-0.62
926.378	0.38
927.11	-2.62
927.841	1.38
928.573	-0.62
929.305	-0.62
930.036	-0.62
930.768	-1.62
931.499	0.38
932.23	-0.62
932.962	0.38
933.693	0.38
934.424	0.38
935.155	-0.62
935.886	-2.62
936.617	1.38
937.348	-0.62
938.078	-0.62
938.809	0.38
939.54	1.38
940.27	0.38
941.001	-0.62
941.731	-0.62
942.461	0.38
943.191	0.38
943.922	1.38
944.652	-2.62
945.382	-0.62
946.112	-0.62
946.841	-0.62
947.571	-1.62
948.301	-1.62
949.031	0.38
949.76	0.38
950.49	1.38
951.219	-0.62
951.948	0.38
952.678	-0.62
953.407	-2.62
954.136	-0.62
954.865	1.38
955.594	-2.62
956.323	-0.62
957.052	-1.62
957.78	0.38
958.509	-2.62
959.238	0.38
959.966	-0.62
960.695	-1.62
961.423	-0.62
962.151	1.38
962.88	2.38
963.608	1.38
964.336	-0.62
965.064	3.38
965.792	-0.62
966.52	1.38
967.247	-0.62
967.975	0.38
968.703	0.38
969.43	0.38
970.158	-0.62
970.885	-0.62
971.613	1.38
972.34	-1.62
973.067	-0.62
973.794	-0.62
974.521	-1.62
975.248	-0.62
975.975	-0.62
976.702	0.38
977.429	-1.62
978.156	-1.62
978.882	-0.62
979.609	0.38
980.335	-0.62
981.062	0.38
981.788	0.38
982.514	1.38
983.24	-0.62
983.967	-0.62
984.693	-0.62
985.419	0.38
986.144	-0.62
986.87	-0.62
987.596	0.38
988.322	1.38
989.047	-0.62
989.773	0.38
990.498	0.38
991.224	-0.62
991.949	1.38
992.674	0.38
993.399	-0.62
994.124	-0.62
994.849	-0.62
995.574	1.38
996.299	1.38
997.024	0.38
997.749	0.38
998.473	-0.62
999.198	-2.62
999.922	0.38
1000.647	1.38
1001.371	5.38
1002.095	-2.62
1002.82	-0.62
1003.544	-2.62
1004.268	1.38
1004.992	3.38
1005.716	0.38
1006.439	1.38
1007.163	0.38
1007.887	2.38
1008.611	-2.62
1009.334	-2.62
1010.058	-4.62
1010.781	0.38
1011.504	-0.62
1012.228	-2.62
1012.951	1.38
1013.674	-0.62
1014.397	-0.62
1015.12	0.38
