节点500_285_QEPB04081__66__14-56-39-340.txt的数据

Date: Wed Nov 12 14:56:39 CST 2025
User: PC
Spectrometer: QEPB0408
触发模式: 0
积分时间 (秒): 1.000000E-2
Scans to average: 1
启用暗噪声校正: true
启用非线性校正: false
滑动平均宽度: 0
X轴模式: Wavelengths
Number of Pixels in Spectrum: 1044
>>>>>Begin Spectral Data<<<<<
220.843	4.25
221.644	3.25
222.444	2.25
223.244	1.25
224.045	0.25
224.845	3.25
225.645	3.25
226.445	2.25
227.245	2.25
228.045	1.25
228.845	3.25
229.645	3.25
230.444	2.25
231.244	3.25
232.043	3.25
232.843	1.25
233.642	3.25
234.442	3.25
235.241	1.25
236.04	4.25
236.839	5.25
237.638	6.25
238.437	7.25
239.236	6.25
240.035	1.25
240.833	4.25
241.632	5.25
242.43	5.25
243.229	3.25
244.027	6.25
244.826	3.25
245.624	8.25
246.422	3.25
247.22	6.25
248.018	5.25
248.816	5.25
249.614	7.25
250.412	6.25
251.21	7.25
252.007	6.25
252.805	8.25
253.602	8.25
254.4	7.25
255.197	9.25
255.994	6.25
256.791	8.25
257.589	7.25
258.386	8.25
259.183	9.25
259.979	10.25
260.776	11.25
261.573	10.25
262.37	11.25
263.166	13.25
263.963	14.25
264.759	13.25
265.556	13.25
266.352	15.25
267.148	15.25
267.944	13.25
268.74	17.25
269.536	12.25
270.332	17.25
271.128	15.25
271.924	19.25
272.719	18.25
273.515	18.25
274.311	19.25
275.106	18.25
275.901	17.25
276.697	19.25
277.492	20.25
278.287	19.25
279.082	18.25
279.877	18.25
280.672	16.25
281.467	20.25
282.262	19.25
283.056	19.25
283.851	19.25
284.646	19.25
285.44	23.25
286.234	18.25
287.029	22.25
287.823	21.25
288.617	20.25
289.411	19.25
290.205	19.25
290.999	17.25
291.793	19.25
292.587	20.25
293.381	17.25
294.174	15.25
294.968	19.25
295.761	17.25
296.555	14.25
297.348	15.25
298.141	16.25
298.935	16.25
299.728	16.25
300.521	16.25
301.314	13.25
302.107	13.25
302.899	14.25
303.692	14.25
304.485	13.25
305.277	15.25
306.07	12.25
306.862	12.25
307.655	10.25
308.447	11.25
309.239	11.25
310.031	12.25
310.823	12.25
311.615	11.25
312.407	10.25
313.199	11.25
313.991	12.25
314.783	9.25
315.574	10.25
316.366	7.25
317.157	9.25
317.949	7.25
318.74	10.25
319.531	9.25
320.322	9.25
321.113	6.25
321.904	8.25
322.695	7.25
323.486	7.25
324.277	7.25
325.068	7.25
325.858	7.25
326.649	7.25
327.439	10.25
328.23	6.25
329.02	7.25
329.81	7.25
330.6	4.25
331.391	9.25
332.181	5.25
332.971	6.25
333.76	6.25
334.55	5.25
335.34	7.25
336.13	5.25
336.919	6.25
337.709	7.25
338.498	7.25
339.287	7.25
340.077	5.25
340.866	6.25
341.655	7.25
342.444	8.25
343.233	6.25
344.022	7.25
344.811	6.25
345.6	5.25
346.388	5.25
347.177	7.25
347.965	6.25
348.754	5.25
349.542	7.25
350.33	9.25
351.119	5.25
351.907	6.25
352.695	6.25
353.483	6.25
354.271	7.25
355.059	4.25
355.846	6.25
356.634	5.25
357.422	5.25
358.209	6.25
358.997	5.25
359.784	5.25
360.571	4.25
361.359	6.25
362.146	7.25
362.933	5.25
363.72	5.25
364.507	3.25
365.294	6.25
366.081	4.25
366.867	6.25
367.654	8.25
368.44	4.25
369.227	4.25
370.013	6.25
370.8	5.25
371.586	4.25
372.372	5.25
373.158	5.25
373.944	5.25
374.73	7.25
375.516	5.25
376.302	6.25
377.088	7.25
377.873	3.25
378.659	5.25
379.445	3.25
380.23	4.25
381.015	6.25
381.801	4.25
382.586	2.25
383.371	5.25
384.156	6.25
384.941	5.25
385.726	4.25
386.511	8.25
387.296	4.25
388.08	5.25
388.865	4.25
389.649	6.25
390.434	6.25
391.218	8.25
392.003	8.25
392.787	6.25
393.571	8.25
394.355	5.25
395.139	6.25
395.923	7.25
396.707	7.25
397.491	7.25
398.274	5.25
399.058	7.25
399.842	7.25
400.625	8.25
401.408	7.25
402.192	8.25
402.975	8.25
403.758	7.25
404.541	7.25
405.324	8.25
406.107	7.25
406.89	8.25
407.673	7.25
408.456	9.25
409.238	8.25
410.021	9.25
410.803	9.25
411.586	9.25
412.368	9.25
413.151	9.25
413.933	10.25
414.715	10.25
415.497	9.25
416.279	11.25
417.061	8.25
417.843	8.25
418.624	9.25
419.406	9.25
420.188	12.25
420.969	10.25
421.751	10.25
422.532	9.25
423.313	10.25
424.095	10.25
424.876	11.25
425.657	12.25
426.438	13.25
427.219	13.25
428	14.25
428.78	13.25
429.561	15.25
430.342	13.25
431.122	14.25
431.903	13.25
432.683	15.25
433.464	16.25
434.244	15.25
435.024	17.25
435.804	20.25
436.584	19.25
437.364	18.25
438.144	18.25
438.924	19.25
439.704	20.25
440.483	24.25
441.263	24.25
442.042	30.25
442.822	28.25
443.601	28.25
444.38	29.25
445.16	31.25
445.939	33.25
446.718	33.25
447.497	37.25
448.276	42.25
449.054	43.25
449.833	45.25
450.612	51.25
451.391	54.25
452.169	62.25
452.948	61.25
453.726	72.25
454.504	77.25
455.282	85.25
456.061	92.25
456.839	101.25
457.617	117.25
458.395	124.25
459.172	139.25
459.95	157.25
460.728	172.25
461.506	193.25
462.283	216.25
463.061	242.25
463.838	269.25
464.615	292.25
465.393	338.25
466.17	371.25
466.947	419.25
467.724	464.25
468.501	526.25
469.278	575.25
470.055	650.25
470.831	726.25
471.608	813.25
472.385	911.25
473.161	994.25
473.938	1112.25
474.714	1239.25
475.49	1389.25
476.266	1544.25
477.043	1703.25
477.819	1909.25
478.595	2105.25
479.371	2332.25
480.146	2585.25
480.922	2880.25
481.698	3194.25
482.473	3549.25
483.249	3903.25
484.024	4323.25
484.8	4784.25
485.575	5274.25
486.35	5878.25
487.126	6412.25
487.901	7080.25
488.676	7806.25
489.451	8589.25
490.225	9426.25
491	10358.25
491.775	11315.25
492.55	12407.25
493.324	13480.25
494.099	14520.25
494.873	15745.25
495.647	16997.25
496.422	18237.25
497.196	19520.25
497.97	20906.25
498.744	22177.25
499.518	23432.25
500.292	24559.25
501.066	25678.25
501.839	26582.25
502.613	27475.25
503.387	28131.25
504.16	28615.25
504.934	28839.25
505.707	28906.25
506.48	28786.25
507.253	28461.25
508.027	28106.25
508.8	27540.25
509.573	26943.25
510.346	26186.25
511.118	25167.25
511.891	24294.25
512.664	23340.25
513.437	22302.25
514.209	21393.25
514.982	20385.25
515.754	19452.25
516.526	18490.25
517.298	17724.25
518.071	16921.25
518.843	16244.25
519.615	15675.25
520.387	15061.25
521.159	14448.25
521.93	13889.25
522.702	13292.25
523.474	12766.25
524.245	12212.25
525.017	11666.25
525.788	11203.25
526.56	10701.25
527.331	10155.25
528.102	9731.25
528.873	9243.25
529.644	8734.25
530.415	8277.25
531.186	7869.25
531.957	7457.25
532.728	7059.25
533.498	6678.25
534.269	6285.25
535.039	5915.25
535.81	5631.25
536.58	5288.25
537.351	4971.25
538.121	4721.25
538.891	4428.25
539.661	4198.25
540.431	3977.25
541.201	3741.25
541.971	3549.25
542.741	3384.25
543.51	3212.25
544.28	3055.25
545.05	2914.25
545.819	2756.25
546.588	2631.25
547.358	2480.25
548.127	2362.25
548.896	2249.25
549.665	2132.25
550.434	1998.25
551.203	1877.25
551.972	1796.25
552.741	1688.25
553.51	1598.25
554.278	1497.25
555.047	1409.25
555.815	1343.25
556.584	1260.25
557.352	1192.25
558.121	1136.25
558.889	1066.25
559.657	1009.25
560.425	957.25
561.193	899.25
561.961	844.25
562.729	792.25
563.496	749.25
564.264	705.25
565.032	677.25
565.799	643.25
566.567	599.25
567.334	567.25
568.101	543.25
568.869	500.25
569.636	481.25
570.403	444.25
571.17	417.25
571.937	401.25
572.704	381.25
573.471	353.25
574.237	332.25
575.004	316.25
575.771	291.25
576.537	279.25
577.303	273.25
578.07	248.25
578.836	234.25
579.602	222.25
580.368	211.25
581.134	196.25
581.9	190.25
582.666	176.25
583.432	170.25
584.198	161.25
584.964	148.25
585.729	144.25
586.495	138.25
587.26	128.25
588.025	125.25
588.791	116.25
589.556	111.25
590.321	106.25
591.086	96.25
591.851	97.25
592.616	94.25
593.381	88.25
594.146	79.25
594.911	77.25
595.675	72.25
596.44	72.25
597.204	65.25
597.969	64.25
598.733	61.25
599.497	58.25
600.261	56.25
601.025	59.25
601.79	53.25
602.553	45.25
603.317	47.25
604.081	45.25
604.845	44.25
605.609	42.25
606.372	37.25
607.136	37.25
607.899	39.25
608.662	36.25
609.426	35.25
610.189	33.25
610.952	31.25
611.715	32.25
612.478	30.25
613.241	29.25
614.004	27.25
614.767	24.25
615.529	26.25
616.292	23.25
617.055	26.25
617.817	24.25
618.579	24.25
619.342	21.25
620.104	20.25
620.866	21.25
621.628	20.25
622.39	19.25
623.152	20.25
623.914	20.25
624.676	19.25
625.438	16.25
626.199	17.25
626.961	15.25
627.722	17.25
628.484	17.25
629.245	14.25
630.006	15.25
630.768	15.25
631.529	14.25
632.29	15.25
633.051	12.25
633.812	13.25
634.573	11.25
635.333	11.25
636.094	8.25
636.855	11.25
637.615	8.25
638.376	9.25
639.136	10.25
639.896	8.25
640.657	10.25
641.417	8.25
642.177	10.25
642.937	9.25
643.697	8.25
644.457	9.25
645.216	8.25
645.976	6.25
646.736	9.25
647.495	7.25
648.255	6.25
649.014	8.25
649.774	6.25
650.533	7.25
651.292	7.25
652.051	7.25
652.81	6.25
653.569	7.25
654.328	5.25
655.087	6.25
655.846	7.25
656.604	7.25
657.363	7.25
658.121	7.25
658.88	4.25
659.638	6.25
660.397	5.25
661.155	5.25
661.913	5.25
662.671	4.25
663.429	6.25
664.187	2.25
664.945	5.25
665.703	5.25
666.46	6.25
667.218	5.25
667.976	5.25
668.733	6.25
669.49	5.25
670.248	4.25
671.005	6.25
671.762	6.25
672.519	6.25
673.276	3.25
674.033	4.25
674.79	4.25
675.547	6.25
676.304	6.25
677.06	4.25
677.817	3.25
678.574	3.25
679.33	4.25
680.086	3.25
680.843	4.25
681.599	3.25
682.355	5.25
683.111	4.25
683.867	3.25
684.623	3.25
685.379	3.25
686.135	3.25
686.89	5.25
687.646	3.25
688.402	4.25
689.157	-0.75
689.912	4.25
690.668	5.25
691.423	3.25
692.178	4.25
692.933	5.25
693.688	4.25
694.443	5.25
695.198	3.25
695.953	2.25
696.708	3.25
697.462	3.25
698.217	3.25
698.972	4.25
699.726	2.25
700.48	6.25
701.235	6.25
701.989	3.25
702.743	4.25
703.497	4.25
704.251	4.25
705.005	5.25
705.759	4.25
706.513	5.25
707.266	3.25
708.02	4.25
708.774	3.25
709.527	5.25
710.28	4.25
711.034	4.25
711.787	6.25
712.54	6.25
713.293	3.25
714.046	5.25
714.799	4.25
715.552	4.25
716.305	2.25
717.058	3.25
717.81	2.25
718.563	5.25
719.315	3.25
720.068	1.25
720.82	4.25
721.573	4.25
722.325	6.25
723.077	4.25
723.829	2.25
724.581	2.25
725.333	3.25
726.085	2.25
726.836	2.25
727.588	5.25
728.34	4.25
729.091	3.25
729.843	5.25
730.594	5.25
731.346	4.25
732.097	4.25
732.848	3.25
733.599	5.25
734.35	4.25
735.101	5.25
735.852	4.25
736.603	5.25
737.354	6.25
738.104	2.25
738.855	4.25
739.605	3.25
740.356	4.25
741.106	4.25
741.856	4.25
742.607	4.25
743.357	6.25
744.107	5.25
744.857	5.25
745.607	5.25
746.357	5.25
747.106	5.25
747.856	3.25
748.606	4.25
749.355	6.25
750.105	7.25
750.854	4.25
751.603	5.25
752.353	7.25
753.102	6.25
753.851	5.25
754.6	7.25
755.349	6.25
756.098	6.25
756.847	7.25
757.595	6.25
758.344	6.25
759.093	5.25
759.841	6.25
760.589	6.25
761.338	6.25
762.086	8.25
762.834	7.25
763.582	8.25
764.331	7.25
765.079	4.25
765.826	9.25
766.574	8.25
767.322	9.25
768.07	9.25
768.817	6.25
769.565	10.25
770.312	7.25
771.06	9.25
771.807	9.25
772.554	9.25
773.302	6.25
774.049	8.25
774.796	7.25
775.543	7.25
776.29	8.25
777.036	10.25
777.783	7.25
778.53	10.25
779.276	6.25
780.023	7.25
780.769	7.25
781.516	10.25
782.262	8.25
783.008	12.25
783.754	13.25
784.5	10.25
785.246	9.25
785.992	8.25
786.738	8.25
787.484	8.25
788.23	10.25
788.975	10.25
789.721	9.25
790.466	11.25
791.212	9.25
791.957	10.25
792.702	11.25
793.447	9.25
794.193	7.25
794.938	9.25
795.683	7.25
796.427	9.25
797.172	11.25
797.917	8.25
798.662	7.25
799.406	7.25
800.151	8.25
800.895	7.25
801.64	7.25
802.384	6.25
803.128	7.25
803.872	7.25
804.616	7.25
805.36	5.25
806.104	5.25
806.848	5.25
807.592	6.25
808.336	8.25
809.079	6.25
809.823	4.25
810.566	4.25
811.31	5.25
812.053	4.25
812.796	7.25
813.539	6.25
814.283	6.25
815.026	4.25
815.769	7.25
816.511	5.25
817.254	5.25
817.997	3.25
818.74	4.25
819.482	4.25
820.225	3.25
820.967	3.25
821.71	5.25
822.452	3.25
823.194	3.25
823.936	6.25
824.678	4.25
825.42	5.25
826.162	8.25
826.904	1.25
827.646	4.25
828.388	4.25
829.129	4.25
829.871	6.25
830.612	5.25
831.354	3.25
832.095	3.25
832.836	3.25
833.577	5.25
834.319	1.25
835.06	6.25
835.801	3.25
836.542	3.25
837.282	4.25
838.023	-0.75
838.764	1.25
839.504	5.25
840.245	4.25
840.985	4.25
841.726	3.25
842.466	3.25
843.206	5.25
843.946	4.25
844.687	1.25
845.427	3.25
846.166	4.25
846.906	4.25
847.646	3.25
848.386	2.25
849.125	2.25
849.865	2.25
850.605	1.25
851.344	6.25
852.083	2.25
852.823	4.25
853.562	3.25
854.301	6.25
855.04	3.25
855.779	1.25
856.518	1.25
857.257	3.25
857.995	4.25
858.734	2.25
859.473	3.25
860.211	3.25
860.95	2.25
861.688	0.25
862.426	2.25
863.165	3.25
863.903	5.25
864.641	1.25
865.379	2.25
866.117	2.25
866.855	1.25
867.593	1.25
868.33	3.25
869.068	0.25
869.806	3.25
870.543	3.25
871.28	2.25
872.018	2.25
872.755	2.25
873.492	1.25
874.229	2.25
874.967	0.25
875.703	0.25
876.44	1.25
877.177	1.25
877.914	3.25
878.651	0.25
879.387	1.25
880.124	3.25
880.86	1.25
881.597	1.25
882.333	-0.75
883.069	1.25
883.806	3.25
884.542	1.25
885.278	2.25
886.014	0.25
886.749	1.25
887.485	2.25
888.221	3.25
888.957	1.25
889.692	3.25
890.428	1.25
891.163	-1.75
891.899	3.25
892.634	1.25
893.369	1.25
894.104	-0.75
894.839	1.25
895.574	0.25
896.309	1.25
897.044	1.25
897.779	1.25
898.514	0.25
899.248	1.25
899.983	-0.75
900.717	2.25
901.452	1.25
902.186	1.25
902.92	3.25
903.654	2.25
904.389	0.25
905.123	-0.75
905.857	1.25
906.59	1.25
907.324	0.25
908.058	1.25
908.792	-0.75
909.525	0.25
910.259	1.25
910.992	1.25
911.726	-0.75
912.459	0.25
913.192	3.25
913.925	1.25
914.658	-0.75
915.391	-1.75
916.124	-0.75
916.857	-0.75
917.59	0.25
918.323	-0.75
919.055	1.25
919.788	-0.75
920.521	-0.75
921.253	1.25
921.985	-0.75
922.718	0.25
923.45	1.25
924.182	0.25
924.914	-0.75
925.646	-0.75
926.378	0.25
927.11	-0.75
927.841	1.25
928.573	2.25
929.305	0.25
930.036	0.25
930.768	1.25
931.499	1.25
932.23	1.25
932.962	-0.75
933.693	-0.75
934.424	1.25
935.155	-1.75
935.886	1.25
936.617	-0.75
937.348	-2.75
938.078	1.25
938.809	0.25
939.54	0.25
940.27	0.25
941.001	0.25
941.731	1.25
942.461	0.25
943.191	1.25
943.922	-1.75
944.652	2.25
945.382	0.25
946.112	-0.75
946.841	0.25
947.571	-1.75
948.301	0.25
949.031	1.25
949.76	0.25
950.49	-1.75
951.219	-1.75
951.948	1.25
952.678	-1.75
953.407	0.25
954.136	0.25
954.865	1.25
955.594	0.25
956.323	2.25
957.052	1.25
957.78	-0.75
958.509	-0.75
959.238	1.25
959.966	1.25
960.695	0.25
961.423	1.25
962.151	0.25
962.88	0.25
963.608	-1.75
964.336	0.25
965.064	-1.75
965.792	-0.75
966.52	0.25
967.247	0.25
967.975	-0.75
968.703	1.25
969.43	2.25
970.158	0.25
970.885	0.25
971.613	1.25
972.34	0.25
973.067	1.25
973.794	0.25
974.521	1.25
975.248	1.25
975.975	-0.75
976.702	0.25
977.429	-0.75
978.156	1.25
978.882	-2.75
979.609	3.25
980.335	0.25
981.062	-0.75
981.788	-0.75
982.514	0.25
983.24	0.25
983.967	1.25
984.693	0.25
985.419	0.25
986.144	1.25
986.87	1.25
987.596	-0.75
988.322	0.25
989.047	0.25
989.773	0.25
990.498	1.25
991.224	3.25
991.949	1.25
992.674	1.25
993.399	1.25
994.124	0.25
994.849	-0.75
995.574	1.25
996.299	1.25
997.024	1.25
997.749	-0.75
998.473	-1.75
999.198	1.25
999.922	1.25
1000.647	2.25
1001.371	5.25
1002.095	-2.75
1002.82	0.25
1003.544	0.25
1004.268	0.25
1004.992	2.25
1005.716	3.25
1006.439	2.25
1007.163	1.25
1007.887	1.25
1008.611	1.25
1009.334	0.25
1010.058	1.25
1010.781	-0.75
1011.504	-0.75
1012.228	0.25
1012.951	-0.75
1013.674	-0.75
1014.397	-1.75
1015.12	0.25
