节点500_285_QEPB04081__89__14-57-02-285.txt的数据

Date: Wed Nov 12 14:57:02 CST 2025
User: PC
Spectrometer: QEPB0408
触发模式: 0
积分时间 (秒): 1.000000E-2
Scans to average: 1
启用暗噪声校正: true
启用非线性校正: false
滑动平均宽度: 0
X轴模式: Wavelengths
Number of Pixels in Spectrum: 1044
>>>>>Begin Spectral Data<<<<<
220.843	2.25
221.644	2.25
222.444	0.25
223.244	0.25
224.045	2.25
224.845	1.25
225.645	3.25
226.445	3.25
227.245	2.25
228.045	1.25
228.845	1.25
229.645	1.25
230.444	1.25
231.244	4.25
232.043	2.25
232.843	3.25
233.642	3.25
234.442	3.25
235.241	2.25
236.04	4.25
236.839	4.25
237.638	5.25
238.437	3.25
239.236	3.25
240.035	3.25
240.833	6.25
241.632	4.25
242.43	4.25
243.229	7.25
244.027	3.25
244.826	4.25
245.624	6.25
246.422	4.25
247.22	7.25
248.018	7.25
248.816	7.25
249.614	6.25
250.412	6.25
251.21	8.25
252.007	8.25
252.805	8.25
253.602	9.25
254.4	7.25
255.197	7.25
255.994	9.25
256.791	10.25
257.589	12.25
258.386	9.25
259.183	7.25
259.979	11.25
260.776	11.25
261.573	11.25
262.37	12.25
263.166	13.25
263.963	10.25
264.759	13.25
265.556	11.25
266.352	14.25
267.148	13.25
267.944	13.25
268.74	16.25
269.536	15.25
270.332	16.25
271.128	17.25
271.924	18.25
272.719	18.25
273.515	16.25
274.311	19.25
275.106	18.25
275.901	17.25
276.697	18.25
277.492	17.25
278.287	19.25
279.082	18.25
279.877	17.25
280.672	17.25
281.467	19.25
282.262	21.25
283.056	19.25
283.851	21.25
284.646	20.25
285.44	17.25
286.234	20.25
287.029	19.25
287.823	19.25
288.617	16.25
289.411	20.25
290.205	20.25
290.999	16.25
291.793	19.25
292.587	17.25
293.381	19.25
294.174	17.25
294.968	18.25
295.761	16.25
296.555	16.25
297.348	16.25
298.141	14.25
298.935	17.25
299.728	16.25
300.521	17.25
301.314	16.25
302.107	15.25
302.899	11.25
303.692	14.25
304.485	12.25
305.277	13.25
306.07	14.25
306.862	13.25
307.655	11.25
308.447	11.25
309.239	12.25
310.031	13.25
310.823	11.25
311.615	9.25
312.407	9.25
313.199	9.25
313.991	9.25
314.783	7.25
315.574	9.25
316.366	8.25
317.157	6.25
317.949	7.25
318.74	6.25
319.531	11.25
320.322	7.25
321.113	6.25
321.904	9.25
322.695	5.25
323.486	9.25
324.277	6.25
325.068	7.25
325.858	7.25
326.649	6.25
327.439	5.25
328.23	6.25
329.02	7.25
329.81	5.25
330.6	5.25
331.391	5.25
332.181	5.25
332.971	7.25
333.76	7.25
334.55	6.25
335.34	9.25
336.13	6.25
336.919	6.25
337.709	5.25
338.498	7.25
339.287	7.25
340.077	7.25
340.866	9.25
341.655	7.25
342.444	9.25
343.233	6.25
344.022	6.25
344.811	5.25
345.6	5.25
346.388	7.25
347.177	4.25
347.965	7.25
348.754	6.25
349.542	6.25
350.33	6.25
351.119	5.25
351.907	7.25
352.695	7.25
353.483	4.25
354.271	5.25
355.059	5.25
355.846	6.25
356.634	3.25
357.422	4.25
358.209	5.25
358.997	6.25
359.784	5.25
360.571	6.25
361.359	8.25
362.146	7.25
362.933	5.25
363.72	5.25
364.507	4.25
365.294	3.25
366.081	5.25
366.867	3.25
367.654	5.25
368.44	4.25
369.227	5.25
370.013	4.25
370.8	4.25
371.586	5.25
372.372	6.25
373.158	6.25
373.944	5.25
374.73	5.25
375.516	4.25
376.302	4.25
377.088	7.25
377.873	3.25
378.659	5.25
379.445	5.25
380.23	4.25
381.015	6.25
381.801	4.25
382.586	5.25
383.371	5.25
384.156	3.25
384.941	5.25
385.726	5.25
386.511	6.25
387.296	6.25
388.08	6.25
388.865	5.25
389.649	8.25
390.434	6.25
391.218	6.25
392.003	6.25
392.787	8.25
393.571	6.25
394.355	6.25
395.139	6.25
395.923	6.25
396.707	7.25
397.491	8.25
398.274	6.25
399.058	10.25
399.842	7.25
400.625	8.25
401.408	7.25
402.192	7.25
402.975	6.25
403.758	7.25
404.541	7.25
405.324	11.25
406.107	8.25
406.89	8.25
407.673	8.25
408.456	6.25
409.238	8.25
410.021	10.25
410.803	9.25
411.586	9.25
412.368	8.25
413.151	7.25
413.933	8.25
414.715	9.25
415.497	8.25
416.279	10.25
417.061	7.25
417.843	11.25
418.624	9.25
419.406	10.25
420.188	12.25
420.969	10.25
421.751	12.25
422.532	8.25
423.313	12.25
424.095	13.25
424.876	13.25
425.657	13.25
426.438	11.25
427.219	12.25
428	13.25
428.78	12.25
429.561	13.25
430.342	15.25
431.122	12.25
431.903	13.25
432.683	17.25
433.464	17.25
434.244	14.25
435.024	19.25
435.804	17.25
436.584	20.25
437.364	15.25
438.144	20.25
438.924	20.25
439.704	20.25
440.483	23.25
441.263	24.25
442.042	25.25
442.822	25.25
443.601	27.25
444.38	27.25
445.16	32.25
445.939	32.25
446.718	35.25
447.497	38.25
448.276	42.25
449.054	45.25
449.833	49.25
450.612	49.25
451.391	55.25
452.169	60.25
452.948	65.25
453.726	69.25
454.504	80.25
455.282	86.25
456.061	90.25
456.839	103.25
457.617	114.25
458.395	125.25
459.172	143.25
459.95	159.25
460.728	172.25
461.506	194.25
462.283	216.25
463.061	242.25
463.838	264.25
464.615	296.25
465.393	338.25
466.17	376.25
466.947	425.25
467.724	471.25
468.501	525.25
469.278	587.25
470.055	659.25
470.831	736.25
471.608	816.25
472.385	918.25
473.161	1019.25
473.938	1134.25
474.714	1249.25
475.49	1393.25
476.266	1553.25
477.043	1736.25
477.819	1900.25
478.595	2112.25
479.371	2339.25
480.146	2593.25
480.922	2892.25
481.698	3191.25
482.473	3520.25
483.249	3899.25
484.024	4301.25
484.8	4750.25
485.575	5249.25
486.35	5792.25
487.126	6388.25
487.901	7087.25
488.676	7765.25
489.451	8537.25
490.225	9350.25
491	10293.25
491.775	11211.25
492.55	12294.25
493.324	13332.25
494.099	14413.25
494.873	15519.25
495.647	16789.25
496.422	18084.25
497.196	19334.25
497.97	20643.25
498.744	21876.25
499.518	23157.25
500.292	24280.25
501.066	25405.25
501.839	26320.25
502.613	27182.25
503.387	27923.25
504.16	28408.25
504.934	28680.25
505.707	28717.25
506.48	28616.25
507.253	28410.25
508.027	27984.25
508.8	27453.25
509.573	26868.25
510.346	26087.25
511.118	25200.25
511.891	24257.25
512.664	23313.25
513.437	22315.25
514.209	21381.25
514.982	20399.25
515.754	19498.25
516.526	18623.25
517.298	17776.25
518.071	17004.25
518.843	16359.25
519.615	15686.25
520.387	15073.25
521.159	14489.25
521.93	13892.25
522.702	13395.25
523.474	12810.25
524.245	12279.25
525.017	11739.25
525.788	11279.25
526.56	10739.25
527.331	10188.25
528.102	9748.25
528.873	9251.25
529.644	8800.25
530.415	8366.25
531.186	7925.25
531.957	7477.25
532.728	7097.25
533.498	6679.25
534.269	6315.25
535.039	5986.25
535.81	5604.25
536.58	5337.25
537.351	4999.25
538.121	4759.25
538.891	4453.25
539.661	4230.25
540.431	3993.25
541.201	3781.25
541.971	3559.25
542.741	3402.25
543.51	3229.25
544.28	3063.25
545.05	2933.25
545.819	2791.25
546.588	2643.25
547.358	2503.25
548.127	2378.25
548.896	2262.25
549.665	2141.25
550.434	2032.25
551.203	1907.25
551.972	1813.25
552.741	1701.25
553.51	1621.25
554.278	1512.25
555.047	1426.25
555.815	1338.25
556.584	1277.25
557.352	1216.25
558.121	1142.25
558.889	1072.25
559.657	1004.25
560.425	964.25
561.193	910.25
561.961	860.25
562.729	815.25
563.496	765.25
564.264	714.25
565.032	684.25
565.799	638.25
566.567	604.25
567.334	573.25
568.101	541.25
568.869	513.25
569.636	482.25
570.403	455.25
571.17	432.25
571.937	412.25
572.704	385.25
573.471	359.25
574.237	340.25
575.004	320.25
575.771	297.25
576.537	279.25
577.303	269.25
578.07	253.25
578.836	237.25
579.602	223.25
580.368	211.25
581.134	198.25
581.9	189.25
582.666	179.25
583.432	170.25
584.198	160.25
584.964	153.25
585.729	141.25
586.495	137.25
587.26	129.25
588.025	121.25
588.791	121.25
589.556	109.25
590.321	107.25
591.086	101.25
591.851	95.25
592.616	91.25
593.381	85.25
594.146	78.25
594.911	79.25
595.675	74.25
596.44	72.25
597.204	70.25
597.969	64.25
598.733	63.25
599.497	60.25
600.261	53.25
601.025	51.25
601.79	53.25
602.553	47.25
603.317	48.25
604.081	45.25
604.845	44.25
605.609	42.25
606.372	40.25
607.136	42.25
607.899	37.25
608.662	35.25
609.426	33.25
610.189	33.25
610.952	34.25
611.715	31.25
612.478	29.25
613.241	25.25
614.004	27.25
614.767	26.25
615.529	27.25
616.292	24.25
617.055	24.25
617.817	22.25
618.579	20.25
619.342	22.25
620.104	20.25
620.866	20.25
621.628	24.25
622.39	18.25
623.152	19.25
623.914	18.25
624.676	19.25
625.438	16.25
626.199	16.25
626.961	15.25
627.722	14.25
628.484	15.25
629.245	15.25
630.006	15.25
630.768	13.25
631.529	13.25
632.29	14.25
633.051	12.25
633.812	10.25
634.573	13.25
635.333	11.25
636.094	12.25
636.855	8.25
637.615	10.25
638.376	13.25
639.136	10.25
639.896	9.25
640.657	9.25
641.417	10.25
642.177	9.25
642.937	9.25
643.697	10.25
644.457	9.25
645.216	9.25
645.976	9.25
646.736	6.25
647.495	7.25
648.255	5.25
649.014	7.25
649.774	7.25
650.533	6.25
651.292	8.25
652.051	11.25
652.81	8.25
653.569	6.25
654.328	6.25
655.087	4.25
655.846	5.25
656.604	5.25
657.363	5.25
658.121	6.25
658.88	7.25
659.638	6.25
660.397	5.25
661.155	4.25
661.913	3.25
662.671	8.25
663.429	6.25
664.187	6.25
664.945	5.25
665.703	4.25
666.46	6.25
667.218	4.25
667.976	5.25
668.733	1.25
669.49	8.25
670.248	1.25
671.005	7.25
671.762	4.25
672.519	3.25
673.276	6.25
674.033	5.25
674.79	4.25
675.547	2.25
676.304	4.25
677.06	7.25
677.817	1.25
678.574	6.25
679.33	4.25
680.086	3.25
680.843	5.25
681.599	4.25
682.355	4.25
683.111	4.25
683.867	5.25
684.623	2.25
685.379	4.25
686.135	6.25
686.89	4.25
687.646	6.25
688.402	2.25
689.157	3.25
689.912	1.25
690.668	4.25
691.423	3.25
692.178	5.25
692.933	5.25
693.688	2.25
694.443	4.25
695.198	6.25
695.953	2.25
696.708	4.25
697.462	3.25
698.217	2.25
698.972	3.25
699.726	3.25
700.48	4.25
701.235	2.25
701.989	5.25
702.743	3.25
703.497	4.25
704.251	2.25
705.005	3.25
705.759	6.25
706.513	4.25
707.266	4.25
708.02	4.25
708.774	3.25
709.527	2.25
710.28	5.25
711.034	3.25
711.787	4.25
712.54	4.25
713.293	5.25
714.046	3.25
714.799	2.25
715.552	4.25
716.305	3.25
717.058	4.25
717.81	3.25
718.563	4.25
719.315	3.25
720.068	5.25
720.82	4.25
721.573	6.25
722.325	2.25
723.077	5.25
723.829	3.25
724.581	4.25
725.333	2.25
726.085	5.25
726.836	2.25
727.588	2.25
728.34	2.25
729.091	4.25
729.843	3.25
730.594	5.25
731.346	5.25
732.097	3.25
732.848	7.25
733.599	4.25
734.35	3.25
735.101	5.25
735.852	3.25
736.603	5.25
737.354	4.25
738.104	6.25
738.855	6.25
739.605	4.25
740.356	4.25
741.106	4.25
741.856	4.25
742.607	5.25
743.357	7.25
744.107	5.25
744.857	5.25
745.607	5.25
746.357	5.25
747.106	7.25
747.856	4.25
748.606	6.25
749.355	6.25
750.105	5.25
750.854	5.25
751.603	5.25
752.353	6.25
753.102	3.25
753.851	6.25
754.6	6.25
755.349	7.25
756.098	7.25
756.847	6.25
757.595	6.25
758.344	7.25
759.093	6.25
759.841	6.25
760.589	6.25
761.338	6.25
762.086	7.25
762.834	6.25
763.582	6.25
764.331	7.25
765.079	10.25
765.826	5.25
766.574	7.25
767.322	7.25
768.07	7.25
768.817	8.25
769.565	9.25
770.312	9.25
771.06	10.25
771.807	7.25
772.554	9.25
773.302	8.25
774.049	7.25
774.796	7.25
775.543	10.25
776.29	7.25
777.036	8.25
777.783	8.25
778.53	7.25
779.276	8.25
780.023	10.25
780.769	8.25
781.516	11.25
782.262	8.25
783.008	10.25
783.754	9.25
784.5	11.25
785.246	10.25
785.992	6.25
786.738	7.25
787.484	9.25
788.23	9.25
788.975	8.25
789.721	10.25
790.466	12.25
791.212	9.25
791.957	10.25
792.702	8.25
793.447	9.25
794.193	10.25
794.938	8.25
795.683	5.25
796.427	7.25
797.172	9.25
797.917	11.25
798.662	8.25
799.406	7.25
800.151	8.25
800.895	6.25
801.64	7.25
802.384	8.25
803.128	6.25
803.872	8.25
804.616	8.25
805.36	6.25
806.104	8.25
806.848	7.25
807.592	6.25
808.336	7.25
809.079	6.25
809.823	6.25
810.566	4.25
811.31	8.25
812.053	6.25
812.796	6.25
813.539	6.25
814.283	5.25
815.026	6.25
815.769	6.25
816.511	5.25
817.254	6.25
817.997	3.25
818.74	3.25
819.482	4.25
820.225	6.25
820.967	5.25
821.71	4.25
822.452	4.25
823.194	4.25
823.936	5.25
824.678	3.25
825.42	3.25
826.162	5.25
826.904	3.25
827.646	4.25
828.388	2.25
829.129	7.25
829.871	3.25
830.612	4.25
831.354	3.25
832.095	2.25
832.836	4.25
833.577	4.25
834.319	5.25
835.06	4.25
835.801	2.25
836.542	4.25
837.282	1.25
838.023	4.25
838.764	3.25
839.504	4.25
840.245	4.25
840.985	2.25
841.726	4.25
842.466	2.25
843.206	4.25
843.946	5.25
844.687	3.25
845.427	2.25
846.166	2.25
846.906	3.25
847.646	2.25
848.386	1.25
849.125	3.25
849.865	1.25
850.605	3.25
851.344	3.25
852.083	2.25
852.823	1.25
853.562	2.25
854.301	3.25
855.04	2.25
855.779	3.25
856.518	4.25
857.257	2.25
857.995	0.25
858.734	3.25
859.473	1.25
860.211	2.25
860.95	2.25
861.688	4.25
862.426	0.25
863.165	1.25
863.903	2.25
864.641	1.25
865.379	2.25
866.117	1.25
866.855	2.25
867.593	0.25
868.33	1.25
869.068	3.25
869.806	0.25
870.543	0.25
871.28	1.25
872.018	2.25
872.755	2.25
873.492	2.25
874.229	2.25
874.967	-1.75
875.703	0.25
876.44	2.25
877.177	1.25
877.914	1.25
878.651	0.25
879.387	1.25
880.124	0.25
880.86	1.25
881.597	1.25
882.333	0.25
883.069	5.25
883.806	1.25
884.542	0.25
885.278	2.25
886.014	1.25
886.749	0.25
887.485	3.25
888.221	1.25
888.957	1.25
889.692	1.25
890.428	0.25
891.163	0.25
891.899	0.25
892.634	1.25
893.369	0.25
894.104	-0.75
894.839	1.25
895.574	0.25
896.309	0.25
897.044	1.25
897.779	-1.75
898.514	2.25
899.248	1.25
899.983	2.25
900.717	1.25
901.452	1.25
902.186	1.25
902.92	0.25
903.654	0.25
904.389	1.25
905.123	1.25
905.857	-0.75
906.59	0.25
907.324	0.25
908.058	-0.75
908.792	-0.75
909.525	-0.75
910.259	4.25
910.992	1.25
911.726	1.25
912.459	0.25
913.192	2.25
913.925	1.25
914.658	0.25
915.391	-0.75
916.124	0.25
916.857	0.25
917.59	1.25
918.323	0.25
919.055	-0.75
919.788	-0.75
920.521	2.25
921.253	-0.75
921.985	-1.75
922.718	0.25
923.45	1.25
924.182	0.25
924.914	-0.75
925.646	0.25
926.378	-0.75
927.11	1.25
927.841	0.25
928.573	-0.75
929.305	1.25
930.036	0.25
930.768	1.25
931.499	1.25
932.23	0.25
932.962	1.25
933.693	-0.75
934.424	-0.75
935.155	-0.75
935.886	0.25
936.617	1.25
937.348	1.25
938.078	1.25
938.809	-0.75
939.54	-2.75
940.27	0.25
941.001	1.25
941.731	-0.75
942.461	0.25
943.191	-0.75
943.922	1.25
944.652	-1.75
945.382	0.25
946.112	-0.75
946.841	-1.75
947.571	0.25
948.301	-0.75
949.031	-0.75
949.76	1.25
950.49	1.25
951.219	1.25
951.948	-0.75
952.678	1.25
953.407	0.25
954.136	1.25
954.865	0.25
955.594	-0.75
956.323	0.25
957.052	-0.75
957.78	2.25
958.509	0.25
959.238	-0.75
959.966	-0.75
960.695	0.25
961.423	-0.75
962.151	1.25
962.88	0.25
963.608	1.25
964.336	1.25
965.064	0.25
965.792	-0.75
966.52	-0.75
967.247	1.25
967.975	-0.75
968.703	0.25
969.43	-1.75
970.158	1.25
970.885	1.25
971.613	-0.75
972.34	-1.75
973.067	-1.75
973.794	-0.75
974.521	-0.75
975.248	1.25
975.975	1.25
976.702	-0.75
977.429	0.25
978.156	2.25
978.882	1.25
979.609	1.25
980.335	1.25
981.062	0.25
981.788	-1.75
982.514	1.25
983.24	-0.75
983.967	2.25
984.693	-0.75
985.419	-1.75
986.144	-0.75
986.87	-1.75
987.596	0.25
988.322	0.25
989.047	0.25
989.773	-0.75
990.498	-0.75
991.224	1.25
991.949	-0.75
992.674	0.25
993.399	-0.75
994.124	-1.75
994.849	1.25
995.574	0.25
996.299	-0.75
997.024	0.25
997.749	1.25
998.473	-1.75
999.198	1.25
999.922	-0.75
1000.647	-0.75
1001.371	3.25
1002.095	0.25
1002.82	-0.75
1003.544	-0.75
1004.268	-0.75
1004.992	2.25
1005.716	0.25
1006.439	0.25
1007.163	3.25
1007.887	4.25
1008.611	2.25
1009.334	1.25
1010.058	0.25
1010.781	1.25
1011.504	0.25
1012.228	0.25
1012.951	-0.75
1013.674	0.25
1014.397	-0.75
1015.12	-0.75
