节点500_285_QEPB04081__553__15-04-45-277.txt的数据

Date: Wed Nov 12 15:04:45 CST 2025
User: PC
Spectrometer: QEPB0408
触发模式: 0
积分时间 (秒): 1.000000E-2
Scans to average: 1
启用暗噪声校正: true
启用非线性校正: false
滑动平均宽度: 0
X轴模式: Wavelengths
Number of Pixels in Spectrum: 1044
>>>>>Begin Spectral Data<<<<<
220.843	3.62
221.644	0.62
222.444	1.62
223.244	2.62
224.045	3.62
224.845	1.62
225.645	0.62
226.445	1.62
227.245	1.62
228.045	2.62
228.845	1.62
229.645	-0.38
230.444	2.62
231.244	3.62
232.043	3.62
232.843	1.62
233.642	4.62
234.442	1.62
235.241	4.62
236.04	1.62
236.839	3.62
237.638	6.62
238.437	3.62
239.236	3.62
240.035	4.62
240.833	3.62
241.632	3.62
242.43	1.62
243.229	3.62
244.027	4.62
244.826	5.62
245.624	6.62
246.422	5.62
247.22	4.62
248.018	3.62
248.816	5.62
249.614	4.62
250.412	7.62
251.21	4.62
252.007	5.62
252.805	6.62
253.602	6.62
254.4	6.62
255.197	7.62
255.994	6.62
256.791	7.62
257.589	9.62
258.386	7.62
259.183	6.62
259.979	8.62
260.776	7.62
261.573	8.62
262.37	8.62
263.166	9.62
263.963	12.62
264.759	8.62
265.556	10.62
266.352	12.62
267.148	11.62
267.944	12.62
268.74	13.62
269.536	12.62
270.332	12.62
271.128	13.62
271.924	15.62
272.719	12.62
273.515	15.62
274.311	14.62
275.106	16.62
275.901	17.62
276.697	13.62
277.492	16.62
278.287	18.62
279.082	16.62
279.877	17.62
280.672	15.62
281.467	19.62
282.262	15.62
283.056	17.62
283.851	15.62
284.646	18.62
285.44	16.62
286.234	16.62
287.029	16.62
287.823	17.62
288.617	17.62
289.411	16.62
290.205	17.62
290.999	16.62
291.793	16.62
292.587	17.62
293.381	15.62
294.174	15.62
294.968	15.62
295.761	14.62
296.555	14.62
297.348	14.62
298.141	14.62
298.935	13.62
299.728	14.62
300.521	14.62
301.314	12.62
302.107	13.62
302.899	10.62
303.692	13.62
304.485	13.62
305.277	13.62
306.07	11.62
306.862	10.62
307.655	10.62
308.447	10.62
309.239	11.62
310.031	9.62
310.823	9.62
311.615	7.62
312.407	11.62
313.199	10.62
313.991	9.62
314.783	8.62
315.574	7.62
316.366	7.62
317.157	6.62
317.949	4.62
318.74	7.62
319.531	5.62
320.322	4.62
321.113	7.62
321.904	6.62
322.695	9.62
323.486	6.62
324.277	6.62
325.068	6.62
325.858	7.62
326.649	9.62
327.439	6.62
328.23	7.62
329.02	4.62
329.81	5.62
330.6	4.62
331.391	4.62
332.181	6.62
332.971	5.62
333.76	7.62
334.55	5.62
335.34	4.62
336.13	6.62
336.919	6.62
337.709	4.62
338.498	4.62
339.287	8.62
340.077	7.62
340.866	4.62
341.655	6.62
342.444	6.62
343.233	6.62
344.022	6.62
344.811	7.62
345.6	7.62
346.388	6.62
347.177	4.62
347.965	3.62
348.754	6.62
349.542	3.62
350.33	5.62
351.119	3.62
351.907	2.62
352.695	4.62
353.483	6.62
354.271	4.62
355.059	7.62
355.846	4.62
356.634	3.62
357.422	2.62
358.209	4.62
358.997	7.62
359.784	4.62
360.571	6.62
361.359	3.62
362.146	6.62
362.933	3.62
363.72	6.62
364.507	5.62
365.294	4.62
366.081	3.62
366.867	4.62
367.654	5.62
368.44	5.62
369.227	4.62
370.013	6.62
370.8	-0.38
371.586	6.62
372.372	3.62
373.158	4.62
373.944	6.62
374.73	3.62
375.516	5.62
376.302	2.62
377.088	4.62
377.873	3.62
378.659	6.62
379.445	3.62
380.23	5.62
381.015	6.62
381.801	1.62
382.586	5.62
383.371	2.62
384.156	5.62
384.941	3.62
385.726	4.62
386.511	5.62
387.296	5.62
388.08	4.62
388.865	6.62
389.649	3.62
390.434	5.62
391.218	4.62
392.003	4.62
392.787	4.62
393.571	5.62
394.355	3.62
395.139	4.62
395.923	6.62
396.707	5.62
397.491	5.62
398.274	4.62
399.058	4.62
399.842	6.62
400.625	8.62
401.408	8.62
402.192	5.62
402.975	7.62
403.758	6.62
404.541	6.62
405.324	6.62
406.107	5.62
406.89	5.62
407.673	7.62
408.456	9.62
409.238	9.62
410.021	9.62
410.803	7.62
411.586	7.62
412.368	9.62
413.151	8.62
413.933	8.62
414.715	9.62
415.497	7.62
416.279	8.62
417.061	7.62
417.843	10.62
418.624	9.62
419.406	8.62
420.188	9.62
420.969	8.62
421.751	9.62
422.532	10.62
423.313	9.62
424.095	8.62
424.876	12.62
425.657	11.62
426.438	12.62
427.219	14.62
428	12.62
428.78	10.62
429.561	14.62
430.342	13.62
431.122	15.62
431.903	12.62
432.683	14.62
433.464	14.62
434.244	15.62
435.024	16.62
435.804	15.62
436.584	16.62
437.364	16.62
438.144	21.62
438.924	19.62
439.704	22.62
440.483	23.62
441.263	23.62
442.042	24.62
442.822	25.62
443.601	27.62
444.38	30.62
445.16	30.62
445.939	34.62
446.718	35.62
447.497	37.62
448.276	42.62
449.054	46.62
449.833	49.62
450.612	52.62
451.391	60.62
452.169	63.62
452.948	70.62
453.726	72.62
454.504	87.62
455.282	92.62
456.061	104.62
456.839	114.62
457.617	128.62
458.395	139.62
459.172	158.62
459.95	174.62
460.728	196.62
461.506	217.62
462.283	241.62
463.061	270.62
463.838	297.62
464.615	334.62
465.393	378.62
466.17	425.62
466.947	462.62
467.724	520.62
468.501	573.62
469.278	648.62
470.055	717.62
470.831	789.62
471.608	870.62
472.385	972.62
473.161	1086.62
473.938	1193.62
474.714	1327.62
475.49	1450.62
476.266	1608.62
477.043	1757.62
477.819	1931.62
478.595	2142.62
479.371	2350.62
480.146	2573.62
480.922	2827.62
481.698	3119.62
482.473	3413.62
483.249	3759.62
484.024	4121.62
484.8	4542.62
485.575	4943.62
486.35	5420.62
487.126	5910.62
487.901	6483.62
488.676	7101.62
489.451	7757.62
490.225	8458.62
491	9165.62
491.775	10024.62
492.55	10861.62
493.324	11749.62
494.099	12689.62
494.873	13619.62
495.647	14687.62
496.422	15771.62
497.196	16862.62
497.97	18019.62
498.744	19104.62
499.518	20255.62
500.292	21335.62
501.066	22382.62
501.839	23349.62
502.613	24266.62
503.387	25068.62
504.16	25755.62
504.934	26142.62
505.707	26352.62
506.48	26606.62
507.253	26592.62
508.027	26477.62
508.8	26285.62
509.573	25918.62
510.346	25407.62
511.118	24780.62
511.891	24053.62
512.664	23382.62
513.437	22566.62
514.209	21616.62
514.982	20810.62
515.754	19935.62
516.526	19081.62
517.298	18228.62
518.071	17499.62
518.843	16790.62
519.615	16168.62
520.387	15571.62
521.159	14886.62
521.93	14312.62
522.702	13773.62
523.474	13194.62
524.245	12637.62
525.017	12079.62
525.788	11608.62
526.56	11106.62
527.331	10598.62
528.102	10099.62
528.873	9704.62
529.644	9205.62
530.415	8785.62
531.186	8316.62
531.957	7898.62
532.728	7559.62
533.498	7158.62
534.269	6757.62
535.039	6379.62
535.81	6077.62
536.58	5707.62
537.351	5403.62
538.121	5073.62
538.891	4828.62
539.661	4562.62
540.431	4336.62
541.201	4072.62
541.971	3850.62
542.741	3655.62
543.51	3457.62
544.28	3336.62
545.05	3139.62
545.819	2982.62
546.588	2845.62
547.358	2711.62
548.127	2564.62
548.896	2433.62
549.665	2309.62
550.434	2171.62
551.203	2072.62
551.972	1957.62
552.741	1868.62
553.51	1753.62
554.278	1669.62
555.047	1576.62
555.815	1485.62
556.584	1407.62
557.352	1320.62
558.121	1261.62
558.889	1179.62
559.657	1115.62
560.425	1053.62
561.193	993.62
561.961	939.62
562.729	889.62
563.496	833.62
564.264	787.62
565.032	746.62
565.799	708.62
566.567	670.62
567.334	620.62
568.101	594.62
568.869	561.62
569.636	534.62
570.403	499.62
571.17	468.62
571.937	450.62
572.704	423.62
573.471	397.62
574.237	374.62
575.004	357.62
575.771	325.62
576.537	311.62
577.303	291.62
578.07	278.62
578.836	261.62
579.602	246.62
580.368	236.62
581.134	227.62
581.9	204.62
582.666	194.62
583.432	189.62
584.198	183.62
584.964	173.62
585.729	155.62
586.495	150.62
587.26	148.62
588.025	136.62
588.791	128.62
589.556	121.62
590.321	120.62
591.086	110.62
591.851	103.62
592.616	98.62
593.381	93.62
594.146	88.62
594.911	81.62
595.675	80.62
596.44	77.62
597.204	73.62
597.969	69.62
598.733	65.62
599.497	62.62
600.261	61.62
601.025	59.62
601.79	54.62
602.553	52.62
603.317	51.62
604.081	48.62
604.845	47.62
605.609	46.62
606.372	43.62
607.136	45.62
607.899	40.62
608.662	37.62
609.426	36.62
610.189	34.62
610.952	37.62
611.715	30.62
612.478	30.62
613.241	29.62
614.004	29.62
614.767	25.62
615.529	28.62
616.292	24.62
617.055	23.62
617.817	23.62
618.579	24.62
619.342	22.62
620.104	20.62
620.866	19.62
621.628	22.62
622.39	21.62
623.152	14.62
623.914	20.62
624.676	20.62
625.438	16.62
626.199	13.62
626.961	14.62
627.722	17.62
628.484	14.62
629.245	17.62
630.006	10.62
630.768	13.62
631.529	13.62
632.29	11.62
633.051	12.62
633.812	8.62
634.573	12.62
635.333	10.62
636.094	10.62
636.855	10.62
637.615	10.62
638.376	12.62
639.136	9.62
639.896	9.62
640.657	9.62
641.417	8.62
642.177	9.62
642.937	8.62
643.697	5.62
644.457	8.62
645.216	7.62
645.976	7.62
646.736	5.62
647.495	7.62
648.255	7.62
649.014	5.62
649.774	6.62
650.533	6.62
651.292	4.62
652.051	5.62
652.81	3.62
653.569	6.62
654.328	4.62
655.087	5.62
655.846	6.62
656.604	6.62
657.363	5.62
658.121	5.62
658.88	3.62
659.638	7.62
660.397	5.62
661.155	5.62
661.913	6.62
662.671	6.62
663.429	4.62
664.187	3.62
664.945	5.62
665.703	5.62
666.46	3.62
667.218	4.62
667.976	4.62
668.733	5.62
669.49	4.62
670.248	4.62
671.005	5.62
671.762	4.62
672.519	3.62
673.276	1.62
674.033	2.62
674.79	6.62
675.547	3.62
676.304	3.62
677.06	3.62
677.817	3.62
678.574	5.62
679.33	4.62
680.086	5.62
680.843	4.62
681.599	3.62
682.355	2.62
683.111	5.62
683.867	3.62
684.623	3.62
685.379	4.62
686.135	3.62
686.89	7.62
687.646	1.62
688.402	3.62
689.157	4.62
689.912	3.62
690.668	3.62
691.423	1.62
692.178	4.62
692.933	2.62
693.688	4.62
694.443	3.62
695.198	0.62
695.953	2.62
696.708	3.62
697.462	0.62
698.217	4.62
698.972	2.62
699.726	1.62
700.48	3.62
701.235	4.62
701.989	1.62
702.743	2.62
703.497	4.62
704.251	2.62
705.005	2.62
705.759	0.62
706.513	4.62
707.266	3.62
708.02	6.62
708.774	2.62
709.527	1.62
710.28	4.62
711.034	4.62
711.787	1.62
712.54	3.62
713.293	3.62
714.046	0.62
714.799	2.62
715.552	2.62
716.305	3.62
717.058	4.62
717.81	4.62
718.563	4.62
719.315	4.62
720.068	3.62
720.82	3.62
721.573	1.62
722.325	5.62
723.077	2.62
723.829	2.62
724.581	4.62
725.333	1.62
726.085	3.62
726.836	3.62
727.588	3.62
728.34	3.62
729.091	2.62
729.843	3.62
730.594	5.62
731.346	2.62
732.097	3.62
732.848	4.62
733.599	3.62
734.35	3.62
735.101	4.62
735.852	1.62
736.603	4.62
737.354	4.62
738.104	4.62
738.855	2.62
739.605	3.62
740.356	2.62
741.106	4.62
741.856	2.62
742.607	3.62
743.357	4.62
744.107	3.62
744.857	2.62
745.607	5.62
746.357	1.62
747.106	4.62
747.856	5.62
748.606	4.62
749.355	4.62
750.105	3.62
750.854	6.62
751.603	4.62
752.353	4.62
753.102	3.62
753.851	5.62
754.6	6.62
755.349	4.62
756.098	3.62
756.847	5.62
757.595	3.62
758.344	5.62
759.093	4.62
759.841	6.62
760.589	7.62
761.338	3.62
762.086	3.62
762.834	6.62
763.582	6.62
764.331	8.62
765.079	7.62
765.826	5.62
766.574	6.62
767.322	6.62
768.07	7.62
768.817	6.62
769.565	5.62
770.312	6.62
771.06	5.62
771.807	7.62
772.554	8.62
773.302	3.62
774.049	5.62
774.796	6.62
775.543	7.62
776.29	8.62
777.036	10.62
777.783	7.62
778.53	7.62
779.276	9.62
780.023	6.62
780.769	6.62
781.516	8.62
782.262	9.62
783.008	5.62
783.754	5.62
784.5	8.62
785.246	9.62
785.992	7.62
786.738	9.62
787.484	11.62
788.23	7.62
788.975	5.62
789.721	7.62
790.466	6.62
791.212	7.62
791.957	6.62
792.702	6.62
793.447	9.62
794.193	8.62
794.938	6.62
795.683	6.62
796.427	6.62
797.172	8.62
797.917	5.62
798.662	9.62
799.406	6.62
800.151	6.62
800.895	7.62
801.64	7.62
802.384	6.62
803.128	7.62
803.872	8.62
804.616	5.62
805.36	5.62
806.104	5.62
806.848	6.62
807.592	5.62
808.336	3.62
809.079	5.62
809.823	5.62
810.566	5.62
811.31	5.62
812.053	7.62
812.796	5.62
813.539	5.62
814.283	5.62
815.026	5.62
815.769	3.62
816.511	5.62
817.254	4.62
817.997	7.62
818.74	5.62
819.482	2.62
820.225	2.62
820.967	3.62
821.71	5.62
822.452	1.62
823.194	4.62
823.936	3.62
824.678	1.62
825.42	6.62
826.162	2.62
826.904	5.62
827.646	4.62
828.388	1.62
829.129	3.62
829.871	5.62
830.612	2.62
831.354	4.62
832.095	1.62
832.836	2.62
833.577	2.62
834.319	3.62
835.06	2.62
835.801	4.62
836.542	2.62
837.282	3.62
838.023	2.62
838.764	3.62
839.504	2.62
840.245	2.62
840.985	2.62
841.726	1.62
842.466	2.62
843.206	3.62
843.946	1.62
844.687	1.62
845.427	2.62
846.166	5.62
846.906	2.62
847.646	0.62
848.386	2.62
849.125	1.62
849.865	2.62
850.605	2.62
851.344	3.62
852.083	1.62
852.823	0.62
853.562	0.62
854.301	1.62
855.04	2.62
855.779	0.62
856.518	2.62
857.257	4.62
857.995	3.62
858.734	1.62
859.473	2.62
860.211	4.62
860.95	1.62
861.688	1.62
862.426	0.62
863.165	0.62
863.903	1.62
864.641	0.62
865.379	1.62
866.117	1.62
866.855	1.62
867.593	1.62
868.33	-0.38
869.068	2.62
869.806	2.62
870.543	1.62
871.28	1.62
872.018	0.62
872.755	1.62
873.492	1.62
874.229	2.62
874.967	2.62
875.703	4.62
876.44	1.62
877.177	-0.38
877.914	1.62
878.651	0.62
879.387	-0.38
880.124	1.62
880.86	0.62
881.597	0.62
882.333	0.62
883.069	2.62
883.806	-0.38
884.542	2.62
885.278	1.62
886.014	1.62
886.749	-1.38
887.485	2.62
888.221	1.62
888.957	-2.38
889.692	1.62
890.428	-0.38
891.163	-0.38
891.899	1.62
892.634	0.62
893.369	0.62
894.104	1.62
894.839	1.62
895.574	-2.38
896.309	-1.38
897.044	0.62
897.779	-1.38
898.514	1.62
899.248	0.62
899.983	0.62
900.717	-0.38
901.452	-1.38
902.186	0.62
902.92	-0.38
903.654	-0.38
904.389	-0.38
905.123	0.62
905.857	1.62
906.59	0.62
907.324	1.62
908.058	-0.38
908.792	0.62
909.525	1.62
910.259	1.62
910.992	0.62
911.726	-0.38
912.459	0.62
913.192	-0.38
913.925	-0.38
914.658	1.62
915.391	-1.38
916.124	1.62
916.857	-0.38
917.59	0.62
918.323	-0.38
919.055	-0.38
919.788	0.62
920.521	1.62
921.253	1.62
921.985	-0.38
922.718	-0.38
923.45	1.62
924.182	-0.38
924.914	0.62
925.646	-0.38
926.378	0.62
927.11	0.62
927.841	-1.38
928.573	1.62
929.305	-0.38
930.036	0.62
930.768	-0.38
931.499	0.62
932.23	-1.38
932.962	-0.38
933.693	-0.38
934.424	1.62
935.155	-0.38
935.886	0.62
936.617	0.62
937.348	1.62
938.078	-2.38
938.809	1.62
939.54	-0.38
940.27	0.62
941.001	0.62
941.731	-0.38
942.461	-0.38
943.191	0.62
943.922	0.62
944.652	-0.38
945.382	1.62
946.112	0.62
946.841	-0.38
947.571	1.62
948.301	0.62
949.031	1.62
949.76	0.62
950.49	0.62
951.219	0.62
951.948	0.62
952.678	-0.38
953.407	-1.38
954.136	-0.38
954.865	1.62
955.594	-4.38
956.323	2.62
957.052	2.62
957.78	-0.38
958.509	-1.38
959.238	0.62
959.966	1.62
960.695	-1.38
961.423	1.62
962.151	-2.38
962.88	0.62
963.608	-1.38
964.336	-0.38
965.064	1.62
965.792	-0.38
966.52	-1.38
967.247	-1.38
967.975	-0.38
968.703	-1.38
969.43	2.62
970.158	-1.38
970.885	-0.38
971.613	0.62
972.34	-1.38
973.067	0.62
973.794	0.62
974.521	-1.38
975.248	0.62
975.975	0.62
976.702	0.62
977.429	-1.38
978.156	-0.38
978.882	1.62
979.609	-0.38
980.335	-0.38
981.062	-1.38
981.788	-0.38
982.514	1.62
983.24	-1.38
983.967	0.62
984.693	-0.38
985.419	-2.38
986.144	-1.38
986.87	-1.38
987.596	0.62
988.322	-1.38
989.047	1.62
989.773	-0.38
990.498	1.62
991.224	-0.38
991.949	-0.38
992.674	-0.38
993.399	-1.38
994.124	0.62
994.849	-1.38
995.574	-0.38
996.299	-1.38
997.024	-0.38
997.749	-1.38
998.473	-0.38
999.198	-1.38
999.922	0.62
1000.647	-0.38
1001.371	2.62
1002.095	1.62
1002.82	-0.38
1003.544	-2.38
1004.268	-0.38
1004.992	-0.38
1005.716	-0.38
1006.439	3.62
1007.163	1.62
1007.887	-0.38
1008.611	1.62
1009.334	-2.38
1010.058	0.62
1010.781	1.62
1011.504	1.62
1012.228	-0.38
1012.951	-1.38
1013.674	0.62
1014.397	-1.38
1015.12	0.62
