节点500_285_QEPB04081__274__15-00-06-817.txt的数据

Date: Wed Nov 12 15:00:06 CST 2025
User: PC
Spectrometer: QEPB0408
触发模式: 0
积分时间 (秒): 1.000000E-2
Scans to average: 1
启用暗噪声校正: true
启用非线性校正: false
滑动平均宽度: 0
X轴模式: Wavelengths
Number of Pixels in Spectrum: 1044
>>>>>Begin Spectral Data<<<<<
220.843	2
221.644	1
222.444	0
223.244	2
224.045	4
224.845	2
225.645	3
226.445	2
227.245	2
228.045	4
228.845	2
229.645	4
230.444	2
231.244	3
232.043	3
232.843	7
233.642	3
234.442	2
235.241	4
236.04	4
236.839	3
237.638	4
238.437	5
239.236	3
240.035	5
240.833	4
241.632	7
242.43	7
243.229	5
244.027	4
244.826	4
245.624	5
246.422	5
247.22	7
248.018	7
248.816	6
249.614	7
250.412	7
251.21	6
252.007	7
252.805	7
253.602	7
254.4	7
255.197	7
255.994	7
256.791	6
257.589	7
258.386	10
259.183	13
259.979	7
260.776	8
261.573	11
262.37	11
263.166	10
263.963	10
264.759	12
265.556	14
266.352	11
267.148	14
267.944	16
268.74	15
269.536	16
270.332	14
271.128	16
271.924	14
272.719	17
273.515	15
274.311	20
275.106	18
275.901	16
276.697	19
277.492	17
278.287	20
279.082	19
279.877	16
280.672	19
281.467	20
282.262	19
283.056	18
283.851	18
284.646	20
285.44	19
286.234	17
287.029	19
287.823	21
288.617	21
289.411	18
290.205	22
290.999	19
291.793	20
292.587	17
293.381	18
294.174	18
294.968	17
295.761	18
296.555	15
297.348	16
298.141	19
298.935	16
299.728	16
300.521	14
301.314	15
302.107	15
302.899	14
303.692	14
304.485	14
305.277	15
306.07	13
306.862	12
307.655	12
308.447	15
309.239	14
310.031	12
310.823	12
311.615	13
312.407	14
313.199	13
313.991	9
314.783	9
315.574	9
316.366	8
317.157	7
317.949	8
318.74	9
319.531	7
320.322	8
321.113	11
321.904	10
322.695	8
323.486	7
324.277	8
325.068	8
325.858	8
326.649	5
327.439	10
328.23	8
329.02	5
329.81	6
330.6	7
331.391	8
332.181	7
332.971	8
333.76	7
334.55	9
335.34	7
336.13	6
336.919	6
337.709	6
338.498	5
339.287	8
340.077	9
340.866	5
341.655	9
342.444	7
343.233	8
344.022	7
344.811	6
345.6	6
346.388	8
347.177	5
347.965	8
348.754	6
349.542	7
350.33	6
351.119	6
351.907	7
352.695	6
353.483	5
354.271	4
355.059	5
355.846	5
356.634	6
357.422	6
358.209	7
358.997	5
359.784	8
360.571	7
361.359	7
362.146	7
362.933	6
363.72	7
364.507	5
365.294	7
366.081	7
366.867	8
367.654	4
368.44	2
369.227	6
370.013	6
370.8	4
371.586	5
372.372	6
373.158	5
373.944	5
374.73	6
375.516	6
376.302	8
377.088	8
377.873	6
378.659	8
379.445	7
380.23	5
381.015	4
381.801	5
382.586	6
383.371	4
384.156	5
384.941	6
385.726	6
386.511	5
387.296	8
388.08	6
388.865	4
389.649	7
390.434	7
391.218	6
392.003	7
392.787	6
393.571	7
394.355	6
395.139	8
395.923	8
396.707	6
397.491	7
398.274	6
399.058	7
399.842	7
400.625	8
401.408	10
402.192	7
402.975	10
403.758	7
404.541	11
405.324	9
406.107	8
406.89	6
407.673	8
408.456	8
409.238	8
410.021	10
410.803	11
411.586	7
412.368	7
413.151	6
413.933	11
414.715	11
415.497	11
416.279	10
417.061	9
417.843	8
418.624	8
419.406	10
420.188	10
420.969	13
421.751	13
422.532	10
423.313	11
424.095	14
424.876	12
425.657	10
426.438	11
427.219	13
428	11
428.78	15
429.561	15
430.342	12
431.122	14
431.903	16
432.683	17
433.464	14
434.244	18
435.024	14
435.804	18
436.584	18
437.364	20
438.144	24
438.924	22
439.704	20
440.483	25
441.263	21
442.042	26
442.822	28
443.601	27
444.38	29
445.16	32
445.939	32
446.718	36
447.497	40
448.276	41
449.054	46
449.833	50
450.612	50
451.391	56
452.169	60
452.948	72
453.726	70
454.504	83
455.282	89
456.061	99
456.839	109
457.617	122
458.395	135
459.172	152
459.95	163
460.728	185
461.506	206
462.283	227
463.061	253
463.838	282
464.615	317
465.393	350
466.17	393
466.947	437
467.724	499
468.501	562
469.278	611
470.055	683
470.831	762
471.608	834
472.385	927
473.161	1037
473.938	1159
474.714	1297
475.49	1421
476.266	1578
477.043	1734
477.819	1937
478.595	2133
479.371	2344
480.146	2594
480.922	2863
481.698	3158
482.473	3508
483.249	3825
484.024	4239
484.8	4668
485.575	5143
486.35	5633
487.126	6199
487.901	6811
488.676	7488
489.451	8141
490.225	8939
491	9756
491.775	10646
492.55	11634
493.324	12679
494.099	13632
494.873	14669
495.647	15855
496.422	17034
497.196	18245
497.97	19460
498.744	20663
499.518	21880
500.292	22980
501.066	24103
501.839	25039
502.613	25928
503.387	26645
504.16	27302
504.934	27614
505.707	27754
506.48	27763
507.253	27617
508.027	27334
508.8	27051
509.573	26517
510.346	25854
511.118	25109
511.891	24257
512.664	23399
513.437	22482
514.209	21512
514.982	20659
515.754	19669
516.526	18749
517.298	18029
518.071	17177
518.843	16554
519.615	15911
520.387	15288
521.159	14680
521.93	14010
522.702	13518
523.474	13020
524.245	12408
525.017	11853
525.788	11461
526.56	10899
527.331	10394
528.102	9902
528.873	9450
529.644	8991
530.415	8512
531.186	8100
531.957	7659
532.728	7294
533.498	6905
534.269	6526
535.039	6154
535.81	5836
536.58	5502
537.351	5176
538.121	4916
538.891	4593
539.661	4366
540.431	4116
541.201	3893
541.971	3698
542.741	3487
543.51	3331
544.28	3178
545.05	3047
545.819	2872
546.588	2735
547.358	2592
548.127	2462
548.896	2335
549.665	2222
550.434	2094
551.203	1990
551.972	1874
552.741	1767
553.51	1688
554.278	1592
555.047	1493
555.815	1398
556.584	1327
557.352	1255
558.121	1175
558.889	1114
559.657	1060
560.425	1003
561.193	949
561.961	890
562.729	835
563.496	790
564.264	756
565.032	706
565.799	670
566.567	636
567.334	600
568.101	571
568.869	529
569.636	511
570.403	474
571.17	443
571.937	415
572.704	401
573.471	381
574.237	354
575.004	332
575.771	313
576.537	294
577.303	282
578.07	263
578.836	245
579.602	231
580.368	220
581.134	205
581.9	200
582.666	182
583.432	183
584.198	166
584.964	162
585.729	153
586.495	146
587.26	135
588.025	127
588.791	122
589.556	118
590.321	108
591.086	105
591.851	103
592.616	90
593.381	89
594.146	86
594.911	84
595.675	79
596.44	78
597.204	73
597.969	69
598.733	65
599.497	60
600.261	58
601.025	56
601.79	53
602.553	52
603.317	49
604.081	49
604.845	47
605.609	45
606.372	40
607.136	41
607.899	38
608.662	37
609.426	38
610.189	37
610.952	30
611.715	35
612.478	31
613.241	28
614.004	27
614.767	27
615.529	28
616.292	26
617.055	27
617.817	24
618.579	26
619.342	23
620.104	19
620.866	19
621.628	18
622.39	19
623.152	18
623.914	18
624.676	16
625.438	18
626.199	15
626.961	14
627.722	14
628.484	16
629.245	16
630.006	16
630.768	13
631.529	16
632.29	12
633.051	14
633.812	12
634.573	12
635.333	13
636.094	12
636.855	11
637.615	12
638.376	10
639.136	12
639.896	10
640.657	10
641.417	12
642.177	11
642.937	9
643.697	8
644.457	8
645.216	9
645.976	12
646.736	9
647.495	9
648.255	9
649.014	9
649.774	8
650.533	7
651.292	8
652.051	6
652.81	8
653.569	7
654.328	6
655.087	8
655.846	8
656.604	6
657.363	6
658.121	5
658.88	6
659.638	7
660.397	8
661.155	5
661.913	5
662.671	7
663.429	5
664.187	9
664.945	7
665.703	5
666.46	4
667.218	5
667.976	5
668.733	3
669.49	5
670.248	5
671.005	9
671.762	4
672.519	6
673.276	6
674.033	4
674.79	5
675.547	5
676.304	3
677.06	4
677.817	2
678.574	6
679.33	2
680.086	5
680.843	5
681.599	7
682.355	7
683.111	5
683.867	6
684.623	4
685.379	4
686.135	7
686.89	2
687.646	3
688.402	3
689.157	4
689.912	4
690.668	3
691.423	4
692.178	5
692.933	4
693.688	3
694.443	4
695.198	5
695.953	2
696.708	5
697.462	6
698.217	5
698.972	3
699.726	4
700.48	5
701.235	3
701.989	2
702.743	4
703.497	2
704.251	4
705.005	4
705.759	4
706.513	5
707.266	3
708.02	4
708.774	5
709.527	4
710.28	3
711.034	3
711.787	6
712.54	3
713.293	2
714.046	7
714.799	4
715.552	3
716.305	4
717.058	4
717.81	7
718.563	3
719.315	5
720.068	4
720.82	6
721.573	5
722.325	2
723.077	4
723.829	5
724.581	3
725.333	5
726.085	6
726.836	6
727.588	5
728.34	2
729.091	5
729.843	6
730.594	4
731.346	5
732.097	8
732.848	3
733.599	5
734.35	2
735.101	5
735.852	6
736.603	4
737.354	3
738.104	6
738.855	2
739.605	4
740.356	6
741.106	8
741.856	7
742.607	3
743.357	7
744.107	5
744.857	8
745.607	5
746.357	5
747.106	5
747.856	4
748.606	7
749.355	6
750.105	6
750.854	7
751.603	5
752.353	7
753.102	5
753.851	6
754.6	5
755.349	8
756.098	7
756.847	6
757.595	8
758.344	6
759.093	8
759.841	7
760.589	4
761.338	5
762.086	6
762.834	6
763.582	7
764.331	5
765.079	5
765.826	8
766.574	7
767.322	8
768.07	7
768.817	9
769.565	6
770.312	11
771.06	8
771.807	9
772.554	7
773.302	7
774.049	8
774.796	10
775.543	8
776.29	11
777.036	8
777.783	9
778.53	5
779.276	10
780.023	9
780.769	9
781.516	9
782.262	8
783.008	10
783.754	10
784.5	9
785.246	8
785.992	10
786.738	9
787.484	10
788.23	9
788.975	10
789.721	10
790.466	9
791.212	9
791.957	10
792.702	7
793.447	9
794.193	8
794.938	10
795.683	10
796.427	8
797.172	11
797.917	9
798.662	9
799.406	7
800.151	10
800.895	9
801.64	7
802.384	7
803.128	6
803.872	10
804.616	9
805.36	7
806.104	10
806.848	6
807.592	5
808.336	8
809.079	7
809.823	8
810.566	4
811.31	7
812.053	6
812.796	8
813.539	7
814.283	6
815.026	4
815.769	4
816.511	6
817.254	6
817.997	4
818.74	6
819.482	3
820.225	6
820.967	6
821.71	6
822.452	5
823.194	5
823.936	4
824.678	3
825.42	5
826.162	2
826.904	5
827.646	5
828.388	3
829.129	2
829.871	1
830.612	4
831.354	6
832.095	4
832.836	4
833.577	3
834.319	6
835.06	7
835.801	5
836.542	3
837.282	2
838.023	3
838.764	4
839.504	4
840.245	2
840.985	5
841.726	4
842.466	2
843.206	6
843.946	4
844.687	3
845.427	2
846.166	7
846.906	3
847.646	4
848.386	4
849.125	4
849.865	3
850.605	3
851.344	3
852.083	6
852.823	3
853.562	5
854.301	4
855.04	2
855.779	2
856.518	4
857.257	2
857.995	1
858.734	2
859.473	5
860.211	4
860.95	2
861.688	1
862.426	4
863.165	0
863.903	2
864.641	0
865.379	2
866.117	4
866.855	0
867.593	2
868.33	2
869.068	0
869.806	3
870.543	2
871.28	3
872.018	-2
872.755	2
873.492	3
874.229	2
874.967	2
875.703	3
876.44	1
877.177	1
877.914	3
878.651	1
879.387	2
880.124	3
880.86	1
881.597	0
882.333	2
883.069	1
883.806	1
884.542	2
885.278	1
886.014	0
886.749	2
887.485	1
888.221	2
888.957	0
889.692	1
890.428	1
891.163	2
891.899	1
892.634	3
893.369	2
894.104	2
894.839	2
895.574	1
896.309	1
897.044	3
897.779	1
898.514	1
899.248	3
899.983	1
900.717	1
901.452	0
902.186	2
902.92	0
903.654	1
904.389	4
905.123	2
905.857	3
906.59	1
907.324	1
908.058	1
908.792	-1
909.525	1
910.259	1
910.992	2
911.726	1
912.459	1
913.192	0
913.925	1
914.658	4
915.391	4
916.124	0
916.857	0
917.59	2
918.323	2
919.055	2
919.788	2
920.521	1
921.253	1
921.985	1
922.718	-1
923.45	3
924.182	-1
924.914	1
925.646	4
926.378	-1
927.11	1
927.841	-1
928.573	0
929.305	0
930.036	0
930.768	0
931.499	1
932.23	2
932.962	1
933.693	-1
934.424	0
935.155	-2
935.886	1
936.617	-1
937.348	1
938.078	0
938.809	0
939.54	0
940.27	-4
941.001	2
941.731	1
942.461	0
943.191	1
943.922	-1
944.652	2
945.382	4
946.112	1
946.841	2
947.571	-2
948.301	2
949.031	0
949.76	1
950.49	2
951.219	0
951.948	0
952.678	1
953.407	0
954.136	0
954.865	2
955.594	0
956.323	2
957.052	-2
957.78	0
958.509	2
959.238	-2
959.966	0
960.695	1
961.423	-1
962.151	0
962.88	0
963.608	4
964.336	0
965.064	0
965.792	0
966.52	0
967.247	1
967.975	0
968.703	1
969.43	0
970.158	2
970.885	0
971.613	3
972.34	0
973.067	0
973.794	1
974.521	0
975.248	1
975.975	1
976.702	0
977.429	1
978.156	1
978.882	1
979.609	1
980.335	1
981.062	1
981.788	0
982.514	3
983.24	2
983.967	0
984.693	2
985.419	2
986.144	0
986.87	3
987.596	1
988.322	0
989.047	1
989.773	2
990.498	0
991.224	2
991.949	0
992.674	1
993.399	-1
994.124	1
994.849	3
995.574	1
996.299	2
997.024	0
997.749	2
998.473	-1
999.198	0
999.922	2
1000.647	0
1001.371	4
1002.095	-1
1002.82	-3
1003.544	-1
1004.268	2
1004.992	-1
1005.716	0
1006.439	2
1007.163	4
1007.887	2
1008.611	0
1009.334	1
1010.058	0
1010.781	0
1011.504	1
1012.228	0
1012.951	1
1013.674	0
1014.397	-1
1015.12	1
