节点500_285_QEPB04081__362__15-01-34-672.txt的数据

Date: Wed Nov 12 15:01:34 CST 2025
User: PC
Spectrometer: QEPB0408
触发模式: 0
积分时间 (秒): 1.000000E-2
Scans to average: 1
启用暗噪声校正: true
启用非线性校正: false
滑动平均宽度: 0
X轴模式: Wavelengths
Number of Pixels in Spectrum: 1044
>>>>>Begin Spectral Data<<<<<
220.843	2.62
221.644	0.62
222.444	-0.38
223.244	3.62
224.045	1.62
224.845	1.62
225.645	0.62
226.445	0.62
227.245	2.62
228.045	-0.38
228.845	0.62
229.645	1.62
230.444	2.62
231.244	2.62
232.043	3.62
232.843	2.62
233.642	1.62
234.442	2.62
235.241	2.62
236.04	3.62
236.839	2.62
237.638	4.62
238.437	5.62
239.236	1.62
240.035	3.62
240.833	5.62
241.632	4.62
242.43	3.62
243.229	2.62
244.027	6.62
244.826	4.62
245.624	7.62
246.422	3.62
247.22	4.62
248.018	5.62
248.816	6.62
249.614	5.62
250.412	5.62
251.21	5.62
252.007	7.62
252.805	7.62
253.602	5.62
254.4	7.62
255.197	5.62
255.994	7.62
256.791	7.62
257.589	9.62
258.386	6.62
259.183	8.62
259.979	6.62
260.776	8.62
261.573	9.62
262.37	6.62
263.166	7.62
263.963	9.62
264.759	11.62
265.556	6.62
266.352	10.62
267.148	9.62
267.944	9.62
268.74	13.62
269.536	9.62
270.332	14.62
271.128	14.62
271.924	14.62
272.719	12.62
273.515	15.62
274.311	13.62
275.106	12.62
275.901	15.62
276.697	16.62
277.492	16.62
278.287	17.62
279.082	13.62
279.877	15.62
280.672	17.62
281.467	15.62
282.262	16.62
283.056	15.62
283.851	18.62
284.646	15.62
285.44	16.62
286.234	15.62
287.029	13.62
287.823	19.62
288.617	15.62
289.411	16.62
290.205	13.62
290.999	13.62
291.793	17.62
292.587	15.62
293.381	16.62
294.174	14.62
294.968	13.62
295.761	12.62
296.555	16.62
297.348	16.62
298.141	15.62
298.935	14.62
299.728	12.62
300.521	10.62
301.314	12.62
302.107	13.62
302.899	13.62
303.692	11.62
304.485	11.62
305.277	11.62
306.07	8.62
306.862	12.62
307.655	10.62
308.447	11.62
309.239	9.62
310.031	10.62
310.823	7.62
311.615	8.62
312.407	9.62
313.199	8.62
313.991	9.62
314.783	7.62
315.574	10.62
316.366	8.62
317.157	7.62
317.949	10.62
318.74	7.62
319.531	5.62
320.322	6.62
321.113	5.62
321.904	8.62
322.695	6.62
323.486	9.62
324.277	6.62
325.068	6.62
325.858	5.62
326.649	6.62
327.439	8.62
328.23	6.62
329.02	5.62
329.81	8.62
330.6	6.62
331.391	7.62
332.181	5.62
332.971	6.62
333.76	7.62
334.55	5.62
335.34	4.62
336.13	5.62
336.919	6.62
337.709	5.62
338.498	6.62
339.287	6.62
340.077	5.62
340.866	7.62
341.655	6.62
342.444	5.62
343.233	6.62
344.022	7.62
344.811	7.62
345.6	4.62
346.388	6.62
347.177	6.62
347.965	4.62
348.754	4.62
349.542	5.62
350.33	4.62
351.119	3.62
351.907	9.62
352.695	4.62
353.483	5.62
354.271	3.62
355.059	3.62
355.846	6.62
356.634	4.62
357.422	8.62
358.209	6.62
358.997	4.62
359.784	3.62
360.571	4.62
361.359	4.62
362.146	6.62
362.933	5.62
363.72	4.62
364.507	4.62
365.294	5.62
366.081	7.62
366.867	6.62
367.654	3.62
368.44	5.62
369.227	4.62
370.013	4.62
370.8	4.62
371.586	3.62
372.372	5.62
373.158	2.62
373.944	3.62
374.73	3.62
375.516	3.62
376.302	1.62
377.088	4.62
377.873	5.62
378.659	4.62
379.445	3.62
380.23	4.62
381.015	4.62
381.801	3.62
382.586	3.62
383.371	6.62
384.156	4.62
384.941	3.62
385.726	4.62
386.511	4.62
387.296	4.62
388.08	7.62
388.865	4.62
389.649	5.62
390.434	4.62
391.218	4.62
392.003	5.62
392.787	4.62
393.571	6.62
394.355	4.62
395.139	6.62
395.923	6.62
396.707	7.62
397.491	5.62
398.274	6.62
399.058	4.62
399.842	4.62
400.625	6.62
401.408	5.62
402.192	7.62
402.975	4.62
403.758	5.62
404.541	6.62
405.324	5.62
406.107	6.62
406.89	5.62
407.673	7.62
408.456	4.62
409.238	4.62
410.021	8.62
410.803	6.62
411.586	9.62
412.368	9.62
413.151	7.62
413.933	9.62
414.715	7.62
415.497	7.62
416.279	8.62
417.061	8.62
417.843	9.62
418.624	9.62
419.406	8.62
420.188	8.62
420.969	10.62
421.751	5.62
422.532	10.62
423.313	9.62
424.095	11.62
424.876	9.62
425.657	8.62
426.438	11.62
427.219	13.62
428	9.62
428.78	9.62
429.561	12.62
430.342	10.62
431.122	12.62
431.903	12.62
432.683	13.62
433.464	12.62
434.244	15.62
435.024	15.62
435.804	16.62
436.584	13.62
437.364	17.62
438.144	15.62
438.924	19.62
439.704	19.62
440.483	16.62
441.263	22.62
442.042	22.62
442.822	23.62
443.601	25.62
444.38	27.62
445.16	29.62
445.939	30.62
446.718	29.62
447.497	33.62
448.276	38.62
449.054	41.62
449.833	44.62
450.612	49.62
451.391	51.62
452.169	56.62
452.948	63.62
453.726	68.62
454.504	76.62
455.282	84.62
456.061	90.62
456.839	102.62
457.617	111.62
458.395	126.62
459.172	133.62
459.95	156.62
460.728	169.62
461.506	187.62
462.283	212.62
463.061	235.62
463.838	269.62
464.615	296.62
465.393	332.62
466.17	376.62
466.947	410.62
467.724	452.62
468.501	504.62
469.278	559.62
470.055	628.62
470.831	695.62
471.608	779.62
472.385	867.62
473.161	960.62
473.938	1055.62
474.714	1180.62
475.49	1303.62
476.266	1446.62
477.043	1606.62
477.819	1786.62
478.595	1957.62
479.371	2147.62
480.146	2382.62
480.922	2603.62
481.698	2883.62
482.473	3168.62
483.249	3490.62
484.024	3851.62
484.8	4218.62
485.575	4642.62
486.35	5076.62
487.126	5591.62
487.901	6165.62
488.676	6726.62
489.451	7334.62
490.225	8032.62
491	8776.62
491.775	9577.62
492.55	10448.62
493.324	11318.62
494.099	12203.62
494.873	13162.62
495.647	14203.62
496.422	15273.62
497.196	16336.62
497.97	17395.62
498.744	18466.62
499.518	19576.62
500.292	20623.62
501.066	21605.62
501.839	22509.62
502.613	23243.62
503.387	24032.62
504.16	24572.62
504.934	24836.62
505.707	25056.62
506.48	25134.62
507.253	25039.62
508.027	24845.62
508.8	24577.62
509.573	24138.62
510.346	23595.62
511.118	22920.62
511.891	22102.62
512.664	21399.62
513.437	20598.62
514.209	19727.62
514.982	18899.62
515.754	18111.62
516.526	17265.62
517.298	16505.62
518.071	15820.62
518.843	15241.62
519.615	14680.62
520.387	14079.62
521.159	13514.62
521.93	12987.62
522.702	12478.62
523.474	11899.62
524.245	11424.62
525.017	10908.62
525.788	10539.62
526.56	10053.62
527.331	9549.62
528.102	9137.62
528.873	8750.62
529.644	8253.62
530.415	7864.62
531.186	7463.62
531.957	7098.62
532.728	6734.62
533.498	6392.62
534.269	6010.62
535.039	5687.62
535.81	5384.62
536.58	5096.62
537.351	4796.62
538.121	4523.62
538.891	4266.62
539.661	4041.62
540.431	3811.62
541.201	3606.62
541.971	3410.62
542.741	3247.62
543.51	3094.62
544.28	2938.62
545.05	2797.62
545.819	2662.62
546.588	2530.62
547.358	2391.62
548.127	2275.62
548.896	2171.62
549.665	2056.62
550.434	1943.62
551.203	1831.62
551.972	1729.62
552.741	1653.62
553.51	1552.62
554.278	1455.62
555.047	1374.62
555.815	1308.62
556.584	1227.62
557.352	1175.62
558.121	1108.62
558.889	1051.62
559.657	977.62
560.425	930.62
561.193	870.62
561.961	823.62
562.729	780.62
563.496	727.62
564.264	694.62
565.032	664.62
565.799	616.62
566.567	592.62
567.334	547.62
568.101	535.62
568.869	495.62
569.636	459.62
570.403	440.62
571.17	415.62
571.937	387.62
572.704	366.62
573.471	352.62
574.237	321.62
575.004	309.62
575.771	295.62
576.537	276.62
577.303	255.62
578.07	248.62
578.836	226.62
579.602	217.62
580.368	206.62
581.134	196.62
581.9	186.62
582.666	175.62
583.432	162.62
584.198	154.62
584.964	148.62
585.729	140.62
586.495	132.62
587.26	128.62
588.025	118.62
588.791	116.62
589.556	109.62
590.321	97.62
591.086	98.62
591.851	94.62
592.616	85.62
593.381	86.62
594.146	81.62
594.911	74.62
595.675	67.62
596.44	69.62
597.204	61.62
597.969	61.62
598.733	58.62
599.497	55.62
600.261	55.62
601.025	51.62
601.79	47.62
602.553	46.62
603.317	43.62
604.081	41.62
604.845	43.62
605.609	38.62
606.372	36.62
607.136	37.62
607.899	33.62
608.662	32.62
609.426	31.62
610.189	28.62
610.952	31.62
611.715	28.62
612.478	25.62
613.241	25.62
614.004	29.62
614.767	25.62
615.529	24.62
616.292	23.62
617.055	21.62
617.817	21.62
618.579	19.62
619.342	19.62
620.104	22.62
620.866	18.62
621.628	19.62
622.39	15.62
623.152	16.62
623.914	18.62
624.676	17.62
625.438	16.62
626.199	15.62
626.961	15.62
627.722	13.62
628.484	14.62
629.245	11.62
630.006	12.62
630.768	11.62
631.529	12.62
632.29	12.62
633.051	13.62
633.812	13.62
634.573	10.62
635.333	9.62
636.094	11.62
636.855	7.62
637.615	9.62
638.376	7.62
639.136	9.62
639.896	7.62
640.657	6.62
641.417	8.62
642.177	8.62
642.937	10.62
643.697	6.62
644.457	6.62
645.216	8.62
645.976	8.62
646.736	5.62
647.495	7.62
648.255	4.62
649.014	9.62
649.774	6.62
650.533	6.62
651.292	5.62
652.051	7.62
652.81	6.62
653.569	5.62
654.328	5.62
655.087	7.62
655.846	6.62
656.604	4.62
657.363	5.62
658.121	3.62
658.88	5.62
659.638	4.62
660.397	4.62
661.155	3.62
661.913	6.62
662.671	8.62
663.429	3.62
664.187	5.62
664.945	4.62
665.703	3.62
666.46	3.62
667.218	3.62
667.976	3.62
668.733	6.62
669.49	2.62
670.248	4.62
671.005	2.62
671.762	4.62
672.519	4.62
673.276	4.62
674.033	1.62
674.79	5.62
675.547	4.62
676.304	3.62
677.06	1.62
677.817	4.62
678.574	2.62
679.33	2.62
680.086	2.62
680.843	3.62
681.599	3.62
682.355	4.62
683.111	3.62
683.867	4.62
684.623	3.62
685.379	6.62
686.135	4.62
686.89	5.62
687.646	2.62
688.402	4.62
689.157	1.62
689.912	6.62
690.668	5.62
691.423	1.62
692.178	4.62
692.933	1.62
693.688	5.62
694.443	3.62
695.198	4.62
695.953	3.62
696.708	2.62
697.462	4.62
698.217	4.62
698.972	5.62
699.726	2.62
700.48	3.62
701.235	3.62
701.989	-1.38
702.743	3.62
703.497	3.62
704.251	3.62
705.005	2.62
705.759	6.62
706.513	3.62
707.266	2.62
708.02	4.62
708.774	3.62
709.527	2.62
710.28	3.62
711.034	4.62
711.787	2.62
712.54	3.62
713.293	2.62
714.046	1.62
714.799	4.62
715.552	4.62
716.305	3.62
717.058	4.62
717.81	3.62
718.563	1.62
719.315	4.62
720.068	2.62
720.82	3.62
721.573	4.62
722.325	2.62
723.077	3.62
723.829	5.62
724.581	4.62
725.333	3.62
726.085	2.62
726.836	2.62
727.588	3.62
728.34	0.62
729.091	3.62
729.843	3.62
730.594	5.62
731.346	5.62
732.097	1.62
732.848	5.62
733.599	1.62
734.35	2.62
735.101	5.62
735.852	-0.38
736.603	5.62
737.354	3.62
738.104	3.62
738.855	1.62
739.605	1.62
740.356	4.62
741.106	4.62
741.856	3.62
742.607	3.62
743.357	4.62
744.107	2.62
744.857	3.62
745.607	3.62
746.357	4.62
747.106	4.62
747.856	2.62
748.606	3.62
749.355	5.62
750.105	2.62
750.854	6.62
751.603	3.62
752.353	7.62
753.102	5.62
753.851	3.62
754.6	5.62
755.349	4.62
756.098	5.62
756.847	4.62
757.595	6.62
758.344	5.62
759.093	6.62
759.841	6.62
760.589	6.62
761.338	6.62
762.086	3.62
762.834	5.62
763.582	5.62
764.331	7.62
765.079	4.62
765.826	6.62
766.574	5.62
767.322	6.62
768.07	5.62
768.817	6.62
769.565	6.62
770.312	5.62
771.06	6.62
771.807	7.62
772.554	7.62
773.302	6.62
774.049	7.62
774.796	6.62
775.543	7.62
776.29	8.62
777.036	7.62
777.783	6.62
778.53	7.62
779.276	6.62
780.023	6.62
780.769	8.62
781.516	9.62
782.262	9.62
783.008	10.62
783.754	6.62
784.5	7.62
785.246	7.62
785.992	9.62
786.738	8.62
787.484	9.62
788.23	9.62
788.975	6.62
789.721	8.62
790.466	7.62
791.212	7.62
791.957	7.62
792.702	5.62
793.447	9.62
794.193	5.62
794.938	7.62
795.683	3.62
796.427	9.62
797.172	8.62
797.917	5.62
798.662	6.62
799.406	5.62
800.151	8.62
800.895	8.62
801.64	5.62
802.384	6.62
803.128	5.62
803.872	7.62
804.616	7.62
805.36	6.62
806.104	7.62
806.848	5.62
807.592	4.62
808.336	6.62
809.079	7.62
809.823	4.62
810.566	5.62
811.31	4.62
812.053	6.62
812.796	7.62
813.539	5.62
814.283	4.62
815.026	3.62
815.769	2.62
816.511	3.62
817.254	4.62
817.997	5.62
818.74	3.62
819.482	2.62
820.225	3.62
820.967	6.62
821.71	2.62
822.452	3.62
823.194	3.62
823.936	1.62
824.678	1.62
825.42	2.62
826.162	1.62
826.904	3.62
827.646	3.62
828.388	3.62
829.129	4.62
829.871	2.62
830.612	4.62
831.354	1.62
832.095	3.62
832.836	3.62
833.577	2.62
834.319	5.62
835.06	3.62
835.801	4.62
836.542	2.62
837.282	3.62
838.023	4.62
838.764	3.62
839.504	2.62
840.245	2.62
840.985	3.62
841.726	1.62
842.466	1.62
843.206	4.62
843.946	2.62
844.687	4.62
845.427	2.62
846.166	0.62
846.906	4.62
847.646	2.62
848.386	1.62
849.125	2.62
849.865	2.62
850.605	2.62
851.344	4.62
852.083	4.62
852.823	2.62
853.562	3.62
854.301	2.62
855.04	1.62
855.779	3.62
856.518	4.62
857.257	0.62
857.995	-0.38
858.734	0.62
859.473	1.62
860.211	4.62
860.95	0.62
861.688	1.62
862.426	1.62
863.165	2.62
863.903	3.62
864.641	2.62
865.379	0.62
866.117	1.62
866.855	1.62
867.593	3.62
868.33	0.62
869.068	3.62
869.806	1.62
870.543	1.62
871.28	1.62
872.018	1.62
872.755	-0.38
873.492	3.62
874.229	0.62
874.967	1.62
875.703	0.62
876.44	0.62
877.177	0.62
877.914	3.62
878.651	1.62
879.387	1.62
880.124	0.62
880.86	1.62
881.597	1.62
882.333	0.62
883.069	1.62
883.806	2.62
884.542	0.62
885.278	1.62
886.014	-0.38
886.749	1.62
887.485	-0.38
888.221	1.62
888.957	0.62
889.692	0.62
890.428	1.62
891.163	-1.38
891.899	0.62
892.634	-0.38
893.369	0.62
894.104	2.62
894.839	1.62
895.574	-0.38
896.309	0.62
897.044	2.62
897.779	1.62
898.514	-0.38
899.248	-0.38
899.983	-2.38
900.717	1.62
901.452	-0.38
902.186	1.62
902.92	0.62
903.654	0.62
904.389	0.62
905.123	0.62
905.857	1.62
906.59	-0.38
907.324	-0.38
908.058	-0.38
908.792	-0.38
909.525	-0.38
910.259	-1.38
910.992	1.62
911.726	1.62
912.459	-0.38
913.192	-0.38
913.925	0.62
914.658	-0.38
915.391	-0.38
916.124	0.62
916.857	1.62
917.59	0.62
918.323	2.62
919.055	-0.38
919.788	0.62
920.521	-0.38
921.253	-0.38
921.985	-0.38
922.718	1.62
923.45	0.62
924.182	0.62
924.914	0.62
925.646	-0.38
926.378	0.62
927.11	-0.38
927.841	-0.38
928.573	-0.38
929.305	-1.38
930.036	1.62
930.768	0.62
931.499	1.62
932.23	0.62
932.962	0.62
933.693	1.62
934.424	0.62
935.155	1.62
935.886	0.62
936.617	-2.38
937.348	-0.38
938.078	2.62
938.809	1.62
939.54	0.62
940.27	0.62
941.001	-0.38
941.731	0.62
942.461	0.62
943.191	2.62
943.922	-0.38
944.652	-0.38
945.382	-2.38
946.112	0.62
946.841	0.62
947.571	-0.38
948.301	-1.38
949.031	0.62
949.76	-0.38
950.49	-0.38
951.219	1.62
951.948	-2.38
952.678	0.62
953.407	-2.38
954.136	0.62
954.865	-1.38
955.594	1.62
956.323	1.62
957.052	0.62
957.78	1.62
958.509	-0.38
959.238	-0.38
959.966	-0.38
960.695	-0.38
961.423	1.62
962.151	-0.38
962.88	-1.38
963.608	0.62
964.336	-1.38
965.064	-0.38
965.792	0.62
966.52	1.62
967.247	0.62
967.975	-1.38
968.703	-1.38
969.43	-1.38
970.158	2.62
970.885	1.62
971.613	1.62
972.34	1.62
973.067	1.62
973.794	-0.38
974.521	1.62
975.248	1.62
975.975	-2.38
976.702	-0.38
977.429	-0.38
978.156	-2.38
978.882	2.62
979.609	-0.38
980.335	1.62
981.062	-0.38
981.788	-0.38
982.514	0.62
983.24	-0.38
983.967	0.62
984.693	0.62
985.419	0.62
986.144	2.62
986.87	0.62
987.596	-0.38
988.322	-0.38
989.047	1.62
989.773	0.62
990.498	0.62
991.224	0.62
991.949	1.62
992.674	0.62
993.399	-0.38
994.124	0.62
994.849	0.62
995.574	0.62
996.299	0.62
997.024	-0.38
997.749	-2.38
998.473	0.62
999.198	-2.38
999.922	-1.38
1000.647	-2.38
1001.371	3.62
1002.095	-1.38
1002.82	-0.38
1003.544	-2.38
1004.268	0.62
1004.992	-0.38
1005.716	1.62
1006.439	0.62
1007.163	1.62
1007.887	3.62
1008.611	1.62
1009.334	-0.38
1010.058	-2.38
1010.781	1.62
1011.504	-0.38
1012.228	1.62
1012.951	0.62
1013.674	-0.38
1014.397	0.62
1015.12	-0.38
