节点500_285_QEPB04081__748__15-07-59-803.txt的数据

Date: Wed Nov 12 15:07:59 CST 2025
User: PC
Spectrometer: QEPB0408
触发模式: 0
积分时间 (秒): 1.000000E-2
Scans to average: 1
启用暗噪声校正: true
启用非线性校正: false
滑动平均宽度: 0
X轴模式: Wavelengths
Number of Pixels in Spectrum: 1044
>>>>>Begin Spectral Data<<<<<
220.843	2.5
221.644	2.5
222.444	2.5
223.244	2.5
224.045	2.5
224.845	1.5
225.645	3.5
226.445	2.5
227.245	2.5
228.045	0.5
228.845	4.5
229.645	3.5
230.444	0.5
231.244	3.5
232.043	2.5
232.843	4.5
233.642	4.5
234.442	4.5
235.241	2.5
236.04	3.5
236.839	4.5
237.638	4.5
238.437	3.5
239.236	3.5
240.035	4.5
240.833	4.5
241.632	3.5
242.43	3.5
243.229	3.5
244.027	5.5
244.826	6.5
245.624	4.5
246.422	6.5
247.22	6.5
248.018	6.5
248.816	6.5
249.614	6.5
250.412	7.5
251.21	4.5
252.007	5.5
252.805	5.5
253.602	6.5
254.4	6.5
255.197	10.5
255.994	7.5
256.791	6.5
257.589	6.5
258.386	6.5
259.183	8.5
259.979	9.5
260.776	13.5
261.573	10.5
262.37	9.5
263.166	9.5
263.963	11.5
264.759	12.5
265.556	9.5
266.352	14.5
267.148	11.5
267.944	13.5
268.74	12.5
269.536	10.5
270.332	12.5
271.128	15.5
271.924	15.5
272.719	14.5
273.515	13.5
274.311	17.5
275.106	16.5
275.901	16.5
276.697	16.5
277.492	14.5
278.287	17.5
279.082	16.5
279.877	15.5
280.672	14.5
281.467	16.5
282.262	19.5
283.056	17.5
283.851	15.5
284.646	16.5
285.44	15.5
286.234	18.5
287.029	19.5
287.823	16.5
288.617	16.5
289.411	17.5
290.205	15.5
290.999	17.5
291.793	16.5
292.587	15.5
293.381	19.5
294.174	14.5
294.968	16.5
295.761	13.5
296.555	14.5
297.348	13.5
298.141	15.5
298.935	16.5
299.728	14.5
300.521	13.5
301.314	13.5
302.107	16.5
302.899	14.5
303.692	14.5
304.485	12.5
305.277	12.5
306.07	14.5
306.862	12.5
307.655	12.5
308.447	13.5
309.239	11.5
310.031	10.5
310.823	8.5
311.615	11.5
312.407	10.5
313.199	10.5
313.991	10.5
314.783	8.5
315.574	10.5
316.366	8.5
317.157	7.5
317.949	10.5
318.74	10.5
319.531	10.5
320.322	9.5
321.113	7.5
321.904	6.5
322.695	7.5
323.486	7.5
324.277	8.5
325.068	7.5
325.858	8.5
326.649	8.5
327.439	7.5
328.23	7.5
329.02	6.5
329.81	9.5
330.6	7.5
331.391	6.5
332.181	9.5
332.971	6.5
333.76	6.5
334.55	7.5
335.34	5.5
336.13	6.5
336.919	5.5
337.709	6.5
338.498	7.5
339.287	7.5
340.077	5.5
340.866	5.5
341.655	5.5
342.444	6.5
343.233	6.5
344.022	5.5
344.811	7.5
345.6	7.5
346.388	6.5
347.177	7.5
347.965	5.5
348.754	8.5
349.542	3.5
350.33	5.5
351.119	6.5
351.907	5.5
352.695	7.5
353.483	6.5
354.271	8.5
355.059	4.5
355.846	5.5
356.634	5.5
357.422	3.5
358.209	5.5
358.997	3.5
359.784	7.5
360.571	7.5
361.359	4.5
362.146	5.5
362.933	4.5
363.72	6.5
364.507	3.5
365.294	6.5
366.081	5.5
366.867	2.5
367.654	4.5
368.44	2.5
369.227	7.5
370.013	6.5
370.8	5.5
371.586	6.5
372.372	4.5
373.158	5.5
373.944	4.5
374.73	8.5
375.516	3.5
376.302	2.5
377.088	5.5
377.873	4.5
378.659	4.5
379.445	4.5
380.23	7.5
381.015	7.5
381.801	6.5
382.586	4.5
383.371	4.5
384.156	5.5
384.941	6.5
385.726	8.5
386.511	6.5
387.296	5.5
388.08	5.5
388.865	5.5
389.649	6.5
390.434	5.5
391.218	9.5
392.003	6.5
392.787	9.5
393.571	5.5
394.355	6.5
395.139	6.5
395.923	6.5
396.707	6.5
397.491	6.5
398.274	3.5
399.058	6.5
399.842	4.5
400.625	7.5
401.408	7.5
402.192	7.5
402.975	6.5
403.758	6.5
404.541	10.5
405.324	9.5
406.107	5.5
406.89	8.5
407.673	6.5
408.456	10.5
409.238	7.5
410.021	7.5
410.803	10.5
411.586	6.5
412.368	10.5
413.151	7.5
413.933	9.5
414.715	10.5
415.497	11.5
416.279	11.5
417.061	7.5
417.843	10.5
418.624	9.5
419.406	10.5
420.188	10.5
420.969	10.5
421.751	10.5
422.532	10.5
423.313	11.5
424.095	12.5
424.876	12.5
425.657	9.5
426.438	12.5
427.219	14.5
428	13.5
428.78	11.5
429.561	13.5
430.342	12.5
431.122	15.5
431.903	13.5
432.683	13.5
433.464	14.5
434.244	16.5
435.024	14.5
435.804	17.5
436.584	18.5
437.364	19.5
438.144	19.5
438.924	20.5
439.704	21.5
440.483	22.5
441.263	23.5
442.042	28.5
442.822	27.5
443.601	26.5
444.38	28.5
445.16	29.5
445.939	35.5
446.718	38.5
447.497	40.5
448.276	43.5
449.054	49.5
449.833	50.5
450.612	56.5
451.391	60.5
452.169	66.5
452.948	74.5
453.726	81.5
454.504	88.5
455.282	103.5
456.061	111.5
456.839	125.5
457.617	136.5
458.395	153.5
459.172	169.5
459.95	186.5
460.728	203.5
461.506	236.5
462.283	266.5
463.061	290.5
463.838	316.5
464.615	357.5
465.393	395.5
466.17	434.5
466.947	481.5
467.724	537.5
468.501	611.5
469.278	672.5
470.055	734.5
470.831	818.5
471.608	892.5
472.385	1002.5
473.161	1103.5
473.938	1217.5
474.714	1329.5
475.49	1467.5
476.266	1596.5
477.043	1767.5
477.819	1949.5
478.595	2125.5
479.371	2318.5
480.146	2550.5
480.922	2791.5
481.698	3062.5
482.473	3330.5
483.249	3659.5
484.024	4009.5
484.8	4354.5
485.575	4728.5
486.35	5194.5
487.126	5646.5
487.901	6161.5
488.676	6681.5
489.451	7295.5
490.225	7938.5
491	8614.5
491.775	9358.5
492.55	10166.5
493.324	10905.5
494.099	11730.5
494.873	12585.5
495.647	13569.5
496.422	14560.5
497.196	15559.5
497.97	16611.5
498.744	17617.5
499.518	18602.5
500.292	19724.5
501.066	20691.5
501.839	21591.5
502.613	22544.5
503.387	23374.5
504.16	24136.5
504.934	24532.5
505.707	24975.5
506.48	25109.5
507.253	25350.5
508.027	25221.5
508.8	25192.5
509.573	25057.5
510.346	24682.5
511.118	24220.5
511.891	23625.5
512.664	22987.5
513.437	22322.5
514.209	21512.5
514.982	20718.5
515.754	19923.5
516.526	19077.5
517.298	18360.5
518.071	17561.5
518.843	16915.5
519.615	16293.5
520.387	15595.5
521.159	15062.5
521.93	14440.5
522.702	13872.5
523.474	13230.5
524.245	12724.5
525.017	12144.5
525.788	11732.5
526.56	11181.5
527.331	10740.5
528.102	10268.5
528.873	9852.5
529.644	9335.5
530.415	8945.5
531.186	8504.5
531.957	8097.5
532.728	7731.5
533.498	7350.5
534.269	6922.5
535.039	6568.5
535.81	6228.5
536.58	5865.5
537.351	5530.5
538.121	5224.5
538.891	4982.5
539.661	4680.5
540.431	4433.5
541.201	4193.5
541.971	3967.5
542.741	3786.5
543.51	3563.5
544.28	3417.5
545.05	3243.5
545.819	3063.5
546.588	2921.5
547.358	2794.5
548.127	2651.5
548.896	2504.5
549.665	2407.5
550.434	2268.5
551.203	2139.5
551.972	2037.5
552.741	1927.5
553.51	1813.5
554.278	1709.5
555.047	1652.5
555.815	1546.5
556.584	1458.5
557.352	1379.5
558.121	1302.5
558.889	1224.5
559.657	1163.5
560.425	1102.5
561.193	1029.5
561.961	986.5
562.729	925.5
563.496	881.5
564.264	825.5
565.032	792.5
565.799	740.5
566.567	694.5
567.334	656.5
568.101	619.5
568.869	584.5
569.636	556.5
570.403	522.5
571.17	485.5
571.937	464.5
572.704	439.5
573.471	421.5
574.237	384.5
575.004	366.5
575.771	352.5
576.537	325.5
577.303	308.5
578.07	291.5
578.836	281.5
579.602	260.5
580.368	246.5
581.134	228.5
581.9	220.5
582.666	210.5
583.432	202.5
584.198	186.5
584.964	177.5
585.729	170.5
586.495	159.5
587.26	158.5
588.025	141.5
588.791	134.5
589.556	128.5
590.321	120.5
591.086	116.5
591.851	108.5
592.616	106.5
593.381	101.5
594.146	91.5
594.911	88.5
595.675	85.5
596.44	81.5
597.204	80.5
597.969	71.5
598.733	73.5
599.497	65.5
600.261	61.5
601.025	58.5
601.79	60.5
602.553	58.5
603.317	53.5
604.081	50.5
604.845	49.5
605.609	46.5
606.372	42.5
607.136	42.5
607.899	42.5
608.662	40.5
609.426	38.5
610.189	35.5
610.952	33.5
611.715	34.5
612.478	30.5
613.241	31.5
614.004	32.5
614.767	26.5
615.529	28.5
616.292	26.5
617.055	23.5
617.817	25.5
618.579	26.5
619.342	25.5
620.104	23.5
620.866	22.5
621.628	22.5
622.39	20.5
623.152	20.5
623.914	19.5
624.676	19.5
625.438	18.5
626.199	17.5
626.961	18.5
627.722	14.5
628.484	16.5
629.245	14.5
630.006	15.5
630.768	13.5
631.529	14.5
632.29	11.5
633.051	14.5
633.812	14.5
634.573	13.5
635.333	12.5
636.094	11.5
636.855	9.5
637.615	10.5
638.376	9.5
639.136	9.5
639.896	11.5
640.657	11.5
641.417	8.5
642.177	8.5
642.937	9.5
643.697	9.5
644.457	8.5
645.216	6.5
645.976	9.5
646.736	8.5
647.495	10.5
648.255	8.5
649.014	8.5
649.774	9.5
650.533	6.5
651.292	6.5
652.051	9.5
652.81	9.5
653.569	6.5
654.328	7.5
655.087	8.5
655.846	5.5
656.604	8.5
657.363	4.5
658.121	4.5
658.88	5.5
659.638	7.5
660.397	6.5
661.155	5.5
661.913	4.5
662.671	6.5
663.429	8.5
664.187	4.5
664.945	7.5
665.703	4.5
666.46	5.5
667.218	4.5
667.976	5.5
668.733	4.5
669.49	6.5
670.248	4.5
671.005	6.5
671.762	5.5
672.519	3.5
673.276	7.5
674.033	4.5
674.79	6.5
675.547	4.5
676.304	4.5
677.06	4.5
677.817	7.5
678.574	3.5
679.33	3.5
680.086	5.5
680.843	3.5
681.599	4.5
682.355	5.5
683.111	6.5
683.867	4.5
684.623	2.5
685.379	2.5
686.135	6.5
686.89	5.5
687.646	7.5
688.402	7.5
689.157	4.5
689.912	4.5
690.668	4.5
691.423	2.5
692.178	4.5
692.933	4.5
693.688	2.5
694.443	2.5
695.198	0.5
695.953	4.5
696.708	4.5
697.462	4.5
698.217	4.5
698.972	4.5
699.726	2.5
700.48	3.5
701.235	3.5
701.989	2.5
702.743	4.5
703.497	3.5
704.251	2.5
705.005	3.5
705.759	3.5
706.513	3.5
707.266	1.5
708.02	4.5
708.774	2.5
709.527	3.5
710.28	6.5
711.034	4.5
711.787	3.5
712.54	4.5
713.293	1.5
714.046	5.5
714.799	1.5
715.552	3.5
716.305	4.5
717.058	2.5
717.81	4.5
718.563	5.5
719.315	5.5
720.068	5.5
720.82	3.5
721.573	5.5
722.325	2.5
723.077	3.5
723.829	3.5
724.581	5.5
725.333	3.5
726.085	3.5
726.836	6.5
727.588	2.5
728.34	7.5
729.091	5.5
729.843	5.5
730.594	2.5
731.346	4.5
732.097	4.5
732.848	4.5
733.599	4.5
734.35	5.5
735.101	2.5
735.852	4.5
736.603	3.5
737.354	2.5
738.104	4.5
738.855	3.5
739.605	4.5
740.356	3.5
741.106	5.5
741.856	3.5
742.607	5.5
743.357	4.5
744.107	7.5
744.857	4.5
745.607	5.5
746.357	5.5
747.106	4.5
747.856	5.5
748.606	5.5
749.355	6.5
750.105	2.5
750.854	5.5
751.603	3.5
752.353	3.5
753.102	7.5
753.851	5.5
754.6	5.5
755.349	6.5
756.098	5.5
756.847	4.5
757.595	6.5
758.344	6.5
759.093	7.5
759.841	4.5
760.589	6.5
761.338	4.5
762.086	7.5
762.834	4.5
763.582	6.5
764.331	8.5
765.079	7.5
765.826	8.5
766.574	5.5
767.322	6.5
768.07	6.5
768.817	9.5
769.565	7.5
770.312	7.5
771.06	7.5
771.807	8.5
772.554	6.5
773.302	6.5
774.049	6.5
774.796	9.5
775.543	7.5
776.29	7.5
777.036	7.5
777.783	8.5
778.53	7.5
779.276	7.5
780.023	7.5
780.769	8.5
781.516	12.5
782.262	9.5
783.008	4.5
783.754	8.5
784.5	8.5
785.246	11.5
785.992	9.5
786.738	7.5
787.484	7.5
788.23	8.5
788.975	8.5
789.721	9.5
790.466	9.5
791.212	8.5
791.957	9.5
792.702	8.5
793.447	9.5
794.193	9.5
794.938	9.5
795.683	7.5
796.427	7.5
797.172	8.5
797.917	7.5
798.662	8.5
799.406	6.5
800.151	6.5
800.895	7.5
801.64	9.5
802.384	7.5
803.128	6.5
803.872	7.5
804.616	7.5
805.36	6.5
806.104	7.5
806.848	5.5
807.592	4.5
808.336	6.5
809.079	4.5
809.823	6.5
810.566	6.5
811.31	6.5
812.053	8.5
812.796	6.5
813.539	4.5
814.283	6.5
815.026	5.5
815.769	2.5
816.511	5.5
817.254	4.5
817.997	5.5
818.74	3.5
819.482	5.5
820.225	5.5
820.967	4.5
821.71	4.5
822.452	5.5
823.194	3.5
823.936	4.5
824.678	3.5
825.42	7.5
826.162	6.5
826.904	5.5
827.646	5.5
828.388	6.5
829.129	5.5
829.871	3.5
830.612	4.5
831.354	4.5
832.095	3.5
832.836	2.5
833.577	3.5
834.319	5.5
835.06	1.5
835.801	4.5
836.542	3.5
837.282	6.5
838.023	2.5
838.764	5.5
839.504	5.5
840.245	2.5
840.985	2.5
841.726	3.5
842.466	2.5
843.206	2.5
843.946	3.5
844.687	4.5
845.427	3.5
846.166	3.5
846.906	2.5
847.646	0.5
848.386	4.5
849.125	4.5
849.865	2.5
850.605	4.5
851.344	4.5
852.083	5.5
852.823	2.5
853.562	2.5
854.301	0.5
855.04	3.5
855.779	4.5
856.518	0.5
857.257	3.5
857.995	2.5
858.734	3.5
859.473	2.5
860.211	3.5
860.95	2.5
861.688	1.5
862.426	3.5
863.165	1.5
863.903	3.5
864.641	4.5
865.379	1.5
866.117	0.5
866.855	1.5
867.593	3.5
868.33	2.5
869.068	2.5
869.806	2.5
870.543	2.5
871.28	1.5
872.018	2.5
872.755	2.5
873.492	0.5
874.229	2.5
874.967	0.5
875.703	0.5
876.44	1.5
877.177	2.5
877.914	1.5
878.651	0.5
879.387	1.5
880.124	1.5
880.86	2.5
881.597	4.5
882.333	-0.5
883.069	2.5
883.806	2.5
884.542	3.5
885.278	1.5
886.014	3.5
886.749	1.5
887.485	0.5
888.221	1.5
888.957	1.5
889.692	0.5
890.428	2.5
891.163	1.5
891.899	1.5
892.634	2.5
893.369	2.5
894.104	0.5
894.839	0.5
895.574	0.5
896.309	0.5
897.044	1.5
897.779	1.5
898.514	3.5
899.248	-1.5
899.983	0.5
900.717	0.5
901.452	1.5
902.186	1.5
902.92	0.5
903.654	-0.5
904.389	1.5
905.123	2.5
905.857	0.5
906.59	1.5
907.324	1.5
908.058	0.5
908.792	2.5
909.525	0.5
910.259	0.5
910.992	1.5
911.726	-1.5
912.459	1.5
913.192	0.5
913.925	2.5
914.658	1.5
915.391	-0.5
916.124	0.5
916.857	0.5
917.59	1.5
918.323	1.5
919.055	0.5
919.788	2.5
920.521	0.5
921.253	2.5
921.985	1.5
922.718	1.5
923.45	0.5
924.182	-1.5
924.914	1.5
925.646	0.5
926.378	0.5
927.11	1.5
927.841	1.5
928.573	1.5
929.305	-0.5
930.036	2.5
930.768	-1.5
931.499	0.5
932.23	1.5
932.962	-1.5
933.693	0.5
934.424	2.5
935.155	3.5
935.886	0.5
936.617	4.5
937.348	-0.5
938.078	2.5
938.809	2.5
939.54	0.5
940.27	2.5
941.001	1.5
941.731	1.5
942.461	1.5
943.191	2.5
943.922	1.5
944.652	1.5
945.382	0.5
946.112	0.5
946.841	-0.5
947.571	1.5
948.301	2.5
949.031	0.5
949.76	0.5
950.49	0.5
951.219	0.5
951.948	2.5
952.678	-0.5
953.407	0.5
954.136	2.5
954.865	-1.5
955.594	1.5
956.323	2.5
957.052	2.5
957.78	-1.5
958.509	0.5
959.238	0.5
959.966	1.5
960.695	0.5
961.423	0.5
962.151	0.5
962.88	1.5
963.608	-0.5
964.336	-0.5
965.064	0.5
965.792	2.5
966.52	0.5
967.247	0.5
967.975	2.5
968.703	0.5
969.43	1.5
970.158	0.5
970.885	0.5
971.613	2.5
972.34	-1.5
973.067	-0.5
973.794	0.5
974.521	2.5
975.248	0.5
975.975	0.5
976.702	2.5
977.429	0.5
978.156	0.5
978.882	-1.5
979.609	2.5
980.335	3.5
981.062	-0.5
981.788	2.5
982.514	1.5
983.24	2.5
983.967	-0.5
984.693	1.5
985.419	1.5
986.144	0.5
986.87	0.5
987.596	1.5
988.322	1.5
989.047	0.5
989.773	1.5
990.498	1.5
991.224	0.5
991.949	1.5
992.674	1.5
993.399	-0.5
994.124	0.5
994.849	-0.5
995.574	0.5
996.299	0.5
997.024	0.5
997.749	1.5
998.473	1.5
999.198	-1.5
999.922	-0.5
1000.647	2.5
1001.371	2.5
1002.095	-1.5
1002.82	0.5
1003.544	-2.5
1004.268	3.5
1004.992	2.5
1005.716	2.5
1006.439	1.5
1007.163	2.5
1007.887	2.5
1008.611	-2.5
1009.334	1.5
1010.058	-0.5
1010.781	2.5
1011.504	2.5
1012.228	-0.5
1012.951	0.5
1013.674	1.5
1014.397	-0.5
1015.12	-0.5
