节点500_285_QEPB04081__383__15-01-55-656.txt的数据

Date: Wed Nov 12 15:01:55 CST 2025
User: PC
Spectrometer: QEPB0408
触发模式: 0
积分时间 (秒): 1.000000E-2
Scans to average: 1
启用暗噪声校正: true
启用非线性校正: false
滑动平均宽度: 0
X轴模式: Wavelengths
Number of Pixels in Spectrum: 1044
>>>>>Begin Spectral Data<<<<<
220.843	3.12
221.644	2.12
222.444	1.12
223.244	1.12
224.045	2.12
224.845	0.12
225.645	3.12
226.445	3.12
227.245	1.12
228.045	3.12
228.845	3.12
229.645	3.12
230.444	2.12
231.244	2.12
232.043	5.12
232.843	4.12
233.642	4.12
234.442	4.12
235.241	2.12
236.04	4.12
236.839	4.12
237.638	5.12
238.437	2.12
239.236	4.12
240.035	5.12
240.833	4.12
241.632	5.12
242.43	4.12
243.229	6.12
244.027	6.12
244.826	4.12
245.624	4.12
246.422	5.12
247.22	8.12
248.018	3.12
248.816	6.12
249.614	4.12
250.412	6.12
251.21	3.12
252.007	7.12
252.805	7.12
253.602	6.12
254.4	8.12
255.197	9.12
255.994	10.12
256.791	6.12
257.589	8.12
258.386	9.12
259.183	9.12
259.979	7.12
260.776	11.12
261.573	9.12
262.37	10.12
263.166	12.12
263.963	12.12
264.759	12.12
265.556	11.12
266.352	12.12
267.148	12.12
267.944	11.12
268.74	15.12
269.536	13.12
270.332	16.12
271.128	17.12
271.924	17.12
272.719	17.12
273.515	13.12
274.311	17.12
275.106	17.12
275.901	18.12
276.697	17.12
277.492	18.12
278.287	20.12
279.082	14.12
279.877	22.12
280.672	18.12
281.467	18.12
282.262	21.12
283.056	18.12
283.851	18.12
284.646	17.12
285.44	21.12
286.234	18.12
287.029	18.12
287.823	19.12
288.617	17.12
289.411	21.12
290.205	17.12
290.999	20.12
291.793	16.12
292.587	18.12
293.381	16.12
294.174	19.12
294.968	17.12
295.761	16.12
296.555	14.12
297.348	16.12
298.141	14.12
298.935	16.12
299.728	14.12
300.521	14.12
301.314	14.12
302.107	14.12
302.899	11.12
303.692	14.12
304.485	11.12
305.277	9.12
306.07	15.12
306.862	13.12
307.655	10.12
308.447	12.12
309.239	11.12
310.031	12.12
310.823	12.12
311.615	12.12
312.407	11.12
313.199	8.12
313.991	8.12
314.783	8.12
315.574	8.12
316.366	8.12
317.157	10.12
317.949	10.12
318.74	7.12
319.531	10.12
320.322	10.12
321.113	8.12
321.904	9.12
322.695	8.12
323.486	8.12
324.277	6.12
325.068	8.12
325.858	8.12
326.649	8.12
327.439	8.12
328.23	7.12
329.02	8.12
329.81	7.12
330.6	7.12
331.391	6.12
332.181	5.12
332.971	8.12
333.76	7.12
334.55	8.12
335.34	6.12
336.13	6.12
336.919	8.12
337.709	6.12
338.498	6.12
339.287	6.12
340.077	7.12
340.866	7.12
341.655	7.12
342.444	6.12
343.233	8.12
344.022	11.12
344.811	7.12
345.6	6.12
346.388	6.12
347.177	6.12
347.965	6.12
348.754	6.12
349.542	4.12
350.33	6.12
351.119	5.12
351.907	5.12
352.695	5.12
353.483	4.12
354.271	6.12
355.059	5.12
355.846	6.12
356.634	7.12
357.422	7.12
358.209	5.12
358.997	5.12
359.784	5.12
360.571	7.12
361.359	7.12
362.146	5.12
362.933	5.12
363.72	4.12
364.507	8.12
365.294	3.12
366.081	6.12
366.867	5.12
367.654	6.12
368.44	5.12
369.227	4.12
370.013	3.12
370.8	5.12
371.586	4.12
372.372	4.12
373.158	6.12
373.944	6.12
374.73	5.12
375.516	4.12
376.302	4.12
377.088	5.12
377.873	4.12
378.659	7.12
379.445	5.12
380.23	6.12
381.015	6.12
381.801	5.12
382.586	6.12
383.371	7.12
384.156	6.12
384.941	5.12
385.726	4.12
386.511	5.12
387.296	6.12
388.08	8.12
388.865	5.12
389.649	3.12
390.434	4.12
391.218	4.12
392.003	8.12
392.787	7.12
393.571	7.12
394.355	9.12
395.139	5.12
395.923	7.12
396.707	8.12
397.491	9.12
398.274	6.12
399.058	7.12
399.842	6.12
400.625	8.12
401.408	7.12
402.192	6.12
402.975	6.12
403.758	6.12
404.541	7.12
405.324	6.12
406.107	7.12
406.89	9.12
407.673	7.12
408.456	9.12
409.238	9.12
410.021	7.12
410.803	8.12
411.586	8.12
412.368	10.12
413.151	8.12
413.933	9.12
414.715	9.12
415.497	11.12
416.279	10.12
417.061	10.12
417.843	9.12
418.624	9.12
419.406	10.12
420.188	9.12
420.969	12.12
421.751	9.12
422.532	12.12
423.313	12.12
424.095	13.12
424.876	10.12
425.657	10.12
426.438	10.12
427.219	10.12
428	15.12
428.78	14.12
429.561	16.12
430.342	17.12
431.122	17.12
431.903	18.12
432.683	14.12
433.464	15.12
434.244	17.12
435.024	20.12
435.804	17.12
436.584	20.12
437.364	18.12
438.144	18.12
438.924	21.12
439.704	21.12
440.483	24.12
441.263	24.12
442.042	22.12
442.822	26.12
443.601	30.12
444.38	31.12
445.16	33.12
445.939	34.12
446.718	35.12
447.497	38.12
448.276	41.12
449.054	45.12
449.833	50.12
450.612	50.12
451.391	60.12
452.169	62.12
452.948	67.12
453.726	75.12
454.504	82.12
455.282	93.12
456.061	98.12
456.839	113.12
457.617	125.12
458.395	134.12
459.172	149.12
459.95	173.12
460.728	185.12
461.506	210.12
462.283	231.12
463.061	266.12
463.838	294.12
464.615	318.12
465.393	372.12
466.17	408.12
466.947	446.12
467.724	502.12
468.501	551.12
469.278	634.12
470.055	691.12
470.831	778.12
471.608	858.12
472.385	961.12
473.161	1056.12
473.938	1169.12
474.714	1294.12
475.49	1427.12
476.266	1580.12
477.043	1759.12
477.819	1943.12
478.595	2121.12
479.371	2349.12
480.146	2590.12
480.922	2862.12
481.698	3151.12
482.473	3452.12
483.249	3823.12
484.024	4187.12
484.8	4586.12
485.575	5061.12
486.35	5555.12
487.126	6112.12
487.901	6661.12
488.676	7270.12
489.451	8004.12
490.225	8737.12
491	9547.12
491.775	10402.12
492.55	11381.12
493.324	12301.12
494.099	13265.12
494.873	14258.12
495.647	15403.12
496.422	16561.12
497.196	17649.12
497.97	18855.12
498.744	20064.12
499.518	21175.12
500.292	22352.12
501.066	23378.12
501.839	24404.12
502.613	25241.12
503.387	26064.12
504.16	26663.12
504.934	26961.12
505.707	27231.12
506.48	27298.12
507.253	27314.12
508.027	27037.12
508.8	26750.12
509.573	26333.12
510.346	25725.12
511.118	24982.12
511.891	24213.12
512.664	23375.12
513.437	22522.12
514.209	21586.12
514.982	20719.12
515.754	19754.12
516.526	18958.12
517.298	18099.12
518.071	17277.12
518.843	16626.12
519.615	16050.12
520.387	15471.12
521.159	14774.12
521.93	14192.12
522.702	13613.12
523.474	13051.12
524.245	12533.12
525.017	11949.12
525.788	11497.12
526.56	11001.12
527.331	10438.12
528.102	10052.12
528.873	9563.12
529.644	9058.12
530.415	8625.12
531.186	8199.12
531.957	7750.12
532.728	7366.12
533.498	7022.12
534.269	6591.12
535.039	6221.12
535.81	5895.12
536.58	5571.12
537.351	5249.12
538.121	4976.12
538.891	4700.12
539.661	4435.12
540.431	4182.12
541.201	3982.12
541.971	3731.12
542.741	3547.12
543.51	3393.12
544.28	3226.12
545.05	3059.12
545.819	2922.12
546.588	2763.12
547.358	2643.12
548.127	2505.12
548.896	2384.12
549.665	2256.12
550.434	2127.12
551.203	2014.12
551.972	1917.12
552.741	1803.12
553.51	1708.12
554.278	1605.12
555.047	1521.12
555.815	1443.12
556.584	1356.12
557.352	1280.12
558.121	1213.12
558.889	1157.12
559.657	1086.12
560.425	1012.12
561.193	949.12
561.961	904.12
562.729	850.12
563.496	812.12
564.264	766.12
565.032	719.12
565.799	693.12
566.567	654.12
567.334	611.12
568.101	586.12
568.869	552.12
569.636	516.12
570.403	478.12
571.17	450.12
571.937	427.12
572.704	406.12
573.471	390.12
574.237	364.12
575.004	343.12
575.771	318.12
576.537	297.12
577.303	285.12
578.07	271.12
578.836	252.12
579.602	238.12
580.368	233.12
581.134	214.12
581.9	200.12
582.666	195.12
583.432	181.12
584.198	174.12
584.964	163.12
585.729	155.12
586.495	150.12
587.26	136.12
588.025	132.12
588.791	124.12
589.556	117.12
590.321	114.12
591.086	105.12
591.851	100.12
592.616	97.12
593.381	88.12
594.146	91.12
594.911	85.12
595.675	83.12
596.44	77.12
597.204	75.12
597.969	74.12
598.733	65.12
599.497	63.12
600.261	62.12
601.025	56.12
601.79	54.12
602.553	53.12
603.317	47.12
604.081	49.12
604.845	48.12
605.609	43.12
606.372	47.12
607.136	40.12
607.899	40.12
608.662	39.12
609.426	37.12
610.189	33.12
610.952	31.12
611.715	32.12
612.478	31.12
613.241	29.12
614.004	29.12
614.767	28.12
615.529	26.12
616.292	25.12
617.055	22.12
617.817	25.12
618.579	23.12
619.342	23.12
620.104	22.12
620.866	20.12
621.628	21.12
622.39	19.12
623.152	18.12
623.914	17.12
624.676	18.12
625.438	14.12
626.199	17.12
626.961	16.12
627.722	15.12
628.484	18.12
629.245	15.12
630.006	15.12
630.768	14.12
631.529	12.12
632.29	15.12
633.051	12.12
633.812	16.12
634.573	9.12
635.333	11.12
636.094	10.12
636.855	11.12
637.615	10.12
638.376	11.12
639.136	12.12
639.896	10.12
640.657	11.12
641.417	8.12
642.177	10.12
642.937	12.12
643.697	8.12
644.457	11.12
645.216	7.12
645.976	10.12
646.736	9.12
647.495	9.12
648.255	6.12
649.014	10.12
649.774	7.12
650.533	8.12
651.292	9.12
652.051	7.12
652.81	4.12
653.569	9.12
654.328	7.12
655.087	8.12
655.846	8.12
656.604	7.12
657.363	7.12
658.121	6.12
658.88	6.12
659.638	6.12
660.397	6.12
661.155	5.12
661.913	6.12
662.671	6.12
663.429	4.12
664.187	5.12
664.945	6.12
665.703	4.12
666.46	5.12
667.218	2.12
667.976	5.12
668.733	3.12
669.49	6.12
670.248	4.12
671.005	4.12
671.762	5.12
672.519	4.12
673.276	8.12
674.033	3.12
674.79	5.12
675.547	7.12
676.304	4.12
677.06	5.12
677.817	5.12
678.574	5.12
679.33	3.12
680.086	5.12
680.843	5.12
681.599	4.12
682.355	4.12
683.111	4.12
683.867	4.12
684.623	4.12
685.379	5.12
686.135	4.12
686.89	3.12
687.646	5.12
688.402	5.12
689.157	3.12
689.912	5.12
690.668	1.12
691.423	4.12
692.178	3.12
692.933	4.12
693.688	5.12
694.443	4.12
695.198	4.12
695.953	4.12
696.708	6.12
697.462	3.12
698.217	7.12
698.972	5.12
699.726	4.12
700.48	3.12
701.235	4.12
701.989	7.12
702.743	2.12
703.497	4.12
704.251	2.12
705.005	4.12
705.759	4.12
706.513	2.12
707.266	4.12
708.02	3.12
708.774	6.12
709.527	6.12
710.28	1.12
711.034	3.12
711.787	2.12
712.54	4.12
713.293	3.12
714.046	5.12
714.799	4.12
715.552	3.12
716.305	2.12
717.058	5.12
717.81	3.12
718.563	4.12
719.315	3.12
720.068	5.12
720.82	5.12
721.573	4.12
722.325	2.12
723.077	4.12
723.829	3.12
724.581	3.12
725.333	3.12
726.085	2.12
726.836	4.12
727.588	5.12
728.34	5.12
729.091	4.12
729.843	3.12
730.594	5.12
731.346	4.12
732.097	5.12
732.848	5.12
733.599	4.12
734.35	4.12
735.101	6.12
735.852	5.12
736.603	7.12
737.354	5.12
738.104	4.12
738.855	4.12
739.605	5.12
740.356	3.12
741.106	4.12
741.856	7.12
742.607	6.12
743.357	5.12
744.107	6.12
744.857	6.12
745.607	3.12
746.357	6.12
747.106	5.12
747.856	7.12
748.606	7.12
749.355	5.12
750.105	6.12
750.854	2.12
751.603	7.12
752.353	5.12
753.102	4.12
753.851	9.12
754.6	5.12
755.349	5.12
756.098	5.12
756.847	7.12
757.595	7.12
758.344	7.12
759.093	6.12
759.841	7.12
760.589	5.12
761.338	7.12
762.086	4.12
762.834	7.12
763.582	6.12
764.331	6.12
765.079	5.12
765.826	7.12
766.574	6.12
767.322	7.12
768.07	9.12
768.817	9.12
769.565	8.12
770.312	7.12
771.06	9.12
771.807	10.12
772.554	7.12
773.302	7.12
774.049	9.12
774.796	9.12
775.543	9.12
776.29	9.12
777.036	9.12
777.783	7.12
778.53	8.12
779.276	8.12
780.023	9.12
780.769	9.12
781.516	7.12
782.262	8.12
783.008	9.12
783.754	10.12
784.5	9.12
785.246	8.12
785.992	12.12
786.738	8.12
787.484	10.12
788.23	9.12
788.975	10.12
789.721	10.12
790.466	8.12
791.212	6.12
791.957	10.12
792.702	9.12
793.447	8.12
794.193	9.12
794.938	8.12
795.683	7.12
796.427	6.12
797.172	7.12
797.917	7.12
798.662	9.12
799.406	8.12
800.151	6.12
800.895	9.12
801.64	9.12
802.384	8.12
803.128	9.12
803.872	6.12
804.616	6.12
805.36	8.12
806.104	7.12
806.848	6.12
807.592	5.12
808.336	7.12
809.079	8.12
809.823	7.12
810.566	6.12
811.31	7.12
812.053	4.12
812.796	6.12
813.539	8.12
814.283	6.12
815.026	5.12
815.769	6.12
816.511	5.12
817.254	3.12
817.997	4.12
818.74	3.12
819.482	6.12
820.225	5.12
820.967	5.12
821.71	8.12
822.452	4.12
823.194	5.12
823.936	6.12
824.678	4.12
825.42	6.12
826.162	5.12
826.904	5.12
827.646	6.12
828.388	2.12
829.129	3.12
829.871	4.12
830.612	5.12
831.354	4.12
832.095	5.12
832.836	3.12
833.577	7.12
834.319	5.12
835.06	5.12
835.801	4.12
836.542	3.12
837.282	3.12
838.023	3.12
838.764	4.12
839.504	4.12
840.245	5.12
840.985	5.12
841.726	3.12
842.466	4.12
843.206	3.12
843.946	4.12
844.687	4.12
845.427	2.12
846.166	4.12
846.906	3.12
847.646	4.12
848.386	3.12
849.125	4.12
849.865	2.12
850.605	1.12
851.344	1.12
852.083	3.12
852.823	5.12
853.562	2.12
854.301	2.12
855.04	4.12
855.779	3.12
856.518	4.12
857.257	5.12
857.995	2.12
858.734	1.12
859.473	3.12
860.211	1.12
860.95	2.12
861.688	2.12
862.426	1.12
863.165	3.12
863.903	2.12
864.641	1.12
865.379	1.12
866.117	2.12
866.855	2.12
867.593	1.12
868.33	1.12
869.068	2.12
869.806	1.12
870.543	3.12
871.28	1.12
872.018	3.12
872.755	3.12
873.492	1.12
874.229	2.12
874.967	2.12
875.703	2.12
876.44	2.12
877.177	3.12
877.914	1.12
878.651	1.12
879.387	-0.88
880.124	1.12
880.86	0.12
881.597	2.12
882.333	3.12
883.069	1.12
883.806	1.12
884.542	2.12
885.278	2.12
886.014	0.12
886.749	1.12
887.485	0.12
888.221	2.12
888.957	0.12
889.692	0.12
890.428	1.12
891.163	0.12
891.899	3.12
892.634	2.12
893.369	4.12
894.104	1.12
894.839	3.12
895.574	2.12
896.309	2.12
897.044	1.12
897.779	2.12
898.514	2.12
899.248	1.12
899.983	2.12
900.717	1.12
901.452	-0.88
902.186	1.12
902.92	0.12
903.654	-0.88
904.389	0.12
905.123	1.12
905.857	2.12
906.59	2.12
907.324	1.12
908.058	0.12
908.792	2.12
909.525	1.12
910.259	2.12
910.992	2.12
911.726	-1.88
912.459	-0.88
913.192	1.12
913.925	-2.88
914.658	1.12
915.391	1.12
916.124	-0.88
916.857	0.12
917.59	1.12
918.323	-0.88
919.055	0.12
919.788	-0.88
920.521	1.12
921.253	1.12
921.985	-1.88
922.718	0.12
923.45	0.12
924.182	-0.88
924.914	2.12
925.646	1.12
926.378	1.12
927.11	1.12
927.841	1.12
928.573	-1.88
929.305	1.12
930.036	2.12
930.768	0.12
931.499	1.12
932.23	0.12
932.962	2.12
933.693	1.12
934.424	-1.88
935.155	1.12
935.886	-1.88
936.617	1.12
937.348	0.12
938.078	1.12
938.809	0.12
939.54	2.12
940.27	1.12
941.001	0.12
941.731	2.12
942.461	0.12
943.191	-1.88
943.922	0.12
944.652	-1.88
945.382	2.12
946.112	2.12
946.841	1.12
947.571	3.12
948.301	0.12
949.031	1.12
949.76	-0.88
950.49	0.12
951.219	3.12
951.948	-0.88
952.678	0.12
953.407	0.12
954.136	2.12
954.865	-0.88
955.594	1.12
956.323	1.12
957.052	-1.88
957.78	0.12
958.509	1.12
959.238	0.12
959.966	0.12
960.695	1.12
961.423	-0.88
962.151	1.12
962.88	3.12
963.608	-0.88
964.336	0.12
965.064	0.12
965.792	0.12
966.52	1.12
967.247	1.12
967.975	0.12
968.703	0.12
969.43	0.12
970.158	-0.88
970.885	1.12
971.613	1.12
972.34	-0.88
973.067	3.12
973.794	1.12
974.521	0.12
975.248	1.12
975.975	0.12
976.702	0.12
977.429	-1.88
978.156	1.12
978.882	-0.88
979.609	1.12
980.335	2.12
981.062	0.12
981.788	0.12
982.514	0.12
983.24	0.12
983.967	0.12
984.693	0.12
985.419	-0.88
986.144	1.12
986.87	1.12
987.596	0.12
988.322	0.12
989.047	2.12
989.773	-0.88
990.498	3.12
991.224	0.12
991.949	-0.88
992.674	2.12
993.399	-1.88
994.124	-1.88
994.849	2.12
995.574	0.12
996.299	0.12
997.024	0.12
997.749	0.12
998.473	2.12
999.198	-0.88
999.922	1.12
1000.647	1.12
1001.371	2.12
1002.095	-1.88
1002.82	-0.88
1003.544	0.12
1004.268	1.12
1004.992	2.12
1005.716	1.12
1006.439	1.12
1007.163	3.12
1007.887	0.12
1008.611	0.12
1009.334	2.12
1010.058	1.12
1010.781	0.12
1011.504	0.12
1012.228	0.12
1012.951	1.12
1013.674	-0.88
1014.397	0.12
1015.12	0.12
