节点500_285_QEPB04081__329__15-01-01-701.txt的数据

Date: Wed Nov 12 15:01:01 CST 2025
User: PC
Spectrometer: QEPB0408
触发模式: 0
积分时间 (秒): 1.000000E-2
Scans to average: 1
启用暗噪声校正: true
启用非线性校正: false
滑动平均宽度: 0
X轴模式: Wavelengths
Number of Pixels in Spectrum: 1044
>>>>>Begin Spectral Data<<<<<
220.843	3
221.644	2
222.444	2
223.244	1
224.045	2
224.845	2
225.645	3
226.445	3
227.245	6
228.045	4
228.845	3
229.645	4
230.444	4
231.244	3
232.043	3
232.843	6
233.642	2
234.442	6
235.241	6
236.04	2
236.839	4
237.638	3
238.437	4
239.236	4
240.035	3
240.833	3
241.632	4
242.43	5
243.229	4
244.027	8
244.826	4
245.624	5
246.422	6
247.22	9
248.018	6
248.816	5
249.614	7
250.412	4
251.21	7
252.007	10
252.805	7
253.602	10
254.4	7
255.197	7
255.994	7
256.791	12
257.589	8
258.386	8
259.183	8
259.979	11
260.776	9
261.573	12
262.37	10
263.166	11
263.963	13
264.759	12
265.556	14
266.352	11
267.148	12
267.944	15
268.74	16
269.536	14
270.332	13
271.128	14
271.924	15
272.719	17
273.515	14
274.311	16
275.106	17
275.901	18
276.697	18
277.492	20
278.287	18
279.082	20
279.877	16
280.672	19
281.467	16
282.262	23
283.056	18
283.851	23
284.646	20
285.44	21
286.234	18
287.029	20
287.823	20
288.617	17
289.411	19
290.205	20
290.999	17
291.793	20
292.587	18
293.381	20
294.174	19
294.968	16
295.761	16
296.555	18
297.348	16
298.141	15
298.935	13
299.728	17
300.521	14
301.314	16
302.107	12
302.899	14
303.692	8
304.485	13
305.277	13
306.07	15
306.862	12
307.655	14
308.447	9
309.239	11
310.031	10
310.823	9
311.615	9
312.407	11
313.199	10
313.991	8
314.783	9
315.574	9
316.366	10
317.157	11
317.949	7
318.74	10
319.531	6
320.322	8
321.113	7
321.904	9
322.695	9
323.486	7
324.277	7
325.068	6
325.858	10
326.649	5
327.439	9
328.23	8
329.02	7
329.81	8
330.6	6
331.391	7
332.181	6
332.971	7
333.76	10
334.55	5
335.34	7
336.13	6
336.919	6
337.709	8
338.498	4
339.287	7
340.077	7
340.866	7
341.655	8
342.444	7
343.233	4
344.022	5
344.811	8
345.6	7
346.388	7
347.177	5
347.965	6
348.754	8
349.542	7
350.33	7
351.119	6
351.907	7
352.695	6
353.483	5
354.271	6
355.059	5
355.846	8
356.634	5
357.422	7
358.209	6
358.997	5
359.784	6
360.571	5
361.359	8
362.146	5
362.933	8
363.72	4
364.507	6
365.294	6
366.081	6
366.867	5
367.654	7
368.44	5
369.227	3
370.013	6
370.8	5
371.586	4
372.372	5
373.158	8
373.944	5
374.73	6
375.516	4
376.302	6
377.088	6
377.873	4
378.659	7
379.445	8
380.23	7
381.015	7
381.801	5
382.586	4
383.371	3
384.156	8
384.941	7
385.726	5
386.511	7
387.296	6
388.08	3
388.865	6
389.649	8
390.434	5
391.218	6
392.003	6
392.787	6
393.571	10
394.355	7
395.139	7
395.923	7
396.707	5
397.491	6
398.274	7
399.058	6
399.842	5
400.625	6
401.408	6
402.192	6
402.975	7
403.758	8
404.541	7
405.324	5
406.107	6
406.89	8
407.673	7
408.456	8
409.238	8
410.021	7
410.803	8
411.586	8
412.368	10
413.151	11
413.933	7
414.715	10
415.497	10
416.279	9
417.061	9
417.843	9
418.624	9
419.406	10
420.188	10
420.969	12
421.751	9
422.532	11
423.313	10
424.095	12
424.876	12
425.657	13
426.438	13
427.219	14
428	14
428.78	12
429.561	13
430.342	16
431.122	16
431.903	16
432.683	18
433.464	16
434.244	18
435.024	16
435.804	16
436.584	17
437.364	19
438.144	21
438.924	22
439.704	26
440.483	23
441.263	25
442.042	24
442.822	27
443.601	28
444.38	30
445.16	32
445.939	34
446.718	37
447.497	40
448.276	41
449.054	44
449.833	51
450.612	51
451.391	55
452.169	62
452.948	68
453.726	76
454.504	84
455.282	86
456.061	99
456.839	114
457.617	122
458.395	134
459.172	146
459.95	165
460.728	185
461.506	203
462.283	230
463.061	257
463.838	290
464.615	320
465.393	360
466.17	401
466.947	441
467.724	501
468.501	552
469.278	616
470.055	695
470.831	764
471.608	850
472.385	952
473.161	1048
473.938	1167
474.714	1287
475.49	1430
476.266	1596
477.043	1740
477.819	1926
478.595	2139
479.371	2348
480.146	2592
480.922	2856
481.698	3155
482.473	3471
483.249	3839
484.024	4204
484.8	4642
485.575	5090
486.35	5597
487.126	6151
487.901	6760
488.676	7405
489.451	8077
490.225	8845
491	9669
491.775	10538
492.55	11516
493.324	12461
494.099	13433
494.873	14488
495.647	15583
496.422	16799
497.196	17940
497.97	19191
498.744	20321
499.518	21511
500.292	22662
501.066	23766
501.839	24715
502.613	25601
503.387	26398
504.16	27007
504.934	27362
505.707	27419
506.48	27577
507.253	27528
508.027	27173
508.8	26878
509.573	26424
510.346	25841
511.118	25036
511.891	24245
512.664	23389
513.437	22530
514.209	21557
514.982	20654
515.754	19784
516.526	18851
517.298	18023
518.071	17266
518.843	16548
519.615	15982
520.387	15372
521.159	14745
521.93	14111
522.702	13593
523.474	13081
524.245	12456
525.017	11923
525.788	11474
526.56	10949
527.331	10413
528.102	9926
528.873	9499
529.644	9015
530.415	8592
531.186	8153
531.957	7694
532.728	7341
533.498	6974
534.269	6558
535.039	6202
535.81	5898
536.58	5554
537.351	5198
538.121	4928
538.891	4667
539.661	4393
540.431	4184
541.201	3907
541.971	3736
542.741	3536
543.51	3354
544.28	3193
545.05	3040
545.819	2892
546.588	2760
547.358	2618
548.127	2482
548.896	2345
549.665	2247
550.434	2114
551.203	1999
551.972	1906
552.741	1799
553.51	1683
554.278	1610
555.047	1516
555.815	1431
556.584	1356
557.352	1265
558.121	1201
558.889	1134
559.657	1059
560.425	1001
561.193	947
561.961	891
562.729	851
563.496	802
564.264	762
565.032	721
565.799	674
566.567	638
567.334	602
568.101	576
568.869	542
569.636	513
570.403	482
571.17	447
571.937	430
572.704	408
573.471	379
574.237	356
575.004	335
575.771	317
576.537	300
577.303	280
578.07	269
578.836	248
579.602	242
580.368	227
581.134	214
581.9	199
582.666	189
583.432	182
584.198	173
584.964	164
585.729	149
586.495	149
587.26	137
588.025	131
588.791	122
589.556	117
590.321	110
591.086	105
591.851	96
592.616	95
593.381	92
594.146	85
594.911	83
595.675	80
596.44	73
597.204	70
597.969	65
598.733	67
599.497	59
600.261	59
601.025	58
601.79	52
602.553	53
603.317	48
604.081	47
604.845	45
605.609	45
606.372	42
607.136	40
607.899	38
608.662	37
609.426	38
610.189	35
610.952	34
611.715	31
612.478	31
613.241	30
614.004	28
614.767	28
615.529	28
616.292	25
617.055	24
617.817	24
618.579	24
619.342	20
620.104	23
620.866	20
621.628	18
622.39	21
623.152	16
623.914	19
624.676	18
625.438	15
626.199	19
626.961	17
627.722	18
628.484	16
629.245	16
630.006	13
630.768	14
631.529	13
632.29	12
633.051	14
633.812	13
634.573	11
635.333	13
636.094	13
636.855	12
637.615	13
638.376	11
639.136	8
639.896	9
640.657	12
641.417	7
642.177	10
642.937	12
643.697	7
644.457	11
645.216	10
645.976	8
646.736	8
647.495	7
648.255	8
649.014	7
649.774	7
650.533	7
651.292	8
652.051	5
652.81	9
653.569	7
654.328	6
655.087	8
655.846	8
656.604	9
657.363	6
658.121	8
658.88	4
659.638	6
660.397	4
661.155	5
661.913	4
662.671	5
663.429	4
664.187	7
664.945	4
665.703	6
666.46	2
667.218	5
667.976	6
668.733	4
669.49	6
670.248	4
671.005	7
671.762	7
672.519	6
673.276	4
674.033	5
674.79	4
675.547	6
676.304	5
677.06	5
677.817	4
678.574	6
679.33	3
680.086	5
680.843	5
681.599	2
682.355	3
683.111	3
683.867	5
684.623	4
685.379	3
686.135	3
686.89	2
687.646	4
688.402	2
689.157	3
689.912	3
690.668	5
691.423	4
692.178	4
692.933	4
693.688	5
694.443	6
695.198	2
695.953	5
696.708	5
697.462	3
698.217	5
698.972	3
699.726	4
700.48	5
701.235	3
701.989	3
702.743	4
703.497	4
704.251	3
705.005	4
705.759	3
706.513	3
707.266	4
708.02	4
708.774	4
709.527	5
710.28	3
711.034	5
711.787	4
712.54	5
713.293	1
714.046	5
714.799	6
715.552	3
716.305	5
717.058	4
717.81	4
718.563	2
719.315	6
720.068	7
720.82	2
721.573	5
722.325	3
723.077	5
723.829	7
724.581	4
725.333	4
726.085	3
726.836	4
727.588	2
728.34	3
729.091	5
729.843	4
730.594	6
731.346	4
732.097	3
732.848	4
733.599	4
734.35	5
735.101	3
735.852	4
736.603	5
737.354	6
738.104	4
738.855	5
739.605	6
740.356	3
741.106	6
741.856	6
742.607	5
743.357	5
744.107	3
744.857	6
745.607	4
746.357	6
747.106	3
747.856	4
748.606	4
749.355	4
750.105	6
750.854	7
751.603	7
752.353	5
753.102	5
753.851	5
754.6	5
755.349	6
756.098	5
756.847	6
757.595	8
758.344	7
759.093	8
759.841	6
760.589	8
761.338	5
762.086	8
762.834	7
763.582	6
764.331	9
765.079	7
765.826	9
766.574	7
767.322	7
768.07	9
768.817	7
769.565	9
770.312	9
771.06	9
771.807	9
772.554	8
773.302	9
774.049	8
774.796	8
775.543	8
776.29	8
777.036	10
777.783	10
778.53	12
779.276	11
780.023	12
780.769	8
781.516	9
782.262	9
783.008	9
783.754	8
784.5	8
785.246	9
785.992	8
786.738	11
787.484	10
788.23	10
788.975	13
789.721	9
790.466	8
791.212	10
791.957	9
792.702	9
793.447	10
794.193	8
794.938	10
795.683	9
796.427	9
797.172	8
797.917	8
798.662	6
799.406	7
800.151	9
800.895	5
801.64	6
802.384	7
803.128	9
803.872	8
804.616	7
805.36	8
806.104	6
806.848	8
807.592	7
808.336	5
809.079	4
809.823	5
810.566	5
811.31	5
812.053	6
812.796	4
813.539	5
814.283	5
815.026	3
815.769	7
816.511	6
817.254	5
817.997	6
818.74	7
819.482	5
820.225	6
820.967	5
821.71	4
822.452	2
823.194	6
823.936	3
824.678	7
825.42	6
826.162	7
826.904	6
827.646	3
828.388	7
829.129	4
829.871	4
830.612	5
831.354	3
832.095	1
832.836	4
833.577	6
834.319	2
835.06	2
835.801	4
836.542	1
837.282	5
838.023	2
838.764	3
839.504	1
840.245	5
840.985	5
841.726	4
842.466	4
843.206	3
843.946	4
844.687	3
845.427	6
846.166	5
846.906	4
847.646	3
848.386	3
849.125	3
849.865	3
850.605	0
851.344	4
852.083	2
852.823	5
853.562	2
854.301	2
855.04	2
855.779	4
856.518	4
857.257	4
857.995	4
858.734	3
859.473	1
860.211	5
860.95	1
861.688	4
862.426	3
863.165	2
863.903	3
864.641	1
865.379	5
866.117	2
866.855	2
867.593	4
868.33	4
869.068	3
869.806	1
870.543	2
871.28	1
872.018	2
872.755	3
873.492	2
874.229	3
874.967	1
875.703	1
876.44	2
877.177	0
877.914	0
878.651	0
879.387	1
880.124	-1
880.86	1
881.597	2
882.333	2
883.069	1
883.806	2
884.542	1
885.278	2
886.014	3
886.749	2
887.485	0
888.221	-1
888.957	2
889.692	2
890.428	2
891.163	1
891.899	0
892.634	1
893.369	1
894.104	2
894.839	1
895.574	1
896.309	4
897.044	2
897.779	2
898.514	1
899.248	2
899.983	2
900.717	2
901.452	1
902.186	1
902.92	3
903.654	2
904.389	-1
905.123	2
905.857	2
906.59	1
907.324	4
908.058	2
908.792	4
909.525	-2
910.259	2
910.992	1
911.726	-1
912.459	1
913.192	1
913.925	1
914.658	1
915.391	1
916.124	1
916.857	0
917.59	3
918.323	0
919.055	-1
919.788	0
920.521	2
921.253	1
921.985	2
922.718	2
923.45	0
924.182	1
924.914	-1
925.646	-1
926.378	2
927.11	1
927.841	2
928.573	0
929.305	2
930.036	1
930.768	0
931.499	4
932.23	1
932.962	0
933.693	0
934.424	2
935.155	2
935.886	0
936.617	0
937.348	2
938.078	2
938.809	0
939.54	2
940.27	1
941.001	-1
941.731	2
942.461	-2
943.191	1
943.922	1
944.652	1
945.382	2
946.112	0
946.841	0
947.571	2
948.301	2
949.031	0
949.76	2
950.49	1
951.219	1
951.948	0
952.678	1
953.407	0
954.136	2
954.865	2
955.594	2
956.323	2
957.052	2
957.78	0
958.509	-1
959.238	-1
959.966	0
960.695	-1
961.423	1
962.151	2
962.88	0
963.608	2
964.336	1
965.064	0
965.792	-1
966.52	0
967.247	1
967.975	0
968.703	2
969.43	2
970.158	2
970.885	-1
971.613	1
972.34	2
973.067	0
973.794	2
974.521	1
975.248	2
975.975	3
976.702	2
977.429	2
978.156	2
978.882	2
979.609	0
980.335	1
981.062	1
981.788	0
982.514	0
983.24	1
983.967	1
984.693	2
985.419	4
986.144	0
986.87	3
987.596	2
988.322	-1
989.047	1
989.773	2
990.498	2
991.224	1
991.949	1
992.674	0
993.399	2
994.124	2
994.849	1
995.574	1
996.299	1
997.024	1
997.749	1
998.473	0
999.198	2
999.922	0
1000.647	2
1001.371	4
1002.095	0
1002.82	0
1003.544	-2
1004.268	2
1004.992	0
1005.716	1
1006.439	2
1007.163	1
1007.887	2
1008.611	1
1009.334	1
1010.058	1
1010.781	0
1011.504	1
1012.228	-1
1012.951	1
1013.674	0
1014.397	-1
1015.12	-2
