节点500_285_QEPB04081__26__14-56-00-440.txt的数据

Date: Wed Nov 12 14:56:00 CST 2025
User: PC
Spectrometer: QEPB0408
触发模式: 0
积分时间 (秒): 1.000000E-2
Scans to average: 1
启用暗噪声校正: true
启用非线性校正: false
滑动平均宽度: 0
X轴模式: Wavelengths
Number of Pixels in Spectrum: 1044
>>>>>Begin Spectral Data<<<<<
220.843	-1.5
221.644	0.5
222.444	3.5
223.244	1.5
224.045	2.5
224.845	1.5
225.645	2.5
226.445	4.5
227.245	3.5
228.045	3.5
228.845	4.5
229.645	3.5
230.444	2.5
231.244	2.5
232.043	3.5
232.843	3.5
233.642	2.5
234.442	0.5
235.241	4.5
236.04	1.5
236.839	3.5
237.638	1.5
238.437	3.5
239.236	3.5
240.035	5.5
240.833	5.5
241.632	3.5
242.43	6.5
243.229	4.5
244.027	6.5
244.826	5.5
245.624	6.5
246.422	7.5
247.22	4.5
248.018	5.5
248.816	8.5
249.614	2.5
250.412	7.5
251.21	7.5
252.007	9.5
252.805	6.5
253.602	6.5
254.4	5.5
255.197	5.5
255.994	7.5
256.791	7.5
257.589	7.5
258.386	9.5
259.183	11.5
259.979	9.5
260.776	8.5
261.573	11.5
262.37	10.5
263.166	11.5
263.963	13.5
264.759	11.5
265.556	12.5
266.352	13.5
267.148	11.5
267.944	15.5
268.74	12.5
269.536	15.5
270.332	13.5
271.128	17.5
271.924	16.5
272.719	17.5
273.515	19.5
274.311	17.5
275.106	16.5
275.901	18.5
276.697	18.5
277.492	16.5
278.287	17.5
279.082	19.5
279.877	17.5
280.672	19.5
281.467	22.5
282.262	20.5
283.056	20.5
283.851	20.5
284.646	19.5
285.44	18.5
286.234	20.5
287.029	20.5
287.823	21.5
288.617	20.5
289.411	17.5
290.205	18.5
290.999	20.5
291.793	19.5
292.587	20.5
293.381	18.5
294.174	19.5
294.968	19.5
295.761	13.5
296.555	17.5
297.348	12.5
298.141	13.5
298.935	16.5
299.728	15.5
300.521	14.5
301.314	13.5
302.107	11.5
302.899	13.5
303.692	14.5
304.485	11.5
305.277	12.5
306.07	12.5
306.862	12.5
307.655	15.5
308.447	11.5
309.239	11.5
310.031	13.5
310.823	12.5
311.615	11.5
312.407	12.5
313.199	9.5
313.991	7.5
314.783	9.5
315.574	8.5
316.366	8.5
317.157	8.5
317.949	7.5
318.74	6.5
319.531	9.5
320.322	4.5
321.113	8.5
321.904	6.5
322.695	7.5
323.486	7.5
324.277	6.5
325.068	5.5
325.858	7.5
326.649	6.5
327.439	7.5
328.23	5.5
329.02	7.5
329.81	5.5
330.6	5.5
331.391	5.5
332.181	5.5
332.971	7.5
333.76	6.5
334.55	7.5
335.34	6.5
336.13	5.5
336.919	6.5
337.709	5.5
338.498	7.5
339.287	3.5
340.077	6.5
340.866	5.5
341.655	5.5
342.444	7.5
343.233	5.5
344.022	8.5
344.811	6.5
345.6	6.5
346.388	5.5
347.177	6.5
347.965	6.5
348.754	5.5
349.542	5.5
350.33	6.5
351.119	4.5
351.907	4.5
352.695	4.5
353.483	6.5
354.271	4.5
355.059	6.5
355.846	4.5
356.634	5.5
357.422	3.5
358.209	2.5
358.997	3.5
359.784	5.5
360.571	1.5
361.359	5.5
362.146	4.5
362.933	6.5
363.72	6.5
364.507	4.5
365.294	8.5
366.081	4.5
366.867	5.5
367.654	5.5
368.44	5.5
369.227	5.5
370.013	4.5
370.8	5.5
371.586	4.5
372.372	5.5
373.158	6.5
373.944	6.5
374.73	3.5
375.516	5.5
376.302	7.5
377.088	4.5
377.873	6.5
378.659	6.5
379.445	5.5
380.23	4.5
381.015	5.5
381.801	6.5
382.586	5.5
383.371	5.5
384.156	4.5
384.941	4.5
385.726	6.5
386.511	4.5
387.296	4.5
388.08	6.5
388.865	4.5
389.649	4.5
390.434	6.5
391.218	7.5
392.003	7.5
392.787	5.5
393.571	7.5
394.355	7.5
395.139	2.5
395.923	4.5
396.707	4.5
397.491	7.5
398.274	6.5
399.058	5.5
399.842	8.5
400.625	8.5
401.408	8.5
402.192	5.5
402.975	5.5
403.758	6.5
404.541	7.5
405.324	6.5
406.107	5.5
406.89	8.5
407.673	6.5
408.456	7.5
409.238	9.5
410.021	6.5
410.803	6.5
411.586	6.5
412.368	8.5
413.151	8.5
413.933	9.5
414.715	10.5
415.497	8.5
416.279	10.5
417.061	8.5
417.843	11.5
418.624	10.5
419.406	9.5
420.188	11.5
420.969	10.5
421.751	10.5
422.532	9.5
423.313	11.5
424.095	12.5
424.876	12.5
425.657	12.5
426.438	10.5
427.219	13.5
428	13.5
428.78	13.5
429.561	14.5
430.342	15.5
431.122	13.5
431.903	14.5
432.683	14.5
433.464	14.5
434.244	18.5
435.024	14.5
435.804	17.5
436.584	19.5
437.364	19.5
438.144	18.5
438.924	19.5
439.704	20.5
440.483	21.5
441.263	22.5
442.042	24.5
442.822	25.5
443.601	25.5
444.38	30.5
445.16	32.5
445.939	33.5
446.718	32.5
447.497	36.5
448.276	37.5
449.054	43.5
449.833	45.5
450.612	49.5
451.391	52.5
452.169	59.5
452.948	63.5
453.726	69.5
454.504	72.5
455.282	83.5
456.061	89.5
456.839	101.5
457.617	107.5
458.395	118.5
459.172	139.5
459.95	151.5
460.728	169.5
461.506	188.5
462.283	206.5
463.061	232.5
463.838	257.5
464.615	299.5
465.393	327.5
466.17	372.5
466.947	414.5
467.724	461.5
468.501	517.5
469.278	589.5
470.055	644.5
470.831	723.5
471.608	807.5
472.385	905.5
473.161	996.5
473.938	1123.5
474.714	1234.5
475.49	1370.5
476.266	1533.5
477.043	1707.5
477.819	1896.5
478.595	2111.5
479.371	2354.5
480.146	2616.5
480.922	2922.5
481.698	3213.5
482.473	3586.5
483.249	3958.5
484.024	4379.5
484.8	4862.5
485.575	5382.5
486.35	5944.5
487.126	6557.5
487.901	7244.5
488.676	7963.5
489.451	8782.5
490.225	9671.5
491	10577.5
491.775	11651.5
492.55	12700.5
493.324	13860.5
494.099	14880.5
494.873	16199.5
495.647	17492.5
496.422	18781.5
497.196	20052.5
497.97	21454.5
498.744	22785.5
499.518	24005.5
500.292	25201.5
501.066	26292.5
501.839	27194.5
502.613	28116.5
503.387	28788.5
504.16	29325.5
504.934	29503.5
505.707	29404.5
506.48	29290.5
507.253	28940.5
508.027	28388.5
508.8	27905.5
509.573	27183.5
510.346	26385.5
511.118	25407.5
511.891	24383.5
512.664	23428.5
513.437	22412.5
514.209	21409.5
514.982	20476.5
515.754	19494.5
516.526	18570.5
517.298	17777.5
518.071	16975.5
518.843	16302.5
519.615	15686.5
520.387	15100.5
521.159	14517.5
521.93	13844.5
522.702	13347.5
523.474	12807.5
524.245	12251.5
525.017	11696.5
525.788	11233.5
526.56	10678.5
527.331	10195.5
528.102	9697.5
528.873	9247.5
529.644	8684.5
530.415	8248.5
531.186	7844.5
531.957	7409.5
532.728	7045.5
533.498	6656.5
534.269	6216.5
535.039	5896.5
535.81	5598.5
536.58	5256.5
537.351	4939.5
538.121	4662.5
538.891	4408.5
539.661	4168.5
540.431	3948.5
541.201	3712.5
541.971	3520.5
542.741	3362.5
543.51	3174.5
544.28	3014.5
545.05	2879.5
545.819	2753.5
546.588	2627.5
547.358	2480.5
548.127	2352.5
548.896	2220.5
549.665	2109.5
550.434	2014.5
551.203	1898.5
551.972	1796.5
552.741	1669.5
553.51	1592.5
554.278	1497.5
555.047	1422.5
555.815	1323.5
556.584	1254.5
557.352	1182.5
558.121	1111.5
558.889	1049.5
559.657	990.5
560.425	947.5
561.193	878.5
561.961	840.5
562.729	790.5
563.496	759.5
564.264	700.5
565.032	663.5
565.799	625.5
566.567	601.5
567.334	569.5
568.101	531.5
568.869	503.5
569.636	474.5
570.403	450.5
571.17	417.5
571.937	396.5
572.704	373.5
573.471	345.5
574.237	329.5
575.004	313.5
575.771	293.5
576.537	278.5
577.303	258.5
578.07	252.5
578.836	230.5
579.602	222.5
580.368	205.5
581.134	197.5
581.9	190.5
582.666	172.5
583.432	166.5
584.198	153.5
584.964	152.5
585.729	141.5
586.495	132.5
587.26	129.5
588.025	128.5
588.791	114.5
589.556	113.5
590.321	105.5
591.086	99.5
591.851	91.5
592.616	88.5
593.381	81.5
594.146	80.5
594.911	77.5
595.675	73.5
596.44	68.5
597.204	65.5
597.969	62.5
598.733	61.5
599.497	58.5
600.261	56.5
601.025	54.5
601.79	49.5
602.553	48.5
603.317	46.5
604.081	42.5
604.845	44.5
605.609	40.5
606.372	38.5
607.136	35.5
607.899	39.5
608.662	36.5
609.426	34.5
610.189	32.5
610.952	30.5
611.715	30.5
612.478	28.5
613.241	24.5
614.004	27.5
614.767	24.5
615.529	24.5
616.292	22.5
617.055	20.5
617.817	23.5
618.579	19.5
619.342	19.5
620.104	20.5
620.866	19.5
621.628	15.5
622.39	18.5
623.152	16.5
623.914	18.5
624.676	19.5
625.438	15.5
626.199	15.5
626.961	18.5
627.722	13.5
628.484	15.5
629.245	13.5
630.006	11.5
630.768	14.5
631.529	14.5
632.29	12.5
633.051	11.5
633.812	12.5
634.573	10.5
635.333	12.5
636.094	11.5
636.855	10.5
637.615	12.5
638.376	12.5
639.136	8.5
639.896	10.5
640.657	7.5
641.417	9.5
642.177	8.5
642.937	10.5
643.697	8.5
644.457	8.5
645.216	7.5
645.976	6.5
646.736	6.5
647.495	8.5
648.255	7.5
649.014	8.5
649.774	6.5
650.533	7.5
651.292	4.5
652.051	6.5
652.81	5.5
653.569	5.5
654.328	7.5
655.087	5.5
655.846	5.5
656.604	6.5
657.363	5.5
658.121	4.5
658.88	5.5
659.638	2.5
660.397	4.5
661.155	5.5
661.913	5.5
662.671	4.5
663.429	5.5
664.187	3.5
664.945	7.5
665.703	3.5
666.46	4.5
667.218	5.5
667.976	4.5
668.733	5.5
669.49	2.5
670.248	4.5
671.005	5.5
671.762	4.5
672.519	6.5
673.276	3.5
674.033	3.5
674.79	4.5
675.547	4.5
676.304	3.5
677.06	4.5
677.817	3.5
678.574	7.5
679.33	6.5
680.086	2.5
680.843	2.5
681.599	3.5
682.355	4.5
683.111	5.5
683.867	5.5
684.623	4.5
685.379	3.5
686.135	1.5
686.89	3.5
687.646	4.5
688.402	4.5
689.157	1.5
689.912	1.5
690.668	3.5
691.423	2.5
692.178	4.5
692.933	2.5
693.688	3.5
694.443	3.5
695.198	2.5
695.953	4.5
696.708	4.5
697.462	4.5
698.217	1.5
698.972	5.5
699.726	2.5
700.48	3.5
701.235	2.5
701.989	2.5
702.743	3.5
703.497	3.5
704.251	4.5
705.005	4.5
705.759	1.5
706.513	1.5
707.266	5.5
708.02	2.5
708.774	5.5
709.527	3.5
710.28	3.5
711.034	4.5
711.787	0.5
712.54	2.5
713.293	0.5
714.046	6.5
714.799	2.5
715.552	3.5
716.305	3.5
717.058	3.5
717.81	3.5
718.563	4.5
719.315	1.5
720.068	3.5
720.82	2.5
721.573	3.5
722.325	1.5
723.077	4.5
723.829	4.5
724.581	2.5
725.333	4.5
726.085	2.5
726.836	5.5
727.588	2.5
728.34	3.5
729.091	5.5
729.843	1.5
730.594	6.5
731.346	2.5
732.097	6.5
732.848	3.5
733.599	2.5
734.35	3.5
735.101	5.5
735.852	5.5
736.603	2.5
737.354	4.5
738.104	4.5
738.855	6.5
739.605	5.5
740.356	3.5
741.106	5.5
741.856	2.5
742.607	3.5
743.357	5.5
744.107	3.5
744.857	3.5
745.607	5.5
746.357	4.5
747.106	5.5
747.856	4.5
748.606	6.5
749.355	5.5
750.105	8.5
750.854	5.5
751.603	5.5
752.353	5.5
753.102	3.5
753.851	6.5
754.6	6.5
755.349	7.5
756.098	6.5
756.847	5.5
757.595	7.5
758.344	5.5
759.093	5.5
759.841	6.5
760.589	6.5
761.338	6.5
762.086	7.5
762.834	7.5
763.582	5.5
764.331	6.5
765.079	7.5
765.826	5.5
766.574	9.5
767.322	6.5
768.07	10.5
768.817	6.5
769.565	7.5
770.312	8.5
771.06	6.5
771.807	10.5
772.554	9.5
773.302	6.5
774.049	8.5
774.796	9.5
775.543	10.5
776.29	8.5
777.036	8.5
777.783	10.5
778.53	6.5
779.276	8.5
780.023	7.5
780.769	8.5
781.516	8.5
782.262	9.5
783.008	8.5
783.754	8.5
784.5	8.5
785.246	9.5
785.992	7.5
786.738	6.5
787.484	6.5
788.23	9.5
788.975	8.5
789.721	7.5
790.466	9.5
791.212	9.5
791.957	7.5
792.702	8.5
793.447	9.5
794.193	10.5
794.938	8.5
795.683	8.5
796.427	6.5
797.172	4.5
797.917	6.5
798.662	7.5
799.406	7.5
800.151	6.5
800.895	7.5
801.64	5.5
802.384	7.5
803.128	5.5
803.872	7.5
804.616	7.5
805.36	4.5
806.104	5.5
806.848	5.5
807.592	4.5
808.336	6.5
809.079	3.5
809.823	8.5
810.566	6.5
811.31	3.5
812.053	5.5
812.796	5.5
813.539	6.5
814.283	2.5
815.026	5.5
815.769	3.5
816.511	6.5
817.254	3.5
817.997	4.5
818.74	7.5
819.482	2.5
820.225	5.5
820.967	3.5
821.71	3.5
822.452	3.5
823.194	4.5
823.936	5.5
824.678	4.5
825.42	3.5
826.162	6.5
826.904	2.5
827.646	5.5
828.388	3.5
829.129	4.5
829.871	4.5
830.612	3.5
831.354	3.5
832.095	3.5
832.836	4.5
833.577	3.5
834.319	2.5
835.06	6.5
835.801	2.5
836.542	2.5
837.282	3.5
838.023	4.5
838.764	4.5
839.504	4.5
840.245	3.5
840.985	1.5
841.726	4.5
842.466	2.5
843.206	2.5
843.946	4.5
844.687	3.5
845.427	4.5
846.166	3.5
846.906	5.5
847.646	1.5
848.386	3.5
849.125	3.5
849.865	2.5
850.605	1.5
851.344	2.5
852.083	2.5
852.823	1.5
853.562	1.5
854.301	2.5
855.04	2.5
855.779	1.5
856.518	3.5
857.257	-0.5
857.995	0.5
858.734	2.5
859.473	3.5
860.211	1.5
860.95	1.5
861.688	1.5
862.426	2.5
863.165	4.5
863.903	2.5
864.641	2.5
865.379	2.5
866.117	2.5
866.855	1.5
867.593	4.5
868.33	0.5
869.068	1.5
869.806	3.5
870.543	0.5
871.28	1.5
872.018	1.5
872.755	0.5
873.492	0.5
874.229	0.5
874.967	0.5
875.703	-0.5
876.44	2.5
877.177	0.5
877.914	0.5
878.651	1.5
879.387	0.5
880.124	0.5
880.86	1.5
881.597	0.5
882.333	1.5
883.069	1.5
883.806	-0.5
884.542	-0.5
885.278	2.5
886.014	2.5
886.749	-1.5
887.485	0.5
888.221	0.5
888.957	1.5
889.692	0.5
890.428	0.5
891.163	0.5
891.899	-0.5
892.634	0.5
893.369	-0.5
894.104	0.5
894.839	-0.5
895.574	-1.5
896.309	0.5
897.044	1.5
897.779	-0.5
898.514	2.5
899.248	0.5
899.983	0.5
900.717	-1.5
901.452	-0.5
902.186	-0.5
902.92	0.5
903.654	-1.5
904.389	0.5
905.123	-0.5
905.857	2.5
906.59	0.5
907.324	0.5
908.058	0.5
908.792	1.5
909.525	-0.5
910.259	0.5
910.992	1.5
911.726	0.5
912.459	-1.5
913.192	0.5
913.925	-0.5
914.658	3.5
915.391	1.5
916.124	1.5
916.857	0.5
917.59	0.5
918.323	0.5
919.055	0.5
919.788	5.5
920.521	-0.5
921.253	2.5
921.985	-1.5
922.718	0.5
923.45	2.5
924.182	1.5
924.914	2.5
925.646	2.5
926.378	-0.5
927.11	1.5
927.841	-0.5
928.573	0.5
929.305	-1.5
930.036	-0.5
930.768	0.5
931.499	-2.5
932.23	-0.5
932.962	-1.5
933.693	1.5
934.424	-1.5
935.155	-1.5
935.886	1.5
936.617	0.5
937.348	-0.5
938.078	0.5
938.809	0.5
939.54	-1.5
940.27	-1.5
941.001	-1.5
941.731	-0.5
942.461	-1.5
943.191	0.5
943.922	1.5
944.652	-0.5
945.382	-2.5
946.112	0.5
946.841	-1.5
947.571	1.5
948.301	-0.5
949.031	-0.5
949.76	-0.5
950.49	-1.5
951.219	0.5
951.948	0.5
952.678	-0.5
953.407	-0.5
954.136	-1.5
954.865	-0.5
955.594	0.5
956.323	-0.5
957.052	-1.5
957.78	-0.5
958.509	-0.5
959.238	-1.5
959.966	2.5
960.695	2.5
961.423	-0.5
962.151	0.5
962.88	-0.5
963.608	0.5
964.336	0.5
965.064	0.5
965.792	-0.5
966.52	-1.5
967.247	0.5
967.975	-1.5
968.703	-0.5
969.43	-0.5
970.158	0.5
970.885	-0.5
971.613	-1.5
972.34	-0.5
973.067	0.5
973.794	0.5
974.521	-0.5
975.248	1.5
975.975	3.5
976.702	-0.5
977.429	0.5
978.156	1.5
978.882	-0.5
979.609	0.5
980.335	0.5
981.062	-1.5
981.788	0.5
982.514	1.5
983.24	-2.5
983.967	-1.5
984.693	1.5
985.419	0.5
986.144	0.5
986.87	-0.5
987.596	0.5
988.322	-0.5
989.047	-1.5
989.773	2.5
990.498	-0.5
991.224	-0.5
991.949	1.5
992.674	1.5
993.399	0.5
994.124	-0.5
994.849	-0.5
995.574	-1.5
996.299	0.5
997.024	-0.5
997.749	-1.5
998.473	1.5
999.198	0.5
999.922	-0.5
1000.647	1.5
1001.371	1.5
1002.095	0.5
1002.82	-1.5
1003.544	-0.5
1004.268	1.5
1004.992	-2.5
1005.716	0.5
1006.439	0.5
1007.163	1.5
1007.887	-1.5
1008.611	-0.5
1009.334	-1.5
1010.058	-2.5
1010.781	0.5
1011.504	-0.5
1012.228	-0.5
1012.951	-0.5
1013.674	-0.5
1014.397	2.5
1015.12	-1.5
