节点500_285_QEPB04081__575__15-05-07-185.txt的数据

Date: Wed Nov 12 15:05:07 CST 2025
User: PC
Spectrometer: QEPB0408
触发模式: 0
积分时间 (秒): 1.000000E-2
Scans to average: 1
启用暗噪声校正: true
启用非线性校正: false
滑动平均宽度: 0
X轴模式: Wavelengths
Number of Pixels in Spectrum: 1044
>>>>>Begin Spectral Data<<<<<
220.843	-1.75
221.644	1.25
222.444	0.25
223.244	1.25
224.045	3.25
224.845	1.25
225.645	0.25
226.445	1.25
227.245	2.25
228.045	2.25
228.845	5.25
229.645	1.25
230.444	2.25
231.244	3.25
232.043	3.25
232.843	3.25
233.642	3.25
234.442	1.25
235.241	4.25
236.04	3.25
236.839	2.25
237.638	3.25
238.437	4.25
239.236	4.25
240.035	2.25
240.833	3.25
241.632	4.25
242.43	3.25
243.229	2.25
244.027	4.25
244.826	5.25
245.624	4.25
246.422	6.25
247.22	5.25
248.018	4.25
248.816	7.25
249.614	7.25
250.412	5.25
251.21	5.25
252.007	4.25
252.805	8.25
253.602	7.25
254.4	7.25
255.197	7.25
255.994	6.25
256.791	9.25
257.589	6.25
258.386	7.25
259.183	7.25
259.979	8.25
260.776	7.25
261.573	9.25
262.37	9.25
263.166	10.25
263.963	9.25
264.759	11.25
265.556	12.25
266.352	10.25
267.148	13.25
267.944	11.25
268.74	12.25
269.536	11.25
270.332	13.25
271.128	12.25
271.924	12.25
272.719	14.25
273.515	13.25
274.311	16.25
275.106	14.25
275.901	15.25
276.697	14.25
277.492	15.25
278.287	16.25
279.082	14.25
279.877	18.25
280.672	17.25
281.467	18.25
282.262	18.25
283.056	13.25
283.851	16.25
284.646	15.25
285.44	17.25
286.234	17.25
287.029	16.25
287.823	16.25
288.617	17.25
289.411	20.25
290.205	15.25
290.999	17.25
291.793	18.25
292.587	19.25
293.381	17.25
294.174	18.25
294.968	16.25
295.761	14.25
296.555	16.25
297.348	15.25
298.141	15.25
298.935	15.25
299.728	15.25
300.521	15.25
301.314	12.25
302.107	13.25
302.899	14.25
303.692	13.25
304.485	13.25
305.277	9.25
306.07	11.25
306.862	13.25
307.655	11.25
308.447	13.25
309.239	12.25
310.031	12.25
310.823	9.25
311.615	9.25
312.407	9.25
313.199	9.25
313.991	12.25
314.783	8.25
315.574	10.25
316.366	7.25
317.157	8.25
317.949	8.25
318.74	6.25
319.531	9.25
320.322	7.25
321.113	5.25
321.904	6.25
322.695	5.25
323.486	7.25
324.277	7.25
325.068	8.25
325.858	5.25
326.649	6.25
327.439	7.25
328.23	6.25
329.02	4.25
329.81	5.25
330.6	5.25
331.391	4.25
332.181	7.25
332.971	4.25
333.76	4.25
334.55	4.25
335.34	7.25
336.13	6.25
336.919	6.25
337.709	4.25
338.498	6.25
339.287	5.25
340.077	7.25
340.866	5.25
341.655	4.25
342.444	3.25
343.233	5.25
344.022	6.25
344.811	6.25
345.6	5.25
346.388	5.25
347.177	5.25
347.965	6.25
348.754	6.25
349.542	6.25
350.33	5.25
351.119	4.25
351.907	5.25
352.695	5.25
353.483	6.25
354.271	4.25
355.059	6.25
355.846	5.25
356.634	4.25
357.422	4.25
358.209	3.25
358.997	4.25
359.784	5.25
360.571	6.25
361.359	4.25
362.146	3.25
362.933	5.25
363.72	3.25
364.507	4.25
365.294	5.25
366.081	4.25
366.867	4.25
367.654	5.25
368.44	5.25
369.227	4.25
370.013	5.25
370.8	4.25
371.586	4.25
372.372	4.25
373.158	6.25
373.944	4.25
374.73	4.25
375.516	4.25
376.302	4.25
377.088	4.25
377.873	4.25
378.659	4.25
379.445	5.25
380.23	3.25
381.015	5.25
381.801	4.25
382.586	4.25
383.371	7.25
384.156	6.25
384.941	4.25
385.726	5.25
386.511	4.25
387.296	2.25
388.08	5.25
388.865	4.25
389.649	4.25
390.434	6.25
391.218	7.25
392.003	3.25
392.787	5.25
393.571	5.25
394.355	6.25
395.139	6.25
395.923	8.25
396.707	4.25
397.491	7.25
398.274	6.25
399.058	5.25
399.842	8.25
400.625	6.25
401.408	5.25
402.192	3.25
402.975	7.25
403.758	8.25
404.541	6.25
405.324	8.25
406.107	7.25
406.89	6.25
407.673	9.25
408.456	8.25
409.238	10.25
410.021	5.25
410.803	6.25
411.586	7.25
412.368	8.25
413.151	9.25
413.933	7.25
414.715	10.25
415.497	9.25
416.279	9.25
417.061	8.25
417.843	11.25
418.624	10.25
419.406	9.25
420.188	10.25
420.969	9.25
421.751	10.25
422.532	7.25
423.313	9.25
424.095	10.25
424.876	10.25
425.657	9.25
426.438	10.25
427.219	12.25
428	12.25
428.78	11.25
429.561	12.25
430.342	13.25
431.122	11.25
431.903	12.25
432.683	13.25
433.464	14.25
434.244	16.25
435.024	14.25
435.804	14.25
436.584	18.25
437.364	18.25
438.144	17.25
438.924	20.25
439.704	19.25
440.483	22.25
441.263	24.25
442.042	26.25
442.822	25.25
443.601	26.25
444.38	29.25
445.16	32.25
445.939	33.25
446.718	34.25
447.497	39.25
448.276	46.25
449.054	45.25
449.833	52.25
450.612	58.25
451.391	57.25
452.169	66.25
452.948	72.25
453.726	81.25
454.504	86.25
455.282	99.25
456.061	103.25
456.839	113.25
457.617	127.25
458.395	145.25
459.172	164.25
459.95	185.25
460.728	199.25
461.506	224.25
462.283	245.25
463.061	279.25
463.838	298.25
464.615	339.25
465.393	386.25
466.17	420.25
466.947	473.25
467.724	530.25
468.501	586.25
469.278	648.25
470.055	723.25
470.831	792.25
471.608	884.25
472.385	971.25
473.161	1088.25
473.938	1184.25
474.714	1309.25
475.49	1465.25
476.266	1597.25
477.043	1761.25
477.819	1947.25
478.595	2128.25
479.371	2349.25
480.146	2572.25
480.922	2833.25
481.698	3105.25
482.473	3415.25
483.249	3750.25
484.024	4090.25
484.8	4486.25
485.575	4911.25
486.35	5393.25
487.126	5866.25
487.901	6411.25
488.676	7042.25
489.451	7665.25
490.225	8351.25
491	9067.25
491.775	9893.25
492.55	10795.25
493.324	11665.25
494.099	12520.25
494.873	13458.25
495.647	14504.25
496.422	15575.25
497.196	16640.25
497.97	17817.25
498.744	18957.25
499.518	19956.25
500.292	21109.25
501.066	22136.25
501.839	23127.25
502.613	23999.25
503.387	24857.25
504.16	25526.25
504.934	25938.25
505.707	26240.25
506.48	26405.25
507.253	26422.25
508.027	26312.25
508.8	26067.25
509.573	25824.25
510.346	25378.25
511.118	24722.25
511.891	24056.25
512.664	23342.25
513.437	22540.25
514.209	21628.25
514.982	20769.25
515.754	19928.25
516.526	19091.25
517.298	18295.25
518.071	17485.25
518.843	16846.25
519.615	16223.25
520.387	15601.25
521.159	14970.25
521.93	14339.25
522.702	13807.25
523.474	13235.25
524.245	12624.25
525.017	12103.25
525.788	11672.25
526.56	11153.25
527.331	10614.25
528.102	10179.25
528.873	9704.25
529.644	9262.25
530.415	8796.25
531.186	8372.25
531.957	7931.25
532.728	7583.25
533.498	7197.25
534.269	6825.25
535.039	6434.25
535.81	6092.25
536.58	5750.25
537.351	5404.25
538.121	5093.25
538.891	4856.25
539.661	4580.25
540.431	4345.25
541.201	4098.25
541.971	3853.25
542.741	3671.25
543.51	3484.25
544.28	3303.25
545.05	3172.25
545.819	3017.25
546.588	2859.25
547.358	2715.25
548.127	2592.25
548.896	2471.25
549.665	2334.25
550.434	2193.25
551.203	2092.25
551.972	1988.25
552.741	1859.25
553.51	1762.25
554.278	1676.25
555.047	1581.25
555.815	1490.25
556.584	1411.25
557.352	1326.25
558.121	1250.25
558.889	1177.25
559.657	1131.25
560.425	1061.25
561.193	998.25
561.961	941.25
562.729	888.25
563.496	848.25
564.264	792.25
565.032	749.25
565.799	710.25
566.567	667.25
567.334	643.25
568.101	597.25
568.869	574.25
569.636	534.25
570.403	501.25
571.17	469.25
571.937	449.25
572.704	417.25
573.471	399.25
574.237	372.25
575.004	355.25
575.771	341.25
576.537	311.25
577.303	294.25
578.07	281.25
578.836	265.25
579.602	253.25
580.368	236.25
581.134	219.25
581.9	210.25
582.666	201.25
583.432	188.25
584.198	182.25
584.964	167.25
585.729	156.25
586.495	151.25
587.26	146.25
588.025	137.25
588.791	131.25
589.556	124.25
590.321	114.25
591.086	107.25
591.851	101.25
592.616	98.25
593.381	93.25
594.146	92.25
594.911	89.25
595.675	83.25
596.44	76.25
597.204	70.25
597.969	75.25
598.733	71.25
599.497	68.25
600.261	61.25
601.025	55.25
601.79	56.25
602.553	52.25
603.317	49.25
604.081	49.25
604.845	47.25
605.609	45.25
606.372	41.25
607.136	42.25
607.899	37.25
608.662	38.25
609.426	35.25
610.189	33.25
610.952	33.25
611.715	32.25
612.478	29.25
613.241	32.25
614.004	27.25
614.767	28.25
615.529	27.25
616.292	22.25
617.055	25.25
617.817	24.25
618.579	23.25
619.342	19.25
620.104	20.25
620.866	22.25
621.628	19.25
622.39	19.25
623.152	19.25
623.914	18.25
624.676	20.25
625.438	16.25
626.199	17.25
626.961	14.25
627.722	16.25
628.484	15.25
629.245	12.25
630.006	13.25
630.768	12.25
631.529	12.25
632.29	12.25
633.051	13.25
633.812	9.25
634.573	9.25
635.333	9.25
636.094	10.25
636.855	9.25
637.615	9.25
638.376	13.25
639.136	9.25
639.896	11.25
640.657	8.25
641.417	8.25
642.177	7.25
642.937	6.25
643.697	9.25
644.457	7.25
645.216	8.25
645.976	7.25
646.736	8.25
647.495	7.25
648.255	9.25
649.014	4.25
649.774	9.25
650.533	4.25
651.292	8.25
652.051	7.25
652.81	7.25
653.569	7.25
654.328	8.25
655.087	6.25
655.846	6.25
656.604	6.25
657.363	4.25
658.121	6.25
658.88	4.25
659.638	6.25
660.397	4.25
661.155	5.25
661.913	6.25
662.671	3.25
663.429	5.25
664.187	4.25
664.945	5.25
665.703	4.25
666.46	2.25
667.218	5.25
667.976	6.25
668.733	4.25
669.49	5.25
670.248	2.25
671.005	5.25
671.762	4.25
672.519	3.25
673.276	4.25
674.033	3.25
674.79	5.25
675.547	3.25
676.304	1.25
677.06	4.25
677.817	3.25
678.574	3.25
679.33	2.25
680.086	4.25
680.843	4.25
681.599	3.25
682.355	2.25
683.111	2.25
683.867	3.25
684.623	3.25
685.379	2.25
686.135	3.25
686.89	3.25
687.646	2.25
688.402	5.25
689.157	3.25
689.912	1.25
690.668	2.25
691.423	3.25
692.178	4.25
692.933	5.25
693.688	1.25
694.443	3.25
695.198	3.25
695.953	3.25
696.708	4.25
697.462	3.25
698.217	3.25
698.972	0.25
699.726	5.25
700.48	1.25
701.235	3.25
701.989	3.25
702.743	2.25
703.497	0.25
704.251	4.25
705.005	2.25
705.759	3.25
706.513	3.25
707.266	2.25
708.02	2.25
708.774	3.25
709.527	3.25
710.28	2.25
711.034	3.25
711.787	1.25
712.54	3.25
713.293	3.25
714.046	4.25
714.799	5.25
715.552	3.25
716.305	1.25
717.058	3.25
717.81	5.25
718.563	3.25
719.315	2.25
720.068	5.25
720.82	2.25
721.573	2.25
722.325	3.25
723.077	2.25
723.829	1.25
724.581	3.25
725.333	2.25
726.085	4.25
726.836	3.25
727.588	1.25
728.34	3.25
729.091	1.25
729.843	4.25
730.594	2.25
731.346	2.25
732.097	4.25
732.848	4.25
733.599	3.25
734.35	4.25
735.101	4.25
735.852	2.25
736.603	2.25
737.354	6.25
738.104	4.25
738.855	4.25
739.605	2.25
740.356	3.25
741.106	3.25
741.856	4.25
742.607	4.25
743.357	5.25
744.107	2.25
744.857	4.25
745.607	4.25
746.357	4.25
747.106	5.25
747.856	4.25
748.606	4.25
749.355	3.25
750.105	4.25
750.854	8.25
751.603	5.25
752.353	2.25
753.102	3.25
753.851	3.25
754.6	2.25
755.349	4.25
756.098	6.25
756.847	6.25
757.595	4.25
758.344	5.25
759.093	5.25
759.841	4.25
760.589	6.25
761.338	5.25
762.086	7.25
762.834	4.25
763.582	5.25
764.331	4.25
765.079	6.25
765.826	5.25
766.574	4.25
767.322	8.25
768.07	6.25
768.817	6.25
769.565	5.25
770.312	6.25
771.06	8.25
771.807	5.25
772.554	8.25
773.302	9.25
774.049	5.25
774.796	4.25
775.543	7.25
776.29	8.25
777.036	6.25
777.783	7.25
778.53	6.25
779.276	11.25
780.023	8.25
780.769	9.25
781.516	6.25
782.262	8.25
783.008	8.25
783.754	9.25
784.5	8.25
785.246	8.25
785.992	7.25
786.738	8.25
787.484	7.25
788.23	6.25
788.975	8.25
789.721	8.25
790.466	8.25
791.212	6.25
791.957	8.25
792.702	7.25
793.447	7.25
794.193	7.25
794.938	6.25
795.683	4.25
796.427	6.25
797.172	9.25
797.917	5.25
798.662	6.25
799.406	7.25
800.151	6.25
800.895	6.25
801.64	7.25
802.384	7.25
803.128	7.25
803.872	6.25
804.616	6.25
805.36	5.25
806.104	7.25
806.848	5.25
807.592	5.25
808.336	4.25
809.079	3.25
809.823	5.25
810.566	5.25
811.31	4.25
812.053	6.25
812.796	6.25
813.539	6.25
814.283	5.25
815.026	3.25
815.769	0.25
816.511	7.25
817.254	5.25
817.997	6.25
818.74	3.25
819.482	4.25
820.225	4.25
820.967	4.25
821.71	4.25
822.452	3.25
823.194	2.25
823.936	5.25
824.678	4.25
825.42	5.25
826.162	4.25
826.904	3.25
827.646	3.25
828.388	6.25
829.129	3.25
829.871	3.25
830.612	3.25
831.354	1.25
832.095	5.25
832.836	4.25
833.577	4.25
834.319	4.25
835.06	2.25
835.801	2.25
836.542	4.25
837.282	3.25
838.023	1.25
838.764	4.25
839.504	0.25
840.245	1.25
840.985	1.25
841.726	1.25
842.466	1.25
843.206	2.25
843.946	0.25
844.687	0.25
845.427	1.25
846.166	2.25
846.906	3.25
847.646	0.25
848.386	1.25
849.125	1.25
849.865	1.25
850.605	0.25
851.344	0.25
852.083	1.25
852.823	-0.75
853.562	3.25
854.301	0.25
855.04	0.25
855.779	2.25
856.518	3.25
857.257	2.25
857.995	0.25
858.734	1.25
859.473	2.25
860.211	4.25
860.95	1.25
861.688	3.25
862.426	2.25
863.165	0.25
863.903	2.25
864.641	1.25
865.379	0.25
866.117	1.25
866.855	-0.75
867.593	0.25
868.33	1.25
869.068	0.25
869.806	1.25
870.543	1.25
871.28	2.25
872.018	0.25
872.755	1.25
873.492	0.25
874.229	0.25
874.967	1.25
875.703	-0.75
876.44	-0.75
877.177	0.25
877.914	-1.75
878.651	1.25
879.387	0.25
880.124	1.25
880.86	0.25
881.597	1.25
882.333	-0.75
883.069	1.25
883.806	0.25
884.542	3.25
885.278	-0.75
886.014	0.25
886.749	-0.75
887.485	0.25
888.221	1.25
888.957	-0.75
889.692	0.25
890.428	1.25
891.163	-0.75
891.899	1.25
892.634	1.25
893.369	1.25
894.104	1.25
894.839	-1.75
895.574	2.25
896.309	-0.75
897.044	0.25
897.779	-0.75
898.514	-0.75
899.248	-0.75
899.983	-1.75
900.717	0.25
901.452	0.25
902.186	0.25
902.92	1.25
903.654	1.25
904.389	1.25
905.123	0.25
905.857	-0.75
906.59	0.25
907.324	0.25
908.058	0.25
908.792	0.25
909.525	1.25
910.259	-2.75
910.992	1.25
911.726	0.25
912.459	1.25
913.192	0.25
913.925	0.25
914.658	-0.75
915.391	2.25
916.124	1.25
916.857	-0.75
917.59	-0.75
918.323	1.25
919.055	0.25
919.788	-0.75
920.521	-1.75
921.253	0.25
921.985	-1.75
922.718	1.25
923.45	-0.75
924.182	-1.75
924.914	0.25
925.646	-0.75
926.378	-0.75
927.11	0.25
927.841	-3.75
928.573	-1.75
929.305	-1.75
930.036	-2.75
930.768	0.25
931.499	1.25
932.23	1.25
932.962	0.25
933.693	-1.75
934.424	-0.75
935.155	1.25
935.886	1.25
936.617	-0.75
937.348	-1.75
938.078	-1.75
938.809	-0.75
939.54	-1.75
940.27	-0.75
941.001	0.25
941.731	0.25
942.461	-0.75
943.191	0.25
943.922	1.25
944.652	-1.75
945.382	0.25
946.112	1.25
946.841	-0.75
947.571	0.25
948.301	0.25
949.031	0.25
949.76	-0.75
950.49	-0.75
951.219	1.25
951.948	-1.75
952.678	0.25
953.407	1.25
954.136	-0.75
954.865	-1.75
955.594	-1.75
956.323	1.25
957.052	-0.75
957.78	0.25
958.509	-0.75
959.238	-1.75
959.966	0.25
960.695	-0.75
961.423	-0.75
962.151	-1.75
962.88	0.25
963.608	1.25
964.336	-0.75
965.064	-1.75
965.792	-0.75
966.52	1.25
967.247	-0.75
967.975	0.25
968.703	-0.75
969.43	-0.75
970.158	-2.75
970.885	-0.75
971.613	1.25
972.34	-1.75
973.067	-0.75
973.794	2.25
974.521	-2.75
975.248	-1.75
975.975	0.25
976.702	-1.75
977.429	0.25
978.156	0.25
978.882	-0.75
979.609	-2.75
980.335	2.25
981.062	0.25
981.788	1.25
982.514	0.25
983.24	-2.75
983.967	0.25
984.693	0.25
985.419	-0.75
986.144	-1.75
986.87	1.25
987.596	-0.75
988.322	-0.75
989.047	0.25
989.773	-0.75
990.498	0.25
991.224	-0.75
991.949	0.25
992.674	-0.75
993.399	-1.75
994.124	-0.75
994.849	-1.75
995.574	1.25
996.299	0.25
997.024	0.25
997.749	-0.75
998.473	-2.75
999.198	0.25
999.922	-0.75
1000.647	-0.75
1001.371	4.25
1002.095	1.25
1002.82	0.25
1003.544	-2.75
1004.268	1.25
1004.992	-2.75
1005.716	1.25
1006.439	1.25
1007.163	3.25
1007.887	1.25
1008.611	1.25
1009.334	1.25
1010.058	1.25
1010.781	0.25
1011.504	1.25
1012.228	0.25
1012.951	2.25
1013.674	-1.75
1014.397	-2.75
1015.12	-0.75
