节点500_285_QEPB04081__829__15-09-20-736.txt的数据

Date: Wed Nov 12 15:09:20 CST 2025
User: PC
Spectrometer: QEPB0408
触发模式: 0
积分时间 (秒): 1.000000E-2
Scans to average: 1
启用暗噪声校正: true
启用非线性校正: false
滑动平均宽度: 0
X轴模式: Wavelengths
Number of Pixels in Spectrum: 1044
>>>>>Begin Spectral Data<<<<<
220.843	2
221.644	1
222.444	1
223.244	3
224.045	1
224.845	3
225.645	1
226.445	1
227.245	1
228.045	0
228.845	4
229.645	2
230.444	2
231.244	4
232.043	5
232.843	3
233.642	4
234.442	2
235.241	2
236.04	3
236.839	2
237.638	3
238.437	6
239.236	5
240.035	2
240.833	4
241.632	3
242.43	2
243.229	4
244.027	2
244.826	6
245.624	5
246.422	3
247.22	6
248.018	5
248.816	5
249.614	4
250.412	5
251.21	6
252.007	7
252.805	7
253.602	5
254.4	5
255.197	7
255.994	7
256.791	8
257.589	7
258.386	8
259.183	9
259.979	8
260.776	9
261.573	10
262.37	12
263.166	10
263.963	10
264.759	10
265.556	11
266.352	9
267.148	11
267.944	12
268.74	12
269.536	12
270.332	15
271.128	10
271.924	14
272.719	14
273.515	15
274.311	13
275.106	13
275.901	14
276.697	14
277.492	16
278.287	14
279.082	14
279.877	16
280.672	15
281.467	17
282.262	16
283.056	14
283.851	16
284.646	16
285.44	14
286.234	15
287.029	14
287.823	17
288.617	20
289.411	19
290.205	14
290.999	16
291.793	17
292.587	17
293.381	18
294.174	17
294.968	14
295.761	15
296.555	15
297.348	15
298.141	14
298.935	14
299.728	13
300.521	15
301.314	12
302.107	14
302.899	12
303.692	13
304.485	12
305.277	12
306.07	12
306.862	11
307.655	14
308.447	13
309.239	9
310.031	12
310.823	8
311.615	7
312.407	9
313.199	9
313.991	12
314.783	9
315.574	9
316.366	9
317.157	8
317.949	8
318.74	7
319.531	6
320.322	7
321.113	10
321.904	9
322.695	9
323.486	7
324.277	8
325.068	7
325.858	5
326.649	7
327.439	7
328.23	7
329.02	7
329.81	9
330.6	7
331.391	4
332.181	6
332.971	5
333.76	8
334.55	6
335.34	9
336.13	7
336.919	7
337.709	7
338.498	7
339.287	7
340.077	7
340.866	6
341.655	8
342.444	4
343.233	8
344.022	5
344.811	6
345.6	6
346.388	4
347.177	7
347.965	7
348.754	6
349.542	7
350.33	7
351.119	4
351.907	4
352.695	5
353.483	6
354.271	6
355.059	5
355.846	4
356.634	2
357.422	4
358.209	7
358.997	6
359.784	4
360.571	5
361.359	7
362.146	7
362.933	1
363.72	5
364.507	5
365.294	4
366.081	6
366.867	5
367.654	4
368.44	6
369.227	4
370.013	5
370.8	5
371.586	8
372.372	4
373.158	5
373.944	7
374.73	6
375.516	7
376.302	5
377.088	4
377.873	5
378.659	3
379.445	6
380.23	7
381.015	6
381.801	7
382.586	6
383.371	2
384.156	5
384.941	3
385.726	7
386.511	4
387.296	6
388.08	4
388.865	5
389.649	7
390.434	5
391.218	7
392.003	8
392.787	6
393.571	5
394.355	5
395.139	7
395.923	9
396.707	6
397.491	5
398.274	7
399.058	6
399.842	5
400.625	4
401.408	6
402.192	7
402.975	8
403.758	6
404.541	8
405.324	6
406.107	7
406.89	8
407.673	8
408.456	9
409.238	6
410.021	8
410.803	9
411.586	7
412.368	8
413.151	7
413.933	11
414.715	7
415.497	10
416.279	8
417.061	13
417.843	7
418.624	8
419.406	13
420.188	9
420.969	10
421.751	9
422.532	7
423.313	10
424.095	10
424.876	13
425.657	13
426.438	13
427.219	11
428	12
428.78	10
429.561	12
430.342	12
431.122	12
431.903	14
432.683	14
433.464	14
434.244	16
435.024	14
435.804	17
436.584	18
437.364	21
438.144	19
438.924	23
439.704	23
440.483	22
441.263	25
442.042	27
442.822	30
443.601	30
444.38	30
445.16	36
445.939	34
446.718	40
447.497	43
448.276	46
449.054	49
449.833	55
450.612	57
451.391	61
452.169	70
452.948	77
453.726	84
454.504	86
455.282	101
456.061	112
456.839	121
457.617	142
458.395	158
459.172	166
459.95	194
460.728	204
461.506	237
462.283	267
463.061	287
463.838	327
464.615	361
465.393	392
466.17	442
466.947	495
467.724	545
468.501	601
469.278	667
470.055	748
470.831	812
471.608	923
472.385	1006
473.161	1107
473.938	1217
474.714	1338
475.49	1460
476.266	1587
477.043	1767
477.819	1920
478.595	2123
479.371	2338
480.146	2557
480.922	2794
481.698	3032
482.473	3348
483.249	3638
484.024	3956
484.8	4326
485.575	4719
486.35	5093
487.126	5574
487.901	6047
488.676	6609
489.451	7175
490.225	7781
491	8456
491.775	9212
492.55	9984
493.324	10727
494.099	11543
494.873	12396
495.647	13286
496.422	14273
497.196	15272
497.97	16165
498.744	17290
499.518	18233
500.292	19330
501.066	20293
501.839	21223
502.613	22142
503.387	22942
504.16	23597
504.934	24149
505.707	24487
506.48	24750
507.253	24923
508.027	24975
508.8	24904
509.573	24798
510.346	24481
511.118	23950
511.891	23455
512.664	22831
513.437	22121
514.209	21328
514.982	20718
515.754	19837
516.526	19049
517.298	18367
518.071	17581
518.843	16948
519.615	16290
520.387	15693
521.159	15030
521.93	14441
522.702	13891
523.474	13287
524.245	12733
525.017	12240
525.788	11761
526.56	11253
527.331	10755
528.102	10259
528.873	9852
529.644	9350
530.415	9009
531.186	8535
531.957	8120
532.728	7719
533.498	7355
534.269	6973
535.039	6600
535.81	6261
536.58	5907
537.351	5578
538.121	5261
538.891	4982
539.661	4727
540.431	4495
541.201	4200
541.971	3994
542.741	3794
543.51	3621
544.28	3432
545.05	3256
545.819	3107
546.588	2958
547.358	2812
548.127	2653
548.896	2537
549.665	2412
550.434	2277
551.203	2145
551.972	2057
552.741	1942
553.51	1837
554.278	1733
555.047	1627
555.815	1557
556.584	1468
557.352	1377
558.121	1309
558.889	1250
559.657	1175
560.425	1108
561.193	1052
561.961	978
562.729	933
563.496	885
564.264	834
565.032	786
565.799	739
566.567	708
567.334	676
568.101	630
568.869	597
569.636	561
570.403	525
571.17	500
571.937	464
572.704	438
573.471	424
574.237	392
575.004	369
575.771	353
576.537	332
577.303	309
578.07	300
578.836	274
579.602	266
580.368	245
581.134	236
581.9	221
582.666	208
583.432	202
584.198	187
584.964	176
585.729	173
586.495	156
587.26	154
588.025	143
588.791	132
589.556	130
590.321	123
591.086	118
591.851	112
592.616	108
593.381	99
594.146	89
594.911	90
595.675	82
596.44	79
597.204	76
597.969	75
598.733	72
599.497	69
600.261	64
601.025	61
601.79	58
602.553	58
603.317	54
604.081	54
604.845	52
605.609	48
606.372	48
607.136	39
607.899	43
608.662	40
609.426	36
610.189	36
610.952	37
611.715	33
612.478	36
613.241	32
614.004	26
614.767	30
615.529	29
616.292	27
617.055	27
617.817	24
618.579	25
619.342	23
620.104	24
620.866	21
621.628	23
622.39	22
623.152	18
623.914	21
624.676	19
625.438	17
626.199	19
626.961	17
627.722	14
628.484	16
629.245	12
630.006	11
630.768	16
631.529	13
632.29	12
633.051	16
633.812	14
634.573	12
635.333	12
636.094	12
636.855	10
637.615	12
638.376	10
639.136	11
639.896	8
640.657	9
641.417	8
642.177	9
642.937	8
643.697	9
644.457	8
645.216	10
645.976	8
646.736	6
647.495	8
648.255	6
649.014	9
649.774	8
650.533	6
651.292	7
652.051	4
652.81	9
653.569	6
654.328	8
655.087	7
655.846	7
656.604	9
657.363	6
658.121	6
658.88	4
659.638	6
660.397	7
661.155	5
661.913	6
662.671	5
663.429	7
664.187	5
664.945	4
665.703	4
666.46	5
667.218	5
667.976	5
668.733	5
669.49	6
670.248	5
671.005	5
671.762	4
672.519	7
673.276	2
674.033	5
674.79	4
675.547	6
676.304	4
677.06	6
677.817	3
678.574	2
679.33	6
680.086	1
680.843	5
681.599	3
682.355	1
683.111	4
683.867	5
684.623	5
685.379	4
686.135	3
686.89	2
687.646	4
688.402	5
689.157	4
689.912	4
690.668	3
691.423	3
692.178	4
692.933	4
693.688	5
694.443	1
695.198	4
695.953	5
696.708	5
697.462	4
698.217	2
698.972	4
699.726	5
700.48	2
701.235	6
701.989	2
702.743	5
703.497	3
704.251	3
705.005	2
705.759	3
706.513	4
707.266	3
708.02	3
708.774	4
709.527	3
710.28	3
711.034	2
711.787	4
712.54	3
713.293	4
714.046	2
714.799	2
715.552	3
716.305	3
717.058	6
717.81	4
718.563	5
719.315	5
720.068	7
720.82	5
721.573	3
722.325	5
723.077	1
723.829	4
724.581	4
725.333	4
726.085	6
726.836	4
727.588	3
728.34	3
729.091	8
729.843	5
730.594	4
731.346	4
732.097	3
732.848	4
733.599	2
734.35	5
735.101	4
735.852	4
736.603	5
737.354	3
738.104	5
738.855	4
739.605	5
740.356	6
741.106	4
741.856	5
742.607	3
743.357	4
744.107	4
744.857	5
745.607	5
746.357	3
747.106	8
747.856	6
748.606	4
749.355	3
750.105	4
750.854	5
751.603	7
752.353	6
753.102	3
753.851	5
754.6	4
755.349	6
756.098	4
756.847	4
757.595	5
758.344	5
759.093	5
759.841	3
760.589	4
761.338	6
762.086	5
762.834	7
763.582	3
764.331	5
765.079	6
765.826	6
766.574	8
767.322	6
768.07	7
768.817	5
769.565	5
770.312	9
771.06	6
771.807	6
772.554	7
773.302	6
774.049	7
774.796	8
775.543	8
776.29	8
777.036	8
777.783	7
778.53	4
779.276	8
780.023	8
780.769	8
781.516	8
782.262	7
783.008	8
783.754	6
784.5	6
785.246	8
785.992	10
786.738	7
787.484	7
788.23	9
788.975	8
789.721	9
790.466	6
791.212	10
791.957	6
792.702	7
793.447	9
794.193	6
794.938	6
795.683	7
796.427	8
797.172	7
797.917	7
798.662	8
799.406	8
800.151	8
800.895	6
801.64	8
802.384	6
803.128	9
803.872	9
804.616	5
805.36	9
806.104	4
806.848	8
807.592	7
808.336	6
809.079	4
809.823	3
810.566	7
811.31	5
812.053	5
812.796	6
813.539	7
814.283	7
815.026	5
815.769	6
816.511	4
817.254	6
817.997	4
818.74	4
819.482	5
820.225	3
820.967	5
821.71	6
822.452	5
823.194	5
823.936	3
824.678	4
825.42	5
826.162	4
826.904	2
827.646	6
828.388	1
829.129	4
829.871	6
830.612	5
831.354	4
832.095	4
832.836	2
833.577	5
834.319	2
835.06	4
835.801	5
836.542	4
837.282	2
838.023	4
838.764	5
839.504	4
840.245	6
840.985	2
841.726	4
842.466	3
843.206	4
843.946	2
844.687	3
845.427	5
846.166	4
846.906	2
847.646	5
848.386	4
849.125	5
849.865	5
850.605	3
851.344	3
852.083	2
852.823	4
853.562	3
854.301	4
855.04	2
855.779	4
856.518	2
857.257	3
857.995	4
858.734	3
859.473	2
860.211	3
860.95	4
861.688	4
862.426	5
863.165	2
863.903	2
864.641	4
865.379	1
866.117	0
866.855	2
867.593	2
868.33	4
869.068	4
869.806	2
870.543	2
871.28	5
872.018	2
872.755	2
873.492	2
874.229	3
874.967	2
875.703	1
876.44	0
877.177	0
877.914	-2
878.651	2
879.387	1
880.124	2
880.86	1
881.597	3
882.333	3
883.069	2
883.806	1
884.542	1
885.278	3
886.014	2
886.749	0
887.485	3
888.221	0
888.957	2
889.692	2
890.428	1
891.163	0
891.899	2
892.634	2
893.369	1
894.104	-1
894.839	1
895.574	0
896.309	0
897.044	0
897.779	0
898.514	1
899.248	1
899.983	1
900.717	0
901.452	2
902.186	1
902.92	1
903.654	2
904.389	1
905.123	1
905.857	1
906.59	-1
907.324	0
908.058	0
908.792	0
909.525	1
910.259	1
910.992	-1
911.726	-1
912.459	0
913.192	0
913.925	1
914.658	-1
915.391	0
916.124	1
916.857	1
917.59	0
918.323	0
919.055	1
919.788	2
920.521	1
921.253	1
921.985	3
922.718	-1
923.45	1
924.182	-1
924.914	0
925.646	0
926.378	1
927.11	1
927.841	3
928.573	0
929.305	-2
930.036	1
930.768	1
931.499	-2
932.23	2
932.962	2
933.693	0
934.424	1
935.155	2
935.886	3
936.617	1
937.348	2
938.078	0
938.809	-1
939.54	0
940.27	-3
941.001	0
941.731	-1
942.461	1
943.191	1
943.922	1
944.652	1
945.382	1
946.112	-1
946.841	0
947.571	0
948.301	0
949.031	1
949.76	0
950.49	1
951.219	-1
951.948	-2
952.678	0
953.407	1
954.136	2
954.865	0
955.594	-2
956.323	0
957.052	0
957.78	1
958.509	0
959.238	-2
959.966	0
960.695	0
961.423	0
962.151	-1
962.88	-1
963.608	-1
964.336	-2
965.064	1
965.792	1
966.52	0
967.247	-1
967.975	-2
968.703	2
969.43	-1
970.158	-1
970.885	2
971.613	2
972.34	1
973.067	-1
973.794	0
974.521	-1
975.248	2
975.975	0
976.702	0
977.429	0
978.156	1
978.882	-1
979.609	0
980.335	-1
981.062	0
981.788	1
982.514	-1
983.24	0
983.967	2
984.693	1
985.419	2
986.144	1
986.87	-1
987.596	0
988.322	1
989.047	1
989.773	-2
990.498	3
991.224	0
991.949	1
992.674	3
993.399	-2
994.124	2
994.849	2
995.574	-1
996.299	0
997.024	0
997.749	-2
998.473	-1
999.198	0
999.922	2
1000.647	1
1001.371	5
1002.095	1
1002.82	-3
1003.544	-2
1004.268	2
1004.992	-1
1005.716	1
1006.439	1
1007.163	3
1007.887	0
1008.611	1
1009.334	-2
1010.058	-1
1010.781	-3
1011.504	1
1012.228	0
1012.951	-1
1013.674	0
1014.397	-1
1015.12	1
