节点500_285_QEPB04081__448__15-03-00-544.txt的数据

Date: Wed Nov 12 15:03:00 CST 2025
User: PC
Spectrometer: QEPB0408
触发模式: 0
积分时间 (秒): 1.000000E-2
Scans to average: 1
启用暗噪声校正: true
启用非线性校正: false
滑动平均宽度: 0
X轴模式: Wavelengths
Number of Pixels in Spectrum: 1044
>>>>>Begin Spectral Data<<<<<
220.843	0.62
221.644	4.62
222.444	4.62
223.244	4.62
224.045	1.62
224.845	1.62
225.645	1.62
226.445	5.62
227.245	2.62
228.045	2.62
228.845	3.62
229.645	2.62
230.444	4.62
231.244	2.62
232.043	1.62
232.843	6.62
233.642	4.62
234.442	4.62
235.241	3.62
236.04	5.62
236.839	7.62
237.638	4.62
238.437	5.62
239.236	2.62
240.035	4.62
240.833	4.62
241.632	6.62
242.43	4.62
243.229	6.62
244.027	4.62
244.826	5.62
245.624	8.62
246.422	6.62
247.22	5.62
248.018	4.62
248.816	5.62
249.614	6.62
250.412	5.62
251.21	7.62
252.007	6.62
252.805	7.62
253.602	9.62
254.4	6.62
255.197	9.62
255.994	10.62
256.791	10.62
257.589	10.62
258.386	8.62
259.183	9.62
259.979	9.62
260.776	10.62
261.573	11.62
262.37	9.62
263.166	12.62
263.963	12.62
264.759	10.62
265.556	11.62
266.352	14.62
267.148	14.62
267.944	14.62
268.74	13.62
269.536	13.62
270.332	17.62
271.128	17.62
271.924	15.62
272.719	18.62
273.515	17.62
274.311	16.62
275.106	16.62
275.901	16.62
276.697	17.62
277.492	19.62
278.287	20.62
279.082	16.62
279.877	18.62
280.672	17.62
281.467	16.62
282.262	19.62
283.056	18.62
283.851	19.62
284.646	15.62
285.44	21.62
286.234	18.62
287.029	19.62
287.823	18.62
288.617	21.62
289.411	16.62
290.205	16.62
290.999	19.62
291.793	15.62
292.587	19.62
293.381	15.62
294.174	17.62
294.968	19.62
295.761	18.62
296.555	17.62
297.348	13.62
298.141	14.62
298.935	19.62
299.728	16.62
300.521	13.62
301.314	13.62
302.107	15.62
302.899	14.62
303.692	17.62
304.485	13.62
305.277	12.62
306.07	13.62
306.862	12.62
307.655	11.62
308.447	12.62
309.239	13.62
310.031	13.62
310.823	12.62
311.615	10.62
312.407	10.62
313.199	11.62
313.991	10.62
314.783	10.62
315.574	8.62
316.366	8.62
317.157	9.62
317.949	10.62
318.74	10.62
319.531	10.62
320.322	9.62
321.113	9.62
321.904	7.62
322.695	7.62
323.486	10.62
324.277	7.62
325.068	6.62
325.858	6.62
326.649	8.62
327.439	8.62
328.23	8.62
329.02	7.62
329.81	7.62
330.6	9.62
331.391	5.62
332.181	9.62
332.971	7.62
333.76	8.62
334.55	8.62
335.34	6.62
336.13	8.62
336.919	7.62
337.709	6.62
338.498	5.62
339.287	9.62
340.077	9.62
340.866	5.62
341.655	5.62
342.444	7.62
343.233	9.62
344.022	8.62
344.811	8.62
345.6	9.62
346.388	7.62
347.177	5.62
347.965	8.62
348.754	6.62
349.542	7.62
350.33	5.62
351.119	5.62
351.907	6.62
352.695	8.62
353.483	5.62
354.271	8.62
355.059	8.62
355.846	7.62
356.634	5.62
357.422	4.62
358.209	6.62
358.997	4.62
359.784	5.62
360.571	6.62
361.359	6.62
362.146	5.62
362.933	6.62
363.72	6.62
364.507	5.62
365.294	4.62
366.081	6.62
366.867	6.62
367.654	4.62
368.44	5.62
369.227	6.62
370.013	6.62
370.8	3.62
371.586	4.62
372.372	2.62
373.158	7.62
373.944	5.62
374.73	5.62
375.516	6.62
376.302	4.62
377.088	4.62
377.873	6.62
378.659	6.62
379.445	5.62
380.23	4.62
381.015	5.62
381.801	3.62
382.586	7.62
383.371	5.62
384.156	6.62
384.941	7.62
385.726	5.62
386.511	7.62
387.296	5.62
388.08	6.62
388.865	7.62
389.649	3.62
390.434	6.62
391.218	7.62
392.003	4.62
392.787	6.62
393.571	5.62
394.355	5.62
395.139	5.62
395.923	5.62
396.707	6.62
397.491	6.62
398.274	6.62
399.058	6.62
399.842	9.62
400.625	5.62
401.408	7.62
402.192	8.62
402.975	10.62
403.758	7.62
404.541	7.62
405.324	9.62
406.107	5.62
406.89	7.62
407.673	6.62
408.456	5.62
409.238	9.62
410.021	8.62
410.803	8.62
411.586	7.62
412.368	8.62
413.151	8.62
413.933	7.62
414.715	8.62
415.497	9.62
416.279	9.62
417.061	10.62
417.843	11.62
418.624	10.62
419.406	9.62
420.188	8.62
420.969	9.62
421.751	12.62
422.532	11.62
423.313	10.62
424.095	12.62
424.876	12.62
425.657	12.62
426.438	14.62
427.219	14.62
428	11.62
428.78	12.62
429.561	14.62
430.342	10.62
431.122	16.62
431.903	12.62
432.683	14.62
433.464	17.62
434.244	17.62
435.024	17.62
435.804	18.62
436.584	17.62
437.364	19.62
438.144	19.62
438.924	22.62
439.704	20.62
440.483	22.62
441.263	20.62
442.042	25.62
442.822	22.62
443.601	29.62
444.38	28.62
445.16	34.62
445.939	35.62
446.718	37.62
447.497	39.62
448.276	45.62
449.054	44.62
449.833	50.62
450.612	51.62
451.391	59.62
452.169	62.62
452.948	67.62
453.726	74.62
454.504	82.62
455.282	93.62
456.061	99.62
456.839	114.62
457.617	126.62
458.395	142.62
459.172	157.62
459.95	169.62
460.728	192.62
461.506	210.62
462.283	235.62
463.061	265.62
463.838	295.62
464.615	333.62
465.393	369.62
466.17	408.62
466.947	458.62
467.724	507.62
468.501	574.62
469.278	627.62
470.055	702.62
470.831	778.62
471.608	878.62
472.385	965.62
473.161	1082.62
473.938	1187.62
474.714	1296.62
475.49	1447.62
476.266	1602.62
477.043	1749.62
477.819	1927.62
478.595	2135.62
479.371	2367.62
480.146	2612.62
480.922	2848.62
481.698	3132.62
482.473	3428.62
483.249	3788.62
484.024	4164.62
484.8	4552.62
485.575	4987.62
486.35	5509.62
487.126	6014.62
487.901	6584.62
488.676	7231.62
489.451	7886.62
490.225	8598.62
491	9400.62
491.775	10252.62
492.55	11186.62
493.324	12106.62
494.099	12987.62
494.873	14016.62
495.647	15138.62
496.422	16202.62
497.196	17350.62
497.97	18500.62
498.744	19719.62
499.518	20772.62
500.292	21915.62
501.066	23000.62
501.839	23948.62
502.613	24826.62
503.387	25702.62
504.16	26238.62
504.934	26698.62
505.707	26917.62
506.48	27009.62
507.253	26984.62
508.027	26826.62
508.8	26558.62
509.573	26066.62
510.346	25562.62
511.118	24861.62
511.891	24135.62
512.664	23381.62
513.437	22462.62
514.209	21639.62
514.982	20753.62
515.754	19891.62
516.526	19009.62
517.298	18149.62
518.071	17309.62
518.843	16708.62
519.615	16125.62
520.387	15430.62
521.159	14778.62
521.93	14218.62
522.702	13666.62
523.474	13084.62
524.245	12536.62
525.017	11999.62
525.788	11541.62
526.56	11031.62
527.331	10539.62
528.102	10066.62
528.873	9599.62
529.644	9089.62
530.415	8651.62
531.186	8264.62
531.957	7826.62
532.728	7434.62
533.498	7041.62
534.269	6654.62
535.039	6305.62
535.81	5941.62
536.58	5640.62
537.351	5313.62
538.121	5029.62
538.891	4740.62
539.661	4493.62
540.431	4235.62
541.201	4020.62
541.971	3781.62
542.741	3600.62
543.51	3424.62
544.28	3243.62
545.05	3095.62
545.819	2948.62
546.588	2784.62
547.358	2659.62
548.127	2537.62
548.896	2384.62
549.665	2269.62
550.434	2140.62
551.203	2038.62
551.972	1921.62
552.741	1822.62
553.51	1724.62
554.278	1623.62
555.047	1545.62
555.815	1446.62
556.584	1376.62
557.352	1295.62
558.121	1224.62
558.889	1147.62
559.657	1090.62
560.425	1033.62
561.193	977.62
561.961	928.62
562.729	881.62
563.496	819.62
564.264	761.62
565.032	737.62
565.799	701.62
566.567	650.62
567.334	633.62
568.101	588.62
568.869	555.62
569.636	511.62
570.403	487.62
571.17	466.62
571.937	441.62
572.704	407.62
573.471	385.62
574.237	362.62
575.004	342.62
575.771	323.62
576.537	303.62
577.303	289.62
578.07	269.62
578.836	254.62
579.602	238.62
580.368	226.62
581.134	214.62
581.9	209.62
582.666	195.62
583.432	183.62
584.198	177.62
584.964	164.62
585.729	161.62
586.495	147.62
587.26	138.62
588.025	133.62
588.791	123.62
589.556	119.62
590.321	115.62
591.086	109.62
591.851	104.62
592.616	94.62
593.381	93.62
594.146	88.62
594.911	85.62
595.675	81.62
596.44	79.62
597.204	73.62
597.969	67.62
598.733	67.62
599.497	64.62
600.261	63.62
601.025	58.62
601.79	56.62
602.553	54.62
603.317	53.62
604.081	46.62
604.845	44.62
605.609	45.62
606.372	45.62
607.136	44.62
607.899	41.62
608.662	35.62
609.426	38.62
610.189	36.62
610.952	34.62
611.715	34.62
612.478	33.62
613.241	28.62
614.004	29.62
614.767	28.62
615.529	26.62
616.292	28.62
617.055	23.62
617.817	23.62
618.579	25.62
619.342	21.62
620.104	24.62
620.866	22.62
621.628	21.62
622.39	18.62
623.152	21.62
623.914	20.62
624.676	16.62
625.438	21.62
626.199	18.62
626.961	16.62
627.722	17.62
628.484	16.62
629.245	17.62
630.006	13.62
630.768	12.62
631.529	11.62
632.29	11.62
633.051	13.62
633.812	11.62
634.573	13.62
635.333	13.62
636.094	11.62
636.855	12.62
637.615	11.62
638.376	12.62
639.136	12.62
639.896	11.62
640.657	11.62
641.417	9.62
642.177	10.62
642.937	6.62
643.697	12.62
644.457	10.62
645.216	8.62
645.976	8.62
646.736	7.62
647.495	8.62
648.255	8.62
649.014	8.62
649.774	10.62
650.533	8.62
651.292	9.62
652.051	6.62
652.81	7.62
653.569	6.62
654.328	7.62
655.087	7.62
655.846	7.62
656.604	5.62
657.363	5.62
658.121	8.62
658.88	4.62
659.638	6.62
660.397	7.62
661.155	6.62
661.913	5.62
662.671	5.62
663.429	3.62
664.187	6.62
664.945	4.62
665.703	5.62
666.46	5.62
667.218	7.62
667.976	3.62
668.733	6.62
669.49	5.62
670.248	2.62
671.005	7.62
671.762	5.62
672.519	5.62
673.276	6.62
674.033	5.62
674.79	4.62
675.547	4.62
676.304	5.62
677.06	5.62
677.817	4.62
678.574	2.62
679.33	3.62
680.086	7.62
680.843	4.62
681.599	6.62
682.355	4.62
683.111	5.62
683.867	5.62
684.623	7.62
685.379	5.62
686.135	2.62
686.89	8.62
687.646	5.62
688.402	3.62
689.157	5.62
689.912	2.62
690.668	5.62
691.423	4.62
692.178	4.62
692.933	5.62
693.688	5.62
694.443	4.62
695.198	3.62
695.953	4.62
696.708	3.62
697.462	3.62
698.217	4.62
698.972	5.62
699.726	3.62
700.48	6.62
701.235	4.62
701.989	4.62
702.743	4.62
703.497	5.62
704.251	2.62
705.005	4.62
705.759	2.62
706.513	4.62
707.266	5.62
708.02	0.62
708.774	4.62
709.527	3.62
710.28	4.62
711.034	4.62
711.787	3.62
712.54	3.62
713.293	3.62
714.046	4.62
714.799	4.62
715.552	5.62
716.305	4.62
717.058	2.62
717.81	4.62
718.563	3.62
719.315	5.62
720.068	4.62
720.82	5.62
721.573	4.62
722.325	4.62
723.077	3.62
723.829	2.62
724.581	4.62
725.333	1.62
726.085	4.62
726.836	4.62
727.588	1.62
728.34	5.62
729.091	4.62
729.843	6.62
730.594	5.62
731.346	4.62
732.097	2.62
732.848	1.62
733.599	6.62
734.35	3.62
735.101	4.62
735.852	4.62
736.603	4.62
737.354	5.62
738.104	5.62
738.855	3.62
739.605	6.62
740.356	5.62
741.106	6.62
741.856	2.62
742.607	4.62
743.357	4.62
744.107	6.62
744.857	5.62
745.607	4.62
746.357	6.62
747.106	2.62
747.856	8.62
748.606	5.62
749.355	5.62
750.105	6.62
750.854	4.62
751.603	7.62
752.353	5.62
753.102	7.62
753.851	5.62
754.6	6.62
755.349	5.62
756.098	4.62
756.847	7.62
757.595	7.62
758.344	7.62
759.093	7.62
759.841	7.62
760.589	7.62
761.338	8.62
762.086	9.62
762.834	6.62
763.582	4.62
764.331	9.62
765.079	7.62
765.826	10.62
766.574	9.62
767.322	7.62
768.07	9.62
768.817	6.62
769.565	6.62
770.312	7.62
771.06	7.62
771.807	7.62
772.554	9.62
773.302	7.62
774.049	7.62
774.796	7.62
775.543	8.62
776.29	10.62
777.036	10.62
777.783	9.62
778.53	8.62
779.276	7.62
780.023	8.62
780.769	8.62
781.516	9.62
782.262	8.62
783.008	9.62
783.754	7.62
784.5	6.62
785.246	11.62
785.992	10.62
786.738	9.62
787.484	8.62
788.23	10.62
788.975	8.62
789.721	9.62
790.466	6.62
791.212	9.62
791.957	9.62
792.702	9.62
793.447	8.62
794.193	9.62
794.938	9.62
795.683	11.62
796.427	7.62
797.172	8.62
797.917	7.62
798.662	9.62
799.406	7.62
800.151	5.62
800.895	7.62
801.64	9.62
802.384	5.62
803.128	7.62
803.872	4.62
804.616	8.62
805.36	7.62
806.104	10.62
806.848	4.62
807.592	5.62
808.336	8.62
809.079	4.62
809.823	6.62
810.566	7.62
811.31	6.62
812.053	4.62
812.796	6.62
813.539	7.62
814.283	4.62
815.026	6.62
815.769	6.62
816.511	7.62
817.254	8.62
817.997	6.62
818.74	7.62
819.482	4.62
820.225	5.62
820.967	5.62
821.71	5.62
822.452	6.62
823.194	3.62
823.936	5.62
824.678	6.62
825.42	4.62
826.162	6.62
826.904	4.62
827.646	4.62
828.388	2.62
829.129	5.62
829.871	5.62
830.612	4.62
831.354	3.62
832.095	3.62
832.836	2.62
833.577	3.62
834.319	4.62
835.06	2.62
835.801	1.62
836.542	2.62
837.282	5.62
838.023	3.62
838.764	4.62
839.504	3.62
840.245	4.62
840.985	3.62
841.726	4.62
842.466	3.62
843.206	3.62
843.946	5.62
844.687	3.62
845.427	3.62
846.166	3.62
846.906	3.62
847.646	5.62
848.386	2.62
849.125	1.62
849.865	4.62
850.605	2.62
851.344	3.62
852.083	6.62
852.823	4.62
853.562	2.62
854.301	1.62
855.04	2.62
855.779	3.62
856.518	2.62
857.257	1.62
857.995	4.62
858.734	0.62
859.473	3.62
860.211	1.62
860.95	2.62
861.688	1.62
862.426	3.62
863.165	2.62
863.903	2.62
864.641	2.62
865.379	2.62
866.117	-0.38
866.855	1.62
867.593	3.62
868.33	3.62
869.068	1.62
869.806	-0.38
870.543	1.62
871.28	2.62
872.018	3.62
872.755	3.62
873.492	2.62
874.229	2.62
874.967	1.62
875.703	2.62
876.44	3.62
877.177	0.62
877.914	0.62
878.651	0.62
879.387	1.62
880.124	1.62
880.86	1.62
881.597	2.62
882.333	1.62
883.069	2.62
883.806	2.62
884.542	2.62
885.278	2.62
886.014	1.62
886.749	1.62
887.485	1.62
888.221	0.62
888.957	4.62
889.692	0.62
890.428	2.62
891.163	2.62
891.899	1.62
892.634	4.62
893.369	0.62
894.104	1.62
894.839	1.62
895.574	1.62
896.309	1.62
897.044	0.62
897.779	1.62
898.514	0.62
899.248	1.62
899.983	0.62
900.717	1.62
901.452	2.62
902.186	0.62
902.92	0.62
903.654	0.62
904.389	2.62
905.123	-1.38
905.857	1.62
906.59	1.62
907.324	1.62
908.058	2.62
908.792	-1.38
909.525	1.62
910.259	1.62
910.992	2.62
911.726	0.62
912.459	1.62
913.192	-0.38
913.925	-0.38
914.658	0.62
915.391	0.62
916.124	2.62
916.857	1.62
917.59	0.62
918.323	2.62
919.055	1.62
919.788	-0.38
920.521	0.62
921.253	3.62
921.985	0.62
922.718	0.62
923.45	0.62
924.182	-1.38
924.914	1.62
925.646	2.62
926.378	-0.38
927.11	1.62
927.841	1.62
928.573	-0.38
929.305	1.62
930.036	2.62
930.768	0.62
931.499	2.62
932.23	2.62
932.962	2.62
933.693	1.62
934.424	1.62
935.155	0.62
935.886	2.62
936.617	1.62
937.348	0.62
938.078	0.62
938.809	0.62
939.54	-1.38
940.27	1.62
941.001	1.62
941.731	2.62
942.461	0.62
943.191	0.62
943.922	1.62
944.652	0.62
945.382	0.62
946.112	2.62
946.841	1.62
947.571	-1.38
948.301	0.62
949.031	1.62
949.76	-1.38
950.49	-1.38
951.219	1.62
951.948	2.62
952.678	0.62
953.407	2.62
954.136	1.62
954.865	1.62
955.594	-0.38
956.323	2.62
957.052	2.62
957.78	0.62
958.509	0.62
959.238	-2.38
959.966	3.62
960.695	1.62
961.423	1.62
962.151	1.62
962.88	1.62
963.608	2.62
964.336	0.62
965.064	-1.38
965.792	0.62
966.52	-0.38
967.247	0.62
967.975	1.62
968.703	1.62
969.43	1.62
970.158	2.62
970.885	5.62
971.613	0.62
972.34	0.62
973.067	1.62
973.794	2.62
974.521	-1.38
975.248	1.62
975.975	1.62
976.702	0.62
977.429	1.62
978.156	2.62
978.882	2.62
979.609	0.62
980.335	-0.38
981.062	-0.38
981.788	-0.38
982.514	1.62
983.24	0.62
983.967	-2.38
984.693	0.62
985.419	-1.38
986.144	0.62
986.87	2.62
987.596	3.62
988.322	1.62
989.047	0.62
989.773	-1.38
990.498	2.62
991.224	2.62
991.949	0.62
992.674	2.62
993.399	-0.38
994.124	1.62
994.849	0.62
995.574	0.62
996.299	1.62
997.024	1.62
997.749	-0.38
998.473	0.62
999.198	1.62
999.922	-0.38
1000.647	-0.38
1001.371	3.62
1002.095	-0.38
1002.82	-2.38
1003.544	-1.38
1004.268	1.62
1004.992	1.62
1005.716	3.62
1006.439	0.62
1007.163	2.62
1007.887	0.62
1008.611	1.62
1009.334	2.62
1010.058	-1.38
1010.781	1.62
1011.504	0.62
1012.228	1.62
1012.951	0.62
1013.674	1.62
1014.397	-0.38
1015.12	-1.38
