节点500_285_QEPB04081__156__14-58-09-189.txt的数据

Date: Wed Nov 12 14:58:09 CST 2025
User: PC
Spectrometer: QEPB0408
触发模式: 0
积分时间 (秒): 1.000000E-2
Scans to average: 1
启用暗噪声校正: true
启用非线性校正: false
滑动平均宽度: 0
X轴模式: Wavelengths
Number of Pixels in Spectrum: 1044
>>>>>Begin Spectral Data<<<<<
220.843	1.5
221.644	0.5
222.444	1.5
223.244	0.5
224.045	0.5
224.845	0.5
225.645	1.5
226.445	0.5
227.245	3.5
228.045	2.5
228.845	3.5
229.645	1.5
230.444	0.5
231.244	2.5
232.043	-0.5
232.843	1.5
233.642	6.5
234.442	4.5
235.241	4.5
236.04	1.5
236.839	3.5
237.638	4.5
238.437	4.5
239.236	5.5
240.035	3.5
240.833	5.5
241.632	2.5
242.43	4.5
243.229	5.5
244.027	2.5
244.826	6.5
245.624	3.5
246.422	4.5
247.22	5.5
248.018	2.5
248.816	5.5
249.614	6.5
250.412	6.5
251.21	6.5
252.007	5.5
252.805	8.5
253.602	5.5
254.4	6.5
255.197	6.5
255.994	8.5
256.791	6.5
257.589	9.5
258.386	9.5
259.183	10.5
259.979	8.5
260.776	8.5
261.573	8.5
262.37	9.5
263.166	12.5
263.963	11.5
264.759	11.5
265.556	13.5
266.352	12.5
267.148	15.5
267.944	11.5
268.74	11.5
269.536	11.5
270.332	14.5
271.128	16.5
271.924	15.5
272.719	14.5
273.515	13.5
274.311	14.5
275.106	17.5
275.901	17.5
276.697	18.5
277.492	16.5
278.287	19.5
279.082	17.5
279.877	17.5
280.672	21.5
281.467	19.5
282.262	18.5
283.056	20.5
283.851	17.5
284.646	19.5
285.44	19.5
286.234	20.5
287.029	20.5
287.823	19.5
288.617	20.5
289.411	15.5
290.205	18.5
290.999	15.5
291.793	15.5
292.587	18.5
293.381	13.5
294.174	16.5
294.968	17.5
295.761	16.5
296.555	17.5
297.348	12.5
298.141	14.5
298.935	15.5
299.728	16.5
300.521	13.5
301.314	13.5
302.107	12.5
302.899	12.5
303.692	12.5
304.485	11.5
305.277	13.5
306.07	11.5
306.862	12.5
307.655	13.5
308.447	9.5
309.239	12.5
310.031	10.5
310.823	9.5
311.615	10.5
312.407	8.5
313.199	8.5
313.991	7.5
314.783	10.5
315.574	7.5
316.366	6.5
317.157	8.5
317.949	5.5
318.74	7.5
319.531	8.5
320.322	8.5
321.113	7.5
321.904	5.5
322.695	8.5
323.486	5.5
324.277	10.5
325.068	5.5
325.858	6.5
326.649	7.5
327.439	6.5
328.23	4.5
329.02	6.5
329.81	5.5
330.6	6.5
331.391	5.5
332.181	5.5
332.971	5.5
333.76	7.5
334.55	8.5
335.34	5.5
336.13	7.5
336.919	5.5
337.709	5.5
338.498	4.5
339.287	6.5
340.077	5.5
340.866	5.5
341.655	5.5
342.444	5.5
343.233	5.5
344.022	5.5
344.811	6.5
345.6	4.5
346.388	5.5
347.177	6.5
347.965	5.5
348.754	5.5
349.542	4.5
350.33	2.5
351.119	6.5
351.907	4.5
352.695	5.5
353.483	2.5
354.271	4.5
355.059	4.5
355.846	4.5
356.634	6.5
357.422	4.5
358.209	2.5
358.997	5.5
359.784	3.5
360.571	4.5
361.359	3.5
362.146	4.5
362.933	4.5
363.72	3.5
364.507	4.5
365.294	5.5
366.081	2.5
366.867	4.5
367.654	4.5
368.44	5.5
369.227	6.5
370.013	6.5
370.8	3.5
371.586	6.5
372.372	3.5
373.158	6.5
373.944	5.5
374.73	5.5
375.516	3.5
376.302	4.5
377.088	3.5
377.873	5.5
378.659	1.5
379.445	3.5
380.23	2.5
381.015	5.5
381.801	2.5
382.586	4.5
383.371	4.5
384.156	5.5
384.941	5.5
385.726	3.5
386.511	4.5
387.296	6.5
388.08	5.5
388.865	7.5
389.649	4.5
390.434	4.5
391.218	5.5
392.003	4.5
392.787	5.5
393.571	4.5
394.355	2.5
395.139	6.5
395.923	6.5
396.707	8.5
397.491	8.5
398.274	4.5
399.058	6.5
399.842	7.5
400.625	5.5
401.408	10.5
402.192	6.5
402.975	6.5
403.758	6.5
404.541	7.5
405.324	7.5
406.107	9.5
406.89	6.5
407.673	6.5
408.456	5.5
409.238	7.5
410.021	8.5
410.803	9.5
411.586	6.5
412.368	9.5
413.151	8.5
413.933	7.5
414.715	7.5
415.497	7.5
416.279	8.5
417.061	8.5
417.843	6.5
418.624	9.5
419.406	8.5
420.188	9.5
420.969	10.5
421.751	9.5
422.532	8.5
423.313	10.5
424.095	12.5
424.876	11.5
425.657	9.5
426.438	11.5
427.219	13.5
428	14.5
428.78	12.5
429.561	12.5
430.342	14.5
431.122	13.5
431.903	13.5
432.683	13.5
433.464	15.5
434.244	14.5
435.024	14.5
435.804	16.5
436.584	15.5
437.364	18.5
438.144	18.5
438.924	22.5
439.704	21.5
440.483	23.5
441.263	22.5
442.042	23.5
442.822	25.5
443.601	30.5
444.38	28.5
445.16	28.5
445.939	31.5
446.718	38.5
447.497	37.5
448.276	40.5
449.054	42.5
449.833	44.5
450.612	50.5
451.391	57.5
452.169	59.5
452.948	61.5
453.726	73.5
454.504	76.5
455.282	86.5
456.061	97.5
456.839	100.5
457.617	118.5
458.395	127.5
459.172	142.5
459.95	158.5
460.728	177.5
461.506	203.5
462.283	224.5
463.061	241.5
463.838	272.5
464.615	303.5
465.393	346.5
466.17	382.5
466.947	433.5
467.724	473.5
468.501	543.5
469.278	597.5
470.055	669.5
470.831	737.5
471.608	831.5
472.385	918.5
473.161	1019.5
473.938	1137.5
474.714	1274.5
475.49	1408.5
476.266	1561.5
477.043	1748.5
477.819	1911.5
478.595	2122.5
479.371	2334.5
480.146	2613.5
480.922	2873.5
481.698	3176.5
482.473	3508.5
483.249	3877.5
484.024	4282.5
484.8	4722.5
485.575	5203.5
486.35	5770.5
487.126	6310.5
487.901	6934.5
488.676	7638.5
489.451	8381.5
490.225	9184.5
491	10040.5
491.775	11041.5
492.55	11996.5
493.324	13054.5
494.099	14062.5
494.873	15182.5
495.647	16411.5
496.422	17603.5
497.196	18874.5
497.97	20102.5
498.744	21390.5
499.518	22609.5
500.292	23738.5
501.066	24787.5
501.839	25793.5
502.613	26689.5
503.387	27440.5
504.16	28018.5
504.934	28266.5
505.707	28306.5
506.48	28327.5
507.253	28129.5
508.027	27716.5
508.8	27261.5
509.573	26742.5
510.346	25981.5
511.118	25145.5
511.891	24295.5
512.664	23367.5
513.437	22403.5
514.209	21460.5
514.982	20525.5
515.754	19603.5
516.526	18666.5
517.298	17855.5
518.071	17100.5
518.843	16424.5
519.615	15850.5
520.387	15186.5
521.159	14580.5
521.93	14008.5
522.702	13475.5
523.474	12872.5
524.245	12334.5
525.017	11792.5
525.788	11293.5
526.56	10833.5
527.331	10295.5
528.102	9814.5
528.873	9351.5
529.644	8897.5
530.415	8432.5
531.186	7992.5
531.957	7552.5
532.728	7202.5
533.498	6754.5
534.269	6387.5
535.039	6031.5
535.81	5710.5
536.58	5401.5
537.351	5071.5
538.121	4816.5
538.891	4506.5
539.661	4293.5
540.431	4048.5
541.201	3814.5
541.971	3618.5
542.741	3431.5
543.51	3278.5
544.28	3116.5
545.05	2980.5
545.819	2822.5
546.588	2690.5
547.358	2546.5
548.127	2421.5
548.896	2277.5
549.665	2179.5
550.434	2069.5
551.203	1930.5
551.972	1826.5
552.741	1743.5
553.51	1643.5
554.278	1537.5
555.047	1461.5
555.815	1365.5
556.584	1305.5
557.352	1223.5
558.121	1146.5
558.889	1097.5
559.657	1028.5
560.425	978.5
561.193	918.5
561.961	864.5
562.729	822.5
563.496	768.5
564.264	731.5
565.032	688.5
565.799	657.5
566.567	622.5
567.334	587.5
568.101	552.5
568.869	513.5
569.636	493.5
570.403	466.5
571.17	435.5
571.937	409.5
572.704	385.5
573.471	361.5
574.237	341.5
575.004	330.5
575.771	304.5
576.537	285.5
577.303	266.5
578.07	264.5
578.836	240.5
579.602	219.5
580.368	211.5
581.134	205.5
581.9	195.5
582.666	183.5
583.432	172.5
584.198	160.5
584.964	158.5
585.729	144.5
586.495	138.5
587.26	133.5
588.025	123.5
588.791	120.5
589.556	115.5
590.321	107.5
591.086	102.5
591.851	96.5
592.616	89.5
593.381	85.5
594.146	83.5
594.911	82.5
595.675	77.5
596.44	69.5
597.204	68.5
597.969	65.5
598.733	66.5
599.497	59.5
600.261	55.5
601.025	53.5
601.79	51.5
602.553	49.5
603.317	44.5
604.081	46.5
604.845	41.5
605.609	40.5
606.372	39.5
607.136	34.5
607.899	37.5
608.662	34.5
609.426	35.5
610.189	35.5
610.952	31.5
611.715	27.5
612.478	27.5
613.241	27.5
614.004	24.5
614.767	25.5
615.529	26.5
616.292	24.5
617.055	24.5
617.817	21.5
618.579	21.5
619.342	23.5
620.104	20.5
620.866	19.5
621.628	20.5
622.39	19.5
623.152	17.5
623.914	15.5
624.676	16.5
625.438	14.5
626.199	14.5
626.961	13.5
627.722	13.5
628.484	11.5
629.245	13.5
630.006	12.5
630.768	11.5
631.529	13.5
632.29	12.5
633.051	11.5
633.812	13.5
634.573	12.5
635.333	12.5
636.094	8.5
636.855	8.5
637.615	10.5
638.376	10.5
639.136	11.5
639.896	10.5
640.657	9.5
641.417	7.5
642.177	10.5
642.937	8.5
643.697	5.5
644.457	6.5
645.216	5.5
645.976	7.5
646.736	7.5
647.495	8.5
648.255	6.5
649.014	4.5
649.774	7.5
650.533	4.5
651.292	6.5
652.051	7.5
652.81	4.5
653.569	5.5
654.328	6.5
655.087	5.5
655.846	4.5
656.604	6.5
657.363	5.5
658.121	6.5
658.88	6.5
659.638	5.5
660.397	5.5
661.155	5.5
661.913	4.5
662.671	2.5
663.429	3.5
664.187	6.5
664.945	4.5
665.703	4.5
666.46	3.5
667.218	2.5
667.976	5.5
668.733	4.5
669.49	7.5
670.248	4.5
671.005	3.5
671.762	3.5
672.519	4.5
673.276	5.5
674.033	3.5
674.79	1.5
675.547	5.5
676.304	2.5
677.06	5.5
677.817	0.5
678.574	5.5
679.33	4.5
680.086	5.5
680.843	3.5
681.599	2.5
682.355	4.5
683.111	2.5
683.867	5.5
684.623	2.5
685.379	1.5
686.135	2.5
686.89	0.5
687.646	4.5
688.402	0.5
689.157	3.5
689.912	2.5
690.668	3.5
691.423	4.5
692.178	2.5
692.933	4.5
693.688	2.5
694.443	3.5
695.198	2.5
695.953	4.5
696.708	3.5
697.462	2.5
698.217	3.5
698.972	4.5
699.726	4.5
700.48	3.5
701.235	3.5
701.989	3.5
702.743	2.5
703.497	3.5
704.251	2.5
705.005	3.5
705.759	2.5
706.513	1.5
707.266	5.5
708.02	4.5
708.774	3.5
709.527	1.5
710.28	3.5
711.034	2.5
711.787	1.5
712.54	1.5
713.293	0.5
714.046	3.5
714.799	1.5
715.552	0.5
716.305	2.5
717.058	4.5
717.81	3.5
718.563	2.5
719.315	3.5
720.068	3.5
720.82	3.5
721.573	3.5
722.325	5.5
723.077	2.5
723.829	3.5
724.581	1.5
725.333	3.5
726.085	3.5
726.836	3.5
727.588	2.5
728.34	2.5
729.091	3.5
729.843	1.5
730.594	2.5
731.346	2.5
732.097	3.5
732.848	3.5
733.599	1.5
734.35	2.5
735.101	5.5
735.852	3.5
736.603	4.5
737.354	4.5
738.104	4.5
738.855	2.5
739.605	3.5
740.356	4.5
741.106	2.5
741.856	4.5
742.607	5.5
743.357	5.5
744.107	3.5
744.857	2.5
745.607	3.5
746.357	4.5
747.106	4.5
747.856	5.5
748.606	4.5
749.355	3.5
750.105	3.5
750.854	4.5
751.603	4.5
752.353	4.5
753.102	5.5
753.851	8.5
754.6	5.5
755.349	4.5
756.098	4.5
756.847	5.5
757.595	6.5
758.344	4.5
759.093	4.5
759.841	5.5
760.589	5.5
761.338	6.5
762.086	5.5
762.834	5.5
763.582	6.5
764.331	4.5
765.079	9.5
765.826	5.5
766.574	5.5
767.322	4.5
768.07	5.5
768.817	5.5
769.565	6.5
770.312	6.5
771.06	6.5
771.807	7.5
772.554	7.5
773.302	8.5
774.049	7.5
774.796	6.5
775.543	6.5
776.29	8.5
777.036	6.5
777.783	6.5
778.53	6.5
779.276	8.5
780.023	8.5
780.769	8.5
781.516	8.5
782.262	12.5
783.008	10.5
783.754	5.5
784.5	10.5
785.246	10.5
785.992	9.5
786.738	7.5
787.484	8.5
788.23	6.5
788.975	8.5
789.721	10.5
790.466	7.5
791.212	7.5
791.957	7.5
792.702	9.5
793.447	9.5
794.193	6.5
794.938	6.5
795.683	8.5
796.427	7.5
797.172	9.5
797.917	5.5
798.662	9.5
799.406	7.5
800.151	8.5
800.895	6.5
801.64	5.5
802.384	6.5
803.128	6.5
803.872	4.5
804.616	6.5
805.36	7.5
806.104	5.5
806.848	3.5
807.592	7.5
808.336	1.5
809.079	4.5
809.823	5.5
810.566	1.5
811.31	4.5
812.053	5.5
812.796	4.5
813.539	5.5
814.283	1.5
815.026	5.5
815.769	2.5
816.511	4.5
817.254	4.5
817.997	2.5
818.74	4.5
819.482	2.5
820.225	2.5
820.967	4.5
821.71	4.5
822.452	2.5
823.194	3.5
823.936	4.5
824.678	5.5
825.42	4.5
826.162	5.5
826.904	5.5
827.646	3.5
828.388	2.5
829.129	4.5
829.871	5.5
830.612	2.5
831.354	4.5
832.095	3.5
832.836	3.5
833.577	2.5
834.319	3.5
835.06	2.5
835.801	2.5
836.542	3.5
837.282	2.5
838.023	4.5
838.764	2.5
839.504	2.5
840.245	3.5
840.985	3.5
841.726	0.5
842.466	2.5
843.206	4.5
843.946	0.5
844.687	1.5
845.427	4.5
846.166	-0.5
846.906	0.5
847.646	3.5
848.386	1.5
849.125	1.5
849.865	-0.5
850.605	0.5
851.344	2.5
852.083	2.5
852.823	2.5
853.562	2.5
854.301	0.5
855.04	2.5
855.779	1.5
856.518	2.5
857.257	2.5
857.995	2.5
858.734	0.5
859.473	1.5
860.211	1.5
860.95	2.5
861.688	0.5
862.426	-0.5
863.165	0.5
863.903	1.5
864.641	3.5
865.379	1.5
866.117	1.5
866.855	3.5
867.593	0.5
868.33	2.5
869.068	2.5
869.806	-0.5
870.543	0.5
871.28	-0.5
872.018	1.5
872.755	0.5
873.492	2.5
874.229	0.5
874.967	0.5
875.703	2.5
876.44	0.5
877.177	-0.5
877.914	0.5
878.651	2.5
879.387	0.5
880.124	2.5
880.86	0.5
881.597	-0.5
882.333	-1.5
883.069	0.5
883.806	2.5
884.542	0.5
885.278	0.5
886.014	1.5
886.749	0.5
887.485	2.5
888.221	-0.5
888.957	0.5
889.692	0.5
890.428	-1.5
891.163	-0.5
891.899	0.5
892.634	0.5
893.369	0.5
894.104	-0.5
894.839	0.5
895.574	-1.5
896.309	0.5
897.044	2.5
897.779	-0.5
898.514	-1.5
899.248	-1.5
899.983	2.5
900.717	-0.5
901.452	-0.5
902.186	-1.5
902.92	-1.5
903.654	-2.5
904.389	-1.5
905.123	-0.5
905.857	-0.5
906.59	-0.5
907.324	-1.5
908.058	1.5
908.792	1.5
909.525	-1.5
910.259	0.5
910.992	0.5
911.726	0.5
912.459	1.5
913.192	0.5
913.925	-0.5
914.658	0.5
915.391	-0.5
916.124	-1.5
916.857	1.5
917.59	2.5
918.323	-1.5
919.055	-0.5
919.788	-0.5
920.521	0.5
921.253	2.5
921.985	-2.5
922.718	0.5
923.45	0.5
924.182	1.5
924.914	-1.5
925.646	-1.5
926.378	-0.5
927.11	-0.5
927.841	2.5
928.573	1.5
929.305	-2.5
930.036	-1.5
930.768	-1.5
931.499	-0.5
932.23	-1.5
932.962	2.5
933.693	-1.5
934.424	-2.5
935.155	0.5
935.886	-1.5
936.617	-0.5
937.348	0.5
938.078	0.5
938.809	0.5
939.54	-0.5
940.27	-0.5
941.001	-0.5
941.731	1.5
942.461	-2.5
943.191	-1.5
943.922	-1.5
944.652	-1.5
945.382	-1.5
946.112	-1.5
946.841	0.5
947.571	1.5
948.301	-0.5
949.031	-0.5
949.76	0.5
950.49	-0.5
951.219	-1.5
951.948	-1.5
952.678	-0.5
953.407	-0.5
954.136	0.5
954.865	-0.5
955.594	-1.5
956.323	0.5
957.052	-2.5
957.78	-0.5
958.509	-1.5
959.238	-1.5
959.966	-1.5
960.695	-1.5
961.423	-0.5
962.151	-3.5
962.88	-1.5
963.608	0.5
964.336	1.5
965.064	0.5
965.792	0.5
966.52	-0.5
967.247	-0.5
967.975	0.5
968.703	-0.5
969.43	1.5
970.158	0.5
970.885	-1.5
971.613	-0.5
972.34	-1.5
973.067	-0.5
973.794	0.5
974.521	-2.5
975.248	-0.5
975.975	0.5
976.702	0.5
977.429	0.5
978.156	-0.5
978.882	-2.5
979.609	-1.5
980.335	-1.5
981.062	-0.5
981.788	0.5
982.514	-0.5
983.24	-0.5
983.967	0.5
984.693	-1.5
985.419	-1.5
986.144	-1.5
986.87	-1.5
987.596	-0.5
988.322	-1.5
989.047	-2.5
989.773	-2.5
990.498	-1.5
991.224	0.5
991.949	-0.5
992.674	-0.5
993.399	1.5
994.124	-0.5
994.849	-1.5
995.574	1.5
996.299	-1.5
997.024	-0.5
997.749	1.5
998.473	1.5
999.198	-0.5
999.922	-0.5
1000.647	0.5
1001.371	3.5
1002.095	-1.5
1002.82	-0.5
1003.544	-1.5
1004.268	-0.5
1004.992	0.5
1005.716	0.5
1006.439	-1.5
1007.163	0.5
1007.887	2.5
1008.611	2.5
1009.334	0.5
1010.058	-0.5
1010.781	-3.5
1011.504	-1.5
1012.228	0.5
1012.951	0.5
1013.674	0.5
1014.397	-0.5
1015.12	-0.5
