节点500_285_QEPB04081__563__15-04-55-220.txt的数据

Date: Wed Nov 12 15:04:55 CST 2025
User: PC
Spectrometer: QEPB0408
触发模式: 0
积分时间 (秒): 1.000000E-2
Scans to average: 1
启用暗噪声校正: true
启用非线性校正: false
滑动平均宽度: 0
X轴模式: Wavelengths
Number of Pixels in Spectrum: 1044
>>>>>Begin Spectral Data<<<<<
220.843	1.88
221.644	-0.12
222.444	0.88
223.244	1.88
224.045	-0.12
224.845	2.88
225.645	1.88
226.445	1.88
227.245	0.88
228.045	1.88
228.845	1.88
229.645	2.88
230.444	1.88
231.244	3.88
232.043	1.88
232.843	2.88
233.642	5.88
234.442	3.88
235.241	4.88
236.04	2.88
236.839	3.88
237.638	3.88
238.437	1.88
239.236	3.88
240.035	4.88
240.833	3.88
241.632	3.88
242.43	3.88
243.229	2.88
244.027	4.88
244.826	4.88
245.624	3.88
246.422	2.88
247.22	5.88
248.018	4.88
248.816	5.88
249.614	6.88
250.412	4.88
251.21	7.88
252.007	6.88
252.805	7.88
253.602	7.88
254.4	6.88
255.197	8.88
255.994	6.88
256.791	7.88
257.589	8.88
258.386	7.88
259.183	9.88
259.979	8.88
260.776	7.88
261.573	9.88
262.37	10.88
263.166	9.88
263.963	9.88
264.759	10.88
265.556	11.88
266.352	11.88
267.148	13.88
267.944	15.88
268.74	12.88
269.536	14.88
270.332	13.88
271.128	13.88
271.924	14.88
272.719	14.88
273.515	14.88
274.311	13.88
275.106	12.88
275.901	15.88
276.697	16.88
277.492	16.88
278.287	17.88
279.082	15.88
279.877	15.88
280.672	15.88
281.467	16.88
282.262	19.88
283.056	17.88
283.851	19.88
284.646	16.88
285.44	16.88
286.234	16.88
287.029	19.88
287.823	17.88
288.617	16.88
289.411	18.88
290.205	16.88
290.999	17.88
291.793	16.88
292.587	18.88
293.381	15.88
294.174	15.88
294.968	16.88
295.761	14.88
296.555	15.88
297.348	16.88
298.141	13.88
298.935	17.88
299.728	13.88
300.521	13.88
301.314	13.88
302.107	13.88
302.899	12.88
303.692	14.88
304.485	14.88
305.277	11.88
306.07	10.88
306.862	13.88
307.655	11.88
308.447	12.88
309.239	13.88
310.031	12.88
310.823	10.88
311.615	9.88
312.407	8.88
313.199	12.88
313.991	9.88
314.783	10.88
315.574	9.88
316.366	9.88
317.157	8.88
317.949	5.88
318.74	7.88
319.531	7.88
320.322	5.88
321.113	7.88
321.904	9.88
322.695	8.88
323.486	6.88
324.277	8.88
325.068	8.88
325.858	6.88
326.649	5.88
327.439	5.88
328.23	6.88
329.02	7.88
329.81	5.88
330.6	7.88
331.391	5.88
332.181	4.88
332.971	7.88
333.76	5.88
334.55	6.88
335.34	6.88
336.13	8.88
336.919	5.88
337.709	6.88
338.498	4.88
339.287	3.88
340.077	8.88
340.866	6.88
341.655	5.88
342.444	3.88
343.233	4.88
344.022	5.88
344.811	7.88
345.6	3.88
346.388	4.88
347.177	7.88
347.965	6.88
348.754	7.88
349.542	4.88
350.33	4.88
351.119	6.88
351.907	6.88
352.695	4.88
353.483	6.88
354.271	7.88
355.059	6.88
355.846	5.88
356.634	7.88
357.422	3.88
358.209	7.88
358.997	5.88
359.784	6.88
360.571	7.88
361.359	5.88
362.146	6.88
362.933	5.88
363.72	4.88
364.507	6.88
365.294	6.88
366.081	4.88
366.867	2.88
367.654	7.88
368.44	2.88
369.227	4.88
370.013	5.88
370.8	4.88
371.586	7.88
372.372	4.88
373.158	4.88
373.944	6.88
374.73	6.88
375.516	5.88
376.302	4.88
377.088	3.88
377.873	5.88
378.659	3.88
379.445	5.88
380.23	5.88
381.015	3.88
381.801	2.88
382.586	4.88
383.371	7.88
384.156	4.88
384.941	5.88
385.726	4.88
386.511	5.88
387.296	4.88
388.08	6.88
388.865	6.88
389.649	5.88
390.434	6.88
391.218	4.88
392.003	6.88
392.787	4.88
393.571	6.88
394.355	3.88
395.139	4.88
395.923	5.88
396.707	6.88
397.491	5.88
398.274	7.88
399.058	5.88
399.842	4.88
400.625	5.88
401.408	6.88
402.192	6.88
402.975	8.88
403.758	6.88
404.541	6.88
405.324	6.88
406.107	7.88
406.89	6.88
407.673	7.88
408.456	7.88
409.238	6.88
410.021	8.88
410.803	7.88
411.586	8.88
412.368	9.88
413.151	10.88
413.933	5.88
414.715	9.88
415.497	6.88
416.279	8.88
417.061	10.88
417.843	10.88
418.624	10.88
419.406	10.88
420.188	10.88
420.969	9.88
421.751	10.88
422.532	10.88
423.313	12.88
424.095	10.88
424.876	7.88
425.657	11.88
426.438	10.88
427.219	12.88
428	11.88
428.78	13.88
429.561	12.88
430.342	13.88
431.122	12.88
431.903	12.88
432.683	17.88
433.464	12.88
434.244	16.88
435.024	15.88
435.804	18.88
436.584	18.88
437.364	23.88
438.144	20.88
438.924	21.88
439.704	23.88
440.483	22.88
441.263	22.88
442.042	24.88
442.822	26.88
443.601	27.88
444.38	32.88
445.16	30.88
445.939	36.88
446.718	36.88
447.497	40.88
448.276	41.88
449.054	45.88
449.833	51.88
450.612	54.88
451.391	55.88
452.169	63.88
452.948	71.88
453.726	78.88
454.504	84.88
455.282	92.88
456.061	106.88
456.839	116.88
457.617	128.88
458.395	137.88
459.172	159.88
459.95	172.88
460.728	191.88
461.506	218.88
462.283	245.88
463.061	275.88
463.838	308.88
464.615	342.88
465.393	372.88
466.17	428.88
466.947	467.88
467.724	527.88
468.501	589.88
469.278	645.88
470.055	715.88
470.831	793.88
471.608	889.88
472.385	981.88
473.161	1083.88
473.938	1186.88
474.714	1323.88
475.49	1463.88
476.266	1614.88
477.043	1744.88
477.819	1943.88
478.595	2152.88
479.371	2347.88
480.146	2569.88
480.922	2835.88
481.698	3117.88
482.473	3416.88
483.249	3739.88
484.024	4109.88
484.8	4524.88
485.575	4951.88
486.35	5406.88
487.126	5905.88
487.901	6465.88
488.676	7059.88
489.451	7693.88
490.225	8405.88
491	9159.88
491.775	9934.88
492.55	10786.88
493.324	11722.88
494.099	12542.88
494.873	13564.88
495.647	14561.88
496.422	15738.88
497.196	16809.88
497.97	17943.88
498.744	19025.88
499.518	20099.88
500.292	21142.88
501.066	22276.88
501.839	23267.88
502.613	24123.88
503.387	24951.88
504.16	25693.88
504.934	26102.88
505.707	26347.88
506.48	26464.88
507.253	26531.88
508.027	26393.88
508.8	26216.88
509.573	25932.88
510.346	25394.88
511.118	24785.88
511.891	24113.88
512.664	23329.88
513.437	22557.88
514.209	21662.88
514.982	20783.88
515.754	19954.88
516.526	19131.88
517.298	18251.88
518.071	17506.88
518.843	16811.88
519.615	16198.88
520.387	15537.88
521.159	14938.88
521.93	14316.88
522.702	13760.88
523.474	13217.88
524.245	12641.88
525.017	12093.88
525.788	11665.88
526.56	11129.88
527.331	10647.88
528.102	10173.88
528.873	9723.88
529.644	9230.88
530.415	8778.88
531.186	8320.88
531.957	7952.88
532.728	7552.88
533.498	7183.88
534.269	6789.88
535.039	6420.88
535.81	6049.88
536.58	5722.88
537.351	5387.88
538.121	5135.88
538.891	4825.88
539.661	4577.88
540.431	4316.88
541.201	4101.88
541.971	3875.88
542.741	3668.88
543.51	3471.88
544.28	3302.88
545.05	3160.88
545.819	2998.88
546.588	2835.88
547.358	2692.88
548.127	2569.88
548.896	2453.88
549.665	2318.88
550.434	2198.88
551.203	2089.88
551.972	1977.88
552.741	1872.88
553.51	1773.88
554.278	1666.88
555.047	1579.88
555.815	1493.88
556.584	1422.88
557.352	1326.88
558.121	1252.88
558.889	1179.88
559.657	1122.88
560.425	1051.88
561.193	993.88
561.961	939.88
562.729	887.88
563.496	846.88
564.264	791.88
565.032	750.88
565.799	720.88
566.567	679.88
567.334	633.88
568.101	600.88
568.869	559.88
569.636	534.88
570.403	497.88
571.17	464.88
571.937	448.88
572.704	429.88
573.471	397.88
574.237	376.88
575.004	352.88
575.771	330.88
576.537	309.88
577.303	294.88
578.07	280.88
578.836	257.88
579.602	246.88
580.368	237.88
581.134	224.88
581.9	209.88
582.666	196.88
583.432	189.88
584.198	176.88
584.964	172.88
585.729	158.88
586.495	152.88
587.26	147.88
588.025	132.88
588.791	129.88
589.556	122.88
590.321	114.88
591.086	108.88
591.851	103.88
592.616	99.88
593.381	91.88
594.146	91.88
594.911	83.88
595.675	76.88
596.44	77.88
597.204	73.88
597.969	70.88
598.733	70.88
599.497	64.88
600.261	62.88
601.025	59.88
601.79	60.88
602.553	52.88
603.317	51.88
604.081	48.88
604.845	44.88
605.609	44.88
606.372	41.88
607.136	44.88
607.899	38.88
608.662	39.88
609.426	39.88
610.189	33.88
610.952	32.88
611.715	29.88
612.478	31.88
613.241	32.88
614.004	26.88
614.767	28.88
615.529	26.88
616.292	23.88
617.055	25.88
617.817	26.88
618.579	21.88
619.342	23.88
620.104	21.88
620.866	21.88
621.628	18.88
622.39	19.88
623.152	19.88
623.914	17.88
624.676	16.88
625.438	19.88
626.199	17.88
626.961	16.88
627.722	16.88
628.484	13.88
629.245	12.88
630.006	13.88
630.768	15.88
631.529	12.88
632.29	14.88
633.051	14.88
633.812	9.88
634.573	12.88
635.333	10.88
636.094	13.88
636.855	11.88
637.615	8.88
638.376	8.88
639.136	9.88
639.896	9.88
640.657	7.88
641.417	9.88
642.177	8.88
642.937	7.88
643.697	7.88
644.457	7.88
645.216	8.88
645.976	8.88
646.736	7.88
647.495	8.88
648.255	6.88
649.014	7.88
649.774	4.88
650.533	5.88
651.292	6.88
652.051	6.88
652.81	8.88
653.569	5.88
654.328	5.88
655.087	3.88
655.846	6.88
656.604	5.88
657.363	6.88
658.121	5.88
658.88	6.88
659.638	5.88
660.397	4.88
661.155	7.88
661.913	4.88
662.671	6.88
663.429	5.88
664.187	5.88
664.945	6.88
665.703	5.88
666.46	5.88
667.218	4.88
667.976	2.88
668.733	5.88
669.49	1.88
670.248	3.88
671.005	3.88
671.762	3.88
672.519	5.88
673.276	4.88
674.033	3.88
674.79	2.88
675.547	4.88
676.304	4.88
677.06	5.88
677.817	2.88
678.574	4.88
679.33	5.88
680.086	5.88
680.843	3.88
681.599	3.88
682.355	2.88
683.111	5.88
683.867	4.88
684.623	3.88
685.379	2.88
686.135	4.88
686.89	4.88
687.646	4.88
688.402	2.88
689.157	4.88
689.912	4.88
690.668	2.88
691.423	3.88
692.178	3.88
692.933	4.88
693.688	3.88
694.443	2.88
695.198	4.88
695.953	2.88
696.708	3.88
697.462	4.88
698.217	3.88
698.972	3.88
699.726	1.88
700.48	3.88
701.235	4.88
701.989	4.88
702.743	4.88
703.497	2.88
704.251	4.88
705.005	3.88
705.759	4.88
706.513	2.88
707.266	3.88
708.02	3.88
708.774	3.88
709.527	4.88
710.28	3.88
711.034	4.88
711.787	1.88
712.54	2.88
713.293	4.88
714.046	4.88
714.799	1.88
715.552	2.88
716.305	3.88
717.058	3.88
717.81	2.88
718.563	3.88
719.315	5.88
720.068	3.88
720.82	3.88
721.573	2.88
722.325	4.88
723.077	1.88
723.829	4.88
724.581	2.88
725.333	2.88
726.085	3.88
726.836	2.88
727.588	3.88
728.34	6.88
729.091	4.88
729.843	4.88
730.594	2.88
731.346	5.88
732.097	0.88
732.848	2.88
733.599	4.88
734.35	4.88
735.101	4.88
735.852	3.88
736.603	5.88
737.354	4.88
738.104	5.88
738.855	5.88
739.605	3.88
740.356	1.88
741.106	5.88
741.856	3.88
742.607	2.88
743.357	3.88
744.107	3.88
744.857	1.88
745.607	4.88
746.357	5.88
747.106	3.88
747.856	5.88
748.606	4.88
749.355	6.88
750.105	6.88
750.854	6.88
751.603	4.88
752.353	6.88
753.102	4.88
753.851	1.88
754.6	6.88
755.349	6.88
756.098	4.88
756.847	4.88
757.595	6.88
758.344	3.88
759.093	5.88
759.841	4.88
760.589	3.88
761.338	4.88
762.086	5.88
762.834	5.88
763.582	6.88
764.331	4.88
765.079	7.88
765.826	7.88
766.574	5.88
767.322	5.88
768.07	7.88
768.817	7.88
769.565	4.88
770.312	6.88
771.06	7.88
771.807	8.88
772.554	8.88
773.302	7.88
774.049	6.88
774.796	5.88
775.543	8.88
776.29	10.88
777.036	8.88
777.783	8.88
778.53	6.88
779.276	6.88
780.023	8.88
780.769	9.88
781.516	8.88
782.262	6.88
783.008	9.88
783.754	7.88
784.5	9.88
785.246	4.88
785.992	7.88
786.738	8.88
787.484	9.88
788.23	10.88
788.975	9.88
789.721	10.88
790.466	9.88
791.212	11.88
791.957	8.88
792.702	7.88
793.447	9.88
794.193	6.88
794.938	8.88
795.683	7.88
796.427	7.88
797.172	7.88
797.917	4.88
798.662	6.88
799.406	7.88
800.151	4.88
800.895	5.88
801.64	9.88
802.384	8.88
803.128	6.88
803.872	5.88
804.616	5.88
805.36	6.88
806.104	6.88
806.848	4.88
807.592	7.88
808.336	4.88
809.079	5.88
809.823	7.88
810.566	3.88
811.31	6.88
812.053	4.88
812.796	6.88
813.539	4.88
814.283	5.88
815.026	7.88
815.769	6.88
816.511	5.88
817.254	5.88
817.997	5.88
818.74	6.88
819.482	3.88
820.225	5.88
820.967	3.88
821.71	4.88
822.452	4.88
823.194	5.88
823.936	1.88
824.678	2.88
825.42	3.88
826.162	2.88
826.904	3.88
827.646	0.88
828.388	3.88
829.129	2.88
829.871	2.88
830.612	2.88
831.354	4.88
832.095	3.88
832.836	4.88
833.577	3.88
834.319	3.88
835.06	2.88
835.801	5.88
836.542	4.88
837.282	2.88
838.023	4.88
838.764	3.88
839.504	4.88
840.245	3.88
840.985	4.88
841.726	1.88
842.466	4.88
843.206	3.88
843.946	2.88
844.687	3.88
845.427	2.88
846.166	2.88
846.906	2.88
847.646	1.88
848.386	2.88
849.125	5.88
849.865	0.88
850.605	1.88
851.344	2.88
852.083	2.88
852.823	3.88
853.562	3.88
854.301	1.88
855.04	1.88
855.779	0.88
856.518	3.88
857.257	1.88
857.995	0.88
858.734	3.88
859.473	0.88
860.211	1.88
860.95	1.88
861.688	1.88
862.426	0.88
863.165	0.88
863.903	2.88
864.641	2.88
865.379	5.88
866.117	1.88
866.855	2.88
867.593	1.88
868.33	0.88
869.068	1.88
869.806	-1.12
870.543	-0.12
871.28	1.88
872.018	-2.12
872.755	1.88
873.492	-0.12
874.229	1.88
874.967	0.88
875.703	0.88
876.44	0.88
877.177	0.88
877.914	1.88
878.651	0.88
879.387	1.88
880.124	0.88
880.86	2.88
881.597	0.88
882.333	1.88
883.069	-0.12
883.806	-0.12
884.542	0.88
885.278	0.88
886.014	0.88
886.749	-0.12
887.485	-0.12
888.221	2.88
888.957	-0.12
889.692	0.88
890.428	-0.12
891.163	-2.12
891.899	1.88
892.634	0.88
893.369	2.88
894.104	1.88
894.839	-0.12
895.574	0.88
896.309	-0.12
897.044	0.88
897.779	2.88
898.514	2.88
899.248	-0.12
899.983	3.88
900.717	1.88
901.452	-1.12
902.186	1.88
902.92	0.88
903.654	-0.12
904.389	-1.12
905.123	-0.12
905.857	1.88
906.59	0.88
907.324	0.88
908.058	0.88
908.792	-2.12
909.525	2.88
910.259	1.88
910.992	-0.12
911.726	0.88
912.459	-1.12
913.192	-0.12
913.925	-0.12
914.658	0.88
915.391	-1.12
916.124	1.88
916.857	-1.12
917.59	0.88
918.323	-0.12
919.055	2.88
919.788	-0.12
920.521	-3.12
921.253	0.88
921.985	-1.12
922.718	0.88
923.45	0.88
924.182	0.88
924.914	-2.12
925.646	-1.12
926.378	-1.12
927.11	-0.12
927.841	0.88
928.573	-0.12
929.305	0.88
930.036	-0.12
930.768	-0.12
931.499	-0.12
932.23	-0.12
932.962	-0.12
933.693	-0.12
934.424	0.88
935.155	-0.12
935.886	-1.12
936.617	0.88
937.348	1.88
938.078	0.88
938.809	-2.12
939.54	0.88
940.27	-0.12
941.001	0.88
941.731	-0.12
942.461	-0.12
943.191	0.88
943.922	-0.12
944.652	-3.12
945.382	1.88
946.112	-2.12
946.841	-0.12
947.571	-2.12
948.301	-1.12
949.031	-1.12
949.76	-2.12
950.49	0.88
951.219	1.88
951.948	-0.12
952.678	2.88
953.407	-0.12
954.136	1.88
954.865	-0.12
955.594	1.88
956.323	3.88
957.052	0.88
957.78	-0.12
958.509	0.88
959.238	0.88
959.966	-0.12
960.695	1.88
961.423	-0.12
962.151	0.88
962.88	-0.12
963.608	1.88
964.336	-0.12
965.064	-0.12
965.792	0.88
966.52	-1.12
967.247	0.88
967.975	3.88
968.703	-0.12
969.43	1.88
970.158	0.88
970.885	-0.12
971.613	-0.12
972.34	-2.12
973.067	1.88
973.794	-0.12
974.521	1.88
975.248	-0.12
975.975	1.88
976.702	2.88
977.429	-0.12
978.156	1.88
978.882	-0.12
979.609	-0.12
980.335	-0.12
981.062	1.88
981.788	-0.12
982.514	1.88
983.24	0.88
983.967	0.88
984.693	1.88
985.419	2.88
986.144	0.88
986.87	2.88
987.596	-0.12
988.322	-0.12
989.047	1.88
989.773	0.88
990.498	-0.12
991.224	-1.12
991.949	0.88
992.674	-0.12
993.399	1.88
994.124	1.88
994.849	-1.12
995.574	-1.12
996.299	0.88
997.024	1.88
997.749	-0.12
998.473	-2.12
999.198	-2.12
999.922	0.88
1000.647	-0.12
1001.371	1.88
1002.095	-0.12
1002.82	-1.12
1003.544	-2.12
1004.268	1.88
1004.992	0.88
1005.716	0.88
1006.439	0.88
1007.163	3.88
1007.887	1.88
1008.611	-2.12
1009.334	1.88
1010.058	-0.12
1010.781	0.88
1011.504	1.88
1012.228	-0.12
1012.951	1.88
1013.674	-0.12
1014.397	0.88
1015.12	-1.12
