节点500_285_QEPB04081__229__14-59-21-999.txt的数据

Date: Wed Nov 12 14:59:21 CST 2025
User: PC
Spectrometer: QEPB0408
触发模式: 0
积分时间 (秒): 1.000000E-2
Scans to average: 1
启用暗噪声校正: true
启用非线性校正: false
滑动平均宽度: 0
X轴模式: Wavelengths
Number of Pixels in Spectrum: 1044
>>>>>Begin Spectral Data<<<<<
220.843	1.62
221.644	2.62
222.444	0.62
223.244	-0.38
224.045	1.62
224.845	2.62
225.645	1.62
226.445	2.62
227.245	1.62
228.045	2.62
228.845	3.62
229.645	2.62
230.444	3.62
231.244	5.62
232.043	4.62
232.843	1.62
233.642	1.62
234.442	3.62
235.241	5.62
236.04	3.62
236.839	3.62
237.638	3.62
238.437	2.62
239.236	5.62
240.035	2.62
240.833	4.62
241.632	4.62
242.43	4.62
243.229	4.62
244.027	6.62
244.826	6.62
245.624	3.62
246.422	3.62
247.22	5.62
248.018	4.62
248.816	6.62
249.614	7.62
250.412	7.62
251.21	9.62
252.007	5.62
252.805	7.62
253.602	7.62
254.4	7.62
255.197	6.62
255.994	6.62
256.791	11.62
257.589	8.62
258.386	10.62
259.183	8.62
259.979	9.62
260.776	8.62
261.573	10.62
262.37	9.62
263.166	9.62
263.963	12.62
264.759	12.62
265.556	13.62
266.352	12.62
267.148	14.62
267.944	14.62
268.74	13.62
269.536	13.62
270.332	14.62
271.128	15.62
271.924	15.62
272.719	15.62
273.515	17.62
274.311	17.62
275.106	20.62
275.901	19.62
276.697	18.62
277.492	18.62
278.287	15.62
279.082	16.62
279.877	17.62
280.672	17.62
281.467	19.62
282.262	16.62
283.056	20.62
283.851	18.62
284.646	20.62
285.44	18.62
286.234	18.62
287.029	23.62
287.823	17.62
288.617	18.62
289.411	19.62
290.205	19.62
290.999	18.62
291.793	13.62
292.587	18.62
293.381	18.62
294.174	19.62
294.968	16.62
295.761	16.62
296.555	15.62
297.348	17.62
298.141	13.62
298.935	18.62
299.728	13.62
300.521	13.62
301.314	13.62
302.107	13.62
302.899	11.62
303.692	11.62
304.485	10.62
305.277	11.62
306.07	11.62
306.862	10.62
307.655	13.62
308.447	15.62
309.239	10.62
310.031	11.62
310.823	11.62
311.615	10.62
312.407	10.62
313.199	9.62
313.991	9.62
314.783	7.62
315.574	10.62
316.366	8.62
317.157	9.62
317.949	10.62
318.74	8.62
319.531	7.62
320.322	8.62
321.113	8.62
321.904	7.62
322.695	6.62
323.486	6.62
324.277	4.62
325.068	6.62
325.858	6.62
326.649	6.62
327.439	6.62
328.23	6.62
329.02	7.62
329.81	6.62
330.6	7.62
331.391	5.62
332.181	7.62
332.971	4.62
333.76	5.62
334.55	9.62
335.34	5.62
336.13	7.62
336.919	7.62
337.709	6.62
338.498	6.62
339.287	3.62
340.077	7.62
340.866	4.62
341.655	7.62
342.444	6.62
343.233	7.62
344.022	6.62
344.811	6.62
345.6	6.62
346.388	6.62
347.177	4.62
347.965	4.62
348.754	4.62
349.542	6.62
350.33	5.62
351.119	4.62
351.907	5.62
352.695	6.62
353.483	7.62
354.271	4.62
355.059	6.62
355.846	4.62
356.634	6.62
357.422	5.62
358.209	4.62
358.997	6.62
359.784	1.62
360.571	4.62
361.359	5.62
362.146	6.62
362.933	5.62
363.72	4.62
364.507	6.62
365.294	3.62
366.081	3.62
366.867	4.62
367.654	3.62
368.44	8.62
369.227	4.62
370.013	5.62
370.8	6.62
371.586	4.62
372.372	7.62
373.158	3.62
373.944	3.62
374.73	6.62
375.516	7.62
376.302	5.62
377.088	4.62
377.873	4.62
378.659	3.62
379.445	4.62
380.23	4.62
381.015	8.62
381.801	7.62
382.586	3.62
383.371	5.62
384.156	5.62
384.941	5.62
385.726	4.62
386.511	5.62
387.296	5.62
388.08	7.62
388.865	6.62
389.649	5.62
390.434	5.62
391.218	4.62
392.003	7.62
392.787	5.62
393.571	5.62
394.355	7.62
395.139	7.62
395.923	5.62
396.707	7.62
397.491	7.62
398.274	5.62
399.058	8.62
399.842	6.62
400.625	6.62
401.408	5.62
402.192	7.62
402.975	8.62
403.758	8.62
404.541	8.62
405.324	7.62
406.107	7.62
406.89	8.62
407.673	7.62
408.456	6.62
409.238	8.62
410.021	7.62
410.803	7.62
411.586	9.62
412.368	8.62
413.151	9.62
413.933	9.62
414.715	9.62
415.497	7.62
416.279	6.62
417.061	9.62
417.843	11.62
418.624	10.62
419.406	9.62
420.188	7.62
420.969	9.62
421.751	9.62
422.532	12.62
423.313	8.62
424.095	9.62
424.876	10.62
425.657	11.62
426.438	12.62
427.219	14.62
428	12.62
428.78	12.62
429.561	13.62
430.342	16.62
431.122	16.62
431.903	15.62
432.683	14.62
433.464	13.62
434.244	15.62
435.024	15.62
435.804	19.62
436.584	17.62
437.364	18.62
438.144	18.62
438.924	20.62
439.704	20.62
440.483	21.62
441.263	24.62
442.042	26.62
442.822	25.62
443.601	30.62
444.38	27.62
445.16	33.62
445.939	31.62
446.718	35.62
447.497	37.62
448.276	41.62
449.054	43.62
449.833	45.62
450.612	52.62
451.391	52.62
452.169	59.62
452.948	71.62
453.726	70.62
454.504	81.62
455.282	86.62
456.061	91.62
456.839	106.62
457.617	122.62
458.395	127.62
459.172	143.62
459.95	166.62
460.728	179.62
461.506	201.62
462.283	220.62
463.061	252.62
463.838	275.62
464.615	320.62
465.393	348.62
466.17	390.62
466.947	442.62
467.724	493.62
468.501	551.62
469.278	605.62
470.055	659.62
470.831	751.62
471.608	837.62
472.385	927.62
473.161	1038.62
473.938	1162.62
474.714	1284.62
475.49	1414.62
476.266	1573.62
477.043	1747.62
477.819	1917.62
478.595	2116.62
479.371	2355.62
480.146	2598.62
480.922	2887.62
481.698	3165.62
482.473	3493.62
483.249	3857.62
484.024	4242.62
484.8	4654.62
485.575	5144.62
486.35	5679.62
487.126	6262.62
487.901	6818.62
488.676	7492.62
489.451	8257.62
490.225	9040.62
491	9872.62
491.775	10795.62
492.55	11778.62
493.324	12762.62
494.099	13780.62
494.873	14896.62
495.647	16017.62
496.422	17233.62
497.196	18429.62
497.97	19687.62
498.744	20908.62
499.518	22054.62
500.292	23277.62
501.066	24286.62
501.839	25283.62
502.613	26196.62
503.387	26962.62
504.16	27541.62
504.934	27799.62
505.707	27900.62
506.48	27926.62
507.253	27806.62
508.027	27461.62
508.8	27136.62
509.573	26641.62
510.346	25897.62
511.118	25151.62
511.891	24235.62
512.664	23444.62
513.437	22496.62
514.209	21482.62
514.982	20570.62
515.754	19679.62
516.526	18758.62
517.298	17964.62
518.071	17153.62
518.843	16497.62
519.615	15886.62
520.387	15299.62
521.159	14630.62
521.93	14069.62
522.702	13549.62
523.474	12970.62
524.245	12363.62
525.017	11828.62
525.788	11397.62
526.56	10850.62
527.331	10344.62
528.102	9863.62
528.873	9419.62
529.644	8914.62
530.415	8457.62
531.186	8093.62
531.957	7614.62
532.728	7271.62
533.498	6866.62
534.269	6443.62
535.039	6151.62
535.81	5779.62
536.58	5439.62
537.351	5156.62
538.121	4869.62
538.891	4592.62
539.661	4341.62
540.431	4129.62
541.201	3861.62
541.971	3673.62
542.741	3485.62
543.51	3311.62
544.28	3154.62
545.05	2993.62
545.819	2868.62
546.588	2719.62
547.358	2574.62
548.127	2446.62
548.896	2324.62
549.665	2181.62
550.434	2069.62
551.203	1958.62
551.972	1855.62
552.741	1761.62
553.51	1653.62
554.278	1584.62
555.047	1482.62
555.815	1383.62
556.584	1326.62
557.352	1244.62
558.121	1182.62
558.889	1102.62
559.657	1061.62
560.425	983.62
561.193	939.62
561.961	881.62
562.729	839.62
563.496	788.62
564.264	747.62
565.032	699.62
565.799	670.62
566.567	633.62
567.334	591.62
568.101	565.62
568.869	537.62
569.636	502.62
570.403	465.62
571.17	445.62
571.937	416.62
572.704	393.62
573.471	366.62
574.237	355.62
575.004	334.62
575.771	315.62
576.537	291.62
577.303	278.62
578.07	260.62
578.836	240.62
579.602	231.62
580.368	217.62
581.134	206.62
581.9	197.62
582.666	187.62
583.432	173.62
584.198	166.62
584.964	156.62
585.729	146.62
586.495	142.62
587.26	133.62
588.025	129.62
588.791	120.62
589.556	118.62
590.321	106.62
591.086	103.62
591.851	98.62
592.616	97.62
593.381	85.62
594.146	83.62
594.911	78.62
595.675	81.62
596.44	75.62
597.204	73.62
597.969	70.62
598.733	66.62
599.497	59.62
600.261	57.62
601.025	55.62
601.79	54.62
602.553	50.62
603.317	49.62
604.081	48.62
604.845	43.62
605.609	43.62
606.372	39.62
607.136	42.62
607.899	41.62
608.662	37.62
609.426	30.62
610.189	33.62
610.952	31.62
611.715	28.62
612.478	28.62
613.241	31.62
614.004	29.62
614.767	28.62
615.529	25.62
616.292	25.62
617.055	25.62
617.817	24.62
618.579	24.62
619.342	23.62
620.104	21.62
620.866	22.62
621.628	20.62
622.39	18.62
623.152	19.62
623.914	16.62
624.676	17.62
625.438	14.62
626.199	15.62
626.961	17.62
627.722	15.62
628.484	15.62
629.245	13.62
630.006	13.62
630.768	14.62
631.529	11.62
632.29	11.62
633.051	12.62
633.812	12.62
634.573	13.62
635.333	11.62
636.094	9.62
636.855	10.62
637.615	9.62
638.376	10.62
639.136	8.62
639.896	12.62
640.657	10.62
641.417	9.62
642.177	8.62
642.937	11.62
643.697	8.62
644.457	7.62
645.216	8.62
645.976	9.62
646.736	6.62
647.495	6.62
648.255	6.62
649.014	9.62
649.774	7.62
650.533	7.62
651.292	5.62
652.051	4.62
652.81	5.62
653.569	7.62
654.328	6.62
655.087	9.62
655.846	5.62
656.604	4.62
657.363	7.62
658.121	6.62
658.88	5.62
659.638	5.62
660.397	3.62
661.155	4.62
661.913	6.62
662.671	6.62
663.429	5.62
664.187	3.62
664.945	5.62
665.703	4.62
666.46	3.62
667.218	6.62
667.976	3.62
668.733	5.62
669.49	5.62
670.248	6.62
671.005	5.62
671.762	5.62
672.519	2.62
673.276	2.62
674.033	1.62
674.79	5.62
675.547	4.62
676.304	3.62
677.06	2.62
677.817	2.62
678.574	4.62
679.33	2.62
680.086	3.62
680.843	5.62
681.599	6.62
682.355	6.62
683.111	2.62
683.867	5.62
684.623	5.62
685.379	3.62
686.135	4.62
686.89	3.62
687.646	4.62
688.402	4.62
689.157	4.62
689.912	3.62
690.668	4.62
691.423	6.62
692.178	3.62
692.933	5.62
693.688	2.62
694.443	3.62
695.198	2.62
695.953	5.62
696.708	2.62
697.462	4.62
698.217	3.62
698.972	2.62
699.726	5.62
700.48	4.62
701.235	1.62
701.989	3.62
702.743	2.62
703.497	3.62
704.251	3.62
705.005	4.62
705.759	2.62
706.513	5.62
707.266	5.62
708.02	1.62
708.774	4.62
709.527	2.62
710.28	0.62
711.034	2.62
711.787	3.62
712.54	5.62
713.293	0.62
714.046	3.62
714.799	3.62
715.552	5.62
716.305	3.62
717.058	3.62
717.81	3.62
718.563	4.62
719.315	3.62
720.068	1.62
720.82	2.62
721.573	4.62
722.325	2.62
723.077	6.62
723.829	3.62
724.581	1.62
725.333	3.62
726.085	4.62
726.836	4.62
727.588	4.62
728.34	4.62
729.091	3.62
729.843	3.62
730.594	3.62
731.346	3.62
732.097	5.62
732.848	3.62
733.599	3.62
734.35	4.62
735.101	3.62
735.852	4.62
736.603	3.62
737.354	4.62
738.104	4.62
738.855	2.62
739.605	5.62
740.356	4.62
741.106	5.62
741.856	5.62
742.607	5.62
743.357	5.62
744.107	4.62
744.857	6.62
745.607	4.62
746.357	5.62
747.106	4.62
747.856	5.62
748.606	3.62
749.355	3.62
750.105	7.62
750.854	4.62
751.603	4.62
752.353	9.62
753.102	4.62
753.851	5.62
754.6	5.62
755.349	5.62
756.098	4.62
756.847	5.62
757.595	5.62
758.344	5.62
759.093	9.62
759.841	6.62
760.589	5.62
761.338	8.62
762.086	6.62
762.834	7.62
763.582	6.62
764.331	6.62
765.079	7.62
765.826	8.62
766.574	4.62
767.322	7.62
768.07	7.62
768.817	7.62
769.565	7.62
770.312	8.62
771.06	8.62
771.807	7.62
772.554	6.62
773.302	8.62
774.049	7.62
774.796	7.62
775.543	9.62
776.29	8.62
777.036	9.62
777.783	9.62
778.53	7.62
779.276	9.62
780.023	9.62
780.769	8.62
781.516	12.62
782.262	8.62
783.008	8.62
783.754	10.62
784.5	8.62
785.246	10.62
785.992	7.62
786.738	8.62
787.484	9.62
788.23	8.62
788.975	8.62
789.721	9.62
790.466	7.62
791.212	9.62
791.957	9.62
792.702	7.62
793.447	5.62
794.193	7.62
794.938	10.62
795.683	6.62
796.427	8.62
797.172	7.62
797.917	7.62
798.662	6.62
799.406	9.62
800.151	6.62
800.895	6.62
801.64	8.62
802.384	5.62
803.128	6.62
803.872	5.62
804.616	6.62
805.36	7.62
806.104	8.62
806.848	6.62
807.592	6.62
808.336	3.62
809.079	5.62
809.823	5.62
810.566	4.62
811.31	4.62
812.053	6.62
812.796	8.62
813.539	5.62
814.283	4.62
815.026	4.62
815.769	6.62
816.511	5.62
817.254	6.62
817.997	3.62
818.74	3.62
819.482	4.62
820.225	4.62
820.967	3.62
821.71	6.62
822.452	3.62
823.194	3.62
823.936	4.62
824.678	4.62
825.42	3.62
826.162	3.62
826.904	5.62
827.646	3.62
828.388	6.62
829.129	3.62
829.871	2.62
830.612	3.62
831.354	2.62
832.095	4.62
832.836	4.62
833.577	3.62
834.319	4.62
835.06	2.62
835.801	5.62
836.542	3.62
837.282	1.62
838.023	2.62
838.764	6.62
839.504	3.62
840.245	4.62
840.985	2.62
841.726	3.62
842.466	2.62
843.206	3.62
843.946	2.62
844.687	2.62
845.427	1.62
846.166	4.62
846.906	1.62
847.646	4.62
848.386	1.62
849.125	1.62
849.865	4.62
850.605	2.62
851.344	3.62
852.083	1.62
852.823	0.62
853.562	5.62
854.301	2.62
855.04	1.62
855.779	-0.38
856.518	1.62
857.257	2.62
857.995	3.62
858.734	3.62
859.473	1.62
860.211	3.62
860.95	0.62
861.688	1.62
862.426	4.62
863.165	3.62
863.903	3.62
864.641	1.62
865.379	2.62
866.117	1.62
866.855	1.62
867.593	1.62
868.33	1.62
869.068	3.62
869.806	2.62
870.543	3.62
871.28	0.62
872.018	1.62
872.755	2.62
873.492	2.62
874.229	2.62
874.967	2.62
875.703	1.62
876.44	0.62
877.177	0.62
877.914	0.62
878.651	0.62
879.387	2.62
880.124	1.62
880.86	0.62
881.597	1.62
882.333	-0.38
883.069	-0.38
883.806	2.62
884.542	2.62
885.278	1.62
886.014	1.62
886.749	2.62
887.485	-0.38
888.221	2.62
888.957	-0.38
889.692	1.62
890.428	1.62
891.163	2.62
891.899	1.62
892.634	2.62
893.369	-0.38
894.104	2.62
894.839	1.62
895.574	1.62
896.309	0.62
897.044	2.62
897.779	2.62
898.514	1.62
899.248	1.62
899.983	2.62
900.717	2.62
901.452	3.62
902.186	0.62
902.92	-0.38
903.654	-2.38
904.389	2.62
905.123	0.62
905.857	0.62
906.59	-0.38
907.324	1.62
908.058	-0.38
908.792	0.62
909.525	-0.38
910.259	1.62
910.992	-1.38
911.726	0.62
912.459	-0.38
913.192	-1.38
913.925	-3.38
914.658	2.62
915.391	-1.38
916.124	3.62
916.857	0.62
917.59	0.62
918.323	1.62
919.055	0.62
919.788	2.62
920.521	0.62
921.253	0.62
921.985	0.62
922.718	-1.38
923.45	-0.38
924.182	0.62
924.914	-0.38
925.646	-0.38
926.378	-0.38
927.11	0.62
927.841	0.62
928.573	0.62
929.305	-1.38
930.036	0.62
930.768	0.62
931.499	-1.38
932.23	0.62
932.962	0.62
933.693	0.62
934.424	-1.38
935.155	0.62
935.886	2.62
936.617	-1.38
937.348	0.62
938.078	1.62
938.809	2.62
939.54	-1.38
940.27	-0.38
941.001	2.62
941.731	-0.38
942.461	-0.38
943.191	-0.38
943.922	1.62
944.652	0.62
945.382	-1.38
946.112	0.62
946.841	0.62
947.571	1.62
948.301	0.62
949.031	2.62
949.76	0.62
950.49	-0.38
951.219	-1.38
951.948	-2.38
952.678	0.62
953.407	-0.38
954.136	-1.38
954.865	1.62
955.594	0.62
956.323	1.62
957.052	1.62
957.78	1.62
958.509	0.62
959.238	-0.38
959.966	0.62
960.695	-1.38
961.423	0.62
962.151	1.62
962.88	-1.38
963.608	0.62
964.336	0.62
965.064	-0.38
965.792	-3.38
966.52	2.62
967.247	0.62
967.975	-0.38
968.703	0.62
969.43	-0.38
970.158	0.62
970.885	-0.38
971.613	1.62
972.34	1.62
973.067	1.62
973.794	-0.38
974.521	-2.38
975.248	2.62
975.975	-0.38
976.702	1.62
977.429	-0.38
978.156	-0.38
978.882	-0.38
979.609	0.62
980.335	-1.38
981.062	-1.38
981.788	-1.38
982.514	0.62
983.24	0.62
983.967	0.62
984.693	0.62
985.419	-2.38
986.144	1.62
986.87	0.62
987.596	0.62
988.322	1.62
989.047	0.62
989.773	-0.38
990.498	-0.38
991.224	0.62
991.949	-0.38
992.674	1.62
993.399	-0.38
994.124	-1.38
994.849	1.62
995.574	1.62
996.299	-0.38
997.024	-0.38
997.749	-1.38
998.473	1.62
999.198	0.62
999.922	-0.38
1000.647	0.62
1001.371	3.62
1002.095	-2.38
1002.82	-1.38
1003.544	-1.38
1004.268	1.62
1004.992	1.62
1005.716	2.62
1006.439	2.62
1007.163	0.62
1007.887	1.62
1008.611	0.62
1009.334	1.62
1010.058	-1.38
1010.781	-0.38
1011.504	-1.38
1012.228	1.62
1012.951	0.62
1013.674	0.62
1014.397	0.62
1015.12	-0.38
