节点500_565_QEPB04081__627__10-00-50-940.txt的数据

Date: Thu Nov 13 10:00:50 CST 2025
User: PC
Spectrometer: QEPB0408
触发模式: 0
积分时间 (秒): 1.000000E-2
Scans to average: 1
启用暗噪声校正: true
启用非线性校正: false
滑动平均宽度: 0
X轴模式: Wavelengths
Number of Pixels in Spectrum: 1044
>>>>>Begin Spectral Data<<<<<
220.843	4.25
221.644	5.25
222.444	6.25
223.244	5.25
224.045	4.25
224.845	3.25
225.645	4.25
226.445	5.25
227.245	3.25
228.045	8.25
228.845	4.25
229.645	5.25
230.444	5.25
231.244	6.25
232.043	7.25
232.843	7.25
233.642	5.25
234.442	6.25
235.241	7.25
236.04	7.25
236.839	7.25
237.638	7.25
238.437	7.25
239.236	10.25
240.035	9.25
240.833	7.25
241.632	9.25
242.43	10.25
243.229	10.25
244.027	10.25
244.826	9.25
245.624	9.25
246.422	9.25
247.22	12.25
248.018	11.25
248.816	9.25
249.614	9.25
250.412	9.25
251.21	10.25
252.007	13.25
252.805	13.25
253.602	14.25
254.4	12.25
255.197	12.25
255.994	15.25
256.791	13.25
257.589	14.25
258.386	16.25
259.183	17.25
259.979	17.25
260.776	16.25
261.573	14.25
262.37	18.25
263.166	17.25
263.963	21.25
264.759	17.25
265.556	19.25
266.352	21.25
267.148	22.25
267.944	17.25
268.74	24.25
269.536	21.25
270.332	20.25
271.128	26.25
271.924	23.25
272.719	24.25
273.515	22.25
274.311	25.25
275.106	22.25
275.901	23.25
276.697	25.25
277.492	25.25
278.287	27.25
279.082	26.25
279.877	26.25
280.672	26.25
281.467	27.25
282.262	24.25
283.056	27.25
283.851	30.25
284.646	27.25
285.44	24.25
286.234	25.25
287.029	26.25
287.823	28.25
288.617	29.25
289.411	29.25
290.205	25.25
290.999	27.25
291.793	25.25
292.587	25.25
293.381	28.25
294.174	24.25
294.968	25.25
295.761	26.25
296.555	21.25
297.348	20.25
298.141	23.25
298.935	24.25
299.728	22.25
300.521	22.25
301.314	20.25
302.107	22.25
302.899	19.25
303.692	20.25
304.485	19.25
305.277	19.25
306.07	22.25
306.862	18.25
307.655	18.25
308.447	18.25
309.239	16.25
310.031	18.25
310.823	16.25
311.615	17.25
312.407	17.25
313.199	15.25
313.991	13.25
314.783	15.25
315.574	14.25
316.366	12.25
317.157	13.25
317.949	14.25
318.74	15.25
319.531	11.25
320.322	12.25
321.113	12.25
321.904	14.25
322.695	12.25
323.486	9.25
324.277	11.25
325.068	12.25
325.858	13.25
326.649	12.25
327.439	10.25
328.23	10.25
329.02	13.25
329.81	12.25
330.6	11.25
331.391	14.25
332.181	10.25
332.971	10.25
333.76	10.25
334.55	10.25
335.34	12.25
336.13	11.25
336.919	7.25
337.709	10.25
338.498	13.25
339.287	12.25
340.077	10.25
340.866	10.25
341.655	11.25
342.444	10.25
343.233	10.25
344.022	11.25
344.811	7.25
345.6	10.25
346.388	9.25
347.177	9.25
347.965	8.25
348.754	7.25
349.542	9.25
350.33	12.25
351.119	9.25
351.907	8.25
352.695	9.25
353.483	11.25
354.271	10.25
355.059	10.25
355.846	7.25
356.634	7.25
357.422	8.25
358.209	9.25
358.997	8.25
359.784	8.25
360.571	11.25
361.359	9.25
362.146	7.25
362.933	9.25
363.72	9.25
364.507	8.25
365.294	8.25
366.081	8.25
366.867	10.25
367.654	7.25
368.44	9.25
369.227	6.25
370.013	8.25
370.8	8.25
371.586	9.25
372.372	6.25
373.158	8.25
373.944	6.25
374.73	9.25
375.516	9.25
376.302	8.25
377.088	9.25
377.873	9.25
378.659	8.25
379.445	8.25
380.23	9.25
381.015	10.25
381.801	9.25
382.586	8.25
383.371	9.25
384.156	7.25
384.941	9.25
385.726	10.25
386.511	8.25
387.296	9.25
388.08	10.25
388.865	7.25
389.649	12.25
390.434	9.25
391.218	8.25
392.003	11.25
392.787	11.25
393.571	10.25
394.355	11.25
395.139	13.25
395.923	10.25
396.707	10.25
397.491	13.25
398.274	13.25
399.058	12.25
399.842	9.25
400.625	11.25
401.408	11.25
402.192	13.25
402.975	11.25
403.758	9.25
404.541	13.25
405.324	12.25
406.107	11.25
406.89	10.25
407.673	12.25
408.456	13.25
409.238	12.25
410.021	14.25
410.803	13.25
411.586	15.25
412.368	14.25
413.151	12.25
413.933	12.25
414.715	15.25
415.497	14.25
416.279	15.25
417.061	16.25
417.843	14.25
418.624	19.25
419.406	18.25
420.188	14.25
420.969	15.25
421.751	15.25
422.532	18.25
423.313	19.25
424.095	17.25
424.876	19.25
425.657	21.25
426.438	21.25
427.219	19.25
428	20.25
428.78	21.25
429.561	21.25
430.342	23.25
431.122	25.25
431.903	28.25
432.683	25.25
433.464	28.25
434.244	31.25
435.024	30.25
435.804	31.25
436.584	36.25
437.364	38.25
438.144	36.25
438.924	41.25
439.704	43.25
440.483	45.25
441.263	50.25
442.042	53.25
442.822	56.25
443.601	61.25
444.38	62.25
445.16	70.25
445.939	77.25
446.718	81.25
447.497	94.25
448.276	105.25
449.054	111.25
449.833	120.25
450.612	127.25
451.391	142.25
452.169	157.25
452.948	173.25
453.726	193.25
454.504	211.25
455.282	236.25
456.061	269.25
456.839	301.25
457.617	331.25
458.395	366.25
459.172	414.25
459.95	452.25
460.728	504.25
461.506	564.25
462.283	619.25
463.061	695.25
463.838	768.25
464.615	858.25
465.393	944.25
466.17	1046.25
466.947	1157.25
467.724	1273.25
468.501	1410.25
469.278	1559.25
470.055	1718.25
470.831	1913.25
471.608	2103.25
472.385	2289.25
473.161	2534.25
473.938	2784.25
474.714	2998.25
475.49	3313.25
476.266	3635.25
477.043	3948.25
477.819	4324.25
478.595	4693.25
479.371	5102.25
480.146	5520.25
480.922	6054.25
481.698	6575.25
482.473	7103.25
483.249	7680.25
484.024	8312.25
484.8	9002.25
485.575	9770.25
486.35	10509.25
487.126	11389.25
487.901	12273.25
488.676	13251.25
489.451	14290.25
490.225	15345.25
491	16465.25
491.775	17671.25
492.55	18907.25
493.324	20186.25
494.099	21532.25
494.873	22889.25
495.647	24334.25
496.422	25697.25
497.196	27066.25
497.97	28556.25
498.744	29885.25
499.518	31225.25
500.292	32430.25
501.066	33677.25
501.839	34725.25
502.613	35707.25
503.387	36456.25
504.16	37215.25
504.934	37732.25
505.707	37983.25
506.48	38132.25
507.253	38190.25
508.027	37848.25
508.8	37451.25
509.573	37018.25
510.346	36307.25
511.118	35449.25
511.891	34761.25
512.664	33805.25
513.437	32705.25
514.209	31607.25
514.982	30559.25
515.754	29463.25
516.526	28360.25
517.298	27201.25
518.071	26214.25
518.843	25110.25
519.615	24121.25
520.387	23174.25
521.159	22272.25
521.93	21444.25
522.702	20542.25
523.474	19716.25
524.245	18878.25
525.017	18251.25
525.788	17445.25
526.56	16687.25
527.331	16006.25
528.102	15316.25
528.873	14570.25
529.644	13842.25
530.415	13205.25
531.186	12569.25
531.957	12019.25
532.728	11476.25
533.498	10859.25
534.269	10273.25
535.039	9717.25
535.81	9236.25
536.58	8778.25
537.351	8298.25
538.121	7867.25
538.891	7441.25
539.661	7076.25
540.431	6679.25
541.201	6293.25
541.971	5985.25
542.741	5671.25
543.51	5374.25
544.28	5126.25
545.05	4849.25
545.819	4630.25
546.588	4393.25
547.358	4189.25
548.127	3982.25
548.896	3787.25
549.665	3627.25
550.434	3386.25
551.203	3246.25
551.972	3074.25
552.741	2914.25
553.51	2763.25
554.278	2610.25
555.047	2466.25
555.815	2343.25
556.584	2225.25
557.352	2103.25
558.121	1957.25
558.889	1859.25
559.657	1743.25
560.425	1669.25
561.193	1580.25
561.961	1496.25
562.729	1416.25
563.496	1338.25
564.264	1275.25
565.032	1198.25
565.799	1133.25
566.567	1078.25
567.334	1018.25
568.101	944.25
568.869	896.25
569.636	848.25
570.403	804.25
571.17	761.25
571.937	717.25
572.704	683.25
573.471	639.25
574.237	604.25
575.004	570.25
575.771	537.25
576.537	506.25
577.303	479.25
578.07	447.25
578.836	426.25
579.602	396.25
580.368	381.25
581.134	365.25
581.9	339.25
582.666	328.25
583.432	311.25
584.198	298.25
584.964	283.25
585.729	264.25
586.495	251.25
587.26	233.25
588.025	224.25
588.791	209.25
589.556	204.25
590.321	191.25
591.086	184.25
591.851	173.25
592.616	167.25
593.381	155.25
594.146	151.25
594.911	145.25
595.675	137.25
596.44	128.25
597.204	130.25
597.969	120.25
598.733	115.25
599.497	107.25
600.261	103.25
601.025	100.25
601.79	94.25
602.553	92.25
603.317	89.25
604.081	82.25
604.845	79.25
605.609	75.25
606.372	76.25
607.136	67.25
607.899	65.25
608.662	66.25
609.426	64.25
610.189	64.25
610.952	59.25
611.715	57.25
612.478	55.25
613.241	50.25
614.004	51.25
614.767	51.25
615.529	46.25
616.292	47.25
617.055	45.25
617.817	46.25
618.579	43.25
619.342	39.25
620.104	37.25
620.866	37.25
621.628	38.25
622.39	30.25
623.152	35.25
623.914	35.25
624.676	33.25
625.438	34.25
626.199	28.25
626.961	27.25
627.722	28.25
628.484	26.25
629.245	25.25
630.006	23.25
630.768	21.25
631.529	22.25
632.29	22.25
633.051	21.25
633.812	22.25
634.573	19.25
635.333	18.25
636.094	23.25
636.855	19.25
637.615	22.25
638.376	18.25
639.136	20.25
639.896	15.25
640.657	15.25
641.417	18.25
642.177	14.25
642.937	15.25
643.697	16.25
644.457	14.25
645.216	14.25
645.976	13.25
646.736	15.25
647.495	14.25
648.255	15.25
649.014	12.25
649.774	12.25
650.533	9.25
651.292	12.25
652.051	11.25
652.81	12.25
653.569	13.25
654.328	10.25
655.087	10.25
655.846	12.25
656.604	9.25
657.363	10.25
658.121	10.25
658.88	11.25
659.638	11.25
660.397	11.25
661.155	8.25
661.913	10.25
662.671	8.25
663.429	9.25
664.187	8.25
664.945	7.25
665.703	9.25
666.46	9.25
667.218	9.25
667.976	9.25
668.733	6.25
669.49	9.25
670.248	7.25
671.005	7.25
671.762	8.25
672.519	8.25
673.276	9.25
674.033	6.25
674.79	8.25
675.547	7.25
676.304	7.25
677.06	5.25
677.817	6.25
678.574	8.25
679.33	8.25
680.086	7.25
680.843	5.25
681.599	8.25
682.355	7.25
683.111	9.25
683.867	7.25
684.623	8.25
685.379	7.25
686.135	6.25
686.89	7.25
687.646	5.25
688.402	7.25
689.157	7.25
689.912	6.25
690.668	7.25
691.423	5.25
692.178	6.25
692.933	7.25
693.688	7.25
694.443	6.25
695.198	8.25
695.953	6.25
696.708	5.25
697.462	7.25
698.217	4.25
698.972	7.25
699.726	9.25
700.48	7.25
701.235	5.25
701.989	8.25
702.743	7.25
703.497	5.25
704.251	8.25
705.005	5.25
705.759	6.25
706.513	7.25
707.266	9.25
708.02	7.25
708.774	7.25
709.527	7.25
710.28	5.25
711.034	9.25
711.787	5.25
712.54	5.25
713.293	7.25
714.046	5.25
714.799	6.25
715.552	3.25
716.305	7.25
717.058	6.25
717.81	7.25
718.563	6.25
719.315	7.25
720.068	9.25
720.82	7.25
721.573	8.25
722.325	6.25
723.077	9.25
723.829	8.25
724.581	5.25
725.333	7.25
726.085	5.25
726.836	8.25
727.588	6.25
728.34	7.25
729.091	5.25
729.843	9.25
730.594	7.25
731.346	7.25
732.097	5.25
732.848	6.25
733.599	7.25
734.35	6.25
735.101	8.25
735.852	7.25
736.603	10.25
737.354	8.25
738.104	7.25
738.855	6.25
739.605	8.25
740.356	7.25
741.106	9.25
741.856	9.25
742.607	8.25
743.357	9.25
744.107	10.25
744.857	8.25
745.607	8.25
746.357	7.25
747.106	8.25
747.856	10.25
748.606	7.25
749.355	8.25
750.105	12.25
750.854	7.25
751.603	6.25
752.353	9.25
753.102	9.25
753.851	9.25
754.6	11.25
755.349	10.25
756.098	9.25
756.847	10.25
757.595	9.25
758.344	7.25
759.093	9.25
759.841	11.25
760.589	11.25
761.338	12.25
762.086	12.25
762.834	10.25
763.582	10.25
764.331	9.25
765.079	11.25
765.826	12.25
766.574	11.25
767.322	9.25
768.07	10.25
768.817	14.25
769.565	11.25
770.312	13.25
771.06	11.25
771.807	13.25
772.554	11.25
773.302	10.25
774.049	12.25
774.796	8.25
775.543	11.25
776.29	13.25
777.036	13.25
777.783	13.25
778.53	10.25
779.276	12.25
780.023	11.25
780.769	13.25
781.516	14.25
782.262	9.25
783.008	13.25
783.754	13.25
784.5	11.25
785.246	13.25
785.992	14.25
786.738	12.25
787.484	14.25
788.23	11.25
788.975	7.25
789.721	15.25
790.466	9.25
791.212	14.25
791.957	11.25
792.702	13.25
793.447	12.25
794.193	14.25
794.938	9.25
795.683	10.25
796.427	13.25
797.172	10.25
797.917	11.25
798.662	13.25
799.406	11.25
800.151	13.25
800.895	10.25
801.64	11.25
802.384	10.25
803.128	9.25
803.872	12.25
804.616	11.25
805.36	9.25
806.104	10.25
806.848	9.25
807.592	10.25
808.336	9.25
809.079	7.25
809.823	11.25
810.566	9.25
811.31	8.25
812.053	9.25
812.796	7.25
813.539	7.25
814.283	7.25
815.026	6.25
815.769	7.25
816.511	7.25
817.254	9.25
817.997	5.25
818.74	7.25
819.482	5.25
820.225	5.25
820.967	6.25
821.71	5.25
822.452	9.25
823.194	6.25
823.936	7.25
824.678	6.25
825.42	7.25
826.162	7.25
826.904	6.25
827.646	7.25
828.388	6.25
829.129	5.25
829.871	6.25
830.612	5.25
831.354	6.25
832.095	5.25
832.836	9.25
833.577	5.25
834.319	7.25
835.06	5.25
835.801	6.25
836.542	5.25
837.282	5.25
838.023	4.25
838.764	4.25
839.504	5.25
840.245	5.25
840.985	5.25
841.726	4.25
842.466	3.25
843.206	3.25
843.946	4.25
844.687	6.25
845.427	2.25
846.166	4.25
846.906	6.25
847.646	4.25
848.386	6.25
849.125	4.25
849.865	4.25
850.605	3.25
851.344	5.25
852.083	2.25
852.823	6.25
853.562	5.25
854.301	4.25
855.04	3.25
855.779	2.25
856.518	5.25
857.257	3.25
857.995	3.25
858.734	1.25
859.473	2.25
860.211	1.25
860.95	5.25
861.688	5.25
862.426	2.25
863.165	3.25
863.903	4.25
864.641	1.25
865.379	1.25
866.117	2.25
866.855	2.25
867.593	4.25
868.33	3.25
869.068	3.25
869.806	4.25
870.543	4.25
871.28	1.25
872.018	3.25
872.755	1.25
873.492	3.25
874.229	4.25
874.967	3.25
875.703	3.25
876.44	1.25
877.177	3.25
877.914	2.25
878.651	1.25
879.387	1.25
880.124	3.25
880.86	1.25
881.597	-0.75
882.333	7.25
883.069	1.25
883.806	3.25
884.542	0.25
885.278	1.25
886.014	1.25
886.749	0.25
887.485	2.25
888.221	0.25
888.957	1.25
889.692	3.25
890.428	2.25
891.163	2.25
891.899	3.25
892.634	-0.75
893.369	1.25
894.104	0.25
894.839	0.25
895.574	1.25
896.309	2.25
897.044	2.25
897.779	1.25
898.514	3.25
899.248	3.25
899.983	3.25
900.717	1.25
901.452	1.25
902.186	1.25
902.92	-1.75
903.654	1.25
904.389	1.25
905.123	0.25
905.857	1.25
906.59	0.25
907.324	3.25
908.058	1.25
908.792	0.25
909.525	2.25
910.259	1.25
910.992	1.25
911.726	0.25
912.459	1.25
913.192	3.25
913.925	1.25
914.658	2.25
915.391	0.25
916.124	2.25
916.857	1.25
917.59	0.25
918.323	3.25
919.055	2.25
919.788	0.25
920.521	1.25
921.253	2.25
921.985	-1.75
922.718	1.25
923.45	1.25
924.182	0.25
924.914	1.25
925.646	1.25
926.378	0.25
927.11	-0.75
927.841	2.25
928.573	-1.75
929.305	2.25
930.036	-0.75
930.768	0.25
931.499	0.25
932.23	1.25
932.962	0.25
933.693	0.25
934.424	-1.75
935.155	2.25
935.886	-0.75
936.617	0.25
937.348	-0.75
938.078	2.25
938.809	2.25
939.54	1.25
940.27	1.25
941.001	2.25
941.731	1.25
942.461	-0.75
943.191	2.25
943.922	0.25
944.652	3.25
945.382	-0.75
946.112	-0.75
946.841	1.25
947.571	0.25
948.301	2.25
949.031	2.25
949.76	0.25
950.49	1.25
951.219	2.25
951.948	0.25
952.678	0.25
953.407	1.25
954.136	-0.75
954.865	0.25
955.594	0.25
956.323	-0.75
957.052	1.25
957.78	0.25
958.509	2.25
959.238	0.25
959.966	1.25
960.695	1.25
961.423	1.25
962.151	2.25
962.88	2.25
963.608	1.25
964.336	1.25
965.064	0.25
965.792	0.25
966.52	0.25
967.247	1.25
967.975	-0.75
968.703	1.25
969.43	3.25
970.158	1.25
970.885	-0.75
971.613	1.25
972.34	0.25
973.067	0.25
973.794	2.25
974.521	-1.75
975.248	1.25
975.975	1.25
976.702	3.25
977.429	-0.75
978.156	1.25
978.882	0.25
979.609	0.25
980.335	3.25
981.062	-1.75
981.788	2.25
982.514	2.25
983.24	0.25
983.967	0.25
984.693	1.25
985.419	1.25
986.144	1.25
986.87	0.25
987.596	1.25
988.322	2.25
989.047	-1.75
989.773	-0.75
990.498	3.25
991.224	1.25
991.949	-1.75
992.674	1.25
993.399	1.25
994.124	1.25
994.849	2.25
995.574	-0.75
996.299	1.25
997.024	2.25
997.749	-0.75
998.473	0.25
999.198	2.25
999.922	-0.75
1000.647	0.25
1001.371	2.25
1002.095	-0.75
1002.82	-0.75
1003.544	-1.75
1004.268	4.25
1004.992	4.25
1005.716	2.25
1006.439	3.25
1007.163	5.25
1007.887	5.25
1008.611	-0.75
1009.334	1.25
1010.058	0.25
1010.781	1.25
1011.504	1.25
1012.228	0.25
1012.951	1.25
1013.674	0.25
1014.397	0.25
1015.12	-0.75
