节点500_565_QEPB04081__383__09-56-47-356.txt的数据

Date: Thu Nov 13 09:56:47 CST 2025
User: PC
Spectrometer: QEPB0408
触发模式: 0
积分时间 (秒): 1.000000E-2
Scans to average: 1
启用暗噪声校正: true
启用非线性校正: false
滑动平均宽度: 0
X轴模式: Wavelengths
Number of Pixels in Spectrum: 1044
>>>>>Begin Spectral Data<<<<<
220.843	3.75
221.644	2.75
222.444	4.75
223.244	4.75
224.045	5.75
224.845	5.75
225.645	2.75
226.445	5.75
227.245	4.75
228.045	4.75
228.845	3.75
229.645	6.75
230.444	5.75
231.244	6.75
232.043	6.75
232.843	8.75
233.642	5.75
234.442	8.75
235.241	9.75
236.04	9.75
236.839	3.75
237.638	8.75
238.437	7.75
239.236	6.75
240.035	7.75
240.833	7.75
241.632	8.75
242.43	8.75
243.229	9.75
244.027	10.75
244.826	10.75
245.624	12.75
246.422	12.75
247.22	9.75
248.018	12.75
248.816	13.75
249.614	9.75
250.412	13.75
251.21	14.75
252.007	12.75
252.805	10.75
253.602	12.75
254.4	12.75
255.197	12.75
255.994	14.75
256.791	13.75
257.589	14.75
258.386	13.75
259.183	15.75
259.979	16.75
260.776	18.75
261.573	15.75
262.37	15.75
263.166	18.75
263.963	19.75
264.759	19.75
265.556	20.75
266.352	19.75
267.148	22.75
267.944	22.75
268.74	21.75
269.536	22.75
270.332	26.75
271.128	25.75
271.924	25.75
272.719	24.75
273.515	28.75
274.311	24.75
275.106	24.75
275.901	25.75
276.697	25.75
277.492	29.75
278.287	24.75
279.082	27.75
279.877	26.75
280.672	26.75
281.467	27.75
282.262	28.75
283.056	26.75
283.851	29.75
284.646	28.75
285.44	30.75
286.234	27.75
287.029	27.75
287.823	25.75
288.617	25.75
289.411	29.75
290.205	27.75
290.999	28.75
291.793	26.75
292.587	25.75
293.381	23.75
294.174	24.75
294.968	27.75
295.761	20.75
296.555	21.75
297.348	22.75
298.141	22.75
298.935	23.75
299.728	20.75
300.521	19.75
301.314	18.75
302.107	19.75
302.899	18.75
303.692	17.75
304.485	19.75
305.277	15.75
306.07	20.75
306.862	20.75
307.655	17.75
308.447	16.75
309.239	18.75
310.031	17.75
310.823	17.75
311.615	18.75
312.407	12.75
313.199	16.75
313.991	12.75
314.783	14.75
315.574	12.75
316.366	12.75
317.157	12.75
317.949	12.75
318.74	13.75
319.531	10.75
320.322	10.75
321.113	13.75
321.904	11.75
322.695	11.75
323.486	9.75
324.277	11.75
325.068	13.75
325.858	12.75
326.649	12.75
327.439	10.75
328.23	8.75
329.02	9.75
329.81	10.75
330.6	9.75
331.391	10.75
332.181	9.75
332.971	7.75
333.76	9.75
334.55	10.75
335.34	10.75
336.13	9.75
336.919	9.75
337.709	7.75
338.498	11.75
339.287	8.75
340.077	8.75
340.866	9.75
341.655	10.75
342.444	8.75
343.233	8.75
344.022	10.75
344.811	10.75
345.6	11.75
346.388	11.75
347.177	8.75
347.965	9.75
348.754	8.75
349.542	7.75
350.33	7.75
351.119	8.75
351.907	9.75
352.695	9.75
353.483	8.75
354.271	9.75
355.059	8.75
355.846	8.75
356.634	7.75
357.422	8.75
358.209	8.75
358.997	10.75
359.784	7.75
360.571	8.75
361.359	8.75
362.146	6.75
362.933	12.75
363.72	9.75
364.507	6.75
365.294	9.75
366.081	7.75
366.867	7.75
367.654	8.75
368.44	7.75
369.227	8.75
370.013	8.75
370.8	5.75
371.586	7.75
372.372	7.75
373.158	8.75
373.944	6.75
374.73	6.75
375.516	9.75
376.302	8.75
377.088	8.75
377.873	6.75
378.659	8.75
379.445	8.75
380.23	8.75
381.015	6.75
381.801	8.75
382.586	9.75
383.371	7.75
384.156	9.75
384.941	7.75
385.726	8.75
386.511	8.75
387.296	7.75
388.08	10.75
388.865	6.75
389.649	9.75
390.434	7.75
391.218	10.75
392.003	12.75
392.787	9.75
393.571	10.75
394.355	9.75
395.139	10.75
395.923	9.75
396.707	13.75
397.491	10.75
398.274	9.75
399.058	9.75
399.842	10.75
400.625	13.75
401.408	10.75
402.192	10.75
402.975	11.75
403.758	10.75
404.541	10.75
405.324	13.75
406.107	12.75
406.89	12.75
407.673	12.75
408.456	13.75
409.238	16.75
410.021	14.75
410.803	13.75
411.586	14.75
412.368	14.75
413.151	14.75
413.933	12.75
414.715	16.75
415.497	14.75
416.279	14.75
417.061	13.75
417.843	14.75
418.624	17.75
419.406	15.75
420.188	16.75
420.969	17.75
421.751	17.75
422.532	20.75
423.313	18.75
424.095	18.75
424.876	19.75
425.657	19.75
426.438	22.75
427.219	21.75
428	20.75
428.78	22.75
429.561	23.75
430.342	23.75
431.122	24.75
431.903	26.75
432.683	28.75
433.464	26.75
434.244	29.75
435.024	32.75
435.804	31.75
436.584	33.75
437.364	35.75
438.144	41.75
438.924	37.75
439.704	42.75
440.483	47.75
441.263	48.75
442.042	54.75
442.822	57.75
443.601	58.75
444.38	61.75
445.16	66.75
445.939	73.75
446.718	74.75
447.497	85.75
448.276	93.75
449.054	104.75
449.833	113.75
450.612	123.75
451.391	132.75
452.169	151.75
452.948	167.75
453.726	180.75
454.504	203.75
455.282	225.75
456.061	248.75
456.839	274.75
457.617	305.75
458.395	341.75
459.172	389.75
459.95	433.75
460.728	472.75
461.506	530.75
462.283	585.75
463.061	657.75
463.838	739.75
464.615	818.75
465.393	912.75
466.17	1010.75
466.947	1110.75
467.724	1246.75
468.501	1384.75
469.278	1529.75
470.055	1700.75
470.831	1888.75
471.608	2070.75
472.385	2295.75
473.161	2519.75
473.938	2784.75
474.714	3040.75
475.49	3353.75
476.266	3664.75
477.043	4042.75
477.819	4424.75
478.595	4815.75
479.371	5282.75
480.146	5759.75
480.922	6259.75
481.698	6829.75
482.473	7435.75
483.249	8082.75
484.024	8774.75
484.8	9546.75
485.575	10406.75
486.35	11218.75
487.126	12182.75
487.901	13173.75
488.676	14286.75
489.451	15480.75
490.225	16698.75
491	17925.75
491.775	19218.75
492.55	20698.75
493.324	22097.75
494.099	23566.75
494.873	25080.75
495.647	26643.75
496.422	28348.75
497.196	29799.75
497.97	31273.75
498.744	32689.75
499.518	34079.75
500.292	35355.75
501.066	36570.75
501.839	37620.75
502.613	38424.75
503.387	39271.75
504.16	39846.75
504.934	40137.75
505.707	40368.75
506.48	40267.75
507.253	40058.75
508.027	39501.75
508.8	38969.75
509.573	38145.75
510.346	37227.75
511.118	36173.75
511.891	35328.75
512.664	34170.75
513.437	32967.75
514.209	31722.75
514.982	30561.75
515.754	29448.75
516.526	28163.75
517.298	27000.75
518.071	25958.75
518.843	24903.75
519.615	23904.75
520.387	22974.75
521.159	22096.75
521.93	21149.75
522.702	20256.75
523.474	19466.75
524.245	18687.75
525.017	17984.75
525.788	17143.75
526.56	16427.75
527.331	15671.75
528.102	14982.75
528.873	14216.75
529.644	13574.75
530.415	12902.75
531.186	12233.75
531.957	11652.75
532.728	11073.75
533.498	10524.75
534.269	9936.75
535.039	9404.75
535.81	8897.75
536.58	8435.75
537.351	7977.75
538.121	7528.75
538.891	7149.75
539.661	6771.75
540.431	6401.75
541.201	6070.75
541.971	5749.75
542.741	5409.75
543.51	5138.75
544.28	4877.75
545.05	4682.75
545.819	4447.75
546.588	4219.75
547.358	4019.75
548.127	3809.75
548.896	3600.75
549.665	3430.75
550.434	3248.75
551.203	3094.75
551.972	2942.75
552.741	2788.75
553.51	2607.75
554.278	2484.75
555.047	2337.75
555.815	2203.75
556.584	2108.75
557.352	1994.75
558.121	1854.75
558.889	1752.75
559.657	1666.75
560.425	1580.75
561.193	1492.75
561.961	1408.75
562.729	1329.75
563.496	1265.75
564.264	1199.75
565.032	1128.75
565.799	1079.75
566.567	1016.75
567.334	961.75
568.101	899.75
568.869	849.75
569.636	798.75
570.403	766.75
571.17	722.75
571.937	685.75
572.704	645.75
573.471	595.75
574.237	563.75
575.004	529.75
575.771	501.75
576.537	470.75
577.303	452.75
578.07	426.75
578.836	405.75
579.602	379.75
580.368	356.75
581.134	337.75
581.9	324.75
582.666	305.75
583.432	289.75
584.198	272.75
584.964	267.75
585.729	245.75
586.495	235.75
587.26	220.75
588.025	214.75
588.791	205.75
589.556	190.75
590.321	177.75
591.086	170.75
591.851	157.75
592.616	156.75
593.381	150.75
594.146	141.75
594.911	131.75
595.675	128.75
596.44	126.75
597.204	119.75
597.969	111.75
598.733	109.75
599.497	102.75
600.261	100.75
601.025	94.75
601.79	91.75
602.553	84.75
603.317	85.75
604.081	80.75
604.845	78.75
605.609	75.75
606.372	69.75
607.136	66.75
607.899	63.75
608.662	62.75
609.426	57.75
610.189	58.75
610.952	54.75
611.715	55.75
612.478	52.75
613.241	51.75
614.004	49.75
614.767	44.75
615.529	45.75
616.292	40.75
617.055	41.75
617.817	38.75
618.579	37.75
619.342	35.75
620.104	37.75
620.866	34.75
621.628	33.75
622.39	32.75
623.152	33.75
623.914	29.75
624.676	30.75
625.438	29.75
626.199	25.75
626.961	28.75
627.722	27.75
628.484	26.75
629.245	24.75
630.006	24.75
630.768	22.75
631.529	20.75
632.29	19.75
633.051	21.75
633.812	21.75
634.573	22.75
635.333	20.75
636.094	19.75
636.855	18.75
637.615	18.75
638.376	17.75
639.136	16.75
639.896	18.75
640.657	14.75
641.417	14.75
642.177	16.75
642.937	16.75
643.697	15.75
644.457	14.75
645.216	14.75
645.976	12.75
646.736	12.75
647.495	9.75
648.255	13.75
649.014	11.75
649.774	9.75
650.533	10.75
651.292	11.75
652.051	11.75
652.81	9.75
653.569	11.75
654.328	10.75
655.087	10.75
655.846	11.75
656.604	9.75
657.363	8.75
658.121	11.75
658.88	11.75
659.638	7.75
660.397	9.75
661.155	9.75
661.913	9.75
662.671	8.75
663.429	7.75
664.187	7.75
664.945	6.75
665.703	8.75
666.46	9.75
667.218	9.75
667.976	8.75
668.733	8.75
669.49	8.75
670.248	6.75
671.005	12.75
671.762	8.75
672.519	8.75
673.276	8.75
674.033	8.75
674.79	6.75
675.547	4.75
676.304	8.75
677.06	7.75
677.817	8.75
678.574	5.75
679.33	6.75
680.086	9.75
680.843	4.75
681.599	8.75
682.355	6.75
683.111	6.75
683.867	6.75
684.623	7.75
685.379	5.75
686.135	4.75
686.89	6.75
687.646	5.75
688.402	7.75
689.157	4.75
689.912	6.75
690.668	8.75
691.423	6.75
692.178	7.75
692.933	5.75
693.688	6.75
694.443	6.75
695.198	4.75
695.953	4.75
696.708	7.75
697.462	8.75
698.217	7.75
698.972	6.75
699.726	6.75
700.48	7.75
701.235	6.75
701.989	5.75
702.743	7.75
703.497	6.75
704.251	7.75
705.005	7.75
705.759	4.75
706.513	7.75
707.266	3.75
708.02	7.75
708.774	4.75
709.527	5.75
710.28	4.75
711.034	6.75
711.787	5.75
712.54	5.75
713.293	4.75
714.046	2.75
714.799	8.75
715.552	6.75
716.305	5.75
717.058	2.75
717.81	4.75
718.563	5.75
719.315	6.75
720.068	3.75
720.82	6.75
721.573	6.75
722.325	6.75
723.077	4.75
723.829	8.75
724.581	6.75
725.333	6.75
726.085	7.75
726.836	6.75
727.588	5.75
728.34	6.75
729.091	6.75
729.843	6.75
730.594	8.75
731.346	7.75
732.097	7.75
732.848	7.75
733.599	4.75
734.35	4.75
735.101	7.75
735.852	7.75
736.603	8.75
737.354	6.75
738.104	6.75
738.855	8.75
739.605	8.75
740.356	8.75
741.106	7.75
741.856	6.75
742.607	8.75
743.357	6.75
744.107	8.75
744.857	6.75
745.607	9.75
746.357	7.75
747.106	10.75
747.856	9.75
748.606	6.75
749.355	8.75
750.105	9.75
750.854	5.75
751.603	9.75
752.353	8.75
753.102	9.75
753.851	8.75
754.6	9.75
755.349	6.75
756.098	9.75
756.847	11.75
757.595	6.75
758.344	9.75
759.093	8.75
759.841	9.75
760.589	10.75
761.338	10.75
762.086	11.75
762.834	9.75
763.582	8.75
764.331	12.75
765.079	11.75
765.826	10.75
766.574	11.75
767.322	10.75
768.07	9.75
768.817	13.75
769.565	10.75
770.312	9.75
771.06	12.75
771.807	13.75
772.554	12.75
773.302	10.75
774.049	11.75
774.796	13.75
775.543	13.75
776.29	11.75
777.036	10.75
777.783	14.75
778.53	12.75
779.276	12.75
780.023	8.75
780.769	12.75
781.516	13.75
782.262	12.75
783.008	12.75
783.754	12.75
784.5	12.75
785.246	12.75
785.992	13.75
786.738	13.75
787.484	10.75
788.23	13.75
788.975	13.75
789.721	11.75
790.466	12.75
791.212	10.75
791.957	15.75
792.702	13.75
793.447	12.75
794.193	12.75
794.938	13.75
795.683	10.75
796.427	14.75
797.172	11.75
797.917	9.75
798.662	10.75
799.406	12.75
800.151	8.75
800.895	8.75
801.64	9.75
802.384	10.75
803.128	9.75
803.872	9.75
804.616	10.75
805.36	11.75
806.104	8.75
806.848	7.75
807.592	6.75
808.336	8.75
809.079	8.75
809.823	7.75
810.566	7.75
811.31	5.75
812.053	9.75
812.796	4.75
813.539	6.75
814.283	10.75
815.026	9.75
815.769	6.75
816.511	7.75
817.254	7.75
817.997	7.75
818.74	7.75
819.482	5.75
820.225	7.75
820.967	6.75
821.71	4.75
822.452	8.75
823.194	5.75
823.936	6.75
824.678	3.75
825.42	6.75
826.162	5.75
826.904	4.75
827.646	6.75
828.388	3.75
829.129	6.75
829.871	5.75
830.612	2.75
831.354	5.75
832.095	5.75
832.836	6.75
833.577	6.75
834.319	4.75
835.06	7.75
835.801	4.75
836.542	5.75
837.282	4.75
838.023	3.75
838.764	4.75
839.504	4.75
840.245	3.75
840.985	5.75
841.726	4.75
842.466	3.75
843.206	6.75
843.946	4.75
844.687	4.75
845.427	5.75
846.166	5.75
846.906	4.75
847.646	6.75
848.386	5.75
849.125	4.75
849.865	5.75
850.605	4.75
851.344	3.75
852.083	4.75
852.823	4.75
853.562	3.75
854.301	6.75
855.04	4.75
855.779	3.75
856.518	2.75
857.257	4.75
857.995	3.75
858.734	4.75
859.473	2.75
860.211	2.75
860.95	0.75
861.688	4.75
862.426	4.75
863.165	0.75
863.903	3.75
864.641	2.75
865.379	4.75
866.117	2.75
866.855	5.75
867.593	1.75
868.33	3.75
869.068	2.75
869.806	1.75
870.543	4.75
871.28	0.75
872.018	2.75
872.755	1.75
873.492	0.75
874.229	1.75
874.967	2.75
875.703	0.75
876.44	1.75
877.177	-0.25
877.914	1.75
878.651	2.75
879.387	3.75
880.124	1.75
880.86	2.75
881.597	4.75
882.333	3.75
883.069	-1.25
883.806	4.75
884.542	0.75
885.278	2.75
886.014	-1.25
886.749	0.75
887.485	2.75
888.221	1.75
888.957	0.75
889.692	1.75
890.428	0.75
891.163	0.75
891.899	0.75
892.634	-2.25
893.369	3.75
894.104	1.75
894.839	3.75
895.574	0.75
896.309	-0.25
897.044	1.75
897.779	0.75
898.514	0.75
899.248	0.75
899.983	0.75
900.717	1.75
901.452	1.75
902.186	-0.25
902.92	0.75
903.654	0.75
904.389	1.75
905.123	-3.25
905.857	0.75
906.59	1.75
907.324	-1.25
908.058	1.75
908.792	0.75
909.525	0.75
910.259	0.75
910.992	1.75
911.726	-1.25
912.459	-1.25
913.192	0.75
913.925	-0.25
914.658	2.75
915.391	-0.25
916.124	0.75
916.857	1.75
917.59	1.75
918.323	0.75
919.055	-1.25
919.788	0.75
920.521	-0.25
921.253	-0.25
921.985	1.75
922.718	1.75
923.45	1.75
924.182	0.75
924.914	-1.25
925.646	-2.25
926.378	-0.25
927.11	-0.25
927.841	0.75
928.573	0.75
929.305	0.75
930.036	0.75
930.768	-2.25
931.499	1.75
932.23	-2.25
932.962	-2.25
933.693	-1.25
934.424	0.75
935.155	1.75
935.886	-2.25
936.617	0.75
937.348	-0.25
938.078	1.75
938.809	0.75
939.54	-0.25
940.27	0.75
941.001	-0.25
941.731	3.75
942.461	-0.25
943.191	2.75
943.922	0.75
944.652	1.75
945.382	0.75
946.112	1.75
946.841	-0.25
947.571	-1.25
948.301	0.75
949.031	-1.25
949.76	-0.25
950.49	-1.25
951.219	-1.25
951.948	0.75
952.678	0.75
953.407	-0.25
954.136	1.75
954.865	0.75
955.594	0.75
956.323	0.75
957.052	0.75
957.78	2.75
958.509	-0.25
959.238	-1.25
959.966	0.75
960.695	0.75
961.423	-1.25
962.151	-1.25
962.88	0.75
963.608	-0.25
964.336	0.75
965.064	-0.25
965.792	2.75
966.52	-1.25
967.247	0.75
967.975	-1.25
968.703	-1.25
969.43	0.75
970.158	0.75
970.885	-0.25
971.613	-0.25
972.34	0.75
973.067	-2.25
973.794	-0.25
974.521	-1.25
975.248	-1.25
975.975	-0.25
976.702	-0.25
977.429	-0.25
978.156	-1.25
978.882	1.75
979.609	0.75
980.335	3.75
981.062	-2.25
981.788	0.75
982.514	0.75
983.24	-1.25
983.967	0.75
984.693	0.75
985.419	0.75
986.144	-3.25
986.87	-0.25
987.596	1.75
988.322	-2.25
989.047	1.75
989.773	-1.25
990.498	1.75
991.224	1.75
991.949	-2.25
992.674	2.75
993.399	-0.25
994.124	-1.25
994.849	0.75
995.574	-1.25
996.299	-0.25
997.024	-0.25
997.749	-0.25
998.473	0.75
999.198	0.75
999.922	0.75
1000.647	-0.25
1001.371	2.75
1002.095	0.75
1002.82	-1.25
1003.544	0.75
1004.268	2.75
1004.992	3.75
1005.716	1.75
1006.439	4.75
1007.163	3.75
1007.887	2.75
1008.611	2.75
1009.334	-0.25
1010.058	-1.25
1010.781	-0.25
1011.504	1.75
1012.228	0.75
1012.951	-0.25
1013.674	-1.25
1014.397	-1.25
1015.12	-0.25
