节点500_565_QEPB04081__139__09-52-44-924.txt的数据

Date: Thu Nov 13 09:52:44 CST 2025
User: PC
Spectrometer: QEPB0408
触发模式: 0
积分时间 (秒): 1.000000E-2
Scans to average: 1
启用暗噪声校正: true
启用非线性校正: false
滑动平均宽度: 0
X轴模式: Wavelengths
Number of Pixels in Spectrum: 1044
>>>>>Begin Spectral Data<<<<<
220.843	3.5
221.644	1.5
222.444	4.5
223.244	3.5
224.045	4.5
224.845	7.5
225.645	6.5
226.445	4.5
227.245	5.5
228.045	5.5
228.845	6.5
229.645	3.5
230.444	4.5
231.244	5.5
232.043	9.5
232.843	7.5
233.642	9.5
234.442	7.5
235.241	7.5
236.04	10.5
236.839	8.5
237.638	7.5
238.437	6.5
239.236	9.5
240.035	7.5
240.833	10.5
241.632	10.5
242.43	9.5
243.229	9.5
244.027	11.5
244.826	10.5
245.624	10.5
246.422	10.5
247.22	11.5
248.018	10.5
248.816	10.5
249.614	14.5
250.412	15.5
251.21	14.5
252.007	11.5
252.805	13.5
253.602	12.5
254.4	15.5
255.197	16.5
255.994	15.5
256.791	15.5
257.589	16.5
258.386	16.5
259.183	18.5
259.979	18.5
260.776	20.5
261.573	19.5
262.37	20.5
263.166	22.5
263.963	21.5
264.759	22.5
265.556	23.5
266.352	23.5
267.148	23.5
267.944	23.5
268.74	23.5
269.536	27.5
270.332	26.5
271.128	28.5
271.924	27.5
272.719	28.5
273.515	27.5
274.311	29.5
275.106	27.5
275.901	28.5
276.697	27.5
277.492	28.5
278.287	29.5
279.082	29.5
279.877	32.5
280.672	30.5
281.467	30.5
282.262	29.5
283.056	26.5
283.851	29.5
284.646	31.5
285.44	29.5
286.234	29.5
287.029	31.5
287.823	29.5
288.617	29.5
289.411	30.5
290.205	26.5
290.999	27.5
291.793	29.5
292.587	26.5
293.381	27.5
294.174	25.5
294.968	28.5
295.761	28.5
296.555	24.5
297.348	21.5
298.141	25.5
298.935	25.5
299.728	21.5
300.521	22.5
301.314	20.5
302.107	20.5
302.899	18.5
303.692	19.5
304.485	16.5
305.277	19.5
306.07	20.5
306.862	19.5
307.655	19.5
308.447	20.5
309.239	18.5
310.031	17.5
310.823	16.5
311.615	15.5
312.407	13.5
313.199	16.5
313.991	14.5
314.783	14.5
315.574	15.5
316.366	14.5
317.157	16.5
317.949	13.5
318.74	9.5
319.531	12.5
320.322	10.5
321.113	13.5
321.904	11.5
322.695	10.5
323.486	10.5
324.277	10.5
325.068	14.5
325.858	11.5
326.649	11.5
327.439	12.5
328.23	12.5
329.02	9.5
329.81	9.5
330.6	9.5
331.391	10.5
332.181	12.5
332.971	8.5
333.76	11.5
334.55	9.5
335.34	11.5
336.13	9.5
336.919	11.5
337.709	10.5
338.498	8.5
339.287	12.5
340.077	8.5
340.866	10.5
341.655	11.5
342.444	8.5
343.233	11.5
344.022	9.5
344.811	10.5
345.6	8.5
346.388	9.5
347.177	11.5
347.965	10.5
348.754	10.5
349.542	9.5
350.33	10.5
351.119	10.5
351.907	9.5
352.695	12.5
353.483	6.5
354.271	8.5
355.059	9.5
355.846	11.5
356.634	8.5
357.422	12.5
358.209	9.5
358.997	8.5
359.784	10.5
360.571	9.5
361.359	10.5
362.146	8.5
362.933	9.5
363.72	10.5
364.507	10.5
365.294	7.5
366.081	8.5
366.867	7.5
367.654	7.5
368.44	8.5
369.227	8.5
370.013	10.5
370.8	9.5
371.586	9.5
372.372	7.5
373.158	8.5
373.944	7.5
374.73	8.5
375.516	9.5
376.302	7.5
377.088	8.5
377.873	10.5
378.659	7.5
379.445	10.5
380.23	8.5
381.015	8.5
381.801	10.5
382.586	8.5
383.371	11.5
384.156	10.5
384.941	8.5
385.726	9.5
386.511	10.5
387.296	7.5
388.08	9.5
388.865	9.5
389.649	8.5
390.434	10.5
391.218	10.5
392.003	9.5
392.787	11.5
393.571	9.5
394.355	10.5
395.139	11.5
395.923	10.5
396.707	11.5
397.491	10.5
398.274	10.5
399.058	10.5
399.842	11.5
400.625	8.5
401.408	10.5
402.192	11.5
402.975	16.5
403.758	15.5
404.541	12.5
405.324	11.5
406.107	11.5
406.89	14.5
407.673	13.5
408.456	13.5
409.238	13.5
410.021	14.5
410.803	16.5
411.586	15.5
412.368	14.5
413.151	14.5
413.933	13.5
414.715	16.5
415.497	16.5
416.279	16.5
417.061	16.5
417.843	16.5
418.624	12.5
419.406	16.5
420.188	18.5
420.969	17.5
421.751	19.5
422.532	18.5
423.313	20.5
424.095	19.5
424.876	18.5
425.657	19.5
426.438	22.5
427.219	22.5
428	21.5
428.78	24.5
429.561	22.5
430.342	26.5
431.122	25.5
431.903	25.5
432.683	29.5
433.464	28.5
434.244	27.5
435.024	34.5
435.804	33.5
436.584	32.5
437.364	35.5
438.144	37.5
438.924	37.5
439.704	43.5
440.483	42.5
441.263	48.5
442.042	49.5
442.822	52.5
443.601	55.5
444.38	59.5
445.16	67.5
445.939	69.5
446.718	73.5
447.497	81.5
448.276	89.5
449.054	96.5
449.833	108.5
450.612	113.5
451.391	125.5
452.169	137.5
452.948	155.5
453.726	160.5
454.504	194.5
455.282	210.5
456.061	233.5
456.839	249.5
457.617	287.5
458.395	320.5
459.172	353.5
459.95	398.5
460.728	442.5
461.506	494.5
462.283	561.5
463.061	616.5
463.838	697.5
464.615	767.5
465.393	866.5
466.17	958.5
466.947	1081.5
467.724	1207.5
468.501	1342.5
469.278	1485.5
470.055	1641.5
470.831	1845.5
471.608	2047.5
472.385	2259.5
473.161	2512.5
473.938	2773.5
474.714	3072.5
475.49	3376.5
476.266	3724.5
477.043	4128.5
477.819	4561.5
478.595	4986.5
479.371	5497.5
480.146	6006.5
480.922	6618.5
481.698	7234.5
482.473	7928.5
483.249	8619.5
484.024	9445.5
484.8	10378.5
485.575	11305.5
486.35	12275.5
487.126	13418.5
487.901	14637.5
488.676	15867.5
489.451	17245.5
490.225	18679.5
491	20112.5
491.775	21715.5
492.55	23335.5
493.324	24985.5
494.099	26640.5
494.873	28315.5
495.647	30177.5
496.422	31950.5
497.196	33664.5
497.97	35337.5
498.744	36774.5
499.518	38135.5
500.292	39394.5
501.066	40630.5
501.839	41710.5
502.613	42321.5
503.387	42995.5
504.16	43317.5
504.934	43368.5
505.707	43232.5
506.48	42851.5
507.253	42318.5
508.027	41383.5
508.8	40487.5
509.573	39442.5
510.346	38204.5
511.118	37085.5
511.891	35837.5
512.664	34541.5
513.437	33133.5
514.209	31696.5
514.982	30405.5
515.754	29152.5
516.526	27934.5
517.298	26651.5
518.071	25665.5
518.843	24568.5
519.615	23572.5
520.387	22613.5
521.159	21746.5
521.93	20866.5
522.702	19971.5
523.474	19152.5
524.245	18372.5
525.017	17631.5
525.788	16804.5
526.56	15995.5
527.331	15219.5
528.102	14584.5
528.873	13786.5
529.644	13113.5
530.415	12482.5
531.186	11789.5
531.957	11219.5
532.728	10621.5
533.498	10020.5
534.269	9433.5
535.039	8878.5
535.81	8450.5
536.58	8022.5
537.351	7563.5
538.121	7140.5
538.891	6748.5
539.661	6417.5
540.431	6073.5
541.201	5744.5
541.971	5440.5
542.741	5153.5
543.51	4896.5
544.28	4647.5
545.05	4415.5
545.819	4193.5
546.588	3998.5
547.358	3793.5
548.127	3596.5
548.896	3439.5
549.665	3255.5
550.434	3084.5
551.203	2916.5
551.972	2766.5
552.741	2597.5
553.51	2450.5
554.278	2322.5
555.047	2188.5
555.815	2075.5
556.584	1964.5
557.352	1862.5
558.121	1755.5
558.889	1654.5
559.657	1541.5
560.425	1466.5
561.193	1393.5
561.961	1315.5
562.729	1233.5
563.496	1179.5
564.264	1120.5
565.032	1060.5
565.799	997.5
566.567	944.5
567.334	905.5
568.101	845.5
568.869	796.5
569.636	747.5
570.403	706.5
571.17	674.5
571.937	631.5
572.704	593.5
573.471	559.5
574.237	540.5
575.004	510.5
575.771	474.5
576.537	443.5
577.303	414.5
578.07	399.5
578.836	366.5
579.602	349.5
580.368	340.5
581.134	313.5
581.9	305.5
582.666	295.5
583.432	276.5
584.198	264.5
584.964	245.5
585.729	230.5
586.495	224.5
587.26	204.5
588.025	195.5
588.791	187.5
589.556	177.5
590.321	167.5
591.086	158.5
591.851	154.5
592.616	144.5
593.381	142.5
594.146	133.5
594.911	125.5
595.675	122.5
596.44	114.5
597.204	108.5
597.969	101.5
598.733	100.5
599.497	99.5
600.261	89.5
601.025	87.5
601.79	86.5
602.553	81.5
603.317	78.5
604.081	76.5
604.845	70.5
605.609	72.5
606.372	65.5
607.136	60.5
607.899	61.5
608.662	59.5
609.426	54.5
610.189	54.5
610.952	50.5
611.715	49.5
612.478	49.5
613.241	47.5
614.004	40.5
614.767	42.5
615.529	41.5
616.292	44.5
617.055	40.5
617.817	41.5
618.579	38.5
619.342	36.5
620.104	38.5
620.866	32.5
621.628	34.5
622.39	31.5
623.152	30.5
623.914	29.5
624.676	28.5
625.438	27.5
626.199	25.5
626.961	26.5
627.722	23.5
628.484	24.5
629.245	23.5
630.006	25.5
630.768	22.5
631.529	22.5
632.29	19.5
633.051	19.5
633.812	20.5
634.573	20.5
635.333	17.5
636.094	20.5
636.855	15.5
637.615	17.5
638.376	17.5
639.136	15.5
639.896	14.5
640.657	16.5
641.417	16.5
642.177	16.5
642.937	18.5
643.697	17.5
644.457	12.5
645.216	17.5
645.976	13.5
646.736	14.5
647.495	12.5
648.255	11.5
649.014	14.5
649.774	12.5
650.533	11.5
651.292	9.5
652.051	14.5
652.81	8.5
653.569	10.5
654.328	10.5
655.087	9.5
655.846	14.5
656.604	8.5
657.363	9.5
658.121	10.5
658.88	11.5
659.638	10.5
660.397	9.5
661.155	8.5
661.913	8.5
662.671	10.5
663.429	8.5
664.187	10.5
664.945	9.5
665.703	7.5
666.46	9.5
667.218	6.5
667.976	10.5
668.733	9.5
669.49	8.5
670.248	8.5
671.005	9.5
671.762	8.5
672.519	7.5
673.276	10.5
674.033	7.5
674.79	8.5
675.547	6.5
676.304	6.5
677.06	8.5
677.817	6.5
678.574	8.5
679.33	5.5
680.086	7.5
680.843	6.5
681.599	6.5
682.355	7.5
683.111	5.5
683.867	8.5
684.623	8.5
685.379	7.5
686.135	7.5
686.89	6.5
687.646	4.5
688.402	6.5
689.157	6.5
689.912	6.5
690.668	5.5
691.423	8.5
692.178	7.5
692.933	6.5
693.688	3.5
694.443	7.5
695.198	4.5
695.953	5.5
696.708	10.5
697.462	7.5
698.217	7.5
698.972	5.5
699.726	3.5
700.48	6.5
701.235	6.5
701.989	7.5
702.743	7.5
703.497	7.5
704.251	7.5
705.005	8.5
705.759	6.5
706.513	6.5
707.266	6.5
708.02	6.5
708.774	7.5
709.527	5.5
710.28	6.5
711.034	5.5
711.787	7.5
712.54	5.5
713.293	4.5
714.046	5.5
714.799	3.5
715.552	8.5
716.305	3.5
717.058	7.5
717.81	7.5
718.563	7.5
719.315	3.5
720.068	5.5
720.82	6.5
721.573	2.5
722.325	7.5
723.077	7.5
723.829	7.5
724.581	7.5
725.333	7.5
726.085	6.5
726.836	7.5
727.588	9.5
728.34	7.5
729.091	7.5
729.843	8.5
730.594	5.5
731.346	9.5
732.097	5.5
732.848	7.5
733.599	9.5
734.35	8.5
735.101	8.5
735.852	8.5
736.603	6.5
737.354	8.5
738.104	9.5
738.855	7.5
739.605	8.5
740.356	9.5
741.106	8.5
741.856	10.5
742.607	8.5
743.357	10.5
744.107	8.5
744.857	10.5
745.607	6.5
746.357	8.5
747.106	8.5
747.856	8.5
748.606	7.5
749.355	6.5
750.105	9.5
750.854	9.5
751.603	8.5
752.353	8.5
753.102	10.5
753.851	13.5
754.6	9.5
755.349	13.5
756.098	10.5
756.847	11.5
757.595	12.5
758.344	11.5
759.093	12.5
759.841	9.5
760.589	7.5
761.338	9.5
762.086	10.5
762.834	12.5
763.582	12.5
764.331	11.5
765.079	12.5
765.826	12.5
766.574	11.5
767.322	12.5
768.07	12.5
768.817	12.5
769.565	13.5
770.312	13.5
771.06	13.5
771.807	13.5
772.554	12.5
773.302	11.5
774.049	11.5
774.796	17.5
775.543	12.5
776.29	13.5
777.036	12.5
777.783	16.5
778.53	16.5
779.276	15.5
780.023	15.5
780.769	11.5
781.516	14.5
782.262	13.5
783.008	13.5
783.754	17.5
784.5	13.5
785.246	14.5
785.992	12.5
786.738	13.5
787.484	12.5
788.23	16.5
788.975	11.5
789.721	12.5
790.466	12.5
791.212	15.5
791.957	13.5
792.702	11.5
793.447	11.5
794.193	11.5
794.938	12.5
795.683	14.5
796.427	10.5
797.172	12.5
797.917	11.5
798.662	14.5
799.406	10.5
800.151	11.5
800.895	10.5
801.64	10.5
802.384	9.5
803.128	9.5
803.872	9.5
804.616	12.5
805.36	11.5
806.104	10.5
806.848	9.5
807.592	12.5
808.336	9.5
809.079	9.5
809.823	7.5
810.566	10.5
811.31	8.5
812.053	9.5
812.796	10.5
813.539	6.5
814.283	10.5
815.026	8.5
815.769	8.5
816.511	8.5
817.254	5.5
817.997	8.5
818.74	8.5
819.482	8.5
820.225	6.5
820.967	7.5
821.71	5.5
822.452	4.5
823.194	6.5
823.936	5.5
824.678	7.5
825.42	8.5
826.162	3.5
826.904	6.5
827.646	6.5
828.388	9.5
829.129	3.5
829.871	7.5
830.612	4.5
831.354	4.5
832.095	5.5
832.836	6.5
833.577	4.5
834.319	6.5
835.06	5.5
835.801	6.5
836.542	4.5
837.282	6.5
838.023	3.5
838.764	4.5
839.504	4.5
840.245	5.5
840.985	6.5
841.726	5.5
842.466	5.5
843.206	1.5
843.946	5.5
844.687	3.5
845.427	4.5
846.166	4.5
846.906	4.5
847.646	5.5
848.386	4.5
849.125	3.5
849.865	4.5
850.605	4.5
851.344	3.5
852.083	2.5
852.823	4.5
853.562	2.5
854.301	4.5
855.04	3.5
855.779	4.5
856.518	3.5
857.257	2.5
857.995	2.5
858.734	2.5
859.473	2.5
860.211	2.5
860.95	3.5
861.688	3.5
862.426	5.5
863.165	3.5
863.903	1.5
864.641	2.5
865.379	4.5
866.117	3.5
866.855	4.5
867.593	2.5
868.33	1.5
869.068	2.5
869.806	2.5
870.543	0.5
871.28	2.5
872.018	3.5
872.755	5.5
873.492	1.5
874.229	0.5
874.967	2.5
875.703	2.5
876.44	1.5
877.177	0.5
877.914	2.5
878.651	0.5
879.387	1.5
880.124	0.5
880.86	0.5
881.597	2.5
882.333	1.5
883.069	2.5
883.806	-0.5
884.542	2.5
885.278	1.5
886.014	1.5
886.749	1.5
887.485	2.5
888.221	1.5
888.957	0.5
889.692	0.5
890.428	0.5
891.163	4.5
891.899	0.5
892.634	1.5
893.369	0.5
894.104	1.5
894.839	2.5
895.574	1.5
896.309	1.5
897.044	0.5
897.779	-0.5
898.514	1.5
899.248	-1.5
899.983	2.5
900.717	0.5
901.452	-0.5
902.186	2.5
902.92	0.5
903.654	0.5
904.389	1.5
905.123	2.5
905.857	2.5
906.59	1.5
907.324	2.5
908.058	1.5
908.792	1.5
909.525	0.5
910.259	-0.5
910.992	2.5
911.726	1.5
912.459	2.5
913.192	1.5
913.925	2.5
914.658	0.5
915.391	0.5
916.124	1.5
916.857	1.5
917.59	2.5
918.323	1.5
919.055	2.5
919.788	1.5
920.521	1.5
921.253	-1.5
921.985	0.5
922.718	0.5
923.45	0.5
924.182	-0.5
924.914	-0.5
925.646	-1.5
926.378	2.5
927.11	0.5
927.841	0.5
928.573	-0.5
929.305	-0.5
930.036	0.5
930.768	2.5
931.499	0.5
932.23	0.5
932.962	0.5
933.693	-1.5
934.424	0.5
935.155	-0.5
935.886	1.5
936.617	-0.5
937.348	0.5
938.078	1.5
938.809	-1.5
939.54	0.5
940.27	0.5
941.001	1.5
941.731	0.5
942.461	-0.5
943.191	0.5
943.922	-1.5
944.652	0.5
945.382	-0.5
946.112	1.5
946.841	0.5
947.571	0.5
948.301	1.5
949.031	0.5
949.76	2.5
950.49	1.5
951.219	0.5
951.948	0.5
952.678	1.5
953.407	2.5
954.136	0.5
954.865	0.5
955.594	0.5
956.323	-0.5
957.052	-0.5
957.78	-1.5
958.509	0.5
959.238	-0.5
959.966	-1.5
960.695	2.5
961.423	0.5
962.151	0.5
962.88	1.5
963.608	-1.5
964.336	0.5
965.064	0.5
965.792	-0.5
966.52	1.5
967.247	0.5
967.975	0.5
968.703	-0.5
969.43	-1.5
970.158	-0.5
970.885	-1.5
971.613	0.5
972.34	0.5
973.067	-0.5
973.794	0.5
974.521	-0.5
975.248	1.5
975.975	0.5
976.702	2.5
977.429	0.5
978.156	-1.5
978.882	1.5
979.609	0.5
980.335	-1.5
981.062	-0.5
981.788	1.5
982.514	0.5
983.24	0.5
983.967	-0.5
984.693	0.5
985.419	0.5
986.144	0.5
986.87	0.5
987.596	0.5
988.322	-2.5
989.047	0.5
989.773	-0.5
990.498	3.5
991.224	-0.5
991.949	2.5
992.674	0.5
993.399	3.5
994.124	0.5
994.849	-1.5
995.574	1.5
996.299	-0.5
997.024	-1.5
997.749	0.5
998.473	-0.5
999.198	-1.5
999.922	0.5
1000.647	1.5
1001.371	2.5
1002.095	0.5
1002.82	-1.5
1003.544	-1.5
1004.268	1.5
1004.992	4.5
1005.716	3.5
1006.439	2.5
1007.163	3.5
1007.887	4.5
1008.611	1.5
1009.334	0.5
1010.058	-0.5
1010.781	-1.5
1011.504	0.5
1012.228	-0.5
1012.951	0.5
1013.674	-1.5
1014.397	-0.5
1015.12	1.5
