节点500_565_QEPB04081__381__09-56-45-360.txt的数据

Date: Thu Nov 13 09:56:45 CST 2025
User: PC
Spectrometer: QEPB0408
触发模式: 0
积分时间 (秒): 1.000000E-2
Scans to average: 1
启用暗噪声校正: true
启用非线性校正: false
滑动平均宽度: 0
X轴模式: Wavelengths
Number of Pixels in Spectrum: 1044
>>>>>Begin Spectral Data<<<<<
220.843	5.88
221.644	4.88
222.444	6.88
223.244	4.88
224.045	4.88
224.845	2.88
225.645	4.88
226.445	7.88
227.245	4.88
228.045	6.88
228.845	6.88
229.645	5.88
230.444	4.88
231.244	6.88
232.043	9.88
232.843	4.88
233.642	8.88
234.442	6.88
235.241	7.88
236.04	6.88
236.839	7.88
237.638	7.88
238.437	4.88
239.236	7.88
240.035	10.88
240.833	11.88
241.632	8.88
242.43	8.88
243.229	7.88
244.027	8.88
244.826	11.88
245.624	10.88
246.422	11.88
247.22	11.88
248.018	8.88
248.816	9.88
249.614	9.88
250.412	12.88
251.21	13.88
252.007	11.88
252.805	12.88
253.602	13.88
254.4	13.88
255.197	13.88
255.994	13.88
256.791	15.88
257.589	15.88
258.386	12.88
259.183	14.88
259.979	16.88
260.776	16.88
261.573	18.88
262.37	18.88
263.166	19.88
263.963	18.88
264.759	21.88
265.556	20.88
266.352	21.88
267.148	20.88
267.944	16.88
268.74	22.88
269.536	21.88
270.332	24.88
271.128	24.88
271.924	21.88
272.719	25.88
273.515	23.88
274.311	25.88
275.106	24.88
275.901	24.88
276.697	26.88
277.492	26.88
278.287	27.88
279.082	28.88
279.877	27.88
280.672	25.88
281.467	29.88
282.262	24.88
283.056	28.88
283.851	26.88
284.646	24.88
285.44	26.88
286.234	26.88
287.029	28.88
287.823	26.88
288.617	30.88
289.411	28.88
290.205	26.88
290.999	23.88
291.793	26.88
292.587	29.88
293.381	24.88
294.174	27.88
294.968	26.88
295.761	26.88
296.555	23.88
297.348	19.88
298.141	23.88
298.935	26.88
299.728	22.88
300.521	20.88
301.314	22.88
302.107	21.88
302.899	19.88
303.692	16.88
304.485	19.88
305.277	18.88
306.07	16.88
306.862	18.88
307.655	17.88
308.447	17.88
309.239	20.88
310.031	19.88
310.823	14.88
311.615	16.88
312.407	14.88
313.199	16.88
313.991	14.88
314.783	12.88
315.574	11.88
316.366	15.88
317.157	12.88
317.949	12.88
318.74	12.88
319.531	12.88
320.322	12.88
321.113	12.88
321.904	10.88
322.695	11.88
323.486	11.88
324.277	12.88
325.068	10.88
325.858	11.88
326.649	8.88
327.439	12.88
328.23	8.88
329.02	8.88
329.81	11.88
330.6	8.88
331.391	8.88
332.181	9.88
332.971	8.88
333.76	8.88
334.55	8.88
335.34	9.88
336.13	9.88
336.919	8.88
337.709	11.88
338.498	9.88
339.287	9.88
340.077	10.88
340.866	8.88
341.655	10.88
342.444	8.88
343.233	6.88
344.022	11.88
344.811	10.88
345.6	9.88
346.388	8.88
347.177	7.88
347.965	8.88
348.754	9.88
349.542	9.88
350.33	9.88
351.119	9.88
351.907	7.88
352.695	9.88
353.483	8.88
354.271	6.88
355.059	10.88
355.846	7.88
356.634	8.88
357.422	8.88
358.209	8.88
358.997	7.88
359.784	8.88
360.571	8.88
361.359	9.88
362.146	8.88
362.933	8.88
363.72	8.88
364.507	7.88
365.294	7.88
366.081	7.88
366.867	6.88
367.654	10.88
368.44	8.88
369.227	7.88
370.013	8.88
370.8	10.88
371.586	9.88
372.372	8.88
373.158	8.88
373.944	6.88
374.73	6.88
375.516	11.88
376.302	9.88
377.088	8.88
377.873	6.88
378.659	8.88
379.445	7.88
380.23	7.88
381.015	8.88
381.801	8.88
382.586	9.88
383.371	6.88
384.156	6.88
384.941	6.88
385.726	8.88
386.511	8.88
387.296	8.88
388.08	9.88
388.865	10.88
389.649	10.88
390.434	8.88
391.218	9.88
392.003	7.88
392.787	10.88
393.571	8.88
394.355	8.88
395.139	9.88
395.923	9.88
396.707	9.88
397.491	11.88
398.274	10.88
399.058	10.88
399.842	10.88
400.625	8.88
401.408	11.88
402.192	12.88
402.975	10.88
403.758	10.88
404.541	10.88
405.324	10.88
406.107	11.88
406.89	12.88
407.673	14.88
408.456	14.88
409.238	13.88
410.021	11.88
410.803	13.88
411.586	14.88
412.368	12.88
413.151	11.88
413.933	13.88
414.715	13.88
415.497	14.88
416.279	14.88
417.061	17.88
417.843	13.88
418.624	14.88
419.406	17.88
420.188	19.88
420.969	16.88
421.751	17.88
422.532	18.88
423.313	20.88
424.095	18.88
424.876	18.88
425.657	19.88
426.438	18.88
427.219	19.88
428	22.88
428.78	19.88
429.561	21.88
430.342	24.88
431.122	22.88
431.903	28.88
432.683	28.88
433.464	26.88
434.244	28.88
435.024	30.88
435.804	30.88
436.584	38.88
437.364	33.88
438.144	36.88
438.924	43.88
439.704	43.88
440.483	44.88
441.263	50.88
442.042	52.88
442.822	55.88
443.601	57.88
444.38	63.88
445.16	66.88
445.939	73.88
446.718	77.88
447.497	88.88
448.276	93.88
449.054	97.88
449.833	110.88
450.612	121.88
451.391	141.88
452.169	148.88
452.948	160.88
453.726	177.88
454.504	203.88
455.282	223.88
456.061	245.88
456.839	276.88
457.617	307.88
458.395	344.88
459.172	383.88
459.95	428.88
460.728	474.88
461.506	528.88
462.283	594.88
463.061	668.88
463.838	741.88
464.615	818.88
465.393	907.88
466.17	997.88
466.947	1130.88
467.724	1247.88
468.501	1388.88
469.278	1526.88
470.055	1676.88
470.831	1860.88
471.608	2069.88
472.385	2282.88
473.161	2507.88
473.938	2796.88
474.714	3039.88
475.49	3332.88
476.266	3670.88
477.043	4023.88
477.819	4421.88
478.595	4837.88
479.371	5284.88
480.146	5742.88
480.922	6307.88
481.698	6860.88
482.473	7433.88
483.249	8055.88
484.024	8828.88
484.8	9595.88
485.575	10399.88
486.35	11245.88
487.126	12241.88
487.901	13186.88
488.676	14336.88
489.451	15466.88
490.225	16710.88
491	17959.88
491.775	19345.88
492.55	20729.88
493.324	22175.88
494.099	23604.88
494.873	25205.88
495.647	26694.88
496.422	28306.88
497.196	29805.88
497.97	31344.88
498.744	32748.88
499.518	34022.88
500.292	35404.88
501.066	36574.88
501.839	37625.88
502.613	38599.88
503.387	39258.88
504.16	39905.88
504.934	40196.88
505.707	40246.88
506.48	40226.88
507.253	40081.88
508.027	39555.88
508.8	38960.88
509.573	38272.88
510.346	37267.88
511.118	36270.88
511.891	35329.88
512.664	34158.88
513.437	32990.88
514.209	31759.88
514.982	30630.88
515.754	29354.88
516.526	28113.88
517.298	26942.88
518.071	25953.88
518.843	24914.88
519.615	23848.88
520.387	22888.88
521.159	22071.88
521.93	21131.88
522.702	20241.88
523.474	19511.88
524.245	18692.88
525.017	17974.88
525.788	17161.88
526.56	16382.88
527.331	15655.88
528.102	14987.88
528.873	14285.88
529.644	13545.88
530.415	12854.88
531.186	12237.88
531.957	11626.88
532.728	11070.88
533.498	10482.88
534.269	9858.88
535.039	9341.88
535.81	8866.88
536.58	8453.88
537.351	7968.88
538.121	7517.88
538.891	7105.88
539.661	6764.88
540.431	6400.88
541.201	6015.88
541.971	5755.88
542.741	5426.88
543.51	5153.88
544.28	4886.88
545.05	4668.88
545.819	4426.88
546.588	4207.88
547.358	3988.88
548.127	3797.88
548.896	3632.88
549.665	3433.88
550.434	3248.88
551.203	3109.88
551.972	2938.88
552.741	2777.88
553.51	2610.88
554.278	2483.88
555.047	2336.88
555.815	2205.88
556.584	2103.88
557.352	1996.88
558.121	1865.88
558.889	1752.88
559.657	1672.88
560.425	1578.88
561.193	1492.88
561.961	1403.88
562.729	1335.88
563.496	1257.88
564.264	1205.88
565.032	1139.88
565.799	1081.88
566.567	1011.88
567.334	953.88
568.101	901.88
568.869	854.88
569.636	812.88
570.403	765.88
571.17	716.88
571.937	677.88
572.704	645.88
573.471	602.88
574.237	568.88
575.004	534.88
575.771	500.88
576.537	478.88
577.303	446.88
578.07	419.88
578.836	400.88
579.602	376.88
580.368	360.88
581.134	333.88
581.9	322.88
582.666	306.88
583.432	290.88
584.198	273.88
584.964	266.88
585.729	254.88
586.495	230.88
587.26	224.88
588.025	211.88
588.791	204.88
589.556	185.88
590.321	182.88
591.086	173.88
591.851	161.88
592.616	155.88
593.381	149.88
594.146	143.88
594.911	131.88
595.675	128.88
596.44	124.88
597.204	117.88
597.969	112.88
598.733	110.88
599.497	99.88
600.261	95.88
601.025	96.88
601.79	93.88
602.553	86.88
603.317	83.88
604.081	78.88
604.845	77.88
605.609	71.88
606.372	72.88
607.136	69.88
607.899	67.88
608.662	61.88
609.426	61.88
610.189	55.88
610.952	54.88
611.715	53.88
612.478	47.88
613.241	48.88
614.004	45.88
614.767	46.88
615.529	45.88
616.292	44.88
617.055	39.88
617.817	38.88
618.579	38.88
619.342	36.88
620.104	37.88
620.866	35.88
621.628	36.88
622.39	31.88
623.152	30.88
623.914	29.88
624.676	27.88
625.438	29.88
626.199	29.88
626.961	27.88
627.722	28.88
628.484	24.88
629.245	22.88
630.006	24.88
630.768	23.88
631.529	23.88
632.29	16.88
633.051	21.88
633.812	19.88
634.573	18.88
635.333	19.88
636.094	19.88
636.855	17.88
637.615	18.88
638.376	16.88
639.136	16.88
639.896	15.88
640.657	14.88
641.417	18.88
642.177	15.88
642.937	14.88
643.697	14.88
644.457	11.88
645.216	13.88
645.976	12.88
646.736	13.88
647.495	11.88
648.255	14.88
649.014	12.88
649.774	10.88
650.533	12.88
651.292	10.88
652.051	12.88
652.81	12.88
653.569	12.88
654.328	11.88
655.087	11.88
655.846	12.88
656.604	9.88
657.363	10.88
658.121	11.88
658.88	8.88
659.638	10.88
660.397	10.88
661.155	7.88
661.913	9.88
662.671	9.88
663.429	6.88
664.187	10.88
664.945	7.88
665.703	8.88
666.46	8.88
667.218	8.88
667.976	7.88
668.733	6.88
669.49	10.88
670.248	7.88
671.005	8.88
671.762	6.88
672.519	7.88
673.276	9.88
674.033	6.88
674.79	5.88
675.547	7.88
676.304	7.88
677.06	8.88
677.817	6.88
678.574	8.88
679.33	2.88
680.086	6.88
680.843	7.88
681.599	5.88
682.355	7.88
683.111	6.88
683.867	8.88
684.623	6.88
685.379	8.88
686.135	5.88
686.89	4.88
687.646	5.88
688.402	4.88
689.157	5.88
689.912	3.88
690.668	5.88
691.423	5.88
692.178	7.88
692.933	6.88
693.688	5.88
694.443	5.88
695.198	4.88
695.953	5.88
696.708	5.88
697.462	6.88
698.217	3.88
698.972	6.88
699.726	5.88
700.48	5.88
701.235	6.88
701.989	5.88
702.743	6.88
703.497	6.88
704.251	4.88
705.005	8.88
705.759	4.88
706.513	6.88
707.266	5.88
708.02	6.88
708.774	8.88
709.527	4.88
710.28	5.88
711.034	7.88
711.787	5.88
712.54	5.88
713.293	6.88
714.046	6.88
714.799	7.88
715.552	6.88
716.305	7.88
717.058	6.88
717.81	4.88
718.563	6.88
719.315	5.88
720.068	6.88
720.82	6.88
721.573	6.88
722.325	7.88
723.077	5.88
723.829	6.88
724.581	5.88
725.333	3.88
726.085	6.88
726.836	7.88
727.588	5.88
728.34	5.88
729.091	8.88
729.843	6.88
730.594	6.88
731.346	7.88
732.097	5.88
732.848	5.88
733.599	8.88
734.35	7.88
735.101	7.88
735.852	9.88
736.603	6.88
737.354	7.88
738.104	7.88
738.855	7.88
739.605	8.88
740.356	8.88
741.106	6.88
741.856	8.88
742.607	8.88
743.357	10.88
744.107	8.88
744.857	7.88
745.607	11.88
746.357	7.88
747.106	8.88
747.856	8.88
748.606	7.88
749.355	6.88
750.105	9.88
750.854	6.88
751.603	7.88
752.353	8.88
753.102	9.88
753.851	10.88
754.6	8.88
755.349	9.88
756.098	9.88
756.847	10.88
757.595	8.88
758.344	9.88
759.093	9.88
759.841	8.88
760.589	7.88
761.338	8.88
762.086	12.88
762.834	9.88
763.582	10.88
764.331	12.88
765.079	9.88
765.826	8.88
766.574	8.88
767.322	10.88
768.07	10.88
768.817	11.88
769.565	10.88
770.312	11.88
771.06	12.88
771.807	11.88
772.554	10.88
773.302	10.88
774.049	11.88
774.796	13.88
775.543	12.88
776.29	12.88
777.036	10.88
777.783	11.88
778.53	12.88
779.276	12.88
780.023	12.88
780.769	12.88
781.516	12.88
782.262	13.88
783.008	12.88
783.754	12.88
784.5	11.88
785.246	14.88
785.992	13.88
786.738	11.88
787.484	12.88
788.23	14.88
788.975	13.88
789.721	11.88
790.466	12.88
791.212	12.88
791.957	11.88
792.702	12.88
793.447	12.88
794.193	12.88
794.938	10.88
795.683	11.88
796.427	10.88
797.172	12.88
797.917	9.88
798.662	11.88
799.406	10.88
800.151	11.88
800.895	10.88
801.64	10.88
802.384	9.88
803.128	8.88
803.872	8.88
804.616	8.88
805.36	8.88
806.104	8.88
806.848	9.88
807.592	9.88
808.336	7.88
809.079	8.88
809.823	9.88
810.566	7.88
811.31	6.88
812.053	8.88
812.796	7.88
813.539	8.88
814.283	7.88
815.026	7.88
815.769	9.88
816.511	5.88
817.254	6.88
817.997	4.88
818.74	7.88
819.482	6.88
820.225	5.88
820.967	5.88
821.71	8.88
822.452	6.88
823.194	7.88
823.936	4.88
824.678	7.88
825.42	6.88
826.162	5.88
826.904	4.88
827.646	6.88
828.388	6.88
829.129	5.88
829.871	6.88
830.612	4.88
831.354	6.88
832.095	1.88
832.836	6.88
833.577	5.88
834.319	5.88
835.06	4.88
835.801	3.88
836.542	6.88
837.282	4.88
838.023	4.88
838.764	4.88
839.504	3.88
840.245	6.88
840.985	3.88
841.726	6.88
842.466	5.88
843.206	4.88
843.946	4.88
844.687	4.88
845.427	3.88
846.166	4.88
846.906	4.88
847.646	4.88
848.386	4.88
849.125	4.88
849.865	4.88
850.605	5.88
851.344	2.88
852.083	3.88
852.823	2.88
853.562	2.88
854.301	2.88
855.04	4.88
855.779	4.88
856.518	4.88
857.257	3.88
857.995	1.88
858.734	3.88
859.473	2.88
860.211	4.88
860.95	3.88
861.688	3.88
862.426	3.88
863.165	2.88
863.903	2.88
864.641	2.88
865.379	2.88
866.117	2.88
866.855	1.88
867.593	1.88
868.33	1.88
869.068	3.88
869.806	2.88
870.543	1.88
871.28	2.88
872.018	1.88
872.755	3.88
873.492	2.88
874.229	1.88
874.967	1.88
875.703	4.88
876.44	3.88
877.177	0.88
877.914	3.88
878.651	-0.12
879.387	0.88
880.124	1.88
880.86	1.88
881.597	1.88
882.333	2.88
883.069	-1.12
883.806	-0.12
884.542	2.88
885.278	0.88
886.014	1.88
886.749	2.88
887.485	0.88
888.221	1.88
888.957	-0.12
889.692	-0.12
890.428	-0.12
891.163	1.88
891.899	1.88
892.634	0.88
893.369	0.88
894.104	0.88
894.839	0.88
895.574	2.88
896.309	3.88
897.044	-0.12
897.779	0.88
898.514	0.88
899.248	-0.12
899.983	2.88
900.717	1.88
901.452	-1.12
902.186	0.88
902.92	3.88
903.654	-0.12
904.389	1.88
905.123	2.88
905.857	1.88
906.59	1.88
907.324	0.88
908.058	1.88
908.792	1.88
909.525	-0.12
910.259	-1.12
910.992	1.88
911.726	2.88
912.459	-0.12
913.192	0.88
913.925	-1.12
914.658	-0.12
915.391	-0.12
916.124	0.88
916.857	2.88
917.59	-1.12
918.323	0.88
919.055	-2.12
919.788	0.88
920.521	0.88
921.253	-1.12
921.985	-0.12
922.718	0.88
923.45	-3.12
924.182	1.88
924.914	0.88
925.646	0.88
926.378	2.88
927.11	1.88
927.841	1.88
928.573	1.88
929.305	-1.12
930.036	-0.12
930.768	1.88
931.499	0.88
932.23	-2.12
932.962	-2.12
933.693	0.88
934.424	-0.12
935.155	1.88
935.886	-0.12
936.617	0.88
937.348	-0.12
938.078	0.88
938.809	-0.12
939.54	0.88
940.27	-0.12
941.001	-1.12
941.731	-2.12
942.461	0.88
943.191	0.88
943.922	1.88
944.652	-1.12
945.382	0.88
946.112	-0.12
946.841	0.88
947.571	1.88
948.301	1.88
949.031	2.88
949.76	-1.12
950.49	0.88
951.219	0.88
951.948	0.88
952.678	1.88
953.407	-1.12
954.136	-0.12
954.865	-2.12
955.594	0.88
956.323	-1.12
957.052	-0.12
957.78	0.88
958.509	2.88
959.238	-0.12
959.966	-0.12
960.695	1.88
961.423	-0.12
962.151	-0.12
962.88	0.88
963.608	-1.12
964.336	-0.12
965.064	-0.12
965.792	0.88
966.52	0.88
967.247	1.88
967.975	-0.12
968.703	-1.12
969.43	0.88
970.158	0.88
970.885	1.88
971.613	0.88
972.34	-1.12
973.067	-1.12
973.794	0.88
974.521	1.88
975.248	-1.12
975.975	2.88
976.702	1.88
977.429	0.88
978.156	-0.12
978.882	-2.12
979.609	0.88
980.335	0.88
981.062	0.88
981.788	-0.12
982.514	-0.12
983.24	0.88
983.967	1.88
984.693	1.88
985.419	1.88
986.144	-1.12
986.87	0.88
987.596	0.88
988.322	0.88
989.047	0.88
989.773	0.88
990.498	1.88
991.224	1.88
991.949	0.88
992.674	-0.12
993.399	-0.12
994.124	0.88
994.849	-1.12
995.574	-1.12
996.299	0.88
997.024	0.88
997.749	-0.12
998.473	-0.12
999.198	0.88
999.922	1.88
1000.647	-1.12
1001.371	0.88
1002.095	0.88
1002.82	-2.12
1003.544	0.88
1004.268	3.88
1004.992	6.88
1005.716	0.88
1006.439	5.88
1007.163	2.88
1007.887	4.88
1008.611	1.88
1009.334	0.88
1010.058	0.88
1010.781	0.88
1011.504	-0.12
1012.228	1.88
1012.951	0.88
1013.674	1.88
1014.397	-2.12
1015.12	-1.12
