节点500_565_QEPB04081__602__10-00-25-983.txt的数据

Date: Thu Nov 13 10:00:25 CST 2025
User: PC
Spectrometer: QEPB0408
触发模式: 0
积分时间 (秒): 1.000000E-2
Scans to average: 1
启用暗噪声校正: true
启用非线性校正: false
滑动平均宽度: 0
X轴模式: Wavelengths
Number of Pixels in Spectrum: 1044
>>>>>Begin Spectral Data<<<<<
220.843	2.38
221.644	3.38
222.444	5.38
223.244	4.38
224.045	1.38
224.845	4.38
225.645	3.38
226.445	4.38
227.245	6.38
228.045	4.38
228.845	4.38
229.645	5.38
230.444	5.38
231.244	3.38
232.043	6.38
232.843	3.38
233.642	9.38
234.442	6.38
235.241	7.38
236.04	6.38
236.839	8.38
237.638	8.38
238.437	5.38
239.236	7.38
240.035	9.38
240.833	7.38
241.632	7.38
242.43	8.38
243.229	7.38
244.027	8.38
244.826	9.38
245.624	9.38
246.422	11.38
247.22	10.38
248.018	10.38
248.816	10.38
249.614	9.38
250.412	8.38
251.21	10.38
252.007	11.38
252.805	14.38
253.602	13.38
254.4	13.38
255.197	11.38
255.994	13.38
256.791	14.38
257.589	12.38
258.386	14.38
259.183	13.38
259.979	16.38
260.776	15.38
261.573	16.38
262.37	16.38
263.166	18.38
263.963	17.38
264.759	19.38
265.556	19.38
266.352	19.38
267.148	18.38
267.944	18.38
268.74	19.38
269.536	25.38
270.332	22.38
271.128	20.38
271.924	24.38
272.719	21.38
273.515	23.38
274.311	24.38
275.106	23.38
275.901	24.38
276.697	24.38
277.492	24.38
278.287	24.38
279.082	27.38
279.877	26.38
280.672	26.38
281.467	26.38
282.262	25.38
283.056	29.38
283.851	26.38
284.646	30.38
285.44	26.38
286.234	26.38
287.029	27.38
287.823	24.38
288.617	27.38
289.411	26.38
290.205	27.38
290.999	24.38
291.793	25.38
292.587	26.38
293.381	22.38
294.174	23.38
294.968	23.38
295.761	22.38
296.555	20.38
297.348	19.38
298.141	17.38
298.935	22.38
299.728	23.38
300.521	18.38
301.314	22.38
302.107	19.38
302.899	17.38
303.692	17.38
304.485	18.38
305.277	18.38
306.07	15.38
306.862	20.38
307.655	19.38
308.447	20.38
309.239	16.38
310.031	18.38
310.823	16.38
311.615	15.38
312.407	13.38
313.199	14.38
313.991	13.38
314.783	15.38
315.574	13.38
316.366	13.38
317.157	10.38
317.949	12.38
318.74	12.38
319.531	14.38
320.322	13.38
321.113	11.38
321.904	12.38
322.695	10.38
323.486	11.38
324.277	10.38
325.068	10.38
325.858	8.38
326.649	9.38
327.439	7.38
328.23	11.38
329.02	11.38
329.81	12.38
330.6	10.38
331.391	8.38
332.181	6.38
332.971	7.38
333.76	10.38
334.55	7.38
335.34	8.38
336.13	10.38
336.919	10.38
337.709	7.38
338.498	10.38
339.287	10.38
340.077	9.38
340.866	9.38
341.655	7.38
342.444	6.38
343.233	8.38
344.022	8.38
344.811	8.38
345.6	10.38
346.388	11.38
347.177	9.38
347.965	7.38
348.754	9.38
349.542	9.38
350.33	9.38
351.119	11.38
351.907	6.38
352.695	10.38
353.483	10.38
354.271	8.38
355.059	8.38
355.846	8.38
356.634	8.38
357.422	9.38
358.209	6.38
358.997	9.38
359.784	7.38
360.571	8.38
361.359	8.38
362.146	10.38
362.933	10.38
363.72	7.38
364.507	8.38
365.294	7.38
366.081	8.38
366.867	9.38
367.654	7.38
368.44	8.38
369.227	6.38
370.013	7.38
370.8	7.38
371.586	6.38
372.372	10.38
373.158	6.38
373.944	7.38
374.73	6.38
375.516	7.38
376.302	7.38
377.088	10.38
377.873	8.38
378.659	5.38
379.445	7.38
380.23	8.38
381.015	9.38
381.801	6.38
382.586	9.38
383.371	8.38
384.156	9.38
384.941	9.38
385.726	10.38
386.511	9.38
387.296	7.38
388.08	6.38
388.865	6.38
389.649	7.38
390.434	10.38
391.218	8.38
392.003	10.38
392.787	9.38
393.571	8.38
394.355	7.38
395.139	9.38
395.923	8.38
396.707	10.38
397.491	10.38
398.274	12.38
399.058	7.38
399.842	11.38
400.625	7.38
401.408	12.38
402.192	11.38
402.975	11.38
403.758	11.38
404.541	10.38
405.324	12.38
406.107	9.38
406.89	11.38
407.673	10.38
408.456	14.38
409.238	14.38
410.021	11.38
410.803	12.38
411.586	13.38
412.368	13.38
413.151	14.38
413.933	14.38
414.715	15.38
415.497	14.38
416.279	13.38
417.061	12.38
417.843	17.38
418.624	13.38
419.406	15.38
420.188	15.38
420.969	15.38
421.751	18.38
422.532	14.38
423.313	17.38
424.095	17.38
424.876	19.38
425.657	16.38
426.438	22.38
427.219	20.38
428	20.38
428.78	20.38
429.561	20.38
430.342	24.38
431.122	25.38
431.903	24.38
432.683	29.38
433.464	27.38
434.244	28.38
435.024	29.38
435.804	30.38
436.584	32.38
437.364	38.38
438.144	42.38
438.924	39.38
439.704	43.38
440.483	44.38
441.263	47.38
442.042	52.38
442.822	57.38
443.601	59.38
444.38	64.38
445.16	71.38
445.939	74.38
446.718	86.38
447.497	87.38
448.276	97.38
449.054	108.38
449.833	120.38
450.612	128.38
451.391	139.38
452.169	156.38
452.948	177.38
453.726	196.38
454.504	214.38
455.282	236.38
456.061	268.38
456.839	295.38
457.617	333.38
458.395	363.38
459.172	406.38
459.95	450.38
460.728	509.38
461.506	560.38
462.283	620.38
463.061	687.38
463.838	777.38
464.615	847.38
465.393	945.38
466.17	1038.38
466.947	1158.38
467.724	1284.38
468.501	1422.38
469.278	1550.38
470.055	1718.38
470.831	1919.38
471.608	2070.38
472.385	2288.38
473.161	2533.38
473.938	2759.38
474.714	3031.38
475.49	3316.38
476.266	3612.38
477.043	3962.38
477.819	4328.38
478.595	4720.38
479.371	5128.38
480.146	5546.38
480.922	6074.38
481.698	6562.38
482.473	7086.38
483.249	7704.38
484.024	8319.38
484.8	9032.38
485.575	9800.38
486.35	10544.38
487.126	11389.38
487.901	12303.38
488.676	13272.38
489.451	14300.38
490.225	15398.38
491	16498.38
491.775	17662.38
492.55	18980.38
493.324	20270.38
494.099	21537.38
494.873	22921.38
495.647	24388.38
496.422	25758.38
497.196	27119.38
497.97	28622.38
498.744	30011.38
499.518	31243.38
500.292	32559.38
501.066	33642.38
501.839	34841.38
502.613	35728.38
503.387	36533.38
504.16	37290.38
504.934	37711.38
505.707	38072.38
506.48	38171.38
507.253	38201.38
508.027	37918.38
508.8	37506.38
509.573	37003.38
510.346	36356.38
511.118	35421.38
511.891	34655.38
512.664	33787.38
513.437	32722.38
514.209	31583.38
514.982	30519.38
515.754	29441.38
516.526	28321.38
517.298	27220.38
518.071	26119.38
518.843	25130.38
519.615	24160.38
520.387	23183.38
521.159	22284.38
521.93	21366.38
522.702	20537.38
523.474	19697.38
524.245	18918.38
525.017	18177.38
525.788	17403.38
526.56	16737.38
527.331	16011.38
528.102	15289.38
528.873	14620.38
529.644	13900.38
530.415	13213.38
531.186	12597.38
531.957	11977.38
532.728	11424.38
533.498	10829.38
534.269	10225.38
535.039	9701.38
535.81	9244.38
536.58	8738.38
537.351	8281.38
538.121	7798.38
538.891	7424.38
539.661	7069.38
540.431	6654.38
541.201	6267.38
541.971	5974.38
542.741	5665.38
543.51	5355.38
544.28	5051.38
545.05	4832.38
545.819	4620.38
546.588	4376.38
547.358	4190.38
548.127	3970.38
548.896	3753.38
549.665	3587.38
550.434	3418.38
551.203	3262.38
551.972	3079.38
552.741	2926.38
553.51	2750.38
554.278	2607.38
555.047	2471.38
555.815	2329.38
556.584	2240.38
557.352	2079.38
558.121	1968.38
558.889	1871.38
559.657	1759.38
560.425	1652.38
561.193	1563.38
561.961	1485.38
562.729	1403.38
563.496	1324.38
564.264	1253.38
565.032	1203.38
565.799	1140.38
566.567	1062.38
567.334	1004.38
568.101	953.38
568.869	895.38
569.636	850.38
570.403	790.38
571.17	765.38
571.937	719.38
572.704	676.38
573.471	636.38
574.237	603.38
575.004	565.38
575.771	525.38
576.537	517.38
577.303	472.38
578.07	450.38
578.836	427.38
579.602	399.38
580.368	385.38
581.134	356.38
581.9	338.38
582.666	322.38
583.432	314.38
584.198	292.38
584.964	278.38
585.729	259.38
586.495	247.38
587.26	234.38
588.025	222.38
588.791	212.38
589.556	204.38
590.321	187.38
591.086	182.38
591.851	170.38
592.616	162.38
593.381	153.38
594.146	147.38
594.911	138.38
595.675	136.38
596.44	128.38
597.204	121.38
597.969	116.38
598.733	112.38
599.497	106.38
600.261	102.38
601.025	94.38
601.79	94.38
602.553	91.38
603.317	88.38
604.081	84.38
604.845	76.38
605.609	81.38
606.372	76.38
607.136	69.38
607.899	66.38
608.662	63.38
609.426	61.38
610.189	59.38
610.952	59.38
611.715	56.38
612.478	52.38
613.241	50.38
614.004	47.38
614.767	47.38
615.529	45.38
616.292	46.38
617.055	41.38
617.817	42.38
618.579	37.38
619.342	40.38
620.104	35.38
620.866	37.38
621.628	32.38
622.39	32.38
623.152	32.38
623.914	32.38
624.676	31.38
625.438	26.38
626.199	28.38
626.961	28.38
627.722	28.38
628.484	21.38
629.245	25.38
630.006	24.38
630.768	21.38
631.529	24.38
632.29	23.38
633.051	22.38
633.812	21.38
634.573	21.38
635.333	21.38
636.094	16.38
636.855	18.38
637.615	17.38
638.376	18.38
639.136	17.38
639.896	16.38
640.657	18.38
641.417	14.38
642.177	16.38
642.937	14.38
643.697	13.38
644.457	13.38
645.216	15.38
645.976	14.38
646.736	13.38
647.495	14.38
648.255	12.38
649.014	13.38
649.774	11.38
650.533	11.38
651.292	11.38
652.051	11.38
652.81	12.38
653.569	10.38
654.328	10.38
655.087	12.38
655.846	10.38
656.604	12.38
657.363	9.38
658.121	11.38
658.88	9.38
659.638	10.38
660.397	11.38
661.155	10.38
661.913	8.38
662.671	8.38
663.429	8.38
664.187	6.38
664.945	10.38
665.703	5.38
666.46	9.38
667.218	8.38
667.976	7.38
668.733	8.38
669.49	7.38
670.248	8.38
671.005	7.38
671.762	6.38
672.519	5.38
673.276	6.38
674.033	8.38
674.79	6.38
675.547	9.38
676.304	4.38
677.06	6.38
677.817	8.38
678.574	7.38
679.33	8.38
680.086	6.38
680.843	5.38
681.599	6.38
682.355	8.38
683.111	6.38
683.867	6.38
684.623	7.38
685.379	2.38
686.135	4.38
686.89	5.38
687.646	6.38
688.402	5.38
689.157	7.38
689.912	7.38
690.668	5.38
691.423	5.38
692.178	6.38
692.933	6.38
693.688	5.38
694.443	5.38
695.198	4.38
695.953	6.38
696.708	4.38
697.462	6.38
698.217	5.38
698.972	4.38
699.726	8.38
700.48	4.38
701.235	5.38
701.989	6.38
702.743	5.38
703.497	6.38
704.251	5.38
705.005	5.38
705.759	6.38
706.513	7.38
707.266	2.38
708.02	5.38
708.774	5.38
709.527	8.38
710.28	6.38
711.034	7.38
711.787	6.38
712.54	5.38
713.293	6.38
714.046	4.38
714.799	4.38
715.552	6.38
716.305	4.38
717.058	5.38
717.81	6.38
718.563	4.38
719.315	4.38
720.068	6.38
720.82	6.38
721.573	5.38
722.325	4.38
723.077	4.38
723.829	7.38
724.581	6.38
725.333	4.38
726.085	7.38
726.836	6.38
727.588	6.38
728.34	6.38
729.091	7.38
729.843	6.38
730.594	6.38
731.346	7.38
732.097	2.38
732.848	8.38
733.599	6.38
734.35	7.38
735.101	6.38
735.852	7.38
736.603	5.38
737.354	8.38
738.104	8.38
738.855	6.38
739.605	7.38
740.356	8.38
741.106	6.38
741.856	6.38
742.607	8.38
743.357	10.38
744.107	6.38
744.857	7.38
745.607	6.38
746.357	6.38
747.106	8.38
747.856	7.38
748.606	6.38
749.355	9.38
750.105	9.38
750.854	9.38
751.603	7.38
752.353	8.38
753.102	8.38
753.851	10.38
754.6	10.38
755.349	11.38
756.098	9.38
756.847	8.38
757.595	9.38
758.344	6.38
759.093	8.38
759.841	8.38
760.589	9.38
761.338	8.38
762.086	7.38
762.834	7.38
763.582	10.38
764.331	11.38
765.079	11.38
765.826	10.38
766.574	10.38
767.322	10.38
768.07	11.38
768.817	10.38
769.565	10.38
770.312	11.38
771.06	7.38
771.807	12.38
772.554	10.38
773.302	8.38
774.049	10.38
774.796	12.38
775.543	11.38
776.29	10.38
777.036	10.38
777.783	11.38
778.53	10.38
779.276	10.38
780.023	11.38
780.769	11.38
781.516	9.38
782.262	10.38
783.008	12.38
783.754	12.38
784.5	10.38
785.246	12.38
785.992	12.38
786.738	13.38
787.484	12.38
788.23	13.38
788.975	10.38
789.721	12.38
790.466	11.38
791.212	11.38
791.957	9.38
792.702	11.38
793.447	12.38
794.193	14.38
794.938	12.38
795.683	11.38
796.427	11.38
797.172	11.38
797.917	11.38
798.662	9.38
799.406	9.38
800.151	10.38
800.895	9.38
801.64	10.38
802.384	10.38
803.128	10.38
803.872	8.38
804.616	8.38
805.36	9.38
806.104	8.38
806.848	7.38
807.592	8.38
808.336	7.38
809.079	7.38
809.823	9.38
810.566	6.38
811.31	8.38
812.053	6.38
812.796	7.38
813.539	6.38
814.283	8.38
815.026	9.38
815.769	6.38
816.511	7.38
817.254	4.38
817.997	8.38
818.74	4.38
819.482	6.38
820.225	7.38
820.967	5.38
821.71	5.38
822.452	8.38
823.194	7.38
823.936	6.38
824.678	7.38
825.42	3.38
826.162	5.38
826.904	4.38
827.646	4.38
828.388	7.38
829.129	4.38
829.871	7.38
830.612	4.38
831.354	3.38
832.095	6.38
832.836	5.38
833.577	5.38
834.319	3.38
835.06	5.38
835.801	3.38
836.542	4.38
837.282	4.38
838.023	4.38
838.764	4.38
839.504	4.38
840.245	5.38
840.985	4.38
841.726	4.38
842.466	4.38
843.206	4.38
843.946	6.38
844.687	3.38
845.427	3.38
846.166	5.38
846.906	6.38
847.646	5.38
848.386	6.38
849.125	5.38
849.865	2.38
850.605	4.38
851.344	4.38
852.083	5.38
852.823	4.38
853.562	4.38
854.301	1.38
855.04	2.38
855.779	1.38
856.518	2.38
857.257	2.38
857.995	1.38
858.734	3.38
859.473	2.38
860.211	1.38
860.95	2.38
861.688	0.38
862.426	3.38
863.165	2.38
863.903	2.38
864.641	3.38
865.379	2.38
866.117	5.38
866.855	1.38
867.593	2.38
868.33	2.38
869.068	0.38
869.806	0.38
870.543	0.38
871.28	0.38
872.018	1.38
872.755	1.38
873.492	1.38
874.229	2.38
874.967	1.38
875.703	2.38
876.44	0.38
877.177	-0.62
877.914	0.38
878.651	0.38
879.387	2.38
880.124	1.38
880.86	0.38
881.597	-0.62
882.333	0.38
883.069	2.38
883.806	-0.62
884.542	0.38
885.278	2.38
886.014	2.38
886.749	2.38
887.485	0.38
888.221	2.38
888.957	-0.62
889.692	1.38
890.428	0.38
891.163	0.38
891.899	2.38
892.634	1.38
893.369	1.38
894.104	-0.62
894.839	0.38
895.574	1.38
896.309	0.38
897.044	-1.62
897.779	-0.62
898.514	1.38
899.248	2.38
899.983	2.38
900.717	0.38
901.452	-0.62
902.186	1.38
902.92	0.38
903.654	-0.62
904.389	2.38
905.123	-0.62
905.857	-1.62
906.59	-0.62
907.324	2.38
908.058	0.38
908.792	1.38
909.525	0.38
910.259	0.38
910.992	0.38
911.726	-2.62
912.459	1.38
913.192	-1.62
913.925	1.38
914.658	1.38
915.391	1.38
916.124	0.38
916.857	1.38
917.59	1.38
918.323	1.38
919.055	1.38
919.788	-1.62
920.521	-0.62
921.253	-1.62
921.985	2.38
922.718	0.38
923.45	1.38
924.182	-1.62
924.914	0.38
925.646	1.38
926.378	-1.62
927.11	0.38
927.841	-0.62
928.573	-1.62
929.305	-0.62
930.036	0.38
930.768	0.38
931.499	0.38
932.23	-0.62
932.962	0.38
933.693	2.38
934.424	-0.62
935.155	0.38
935.886	2.38
936.617	-1.62
937.348	-0.62
938.078	0.38
938.809	0.38
939.54	-1.62
940.27	-2.62
941.001	0.38
941.731	0.38
942.461	0.38
943.191	-2.62
943.922	0.38
944.652	2.38
945.382	-1.62
946.112	-0.62
946.841	-1.62
947.571	0.38
948.301	0.38
949.031	2.38
949.76	-0.62
950.49	-1.62
951.219	-0.62
951.948	0.38
952.678	-0.62
953.407	-0.62
954.136	-0.62
954.865	0.38
955.594	-0.62
956.323	0.38
957.052	0.38
957.78	1.38
958.509	-0.62
959.238	1.38
959.966	0.38
960.695	2.38
961.423	1.38
962.151	1.38
962.88	0.38
963.608	-1.62
964.336	-0.62
965.064	0.38
965.792	0.38
966.52	0.38
967.247	-1.62
967.975	1.38
968.703	-0.62
969.43	-0.62
970.158	-0.62
970.885	0.38
971.613	-0.62
972.34	2.38
973.067	0.38
973.794	-2.62
974.521	0.38
975.248	-0.62
975.975	0.38
976.702	0.38
977.429	-0.62
978.156	0.38
978.882	-0.62
979.609	0.38
980.335	-0.62
981.062	0.38
981.788	-1.62
982.514	-1.62
983.24	2.38
983.967	-0.62
984.693	0.38
985.419	0.38
986.144	0.38
986.87	0.38
987.596	0.38
988.322	0.38
989.047	-0.62
989.773	0.38
990.498	0.38
991.224	1.38
991.949	1.38
992.674	-0.62
993.399	-1.62
994.124	-1.62
994.849	-0.62
995.574	-0.62
996.299	0.38
997.024	1.38
997.749	-0.62
998.473	0.38
999.198	-1.62
999.922	-1.62
1000.647	0.38
1001.371	2.38
1002.095	-2.62
1002.82	1.38
1003.544	0.38
1004.268	2.38
1004.992	1.38
1005.716	1.38
1006.439	4.38
1007.163	3.38
1007.887	2.38
1008.611	1.38
1009.334	2.38
1010.058	1.38
1010.781	0.38
1011.504	-1.62
1012.228	0.38
1012.951	-1.62
1013.674	0.38
1014.397	0.38
1015.12	-0.62
