节点500_565_QEPB04081__528__09-59-12-084.txt的数据

Date: Thu Nov 13 09:59:12 CST 2025
User: PC
Spectrometer: QEPB0408
触发模式: 0
积分时间 (秒): 1.000000E-2
Scans to average: 1
启用暗噪声校正: true
启用非线性校正: false
滑动平均宽度: 0
X轴模式: Wavelengths
Number of Pixels in Spectrum: 1044
>>>>>Begin Spectral Data<<<<<
220.843	3.75
221.644	2.75
222.444	3.75
223.244	3.75
224.045	5.75
224.845	3.75
225.645	2.75
226.445	5.75
227.245	3.75
228.045	7.75
228.845	4.75
229.645	6.75
230.444	5.75
231.244	8.75
232.043	3.75
232.843	5.75
233.642	7.75
234.442	7.75
235.241	6.75
236.04	6.75
236.839	8.75
237.638	7.75
238.437	6.75
239.236	7.75
240.035	6.75
240.833	7.75
241.632	8.75
242.43	9.75
243.229	7.75
244.027	9.75
244.826	11.75
245.624	12.75
246.422	11.75
247.22	8.75
248.018	9.75
248.816	11.75
249.614	10.75
250.412	10.75
251.21	10.75
252.007	13.75
252.805	11.75
253.602	11.75
254.4	13.75
255.197	13.75
255.994	12.75
256.791	14.75
257.589	13.75
258.386	15.75
259.183	14.75
259.979	16.75
260.776	17.75
261.573	17.75
262.37	20.75
263.166	19.75
263.963	17.75
264.759	17.75
265.556	21.75
266.352	20.75
267.148	21.75
267.944	22.75
268.74	23.75
269.536	22.75
270.332	21.75
271.128	24.75
271.924	22.75
272.719	24.75
273.515	20.75
274.311	27.75
275.106	23.75
275.901	24.75
276.697	26.75
277.492	28.75
278.287	27.75
279.082	26.75
279.877	28.75
280.672	28.75
281.467	26.75
282.262	29.75
283.056	27.75
283.851	28.75
284.646	25.75
285.44	24.75
286.234	27.75
287.029	29.75
287.823	25.75
288.617	24.75
289.411	24.75
290.205	24.75
290.999	23.75
291.793	27.75
292.587	27.75
293.381	23.75
294.174	24.75
294.968	22.75
295.761	22.75
296.555	21.75
297.348	20.75
298.141	21.75
298.935	24.75
299.728	21.75
300.521	19.75
301.314	18.75
302.107	20.75
302.899	20.75
303.692	20.75
304.485	18.75
305.277	20.75
306.07	19.75
306.862	18.75
307.655	18.75
308.447	20.75
309.239	16.75
310.031	15.75
310.823	18.75
311.615	14.75
312.407	17.75
313.199	16.75
313.991	12.75
314.783	14.75
315.574	11.75
316.366	14.75
317.157	13.75
317.949	13.75
318.74	12.75
319.531	11.75
320.322	12.75
321.113	11.75
321.904	11.75
322.695	11.75
323.486	10.75
324.277	9.75
325.068	8.75
325.858	11.75
326.649	9.75
327.439	10.75
328.23	10.75
329.02	9.75
329.81	7.75
330.6	11.75
331.391	9.75
332.181	9.75
332.971	10.75
333.76	8.75
334.55	8.75
335.34	9.75
336.13	9.75
336.919	9.75
337.709	10.75
338.498	9.75
339.287	7.75
340.077	9.75
340.866	9.75
341.655	9.75
342.444	10.75
343.233	10.75
344.022	9.75
344.811	9.75
345.6	8.75
346.388	9.75
347.177	9.75
347.965	12.75
348.754	8.75
349.542	10.75
350.33	7.75
351.119	9.75
351.907	7.75
352.695	7.75
353.483	8.75
354.271	6.75
355.059	10.75
355.846	9.75
356.634	7.75
357.422	6.75
358.209	9.75
358.997	7.75
359.784	8.75
360.571	7.75
361.359	7.75
362.146	8.75
362.933	10.75
363.72	6.75
364.507	9.75
365.294	5.75
366.081	7.75
366.867	5.75
367.654	6.75
368.44	8.75
369.227	7.75
370.013	6.75
370.8	7.75
371.586	5.75
372.372	7.75
373.158	7.75
373.944	6.75
374.73	6.75
375.516	7.75
376.302	7.75
377.088	6.75
377.873	8.75
378.659	8.75
379.445	4.75
380.23	8.75
381.015	8.75
381.801	5.75
382.586	9.75
383.371	4.75
384.156	8.75
384.941	7.75
385.726	6.75
386.511	9.75
387.296	7.75
388.08	9.75
388.865	8.75
389.649	10.75
390.434	9.75
391.218	7.75
392.003	8.75
392.787	9.75
393.571	9.75
394.355	9.75
395.139	8.75
395.923	8.75
396.707	12.75
397.491	11.75
398.274	8.75
399.058	9.75
399.842	10.75
400.625	10.75
401.408	11.75
402.192	11.75
402.975	10.75
403.758	9.75
404.541	10.75
405.324	15.75
406.107	13.75
406.89	13.75
407.673	12.75
408.456	13.75
409.238	14.75
410.021	10.75
410.803	13.75
411.586	17.75
412.368	12.75
413.151	11.75
413.933	13.75
414.715	13.75
415.497	13.75
416.279	14.75
417.061	16.75
417.843	16.75
418.624	17.75
419.406	16.75
420.188	19.75
420.969	18.75
421.751	16.75
422.532	16.75
423.313	20.75
424.095	18.75
424.876	18.75
425.657	20.75
426.438	19.75
427.219	20.75
428	24.75
428.78	20.75
429.561	23.75
430.342	23.75
431.122	24.75
431.903	25.75
432.683	26.75
433.464	28.75
434.244	25.75
435.024	30.75
435.804	29.75
436.584	34.75
437.364	36.75
438.144	36.75
438.924	37.75
439.704	44.75
440.483	44.75
441.263	47.75
442.042	49.75
442.822	53.75
443.601	60.75
444.38	66.75
445.16	65.75
445.939	78.75
446.718	80.75
447.497	90.75
448.276	100.75
449.054	104.75
449.833	117.75
450.612	121.75
451.391	140.75
452.169	150.75
452.948	172.75
453.726	187.75
454.504	209.75
455.282	236.75
456.061	264.75
456.839	295.75
457.617	322.75
458.395	358.75
459.172	396.75
459.95	443.75
460.728	495.75
461.506	548.75
462.283	613.75
463.061	681.75
463.838	760.75
464.615	844.75
465.393	937.75
466.17	1049.75
466.947	1145.75
467.724	1279.75
468.501	1394.75
469.278	1559.75
470.055	1731.75
470.831	1891.75
471.608	2084.75
472.385	2296.75
473.161	2520.75
473.938	2772.75
474.714	3024.75
475.49	3322.75
476.266	3627.75
477.043	3972.75
477.819	4335.75
478.595	4704.75
479.371	5124.75
480.146	5604.75
480.922	6104.75
481.698	6636.75
482.473	7193.75
483.249	7762.75
484.024	8397.75
484.8	9168.75
485.575	9857.75
486.35	10657.75
487.126	11565.75
487.901	12493.75
488.676	13425.75
489.451	14552.75
490.225	15710.75
491	16804.75
491.775	18040.75
492.55	19331.75
493.324	20611.75
494.099	21992.75
494.873	23352.75
495.647	24871.75
496.422	26342.75
497.196	27678.75
497.97	29192.75
498.744	30520.75
499.518	31837.75
500.292	33104.75
501.066	34278.75
501.839	35401.75
502.613	36317.75
503.387	37087.75
504.16	37802.75
504.934	38221.75
505.707	38532.75
506.48	38621.75
507.253	38567.75
508.027	38186.75
508.8	37782.75
509.573	37280.75
510.346	36508.75
511.118	35590.75
511.891	34814.75
512.664	33835.75
513.437	32768.75
514.209	31646.75
514.982	30539.75
515.754	29424.75
516.526	28275.75
517.298	27142.75
518.071	26103.75
518.843	25062.75
519.615	24018.75
520.387	23076.75
521.159	22208.75
521.93	21257.75
522.702	20447.75
523.474	19627.75
524.245	18833.75
525.017	18066.75
525.788	17362.75
526.56	16591.75
527.331	15863.75
528.102	15193.75
528.873	14480.75
529.644	13769.75
530.415	13114.75
531.186	12484.75
531.957	11899.75
532.728	11327.75
533.498	10751.75
534.269	10145.75
535.039	9595.75
535.81	9102.75
536.58	8690.75
537.351	8200.75
538.121	7739.75
538.891	7356.75
539.661	6950.75
540.431	6586.75
541.201	6237.75
541.971	5941.75
542.741	5560.75
543.51	5323.75
544.28	5064.75
545.05	4803.75
545.819	4552.75
546.588	4321.75
547.358	4140.75
548.127	3919.75
548.896	3731.75
549.665	3548.75
550.434	3331.75
551.203	3186.75
551.972	3046.75
552.741	2871.75
553.51	2727.75
554.278	2575.75
555.047	2411.75
555.815	2288.75
556.584	2189.75
557.352	2068.75
558.121	1945.75
558.889	1822.75
559.657	1728.75
560.425	1634.75
561.193	1541.75
561.961	1475.75
562.729	1392.75
563.496	1302.75
564.264	1240.75
565.032	1190.75
565.799	1122.75
566.567	1050.75
567.334	996.75
568.101	927.75
568.869	881.75
569.636	836.75
570.403	790.75
571.17	756.75
571.937	714.75
572.704	663.75
573.471	631.75
574.237	590.75
575.004	559.75
575.771	525.75
576.537	496.75
577.303	472.75
578.07	442.75
578.836	422.75
579.602	396.75
580.368	376.75
581.134	359.75
581.9	334.75
582.666	325.75
583.432	302.75
584.198	288.75
584.964	271.75
585.729	259.75
586.495	251.75
587.26	236.75
588.025	221.75
588.791	214.75
589.556	202.75
590.321	192.75
591.086	179.75
591.851	171.75
592.616	158.75
593.381	153.75
594.146	143.75
594.911	138.75
595.675	129.75
596.44	129.75
597.204	124.75
597.969	116.75
598.733	111.75
599.497	108.75
600.261	103.75
601.025	95.75
601.79	93.75
602.553	90.75
603.317	82.75
604.081	80.75
604.845	79.75
605.609	74.75
606.372	74.75
607.136	69.75
607.899	66.75
608.662	63.75
609.426	64.75
610.189	63.75
610.952	57.75
611.715	54.75
612.478	47.75
613.241	53.75
614.004	47.75
614.767	48.75
615.529	46.75
616.292	44.75
617.055	40.75
617.817	43.75
618.579	41.75
619.342	35.75
620.104	36.75
620.866	37.75
621.628	36.75
622.39	33.75
623.152	32.75
623.914	28.75
624.676	28.75
625.438	29.75
626.199	28.75
626.961	28.75
627.722	27.75
628.484	26.75
629.245	23.75
630.006	20.75
630.768	25.75
631.529	22.75
632.29	22.75
633.051	21.75
633.812	22.75
634.573	20.75
635.333	19.75
636.094	18.75
636.855	19.75
637.615	19.75
638.376	16.75
639.136	19.75
639.896	18.75
640.657	16.75
641.417	16.75
642.177	13.75
642.937	17.75
643.697	14.75
644.457	14.75
645.216	16.75
645.976	13.75
646.736	12.75
647.495	13.75
648.255	10.75
649.014	12.75
649.774	9.75
650.533	11.75
651.292	8.75
652.051	11.75
652.81	9.75
653.569	11.75
654.328	11.75
655.087	9.75
655.846	11.75
656.604	10.75
657.363	11.75
658.121	7.75
658.88	11.75
659.638	12.75
660.397	11.75
661.155	10.75
661.913	9.75
662.671	12.75
663.429	8.75
664.187	8.75
664.945	8.75
665.703	8.75
666.46	8.75
667.218	6.75
667.976	8.75
668.733	7.75
669.49	10.75
670.248	8.75
671.005	7.75
671.762	10.75
672.519	9.75
673.276	5.75
674.033	5.75
674.79	8.75
675.547	6.75
676.304	6.75
677.06	8.75
677.817	6.75
678.574	6.75
679.33	3.75
680.086	3.75
680.843	5.75
681.599	4.75
682.355	6.75
683.111	6.75
683.867	8.75
684.623	8.75
685.379	5.75
686.135	4.75
686.89	6.75
687.646	5.75
688.402	6.75
689.157	8.75
689.912	6.75
690.668	9.75
691.423	6.75
692.178	7.75
692.933	6.75
693.688	7.75
694.443	5.75
695.198	6.75
695.953	5.75
696.708	2.75
697.462	6.75
698.217	2.75
698.972	6.75
699.726	4.75
700.48	4.75
701.235	6.75
701.989	7.75
702.743	4.75
703.497	4.75
704.251	5.75
705.005	6.75
705.759	5.75
706.513	6.75
707.266	4.75
708.02	6.75
708.774	6.75
709.527	6.75
710.28	4.75
711.034	4.75
711.787	6.75
712.54	6.75
713.293	4.75
714.046	5.75
714.799	6.75
715.552	5.75
716.305	4.75
717.058	6.75
717.81	5.75
718.563	5.75
719.315	3.75
720.068	6.75
720.82	5.75
721.573	7.75
722.325	6.75
723.077	5.75
723.829	6.75
724.581	6.75
725.333	6.75
726.085	5.75
726.836	5.75
727.588	8.75
728.34	7.75
729.091	6.75
729.843	6.75
730.594	5.75
731.346	6.75
732.097	8.75
732.848	6.75
733.599	7.75
734.35	7.75
735.101	7.75
735.852	6.75
736.603	3.75
737.354	7.75
738.104	6.75
738.855	4.75
739.605	8.75
740.356	6.75
741.106	6.75
741.856	7.75
742.607	8.75
743.357	9.75
744.107	7.75
744.857	8.75
745.607	8.75
746.357	8.75
747.106	5.75
747.856	11.75
748.606	9.75
749.355	7.75
750.105	6.75
750.854	7.75
751.603	5.75
752.353	6.75
753.102	9.75
753.851	8.75
754.6	8.75
755.349	8.75
756.098	9.75
756.847	8.75
757.595	8.75
758.344	9.75
759.093	9.75
759.841	9.75
760.589	9.75
761.338	9.75
762.086	7.75
762.834	10.75
763.582	9.75
764.331	11.75
765.079	10.75
765.826	10.75
766.574	8.75
767.322	11.75
768.07	8.75
768.817	9.75
769.565	9.75
770.312	9.75
771.06	11.75
771.807	10.75
772.554	11.75
773.302	8.75
774.049	12.75
774.796	11.75
775.543	10.75
776.29	12.75
777.036	11.75
777.783	12.75
778.53	10.75
779.276	12.75
780.023	9.75
780.769	10.75
781.516	12.75
782.262	12.75
783.008	12.75
783.754	12.75
784.5	10.75
785.246	11.75
785.992	11.75
786.738	10.75
787.484	15.75
788.23	11.75
788.975	11.75
789.721	13.75
790.466	9.75
791.212	12.75
791.957	11.75
792.702	9.75
793.447	8.75
794.193	14.75
794.938	12.75
795.683	12.75
796.427	12.75
797.172	9.75
797.917	11.75
798.662	10.75
799.406	8.75
800.151	9.75
800.895	10.75
801.64	8.75
802.384	8.75
803.128	11.75
803.872	9.75
804.616	11.75
805.36	10.75
806.104	8.75
806.848	9.75
807.592	7.75
808.336	8.75
809.079	8.75
809.823	9.75
810.566	8.75
811.31	7.75
812.053	7.75
812.796	7.75
813.539	7.75
814.283	7.75
815.026	7.75
815.769	4.75
816.511	7.75
817.254	7.75
817.997	4.75
818.74	6.75
819.482	6.75
820.225	4.75
820.967	6.75
821.71	5.75
822.452	6.75
823.194	6.75
823.936	6.75
824.678	5.75
825.42	7.75
826.162	5.75
826.904	6.75
827.646	6.75
828.388	4.75
829.129	4.75
829.871	5.75
830.612	6.75
831.354	5.75
832.095	6.75
832.836	3.75
833.577	2.75
834.319	4.75
835.06	2.75
835.801	6.75
836.542	4.75
837.282	5.75
838.023	6.75
838.764	5.75
839.504	6.75
840.245	5.75
840.985	3.75
841.726	3.75
842.466	3.75
843.206	5.75
843.946	3.75
844.687	3.75
845.427	4.75
846.166	4.75
846.906	3.75
847.646	4.75
848.386	3.75
849.125	0.75
849.865	4.75
850.605	2.75
851.344	4.75
852.083	4.75
852.823	4.75
853.562	4.75
854.301	3.75
855.04	4.75
855.779	0.75
856.518	3.75
857.257	3.75
857.995	5.75
858.734	4.75
859.473	3.75
860.211	4.75
860.95	1.75
861.688	5.75
862.426	4.75
863.165	3.75
863.903	2.75
864.641	1.75
865.379	3.75
866.117	3.75
866.855	0.75
867.593	1.75
868.33	2.75
869.068	2.75
869.806	3.75
870.543	3.75
871.28	2.75
872.018	1.75
872.755	0.75
873.492	3.75
874.229	1.75
874.967	2.75
875.703	0.75
876.44	0.75
877.177	2.75
877.914	0.75
878.651	0.75
879.387	4.75
880.124	3.75
880.86	1.75
881.597	-0.25
882.333	1.75
883.069	0.75
883.806	2.75
884.542	0.75
885.278	0.75
886.014	0.75
886.749	0.75
887.485	1.75
888.221	1.75
888.957	0.75
889.692	1.75
890.428	0.75
891.163	0.75
891.899	-0.25
892.634	1.75
893.369	-0.25
894.104	0.75
894.839	2.75
895.574	1.75
896.309	3.75
897.044	2.75
897.779	1.75
898.514	1.75
899.248	2.75
899.983	-0.25
900.717	2.75
901.452	0.75
902.186	-1.25
902.92	-0.25
903.654	0.75
904.389	2.75
905.123	0.75
905.857	1.75
906.59	0.75
907.324	0.75
908.058	-0.25
908.792	1.75
909.525	2.75
910.259	-1.25
910.992	0.75
911.726	-0.25
912.459	0.75
913.192	0.75
913.925	1.75
914.658	0.75
915.391	1.75
916.124	1.75
916.857	0.75
917.59	-1.25
918.323	-0.25
919.055	1.75
919.788	1.75
920.521	-0.25
921.253	0.75
921.985	-0.25
922.718	0.75
923.45	2.75
924.182	-0.25
924.914	2.75
925.646	-0.25
926.378	0.75
927.11	-1.25
927.841	1.75
928.573	0.75
929.305	-1.25
930.036	0.75
930.768	1.75
931.499	0.75
932.23	1.75
932.962	-1.25
933.693	-0.25
934.424	2.75
935.155	0.75
935.886	-0.25
936.617	1.75
937.348	-2.25
938.078	-0.25
938.809	-0.25
939.54	-2.25
940.27	-0.25
941.001	0.75
941.731	-0.25
942.461	1.75
943.191	-0.25
943.922	-2.25
944.652	0.75
945.382	-0.25
946.112	-1.25
946.841	0.75
947.571	1.75
948.301	-0.25
949.031	-1.25
949.76	-0.25
950.49	-0.25
951.219	-0.25
951.948	1.75
952.678	-0.25
953.407	2.75
954.136	-1.25
954.865	-1.25
955.594	-1.25
956.323	-1.25
957.052	-0.25
957.78	0.75
958.509	1.75
959.238	-1.25
959.966	0.75
960.695	-0.25
961.423	0.75
962.151	-0.25
962.88	0.75
963.608	-0.25
964.336	0.75
965.064	2.75
965.792	-0.25
966.52	0.75
967.247	1.75
967.975	-0.25
968.703	0.75
969.43	0.75
970.158	0.75
970.885	0.75
971.613	0.75
972.34	1.75
973.067	0.75
973.794	1.75
974.521	1.75
975.248	1.75
975.975	1.75
976.702	1.75
977.429	-0.25
978.156	-0.25
978.882	-0.25
979.609	1.75
980.335	1.75
981.062	0.75
981.788	-1.25
982.514	-0.25
983.24	-1.25
983.967	-0.25
984.693	-0.25
985.419	0.75
986.144	0.75
986.87	-0.25
987.596	0.75
988.322	-0.25
989.047	0.75
989.773	0.75
990.498	-2.25
991.224	-0.25
991.949	0.75
992.674	-1.25
993.399	0.75
994.124	0.75
994.849	-1.25
995.574	0.75
996.299	0.75
997.024	0.75
997.749	0.75
998.473	0.75
999.198	-0.25
999.922	-1.25
1000.647	-0.25
1001.371	4.75
1002.095	0.75
1002.82	-1.25
1003.544	-1.25
1004.268	3.75
1004.992	1.75
1005.716	5.75
1006.439	2.75
1007.163	2.75
1007.887	2.75
1008.611	-0.25
1009.334	-0.25
1010.058	2.75
1010.781	-0.25
1011.504	1.75
1012.228	0.75
1012.951	-0.25
1013.674	-0.25
1014.397	-1.25
1015.12	-1.25
