节点500_565_QEPB04081__544__09-59-28-097.txt的数据

Date: Thu Nov 13 09:59:28 CST 2025
User: PC
Spectrometer: QEPB0408
触发模式: 0
积分时间 (秒): 1.000000E-2
Scans to average: 1
启用暗噪声校正: true
启用非线性校正: false
滑动平均宽度: 0
X轴模式: Wavelengths
Number of Pixels in Spectrum: 1044
>>>>>Begin Spectral Data<<<<<
220.843	3.12
221.644	5.12
222.444	3.12
223.244	2.12
224.045	5.12
224.845	6.12
225.645	4.12
226.445	3.12
227.245	4.12
228.045	8.12
228.845	5.12
229.645	6.12
230.444	6.12
231.244	8.12
232.043	8.12
232.843	8.12
233.642	8.12
234.442	6.12
235.241	10.12
236.04	9.12
236.839	7.12
237.638	8.12
238.437	8.12
239.236	9.12
240.035	7.12
240.833	8.12
241.632	7.12
242.43	11.12
243.229	9.12
244.027	9.12
244.826	10.12
245.624	12.12
246.422	11.12
247.22	10.12
248.018	9.12
248.816	10.12
249.614	12.12
250.412	13.12
251.21	12.12
252.007	13.12
252.805	14.12
253.602	14.12
254.4	13.12
255.197	14.12
255.994	14.12
256.791	13.12
257.589	16.12
258.386	13.12
259.183	17.12
259.979	16.12
260.776	17.12
261.573	16.12
262.37	19.12
263.166	17.12
263.963	18.12
264.759	20.12
265.556	19.12
266.352	23.12
267.148	19.12
267.944	23.12
268.74	21.12
269.536	20.12
270.332	24.12
271.128	20.12
271.924	23.12
272.719	25.12
273.515	25.12
274.311	23.12
275.106	22.12
275.901	29.12
276.697	27.12
277.492	28.12
278.287	27.12
279.082	25.12
279.877	23.12
280.672	28.12
281.467	26.12
282.262	22.12
283.056	26.12
283.851	25.12
284.646	31.12
285.44	27.12
286.234	25.12
287.029	27.12
287.823	26.12
288.617	28.12
289.411	26.12
290.205	26.12
290.999	27.12
291.793	28.12
292.587	24.12
293.381	26.12
294.174	24.12
294.968	26.12
295.761	22.12
296.555	25.12
297.348	21.12
298.141	20.12
298.935	24.12
299.728	21.12
300.521	22.12
301.314	21.12
302.107	19.12
302.899	19.12
303.692	20.12
304.485	18.12
305.277	18.12
306.07	20.12
306.862	19.12
307.655	19.12
308.447	18.12
309.239	19.12
310.031	15.12
310.823	17.12
311.615	15.12
312.407	17.12
313.199	15.12
313.991	16.12
314.783	17.12
315.574	14.12
316.366	14.12
317.157	12.12
317.949	15.12
318.74	13.12
319.531	10.12
320.322	13.12
321.113	11.12
321.904	14.12
322.695	11.12
323.486	15.12
324.277	14.12
325.068	12.12
325.858	15.12
326.649	8.12
327.439	13.12
328.23	11.12
329.02	13.12
329.81	11.12
330.6	12.12
331.391	12.12
332.181	11.12
332.971	12.12
333.76	10.12
334.55	9.12
335.34	10.12
336.13	11.12
336.919	13.12
337.709	9.12
338.498	12.12
339.287	9.12
340.077	8.12
340.866	12.12
341.655	12.12
342.444	11.12
343.233	8.12
344.022	9.12
344.811	11.12
345.6	9.12
346.388	11.12
347.177	10.12
347.965	11.12
348.754	7.12
349.542	11.12
350.33	10.12
351.119	11.12
351.907	10.12
352.695	9.12
353.483	10.12
354.271	5.12
355.059	10.12
355.846	9.12
356.634	9.12
357.422	9.12
358.209	8.12
358.997	7.12
359.784	9.12
360.571	10.12
361.359	10.12
362.146	7.12
362.933	7.12
363.72	9.12
364.507	10.12
365.294	9.12
366.081	9.12
366.867	8.12
367.654	7.12
368.44	9.12
369.227	7.12
370.013	8.12
370.8	8.12
371.586	8.12
372.372	9.12
373.158	9.12
373.944	11.12
374.73	9.12
375.516	9.12
376.302	9.12
377.088	8.12
377.873	7.12
378.659	9.12
379.445	7.12
380.23	9.12
381.015	9.12
381.801	7.12
382.586	8.12
383.371	7.12
384.156	8.12
384.941	10.12
385.726	9.12
386.511	9.12
387.296	10.12
388.08	7.12
388.865	6.12
389.649	8.12
390.434	9.12
391.218	11.12
392.003	9.12
392.787	7.12
393.571	9.12
394.355	9.12
395.139	9.12
395.923	13.12
396.707	12.12
397.491	11.12
398.274	10.12
399.058	9.12
399.842	10.12
400.625	9.12
401.408	11.12
402.192	11.12
402.975	11.12
403.758	11.12
404.541	9.12
405.324	13.12
406.107	12.12
406.89	12.12
407.673	11.12
408.456	14.12
409.238	12.12
410.021	13.12
410.803	15.12
411.586	14.12
412.368	12.12
413.151	15.12
413.933	13.12
414.715	14.12
415.497	14.12
416.279	14.12
417.061	14.12
417.843	15.12
418.624	16.12
419.406	14.12
420.188	16.12
420.969	17.12
421.751	18.12
422.532	19.12
423.313	19.12
424.095	18.12
424.876	18.12
425.657	21.12
426.438	21.12
427.219	23.12
428	19.12
428.78	20.12
429.561	22.12
430.342	22.12
431.122	26.12
431.903	25.12
432.683	28.12
433.464	31.12
434.244	31.12
435.024	31.12
435.804	32.12
436.584	36.12
437.364	38.12
438.144	36.12
438.924	39.12
439.704	40.12
440.483	46.12
441.263	48.12
442.042	53.12
442.822	58.12
443.601	61.12
444.38	66.12
445.16	72.12
445.939	76.12
446.718	82.12
447.497	91.12
448.276	97.12
449.054	105.12
449.833	116.12
450.612	126.12
451.391	140.12
452.169	153.12
452.948	169.12
453.726	193.12
454.504	218.12
455.282	234.12
456.061	260.12
456.839	295.12
457.617	333.12
458.395	354.12
459.172	391.12
459.95	452.12
460.728	501.12
461.506	560.12
462.283	612.12
463.061	685.12
463.838	769.12
464.615	854.12
465.393	934.12
466.17	1050.12
466.947	1143.12
467.724	1276.12
468.501	1416.12
469.278	1550.12
470.055	1712.12
470.831	1906.12
471.608	2104.12
472.385	2281.12
473.161	2523.12
473.938	2773.12
474.714	3042.12
475.49	3304.12
476.266	3612.12
477.043	3948.12
477.819	4318.12
478.595	4732.12
479.371	5111.12
480.146	5558.12
480.922	6074.12
481.698	6601.12
482.473	7148.12
483.249	7701.12
484.024	8385.12
484.8	9099.12
485.575	9837.12
486.35	10594.12
487.126	11505.12
487.901	12381.12
488.676	13317.12
489.451	14423.12
490.225	15559.12
491	16677.12
491.775	17916.12
492.55	19165.12
493.324	20498.12
494.099	21797.12
494.873	23182.12
495.647	24655.12
496.422	26176.12
497.196	27540.12
497.97	28984.12
498.744	30342.12
499.518	31638.12
500.292	32891.12
501.066	34105.12
501.839	35107.12
502.613	36092.12
503.387	36854.12
504.16	37575.12
504.934	38087.12
505.707	38329.12
506.48	38516.12
507.253	38479.12
508.027	38087.12
508.8	37728.12
509.573	37213.12
510.346	36423.12
511.118	35570.12
511.891	34720.12
512.664	33833.12
513.437	32777.12
514.209	31646.12
514.982	30502.12
515.754	29463.12
516.526	28284.12
517.298	27122.12
518.071	26048.12
518.843	24987.12
519.615	23969.12
520.387	23083.12
521.159	22211.12
521.93	21348.12
522.702	20458.12
523.474	19613.12
524.245	18881.12
525.017	18193.12
525.788	17308.12
526.56	16665.12
527.331	15911.12
528.102	15224.12
528.873	14526.12
529.644	13842.12
530.415	13089.12
531.186	12493.12
531.957	11876.12
532.728	11340.12
533.498	10795.12
534.269	10188.12
535.039	9650.12
535.81	9197.12
536.58	8683.12
537.351	8176.12
538.121	7806.12
538.891	7370.12
539.661	6996.12
540.431	6627.12
541.201	6228.12
541.971	5946.12
542.741	5611.12
543.51	5314.12
544.28	5039.12
545.05	4792.12
545.819	4569.12
546.588	4373.12
547.358	4129.12
548.127	3926.12
548.896	3733.12
549.665	3568.12
550.434	3395.12
551.203	3201.12
551.972	3044.12
552.741	2875.12
553.51	2723.12
554.278	2587.12
555.047	2441.12
555.815	2302.12
556.584	2194.12
557.352	2068.12
558.121	1955.12
558.889	1819.12
559.657	1730.12
560.425	1648.12
561.193	1543.12
561.961	1457.12
562.729	1406.12
563.496	1309.12
564.264	1242.12
565.032	1178.12
565.799	1127.12
566.567	1059.12
567.334	998.12
568.101	936.12
568.869	889.12
569.636	842.12
570.403	790.12
571.17	761.12
571.937	719.12
572.704	669.12
573.471	633.12
574.237	598.12
575.004	566.12
575.771	519.12
576.537	500.12
577.303	477.12
578.07	447.12
578.836	413.12
579.602	403.12
580.368	374.12
581.134	350.12
581.9	335.12
582.666	323.12
583.432	301.12
584.198	290.12
584.964	270.12
585.729	261.12
586.495	245.12
587.26	235.12
588.025	219.12
588.791	209.12
589.556	194.12
590.321	190.12
591.086	185.12
591.851	169.12
592.616	160.12
593.381	152.12
594.146	145.12
594.911	137.12
595.675	134.12
596.44	127.12
597.204	122.12
597.969	117.12
598.733	111.12
599.497	107.12
600.261	104.12
601.025	102.12
601.79	94.12
602.553	92.12
603.317	90.12
604.081	83.12
604.845	79.12
605.609	78.12
606.372	69.12
607.136	72.12
607.899	67.12
608.662	64.12
609.426	63.12
610.189	60.12
610.952	57.12
611.715	55.12
612.478	55.12
613.241	52.12
614.004	49.12
614.767	50.12
615.529	44.12
616.292	45.12
617.055	42.12
617.817	43.12
618.579	40.12
619.342	37.12
620.104	38.12
620.866	35.12
621.628	37.12
622.39	33.12
623.152	33.12
623.914	33.12
624.676	29.12
625.438	30.12
626.199	30.12
626.961	28.12
627.722	24.12
628.484	26.12
629.245	27.12
630.006	27.12
630.768	26.12
631.529	23.12
632.29	25.12
633.051	19.12
633.812	24.12
634.573	21.12
635.333	18.12
636.094	18.12
636.855	20.12
637.615	18.12
638.376	18.12
639.136	19.12
639.896	15.12
640.657	18.12
641.417	17.12
642.177	14.12
642.937	17.12
643.697	16.12
644.457	16.12
645.216	15.12
645.976	14.12
646.736	14.12
647.495	11.12
648.255	12.12
649.014	13.12
649.774	11.12
650.533	14.12
651.292	11.12
652.051	12.12
652.81	12.12
653.569	11.12
654.328	11.12
655.087	13.12
655.846	11.12
656.604	10.12
657.363	10.12
658.121	8.12
658.88	9.12
659.638	9.12
660.397	13.12
661.155	10.12
661.913	13.12
662.671	12.12
663.429	9.12
664.187	9.12
664.945	10.12
665.703	9.12
666.46	9.12
667.218	10.12
667.976	8.12
668.733	8.12
669.49	10.12
670.248	8.12
671.005	10.12
671.762	8.12
672.519	8.12
673.276	9.12
674.033	7.12
674.79	9.12
675.547	6.12
676.304	6.12
677.06	6.12
677.817	7.12
678.574	8.12
679.33	8.12
680.086	10.12
680.843	9.12
681.599	6.12
682.355	7.12
683.111	8.12
683.867	8.12
684.623	7.12
685.379	7.12
686.135	7.12
686.89	7.12
687.646	8.12
688.402	8.12
689.157	5.12
689.912	5.12
690.668	4.12
691.423	8.12
692.178	4.12
692.933	4.12
693.688	6.12
694.443	5.12
695.198	6.12
695.953	9.12
696.708	7.12
697.462	9.12
698.217	5.12
698.972	4.12
699.726	6.12
700.48	9.12
701.235	7.12
701.989	7.12
702.743	5.12
703.497	3.12
704.251	6.12
705.005	7.12
705.759	7.12
706.513	6.12
707.266	7.12
708.02	6.12
708.774	6.12
709.527	7.12
710.28	6.12
711.034	6.12
711.787	8.12
712.54	8.12
713.293	5.12
714.046	9.12
714.799	7.12
715.552	5.12
716.305	7.12
717.058	8.12
717.81	6.12
718.563	7.12
719.315	7.12
720.068	6.12
720.82	7.12
721.573	8.12
722.325	5.12
723.077	6.12
723.829	5.12
724.581	7.12
725.333	5.12
726.085	5.12
726.836	7.12
727.588	9.12
728.34	8.12
729.091	7.12
729.843	5.12
730.594	9.12
731.346	6.12
732.097	7.12
732.848	9.12
733.599	8.12
734.35	7.12
735.101	7.12
735.852	8.12
736.603	7.12
737.354	9.12
738.104	7.12
738.855	7.12
739.605	10.12
740.356	7.12
741.106	9.12
741.856	7.12
742.607	9.12
743.357	5.12
744.107	8.12
744.857	10.12
745.607	7.12
746.357	7.12
747.106	9.12
747.856	7.12
748.606	6.12
749.355	11.12
750.105	9.12
750.854	11.12
751.603	8.12
752.353	5.12
753.102	11.12
753.851	9.12
754.6	7.12
755.349	7.12
756.098	11.12
756.847	10.12
757.595	9.12
758.344	8.12
759.093	9.12
759.841	11.12
760.589	9.12
761.338	10.12
762.086	9.12
762.834	11.12
763.582	10.12
764.331	11.12
765.079	9.12
765.826	10.12
766.574	10.12
767.322	11.12
768.07	10.12
768.817	10.12
769.565	11.12
770.312	13.12
771.06	11.12
771.807	11.12
772.554	12.12
773.302	12.12
774.049	10.12
774.796	13.12
775.543	11.12
776.29	12.12
777.036	11.12
777.783	13.12
778.53	12.12
779.276	13.12
780.023	11.12
780.769	14.12
781.516	12.12
782.262	14.12
783.008	14.12
783.754	14.12
784.5	12.12
785.246	13.12
785.992	14.12
786.738	13.12
787.484	14.12
788.23	10.12
788.975	12.12
789.721	10.12
790.466	11.12
791.212	11.12
791.957	11.12
792.702	12.12
793.447	11.12
794.193	11.12
794.938	13.12
795.683	12.12
796.427	12.12
797.172	10.12
797.917	8.12
798.662	7.12
799.406	13.12
800.151	12.12
800.895	10.12
801.64	11.12
802.384	7.12
803.128	10.12
803.872	9.12
804.616	10.12
805.36	9.12
806.104	13.12
806.848	9.12
807.592	6.12
808.336	10.12
809.079	9.12
809.823	11.12
810.566	7.12
811.31	9.12
812.053	7.12
812.796	6.12
813.539	8.12
814.283	7.12
815.026	7.12
815.769	6.12
816.511	9.12
817.254	7.12
817.997	7.12
818.74	5.12
819.482	8.12
820.225	8.12
820.967	7.12
821.71	7.12
822.452	8.12
823.194	8.12
823.936	5.12
824.678	4.12
825.42	8.12
826.162	5.12
826.904	7.12
827.646	4.12
828.388	9.12
829.129	7.12
829.871	6.12
830.612	5.12
831.354	5.12
832.095	7.12
832.836	6.12
833.577	6.12
834.319	6.12
835.06	8.12
835.801	5.12
836.542	5.12
837.282	5.12
838.023	7.12
838.764	5.12
839.504	5.12
840.245	9.12
840.985	7.12
841.726	5.12
842.466	5.12
843.206	5.12
843.946	5.12
844.687	7.12
845.427	5.12
846.166	5.12
846.906	3.12
847.646	6.12
848.386	3.12
849.125	6.12
849.865	3.12
850.605	2.12
851.344	4.12
852.083	3.12
852.823	6.12
853.562	5.12
854.301	6.12
855.04	3.12
855.779	5.12
856.518	2.12
857.257	5.12
857.995	2.12
858.734	4.12
859.473	5.12
860.211	3.12
860.95	3.12
861.688	5.12
862.426	1.12
863.165	2.12
863.903	5.12
864.641	2.12
865.379	3.12
866.117	3.12
866.855	4.12
867.593	1.12
868.33	4.12
869.068	4.12
869.806	3.12
870.543	2.12
871.28	2.12
872.018	4.12
872.755	2.12
873.492	3.12
874.229	1.12
874.967	3.12
875.703	1.12
876.44	1.12
877.177	1.12
877.914	3.12
878.651	2.12
879.387	3.12
880.124	5.12
880.86	1.12
881.597	2.12
882.333	2.12
883.069	1.12
883.806	2.12
884.542	1.12
885.278	3.12
886.014	0.12
886.749	2.12
887.485	3.12
888.221	3.12
888.957	1.12
889.692	1.12
890.428	0.12
891.163	-0.88
891.899	0.12
892.634	0.12
893.369	1.12
894.104	1.12
894.839	1.12
895.574	2.12
896.309	-0.88
897.044	1.12
897.779	2.12
898.514	0.12
899.248	2.12
899.983	0.12
900.717	1.12
901.452	1.12
902.186	0.12
902.92	1.12
903.654	1.12
904.389	2.12
905.123	2.12
905.857	2.12
906.59	3.12
907.324	3.12
908.058	-0.88
908.792	0.12
909.525	0.12
910.259	2.12
910.992	2.12
911.726	0.12
912.459	-0.88
913.192	0.12
913.925	1.12
914.658	2.12
915.391	1.12
916.124	2.12
916.857	1.12
917.59	2.12
918.323	1.12
919.055	3.12
919.788	0.12
920.521	0.12
921.253	2.12
921.985	0.12
922.718	1.12
923.45	2.12
924.182	2.12
924.914	0.12
925.646	1.12
926.378	2.12
927.11	-0.88
927.841	3.12
928.573	-1.88
929.305	1.12
930.036	-0.88
930.768	2.12
931.499	2.12
932.23	1.12
932.962	1.12
933.693	2.12
934.424	2.12
935.155	0.12
935.886	-0.88
936.617	1.12
937.348	1.12
938.078	2.12
938.809	1.12
939.54	1.12
940.27	1.12
941.001	-0.88
941.731	-0.88
942.461	1.12
943.191	2.12
943.922	0.12
944.652	-0.88
945.382	-0.88
946.112	-0.88
946.841	2.12
947.571	-1.88
948.301	1.12
949.031	0.12
949.76	0.12
950.49	-1.88
951.219	1.12
951.948	0.12
952.678	-0.88
953.407	-0.88
954.136	-0.88
954.865	0.12
955.594	1.12
956.323	1.12
957.052	0.12
957.78	-0.88
958.509	0.12
959.238	-1.88
959.966	1.12
960.695	0.12
961.423	1.12
962.151	1.12
962.88	2.12
963.608	0.12
964.336	0.12
965.064	1.12
965.792	-0.88
966.52	0.12
967.247	2.12
967.975	-0.88
968.703	0.12
969.43	2.12
970.158	0.12
970.885	1.12
971.613	1.12
972.34	-0.88
973.067	0.12
973.794	2.12
974.521	0.12
975.248	0.12
975.975	0.12
976.702	3.12
977.429	0.12
978.156	1.12
978.882	-0.88
979.609	-0.88
980.335	0.12
981.062	3.12
981.788	1.12
982.514	0.12
983.24	0.12
983.967	2.12
984.693	1.12
985.419	1.12
986.144	1.12
986.87	1.12
987.596	2.12
988.322	-0.88
989.047	2.12
989.773	1.12
990.498	1.12
991.224	-0.88
991.949	1.12
992.674	-0.88
993.399	-0.88
994.124	-1.88
994.849	1.12
995.574	-0.88
996.299	0.12
997.024	-0.88
997.749	1.12
998.473	0.12
999.198	-1.88
999.922	1.12
1000.647	0.12
1001.371	4.12
1002.095	-0.88
1002.82	-2.88
1003.544	-0.88
1004.268	3.12
1004.992	4.12
1005.716	2.12
1006.439	5.12
1007.163	5.12
1007.887	5.12
1008.611	-0.88
1009.334	2.12
1010.058	0.12
1010.781	-0.88
1011.504	1.12
1012.228	0.12
1012.951	0.12
1013.674	0.12
1014.397	1.12
1015.12	-0.88
