节点500_565_QEPB04081__240__09-54-24-707.txt的数据

Date: Thu Nov 13 09:54:24 CST 2025
User: PC
Spectrometer: QEPB0408
触发模式: 0
积分时间 (秒): 1.000000E-2
Scans to average: 1
启用暗噪声校正: true
启用非线性校正: false
滑动平均宽度: 0
X轴模式: Wavelengths
Number of Pixels in Spectrum: 1044
>>>>>Begin Spectral Data<<<<<
220.843	1.88
221.644	3.88
222.444	3.88
223.244	2.88
224.045	3.88
224.845	2.88
225.645	3.88
226.445	5.88
227.245	8.88
228.045	4.88
228.845	5.88
229.645	3.88
230.444	7.88
231.244	2.88
232.043	5.88
232.843	7.88
233.642	3.88
234.442	5.88
235.241	6.88
236.04	4.88
236.839	6.88
237.638	6.88
238.437	8.88
239.236	6.88
240.035	7.88
240.833	8.88
241.632	8.88
242.43	7.88
243.229	8.88
244.027	9.88
244.826	8.88
245.624	11.88
246.422	11.88
247.22	6.88
248.018	9.88
248.816	11.88
249.614	8.88
250.412	11.88
251.21	11.88
252.007	13.88
252.805	12.88
253.602	14.88
254.4	12.88
255.197	14.88
255.994	15.88
256.791	14.88
257.589	14.88
258.386	14.88
259.183	16.88
259.979	16.88
260.776	18.88
261.573	19.88
262.37	18.88
263.166	20.88
263.963	15.88
264.759	22.88
265.556	16.88
266.352	22.88
267.148	19.88
267.944	19.88
268.74	23.88
269.536	23.88
270.332	22.88
271.128	25.88
271.924	26.88
272.719	27.88
273.515	25.88
274.311	23.88
275.106	28.88
275.901	29.88
276.697	26.88
277.492	27.88
278.287	29.88
279.082	27.88
279.877	29.88
280.672	29.88
281.467	28.88
282.262	27.88
283.056	30.88
283.851	25.88
284.646	26.88
285.44	28.88
286.234	27.88
287.029	26.88
287.823	28.88
288.617	28.88
289.411	25.88
290.205	27.88
290.999	25.88
291.793	27.88
292.587	26.88
293.381	25.88
294.174	25.88
294.968	19.88
295.761	24.88
296.555	24.88
297.348	22.88
298.141	21.88
298.935	20.88
299.728	22.88
300.521	21.88
301.314	20.88
302.107	18.88
302.899	19.88
303.692	17.88
304.485	19.88
305.277	15.88
306.07	17.88
306.862	19.88
307.655	17.88
308.447	15.88
309.239	16.88
310.031	18.88
310.823	14.88
311.615	17.88
312.407	15.88
313.199	13.88
313.991	12.88
314.783	14.88
315.574	11.88
316.366	14.88
317.157	13.88
317.949	13.88
318.74	11.88
319.531	10.88
320.322	12.88
321.113	11.88
321.904	11.88
322.695	12.88
323.486	12.88
324.277	10.88
325.068	11.88
325.858	9.88
326.649	10.88
327.439	9.88
328.23	9.88
329.02	9.88
329.81	9.88
330.6	8.88
331.391	8.88
332.181	7.88
332.971	9.88
333.76	8.88
334.55	8.88
335.34	8.88
336.13	8.88
336.919	7.88
337.709	9.88
338.498	8.88
339.287	9.88
340.077	9.88
340.866	9.88
341.655	9.88
342.444	8.88
343.233	9.88
344.022	10.88
344.811	8.88
345.6	10.88
346.388	8.88
347.177	9.88
347.965	11.88
348.754	6.88
349.542	8.88
350.33	6.88
351.119	8.88
351.907	9.88
352.695	6.88
353.483	8.88
354.271	7.88
355.059	9.88
355.846	6.88
356.634	7.88
357.422	11.88
358.209	7.88
358.997	9.88
359.784	6.88
360.571	7.88
361.359	5.88
362.146	6.88
362.933	8.88
363.72	9.88
364.507	7.88
365.294	6.88
366.081	7.88
366.867	6.88
367.654	7.88
368.44	8.88
369.227	6.88
370.013	6.88
370.8	9.88
371.586	8.88
372.372	6.88
373.158	6.88
373.944	5.88
374.73	8.88
375.516	6.88
376.302	7.88
377.088	8.88
377.873	6.88
378.659	8.88
379.445	8.88
380.23	8.88
381.015	6.88
381.801	7.88
382.586	6.88
383.371	6.88
384.156	6.88
384.941	7.88
385.726	9.88
386.511	8.88
387.296	8.88
388.08	6.88
388.865	9.88
389.649	9.88
390.434	9.88
391.218	8.88
392.003	8.88
392.787	11.88
393.571	8.88
394.355	7.88
395.139	9.88
395.923	7.88
396.707	11.88
397.491	10.88
398.274	9.88
399.058	12.88
399.842	10.88
400.625	10.88
401.408	7.88
402.192	10.88
402.975	10.88
403.758	9.88
404.541	11.88
405.324	9.88
406.107	10.88
406.89	11.88
407.673	12.88
408.456	11.88
409.238	15.88
410.021	15.88
410.803	11.88
411.586	14.88
412.368	13.88
413.151	12.88
413.933	13.88
414.715	11.88
415.497	14.88
416.279	16.88
417.061	15.88
417.843	19.88
418.624	15.88
419.406	17.88
420.188	17.88
420.969	15.88
421.751	17.88
422.532	18.88
423.313	17.88
424.095	17.88
424.876	18.88
425.657	20.88
426.438	19.88
427.219	21.88
428	23.88
428.78	23.88
429.561	22.88
430.342	24.88
431.122	24.88
431.903	25.88
432.683	25.88
433.464	27.88
434.244	26.88
435.024	28.88
435.804	33.88
436.584	33.88
437.364	37.88
438.144	39.88
438.924	36.88
439.704	40.88
440.483	44.88
441.263	44.88
442.042	51.88
442.822	51.88
443.601	55.88
444.38	61.88
445.16	64.88
445.939	70.88
446.718	75.88
447.497	82.88
448.276	89.88
449.054	98.88
449.833	105.88
450.612	119.88
451.391	131.88
452.169	142.88
452.948	163.88
453.726	170.88
454.504	195.88
455.282	212.88
456.061	236.88
456.839	268.88
457.617	300.88
458.395	336.88
459.172	362.88
459.95	417.88
460.728	459.88
461.506	504.88
462.283	571.88
463.061	642.88
463.838	706.88
464.615	791.88
465.393	883.88
466.17	985.88
466.947	1106.88
467.724	1226.88
468.501	1368.88
469.278	1518.88
470.055	1664.88
470.831	1858.88
471.608	2080.88
472.385	2299.88
473.161	2541.88
473.938	2791.88
474.714	3056.88
475.49	3379.88
476.266	3702.88
477.043	4094.88
477.819	4495.88
478.595	4938.88
479.371	5437.88
480.146	5895.88
480.922	6492.88
481.698	7107.88
482.473	7736.88
483.249	8436.88
484.024	9177.88
484.8	10081.88
485.575	11008.88
486.35	11897.88
487.126	12927.88
487.901	14027.88
488.676	15253.88
489.451	16558.88
490.225	17922.88
491	19324.88
491.775	20761.88
492.55	22293.88
493.324	23843.88
494.099	25485.88
494.873	27102.88
495.647	28846.88
496.422	30569.88
497.196	32121.88
497.97	33738.88
498.744	35183.88
499.518	36513.88
500.292	37910.88
501.066	39044.88
501.839	40119.88
502.613	40865.88
503.387	41498.88
504.16	42025.88
504.934	42251.88
505.707	42162.88
506.48	41907.88
507.253	41549.88
508.027	40816.88
508.8	40055.88
509.573	38967.88
510.346	37961.88
511.118	36824.88
511.891	35702.88
512.664	34458.88
513.437	33111.88
514.209	31878.88
514.982	30531.88
515.754	29340.88
516.526	28078.88
517.298	26873.88
518.071	25808.88
518.843	24774.88
519.615	23714.88
520.387	22812.88
521.159	21906.88
521.93	21019.88
522.702	20104.88
523.474	19334.88
524.245	18536.88
525.017	17766.88
525.788	16954.88
526.56	16209.88
527.331	15450.88
528.102	14759.88
528.873	14036.88
529.644	13315.88
530.415	12653.88
531.186	12017.88
531.957	11377.88
532.728	10801.88
533.498	10233.88
534.269	9677.88
535.039	9141.88
535.81	8649.88
536.58	8203.88
537.351	7728.88
538.121	7291.88
538.891	6897.88
539.661	6598.88
540.431	6206.88
541.201	5901.88
541.971	5585.88
542.741	5267.88
543.51	4979.88
544.28	4729.88
545.05	4511.88
545.819	4271.88
546.588	4092.88
547.358	3881.88
548.127	3684.88
548.896	3509.88
549.665	3331.88
550.434	3167.88
551.203	2983.88
551.972	2847.88
552.741	2691.88
553.51	2547.88
554.278	2397.88
555.047	2267.88
555.815	2123.88
556.584	2027.88
557.352	1905.88
558.121	1815.88
558.889	1697.88
559.657	1599.88
560.425	1506.88
561.193	1436.88
561.961	1342.88
562.729	1291.88
563.496	1210.88
564.264	1154.88
565.032	1091.88
565.799	1029.88
566.567	965.88
567.334	929.88
568.101	871.88
568.869	815.88
569.636	771.88
570.403	734.88
571.17	686.88
571.937	652.88
572.704	620.88
573.471	581.88
574.237	545.88
575.004	520.88
575.771	480.88
576.537	464.88
577.303	425.88
578.07	416.88
578.836	386.88
579.602	368.88
580.368	345.88
581.134	326.88
581.9	313.88
582.666	294.88
583.432	274.88
584.198	262.88
584.964	255.88
585.729	234.88
586.495	225.88
587.26	220.88
588.025	201.88
588.791	187.88
589.556	179.88
590.321	171.88
591.086	168.88
591.851	159.88
592.616	149.88
593.381	142.88
594.146	132.88
594.911	133.88
595.675	122.88
596.44	118.88
597.204	112.88
597.969	106.88
598.733	98.88
599.497	100.88
600.261	93.88
601.025	92.88
601.79	89.88
602.553	83.88
603.317	83.88
604.081	77.88
604.845	72.88
605.609	65.88
606.372	67.88
607.136	66.88
607.899	62.88
608.662	62.88
609.426	56.88
610.189	56.88
610.952	56.88
611.715	52.88
612.478	47.88
613.241	47.88
614.004	47.88
614.767	43.88
615.529	40.88
616.292	45.88
617.055	38.88
617.817	33.88
618.579	37.88
619.342	37.88
620.104	35.88
620.866	34.88
621.628	30.88
622.39	31.88
623.152	29.88
623.914	28.88
624.676	29.88
625.438	27.88
626.199	27.88
626.961	27.88
627.722	22.88
628.484	23.88
629.245	24.88
630.006	23.88
630.768	19.88
631.529	21.88
632.29	21.88
633.051	20.88
633.812	18.88
634.573	21.88
635.333	17.88
636.094	15.88
636.855	18.88
637.615	16.88
638.376	16.88
639.136	18.88
639.896	16.88
640.657	14.88
641.417	14.88
642.177	15.88
642.937	13.88
643.697	15.88
644.457	13.88
645.216	14.88
645.976	12.88
646.736	12.88
647.495	13.88
648.255	12.88
649.014	12.88
649.774	12.88
650.533	10.88
651.292	10.88
652.051	10.88
652.81	12.88
653.569	10.88
654.328	11.88
655.087	9.88
655.846	8.88
656.604	12.88
657.363	10.88
658.121	8.88
658.88	9.88
659.638	8.88
660.397	6.88
661.155	7.88
661.913	9.88
662.671	4.88
663.429	10.88
664.187	7.88
664.945	6.88
665.703	8.88
666.46	8.88
667.218	5.88
667.976	7.88
668.733	10.88
669.49	4.88
670.248	5.88
671.005	8.88
671.762	7.88
672.519	8.88
673.276	6.88
674.033	5.88
674.79	3.88
675.547	7.88
676.304	6.88
677.06	6.88
677.817	6.88
678.574	4.88
679.33	7.88
680.086	6.88
680.843	4.88
681.599	7.88
682.355	6.88
683.111	6.88
683.867	4.88
684.623	6.88
685.379	5.88
686.135	5.88
686.89	5.88
687.646	4.88
688.402	8.88
689.157	3.88
689.912	7.88
690.668	7.88
691.423	4.88
692.178	6.88
692.933	4.88
693.688	6.88
694.443	7.88
695.198	5.88
695.953	6.88
696.708	5.88
697.462	5.88
698.217	4.88
698.972	5.88
699.726	7.88
700.48	5.88
701.235	3.88
701.989	4.88
702.743	4.88
703.497	7.88
704.251	6.88
705.005	5.88
705.759	5.88
706.513	3.88
707.266	5.88
708.02	5.88
708.774	9.88
709.527	5.88
710.28	6.88
711.034	3.88
711.787	4.88
712.54	6.88
713.293	4.88
714.046	3.88
714.799	5.88
715.552	5.88
716.305	4.88
717.058	5.88
717.81	6.88
718.563	4.88
719.315	6.88
720.068	5.88
720.82	8.88
721.573	4.88
722.325	4.88
723.077	5.88
723.829	4.88
724.581	7.88
725.333	7.88
726.085	6.88
726.836	5.88
727.588	5.88
728.34	5.88
729.091	6.88
729.843	6.88
730.594	5.88
731.346	5.88
732.097	6.88
732.848	4.88
733.599	7.88
734.35	7.88
735.101	8.88
735.852	5.88
736.603	5.88
737.354	9.88
738.104	6.88
738.855	9.88
739.605	6.88
740.356	7.88
741.106	7.88
741.856	6.88
742.607	6.88
743.357	9.88
744.107	9.88
744.857	5.88
745.607	8.88
746.357	7.88
747.106	7.88
747.856	7.88
748.606	5.88
749.355	6.88
750.105	7.88
750.854	10.88
751.603	8.88
752.353	8.88
753.102	9.88
753.851	9.88
754.6	8.88
755.349	6.88
756.098	11.88
756.847	10.88
757.595	8.88
758.344	7.88
759.093	9.88
759.841	10.88
760.589	8.88
761.338	9.88
762.086	7.88
762.834	12.88
763.582	13.88
764.331	9.88
765.079	9.88
765.826	8.88
766.574	11.88
767.322	11.88
768.07	11.88
768.817	11.88
769.565	12.88
770.312	14.88
771.06	11.88
771.807	13.88
772.554	13.88
773.302	11.88
774.049	12.88
774.796	11.88
775.543	12.88
776.29	9.88
777.036	13.88
777.783	13.88
778.53	12.88
779.276	13.88
780.023	11.88
780.769	12.88
781.516	11.88
782.262	15.88
783.008	11.88
783.754	15.88
784.5	13.88
785.246	12.88
785.992	13.88
786.738	11.88
787.484	12.88
788.23	10.88
788.975	8.88
789.721	12.88
790.466	11.88
791.212	14.88
791.957	12.88
792.702	11.88
793.447	12.88
794.193	10.88
794.938	9.88
795.683	10.88
796.427	12.88
797.172	12.88
797.917	5.88
798.662	9.88
799.406	10.88
800.151	11.88
800.895	10.88
801.64	10.88
802.384	8.88
803.128	12.88
803.872	7.88
804.616	10.88
805.36	11.88
806.104	5.88
806.848	7.88
807.592	9.88
808.336	9.88
809.079	6.88
809.823	8.88
810.566	7.88
811.31	8.88
812.053	7.88
812.796	6.88
813.539	5.88
814.283	7.88
815.026	7.88
815.769	3.88
816.511	8.88
817.254	5.88
817.997	5.88
818.74	7.88
819.482	4.88
820.225	6.88
820.967	5.88
821.71	6.88
822.452	5.88
823.194	3.88
823.936	4.88
824.678	5.88
825.42	4.88
826.162	3.88
826.904	5.88
827.646	5.88
828.388	2.88
829.129	4.88
829.871	3.88
830.612	5.88
831.354	4.88
832.095	4.88
832.836	5.88
833.577	2.88
834.319	3.88
835.06	2.88
835.801	3.88
836.542	4.88
837.282	1.88
838.023	3.88
838.764	2.88
839.504	3.88
840.245	4.88
840.985	4.88
841.726	2.88
842.466	3.88
843.206	5.88
843.946	1.88
844.687	3.88
845.427	4.88
846.166	3.88
846.906	4.88
847.646	4.88
848.386	3.88
849.125	1.88
849.865	3.88
850.605	2.88
851.344	4.88
852.083	3.88
852.823	3.88
853.562	4.88
854.301	3.88
855.04	1.88
855.779	0.88
856.518	1.88
857.257	2.88
857.995	2.88
858.734	2.88
859.473	3.88
860.211	5.88
860.95	1.88
861.688	2.88
862.426	2.88
863.165	2.88
863.903	1.88
864.641	0.88
865.379	2.88
866.117	1.88
866.855	1.88
867.593	3.88
868.33	0.88
869.068	1.88
869.806	2.88
870.543	1.88
871.28	1.88
872.018	0.88
872.755	-1.12
873.492	0.88
874.229	1.88
874.967	-0.12
875.703	2.88
876.44	1.88
877.177	2.88
877.914	0.88
878.651	0.88
879.387	1.88
880.124	0.88
880.86	2.88
881.597	0.88
882.333	1.88
883.069	-1.12
883.806	-0.12
884.542	0.88
885.278	-0.12
886.014	2.88
886.749	0.88
887.485	0.88
888.221	0.88
888.957	0.88
889.692	1.88
890.428	0.88
891.163	0.88
891.899	-0.12
892.634	3.88
893.369	-1.12
894.104	0.88
894.839	-0.12
895.574	1.88
896.309	-0.12
897.044	0.88
897.779	-0.12
898.514	-0.12
899.248	1.88
899.983	-1.12
900.717	-0.12
901.452	0.88
902.186	-0.12
902.92	1.88
903.654	-0.12
904.389	1.88
905.123	1.88
905.857	2.88
906.59	-0.12
907.324	-2.12
908.058	0.88
908.792	1.88
909.525	0.88
910.259	-0.12
910.992	-1.12
911.726	-0.12
912.459	-1.12
913.192	-0.12
913.925	-0.12
914.658	1.88
915.391	-0.12
916.124	-0.12
916.857	-1.12
917.59	-1.12
918.323	0.88
919.055	-0.12
919.788	0.88
920.521	0.88
921.253	-2.12
921.985	-0.12
922.718	-0.12
923.45	-0.12
924.182	-1.12
924.914	-0.12
925.646	-1.12
926.378	-0.12
927.11	0.88
927.841	-2.12
928.573	-0.12
929.305	-0.12
930.036	-0.12
930.768	0.88
931.499	-0.12
932.23	0.88
932.962	-0.12
933.693	0.88
934.424	-2.12
935.155	-0.12
935.886	-0.12
936.617	-1.12
937.348	-1.12
938.078	-0.12
938.809	-0.12
939.54	-2.12
940.27	-1.12
941.001	1.88
941.731	-0.12
942.461	-1.12
943.191	-1.12
943.922	-0.12
944.652	-0.12
945.382	-0.12
946.112	-3.12
946.841	-0.12
947.571	-0.12
948.301	-4.12
949.031	0.88
949.76	-1.12
950.49	-0.12
951.219	0.88
951.948	2.88
952.678	-0.12
953.407	0.88
954.136	-1.12
954.865	-3.12
955.594	-1.12
956.323	0.88
957.052	-2.12
957.78	-1.12
958.509	-0.12
959.238	0.88
959.966	-0.12
960.695	0.88
961.423	-1.12
962.151	1.88
962.88	0.88
963.608	-2.12
964.336	-3.12
965.064	-2.12
965.792	0.88
966.52	-1.12
967.247	-0.12
967.975	1.88
968.703	-0.12
969.43	-0.12
970.158	-2.12
970.885	-1.12
971.613	2.88
972.34	0.88
973.067	-3.12
973.794	-1.12
974.521	-0.12
975.248	-2.12
975.975	0.88
976.702	-2.12
977.429	0.88
978.156	-0.12
978.882	-0.12
979.609	-0.12
980.335	-0.12
981.062	1.88
981.788	-0.12
982.514	-0.12
983.24	-1.12
983.967	-0.12
984.693	-0.12
985.419	-1.12
986.144	0.88
986.87	-0.12
987.596	-2.12
988.322	0.88
989.047	-2.12
989.773	-0.12
990.498	0.88
991.224	0.88
991.949	-0.12
992.674	-0.12
993.399	-0.12
994.124	-0.12
994.849	-0.12
995.574	-1.12
996.299	-0.12
997.024	-2.12
997.749	-1.12
998.473	0.88
999.198	-0.12
999.922	-1.12
1000.647	-2.12
1001.371	3.88
1002.095	-2.12
1002.82	0.88
1003.544	-3.12
1004.268	1.88
1004.992	0.88
1005.716	1.88
1006.439	3.88
1007.163	0.88
1007.887	4.88
1008.611	-0.12
1009.334	-1.12
1010.058	1.88
1010.781	-2.12
1011.504	0.88
1012.228	0.88
1012.951	0.88
1013.674	0.88
1014.397	-0.12
1015.12	-1.12
