节点500_565_QEPB04081__328__09-55-52-453.txt的数据

Date: Thu Nov 13 09:55:52 CST 2025
User: PC
Spectrometer: QEPB0408
触发模式: 0
积分时间 (秒): 1.000000E-2
Scans to average: 1
启用暗噪声校正: true
启用非线性校正: false
滑动平均宽度: 0
X轴模式: Wavelengths
Number of Pixels in Spectrum: 1044
>>>>>Begin Spectral Data<<<<<
220.843	2.5
221.644	5.5
222.444	4.5
223.244	5.5
224.045	5.5
224.845	4.5
225.645	8.5
226.445	6.5
227.245	3.5
228.045	4.5
228.845	4.5
229.645	5.5
230.444	6.5
231.244	5.5
232.043	6.5
232.843	6.5
233.642	6.5
234.442	8.5
235.241	7.5
236.04	8.5
236.839	8.5
237.638	7.5
238.437	6.5
239.236	9.5
240.035	7.5
240.833	7.5
241.632	9.5
242.43	6.5
243.229	10.5
244.027	10.5
244.826	8.5
245.624	12.5
246.422	10.5
247.22	10.5
248.018	12.5
248.816	9.5
249.614	10.5
250.412	12.5
251.21	11.5
252.007	8.5
252.805	13.5
253.602	14.5
254.4	11.5
255.197	14.5
255.994	13.5
256.791	15.5
257.589	13.5
258.386	16.5
259.183	16.5
259.979	18.5
260.776	17.5
261.573	18.5
262.37	22.5
263.166	17.5
263.963	16.5
264.759	22.5
265.556	21.5
266.352	21.5
267.148	18.5
267.944	20.5
268.74	23.5
269.536	22.5
270.332	25.5
271.128	22.5
271.924	23.5
272.719	24.5
273.515	28.5
274.311	25.5
275.106	27.5
275.901	26.5
276.697	27.5
277.492	27.5
278.287	27.5
279.082	26.5
279.877	26.5
280.672	28.5
281.467	28.5
282.262	26.5
283.056	28.5
283.851	28.5
284.646	30.5
285.44	28.5
286.234	25.5
287.029	25.5
287.823	28.5
288.617	27.5
289.411	27.5
290.205	27.5
290.999	27.5
291.793	28.5
292.587	27.5
293.381	25.5
294.174	24.5
294.968	23.5
295.761	21.5
296.555	23.5
297.348	24.5
298.141	22.5
298.935	24.5
299.728	22.5
300.521	21.5
301.314	20.5
302.107	21.5
302.899	18.5
303.692	18.5
304.485	17.5
305.277	21.5
306.07	18.5
306.862	18.5
307.655	16.5
308.447	16.5
309.239	17.5
310.031	18.5
310.823	17.5
311.615	16.5
312.407	14.5
313.199	11.5
313.991	15.5
314.783	13.5
315.574	12.5
316.366	13.5
317.157	9.5
317.949	16.5
318.74	11.5
319.531	10.5
320.322	13.5
321.113	10.5
321.904	12.5
322.695	10.5
323.486	9.5
324.277	12.5
325.068	11.5
325.858	11.5
326.649	10.5
327.439	12.5
328.23	10.5
329.02	8.5
329.81	12.5
330.6	11.5
331.391	9.5
332.181	8.5
332.971	8.5
333.76	7.5
334.55	10.5
335.34	10.5
336.13	11.5
336.919	9.5
337.709	9.5
338.498	10.5
339.287	10.5
340.077	10.5
340.866	10.5
341.655	10.5
342.444	12.5
343.233	10.5
344.022	9.5
344.811	9.5
345.6	10.5
346.388	7.5
347.177	8.5
347.965	10.5
348.754	8.5
349.542	10.5
350.33	10.5
351.119	8.5
351.907	9.5
352.695	7.5
353.483	9.5
354.271	9.5
355.059	9.5
355.846	8.5
356.634	6.5
357.422	8.5
358.209	8.5
358.997	9.5
359.784	8.5
360.571	9.5
361.359	8.5
362.146	5.5
362.933	6.5
363.72	9.5
364.507	7.5
365.294	10.5
366.081	10.5
366.867	7.5
367.654	7.5
368.44	6.5
369.227	9.5
370.013	7.5
370.8	9.5
371.586	6.5
372.372	8.5
373.158	7.5
373.944	8.5
374.73	8.5
375.516	7.5
376.302	8.5
377.088	8.5
377.873	7.5
378.659	7.5
379.445	8.5
380.23	10.5
381.015	8.5
381.801	7.5
382.586	8.5
383.371	6.5
384.156	8.5
384.941	9.5
385.726	9.5
386.511	9.5
387.296	12.5
388.08	8.5
388.865	9.5
389.649	11.5
390.434	10.5
391.218	8.5
392.003	10.5
392.787	7.5
393.571	11.5
394.355	8.5
395.139	9.5
395.923	11.5
396.707	11.5
397.491	10.5
398.274	9.5
399.058	11.5
399.842	12.5
400.625	11.5
401.408	12.5
402.192	9.5
402.975	12.5
403.758	12.5
404.541	11.5
405.324	14.5
406.107	10.5
406.89	11.5
407.673	10.5
408.456	12.5
409.238	16.5
410.021	14.5
410.803	14.5
411.586	11.5
412.368	13.5
413.151	12.5
413.933	14.5
414.715	14.5
415.497	12.5
416.279	14.5
417.061	16.5
417.843	14.5
418.624	15.5
419.406	17.5
420.188	20.5
420.969	16.5
421.751	15.5
422.532	20.5
423.313	18.5
424.095	19.5
424.876	21.5
425.657	19.5
426.438	18.5
427.219	20.5
428	20.5
428.78	21.5
429.561	25.5
430.342	25.5
431.122	24.5
431.903	24.5
432.683	28.5
433.464	29.5
434.244	29.5
435.024	34.5
435.804	32.5
436.584	36.5
437.364	38.5
438.144	39.5
438.924	41.5
439.704	42.5
440.483	43.5
441.263	45.5
442.042	50.5
442.822	55.5
443.601	59.5
444.38	60.5
445.16	68.5
445.939	70.5
446.718	78.5
447.497	84.5
448.276	89.5
449.054	103.5
449.833	112.5
450.612	118.5
451.391	128.5
452.169	145.5
452.948	161.5
453.726	172.5
454.504	196.5
455.282	218.5
456.061	252.5
456.839	268.5
457.617	300.5
458.395	334.5
459.172	379.5
459.95	420.5
460.728	475.5
461.506	530.5
462.283	576.5
463.061	661.5
463.838	732.5
464.615	810.5
465.393	895.5
466.17	988.5
466.947	1111.5
467.724	1239.5
468.501	1374.5
469.278	1517.5
470.055	1680.5
470.831	1858.5
471.608	2082.5
472.385	2295.5
473.161	2513.5
473.938	2770.5
474.714	3043.5
475.49	3345.5
476.266	3662.5
477.043	4036.5
477.819	4474.5
478.595	4847.5
479.371	5306.5
480.146	5791.5
480.922	6335.5
481.698	6915.5
482.473	7505.5
483.249	8178.5
484.024	8934.5
484.8	9715.5
485.575	10576.5
486.35	11500.5
487.126	12442.5
487.901	13499.5
488.676	14609.5
489.451	15833.5
490.225	17110.5
491	18379.5
491.775	19761.5
492.55	21262.5
493.324	22734.5
494.099	24197.5
494.873	25726.5
495.647	27447.5
496.422	29045.5
497.196	30619.5
497.97	32116.5
498.744	33585.5
499.518	34987.5
500.292	36218.5
501.066	37442.5
501.839	38454.5
502.613	39304.5
503.387	40009.5
504.16	40578.5
504.934	40907.5
505.707	40932.5
506.48	40833.5
507.253	40542.5
508.027	39938.5
508.8	39255.5
509.573	38433.5
510.346	37449.5
511.118	36398.5
511.891	35526.5
512.664	34218.5
513.437	32930.5
514.209	31739.5
514.982	30450.5
515.754	29286.5
516.526	28107.5
517.298	26891.5
518.071	25763.5
518.843	24811.5
519.615	23769.5
520.387	22824.5
521.159	21948.5
521.93	21039.5
522.702	20226.5
523.474	19335.5
524.245	18637.5
525.017	17932.5
525.788	17103.5
526.56	16271.5
527.331	15567.5
528.102	14878.5
528.873	14134.5
529.644	13470.5
530.415	12802.5
531.186	12130.5
531.957	11523.5
532.728	10963.5
533.498	10372.5
534.269	9803.5
535.039	9273.5
535.81	8716.5
536.58	8327.5
537.351	7869.5
538.121	7427.5
538.891	7053.5
539.661	6668.5
540.431	6293.5
541.201	5967.5
541.971	5639.5
542.741	5359.5
543.51	5091.5
544.28	4832.5
545.05	4589.5
545.819	4365.5
546.588	4151.5
547.358	3953.5
548.127	3771.5
548.896	3587.5
549.665	3376.5
550.434	3226.5
551.203	3052.5
551.972	2899.5
552.741	2740.5
553.51	2576.5
554.278	2432.5
555.047	2300.5
555.815	2184.5
556.584	2073.5
557.352	1957.5
558.121	1849.5
558.889	1743.5
559.657	1640.5
560.425	1533.5
561.193	1478.5
561.961	1389.5
562.729	1315.5
563.496	1245.5
564.264	1176.5
565.032	1099.5
565.799	1057.5
566.567	1007.5
567.334	938.5
568.101	892.5
568.869	841.5
569.636	792.5
570.403	757.5
571.17	714.5
571.937	666.5
572.704	629.5
573.471	590.5
574.237	566.5
575.004	536.5
575.771	499.5
576.537	473.5
577.303	446.5
578.07	417.5
578.836	392.5
579.602	368.5
580.368	354.5
581.134	335.5
581.9	317.5
582.666	304.5
583.432	288.5
584.198	271.5
584.964	262.5
585.729	248.5
586.495	231.5
587.26	218.5
588.025	213.5
588.791	197.5
589.556	187.5
590.321	181.5
591.086	171.5
591.851	160.5
592.616	155.5
593.381	145.5
594.146	139.5
594.911	132.5
595.675	126.5
596.44	121.5
597.204	117.5
597.969	112.5
598.733	110.5
599.497	99.5
600.261	99.5
601.025	94.5
601.79	87.5
602.553	87.5
603.317	83.5
604.081	79.5
604.845	71.5
605.609	72.5
606.372	69.5
607.136	65.5
607.899	60.5
608.662	65.5
609.426	59.5
610.189	56.5
610.952	56.5
611.715	54.5
612.478	50.5
613.241	51.5
614.004	47.5
614.767	43.5
615.529	43.5
616.292	41.5
617.055	39.5
617.817	41.5
618.579	37.5
619.342	37.5
620.104	37.5
620.866	36.5
621.628	35.5
622.39	32.5
623.152	31.5
623.914	32.5
624.676	27.5
625.438	27.5
626.199	29.5
626.961	28.5
627.722	22.5
628.484	27.5
629.245	27.5
630.006	25.5
630.768	20.5
631.529	24.5
632.29	25.5
633.051	20.5
633.812	20.5
634.573	20.5
635.333	20.5
636.094	18.5
636.855	17.5
637.615	18.5
638.376	16.5
639.136	14.5
639.896	15.5
640.657	16.5
641.417	14.5
642.177	15.5
642.937	14.5
643.697	13.5
644.457	13.5
645.216	14.5
645.976	12.5
646.736	14.5
647.495	13.5
648.255	12.5
649.014	13.5
649.774	12.5
650.533	12.5
651.292	10.5
652.051	10.5
652.81	9.5
653.569	9.5
654.328	9.5
655.087	9.5
655.846	11.5
656.604	10.5
657.363	11.5
658.121	9.5
658.88	11.5
659.638	9.5
660.397	11.5
661.155	9.5
661.913	9.5
662.671	7.5
663.429	8.5
664.187	7.5
664.945	7.5
665.703	8.5
666.46	7.5
667.218	8.5
667.976	9.5
668.733	7.5
669.49	7.5
670.248	7.5
671.005	6.5
671.762	7.5
672.519	10.5
673.276	7.5
674.033	6.5
674.79	8.5
675.547	8.5
676.304	8.5
677.06	5.5
677.817	6.5
678.574	6.5
679.33	7.5
680.086	8.5
680.843	7.5
681.599	5.5
682.355	3.5
683.111	7.5
683.867	5.5
684.623	8.5
685.379	6.5
686.135	7.5
686.89	8.5
687.646	6.5
688.402	4.5
689.157	7.5
689.912	6.5
690.668	6.5
691.423	4.5
692.178	6.5
692.933	5.5
693.688	8.5
694.443	6.5
695.198	7.5
695.953	5.5
696.708	6.5
697.462	8.5
698.217	5.5
698.972	6.5
699.726	6.5
700.48	4.5
701.235	2.5
701.989	6.5
702.743	4.5
703.497	5.5
704.251	5.5
705.005	6.5
705.759	5.5
706.513	6.5
707.266	5.5
708.02	8.5
708.774	6.5
709.527	8.5
710.28	5.5
711.034	4.5
711.787	4.5
712.54	7.5
713.293	8.5
714.046	4.5
714.799	4.5
715.552	3.5
716.305	6.5
717.058	5.5
717.81	5.5
718.563	7.5
719.315	6.5
720.068	7.5
720.82	8.5
721.573	5.5
722.325	7.5
723.077	4.5
723.829	8.5
724.581	6.5
725.333	8.5
726.085	2.5
726.836	5.5
727.588	7.5
728.34	6.5
729.091	6.5
729.843	7.5
730.594	6.5
731.346	6.5
732.097	8.5
732.848	5.5
733.599	9.5
734.35	5.5
735.101	3.5
735.852	8.5
736.603	9.5
737.354	7.5
738.104	7.5
738.855	6.5
739.605	8.5
740.356	6.5
741.106	7.5
741.856	4.5
742.607	10.5
743.357	6.5
744.107	8.5
744.857	7.5
745.607	5.5
746.357	9.5
747.106	10.5
747.856	9.5
748.606	6.5
749.355	9.5
750.105	9.5
750.854	9.5
751.603	8.5
752.353	9.5
753.102	9.5
753.851	8.5
754.6	10.5
755.349	9.5
756.098	8.5
756.847	10.5
757.595	9.5
758.344	12.5
759.093	8.5
759.841	8.5
760.589	9.5
761.338	11.5
762.086	8.5
762.834	12.5
763.582	10.5
764.331	11.5
765.079	10.5
765.826	9.5
766.574	9.5
767.322	10.5
768.07	11.5
768.817	9.5
769.565	12.5
770.312	12.5
771.06	11.5
771.807	13.5
772.554	12.5
773.302	12.5
774.049	11.5
774.796	12.5
775.543	12.5
776.29	13.5
777.036	12.5
777.783	14.5
778.53	13.5
779.276	13.5
780.023	13.5
780.769	13.5
781.516	13.5
782.262	12.5
783.008	16.5
783.754	10.5
784.5	14.5
785.246	13.5
785.992	13.5
786.738	12.5
787.484	11.5
788.23	13.5
788.975	11.5
789.721	12.5
790.466	11.5
791.212	13.5
791.957	10.5
792.702	13.5
793.447	11.5
794.193	12.5
794.938	11.5
795.683	11.5
796.427	12.5
797.172	10.5
797.917	11.5
798.662	10.5
799.406	11.5
800.151	11.5
800.895	8.5
801.64	10.5
802.384	10.5
803.128	10.5
803.872	7.5
804.616	7.5
805.36	9.5
806.104	9.5
806.848	8.5
807.592	6.5
808.336	9.5
809.079	7.5
809.823	7.5
810.566	9.5
811.31	7.5
812.053	8.5
812.796	7.5
813.539	7.5
814.283	6.5
815.026	9.5
815.769	7.5
816.511	7.5
817.254	8.5
817.997	6.5
818.74	8.5
819.482	6.5
820.225	7.5
820.967	5.5
821.71	4.5
822.452	8.5
823.194	7.5
823.936	8.5
824.678	5.5
825.42	4.5
826.162	6.5
826.904	6.5
827.646	6.5
828.388	4.5
829.129	4.5
829.871	4.5
830.612	6.5
831.354	4.5
832.095	4.5
832.836	6.5
833.577	4.5
834.319	5.5
835.06	6.5
835.801	5.5
836.542	3.5
837.282	3.5
838.023	4.5
838.764	4.5
839.504	5.5
840.245	4.5
840.985	4.5
841.726	4.5
842.466	2.5
843.206	3.5
843.946	5.5
844.687	4.5
845.427	4.5
846.166	5.5
846.906	4.5
847.646	3.5
848.386	4.5
849.125	6.5
849.865	3.5
850.605	3.5
851.344	2.5
852.083	3.5
852.823	3.5
853.562	2.5
854.301	2.5
855.04	2.5
855.779	1.5
856.518	4.5
857.257	1.5
857.995	4.5
858.734	5.5
859.473	2.5
860.211	1.5
860.95	4.5
861.688	3.5
862.426	0.5
863.165	3.5
863.903	3.5
864.641	-0.5
865.379	4.5
866.117	1.5
866.855	3.5
867.593	5.5
868.33	3.5
869.068	0.5
869.806	2.5
870.543	3.5
871.28	2.5
872.018	2.5
872.755	1.5
873.492	1.5
874.229	2.5
874.967	-1.5
875.703	2.5
876.44	2.5
877.177	1.5
877.914	1.5
878.651	2.5
879.387	1.5
880.124	1.5
880.86	1.5
881.597	1.5
882.333	2.5
883.069	0.5
883.806	0.5
884.542	2.5
885.278	3.5
886.014	0.5
886.749	0.5
887.485	0.5
888.221	0.5
888.957	2.5
889.692	1.5
890.428	1.5
891.163	0.5
891.899	0.5
892.634	1.5
893.369	0.5
894.104	0.5
894.839	-0.5
895.574	0.5
896.309	1.5
897.044	-0.5
897.779	-0.5
898.514	0.5
899.248	-0.5
899.983	-0.5
900.717	0.5
901.452	0.5
902.186	1.5
902.92	0.5
903.654	1.5
904.389	0.5
905.123	0.5
905.857	1.5
906.59	-1.5
907.324	-1.5
908.058	-0.5
908.792	0.5
909.525	1.5
910.259	0.5
910.992	0.5
911.726	-0.5
912.459	-2.5
913.192	2.5
913.925	-1.5
914.658	0.5
915.391	0.5
916.124	0.5
916.857	2.5
917.59	0.5
918.323	1.5
919.055	0.5
919.788	0.5
920.521	0.5
921.253	0.5
921.985	-0.5
922.718	0.5
923.45	2.5
924.182	-0.5
924.914	0.5
925.646	-0.5
926.378	-0.5
927.11	0.5
927.841	0.5
928.573	-0.5
929.305	-0.5
930.036	1.5
930.768	1.5
931.499	0.5
932.23	1.5
932.962	-0.5
933.693	0.5
934.424	-0.5
935.155	1.5
935.886	-0.5
936.617	-2.5
937.348	-0.5
938.078	-0.5
938.809	-0.5
939.54	-0.5
940.27	1.5
941.001	0.5
941.731	2.5
942.461	0.5
943.191	2.5
943.922	-0.5
944.652	-1.5
945.382	-1.5
946.112	-1.5
946.841	-1.5
947.571	0.5
948.301	-0.5
949.031	1.5
949.76	-0.5
950.49	1.5
951.219	0.5
951.948	0.5
952.678	0.5
953.407	1.5
954.136	0.5
954.865	0.5
955.594	1.5
956.323	-1.5
957.052	0.5
957.78	0.5
958.509	-0.5
959.238	-2.5
959.966	-3.5
960.695	0.5
961.423	-0.5
962.151	-0.5
962.88	1.5
963.608	0.5
964.336	-0.5
965.064	-0.5
965.792	0.5
966.52	-1.5
967.247	-1.5
967.975	1.5
968.703	1.5
969.43	0.5
970.158	2.5
970.885	1.5
971.613	-0.5
972.34	1.5
973.067	-0.5
973.794	0.5
974.521	-0.5
975.248	1.5
975.975	3.5
976.702	0.5
977.429	-1.5
978.156	-1.5
978.882	0.5
979.609	0.5
980.335	0.5
981.062	-1.5
981.788	-1.5
982.514	0.5
983.24	-0.5
983.967	2.5
984.693	0.5
985.419	-1.5
986.144	1.5
986.87	0.5
987.596	-0.5
988.322	0.5
989.047	0.5
989.773	-1.5
990.498	0.5
991.224	1.5
991.949	0.5
992.674	-0.5
993.399	1.5
994.124	0.5
994.849	0.5
995.574	0.5
996.299	0.5
997.024	-2.5
997.749	0.5
998.473	-0.5
999.198	0.5
999.922	0.5
1000.647	-0.5
1001.371	1.5
1002.095	-1.5
1002.82	0.5
1003.544	-2.5
1004.268	4.5
1004.992	2.5
1005.716	3.5
1006.439	4.5
1007.163	2.5
1007.887	3.5
1008.611	1.5
1009.334	-1.5
1010.058	0.5
1010.781	-0.5
1011.504	1.5
1012.228	-0.5
1012.951	2.5
1013.674	0.5
1014.397	-0.5
1015.12	-0.5
