节点500_565_QEPB04081__554__09-59-38-037.txt的数据

Date: Thu Nov 13 09:59:38 CST 2025
User: PC
Spectrometer: QEPB0408
触发模式: 0
积分时间 (秒): 1.000000E-2
Scans to average: 1
启用暗噪声校正: true
启用非线性校正: false
滑动平均宽度: 0
X轴模式: Wavelengths
Number of Pixels in Spectrum: 1044
>>>>>Begin Spectral Data<<<<<
220.843	5.38
221.644	5.38
222.444	2.38
223.244	6.38
224.045	6.38
224.845	4.38
225.645	6.38
226.445	7.38
227.245	4.38
228.045	7.38
228.845	2.38
229.645	6.38
230.444	7.38
231.244	5.38
232.043	7.38
232.843	6.38
233.642	9.38
234.442	5.38
235.241	8.38
236.04	9.38
236.839	7.38
237.638	8.38
238.437	9.38
239.236	9.38
240.035	11.38
240.833	8.38
241.632	8.38
242.43	9.38
243.229	10.38
244.027	8.38
244.826	9.38
245.624	12.38
246.422	10.38
247.22	11.38
248.018	11.38
248.816	14.38
249.614	10.38
250.412	12.38
251.21	11.38
252.007	14.38
252.805	14.38
253.602	11.38
254.4	13.38
255.197	13.38
255.994	14.38
256.791	15.38
257.589	17.38
258.386	16.38
259.183	16.38
259.979	16.38
260.776	17.38
261.573	16.38
262.37	18.38
263.166	18.38
263.963	16.38
264.759	19.38
265.556	19.38
266.352	21.38
267.148	21.38
267.944	22.38
268.74	22.38
269.536	21.38
270.332	22.38
271.128	24.38
271.924	23.38
272.719	21.38
273.515	23.38
274.311	24.38
275.106	23.38
275.901	23.38
276.697	24.38
277.492	25.38
278.287	27.38
279.082	25.38
279.877	25.38
280.672	29.38
281.467	26.38
282.262	25.38
283.056	27.38
283.851	25.38
284.646	26.38
285.44	28.38
286.234	28.38
287.029	27.38
287.823	27.38
288.617	27.38
289.411	27.38
290.205	28.38
290.999	26.38
291.793	26.38
292.587	26.38
293.381	25.38
294.174	26.38
294.968	25.38
295.761	21.38
296.555	23.38
297.348	20.38
298.141	19.38
298.935	23.38
299.728	22.38
300.521	23.38
301.314	21.38
302.107	22.38
302.899	21.38
303.692	19.38
304.485	18.38
305.277	21.38
306.07	17.38
306.862	17.38
307.655	19.38
308.447	19.38
309.239	17.38
310.031	16.38
310.823	18.38
311.615	16.38
312.407	15.38
313.199	15.38
313.991	16.38
314.783	14.38
315.574	13.38
316.366	11.38
317.157	10.38
317.949	13.38
318.74	13.38
319.531	12.38
320.322	14.38
321.113	12.38
321.904	12.38
322.695	12.38
323.486	13.38
324.277	11.38
325.068	10.38
325.858	10.38
326.649	10.38
327.439	12.38
328.23	10.38
329.02	10.38
329.81	13.38
330.6	9.38
331.391	12.38
332.181	10.38
332.971	11.38
333.76	10.38
334.55	9.38
335.34	9.38
336.13	9.38
336.919	9.38
337.709	11.38
338.498	9.38
339.287	9.38
340.077	10.38
340.866	9.38
341.655	9.38
342.444	11.38
343.233	8.38
344.022	9.38
344.811	11.38
345.6	11.38
346.388	9.38
347.177	7.38
347.965	10.38
348.754	11.38
349.542	11.38
350.33	9.38
351.119	9.38
351.907	8.38
352.695	8.38
353.483	10.38
354.271	9.38
355.059	11.38
355.846	8.38
356.634	9.38
357.422	8.38
358.209	6.38
358.997	9.38
359.784	10.38
360.571	9.38
361.359	6.38
362.146	10.38
362.933	7.38
363.72	9.38
364.507	10.38
365.294	6.38
366.081	7.38
366.867	8.38
367.654	7.38
368.44	8.38
369.227	10.38
370.013	9.38
370.8	7.38
371.586	9.38
372.372	7.38
373.158	7.38
373.944	7.38
374.73	8.38
375.516	6.38
376.302	6.38
377.088	8.38
377.873	6.38
378.659	9.38
379.445	10.38
380.23	10.38
381.015	8.38
381.801	8.38
382.586	7.38
383.371	7.38
384.156	8.38
384.941	9.38
385.726	9.38
386.511	8.38
387.296	9.38
388.08	10.38
388.865	10.38
389.649	8.38
390.434	9.38
391.218	11.38
392.003	11.38
392.787	10.38
393.571	8.38
394.355	10.38
395.139	12.38
395.923	10.38
396.707	13.38
397.491	11.38
398.274	9.38
399.058	12.38
399.842	10.38
400.625	9.38
401.408	10.38
402.192	11.38
402.975	9.38
403.758	12.38
404.541	14.38
405.324	13.38
406.107	11.38
406.89	13.38
407.673	13.38
408.456	14.38
409.238	11.38
410.021	12.38
410.803	14.38
411.586	13.38
412.368	13.38
413.151	15.38
413.933	14.38
414.715	16.38
415.497	15.38
416.279	15.38
417.061	18.38
417.843	15.38
418.624	14.38
419.406	18.38
420.188	16.38
420.969	17.38
421.751	17.38
422.532	18.38
423.313	17.38
424.095	16.38
424.876	19.38
425.657	19.38
426.438	19.38
427.219	18.38
428	22.38
428.78	21.38
429.561	22.38
430.342	23.38
431.122	22.38
431.903	27.38
432.683	29.38
433.464	28.38
434.244	28.38
435.024	32.38
435.804	32.38
436.584	34.38
437.364	37.38
438.144	36.38
438.924	42.38
439.704	42.38
440.483	43.38
441.263	45.38
442.042	52.38
442.822	57.38
443.601	61.38
444.38	66.38
445.16	68.38
445.939	75.38
446.718	85.38
447.497	87.38
448.276	100.38
449.054	107.38
449.833	119.38
450.612	126.38
451.391	139.38
452.169	158.38
452.948	173.38
453.726	192.38
454.504	213.38
455.282	237.38
456.061	264.38
456.839	295.38
457.617	325.38
458.395	361.38
459.172	406.38
459.95	450.38
460.728	498.38
461.506	553.38
462.283	612.38
463.061	703.38
463.838	764.38
464.615	839.38
465.393	936.38
466.17	1045.38
466.947	1151.38
467.724	1266.38
468.501	1409.38
469.278	1549.38
470.055	1723.38
470.831	1891.38
471.608	2080.38
472.385	2295.38
473.161	2519.38
473.938	2763.38
474.714	3018.38
475.49	3317.38
476.266	3623.38
477.043	3941.38
477.819	4331.38
478.595	4708.38
479.371	5096.38
480.146	5563.38
480.922	6087.38
481.698	6597.38
482.473	7170.38
483.249	7704.38
484.024	8365.38
484.8	9065.38
485.575	9854.38
486.35	10660.38
487.126	11457.38
487.901	12410.38
488.676	13367.38
489.451	14407.38
490.225	15501.38
491	16674.38
491.775	17799.38
492.55	19135.38
493.324	20440.38
494.099	21753.38
494.873	23101.38
495.647	24632.38
496.422	26026.38
497.196	27399.38
497.97	28832.38
498.744	30169.38
499.518	31486.38
500.292	32753.38
501.066	33970.38
501.839	35016.38
502.613	35888.38
503.387	36783.38
504.16	37562.38
504.934	37931.38
505.707	38248.38
506.48	38325.38
507.253	38233.38
508.027	37951.38
508.8	37536.38
509.573	37109.38
510.346	36362.38
511.118	35590.38
511.891	34735.38
512.664	33803.38
513.437	32762.38
514.209	31616.38
514.982	30490.38
515.754	29503.38
516.526	28327.38
517.298	27165.38
518.071	26131.38
518.843	24959.38
519.615	24067.38
520.387	23127.38
521.159	22218.38
521.93	21315.38
522.702	20445.38
523.474	19673.38
524.245	18819.38
525.017	18145.38
525.788	17397.38
526.56	16622.38
527.331	15895.38
528.102	15191.38
528.873	14498.38
529.644	13827.38
530.415	13134.38
531.186	12509.38
531.957	11923.38
532.728	11361.38
533.498	10771.38
534.269	10171.38
535.039	9653.38
535.81	9205.38
536.58	8671.38
537.351	8255.38
538.121	7794.38
538.891	7351.38
539.661	6986.38
540.431	6658.38
541.201	6282.38
541.971	5933.38
542.741	5603.38
543.51	5330.38
544.28	5049.38
545.05	4838.38
545.819	4579.38
546.588	4363.38
547.358	4139.38
548.127	3943.38
548.896	3758.38
549.665	3559.38
550.434	3379.38
551.203	3197.38
551.972	3047.38
552.741	2889.38
553.51	2765.38
554.278	2583.38
555.047	2428.38
555.815	2336.38
556.584	2209.38
557.352	2080.38
558.121	1962.38
558.889	1837.38
559.657	1741.38
560.425	1651.38
561.193	1559.38
561.961	1463.38
562.729	1404.38
563.496	1335.38
564.264	1250.38
565.032	1179.38
565.799	1111.38
566.567	1059.38
567.334	1000.38
568.101	954.38
568.869	894.38
569.636	839.38
570.403	799.38
571.17	754.38
571.937	706.38
572.704	671.38
573.471	636.38
574.237	601.38
575.004	558.38
575.771	531.38
576.537	503.38
577.303	471.38
578.07	445.38
578.836	421.38
579.602	393.38
580.368	375.38
581.134	364.38
581.9	339.38
582.666	323.38
583.432	313.38
584.198	293.38
584.964	280.38
585.729	255.38
586.495	245.38
587.26	232.38
588.025	224.38
588.791	208.38
589.556	199.38
590.321	191.38
591.086	177.38
591.851	166.38
592.616	169.38
593.381	153.38
594.146	148.38
594.911	139.38
595.675	131.38
596.44	129.38
597.204	120.38
597.969	119.38
598.733	110.38
599.497	107.38
600.261	103.38
601.025	98.38
601.79	94.38
602.553	87.38
603.317	89.38
604.081	85.38
604.845	80.38
605.609	75.38
606.372	74.38
607.136	68.38
607.899	65.38
608.662	65.38
609.426	65.38
610.189	60.38
610.952	57.38
611.715	57.38
612.478	53.38
613.241	50.38
614.004	48.38
614.767	50.38
615.529	49.38
616.292	43.38
617.055	42.38
617.817	43.38
618.579	42.38
619.342	37.38
620.104	40.38
620.866	35.38
621.628	37.38
622.39	37.38
623.152	33.38
623.914	32.38
624.676	33.38
625.438	29.38
626.199	28.38
626.961	29.38
627.722	27.38
628.484	26.38
629.245	26.38
630.006	25.38
630.768	24.38
631.529	21.38
632.29	23.38
633.051	21.38
633.812	21.38
634.573	20.38
635.333	21.38
636.094	19.38
636.855	18.38
637.615	19.38
638.376	18.38
639.136	15.38
639.896	16.38
640.657	16.38
641.417	18.38
642.177	15.38
642.937	18.38
643.697	18.38
644.457	15.38
645.216	15.38
645.976	13.38
646.736	16.38
647.495	16.38
648.255	14.38
649.014	12.38
649.774	13.38
650.533	11.38
651.292	8.38
652.051	13.38
652.81	10.38
653.569	12.38
654.328	12.38
655.087	10.38
655.846	11.38
656.604	13.38
657.363	10.38
658.121	10.38
658.88	12.38
659.638	11.38
660.397	10.38
661.155	11.38
661.913	11.38
662.671	9.38
663.429	9.38
664.187	9.38
664.945	9.38
665.703	10.38
666.46	7.38
667.218	9.38
667.976	9.38
668.733	8.38
669.49	7.38
670.248	9.38
671.005	8.38
671.762	9.38
672.519	9.38
673.276	9.38
674.033	6.38
674.79	9.38
675.547	8.38
676.304	8.38
677.06	9.38
677.817	7.38
678.574	5.38
679.33	7.38
680.086	6.38
680.843	5.38
681.599	7.38
682.355	5.38
683.111	6.38
683.867	7.38
684.623	9.38
685.379	5.38
686.135	9.38
686.89	5.38
687.646	7.38
688.402	9.38
689.157	5.38
689.912	9.38
690.668	6.38
691.423	4.38
692.178	6.38
692.933	6.38
693.688	7.38
694.443	6.38
695.198	7.38
695.953	6.38
696.708	6.38
697.462	7.38
698.217	5.38
698.972	7.38
699.726	6.38
700.48	7.38
701.235	6.38
701.989	6.38
702.743	5.38
703.497	6.38
704.251	5.38
705.005	5.38
705.759	7.38
706.513	8.38
707.266	5.38
708.02	5.38
708.774	5.38
709.527	5.38
710.28	7.38
711.034	5.38
711.787	5.38
712.54	7.38
713.293	7.38
714.046	6.38
714.799	5.38
715.552	6.38
716.305	7.38
717.058	5.38
717.81	8.38
718.563	7.38
719.315	4.38
720.068	8.38
720.82	4.38
721.573	8.38
722.325	9.38
723.077	7.38
723.829	7.38
724.581	6.38
725.333	6.38
726.085	6.38
726.836	6.38
727.588	7.38
728.34	6.38
729.091	5.38
729.843	7.38
730.594	8.38
731.346	7.38
732.097	6.38
732.848	10.38
733.599	7.38
734.35	8.38
735.101	7.38
735.852	6.38
736.603	7.38
737.354	6.38
738.104	6.38
738.855	6.38
739.605	5.38
740.356	9.38
741.106	9.38
741.856	9.38
742.607	7.38
743.357	6.38
744.107	7.38
744.857	9.38
745.607	9.38
746.357	8.38
747.106	6.38
747.856	7.38
748.606	7.38
749.355	8.38
750.105	10.38
750.854	9.38
751.603	8.38
752.353	7.38
753.102	9.38
753.851	5.38
754.6	9.38
755.349	9.38
756.098	11.38
756.847	11.38
757.595	8.38
758.344	10.38
759.093	8.38
759.841	10.38
760.589	9.38
761.338	11.38
762.086	9.38
762.834	9.38
763.582	9.38
764.331	9.38
765.079	12.38
765.826	11.38
766.574	12.38
767.322	9.38
768.07	10.38
768.817	10.38
769.565	14.38
770.312	11.38
771.06	8.38
771.807	14.38
772.554	10.38
773.302	14.38
774.049	11.38
774.796	11.38
775.543	14.38
776.29	10.38
777.036	14.38
777.783	14.38
778.53	13.38
779.276	10.38
780.023	11.38
780.769	12.38
781.516	12.38
782.262	14.38
783.008	12.38
783.754	13.38
784.5	12.38
785.246	13.38
785.992	12.38
786.738	11.38
787.484	13.38
788.23	10.38
788.975	11.38
789.721	11.38
790.466	13.38
791.212	11.38
791.957	9.38
792.702	11.38
793.447	11.38
794.193	13.38
794.938	12.38
795.683	11.38
796.427	10.38
797.172	12.38
797.917	10.38
798.662	10.38
799.406	9.38
800.151	9.38
800.895	11.38
801.64	8.38
802.384	8.38
803.128	11.38
803.872	10.38
804.616	11.38
805.36	9.38
806.104	7.38
806.848	10.38
807.592	10.38
808.336	9.38
809.079	7.38
809.823	11.38
810.566	9.38
811.31	7.38
812.053	7.38
812.796	7.38
813.539	9.38
814.283	9.38
815.026	7.38
815.769	9.38
816.511	8.38
817.254	9.38
817.997	6.38
818.74	7.38
819.482	7.38
820.225	8.38
820.967	5.38
821.71	7.38
822.452	7.38
823.194	7.38
823.936	4.38
824.678	5.38
825.42	7.38
826.162	6.38
826.904	6.38
827.646	7.38
828.388	5.38
829.129	5.38
829.871	5.38
830.612	6.38
831.354	5.38
832.095	5.38
832.836	4.38
833.577	5.38
834.319	5.38
835.06	5.38
835.801	4.38
836.542	7.38
837.282	5.38
838.023	5.38
838.764	3.38
839.504	5.38
840.245	3.38
840.985	5.38
841.726	4.38
842.466	7.38
843.206	5.38
843.946	4.38
844.687	3.38
845.427	3.38
846.166	7.38
846.906	2.38
847.646	5.38
848.386	4.38
849.125	3.38
849.865	4.38
850.605	3.38
851.344	4.38
852.083	3.38
852.823	4.38
853.562	1.38
854.301	2.38
855.04	2.38
855.779	2.38
856.518	5.38
857.257	2.38
857.995	5.38
858.734	3.38
859.473	3.38
860.211	3.38
860.95	4.38
861.688	4.38
862.426	4.38
863.165	6.38
863.903	3.38
864.641	4.38
865.379	4.38
866.117	1.38
866.855	4.38
867.593	1.38
868.33	3.38
869.068	2.38
869.806	3.38
870.543	5.38
871.28	3.38
872.018	3.38
872.755	-0.62
873.492	3.38
874.229	2.38
874.967	5.38
875.703	2.38
876.44	2.38
877.177	4.38
877.914	1.38
878.651	5.38
879.387	3.38
880.124	2.38
880.86	0.38
881.597	2.38
882.333	-1.62
883.069	0.38
883.806	3.38
884.542	1.38
885.278	0.38
886.014	1.38
886.749	3.38
887.485	2.38
888.221	-0.62
888.957	2.38
889.692	1.38
890.428	0.38
891.163	0.38
891.899	1.38
892.634	1.38
893.369	1.38
894.104	1.38
894.839	1.38
895.574	1.38
896.309	2.38
897.044	0.38
897.779	2.38
898.514	3.38
899.248	0.38
899.983	1.38
900.717	1.38
901.452	1.38
902.186	0.38
902.92	2.38
903.654	1.38
904.389	3.38
905.123	2.38
905.857	1.38
906.59	2.38
907.324	0.38
908.058	1.38
908.792	2.38
909.525	3.38
910.259	1.38
910.992	2.38
911.726	2.38
912.459	3.38
913.192	2.38
913.925	3.38
914.658	1.38
915.391	2.38
916.124	0.38
916.857	0.38
917.59	3.38
918.323	-0.62
919.055	1.38
919.788	0.38
920.521	-2.62
921.253	3.38
921.985	0.38
922.718	4.38
923.45	0.38
924.182	0.38
924.914	2.38
925.646	0.38
926.378	-0.62
927.11	-0.62
927.841	2.38
928.573	-0.62
929.305	1.38
930.036	1.38
930.768	0.38
931.499	1.38
932.23	1.38
932.962	1.38
933.693	1.38
934.424	0.38
935.155	-0.62
935.886	0.38
936.617	0.38
937.348	-1.62
938.078	-0.62
938.809	-0.62
939.54	0.38
940.27	1.38
941.001	0.38
941.731	0.38
942.461	1.38
943.191	1.38
943.922	4.38
944.652	0.38
945.382	1.38
946.112	1.38
946.841	0.38
947.571	-0.62
948.301	1.38
949.031	0.38
949.76	2.38
950.49	-0.62
951.219	1.38
951.948	2.38
952.678	-1.62
953.407	-1.62
954.136	-1.62
954.865	1.38
955.594	2.38
956.323	2.38
957.052	1.38
957.78	1.38
958.509	4.38
959.238	1.38
959.966	0.38
960.695	1.38
961.423	0.38
962.151	2.38
962.88	-0.62
963.608	0.38
964.336	0.38
965.064	1.38
965.792	0.38
966.52	1.38
967.247	1.38
967.975	0.38
968.703	2.38
969.43	-0.62
970.158	0.38
970.885	0.38
971.613	2.38
972.34	-1.62
973.067	-3.62
973.794	0.38
974.521	1.38
975.248	2.38
975.975	1.38
976.702	2.38
977.429	0.38
978.156	-1.62
978.882	2.38
979.609	-0.62
980.335	2.38
981.062	-2.62
981.788	1.38
982.514	1.38
983.24	0.38
983.967	1.38
984.693	2.38
985.419	1.38
986.144	0.38
986.87	-0.62
987.596	1.38
988.322	1.38
989.047	1.38
989.773	1.38
990.498	0.38
991.224	-1.62
991.949	0.38
992.674	-0.62
993.399	3.38
994.124	2.38
994.849	-0.62
995.574	1.38
996.299	0.38
997.024	1.38
997.749	0.38
998.473	-1.62
999.198	2.38
999.922	2.38
1000.647	0.38
1001.371	1.38
1002.095	-0.62
1002.82	0.38
1003.544	-1.62
1004.268	3.38
1004.992	4.38
1005.716	3.38
1006.439	1.38
1007.163	3.38
1007.887	3.38
1008.611	1.38
1009.334	1.38
1010.058	3.38
1010.781	1.38
1011.504	2.38
1012.228	1.38
1012.951	1.38
1013.674	-0.62
1014.397	0.38
1015.12	-0.62
