节点500_565_QEPB04081__385__09-56-49-346.txt的数据

Date: Thu Nov 13 09:56:49 CST 2025
User: PC
Spectrometer: QEPB0408
触发模式: 0
积分时间 (秒): 1.000000E-2
Scans to average: 1
启用暗噪声校正: true
启用非线性校正: false
滑动平均宽度: 0
X轴模式: Wavelengths
Number of Pixels in Spectrum: 1044
>>>>>Begin Spectral Data<<<<<
220.843	3.25
221.644	4.25
222.444	5.25
223.244	3.25
224.045	6.25
224.845	2.25
225.645	4.25
226.445	7.25
227.245	6.25
228.045	6.25
228.845	5.25
229.645	5.25
230.444	7.25
231.244	5.25
232.043	5.25
232.843	8.25
233.642	8.25
234.442	7.25
235.241	5.25
236.04	7.25
236.839	7.25
237.638	8.25
238.437	9.25
239.236	9.25
240.035	10.25
240.833	10.25
241.632	11.25
242.43	10.25
243.229	8.25
244.027	10.25
244.826	11.25
245.624	10.25
246.422	9.25
247.22	11.25
248.018	12.25
248.816	9.25
249.614	10.25
250.412	12.25
251.21	11.25
252.007	12.25
252.805	15.25
253.602	13.25
254.4	13.25
255.197	14.25
255.994	14.25
256.791	16.25
257.589	17.25
258.386	18.25
259.183	18.25
259.979	17.25
260.776	18.25
261.573	16.25
262.37	18.25
263.166	18.25
263.963	18.25
264.759	17.25
265.556	20.25
266.352	19.25
267.148	20.25
267.944	19.25
268.74	20.25
269.536	25.25
270.332	26.25
271.128	24.25
271.924	26.25
272.719	25.25
273.515	25.25
274.311	25.25
275.106	27.25
275.901	25.25
276.697	28.25
277.492	29.25
278.287	28.25
279.082	24.25
279.877	25.25
280.672	28.25
281.467	28.25
282.262	29.25
283.056	31.25
283.851	29.25
284.646	27.25
285.44	29.25
286.234	27.25
287.029	28.25
287.823	29.25
288.617	25.25
289.411	25.25
290.205	27.25
290.999	25.25
291.793	27.25
292.587	25.25
293.381	27.25
294.174	24.25
294.968	22.25
295.761	24.25
296.555	23.25
297.348	23.25
298.141	23.25
298.935	23.25
299.728	20.25
300.521	20.25
301.314	21.25
302.107	20.25
302.899	19.25
303.692	19.25
304.485	18.25
305.277	20.25
306.07	18.25
306.862	21.25
307.655	19.25
308.447	19.25
309.239	18.25
310.031	19.25
310.823	16.25
311.615	14.25
312.407	16.25
313.199	16.25
313.991	14.25
314.783	15.25
315.574	13.25
316.366	12.25
317.157	14.25
317.949	13.25
318.74	15.25
319.531	12.25
320.322	13.25
321.113	12.25
321.904	11.25
322.695	13.25
323.486	10.25
324.277	11.25
325.068	9.25
325.858	11.25
326.649	11.25
327.439	10.25
328.23	11.25
329.02	9.25
329.81	9.25
330.6	11.25
331.391	8.25
332.181	9.25
332.971	10.25
333.76	11.25
334.55	9.25
335.34	12.25
336.13	11.25
336.919	9.25
337.709	9.25
338.498	10.25
339.287	9.25
340.077	12.25
340.866	11.25
341.655	8.25
342.444	13.25
343.233	8.25
344.022	8.25
344.811	10.25
345.6	9.25
346.388	10.25
347.177	8.25
347.965	9.25
348.754	11.25
349.542	8.25
350.33	11.25
351.119	9.25
351.907	9.25
352.695	9.25
353.483	9.25
354.271	12.25
355.059	11.25
355.846	9.25
356.634	9.25
357.422	12.25
358.209	9.25
358.997	9.25
359.784	9.25
360.571	7.25
361.359	8.25
362.146	7.25
362.933	9.25
363.72	10.25
364.507	12.25
365.294	9.25
366.081	5.25
366.867	11.25
367.654	6.25
368.44	8.25
369.227	7.25
370.013	10.25
370.8	7.25
371.586	9.25
372.372	7.25
373.158	8.25
373.944	7.25
374.73	10.25
375.516	10.25
376.302	10.25
377.088	8.25
377.873	7.25
378.659	10.25
379.445	10.25
380.23	9.25
381.015	9.25
381.801	8.25
382.586	8.25
383.371	8.25
384.156	7.25
384.941	9.25
385.726	9.25
386.511	9.25
387.296	8.25
388.08	8.25
388.865	9.25
389.649	7.25
390.434	9.25
391.218	7.25
392.003	13.25
392.787	7.25
393.571	10.25
394.355	8.25
395.139	11.25
395.923	11.25
396.707	11.25
397.491	10.25
398.274	12.25
399.058	10.25
399.842	10.25
400.625	13.25
401.408	13.25
402.192	12.25
402.975	11.25
403.758	14.25
404.541	14.25
405.324	11.25
406.107	12.25
406.89	14.25
407.673	14.25
408.456	13.25
409.238	15.25
410.021	13.25
410.803	15.25
411.586	13.25
412.368	15.25
413.151	14.25
413.933	16.25
414.715	15.25
415.497	14.25
416.279	16.25
417.061	13.25
417.843	15.25
418.624	16.25
419.406	19.25
420.188	19.25
420.969	16.25
421.751	20.25
422.532	20.25
423.313	21.25
424.095	17.25
424.876	20.25
425.657	19.25
426.438	22.25
427.219	22.25
428	21.25
428.78	22.25
429.561	24.25
430.342	24.25
431.122	24.25
431.903	29.25
432.683	24.25
433.464	25.25
434.244	29.25
435.024	31.25
435.804	34.25
436.584	36.25
437.364	37.25
438.144	39.25
438.924	38.25
439.704	41.25
440.483	43.25
441.263	49.25
442.042	47.25
442.822	53.25
443.601	59.25
444.38	61.25
445.16	68.25
445.939	69.25
446.718	74.25
447.497	83.25
448.276	94.25
449.054	101.25
449.833	110.25
450.612	120.25
451.391	131.25
452.169	147.25
452.948	160.25
453.726	175.25
454.504	200.25
455.282	221.25
456.061	247.25
456.839	268.25
457.617	305.25
458.395	339.25
459.172	371.25
459.95	418.25
460.728	464.25
461.506	512.25
462.283	576.25
463.061	636.25
463.838	721.25
464.615	799.25
465.393	883.25
466.17	983.25
466.947	1113.25
467.724	1214.25
468.501	1348.25
469.278	1489.25
470.055	1661.25
470.831	1852.25
471.608	2017.25
472.385	2235.25
473.161	2482.25
473.938	2724.25
474.714	2960.25
475.49	3269.25
476.266	3569.25
477.043	3915.25
477.819	4330.25
478.595	4698.25
479.371	5125.25
480.146	5605.25
480.922	6095.25
481.698	6669.25
482.473	7259.25
483.249	7878.25
484.024	8587.25
484.8	9291.25
485.575	10108.25
486.35	10954.25
487.126	11877.25
487.901	12881.25
488.676	13910.25
489.451	15107.25
490.225	16263.25
491	17472.25
491.775	18877.25
492.55	20183.25
493.324	21565.25
494.099	22935.25
494.873	24533.25
495.647	26010.25
496.422	27612.25
497.196	29116.25
497.97	30541.25
498.744	31903.25
499.518	33273.25
500.292	34472.25
501.066	35608.25
501.839	36785.25
502.613	37592.25
503.387	38231.25
504.16	38868.25
504.934	39230.25
505.707	39356.25
506.48	39235.25
507.253	39077.25
508.027	38521.25
508.8	37945.25
509.573	37178.25
510.346	36381.25
511.118	35434.25
511.891	34481.25
512.664	33331.25
513.437	32188.25
514.209	30986.25
514.982	29842.25
515.754	28676.25
516.526	27557.25
517.298	26342.25
518.071	25305.25
518.843	24278.25
519.615	23367.25
520.387	22398.25
521.159	21556.25
521.93	20668.25
522.702	19757.25
523.474	19032.25
524.245	18251.25
525.017	17525.25
525.788	16737.25
526.56	16024.25
527.331	15311.25
528.102	14601.25
528.873	13900.25
529.644	13230.25
530.415	12577.25
531.186	11947.25
531.957	11368.25
532.728	10813.25
533.498	10263.25
534.269	9665.25
535.039	9155.25
535.81	8681.25
536.58	8227.25
537.351	7781.25
538.121	7349.25
538.891	6961.25
539.661	6572.25
540.431	6239.25
541.201	5908.25
541.971	5626.25
542.741	5281.25
543.51	5003.25
544.28	4771.25
545.05	4548.25
545.819	4321.25
546.588	4105.25
547.358	3908.25
548.127	3697.25
548.896	3542.25
549.665	3358.25
550.434	3193.25
551.203	3019.25
551.972	2860.25
552.741	2725.25
553.51	2567.25
554.278	2414.25
555.047	2281.25
555.815	2160.25
556.584	2059.25
557.352	1949.25
558.121	1828.25
558.889	1728.25
559.657	1623.25
560.425	1549.25
561.193	1460.25
561.961	1385.25
562.729	1309.25
563.496	1220.25
564.264	1174.25
565.032	1100.25
565.799	1055.25
566.567	985.25
567.334	942.25
568.101	889.25
568.869	831.25
569.636	796.25
570.403	744.25
571.17	697.25
571.937	671.25
572.704	628.25
573.471	589.25
574.237	559.25
575.004	522.25
575.771	493.25
576.537	468.25
577.303	435.25
578.07	409.25
578.836	393.25
579.602	370.25
580.368	348.25
581.134	337.25
581.9	314.25
582.666	299.25
583.432	279.25
584.198	274.25
584.964	262.25
585.729	246.25
586.495	228.25
587.26	223.25
588.025	211.25
588.791	200.25
589.556	187.25
590.321	175.25
591.086	167.25
591.851	160.25
592.616	151.25
593.381	138.25
594.146	136.25
594.911	131.25
595.675	125.25
596.44	121.25
597.204	116.25
597.969	111.25
598.733	107.25
599.497	100.25
600.261	94.25
601.025	90.25
601.79	87.25
602.553	86.25
603.317	82.25
604.081	76.25
604.845	76.25
605.609	73.25
606.372	69.25
607.136	67.25
607.899	62.25
608.662	61.25
609.426	60.25
610.189	59.25
610.952	56.25
611.715	53.25
612.478	54.25
613.241	46.25
614.004	47.25
614.767	45.25
615.529	44.25
616.292	42.25
617.055	41.25
617.817	39.25
618.579	38.25
619.342	40.25
620.104	37.25
620.866	35.25
621.628	31.25
622.39	32.25
623.152	29.25
623.914	29.25
624.676	29.25
625.438	29.25
626.199	29.25
626.961	23.25
627.722	25.25
628.484	25.25
629.245	23.25
630.006	25.25
630.768	21.25
631.529	23.25
632.29	22.25
633.051	23.25
633.812	22.25
634.573	20.25
635.333	22.25
636.094	21.25
636.855	19.25
637.615	16.25
638.376	19.25
639.136	18.25
639.896	15.25
640.657	16.25
641.417	14.25
642.177	16.25
642.937	15.25
643.697	14.25
644.457	16.25
645.216	14.25
645.976	13.25
646.736	14.25
647.495	11.25
648.255	10.25
649.014	13.25
649.774	9.25
650.533	13.25
651.292	14.25
652.051	13.25
652.81	11.25
653.569	11.25
654.328	12.25
655.087	12.25
655.846	11.25
656.604	8.25
657.363	12.25
658.121	14.25
658.88	10.25
659.638	11.25
660.397	9.25
661.155	10.25
661.913	9.25
662.671	10.25
663.429	11.25
664.187	9.25
664.945	9.25
665.703	8.25
666.46	11.25
667.218	11.25
667.976	9.25
668.733	7.25
669.49	9.25
670.248	7.25
671.005	6.25
671.762	9.25
672.519	7.25
673.276	9.25
674.033	7.25
674.79	8.25
675.547	9.25
676.304	7.25
677.06	9.25
677.817	7.25
678.574	6.25
679.33	8.25
680.086	4.25
680.843	8.25
681.599	9.25
682.355	7.25
683.111	7.25
683.867	10.25
684.623	6.25
685.379	7.25
686.135	7.25
686.89	5.25
687.646	6.25
688.402	7.25
689.157	7.25
689.912	8.25
690.668	8.25
691.423	6.25
692.178	5.25
692.933	5.25
693.688	6.25
694.443	6.25
695.198	6.25
695.953	6.25
696.708	7.25
697.462	8.25
698.217	7.25
698.972	8.25
699.726	7.25
700.48	5.25
701.235	6.25
701.989	7.25
702.743	6.25
703.497	5.25
704.251	4.25
705.005	8.25
705.759	6.25
706.513	6.25
707.266	9.25
708.02	6.25
708.774	6.25
709.527	6.25
710.28	5.25
711.034	7.25
711.787	9.25
712.54	9.25
713.293	6.25
714.046	7.25
714.799	8.25
715.552	7.25
716.305	7.25
717.058	7.25
717.81	6.25
718.563	8.25
719.315	6.25
720.068	5.25
720.82	7.25
721.573	8.25
722.325	7.25
723.077	6.25
723.829	7.25
724.581	7.25
725.333	6.25
726.085	6.25
726.836	5.25
727.588	7.25
728.34	7.25
729.091	7.25
729.843	5.25
730.594	5.25
731.346	6.25
732.097	9.25
732.848	8.25
733.599	7.25
734.35	5.25
735.101	7.25
735.852	7.25
736.603	7.25
737.354	6.25
738.104	9.25
738.855	8.25
739.605	7.25
740.356	7.25
741.106	6.25
741.856	9.25
742.607	6.25
743.357	8.25
744.107	9.25
744.857	9.25
745.607	8.25
746.357	9.25
747.106	12.25
747.856	7.25
748.606	6.25
749.355	7.25
750.105	8.25
750.854	8.25
751.603	7.25
752.353	7.25
753.102	8.25
753.851	9.25
754.6	10.25
755.349	11.25
756.098	9.25
756.847	8.25
757.595	12.25
758.344	8.25
759.093	9.25
759.841	11.25
760.589	9.25
761.338	11.25
762.086	9.25
762.834	14.25
763.582	10.25
764.331	11.25
765.079	11.25
765.826	12.25
766.574	12.25
767.322	12.25
768.07	12.25
768.817	12.25
769.565	9.25
770.312	13.25
771.06	11.25
771.807	11.25
772.554	10.25
773.302	10.25
774.049	13.25
774.796	12.25
775.543	13.25
776.29	9.25
777.036	12.25
777.783	11.25
778.53	12.25
779.276	12.25
780.023	14.25
780.769	14.25
781.516	14.25
782.262	17.25
783.008	14.25
783.754	11.25
784.5	15.25
785.246	12.25
785.992	13.25
786.738	14.25
787.484	14.25
788.23	13.25
788.975	12.25
789.721	16.25
790.466	14.25
791.212	12.25
791.957	15.25
792.702	14.25
793.447	13.25
794.193	14.25
794.938	12.25
795.683	13.25
796.427	9.25
797.172	12.25
797.917	12.25
798.662	11.25
799.406	10.25
800.151	10.25
800.895	11.25
801.64	8.25
802.384	10.25
803.128	9.25
803.872	11.25
804.616	10.25
805.36	11.25
806.104	9.25
806.848	9.25
807.592	10.25
808.336	9.25
809.079	9.25
809.823	8.25
810.566	10.25
811.31	9.25
812.053	7.25
812.796	9.25
813.539	7.25
814.283	6.25
815.026	9.25
815.769	6.25
816.511	7.25
817.254	6.25
817.997	7.25
818.74	7.25
819.482	8.25
820.225	7.25
820.967	5.25
821.71	8.25
822.452	7.25
823.194	5.25
823.936	9.25
824.678	8.25
825.42	7.25
826.162	5.25
826.904	5.25
827.646	7.25
828.388	7.25
829.129	6.25
829.871	5.25
830.612	7.25
831.354	5.25
832.095	6.25
832.836	6.25
833.577	8.25
834.319	5.25
835.06	5.25
835.801	7.25
836.542	5.25
837.282	5.25
838.023	5.25
838.764	6.25
839.504	3.25
840.245	7.25
840.985	4.25
841.726	5.25
842.466	4.25
843.206	6.25
843.946	6.25
844.687	3.25
845.427	5.25
846.166	6.25
846.906	3.25
847.646	6.25
848.386	5.25
849.125	6.25
849.865	5.25
850.605	6.25
851.344	6.25
852.083	5.25
852.823	4.25
853.562	5.25
854.301	4.25
855.04	4.25
855.779	3.25
856.518	4.25
857.257	5.25
857.995	3.25
858.734	1.25
859.473	3.25
860.211	4.25
860.95	4.25
861.688	0.25
862.426	4.25
863.165	3.25
863.903	6.25
864.641	4.25
865.379	3.25
866.117	2.25
866.855	3.25
867.593	4.25
868.33	2.25
869.068	4.25
869.806	3.25
870.543	2.25
871.28	5.25
872.018	2.25
872.755	2.25
873.492	3.25
874.229	1.25
874.967	1.25
875.703	3.25
876.44	2.25
877.177	2.25
877.914	2.25
878.651	2.25
879.387	2.25
880.124	1.25
880.86	2.25
881.597	1.25
882.333	2.25
883.069	4.25
883.806	2.25
884.542	4.25
885.278	1.25
886.014	3.25
886.749	2.25
887.485	1.25
888.221	1.25
888.957	2.25
889.692	2.25
890.428	2.25
891.163	3.25
891.899	1.25
892.634	0.25
893.369	0.25
894.104	-0.75
894.839	2.25
895.574	1.25
896.309	2.25
897.044	4.25
897.779	3.25
898.514	1.25
899.248	1.25
899.983	1.25
900.717	0.25
901.452	1.25
902.186	2.25
902.92	2.25
903.654	1.25
904.389	-0.75
905.123	2.25
905.857	-0.75
906.59	2.25
907.324	1.25
908.058	3.25
908.792	0.25
909.525	1.25
910.259	0.25
910.992	2.25
911.726	0.25
912.459	1.25
913.192	-0.75
913.925	0.25
914.658	1.25
915.391	1.25
916.124	1.25
916.857	3.25
917.59	1.25
918.323	-0.75
919.055	1.25
919.788	1.25
920.521	2.25
921.253	1.25
921.985	1.25
922.718	3.25
923.45	-1.75
924.182	2.25
924.914	0.25
925.646	-0.75
926.378	1.25
927.11	-0.75
927.841	-0.75
928.573	0.25
929.305	0.25
930.036	0.25
930.768	1.25
931.499	-0.75
932.23	2.25
932.962	0.25
933.693	0.25
934.424	1.25
935.155	2.25
935.886	1.25
936.617	0.25
937.348	1.25
938.078	1.25
938.809	-0.75
939.54	-1.75
940.27	1.25
941.001	-0.75
941.731	-0.75
942.461	1.25
943.191	-0.75
943.922	1.25
944.652	1.25
945.382	1.25
946.112	0.25
946.841	1.25
947.571	0.25
948.301	0.25
949.031	1.25
949.76	0.25
950.49	0.25
951.219	1.25
951.948	-1.75
952.678	1.25
953.407	1.25
954.136	1.25
954.865	1.25
955.594	3.25
956.323	0.25
957.052	-0.75
957.78	1.25
958.509	-0.75
959.238	1.25
959.966	2.25
960.695	1.25
961.423	1.25
962.151	-1.75
962.88	1.25
963.608	2.25
964.336	0.25
965.064	2.25
965.792	1.25
966.52	-0.75
967.247	-0.75
967.975	4.25
968.703	0.25
969.43	0.25
970.158	1.25
970.885	0.25
971.613	0.25
972.34	1.25
973.067	2.25
973.794	0.25
974.521	2.25
975.248	0.25
975.975	-0.75
976.702	1.25
977.429	2.25
978.156	1.25
978.882	1.25
979.609	0.25
980.335	2.25
981.062	1.25
981.788	0.25
982.514	1.25
983.24	1.25
983.967	2.25
984.693	1.25
985.419	-0.75
986.144	0.25
986.87	0.25
987.596	1.25
988.322	1.25
989.047	0.25
989.773	1.25
990.498	0.25
991.224	0.25
991.949	-0.75
992.674	2.25
993.399	0.25
994.124	0.25
994.849	0.25
995.574	1.25
996.299	1.25
997.024	0.25
997.749	1.25
998.473	1.25
999.198	0.25
999.922	1.25
1000.647	2.25
1001.371	3.25
1002.095	-1.75
1002.82	-1.75
1003.544	-0.75
1004.268	5.25
1004.992	0.25
1005.716	5.25
1006.439	3.25
1007.163	3.25
1007.887	1.25
1008.611	2.25
1009.334	-1.75
1010.058	0.25
1010.781	1.25
1011.504	0.25
1012.228	1.25
1012.951	-0.75
1013.674	0.25
1014.397	0.25
1015.12	1.25
