节点500_565_QEPB04081__494__09-58-38-139.txt的数据

Date: Thu Nov 13 09:58:38 CST 2025
User: PC
Spectrometer: QEPB0408
触发模式: 0
积分时间 (秒): 1.000000E-2
Scans to average: 1
启用暗噪声校正: true
启用非线性校正: false
滑动平均宽度: 0
X轴模式: Wavelengths
Number of Pixels in Spectrum: 1044
>>>>>Begin Spectral Data<<<<<
220.843	4.88
221.644	1.88
222.444	4.88
223.244	3.88
224.045	2.88
224.845	3.88
225.645	3.88
226.445	5.88
227.245	4.88
228.045	3.88
228.845	5.88
229.645	6.88
230.444	4.88
231.244	5.88
232.043	4.88
232.843	6.88
233.642	6.88
234.442	6.88
235.241	5.88
236.04	5.88
236.839	5.88
237.638	8.88
238.437	6.88
239.236	6.88
240.035	5.88
240.833	8.88
241.632	10.88
242.43	9.88
243.229	10.88
244.027	9.88
244.826	7.88
245.624	8.88
246.422	10.88
247.22	10.88
248.018	10.88
248.816	9.88
249.614	9.88
250.412	12.88
251.21	12.88
252.007	12.88
252.805	10.88
253.602	13.88
254.4	12.88
255.197	12.88
255.994	16.88
256.791	13.88
257.589	13.88
258.386	15.88
259.183	16.88
259.979	18.88
260.776	16.88
261.573	19.88
262.37	15.88
263.166	16.88
263.963	17.88
264.759	18.88
265.556	20.88
266.352	17.88
267.148	20.88
267.944	21.88
268.74	21.88
269.536	22.88
270.332	23.88
271.128	22.88
271.924	25.88
272.719	21.88
273.515	24.88
274.311	23.88
275.106	24.88
275.901	25.88
276.697	24.88
277.492	25.88
278.287	24.88
279.082	26.88
279.877	27.88
280.672	28.88
281.467	23.88
282.262	27.88
283.056	26.88
283.851	29.88
284.646	29.88
285.44	27.88
286.234	27.88
287.029	24.88
287.823	30.88
288.617	25.88
289.411	26.88
290.205	23.88
290.999	27.88
291.793	28.88
292.587	26.88
293.381	24.88
294.174	22.88
294.968	26.88
295.761	20.88
296.555	24.88
297.348	21.88
298.141	20.88
298.935	23.88
299.728	20.88
300.521	22.88
301.314	20.88
302.107	20.88
302.899	17.88
303.692	20.88
304.485	18.88
305.277	17.88
306.07	18.88
306.862	16.88
307.655	17.88
308.447	17.88
309.239	16.88
310.031	19.88
310.823	18.88
311.615	15.88
312.407	14.88
313.199	14.88
313.991	15.88
314.783	13.88
315.574	13.88
316.366	12.88
317.157	12.88
317.949	9.88
318.74	12.88
319.531	11.88
320.322	11.88
321.113	11.88
321.904	12.88
322.695	10.88
323.486	12.88
324.277	13.88
325.068	10.88
325.858	9.88
326.649	14.88
327.439	7.88
328.23	8.88
329.02	9.88
329.81	12.88
330.6	9.88
331.391	10.88
332.181	8.88
332.971	12.88
333.76	9.88
334.55	10.88
335.34	10.88
336.13	6.88
336.919	9.88
337.709	12.88
338.498	9.88
339.287	8.88
340.077	8.88
340.866	11.88
341.655	11.88
342.444	6.88
343.233	8.88
344.022	9.88
344.811	9.88
345.6	8.88
346.388	7.88
347.177	10.88
347.965	10.88
348.754	9.88
349.542	7.88
350.33	12.88
351.119	7.88
351.907	9.88
352.695	10.88
353.483	8.88
354.271	5.88
355.059	10.88
355.846	7.88
356.634	7.88
357.422	7.88
358.209	9.88
358.997	9.88
359.784	9.88
360.571	8.88
361.359	9.88
362.146	7.88
362.933	8.88
363.72	6.88
364.507	9.88
365.294	9.88
366.081	6.88
366.867	6.88
367.654	6.88
368.44	8.88
369.227	9.88
370.013	7.88
370.8	8.88
371.586	6.88
372.372	5.88
373.158	5.88
373.944	10.88
374.73	3.88
375.516	7.88
376.302	8.88
377.088	7.88
377.873	9.88
378.659	5.88
379.445	9.88
380.23	9.88
381.015	7.88
381.801	7.88
382.586	9.88
383.371	7.88
384.156	7.88
384.941	8.88
385.726	8.88
386.511	7.88
387.296	8.88
388.08	6.88
388.865	6.88
389.649	8.88
390.434	6.88
391.218	6.88
392.003	7.88
392.787	10.88
393.571	9.88
394.355	12.88
395.139	8.88
395.923	9.88
396.707	10.88
397.491	7.88
398.274	9.88
399.058	8.88
399.842	10.88
400.625	11.88
401.408	10.88
402.192	10.88
402.975	9.88
403.758	13.88
404.541	13.88
405.324	11.88
406.107	12.88
406.89	11.88
407.673	11.88
408.456	16.88
409.238	12.88
410.021	12.88
410.803	13.88
411.586	12.88
412.368	13.88
413.151	10.88
413.933	15.88
414.715	12.88
415.497	13.88
416.279	13.88
417.061	12.88
417.843	19.88
418.624	14.88
419.406	15.88
420.188	19.88
420.969	16.88
421.751	16.88
422.532	16.88
423.313	18.88
424.095	17.88
424.876	18.88
425.657	19.88
426.438	19.88
427.219	19.88
428	18.88
428.78	20.88
429.561	21.88
430.342	23.88
431.122	22.88
431.903	25.88
432.683	28.88
433.464	25.88
434.244	30.88
435.024	28.88
435.804	32.88
436.584	36.88
437.364	39.88
438.144	38.88
438.924	39.88
439.704	45.88
440.483	45.88
441.263	47.88
442.042	49.88
442.822	55.88
443.601	62.88
444.38	67.88
445.16	70.88
445.939	72.88
446.718	82.88
447.497	86.88
448.276	99.88
449.054	102.88
449.833	115.88
450.612	129.88
451.391	137.88
452.169	157.88
452.948	167.88
453.726	190.88
454.504	207.88
455.282	230.88
456.061	261.88
456.839	292.88
457.617	317.88
458.395	350.88
459.172	395.88
459.95	442.88
460.728	492.88
461.506	549.88
462.283	607.88
463.061	672.88
463.838	763.88
464.615	825.88
465.393	925.88
466.17	1032.88
466.947	1143.88
467.724	1265.88
468.501	1391.88
469.278	1549.88
470.055	1695.88
470.831	1897.88
471.608	2091.88
472.385	2290.88
473.161	2540.88
473.938	2766.88
474.714	3054.88
475.49	3323.88
476.266	3615.88
477.043	3975.88
477.819	4376.88
478.595	4767.88
479.371	5168.88
480.146	5662.88
480.922	6151.88
481.698	6663.88
482.473	7221.88
483.249	7870.88
484.024	8500.88
484.8	9247.88
485.575	10046.88
486.35	10798.88
487.126	11734.88
487.901	12651.88
488.676	13697.88
489.451	14780.88
490.225	15991.88
491	17121.88
491.775	18331.88
492.55	19683.88
493.324	20965.88
494.099	22395.88
494.873	23812.88
495.647	25351.88
496.422	26837.88
497.196	28229.88
497.97	29697.88
498.744	31153.88
499.518	32458.88
500.292	33716.88
501.066	34915.88
501.839	35952.88
502.613	36850.88
503.387	37585.88
504.16	38374.88
504.934	38820.88
505.707	38987.88
506.48	39055.88
507.253	39058.88
508.027	38604.88
508.8	38108.88
509.573	37472.88
510.346	36734.88
511.118	35853.88
511.891	35051.88
512.664	34014.88
513.437	32866.88
514.209	31728.88
514.982	30575.88
515.754	29506.88
516.526	28361.88
517.298	27169.88
518.071	26096.88
518.843	25069.88
519.615	24003.88
520.387	23069.88
521.159	22165.88
521.93	21355.88
522.702	20367.88
523.474	19607.88
524.245	18840.88
525.017	18077.88
525.788	17312.88
526.56	16591.88
527.331	15812.88
528.102	15123.88
528.873	14402.88
529.644	13762.88
530.415	13081.88
531.186	12412.88
531.957	11867.88
532.728	11280.88
533.498	10741.88
534.269	10104.88
535.039	9550.88
535.81	9088.88
536.58	8564.88
537.351	8134.88
538.121	7702.88
538.891	7317.88
539.661	6892.88
540.431	6582.88
541.201	6185.88
541.971	5878.88
542.741	5570.88
543.51	5271.88
544.28	4998.88
545.05	4764.88
545.819	4513.88
546.588	4314.88
547.358	4119.88
548.127	3893.88
548.896	3720.88
549.665	3550.88
550.434	3346.88
551.203	3191.88
551.972	3013.88
552.741	2849.88
553.51	2704.88
554.278	2548.88
555.047	2396.88
555.815	2276.88
556.584	2181.88
557.352	2047.88
558.121	1955.88
558.889	1818.88
559.657	1701.88
560.425	1622.88
561.193	1540.88
561.961	1463.88
562.729	1370.88
563.496	1306.88
564.264	1231.88
565.032	1172.88
565.799	1110.88
566.567	1052.88
567.334	984.88
568.101	934.88
568.869	888.88
569.636	831.88
570.403	781.88
571.17	749.88
571.937	705.88
572.704	663.88
573.471	620.88
574.237	590.88
575.004	554.88
575.771	526.88
576.537	491.88
577.303	472.88
578.07	441.88
578.836	418.88
579.602	389.88
580.368	369.88
581.134	352.88
581.9	338.88
582.666	320.88
583.432	299.88
584.198	281.88
584.964	268.88
585.729	255.88
586.495	252.88
587.26	227.88
588.025	219.88
588.791	206.88
589.556	196.88
590.321	183.88
591.086	177.88
591.851	171.88
592.616	164.88
593.381	149.88
594.146	146.88
594.911	131.88
595.675	132.88
596.44	128.88
597.204	119.88
597.969	113.88
598.733	114.88
599.497	103.88
600.261	100.88
601.025	93.88
601.79	92.88
602.553	87.88
603.317	88.88
604.081	82.88
604.845	78.88
605.609	72.88
606.372	70.88
607.136	69.88
607.899	66.88
608.662	62.88
609.426	61.88
610.189	58.88
610.952	58.88
611.715	54.88
612.478	54.88
613.241	48.88
614.004	45.88
614.767	44.88
615.529	42.88
616.292	42.88
617.055	40.88
617.817	39.88
618.579	41.88
619.342	39.88
620.104	36.88
620.866	36.88
621.628	32.88
622.39	32.88
623.152	30.88
623.914	33.88
624.676	30.88
625.438	27.88
626.199	28.88
626.961	24.88
627.722	27.88
628.484	26.88
629.245	24.88
630.006	24.88
630.768	21.88
631.529	22.88
632.29	20.88
633.051	22.88
633.812	18.88
634.573	20.88
635.333	21.88
636.094	20.88
636.855	18.88
637.615	20.88
638.376	18.88
639.136	16.88
639.896	14.88
640.657	14.88
641.417	16.88
642.177	17.88
642.937	15.88
643.697	16.88
644.457	15.88
645.216	15.88
645.976	13.88
646.736	13.88
647.495	13.88
648.255	12.88
649.014	12.88
649.774	11.88
650.533	11.88
651.292	11.88
652.051	10.88
652.81	12.88
653.569	12.88
654.328	10.88
655.087	12.88
655.846	9.88
656.604	11.88
657.363	11.88
658.121	10.88
658.88	7.88
659.638	10.88
660.397	10.88
661.155	8.88
661.913	6.88
662.671	8.88
663.429	9.88
664.187	7.88
664.945	9.88
665.703	6.88
666.46	8.88
667.218	7.88
667.976	10.88
668.733	6.88
669.49	9.88
670.248	7.88
671.005	4.88
671.762	6.88
672.519	7.88
673.276	8.88
674.033	8.88
674.79	6.88
675.547	5.88
676.304	5.88
677.06	5.88
677.817	6.88
678.574	7.88
679.33	4.88
680.086	9.88
680.843	5.88
681.599	4.88
682.355	5.88
683.111	5.88
683.867	7.88
684.623	7.88
685.379	6.88
686.135	4.88
686.89	5.88
687.646	7.88
688.402	5.88
689.157	8.88
689.912	6.88
690.668	5.88
691.423	6.88
692.178	3.88
692.933	5.88
693.688	6.88
694.443	5.88
695.198	6.88
695.953	5.88
696.708	4.88
697.462	6.88
698.217	3.88
698.972	8.88
699.726	6.88
700.48	6.88
701.235	5.88
701.989	7.88
702.743	5.88
703.497	5.88
704.251	6.88
705.005	8.88
705.759	4.88
706.513	5.88
707.266	5.88
708.02	3.88
708.774	6.88
709.527	4.88
710.28	7.88
711.034	4.88
711.787	3.88
712.54	5.88
713.293	3.88
714.046	8.88
714.799	8.88
715.552	4.88
716.305	4.88
717.058	4.88
717.81	4.88
718.563	5.88
719.315	5.88
720.068	6.88
720.82	6.88
721.573	6.88
722.325	5.88
723.077	7.88
723.829	6.88
724.581	7.88
725.333	4.88
726.085	7.88
726.836	5.88
727.588	5.88
728.34	7.88
729.091	7.88
729.843	7.88
730.594	7.88
731.346	5.88
732.097	7.88
732.848	6.88
733.599	5.88
734.35	9.88
735.101	7.88
735.852	6.88
736.603	8.88
737.354	5.88
738.104	6.88
738.855	5.88
739.605	7.88
740.356	7.88
741.106	7.88
741.856	8.88
742.607	5.88
743.357	6.88
744.107	9.88
744.857	8.88
745.607	9.88
746.357	8.88
747.106	6.88
747.856	8.88
748.606	8.88
749.355	6.88
750.105	10.88
750.854	7.88
751.603	7.88
752.353	10.88
753.102	9.88
753.851	11.88
754.6	8.88
755.349	9.88
756.098	8.88
756.847	7.88
757.595	10.88
758.344	9.88
759.093	9.88
759.841	6.88
760.589	9.88
761.338	8.88
762.086	9.88
762.834	8.88
763.582	8.88
764.331	11.88
765.079	7.88
765.826	12.88
766.574	9.88
767.322	13.88
768.07	10.88
768.817	9.88
769.565	11.88
770.312	9.88
771.06	9.88
771.807	10.88
772.554	12.88
773.302	11.88
774.049	10.88
774.796	12.88
775.543	12.88
776.29	12.88
777.036	12.88
777.783	10.88
778.53	12.88
779.276	10.88
780.023	11.88
780.769	11.88
781.516	12.88
782.262	12.88
783.008	12.88
783.754	12.88
784.5	10.88
785.246	11.88
785.992	10.88
786.738	13.88
787.484	9.88
788.23	12.88
788.975	11.88
789.721	13.88
790.466	12.88
791.212	10.88
791.957	9.88
792.702	11.88
793.447	12.88
794.193	12.88
794.938	10.88
795.683	11.88
796.427	10.88
797.172	10.88
797.917	8.88
798.662	11.88
799.406	8.88
800.151	10.88
800.895	10.88
801.64	6.88
802.384	11.88
803.128	9.88
803.872	10.88
804.616	9.88
805.36	8.88
806.104	6.88
806.848	10.88
807.592	7.88
808.336	7.88
809.079	7.88
809.823	7.88
810.566	8.88
811.31	6.88
812.053	5.88
812.796	7.88
813.539	6.88
814.283	5.88
815.026	8.88
815.769	7.88
816.511	9.88
817.254	7.88
817.997	6.88
818.74	6.88
819.482	6.88
820.225	3.88
820.967	7.88
821.71	5.88
822.452	8.88
823.194	7.88
823.936	4.88
824.678	4.88
825.42	6.88
826.162	4.88
826.904	5.88
827.646	5.88
828.388	6.88
829.129	6.88
829.871	5.88
830.612	4.88
831.354	6.88
832.095	3.88
832.836	4.88
833.577	4.88
834.319	4.88
835.06	5.88
835.801	2.88
836.542	6.88
837.282	6.88
838.023	4.88
838.764	3.88
839.504	3.88
840.245	4.88
840.985	5.88
841.726	4.88
842.466	6.88
843.206	6.88
843.946	6.88
844.687	1.88
845.427	4.88
846.166	2.88
846.906	2.88
847.646	4.88
848.386	4.88
849.125	4.88
849.865	4.88
850.605	4.88
851.344	4.88
852.083	3.88
852.823	1.88
853.562	2.88
854.301	3.88
855.04	2.88
855.779	3.88
856.518	-0.12
857.257	4.88
857.995	3.88
858.734	3.88
859.473	4.88
860.211	4.88
860.95	1.88
861.688	2.88
862.426	4.88
863.165	1.88
863.903	2.88
864.641	1.88
865.379	3.88
866.117	2.88
866.855	0.88
867.593	0.88
868.33	-0.12
869.068	2.88
869.806	0.88
870.543	3.88
871.28	2.88
872.018	1.88
872.755	0.88
873.492	2.88
874.229	1.88
874.967	3.88
875.703	1.88
876.44	1.88
877.177	0.88
877.914	0.88
878.651	1.88
879.387	0.88
880.124	-0.12
880.86	3.88
881.597	2.88
882.333	1.88
883.069	2.88
883.806	0.88
884.542	2.88
885.278	1.88
886.014	-0.12
886.749	0.88
887.485	0.88
888.221	1.88
888.957	-0.12
889.692	0.88
890.428	0.88
891.163	2.88
891.899	0.88
892.634	1.88
893.369	-0.12
894.104	0.88
894.839	-0.12
895.574	1.88
896.309	0.88
897.044	1.88
897.779	-1.12
898.514	1.88
899.248	1.88
899.983	-1.12
900.717	0.88
901.452	2.88
902.186	-0.12
902.92	1.88
903.654	-0.12
904.389	0.88
905.123	2.88
905.857	-0.12
906.59	0.88
907.324	2.88
908.058	-0.12
908.792	2.88
909.525	1.88
910.259	-0.12
910.992	-1.12
911.726	2.88
912.459	-0.12
913.192	0.88
913.925	2.88
914.658	0.88
915.391	0.88
916.124	4.88
916.857	0.88
917.59	0.88
918.323	-0.12
919.055	-0.12
919.788	0.88
920.521	-1.12
921.253	-0.12
921.985	1.88
922.718	-1.12
923.45	2.88
924.182	-0.12
924.914	0.88
925.646	0.88
926.378	-0.12
927.11	-1.12
927.841	-2.12
928.573	0.88
929.305	0.88
930.036	1.88
930.768	1.88
931.499	-2.12
932.23	1.88
932.962	-0.12
933.693	0.88
934.424	0.88
935.155	1.88
935.886	-1.12
936.617	0.88
937.348	1.88
938.078	-2.12
938.809	1.88
939.54	-0.12
940.27	1.88
941.001	1.88
941.731	2.88
942.461	0.88
943.191	0.88
943.922	0.88
944.652	0.88
945.382	0.88
946.112	-0.12
946.841	1.88
947.571	-0.12
948.301	0.88
949.031	-1.12
949.76	-0.12
950.49	0.88
951.219	0.88
951.948	-2.12
952.678	-1.12
953.407	-1.12
954.136	-0.12
954.865	0.88
955.594	0.88
956.323	0.88
957.052	0.88
957.78	-0.12
958.509	-1.12
959.238	0.88
959.966	-2.12
960.695	1.88
961.423	-0.12
962.151	0.88
962.88	-1.12
963.608	1.88
964.336	-0.12
965.064	-0.12
965.792	0.88
966.52	-1.12
967.247	1.88
967.975	1.88
968.703	-0.12
969.43	0.88
970.158	-1.12
970.885	-0.12
971.613	-0.12
972.34	-1.12
973.067	0.88
973.794	-0.12
974.521	-0.12
975.248	-0.12
975.975	0.88
976.702	-0.12
977.429	-1.12
978.156	1.88
978.882	0.88
979.609	0.88
980.335	0.88
981.062	-0.12
981.788	-0.12
982.514	-1.12
983.24	-2.12
983.967	-0.12
984.693	0.88
985.419	-0.12
986.144	0.88
986.87	-2.12
987.596	-0.12
988.322	0.88
989.047	0.88
989.773	0.88
990.498	-0.12
991.224	0.88
991.949	-2.12
992.674	-0.12
993.399	-1.12
994.124	2.88
994.849	-1.12
995.574	-0.12
996.299	0.88
997.024	-1.12
997.749	0.88
998.473	0.88
999.198	-0.12
999.922	-2.12
1000.647	0.88
1001.371	4.88
1002.095	-1.12
1002.82	-0.12
1003.544	-2.12
1004.268	4.88
1004.992	1.88
1005.716	2.88
1006.439	2.88
1007.163	2.88
1007.887	3.88
1008.611	0.88
1009.334	0.88
1010.058	-0.12
1010.781	0.88
1011.504	0.88
1012.228	-0.12
1012.951	0.88
1013.674	-0.12
1014.397	-1.12
1015.12	-1.12
