节点500_565_QEPB04081__44__09-51-10-092.txt的数据

Date: Thu Nov 13 09:51:10 CST 2025
User: PC
Spectrometer: QEPB0408
触发模式: 0
积分时间 (秒): 1.000000E-2
Scans to average: 1
启用暗噪声校正: true
启用非线性校正: false
滑动平均宽度: 0
X轴模式: Wavelengths
Number of Pixels in Spectrum: 1044
>>>>>Begin Spectral Data<<<<<
220.843	6.38
221.644	5.38
222.444	4.38
223.244	3.38
224.045	5.38
224.845	6.38
225.645	4.38
226.445	5.38
227.245	4.38
228.045	8.38
228.845	6.38
229.645	8.38
230.444	6.38
231.244	4.38
232.043	7.38
232.843	8.38
233.642	9.38
234.442	6.38
235.241	8.38
236.04	8.38
236.839	8.38
237.638	8.38
238.437	9.38
239.236	10.38
240.035	7.38
240.833	8.38
241.632	13.38
242.43	8.38
243.229	11.38
244.027	9.38
244.826	10.38
245.624	7.38
246.422	13.38
247.22	10.38
248.018	14.38
248.816	14.38
249.614	15.38
250.412	16.38
251.21	14.38
252.007	15.38
252.805	15.38
253.602	12.38
254.4	14.38
255.197	16.38
255.994	14.38
256.791	18.38
257.589	16.38
258.386	18.38
259.183	20.38
259.979	19.38
260.776	17.38
261.573	22.38
262.37	23.38
263.166	21.38
263.963	24.38
264.759	23.38
265.556	26.38
266.352	19.38
267.148	28.38
267.944	25.38
268.74	26.38
269.536	27.38
270.332	29.38
271.128	30.38
271.924	29.38
272.719	34.38
273.515	27.38
274.311	30.38
275.106	31.38
275.901	30.38
276.697	33.38
277.492	29.38
278.287	29.38
279.082	33.38
279.877	32.38
280.672	32.38
281.467	32.38
282.262	34.38
283.056	32.38
283.851	35.38
284.646	31.38
285.44	29.38
286.234	32.38
287.029	32.38
287.823	30.38
288.617	32.38
289.411	28.38
290.205	30.38
290.999	28.38
291.793	28.38
292.587	27.38
293.381	28.38
294.174	24.38
294.968	27.38
295.761	23.38
296.555	24.38
297.348	24.38
298.141	23.38
298.935	22.38
299.728	23.38
300.521	22.38
301.314	20.38
302.107	22.38
302.899	23.38
303.692	18.38
304.485	17.38
305.277	19.38
306.07	18.38
306.862	19.38
307.655	18.38
308.447	18.38
309.239	17.38
310.031	18.38
310.823	16.38
311.615	13.38
312.407	15.38
313.199	14.38
313.991	16.38
314.783	15.38
315.574	13.38
316.366	11.38
317.157	11.38
317.949	13.38
318.74	16.38
319.531	13.38
320.322	11.38
321.113	13.38
321.904	13.38
322.695	14.38
323.486	10.38
324.277	11.38
325.068	10.38
325.858	11.38
326.649	9.38
327.439	11.38
328.23	10.38
329.02	11.38
329.81	11.38
330.6	8.38
331.391	10.38
332.181	11.38
332.971	9.38
333.76	11.38
334.55	12.38
335.34	11.38
336.13	10.38
336.919	12.38
337.709	9.38
338.498	11.38
339.287	11.38
340.077	9.38
340.866	11.38
341.655	8.38
342.444	11.38
343.233	11.38
344.022	10.38
344.811	10.38
345.6	9.38
346.388	10.38
347.177	10.38
347.965	8.38
348.754	11.38
349.542	10.38
350.33	9.38
351.119	12.38
351.907	14.38
352.695	9.38
353.483	10.38
354.271	12.38
355.059	10.38
355.846	9.38
356.634	12.38
357.422	10.38
358.209	8.38
358.997	10.38
359.784	9.38
360.571	7.38
361.359	9.38
362.146	9.38
362.933	11.38
363.72	9.38
364.507	9.38
365.294	9.38
366.081	8.38
366.867	10.38
367.654	9.38
368.44	10.38
369.227	9.38
370.013	8.38
370.8	7.38
371.586	8.38
372.372	10.38
373.158	8.38
373.944	9.38
374.73	9.38
375.516	11.38
376.302	6.38
377.088	8.38
377.873	11.38
378.659	8.38
379.445	9.38
380.23	8.38
381.015	5.38
381.801	7.38
382.586	11.38
383.371	9.38
384.156	12.38
384.941	11.38
385.726	11.38
386.511	12.38
387.296	8.38
388.08	9.38
388.865	10.38
389.649	10.38
390.434	12.38
391.218	12.38
392.003	10.38
392.787	11.38
393.571	9.38
394.355	8.38
395.139	11.38
395.923	11.38
396.707	13.38
397.491	12.38
398.274	11.38
399.058	13.38
399.842	12.38
400.625	9.38
401.408	11.38
402.192	13.38
402.975	12.38
403.758	12.38
404.541	12.38
405.324	16.38
406.107	14.38
406.89	14.38
407.673	15.38
408.456	15.38
409.238	17.38
410.021	15.38
410.803	16.38
411.586	9.38
412.368	15.38
413.151	15.38
413.933	16.38
414.715	18.38
415.497	12.38
416.279	18.38
417.061	17.38
417.843	16.38
418.624	17.38
419.406	17.38
420.188	19.38
420.969	18.38
421.751	21.38
422.532	20.38
423.313	21.38
424.095	20.38
424.876	23.38
425.657	22.38
426.438	23.38
427.219	22.38
428	21.38
428.78	24.38
429.561	24.38
430.342	24.38
431.122	26.38
431.903	29.38
432.683	31.38
433.464	28.38
434.244	28.38
435.024	31.38
435.804	34.38
436.584	35.38
437.364	36.38
438.144	37.38
438.924	38.38
439.704	39.38
440.483	44.38
441.263	45.38
442.042	51.38
442.822	51.38
443.601	58.38
444.38	61.38
445.16	64.38
445.939	68.38
446.718	73.38
447.497	77.38
448.276	86.38
449.054	90.38
449.833	100.38
450.612	109.38
451.391	121.38
452.169	132.38
452.948	142.38
453.726	165.38
454.504	179.38
455.282	198.38
456.061	223.38
456.839	247.38
457.617	273.38
458.395	304.38
459.172	341.38
459.95	384.38
460.728	423.38
461.506	479.38
462.283	534.38
463.061	595.38
463.838	671.38
464.615	753.38
465.393	829.38
466.17	926.38
466.947	1045.38
467.724	1164.38
468.501	1306.38
469.278	1457.38
470.055	1618.38
470.831	1823.38
471.608	2008.38
472.385	2250.38
473.161	2487.38
473.938	2773.38
474.714	3041.38
475.49	3367.38
476.266	3757.38
477.043	4172.38
477.819	4616.38
478.595	5072.38
479.371	5582.38
480.146	6182.38
480.922	6787.38
481.698	7452.38
482.473	8177.38
483.249	8986.38
484.024	9852.38
484.8	10843.38
485.575	11779.38
486.35	12898.38
487.126	14087.38
487.901	15468.38
488.676	16744.38
489.451	18245.38
490.225	19753.38
491	21353.38
491.775	23059.38
492.55	24831.38
493.324	26542.38
494.099	28319.38
494.873	30157.38
495.647	32108.38
496.422	34055.38
497.196	35815.38
497.97	37405.38
498.744	38939.38
499.518	40234.38
500.292	41570.38
501.066	42678.38
501.839	43745.38
502.613	44360.38
503.387	44804.38
504.16	45056.38
504.934	44894.38
505.707	44557.38
506.48	44043.38
507.253	43302.38
508.027	42262.38
508.8	41164.38
509.573	39865.38
510.346	38555.38
511.118	37093.38
511.891	35852.38
512.664	34458.38
513.437	32921.38
514.209	31424.38
514.982	30149.38
515.754	28945.38
516.526	27612.38
517.298	26390.38
518.071	25370.38
518.843	24299.38
519.615	23223.38
520.387	22405.38
521.159	21504.38
521.93	20620.38
522.702	19822.38
523.474	18953.38
524.245	18182.38
525.017	17475.38
525.788	16582.38
526.56	15759.38
527.331	15019.38
528.102	14288.38
528.873	13517.38
529.644	12780.38
530.415	12154.38
531.186	11488.38
531.957	10917.38
532.728	10327.38
533.498	9741.38
534.269	9188.38
535.039	8660.38
535.81	8221.38
536.58	7779.38
537.351	7352.38
538.121	6931.38
538.891	6570.38
539.661	6198.38
540.431	5890.38
541.201	5574.38
541.971	5279.38
542.741	4999.38
543.51	4712.38
544.28	4479.38
545.05	4296.38
545.819	4097.38
546.588	3865.38
547.358	3667.38
548.127	3482.38
548.896	3306.38
549.665	3158.38
550.434	2977.38
551.203	2817.38
551.972	2679.38
552.741	2539.38
553.51	2388.38
554.278	2251.38
555.047	2118.38
555.815	1993.38
556.584	1882.38
557.352	1771.38
558.121	1695.38
558.889	1585.38
559.657	1498.38
560.425	1429.38
561.193	1327.38
561.961	1254.38
562.729	1187.38
563.496	1124.38
564.264	1075.38
565.032	1000.38
565.799	948.38
566.567	902.38
567.334	858.38
568.101	800.38
568.869	778.38
569.636	733.38
570.403	685.38
571.17	647.38
571.937	603.38
572.704	579.38
573.471	547.38
574.237	508.38
575.004	484.38
575.771	448.38
576.537	434.38
577.303	408.38
578.07	375.38
578.836	357.38
579.602	340.38
580.368	324.38
581.134	315.38
581.9	288.38
582.666	279.38
583.432	259.38
584.198	249.38
584.964	239.38
585.729	224.38
586.495	213.38
587.26	200.38
588.025	187.38
588.791	179.38
589.556	174.38
590.321	169.38
591.086	157.38
591.851	146.38
592.616	146.38
593.381	133.38
594.146	126.38
594.911	125.38
595.675	119.38
596.44	113.38
597.204	108.38
597.969	103.38
598.733	100.38
599.497	94.38
600.261	91.38
601.025	89.38
601.79	79.38
602.553	82.38
603.317	79.38
604.081	71.38
604.845	72.38
605.609	63.38
606.372	62.38
607.136	60.38
607.899	57.38
608.662	57.38
609.426	57.38
610.189	51.38
610.952	48.38
611.715	48.38
612.478	48.38
613.241	47.38
614.004	46.38
614.767	41.38
615.529	42.38
616.292	40.38
617.055	39.38
617.817	41.38
618.579	37.38
619.342	36.38
620.104	36.38
620.866	34.38
621.628	32.38
622.39	30.38
623.152	32.38
623.914	32.38
624.676	29.38
625.438	25.38
626.199	22.38
626.961	27.38
627.722	25.38
628.484	25.38
629.245	24.38
630.006	23.38
630.768	22.38
631.529	20.38
632.29	20.38
633.051	22.38
633.812	19.38
634.573	19.38
635.333	21.38
636.094	17.38
636.855	16.38
637.615	18.38
638.376	18.38
639.136	16.38
639.896	16.38
640.657	15.38
641.417	13.38
642.177	14.38
642.937	16.38
643.697	16.38
644.457	15.38
645.216	13.38
645.976	12.38
646.736	12.38
647.495	14.38
648.255	14.38
649.014	14.38
649.774	13.38
650.533	12.38
651.292	13.38
652.051	13.38
652.81	11.38
653.569	8.38
654.328	10.38
655.087	10.38
655.846	12.38
656.604	7.38
657.363	10.38
658.121	10.38
658.88	9.38
659.638	8.38
660.397	8.38
661.155	10.38
661.913	11.38
662.671	11.38
663.429	12.38
664.187	7.38
664.945	10.38
665.703	10.38
666.46	8.38
667.218	7.38
667.976	4.38
668.733	10.38
669.49	10.38
670.248	7.38
671.005	8.38
671.762	6.38
672.519	6.38
673.276	8.38
674.033	8.38
674.79	10.38
675.547	6.38
676.304	5.38
677.06	7.38
677.817	6.38
678.574	6.38
679.33	7.38
680.086	6.38
680.843	7.38
681.599	5.38
682.355	8.38
683.111	6.38
683.867	6.38
684.623	8.38
685.379	6.38
686.135	8.38
686.89	6.38
687.646	8.38
688.402	8.38
689.157	7.38
689.912	7.38
690.668	7.38
691.423	8.38
692.178	6.38
692.933	6.38
693.688	8.38
694.443	6.38
695.198	6.38
695.953	9.38
696.708	7.38
697.462	4.38
698.217	8.38
698.972	4.38
699.726	6.38
700.48	7.38
701.235	7.38
701.989	6.38
702.743	8.38
703.497	7.38
704.251	6.38
705.005	8.38
705.759	6.38
706.513	6.38
707.266	5.38
708.02	6.38
708.774	6.38
709.527	5.38
710.28	7.38
711.034	8.38
711.787	4.38
712.54	6.38
713.293	6.38
714.046	8.38
714.799	5.38
715.552	7.38
716.305	6.38
717.058	7.38
717.81	9.38
718.563	10.38
719.315	8.38
720.068	3.38
720.82	7.38
721.573	8.38
722.325	7.38
723.077	7.38
723.829	6.38
724.581	9.38
725.333	8.38
726.085	8.38
726.836	7.38
727.588	7.38
728.34	5.38
729.091	6.38
729.843	9.38
730.594	7.38
731.346	7.38
732.097	8.38
732.848	8.38
733.599	7.38
734.35	7.38
735.101	9.38
735.852	6.38
736.603	10.38
737.354	10.38
738.104	7.38
738.855	7.38
739.605	8.38
740.356	8.38
741.106	9.38
741.856	9.38
742.607	7.38
743.357	9.38
744.107	7.38
744.857	10.38
745.607	11.38
746.357	10.38
747.106	9.38
747.856	9.38
748.606	10.38
749.355	12.38
750.105	10.38
750.854	13.38
751.603	10.38
752.353	9.38
753.102	11.38
753.851	9.38
754.6	11.38
755.349	13.38
756.098	13.38
756.847	10.38
757.595	11.38
758.344	8.38
759.093	9.38
759.841	10.38
760.589	13.38
761.338	11.38
762.086	12.38
762.834	14.38
763.582	12.38
764.331	13.38
765.079	15.38
765.826	13.38
766.574	12.38
767.322	15.38
768.07	14.38
768.817	11.38
769.565	12.38
770.312	12.38
771.06	13.38
771.807	14.38
772.554	12.38
773.302	13.38
774.049	16.38
774.796	16.38
775.543	14.38
776.29	15.38
777.036	14.38
777.783	16.38
778.53	14.38
779.276	16.38
780.023	13.38
780.769	13.38
781.516	14.38
782.262	15.38
783.008	12.38
783.754	14.38
784.5	17.38
785.246	11.38
785.992	16.38
786.738	14.38
787.484	16.38
788.23	15.38
788.975	14.38
789.721	13.38
790.466	11.38
791.212	15.38
791.957	12.38
792.702	13.38
793.447	12.38
794.193	13.38
794.938	13.38
795.683	11.38
796.427	12.38
797.172	12.38
797.917	13.38
798.662	12.38
799.406	12.38
800.151	11.38
800.895	9.38
801.64	12.38
802.384	12.38
803.128	11.38
803.872	8.38
804.616	12.38
805.36	10.38
806.104	10.38
806.848	8.38
807.592	10.38
808.336	7.38
809.079	10.38
809.823	7.38
810.566	9.38
811.31	8.38
812.053	7.38
812.796	8.38
813.539	8.38
814.283	7.38
815.026	7.38
815.769	7.38
816.511	5.38
817.254	5.38
817.997	6.38
818.74	6.38
819.482	6.38
820.225	5.38
820.967	7.38
821.71	7.38
822.452	8.38
823.194	7.38
823.936	7.38
824.678	7.38
825.42	6.38
826.162	8.38
826.904	5.38
827.646	7.38
828.388	4.38
829.129	6.38
829.871	5.38
830.612	5.38
831.354	6.38
832.095	3.38
832.836	6.38
833.577	4.38
834.319	6.38
835.06	4.38
835.801	6.38
836.542	6.38
837.282	4.38
838.023	2.38
838.764	3.38
839.504	4.38
840.245	4.38
840.985	6.38
841.726	5.38
842.466	4.38
843.206	3.38
843.946	5.38
844.687	4.38
845.427	4.38
846.166	4.38
846.906	4.38
847.646	3.38
848.386	5.38
849.125	4.38
849.865	6.38
850.605	2.38
851.344	4.38
852.083	4.38
852.823	5.38
853.562	5.38
854.301	4.38
855.04	5.38
855.779	5.38
856.518	4.38
857.257	1.38
857.995	1.38
858.734	4.38
859.473	3.38
860.211	4.38
860.95	3.38
861.688	1.38
862.426	3.38
863.165	3.38
863.903	4.38
864.641	1.38
865.379	3.38
866.117	1.38
866.855	2.38
867.593	2.38
868.33	1.38
869.068	1.38
869.806	1.38
870.543	2.38
871.28	0.38
872.018	1.38
872.755	1.38
873.492	0.38
874.229	2.38
874.967	0.38
875.703	0.38
876.44	0.38
877.177	2.38
877.914	0.38
878.651	1.38
879.387	3.38
880.124	0.38
880.86	3.38
881.597	1.38
882.333	0.38
883.069	2.38
883.806	-1.62
884.542	2.38
885.278	2.38
886.014	1.38
886.749	-0.62
887.485	1.38
888.221	0.38
888.957	3.38
889.692	1.38
890.428	0.38
891.163	2.38
891.899	1.38
892.634	2.38
893.369	0.38
894.104	1.38
894.839	3.38
895.574	0.38
896.309	3.38
897.044	1.38
897.779	3.38
898.514	0.38
899.248	1.38
899.983	2.38
900.717	0.38
901.452	1.38
902.186	0.38
902.92	-1.62
903.654	1.38
904.389	2.38
905.123	3.38
905.857	1.38
906.59	1.38
907.324	1.38
908.058	4.38
908.792	0.38
909.525	0.38
910.259	-0.62
910.992	0.38
911.726	3.38
912.459	0.38
913.192	3.38
913.925	0.38
914.658	0.38
915.391	-0.62
916.124	0.38
916.857	1.38
917.59	0.38
918.323	1.38
919.055	0.38
919.788	4.38
920.521	1.38
921.253	-0.62
921.985	1.38
922.718	0.38
923.45	0.38
924.182	0.38
924.914	2.38
925.646	0.38
926.378	1.38
927.11	-0.62
927.841	1.38
928.573	0.38
929.305	0.38
930.036	2.38
930.768	-0.62
931.499	0.38
932.23	-1.62
932.962	0.38
933.693	2.38
934.424	0.38
935.155	0.38
935.886	0.38
936.617	-1.62
937.348	0.38
938.078	0.38
938.809	3.38
939.54	-0.62
940.27	-0.62
941.001	2.38
941.731	-1.62
942.461	1.38
943.191	1.38
943.922	0.38
944.652	0.38
945.382	-0.62
946.112	2.38
946.841	0.38
947.571	1.38
948.301	1.38
949.031	0.38
949.76	1.38
950.49	0.38
951.219	-1.62
951.948	1.38
952.678	-2.62
953.407	0.38
954.136	2.38
954.865	-0.62
955.594	2.38
956.323	1.38
957.052	-0.62
957.78	0.38
958.509	-0.62
959.238	-0.62
959.966	-0.62
960.695	0.38
961.423	-0.62
962.151	1.38
962.88	3.38
963.608	0.38
964.336	2.38
965.064	3.38
965.792	-1.62
966.52	0.38
967.247	-0.62
967.975	0.38
968.703	-0.62
969.43	0.38
970.158	0.38
970.885	3.38
971.613	1.38
972.34	1.38
973.067	1.38
973.794	-0.62
974.521	2.38
975.248	1.38
975.975	0.38
976.702	3.38
977.429	0.38
978.156	0.38
978.882	0.38
979.609	3.38
980.335	0.38
981.062	1.38
981.788	-2.62
982.514	0.38
983.24	0.38
983.967	0.38
984.693	0.38
985.419	-0.62
986.144	0.38
986.87	0.38
987.596	1.38
988.322	-1.62
989.047	0.38
989.773	1.38
990.498	0.38
991.224	1.38
991.949	0.38
992.674	-0.62
993.399	-1.62
994.124	2.38
994.849	0.38
995.574	0.38
996.299	0.38
997.024	0.38
997.749	0.38
998.473	-0.62
999.198	-0.62
999.922	1.38
1000.647	-0.62
1001.371	3.38
1002.095	-1.62
1002.82	-1.62
1003.544	-0.62
1004.268	4.38
1004.992	3.38
1005.716	2.38
1006.439	6.38
1007.163	4.38
1007.887	5.38
1008.611	2.38
1009.334	0.38
1010.058	1.38
1010.781	0.38
1011.504	1.38
1012.228	0.38
1012.951	1.38
1013.674	0.38
1014.397	-1.62
1015.12	0.38
