节点500_565_QEPB04081__262__09-54-46-603.txt的数据

Date: Thu Nov 13 09:54:46 CST 2025
User: PC
Spectrometer: QEPB0408
触发模式: 0
积分时间 (秒): 1.000000E-2
Scans to average: 1
启用暗噪声校正: true
启用非线性校正: false
滑动平均宽度: 0
X轴模式: Wavelengths
Number of Pixels in Spectrum: 1044
>>>>>Begin Spectral Data<<<<<
220.843	4.75
221.644	3.75
222.444	3.75
223.244	7.75
224.045	4.75
224.845	2.75
225.645	4.75
226.445	4.75
227.245	3.75
228.045	5.75
228.845	7.75
229.645	6.75
230.444	6.75
231.244	6.75
232.043	6.75
232.843	5.75
233.642	8.75
234.442	7.75
235.241	4.75
236.04	8.75
236.839	7.75
237.638	6.75
238.437	7.75
239.236	8.75
240.035	9.75
240.833	6.75
241.632	8.75
242.43	11.75
243.229	6.75
244.027	8.75
244.826	11.75
245.624	12.75
246.422	11.75
247.22	13.75
248.018	11.75
248.816	11.75
249.614	14.75
250.412	12.75
251.21	10.75
252.007	13.75
252.805	11.75
253.602	11.75
254.4	18.75
255.197	15.75
255.994	12.75
256.791	15.75
257.589	16.75
258.386	16.75
259.183	17.75
259.979	19.75
260.776	17.75
261.573	19.75
262.37	17.75
263.166	19.75
263.963	20.75
264.759	22.75
265.556	22.75
266.352	21.75
267.148	24.75
267.944	19.75
268.74	22.75
269.536	24.75
270.332	26.75
271.128	24.75
271.924	26.75
272.719	24.75
273.515	26.75
274.311	25.75
275.106	28.75
275.901	26.75
276.697	28.75
277.492	31.75
278.287	28.75
279.082	28.75
279.877	29.75
280.672	26.75
281.467	26.75
282.262	28.75
283.056	29.75
283.851	28.75
284.646	30.75
285.44	27.75
286.234	30.75
287.029	29.75
287.823	26.75
288.617	27.75
289.411	28.75
290.205	26.75
290.999	28.75
291.793	28.75
292.587	25.75
293.381	26.75
294.174	24.75
294.968	22.75
295.761	24.75
296.555	22.75
297.348	21.75
298.141	24.75
298.935	24.75
299.728	21.75
300.521	19.75
301.314	20.75
302.107	20.75
302.899	17.75
303.692	18.75
304.485	18.75
305.277	18.75
306.07	19.75
306.862	19.75
307.655	18.75
308.447	17.75
309.239	17.75
310.031	19.75
310.823	17.75
311.615	15.75
312.407	16.75
313.199	13.75
313.991	11.75
314.783	13.75
315.574	13.75
316.366	16.75
317.157	13.75
317.949	12.75
318.74	11.75
319.531	11.75
320.322	10.75
321.113	10.75
321.904	12.75
322.695	10.75
323.486	11.75
324.277	12.75
325.068	13.75
325.858	10.75
326.649	10.75
327.439	10.75
328.23	10.75
329.02	11.75
329.81	7.75
330.6	11.75
331.391	10.75
332.181	8.75
332.971	10.75
333.76	12.75
334.55	10.75
335.34	10.75
336.13	11.75
336.919	12.75
337.709	9.75
338.498	9.75
339.287	10.75
340.077	9.75
340.866	10.75
341.655	9.75
342.444	7.75
343.233	12.75
344.022	11.75
344.811	9.75
345.6	10.75
346.388	8.75
347.177	10.75
347.965	6.75
348.754	9.75
349.542	8.75
350.33	9.75
351.119	11.75
351.907	6.75
352.695	8.75
353.483	9.75
354.271	10.75
355.059	8.75
355.846	8.75
356.634	10.75
357.422	9.75
358.209	8.75
358.997	7.75
359.784	8.75
360.571	8.75
361.359	9.75
362.146	10.75
362.933	7.75
363.72	9.75
364.507	5.75
365.294	9.75
366.081	7.75
366.867	6.75
367.654	8.75
368.44	8.75
369.227	5.75
370.013	7.75
370.8	10.75
371.586	8.75
372.372	7.75
373.158	7.75
373.944	8.75
374.73	7.75
375.516	8.75
376.302	9.75
377.088	9.75
377.873	8.75
378.659	8.75
379.445	9.75
380.23	7.75
381.015	5.75
381.801	8.75
382.586	9.75
383.371	9.75
384.156	10.75
384.941	8.75
385.726	10.75
386.511	10.75
387.296	9.75
388.08	9.75
388.865	10.75
389.649	8.75
390.434	10.75
391.218	9.75
392.003	6.75
392.787	10.75
393.571	10.75
394.355	9.75
395.139	7.75
395.923	9.75
396.707	11.75
397.491	12.75
398.274	12.75
399.058	9.75
399.842	11.75
400.625	11.75
401.408	10.75
402.192	12.75
402.975	12.75
403.758	11.75
404.541	11.75
405.324	12.75
406.107	11.75
406.89	10.75
407.673	12.75
408.456	10.75
409.238	12.75
410.021	14.75
410.803	14.75
411.586	12.75
412.368	12.75
413.151	12.75
413.933	15.75
414.715	14.75
415.497	14.75
416.279	13.75
417.061	14.75
417.843	17.75
418.624	19.75
419.406	16.75
420.188	15.75
420.969	16.75
421.751	20.75
422.532	20.75
423.313	16.75
424.095	18.75
424.876	18.75
425.657	21.75
426.438	20.75
427.219	18.75
428	22.75
428.78	23.75
429.561	25.75
430.342	24.75
431.122	26.75
431.903	25.75
432.683	28.75
433.464	30.75
434.244	28.75
435.024	30.75
435.804	34.75
436.584	31.75
437.364	35.75
438.144	36.75
438.924	38.75
439.704	41.75
440.483	42.75
441.263	44.75
442.042	47.75
442.822	48.75
443.601	53.75
444.38	58.75
445.16	66.75
445.939	71.75
446.718	79.75
447.497	85.75
448.276	86.75
449.054	98.75
449.833	104.75
450.612	116.75
451.391	125.75
452.169	143.75
452.948	156.75
453.726	170.75
454.504	198.75
455.282	207.75
456.061	234.75
456.839	263.75
457.617	288.75
458.395	331.75
459.172	367.75
459.95	404.75
460.728	447.75
461.506	508.75
462.283	573.75
463.061	627.75
463.838	708.75
464.615	788.75
465.393	871.75
466.17	975.75
466.947	1075.75
467.724	1202.75
468.501	1334.75
469.278	1504.75
470.055	1625.75
470.831	1820.75
471.608	2007.75
472.385	2236.75
473.161	2472.75
473.938	2743.75
474.714	3021.75
475.49	3303.75
476.266	3653.75
477.043	4006.75
477.819	4410.75
478.595	4831.75
479.371	5262.75
480.146	5779.75
480.922	6374.75
481.698	6932.75
482.473	7527.75
483.249	8229.75
484.024	8992.75
484.8	9811.75
485.575	10656.75
486.35	11574.75
487.126	12576.75
487.901	13669.75
488.676	14836.75
489.451	16101.75
490.225	17417.75
491	18754.75
491.775	20146.75
492.55	21728.75
493.324	23185.75
494.099	24681.75
494.873	26377.75
495.647	28064.75
496.422	29700.75
497.196	31203.75
497.97	32740.75
498.744	34242.75
499.518	35555.75
500.292	36769.75
501.066	38026.75
501.839	39100.75
502.613	39808.75
503.387	40455.75
504.16	41030.75
504.934	41156.75
505.707	41076.75
506.48	40936.75
507.253	40614.75
508.027	39838.75
508.8	39097.75
509.573	38159.75
510.346	37135.75
511.118	35990.75
511.891	34967.75
512.664	33728.75
513.437	32416.75
514.209	31153.75
514.982	29916.75
515.754	28728.75
516.526	27520.75
517.298	26291.75
518.071	25282.75
518.843	24266.75
519.615	23341.75
520.387	22363.75
521.159	21437.75
521.93	20608.75
522.702	19769.75
523.474	18881.75
524.245	18180.75
525.017	17462.75
525.788	16640.75
526.56	15874.75
527.331	15175.75
528.102	14540.75
528.873	13718.75
529.644	13103.75
530.415	12428.75
531.186	11728.75
531.957	11207.75
532.728	10650.75
533.498	10022.75
534.269	9509.75
535.039	8946.75
535.81	8465.75
536.58	8029.75
537.351	7630.75
538.121	7191.75
538.891	6792.75
539.661	6450.75
540.431	6113.75
541.201	5778.75
541.971	5461.75
542.741	5166.75
543.51	4914.75
544.28	4659.75
545.05	4435.75
545.819	4214.75
546.588	4009.75
547.358	3814.75
548.127	3622.75
548.896	3452.75
549.665	3287.75
550.434	3114.75
551.203	2935.75
551.972	2793.75
552.741	2661.75
553.51	2510.75
554.278	2370.75
555.047	2200.75
555.815	2103.75
556.584	1992.75
557.352	1886.75
558.121	1763.75
558.889	1666.75
559.657	1580.75
560.425	1482.75
561.193	1399.75
561.961	1339.75
562.729	1268.75
563.496	1200.75
564.264	1131.75
565.032	1064.75
565.799	1009.75
566.567	973.75
567.334	907.75
568.101	853.75
568.869	805.75
569.636	769.75
570.403	719.75
571.17	685.75
571.937	649.75
572.704	605.75
573.471	579.75
574.237	541.75
575.004	511.75
575.771	480.75
576.537	450.75
577.303	426.75
578.07	400.75
578.836	370.75
579.602	361.75
580.368	336.75
581.134	323.75
581.9	304.75
582.666	292.75
583.432	274.75
584.198	263.75
584.964	250.75
585.729	238.75
586.495	220.75
587.26	212.75
588.025	203.75
588.791	197.75
589.556	178.75
590.321	174.75
591.086	168.75
591.851	153.75
592.616	147.75
593.381	138.75
594.146	136.75
594.911	125.75
595.675	123.75
596.44	111.75
597.204	113.75
597.969	108.75
598.733	101.75
599.497	101.75
600.261	90.75
601.025	87.75
601.79	86.75
602.553	81.75
603.317	77.75
604.081	76.75
604.845	71.75
605.609	70.75
606.372	66.75
607.136	62.75
607.899	63.75
608.662	60.75
609.426	55.75
610.189	55.75
610.952	49.75
611.715	52.75
612.478	49.75
613.241	47.75
614.004	44.75
614.767	42.75
615.529	44.75
616.292	39.75
617.055	40.75
617.817	38.75
618.579	39.75
619.342	35.75
620.104	35.75
620.866	31.75
621.628	30.75
622.39	30.75
623.152	27.75
623.914	32.75
624.676	27.75
625.438	29.75
626.199	28.75
626.961	25.75
627.722	26.75
628.484	23.75
629.245	22.75
630.006	23.75
630.768	24.75
631.529	22.75
632.29	20.75
633.051	23.75
633.812	20.75
634.573	20.75
635.333	18.75
636.094	17.75
636.855	16.75
637.615	18.75
638.376	19.75
639.136	17.75
639.896	16.75
640.657	14.75
641.417	18.75
642.177	13.75
642.937	16.75
643.697	16.75
644.457	14.75
645.216	15.75
645.976	13.75
646.736	13.75
647.495	13.75
648.255	13.75
649.014	10.75
649.774	13.75
650.533	12.75
651.292	8.75
652.051	14.75
652.81	11.75
653.569	11.75
654.328	11.75
655.087	6.75
655.846	9.75
656.604	9.75
657.363	11.75
658.121	10.75
658.88	7.75
659.638	10.75
660.397	7.75
661.155	8.75
661.913	5.75
662.671	9.75
663.429	7.75
664.187	9.75
664.945	8.75
665.703	9.75
666.46	9.75
667.218	8.75
667.976	8.75
668.733	10.75
669.49	6.75
670.248	8.75
671.005	4.75
671.762	8.75
672.519	9.75
673.276	8.75
674.033	7.75
674.79	8.75
675.547	8.75
676.304	6.75
677.06	7.75
677.817	8.75
678.574	7.75
679.33	7.75
680.086	6.75
680.843	6.75
681.599	5.75
682.355	6.75
683.111	7.75
683.867	7.75
684.623	7.75
685.379	8.75
686.135	5.75
686.89	8.75
687.646	8.75
688.402	7.75
689.157	5.75
689.912	2.75
690.668	4.75
691.423	5.75
692.178	5.75
692.933	6.75
693.688	6.75
694.443	9.75
695.198	5.75
695.953	7.75
696.708	5.75
697.462	8.75
698.217	6.75
698.972	5.75
699.726	4.75
700.48	5.75
701.235	3.75
701.989	7.75
702.743	5.75
703.497	6.75
704.251	7.75
705.005	8.75
705.759	4.75
706.513	6.75
707.266	6.75
708.02	6.75
708.774	6.75
709.527	6.75
710.28	8.75
711.034	7.75
711.787	7.75
712.54	4.75
713.293	6.75
714.046	5.75
714.799	6.75
715.552	8.75
716.305	5.75
717.058	6.75
717.81	4.75
718.563	8.75
719.315	6.75
720.068	7.75
720.82	6.75
721.573	4.75
722.325	9.75
723.077	4.75
723.829	4.75
724.581	6.75
725.333	6.75
726.085	6.75
726.836	5.75
727.588	5.75
728.34	4.75
729.091	6.75
729.843	9.75
730.594	8.75
731.346	6.75
732.097	8.75
732.848	10.75
733.599	9.75
734.35	6.75
735.101	8.75
735.852	6.75
736.603	8.75
737.354	9.75
738.104	7.75
738.855	7.75
739.605	6.75
740.356	9.75
741.106	7.75
741.856	7.75
742.607	8.75
743.357	6.75
744.107	8.75
744.857	9.75
745.607	7.75
746.357	7.75
747.106	9.75
747.856	8.75
748.606	10.75
749.355	7.75
750.105	10.75
750.854	7.75
751.603	8.75
752.353	7.75
753.102	9.75
753.851	10.75
754.6	10.75
755.349	11.75
756.098	12.75
756.847	8.75
757.595	10.75
758.344	10.75
759.093	12.75
759.841	8.75
760.589	8.75
761.338	8.75
762.086	12.75
762.834	9.75
763.582	11.75
764.331	12.75
765.079	12.75
765.826	13.75
766.574	10.75
767.322	11.75
768.07	12.75
768.817	10.75
769.565	11.75
770.312	12.75
771.06	12.75
771.807	12.75
772.554	8.75
773.302	10.75
774.049	14.75
774.796	14.75
775.543	13.75
776.29	13.75
777.036	14.75
777.783	13.75
778.53	14.75
779.276	14.75
780.023	11.75
780.769	11.75
781.516	14.75
782.262	14.75
783.008	16.75
783.754	14.75
784.5	13.75
785.246	13.75
785.992	12.75
786.738	12.75
787.484	13.75
788.23	12.75
788.975	14.75
789.721	12.75
790.466	14.75
791.212	11.75
791.957	14.75
792.702	13.75
793.447	11.75
794.193	10.75
794.938	9.75
795.683	11.75
796.427	14.75
797.172	13.75
797.917	10.75
798.662	11.75
799.406	10.75
800.151	12.75
800.895	11.75
801.64	8.75
802.384	11.75
803.128	11.75
803.872	10.75
804.616	7.75
805.36	11.75
806.104	9.75
806.848	8.75
807.592	7.75
808.336	9.75
809.079	6.75
809.823	8.75
810.566	8.75
811.31	8.75
812.053	6.75
812.796	9.75
813.539	4.75
814.283	6.75
815.026	8.75
815.769	5.75
816.511	8.75
817.254	6.75
817.997	7.75
818.74	4.75
819.482	6.75
820.225	6.75
820.967	5.75
821.71	3.75
822.452	7.75
823.194	6.75
823.936	3.75
824.678	4.75
825.42	7.75
826.162	5.75
826.904	4.75
827.646	5.75
828.388	5.75
829.129	4.75
829.871	5.75
830.612	5.75
831.354	5.75
832.095	3.75
832.836	6.75
833.577	3.75
834.319	4.75
835.06	3.75
835.801	2.75
836.542	4.75
837.282	3.75
838.023	3.75
838.764	4.75
839.504	5.75
840.245	6.75
840.985	3.75
841.726	4.75
842.466	3.75
843.206	3.75
843.946	1.75
844.687	4.75
845.427	5.75
846.166	4.75
846.906	3.75
847.646	4.75
848.386	4.75
849.125	6.75
849.865	2.75
850.605	3.75
851.344	4.75
852.083	3.75
852.823	1.75
853.562	3.75
854.301	4.75
855.04	4.75
855.779	0.75
856.518	1.75
857.257	2.75
857.995	4.75
858.734	3.75
859.473	4.75
860.211	1.75
860.95	4.75
861.688	4.75
862.426	2.75
863.165	3.75
863.903	0.75
864.641	1.75
865.379	1.75
866.117	1.75
866.855	3.75
867.593	1.75
868.33	1.75
869.068	1.75
869.806	3.75
870.543	2.75
871.28	3.75
872.018	4.75
872.755	1.75
873.492	1.75
874.229	0.75
874.967	1.75
875.703	1.75
876.44	3.75
877.177	1.75
877.914	3.75
878.651	2.75
879.387	1.75
880.124	0.75
880.86	1.75
881.597	3.75
882.333	2.75
883.069	3.75
883.806	1.75
884.542	-1.25
885.278	1.75
886.014	0.75
886.749	2.75
887.485	1.75
888.221	1.75
888.957	3.75
889.692	1.75
890.428	-0.25
891.163	0.75
891.899	2.75
892.634	1.75
893.369	0.75
894.104	1.75
894.839	0.75
895.574	0.75
896.309	0.75
897.044	0.75
897.779	0.75
898.514	2.75
899.248	2.75
899.983	0.75
900.717	-1.25
901.452	0.75
902.186	0.75
902.92	-1.25
903.654	-0.25
904.389	2.75
905.123	-0.25
905.857	-1.25
906.59	0.75
907.324	0.75
908.058	2.75
908.792	1.75
909.525	0.75
910.259	0.75
910.992	0.75
911.726	-0.25
912.459	-0.25
913.192	-0.25
913.925	-0.25
914.658	1.75
915.391	-1.25
916.124	-0.25
916.857	1.75
917.59	-0.25
918.323	-0.25
919.055	-1.25
919.788	1.75
920.521	-0.25
921.253	1.75
921.985	-1.25
922.718	1.75
923.45	-1.25
924.182	2.75
924.914	2.75
925.646	0.75
926.378	1.75
927.11	-2.25
927.841	0.75
928.573	0.75
929.305	1.75
930.036	0.75
930.768	-1.25
931.499	-0.25
932.23	0.75
932.962	1.75
933.693	-1.25
934.424	-0.25
935.155	1.75
935.886	0.75
936.617	1.75
937.348	0.75
938.078	1.75
938.809	-1.25
939.54	0.75
940.27	0.75
941.001	1.75
941.731	-0.25
942.461	0.75
943.191	1.75
943.922	1.75
944.652	2.75
945.382	0.75
946.112	-0.25
946.841	2.75
947.571	2.75
948.301	-0.25
949.031	0.75
949.76	0.75
950.49	0.75
951.219	2.75
951.948	0.75
952.678	0.75
953.407	-2.25
954.136	-1.25
954.865	0.75
955.594	-2.25
956.323	1.75
957.052	0.75
957.78	0.75
958.509	0.75
959.238	-2.25
959.966	0.75
960.695	-0.25
961.423	-0.25
962.151	1.75
962.88	1.75
963.608	-1.25
964.336	-0.25
965.064	2.75
965.792	1.75
966.52	2.75
967.247	0.75
967.975	-0.25
968.703	2.75
969.43	0.75
970.158	2.75
970.885	0.75
971.613	-0.25
972.34	1.75
973.067	-0.25
973.794	0.75
974.521	-0.25
975.248	1.75
975.975	-0.25
976.702	1.75
977.429	-0.25
978.156	2.75
978.882	0.75
979.609	0.75
980.335	0.75
981.062	-0.25
981.788	2.75
982.514	1.75
983.24	-1.25
983.967	2.75
984.693	0.75
985.419	0.75
986.144	-1.25
986.87	0.75
987.596	2.75
988.322	1.75
989.047	1.75
989.773	2.75
990.498	-0.25
991.224	-0.25
991.949	1.75
992.674	-0.25
993.399	-1.25
994.124	-0.25
994.849	2.75
995.574	2.75
996.299	-0.25
997.024	0.75
997.749	1.75
998.473	1.75
999.198	1.75
999.922	0.75
1000.647	1.75
1001.371	2.75
1002.095	-0.25
1002.82	-1.25
1003.544	-2.25
1004.268	5.75
1004.992	0.75
1005.716	2.75
1006.439	3.75
1007.163	4.75
1007.887	3.75
1008.611	1.75
1009.334	1.75
1010.058	-0.25
1010.781	-0.25
1011.504	1.75
1012.228	0.75
1012.951	0.75
1013.674	0.75
1014.397	0.75
1015.12	-1.25
