节点500_565_QEPB04081__280__09-55-04-559.txt的数据

Date: Thu Nov 13 09:55:04 CST 2025
User: PC
Spectrometer: QEPB0408
触发模式: 0
积分时间 (秒): 1.000000E-2
Scans to average: 1
启用暗噪声校正: true
启用非线性校正: false
滑动平均宽度: 0
X轴模式: Wavelengths
Number of Pixels in Spectrum: 1044
>>>>>Begin Spectral Data<<<<<
220.843	4.5
221.644	2.5
222.444	2.5
223.244	4.5
224.045	4.5
224.845	6.5
225.645	3.5
226.445	4.5
227.245	6.5
228.045	6.5
228.845	5.5
229.645	5.5
230.444	7.5
231.244	5.5
232.043	5.5
232.843	4.5
233.642	8.5
234.442	8.5
235.241	8.5
236.04	6.5
236.839	8.5
237.638	6.5
238.437	7.5
239.236	8.5
240.035	9.5
240.833	8.5
241.632	8.5
242.43	9.5
243.229	11.5
244.027	10.5
244.826	10.5
245.624	9.5
246.422	12.5
247.22	11.5
248.018	9.5
248.816	9.5
249.614	13.5
250.412	11.5
251.21	14.5
252.007	12.5
252.805	11.5
253.602	12.5
254.4	15.5
255.197	13.5
255.994	16.5
256.791	15.5
257.589	17.5
258.386	15.5
259.183	16.5
259.979	19.5
260.776	18.5
261.573	21.5
262.37	15.5
263.166	18.5
263.963	19.5
264.759	20.5
265.556	20.5
266.352	22.5
267.148	22.5
267.944	25.5
268.74	22.5
269.536	22.5
270.332	28.5
271.128	24.5
271.924	23.5
272.719	26.5
273.515	24.5
274.311	25.5
275.106	24.5
275.901	27.5
276.697	31.5
277.492	28.5
278.287	28.5
279.082	30.5
279.877	31.5
280.672	28.5
281.467	31.5
282.262	29.5
283.056	25.5
283.851	28.5
284.646	28.5
285.44	29.5
286.234	26.5
287.029	31.5
287.823	30.5
288.617	29.5
289.411	29.5
290.205	27.5
290.999	28.5
291.793	25.5
292.587	25.5
293.381	26.5
294.174	26.5
294.968	24.5
295.761	22.5
296.555	21.5
297.348	21.5
298.141	20.5
298.935	23.5
299.728	19.5
300.521	21.5
301.314	20.5
302.107	22.5
302.899	19.5
303.692	17.5
304.485	20.5
305.277	19.5
306.07	20.5
306.862	18.5
307.655	18.5
308.447	16.5
309.239	17.5
310.031	18.5
310.823	15.5
311.615	15.5
312.407	13.5
313.199	15.5
313.991	16.5
314.783	13.5
315.574	13.5
316.366	14.5
317.157	14.5
317.949	13.5
318.74	15.5
319.531	13.5
320.322	12.5
321.113	11.5
321.904	12.5
322.695	11.5
323.486	10.5
324.277	11.5
325.068	8.5
325.858	9.5
326.649	11.5
327.439	10.5
328.23	12.5
329.02	9.5
329.81	12.5
330.6	9.5
331.391	10.5
332.181	10.5
332.971	10.5
333.76	10.5
334.55	7.5
335.34	9.5
336.13	10.5
336.919	9.5
337.709	9.5
338.498	9.5
339.287	9.5
340.077	7.5
340.866	11.5
341.655	12.5
342.444	8.5
343.233	8.5
344.022	7.5
344.811	8.5
345.6	10.5
346.388	11.5
347.177	8.5
347.965	8.5
348.754	9.5
349.542	9.5
350.33	8.5
351.119	8.5
351.907	10.5
352.695	8.5
353.483	9.5
354.271	7.5
355.059	9.5
355.846	11.5
356.634	10.5
357.422	9.5
358.209	8.5
358.997	7.5
359.784	7.5
360.571	8.5
361.359	8.5
362.146	5.5
362.933	8.5
363.72	8.5
364.507	8.5
365.294	6.5
366.081	6.5
366.867	6.5
367.654	9.5
368.44	6.5
369.227	7.5
370.013	9.5
370.8	9.5
371.586	6.5
372.372	8.5
373.158	8.5
373.944	7.5
374.73	8.5
375.516	8.5
376.302	9.5
377.088	8.5
377.873	6.5
378.659	10.5
379.445	8.5
380.23	8.5
381.015	6.5
381.801	9.5
382.586	7.5
383.371	7.5
384.156	8.5
384.941	8.5
385.726	8.5
386.511	9.5
387.296	8.5
388.08	9.5
388.865	7.5
389.649	9.5
390.434	6.5
391.218	8.5
392.003	7.5
392.787	10.5
393.571	10.5
394.355	11.5
395.139	8.5
395.923	10.5
396.707	10.5
397.491	8.5
398.274	9.5
399.058	10.5
399.842	9.5
400.625	12.5
401.408	11.5
402.192	11.5
402.975	12.5
403.758	12.5
404.541	13.5
405.324	10.5
406.107	9.5
406.89	13.5
407.673	15.5
408.456	13.5
409.238	12.5
410.021	13.5
410.803	13.5
411.586	14.5
412.368	15.5
413.151	15.5
413.933	16.5
414.715	14.5
415.497	16.5
416.279	12.5
417.061	15.5
417.843	15.5
418.624	16.5
419.406	15.5
420.188	16.5
420.969	16.5
421.751	16.5
422.532	18.5
423.313	16.5
424.095	22.5
424.876	20.5
425.657	19.5
426.438	19.5
427.219	19.5
428	20.5
428.78	21.5
429.561	22.5
430.342	25.5
431.122	23.5
431.903	26.5
432.683	26.5
433.464	29.5
434.244	27.5
435.024	32.5
435.804	32.5
436.584	36.5
437.364	35.5
438.144	37.5
438.924	38.5
439.704	42.5
440.483	42.5
441.263	44.5
442.042	47.5
442.822	51.5
443.601	59.5
444.38	63.5
445.16	64.5
445.939	71.5
446.718	80.5
447.497	80.5
448.276	91.5
449.054	96.5
449.833	109.5
450.612	119.5
451.391	120.5
452.169	150.5
452.948	158.5
453.726	179.5
454.504	196.5
455.282	215.5
456.061	242.5
456.839	272.5
457.617	304.5
458.395	335.5
459.172	380.5
459.95	418.5
460.728	459.5
461.506	516.5
462.283	579.5
463.061	647.5
463.838	720.5
464.615	804.5
465.393	881.5
466.17	988.5
466.947	1112.5
467.724	1234.5
468.501	1362.5
469.278	1520.5
470.055	1686.5
470.831	1880.5
471.608	2049.5
472.385	2283.5
473.161	2508.5
473.938	2800.5
474.714	3060.5
475.49	3380.5
476.266	3720.5
477.043	4069.5
477.819	4481.5
478.595	4894.5
479.371	5352.5
480.146	5880.5
480.922	6452.5
481.698	6995.5
482.473	7671.5
483.249	8332.5
484.024	9108.5
484.8	9934.5
485.575	10810.5
486.35	11706.5
487.126	12755.5
487.901	13832.5
488.676	15015.5
489.451	16268.5
490.225	17573.5
491	18915.5
491.775	20346.5
492.55	21836.5
493.324	23314.5
494.099	24954.5
494.873	26567.5
495.647	28222.5
496.422	29911.5
497.196	31474.5
497.97	33102.5
498.744	34548.5
499.518	35904.5
500.292	37095.5
501.066	38378.5
501.839	39463.5
502.613	40244.5
503.387	40919.5
504.16	41470.5
504.934	41641.5
505.707	41585.5
506.48	41508.5
507.253	41194.5
508.027	40563.5
508.8	39771.5
509.573	38765.5
510.346	37791.5
511.118	36628.5
511.891	35596.5
512.664	34371.5
513.437	33122.5
514.209	31813.5
514.982	30546.5
515.754	29424.5
516.526	28160.5
517.298	26865.5
518.071	25819.5
518.843	24789.5
519.615	23777.5
520.387	22806.5
521.159	21962.5
521.93	21029.5
522.702	20173.5
523.474	19362.5
524.245	18554.5
525.017	17851.5
525.788	17023.5
526.56	16272.5
527.331	15552.5
528.102	14797.5
528.873	14069.5
529.644	13391.5
530.415	12694.5
531.186	12086.5
531.957	11439.5
532.728	10897.5
533.498	10304.5
534.269	9714.5
535.039	9198.5
535.81	8741.5
536.58	8259.5
537.351	7808.5
538.121	7402.5
538.891	6950.5
539.661	6614.5
540.431	6253.5
541.201	5912.5
541.971	5635.5
542.741	5312.5
543.51	5036.5
544.28	4814.5
545.05	4557.5
545.819	4320.5
546.588	4102.5
547.358	3912.5
548.127	3707.5
548.896	3539.5
549.665	3364.5
550.434	3175.5
551.203	3021.5
551.972	2876.5
552.741	2701.5
553.51	2564.5
554.278	2402.5
555.047	2270.5
555.815	2175.5
556.584	2068.5
557.352	1920.5
558.121	1836.5
558.889	1702.5
559.657	1617.5
560.425	1525.5
561.193	1448.5
561.961	1363.5
562.729	1306.5
563.496	1219.5
564.264	1155.5
565.032	1098.5
565.799	1043.5
566.567	980.5
567.334	928.5
568.101	872.5
568.869	822.5
569.636	790.5
570.403	737.5
571.17	697.5
571.937	664.5
572.704	618.5
573.471	581.5
574.237	550.5
575.004	521.5
575.771	487.5
576.537	469.5
577.303	442.5
578.07	412.5
578.836	392.5
579.602	370.5
580.368	346.5
581.134	343.5
581.9	312.5
582.666	297.5
583.432	282.5
584.198	270.5
584.964	250.5
585.729	245.5
586.495	223.5
587.26	217.5
588.025	204.5
588.791	195.5
589.556	182.5
590.321	176.5
591.086	163.5
591.851	156.5
592.616	148.5
593.381	144.5
594.146	139.5
594.911	134.5
595.675	125.5
596.44	120.5
597.204	114.5
597.969	109.5
598.733	101.5
599.497	103.5
600.261	93.5
601.025	92.5
601.79	90.5
602.553	90.5
603.317	82.5
604.081	80.5
604.845	77.5
605.609	70.5
606.372	68.5
607.136	64.5
607.899	65.5
608.662	60.5
609.426	57.5
610.189	58.5
610.952	51.5
611.715	50.5
612.478	49.5
613.241	47.5
614.004	45.5
614.767	46.5
615.529	43.5
616.292	40.5
617.055	38.5
617.817	36.5
618.579	37.5
619.342	37.5
620.104	36.5
620.866	34.5
621.628	32.5
622.39	32.5
623.152	29.5
623.914	30.5
624.676	26.5
625.438	30.5
626.199	29.5
626.961	28.5
627.722	24.5
628.484	27.5
629.245	26.5
630.006	21.5
630.768	22.5
631.529	23.5
632.29	21.5
633.051	22.5
633.812	21.5
634.573	23.5
635.333	19.5
636.094	19.5
636.855	16.5
637.615	17.5
638.376	16.5
639.136	16.5
639.896	16.5
640.657	15.5
641.417	14.5
642.177	14.5
642.937	16.5
643.697	16.5
644.457	13.5
645.216	12.5
645.976	14.5
646.736	14.5
647.495	13.5
648.255	12.5
649.014	12.5
649.774	11.5
650.533	12.5
651.292	12.5
652.051	11.5
652.81	9.5
653.569	12.5
654.328	10.5
655.087	10.5
655.846	8.5
656.604	11.5
657.363	9.5
658.121	11.5
658.88	9.5
659.638	11.5
660.397	10.5
661.155	9.5
661.913	8.5
662.671	10.5
663.429	8.5
664.187	8.5
664.945	7.5
665.703	7.5
666.46	8.5
667.218	9.5
667.976	7.5
668.733	6.5
669.49	6.5
670.248	6.5
671.005	6.5
671.762	9.5
672.519	7.5
673.276	7.5
674.033	6.5
674.79	6.5
675.547	8.5
676.304	8.5
677.06	6.5
677.817	6.5
678.574	6.5
679.33	8.5
680.086	6.5
680.843	6.5
681.599	7.5
682.355	8.5
683.111	6.5
683.867	8.5
684.623	8.5
685.379	5.5
686.135	7.5
686.89	7.5
687.646	6.5
688.402	6.5
689.157	4.5
689.912	6.5
690.668	6.5
691.423	7.5
692.178	6.5
692.933	6.5
693.688	6.5
694.443	7.5
695.198	6.5
695.953	4.5
696.708	7.5
697.462	3.5
698.217	6.5
698.972	6.5
699.726	8.5
700.48	5.5
701.235	7.5
701.989	5.5
702.743	2.5
703.497	6.5
704.251	5.5
705.005	6.5
705.759	3.5
706.513	6.5
707.266	4.5
708.02	5.5
708.774	7.5
709.527	4.5
710.28	6.5
711.034	8.5
711.787	6.5
712.54	8.5
713.293	6.5
714.046	5.5
714.799	5.5
715.552	7.5
716.305	6.5
717.058	6.5
717.81	8.5
718.563	6.5
719.315	5.5
720.068	6.5
720.82	7.5
721.573	6.5
722.325	7.5
723.077	7.5
723.829	7.5
724.581	6.5
725.333	7.5
726.085	6.5
726.836	5.5
727.588	6.5
728.34	7.5
729.091	5.5
729.843	9.5
730.594	6.5
731.346	9.5
732.097	8.5
732.848	6.5
733.599	6.5
734.35	5.5
735.101	7.5
735.852	7.5
736.603	8.5
737.354	5.5
738.104	7.5
738.855	10.5
739.605	8.5
740.356	6.5
741.106	5.5
741.856	7.5
742.607	10.5
743.357	8.5
744.107	7.5
744.857	10.5
745.607	6.5
746.357	9.5
747.106	9.5
747.856	5.5
748.606	6.5
749.355	10.5
750.105	8.5
750.854	9.5
751.603	9.5
752.353	8.5
753.102	7.5
753.851	13.5
754.6	10.5
755.349	11.5
756.098	9.5
756.847	9.5
757.595	8.5
758.344	8.5
759.093	9.5
759.841	10.5
760.589	12.5
761.338	11.5
762.086	9.5
762.834	10.5
763.582	11.5
764.331	10.5
765.079	11.5
765.826	11.5
766.574	13.5
767.322	11.5
768.07	10.5
768.817	9.5
769.565	9.5
770.312	11.5
771.06	12.5
771.807	13.5
772.554	13.5
773.302	10.5
774.049	11.5
774.796	13.5
775.543	13.5
776.29	11.5
777.036	14.5
777.783	11.5
778.53	12.5
779.276	13.5
780.023	14.5
780.769	12.5
781.516	14.5
782.262	13.5
783.008	12.5
783.754	14.5
784.5	12.5
785.246	12.5
785.992	11.5
786.738	13.5
787.484	13.5
788.23	13.5
788.975	14.5
789.721	12.5
790.466	12.5
791.212	12.5
791.957	15.5
792.702	12.5
793.447	14.5
794.193	11.5
794.938	13.5
795.683	13.5
796.427	9.5
797.172	11.5
797.917	9.5
798.662	13.5
799.406	12.5
800.151	10.5
800.895	8.5
801.64	10.5
802.384	11.5
803.128	8.5
803.872	9.5
804.616	11.5
805.36	9.5
806.104	8.5
806.848	9.5
807.592	7.5
808.336	8.5
809.079	9.5
809.823	8.5
810.566	5.5
811.31	9.5
812.053	9.5
812.796	7.5
813.539	8.5
814.283	9.5
815.026	8.5
815.769	5.5
816.511	6.5
817.254	11.5
817.997	6.5
818.74	7.5
819.482	8.5
820.225	4.5
820.967	5.5
821.71	5.5
822.452	4.5
823.194	5.5
823.936	5.5
824.678	4.5
825.42	5.5
826.162	6.5
826.904	6.5
827.646	4.5
828.388	7.5
829.129	4.5
829.871	5.5
830.612	5.5
831.354	5.5
832.095	5.5
832.836	5.5
833.577	6.5
834.319	4.5
835.06	7.5
835.801	6.5
836.542	4.5
837.282	3.5
838.023	2.5
838.764	3.5
839.504	4.5
840.245	6.5
840.985	3.5
841.726	4.5
842.466	3.5
843.206	4.5
843.946	2.5
844.687	4.5
845.427	5.5
846.166	3.5
846.906	4.5
847.646	2.5
848.386	2.5
849.125	3.5
849.865	2.5
850.605	4.5
851.344	5.5
852.083	3.5
852.823	3.5
853.562	4.5
854.301	4.5
855.04	4.5
855.779	1.5
856.518	4.5
857.257	4.5
857.995	3.5
858.734	2.5
859.473	1.5
860.211	3.5
860.95	3.5
861.688	2.5
862.426	4.5
863.165	0.5
863.903	5.5
864.641	3.5
865.379	3.5
866.117	3.5
866.855	0.5
867.593	4.5
868.33	0.5
869.068	0.5
869.806	5.5
870.543	1.5
871.28	1.5
872.018	2.5
872.755	2.5
873.492	2.5
874.229	0.5
874.967	1.5
875.703	1.5
876.44	1.5
877.177	0.5
877.914	0.5
878.651	2.5
879.387	2.5
880.124	1.5
880.86	2.5
881.597	0.5
882.333	4.5
883.069	-0.5
883.806	1.5
884.542	2.5
885.278	1.5
886.014	0.5
886.749	0.5
887.485	0.5
888.221	1.5
888.957	0.5
889.692	1.5
890.428	2.5
891.163	0.5
891.899	0.5
892.634	-0.5
893.369	0.5
894.104	-0.5
894.839	2.5
895.574	1.5
896.309	0.5
897.044	0.5
897.779	0.5
898.514	0.5
899.248	1.5
899.983	1.5
900.717	0.5
901.452	-0.5
902.186	1.5
902.92	-0.5
903.654	2.5
904.389	0.5
905.123	-0.5
905.857	1.5
906.59	-0.5
907.324	0.5
908.058	2.5
908.792	2.5
909.525	0.5
910.259	0.5
910.992	1.5
911.726	2.5
912.459	-0.5
913.192	-2.5
913.925	2.5
914.658	0.5
915.391	-0.5
916.124	0.5
916.857	0.5
917.59	0.5
918.323	1.5
919.055	-1.5
919.788	0.5
920.521	0.5
921.253	1.5
921.985	1.5
922.718	-0.5
923.45	0.5
924.182	-0.5
924.914	0.5
925.646	0.5
926.378	0.5
927.11	1.5
927.841	0.5
928.573	-0.5
929.305	2.5
930.036	-2.5
930.768	1.5
931.499	0.5
932.23	-1.5
932.962	0.5
933.693	0.5
934.424	0.5
935.155	-0.5
935.886	0.5
936.617	0.5
937.348	0.5
938.078	0.5
938.809	0.5
939.54	1.5
940.27	0.5
941.001	1.5
941.731	1.5
942.461	-0.5
943.191	0.5
943.922	0.5
944.652	1.5
945.382	0.5
946.112	2.5
946.841	-1.5
947.571	0.5
948.301	-2.5
949.031	0.5
949.76	0.5
950.49	1.5
951.219	0.5
951.948	-2.5
952.678	1.5
953.407	-0.5
954.136	0.5
954.865	0.5
955.594	1.5
956.323	0.5
957.052	-0.5
957.78	0.5
958.509	-0.5
959.238	0.5
959.966	0.5
960.695	0.5
961.423	-0.5
962.151	0.5
962.88	-0.5
963.608	-1.5
964.336	0.5
965.064	-0.5
965.792	0.5
966.52	1.5
967.247	-0.5
967.975	0.5
968.703	0.5
969.43	1.5
970.158	1.5
970.885	0.5
971.613	1.5
972.34	-0.5
973.067	-0.5
973.794	-0.5
974.521	-0.5
975.248	-0.5
975.975	-2.5
976.702	-0.5
977.429	-2.5
978.156	0.5
978.882	0.5
979.609	0.5
980.335	-0.5
981.062	-1.5
981.788	0.5
982.514	-1.5
983.24	0.5
983.967	-0.5
984.693	-0.5
985.419	-0.5
986.144	-1.5
986.87	1.5
987.596	-2.5
988.322	0.5
989.047	1.5
989.773	2.5
990.498	-0.5
991.224	1.5
991.949	-2.5
992.674	-0.5
993.399	-0.5
994.124	3.5
994.849	-0.5
995.574	1.5
996.299	1.5
997.024	1.5
997.749	-0.5
998.473	0.5
999.198	-1.5
999.922	1.5
1000.647	-2.5
1001.371	2.5
1002.095	-2.5
1002.82	-1.5
1003.544	-0.5
1004.268	4.5
1004.992	2.5
1005.716	2.5
1006.439	2.5
1007.163	4.5
1007.887	4.5
1008.611	0.5
1009.334	0.5
1010.058	-2.5
1010.781	1.5
1011.504	-0.5
1012.228	0.5
1012.951	0.5
1013.674	1.5
1014.397	1.5
1015.12	-1.5
