节点500_565_QEPB04081__635__10-00-58-954.txt的数据

Date: Thu Nov 13 10:00:58 CST 2025
User: PC
Spectrometer: QEPB0408
触发模式: 0
积分时间 (秒): 1.000000E-2
Scans to average: 1
启用暗噪声校正: true
启用非线性校正: false
滑动平均宽度: 0
X轴模式: Wavelengths
Number of Pixels in Spectrum: 1044
>>>>>Begin Spectral Data<<<<<
220.843	4.38
221.644	4.38
222.444	5.38
223.244	5.38
224.045	6.38
224.845	5.38
225.645	4.38
226.445	6.38
227.245	5.38
228.045	6.38
228.845	5.38
229.645	7.38
230.444	5.38
231.244	4.38
232.043	5.38
232.843	7.38
233.642	7.38
234.442	7.38
235.241	7.38
236.04	7.38
236.839	7.38
237.638	8.38
238.437	9.38
239.236	9.38
240.035	7.38
240.833	7.38
241.632	7.38
242.43	10.38
243.229	7.38
244.027	11.38
244.826	8.38
245.624	11.38
246.422	9.38
247.22	9.38
248.018	10.38
248.816	12.38
249.614	12.38
250.412	10.38
251.21	10.38
252.007	9.38
252.805	14.38
253.602	12.38
254.4	12.38
255.197	15.38
255.994	11.38
256.791	14.38
257.589	16.38
258.386	14.38
259.183	15.38
259.979	17.38
260.776	14.38
261.573	16.38
262.37	19.38
263.166	17.38
263.963	20.38
264.759	17.38
265.556	21.38
266.352	17.38
267.148	19.38
267.944	23.38
268.74	20.38
269.536	20.38
270.332	22.38
271.128	23.38
271.924	21.38
272.719	24.38
273.515	26.38
274.311	21.38
275.106	25.38
275.901	26.38
276.697	26.38
277.492	25.38
278.287	25.38
279.082	24.38
279.877	25.38
280.672	29.38
281.467	26.38
282.262	28.38
283.056	25.38
283.851	26.38
284.646	24.38
285.44	27.38
286.234	25.38
287.029	26.38
287.823	28.38
288.617	24.38
289.411	23.38
290.205	25.38
290.999	25.38
291.793	24.38
292.587	27.38
293.381	25.38
294.174	24.38
294.968	25.38
295.761	25.38
296.555	21.38
297.348	23.38
298.141	20.38
298.935	24.38
299.728	21.38
300.521	20.38
301.314	22.38
302.107	19.38
302.899	22.38
303.692	19.38
304.485	21.38
305.277	18.38
306.07	17.38
306.862	18.38
307.655	19.38
308.447	16.38
309.239	18.38
310.031	19.38
310.823	16.38
311.615	16.38
312.407	13.38
313.199	16.38
313.991	17.38
314.783	12.38
315.574	14.38
316.366	15.38
317.157	11.38
317.949	11.38
318.74	14.38
319.531	13.38
320.322	11.38
321.113	13.38
321.904	14.38
322.695	11.38
323.486	11.38
324.277	10.38
325.068	12.38
325.858	13.38
326.649	12.38
327.439	10.38
328.23	9.38
329.02	8.38
329.81	9.38
330.6	11.38
331.391	8.38
332.181	9.38
332.971	7.38
333.76	10.38
334.55	9.38
335.34	10.38
336.13	11.38
336.919	9.38
337.709	11.38
338.498	9.38
339.287	12.38
340.077	10.38
340.866	12.38
341.655	9.38
342.444	9.38
343.233	11.38
344.022	9.38
344.811	10.38
345.6	9.38
346.388	10.38
347.177	11.38
347.965	9.38
348.754	10.38
349.542	9.38
350.33	10.38
351.119	11.38
351.907	11.38
352.695	9.38
353.483	10.38
354.271	8.38
355.059	8.38
355.846	8.38
356.634	10.38
357.422	7.38
358.209	9.38
358.997	8.38
359.784	10.38
360.571	8.38
361.359	10.38
362.146	6.38
362.933	11.38
363.72	8.38
364.507	7.38
365.294	8.38
366.081	7.38
366.867	7.38
367.654	5.38
368.44	8.38
369.227	9.38
370.013	8.38
370.8	8.38
371.586	7.38
372.372	12.38
373.158	8.38
373.944	8.38
374.73	6.38
375.516	10.38
376.302	8.38
377.088	7.38
377.873	7.38
378.659	9.38
379.445	8.38
380.23	7.38
381.015	9.38
381.801	9.38
382.586	7.38
383.371	8.38
384.156	9.38
384.941	8.38
385.726	11.38
386.511	7.38
387.296	10.38
388.08	6.38
388.865	10.38
389.649	6.38
390.434	11.38
391.218	8.38
392.003	10.38
392.787	11.38
393.571	11.38
394.355	10.38
395.139	10.38
395.923	10.38
396.707	11.38
397.491	10.38
398.274	10.38
399.058	10.38
399.842	9.38
400.625	11.38
401.408	15.38
402.192	13.38
402.975	12.38
403.758	11.38
404.541	15.38
405.324	11.38
406.107	12.38
406.89	12.38
407.673	9.38
408.456	15.38
409.238	13.38
410.021	13.38
410.803	12.38
411.586	12.38
412.368	13.38
413.151	13.38
413.933	16.38
414.715	13.38
415.497	13.38
416.279	14.38
417.061	14.38
417.843	15.38
418.624	17.38
419.406	16.38
420.188	17.38
420.969	17.38
421.751	18.38
422.532	17.38
423.313	17.38
424.095	16.38
424.876	19.38
425.657	19.38
426.438	19.38
427.219	19.38
428	20.38
428.78	22.38
429.561	25.38
430.342	25.38
431.122	27.38
431.903	28.38
432.683	29.38
433.464	29.38
434.244	29.38
435.024	32.38
435.804	33.38
436.584	33.38
437.364	37.38
438.144	39.38
438.924	42.38
439.704	42.38
440.483	46.38
441.263	50.38
442.042	51.38
442.822	56.38
443.601	58.38
444.38	70.38
445.16	72.38
445.939	75.38
446.718	82.38
447.497	91.38
448.276	103.38
449.054	109.38
449.833	122.38
450.612	134.38
451.391	144.38
452.169	161.38
452.948	171.38
453.726	193.38
454.504	211.38
455.282	242.38
456.061	261.38
456.839	294.38
457.617	326.38
458.395	364.38
459.172	405.38
459.95	455.38
460.728	504.38
461.506	567.38
462.283	617.38
463.061	697.38
463.838	769.38
464.615	855.38
465.393	949.38
466.17	1042.38
466.947	1163.38
467.724	1281.38
468.501	1413.38
469.278	1567.38
470.055	1720.38
470.831	1893.38
471.608	2083.38
472.385	2288.38
473.161	2523.38
473.938	2762.38
474.714	3031.38
475.49	3284.38
476.266	3617.38
477.043	3935.38
477.819	4289.38
478.595	4679.38
479.371	5088.38
480.146	5565.38
480.922	6030.38
481.698	6562.38
482.473	7040.38
483.249	7669.38
484.024	8276.38
484.8	9023.38
485.575	9787.38
486.35	10511.38
487.126	11377.38
487.901	12251.38
488.676	13239.38
489.451	14270.38
490.225	15349.38
491	16494.38
491.775	17636.38
492.55	18865.38
493.324	20157.38
494.099	21487.38
494.873	22805.38
495.647	24257.38
496.422	25767.38
497.196	27001.38
497.97	28514.38
498.744	29796.38
499.518	31150.38
500.292	32421.38
501.066	33557.38
501.839	34621.38
502.613	35669.38
503.387	36411.38
504.16	37134.38
504.934	37571.38
505.707	37962.38
506.48	38154.38
507.253	38037.38
508.027	37807.38
508.8	37446.38
509.573	37045.38
510.346	36265.38
511.118	35416.38
511.891	34658.38
512.664	33708.38
513.437	32714.38
514.209	31669.38
514.982	30544.38
515.754	29433.38
516.526	28326.38
517.298	27180.38
518.071	26089.38
518.843	25050.38
519.615	24055.38
520.387	23093.38
521.159	22261.38
521.93	21377.38
522.702	20487.38
523.474	19710.38
524.245	18909.38
525.017	18181.38
525.788	17383.38
526.56	16701.38
527.331	16025.38
528.102	15301.38
528.873	14527.38
529.644	13883.38
530.415	13196.38
531.186	12553.38
531.957	11963.38
532.728	11435.38
533.498	10853.38
534.269	10297.38
535.039	9728.38
535.81	9235.38
536.58	8742.38
537.351	8288.38
538.121	7821.38
538.891	7421.38
539.661	7043.38
540.431	6641.38
541.201	6276.38
541.971	5971.38
542.741	5655.38
543.51	5366.38
544.28	5093.38
545.05	4830.38
545.819	4613.38
546.588	4371.38
547.358	4148.38
548.127	3970.38
548.896	3780.38
549.665	3617.38
550.434	3397.38
551.203	3243.38
551.972	3075.38
552.741	2906.38
553.51	2770.38
554.278	2611.38
555.047	2444.38
555.815	2341.38
556.584	2216.38
557.352	2098.38
558.121	1982.38
558.889	1847.38
559.657	1750.38
560.425	1643.38
561.193	1573.38
561.961	1502.38
562.729	1405.38
563.496	1328.38
564.264	1269.38
565.032	1194.38
565.799	1136.38
566.567	1062.38
567.334	1003.38
568.101	950.38
568.869	895.38
569.636	858.38
570.403	813.38
571.17	759.38
571.937	719.38
572.704	676.38
573.471	642.38
574.237	596.38
575.004	564.38
575.771	531.38
576.537	506.38
577.303	473.38
578.07	450.38
578.836	421.38
579.602	404.38
580.368	389.38
581.134	367.38
581.9	347.38
582.666	330.38
583.432	308.38
584.198	285.38
584.964	284.38
585.729	261.38
586.495	249.38
587.26	242.38
588.025	224.38
588.791	217.38
589.556	197.38
590.321	197.38
591.086	180.38
591.851	177.38
592.616	163.38
593.381	156.38
594.146	147.38
594.911	143.38
595.675	134.38
596.44	127.38
597.204	123.38
597.969	112.38
598.733	112.38
599.497	106.38
600.261	105.38
601.025	97.38
601.79	95.38
602.553	88.38
603.317	90.38
604.081	82.38
604.845	81.38
605.609	71.38
606.372	70.38
607.136	71.38
607.899	72.38
608.662	62.38
609.426	63.38
610.189	62.38
610.952	54.38
611.715	61.38
612.478	52.38
613.241	55.38
614.004	52.38
614.767	46.38
615.529	47.38
616.292	44.38
617.055	43.38
617.817	41.38
618.579	42.38
619.342	42.38
620.104	39.38
620.866	37.38
621.628	35.38
622.39	36.38
623.152	33.38
623.914	33.38
624.676	31.38
625.438	28.38
626.199	30.38
626.961	27.38
627.722	27.38
628.484	27.38
629.245	27.38
630.006	24.38
630.768	25.38
631.529	21.38
632.29	24.38
633.051	22.38
633.812	19.38
634.573	19.38
635.333	19.38
636.094	19.38
636.855	19.38
637.615	19.38
638.376	19.38
639.136	17.38
639.896	17.38
640.657	16.38
641.417	17.38
642.177	15.38
642.937	18.38
643.697	17.38
644.457	13.38
645.216	14.38
645.976	14.38
646.736	15.38
647.495	14.38
648.255	16.38
649.014	13.38
649.774	14.38
650.533	12.38
651.292	12.38
652.051	13.38
652.81	12.38
653.569	9.38
654.328	9.38
655.087	11.38
655.846	11.38
656.604	9.38
657.363	8.38
658.121	12.38
658.88	12.38
659.638	9.38
660.397	12.38
661.155	12.38
661.913	5.38
662.671	8.38
663.429	11.38
664.187	9.38
664.945	10.38
665.703	9.38
666.46	11.38
667.218	8.38
667.976	8.38
668.733	7.38
669.49	8.38
670.248	9.38
671.005	8.38
671.762	7.38
672.519	8.38
673.276	6.38
674.033	8.38
674.79	7.38
675.547	6.38
676.304	7.38
677.06	9.38
677.817	7.38
678.574	7.38
679.33	6.38
680.086	7.38
680.843	8.38
681.599	5.38
682.355	7.38
683.111	8.38
683.867	9.38
684.623	7.38
685.379	9.38
686.135	8.38
686.89	8.38
687.646	8.38
688.402	7.38
689.157	9.38
689.912	5.38
690.668	8.38
691.423	7.38
692.178	5.38
692.933	6.38
693.688	5.38
694.443	5.38
695.198	5.38
695.953	5.38
696.708	5.38
697.462	6.38
698.217	4.38
698.972	5.38
699.726	6.38
700.48	7.38
701.235	6.38
701.989	5.38
702.743	6.38
703.497	6.38
704.251	6.38
705.005	7.38
705.759	5.38
706.513	6.38
707.266	5.38
708.02	8.38
708.774	6.38
709.527	7.38
710.28	5.38
711.034	8.38
711.787	7.38
712.54	3.38
713.293	8.38
714.046	4.38
714.799	8.38
715.552	7.38
716.305	8.38
717.058	5.38
717.81	7.38
718.563	7.38
719.315	4.38
720.068	7.38
720.82	5.38
721.573	7.38
722.325	5.38
723.077	6.38
723.829	8.38
724.581	3.38
725.333	8.38
726.085	9.38
726.836	7.38
727.588	6.38
728.34	5.38
729.091	9.38
729.843	5.38
730.594	6.38
731.346	6.38
732.097	8.38
732.848	4.38
733.599	8.38
734.35	8.38
735.101	7.38
735.852	6.38
736.603	8.38
737.354	9.38
738.104	6.38
738.855	6.38
739.605	5.38
740.356	6.38
741.106	8.38
741.856	8.38
742.607	8.38
743.357	7.38
744.107	7.38
744.857	7.38
745.607	9.38
746.357	7.38
747.106	8.38
747.856	6.38
748.606	8.38
749.355	7.38
750.105	9.38
750.854	6.38
751.603	7.38
752.353	5.38
753.102	10.38
753.851	9.38
754.6	9.38
755.349	7.38
756.098	9.38
756.847	10.38
757.595	9.38
758.344	11.38
759.093	8.38
759.841	12.38
760.589	10.38
761.338	9.38
762.086	9.38
762.834	9.38
763.582	15.38
764.331	9.38
765.079	10.38
765.826	10.38
766.574	11.38
767.322	11.38
768.07	8.38
768.817	10.38
769.565	11.38
770.312	11.38
771.06	10.38
771.807	11.38
772.554	13.38
773.302	9.38
774.049	11.38
774.796	8.38
775.543	9.38
776.29	11.38
777.036	11.38
777.783	14.38
778.53	12.38
779.276	13.38
780.023	13.38
780.769	10.38
781.516	14.38
782.262	12.38
783.008	10.38
783.754	14.38
784.5	14.38
785.246	12.38
785.992	11.38
786.738	12.38
787.484	15.38
788.23	12.38
788.975	12.38
789.721	12.38
790.466	9.38
791.212	14.38
791.957	12.38
792.702	11.38
793.447	12.38
794.193	13.38
794.938	12.38
795.683	9.38
796.427	11.38
797.172	9.38
797.917	12.38
798.662	11.38
799.406	12.38
800.151	9.38
800.895	9.38
801.64	9.38
802.384	9.38
803.128	10.38
803.872	10.38
804.616	11.38
805.36	10.38
806.104	10.38
806.848	11.38
807.592	9.38
808.336	9.38
809.079	9.38
809.823	9.38
810.566	8.38
811.31	7.38
812.053	7.38
812.796	6.38
813.539	9.38
814.283	6.38
815.026	6.38
815.769	7.38
816.511	8.38
817.254	5.38
817.997	7.38
818.74	7.38
819.482	7.38
820.225	7.38
820.967	6.38
821.71	7.38
822.452	9.38
823.194	5.38
823.936	6.38
824.678	6.38
825.42	8.38
826.162	5.38
826.904	7.38
827.646	6.38
828.388	4.38
829.129	7.38
829.871	3.38
830.612	3.38
831.354	5.38
832.095	5.38
832.836	5.38
833.577	2.38
834.319	6.38
835.06	4.38
835.801	4.38
836.542	6.38
837.282	5.38
838.023	6.38
838.764	6.38
839.504	5.38
840.245	7.38
840.985	6.38
841.726	4.38
842.466	3.38
843.206	6.38
843.946	5.38
844.687	4.38
845.427	5.38
846.166	5.38
846.906	5.38
847.646	4.38
848.386	4.38
849.125	2.38
849.865	5.38
850.605	3.38
851.344	4.38
852.083	6.38
852.823	7.38
853.562	7.38
854.301	3.38
855.04	4.38
855.779	4.38
856.518	5.38
857.257	3.38
857.995	4.38
858.734	3.38
859.473	3.38
860.211	4.38
860.95	3.38
861.688	2.38
862.426	3.38
863.165	4.38
863.903	2.38
864.641	1.38
865.379	3.38
866.117	0.38
866.855	2.38
867.593	0.38
868.33	3.38
869.068	0.38
869.806	3.38
870.543	2.38
871.28	1.38
872.018	2.38
872.755	2.38
873.492	3.38
874.229	3.38
874.967	-0.62
875.703	1.38
876.44	3.38
877.177	1.38
877.914	0.38
878.651	2.38
879.387	-0.62
880.124	2.38
880.86	3.38
881.597	1.38
882.333	4.38
883.069	1.38
883.806	1.38
884.542	0.38
885.278	3.38
886.014	2.38
886.749	0.38
887.485	4.38
888.221	3.38
888.957	3.38
889.692	2.38
890.428	0.38
891.163	2.38
891.899	1.38
892.634	1.38
893.369	1.38
894.104	-0.62
894.839	-1.62
895.574	0.38
896.309	2.38
897.044	-0.62
897.779	1.38
898.514	-1.62
899.248	-0.62
899.983	1.38
900.717	3.38
901.452	0.38
902.186	1.38
902.92	1.38
903.654	-0.62
904.389	1.38
905.123	1.38
905.857	3.38
906.59	2.38
907.324	1.38
908.058	2.38
908.792	1.38
909.525	1.38
910.259	3.38
910.992	1.38
911.726	3.38
912.459	2.38
913.192	1.38
913.925	2.38
914.658	2.38
915.391	-0.62
916.124	0.38
916.857	3.38
917.59	2.38
918.323	1.38
919.055	0.38
919.788	1.38
920.521	1.38
921.253	1.38
921.985	4.38
922.718	1.38
923.45	0.38
924.182	0.38
924.914	0.38
925.646	0.38
926.378	2.38
927.11	-0.62
927.841	0.38
928.573	1.38
929.305	1.38
930.036	0.38
930.768	-1.62
931.499	0.38
932.23	1.38
932.962	0.38
933.693	0.38
934.424	1.38
935.155	1.38
935.886	0.38
936.617	1.38
937.348	-0.62
938.078	-1.62
938.809	0.38
939.54	-0.62
940.27	1.38
941.001	2.38
941.731	2.38
942.461	0.38
943.191	0.38
943.922	1.38
944.652	1.38
945.382	2.38
946.112	-1.62
946.841	-0.62
947.571	0.38
948.301	1.38
949.031	1.38
949.76	0.38
950.49	1.38
951.219	1.38
951.948	3.38
952.678	0.38
953.407	1.38
954.136	1.38
954.865	1.38
955.594	-0.62
956.323	-0.62
957.052	0.38
957.78	-0.62
958.509	0.38
959.238	-0.62
959.966	2.38
960.695	1.38
961.423	0.38
962.151	1.38
962.88	1.38
963.608	1.38
964.336	1.38
965.064	1.38
965.792	2.38
966.52	-0.62
967.247	-1.62
967.975	-1.62
968.703	2.38
969.43	0.38
970.158	1.38
970.885	-0.62
971.613	1.38
972.34	1.38
973.067	-1.62
973.794	-0.62
974.521	2.38
975.248	-0.62
975.975	1.38
976.702	-2.62
977.429	0.38
978.156	-0.62
978.882	0.38
979.609	-0.62
980.335	1.38
981.062	0.38
981.788	0.38
982.514	1.38
983.24	0.38
983.967	0.38
984.693	0.38
985.419	-1.62
986.144	1.38
986.87	2.38
987.596	2.38
988.322	-0.62
989.047	0.38
989.773	-0.62
990.498	1.38
991.224	-1.62
991.949	2.38
992.674	1.38
993.399	0.38
994.124	-2.62
994.849	0.38
995.574	-0.62
996.299	-0.62
997.024	0.38
997.749	2.38
998.473	1.38
999.198	1.38
999.922	-0.62
1000.647	2.38
1001.371	3.38
1002.095	-1.62
1002.82	1.38
1003.544	-1.62
1004.268	5.38
1004.992	3.38
1005.716	5.38
1006.439	3.38
1007.163	4.38
1007.887	3.38
1008.611	0.38
1009.334	0.38
1010.058	1.38
1010.781	0.38
1011.504	0.38
1012.228	1.38
1012.951	0.38
1013.674	-0.62
1014.397	-0.62
1015.12	-0.62
