节点500_565_QEPB04081__578__10-00-01-986.txt的数据

Date: Thu Nov 13 10:00:01 CST 2025
User: PC
Spectrometer: QEPB0408
触发模式: 0
积分时间 (秒): 1.000000E-2
Scans to average: 1
启用暗噪声校正: true
启用非线性校正: false
滑动平均宽度: 0
X轴模式: Wavelengths
Number of Pixels in Spectrum: 1044
>>>>>Begin Spectral Data<<<<<
220.843	2.88
221.644	0.88
222.444	3.88
223.244	4.88
224.045	4.88
224.845	4.88
225.645	4.88
226.445	4.88
227.245	4.88
228.045	4.88
228.845	6.88
229.645	5.88
230.444	6.88
231.244	6.88
232.043	7.88
232.843	8.88
233.642	8.88
234.442	5.88
235.241	4.88
236.04	6.88
236.839	4.88
237.638	5.88
238.437	6.88
239.236	9.88
240.035	8.88
240.833	9.88
241.632	10.88
242.43	10.88
243.229	9.88
244.027	9.88
244.826	8.88
245.624	8.88
246.422	9.88
247.22	12.88
248.018	8.88
248.816	12.88
249.614	10.88
250.412	9.88
251.21	13.88
252.007	13.88
252.805	13.88
253.602	13.88
254.4	13.88
255.197	12.88
255.994	15.88
256.791	16.88
257.589	14.88
258.386	15.88
259.183	15.88
259.979	15.88
260.776	17.88
261.573	16.88
262.37	16.88
263.166	18.88
263.963	17.88
264.759	14.88
265.556	20.88
266.352	20.88
267.148	20.88
267.944	18.88
268.74	21.88
269.536	20.88
270.332	19.88
271.128	25.88
271.924	19.88
272.719	20.88
273.515	22.88
274.311	26.88
275.106	23.88
275.901	27.88
276.697	25.88
277.492	25.88
278.287	26.88
279.082	25.88
279.877	26.88
280.672	27.88
281.467	24.88
282.262	25.88
283.056	24.88
283.851	25.88
284.646	25.88
285.44	24.88
286.234	25.88
287.029	26.88
287.823	26.88
288.617	24.88
289.411	25.88
290.205	22.88
290.999	24.88
291.793	27.88
292.587	24.88
293.381	23.88
294.174	22.88
294.968	22.88
295.761	23.88
296.555	21.88
297.348	22.88
298.141	20.88
298.935	23.88
299.728	18.88
300.521	22.88
301.314	18.88
302.107	20.88
302.899	18.88
303.692	15.88
304.485	18.88
305.277	20.88
306.07	17.88
306.862	15.88
307.655	16.88
308.447	17.88
309.239	14.88
310.031	17.88
310.823	16.88
311.615	12.88
312.407	14.88
313.199	14.88
313.991	14.88
314.783	13.88
315.574	12.88
316.366	12.88
317.157	13.88
317.949	10.88
318.74	11.88
319.531	11.88
320.322	13.88
321.113	10.88
321.904	12.88
322.695	13.88
323.486	10.88
324.277	13.88
325.068	10.88
325.858	12.88
326.649	12.88
327.439	8.88
328.23	8.88
329.02	8.88
329.81	9.88
330.6	11.88
331.391	10.88
332.181	9.88
332.971	8.88
333.76	11.88
334.55	9.88
335.34	8.88
336.13	9.88
336.919	9.88
337.709	9.88
338.498	11.88
339.287	6.88
340.077	7.88
340.866	9.88
341.655	9.88
342.444	9.88
343.233	10.88
344.022	8.88
344.811	11.88
345.6	8.88
346.388	9.88
347.177	9.88
347.965	10.88
348.754	9.88
349.542	8.88
350.33	10.88
351.119	7.88
351.907	12.88
352.695	8.88
353.483	5.88
354.271	9.88
355.059	8.88
355.846	8.88
356.634	6.88
357.422	7.88
358.209	9.88
358.997	10.88
359.784	8.88
360.571	8.88
361.359	9.88
362.146	6.88
362.933	7.88
363.72	9.88
364.507	6.88
365.294	6.88
366.081	8.88
366.867	4.88
367.654	8.88
368.44	8.88
369.227	7.88
370.013	8.88
370.8	6.88
371.586	5.88
372.372	7.88
373.158	6.88
373.944	7.88
374.73	7.88
375.516	4.88
376.302	8.88
377.088	8.88
377.873	5.88
378.659	8.88
379.445	7.88
380.23	7.88
381.015	7.88
381.801	7.88
382.586	8.88
383.371	8.88
384.156	7.88
384.941	6.88
385.726	8.88
386.511	8.88
387.296	5.88
388.08	10.88
388.865	8.88
389.649	9.88
390.434	8.88
391.218	10.88
392.003	7.88
392.787	8.88
393.571	9.88
394.355	10.88
395.139	12.88
395.923	9.88
396.707	8.88
397.491	10.88
398.274	10.88
399.058	11.88
399.842	10.88
400.625	11.88
401.408	10.88
402.192	10.88
402.975	10.88
403.758	10.88
404.541	15.88
405.324	11.88
406.107	13.88
406.89	9.88
407.673	12.88
408.456	11.88
409.238	10.88
410.021	12.88
410.803	14.88
411.586	14.88
412.368	11.88
413.151	13.88
413.933	11.88
414.715	13.88
415.497	14.88
416.279	13.88
417.061	13.88
417.843	17.88
418.624	13.88
419.406	15.88
420.188	16.88
420.969	19.88
421.751	17.88
422.532	18.88
423.313	17.88
424.095	18.88
424.876	16.88
425.657	16.88
426.438	20.88
427.219	19.88
428	22.88
428.78	23.88
429.561	23.88
430.342	24.88
431.122	24.88
431.903	26.88
432.683	25.88
433.464	26.88
434.244	26.88
435.024	32.88
435.804	33.88
436.584	29.88
437.364	37.88
438.144	37.88
438.924	42.88
439.704	40.88
440.483	47.88
441.263	49.88
442.042	53.88
442.822	54.88
443.601	58.88
444.38	64.88
445.16	67.88
445.939	79.88
446.718	79.88
447.497	91.88
448.276	98.88
449.054	106.88
449.833	117.88
450.612	130.88
451.391	144.88
452.169	157.88
452.948	171.88
453.726	191.88
454.504	212.88
455.282	235.88
456.061	264.88
456.839	293.88
457.617	322.88
458.395	359.88
459.172	406.88
459.95	455.88
460.728	505.88
461.506	560.88
462.283	616.88
463.061	682.88
463.838	764.88
464.615	850.88
465.393	943.88
466.17	1028.88
466.947	1135.88
467.724	1275.88
468.501	1419.88
469.278	1558.88
470.055	1725.88
470.831	1897.88
471.608	2082.88
472.385	2288.88
473.161	2519.88
473.938	2785.88
474.714	3023.88
475.49	3300.88
476.266	3589.88
477.043	3959.88
477.819	4334.88
478.595	4710.88
479.371	5122.88
480.146	5572.88
480.922	6058.88
481.698	6557.88
482.473	7103.88
483.249	7683.88
484.024	8343.88
484.8	9039.88
485.575	9798.88
486.35	10530.88
487.126	11394.88
487.901	12322.88
488.676	13289.88
489.451	14372.88
490.225	15402.88
491	16522.88
491.775	17689.88
492.55	18967.88
493.324	20309.88
494.099	21584.88
494.873	22979.88
495.647	24409.88
496.422	25821.88
497.196	27238.88
497.97	28626.88
498.744	30002.88
499.518	31388.88
500.292	32612.88
501.066	33800.88
501.839	34814.88
502.613	35754.88
503.387	36576.88
504.16	37265.88
504.934	37703.88
505.707	38119.88
506.48	38238.88
507.253	38120.88
508.027	37871.88
508.8	37500.88
509.573	37046.88
510.346	36251.88
511.118	35459.88
511.891	34739.88
512.664	33747.88
513.437	32710.88
514.209	31580.88
514.982	30551.88
515.754	29480.88
516.526	28268.88
517.298	27138.88
518.071	26141.88
518.843	25088.88
519.615	24011.88
520.387	23095.88
521.159	22222.88
521.93	21367.88
522.702	20478.88
523.474	19648.88
524.245	18874.88
525.017	18110.88
525.788	17392.88
526.56	16668.88
527.331	15941.88
528.102	15262.88
528.873	14559.88
529.644	13850.88
530.415	13193.88
531.186	12555.88
531.957	11931.88
532.728	11360.88
533.498	10858.88
534.269	10235.88
535.039	9663.88
535.81	9171.88
536.58	8698.88
537.351	8222.88
538.121	7799.88
538.891	7401.88
539.661	7003.88
540.431	6633.88
541.201	6292.88
541.971	5959.88
542.741	5646.88
543.51	5338.88
544.28	5074.88
545.05	4822.88
545.819	4614.88
546.588	4364.88
547.358	4183.88
548.127	3932.88
548.896	3732.88
549.665	3586.88
550.434	3396.88
551.203	3225.88
551.972	3071.88
552.741	2915.88
553.51	2730.88
554.278	2590.88
555.047	2441.88
555.815	2309.88
556.584	2197.88
557.352	2079.88
558.121	1967.88
558.889	1839.88
559.657	1745.88
560.425	1661.88
561.193	1585.88
561.961	1510.88
562.729	1400.88
563.496	1329.88
564.264	1239.88
565.032	1190.88
565.799	1129.88
566.567	1067.88
567.334	1002.88
568.101	953.88
568.869	888.88
569.636	845.88
570.403	801.88
571.17	759.88
571.937	710.88
572.704	676.88
573.471	632.88
574.237	591.88
575.004	559.88
575.771	533.88
576.537	508.88
577.303	473.88
578.07	442.88
578.836	421.88
579.602	397.88
580.368	377.88
581.134	357.88
581.9	339.88
582.666	333.88
583.432	303.88
584.198	286.88
584.964	279.88
585.729	260.88
586.495	253.88
587.26	232.88
588.025	223.88
588.791	210.88
589.556	198.88
590.321	188.88
591.086	182.88
591.851	174.88
592.616	161.88
593.381	153.88
594.146	146.88
594.911	141.88
595.675	134.88
596.44	129.88
597.204	128.88
597.969	116.88
598.733	113.88
599.497	106.88
600.261	103.88
601.025	95.88
601.79	90.88
602.553	90.88
603.317	82.88
604.081	80.88
604.845	79.88
605.609	77.88
606.372	74.88
607.136	69.88
607.899	70.88
608.662	60.88
609.426	62.88
610.189	59.88
610.952	57.88
611.715	53.88
612.478	54.88
613.241	48.88
614.004	50.88
614.767	45.88
615.529	45.88
616.292	42.88
617.055	44.88
617.817	39.88
618.579	39.88
619.342	40.88
620.104	36.88
620.866	36.88
621.628	33.88
622.39	34.88
623.152	30.88
623.914	32.88
624.676	29.88
625.438	32.88
626.199	27.88
626.961	26.88
627.722	27.88
628.484	24.88
629.245	22.88
630.006	21.88
630.768	23.88
631.529	24.88
632.29	23.88
633.051	21.88
633.812	20.88
634.573	21.88
635.333	16.88
636.094	18.88
636.855	21.88
637.615	17.88
638.376	16.88
639.136	15.88
639.896	18.88
640.657	13.88
641.417	15.88
642.177	14.88
642.937	15.88
643.697	16.88
644.457	12.88
645.216	16.88
645.976	17.88
646.736	12.88
647.495	11.88
648.255	12.88
649.014	14.88
649.774	10.88
650.533	9.88
651.292	10.88
652.051	13.88
652.81	8.88
653.569	10.88
654.328	7.88
655.087	10.88
655.846	9.88
656.604	8.88
657.363	10.88
658.121	9.88
658.88	9.88
659.638	9.88
660.397	10.88
661.155	6.88
661.913	8.88
662.671	4.88
663.429	8.88
664.187	8.88
664.945	8.88
665.703	8.88
666.46	10.88
667.218	6.88
667.976	7.88
668.733	8.88
669.49	5.88
670.248	7.88
671.005	8.88
671.762	5.88
672.519	6.88
673.276	8.88
674.033	5.88
674.79	8.88
675.547	6.88
676.304	7.88
677.06	6.88
677.817	5.88
678.574	5.88
679.33	6.88
680.086	6.88
680.843	5.88
681.599	7.88
682.355	7.88
683.111	6.88
683.867	6.88
684.623	5.88
685.379	5.88
686.135	5.88
686.89	8.88
687.646	3.88
688.402	8.88
689.157	6.88
689.912	6.88
690.668	5.88
691.423	6.88
692.178	5.88
692.933	4.88
693.688	7.88
694.443	5.88
695.198	7.88
695.953	5.88
696.708	4.88
697.462	6.88
698.217	6.88
698.972	6.88
699.726	4.88
700.48	5.88
701.235	6.88
701.989	4.88
702.743	5.88
703.497	6.88
704.251	4.88
705.005	6.88
705.759	4.88
706.513	6.88
707.266	3.88
708.02	7.88
708.774	5.88
709.527	5.88
710.28	6.88
711.034	5.88
711.787	5.88
712.54	5.88
713.293	5.88
714.046	3.88
714.799	6.88
715.552	5.88
716.305	6.88
717.058	6.88
717.81	6.88
718.563	6.88
719.315	5.88
720.068	6.88
720.82	8.88
721.573	5.88
722.325	5.88
723.077	7.88
723.829	4.88
724.581	8.88
725.333	4.88
726.085	6.88
726.836	5.88
727.588	7.88
728.34	5.88
729.091	8.88
729.843	4.88
730.594	9.88
731.346	2.88
732.097	8.88
732.848	7.88
733.599	6.88
734.35	7.88
735.101	4.88
735.852	7.88
736.603	6.88
737.354	4.88
738.104	6.88
738.855	7.88
739.605	8.88
740.356	6.88
741.106	6.88
741.856	6.88
742.607	9.88
743.357	7.88
744.107	7.88
744.857	7.88
745.607	6.88
746.357	5.88
747.106	8.88
747.856	8.88
748.606	9.88
749.355	8.88
750.105	8.88
750.854	8.88
751.603	9.88
752.353	6.88
753.102	8.88
753.851	8.88
754.6	7.88
755.349	8.88
756.098	9.88
756.847	8.88
757.595	8.88
758.344	7.88
759.093	8.88
759.841	8.88
760.589	7.88
761.338	8.88
762.086	10.88
762.834	6.88
763.582	9.88
764.331	7.88
765.079	9.88
765.826	9.88
766.574	8.88
767.322	11.88
768.07	11.88
768.817	11.88
769.565	11.88
770.312	12.88
771.06	9.88
771.807	10.88
772.554	10.88
773.302	10.88
774.049	10.88
774.796	10.88
775.543	14.88
776.29	14.88
777.036	10.88
777.783	9.88
778.53	10.88
779.276	11.88
780.023	11.88
780.769	11.88
781.516	13.88
782.262	12.88
783.008	11.88
783.754	9.88
784.5	13.88
785.246	10.88
785.992	13.88
786.738	11.88
787.484	13.88
788.23	11.88
788.975	10.88
789.721	12.88
790.466	8.88
791.212	12.88
791.957	11.88
792.702	14.88
793.447	11.88
794.193	7.88
794.938	11.88
795.683	12.88
796.427	12.88
797.172	12.88
797.917	8.88
798.662	10.88
799.406	10.88
800.151	10.88
800.895	10.88
801.64	9.88
802.384	5.88
803.128	8.88
803.872	9.88
804.616	9.88
805.36	9.88
806.104	9.88
806.848	8.88
807.592	8.88
808.336	8.88
809.079	8.88
809.823	9.88
810.566	5.88
811.31	9.88
812.053	7.88
812.796	6.88
813.539	5.88
814.283	5.88
815.026	7.88
815.769	8.88
816.511	5.88
817.254	9.88
817.997	6.88
818.74	7.88
819.482	6.88
820.225	7.88
820.967	7.88
821.71	6.88
822.452	5.88
823.194	4.88
823.936	5.88
824.678	4.88
825.42	5.88
826.162	4.88
826.904	4.88
827.646	4.88
828.388	2.88
829.129	5.88
829.871	4.88
830.612	7.88
831.354	4.88
832.095	4.88
832.836	5.88
833.577	4.88
834.319	5.88
835.06	5.88
835.801	6.88
836.542	6.88
837.282	4.88
838.023	4.88
838.764	3.88
839.504	4.88
840.245	4.88
840.985	4.88
841.726	4.88
842.466	6.88
843.206	4.88
843.946	2.88
844.687	3.88
845.427	4.88
846.166	2.88
846.906	4.88
847.646	3.88
848.386	4.88
849.125	3.88
849.865	4.88
850.605	6.88
851.344	3.88
852.083	2.88
852.823	3.88
853.562	5.88
854.301	3.88
855.04	2.88
855.779	2.88
856.518	2.88
857.257	4.88
857.995	3.88
858.734	2.88
859.473	1.88
860.211	3.88
860.95	3.88
861.688	3.88
862.426	2.88
863.165	2.88
863.903	3.88
864.641	3.88
865.379	0.88
866.117	1.88
866.855	4.88
867.593	2.88
868.33	2.88
869.068	-0.12
869.806	2.88
870.543	3.88
871.28	1.88
872.018	2.88
872.755	3.88
873.492	0.88
874.229	5.88
874.967	1.88
875.703	1.88
876.44	2.88
877.177	1.88
877.914	-0.12
878.651	2.88
879.387	1.88
880.124	0.88
880.86	3.88
881.597	2.88
882.333	0.88
883.069	0.88
883.806	3.88
884.542	2.88
885.278	2.88
886.014	0.88
886.749	0.88
887.485	1.88
888.221	-1.12
888.957	1.88
889.692	1.88
890.428	2.88
891.163	1.88
891.899	3.88
892.634	0.88
893.369	-0.12
894.104	2.88
894.839	1.88
895.574	0.88
896.309	1.88
897.044	2.88
897.779	-0.12
898.514	0.88
899.248	1.88
899.983	0.88
900.717	0.88
901.452	0.88
902.186	0.88
902.92	0.88
903.654	1.88
904.389	-0.12
905.123	-1.12
905.857	1.88
906.59	1.88
907.324	-1.12
908.058	0.88
908.792	0.88
909.525	-2.12
910.259	-1.12
910.992	-0.12
911.726	2.88
912.459	-0.12
913.192	0.88
913.925	-0.12
914.658	1.88
915.391	-0.12
916.124	-0.12
916.857	0.88
917.59	2.88
918.323	0.88
919.055	1.88
919.788	2.88
920.521	-0.12
921.253	0.88
921.985	-0.12
922.718	-0.12
923.45	0.88
924.182	0.88
924.914	-0.12
925.646	-1.12
926.378	1.88
927.11	-1.12
927.841	0.88
928.573	-1.12
929.305	2.88
930.036	0.88
930.768	1.88
931.499	2.88
932.23	0.88
932.962	2.88
933.693	-2.12
934.424	0.88
935.155	0.88
935.886	-0.12
936.617	0.88
937.348	1.88
938.078	2.88
938.809	-1.12
939.54	-2.12
940.27	2.88
941.001	-0.12
941.731	-2.12
942.461	-1.12
943.191	-0.12
943.922	-0.12
944.652	-1.12
945.382	-1.12
946.112	1.88
946.841	1.88
947.571	-2.12
948.301	2.88
949.031	1.88
949.76	1.88
950.49	-0.12
951.219	0.88
951.948	-0.12
952.678	-1.12
953.407	-1.12
954.136	-2.12
954.865	-0.12
955.594	-1.12
956.323	-0.12
957.052	-0.12
957.78	0.88
958.509	1.88
959.238	-0.12
959.966	1.88
960.695	0.88
961.423	0.88
962.151	-1.12
962.88	-0.12
963.608	-0.12
964.336	0.88
965.064	0.88
965.792	0.88
966.52	0.88
967.247	-0.12
967.975	0.88
968.703	0.88
969.43	-1.12
970.158	1.88
970.885	0.88
971.613	0.88
972.34	-0.12
973.067	0.88
973.794	1.88
974.521	0.88
975.248	-0.12
975.975	-0.12
976.702	0.88
977.429	-2.12
978.156	0.88
978.882	1.88
979.609	-1.12
980.335	-0.12
981.062	-1.12
981.788	0.88
982.514	0.88
983.24	0.88
983.967	0.88
984.693	0.88
985.419	0.88
986.144	-0.12
986.87	0.88
987.596	-0.12
988.322	-1.12
989.047	1.88
989.773	-0.12
990.498	0.88
991.224	-2.12
991.949	0.88
992.674	-0.12
993.399	0.88
994.124	1.88
994.849	-0.12
995.574	0.88
996.299	0.88
997.024	0.88
997.749	-2.12
998.473	0.88
999.198	1.88
999.922	0.88
1000.647	0.88
1001.371	1.88
1002.095	-2.12
1002.82	-1.12
1003.544	-0.12
1004.268	3.88
1004.992	0.88
1005.716	2.88
1006.439	2.88
1007.163	3.88
1007.887	1.88
1008.611	-1.12
1009.334	0.88
1010.058	-1.12
1010.781	0.88
1011.504	0.88
1012.228	1.88
1012.951	0.88
1013.674	0.88
1014.397	-1.12
1015.12	0.88
