节点500_565_QEPB04081__505__09-58-49-094.txt的数据

Date: Thu Nov 13 09:58:49 CST 2025
User: PC
Spectrometer: QEPB0408
触发模式: 0
积分时间 (秒): 1.000000E-2
Scans to average: 1
启用暗噪声校正: true
启用非线性校正: false
滑动平均宽度: 0
X轴模式: Wavelengths
Number of Pixels in Spectrum: 1044
>>>>>Begin Spectral Data<<<<<
220.843	4.5
221.644	5.5
222.444	4.5
223.244	4.5
224.045	4.5
224.845	5.5
225.645	4.5
226.445	5.5
227.245	3.5
228.045	6.5
228.845	4.5
229.645	4.5
230.444	7.5
231.244	3.5
232.043	5.5
232.843	9.5
233.642	7.5
234.442	6.5
235.241	8.5
236.04	7.5
236.839	8.5
237.638	7.5
238.437	7.5
239.236	10.5
240.035	6.5
240.833	8.5
241.632	7.5
242.43	8.5
243.229	11.5
244.027	9.5
244.826	11.5
245.624	10.5
246.422	11.5
247.22	9.5
248.018	12.5
248.816	13.5
249.614	11.5
250.412	13.5
251.21	11.5
252.007	10.5
252.805	13.5
253.602	15.5
254.4	14.5
255.197	11.5
255.994	14.5
256.791	14.5
257.589	15.5
258.386	16.5
259.183	14.5
259.979	15.5
260.776	16.5
261.573	18.5
262.37	18.5
263.166	19.5
263.963	17.5
264.759	20.5
265.556	19.5
266.352	19.5
267.148	20.5
267.944	22.5
268.74	22.5
269.536	21.5
270.332	23.5
271.128	24.5
271.924	22.5
272.719	23.5
273.515	23.5
274.311	25.5
275.106	25.5
275.901	26.5
276.697	27.5
277.492	23.5
278.287	30.5
279.082	25.5
279.877	26.5
280.672	26.5
281.467	31.5
282.262	27.5
283.056	26.5
283.851	29.5
284.646	28.5
285.44	24.5
286.234	27.5
287.029	29.5
287.823	27.5
288.617	27.5
289.411	25.5
290.205	26.5
290.999	25.5
291.793	24.5
292.587	27.5
293.381	27.5
294.174	26.5
294.968	21.5
295.761	25.5
296.555	21.5
297.348	22.5
298.141	23.5
298.935	25.5
299.728	19.5
300.521	23.5
301.314	17.5
302.107	21.5
302.899	18.5
303.692	19.5
304.485	21.5
305.277	19.5
306.07	19.5
306.862	19.5
307.655	16.5
308.447	17.5
309.239	19.5
310.031	18.5
310.823	16.5
311.615	18.5
312.407	15.5
313.199	18.5
313.991	15.5
314.783	13.5
315.574	13.5
316.366	13.5
317.157	16.5
317.949	12.5
318.74	13.5
319.531	13.5
320.322	12.5
321.113	10.5
321.904	13.5
322.695	11.5
323.486	11.5
324.277	9.5
325.068	11.5
325.858	14.5
326.649	11.5
327.439	14.5
328.23	11.5
329.02	12.5
329.81	7.5
330.6	11.5
331.391	11.5
332.181	9.5
332.971	12.5
333.76	11.5
334.55	13.5
335.34	9.5
336.13	9.5
336.919	11.5
337.709	9.5
338.498	11.5
339.287	11.5
340.077	11.5
340.866	9.5
341.655	8.5
342.444	13.5
343.233	7.5
344.022	9.5
344.811	9.5
345.6	9.5
346.388	10.5
347.177	9.5
347.965	12.5
348.754	8.5
349.542	9.5
350.33	8.5
351.119	10.5
351.907	10.5
352.695	10.5
353.483	12.5
354.271	10.5
355.059	12.5
355.846	9.5
356.634	9.5
357.422	9.5
358.209	9.5
358.997	9.5
359.784	8.5
360.571	9.5
361.359	8.5
362.146	9.5
362.933	9.5
363.72	7.5
364.507	8.5
365.294	9.5
366.081	9.5
366.867	7.5
367.654	8.5
368.44	9.5
369.227	6.5
370.013	9.5
370.8	7.5
371.586	9.5
372.372	9.5
373.158	9.5
373.944	10.5
374.73	9.5
375.516	7.5
376.302	7.5
377.088	7.5
377.873	7.5
378.659	9.5
379.445	6.5
380.23	8.5
381.015	9.5
381.801	8.5
382.586	11.5
383.371	5.5
384.156	8.5
384.941	9.5
385.726	7.5
386.511	9.5
387.296	8.5
388.08	9.5
388.865	9.5
389.649	9.5
390.434	11.5
391.218	8.5
392.003	8.5
392.787	10.5
393.571	9.5
394.355	9.5
395.139	10.5
395.923	11.5
396.707	10.5
397.491	9.5
398.274	9.5
399.058	10.5
399.842	13.5
400.625	11.5
401.408	10.5
402.192	12.5
402.975	11.5
403.758	12.5
404.541	11.5
405.324	12.5
406.107	12.5
406.89	10.5
407.673	12.5
408.456	13.5
409.238	11.5
410.021	13.5
410.803	15.5
411.586	12.5
412.368	14.5
413.151	14.5
413.933	12.5
414.715	13.5
415.497	14.5
416.279	11.5
417.061	18.5
417.843	15.5
418.624	15.5
419.406	16.5
420.188	17.5
420.969	17.5
421.751	16.5
422.532	18.5
423.313	19.5
424.095	20.5
424.876	17.5
425.657	21.5
426.438	21.5
427.219	20.5
428	23.5
428.78	22.5
429.561	25.5
430.342	20.5
431.122	24.5
431.903	29.5
432.683	26.5
433.464	30.5
434.244	30.5
435.024	28.5
435.804	33.5
436.584	34.5
437.364	36.5
438.144	35.5
438.924	40.5
439.704	42.5
440.483	47.5
441.263	48.5
442.042	52.5
442.822	55.5
443.601	58.5
444.38	65.5
445.16	70.5
445.939	75.5
446.718	77.5
447.497	87.5
448.276	96.5
449.054	101.5
449.833	114.5
450.612	129.5
451.391	141.5
452.169	151.5
452.948	169.5
453.726	186.5
454.504	209.5
455.282	236.5
456.061	252.5
456.839	288.5
457.617	321.5
458.395	352.5
459.172	398.5
459.95	446.5
460.728	497.5
461.506	539.5
462.283	604.5
463.061	674.5
463.838	746.5
464.615	833.5
465.393	919.5
466.17	1034.5
466.947	1138.5
467.724	1242.5
468.501	1397.5
469.278	1521.5
470.055	1683.5
470.831	1870.5
471.608	2065.5
472.385	2266.5
473.161	2497.5
473.938	2741.5
474.714	2998.5
475.49	3296.5
476.266	3593.5
477.043	3946.5
477.819	4311.5
478.595	4702.5
479.371	5119.5
480.146	5592.5
480.922	6074.5
481.698	6566.5
482.473	7142.5
483.249	7740.5
484.024	8411.5
484.8	9133.5
485.575	9924.5
486.35	10722.5
487.126	11549.5
487.901	12453.5
488.676	13533.5
489.451	14595.5
490.225	15736.5
491	16917.5
491.775	18030.5
492.55	19337.5
493.324	20709.5
494.099	22056.5
494.873	23463.5
495.647	24989.5
496.422	26449.5
497.196	27866.5
497.97	29297.5
498.744	30731.5
499.518	32077.5
500.292	33246.5
501.066	34463.5
501.839	35473.5
502.613	36367.5
503.387	37155.5
504.16	37824.5
504.934	38269.5
505.707	38593.5
506.48	38616.5
507.253	38553.5
508.027	38167.5
508.8	37685.5
509.573	37033.5
510.346	36290.5
511.118	35433.5
511.891	34693.5
512.664	33626.5
513.437	32488.5
514.209	31431.5
514.982	30271.5
515.754	29186.5
516.526	27985.5
517.298	26881.5
518.071	25819.5
518.843	24742.5
519.615	23767.5
520.387	22891.5
521.159	21959.5
521.93	21149.5
522.702	20239.5
523.474	19393.5
524.245	18667.5
525.017	17881.5
525.788	17117.5
526.56	16418.5
527.331	15737.5
528.102	15015.5
528.873	14295.5
529.644	13621.5
530.415	12912.5
531.186	12298.5
531.957	11756.5
532.728	11195.5
533.498	10616.5
534.269	10014.5
535.039	9489.5
535.81	8979.5
536.58	8567.5
537.351	8094.5
538.121	7641.5
538.891	7265.5
539.661	6871.5
540.431	6498.5
541.201	6114.5
541.971	5810.5
542.741	5522.5
543.51	5215.5
544.28	4963.5
545.05	4714.5
545.819	4492.5
546.588	4295.5
547.358	4063.5
548.127	3888.5
548.896	3681.5
549.665	3502.5
550.434	3312.5
551.203	3169.5
551.972	2979.5
552.741	2832.5
553.51	2664.5
554.278	2517.5
555.047	2381.5
555.815	2254.5
556.584	2153.5
557.352	2020.5
558.121	1918.5
558.889	1791.5
559.657	1698.5
560.425	1620.5
561.193	1520.5
561.961	1442.5
562.729	1371.5
563.496	1288.5
564.264	1237.5
565.032	1164.5
565.799	1104.5
566.567	1033.5
567.334	985.5
568.101	927.5
568.869	869.5
569.636	826.5
570.403	779.5
571.17	743.5
571.937	692.5
572.704	659.5
573.471	618.5
574.237	581.5
575.004	556.5
575.771	523.5
576.537	492.5
577.303	469.5
578.07	437.5
578.836	412.5
579.602	389.5
580.368	367.5
581.134	362.5
581.9	333.5
582.666	320.5
583.432	294.5
584.198	289.5
584.964	272.5
585.729	254.5
586.495	240.5
587.26	231.5
588.025	213.5
588.791	213.5
589.556	196.5
590.321	186.5
591.086	173.5
591.851	166.5
592.616	158.5
593.381	154.5
594.146	146.5
594.911	141.5
595.675	131.5
596.44	126.5
597.204	120.5
597.969	112.5
598.733	108.5
599.497	103.5
600.261	101.5
601.025	97.5
601.79	89.5
602.553	90.5
603.317	88.5
604.081	81.5
604.845	75.5
605.609	76.5
606.372	73.5
607.136	67.5
607.899	69.5
608.662	64.5
609.426	57.5
610.189	61.5
610.952	58.5
611.715	53.5
612.478	53.5
613.241	48.5
614.004	49.5
614.767	48.5
615.529	43.5
616.292	43.5
617.055	40.5
617.817	40.5
618.579	39.5
619.342	38.5
620.104	38.5
620.866	36.5
621.628	34.5
622.39	31.5
623.152	31.5
623.914	31.5
624.676	31.5
625.438	27.5
626.199	30.5
626.961	30.5
627.722	27.5
628.484	27.5
629.245	27.5
630.006	24.5
630.768	23.5
631.529	22.5
632.29	22.5
633.051	22.5
633.812	20.5
634.573	22.5
635.333	20.5
636.094	19.5
636.855	17.5
637.615	16.5
638.376	18.5
639.136	18.5
639.896	17.5
640.657	17.5
641.417	16.5
642.177	14.5
642.937	16.5
643.697	14.5
644.457	15.5
645.216	14.5
645.976	13.5
646.736	16.5
647.495	12.5
648.255	13.5
649.014	12.5
649.774	13.5
650.533	11.5
651.292	12.5
652.051	12.5
652.81	13.5
653.569	12.5
654.328	8.5
655.087	10.5
655.846	13.5
656.604	11.5
657.363	10.5
658.121	11.5
658.88	12.5
659.638	11.5
660.397	9.5
661.155	10.5
661.913	10.5
662.671	10.5
663.429	9.5
664.187	9.5
664.945	8.5
665.703	9.5
666.46	9.5
667.218	7.5
667.976	7.5
668.733	7.5
669.49	8.5
670.248	7.5
671.005	8.5
671.762	9.5
672.519	4.5
673.276	10.5
674.033	7.5
674.79	9.5
675.547	11.5
676.304	5.5
677.06	8.5
677.817	8.5
678.574	7.5
679.33	6.5
680.086	7.5
680.843	4.5
681.599	5.5
682.355	8.5
683.111	4.5
683.867	7.5
684.623	8.5
685.379	9.5
686.135	7.5
686.89	5.5
687.646	6.5
688.402	5.5
689.157	6.5
689.912	7.5
690.668	7.5
691.423	7.5
692.178	5.5
692.933	7.5
693.688	7.5
694.443	6.5
695.198	4.5
695.953	5.5
696.708	5.5
697.462	7.5
698.217	8.5
698.972	7.5
699.726	6.5
700.48	6.5
701.235	7.5
701.989	4.5
702.743	9.5
703.497	7.5
704.251	6.5
705.005	7.5
705.759	3.5
706.513	6.5
707.266	6.5
708.02	7.5
708.774	6.5
709.527	6.5
710.28	7.5
711.034	5.5
711.787	7.5
712.54	5.5
713.293	9.5
714.046	6.5
714.799	6.5
715.552	6.5
716.305	6.5
717.058	8.5
717.81	10.5
718.563	7.5
719.315	7.5
720.068	6.5
720.82	7.5
721.573	7.5
722.325	9.5
723.077	7.5
723.829	5.5
724.581	5.5
725.333	8.5
726.085	5.5
726.836	7.5
727.588	6.5
728.34	7.5
729.091	9.5
729.843	6.5
730.594	6.5
731.346	9.5
732.097	4.5
732.848	8.5
733.599	5.5
734.35	8.5
735.101	7.5
735.852	9.5
736.603	5.5
737.354	8.5
738.104	7.5
738.855	7.5
739.605	9.5
740.356	8.5
741.106	8.5
741.856	8.5
742.607	9.5
743.357	11.5
744.107	8.5
744.857	10.5
745.607	8.5
746.357	9.5
747.106	7.5
747.856	9.5
748.606	9.5
749.355	7.5
750.105	9.5
750.854	7.5
751.603	9.5
752.353	8.5
753.102	8.5
753.851	8.5
754.6	8.5
755.349	9.5
756.098	6.5
756.847	10.5
757.595	8.5
758.344	7.5
759.093	12.5
759.841	9.5
760.589	11.5
761.338	7.5
762.086	8.5
762.834	9.5
763.582	7.5
764.331	9.5
765.079	11.5
765.826	11.5
766.574	12.5
767.322	12.5
768.07	10.5
768.817	10.5
769.565	12.5
770.312	12.5
771.06	11.5
771.807	12.5
772.554	12.5
773.302	12.5
774.049	13.5
774.796	12.5
775.543	12.5
776.29	14.5
777.036	9.5
777.783	12.5
778.53	11.5
779.276	12.5
780.023	14.5
780.769	14.5
781.516	11.5
782.262	11.5
783.008	11.5
783.754	11.5
784.5	13.5
785.246	13.5
785.992	13.5
786.738	14.5
787.484	14.5
788.23	16.5
788.975	10.5
789.721	13.5
790.466	15.5
791.212	11.5
791.957	13.5
792.702	11.5
793.447	12.5
794.193	11.5
794.938	10.5
795.683	11.5
796.427	11.5
797.172	11.5
797.917	11.5
798.662	11.5
799.406	10.5
800.151	13.5
800.895	10.5
801.64	10.5
802.384	12.5
803.128	9.5
803.872	8.5
804.616	10.5
805.36	9.5
806.104	11.5
806.848	10.5
807.592	9.5
808.336	8.5
809.079	9.5
809.823	7.5
810.566	8.5
811.31	9.5
812.053	8.5
812.796	11.5
813.539	8.5
814.283	9.5
815.026	8.5
815.769	8.5
816.511	6.5
817.254	7.5
817.997	8.5
818.74	8.5
819.482	8.5
820.225	6.5
820.967	5.5
821.71	8.5
822.452	8.5
823.194	5.5
823.936	7.5
824.678	7.5
825.42	5.5
826.162	6.5
826.904	5.5
827.646	7.5
828.388	8.5
829.129	8.5
829.871	8.5
830.612	5.5
831.354	9.5
832.095	4.5
832.836	7.5
833.577	5.5
834.319	7.5
835.06	6.5
835.801	5.5
836.542	6.5
837.282	5.5
838.023	5.5
838.764	2.5
839.504	6.5
840.245	5.5
840.985	5.5
841.726	4.5
842.466	7.5
843.206	4.5
843.946	5.5
844.687	6.5
845.427	5.5
846.166	4.5
846.906	3.5
847.646	5.5
848.386	5.5
849.125	3.5
849.865	5.5
850.605	7.5
851.344	3.5
852.083	5.5
852.823	4.5
853.562	5.5
854.301	5.5
855.04	5.5
855.779	4.5
856.518	4.5
857.257	5.5
857.995	3.5
858.734	2.5
859.473	1.5
860.211	3.5
860.95	2.5
861.688	3.5
862.426	4.5
863.165	2.5
863.903	2.5
864.641	5.5
865.379	2.5
866.117	3.5
866.855	4.5
867.593	2.5
868.33	2.5
869.068	4.5
869.806	2.5
870.543	4.5
871.28	1.5
872.018	0.5
872.755	1.5
873.492	2.5
874.229	3.5
874.967	2.5
875.703	-0.5
876.44	3.5
877.177	4.5
877.914	1.5
878.651	3.5
879.387	1.5
880.124	1.5
880.86	1.5
881.597	2.5
882.333	2.5
883.069	1.5
883.806	3.5
884.542	3.5
885.278	0.5
886.014	2.5
886.749	2.5
887.485	3.5
888.221	1.5
888.957	1.5
889.692	2.5
890.428	1.5
891.163	2.5
891.899	0.5
892.634	2.5
893.369	0.5
894.104	1.5
894.839	1.5
895.574	1.5
896.309	4.5
897.044	2.5
897.779	2.5
898.514	2.5
899.248	1.5
899.983	2.5
900.717	0.5
901.452	4.5
902.186	2.5
902.92	2.5
903.654	1.5
904.389	1.5
905.123	0.5
905.857	2.5
906.59	2.5
907.324	1.5
908.058	1.5
908.792	1.5
909.525	3.5
910.259	0.5
910.992	1.5
911.726	2.5
912.459	-0.5
913.192	-0.5
913.925	-1.5
914.658	1.5
915.391	1.5
916.124	0.5
916.857	2.5
917.59	0.5
918.323	3.5
919.055	1.5
919.788	3.5
920.521	2.5
921.253	0.5
921.985	2.5
922.718	2.5
923.45	1.5
924.182	-0.5
924.914	1.5
925.646	-0.5
926.378	0.5
927.11	1.5
927.841	-0.5
928.573	-0.5
929.305	1.5
930.036	2.5
930.768	-0.5
931.499	4.5
932.23	-0.5
932.962	0.5
933.693	3.5
934.424	2.5
935.155	2.5
935.886	0.5
936.617	0.5
937.348	0.5
938.078	0.5
938.809	-1.5
939.54	-1.5
940.27	0.5
941.001	-0.5
941.731	1.5
942.461	-2.5
943.191	1.5
943.922	2.5
944.652	1.5
945.382	1.5
946.112	1.5
946.841	-0.5
947.571	2.5
948.301	0.5
949.031	1.5
949.76	-1.5
950.49	1.5
951.219	1.5
951.948	2.5
952.678	-0.5
953.407	0.5
954.136	1.5
954.865	1.5
955.594	1.5
956.323	1.5
957.052	1.5
957.78	1.5
958.509	1.5
959.238	1.5
959.966	0.5
960.695	-0.5
961.423	1.5
962.151	2.5
962.88	0.5
963.608	1.5
964.336	-0.5
965.064	0.5
965.792	0.5
966.52	-0.5
967.247	-1.5
967.975	2.5
968.703	1.5
969.43	1.5
970.158	1.5
970.885	2.5
971.613	1.5
972.34	2.5
973.067	0.5
973.794	-0.5
974.521	0.5
975.248	-0.5
975.975	1.5
976.702	2.5
977.429	1.5
978.156	-1.5
978.882	3.5
979.609	1.5
980.335	2.5
981.062	2.5
981.788	1.5
982.514	2.5
983.24	2.5
983.967	1.5
984.693	0.5
985.419	3.5
986.144	1.5
986.87	0.5
987.596	0.5
988.322	1.5
989.047	1.5
989.773	1.5
990.498	-0.5
991.224	1.5
991.949	-1.5
992.674	1.5
993.399	-0.5
994.124	1.5
994.849	-0.5
995.574	0.5
996.299	0.5
997.024	0.5
997.749	2.5
998.473	-0.5
999.198	2.5
999.922	0.5
1000.647	1.5
1001.371	2.5
1002.095	-0.5
1002.82	-0.5
1003.544	-1.5
1004.268	6.5
1004.992	3.5
1005.716	2.5
1006.439	3.5
1007.163	5.5
1007.887	5.5
1008.611	-0.5
1009.334	1.5
1010.058	1.5
1010.781	-1.5
1011.504	2.5
1012.228	0.5
1012.951	-0.5
1013.674	-0.5
1014.397	0.5
1015.12	0.5
