节点500_565_QEPB04081__376__09-56-40-351.txt的数据

Date: Thu Nov 13 09:56:40 CST 2025
User: PC
Spectrometer: QEPB0408
触发模式: 0
积分时间 (秒): 1.000000E-2
Scans to average: 1
启用暗噪声校正: true
启用非线性校正: false
滑动平均宽度: 0
X轴模式: Wavelengths
Number of Pixels in Spectrum: 1044
>>>>>Begin Spectral Data<<<<<
220.843	3.88
221.644	2.88
222.444	3.88
223.244	6.88
224.045	3.88
224.845	3.88
225.645	6.88
226.445	2.88
227.245	5.88
228.045	6.88
228.845	6.88
229.645	4.88
230.444	6.88
231.244	5.88
232.043	4.88
232.843	8.88
233.642	6.88
234.442	9.88
235.241	5.88
236.04	5.88
236.839	7.88
237.638	6.88
238.437	5.88
239.236	6.88
240.035	8.88
240.833	5.88
241.632	12.88
242.43	8.88
243.229	7.88
244.027	8.88
244.826	10.88
245.624	10.88
246.422	11.88
247.22	10.88
248.018	10.88
248.816	10.88
249.614	13.88
250.412	12.88
251.21	11.88
252.007	10.88
252.805	14.88
253.602	13.88
254.4	11.88
255.197	12.88
255.994	14.88
256.791	14.88
257.589	15.88
258.386	12.88
259.183	15.88
259.979	16.88
260.776	18.88
261.573	17.88
262.37	19.88
263.166	19.88
263.963	20.88
264.759	22.88
265.556	20.88
266.352	20.88
267.148	21.88
267.944	23.88
268.74	20.88
269.536	22.88
270.332	23.88
271.128	23.88
271.924	22.88
272.719	22.88
273.515	26.88
274.311	26.88
275.106	26.88
275.901	27.88
276.697	24.88
277.492	28.88
278.287	27.88
279.082	28.88
279.877	29.88
280.672	30.88
281.467	28.88
282.262	29.88
283.056	30.88
283.851	29.88
284.646	29.88
285.44	28.88
286.234	29.88
287.029	27.88
287.823	29.88
288.617	27.88
289.411	28.88
290.205	21.88
290.999	25.88
291.793	28.88
292.587	26.88
293.381	24.88
294.174	26.88
294.968	26.88
295.761	24.88
296.555	21.88
297.348	22.88
298.141	24.88
298.935	23.88
299.728	20.88
300.521	22.88
301.314	20.88
302.107	20.88
302.899	20.88
303.692	19.88
304.485	17.88
305.277	19.88
306.07	21.88
306.862	18.88
307.655	18.88
308.447	18.88
309.239	16.88
310.031	17.88
310.823	14.88
311.615	17.88
312.407	14.88
313.199	15.88
313.991	13.88
314.783	14.88
315.574	12.88
316.366	15.88
317.157	13.88
317.949	13.88
318.74	12.88
319.531	10.88
320.322	7.88
321.113	11.88
321.904	12.88
322.695	10.88
323.486	10.88
324.277	10.88
325.068	10.88
325.858	9.88
326.649	12.88
327.439	9.88
328.23	12.88
329.02	12.88
329.81	10.88
330.6	10.88
331.391	9.88
332.181	7.88
332.971	9.88
333.76	10.88
334.55	8.88
335.34	11.88
336.13	10.88
336.919	12.88
337.709	9.88
338.498	10.88
339.287	10.88
340.077	10.88
340.866	11.88
341.655	12.88
342.444	9.88
343.233	8.88
344.022	9.88
344.811	10.88
345.6	8.88
346.388	12.88
347.177	7.88
347.965	8.88
348.754	10.88
349.542	10.88
350.33	11.88
351.119	9.88
351.907	11.88
352.695	9.88
353.483	9.88
354.271	8.88
355.059	9.88
355.846	9.88
356.634	8.88
357.422	7.88
358.209	8.88
358.997	10.88
359.784	9.88
360.571	5.88
361.359	8.88
362.146	8.88
362.933	8.88
363.72	10.88
364.507	8.88
365.294	10.88
366.081	6.88
366.867	8.88
367.654	7.88
368.44	7.88
369.227	7.88
370.013	8.88
370.8	7.88
371.586	7.88
372.372	8.88
373.158	6.88
373.944	9.88
374.73	8.88
375.516	8.88
376.302	7.88
377.088	8.88
377.873	8.88
378.659	8.88
379.445	6.88
380.23	8.88
381.015	7.88
381.801	8.88
382.586	10.88
383.371	8.88
384.156	8.88
384.941	7.88
385.726	6.88
386.511	7.88
387.296	7.88
388.08	9.88
388.865	7.88
389.649	8.88
390.434	10.88
391.218	8.88
392.003	10.88
392.787	10.88
393.571	8.88
394.355	9.88
395.139	10.88
395.923	10.88
396.707	9.88
397.491	12.88
398.274	11.88
399.058	9.88
399.842	10.88
400.625	11.88
401.408	10.88
402.192	12.88
402.975	11.88
403.758	11.88
404.541	11.88
405.324	11.88
406.107	12.88
406.89	15.88
407.673	13.88
408.456	12.88
409.238	13.88
410.021	13.88
410.803	12.88
411.586	15.88
412.368	14.88
413.151	10.88
413.933	15.88
414.715	13.88
415.497	13.88
416.279	14.88
417.061	17.88
417.843	15.88
418.624	14.88
419.406	13.88
420.188	18.88
420.969	16.88
421.751	16.88
422.532	18.88
423.313	19.88
424.095	18.88
424.876	21.88
425.657	18.88
426.438	20.88
427.219	22.88
428	22.88
428.78	21.88
429.561	24.88
430.342	24.88
431.122	27.88
431.903	27.88
432.683	26.88
433.464	30.88
434.244	29.88
435.024	31.88
435.804	29.88
436.584	36.88
437.364	39.88
438.144	36.88
438.924	38.88
439.704	41.88
440.483	43.88
441.263	48.88
442.042	49.88
442.822	51.88
443.601	60.88
444.38	61.88
445.16	66.88
445.939	70.88
446.718	79.88
447.497	84.88
448.276	92.88
449.054	100.88
449.833	114.88
450.612	121.88
451.391	136.88
452.169	147.88
452.948	167.88
453.726	182.88
454.504	199.88
455.282	224.88
456.061	250.88
456.839	277.88
457.617	306.88
458.395	344.88
459.172	384.88
459.95	426.88
460.728	478.88
461.506	540.88
462.283	602.88
463.061	662.88
463.838	724.88
464.615	809.88
465.393	911.88
466.17	1003.88
466.947	1112.88
467.724	1242.88
468.501	1375.88
469.278	1542.88
470.055	1691.88
470.831	1870.88
471.608	2078.88
472.385	2297.88
473.161	2515.88
473.938	2784.88
474.714	3037.88
475.49	3353.88
476.266	3681.88
477.043	4030.88
477.819	4438.88
478.595	4818.88
479.371	5228.88
480.146	5745.88
480.922	6266.88
481.698	6827.88
482.473	7432.88
483.249	8113.88
484.024	8765.88
484.8	9584.88
485.575	10395.88
486.35	11255.88
487.126	12213.88
487.901	13211.88
488.676	14311.88
489.451	15508.88
490.225	16687.88
491	17981.88
491.775	19316.88
492.55	20759.88
493.324	22170.88
494.099	23630.88
494.873	25152.88
495.647	26719.88
496.422	28404.88
497.196	29913.88
497.97	31392.88
498.744	32879.88
499.518	34205.88
500.292	35455.88
501.066	36658.88
501.839	37723.88
502.613	38543.88
503.387	39334.88
504.16	39936.88
504.934	40282.88
505.707	40346.88
506.48	40352.88
507.253	40098.88
508.027	39563.88
508.8	38950.88
509.573	38220.88
510.346	37265.88
511.118	36239.88
511.891	35426.88
512.664	34184.88
513.437	33013.88
514.209	31757.88
514.982	30482.88
515.754	29318.88
516.526	28240.88
517.298	26981.88
518.071	25942.88
518.843	24869.88
519.615	23886.88
520.387	22932.88
521.159	22080.88
521.93	21169.88
522.702	20218.88
523.474	19487.88
524.245	18654.88
525.017	17932.88
525.788	17096.88
526.56	16431.88
527.331	15669.88
528.102	14947.88
528.873	14207.88
529.644	13564.88
530.415	12872.88
531.186	12226.88
531.957	11579.88
532.728	11052.88
533.498	10501.88
534.269	9930.88
535.039	9357.88
535.81	8898.88
536.58	8421.88
537.351	7962.88
538.121	7510.88
538.891	7129.88
539.661	6761.88
540.431	6415.88
541.201	6023.88
541.971	5736.88
542.741	5444.88
543.51	5129.88
544.28	4888.88
545.05	4645.88
545.819	4425.88
546.588	4230.88
547.358	4004.88
548.127	3800.88
548.896	3602.88
549.665	3436.88
550.434	3256.88
551.203	3101.88
551.972	2938.88
552.741	2775.88
553.51	2623.88
554.278	2452.88
555.047	2308.88
555.815	2228.88
556.584	2099.88
557.352	1972.88
558.121	1872.88
558.889	1769.88
559.657	1668.88
560.425	1577.88
561.193	1484.88
561.961	1404.88
562.729	1323.88
563.496	1266.88
564.264	1194.88
565.032	1141.88
565.799	1075.88
566.567	1012.88
567.334	957.88
568.101	900.88
568.869	834.88
569.636	807.88
570.403	770.88
571.17	720.88
571.937	675.88
572.704	639.88
573.471	603.88
574.237	573.88
575.004	546.88
575.771	500.88
576.537	482.88
577.303	453.88
578.07	427.88
578.836	399.88
579.602	379.88
580.368	350.88
581.134	350.88
581.9	328.88
582.666	309.88
583.432	295.88
584.198	282.88
584.964	267.88
585.729	244.88
586.495	234.88
587.26	223.88
588.025	218.88
588.791	201.88
589.556	192.88
590.321	183.88
591.086	173.88
591.851	162.88
592.616	159.88
593.381	148.88
594.146	141.88
594.911	131.88
595.675	128.88
596.44	121.88
597.204	113.88
597.969	110.88
598.733	104.88
599.497	106.88
600.261	100.88
601.025	89.88
601.79	91.88
602.553	85.88
603.317	78.88
604.081	82.88
604.845	78.88
605.609	73.88
606.372	69.88
607.136	67.88
607.899	62.88
608.662	62.88
609.426	57.88
610.189	57.88
610.952	56.88
611.715	53.88
612.478	51.88
613.241	47.88
614.004	46.88
614.767	45.88
615.529	44.88
616.292	41.88
617.055	40.88
617.817	37.88
618.579	38.88
619.342	39.88
620.104	36.88
620.866	33.88
621.628	33.88
622.39	32.88
623.152	32.88
623.914	27.88
624.676	31.88
625.438	26.88
626.199	28.88
626.961	24.88
627.722	25.88
628.484	26.88
629.245	22.88
630.006	24.88
630.768	20.88
631.529	22.88
632.29	24.88
633.051	20.88
633.812	20.88
634.573	19.88
635.333	20.88
636.094	19.88
636.855	18.88
637.615	18.88
638.376	14.88
639.136	16.88
639.896	18.88
640.657	18.88
641.417	15.88
642.177	14.88
642.937	14.88
643.697	15.88
644.457	13.88
645.216	15.88
645.976	12.88
646.736	14.88
647.495	12.88
648.255	12.88
649.014	12.88
649.774	12.88
650.533	12.88
651.292	11.88
652.051	13.88
652.81	13.88
653.569	9.88
654.328	12.88
655.087	12.88
655.846	10.88
656.604	11.88
657.363	9.88
658.121	9.88
658.88	8.88
659.638	11.88
660.397	7.88
661.155	9.88
661.913	7.88
662.671	10.88
663.429	9.88
664.187	8.88
664.945	9.88
665.703	7.88
666.46	8.88
667.218	9.88
667.976	9.88
668.733	8.88
669.49	8.88
670.248	9.88
671.005	10.88
671.762	7.88
672.519	6.88
673.276	6.88
674.033	6.88
674.79	8.88
675.547	10.88
676.304	7.88
677.06	6.88
677.817	2.88
678.574	3.88
679.33	4.88
680.086	7.88
680.843	7.88
681.599	9.88
682.355	8.88
683.111	10.88
683.867	8.88
684.623	5.88
685.379	6.88
686.135	6.88
686.89	6.88
687.646	8.88
688.402	6.88
689.157	6.88
689.912	4.88
690.668	5.88
691.423	6.88
692.178	4.88
692.933	8.88
693.688	5.88
694.443	8.88
695.198	6.88
695.953	5.88
696.708	7.88
697.462	5.88
698.217	5.88
698.972	6.88
699.726	7.88
700.48	4.88
701.235	4.88
701.989	4.88
702.743	7.88
703.497	6.88
704.251	5.88
705.005	5.88
705.759	6.88
706.513	6.88
707.266	6.88
708.02	7.88
708.774	6.88
709.527	6.88
710.28	6.88
711.034	2.88
711.787	8.88
712.54	4.88
713.293	9.88
714.046	6.88
714.799	6.88
715.552	6.88
716.305	5.88
717.058	4.88
717.81	6.88
718.563	6.88
719.315	5.88
720.068	6.88
720.82	8.88
721.573	6.88
722.325	6.88
723.077	7.88
723.829	6.88
724.581	6.88
725.333	7.88
726.085	8.88
726.836	5.88
727.588	6.88
728.34	6.88
729.091	8.88
729.843	8.88
730.594	6.88
731.346	8.88
732.097	7.88
732.848	8.88
733.599	6.88
734.35	8.88
735.101	8.88
735.852	7.88
736.603	7.88
737.354	5.88
738.104	7.88
738.855	8.88
739.605	8.88
740.356	8.88
741.106	6.88
741.856	10.88
742.607	5.88
743.357	9.88
744.107	8.88
744.857	8.88
745.607	9.88
746.357	6.88
747.106	7.88
747.856	8.88
748.606	7.88
749.355	9.88
750.105	9.88
750.854	9.88
751.603	8.88
752.353	10.88
753.102	7.88
753.851	11.88
754.6	7.88
755.349	6.88
756.098	10.88
756.847	8.88
757.595	7.88
758.344	8.88
759.093	9.88
759.841	7.88
760.589	10.88
761.338	9.88
762.086	9.88
762.834	10.88
763.582	10.88
764.331	12.88
765.079	12.88
765.826	11.88
766.574	10.88
767.322	11.88
768.07	9.88
768.817	12.88
769.565	11.88
770.312	11.88
771.06	13.88
771.807	12.88
772.554	11.88
773.302	12.88
774.049	11.88
774.796	13.88
775.543	12.88
776.29	12.88
777.036	12.88
777.783	12.88
778.53	13.88
779.276	11.88
780.023	15.88
780.769	12.88
781.516	15.88
782.262	12.88
783.008	14.88
783.754	13.88
784.5	12.88
785.246	12.88
785.992	13.88
786.738	16.88
787.484	11.88
788.23	16.88
788.975	13.88
789.721	12.88
790.466	12.88
791.212	11.88
791.957	12.88
792.702	10.88
793.447	11.88
794.193	11.88
794.938	10.88
795.683	13.88
796.427	12.88
797.172	11.88
797.917	8.88
798.662	10.88
799.406	12.88
800.151	10.88
800.895	9.88
801.64	11.88
802.384	8.88
803.128	9.88
803.872	9.88
804.616	8.88
805.36	9.88
806.104	9.88
806.848	7.88
807.592	9.88
808.336	9.88
809.079	9.88
809.823	9.88
810.566	8.88
811.31	9.88
812.053	10.88
812.796	6.88
813.539	8.88
814.283	7.88
815.026	8.88
815.769	8.88
816.511	6.88
817.254	5.88
817.997	7.88
818.74	6.88
819.482	7.88
820.225	8.88
820.967	9.88
821.71	4.88
822.452	5.88
823.194	7.88
823.936	6.88
824.678	7.88
825.42	6.88
826.162	7.88
826.904	6.88
827.646	5.88
828.388	6.88
829.129	6.88
829.871	5.88
830.612	6.88
831.354	6.88
832.095	3.88
832.836	1.88
833.577	6.88
834.319	5.88
835.06	4.88
835.801	5.88
836.542	6.88
837.282	4.88
838.023	5.88
838.764	4.88
839.504	3.88
840.245	6.88
840.985	4.88
841.726	3.88
842.466	3.88
843.206	5.88
843.946	3.88
844.687	3.88
845.427	1.88
846.166	3.88
846.906	1.88
847.646	3.88
848.386	4.88
849.125	2.88
849.865	6.88
850.605	3.88
851.344	4.88
852.083	4.88
852.823	3.88
853.562	5.88
854.301	4.88
855.04	1.88
855.779	4.88
856.518	2.88
857.257	4.88
857.995	3.88
858.734	4.88
859.473	4.88
860.211	0.88
860.95	2.88
861.688	-0.12
862.426	2.88
863.165	2.88
863.903	3.88
864.641	3.88
865.379	3.88
866.117	4.88
866.855	1.88
867.593	3.88
868.33	1.88
869.068	2.88
869.806	2.88
870.543	1.88
871.28	3.88
872.018	0.88
872.755	3.88
873.492	0.88
874.229	2.88
874.967	2.88
875.703	1.88
876.44	1.88
877.177	2.88
877.914	0.88
878.651	1.88
879.387	2.88
880.124	1.88
880.86	1.88
881.597	1.88
882.333	-1.12
883.069	2.88
883.806	2.88
884.542	0.88
885.278	1.88
886.014	2.88
886.749	2.88
887.485	1.88
888.221	1.88
888.957	2.88
889.692	0.88
890.428	-0.12
891.163	1.88
891.899	1.88
892.634	-0.12
893.369	0.88
894.104	-0.12
894.839	0.88
895.574	0.88
896.309	1.88
897.044	-0.12
897.779	-1.12
898.514	1.88
899.248	-1.12
899.983	-0.12
900.717	0.88
901.452	0.88
902.186	0.88
902.92	2.88
903.654	1.88
904.389	-0.12
905.123	1.88
905.857	1.88
906.59	-0.12
907.324	-1.12
908.058	0.88
908.792	0.88
909.525	1.88
910.259	1.88
910.992	0.88
911.726	0.88
912.459	0.88
913.192	-0.12
913.925	0.88
914.658	-2.12
915.391	-0.12
916.124	0.88
916.857	1.88
917.59	0.88
918.323	2.88
919.055	-1.12
919.788	-1.12
920.521	0.88
921.253	-0.12
921.985	-0.12
922.718	-0.12
923.45	-0.12
924.182	1.88
924.914	-1.12
925.646	0.88
926.378	-2.12
927.11	2.88
927.841	-1.12
928.573	1.88
929.305	0.88
930.036	-0.12
930.768	0.88
931.499	0.88
932.23	-0.12
932.962	0.88
933.693	0.88
934.424	-0.12
935.155	-0.12
935.886	-0.12
936.617	-2.12
937.348	1.88
938.078	-0.12
938.809	-1.12
939.54	-0.12
940.27	-2.12
941.001	-1.12
941.731	1.88
942.461	-1.12
943.191	0.88
943.922	-0.12
944.652	0.88
945.382	1.88
946.112	1.88
946.841	-0.12
947.571	0.88
948.301	0.88
949.031	-1.12
949.76	-2.12
950.49	0.88
951.219	0.88
951.948	1.88
952.678	0.88
953.407	-0.12
954.136	1.88
954.865	0.88
955.594	-2.12
956.323	0.88
957.052	-0.12
957.78	0.88
958.509	1.88
959.238	-0.12
959.966	-0.12
960.695	-0.12
961.423	-1.12
962.151	-2.12
962.88	-1.12
963.608	-1.12
964.336	0.88
965.064	-0.12
965.792	-2.12
966.52	-1.12
967.247	-1.12
967.975	1.88
968.703	0.88
969.43	0.88
970.158	0.88
970.885	0.88
971.613	-1.12
972.34	-1.12
973.067	1.88
973.794	0.88
974.521	-0.12
975.248	2.88
975.975	1.88
976.702	0.88
977.429	0.88
978.156	0.88
978.882	-0.12
979.609	1.88
980.335	-1.12
981.062	2.88
981.788	-1.12
982.514	0.88
983.24	1.88
983.967	-1.12
984.693	0.88
985.419	0.88
986.144	0.88
986.87	-1.12
987.596	-0.12
988.322	-1.12
989.047	0.88
989.773	2.88
990.498	-1.12
991.224	1.88
991.949	1.88
992.674	0.88
993.399	0.88
994.124	2.88
994.849	0.88
995.574	-1.12
996.299	1.88
997.024	0.88
997.749	-2.12
998.473	0.88
999.198	-1.12
999.922	0.88
1000.647	-0.12
1001.371	2.88
1002.095	0.88
1002.82	-2.12
1003.544	-1.12
1004.268	4.88
1004.992	1.88
1005.716	2.88
1006.439	4.88
1007.163	4.88
1007.887	4.88
1008.611	0.88
1009.334	0.88
1010.058	0.88
1010.781	-0.12
1011.504	-0.12
1012.228	-0.12
1012.951	-0.12
1013.674	0.88
1014.397	-2.12
1015.12	0.88
