节点500_565_QEPB04081__549__09-59-33-055.txt的数据

Date: Thu Nov 13 09:59:33 CST 2025
User: PC
Spectrometer: QEPB0408
触发模式: 0
积分时间 (秒): 1.000000E-2
Scans to average: 1
启用暗噪声校正: true
启用非线性校正: false
滑动平均宽度: 0
X轴模式: Wavelengths
Number of Pixels in Spectrum: 1044
>>>>>Begin Spectral Data<<<<<
220.843	4.25
221.644	5.25
222.444	4.25
223.244	6.25
224.045	4.25
224.845	5.25
225.645	5.25
226.445	7.25
227.245	2.25
228.045	7.25
228.845	5.25
229.645	8.25
230.444	3.25
231.244	5.25
232.043	7.25
232.843	7.25
233.642	8.25
234.442	7.25
235.241	7.25
236.04	7.25
236.839	9.25
237.638	7.25
238.437	8.25
239.236	7.25
240.035	5.25
240.833	7.25
241.632	8.25
242.43	9.25
243.229	7.25
244.027	9.25
244.826	11.25
245.624	11.25
246.422	11.25
247.22	10.25
248.018	12.25
248.816	12.25
249.614	13.25
250.412	13.25
251.21	11.25
252.007	11.25
252.805	14.25
253.602	15.25
254.4	15.25
255.197	13.25
255.994	15.25
256.791	12.25
257.589	16.25
258.386	17.25
259.183	17.25
259.979	17.25
260.776	18.25
261.573	16.25
262.37	19.25
263.166	16.25
263.963	17.25
264.759	20.25
265.556	21.25
266.352	20.25
267.148	21.25
267.944	19.25
268.74	24.25
269.536	22.25
270.332	22.25
271.128	25.25
271.924	27.25
272.719	24.25
273.515	22.25
274.311	21.25
275.106	23.25
275.901	27.25
276.697	23.25
277.492	28.25
278.287	27.25
279.082	26.25
279.877	23.25
280.672	26.25
281.467	25.25
282.262	29.25
283.056	26.25
283.851	29.25
284.646	28.25
285.44	26.25
286.234	27.25
287.029	26.25
287.823	28.25
288.617	27.25
289.411	26.25
290.205	26.25
290.999	27.25
291.793	25.25
292.587	25.25
293.381	24.25
294.174	24.25
294.968	24.25
295.761	25.25
296.555	20.25
297.348	23.25
298.141	23.25
298.935	25.25
299.728	23.25
300.521	21.25
301.314	18.25
302.107	19.25
302.899	18.25
303.692	20.25
304.485	19.25
305.277	19.25
306.07	18.25
306.862	18.25
307.655	20.25
308.447	19.25
309.239	20.25
310.031	15.25
310.823	17.25
311.615	13.25
312.407	15.25
313.199	16.25
313.991	15.25
314.783	15.25
315.574	13.25
316.366	15.25
317.157	12.25
317.949	13.25
318.74	12.25
319.531	12.25
320.322	14.25
321.113	12.25
321.904	11.25
322.695	12.25
323.486	11.25
324.277	11.25
325.068	14.25
325.858	13.25
326.649	9.25
327.439	12.25
328.23	11.25
329.02	10.25
329.81	13.25
330.6	12.25
331.391	11.25
332.181	11.25
332.971	10.25
333.76	12.25
334.55	11.25
335.34	12.25
336.13	11.25
336.919	10.25
337.709	10.25
338.498	12.25
339.287	11.25
340.077	12.25
340.866	10.25
341.655	11.25
342.444	9.25
343.233	10.25
344.022	10.25
344.811	9.25
345.6	11.25
346.388	10.25
347.177	9.25
347.965	9.25
348.754	9.25
349.542	7.25
350.33	10.25
351.119	9.25
351.907	11.25
352.695	9.25
353.483	10.25
354.271	11.25
355.059	9.25
355.846	9.25
356.634	8.25
357.422	6.25
358.209	10.25
358.997	11.25
359.784	9.25
360.571	9.25
361.359	9.25
362.146	10.25
362.933	6.25
363.72	10.25
364.507	7.25
365.294	8.25
366.081	10.25
366.867	10.25
367.654	8.25
368.44	9.25
369.227	11.25
370.013	8.25
370.8	7.25
371.586	7.25
372.372	9.25
373.158	8.25
373.944	6.25
374.73	8.25
375.516	7.25
376.302	9.25
377.088	7.25
377.873	10.25
378.659	9.25
379.445	7.25
380.23	8.25
381.015	7.25
381.801	8.25
382.586	8.25
383.371	7.25
384.156	10.25
384.941	9.25
385.726	8.25
386.511	6.25
387.296	9.25
388.08	9.25
388.865	11.25
389.649	8.25
390.434	9.25
391.218	9.25
392.003	9.25
392.787	11.25
393.571	9.25
394.355	12.25
395.139	9.25
395.923	8.25
396.707	10.25
397.491	9.25
398.274	12.25
399.058	12.25
399.842	11.25
400.625	9.25
401.408	13.25
402.192	13.25
402.975	13.25
403.758	13.25
404.541	11.25
405.324	12.25
406.107	11.25
406.89	11.25
407.673	13.25
408.456	11.25
409.238	13.25
410.021	10.25
410.803	13.25
411.586	14.25
412.368	13.25
413.151	13.25
413.933	15.25
414.715	15.25
415.497	17.25
416.279	14.25
417.061	15.25
417.843	18.25
418.624	18.25
419.406	15.25
420.188	19.25
420.969	16.25
421.751	16.25
422.532	19.25
423.313	21.25
424.095	18.25
424.876	20.25
425.657	21.25
426.438	21.25
427.219	21.25
428	17.25
428.78	25.25
429.561	23.25
430.342	27.25
431.122	23.25
431.903	23.25
432.683	29.25
433.464	27.25
434.244	28.25
435.024	32.25
435.804	31.25
436.584	32.25
437.364	38.25
438.144	39.25
438.924	40.25
439.704	47.25
440.483	46.25
441.263	48.25
442.042	51.25
442.822	54.25
443.601	64.25
444.38	62.25
445.16	75.25
445.939	76.25
446.718	81.25
447.497	88.25
448.276	100.25
449.054	109.25
449.833	119.25
450.612	129.25
451.391	142.25
452.169	152.25
452.948	166.25
453.726	194.25
454.504	214.25
455.282	233.25
456.061	259.25
456.839	295.25
457.617	328.25
458.395	365.25
459.172	398.25
459.95	457.25
460.728	491.25
461.506	566.25
462.283	614.25
463.061	689.25
463.838	763.25
464.615	842.25
465.393	932.25
466.17	1021.25
466.947	1158.25
467.724	1267.25
468.501	1401.25
469.278	1547.25
470.055	1725.25
470.831	1895.25
471.608	2098.25
472.385	2306.25
473.161	2533.25
473.938	2783.25
474.714	3031.25
475.49	3309.25
476.266	3625.25
477.043	3941.25
477.819	4318.25
478.595	4724.25
479.371	5129.25
480.146	5607.25
480.922	6062.25
481.698	6612.25
482.473	7138.25
483.249	7728.25
484.024	8382.25
484.8	9077.25
485.575	9877.25
486.35	10669.25
487.126	11505.25
487.901	12440.25
488.676	13376.25
489.451	14413.25
490.225	15553.25
491	16667.25
491.775	17879.25
492.55	19167.25
493.324	20473.25
494.099	21819.25
494.873	23197.25
495.647	24656.25
496.422	26105.25
497.196	27444.25
497.97	28953.25
498.744	30325.25
499.518	31661.25
500.292	32861.25
501.066	33998.25
501.839	35127.25
502.613	36063.25
503.387	36873.25
504.16	37601.25
504.934	38061.25
505.707	38333.25
506.48	38472.25
507.253	38437.25
508.027	38044.25
508.8	37639.25
509.573	37169.25
510.346	36412.25
511.118	35501.25
511.891	34755.25
512.664	33808.25
513.437	32778.25
514.209	31596.25
514.982	30534.25
515.754	29395.25
516.526	28351.25
517.298	27209.25
518.071	26140.25
518.843	25081.25
519.615	24011.25
520.387	23131.25
521.159	22196.25
521.93	21364.25
522.702	20421.25
523.474	19597.25
524.245	18951.25
525.017	18129.25
525.788	17368.25
526.56	16599.25
527.331	15907.25
528.102	15177.25
528.873	14523.25
529.644	13815.25
530.415	13144.25
531.186	12553.25
531.957	11917.25
532.728	11379.25
533.498	10857.25
534.269	10179.25
535.039	9620.25
535.81	9154.25
536.58	8718.25
537.351	8253.25
538.121	7837.25
538.891	7378.25
539.661	6980.25
540.431	6628.25
541.201	6246.25
541.971	5946.25
542.741	5610.25
543.51	5328.25
544.28	5046.25
545.05	4829.25
545.819	4596.25
546.588	4369.25
547.358	4159.25
548.127	3951.25
548.896	3734.25
549.665	3555.25
550.434	3382.25
551.203	3200.25
551.972	3076.25
552.741	2880.25
553.51	2741.25
554.278	2569.25
555.047	2448.25
555.815	2309.25
556.584	2199.25
557.352	2079.25
558.121	1965.25
558.889	1847.25
559.657	1736.25
560.425	1657.25
561.193	1547.25
561.961	1479.25
562.729	1398.25
563.496	1323.25
564.264	1267.25
565.032	1197.25
565.799	1135.25
566.567	1057.25
567.334	996.25
568.101	949.25
568.869	891.25
569.636	851.25
570.403	797.25
571.17	756.25
571.937	713.25
572.704	669.25
573.471	628.25
574.237	597.25
575.004	569.25
575.771	531.25
576.537	503.25
577.303	471.25
578.07	445.25
578.836	417.25
579.602	409.25
580.368	379.25
581.134	356.25
581.9	338.25
582.666	327.25
583.432	305.25
584.198	290.25
584.964	274.25
585.729	261.25
586.495	250.25
587.26	238.25
588.025	219.25
588.791	209.25
589.556	203.25
590.321	190.25
591.086	175.25
591.851	173.25
592.616	162.25
593.381	152.25
594.146	149.25
594.911	141.25
595.675	134.25
596.44	134.25
597.204	122.25
597.969	118.25
598.733	116.25
599.497	106.25
600.261	102.25
601.025	95.25
601.79	92.25
602.553	88.25
603.317	87.25
604.081	83.25
604.845	83.25
605.609	80.25
606.372	71.25
607.136	71.25
607.899	65.25
608.662	67.25
609.426	58.25
610.189	61.25
610.952	60.25
611.715	58.25
612.478	52.25
613.241	53.25
614.004	50.25
614.767	47.25
615.529	47.25
616.292	47.25
617.055	43.25
617.817	43.25
618.579	40.25
619.342	41.25
620.104	36.25
620.866	37.25
621.628	36.25
622.39	33.25
623.152	35.25
623.914	29.25
624.676	30.25
625.438	30.25
626.199	31.25
626.961	26.25
627.722	22.25
628.484	26.25
629.245	27.25
630.006	24.25
630.768	23.25
631.529	22.25
632.29	19.25
633.051	21.25
633.812	21.25
634.573	20.25
635.333	20.25
636.094	19.25
636.855	19.25
637.615	18.25
638.376	20.25
639.136	17.25
639.896	16.25
640.657	18.25
641.417	13.25
642.177	18.25
642.937	13.25
643.697	13.25
644.457	15.25
645.216	18.25
645.976	12.25
646.736	14.25
647.495	14.25
648.255	12.25
649.014	12.25
649.774	14.25
650.533	12.25
651.292	11.25
652.051	12.25
652.81	12.25
653.569	10.25
654.328	10.25
655.087	11.25
655.846	11.25
656.604	13.25
657.363	13.25
658.121	12.25
658.88	8.25
659.638	10.25
660.397	9.25
661.155	10.25
661.913	9.25
662.671	11.25
663.429	10.25
664.187	9.25
664.945	9.25
665.703	9.25
666.46	9.25
667.218	7.25
667.976	10.25
668.733	8.25
669.49	9.25
670.248	9.25
671.005	8.25
671.762	9.25
672.519	7.25
673.276	8.25
674.033	7.25
674.79	8.25
675.547	8.25
676.304	7.25
677.06	6.25
677.817	9.25
678.574	8.25
679.33	8.25
680.086	7.25
680.843	9.25
681.599	10.25
682.355	5.25
683.111	8.25
683.867	7.25
684.623	6.25
685.379	7.25
686.135	7.25
686.89	7.25
687.646	9.25
688.402	6.25
689.157	5.25
689.912	6.25
690.668	6.25
691.423	7.25
692.178	4.25
692.933	6.25
693.688	9.25
694.443	4.25
695.198	7.25
695.953	7.25
696.708	9.25
697.462	9.25
698.217	8.25
698.972	9.25
699.726	8.25
700.48	4.25
701.235	7.25
701.989	6.25
702.743	6.25
703.497	7.25
704.251	6.25
705.005	8.25
705.759	7.25
706.513	5.25
707.266	5.25
708.02	7.25
708.774	5.25
709.527	7.25
710.28	6.25
711.034	5.25
711.787	5.25
712.54	5.25
713.293	4.25
714.046	8.25
714.799	6.25
715.552	5.25
716.305	8.25
717.058	5.25
717.81	7.25
718.563	9.25
719.315	7.25
720.068	7.25
720.82	6.25
721.573	3.25
722.325	6.25
723.077	7.25
723.829	8.25
724.581	7.25
725.333	8.25
726.085	7.25
726.836	7.25
727.588	7.25
728.34	8.25
729.091	8.25
729.843	6.25
730.594	5.25
731.346	9.25
732.097	7.25
732.848	10.25
733.599	9.25
734.35	7.25
735.101	9.25
735.852	8.25
736.603	6.25
737.354	9.25
738.104	7.25
738.855	6.25
739.605	9.25
740.356	8.25
741.106	8.25
741.856	8.25
742.607	9.25
743.357	9.25
744.107	9.25
744.857	6.25
745.607	8.25
746.357	6.25
747.106	7.25
747.856	6.25
748.606	8.25
749.355	10.25
750.105	7.25
750.854	7.25
751.603	9.25
752.353	9.25
753.102	7.25
753.851	9.25
754.6	8.25
755.349	9.25
756.098	10.25
756.847	9.25
757.595	8.25
758.344	9.25
759.093	11.25
759.841	8.25
760.589	8.25
761.338	10.25
762.086	11.25
762.834	9.25
763.582	9.25
764.331	11.25
765.079	10.25
765.826	11.25
766.574	10.25
767.322	11.25
768.07	10.25
768.817	12.25
769.565	11.25
770.312	12.25
771.06	11.25
771.807	15.25
772.554	10.25
773.302	12.25
774.049	11.25
774.796	13.25
775.543	13.25
776.29	15.25
777.036	10.25
777.783	13.25
778.53	11.25
779.276	11.25
780.023	12.25
780.769	12.25
781.516	13.25
782.262	11.25
783.008	14.25
783.754	12.25
784.5	13.25
785.246	12.25
785.992	14.25
786.738	13.25
787.484	12.25
788.23	13.25
788.975	13.25
789.721	10.25
790.466	13.25
791.212	10.25
791.957	13.25
792.702	15.25
793.447	14.25
794.193	10.25
794.938	13.25
795.683	12.25
796.427	11.25
797.172	12.25
797.917	12.25
798.662	11.25
799.406	11.25
800.151	11.25
800.895	10.25
801.64	9.25
802.384	10.25
803.128	11.25
803.872	8.25
804.616	11.25
805.36	7.25
806.104	8.25
806.848	9.25
807.592	9.25
808.336	9.25
809.079	6.25
809.823	10.25
810.566	7.25
811.31	11.25
812.053	6.25
812.796	8.25
813.539	7.25
814.283	5.25
815.026	8.25
815.769	9.25
816.511	7.25
817.254	7.25
817.997	9.25
818.74	6.25
819.482	9.25
820.225	4.25
820.967	9.25
821.71	5.25
822.452	7.25
823.194	6.25
823.936	6.25
824.678	5.25
825.42	5.25
826.162	5.25
826.904	7.25
827.646	3.25
828.388	7.25
829.129	7.25
829.871	5.25
830.612	5.25
831.354	5.25
832.095	4.25
832.836	6.25
833.577	6.25
834.319	6.25
835.06	2.25
835.801	5.25
836.542	5.25
837.282	6.25
838.023	6.25
838.764	5.25
839.504	3.25
840.245	6.25
840.985	7.25
841.726	5.25
842.466	3.25
843.206	5.25
843.946	6.25
844.687	5.25
845.427	7.25
846.166	3.25
846.906	2.25
847.646	5.25
848.386	4.25
849.125	5.25
849.865	6.25
850.605	5.25
851.344	4.25
852.083	5.25
852.823	4.25
853.562	5.25
854.301	5.25
855.04	2.25
855.779	4.25
856.518	5.25
857.257	2.25
857.995	5.25
858.734	3.25
859.473	7.25
860.211	5.25
860.95	4.25
861.688	5.25
862.426	3.25
863.165	1.25
863.903	3.25
864.641	4.25
865.379	2.25
866.117	4.25
866.855	5.25
867.593	3.25
868.33	0.25
869.068	2.25
869.806	5.25
870.543	3.25
871.28	3.25
872.018	2.25
872.755	1.25
873.492	5.25
874.229	1.25
874.967	2.25
875.703	2.25
876.44	1.25
877.177	3.25
877.914	3.25
878.651	1.25
879.387	3.25
880.124	3.25
880.86	1.25
881.597	3.25
882.333	2.25
883.069	4.25
883.806	1.25
884.542	1.25
885.278	1.25
886.014	3.25
886.749	3.25
887.485	1.25
888.221	0.25
888.957	1.25
889.692	2.25
890.428	1.25
891.163	1.25
891.899	1.25
892.634	2.25
893.369	3.25
894.104	0.25
894.839	1.25
895.574	0.25
896.309	1.25
897.044	-0.75
897.779	1.25
898.514	2.25
899.248	2.25
899.983	2.25
900.717	0.25
901.452	-0.75
902.186	1.25
902.92	0.25
903.654	1.25
904.389	0.25
905.123	0.25
905.857	0.25
906.59	3.25
907.324	-1.75
908.058	3.25
908.792	1.25
909.525	0.25
910.259	1.25
910.992	3.25
911.726	1.25
912.459	2.25
913.192	0.25
913.925	2.25
914.658	0.25
915.391	1.25
916.124	1.25
916.857	3.25
917.59	1.25
918.323	4.25
919.055	0.25
919.788	1.25
920.521	3.25
921.253	-0.75
921.985	1.25
922.718	1.25
923.45	1.25
924.182	1.25
924.914	1.25
925.646	1.25
926.378	-2.75
927.11	1.25
927.841	0.25
928.573	-0.75
929.305	1.25
930.036	0.25
930.768	-0.75
931.499	0.25
932.23	-0.75
932.962	-0.75
933.693	2.25
934.424	0.25
935.155	1.25
935.886	2.25
936.617	1.25
937.348	1.25
938.078	1.25
938.809	0.25
939.54	-0.75
940.27	0.25
941.001	2.25
941.731	-1.75
942.461	-0.75
943.191	-0.75
943.922	1.25
944.652	-0.75
945.382	1.25
946.112	1.25
946.841	-0.75
947.571	0.25
948.301	0.25
949.031	1.25
949.76	1.25
950.49	3.25
951.219	-1.75
951.948	-0.75
952.678	0.25
953.407	1.25
954.136	2.25
954.865	1.25
955.594	1.25
956.323	1.25
957.052	3.25
957.78	0.25
958.509	-0.75
959.238	1.25
959.966	1.25
960.695	1.25
961.423	1.25
962.151	1.25
962.88	1.25
963.608	1.25
964.336	1.25
965.064	1.25
965.792	0.25
966.52	0.25
967.247	0.25
967.975	0.25
968.703	1.25
969.43	1.25
970.158	-0.75
970.885	-0.75
971.613	1.25
972.34	-0.75
973.067	1.25
973.794	1.25
974.521	2.25
975.248	1.25
975.975	2.25
976.702	1.25
977.429	-0.75
978.156	0.25
978.882	0.25
979.609	0.25
980.335	1.25
981.062	2.25
981.788	0.25
982.514	2.25
983.24	-0.75
983.967	1.25
984.693	1.25
985.419	1.25
986.144	1.25
986.87	-2.75
987.596	1.25
988.322	2.25
989.047	1.25
989.773	1.25
990.498	-0.75
991.224	2.25
991.949	0.25
992.674	0.25
993.399	1.25
994.124	-1.75
994.849	0.25
995.574	-0.75
996.299	-0.75
997.024	1.25
997.749	1.25
998.473	1.25
999.198	3.25
999.922	2.25
1000.647	1.25
1001.371	3.25
1002.095	-1.75
1002.82	0.25
1003.544	-1.75
1004.268	4.25
1004.992	5.25
1005.716	3.25
1006.439	2.25
1007.163	3.25
1007.887	4.25
1008.611	2.25
1009.334	-3.75
1010.058	-0.75
1010.781	-0.75
1011.504	2.25
1012.228	2.25
1012.951	0.25
1013.674	1.25
1014.397	0.25
1015.12	-1.75
