节点500_565_QEPB04081__282__09-55-06-549.txt的数据

Date: Thu Nov 13 09:55:06 CST 2025
User: PC
Spectrometer: QEPB0408
触发模式: 0
积分时间 (秒): 1.000000E-2
Scans to average: 1
启用暗噪声校正: true
启用非线性校正: false
滑动平均宽度: 0
X轴模式: Wavelengths
Number of Pixels in Spectrum: 1044
>>>>>Begin Spectral Data<<<<<
220.843	4.25
221.644	4.25
222.444	4.25
223.244	4.25
224.045	6.25
224.845	4.25
225.645	5.25
226.445	6.25
227.245	3.25
228.045	5.25
228.845	7.25
229.645	5.25
230.444	6.25
231.244	5.25
232.043	6.25
232.843	7.25
233.642	7.25
234.442	5.25
235.241	7.25
236.04	9.25
236.839	6.25
237.638	9.25
238.437	8.25
239.236	10.25
240.035	7.25
240.833	10.25
241.632	6.25
242.43	8.25
243.229	10.25
244.027	9.25
244.826	9.25
245.624	10.25
246.422	10.25
247.22	9.25
248.018	12.25
248.816	12.25
249.614	12.25
250.412	9.25
251.21	12.25
252.007	13.25
252.805	12.25
253.602	14.25
254.4	14.25
255.197	15.25
255.994	17.25
256.791	17.25
257.589	15.25
258.386	16.25
259.183	16.25
259.979	16.25
260.776	17.25
261.573	20.25
262.37	19.25
263.166	20.25
263.963	19.25
264.759	19.25
265.556	21.25
266.352	21.25
267.148	19.25
267.944	22.25
268.74	19.25
269.536	23.25
270.332	24.25
271.128	25.25
271.924	28.25
272.719	28.25
273.515	26.25
274.311	29.25
275.106	27.25
275.901	31.25
276.697	28.25
277.492	29.25
278.287	27.25
279.082	29.25
279.877	29.25
280.672	29.25
281.467	26.25
282.262	26.25
283.056	28.25
283.851	29.25
284.646	29.25
285.44	29.25
286.234	27.25
287.029	26.25
287.823	27.25
288.617	25.25
289.411	26.25
290.205	24.25
290.999	24.25
291.793	28.25
292.587	28.25
293.381	28.25
294.174	28.25
294.968	27.25
295.761	25.25
296.555	25.25
297.348	20.25
298.141	20.25
298.935	22.25
299.728	25.25
300.521	18.25
301.314	21.25
302.107	17.25
302.899	21.25
303.692	17.25
304.485	15.25
305.277	20.25
306.07	16.25
306.862	21.25
307.655	18.25
308.447	17.25
309.239	18.25
310.031	15.25
310.823	16.25
311.615	16.25
312.407	16.25
313.199	16.25
313.991	16.25
314.783	14.25
315.574	13.25
316.366	11.25
317.157	13.25
317.949	14.25
318.74	10.25
319.531	13.25
320.322	11.25
321.113	12.25
321.904	12.25
322.695	11.25
323.486	11.25
324.277	9.25
325.068	8.25
325.858	10.25
326.649	10.25
327.439	12.25
328.23	9.25
329.02	9.25
329.81	10.25
330.6	10.25
331.391	9.25
332.181	8.25
332.971	11.25
333.76	6.25
334.55	11.25
335.34	11.25
336.13	12.25
336.919	9.25
337.709	12.25
338.498	10.25
339.287	9.25
340.077	8.25
340.866	11.25
341.655	7.25
342.444	10.25
343.233	9.25
344.022	11.25
344.811	8.25
345.6	7.25
346.388	8.25
347.177	10.25
347.965	12.25
348.754	11.25
349.542	10.25
350.33	7.25
351.119	10.25
351.907	6.25
352.695	10.25
353.483	8.25
354.271	8.25
355.059	8.25
355.846	8.25
356.634	10.25
357.422	12.25
358.209	8.25
358.997	6.25
359.784	6.25
360.571	10.25
361.359	8.25
362.146	7.25
362.933	8.25
363.72	8.25
364.507	11.25
365.294	8.25
366.081	6.25
366.867	8.25
367.654	8.25
368.44	6.25
369.227	9.25
370.013	7.25
370.8	6.25
371.586	7.25
372.372	7.25
373.158	6.25
373.944	10.25
374.73	6.25
375.516	8.25
376.302	8.25
377.088	9.25
377.873	6.25
378.659	12.25
379.445	8.25
380.23	7.25
381.015	6.25
381.801	9.25
382.586	6.25
383.371	8.25
384.156	7.25
384.941	9.25
385.726	8.25
386.511	8.25
387.296	8.25
388.08	9.25
388.865	6.25
389.649	8.25
390.434	7.25
391.218	12.25
392.003	11.25
392.787	11.25
393.571	8.25
394.355	8.25
395.139	12.25
395.923	13.25
396.707	8.25
397.491	10.25
398.274	12.25
399.058	12.25
399.842	9.25
400.625	11.25
401.408	9.25
402.192	13.25
402.975	10.25
403.758	10.25
404.541	12.25
405.324	10.25
406.107	11.25
406.89	14.25
407.673	14.25
408.456	13.25
409.238	15.25
410.021	12.25
410.803	11.25
411.586	14.25
412.368	12.25
413.151	14.25
413.933	13.25
414.715	15.25
415.497	14.25
416.279	15.25
417.061	18.25
417.843	16.25
418.624	16.25
419.406	17.25
420.188	17.25
420.969	16.25
421.751	19.25
422.532	21.25
423.313	17.25
424.095	21.25
424.876	17.25
425.657	20.25
426.438	18.25
427.219	20.25
428	22.25
428.78	22.25
429.561	25.25
430.342	22.25
431.122	20.25
431.903	27.25
432.683	30.25
433.464	28.25
434.244	29.25
435.024	32.25
435.804	32.25
436.584	32.25
437.364	34.25
438.144	37.25
438.924	40.25
439.704	39.25
440.483	43.25
441.263	48.25
442.042	51.25
442.822	52.25
443.601	56.25
444.38	61.25
445.16	70.25
445.939	72.25
446.718	76.25
447.497	81.25
448.276	89.25
449.054	100.25
449.833	108.25
450.612	119.25
451.391	130.25
452.169	148.25
452.948	158.25
453.726	174.25
454.504	195.25
455.282	218.25
456.061	241.25
456.839	272.25
457.617	294.25
458.395	333.25
459.172	376.25
459.95	421.25
460.728	464.25
461.506	520.25
462.283	577.25
463.061	647.25
463.838	710.25
464.615	793.25
465.393	887.25
466.17	990.25
466.947	1115.25
467.724	1237.25
468.501	1368.25
469.278	1513.25
470.055	1681.25
470.831	1854.25
471.608	2065.25
472.385	2295.25
473.161	2515.25
473.938	2778.25
474.714	3063.25
475.49	3360.25
476.266	3709.25
477.043	4057.25
477.819	4469.25
478.595	4920.25
479.371	5366.25
480.146	5877.25
480.922	6448.25
481.698	7018.25
482.473	7634.25
483.249	8360.25
484.024	9085.25
484.8	9945.25
485.575	10792.25
486.35	11697.25
487.126	12750.25
487.901	13786.25
488.676	14974.25
489.451	16224.25
490.225	17555.25
491	18857.25
491.775	20304.25
492.55	21844.25
493.324	23309.25
494.099	24960.25
494.873	26455.25
495.647	28228.25
496.422	29859.25
497.196	31365.25
497.97	33018.25
498.744	34428.25
499.518	35794.25
500.292	37054.25
501.066	38324.25
501.839	39317.25
502.613	40250.25
503.387	40920.25
504.16	41358.25
504.934	41654.25
505.707	41598.25
506.48	41485.25
507.253	41126.25
508.027	40472.25
508.8	39739.25
509.573	38794.25
510.346	37709.25
511.118	36712.25
511.891	35643.25
512.664	34415.25
513.437	32978.25
514.209	31811.25
514.982	30602.25
515.754	29357.25
516.526	28053.25
517.298	26957.25
518.071	25874.25
518.843	24843.25
519.615	23766.25
520.387	22789.25
521.159	21927.25
521.93	21087.25
522.702	20145.25
523.474	19403.25
524.245	18585.25
525.017	17816.25
525.788	16996.25
526.56	16259.25
527.331	15563.25
528.102	14801.25
528.873	14100.25
529.644	13408.25
530.415	12711.25
531.186	12076.25
531.957	11496.25
532.728	10914.25
533.498	10366.25
534.269	9751.25
535.039	9192.25
535.81	8707.25
536.58	8262.25
537.351	7816.25
538.121	7384.25
538.891	7004.25
539.661	6589.25
540.431	6287.25
541.201	5920.25
541.971	5624.25
542.741	5296.25
543.51	5047.25
544.28	4776.25
545.05	4557.25
545.819	4328.25
546.588	4125.25
547.358	3895.25
548.127	3732.25
548.896	3532.25
549.665	3365.25
550.434	3181.25
551.203	3020.25
551.972	2884.25
552.741	2729.25
553.51	2572.25
554.278	2402.25
555.047	2284.25
555.815	2150.25
556.584	2034.25
557.352	1942.25
558.121	1821.25
558.889	1729.25
559.657	1612.25
560.425	1531.25
561.193	1452.25
561.961	1367.25
562.729	1292.25
563.496	1232.25
564.264	1152.25
565.032	1103.25
565.799	1040.25
566.567	991.25
567.334	942.25
568.101	870.25
568.869	822.25
569.636	793.25
570.403	738.25
571.17	702.25
571.937	661.25
572.704	621.25
573.471	582.25
574.237	554.25
575.004	522.25
575.771	497.25
576.537	459.25
577.303	439.25
578.07	421.25
578.836	388.25
579.602	371.25
580.368	346.25
581.134	335.25
581.9	318.25
582.666	290.25
583.432	280.25
584.198	265.25
584.964	252.25
585.729	249.25
586.495	229.25
587.26	212.25
588.025	208.25
588.791	200.25
589.556	185.25
590.321	177.25
591.086	170.25
591.851	159.25
592.616	150.25
593.381	148.25
594.146	142.25
594.911	128.25
595.675	125.25
596.44	118.25
597.204	115.25
597.969	105.25
598.733	103.25
599.497	99.25
600.261	96.25
601.025	91.25
601.79	87.25
602.553	80.25
603.317	82.25
604.081	74.25
604.845	74.25
605.609	70.25
606.372	71.25
607.136	64.25
607.899	67.25
608.662	62.25
609.426	58.25
610.189	58.25
610.952	51.25
611.715	57.25
612.478	50.25
613.241	47.25
614.004	43.25
614.767	44.25
615.529	44.25
616.292	39.25
617.055	40.25
617.817	38.25
618.579	37.25
619.342	36.25
620.104	35.25
620.866	34.25
621.628	32.25
622.39	29.25
623.152	29.25
623.914	30.25
624.676	27.25
625.438	28.25
626.199	25.25
626.961	25.25
627.722	25.25
628.484	24.25
629.245	24.25
630.006	25.25
630.768	22.25
631.529	23.25
632.29	22.25
633.051	22.25
633.812	20.25
634.573	17.25
635.333	16.25
636.094	16.25
636.855	18.25
637.615	17.25
638.376	15.25
639.136	16.25
639.896	16.25
640.657	14.25
641.417	15.25
642.177	14.25
642.937	16.25
643.697	15.25
644.457	13.25
645.216	14.25
645.976	13.25
646.736	13.25
647.495	11.25
648.255	13.25
649.014	13.25
649.774	11.25
650.533	13.25
651.292	11.25
652.051	12.25
652.81	13.25
653.569	11.25
654.328	10.25
655.087	11.25
655.846	9.25
656.604	10.25
657.363	8.25
658.121	10.25
658.88	7.25
659.638	8.25
660.397	9.25
661.155	8.25
661.913	10.25
662.671	8.25
663.429	10.25
664.187	8.25
664.945	7.25
665.703	6.25
666.46	7.25
667.218	6.25
667.976	6.25
668.733	6.25
669.49	7.25
670.248	8.25
671.005	7.25
671.762	6.25
672.519	8.25
673.276	7.25
674.033	7.25
674.79	9.25
675.547	5.25
676.304	6.25
677.06	6.25
677.817	6.25
678.574	4.25
679.33	8.25
680.086	8.25
680.843	7.25
681.599	8.25
682.355	7.25
683.111	5.25
683.867	6.25
684.623	6.25
685.379	8.25
686.135	6.25
686.89	8.25
687.646	6.25
688.402	5.25
689.157	4.25
689.912	7.25
690.668	6.25
691.423	6.25
692.178	8.25
692.933	8.25
693.688	6.25
694.443	5.25
695.198	6.25
695.953	5.25
696.708	7.25
697.462	5.25
698.217	5.25
698.972	6.25
699.726	6.25
700.48	4.25
701.235	7.25
701.989	3.25
702.743	6.25
703.497	7.25
704.251	4.25
705.005	3.25
705.759	8.25
706.513	5.25
707.266	6.25
708.02	4.25
708.774	7.25
709.527	6.25
710.28	5.25
711.034	7.25
711.787	3.25
712.54	6.25
713.293	4.25
714.046	6.25
714.799	2.25
715.552	7.25
716.305	4.25
717.058	7.25
717.81	5.25
718.563	8.25
719.315	8.25
720.068	5.25
720.82	5.25
721.573	6.25
722.325	6.25
723.077	5.25
723.829	6.25
724.581	6.25
725.333	7.25
726.085	5.25
726.836	8.25
727.588	6.25
728.34	9.25
729.091	6.25
729.843	4.25
730.594	6.25
731.346	6.25
732.097	8.25
732.848	8.25
733.599	7.25
734.35	6.25
735.101	9.25
735.852	6.25
736.603	8.25
737.354	6.25
738.104	8.25
738.855	6.25
739.605	9.25
740.356	9.25
741.106	5.25
741.856	10.25
742.607	6.25
743.357	6.25
744.107	6.25
744.857	8.25
745.607	10.25
746.357	7.25
747.106	8.25
747.856	5.25
748.606	8.25
749.355	8.25
750.105	6.25
750.854	7.25
751.603	8.25
752.353	9.25
753.102	9.25
753.851	14.25
754.6	12.25
755.349	10.25
756.098	9.25
756.847	8.25
757.595	8.25
758.344	9.25
759.093	11.25
759.841	9.25
760.589	10.25
761.338	11.25
762.086	11.25
762.834	9.25
763.582	10.25
764.331	12.25
765.079	11.25
765.826	10.25
766.574	12.25
767.322	10.25
768.07	11.25
768.817	10.25
769.565	12.25
770.312	11.25
771.06	11.25
771.807	12.25
772.554	11.25
773.302	13.25
774.049	12.25
774.796	12.25
775.543	12.25
776.29	11.25
777.036	13.25
777.783	12.25
778.53	12.25
779.276	14.25
780.023	12.25
780.769	14.25
781.516	12.25
782.262	12.25
783.008	14.25
783.754	13.25
784.5	12.25
785.246	13.25
785.992	11.25
786.738	13.25
787.484	12.25
788.23	10.25
788.975	13.25
789.721	10.25
790.466	13.25
791.212	12.25
791.957	12.25
792.702	11.25
793.447	12.25
794.193	9.25
794.938	13.25
795.683	10.25
796.427	11.25
797.172	12.25
797.917	13.25
798.662	13.25
799.406	10.25
800.151	12.25
800.895	10.25
801.64	9.25
802.384	10.25
803.128	11.25
803.872	9.25
804.616	9.25
805.36	10.25
806.104	8.25
806.848	8.25
807.592	8.25
808.336	8.25
809.079	8.25
809.823	6.25
810.566	7.25
811.31	8.25
812.053	8.25
812.796	7.25
813.539	6.25
814.283	7.25
815.026	7.25
815.769	7.25
816.511	5.25
817.254	7.25
817.997	8.25
818.74	4.25
819.482	7.25
820.225	7.25
820.967	5.25
821.71	7.25
822.452	7.25
823.194	6.25
823.936	4.25
824.678	4.25
825.42	4.25
826.162	5.25
826.904	6.25
827.646	4.25
828.388	5.25
829.129	4.25
829.871	3.25
830.612	6.25
831.354	6.25
832.095	6.25
832.836	5.25
833.577	8.25
834.319	4.25
835.06	6.25
835.801	6.25
836.542	5.25
837.282	6.25
838.023	4.25
838.764	5.25
839.504	6.25
840.245	3.25
840.985	3.25
841.726	5.25
842.466	6.25
843.206	4.25
843.946	4.25
844.687	2.25
845.427	4.25
846.166	3.25
846.906	3.25
847.646	2.25
848.386	4.25
849.125	2.25
849.865	5.25
850.605	2.25
851.344	3.25
852.083	4.25
852.823	2.25
853.562	3.25
854.301	5.25
855.04	4.25
855.779	4.25
856.518	3.25
857.257	3.25
857.995	2.25
858.734	3.25
859.473	1.25
860.211	2.25
860.95	6.25
861.688	2.25
862.426	2.25
863.165	1.25
863.903	2.25
864.641	4.25
865.379	1.25
866.117	2.25
866.855	3.25
867.593	1.25
868.33	4.25
869.068	-0.75
869.806	3.25
870.543	2.25
871.28	1.25
872.018	3.25
872.755	1.25
873.492	2.25
874.229	0.25
874.967	1.25
875.703	0.25
876.44	2.25
877.177	1.25
877.914	2.25
878.651	0.25
879.387	0.25
880.124	2.25
880.86	-2.75
881.597	2.25
882.333	0.25
883.069	2.25
883.806	2.25
884.542	2.25
885.278	2.25
886.014	0.25
886.749	2.25
887.485	1.25
888.221	2.25
888.957	1.25
889.692	0.25
890.428	0.25
891.163	-0.75
891.899	0.25
892.634	0.25
893.369	0.25
894.104	0.25
894.839	2.25
895.574	0.25
896.309	1.25
897.044	1.25
897.779	0.25
898.514	0.25
899.248	-0.75
899.983	1.25
900.717	0.25
901.452	0.25
902.186	-0.75
902.92	1.25
903.654	0.25
904.389	-0.75
905.123	0.25
905.857	2.25
906.59	0.25
907.324	0.25
908.058	0.25
908.792	1.25
909.525	-0.75
910.259	0.25
910.992	1.25
911.726	1.25
912.459	-0.75
913.192	-0.75
913.925	0.25
914.658	0.25
915.391	1.25
916.124	2.25
916.857	0.25
917.59	2.25
918.323	2.25
919.055	0.25
919.788	0.25
920.521	-0.75
921.253	1.25
921.985	1.25
922.718	1.25
923.45	-0.75
924.182	1.25
924.914	-0.75
925.646	0.25
926.378	1.25
927.11	2.25
927.841	0.25
928.573	1.25
929.305	0.25
930.036	0.25
930.768	1.25
931.499	0.25
932.23	1.25
932.962	1.25
933.693	0.25
934.424	1.25
935.155	-1.75
935.886	-0.75
936.617	1.25
937.348	-0.75
938.078	-0.75
938.809	-0.75
939.54	0.25
940.27	-1.75
941.001	1.25
941.731	-2.75
942.461	-0.75
943.191	-1.75
943.922	-1.75
944.652	-0.75
945.382	-0.75
946.112	0.25
946.841	-0.75
947.571	0.25
948.301	1.25
949.031	0.25
949.76	0.25
950.49	-0.75
951.219	0.25
951.948	-1.75
952.678	0.25
953.407	-1.75
954.136	-1.75
954.865	1.25
955.594	0.25
956.323	-1.75
957.052	0.25
957.78	-1.75
958.509	0.25
959.238	-0.75
959.966	2.25
960.695	-2.75
961.423	1.25
962.151	1.25
962.88	1.25
963.608	0.25
964.336	-2.75
965.064	1.25
965.792	0.25
966.52	0.25
967.247	0.25
967.975	0.25
968.703	0.25
969.43	2.25
970.158	0.25
970.885	2.25
971.613	-0.75
972.34	-1.75
973.067	0.25
973.794	1.25
974.521	1.25
975.248	-1.75
975.975	-0.75
976.702	0.25
977.429	1.25
978.156	-1.75
978.882	2.25
979.609	0.25
980.335	0.25
981.062	-2.75
981.788	0.25
982.514	0.25
983.24	0.25
983.967	0.25
984.693	-0.75
985.419	0.25
986.144	1.25
986.87	-0.75
987.596	-0.75
988.322	0.25
989.047	1.25
989.773	0.25
990.498	0.25
991.224	0.25
991.949	-0.75
992.674	0.25
993.399	0.25
994.124	1.25
994.849	-1.75
995.574	-2.75
996.299	1.25
997.024	-0.75
997.749	-0.75
998.473	0.25
999.198	1.25
999.922	-0.75
1000.647	1.25
1001.371	2.25
1002.095	-0.75
1002.82	-0.75
1003.544	-0.75
1004.268	3.25
1004.992	3.25
1005.716	-0.75
1006.439	2.25
1007.163	3.25
1007.887	3.25
1008.611	-0.75
1009.334	2.25
1010.058	-2.75
1010.781	1.25
1011.504	-0.75
1012.228	-1.75
1012.951	0.25
1013.674	1.25
1014.397	-0.75
1015.12	-0.75
