节点500_565_QEPB04081__68__09-51-34-038.txt的数据

Date: Thu Nov 13 09:51:34 CST 2025
User: PC
Spectrometer: QEPB0408
触发模式: 0
积分时间 (秒): 1.000000E-2
Scans to average: 1
启用暗噪声校正: true
启用非线性校正: false
滑动平均宽度: 0
X轴模式: Wavelengths
Number of Pixels in Spectrum: 1044
>>>>>Begin Spectral Data<<<<<
220.843	4.88
221.644	2.88
222.444	4.88
223.244	4.88
224.045	6.88
224.845	4.88
225.645	6.88
226.445	3.88
227.245	6.88
228.045	4.88
228.845	6.88
229.645	4.88
230.444	5.88
231.244	6.88
232.043	8.88
232.843	6.88
233.642	4.88
234.442	7.88
235.241	11.88
236.04	8.88
236.839	9.88
237.638	9.88
238.437	8.88
239.236	8.88
240.035	4.88
240.833	8.88
241.632	12.88
242.43	11.88
243.229	10.88
244.027	9.88
244.826	9.88
245.624	10.88
246.422	13.88
247.22	11.88
248.018	13.88
248.816	13.88
249.614	14.88
250.412	13.88
251.21	14.88
252.007	14.88
252.805	14.88
253.602	16.88
254.4	16.88
255.197	15.88
255.994	15.88
256.791	16.88
257.589	22.88
258.386	18.88
259.183	21.88
259.979	20.88
260.776	18.88
261.573	19.88
262.37	20.88
263.166	22.88
263.963	22.88
264.759	23.88
265.556	23.88
266.352	24.88
267.148	25.88
267.944	27.88
268.74	26.88
269.536	27.88
270.332	28.88
271.128	29.88
271.924	28.88
272.719	29.88
273.515	27.88
274.311	28.88
275.106	28.88
275.901	29.88
276.697	28.88
277.492	31.88
278.287	29.88
279.082	29.88
279.877	31.88
280.672	31.88
281.467	32.88
282.262	31.88
283.056	30.88
283.851	32.88
284.646	31.88
285.44	31.88
286.234	29.88
287.029	31.88
287.823	28.88
288.617	29.88
289.411	30.88
290.205	28.88
290.999	30.88
291.793	28.88
292.587	29.88
293.381	24.88
294.174	27.88
294.968	26.88
295.761	23.88
296.555	23.88
297.348	26.88
298.141	24.88
298.935	26.88
299.728	22.88
300.521	21.88
301.314	20.88
302.107	23.88
302.899	20.88
303.692	20.88
304.485	19.88
305.277	18.88
306.07	22.88
306.862	18.88
307.655	16.88
308.447	16.88
309.239	18.88
310.031	19.88
310.823	18.88
311.615	15.88
312.407	19.88
313.199	15.88
313.991	14.88
314.783	13.88
315.574	13.88
316.366	15.88
317.157	11.88
317.949	10.88
318.74	12.88
319.531	10.88
320.322	13.88
321.113	11.88
321.904	14.88
322.695	11.88
323.486	11.88
324.277	15.88
325.068	12.88
325.858	14.88
326.649	10.88
327.439	11.88
328.23	13.88
329.02	10.88
329.81	10.88
330.6	6.88
331.391	9.88
332.181	9.88
332.971	12.88
333.76	11.88
334.55	10.88
335.34	12.88
336.13	9.88
336.919	10.88
337.709	12.88
338.498	9.88
339.287	10.88
340.077	10.88
340.866	11.88
341.655	10.88
342.444	11.88
343.233	10.88
344.022	16.88
344.811	10.88
345.6	9.88
346.388	12.88
347.177	9.88
347.965	11.88
348.754	11.88
349.542	9.88
350.33	10.88
351.119	9.88
351.907	9.88
352.695	9.88
353.483	10.88
354.271	9.88
355.059	9.88
355.846	8.88
356.634	9.88
357.422	7.88
358.209	6.88
358.997	8.88
359.784	8.88
360.571	10.88
361.359	9.88
362.146	9.88
362.933	10.88
363.72	12.88
364.507	8.88
365.294	8.88
366.081	8.88
366.867	8.88
367.654	7.88
368.44	8.88
369.227	8.88
370.013	10.88
370.8	9.88
371.586	10.88
372.372	9.88
373.158	5.88
373.944	11.88
374.73	10.88
375.516	7.88
376.302	8.88
377.088	9.88
377.873	9.88
378.659	9.88
379.445	6.88
380.23	8.88
381.015	8.88
381.801	8.88
382.586	9.88
383.371	11.88
384.156	11.88
384.941	9.88
385.726	9.88
386.511	11.88
387.296	10.88
388.08	8.88
388.865	9.88
389.649	11.88
390.434	9.88
391.218	12.88
392.003	9.88
392.787	8.88
393.571	10.88
394.355	10.88
395.139	9.88
395.923	15.88
396.707	9.88
397.491	12.88
398.274	12.88
399.058	11.88
399.842	13.88
400.625	13.88
401.408	10.88
402.192	13.88
402.975	13.88
403.758	9.88
404.541	11.88
405.324	13.88
406.107	10.88
406.89	14.88
407.673	14.88
408.456	15.88
409.238	11.88
410.021	16.88
410.803	13.88
411.586	16.88
412.368	15.88
413.151	17.88
413.933	16.88
414.715	13.88
415.497	16.88
416.279	18.88
417.061	13.88
417.843	17.88
418.624	17.88
419.406	17.88
420.188	18.88
420.969	16.88
421.751	19.88
422.532	18.88
423.313	20.88
424.095	19.88
424.876	22.88
425.657	20.88
426.438	22.88
427.219	24.88
428	24.88
428.78	23.88
429.561	26.88
430.342	26.88
431.122	23.88
431.903	27.88
432.683	30.88
433.464	30.88
434.244	31.88
435.024	31.88
435.804	31.88
436.584	35.88
437.364	33.88
438.144	41.88
438.924	37.88
439.704	41.88
440.483	46.88
441.263	48.88
442.042	51.88
442.822	50.88
443.601	57.88
444.38	60.88
445.16	63.88
445.939	64.88
446.718	74.88
447.497	80.88
448.276	85.88
449.054	95.88
449.833	102.88
450.612	111.88
451.391	120.88
452.169	133.88
452.948	145.88
453.726	164.88
454.504	180.88
455.282	200.88
456.061	227.88
456.839	241.88
457.617	280.88
458.395	308.88
459.172	340.88
459.95	386.88
460.728	430.88
461.506	489.88
462.283	540.88
463.061	605.88
463.838	676.88
464.615	764.88
465.393	852.88
466.17	933.88
466.947	1055.88
467.724	1180.88
468.501	1316.88
469.278	1461.88
470.055	1643.88
470.831	1828.88
471.608	2016.88
472.385	2243.88
473.161	2483.88
473.938	2760.88
474.714	3076.88
475.49	3379.88
476.266	3723.88
477.043	4158.88
477.819	4560.88
478.595	5046.88
479.371	5554.88
480.146	6122.88
480.922	6699.88
481.698	7354.88
482.473	8058.88
483.249	8857.88
484.024	9722.88
484.8	10672.88
485.575	11658.88
486.35	12697.88
487.126	13867.88
487.901	15095.88
488.676	16491.88
489.451	17839.88
490.225	19375.88
491	20920.88
491.775	22644.88
492.55	24297.88
493.324	26003.88
494.099	27795.88
494.873	29624.88
495.647	31579.88
496.422	33353.88
497.196	35131.88
497.97	36671.88
498.744	38221.88
499.518	39650.88
500.292	40850.88
501.066	42022.88
501.839	42994.88
502.613	43676.88
503.387	44120.88
504.16	44431.88
504.934	44347.88
505.707	44134.88
506.48	43624.88
507.253	42922.88
508.027	42010.88
508.8	40960.88
509.573	39647.88
510.346	38446.88
511.118	37101.88
511.891	35843.88
512.664	34464.88
513.437	33010.88
514.209	31595.88
514.982	30319.88
515.754	28977.88
516.526	27748.88
517.298	26418.88
518.071	25441.88
518.843	24391.88
519.615	23373.88
520.387	22461.88
521.159	21607.88
521.93	20684.88
522.702	19761.88
523.474	19030.88
524.245	18230.88
525.017	17471.88
525.788	16658.88
526.56	15782.88
527.331	15073.88
528.102	14411.88
528.873	13632.88
529.644	12858.88
530.415	12237.88
531.186	11601.88
531.957	10988.88
532.728	10402.88
533.498	9834.88
534.269	9323.88
535.039	8752.88
535.81	8264.88
536.58	7848.88
537.351	7394.88
538.121	6983.88
538.891	6613.88
539.661	6311.88
540.431	5963.88
541.201	5627.88
541.971	5316.88
542.741	5048.88
543.51	4778.88
544.28	4574.88
545.05	4337.88
545.819	4115.88
546.588	3924.88
547.358	3714.88
548.127	3546.88
548.896	3341.88
549.665	3188.88
550.434	3003.88
551.203	2852.88
551.972	2711.88
552.741	2557.88
553.51	2391.88
554.278	2273.88
555.047	2149.88
555.815	2021.88
556.584	1925.88
557.352	1808.88
558.121	1697.88
558.889	1607.88
559.657	1502.88
560.425	1429.88
561.193	1363.88
561.961	1286.88
562.729	1210.88
563.496	1158.88
564.264	1075.88
565.032	1027.88
565.799	973.88
566.567	917.88
567.334	871.88
568.101	819.88
568.869	772.88
569.636	731.88
570.403	700.88
571.17	648.88
571.937	617.88
572.704	587.88
573.471	547.88
574.237	521.88
575.004	483.88
575.771	458.88
576.537	441.88
577.303	414.88
578.07	386.88
578.836	356.88
579.602	341.88
580.368	324.88
581.134	308.88
581.9	296.88
582.666	281.88
583.432	260.88
584.198	249.88
584.964	240.88
585.729	229.88
586.495	221.88
587.26	207.88
588.025	201.88
588.791	182.88
589.556	175.88
590.321	165.88
591.086	159.88
591.851	152.88
592.616	140.88
593.381	135.88
594.146	127.88
594.911	122.88
595.675	120.88
596.44	112.88
597.204	107.88
597.969	103.88
598.733	98.88
599.497	93.88
600.261	89.88
601.025	85.88
601.79	79.88
602.553	85.88
603.317	76.88
604.081	72.88
604.845	69.88
605.609	64.88
606.372	67.88
607.136	61.88
607.899	57.88
608.662	57.88
609.426	53.88
610.189	53.88
610.952	52.88
611.715	48.88
612.478	48.88
613.241	45.88
614.004	43.88
614.767	44.88
615.529	41.88
616.292	41.88
617.055	37.88
617.817	39.88
618.579	38.88
619.342	35.88
620.104	32.88
620.866	36.88
621.628	30.88
622.39	34.88
623.152	30.88
623.914	33.88
624.676	26.88
625.438	28.88
626.199	27.88
626.961	25.88
627.722	24.88
628.484	24.88
629.245	22.88
630.006	24.88
630.768	22.88
631.529	20.88
632.29	20.88
633.051	20.88
633.812	20.88
634.573	18.88
635.333	20.88
636.094	21.88
636.855	18.88
637.615	18.88
638.376	15.88
639.136	17.88
639.896	19.88
640.657	18.88
641.417	14.88
642.177	13.88
642.937	15.88
643.697	15.88
644.457	14.88
645.216	16.88
645.976	15.88
646.736	12.88
647.495	12.88
648.255	12.88
649.014	11.88
649.774	11.88
650.533	12.88
651.292	11.88
652.051	13.88
652.81	9.88
653.569	10.88
654.328	12.88
655.087	9.88
655.846	12.88
656.604	9.88
657.363	10.88
658.121	9.88
658.88	12.88
659.638	8.88
660.397	11.88
661.155	9.88
661.913	8.88
662.671	10.88
663.429	8.88
664.187	7.88
664.945	8.88
665.703	7.88
666.46	7.88
667.218	10.88
667.976	9.88
668.733	6.88
669.49	6.88
670.248	10.88
671.005	7.88
671.762	8.88
672.519	5.88
673.276	7.88
674.033	6.88
674.79	8.88
675.547	5.88
676.304	8.88
677.06	8.88
677.817	8.88
678.574	6.88
679.33	6.88
680.086	7.88
680.843	7.88
681.599	7.88
682.355	8.88
683.111	4.88
683.867	6.88
684.623	6.88
685.379	6.88
686.135	4.88
686.89	7.88
687.646	8.88
688.402	5.88
689.157	8.88
689.912	8.88
690.668	7.88
691.423	6.88
692.178	8.88
692.933	8.88
693.688	7.88
694.443	6.88
695.198	5.88
695.953	5.88
696.708	6.88
697.462	6.88
698.217	6.88
698.972	5.88
699.726	5.88
700.48	7.88
701.235	7.88
701.989	6.88
702.743	8.88
703.497	6.88
704.251	6.88
705.005	7.88
705.759	6.88
706.513	9.88
707.266	6.88
708.02	4.88
708.774	7.88
709.527	6.88
710.28	6.88
711.034	4.88
711.787	8.88
712.54	7.88
713.293	8.88
714.046	6.88
714.799	6.88
715.552	6.88
716.305	3.88
717.058	9.88
717.81	7.88
718.563	4.88
719.315	7.88
720.068	5.88
720.82	7.88
721.573	6.88
722.325	8.88
723.077	8.88
723.829	7.88
724.581	7.88
725.333	8.88
726.085	6.88
726.836	4.88
727.588	7.88
728.34	4.88
729.091	8.88
729.843	11.88
730.594	7.88
731.346	8.88
732.097	5.88
732.848	10.88
733.599	9.88
734.35	8.88
735.101	7.88
735.852	8.88
736.603	7.88
737.354	9.88
738.104	8.88
738.855	9.88
739.605	8.88
740.356	6.88
741.106	6.88
741.856	9.88
742.607	7.88
743.357	11.88
744.107	10.88
744.857	12.88
745.607	8.88
746.357	9.88
747.106	7.88
747.856	10.88
748.606	10.88
749.355	7.88
750.105	9.88
750.854	8.88
751.603	10.88
752.353	8.88
753.102	10.88
753.851	10.88
754.6	8.88
755.349	11.88
756.098	13.88
756.847	13.88
757.595	11.88
758.344	12.88
759.093	10.88
759.841	10.88
760.589	9.88
761.338	12.88
762.086	12.88
762.834	14.88
763.582	10.88
764.331	12.88
765.079	12.88
765.826	11.88
766.574	12.88
767.322	11.88
768.07	12.88
768.817	11.88
769.565	13.88
770.312	12.88
771.06	17.88
771.807	13.88
772.554	13.88
773.302	13.88
774.049	15.88
774.796	16.88
775.543	12.88
776.29	13.88
777.036	13.88
777.783	13.88
778.53	13.88
779.276	12.88
780.023	15.88
780.769	14.88
781.516	13.88
782.262	13.88
783.008	15.88
783.754	15.88
784.5	13.88
785.246	13.88
785.992	14.88
786.738	14.88
787.484	13.88
788.23	16.88
788.975	14.88
789.721	12.88
790.466	13.88
791.212	11.88
791.957	12.88
792.702	12.88
793.447	16.88
794.193	13.88
794.938	12.88
795.683	15.88
796.427	13.88
797.172	13.88
797.917	12.88
798.662	10.88
799.406	12.88
800.151	10.88
800.895	9.88
801.64	12.88
802.384	11.88
803.128	9.88
803.872	11.88
804.616	8.88
805.36	10.88
806.104	11.88
806.848	9.88
807.592	10.88
808.336	9.88
809.079	10.88
809.823	9.88
810.566	8.88
811.31	9.88
812.053	7.88
812.796	9.88
813.539	8.88
814.283	9.88
815.026	6.88
815.769	6.88
816.511	9.88
817.254	8.88
817.997	6.88
818.74	5.88
819.482	6.88
820.225	6.88
820.967	7.88
821.71	6.88
822.452	4.88
823.194	7.88
823.936	2.88
824.678	8.88
825.42	6.88
826.162	8.88
826.904	7.88
827.646	4.88
828.388	6.88
829.129	4.88
829.871	5.88
830.612	3.88
831.354	6.88
832.095	5.88
832.836	5.88
833.577	6.88
834.319	4.88
835.06	5.88
835.801	4.88
836.542	4.88
837.282	5.88
838.023	5.88
838.764	7.88
839.504	1.88
840.245	6.88
840.985	6.88
841.726	3.88
842.466	6.88
843.206	4.88
843.946	5.88
844.687	1.88
845.427	6.88
846.166	5.88
846.906	4.88
847.646	1.88
848.386	4.88
849.125	3.88
849.865	3.88
850.605	3.88
851.344	5.88
852.083	2.88
852.823	5.88
853.562	3.88
854.301	3.88
855.04	2.88
855.779	4.88
856.518	4.88
857.257	1.88
857.995	2.88
858.734	2.88
859.473	4.88
860.211	3.88
860.95	2.88
861.688	1.88
862.426	3.88
863.165	3.88
863.903	2.88
864.641	1.88
865.379	1.88
866.117	1.88
866.855	2.88
867.593	3.88
868.33	4.88
869.068	3.88
869.806	2.88
870.543	0.88
871.28	2.88
872.018	2.88
872.755	2.88
873.492	3.88
874.229	1.88
874.967	1.88
875.703	2.88
876.44	5.88
877.177	1.88
877.914	1.88
878.651	0.88
879.387	-0.12
880.124	1.88
880.86	0.88
881.597	1.88
882.333	1.88
883.069	-0.12
883.806	0.88
884.542	2.88
885.278	1.88
886.014	0.88
886.749	1.88
887.485	0.88
888.221	2.88
888.957	2.88
889.692	1.88
890.428	3.88
891.163	1.88
891.899	1.88
892.634	-0.12
893.369	0.88
894.104	2.88
894.839	1.88
895.574	2.88
896.309	2.88
897.044	1.88
897.779	1.88
898.514	1.88
899.248	0.88
899.983	1.88
900.717	1.88
901.452	-1.12
902.186	1.88
902.92	0.88
903.654	0.88
904.389	-0.12
905.123	2.88
905.857	-0.12
906.59	1.88
907.324	1.88
908.058	2.88
908.792	0.88
909.525	0.88
910.259	0.88
910.992	0.88
911.726	-0.12
912.459	2.88
913.192	-1.12
913.925	0.88
914.658	-1.12
915.391	1.88
916.124	1.88
916.857	-0.12
917.59	3.88
918.323	1.88
919.055	0.88
919.788	1.88
920.521	0.88
921.253	-0.12
921.985	0.88
922.718	0.88
923.45	0.88
924.182	2.88
924.914	1.88
925.646	2.88
926.378	-2.12
927.11	-2.12
927.841	0.88
928.573	0.88
929.305	0.88
930.036	1.88
930.768	0.88
931.499	-0.12
932.23	2.88
932.962	1.88
933.693	-0.12
934.424	0.88
935.155	0.88
935.886	-0.12
936.617	0.88
937.348	2.88
938.078	1.88
938.809	0.88
939.54	1.88
940.27	1.88
941.001	-0.12
941.731	3.88
942.461	0.88
943.191	0.88
943.922	-0.12
944.652	1.88
945.382	-0.12
946.112	1.88
946.841	1.88
947.571	-0.12
948.301	-0.12
949.031	0.88
949.76	-0.12
950.49	1.88
951.219	1.88
951.948	-0.12
952.678	1.88
953.407	1.88
954.136	-0.12
954.865	1.88
955.594	4.88
956.323	-1.12
957.052	0.88
957.78	-0.12
958.509	0.88
959.238	-0.12
959.966	-0.12
960.695	0.88
961.423	1.88
962.151	1.88
962.88	0.88
963.608	0.88
964.336	0.88
965.064	0.88
965.792	-0.12
966.52	0.88
967.247	0.88
967.975	0.88
968.703	2.88
969.43	-0.12
970.158	0.88
970.885	0.88
971.613	-1.12
972.34	1.88
973.067	0.88
973.794	1.88
974.521	-1.12
975.248	-0.12
975.975	0.88
976.702	3.88
977.429	1.88
978.156	1.88
978.882	0.88
979.609	2.88
980.335	0.88
981.062	0.88
981.788	1.88
982.514	1.88
983.24	0.88
983.967	0.88
984.693	-0.12
985.419	2.88
986.144	-0.12
986.87	1.88
987.596	-0.12
988.322	0.88
989.047	1.88
989.773	-0.12
990.498	1.88
991.224	-0.12
991.949	1.88
992.674	1.88
993.399	-2.12
994.124	0.88
994.849	1.88
995.574	1.88
996.299	-1.12
997.024	-0.12
997.749	2.88
998.473	-0.12
999.198	1.88
999.922	-0.12
1000.647	-0.12
1001.371	2.88
1002.095	-0.12
1002.82	-0.12
1003.544	-2.12
1004.268	1.88
1004.992	3.88
1005.716	2.88
1006.439	4.88
1007.163	3.88
1007.887	3.88
1008.611	0.88
1009.334	0.88
1010.058	-0.12
1010.781	-1.12
1011.504	0.88
1012.228	0.88
1012.951	0.88
1013.674	-1.12
1014.397	-1.12
1015.12	0.88
