节点500_565_QEPB04081__303__09-55-27-515.txt的数据

Date: Thu Nov 13 09:55:27 CST 2025
User: PC
Spectrometer: QEPB0408
触发模式: 0
积分时间 (秒): 1.000000E-2
Scans to average: 1
启用暗噪声校正: true
启用非线性校正: false
滑动平均宽度: 0
X轴模式: Wavelengths
Number of Pixels in Spectrum: 1044
>>>>>Begin Spectral Data<<<<<
220.843	4.62
221.644	3.62
222.444	2.62
223.244	4.62
224.045	4.62
224.845	4.62
225.645	6.62
226.445	8.62
227.245	5.62
228.045	4.62
228.845	6.62
229.645	5.62
230.444	5.62
231.244	6.62
232.043	7.62
232.843	4.62
233.642	6.62
234.442	7.62
235.241	9.62
236.04	5.62
236.839	9.62
237.638	8.62
238.437	7.62
239.236	8.62
240.035	6.62
240.833	9.62
241.632	8.62
242.43	7.62
243.229	7.62
244.027	8.62
244.826	9.62
245.624	9.62
246.422	10.62
247.22	10.62
248.018	11.62
248.816	12.62
249.614	12.62
250.412	13.62
251.21	12.62
252.007	12.62
252.805	14.62
253.602	14.62
254.4	15.62
255.197	15.62
255.994	14.62
256.791	14.62
257.589	17.62
258.386	17.62
259.183	14.62
259.979	18.62
260.776	20.62
261.573	21.62
262.37	20.62
263.166	18.62
263.963	19.62
264.759	22.62
265.556	20.62
266.352	22.62
267.148	21.62
267.944	22.62
268.74	23.62
269.536	26.62
270.332	22.62
271.128	26.62
271.924	26.62
272.719	26.62
273.515	26.62
274.311	27.62
275.106	27.62
275.901	25.62
276.697	27.62
277.492	27.62
278.287	28.62
279.082	33.62
279.877	27.62
280.672	27.62
281.467	26.62
282.262	26.62
283.056	31.62
283.851	30.62
284.646	27.62
285.44	27.62
286.234	27.62
287.029	26.62
287.823	28.62
288.617	26.62
289.411	28.62
290.205	27.62
290.999	22.62
291.793	26.62
292.587	23.62
293.381	25.62
294.174	26.62
294.968	26.62
295.761	26.62
296.555	23.62
297.348	20.62
298.141	20.62
298.935	28.62
299.728	20.62
300.521	23.62
301.314	20.62
302.107	18.62
302.899	19.62
303.692	17.62
304.485	18.62
305.277	20.62
306.07	18.62
306.862	18.62
307.655	18.62
308.447	20.62
309.239	15.62
310.031	18.62
310.823	16.62
311.615	16.62
312.407	15.62
313.199	13.62
313.991	17.62
314.783	16.62
315.574	14.62
316.366	14.62
317.157	15.62
317.949	10.62
318.74	11.62
319.531	11.62
320.322	13.62
321.113	13.62
321.904	10.62
322.695	14.62
323.486	11.62
324.277	13.62
325.068	12.62
325.858	10.62
326.649	10.62
327.439	9.62
328.23	11.62
329.02	10.62
329.81	10.62
330.6	10.62
331.391	10.62
332.181	8.62
332.971	10.62
333.76	12.62
334.55	10.62
335.34	11.62
336.13	10.62
336.919	8.62
337.709	9.62
338.498	8.62
339.287	10.62
340.077	11.62
340.866	10.62
341.655	12.62
342.444	9.62
343.233	9.62
344.022	6.62
344.811	8.62
345.6	6.62
346.388	11.62
347.177	9.62
347.965	11.62
348.754	9.62
349.542	9.62
350.33	9.62
351.119	9.62
351.907	9.62
352.695	9.62
353.483	8.62
354.271	9.62
355.059	9.62
355.846	6.62
356.634	9.62
357.422	10.62
358.209	8.62
358.997	10.62
359.784	7.62
360.571	10.62
361.359	9.62
362.146	7.62
362.933	9.62
363.72	9.62
364.507	8.62
365.294	9.62
366.081	6.62
366.867	9.62
367.654	8.62
368.44	9.62
369.227	8.62
370.013	8.62
370.8	11.62
371.586	8.62
372.372	8.62
373.158	6.62
373.944	9.62
374.73	4.62
375.516	8.62
376.302	7.62
377.088	6.62
377.873	9.62
378.659	5.62
379.445	6.62
380.23	8.62
381.015	8.62
381.801	8.62
382.586	8.62
383.371	10.62
384.156	9.62
384.941	10.62
385.726	8.62
386.511	8.62
387.296	8.62
388.08	9.62
388.865	9.62
389.649	7.62
390.434	10.62
391.218	8.62
392.003	11.62
392.787	10.62
393.571	7.62
394.355	9.62
395.139	8.62
395.923	11.62
396.707	10.62
397.491	10.62
398.274	10.62
399.058	11.62
399.842	11.62
400.625	9.62
401.408	12.62
402.192	9.62
402.975	11.62
403.758	10.62
404.541	14.62
405.324	13.62
406.107	14.62
406.89	10.62
407.673	11.62
408.456	11.62
409.238	15.62
410.021	14.62
410.803	14.62
411.586	14.62
412.368	12.62
413.151	16.62
413.933	13.62
414.715	11.62
415.497	12.62
416.279	14.62
417.061	14.62
417.843	16.62
418.624	16.62
419.406	16.62
420.188	15.62
420.969	16.62
421.751	18.62
422.532	18.62
423.313	19.62
424.095	17.62
424.876	19.62
425.657	20.62
426.438	20.62
427.219	23.62
428	21.62
428.78	23.62
429.561	22.62
430.342	23.62
431.122	26.62
431.903	26.62
432.683	26.62
433.464	29.62
434.244	28.62
435.024	29.62
435.804	31.62
436.584	32.62
437.364	37.62
438.144	38.62
438.924	41.62
439.704	43.62
440.483	44.62
441.263	47.62
442.042	50.62
442.822	53.62
443.601	58.62
444.38	64.62
445.16	64.62
445.939	71.62
446.718	75.62
447.497	85.62
448.276	94.62
449.054	103.62
449.833	108.62
450.612	118.62
451.391	130.62
452.169	146.62
452.948	157.62
453.726	173.62
454.504	199.62
455.282	221.62
456.061	248.62
456.839	273.62
457.617	307.62
458.395	345.62
459.172	387.62
459.95	424.62
460.728	468.62
461.506	521.62
462.283	583.62
463.061	652.62
463.838	729.62
464.615	806.62
465.393	901.62
466.17	990.62
466.947	1125.62
467.724	1236.62
468.501	1366.62
469.278	1529.62
470.055	1691.62
470.831	1868.62
471.608	2082.62
472.385	2282.62
473.161	2508.62
473.938	2780.62
474.714	3048.62
475.49	3364.62
476.266	3688.62
477.043	4083.62
477.819	4480.62
478.595	4894.62
479.371	5322.62
480.146	5844.62
480.922	6375.62
481.698	6955.62
482.473	7572.62
483.249	8253.62
484.024	8983.62
484.8	9841.62
485.575	10677.62
486.35	11588.62
487.126	12573.62
487.901	13627.62
488.676	14758.62
489.451	16071.62
490.225	17323.62
491	18647.62
491.775	20086.62
492.55	21569.62
493.324	23013.62
494.099	24566.62
494.873	26218.62
495.647	27854.62
496.422	29404.62
497.196	31006.62
497.97	32497.62
498.744	34007.62
499.518	35320.62
500.292	36670.62
501.066	37885.62
501.839	38938.62
502.613	39747.62
503.387	40413.62
504.16	40946.62
504.934	41226.62
505.707	41297.62
506.48	41148.62
507.253	40832.62
508.027	40252.62
508.8	39592.62
509.573	38625.62
510.346	37700.62
511.118	36634.62
511.891	35607.62
512.664	34390.62
513.437	33113.62
514.209	31743.62
514.982	30591.62
515.754	29401.62
516.526	28136.62
517.298	26974.62
518.071	25884.62
518.843	24858.62
519.615	23722.62
520.387	22871.62
521.159	22056.62
521.93	21113.62
522.702	20221.62
523.474	19382.62
524.245	18625.62
525.017	17885.62
525.788	17106.62
526.56	16306.62
527.331	15541.62
528.102	14934.62
528.873	14155.62
529.644	13425.62
530.415	12769.62
531.186	12110.62
531.957	11523.62
532.728	10949.62
533.498	10379.62
534.269	9805.62
535.039	9190.62
535.81	8752.62
536.58	8262.62
537.351	7841.62
538.121	7424.62
538.891	7033.62
539.661	6665.62
540.431	6320.62
541.201	5971.62
541.971	5651.62
542.741	5367.62
543.51	5074.62
544.28	4815.62
545.05	4598.62
545.819	4360.62
546.588	4148.62
547.358	3936.62
548.127	3751.62
548.896	3566.62
549.665	3392.62
550.434	3189.62
551.203	3028.62
551.972	2882.62
552.741	2749.62
553.51	2582.62
554.278	2454.62
555.047	2303.62
555.815	2155.62
556.584	2066.62
557.352	1967.62
558.121	1843.62
558.889	1725.62
559.657	1632.62
560.425	1530.62
561.193	1461.62
561.961	1384.62
562.729	1300.62
563.496	1239.62
564.264	1165.62
565.032	1099.62
565.799	1048.62
566.567	1005.62
567.334	941.62
568.101	879.62
568.869	832.62
569.636	789.62
570.403	755.62
571.17	706.62
571.937	662.62
572.704	624.62
573.471	597.62
574.237	554.62
575.004	532.62
575.771	505.62
576.537	470.62
577.303	447.62
578.07	414.62
578.836	389.62
579.602	374.62
580.368	355.62
581.134	332.62
581.9	318.62
582.666	300.62
583.432	296.62
584.198	270.62
584.964	256.62
585.729	245.62
586.495	231.62
587.26	220.62
588.025	210.62
588.791	202.62
589.556	190.62
590.321	179.62
591.086	168.62
591.851	158.62
592.616	151.62
593.381	145.62
594.146	138.62
594.911	129.62
595.675	125.62
596.44	124.62
597.204	113.62
597.969	110.62
598.733	112.62
599.497	94.62
600.261	95.62
601.025	91.62
601.79	87.62
602.553	86.62
603.317	84.62
604.081	73.62
604.845	75.62
605.609	70.62
606.372	69.62
607.136	65.62
607.899	62.62
608.662	58.62
609.426	56.62
610.189	55.62
610.952	55.62
611.715	52.62
612.478	50.62
613.241	46.62
614.004	47.62
614.767	47.62
615.529	44.62
616.292	41.62
617.055	45.62
617.817	39.62
618.579	38.62
619.342	37.62
620.104	34.62
620.866	29.62
621.628	36.62
622.39	31.62
623.152	31.62
623.914	27.62
624.676	28.62
625.438	27.62
626.199	27.62
626.961	28.62
627.722	24.62
628.484	26.62
629.245	22.62
630.006	24.62
630.768	23.62
631.529	21.62
632.29	24.62
633.051	18.62
633.812	22.62
634.573	19.62
635.333	18.62
636.094	20.62
636.855	19.62
637.615	20.62
638.376	17.62
639.136	15.62
639.896	16.62
640.657	18.62
641.417	13.62
642.177	15.62
642.937	16.62
643.697	15.62
644.457	12.62
645.216	12.62
645.976	16.62
646.736	13.62
647.495	10.62
648.255	12.62
649.014	12.62
649.774	13.62
650.533	12.62
651.292	12.62
652.051	11.62
652.81	13.62
653.569	7.62
654.328	7.62
655.087	11.62
655.846	10.62
656.604	9.62
657.363	12.62
658.121	9.62
658.88	11.62
659.638	10.62
660.397	8.62
661.155	7.62
661.913	10.62
662.671	8.62
663.429	10.62
664.187	8.62
664.945	8.62
665.703	9.62
666.46	5.62
667.218	5.62
667.976	8.62
668.733	10.62
669.49	7.62
670.248	7.62
671.005	8.62
671.762	7.62
672.519	10.62
673.276	7.62
674.033	8.62
674.79	7.62
675.547	7.62
676.304	7.62
677.06	7.62
677.817	7.62
678.574	5.62
679.33	6.62
680.086	8.62
680.843	6.62
681.599	8.62
682.355	8.62
683.111	6.62
683.867	5.62
684.623	6.62
685.379	8.62
686.135	6.62
686.89	6.62
687.646	6.62
688.402	3.62
689.157	4.62
689.912	8.62
690.668	6.62
691.423	5.62
692.178	6.62
692.933	5.62
693.688	7.62
694.443	4.62
695.198	8.62
695.953	2.62
696.708	7.62
697.462	6.62
698.217	6.62
698.972	5.62
699.726	7.62
700.48	5.62
701.235	6.62
701.989	6.62
702.743	5.62
703.497	7.62
704.251	5.62
705.005	6.62
705.759	7.62
706.513	7.62
707.266	8.62
708.02	6.62
708.774	6.62
709.527	6.62
710.28	5.62
711.034	3.62
711.787	4.62
712.54	5.62
713.293	5.62
714.046	6.62
714.799	6.62
715.552	4.62
716.305	8.62
717.058	3.62
717.81	7.62
718.563	8.62
719.315	7.62
720.068	8.62
720.82	4.62
721.573	9.62
722.325	8.62
723.077	6.62
723.829	6.62
724.581	6.62
725.333	5.62
726.085	8.62
726.836	6.62
727.588	6.62
728.34	7.62
729.091	7.62
729.843	8.62
730.594	6.62
731.346	6.62
732.097	7.62
732.848	5.62
733.599	7.62
734.35	6.62
735.101	8.62
735.852	8.62
736.603	8.62
737.354	8.62
738.104	7.62
738.855	8.62
739.605	7.62
740.356	9.62
741.106	9.62
741.856	6.62
742.607	7.62
743.357	5.62
744.107	10.62
744.857	7.62
745.607	9.62
746.357	8.62
747.106	8.62
747.856	7.62
748.606	7.62
749.355	9.62
750.105	7.62
750.854	8.62
751.603	8.62
752.353	9.62
753.102	6.62
753.851	9.62
754.6	8.62
755.349	8.62
756.098	9.62
756.847	9.62
757.595	8.62
758.344	9.62
759.093	12.62
759.841	10.62
760.589	8.62
761.338	13.62
762.086	8.62
762.834	12.62
763.582	13.62
764.331	12.62
765.079	12.62
765.826	9.62
766.574	11.62
767.322	11.62
768.07	13.62
768.817	11.62
769.565	13.62
770.312	12.62
771.06	12.62
771.807	14.62
772.554	10.62
773.302	12.62
774.049	12.62
774.796	12.62
775.543	14.62
776.29	12.62
777.036	12.62
777.783	13.62
778.53	10.62
779.276	13.62
780.023	13.62
780.769	13.62
781.516	14.62
782.262	11.62
783.008	10.62
783.754	13.62
784.5	15.62
785.246	12.62
785.992	13.62
786.738	12.62
787.484	13.62
788.23	12.62
788.975	12.62
789.721	12.62
790.466	12.62
791.212	12.62
791.957	9.62
792.702	10.62
793.447	14.62
794.193	12.62
794.938	11.62
795.683	11.62
796.427	15.62
797.172	8.62
797.917	12.62
798.662	12.62
799.406	11.62
800.151	11.62
800.895	12.62
801.64	13.62
802.384	9.62
803.128	11.62
803.872	10.62
804.616	9.62
805.36	10.62
806.104	8.62
806.848	8.62
807.592	10.62
808.336	13.62
809.079	8.62
809.823	9.62
810.566	5.62
811.31	9.62
812.053	9.62
812.796	7.62
813.539	8.62
814.283	7.62
815.026	6.62
815.769	9.62
816.511	6.62
817.254	5.62
817.997	8.62
818.74	7.62
819.482	7.62
820.225	7.62
820.967	5.62
821.71	7.62
822.452	4.62
823.194	4.62
823.936	8.62
824.678	7.62
825.42	5.62
826.162	5.62
826.904	5.62
827.646	7.62
828.388	4.62
829.129	5.62
829.871	5.62
830.612	6.62
831.354	4.62
832.095	7.62
832.836	6.62
833.577	5.62
834.319	6.62
835.06	2.62
835.801	6.62
836.542	4.62
837.282	6.62
838.023	6.62
838.764	4.62
839.504	4.62
840.245	6.62
840.985	4.62
841.726	3.62
842.466	4.62
843.206	7.62
843.946	2.62
844.687	6.62
845.427	2.62
846.166	5.62
846.906	4.62
847.646	4.62
848.386	5.62
849.125	5.62
849.865	5.62
850.605	4.62
851.344	4.62
852.083	5.62
852.823	1.62
853.562	5.62
854.301	4.62
855.04	2.62
855.779	2.62
856.518	3.62
857.257	1.62
857.995	4.62
858.734	2.62
859.473	2.62
860.211	4.62
860.95	3.62
861.688	3.62
862.426	2.62
863.165	3.62
863.903	2.62
864.641	2.62
865.379	1.62
866.117	2.62
866.855	1.62
867.593	2.62
868.33	1.62
869.068	2.62
869.806	2.62
870.543	1.62
871.28	-0.38
872.018	2.62
872.755	2.62
873.492	0.62
874.229	4.62
874.967	2.62
875.703	1.62
876.44	0.62
877.177	-0.38
877.914	2.62
878.651	1.62
879.387	2.62
880.124	2.62
880.86	0.62
881.597	1.62
882.333	0.62
883.069	1.62
883.806	3.62
884.542	1.62
885.278	2.62
886.014	0.62
886.749	-1.38
887.485	1.62
888.221	0.62
888.957	1.62
889.692	1.62
890.428	0.62
891.163	0.62
891.899	2.62
892.634	-0.38
893.369	0.62
894.104	1.62
894.839	0.62
895.574	0.62
896.309	1.62
897.044	2.62
897.779	1.62
898.514	-0.38
899.248	1.62
899.983	-2.38
900.717	2.62
901.452	0.62
902.186	2.62
902.92	-1.38
903.654	0.62
904.389	1.62
905.123	-1.38
905.857	1.62
906.59	-2.38
907.324	0.62
908.058	0.62
908.792	-0.38
909.525	0.62
910.259	2.62
910.992	1.62
911.726	0.62
912.459	-0.38
913.192	0.62
913.925	-1.38
914.658	-0.38
915.391	-1.38
916.124	0.62
916.857	-0.38
917.59	0.62
918.323	0.62
919.055	0.62
919.788	1.62
920.521	-1.38
921.253	0.62
921.985	1.62
922.718	0.62
923.45	0.62
924.182	2.62
924.914	0.62
925.646	-2.38
926.378	0.62
927.11	1.62
927.841	0.62
928.573	1.62
929.305	1.62
930.036	1.62
930.768	-0.38
931.499	0.62
932.23	0.62
932.962	0.62
933.693	-0.38
934.424	1.62
935.155	0.62
935.886	-0.38
936.617	0.62
937.348	-0.38
938.078	-0.38
938.809	-2.38
939.54	0.62
940.27	1.62
941.001	-0.38
941.731	-1.38
942.461	-0.38
943.191	2.62
943.922	0.62
944.652	0.62
945.382	1.62
946.112	0.62
946.841	0.62
947.571	-0.38
948.301	1.62
949.031	-0.38
949.76	-0.38
950.49	-2.38
951.219	-0.38
951.948	0.62
952.678	-0.38
953.407	0.62
954.136	-3.38
954.865	0.62
955.594	2.62
956.323	-0.38
957.052	0.62
957.78	-0.38
958.509	0.62
959.238	2.62
959.966	0.62
960.695	-1.38
961.423	1.62
962.151	0.62
962.88	-0.38
963.608	1.62
964.336	0.62
965.064	0.62
965.792	-2.38
966.52	0.62
967.247	0.62
967.975	0.62
968.703	1.62
969.43	0.62
970.158	0.62
970.885	-2.38
971.613	-1.38
972.34	0.62
973.067	-0.38
973.794	2.62
974.521	-1.38
975.248	1.62
975.975	-2.38
976.702	-0.38
977.429	1.62
978.156	-0.38
978.882	0.62
979.609	-0.38
980.335	-0.38
981.062	1.62
981.788	1.62
982.514	0.62
983.24	0.62
983.967	0.62
984.693	-0.38
985.419	1.62
986.144	0.62
986.87	1.62
987.596	0.62
988.322	-0.38
989.047	0.62
989.773	0.62
990.498	1.62
991.224	1.62
991.949	1.62
992.674	1.62
993.399	-0.38
994.124	-0.38
994.849	-1.38
995.574	0.62
996.299	-2.38
997.024	0.62
997.749	1.62
998.473	-1.38
999.198	0.62
999.922	0.62
1000.647	-0.38
1001.371	2.62
1002.095	-2.38
1002.82	-1.38
1003.544	0.62
1004.268	4.62
1004.992	2.62
1005.716	3.62
1006.439	1.62
1007.163	5.62
1007.887	5.62
1008.611	-0.38
1009.334	-3.38
1010.058	0.62
1010.781	1.62
1011.504	-0.38
1012.228	-1.38
1012.951	0.62
1013.674	-2.38
1014.397	1.62
1015.12	0.62
