节点500_565_QEPB04081__583__10-00-06-977.txt的数据

Date: Thu Nov 13 10:00:06 CST 2025
User: PC
Spectrometer: QEPB0408
触发模式: 0
积分时间 (秒): 1.000000E-2
Scans to average: 1
启用暗噪声校正: true
启用非线性校正: false
滑动平均宽度: 0
X轴模式: Wavelengths
Number of Pixels in Spectrum: 1044
>>>>>Begin Spectral Data<<<<<
220.843	4.25
221.644	4.25
222.444	3.25
223.244	5.25
224.045	5.25
224.845	4.25
225.645	6.25
226.445	4.25
227.245	4.25
228.045	5.25
228.845	4.25
229.645	5.25
230.444	6.25
231.244	6.25
232.043	4.25
232.843	7.25
233.642	5.25
234.442	6.25
235.241	9.25
236.04	7.25
236.839	6.25
237.638	7.25
238.437	5.25
239.236	7.25
240.035	7.25
240.833	7.25
241.632	8.25
242.43	8.25
243.229	8.25
244.027	8.25
244.826	8.25
245.624	7.25
246.422	9.25
247.22	10.25
248.018	10.25
248.816	11.25
249.614	8.25
250.412	11.25
251.21	11.25
252.007	10.25
252.805	12.25
253.602	14.25
254.4	12.25
255.197	15.25
255.994	13.25
256.791	16.25
257.589	14.25
258.386	14.25
259.183	14.25
259.979	14.25
260.776	16.25
261.573	16.25
262.37	14.25
263.166	13.25
263.963	17.25
264.759	19.25
265.556	16.25
266.352	19.25
267.148	18.25
267.944	21.25
268.74	22.25
269.536	18.25
270.332	20.25
271.128	20.25
271.924	24.25
272.719	22.25
273.515	23.25
274.311	22.25
275.106	24.25
275.901	26.25
276.697	24.25
277.492	24.25
278.287	24.25
279.082	24.25
279.877	25.25
280.672	24.25
281.467	25.25
282.262	25.25
283.056	26.25
283.851	27.25
284.646	24.25
285.44	27.25
286.234	26.25
287.029	23.25
287.823	25.25
288.617	23.25
289.411	26.25
290.205	25.25
290.999	24.25
291.793	23.25
292.587	24.25
293.381	22.25
294.174	24.25
294.968	20.25
295.761	23.25
296.555	22.25
297.348	22.25
298.141	20.25
298.935	23.25
299.728	22.25
300.521	20.25
301.314	21.25
302.107	20.25
302.899	18.25
303.692	16.25
304.485	17.25
305.277	17.25
306.07	20.25
306.862	14.25
307.655	17.25
308.447	18.25
309.239	17.25
310.031	16.25
310.823	13.25
311.615	14.25
312.407	16.25
313.199	14.25
313.991	14.25
314.783	15.25
315.574	14.25
316.366	14.25
317.157	13.25
317.949	12.25
318.74	12.25
319.531	12.25
320.322	10.25
321.113	12.25
321.904	11.25
322.695	9.25
323.486	14.25
324.277	10.25
325.068	12.25
325.858	8.25
326.649	10.25
327.439	8.25
328.23	12.25
329.02	11.25
329.81	9.25
330.6	10.25
331.391	9.25
332.181	10.25
332.971	8.25
333.76	11.25
334.55	10.25
335.34	11.25
336.13	11.25
336.919	8.25
337.709	11.25
338.498	11.25
339.287	9.25
340.077	8.25
340.866	9.25
341.655	10.25
342.444	7.25
343.233	8.25
344.022	7.25
344.811	7.25
345.6	9.25
346.388	7.25
347.177	7.25
347.965	7.25
348.754	8.25
349.542	7.25
350.33	8.25
351.119	8.25
351.907	8.25
352.695	9.25
353.483	6.25
354.271	7.25
355.059	9.25
355.846	7.25
356.634	9.25
357.422	5.25
358.209	8.25
358.997	9.25
359.784	7.25
360.571	6.25
361.359	7.25
362.146	7.25
362.933	6.25
363.72	8.25
364.507	6.25
365.294	6.25
366.081	6.25
366.867	9.25
367.654	6.25
368.44	7.25
369.227	7.25
370.013	7.25
370.8	7.25
371.586	8.25
372.372	7.25
373.158	7.25
373.944	8.25
374.73	6.25
375.516	6.25
376.302	8.25
377.088	7.25
377.873	6.25
378.659	7.25
379.445	4.25
380.23	7.25
381.015	8.25
381.801	6.25
382.586	6.25
383.371	7.25
384.156	9.25
384.941	6.25
385.726	10.25
386.511	8.25
387.296	11.25
388.08	9.25
388.865	10.25
389.649	9.25
390.434	8.25
391.218	7.25
392.003	7.25
392.787	11.25
393.571	9.25
394.355	8.25
395.139	10.25
395.923	11.25
396.707	11.25
397.491	7.25
398.274	8.25
399.058	11.25
399.842	11.25
400.625	10.25
401.408	10.25
402.192	8.25
402.975	9.25
403.758	12.25
404.541	11.25
405.324	11.25
406.107	10.25
406.89	11.25
407.673	9.25
408.456	9.25
409.238	11.25
410.021	12.25
410.803	13.25
411.586	13.25
412.368	12.25
413.151	13.25
413.933	13.25
414.715	11.25
415.497	12.25
416.279	14.25
417.061	16.25
417.843	14.25
418.624	14.25
419.406	15.25
420.188	17.25
420.969	17.25
421.751	15.25
422.532	18.25
423.313	16.25
424.095	17.25
424.876	21.25
425.657	21.25
426.438	19.25
427.219	19.25
428	20.25
428.78	25.25
429.561	22.25
430.342	27.25
431.122	22.25
431.903	26.25
432.683	25.25
433.464	26.25
434.244	29.25
435.024	28.25
435.804	32.25
436.584	33.25
437.364	35.25
438.144	38.25
438.924	38.25
439.704	42.25
440.483	43.25
441.263	46.25
442.042	52.25
442.822	58.25
443.601	58.25
444.38	60.25
445.16	71.25
445.939	76.25
446.718	81.25
447.497	86.25
448.276	98.25
449.054	108.25
449.833	117.25
450.612	132.25
451.391	143.25
452.169	155.25
452.948	167.25
453.726	197.25
454.504	215.25
455.282	239.25
456.061	263.25
456.839	292.25
457.617	329.25
458.395	358.25
459.172	410.25
459.95	450.25
460.728	502.25
461.506	559.25
462.283	612.25
463.061	688.25
463.838	771.25
464.615	841.25
465.393	934.25
466.17	1041.25
466.947	1147.25
467.724	1283.25
468.501	1410.25
469.278	1551.25
470.055	1726.25
470.831	1890.25
471.608	2072.25
472.385	2301.25
473.161	2514.25
473.938	2767.25
474.714	3021.25
475.49	3321.25
476.266	3636.25
477.043	3966.25
477.819	4320.25
478.595	4712.25
479.371	5092.25
480.146	5585.25
480.922	6063.25
481.698	6591.25
482.473	7103.25
483.249	7702.25
484.024	8321.25
484.8	9062.25
485.575	9817.25
486.35	10561.25
487.126	11434.25
487.901	12306.25
488.676	13295.25
489.451	14325.25
490.225	15443.25
491	16547.25
491.775	17702.25
492.55	19027.25
493.324	20332.25
494.099	21622.25
494.873	23030.25
495.647	24405.25
496.422	25848.25
497.196	27238.25
497.97	28666.25
498.744	30061.25
499.518	31366.25
500.292	32576.25
501.066	33866.25
501.839	34852.25
502.613	35803.25
503.387	36636.25
504.16	37324.25
504.934	37825.25
505.707	38060.25
506.48	38224.25
507.253	38297.25
508.027	37925.25
508.8	37559.25
509.573	36995.25
510.346	36393.25
511.118	35545.25
511.891	34704.25
512.664	33876.25
513.437	32787.25
514.209	31566.25
514.982	30547.25
515.754	29421.25
516.526	28307.25
517.298	27204.25
518.071	26110.25
518.843	25069.25
519.615	24049.25
520.387	23133.25
521.159	22274.25
521.93	21418.25
522.702	20536.25
523.474	19696.25
524.245	18888.25
525.017	18198.25
525.788	17396.25
526.56	16684.25
527.331	15902.25
528.102	15302.25
528.873	14576.25
529.644	13824.25
530.415	13226.25
531.186	12562.25
531.957	11962.25
532.728	11434.25
533.498	10812.25
534.269	10250.25
535.039	9709.25
535.81	9229.25
536.58	8732.25
537.351	8273.25
538.121	7817.25
538.891	7405.25
539.661	7037.25
540.431	6660.25
541.201	6306.25
541.971	5960.25
542.741	5699.25
543.51	5328.25
544.28	5079.25
545.05	4827.25
545.819	4604.25
546.588	4368.25
547.358	4159.25
548.127	3952.25
548.896	3767.25
549.665	3603.25
550.434	3402.25
551.203	3254.25
551.972	3068.25
552.741	2924.25
553.51	2744.25
554.278	2600.25
555.047	2451.25
555.815	2326.25
556.584	2212.25
557.352	2084.25
558.121	1955.25
558.889	1871.25
559.657	1756.25
560.425	1647.25
561.193	1580.25
561.961	1489.25
562.729	1422.25
563.496	1324.25
564.264	1263.25
565.032	1192.25
565.799	1121.25
566.567	1056.25
567.334	1007.25
568.101	958.25
568.869	900.25
569.636	851.25
570.403	794.25
571.17	756.25
571.937	721.25
572.704	673.25
573.471	625.25
574.237	594.25
575.004	574.25
575.771	532.25
576.537	514.25
577.303	485.25
578.07	445.25
578.836	423.25
579.602	397.25
580.368	376.25
581.134	350.25
581.9	345.25
582.666	321.25
583.432	312.25
584.198	292.25
584.964	282.25
585.729	264.25
586.495	240.25
587.26	239.25
588.025	219.25
588.791	212.25
589.556	196.25
590.321	188.25
591.086	175.25
591.851	172.25
592.616	163.25
593.381	154.25
594.146	150.25
594.911	139.25
595.675	130.25
596.44	132.25
597.204	124.25
597.969	125.25
598.733	113.25
599.497	111.25
600.261	102.25
601.025	105.25
601.79	90.25
602.553	93.25
603.317	88.25
604.081	80.25
604.845	80.25
605.609	80.25
606.372	72.25
607.136	69.25
607.899	65.25
608.662	64.25
609.426	62.25
610.189	60.25
610.952	57.25
611.715	55.25
612.478	52.25
613.241	48.25
614.004	48.25
614.767	48.25
615.529	47.25
616.292	44.25
617.055	43.25
617.817	37.25
618.579	38.25
619.342	35.25
620.104	38.25
620.866	37.25
621.628	36.25
622.39	32.25
623.152	32.25
623.914	31.25
624.676	27.25
625.438	27.25
626.199	27.25
626.961	28.25
627.722	28.25
628.484	25.25
629.245	23.25
630.006	23.25
630.768	23.25
631.529	24.25
632.29	22.25
633.051	20.25
633.812	22.25
634.573	20.25
635.333	19.25
636.094	16.25
636.855	22.25
637.615	19.25
638.376	18.25
639.136	18.25
639.896	16.25
640.657	15.25
641.417	13.25
642.177	16.25
642.937	16.25
643.697	12.25
644.457	15.25
645.216	13.25
645.976	13.25
646.736	13.25
647.495	13.25
648.255	10.25
649.014	13.25
649.774	12.25
650.533	9.25
651.292	12.25
652.051	11.25
652.81	13.25
653.569	12.25
654.328	10.25
655.087	10.25
655.846	9.25
656.604	13.25
657.363	7.25
658.121	10.25
658.88	8.25
659.638	11.25
660.397	6.25
661.155	8.25
661.913	8.25
662.671	8.25
663.429	9.25
664.187	7.25
664.945	11.25
665.703	6.25
666.46	6.25
667.218	8.25
667.976	8.25
668.733	9.25
669.49	6.25
670.248	7.25
671.005	9.25
671.762	5.25
672.519	6.25
673.276	5.25
674.033	7.25
674.79	6.25
675.547	8.25
676.304	6.25
677.06	6.25
677.817	6.25
678.574	7.25
679.33	7.25
680.086	7.25
680.843	6.25
681.599	6.25
682.355	6.25
683.111	4.25
683.867	7.25
684.623	2.25
685.379	5.25
686.135	6.25
686.89	3.25
687.646	5.25
688.402	5.25
689.157	5.25
689.912	6.25
690.668	8.25
691.423	6.25
692.178	6.25
692.933	8.25
693.688	4.25
694.443	6.25
695.198	5.25
695.953	5.25
696.708	6.25
697.462	4.25
698.217	8.25
698.972	5.25
699.726	6.25
700.48	6.25
701.235	4.25
701.989	4.25
702.743	6.25
703.497	6.25
704.251	7.25
705.005	5.25
705.759	5.25
706.513	4.25
707.266	6.25
708.02	6.25
708.774	6.25
709.527	4.25
710.28	4.25
711.034	6.25
711.787	4.25
712.54	3.25
713.293	6.25
714.046	5.25
714.799	4.25
715.552	4.25
716.305	5.25
717.058	4.25
717.81	6.25
718.563	6.25
719.315	7.25
720.068	8.25
720.82	4.25
721.573	5.25
722.325	7.25
723.077	6.25
723.829	4.25
724.581	6.25
725.333	5.25
726.085	6.25
726.836	4.25
727.588	8.25
728.34	5.25
729.091	5.25
729.843	7.25
730.594	6.25
731.346	5.25
732.097	4.25
732.848	7.25
733.599	6.25
734.35	8.25
735.101	7.25
735.852	6.25
736.603	7.25
737.354	7.25
738.104	5.25
738.855	7.25
739.605	6.25
740.356	6.25
741.106	4.25
741.856	9.25
742.607	7.25
743.357	7.25
744.107	8.25
744.857	7.25
745.607	6.25
746.357	6.25
747.106	8.25
747.856	6.25
748.606	5.25
749.355	7.25
750.105	6.25
750.854	6.25
751.603	6.25
752.353	9.25
753.102	6.25
753.851	7.25
754.6	6.25
755.349	7.25
756.098	8.25
756.847	6.25
757.595	7.25
758.344	8.25
759.093	8.25
759.841	7.25
760.589	9.25
761.338	10.25
762.086	8.25
762.834	10.25
763.582	8.25
764.331	10.25
765.079	10.25
765.826	9.25
766.574	12.25
767.322	11.25
768.07	9.25
768.817	12.25
769.565	10.25
770.312	7.25
771.06	14.25
771.807	12.25
772.554	10.25
773.302	11.25
774.049	8.25
774.796	8.25
775.543	12.25
776.29	11.25
777.036	12.25
777.783	10.25
778.53	9.25
779.276	9.25
780.023	13.25
780.769	12.25
781.516	12.25
782.262	12.25
783.008	13.25
783.754	11.25
784.5	12.25
785.246	9.25
785.992	12.25
786.738	10.25
787.484	12.25
788.23	12.25
788.975	10.25
789.721	11.25
790.466	13.25
791.212	13.25
791.957	12.25
792.702	11.25
793.447	12.25
794.193	10.25
794.938	10.25
795.683	11.25
796.427	9.25
797.172	8.25
797.917	9.25
798.662	8.25
799.406	10.25
800.151	10.25
800.895	11.25
801.64	8.25
802.384	9.25
803.128	7.25
803.872	8.25
804.616	9.25
805.36	10.25
806.104	7.25
806.848	9.25
807.592	9.25
808.336	8.25
809.079	7.25
809.823	9.25
810.566	8.25
811.31	7.25
812.053	8.25
812.796	6.25
813.539	7.25
814.283	6.25
815.026	5.25
815.769	8.25
816.511	6.25
817.254	5.25
817.997	6.25
818.74	6.25
819.482	6.25
820.225	7.25
820.967	4.25
821.71	5.25
822.452	5.25
823.194	5.25
823.936	2.25
824.678	4.25
825.42	5.25
826.162	3.25
826.904	6.25
827.646	5.25
828.388	7.25
829.129	5.25
829.871	5.25
830.612	4.25
831.354	5.25
832.095	4.25
832.836	3.25
833.577	5.25
834.319	6.25
835.06	5.25
835.801	8.25
836.542	3.25
837.282	5.25
838.023	2.25
838.764	3.25
839.504	4.25
840.245	2.25
840.985	3.25
841.726	5.25
842.466	6.25
843.206	3.25
843.946	4.25
844.687	0.25
845.427	5.25
846.166	3.25
846.906	2.25
847.646	6.25
848.386	3.25
849.125	3.25
849.865	4.25
850.605	4.25
851.344	2.25
852.083	4.25
852.823	3.25
853.562	4.25
854.301	6.25
855.04	4.25
855.779	4.25
856.518	3.25
857.257	3.25
857.995	3.25
858.734	4.25
859.473	2.25
860.211	3.25
860.95	4.25
861.688	1.25
862.426	3.25
863.165	1.25
863.903	4.25
864.641	1.25
865.379	1.25
866.117	3.25
866.855	0.25
867.593	3.25
868.33	4.25
869.068	3.25
869.806	0.25
870.543	5.25
871.28	0.25
872.018	1.25
872.755	2.25
873.492	-0.75
874.229	1.25
874.967	4.25
875.703	-0.75
876.44	5.25
877.177	2.25
877.914	1.25
878.651	3.25
879.387	2.25
880.124	0.25
880.86	0.25
881.597	0.25
882.333	0.25
883.069	2.25
883.806	3.25
884.542	0.25
885.278	2.25
886.014	0.25
886.749	2.25
887.485	1.25
888.221	2.25
888.957	0.25
889.692	0.25
890.428	0.25
891.163	1.25
891.899	2.25
892.634	0.25
893.369	1.25
894.104	1.25
894.839	1.25
895.574	-1.75
896.309	0.25
897.044	0.25
897.779	1.25
898.514	2.25
899.248	0.25
899.983	1.25
900.717	-0.75
901.452	0.25
902.186	0.25
902.92	0.25
903.654	-0.75
904.389	1.25
905.123	-0.75
905.857	-1.75
906.59	0.25
907.324	-0.75
908.058	0.25
908.792	0.25
909.525	-0.75
910.259	2.25
910.992	0.25
911.726	-0.75
912.459	-1.75
913.192	-0.75
913.925	0.25
914.658	-0.75
915.391	0.25
916.124	1.25
916.857	-0.75
917.59	-1.75
918.323	0.25
919.055	-0.75
919.788	0.25
920.521	0.25
921.253	0.25
921.985	1.25
922.718	-0.75
923.45	0.25
924.182	-0.75
924.914	0.25
925.646	-0.75
926.378	-3.75
927.11	0.25
927.841	-1.75
928.573	0.25
929.305	1.25
930.036	0.25
930.768	0.25
931.499	0.25
932.23	0.25
932.962	-0.75
933.693	0.25
934.424	0.25
935.155	1.25
935.886	0.25
936.617	0.25
937.348	0.25
938.078	0.25
938.809	0.25
939.54	1.25
940.27	1.25
941.001	-0.75
941.731	-0.75
942.461	0.25
943.191	-1.75
943.922	-0.75
944.652	-0.75
945.382	-1.75
946.112	0.25
946.841	0.25
947.571	-1.75
948.301	-0.75
949.031	1.25
949.76	-2.75
950.49	-0.75
951.219	-1.75
951.948	0.25
952.678	-0.75
953.407	0.25
954.136	1.25
954.865	1.25
955.594	0.25
956.323	1.25
957.052	-0.75
957.78	0.25
958.509	0.25
959.238	-0.75
959.966	0.25
960.695	-0.75
961.423	-0.75
962.151	0.25
962.88	0.25
963.608	-1.75
964.336	0.25
965.064	-0.75
965.792	1.25
966.52	-0.75
967.247	-2.75
967.975	-1.75
968.703	0.25
969.43	0.25
970.158	-1.75
970.885	2.25
971.613	1.25
972.34	0.25
973.067	-0.75
973.794	1.25
974.521	-0.75
975.248	0.25
975.975	-0.75
976.702	0.25
977.429	-0.75
978.156	-1.75
978.882	-1.75
979.609	-0.75
980.335	-0.75
981.062	1.25
981.788	-1.75
982.514	-1.75
983.24	0.25
983.967	-0.75
984.693	-0.75
985.419	-1.75
986.144	1.25
986.87	-1.75
987.596	-0.75
988.322	1.25
989.047	-1.75
989.773	2.25
990.498	-1.75
991.224	0.25
991.949	-0.75
992.674	0.25
993.399	-1.75
994.124	-0.75
994.849	0.25
995.574	-0.75
996.299	0.25
997.024	-0.75
997.749	-0.75
998.473	-0.75
999.198	-0.75
999.922	3.25
1000.647	-1.75
1001.371	3.25
1002.095	0.25
1002.82	0.25
1003.544	-1.75
1004.268	1.25
1004.992	4.25
1005.716	4.25
1006.439	2.25
1007.163	4.25
1007.887	2.25
1008.611	2.25
1009.334	-0.75
1010.058	1.25
1010.781	-0.75
1011.504	-0.75
1012.228	0.25
1012.951	-2.75
1013.674	0.25
1014.397	-0.75
1015.12	1.25
