节点500_565_QEPB04081__286__09-55-10-539.txt的数据

Date: Thu Nov 13 09:55:10 CST 2025
User: PC
Spectrometer: QEPB0408
触发模式: 0
积分时间 (秒): 1.000000E-2
Scans to average: 1
启用暗噪声校正: true
启用非线性校正: false
滑动平均宽度: 0
X轴模式: Wavelengths
Number of Pixels in Spectrum: 1044
>>>>>Begin Spectral Data<<<<<
220.843	3.25
221.644	2.25
222.444	3.25
223.244	4.25
224.045	4.25
224.845	9.25
225.645	4.25
226.445	2.25
227.245	8.25
228.045	5.25
228.845	9.25
229.645	7.25
230.444	7.25
231.244	5.25
232.043	7.25
232.843	7.25
233.642	7.25
234.442	6.25
235.241	8.25
236.04	8.25
236.839	7.25
237.638	7.25
238.437	8.25
239.236	9.25
240.035	10.25
240.833	9.25
241.632	7.25
242.43	8.25
243.229	9.25
244.027	11.25
244.826	10.25
245.624	10.25
246.422	8.25
247.22	9.25
248.018	14.25
248.816	14.25
249.614	10.25
250.412	12.25
251.21	13.25
252.007	13.25
252.805	12.25
253.602	14.25
254.4	14.25
255.197	13.25
255.994	17.25
256.791	17.25
257.589	18.25
258.386	16.25
259.183	16.25
259.979	16.25
260.776	22.25
261.573	19.25
262.37	21.25
263.166	19.25
263.963	20.25
264.759	22.25
265.556	23.25
266.352	21.25
267.148	23.25
267.944	26.25
268.74	27.25
269.536	24.25
270.332	24.25
271.128	23.25
271.924	27.25
272.719	27.25
273.515	27.25
274.311	27.25
275.106	28.25
275.901	28.25
276.697	29.25
277.492	29.25
278.287	27.25
279.082	30.25
279.877	30.25
280.672	30.25
281.467	30.25
282.262	29.25
283.056	30.25
283.851	27.25
284.646	30.25
285.44	29.25
286.234	29.25
287.029	30.25
287.823	30.25
288.617	29.25
289.411	28.25
290.205	25.25
290.999	26.25
291.793	27.25
292.587	29.25
293.381	26.25
294.174	27.25
294.968	25.25
295.761	23.25
296.555	25.25
297.348	21.25
298.141	20.25
298.935	21.25
299.728	24.25
300.521	21.25
301.314	23.25
302.107	22.25
302.899	22.25
303.692	17.25
304.485	19.25
305.277	17.25
306.07	15.25
306.862	19.25
307.655	18.25
308.447	20.25
309.239	18.25
310.031	18.25
310.823	18.25
311.615	15.25
312.407	15.25
313.199	15.25
313.991	14.25
314.783	12.25
315.574	11.25
316.366	14.25
317.157	11.25
317.949	14.25
318.74	13.25
319.531	12.25
320.322	14.25
321.113	11.25
321.904	11.25
322.695	13.25
323.486	14.25
324.277	12.25
325.068	11.25
325.858	11.25
326.649	10.25
327.439	12.25
328.23	11.25
329.02	13.25
329.81	10.25
330.6	11.25
331.391	10.25
332.181	11.25
332.971	14.25
333.76	12.25
334.55	11.25
335.34	12.25
336.13	10.25
336.919	9.25
337.709	13.25
338.498	8.25
339.287	9.25
340.077	12.25
340.866	10.25
341.655	11.25
342.444	12.25
343.233	11.25
344.022	10.25
344.811	8.25
345.6	9.25
346.388	11.25
347.177	11.25
347.965	7.25
348.754	9.25
349.542	11.25
350.33	9.25
351.119	7.25
351.907	10.25
352.695	13.25
353.483	11.25
354.271	8.25
355.059	9.25
355.846	9.25
356.634	8.25
357.422	10.25
358.209	9.25
358.997	10.25
359.784	6.25
360.571	9.25
361.359	7.25
362.146	11.25
362.933	7.25
363.72	10.25
364.507	9.25
365.294	7.25
366.081	7.25
366.867	9.25
367.654	11.25
368.44	7.25
369.227	7.25
370.013	10.25
370.8	7.25
371.586	9.25
372.372	7.25
373.158	9.25
373.944	8.25
374.73	7.25
375.516	7.25
376.302	10.25
377.088	8.25
377.873	9.25
378.659	9.25
379.445	7.25
380.23	10.25
381.015	9.25
381.801	7.25
382.586	8.25
383.371	7.25
384.156	9.25
384.941	10.25
385.726	11.25
386.511	10.25
387.296	8.25
388.08	9.25
388.865	10.25
389.649	12.25
390.434	10.25
391.218	11.25
392.003	10.25
392.787	10.25
393.571	9.25
394.355	10.25
395.139	14.25
395.923	9.25
396.707	12.25
397.491	11.25
398.274	13.25
399.058	12.25
399.842	12.25
400.625	10.25
401.408	12.25
402.192	13.25
402.975	11.25
403.758	13.25
404.541	14.25
405.324	14.25
406.107	11.25
406.89	13.25
407.673	15.25
408.456	14.25
409.238	13.25
410.021	16.25
410.803	14.25
411.586	16.25
412.368	12.25
413.151	19.25
413.933	17.25
414.715	13.25
415.497	16.25
416.279	15.25
417.061	20.25
417.843	17.25
418.624	16.25
419.406	17.25
420.188	20.25
420.969	18.25
421.751	19.25
422.532	19.25
423.313	19.25
424.095	20.25
424.876	18.25
425.657	21.25
426.438	23.25
427.219	25.25
428	26.25
428.78	19.25
429.561	25.25
430.342	24.25
431.122	27.25
431.903	26.25
432.683	27.25
433.464	28.25
434.244	33.25
435.024	33.25
435.804	35.25
436.584	34.25
437.364	35.25
438.144	38.25
438.924	37.25
439.704	43.25
440.483	44.25
441.263	47.25
442.042	47.25
442.822	55.25
443.601	61.25
444.38	62.25
445.16	66.25
445.939	73.25
446.718	78.25
447.497	89.25
448.276	93.25
449.054	106.25
449.833	111.25
450.612	122.25
451.391	133.25
452.169	146.25
452.948	161.25
453.726	179.25
454.504	197.25
455.282	221.25
456.061	242.25
456.839	271.25
457.617	303.25
458.395	337.25
459.172	371.25
459.95	417.25
460.728	472.25
461.506	522.25
462.283	580.25
463.061	642.25
463.838	717.25
464.615	803.25
465.393	891.25
466.17	997.25
466.947	1117.25
467.724	1227.25
468.501	1358.25
469.278	1523.25
470.055	1689.25
470.831	1860.25
471.608	2065.25
472.385	2296.25
473.161	2505.25
473.938	2780.25
474.714	3054.25
475.49	3351.25
476.266	3674.25
477.043	4086.25
477.819	4472.25
478.595	4890.25
479.371	5341.25
480.146	5865.25
480.922	6417.25
481.698	6964.25
482.473	7644.25
483.249	8317.25
484.024	9034.25
484.8	9884.25
485.575	10741.25
486.35	11694.25
487.126	12683.25
487.901	13780.25
488.676	14934.25
489.451	16152.25
490.225	17426.25
491	18781.25
491.775	20190.25
492.55	21721.25
493.324	23243.25
494.099	24720.25
494.873	26338.25
495.647	28024.25
496.422	29691.25
497.196	31330.25
497.97	32835.25
498.744	34363.25
499.518	35691.25
500.292	36928.25
501.066	38109.25
501.839	39296.25
502.613	39966.25
503.387	40723.25
504.16	41257.25
504.934	41437.25
505.707	41461.25
506.48	41386.25
507.253	41000.25
508.027	40415.25
508.8	39573.25
509.573	38745.25
510.346	37719.25
511.118	36625.25
511.891	35542.25
512.664	34369.25
513.437	33117.25
514.209	31756.25
514.982	30564.25
515.754	29274.25
516.526	28052.25
517.298	26900.25
518.071	25852.25
518.843	24765.25
519.615	23751.25
520.387	22854.25
521.159	21993.25
521.93	21070.25
522.702	20152.25
523.474	19347.25
524.245	18586.25
525.017	17883.25
525.788	17009.25
526.56	16247.25
527.331	15552.25
528.102	14834.25
528.873	14052.25
529.644	13390.25
530.415	12702.25
531.186	12110.25
531.957	11491.25
532.728	10864.25
533.498	10377.25
534.269	9727.25
535.039	9203.25
535.81	8723.25
536.58	8273.25
537.351	7809.25
538.121	7380.25
538.891	7002.25
539.661	6611.25
540.431	6260.25
541.201	5930.25
541.971	5612.25
542.741	5339.25
543.51	5021.25
544.28	4768.25
545.05	4533.25
545.819	4324.25
546.588	4121.25
547.358	3936.25
548.127	3756.25
548.896	3555.25
549.665	3366.25
550.434	3189.25
551.203	3022.25
551.972	2864.25
552.741	2717.25
553.51	2553.25
554.278	2411.25
555.047	2271.25
555.815	2167.25
556.584	2056.25
557.352	1938.25
558.121	1826.25
558.889	1714.25
559.657	1628.25
560.425	1533.25
561.193	1446.25
561.961	1369.25
562.729	1290.25
563.496	1242.25
564.264	1164.25
565.032	1095.25
565.799	1044.25
566.567	990.25
567.334	926.25
568.101	886.25
568.869	835.25
569.636	792.25
570.403	744.25
571.17	707.25
571.937	655.25
572.704	628.25
573.471	581.25
574.237	555.25
575.004	519.25
575.771	489.25
576.537	468.25
577.303	439.25
578.07	417.25
578.836	391.25
579.602	372.25
580.368	351.25
581.134	327.25
581.9	320.25
582.666	295.25
583.432	283.25
584.198	272.25
584.964	259.25
585.729	244.25
586.495	229.25
587.26	220.25
588.025	201.25
588.791	199.25
589.556	184.25
590.321	178.25
591.086	168.25
591.851	160.25
592.616	155.25
593.381	148.25
594.146	135.25
594.911	132.25
595.675	126.25
596.44	115.25
597.204	120.25
597.969	107.25
598.733	110.25
599.497	106.25
600.261	99.25
601.025	92.25
601.79	85.25
602.553	88.25
603.317	83.25
604.081	81.25
604.845	76.25
605.609	71.25
606.372	70.25
607.136	70.25
607.899	62.25
608.662	62.25
609.426	59.25
610.189	56.25
610.952	54.25
611.715	50.25
612.478	48.25
613.241	51.25
614.004	45.25
614.767	48.25
615.529	42.25
616.292	39.25
617.055	44.25
617.817	40.25
618.579	39.25
619.342	37.25
620.104	37.25
620.866	36.25
621.628	36.25
622.39	30.25
623.152	29.25
623.914	30.25
624.676	26.25
625.438	29.25
626.199	29.25
626.961	29.25
627.722	23.25
628.484	23.25
629.245	23.25
630.006	24.25
630.768	25.25
631.529	22.25
632.29	21.25
633.051	25.25
633.812	19.25
634.573	21.25
635.333	21.25
636.094	18.25
636.855	18.25
637.615	18.25
638.376	21.25
639.136	16.25
639.896	17.25
640.657	14.25
641.417	16.25
642.177	17.25
642.937	15.25
643.697	14.25
644.457	14.25
645.216	14.25
645.976	17.25
646.736	15.25
647.495	14.25
648.255	11.25
649.014	13.25
649.774	13.25
650.533	14.25
651.292	13.25
652.051	15.25
652.81	10.25
653.569	13.25
654.328	12.25
655.087	12.25
655.846	12.25
656.604	10.25
657.363	9.25
658.121	9.25
658.88	8.25
659.638	9.25
660.397	9.25
661.155	10.25
661.913	9.25
662.671	8.25
663.429	8.25
664.187	11.25
664.945	9.25
665.703	9.25
666.46	8.25
667.218	8.25
667.976	8.25
668.733	7.25
669.49	7.25
670.248	6.25
671.005	9.25
671.762	8.25
672.519	5.25
673.276	10.25
674.033	9.25
674.79	7.25
675.547	9.25
676.304	6.25
677.06	6.25
677.817	8.25
678.574	10.25
679.33	5.25
680.086	7.25
680.843	8.25
681.599	10.25
682.355	8.25
683.111	8.25
683.867	7.25
684.623	9.25
685.379	7.25
686.135	7.25
686.89	7.25
687.646	6.25
688.402	8.25
689.157	6.25
689.912	9.25
690.668	8.25
691.423	3.25
692.178	8.25
692.933	5.25
693.688	7.25
694.443	8.25
695.198	6.25
695.953	6.25
696.708	7.25
697.462	9.25
698.217	7.25
698.972	6.25
699.726	5.25
700.48	5.25
701.235	7.25
701.989	7.25
702.743	6.25
703.497	7.25
704.251	7.25
705.005	7.25
705.759	7.25
706.513	4.25
707.266	9.25
708.02	8.25
708.774	7.25
709.527	7.25
710.28	6.25
711.034	5.25
711.787	8.25
712.54	3.25
713.293	5.25
714.046	5.25
714.799	7.25
715.552	7.25
716.305	6.25
717.058	5.25
717.81	5.25
718.563	7.25
719.315	8.25
720.068	7.25
720.82	10.25
721.573	7.25
722.325	6.25
723.077	7.25
723.829	10.25
724.581	3.25
725.333	7.25
726.085	6.25
726.836	8.25
727.588	7.25
728.34	7.25
729.091	8.25
729.843	7.25
730.594	8.25
731.346	7.25
732.097	9.25
732.848	9.25
733.599	9.25
734.35	9.25
735.101	7.25
735.852	10.25
736.603	9.25
737.354	7.25
738.104	7.25
738.855	9.25
739.605	8.25
740.356	9.25
741.106	10.25
741.856	8.25
742.607	10.25
743.357	6.25
744.107	7.25
744.857	11.25
745.607	10.25
746.357	8.25
747.106	9.25
747.856	9.25
748.606	10.25
749.355	9.25
750.105	8.25
750.854	8.25
751.603	9.25
752.353	10.25
753.102	10.25
753.851	12.25
754.6	10.25
755.349	10.25
756.098	9.25
756.847	11.25
757.595	10.25
758.344	12.25
759.093	12.25
759.841	11.25
760.589	9.25
761.338	12.25
762.086	13.25
762.834	10.25
763.582	12.25
764.331	13.25
765.079	11.25
765.826	13.25
766.574	12.25
767.322	11.25
768.07	12.25
768.817	15.25
769.565	12.25
770.312	13.25
771.06	13.25
771.807	12.25
772.554	14.25
773.302	12.25
774.049	13.25
774.796	13.25
775.543	11.25
776.29	12.25
777.036	11.25
777.783	14.25
778.53	14.25
779.276	14.25
780.023	13.25
780.769	15.25
781.516	14.25
782.262	14.25
783.008	14.25
783.754	13.25
784.5	14.25
785.246	13.25
785.992	16.25
786.738	12.25
787.484	13.25
788.23	12.25
788.975	15.25
789.721	15.25
790.466	15.25
791.212	16.25
791.957	13.25
792.702	13.25
793.447	14.25
794.193	12.25
794.938	12.25
795.683	13.25
796.427	10.25
797.172	11.25
797.917	12.25
798.662	11.25
799.406	11.25
800.151	13.25
800.895	10.25
801.64	9.25
802.384	10.25
803.128	10.25
803.872	10.25
804.616	11.25
805.36	12.25
806.104	8.25
806.848	10.25
807.592	9.25
808.336	9.25
809.079	8.25
809.823	8.25
810.566	9.25
811.31	10.25
812.053	7.25
812.796	7.25
813.539	10.25
814.283	8.25
815.026	9.25
815.769	8.25
816.511	8.25
817.254	9.25
817.997	7.25
818.74	7.25
819.482	8.25
820.225	6.25
820.967	7.25
821.71	3.25
822.452	6.25
823.194	7.25
823.936	7.25
824.678	8.25
825.42	8.25
826.162	8.25
826.904	7.25
827.646	5.25
828.388	5.25
829.129	5.25
829.871	5.25
830.612	7.25
831.354	7.25
832.095	3.25
832.836	6.25
833.577	5.25
834.319	5.25
835.06	4.25
835.801	5.25
836.542	3.25
837.282	6.25
838.023	6.25
838.764	9.25
839.504	4.25
840.245	5.25
840.985	5.25
841.726	6.25
842.466	7.25
843.206	5.25
843.946	7.25
844.687	5.25
845.427	6.25
846.166	5.25
846.906	5.25
847.646	1.25
848.386	2.25
849.125	4.25
849.865	5.25
850.605	5.25
851.344	3.25
852.083	4.25
852.823	6.25
853.562	6.25
854.301	4.25
855.04	5.25
855.779	4.25
856.518	5.25
857.257	3.25
857.995	5.25
858.734	5.25
859.473	5.25
860.211	3.25
860.95	3.25
861.688	1.25
862.426	5.25
863.165	1.25
863.903	5.25
864.641	6.25
865.379	5.25
866.117	3.25
866.855	1.25
867.593	3.25
868.33	2.25
869.068	5.25
869.806	5.25
870.543	0.25
871.28	2.25
872.018	3.25
872.755	4.25
873.492	2.25
874.229	3.25
874.967	1.25
875.703	4.25
876.44	4.25
877.177	1.25
877.914	2.25
878.651	2.25
879.387	1.25
880.124	3.25
880.86	-0.75
881.597	1.25
882.333	3.25
883.069	2.25
883.806	0.25
884.542	4.25
885.278	2.25
886.014	1.25
886.749	1.25
887.485	0.25
888.221	4.25
888.957	2.25
889.692	1.25
890.428	1.25
891.163	2.25
891.899	1.25
892.634	-2.75
893.369	1.25
894.104	0.25
894.839	4.25
895.574	1.25
896.309	2.25
897.044	1.25
897.779	1.25
898.514	3.25
899.248	0.25
899.983	2.25
900.717	2.25
901.452	1.25
902.186	-1.75
902.92	1.25
903.654	3.25
904.389	0.25
905.123	1.25
905.857	2.25
906.59	2.25
907.324	3.25
908.058	-0.75
908.792	-0.75
909.525	1.25
910.259	1.25
910.992	0.25
911.726	2.25
912.459	3.25
913.192	0.25
913.925	2.25
914.658	1.25
915.391	1.25
916.124	2.25
916.857	1.25
917.59	-0.75
918.323	1.25
919.055	-1.75
919.788	1.25
920.521	2.25
921.253	-0.75
921.985	0.25
922.718	2.25
923.45	1.25
924.182	-0.75
924.914	1.25
925.646	1.25
926.378	1.25
927.11	-1.75
927.841	1.25
928.573	3.25
929.305	1.25
930.036	0.25
930.768	2.25
931.499	-0.75
932.23	1.25
932.962	1.25
933.693	1.25
934.424	0.25
935.155	1.25
935.886	2.25
936.617	-1.75
937.348	2.25
938.078	2.25
938.809	1.25
939.54	-0.75
940.27	-0.75
941.001	-0.75
941.731	-0.75
942.461	1.25
943.191	-0.75
943.922	2.25
944.652	1.25
945.382	1.25
946.112	0.25
946.841	-0.75
947.571	0.25
948.301	2.25
949.031	0.25
949.76	0.25
950.49	1.25
951.219	2.25
951.948	1.25
952.678	-0.75
953.407	1.25
954.136	1.25
954.865	0.25
955.594	1.25
956.323	1.25
957.052	-2.75
957.78	2.25
958.509	-1.75
959.238	1.25
959.966	1.25
960.695	0.25
961.423	2.25
962.151	1.25
962.88	2.25
963.608	0.25
964.336	1.25
965.064	1.25
965.792	3.25
966.52	1.25
967.247	-0.75
967.975	1.25
968.703	-0.75
969.43	1.25
970.158	-0.75
970.885	2.25
971.613	1.25
972.34	2.25
973.067	1.25
973.794	2.25
974.521	1.25
975.248	1.25
975.975	1.25
976.702	1.25
977.429	-0.75
978.156	1.25
978.882	-0.75
979.609	0.25
980.335	2.25
981.062	2.25
981.788	0.25
982.514	1.25
983.24	-2.75
983.967	2.25
984.693	-1.75
985.419	0.25
986.144	-0.75
986.87	0.25
987.596	0.25
988.322	1.25
989.047	-1.75
989.773	1.25
990.498	1.25
991.224	1.25
991.949	0.25
992.674	0.25
993.399	0.25
994.124	1.25
994.849	1.25
995.574	1.25
996.299	-0.75
997.024	4.25
997.749	1.25
998.473	0.25
999.198	0.25
999.922	0.25
1000.647	0.25
1001.371	2.25
1002.095	1.25
1002.82	-2.75
1003.544	-1.75
1004.268	5.25
1004.992	3.25
1005.716	4.25
1006.439	4.25
1007.163	4.25
1007.887	4.25
1008.611	1.25
1009.334	1.25
1010.058	3.25
1010.781	1.25
1011.504	0.25
1012.228	2.25
1012.951	0.25
1013.674	-1.75
1014.397	0.25
1015.12	2.25
