节点500_565_QEPB04081__28__09-50-55-117.txt的数据

Date: Thu Nov 13 09:50:55 CST 2025
User: PC
Spectrometer: QEPB0408
触发模式: 0
积分时间 (秒): 1.000000E-2
Scans to average: 1
启用暗噪声校正: true
启用非线性校正: false
滑动平均宽度: 0
X轴模式: Wavelengths
Number of Pixels in Spectrum: 1044
>>>>>Begin Spectral Data<<<<<
220.843	4.38
221.644	4.38
222.444	2.38
223.244	4.38
224.045	3.38
224.845	4.38
225.645	8.38
226.445	7.38
227.245	7.38
228.045	4.38
228.845	6.38
229.645	7.38
230.444	6.38
231.244	6.38
232.043	5.38
232.843	9.38
233.642	6.38
234.442	7.38
235.241	7.38
236.04	9.38
236.839	8.38
237.638	12.38
238.437	9.38
239.236	8.38
240.035	8.38
240.833	10.38
241.632	9.38
242.43	11.38
243.229	10.38
244.027	7.38
244.826	12.38
245.624	7.38
246.422	11.38
247.22	11.38
248.018	11.38
248.816	12.38
249.614	14.38
250.412	13.38
251.21	10.38
252.007	15.38
252.805	14.38
253.602	16.38
254.4	16.38
255.197	16.38
255.994	16.38
256.791	18.38
257.589	17.38
258.386	18.38
259.183	20.38
259.979	20.38
260.776	19.38
261.573	22.38
262.37	23.38
263.166	25.38
263.963	21.38
264.759	25.38
265.556	22.38
266.352	25.38
267.148	27.38
267.944	27.38
268.74	26.38
269.536	28.38
270.332	28.38
271.128	28.38
271.924	29.38
272.719	31.38
273.515	32.38
274.311	32.38
275.106	34.38
275.901	30.38
276.697	32.38
277.492	27.38
278.287	32.38
279.082	31.38
279.877	31.38
280.672	32.38
281.467	30.38
282.262	32.38
283.056	34.38
283.851	31.38
284.646	31.38
285.44	31.38
286.234	29.38
287.029	32.38
287.823	29.38
288.617	33.38
289.411	29.38
290.205	30.38
290.999	29.38
291.793	24.38
292.587	29.38
293.381	24.38
294.174	29.38
294.968	27.38
295.761	25.38
296.555	27.38
297.348	24.38
298.141	24.38
298.935	24.38
299.728	22.38
300.521	22.38
301.314	22.38
302.107	20.38
302.899	22.38
303.692	22.38
304.485	19.38
305.277	20.38
306.07	18.38
306.862	17.38
307.655	20.38
308.447	20.38
309.239	17.38
310.031	19.38
310.823	16.38
311.615	14.38
312.407	13.38
313.199	16.38
313.991	15.38
314.783	16.38
315.574	12.38
316.366	12.38
317.157	14.38
317.949	13.38
318.74	12.38
319.531	12.38
320.322	13.38
321.113	12.38
321.904	15.38
322.695	11.38
323.486	10.38
324.277	12.38
325.068	12.38
325.858	12.38
326.649	12.38
327.439	9.38
328.23	9.38
329.02	12.38
329.81	11.38
330.6	9.38
331.391	12.38
332.181	11.38
332.971	11.38
333.76	10.38
334.55	10.38
335.34	10.38
336.13	8.38
336.919	9.38
337.709	9.38
338.498	11.38
339.287	8.38
340.077	12.38
340.866	11.38
341.655	9.38
342.444	10.38
343.233	9.38
344.022	7.38
344.811	10.38
345.6	9.38
346.388	10.38
347.177	11.38
347.965	11.38
348.754	9.38
349.542	10.38
350.33	10.38
351.119	8.38
351.907	9.38
352.695	8.38
353.483	11.38
354.271	10.38
355.059	10.38
355.846	10.38
356.634	11.38
357.422	10.38
358.209	8.38
358.997	12.38
359.784	6.38
360.571	9.38
361.359	9.38
362.146	10.38
362.933	9.38
363.72	9.38
364.507	8.38
365.294	7.38
366.081	8.38
366.867	9.38
367.654	10.38
368.44	9.38
369.227	10.38
370.013	7.38
370.8	8.38
371.586	7.38
372.372	11.38
373.158	9.38
373.944	8.38
374.73	8.38
375.516	9.38
376.302	7.38
377.088	8.38
377.873	7.38
378.659	10.38
379.445	8.38
380.23	10.38
381.015	8.38
381.801	6.38
382.586	11.38
383.371	6.38
384.156	7.38
384.941	10.38
385.726	11.38
386.511	10.38
387.296	9.38
388.08	11.38
388.865	12.38
389.649	11.38
390.434	11.38
391.218	11.38
392.003	8.38
392.787	9.38
393.571	10.38
394.355	13.38
395.139	12.38
395.923	10.38
396.707	10.38
397.491	12.38
398.274	12.38
399.058	13.38
399.842	13.38
400.625	12.38
401.408	14.38
402.192	8.38
402.975	13.38
403.758	12.38
404.541	13.38
405.324	13.38
406.107	12.38
406.89	12.38
407.673	13.38
408.456	14.38
409.238	13.38
410.021	15.38
410.803	13.38
411.586	14.38
412.368	16.38
413.151	14.38
413.933	14.38
414.715	17.38
415.497	17.38
416.279	13.38
417.061	16.38
417.843	18.38
418.624	16.38
419.406	17.38
420.188	18.38
420.969	18.38
421.751	22.38
422.532	19.38
423.313	19.38
424.095	20.38
424.876	22.38
425.657	19.38
426.438	21.38
427.219	18.38
428	24.38
428.78	24.38
429.561	23.38
430.342	26.38
431.122	25.38
431.903	25.38
432.683	26.38
433.464	28.38
434.244	30.38
435.024	30.38
435.804	34.38
436.584	36.38
437.364	37.38
438.144	41.38
438.924	40.38
439.704	40.38
440.483	45.38
441.263	47.38
442.042	52.38
442.822	51.38
443.601	59.38
444.38	60.38
445.16	64.38
445.939	66.38
446.718	71.38
447.497	76.38
448.276	83.38
449.054	91.38
449.833	102.38
450.612	109.38
451.391	119.38
452.169	132.38
452.948	140.38
453.726	162.38
454.504	174.38
455.282	195.38
456.061	223.38
456.839	245.38
457.617	274.38
458.395	295.38
459.172	341.38
459.95	374.38
460.728	421.38
461.506	466.38
462.283	526.38
463.061	590.38
463.838	658.38
464.615	739.38
465.393	833.38
466.17	926.38
466.947	1049.38
467.724	1177.38
468.501	1300.38
469.278	1438.38
470.055	1619.38
470.831	1792.38
471.608	1990.38
472.385	2240.38
473.161	2481.38
473.938	2756.38
474.714	3058.38
475.49	3375.38
476.266	3714.38
477.043	4148.38
477.819	4572.38
478.595	5055.38
479.371	5573.38
480.146	6159.38
480.922	6807.38
481.698	7454.38
482.473	8155.38
483.249	8951.38
484.024	9878.38
484.8	10822.38
485.575	11888.38
486.35	12976.38
487.126	14215.38
487.901	15492.38
488.676	16898.38
489.451	18348.38
490.225	19919.38
491	21568.38
491.775	23236.38
492.55	25064.38
493.324	26820.38
494.099	28667.38
494.873	30493.38
495.647	32464.38
496.422	34245.38
497.196	36015.38
497.97	37697.38
498.744	39142.38
499.518	40587.38
500.292	41931.38
501.066	43088.38
501.839	43960.38
502.613	44542.38
503.387	44962.38
504.16	45226.38
504.934	44969.38
505.707	44630.38
506.48	44079.38
507.253	43322.38
508.027	42274.38
508.8	41080.38
509.573	39735.38
510.346	38466.38
511.118	37002.38
511.891	35701.38
512.664	34235.38
513.437	32773.38
514.209	31235.38
514.982	29979.38
515.754	28773.38
516.526	27469.38
517.298	26232.38
518.071	25118.38
518.843	24104.38
519.615	23111.38
520.387	22196.38
521.159	21354.38
521.93	20482.38
522.702	19663.38
523.474	18831.38
524.245	18049.38
525.017	17303.38
525.788	16457.38
526.56	15622.38
527.331	14880.38
528.102	14127.38
528.873	13428.38
529.644	12720.38
530.415	12032.38
531.186	11404.38
531.957	10831.38
532.728	10200.38
533.498	9672.38
534.269	9116.38
535.039	8577.38
535.81	8152.38
536.58	7675.38
537.351	7258.38
538.121	6823.38
538.891	6520.38
539.661	6150.38
540.431	5830.38
541.201	5516.38
541.971	5235.38
542.741	4963.38
543.51	4688.38
544.28	4467.38
545.05	4252.38
545.819	4022.38
546.588	3802.38
547.358	3623.38
548.127	3449.38
548.896	3246.38
549.665	3102.38
550.434	2936.38
551.203	2774.38
551.972	2636.38
552.741	2495.38
553.51	2343.38
554.278	2216.38
555.047	2078.38
555.815	1982.38
556.584	1868.38
557.352	1765.38
558.121	1655.38
558.889	1550.38
559.657	1473.38
560.425	1396.38
561.193	1324.38
561.961	1242.38
562.729	1182.38
563.496	1115.38
564.264	1045.38
565.032	1000.38
565.799	944.38
566.567	906.38
567.334	844.38
568.101	801.38
568.869	753.38
569.636	717.38
570.403	673.38
571.17	639.38
571.937	613.38
572.704	569.38
573.471	535.38
574.237	512.38
575.004	481.38
575.771	452.38
576.537	416.38
577.303	401.38
578.07	378.38
578.836	349.38
579.602	333.38
580.368	314.38
581.134	298.38
581.9	286.38
582.666	272.38
583.432	253.38
584.198	250.38
584.964	232.38
585.729	217.38
586.495	208.38
587.26	204.38
588.025	187.38
588.791	180.38
589.556	171.38
590.321	162.38
591.086	152.38
591.851	149.38
592.616	135.38
593.381	134.38
594.146	123.38
594.911	119.38
595.675	110.38
596.44	111.38
597.204	104.38
597.969	101.38
598.733	101.38
599.497	94.38
600.261	90.38
601.025	82.38
601.79	79.38
602.553	81.38
603.317	70.38
604.081	71.38
604.845	68.38
605.609	67.38
606.372	64.38
607.136	62.38
607.899	58.38
608.662	53.38
609.426	55.38
610.189	53.38
610.952	53.38
611.715	51.38
612.478	48.38
613.241	45.38
614.004	43.38
614.767	41.38
615.529	38.38
616.292	39.38
617.055	40.38
617.817	37.38
618.579	36.38
619.342	33.38
620.104	36.38
620.866	35.38
621.628	33.38
622.39	30.38
623.152	26.38
623.914	27.38
624.676	26.38
625.438	27.38
626.199	25.38
626.961	26.38
627.722	25.38
628.484	24.38
629.245	25.38
630.006	20.38
630.768	23.38
631.529	23.38
632.29	21.38
633.051	19.38
633.812	18.38
634.573	22.38
635.333	20.38
636.094	18.38
636.855	19.38
637.615	15.38
638.376	15.38
639.136	13.38
639.896	17.38
640.657	16.38
641.417	15.38
642.177	12.38
642.937	17.38
643.697	14.38
644.457	11.38
645.216	14.38
645.976	13.38
646.736	14.38
647.495	11.38
648.255	12.38
649.014	13.38
649.774	9.38
650.533	8.38
651.292	12.38
652.051	9.38
652.81	11.38
653.569	12.38
654.328	10.38
655.087	10.38
655.846	9.38
656.604	12.38
657.363	10.38
658.121	10.38
658.88	9.38
659.638	10.38
660.397	9.38
661.155	10.38
661.913	9.38
662.671	9.38
663.429	8.38
664.187	6.38
664.945	11.38
665.703	8.38
666.46	10.38
667.218	8.38
667.976	10.38
668.733	9.38
669.49	9.38
670.248	8.38
671.005	7.38
671.762	7.38
672.519	5.38
673.276	10.38
674.033	6.38
674.79	7.38
675.547	8.38
676.304	6.38
677.06	9.38
677.817	4.38
678.574	6.38
679.33	7.38
680.086	8.38
680.843	7.38
681.599	7.38
682.355	3.38
683.111	7.38
683.867	7.38
684.623	7.38
685.379	8.38
686.135	6.38
686.89	7.38
687.646	6.38
688.402	8.38
689.157	6.38
689.912	4.38
690.668	5.38
691.423	6.38
692.178	8.38
692.933	8.38
693.688	7.38
694.443	6.38
695.198	7.38
695.953	6.38
696.708	6.38
697.462	5.38
698.217	6.38
698.972	5.38
699.726	8.38
700.48	3.38
701.235	4.38
701.989	8.38
702.743	8.38
703.497	5.38
704.251	7.38
705.005	6.38
705.759	5.38
706.513	7.38
707.266	5.38
708.02	6.38
708.774	7.38
709.527	6.38
710.28	6.38
711.034	5.38
711.787	6.38
712.54	5.38
713.293	7.38
714.046	7.38
714.799	5.38
715.552	7.38
716.305	8.38
717.058	6.38
717.81	4.38
718.563	7.38
719.315	8.38
720.068	3.38
720.82	7.38
721.573	8.38
722.325	5.38
723.077	8.38
723.829	5.38
724.581	6.38
725.333	7.38
726.085	9.38
726.836	7.38
727.588	6.38
728.34	8.38
729.091	6.38
729.843	10.38
730.594	7.38
731.346	7.38
732.097	8.38
732.848	8.38
733.599	8.38
734.35	10.38
735.101	7.38
735.852	8.38
736.603	10.38
737.354	7.38
738.104	8.38
738.855	7.38
739.605	11.38
740.356	10.38
741.106	8.38
741.856	9.38
742.607	8.38
743.357	10.38
744.107	11.38
744.857	12.38
745.607	11.38
746.357	10.38
747.106	8.38
747.856	10.38
748.606	11.38
749.355	9.38
750.105	10.38
750.854	9.38
751.603	10.38
752.353	11.38
753.102	10.38
753.851	10.38
754.6	10.38
755.349	10.38
756.098	10.38
756.847	13.38
757.595	10.38
758.344	12.38
759.093	12.38
759.841	12.38
760.589	12.38
761.338	11.38
762.086	9.38
762.834	13.38
763.582	12.38
764.331	12.38
765.079	18.38
765.826	13.38
766.574	12.38
767.322	14.38
768.07	14.38
768.817	14.38
769.565	13.38
770.312	13.38
771.06	12.38
771.807	11.38
772.554	11.38
773.302	16.38
774.049	13.38
774.796	11.38
775.543	14.38
776.29	14.38
777.036	14.38
777.783	13.38
778.53	14.38
779.276	13.38
780.023	16.38
780.769	17.38
781.516	16.38
782.262	16.38
783.008	13.38
783.754	17.38
784.5	17.38
785.246	12.38
785.992	13.38
786.738	12.38
787.484	13.38
788.23	14.38
788.975	13.38
789.721	13.38
790.466	13.38
791.212	13.38
791.957	13.38
792.702	13.38
793.447	12.38
794.193	10.38
794.938	14.38
795.683	13.38
796.427	12.38
797.172	11.38
797.917	12.38
798.662	12.38
799.406	12.38
800.151	10.38
800.895	11.38
801.64	12.38
802.384	11.38
803.128	12.38
803.872	9.38
804.616	10.38
805.36	9.38
806.104	10.38
806.848	11.38
807.592	8.38
808.336	9.38
809.079	7.38
809.823	7.38
810.566	7.38
811.31	9.38
812.053	7.38
812.796	8.38
813.539	7.38
814.283	5.38
815.026	9.38
815.769	8.38
816.511	6.38
817.254	8.38
817.997	9.38
818.74	5.38
819.482	6.38
820.225	7.38
820.967	8.38
821.71	8.38
822.452	6.38
823.194	6.38
823.936	5.38
824.678	4.38
825.42	7.38
826.162	5.38
826.904	6.38
827.646	4.38
828.388	4.38
829.129	5.38
829.871	3.38
830.612	6.38
831.354	6.38
832.095	5.38
832.836	4.38
833.577	7.38
834.319	5.38
835.06	5.38
835.801	6.38
836.542	5.38
837.282	5.38
838.023	6.38
838.764	5.38
839.504	4.38
840.245	6.38
840.985	6.38
841.726	4.38
842.466	4.38
843.206	4.38
843.946	3.38
844.687	5.38
845.427	3.38
846.166	4.38
846.906	3.38
847.646	5.38
848.386	2.38
849.125	2.38
849.865	3.38
850.605	3.38
851.344	4.38
852.083	4.38
852.823	3.38
853.562	4.38
854.301	2.38
855.04	4.38
855.779	3.38
856.518	4.38
857.257	4.38
857.995	3.38
858.734	3.38
859.473	4.38
860.211	1.38
860.95	1.38
861.688	1.38
862.426	0.38
863.165	2.38
863.903	3.38
864.641	3.38
865.379	4.38
866.117	3.38
866.855	2.38
867.593	2.38
868.33	3.38
869.068	1.38
869.806	2.38
870.543	2.38
871.28	0.38
872.018	0.38
872.755	0.38
873.492	4.38
874.229	3.38
874.967	2.38
875.703	1.38
876.44	0.38
877.177	1.38
877.914	1.38
878.651	1.38
879.387	0.38
880.124	2.38
880.86	0.38
881.597	0.38
882.333	1.38
883.069	0.38
883.806	1.38
884.542	1.38
885.278	2.38
886.014	3.38
886.749	0.38
887.485	2.38
888.221	1.38
888.957	2.38
889.692	1.38
890.428	-0.62
891.163	2.38
891.899	-0.62
892.634	2.38
893.369	1.38
894.104	2.38
894.839	2.38
895.574	2.38
896.309	0.38
897.044	0.38
897.779	3.38
898.514	-0.62
899.248	3.38
899.983	0.38
900.717	1.38
901.452	1.38
902.186	-0.62
902.92	1.38
903.654	3.38
904.389	0.38
905.123	2.38
905.857	0.38
906.59	1.38
907.324	1.38
908.058	2.38
908.792	1.38
909.525	3.38
910.259	-0.62
910.992	-0.62
911.726	-0.62
912.459	-1.62
913.192	2.38
913.925	-0.62
914.658	1.38
915.391	0.38
916.124	-0.62
916.857	1.38
917.59	-0.62
918.323	-1.62
919.055	-0.62
919.788	-0.62
920.521	0.38
921.253	1.38
921.985	0.38
922.718	3.38
923.45	-0.62
924.182	0.38
924.914	3.38
925.646	-1.62
926.378	-0.62
927.11	1.38
927.841	0.38
928.573	-1.62
929.305	-0.62
930.036	0.38
930.768	-0.62
931.499	0.38
932.23	0.38
932.962	-0.62
933.693	-0.62
934.424	0.38
935.155	1.38
935.886	-1.62
936.617	1.38
937.348	0.38
938.078	0.38
938.809	0.38
939.54	-1.62
940.27	1.38
941.001	-0.62
941.731	2.38
942.461	1.38
943.191	4.38
943.922	0.38
944.652	0.38
945.382	3.38
946.112	-0.62
946.841	0.38
947.571	1.38
948.301	-2.62
949.031	-1.62
949.76	1.38
950.49	2.38
951.219	0.38
951.948	1.38
952.678	0.38
953.407	1.38
954.136	1.38
954.865	0.38
955.594	0.38
956.323	-0.62
957.052	0.38
957.78	2.38
958.509	1.38
959.238	-2.62
959.966	1.38
960.695	1.38
961.423	0.38
962.151	1.38
962.88	1.38
963.608	1.38
964.336	1.38
965.064	0.38
965.792	0.38
966.52	0.38
967.247	0.38
967.975	1.38
968.703	1.38
969.43	2.38
970.158	0.38
970.885	2.38
971.613	0.38
972.34	1.38
973.067	1.38
973.794	0.38
974.521	0.38
975.248	0.38
975.975	1.38
976.702	2.38
977.429	0.38
978.156	2.38
978.882	2.38
979.609	0.38
980.335	1.38
981.062	0.38
981.788	2.38
982.514	-2.62
983.24	-1.62
983.967	1.38
984.693	-1.62
985.419	0.38
986.144	0.38
986.87	1.38
987.596	2.38
988.322	1.38
989.047	0.38
989.773	2.38
990.498	-0.62
991.224	2.38
991.949	-0.62
992.674	0.38
993.399	-1.62
994.124	-0.62
994.849	1.38
995.574	1.38
996.299	-1.62
997.024	0.38
997.749	0.38
998.473	3.38
999.198	-0.62
999.922	1.38
1000.647	-0.62
1001.371	4.38
1002.095	-2.62
1002.82	1.38
1003.544	-0.62
1004.268	2.38
1004.992	2.38
1005.716	2.38
1006.439	3.38
1007.163	4.38
1007.887	4.38
1008.611	1.38
1009.334	0.38
1010.058	0.38
1010.781	-2.62
1011.504	-0.62
1012.228	0.38
1012.951	-0.62
1013.674	-1.62
1014.397	-1.62
1015.12	1.38
