节点500_565_QEPB04081__515__09-58-59-109.txt的数据

Date: Thu Nov 13 09:58:59 CST 2025
User: PC
Spectrometer: QEPB0408
触发模式: 0
积分时间 (秒): 1.000000E-2
Scans to average: 1
启用暗噪声校正: true
启用非线性校正: false
滑动平均宽度: 0
X轴模式: Wavelengths
Number of Pixels in Spectrum: 1044
>>>>>Begin Spectral Data<<<<<
220.843	4.88
221.644	4.88
222.444	5.88
223.244	7.88
224.045	5.88
224.845	3.88
225.645	4.88
226.445	5.88
227.245	8.88
228.045	4.88
228.845	5.88
229.645	4.88
230.444	5.88
231.244	7.88
232.043	5.88
232.843	7.88
233.642	5.88
234.442	9.88
235.241	10.88
236.04	7.88
236.839	8.88
237.638	6.88
238.437	9.88
239.236	7.88
240.035	8.88
240.833	9.88
241.632	12.88
242.43	11.88
243.229	8.88
244.027	12.88
244.826	9.88
245.624	9.88
246.422	13.88
247.22	15.88
248.018	10.88
248.816	9.88
249.614	11.88
250.412	11.88
251.21	13.88
252.007	8.88
252.805	13.88
253.602	14.88
254.4	15.88
255.197	14.88
255.994	12.88
256.791	14.88
257.589	15.88
258.386	15.88
259.183	14.88
259.979	15.88
260.776	16.88
261.573	18.88
262.37	18.88
263.166	17.88
263.963	20.88
264.759	23.88
265.556	19.88
266.352	21.88
267.148	21.88
267.944	22.88
268.74	21.88
269.536	24.88
270.332	23.88
271.128	25.88
271.924	24.88
272.719	24.88
273.515	24.88
274.311	27.88
275.106	26.88
275.901	26.88
276.697	26.88
277.492	23.88
278.287	28.88
279.082	27.88
279.877	28.88
280.672	28.88
281.467	27.88
282.262	28.88
283.056	27.88
283.851	27.88
284.646	28.88
285.44	28.88
286.234	27.88
287.029	26.88
287.823	25.88
288.617	26.88
289.411	28.88
290.205	25.88
290.999	27.88
291.793	28.88
292.587	27.88
293.381	24.88
294.174	25.88
294.968	25.88
295.761	25.88
296.555	25.88
297.348	22.88
298.141	22.88
298.935	26.88
299.728	21.88
300.521	21.88
301.314	20.88
302.107	20.88
302.899	21.88
303.692	19.88
304.485	18.88
305.277	21.88
306.07	18.88
306.862	20.88
307.655	20.88
308.447	20.88
309.239	18.88
310.031	18.88
310.823	15.88
311.615	15.88
312.407	17.88
313.199	14.88
313.991	15.88
314.783	15.88
315.574	15.88
316.366	15.88
317.157	15.88
317.949	14.88
318.74	11.88
319.531	13.88
320.322	12.88
321.113	14.88
321.904	13.88
322.695	10.88
323.486	12.88
324.277	14.88
325.068	11.88
325.858	12.88
326.649	9.88
327.439	9.88
328.23	11.88
329.02	10.88
329.81	10.88
330.6	13.88
331.391	9.88
332.181	10.88
332.971	9.88
333.76	10.88
334.55	12.88
335.34	11.88
336.13	10.88
336.919	7.88
337.709	9.88
338.498	10.88
339.287	10.88
340.077	10.88
340.866	12.88
341.655	10.88
342.444	10.88
343.233	12.88
344.022	7.88
344.811	11.88
345.6	9.88
346.388	9.88
347.177	11.88
347.965	8.88
348.754	11.88
349.542	9.88
350.33	9.88
351.119	11.88
351.907	9.88
352.695	10.88
353.483	9.88
354.271	9.88
355.059	9.88
355.846	10.88
356.634	8.88
357.422	8.88
358.209	8.88
358.997	9.88
359.784	8.88
360.571	7.88
361.359	9.88
362.146	8.88
362.933	6.88
363.72	10.88
364.507	6.88
365.294	8.88
366.081	7.88
366.867	7.88
367.654	10.88
368.44	9.88
369.227	9.88
370.013	9.88
370.8	7.88
371.586	10.88
372.372	9.88
373.158	9.88
373.944	8.88
374.73	5.88
375.516	8.88
376.302	8.88
377.088	7.88
377.873	9.88
378.659	7.88
379.445	11.88
380.23	10.88
381.015	9.88
381.801	9.88
382.586	8.88
383.371	7.88
384.156	9.88
384.941	10.88
385.726	9.88
386.511	9.88
387.296	9.88
388.08	9.88
388.865	10.88
389.649	7.88
390.434	10.88
391.218	9.88
392.003	11.88
392.787	10.88
393.571	10.88
394.355	9.88
395.139	9.88
395.923	10.88
396.707	11.88
397.491	11.88
398.274	11.88
399.058	12.88
399.842	11.88
400.625	9.88
401.408	11.88
402.192	13.88
402.975	11.88
403.758	9.88
404.541	12.88
405.324	13.88
406.107	11.88
406.89	13.88
407.673	10.88
408.456	12.88
409.238	14.88
410.021	11.88
410.803	14.88
411.586	15.88
412.368	14.88
413.151	15.88
413.933	14.88
414.715	14.88
415.497	15.88
416.279	15.88
417.061	16.88
417.843	18.88
418.624	19.88
419.406	17.88
420.188	17.88
420.969	17.88
421.751	18.88
422.532	21.88
423.313	19.88
424.095	20.88
424.876	20.88
425.657	19.88
426.438	25.88
427.219	21.88
428	22.88
428.78	24.88
429.561	20.88
430.342	26.88
431.122	25.88
431.903	25.88
432.683	26.88
433.464	29.88
434.244	31.88
435.024	28.88
435.804	35.88
436.584	33.88
437.364	36.88
438.144	33.88
438.924	35.88
439.704	44.88
440.483	45.88
441.263	49.88
442.042	53.88
442.822	55.88
443.601	59.88
444.38	63.88
445.16	66.88
445.939	74.88
446.718	81.88
447.497	88.88
448.276	101.88
449.054	109.88
449.833	118.88
450.612	133.88
451.391	142.88
452.169	157.88
452.948	172.88
453.726	188.88
454.504	209.88
455.282	230.88
456.061	263.88
456.839	293.88
457.617	322.88
458.395	358.88
459.172	403.88
459.95	445.88
460.728	496.88
461.506	558.88
462.283	620.88
463.061	677.88
463.838	750.88
464.615	841.88
465.393	932.88
466.17	1031.88
466.947	1154.88
467.724	1266.88
468.501	1406.88
469.278	1557.88
470.055	1711.88
470.831	1898.88
471.608	2083.88
472.385	2295.88
473.161	2496.88
473.938	2797.88
474.714	3033.88
475.49	3317.88
476.266	3623.88
477.043	3988.88
477.819	4349.88
478.595	4745.88
479.371	5143.88
480.146	5652.88
480.922	6131.88
481.698	6634.88
482.473	7204.88
483.249	7827.88
484.024	8474.88
484.8	9198.88
485.575	9970.88
486.35	10772.88
487.126	11629.88
487.901	12574.88
488.676	13618.88
489.451	14684.88
490.225	15817.88
491	17012.88
491.775	18165.88
492.55	19504.88
493.324	20890.88
494.099	22199.88
494.873	23661.88
495.647	25111.88
496.422	26607.88
497.196	28026.88
497.97	29478.88
498.744	30847.88
499.518	32153.88
500.292	33435.88
501.066	34602.88
501.839	35736.88
502.613	36641.88
503.387	37371.88
504.16	38048.88
504.934	38544.88
505.707	38794.88
506.48	38867.88
507.253	38779.88
508.027	38508.88
508.8	37989.88
509.573	37311.88
510.346	36604.88
511.118	35729.88
511.891	34988.88
512.664	33915.88
513.437	32892.88
514.209	31694.88
514.982	30604.88
515.754	29499.88
516.526	28274.88
517.298	27204.88
518.071	26070.88
518.843	25008.88
519.615	23978.88
520.387	23047.88
521.159	22172.88
521.93	21265.88
522.702	20435.88
523.474	19624.88
524.245	18834.88
525.017	18081.88
525.788	17314.88
526.56	16581.88
527.331	15868.88
528.102	15166.88
528.873	14478.88
529.644	13788.88
530.415	13081.88
531.186	12482.88
531.957	11888.88
532.728	11303.88
533.498	10754.88
534.269	10158.88
535.039	9570.88
535.81	9096.88
536.58	8610.88
537.351	8190.88
538.121	7719.88
538.891	7332.88
539.661	6951.88
540.431	6606.88
541.201	6208.88
541.971	5899.88
542.741	5595.88
543.51	5273.88
544.28	5011.88
545.05	4759.88
545.819	4549.88
546.588	4341.88
547.358	4126.88
548.127	3900.88
548.896	3728.88
549.665	3533.88
550.434	3367.88
551.203	3186.88
551.972	3005.88
552.741	2872.88
553.51	2700.88
554.278	2565.88
555.047	2440.88
555.815	2296.88
556.584	2175.88
557.352	2047.88
558.121	1940.88
558.889	1822.88
559.657	1719.88
560.425	1635.88
561.193	1520.88
561.961	1464.88
562.729	1398.88
563.496	1301.88
564.264	1243.88
565.032	1170.88
565.799	1115.88
566.567	1055.88
567.334	994.88
568.101	935.88
568.869	876.88
569.636	839.88
570.403	790.88
571.17	748.88
571.937	709.88
572.704	672.88
573.471	626.88
574.237	576.88
575.004	556.88
575.771	518.88
576.537	498.88
577.303	472.88
578.07	440.88
578.836	414.88
579.602	395.88
580.368	370.88
581.134	354.88
581.9	337.88
582.666	315.88
583.432	301.88
584.198	291.88
584.964	276.88
585.729	260.88
586.495	241.88
587.26	232.88
588.025	221.88
588.791	214.88
589.556	201.88
590.321	185.88
591.086	175.88
591.851	172.88
592.616	165.88
593.381	152.88
594.146	145.88
594.911	139.88
595.675	134.88
596.44	128.88
597.204	116.88
597.969	117.88
598.733	114.88
599.497	110.88
600.261	100.88
601.025	95.88
601.79	92.88
602.553	90.88
603.317	84.88
604.081	81.88
604.845	77.88
605.609	77.88
606.372	73.88
607.136	68.88
607.899	64.88
608.662	66.88
609.426	62.88
610.189	62.88
610.952	57.88
611.715	51.88
612.478	53.88
613.241	53.88
614.004	48.88
614.767	49.88
615.529	45.88
616.292	44.88
617.055	46.88
617.817	42.88
618.579	42.88
619.342	39.88
620.104	36.88
620.866	35.88
621.628	34.88
622.39	35.88
623.152	32.88
623.914	32.88
624.676	31.88
625.438	27.88
626.199	31.88
626.961	29.88
627.722	27.88
628.484	25.88
629.245	27.88
630.006	24.88
630.768	22.88
631.529	25.88
632.29	22.88
633.051	24.88
633.812	22.88
634.573	20.88
635.333	21.88
636.094	16.88
636.855	20.88
637.615	18.88
638.376	18.88
639.136	18.88
639.896	13.88
640.657	13.88
641.417	14.88
642.177	19.88
642.937	18.88
643.697	14.88
644.457	12.88
645.216	15.88
645.976	17.88
646.736	14.88
647.495	14.88
648.255	15.88
649.014	13.88
649.774	11.88
650.533	14.88
651.292	15.88
652.051	10.88
652.81	10.88
653.569	10.88
654.328	12.88
655.087	12.88
655.846	12.88
656.604	12.88
657.363	11.88
658.121	10.88
658.88	10.88
659.638	9.88
660.397	12.88
661.155	10.88
661.913	12.88
662.671	9.88
663.429	12.88
664.187	7.88
664.945	10.88
665.703	10.88
666.46	9.88
667.218	8.88
667.976	5.88
668.733	7.88
669.49	8.88
670.248	7.88
671.005	9.88
671.762	9.88
672.519	9.88
673.276	9.88
674.033	7.88
674.79	7.88
675.547	9.88
676.304	8.88
677.06	8.88
677.817	7.88
678.574	10.88
679.33	10.88
680.086	8.88
680.843	8.88
681.599	5.88
682.355	7.88
683.111	5.88
683.867	6.88
684.623	7.88
685.379	5.88
686.135	7.88
686.89	9.88
687.646	9.88
688.402	8.88
689.157	6.88
689.912	7.88
690.668	7.88
691.423	7.88
692.178	9.88
692.933	7.88
693.688	8.88
694.443	7.88
695.198	7.88
695.953	7.88
696.708	6.88
697.462	8.88
698.217	8.88
698.972	7.88
699.726	8.88
700.48	7.88
701.235	7.88
701.989	7.88
702.743	5.88
703.497	6.88
704.251	6.88
705.005	8.88
705.759	6.88
706.513	6.88
707.266	6.88
708.02	8.88
708.774	7.88
709.527	7.88
710.28	6.88
711.034	5.88
711.787	5.88
712.54	6.88
713.293	6.88
714.046	7.88
714.799	6.88
715.552	7.88
716.305	6.88
717.058	7.88
717.81	7.88
718.563	5.88
719.315	7.88
720.068	6.88
720.82	8.88
721.573	9.88
722.325	5.88
723.077	5.88
723.829	7.88
724.581	7.88
725.333	7.88
726.085	8.88
726.836	5.88
727.588	7.88
728.34	7.88
729.091	7.88
729.843	9.88
730.594	5.88
731.346	8.88
732.097	8.88
732.848	8.88
733.599	7.88
734.35	6.88
735.101	5.88
735.852	9.88
736.603	7.88
737.354	5.88
738.104	9.88
738.855	9.88
739.605	8.88
740.356	8.88
741.106	7.88
741.856	10.88
742.607	9.88
743.357	6.88
744.107	8.88
744.857	7.88
745.607	7.88
746.357	7.88
747.106	5.88
747.856	10.88
748.606	6.88
749.355	7.88
750.105	8.88
750.854	9.88
751.603	9.88
752.353	8.88
753.102	9.88
753.851	5.88
754.6	8.88
755.349	9.88
756.098	11.88
756.847	8.88
757.595	9.88
758.344	7.88
759.093	9.88
759.841	10.88
760.589	6.88
761.338	10.88
762.086	9.88
762.834	10.88
763.582	12.88
764.331	11.88
765.079	11.88
765.826	9.88
766.574	11.88
767.322	8.88
768.07	11.88
768.817	9.88
769.565	13.88
770.312	13.88
771.06	11.88
771.807	12.88
772.554	13.88
773.302	13.88
774.049	12.88
774.796	12.88
775.543	11.88
776.29	13.88
777.036	11.88
777.783	12.88
778.53	11.88
779.276	12.88
780.023	13.88
780.769	14.88
781.516	12.88
782.262	15.88
783.008	12.88
783.754	11.88
784.5	12.88
785.246	13.88
785.992	13.88
786.738	13.88
787.484	13.88
788.23	14.88
788.975	14.88
789.721	11.88
790.466	12.88
791.212	14.88
791.957	13.88
792.702	12.88
793.447	10.88
794.193	14.88
794.938	9.88
795.683	11.88
796.427	11.88
797.172	12.88
797.917	12.88
798.662	12.88
799.406	12.88
800.151	8.88
800.895	11.88
801.64	10.88
802.384	9.88
803.128	11.88
803.872	9.88
804.616	11.88
805.36	8.88
806.104	10.88
806.848	9.88
807.592	9.88
808.336	12.88
809.079	8.88
809.823	9.88
810.566	8.88
811.31	9.88
812.053	9.88
812.796	8.88
813.539	9.88
814.283	6.88
815.026	9.88
815.769	9.88
816.511	10.88
817.254	8.88
817.997	6.88
818.74	10.88
819.482	9.88
820.225	5.88
820.967	8.88
821.71	7.88
822.452	6.88
823.194	10.88
823.936	5.88
824.678	5.88
825.42	4.88
826.162	8.88
826.904	6.88
827.646	5.88
828.388	6.88
829.129	9.88
829.871	6.88
830.612	5.88
831.354	5.88
832.095	8.88
832.836	5.88
833.577	5.88
834.319	6.88
835.06	6.88
835.801	7.88
836.542	6.88
837.282	7.88
838.023	4.88
838.764	7.88
839.504	4.88
840.245	6.88
840.985	6.88
841.726	5.88
842.466	4.88
843.206	6.88
843.946	5.88
844.687	9.88
845.427	6.88
846.166	5.88
846.906	2.88
847.646	6.88
848.386	3.88
849.125	7.88
849.865	2.88
850.605	5.88
851.344	2.88
852.083	6.88
852.823	3.88
853.562	5.88
854.301	8.88
855.04	4.88
855.779	4.88
856.518	5.88
857.257	3.88
857.995	5.88
858.734	2.88
859.473	4.88
860.211	2.88
860.95	3.88
861.688	3.88
862.426	4.88
863.165	4.88
863.903	5.88
864.641	1.88
865.379	3.88
866.117	5.88
866.855	2.88
867.593	1.88
868.33	2.88
869.068	2.88
869.806	3.88
870.543	1.88
871.28	1.88
872.018	2.88
872.755	1.88
873.492	3.88
874.229	4.88
874.967	2.88
875.703	2.88
876.44	1.88
877.177	1.88
877.914	1.88
878.651	1.88
879.387	2.88
880.124	2.88
880.86	2.88
881.597	1.88
882.333	-0.12
883.069	0.88
883.806	1.88
884.542	2.88
885.278	2.88
886.014	3.88
886.749	3.88
887.485	0.88
888.221	1.88
888.957	3.88
889.692	3.88
890.428	3.88
891.163	0.88
891.899	1.88
892.634	0.88
893.369	2.88
894.104	0.88
894.839	2.88
895.574	1.88
896.309	2.88
897.044	1.88
897.779	2.88
898.514	2.88
899.248	2.88
899.983	1.88
900.717	4.88
901.452	0.88
902.186	2.88
902.92	1.88
903.654	2.88
904.389	1.88
905.123	3.88
905.857	2.88
906.59	1.88
907.324	2.88
908.058	1.88
908.792	1.88
909.525	2.88
910.259	2.88
910.992	4.88
911.726	3.88
912.459	-0.12
913.192	1.88
913.925	3.88
914.658	0.88
915.391	4.88
916.124	3.88
916.857	0.88
917.59	3.88
918.323	2.88
919.055	2.88
919.788	0.88
920.521	2.88
921.253	1.88
921.985	1.88
922.718	0.88
923.45	2.88
924.182	3.88
924.914	0.88
925.646	0.88
926.378	0.88
927.11	0.88
927.841	1.88
928.573	-0.12
929.305	1.88
930.036	1.88
930.768	1.88
931.499	-0.12
932.23	1.88
932.962	0.88
933.693	0.88
934.424	2.88
935.155	-0.12
935.886	1.88
936.617	0.88
937.348	1.88
938.078	0.88
938.809	3.88
939.54	-0.12
940.27	1.88
941.001	2.88
941.731	1.88
942.461	1.88
943.191	-0.12
943.922	1.88
944.652	0.88
945.382	-0.12
946.112	0.88
946.841	-0.12
947.571	2.88
948.301	0.88
949.031	0.88
949.76	0.88
950.49	1.88
951.219	2.88
951.948	0.88
952.678	1.88
953.407	3.88
954.136	1.88
954.865	1.88
955.594	2.88
956.323	1.88
957.052	-0.12
957.78	2.88
958.509	1.88
959.238	1.88
959.966	2.88
960.695	1.88
961.423	2.88
962.151	-1.12
962.88	2.88
963.608	1.88
964.336	-1.12
965.064	1.88
965.792	2.88
966.52	2.88
967.247	2.88
967.975	1.88
968.703	1.88
969.43	2.88
970.158	1.88
970.885	0.88
971.613	-0.12
972.34	1.88
973.067	-2.12
973.794	1.88
974.521	-0.12
975.248	1.88
975.975	0.88
976.702	0.88
977.429	1.88
978.156	1.88
978.882	0.88
979.609	-0.12
980.335	2.88
981.062	1.88
981.788	1.88
982.514	-0.12
983.24	1.88
983.967	1.88
984.693	4.88
985.419	1.88
986.144	2.88
986.87	0.88
987.596	0.88
988.322	2.88
989.047	1.88
989.773	1.88
990.498	1.88
991.224	1.88
991.949	-0.12
992.674	1.88
993.399	2.88
994.124	2.88
994.849	0.88
995.574	-1.12
996.299	0.88
997.024	2.88
997.749	0.88
998.473	1.88
999.198	1.88
999.922	-0.12
1000.647	1.88
1001.371	3.88
1002.095	-0.12
1002.82	-0.12
1003.544	-2.12
1004.268	5.88
1004.992	5.88
1005.716	2.88
1006.439	4.88
1007.163	3.88
1007.887	6.88
1008.611	-0.12
1009.334	1.88
1010.058	2.88
1010.781	2.88
1011.504	-0.12
1012.228	0.88
1012.951	-2.12
1013.674	0.88
1014.397	0.88
1015.12	-1.12
