节点500_565_QEPB04081__545__09-59-29-094.txt的数据

Date: Thu Nov 13 09:59:29 CST 2025
User: PC
Spectrometer: QEPB0408
触发模式: 0
积分时间 (秒): 1.000000E-2
Scans to average: 1
启用暗噪声校正: true
启用非线性校正: false
滑动平均宽度: 0
X轴模式: Wavelengths
Number of Pixels in Spectrum: 1044
>>>>>Begin Spectral Data<<<<<
220.843	3.38
221.644	4.38
222.444	2.38
223.244	5.38
224.045	2.38
224.845	1.38
225.645	2.38
226.445	4.38
227.245	4.38
228.045	6.38
228.845	4.38
229.645	6.38
230.444	3.38
231.244	6.38
232.043	8.38
232.843	9.38
233.642	4.38
234.442	6.38
235.241	7.38
236.04	8.38
236.839	6.38
237.638	6.38
238.437	7.38
239.236	7.38
240.035	7.38
240.833	8.38
241.632	6.38
242.43	6.38
243.229	6.38
244.027	9.38
244.826	9.38
245.624	6.38
246.422	10.38
247.22	9.38
248.018	10.38
248.816	11.38
249.614	8.38
250.412	8.38
251.21	13.38
252.007	12.38
252.805	10.38
253.602	13.38
254.4	13.38
255.197	13.38
255.994	14.38
256.791	13.38
257.589	15.38
258.386	16.38
259.183	14.38
259.979	13.38
260.776	19.38
261.573	16.38
262.37	16.38
263.166	17.38
263.963	15.38
264.759	18.38
265.556	18.38
266.352	20.38
267.148	20.38
267.944	20.38
268.74	21.38
269.536	20.38
270.332	22.38
271.128	22.38
271.924	23.38
272.719	22.38
273.515	26.38
274.311	26.38
275.106	22.38
275.901	22.38
276.697	27.38
277.492	25.38
278.287	27.38
279.082	26.38
279.877	25.38
280.672	24.38
281.467	27.38
282.262	25.38
283.056	24.38
283.851	24.38
284.646	26.38
285.44	27.38
286.234	26.38
287.029	24.38
287.823	26.38
288.617	26.38
289.411	27.38
290.205	25.38
290.999	28.38
291.793	26.38
292.587	23.38
293.381	25.38
294.174	28.38
294.968	22.38
295.761	18.38
296.555	20.38
297.348	20.38
298.141	19.38
298.935	22.38
299.728	21.38
300.521	21.38
301.314	17.38
302.107	18.38
302.899	16.38
303.692	17.38
304.485	20.38
305.277	18.38
306.07	17.38
306.862	17.38
307.655	16.38
308.447	15.38
309.239	18.38
310.031	15.38
310.823	18.38
311.615	17.38
312.407	14.38
313.199	13.38
313.991	12.38
314.783	13.38
315.574	12.38
316.366	13.38
317.157	12.38
317.949	15.38
318.74	10.38
319.531	10.38
320.322	12.38
321.113	8.38
321.904	11.38
322.695	13.38
323.486	10.38
324.277	11.38
325.068	11.38
325.858	11.38
326.649	10.38
327.439	9.38
328.23	11.38
329.02	13.38
329.81	10.38
330.6	9.38
331.391	10.38
332.181	10.38
332.971	9.38
333.76	10.38
334.55	7.38
335.34	8.38
336.13	8.38
336.919	9.38
337.709	7.38
338.498	10.38
339.287	10.38
340.077	8.38
340.866	9.38
341.655	10.38
342.444	9.38
343.233	8.38
344.022	8.38
344.811	8.38
345.6	9.38
346.388	10.38
347.177	6.38
347.965	8.38
348.754	9.38
349.542	9.38
350.33	8.38
351.119	6.38
351.907	6.38
352.695	7.38
353.483	8.38
354.271	6.38
355.059	8.38
355.846	9.38
356.634	8.38
357.422	6.38
358.209	7.38
358.997	8.38
359.784	8.38
360.571	8.38
361.359	8.38
362.146	8.38
362.933	6.38
363.72	7.38
364.507	8.38
365.294	6.38
366.081	7.38
366.867	6.38
367.654	8.38
368.44	4.38
369.227	5.38
370.013	7.38
370.8	8.38
371.586	8.38
372.372	7.38
373.158	8.38
373.944	7.38
374.73	8.38
375.516	10.38
376.302	8.38
377.088	7.38
377.873	8.38
378.659	6.38
379.445	7.38
380.23	5.38
381.015	7.38
381.801	6.38
382.586	8.38
383.371	8.38
384.156	6.38
384.941	8.38
385.726	10.38
386.511	7.38
387.296	9.38
388.08	7.38
388.865	7.38
389.649	10.38
390.434	8.38
391.218	9.38
392.003	8.38
392.787	10.38
393.571	8.38
394.355	8.38
395.139	9.38
395.923	10.38
396.707	8.38
397.491	9.38
398.274	9.38
399.058	8.38
399.842	10.38
400.625	10.38
401.408	10.38
402.192	10.38
402.975	11.38
403.758	13.38
404.541	9.38
405.324	12.38
406.107	11.38
406.89	12.38
407.673	13.38
408.456	10.38
409.238	11.38
410.021	12.38
410.803	12.38
411.586	13.38
412.368	15.38
413.151	15.38
413.933	16.38
414.715	11.38
415.497	16.38
416.279	12.38
417.061	15.38
417.843	14.38
418.624	15.38
419.406	15.38
420.188	17.38
420.969	16.38
421.751	16.38
422.532	18.38
423.313	17.38
424.095	20.38
424.876	18.38
425.657	18.38
426.438	18.38
427.219	20.38
428	20.38
428.78	22.38
429.561	22.38
430.342	21.38
431.122	25.38
431.903	27.38
432.683	25.38
433.464	29.38
434.244	27.38
435.024	29.38
435.804	33.38
436.584	33.38
437.364	35.38
438.144	35.38
438.924	39.38
439.704	41.38
440.483	46.38
441.263	48.38
442.042	50.38
442.822	52.38
443.601	59.38
444.38	62.38
445.16	68.38
445.939	77.38
446.718	77.38
447.497	88.38
448.276	101.38
449.054	104.38
449.833	119.38
450.612	130.38
451.391	143.38
452.169	160.38
452.948	174.38
453.726	194.38
454.504	211.38
455.282	237.38
456.061	260.38
456.839	292.38
457.617	320.38
458.395	362.38
459.172	401.38
459.95	447.38
460.728	503.38
461.506	557.38
462.283	606.38
463.061	686.38
463.838	752.38
464.615	843.38
465.393	932.38
466.17	1026.38
466.947	1147.38
467.724	1270.38
468.501	1412.38
469.278	1552.38
470.055	1723.38
470.831	1908.38
471.608	2074.38
472.385	2278.38
473.161	2516.38
473.938	2758.38
474.714	3018.38
475.49	3302.38
476.266	3613.38
477.043	3946.38
477.819	4332.38
478.595	4724.38
479.371	5119.38
480.146	5581.38
480.922	6069.38
481.698	6588.38
482.473	7168.38
483.249	7746.38
484.024	8370.38
484.8	9109.38
485.575	9868.38
486.35	10621.38
487.126	11499.38
487.901	12395.38
488.676	13367.38
489.451	14472.38
490.225	15580.38
491	16691.38
491.775	17918.38
492.55	19165.38
493.324	20437.38
494.099	21837.38
494.873	23174.38
495.647	24630.38
496.422	26160.38
497.196	27487.38
497.97	28945.38
498.744	30368.38
499.518	31612.38
500.292	32929.38
501.066	34076.38
501.839	35071.38
502.613	35984.38
503.387	36938.38
504.16	37568.38
504.934	37979.38
505.707	38326.38
506.48	38491.38
507.253	38388.38
508.027	38116.38
508.8	37652.38
509.573	37163.38
510.346	36366.38
511.118	35536.38
511.891	34808.38
512.664	33826.38
513.437	32732.38
514.209	31594.38
514.982	30499.38
515.754	29389.38
516.526	28300.38
517.298	27110.38
518.071	26127.38
518.843	25045.38
519.615	24020.38
520.387	23107.38
521.159	22186.38
521.93	21328.38
522.702	20475.38
523.474	19628.38
524.245	18851.38
525.017	18133.38
525.788	17357.38
526.56	16635.38
527.331	15940.38
528.102	15232.38
528.873	14475.38
529.644	13727.38
530.415	13123.38
531.186	12518.38
531.957	11920.38
532.728	11336.38
533.498	10783.38
534.269	10198.38
535.039	9609.38
535.81	9176.38
536.58	8695.38
537.351	8204.38
538.121	7768.38
538.891	7394.38
539.661	6962.38
540.431	6617.38
541.201	6238.38
541.971	5911.38
542.741	5617.38
543.51	5323.38
544.28	5040.38
545.05	4805.38
545.819	4578.38
546.588	4352.38
547.358	4142.38
548.127	3921.38
548.896	3756.38
549.665	3569.38
550.434	3349.38
551.203	3203.38
551.972	3031.38
552.741	2876.38
553.51	2728.38
554.278	2561.38
555.047	2432.38
555.815	2295.38
556.584	2176.38
557.352	2067.38
558.121	1949.38
558.889	1819.38
559.657	1728.38
560.425	1646.38
561.193	1550.38
561.961	1475.38
562.729	1396.38
563.496	1318.38
564.264	1252.38
565.032	1173.38
565.799	1109.38
566.567	1054.38
567.334	1002.38
568.101	944.38
568.869	893.38
569.636	844.38
570.403	803.38
571.17	740.38
571.937	720.38
572.704	668.38
573.471	639.38
574.237	596.38
575.004	566.38
575.771	532.38
576.537	505.38
577.303	477.38
578.07	440.38
578.836	416.38
579.602	401.38
580.368	374.38
581.134	350.38
581.9	344.38
582.666	318.38
583.432	303.38
584.198	287.38
584.964	275.38
585.729	259.38
586.495	253.38
587.26	236.38
588.025	225.38
588.791	213.38
589.556	198.38
590.321	195.38
591.086	184.38
591.851	173.38
592.616	158.38
593.381	152.38
594.146	146.38
594.911	139.38
595.675	134.38
596.44	132.38
597.204	121.38
597.969	115.38
598.733	111.38
599.497	105.38
600.261	104.38
601.025	99.38
601.79	91.38
602.553	90.38
603.317	86.38
604.081	81.38
604.845	75.38
605.609	74.38
606.372	72.38
607.136	68.38
607.899	63.38
608.662	63.38
609.426	62.38
610.189	57.38
610.952	57.38
611.715	54.38
612.478	51.38
613.241	48.38
614.004	45.38
614.767	49.38
615.529	46.38
616.292	41.38
617.055	40.38
617.817	41.38
618.579	39.38
619.342	38.38
620.104	40.38
620.866	33.38
621.628	34.38
622.39	32.38
623.152	32.38
623.914	31.38
624.676	29.38
625.438	29.38
626.199	26.38
626.961	25.38
627.722	26.38
628.484	25.38
629.245	25.38
630.006	25.38
630.768	22.38
631.529	20.38
632.29	23.38
633.051	21.38
633.812	21.38
634.573	21.38
635.333	20.38
636.094	18.38
636.855	17.38
637.615	18.38
638.376	19.38
639.136	21.38
639.896	15.38
640.657	14.38
641.417	14.38
642.177	13.38
642.937	14.38
643.697	14.38
644.457	13.38
645.216	11.38
645.976	12.38
646.736	14.38
647.495	10.38
648.255	12.38
649.014	13.38
649.774	10.38
650.533	12.38
651.292	12.38
652.051	12.38
652.81	12.38
653.569	11.38
654.328	11.38
655.087	10.38
655.846	9.38
656.604	11.38
657.363	12.38
658.121	11.38
658.88	9.38
659.638	9.38
660.397	11.38
661.155	8.38
661.913	8.38
662.671	6.38
663.429	9.38
664.187	8.38
664.945	7.38
665.703	8.38
666.46	8.38
667.218	8.38
667.976	6.38
668.733	6.38
669.49	9.38
670.248	6.38
671.005	6.38
671.762	8.38
672.519	5.38
673.276	10.38
674.033	4.38
674.79	10.38
675.547	8.38
676.304	6.38
677.06	4.38
677.817	9.38
678.574	8.38
679.33	4.38
680.086	6.38
680.843	6.38
681.599	7.38
682.355	6.38
683.111	6.38
683.867	7.38
684.623	6.38
685.379	6.38
686.135	5.38
686.89	5.38
687.646	7.38
688.402	9.38
689.157	5.38
689.912	4.38
690.668	4.38
691.423	4.38
692.178	6.38
692.933	4.38
693.688	6.38
694.443	6.38
695.198	2.38
695.953	10.38
696.708	3.38
697.462	6.38
698.217	4.38
698.972	5.38
699.726	3.38
700.48	4.38
701.235	6.38
701.989	5.38
702.743	5.38
703.497	5.38
704.251	6.38
705.005	6.38
705.759	5.38
706.513	4.38
707.266	4.38
708.02	3.38
708.774	4.38
709.527	4.38
710.28	6.38
711.034	6.38
711.787	5.38
712.54	7.38
713.293	5.38
714.046	6.38
714.799	6.38
715.552	6.38
716.305	4.38
717.058	4.38
717.81	4.38
718.563	6.38
719.315	4.38
720.068	4.38
720.82	3.38
721.573	5.38
722.325	2.38
723.077	5.38
723.829	6.38
724.581	6.38
725.333	7.38
726.085	6.38
726.836	5.38
727.588	9.38
728.34	7.38
729.091	6.38
729.843	4.38
730.594	5.38
731.346	4.38
732.097	7.38
732.848	7.38
733.599	6.38
734.35	4.38
735.101	6.38
735.852	6.38
736.603	8.38
737.354	8.38
738.104	8.38
738.855	7.38
739.605	9.38
740.356	6.38
741.106	5.38
741.856	7.38
742.607	5.38
743.357	7.38
744.107	6.38
744.857	4.38
745.607	5.38
746.357	10.38
747.106	4.38
747.856	10.38
748.606	7.38
749.355	6.38
750.105	8.38
750.854	6.38
751.603	9.38
752.353	5.38
753.102	8.38
753.851	7.38
754.6	10.38
755.349	8.38
756.098	8.38
756.847	8.38
757.595	8.38
758.344	9.38
759.093	8.38
759.841	8.38
760.589	7.38
761.338	8.38
762.086	8.38
762.834	8.38
763.582	8.38
764.331	8.38
765.079	9.38
765.826	11.38
766.574	10.38
767.322	9.38
768.07	6.38
768.817	11.38
769.565	8.38
770.312	10.38
771.06	10.38
771.807	9.38
772.554	11.38
773.302	11.38
774.049	12.38
774.796	12.38
775.543	12.38
776.29	12.38
777.036	9.38
777.783	12.38
778.53	11.38
779.276	10.38
780.023	11.38
780.769	13.38
781.516	9.38
782.262	13.38
783.008	11.38
783.754	9.38
784.5	13.38
785.246	10.38
785.992	9.38
786.738	11.38
787.484	12.38
788.23	12.38
788.975	13.38
789.721	10.38
790.466	10.38
791.212	11.38
791.957	11.38
792.702	10.38
793.447	12.38
794.193	11.38
794.938	11.38
795.683	12.38
796.427	12.38
797.172	10.38
797.917	11.38
798.662	11.38
799.406	10.38
800.151	10.38
800.895	10.38
801.64	7.38
802.384	8.38
803.128	8.38
803.872	11.38
804.616	7.38
805.36	10.38
806.104	8.38
806.848	10.38
807.592	8.38
808.336	10.38
809.079	7.38
809.823	9.38
810.566	9.38
811.31	6.38
812.053	4.38
812.796	6.38
813.539	8.38
814.283	8.38
815.026	9.38
815.769	6.38
816.511	4.38
817.254	8.38
817.997	5.38
818.74	5.38
819.482	6.38
820.225	7.38
820.967	6.38
821.71	6.38
822.452	6.38
823.194	6.38
823.936	6.38
824.678	6.38
825.42	6.38
826.162	4.38
826.904	6.38
827.646	4.38
828.388	4.38
829.129	6.38
829.871	5.38
830.612	6.38
831.354	6.38
832.095	7.38
832.836	4.38
833.577	6.38
834.319	7.38
835.06	8.38
835.801	7.38
836.542	4.38
837.282	3.38
838.023	5.38
838.764	2.38
839.504	1.38
840.245	5.38
840.985	4.38
841.726	5.38
842.466	4.38
843.206	3.38
843.946	3.38
844.687	4.38
845.427	2.38
846.166	3.38
846.906	3.38
847.646	3.38
848.386	4.38
849.125	4.38
849.865	3.38
850.605	4.38
851.344	6.38
852.083	2.38
852.823	3.38
853.562	2.38
854.301	4.38
855.04	6.38
855.779	3.38
856.518	4.38
857.257	1.38
857.995	1.38
858.734	2.38
859.473	1.38
860.211	4.38
860.95	2.38
861.688	1.38
862.426	0.38
863.165	3.38
863.903	3.38
864.641	3.38
865.379	1.38
866.117	2.38
866.855	1.38
867.593	2.38
868.33	3.38
869.068	4.38
869.806	1.38
870.543	2.38
871.28	1.38
872.018	2.38
872.755	2.38
873.492	4.38
874.229	3.38
874.967	2.38
875.703	2.38
876.44	0.38
877.177	2.38
877.914	0.38
878.651	4.38
879.387	2.38
880.124	1.38
880.86	0.38
881.597	2.38
882.333	0.38
883.069	0.38
883.806	4.38
884.542	2.38
885.278	0.38
886.014	0.38
886.749	2.38
887.485	1.38
888.221	1.38
888.957	1.38
889.692	1.38
890.428	0.38
891.163	0.38
891.899	0.38
892.634	3.38
893.369	0.38
894.104	1.38
894.839	0.38
895.574	1.38
896.309	2.38
897.044	2.38
897.779	0.38
898.514	-1.62
899.248	0.38
899.983	0.38
900.717	3.38
901.452	0.38
902.186	-0.62
902.92	1.38
903.654	-1.62
904.389	-0.62
905.123	0.38
905.857	1.38
906.59	2.38
907.324	0.38
908.058	1.38
908.792	-1.62
909.525	-1.62
910.259	0.38
910.992	0.38
911.726	0.38
912.459	0.38
913.192	0.38
913.925	-2.62
914.658	0.38
915.391	1.38
916.124	0.38
916.857	-1.62
917.59	1.38
918.323	-0.62
919.055	0.38
919.788	0.38
920.521	-1.62
921.253	-0.62
921.985	0.38
922.718	-3.62
923.45	-1.62
924.182	0.38
924.914	0.38
925.646	-0.62
926.378	0.38
927.11	0.38
927.841	0.38
928.573	1.38
929.305	0.38
930.036	0.38
930.768	0.38
931.499	-2.62
932.23	-0.62
932.962	0.38
933.693	0.38
934.424	-0.62
935.155	-1.62
935.886	-1.62
936.617	-1.62
937.348	-0.62
938.078	0.38
938.809	-0.62
939.54	-2.62
940.27	-0.62
941.001	-2.62
941.731	-0.62
942.461	-1.62
943.191	-2.62
943.922	1.38
944.652	0.38
945.382	-0.62
946.112	-3.62
946.841	2.38
947.571	-2.62
948.301	-0.62
949.031	1.38
949.76	0.38
950.49	-1.62
951.219	0.38
951.948	-1.62
952.678	0.38
953.407	0.38
954.136	0.38
954.865	0.38
955.594	0.38
956.323	2.38
957.052	2.38
957.78	-0.62
958.509	0.38
959.238	-0.62
959.966	1.38
960.695	-0.62
961.423	-1.62
962.151	-2.62
962.88	-2.62
963.608	0.38
964.336	-0.62
965.064	0.38
965.792	-0.62
966.52	1.38
967.247	0.38
967.975	0.38
968.703	1.38
969.43	-2.62
970.158	1.38
970.885	0.38
971.613	-1.62
972.34	-1.62
973.067	0.38
973.794	1.38
974.521	0.38
975.248	0.38
975.975	-0.62
976.702	-1.62
977.429	1.38
978.156	-2.62
978.882	0.38
979.609	-1.62
980.335	1.38
981.062	-1.62
981.788	-1.62
982.514	-1.62
983.24	0.38
983.967	0.38
984.693	1.38
985.419	1.38
986.144	-0.62
986.87	-3.62
987.596	-1.62
988.322	-0.62
989.047	0.38
989.773	-1.62
990.498	1.38
991.224	0.38
991.949	-1.62
992.674	0.38
993.399	-2.62
994.124	-0.62
994.849	-2.62
995.574	2.38
996.299	1.38
997.024	0.38
997.749	0.38
998.473	0.38
999.198	-0.62
999.922	-2.62
1000.647	1.38
1001.371	2.38
1002.095	0.38
1002.82	-0.62
1003.544	-1.62
1004.268	2.38
1004.992	2.38
1005.716	3.38
1006.439	2.38
1007.163	2.38
1007.887	2.38
1008.611	0.38
1009.334	0.38
1010.058	-0.62
1010.781	-1.62
1011.504	-1.62
1012.228	0.38
1012.951	0.38
1013.674	0.38
1014.397	-0.62
1015.12	-0.62
