节点500_565_QEPB04081__587__10-00-10-983.txt的数据

Date: Thu Nov 13 10:00:10 CST 2025
User: PC
Spectrometer: QEPB0408
触发模式: 0
积分时间 (秒): 1.000000E-2
Scans to average: 1
启用暗噪声校正: true
启用非线性校正: false
滑动平均宽度: 0
X轴模式: Wavelengths
Number of Pixels in Spectrum: 1044
>>>>>Begin Spectral Data<<<<<
220.843	2.25
221.644	5.25
222.444	4.25
223.244	5.25
224.045	4.25
224.845	3.25
225.645	5.25
226.445	5.25
227.245	5.25
228.045	5.25
228.845	9.25
229.645	5.25
230.444	6.25
231.244	8.25
232.043	6.25
232.843	7.25
233.642	6.25
234.442	9.25
235.241	7.25
236.04	7.25
236.839	7.25
237.638	10.25
238.437	9.25
239.236	9.25
240.035	9.25
240.833	5.25
241.632	10.25
242.43	9.25
243.229	9.25
244.027	6.25
244.826	9.25
245.624	10.25
246.422	9.25
247.22	12.25
248.018	11.25
248.816	12.25
249.614	11.25
250.412	12.25
251.21	17.25
252.007	11.25
252.805	13.25
253.602	12.25
254.4	14.25
255.197	12.25
255.994	13.25
256.791	14.25
257.589	12.25
258.386	17.25
259.183	16.25
259.979	18.25
260.776	17.25
261.573	17.25
262.37	18.25
263.166	19.25
263.963	17.25
264.759	18.25
265.556	19.25
266.352	20.25
267.148	19.25
267.944	20.25
268.74	20.25
269.536	23.25
270.332	23.25
271.128	22.25
271.924	22.25
272.719	24.25
273.515	25.25
274.311	23.25
275.106	25.25
275.901	23.25
276.697	25.25
277.492	24.25
278.287	27.25
279.082	25.25
279.877	24.25
280.672	25.25
281.467	27.25
282.262	28.25
283.056	27.25
283.851	26.25
284.646	27.25
285.44	28.25
286.234	25.25
287.029	26.25
287.823	28.25
288.617	25.25
289.411	28.25
290.205	28.25
290.999	23.25
291.793	27.25
292.587	27.25
293.381	26.25
294.174	26.25
294.968	24.25
295.761	24.25
296.555	22.25
297.348	21.25
298.141	21.25
298.935	22.25
299.728	22.25
300.521	21.25
301.314	23.25
302.107	17.25
302.899	19.25
303.692	21.25
304.485	19.25
305.277	19.25
306.07	20.25
306.862	19.25
307.655	18.25
308.447	19.25
309.239	18.25
310.031	19.25
310.823	16.25
311.615	15.25
312.407	14.25
313.199	16.25
313.991	14.25
314.783	14.25
315.574	13.25
316.366	13.25
317.157	14.25
317.949	14.25
318.74	14.25
319.531	13.25
320.322	13.25
321.113	13.25
321.904	12.25
322.695	9.25
323.486	12.25
324.277	10.25
325.068	10.25
325.858	8.25
326.649	13.25
327.439	11.25
328.23	11.25
329.02	10.25
329.81	11.25
330.6	10.25
331.391	9.25
332.181	9.25
332.971	10.25
333.76	9.25
334.55	11.25
335.34	10.25
336.13	10.25
336.919	12.25
337.709	12.25
338.498	10.25
339.287	11.25
340.077	9.25
340.866	10.25
341.655	9.25
342.444	8.25
343.233	10.25
344.022	7.25
344.811	9.25
345.6	6.25
346.388	9.25
347.177	7.25
347.965	10.25
348.754	11.25
349.542	6.25
350.33	10.25
351.119	9.25
351.907	10.25
352.695	8.25
353.483	8.25
354.271	7.25
355.059	9.25
355.846	10.25
356.634	9.25
357.422	10.25
358.209	7.25
358.997	7.25
359.784	8.25
360.571	8.25
361.359	9.25
362.146	8.25
362.933	7.25
363.72	6.25
364.507	6.25
365.294	9.25
366.081	7.25
366.867	7.25
367.654	8.25
368.44	9.25
369.227	8.25
370.013	6.25
370.8	8.25
371.586	8.25
372.372	7.25
373.158	7.25
373.944	9.25
374.73	8.25
375.516	5.25
376.302	7.25
377.088	7.25
377.873	9.25
378.659	9.25
379.445	7.25
380.23	8.25
381.015	7.25
381.801	9.25
382.586	8.25
383.371	10.25
384.156	10.25
384.941	8.25
385.726	8.25
386.511	7.25
387.296	9.25
388.08	8.25
388.865	8.25
389.649	8.25
390.434	9.25
391.218	8.25
392.003	9.25
392.787	10.25
393.571	10.25
394.355	10.25
395.139	9.25
395.923	12.25
396.707	11.25
397.491	11.25
398.274	9.25
399.058	11.25
399.842	12.25
400.625	9.25
401.408	11.25
402.192	11.25
402.975	11.25
403.758	10.25
404.541	10.25
405.324	10.25
406.107	11.25
406.89	13.25
407.673	9.25
408.456	14.25
409.238	11.25
410.021	12.25
410.803	13.25
411.586	14.25
412.368	16.25
413.151	14.25
413.933	14.25
414.715	14.25
415.497	13.25
416.279	16.25
417.061	14.25
417.843	17.25
418.624	16.25
419.406	16.25
420.188	15.25
420.969	22.25
421.751	17.25
422.532	17.25
423.313	19.25
424.095	19.25
424.876	20.25
425.657	18.25
426.438	21.25
427.219	21.25
428	23.25
428.78	23.25
429.561	21.25
430.342	25.25
431.122	26.25
431.903	24.25
432.683	25.25
433.464	26.25
434.244	30.25
435.024	33.25
435.804	31.25
436.584	33.25
437.364	37.25
438.144	36.25
438.924	40.25
439.704	43.25
440.483	43.25
441.263	47.25
442.042	49.25
442.822	56.25
443.601	62.25
444.38	65.25
445.16	73.25
445.939	78.25
446.718	85.25
447.497	90.25
448.276	102.25
449.054	109.25
449.833	118.25
450.612	134.25
451.391	144.25
452.169	160.25
452.948	170.25
453.726	194.25
454.504	212.25
455.282	235.25
456.061	260.25
456.839	295.25
457.617	333.25
458.395	366.25
459.172	405.25
459.95	451.25
460.728	506.25
461.506	557.25
462.283	618.25
463.061	695.25
463.838	759.25
464.615	854.25
465.393	935.25
466.17	1048.25
466.947	1154.25
467.724	1265.25
468.501	1409.25
469.278	1550.25
470.055	1741.25
470.831	1897.25
471.608	2103.25
472.385	2288.25
473.161	2517.25
473.938	2783.25
474.714	3023.25
475.49	3297.25
476.266	3607.25
477.043	3970.25
477.819	4311.25
478.595	4697.25
479.371	5090.25
480.146	5563.25
480.922	6058.25
481.698	6580.25
482.473	7090.25
483.249	7701.25
484.024	8345.25
484.8	9039.25
485.575	9794.25
486.35	10547.25
487.126	11420.25
487.901	12339.25
488.676	13280.25
489.451	14334.25
490.225	15427.25
491	16500.25
491.775	17692.25
492.55	19008.25
493.324	20308.25
494.099	21558.25
494.873	22979.25
495.647	24447.25
496.422	25864.25
497.196	27208.25
497.97	28627.25
498.744	30036.25
499.518	31267.25
500.292	32555.25
501.066	33767.25
501.839	34823.25
502.613	35749.25
503.387	36602.25
504.16	37269.25
504.934	37711.25
505.707	38092.25
506.48	38221.25
507.253	38177.25
508.027	37978.25
508.8	37509.25
509.573	37066.25
510.346	36314.25
511.118	35509.25
511.891	34769.25
512.664	33780.25
513.437	32723.25
514.209	31654.25
514.982	30496.25
515.754	29438.25
516.526	28289.25
517.298	27210.25
518.071	26158.25
518.843	25066.25
519.615	24067.25
520.387	23101.25
521.159	22249.25
521.93	21335.25
522.702	20516.25
523.474	19662.25
524.245	18925.25
525.017	18141.25
525.788	17386.25
526.56	16685.25
527.331	15959.25
528.102	15334.25
528.873	14583.25
529.644	13849.25
530.415	13199.25
531.186	12556.25
531.957	11951.25
532.728	11383.25
533.498	10847.25
534.269	10240.25
535.039	9681.25
535.81	9224.25
536.58	8714.25
537.351	8265.25
538.121	7816.25
538.891	7428.25
539.661	7054.25
540.431	6642.25
541.201	6276.25
541.971	5950.25
542.741	5657.25
543.51	5341.25
544.28	5078.25
545.05	4815.25
545.819	4598.25
546.588	4361.25
547.358	4172.25
548.127	3939.25
548.896	3770.25
549.665	3601.25
550.434	3400.25
551.203	3215.25
551.972	3076.25
552.741	2888.25
553.51	2754.25
554.278	2596.25
555.047	2462.25
555.815	2318.25
556.584	2207.25
557.352	2097.25
558.121	1955.25
558.889	1846.25
559.657	1762.25
560.425	1657.25
561.193	1566.25
561.961	1497.25
562.729	1399.25
563.496	1337.25
564.264	1265.25
565.032	1200.25
565.799	1127.25
566.567	1069.25
567.334	1016.25
568.101	952.25
568.869	881.25
569.636	852.25
570.403	798.25
571.17	760.25
571.937	715.25
572.704	691.25
573.471	633.25
574.237	603.25
575.004	569.25
575.771	545.25
576.537	506.25
577.303	481.25
578.07	449.25
578.836	425.25
579.602	401.25
580.368	380.25
581.134	367.25
581.9	336.25
582.666	327.25
583.432	303.25
584.198	296.25
584.964	274.25
585.729	267.25
586.495	250.25
587.26	241.25
588.025	222.25
588.791	215.25
589.556	200.25
590.321	189.25
591.086	184.25
591.851	167.25
592.616	165.25
593.381	157.25
594.146	147.25
594.911	141.25
595.675	133.25
596.44	129.25
597.204	125.25
597.969	116.25
598.733	114.25
599.497	111.25
600.261	103.25
601.025	98.25
601.79	96.25
602.553	93.25
603.317	89.25
604.081	85.25
604.845	80.25
605.609	76.25
606.372	74.25
607.136	71.25
607.899	66.25
608.662	63.25
609.426	62.25
610.189	62.25
610.952	59.25
611.715	56.25
612.478	54.25
613.241	51.25
614.004	51.25
614.767	44.25
615.529	46.25
616.292	45.25
617.055	40.25
617.817	41.25
618.579	39.25
619.342	41.25
620.104	37.25
620.866	37.25
621.628	35.25
622.39	31.25
623.152	32.25
623.914	33.25
624.676	33.25
625.438	27.25
626.199	30.25
626.961	25.25
627.722	27.25
628.484	25.25
629.245	25.25
630.006	23.25
630.768	24.25
631.529	26.25
632.29	22.25
633.051	21.25
633.812	23.25
634.573	19.25
635.333	16.25
636.094	18.25
636.855	18.25
637.615	18.25
638.376	19.25
639.136	19.25
639.896	18.25
640.657	17.25
641.417	15.25
642.177	17.25
642.937	15.25
643.697	17.25
644.457	13.25
645.216	13.25
645.976	13.25
646.736	15.25
647.495	13.25
648.255	13.25
649.014	13.25
649.774	13.25
650.533	8.25
651.292	14.25
652.051	11.25
652.81	11.25
653.569	13.25
654.328	12.25
655.087	11.25
655.846	11.25
656.604	10.25
657.363	10.25
658.121	12.25
658.88	10.25
659.638	7.25
660.397	10.25
661.155	10.25
661.913	6.25
662.671	12.25
663.429	10.25
664.187	8.25
664.945	10.25
665.703	7.25
666.46	13.25
667.218	8.25
667.976	12.25
668.733	10.25
669.49	8.25
670.248	8.25
671.005	8.25
671.762	9.25
672.519	6.25
673.276	7.25
674.033	9.25
674.79	10.25
675.547	7.25
676.304	9.25
677.06	11.25
677.817	7.25
678.574	9.25
679.33	8.25
680.086	7.25
680.843	9.25
681.599	8.25
682.355	7.25
683.111	7.25
683.867	7.25
684.623	7.25
685.379	7.25
686.135	7.25
686.89	6.25
687.646	4.25
688.402	6.25
689.157	4.25
689.912	8.25
690.668	6.25
691.423	4.25
692.178	8.25
692.933	6.25
693.688	5.25
694.443	7.25
695.198	7.25
695.953	8.25
696.708	5.25
697.462	4.25
698.217	5.25
698.972	5.25
699.726	5.25
700.48	5.25
701.235	4.25
701.989	7.25
702.743	8.25
703.497	7.25
704.251	6.25
705.005	7.25
705.759	6.25
706.513	9.25
707.266	5.25
708.02	6.25
708.774	5.25
709.527	5.25
710.28	6.25
711.034	5.25
711.787	5.25
712.54	7.25
713.293	5.25
714.046	4.25
714.799	5.25
715.552	6.25
716.305	5.25
717.058	5.25
717.81	5.25
718.563	6.25
719.315	5.25
720.068	5.25
720.82	8.25
721.573	5.25
722.325	5.25
723.077	5.25
723.829	9.25
724.581	7.25
725.333	5.25
726.085	9.25
726.836	2.25
727.588	8.25
728.34	7.25
729.091	7.25
729.843	7.25
730.594	5.25
731.346	8.25
732.097	6.25
732.848	7.25
733.599	9.25
734.35	8.25
735.101	7.25
735.852	6.25
736.603	9.25
737.354	9.25
738.104	9.25
738.855	8.25
739.605	7.25
740.356	5.25
741.106	7.25
741.856	9.25
742.607	9.25
743.357	8.25
744.107	7.25
744.857	8.25
745.607	9.25
746.357	11.25
747.106	8.25
747.856	8.25
748.606	6.25
749.355	7.25
750.105	9.25
750.854	8.25
751.603	11.25
752.353	8.25
753.102	8.25
753.851	11.25
754.6	8.25
755.349	11.25
756.098	7.25
756.847	10.25
757.595	10.25
758.344	7.25
759.093	9.25
759.841	9.25
760.589	12.25
761.338	10.25
762.086	8.25
762.834	10.25
763.582	11.25
764.331	9.25
765.079	8.25
765.826	10.25
766.574	12.25
767.322	12.25
768.07	12.25
768.817	11.25
769.565	11.25
770.312	10.25
771.06	11.25
771.807	10.25
772.554	9.25
773.302	16.25
774.049	11.25
774.796	11.25
775.543	10.25
776.29	12.25
777.036	9.25
777.783	13.25
778.53	9.25
779.276	13.25
780.023	12.25
780.769	13.25
781.516	11.25
782.262	11.25
783.008	12.25
783.754	13.25
784.5	12.25
785.246	12.25
785.992	12.25
786.738	11.25
787.484	14.25
788.23	13.25
788.975	12.25
789.721	12.25
790.466	12.25
791.212	10.25
791.957	12.25
792.702	11.25
793.447	13.25
794.193	9.25
794.938	11.25
795.683	11.25
796.427	11.25
797.172	10.25
797.917	9.25
798.662	13.25
799.406	10.25
800.151	10.25
800.895	10.25
801.64	10.25
802.384	9.25
803.128	9.25
803.872	12.25
804.616	11.25
805.36	12.25
806.104	10.25
806.848	9.25
807.592	10.25
808.336	9.25
809.079	9.25
809.823	8.25
810.566	9.25
811.31	9.25
812.053	7.25
812.796	7.25
813.539	10.25
814.283	8.25
815.026	6.25
815.769	7.25
816.511	6.25
817.254	8.25
817.997	7.25
818.74	6.25
819.482	6.25
820.225	6.25
820.967	6.25
821.71	7.25
822.452	7.25
823.194	5.25
823.936	9.25
824.678	6.25
825.42	4.25
826.162	5.25
826.904	6.25
827.646	8.25
828.388	7.25
829.129	6.25
829.871	4.25
830.612	5.25
831.354	6.25
832.095	5.25
832.836	7.25
833.577	4.25
834.319	6.25
835.06	4.25
835.801	5.25
836.542	6.25
837.282	7.25
838.023	6.25
838.764	5.25
839.504	6.25
840.245	7.25
840.985	5.25
841.726	5.25
842.466	6.25
843.206	5.25
843.946	5.25
844.687	5.25
845.427	5.25
846.166	4.25
846.906	5.25
847.646	5.25
848.386	3.25
849.125	3.25
849.865	4.25
850.605	5.25
851.344	3.25
852.083	4.25
852.823	4.25
853.562	1.25
854.301	3.25
855.04	6.25
855.779	4.25
856.518	0.25
857.257	5.25
857.995	4.25
858.734	2.25
859.473	3.25
860.211	3.25
860.95	3.25
861.688	3.25
862.426	5.25
863.165	4.25
863.903	3.25
864.641	2.25
865.379	4.25
866.117	3.25
866.855	3.25
867.593	2.25
868.33	5.25
869.068	1.25
869.806	5.25
870.543	1.25
871.28	1.25
872.018	3.25
872.755	2.25
873.492	2.25
874.229	5.25
874.967	1.25
875.703	6.25
876.44	1.25
877.177	1.25
877.914	3.25
878.651	2.25
879.387	2.25
880.124	3.25
880.86	1.25
881.597	2.25
882.333	1.25
883.069	1.25
883.806	1.25
884.542	2.25
885.278	2.25
886.014	3.25
886.749	1.25
887.485	1.25
888.221	0.25
888.957	2.25
889.692	1.25
890.428	1.25
891.163	2.25
891.899	3.25
892.634	4.25
893.369	1.25
894.104	1.25
894.839	0.25
895.574	1.25
896.309	3.25
897.044	1.25
897.779	2.25
898.514	0.25
899.248	2.25
899.983	2.25
900.717	2.25
901.452	2.25
902.186	-0.75
902.92	3.25
903.654	0.25
904.389	0.25
905.123	4.25
905.857	1.25
906.59	-0.75
907.324	0.25
908.058	3.25
908.792	0.25
909.525	1.25
910.259	0.25
910.992	2.25
911.726	0.25
912.459	-2.75
913.192	2.25
913.925	1.25
914.658	1.25
915.391	2.25
916.124	-0.75
916.857	2.25
917.59	1.25
918.323	-0.75
919.055	-0.75
919.788	1.25
920.521	1.25
921.253	-0.75
921.985	1.25
922.718	0.25
923.45	0.25
924.182	1.25
924.914	0.25
925.646	-1.75
926.378	2.25
927.11	-0.75
927.841	-2.75
928.573	3.25
929.305	1.25
930.036	1.25
930.768	-0.75
931.499	-0.75
932.23	1.25
932.962	1.25
933.693	2.25
934.424	0.25
935.155	0.25
935.886	-2.75
936.617	-0.75
937.348	0.25
938.078	1.25
938.809	0.25
939.54	2.25
940.27	1.25
941.001	-0.75
941.731	1.25
942.461	-0.75
943.191	0.25
943.922	-1.75
944.652	-0.75
945.382	1.25
946.112	0.25
946.841	0.25
947.571	1.25
948.301	1.25
949.031	0.25
949.76	0.25
950.49	2.25
951.219	-0.75
951.948	-1.75
952.678	3.25
953.407	1.25
954.136	2.25
954.865	0.25
955.594	0.25
956.323	1.25
957.052	1.25
957.78	2.25
958.509	-0.75
959.238	-0.75
959.966	2.25
960.695	2.25
961.423	1.25
962.151	2.25
962.88	-0.75
963.608	1.25
964.336	1.25
965.064	0.25
965.792	0.25
966.52	1.25
967.247	0.25
967.975	0.25
968.703	1.25
969.43	0.25
970.158	-1.75
970.885	2.25
971.613	-0.75
972.34	-0.75
973.067	0.25
973.794	1.25
974.521	1.25
975.248	1.25
975.975	-2.75
976.702	-0.75
977.429	-0.75
978.156	-1.75
978.882	2.25
979.609	1.25
980.335	1.25
981.062	0.25
981.788	3.25
982.514	-0.75
983.24	1.25
983.967	1.25
984.693	-0.75
985.419	-1.75
986.144	1.25
986.87	0.25
987.596	0.25
988.322	1.25
989.047	0.25
989.773	1.25
990.498	1.25
991.224	1.25
991.949	2.25
992.674	1.25
993.399	0.25
994.124	-0.75
994.849	-1.75
995.574	-0.75
996.299	2.25
997.024	0.25
997.749	-0.75
998.473	1.25
999.198	0.25
999.922	1.25
1000.647	2.25
1001.371	3.25
1002.095	-0.75
1002.82	0.25
1003.544	-1.75
1004.268	6.25
1004.992	2.25
1005.716	4.25
1006.439	2.25
1007.163	3.25
1007.887	4.25
1008.611	1.25
1009.334	0.25
1010.058	0.25
1010.781	1.25
1011.504	1.25
1012.228	0.25
1012.951	-0.75
1013.674	0.25
1014.397	1.25
1015.12	-1.75
