节点500_565_QEPB04081__628__10-00-51-958.txt的数据

Date: Thu Nov 13 10:00:51 CST 2025
User: PC
Spectrometer: QEPB0408
触发模式: 0
积分时间 (秒): 1.000000E-2
Scans to average: 1
启用暗噪声校正: true
启用非线性校正: false
滑动平均宽度: 0
X轴模式: Wavelengths
Number of Pixels in Spectrum: 1044
>>>>>Begin Spectral Data<<<<<
220.843	5.5
221.644	6.5
222.444	5.5
223.244	3.5
224.045	3.5
224.845	5.5
225.645	5.5
226.445	5.5
227.245	6.5
228.045	8.5
228.845	7.5
229.645	4.5
230.444	6.5
231.244	4.5
232.043	6.5
232.843	4.5
233.642	7.5
234.442	7.5
235.241	6.5
236.04	8.5
236.839	5.5
237.638	8.5
238.437	6.5
239.236	9.5
240.035	7.5
240.833	9.5
241.632	8.5
242.43	10.5
243.229	10.5
244.027	9.5
244.826	10.5
245.624	10.5
246.422	11.5
247.22	11.5
248.018	10.5
248.816	9.5
249.614	12.5
250.412	14.5
251.21	12.5
252.007	11.5
252.805	16.5
253.602	13.5
254.4	12.5
255.197	13.5
255.994	12.5
256.791	13.5
257.589	13.5
258.386	13.5
259.183	17.5
259.979	16.5
260.776	14.5
261.573	15.5
262.37	16.5
263.166	18.5
263.963	20.5
264.759	20.5
265.556	17.5
266.352	20.5
267.148	22.5
267.944	19.5
268.74	21.5
269.536	21.5
270.332	21.5
271.128	24.5
271.924	22.5
272.719	22.5
273.515	23.5
274.311	27.5
275.106	23.5
275.901	23.5
276.697	27.5
277.492	25.5
278.287	25.5
279.082	27.5
279.877	29.5
280.672	27.5
281.467	29.5
282.262	26.5
283.056	23.5
283.851	26.5
284.646	26.5
285.44	27.5
286.234	27.5
287.029	31.5
287.823	25.5
288.617	26.5
289.411	25.5
290.205	24.5
290.999	27.5
291.793	23.5
292.587	28.5
293.381	29.5
294.174	24.5
294.968	25.5
295.761	21.5
296.555	24.5
297.348	24.5
298.141	21.5
298.935	26.5
299.728	21.5
300.521	23.5
301.314	22.5
302.107	19.5
302.899	19.5
303.692	19.5
304.485	19.5
305.277	19.5
306.07	20.5
306.862	18.5
307.655	17.5
308.447	18.5
309.239	17.5
310.031	18.5
310.823	15.5
311.615	18.5
312.407	16.5
313.199	16.5
313.991	16.5
314.783	17.5
315.574	14.5
316.366	15.5
317.157	13.5
317.949	11.5
318.74	13.5
319.531	12.5
320.322	12.5
321.113	13.5
321.904	11.5
322.695	11.5
323.486	13.5
324.277	13.5
325.068	13.5
325.858	13.5
326.649	10.5
327.439	10.5
328.23	11.5
329.02	11.5
329.81	10.5
330.6	12.5
331.391	13.5
332.181	10.5
332.971	10.5
333.76	10.5
334.55	12.5
335.34	9.5
336.13	12.5
336.919	9.5
337.709	9.5
338.498	10.5
339.287	11.5
340.077	9.5
340.866	11.5
341.655	9.5
342.444	10.5
343.233	11.5
344.022	10.5
344.811	9.5
345.6	9.5
346.388	12.5
347.177	10.5
347.965	8.5
348.754	8.5
349.542	6.5
350.33	11.5
351.119	7.5
351.907	10.5
352.695	7.5
353.483	11.5
354.271	11.5
355.059	9.5
355.846	9.5
356.634	10.5
357.422	9.5
358.209	11.5
358.997	10.5
359.784	8.5
360.571	8.5
361.359	6.5
362.146	9.5
362.933	7.5
363.72	6.5
364.507	9.5
365.294	9.5
366.081	9.5
366.867	8.5
367.654	8.5
368.44	10.5
369.227	10.5
370.013	8.5
370.8	9.5
371.586	10.5
372.372	7.5
373.158	9.5
373.944	7.5
374.73	7.5
375.516	7.5
376.302	6.5
377.088	11.5
377.873	7.5
378.659	8.5
379.445	6.5
380.23	7.5
381.015	9.5
381.801	8.5
382.586	11.5
383.371	11.5
384.156	9.5
384.941	9.5
385.726	9.5
386.511	7.5
387.296	9.5
388.08	9.5
388.865	8.5
389.649	9.5
390.434	10.5
391.218	10.5
392.003	11.5
392.787	9.5
393.571	11.5
394.355	8.5
395.139	9.5
395.923	10.5
396.707	12.5
397.491	11.5
398.274	10.5
399.058	12.5
399.842	11.5
400.625	13.5
401.408	10.5
402.192	13.5
402.975	11.5
403.758	12.5
404.541	11.5
405.324	11.5
406.107	13.5
406.89	11.5
407.673	14.5
408.456	12.5
409.238	13.5
410.021	14.5
410.803	14.5
411.586	15.5
412.368	14.5
413.151	14.5
413.933	15.5
414.715	12.5
415.497	13.5
416.279	16.5
417.061	14.5
417.843	14.5
418.624	15.5
419.406	15.5
420.188	14.5
420.969	17.5
421.751	17.5
422.532	17.5
423.313	17.5
424.095	18.5
424.876	20.5
425.657	17.5
426.438	21.5
427.219	21.5
428	23.5
428.78	23.5
429.561	20.5
430.342	24.5
431.122	25.5
431.903	27.5
432.683	25.5
433.464	31.5
434.244	26.5
435.024	32.5
435.804	32.5
436.584	30.5
437.364	40.5
438.144	38.5
438.924	41.5
439.704	46.5
440.483	47.5
441.263	47.5
442.042	53.5
442.822	55.5
443.601	58.5
444.38	64.5
445.16	70.5
445.939	74.5
446.718	84.5
447.497	93.5
448.276	103.5
449.054	111.5
449.833	119.5
450.612	131.5
451.391	149.5
452.169	157.5
452.948	177.5
453.726	191.5
454.504	214.5
455.282	240.5
456.061	263.5
456.839	292.5
457.617	324.5
458.395	365.5
459.172	416.5
459.95	450.5
460.728	510.5
461.506	553.5
462.283	618.5
463.061	686.5
463.838	768.5
464.615	849.5
465.393	943.5
466.17	1045.5
466.947	1145.5
467.724	1271.5
468.501	1413.5
469.278	1558.5
470.055	1721.5
470.831	1895.5
471.608	2098.5
472.385	2283.5
473.161	2515.5
473.938	2770.5
474.714	3025.5
475.49	3292.5
476.266	3615.5
477.043	3957.5
477.819	4307.5
478.595	4701.5
479.371	5078.5
480.146	5547.5
480.922	6069.5
481.698	6534.5
482.473	7097.5
483.249	7668.5
484.024	8296.5
484.8	9009.5
485.575	9787.5
486.35	10495.5
487.126	11349.5
487.901	12274.5
488.676	13232.5
489.451	14280.5
490.225	15361.5
491	16447.5
491.775	17674.5
492.55	18974.5
493.324	20193.5
494.099	21487.5
494.873	22866.5
495.647	24329.5
496.422	25731.5
497.196	27119.5
497.97	28502.5
498.744	29858.5
499.518	31144.5
500.292	32387.5
501.066	33612.5
501.839	34599.5
502.613	35607.5
503.387	36464.5
504.16	37149.5
504.934	37649.5
505.707	37936.5
506.48	38109.5
507.253	38116.5
508.027	37803.5
508.8	37432.5
509.573	37067.5
510.346	36300.5
511.118	35377.5
511.891	34690.5
512.664	33696.5
513.437	32713.5
514.209	31573.5
514.982	30496.5
515.754	29464.5
516.526	28380.5
517.298	27264.5
518.071	26217.5
518.843	25105.5
519.615	24090.5
520.387	23172.5
521.159	22249.5
521.93	21387.5
522.702	20550.5
523.474	19692.5
524.245	18910.5
525.017	18179.5
525.788	17465.5
526.56	16737.5
527.331	15950.5
528.102	15260.5
528.873	14599.5
529.644	13870.5
530.415	13167.5
531.186	12596.5
531.957	12008.5
532.728	11437.5
533.498	10850.5
534.269	10253.5
535.039	9707.5
535.81	9208.5
536.58	8739.5
537.351	8297.5
538.121	7840.5
538.891	7437.5
539.661	7068.5
540.431	6682.5
541.201	6317.5
541.971	5956.5
542.741	5634.5
543.51	5347.5
544.28	5091.5
545.05	4835.5
545.819	4595.5
546.588	4385.5
547.358	4206.5
548.127	3973.5
548.896	3763.5
549.665	3587.5
550.434	3392.5
551.203	3223.5
551.972	3080.5
552.741	2922.5
553.51	2773.5
554.278	2599.5
555.047	2479.5
555.815	2341.5
556.584	2203.5
557.352	2091.5
558.121	1963.5
558.889	1847.5
559.657	1762.5
560.425	1660.5
561.193	1572.5
561.961	1489.5
562.729	1418.5
563.496	1321.5
564.264	1268.5
565.032	1207.5
565.799	1126.5
566.567	1067.5
567.334	1013.5
568.101	954.5
568.869	901.5
569.636	861.5
570.403	816.5
571.17	775.5
571.937	718.5
572.704	677.5
573.471	639.5
574.237	612.5
575.004	563.5
575.771	536.5
576.537	505.5
577.303	478.5
578.07	450.5
578.836	429.5
579.602	405.5
580.368	381.5
581.134	366.5
581.9	340.5
582.666	320.5
583.432	316.5
584.198	292.5
584.964	277.5
585.729	260.5
586.495	250.5
587.26	237.5
588.025	225.5
588.791	216.5
589.556	204.5
590.321	191.5
591.086	184.5
591.851	186.5
592.616	163.5
593.381	163.5
594.146	151.5
594.911	145.5
595.675	135.5
596.44	125.5
597.204	125.5
597.969	122.5
598.733	106.5
599.497	114.5
600.261	105.5
601.025	97.5
601.79	95.5
602.553	94.5
603.317	87.5
604.081	84.5
604.845	80.5
605.609	75.5
606.372	74.5
607.136	70.5
607.899	69.5
608.662	64.5
609.426	64.5
610.189	62.5
610.952	59.5
611.715	54.5
612.478	59.5
613.241	48.5
614.004	49.5
614.767	50.5
615.529	46.5
616.292	46.5
617.055	42.5
617.817	41.5
618.579	41.5
619.342	39.5
620.104	39.5
620.866	40.5
621.628	36.5
622.39	33.5
623.152	33.5
623.914	32.5
624.676	33.5
625.438	31.5
626.199	27.5
626.961	28.5
627.722	28.5
628.484	28.5
629.245	25.5
630.006	25.5
630.768	23.5
631.529	23.5
632.29	23.5
633.051	21.5
633.812	21.5
634.573	21.5
635.333	22.5
636.094	19.5
636.855	19.5
637.615	15.5
638.376	19.5
639.136	19.5
639.896	17.5
640.657	16.5
641.417	17.5
642.177	16.5
642.937	14.5
643.697	14.5
644.457	16.5
645.216	15.5
645.976	17.5
646.736	15.5
647.495	12.5
648.255	14.5
649.014	15.5
649.774	15.5
650.533	13.5
651.292	13.5
652.051	11.5
652.81	11.5
653.569	13.5
654.328	10.5
655.087	11.5
655.846	11.5
656.604	12.5
657.363	9.5
658.121	11.5
658.88	11.5
659.638	10.5
660.397	11.5
661.155	7.5
661.913	10.5
662.671	9.5
663.429	9.5
664.187	11.5
664.945	7.5
665.703	11.5
666.46	9.5
667.218	7.5
667.976	11.5
668.733	10.5
669.49	9.5
670.248	7.5
671.005	9.5
671.762	7.5
672.519	9.5
673.276	8.5
674.033	8.5
674.79	7.5
675.547	7.5
676.304	7.5
677.06	10.5
677.817	5.5
678.574	7.5
679.33	7.5
680.086	7.5
680.843	9.5
681.599	8.5
682.355	8.5
683.111	8.5
683.867	7.5
684.623	6.5
685.379	6.5
686.135	6.5
686.89	7.5
687.646	6.5
688.402	8.5
689.157	9.5
689.912	7.5
690.668	4.5
691.423	9.5
692.178	6.5
692.933	8.5
693.688	7.5
694.443	6.5
695.198	6.5
695.953	7.5
696.708	5.5
697.462	7.5
698.217	8.5
698.972	7.5
699.726	6.5
700.48	7.5
701.235	5.5
701.989	7.5
702.743	8.5
703.497	5.5
704.251	7.5
705.005	6.5
705.759	6.5
706.513	5.5
707.266	7.5
708.02	3.5
708.774	4.5
709.527	5.5
710.28	8.5
711.034	7.5
711.787	6.5
712.54	5.5
713.293	8.5
714.046	7.5
714.799	6.5
715.552	7.5
716.305	7.5
717.058	7.5
717.81	7.5
718.563	7.5
719.315	5.5
720.068	6.5
720.82	7.5
721.573	7.5
722.325	5.5
723.077	6.5
723.829	6.5
724.581	6.5
725.333	7.5
726.085	5.5
726.836	9.5
727.588	7.5
728.34	8.5
729.091	7.5
729.843	6.5
730.594	7.5
731.346	8.5
732.097	7.5
732.848	6.5
733.599	9.5
734.35	7.5
735.101	5.5
735.852	8.5
736.603	7.5
737.354	7.5
738.104	6.5
738.855	8.5
739.605	6.5
740.356	7.5
741.106	10.5
741.856	5.5
742.607	7.5
743.357	7.5
744.107	7.5
744.857	9.5
745.607	7.5
746.357	7.5
747.106	7.5
747.856	9.5
748.606	9.5
749.355	10.5
750.105	7.5
750.854	6.5
751.603	10.5
752.353	9.5
753.102	9.5
753.851	9.5
754.6	8.5
755.349	7.5
756.098	11.5
756.847	8.5
757.595	10.5
758.344	11.5
759.093	8.5
759.841	9.5
760.589	9.5
761.338	12.5
762.086	7.5
762.834	11.5
763.582	8.5
764.331	9.5
765.079	9.5
765.826	10.5
766.574	13.5
767.322	11.5
768.07	10.5
768.817	9.5
769.565	11.5
770.312	12.5
771.06	9.5
771.807	11.5
772.554	11.5
773.302	10.5
774.049	12.5
774.796	9.5
775.543	12.5
776.29	10.5
777.036	11.5
777.783	12.5
778.53	12.5
779.276	12.5
780.023	12.5
780.769	15.5
781.516	12.5
782.262	13.5
783.008	13.5
783.754	14.5
784.5	11.5
785.246	11.5
785.992	13.5
786.738	11.5
787.484	10.5
788.23	15.5
788.975	11.5
789.721	13.5
790.466	11.5
791.212	11.5
791.957	12.5
792.702	14.5
793.447	13.5
794.193	14.5
794.938	9.5
795.683	10.5
796.427	13.5
797.172	11.5
797.917	11.5
798.662	11.5
799.406	13.5
800.151	11.5
800.895	10.5
801.64	11.5
802.384	9.5
803.128	11.5
803.872	10.5
804.616	9.5
805.36	10.5
806.104	9.5
806.848	10.5
807.592	9.5
808.336	10.5
809.079	9.5
809.823	11.5
810.566	10.5
811.31	9.5
812.053	9.5
812.796	7.5
813.539	6.5
814.283	7.5
815.026	9.5
815.769	8.5
816.511	9.5
817.254	6.5
817.997	8.5
818.74	9.5
819.482	8.5
820.225	7.5
820.967	7.5
821.71	11.5
822.452	9.5
823.194	7.5
823.936	9.5
824.678	7.5
825.42	8.5
826.162	6.5
826.904	7.5
827.646	9.5
828.388	6.5
829.129	7.5
829.871	6.5
830.612	6.5
831.354	3.5
832.095	6.5
832.836	5.5
833.577	5.5
834.319	6.5
835.06	5.5
835.801	5.5
836.542	2.5
837.282	5.5
838.023	4.5
838.764	7.5
839.504	5.5
840.245	5.5
840.985	4.5
841.726	4.5
842.466	4.5
843.206	5.5
843.946	3.5
844.687	7.5
845.427	5.5
846.166	3.5
846.906	4.5
847.646	7.5
848.386	5.5
849.125	7.5
849.865	3.5
850.605	2.5
851.344	4.5
852.083	2.5
852.823	5.5
853.562	2.5
854.301	5.5
855.04	3.5
855.779	3.5
856.518	4.5
857.257	1.5
857.995	7.5
858.734	4.5
859.473	5.5
860.211	1.5
860.95	3.5
861.688	2.5
862.426	1.5
863.165	4.5
863.903	4.5
864.641	3.5
865.379	3.5
866.117	3.5
866.855	4.5
867.593	1.5
868.33	3.5
869.068	1.5
869.806	2.5
870.543	4.5
871.28	4.5
872.018	2.5
872.755	1.5
873.492	2.5
874.229	3.5
874.967	1.5
875.703	4.5
876.44	2.5
877.177	3.5
877.914	0.5
878.651	2.5
879.387	2.5
880.124	6.5
880.86	2.5
881.597	2.5
882.333	1.5
883.069	2.5
883.806	2.5
884.542	3.5
885.278	3.5
886.014	5.5
886.749	3.5
887.485	2.5
888.221	1.5
888.957	2.5
889.692	0.5
890.428	1.5
891.163	3.5
891.899	0.5
892.634	2.5
893.369	0.5
894.104	3.5
894.839	2.5
895.574	3.5
896.309	2.5
897.044	2.5
897.779	1.5
898.514	1.5
899.248	4.5
899.983	0.5
900.717	0.5
901.452	1.5
902.186	2.5
902.92	0.5
903.654	0.5
904.389	-0.5
905.123	1.5
905.857	2.5
906.59	1.5
907.324	2.5
908.058	2.5
908.792	-1.5
909.525	2.5
910.259	0.5
910.992	1.5
911.726	3.5
912.459	-0.5
913.192	0.5
913.925	-0.5
914.658	0.5
915.391	0.5
916.124	1.5
916.857	2.5
917.59	0.5
918.323	0.5
919.055	2.5
919.788	-0.5
920.521	1.5
921.253	1.5
921.985	2.5
922.718	1.5
923.45	1.5
924.182	-0.5
924.914	2.5
925.646	-1.5
926.378	2.5
927.11	-1.5
927.841	1.5
928.573	2.5
929.305	2.5
930.036	1.5
930.768	2.5
931.499	2.5
932.23	-0.5
932.962	2.5
933.693	1.5
934.424	1.5
935.155	1.5
935.886	-1.5
936.617	1.5
937.348	-1.5
938.078	-0.5
938.809	-1.5
939.54	1.5
940.27	1.5
941.001	-0.5
941.731	0.5
942.461	3.5
943.191	2.5
943.922	-0.5
944.652	1.5
945.382	-1.5
946.112	1.5
946.841	1.5
947.571	0.5
948.301	2.5
949.031	2.5
949.76	0.5
950.49	1.5
951.219	-0.5
951.948	2.5
952.678	2.5
953.407	1.5
954.136	1.5
954.865	1.5
955.594	0.5
956.323	1.5
957.052	0.5
957.78	-0.5
958.509	0.5
959.238	0.5
959.966	-0.5
960.695	2.5
961.423	-0.5
962.151	2.5
962.88	-0.5
963.608	2.5
964.336	1.5
965.064	3.5
965.792	1.5
966.52	2.5
967.247	0.5
967.975	1.5
968.703	0.5
969.43	2.5
970.158	1.5
970.885	0.5
971.613	1.5
972.34	1.5
973.067	0.5
973.794	1.5
974.521	0.5
975.248	1.5
975.975	0.5
976.702	0.5
977.429	2.5
978.156	1.5
978.882	0.5
979.609	2.5
980.335	1.5
981.062	-1.5
981.788	2.5
982.514	4.5
983.24	0.5
983.967	1.5
984.693	1.5
985.419	1.5
986.144	1.5
986.87	-0.5
987.596	1.5
988.322	1.5
989.047	-0.5
989.773	2.5
990.498	1.5
991.224	1.5
991.949	3.5
992.674	0.5
993.399	1.5
994.124	1.5
994.849	0.5
995.574	0.5
996.299	2.5
997.024	1.5
997.749	0.5
998.473	2.5
999.198	1.5
999.922	-0.5
1000.647	1.5
1001.371	3.5
1002.095	-0.5
1002.82	-1.5
1003.544	-0.5
1004.268	5.5
1004.992	3.5
1005.716	3.5
1006.439	2.5
1007.163	5.5
1007.887	2.5
1008.611	-0.5
1009.334	1.5
1010.058	1.5
1010.781	-0.5
1011.504	-0.5
1012.228	1.5
1012.951	0.5
1013.674	-0.5
1014.397	-1.5
1015.12	0.5
