节点500_565_QEPB04081__419__09-57-23-302.txt的数据

Date: Thu Nov 13 09:57:23 CST 2025
User: PC
Spectrometer: QEPB0408
触发模式: 0
积分时间 (秒): 1.000000E-2
Scans to average: 1
启用暗噪声校正: true
启用非线性校正: false
滑动平均宽度: 0
X轴模式: Wavelengths
Number of Pixels in Spectrum: 1044
>>>>>Begin Spectral Data<<<<<
220.843	4.25
221.644	5.25
222.444	7.25
223.244	8.25
224.045	4.25
224.845	5.25
225.645	5.25
226.445	5.25
227.245	7.25
228.045	5.25
228.845	5.25
229.645	8.25
230.444	5.25
231.244	7.25
232.043	5.25
232.843	6.25
233.642	7.25
234.442	5.25
235.241	7.25
236.04	8.25
236.839	8.25
237.638	7.25
238.437	9.25
239.236	10.25
240.035	11.25
240.833	11.25
241.632	8.25
242.43	11.25
243.229	10.25
244.027	10.25
244.826	10.25
245.624	11.25
246.422	10.25
247.22	9.25
248.018	11.25
248.816	10.25
249.614	9.25
250.412	12.25
251.21	12.25
252.007	14.25
252.805	13.25
253.602	12.25
254.4	13.25
255.197	17.25
255.994	17.25
256.791	14.25
257.589	14.25
258.386	13.25
259.183	16.25
259.979	17.25
260.776	16.25
261.573	19.25
262.37	21.25
263.166	19.25
263.963	19.25
264.759	21.25
265.556	19.25
266.352	23.25
267.148	21.25
267.944	24.25
268.74	21.25
269.536	21.25
270.332	23.25
271.128	21.25
271.924	25.25
272.719	23.25
273.515	31.25
274.311	27.25
275.106	28.25
275.901	26.25
276.697	25.25
277.492	25.25
278.287	28.25
279.082	27.25
279.877	26.25
280.672	28.25
281.467	28.25
282.262	25.25
283.056	27.25
283.851	26.25
284.646	29.25
285.44	25.25
286.234	27.25
287.029	29.25
287.823	27.25
288.617	30.25
289.411	29.25
290.205	28.25
290.999	26.25
291.793	27.25
292.587	25.25
293.381	26.25
294.174	26.25
294.968	21.25
295.761	23.25
296.555	21.25
297.348	23.25
298.141	22.25
298.935	23.25
299.728	23.25
300.521	22.25
301.314	24.25
302.107	22.25
302.899	18.25
303.692	20.25
304.485	19.25
305.277	21.25
306.07	20.25
306.862	21.25
307.655	18.25
308.447	19.25
309.239	17.25
310.031	15.25
310.823	16.25
311.615	14.25
312.407	17.25
313.199	13.25
313.991	14.25
314.783	14.25
315.574	14.25
316.366	14.25
317.157	13.25
317.949	12.25
318.74	11.25
319.531	13.25
320.322	15.25
321.113	12.25
321.904	11.25
322.695	13.25
323.486	9.25
324.277	13.25
325.068	10.25
325.858	12.25
326.649	12.25
327.439	11.25
328.23	9.25
329.02	12.25
329.81	13.25
330.6	9.25
331.391	7.25
332.181	10.25
332.971	10.25
333.76	10.25
334.55	10.25
335.34	10.25
336.13	10.25
336.919	11.25
337.709	11.25
338.498	12.25
339.287	9.25
340.077	8.25
340.866	10.25
341.655	10.25
342.444	11.25
343.233	8.25
344.022	9.25
344.811	10.25
345.6	12.25
346.388	10.25
347.177	10.25
347.965	10.25
348.754	10.25
349.542	10.25
350.33	8.25
351.119	10.25
351.907	9.25
352.695	10.25
353.483	7.25
354.271	9.25
355.059	8.25
355.846	8.25
356.634	9.25
357.422	11.25
358.209	11.25
358.997	9.25
359.784	7.25
360.571	9.25
361.359	8.25
362.146	11.25
362.933	11.25
363.72	10.25
364.507	9.25
365.294	10.25
366.081	7.25
366.867	9.25
367.654	8.25
368.44	7.25
369.227	10.25
370.013	7.25
370.8	7.25
371.586	9.25
372.372	9.25
373.158	7.25
373.944	8.25
374.73	8.25
375.516	9.25
376.302	11.25
377.088	7.25
377.873	9.25
378.659	8.25
379.445	8.25
380.23	9.25
381.015	8.25
381.801	7.25
382.586	11.25
383.371	8.25
384.156	10.25
384.941	9.25
385.726	11.25
386.511	9.25
387.296	10.25
388.08	9.25
388.865	10.25
389.649	10.25
390.434	10.25
391.218	12.25
392.003	10.25
392.787	9.25
393.571	7.25
394.355	9.25
395.139	10.25
395.923	8.25
396.707	12.25
397.491	9.25
398.274	11.25
399.058	10.25
399.842	11.25
400.625	14.25
401.408	14.25
402.192	15.25
402.975	13.25
403.758	13.25
404.541	12.25
405.324	13.25
406.107	9.25
406.89	11.25
407.673	13.25
408.456	13.25
409.238	14.25
410.021	12.25
410.803	12.25
411.586	11.25
412.368	15.25
413.151	12.25
413.933	14.25
414.715	17.25
415.497	14.25
416.279	19.25
417.061	17.25
417.843	16.25
418.624	14.25
419.406	14.25
420.188	17.25
420.969	17.25
421.751	20.25
422.532	20.25
423.313	19.25
424.095	18.25
424.876	18.25
425.657	20.25
426.438	21.25
427.219	21.25
428	22.25
428.78	21.25
429.561	25.25
430.342	22.25
431.122	27.25
431.903	26.25
432.683	28.25
433.464	30.25
434.244	31.25
435.024	29.25
435.804	32.25
436.584	34.25
437.364	37.25
438.144	38.25
438.924	41.25
439.704	41.25
440.483	43.25
441.263	47.25
442.042	52.25
442.822	55.25
443.601	59.25
444.38	62.25
445.16	68.25
445.939	80.25
446.718	80.25
447.497	89.25
448.276	93.25
449.054	106.25
449.833	114.25
450.612	128.25
451.391	139.25
452.169	153.25
452.948	167.25
453.726	181.25
454.504	205.25
455.282	226.25
456.061	254.25
456.839	282.25
457.617	319.25
458.395	355.25
459.172	386.25
459.95	430.25
460.728	490.25
461.506	536.25
462.283	596.25
463.061	663.25
463.838	751.25
464.615	820.25
465.393	910.25
466.17	1031.25
466.947	1128.25
467.724	1250.25
468.501	1393.25
469.278	1527.25
470.055	1687.25
470.831	1871.25
471.608	2091.25
472.385	2278.25
473.161	2534.25
473.938	2779.25
474.714	3041.25
475.49	3316.25
476.266	3677.25
477.043	4011.25
477.819	4390.25
478.595	4790.25
479.371	5223.25
480.146	5709.25
480.922	6244.25
481.698	6760.25
482.473	7353.25
483.249	8030.25
484.024	8680.25
484.8	9459.25
485.575	10275.25
486.35	11111.25
487.126	12063.25
487.901	13000.25
488.676	14078.25
489.451	15229.25
490.225	16415.25
491	17602.25
491.775	18953.25
492.55	20354.25
493.324	21711.25
494.099	23202.25
494.873	24662.25
495.647	26123.25
496.422	27790.25
497.196	29198.25
497.97	30822.25
498.744	32217.25
499.518	33550.25
500.292	34722.25
501.066	35965.25
501.839	36997.25
502.613	37916.25
503.387	38623.25
504.16	39323.25
504.934	39601.25
505.707	39808.25
506.48	39869.25
507.253	39637.25
508.027	39203.25
508.8	38637.25
509.573	37867.25
510.346	37023.25
511.118	36067.25
511.891	35262.25
512.664	34103.25
513.437	32951.25
514.209	31694.25
514.982	30532.25
515.754	29413.25
516.526	28205.25
517.298	26995.25
518.071	25992.25
518.843	24928.25
519.615	23870.25
520.387	22943.25
521.159	22088.25
521.93	21224.25
522.702	20321.25
523.474	19482.25
524.245	18731.25
525.017	17992.25
525.788	17229.25
526.56	16471.25
527.331	15785.25
528.102	15016.25
528.873	14329.25
529.644	13583.25
530.415	12951.25
531.186	12330.25
531.957	11708.25
532.728	11136.25
533.498	10559.25
534.269	10000.25
535.039	9412.25
535.81	8963.25
536.58	8519.25
537.351	8008.25
538.121	7553.25
538.891	7190.25
539.661	6814.25
540.431	6482.25
541.201	6088.25
541.971	5775.25
542.741	5471.25
543.51	5229.25
544.28	4933.25
545.05	4686.25
545.819	4465.25
546.588	4225.25
547.358	4038.25
548.127	3845.25
548.896	3684.25
549.665	3459.25
550.434	3300.25
551.203	3125.25
551.972	2954.25
552.741	2810.25
553.51	2643.25
554.278	2505.25
555.047	2359.25
555.815	2242.25
556.584	2136.25
557.352	2011.25
558.121	1886.25
558.889	1788.25
559.657	1680.25
560.425	1595.25
561.193	1498.25
561.961	1425.25
562.729	1352.25
563.496	1273.25
564.264	1217.25
565.032	1156.25
565.799	1089.25
566.567	1025.25
567.334	958.25
568.101	914.25
568.869	871.25
569.636	820.25
570.403	762.25
571.17	718.25
571.937	698.25
572.704	651.25
573.471	614.25
574.237	574.25
575.004	542.25
575.771	516.25
576.537	487.25
577.303	458.25
578.07	439.25
578.836	412.25
579.602	386.25
580.368	368.25
581.134	347.25
581.9	329.25
582.666	313.25
583.432	297.25
584.198	278.25
584.964	269.25
585.729	249.25
586.495	242.25
587.26	226.25
588.025	210.25
588.791	206.25
589.556	190.25
590.321	185.25
591.086	171.25
591.851	164.25
592.616	154.25
593.381	147.25
594.146	140.25
594.911	135.25
595.675	133.25
596.44	124.25
597.204	122.25
597.969	117.25
598.733	110.25
599.497	101.25
600.261	102.25
601.025	94.25
601.79	91.25
602.553	85.25
603.317	85.25
604.081	79.25
604.845	78.25
605.609	73.25
606.372	73.25
607.136	68.25
607.899	65.25
608.662	64.25
609.426	58.25
610.189	60.25
610.952	58.25
611.715	55.25
612.478	51.25
613.241	51.25
614.004	46.25
614.767	42.25
615.529	47.25
616.292	44.25
617.055	40.25
617.817	44.25
618.579	40.25
619.342	38.25
620.104	36.25
620.866	38.25
621.628	35.25
622.39	34.25
623.152	33.25
623.914	30.25
624.676	29.25
625.438	30.25
626.199	27.25
626.961	30.25
627.722	27.25
628.484	27.25
629.245	27.25
630.006	24.25
630.768	25.25
631.529	22.25
632.29	23.25
633.051	21.25
633.812	21.25
634.573	21.25
635.333	19.25
636.094	17.25
636.855	18.25
637.615	19.25
638.376	18.25
639.136	19.25
639.896	16.25
640.657	14.25
641.417	17.25
642.177	17.25
642.937	17.25
643.697	14.25
644.457	16.25
645.216	14.25
645.976	14.25
646.736	15.25
647.495	14.25
648.255	14.25
649.014	14.25
649.774	13.25
650.533	12.25
651.292	12.25
652.051	11.25
652.81	11.25
653.569	13.25
654.328	13.25
655.087	10.25
655.846	9.25
656.604	11.25
657.363	11.25
658.121	11.25
658.88	11.25
659.638	11.25
660.397	9.25
661.155	11.25
661.913	10.25
662.671	9.25
663.429	8.25
664.187	8.25
664.945	10.25
665.703	7.25
666.46	9.25
667.218	10.25
667.976	10.25
668.733	11.25
669.49	10.25
670.248	6.25
671.005	11.25
671.762	9.25
672.519	9.25
673.276	7.25
674.033	7.25
674.79	7.25
675.547	6.25
676.304	6.25
677.06	8.25
677.817	7.25
678.574	7.25
679.33	5.25
680.086	5.25
680.843	7.25
681.599	8.25
682.355	4.25
683.111	9.25
683.867	5.25
684.623	8.25
685.379	6.25
686.135	6.25
686.89	7.25
687.646	7.25
688.402	8.25
689.157	7.25
689.912	7.25
690.668	9.25
691.423	4.25
692.178	8.25
692.933	5.25
693.688	7.25
694.443	5.25
695.198	5.25
695.953	6.25
696.708	8.25
697.462	8.25
698.217	7.25
698.972	6.25
699.726	7.25
700.48	4.25
701.235	9.25
701.989	7.25
702.743	8.25
703.497	8.25
704.251	9.25
705.005	9.25
705.759	7.25
706.513	7.25
707.266	7.25
708.02	8.25
708.774	6.25
709.527	5.25
710.28	8.25
711.034	8.25
711.787	7.25
712.54	6.25
713.293	7.25
714.046	7.25
714.799	6.25
715.552	5.25
716.305	8.25
717.058	5.25
717.81	5.25
718.563	7.25
719.315	7.25
720.068	5.25
720.82	7.25
721.573	7.25
722.325	9.25
723.077	8.25
723.829	6.25
724.581	7.25
725.333	7.25
726.085	5.25
726.836	7.25
727.588	7.25
728.34	4.25
729.091	6.25
729.843	6.25
730.594	7.25
731.346	7.25
732.097	7.25
732.848	8.25
733.599	9.25
734.35	5.25
735.101	8.25
735.852	9.25
736.603	6.25
737.354	7.25
738.104	7.25
738.855	5.25
739.605	8.25
740.356	7.25
741.106	9.25
741.856	10.25
742.607	9.25
743.357	9.25
744.107	8.25
744.857	9.25
745.607	10.25
746.357	10.25
747.106	6.25
747.856	11.25
748.606	10.25
749.355	9.25
750.105	9.25
750.854	9.25
751.603	11.25
752.353	9.25
753.102	11.25
753.851	8.25
754.6	10.25
755.349	11.25
756.098	10.25
756.847	8.25
757.595	9.25
758.344	10.25
759.093	11.25
759.841	9.25
760.589	10.25
761.338	13.25
762.086	8.25
762.834	9.25
763.582	9.25
764.331	8.25
765.079	12.25
765.826	7.25
766.574	10.25
767.322	11.25
768.07	13.25
768.817	11.25
769.565	13.25
770.312	11.25
771.06	12.25
771.807	11.25
772.554	12.25
773.302	9.25
774.049	12.25
774.796	11.25
775.543	15.25
776.29	13.25
777.036	12.25
777.783	13.25
778.53	12.25
779.276	11.25
780.023	12.25
780.769	12.25
781.516	11.25
782.262	11.25
783.008	13.25
783.754	12.25
784.5	15.25
785.246	12.25
785.992	13.25
786.738	12.25
787.484	13.25
788.23	15.25
788.975	12.25
789.721	14.25
790.466	12.25
791.212	11.25
791.957	13.25
792.702	13.25
793.447	13.25
794.193	13.25
794.938	14.25
795.683	13.25
796.427	14.25
797.172	11.25
797.917	12.25
798.662	8.25
799.406	11.25
800.151	10.25
800.895	9.25
801.64	11.25
802.384	10.25
803.128	10.25
803.872	10.25
804.616	10.25
805.36	9.25
806.104	9.25
806.848	10.25
807.592	5.25
808.336	7.25
809.079	10.25
809.823	7.25
810.566	10.25
811.31	8.25
812.053	10.25
812.796	9.25
813.539	8.25
814.283	8.25
815.026	9.25
815.769	6.25
816.511	7.25
817.254	7.25
817.997	5.25
818.74	7.25
819.482	6.25
820.225	7.25
820.967	7.25
821.71	6.25
822.452	9.25
823.194	5.25
823.936	9.25
824.678	7.25
825.42	7.25
826.162	8.25
826.904	8.25
827.646	5.25
828.388	6.25
829.129	7.25
829.871	6.25
830.612	6.25
831.354	5.25
832.095	7.25
832.836	6.25
833.577	4.25
834.319	5.25
835.06	5.25
835.801	6.25
836.542	3.25
837.282	5.25
838.023	5.25
838.764	4.25
839.504	4.25
840.245	2.25
840.985	5.25
841.726	3.25
842.466	5.25
843.206	3.25
843.946	4.25
844.687	4.25
845.427	2.25
846.166	6.25
846.906	3.25
847.646	5.25
848.386	6.25
849.125	2.25
849.865	6.25
850.605	5.25
851.344	5.25
852.083	4.25
852.823	4.25
853.562	1.25
854.301	4.25
855.04	3.25
855.779	4.25
856.518	5.25
857.257	3.25
857.995	5.25
858.734	1.25
859.473	5.25
860.211	3.25
860.95	5.25
861.688	2.25
862.426	3.25
863.165	3.25
863.903	2.25
864.641	4.25
865.379	5.25
866.117	3.25
866.855	2.25
867.593	2.25
868.33	3.25
869.068	2.25
869.806	2.25
870.543	1.25
871.28	2.25
872.018	2.25
872.755	1.25
873.492	4.25
874.229	2.25
874.967	3.25
875.703	2.25
876.44	3.25
877.177	3.25
877.914	2.25
878.651	3.25
879.387	3.25
880.124	1.25
880.86	0.25
881.597	3.25
882.333	2.25
883.069	1.25
883.806	3.25
884.542	2.25
885.278	0.25
886.014	2.25
886.749	2.25
887.485	-0.75
888.221	2.25
888.957	1.25
889.692	2.25
890.428	3.25
891.163	-0.75
891.899	1.25
892.634	0.25
893.369	0.25
894.104	0.25
894.839	0.25
895.574	1.25
896.309	0.25
897.044	1.25
897.779	1.25
898.514	1.25
899.248	0.25
899.983	-0.75
900.717	3.25
901.452	-0.75
902.186	1.25
902.92	1.25
903.654	2.25
904.389	1.25
905.123	-0.75
905.857	-0.75
906.59	1.25
907.324	2.25
908.058	1.25
908.792	1.25
909.525	3.25
910.259	1.25
910.992	3.25
911.726	1.25
912.459	3.25
913.192	1.25
913.925	2.25
914.658	0.25
915.391	1.25
916.124	1.25
916.857	1.25
917.59	0.25
918.323	0.25
919.055	4.25
919.788	2.25
920.521	-1.75
921.253	1.25
921.985	0.25
922.718	0.25
923.45	2.25
924.182	-0.75
924.914	1.25
925.646	1.25
926.378	0.25
927.11	0.25
927.841	1.25
928.573	2.25
929.305	2.25
930.036	2.25
930.768	0.25
931.499	1.25
932.23	0.25
932.962	-0.75
933.693	0.25
934.424	0.25
935.155	0.25
935.886	0.25
936.617	1.25
937.348	1.25
938.078	2.25
938.809	0.25
939.54	1.25
940.27	1.25
941.001	0.25
941.731	2.25
942.461	1.25
943.191	1.25
943.922	1.25
944.652	0.25
945.382	0.25
946.112	1.25
946.841	1.25
947.571	0.25
948.301	3.25
949.031	1.25
949.76	0.25
950.49	1.25
951.219	-1.75
951.948	0.25
952.678	1.25
953.407	0.25
954.136	-0.75
954.865	-0.75
955.594	0.25
956.323	2.25
957.052	0.25
957.78	-0.75
958.509	1.25
959.238	0.25
959.966	2.25
960.695	2.25
961.423	0.25
962.151	1.25
962.88	0.25
963.608	1.25
964.336	-0.75
965.064	0.25
965.792	3.25
966.52	1.25
967.247	1.25
967.975	-1.75
968.703	0.25
969.43	0.25
970.158	2.25
970.885	0.25
971.613	0.25
972.34	2.25
973.067	0.25
973.794	3.25
974.521	0.25
975.248	2.25
975.975	-0.75
976.702	1.25
977.429	2.25
978.156	1.25
978.882	1.25
979.609	1.25
980.335	1.25
981.062	-0.75
981.788	-0.75
982.514	0.25
983.24	-0.75
983.967	1.25
984.693	0.25
985.419	0.25
986.144	2.25
986.87	-1.75
987.596	2.25
988.322	-0.75
989.047	3.25
989.773	1.25
990.498	4.25
991.224	2.25
991.949	2.25
992.674	-0.75
993.399	2.25
994.124	1.25
994.849	-1.75
995.574	1.25
996.299	-0.75
997.024	1.25
997.749	2.25
998.473	0.25
999.198	1.25
999.922	-1.75
1000.647	-0.75
1001.371	3.25
1002.095	-0.75
1002.82	-1.75
1003.544	-1.75
1004.268	3.25
1004.992	2.25
1005.716	4.25
1006.439	4.25
1007.163	4.25
1007.887	5.25
1008.611	2.25
1009.334	0.25
1010.058	0.25
1010.781	0.25
1011.504	1.25
1012.228	1.25
1012.951	0.25
1013.674	1.25
1014.397	1.25
1015.12	-1.75
