节点500_565_QEPB04081__355__09-56-19-401.txt的数据

Date: Thu Nov 13 09:56:19 CST 2025
User: PC
Spectrometer: QEPB0408
触发模式: 0
积分时间 (秒): 1.000000E-2
Scans to average: 1
启用暗噪声校正: true
启用非线性校正: false
滑动平均宽度: 0
X轴模式: Wavelengths
Number of Pixels in Spectrum: 1044
>>>>>Begin Spectral Data<<<<<
220.843	3.38
221.644	4.38
222.444	6.38
223.244	1.38
224.045	5.38
224.845	5.38
225.645	3.38
226.445	5.38
227.245	7.38
228.045	7.38
228.845	5.38
229.645	7.38
230.444	5.38
231.244	7.38
232.043	7.38
232.843	7.38
233.642	9.38
234.442	9.38
235.241	9.38
236.04	9.38
236.839	8.38
237.638	9.38
238.437	10.38
239.236	6.38
240.035	9.38
240.833	9.38
241.632	7.38
242.43	9.38
243.229	7.38
244.027	10.38
244.826	12.38
245.624	10.38
246.422	10.38
247.22	15.38
248.018	13.38
248.816	16.38
249.614	14.38
250.412	12.38
251.21	14.38
252.007	14.38
252.805	12.38
253.602	13.38
254.4	15.38
255.197	14.38
255.994	15.38
256.791	15.38
257.589	18.38
258.386	15.38
259.183	15.38
259.979	16.38
260.776	17.38
261.573	19.38
262.37	19.38
263.166	17.38
263.963	19.38
264.759	18.38
265.556	25.38
266.352	20.38
267.148	22.38
267.944	23.38
268.74	19.38
269.536	25.38
270.332	25.38
271.128	24.38
271.924	24.38
272.719	28.38
273.515	27.38
274.311	27.38
275.106	28.38
275.901	26.38
276.697	29.38
277.492	25.38
278.287	30.38
279.082	30.38
279.877	30.38
280.672	31.38
281.467	27.38
282.262	28.38
283.056	28.38
283.851	29.38
284.646	29.38
285.44	27.38
286.234	28.38
287.029	27.38
287.823	31.38
288.617	28.38
289.411	26.38
290.205	27.38
290.999	27.38
291.793	29.38
292.587	26.38
293.381	27.38
294.174	21.38
294.968	26.38
295.761	24.38
296.555	23.38
297.348	22.38
298.141	25.38
298.935	24.38
299.728	22.38
300.521	22.38
301.314	21.38
302.107	21.38
302.899	20.38
303.692	19.38
304.485	21.38
305.277	17.38
306.07	20.38
306.862	19.38
307.655	16.38
308.447	20.38
309.239	17.38
310.031	18.38
310.823	17.38
311.615	14.38
312.407	15.38
313.199	12.38
313.991	16.38
314.783	13.38
315.574	16.38
316.366	13.38
317.157	13.38
317.949	12.38
318.74	13.38
319.531	13.38
320.322	14.38
321.113	12.38
321.904	13.38
322.695	12.38
323.486	9.38
324.277	11.38
325.068	12.38
325.858	9.38
326.649	10.38
327.439	11.38
328.23	12.38
329.02	12.38
329.81	11.38
330.6	9.38
331.391	11.38
332.181	13.38
332.971	11.38
333.76	9.38
334.55	10.38
335.34	10.38
336.13	9.38
336.919	10.38
337.709	10.38
338.498	12.38
339.287	10.38
340.077	10.38
340.866	9.38
341.655	9.38
342.444	8.38
343.233	9.38
344.022	10.38
344.811	11.38
345.6	12.38
346.388	11.38
347.177	11.38
347.965	11.38
348.754	12.38
349.542	10.38
350.33	13.38
351.119	8.38
351.907	9.38
352.695	10.38
353.483	11.38
354.271	9.38
355.059	9.38
355.846	8.38
356.634	9.38
357.422	8.38
358.209	8.38
358.997	9.38
359.784	10.38
360.571	9.38
361.359	13.38
362.146	8.38
362.933	9.38
363.72	10.38
364.507	6.38
365.294	10.38
366.081	8.38
366.867	7.38
367.654	8.38
368.44	8.38
369.227	9.38
370.013	8.38
370.8	7.38
371.586	7.38
372.372	7.38
373.158	6.38
373.944	7.38
374.73	10.38
375.516	10.38
376.302	9.38
377.088	8.38
377.873	10.38
378.659	6.38
379.445	8.38
380.23	9.38
381.015	7.38
381.801	8.38
382.586	6.38
383.371	8.38
384.156	10.38
384.941	10.38
385.726	9.38
386.511	8.38
387.296	10.38
388.08	8.38
388.865	10.38
389.649	10.38
390.434	11.38
391.218	10.38
392.003	10.38
392.787	8.38
393.571	7.38
394.355	11.38
395.139	8.38
395.923	11.38
396.707	12.38
397.491	10.38
398.274	10.38
399.058	13.38
399.842	12.38
400.625	11.38
401.408	12.38
402.192	12.38
402.975	14.38
403.758	13.38
404.541	11.38
405.324	12.38
406.107	11.38
406.89	12.38
407.673	13.38
408.456	15.38
409.238	12.38
410.021	12.38
410.803	12.38
411.586	14.38
412.368	12.38
413.151	13.38
413.933	18.38
414.715	14.38
415.497	17.38
416.279	15.38
417.061	17.38
417.843	13.38
418.624	19.38
419.406	20.38
420.188	18.38
420.969	15.38
421.751	16.38
422.532	16.38
423.313	16.38
424.095	17.38
424.876	20.38
425.657	23.38
426.438	21.38
427.219	21.38
428	19.38
428.78	22.38
429.561	23.38
430.342	25.38
431.122	25.38
431.903	28.38
432.683	26.38
433.464	27.38
434.244	29.38
435.024	30.38
435.804	34.38
436.584	35.38
437.364	35.38
438.144	38.38
438.924	39.38
439.704	44.38
440.483	46.38
441.263	47.38
442.042	49.38
442.822	55.38
443.601	60.38
444.38	65.38
445.16	68.38
445.939	72.38
446.718	81.38
447.497	86.38
448.276	93.38
449.054	104.38
449.833	116.38
450.612	121.38
451.391	137.38
452.169	149.38
452.948	164.38
453.726	181.38
454.504	199.38
455.282	222.38
456.061	249.38
456.839	277.38
457.617	305.38
458.395	335.38
459.172	380.38
459.95	418.38
460.728	476.38
461.506	529.38
462.283	575.38
463.061	663.38
463.838	731.38
464.615	826.38
465.393	917.38
466.17	993.38
466.947	1121.38
467.724	1238.38
468.501	1389.38
469.278	1532.38
470.055	1689.38
470.831	1884.38
471.608	2089.38
472.385	2289.38
473.161	2527.38
473.938	2792.38
474.714	3053.38
475.49	3347.38
476.266	3680.38
477.043	4034.38
477.819	4424.38
478.595	4827.38
479.371	5264.38
480.146	5769.38
480.922	6285.38
481.698	6881.38
482.473	7474.38
483.249	8110.38
484.024	8846.38
484.8	9632.38
485.575	10461.38
486.35	11313.38
487.126	12317.38
487.901	13303.38
488.676	14392.38
489.451	15626.38
490.225	16832.38
491	18119.38
491.775	19507.38
492.55	20932.38
493.324	22334.38
494.099	23845.38
494.873	25311.38
495.647	27038.38
496.422	28627.38
497.196	30062.38
497.97	31721.38
498.744	33066.38
499.518	34424.38
500.292	35658.38
501.066	36962.38
501.839	38012.38
502.613	38816.38
503.387	39547.38
504.16	40204.38
504.934	40478.38
505.707	40574.38
506.48	40533.38
507.253	40356.38
508.027	39835.38
508.8	39058.38
509.573	38285.38
510.346	37398.38
511.118	36351.38
511.891	35468.38
512.664	34210.38
513.437	32988.38
514.209	31715.38
514.982	30571.38
515.754	29401.38
516.526	28153.38
517.298	26940.38
518.071	25898.38
518.843	24881.38
519.615	23835.38
520.387	22873.38
521.159	22029.38
521.93	21119.38
522.702	20229.38
523.474	19420.38
524.245	18687.38
525.017	17944.38
525.788	17126.38
526.56	16362.38
527.331	15646.38
528.102	14933.38
528.873	14210.38
529.644	13456.38
530.415	12859.38
531.186	12174.38
531.957	11619.38
532.728	11039.38
533.498	10432.38
534.269	9889.38
535.039	9312.38
535.81	8861.38
536.58	8415.38
537.351	7915.38
538.121	7487.38
538.891	7065.38
539.661	6721.38
540.431	6358.38
541.201	5986.38
541.971	5730.38
542.741	5402.38
543.51	5129.38
544.28	4894.38
545.05	4641.38
545.819	4404.38
546.588	4194.38
547.358	3981.38
548.127	3811.38
548.896	3608.38
549.665	3438.38
550.434	3248.38
551.203	3085.38
551.972	2920.38
552.741	2747.38
553.51	2619.38
554.278	2469.38
555.047	2313.38
555.815	2216.38
556.584	2091.38
557.352	1983.38
558.121	1855.38
558.889	1750.38
559.657	1649.38
560.425	1561.38
561.193	1473.38
561.961	1398.38
562.729	1337.38
563.496	1259.38
564.264	1187.38
565.032	1139.38
565.799	1072.38
566.567	991.38
567.334	959.38
568.101	889.38
568.869	857.38
569.636	800.38
570.403	754.38
571.17	732.38
571.937	675.38
572.704	630.38
573.471	595.38
574.237	568.38
575.004	533.38
575.771	497.38
576.537	476.38
577.303	457.38
578.07	424.38
578.836	397.38
579.602	378.38
580.368	360.38
581.134	337.38
581.9	328.38
582.666	303.38
583.432	291.38
584.198	270.38
584.964	261.38
585.729	250.38
586.495	235.38
587.26	220.38
588.025	205.38
588.791	205.38
589.556	184.38
590.321	179.38
591.086	170.38
591.851	165.38
592.616	158.38
593.381	146.38
594.146	135.38
594.911	134.38
595.675	125.38
596.44	125.38
597.204	115.38
597.969	113.38
598.733	107.38
599.497	104.38
600.261	98.38
601.025	93.38
601.79	89.38
602.553	84.38
603.317	82.38
604.081	81.38
604.845	73.38
605.609	74.38
606.372	69.38
607.136	70.38
607.899	64.38
608.662	60.38
609.426	60.38
610.189	60.38
610.952	55.38
611.715	54.38
612.478	48.38
613.241	48.38
614.004	50.38
614.767	43.38
615.529	44.38
616.292	44.38
617.055	42.38
617.817	42.38
618.579	38.38
619.342	40.38
620.104	35.38
620.866	36.38
621.628	34.38
622.39	33.38
623.152	33.38
623.914	27.38
624.676	31.38
625.438	30.38
626.199	29.38
626.961	26.38
627.722	28.38
628.484	28.38
629.245	23.38
630.006	25.38
630.768	25.38
631.529	22.38
632.29	25.38
633.051	22.38
633.812	22.38
634.573	21.38
635.333	20.38
636.094	21.38
636.855	18.38
637.615	18.38
638.376	21.38
639.136	18.38
639.896	18.38
640.657	18.38
641.417	13.38
642.177	16.38
642.937	17.38
643.697	13.38
644.457	13.38
645.216	13.38
645.976	12.38
646.736	13.38
647.495	12.38
648.255	13.38
649.014	14.38
649.774	13.38
650.533	13.38
651.292	13.38
652.051	11.38
652.81	12.38
653.569	12.38
654.328	10.38
655.087	11.38
655.846	14.38
656.604	12.38
657.363	11.38
658.121	11.38
658.88	11.38
659.638	13.38
660.397	8.38
661.155	10.38
661.913	9.38
662.671	7.38
663.429	9.38
664.187	7.38
664.945	8.38
665.703	9.38
666.46	10.38
667.218	10.38
667.976	9.38
668.733	9.38
669.49	9.38
670.248	9.38
671.005	8.38
671.762	8.38
672.519	9.38
673.276	10.38
674.033	7.38
674.79	6.38
675.547	9.38
676.304	6.38
677.06	8.38
677.817	6.38
678.574	7.38
679.33	7.38
680.086	9.38
680.843	8.38
681.599	7.38
682.355	7.38
683.111	5.38
683.867	8.38
684.623	10.38
685.379	5.38
686.135	6.38
686.89	8.38
687.646	5.38
688.402	8.38
689.157	7.38
689.912	6.38
690.668	7.38
691.423	7.38
692.178	8.38
692.933	6.38
693.688	8.38
694.443	8.38
695.198	7.38
695.953	7.38
696.708	7.38
697.462	5.38
698.217	7.38
698.972	5.38
699.726	6.38
700.48	5.38
701.235	5.38
701.989	7.38
702.743	5.38
703.497	5.38
704.251	8.38
705.005	8.38
705.759	6.38
706.513	7.38
707.266	5.38
708.02	6.38
708.774	6.38
709.527	6.38
710.28	6.38
711.034	5.38
711.787	8.38
712.54	5.38
713.293	5.38
714.046	7.38
714.799	5.38
715.552	6.38
716.305	6.38
717.058	5.38
717.81	9.38
718.563	5.38
719.315	9.38
720.068	8.38
720.82	9.38
721.573	7.38
722.325	7.38
723.077	7.38
723.829	7.38
724.581	6.38
725.333	6.38
726.085	6.38
726.836	5.38
727.588	6.38
728.34	7.38
729.091	7.38
729.843	10.38
730.594	7.38
731.346	8.38
732.097	10.38
732.848	8.38
733.599	8.38
734.35	9.38
735.101	7.38
735.852	7.38
736.603	10.38
737.354	8.38
738.104	7.38
738.855	8.38
739.605	12.38
740.356	11.38
741.106	8.38
741.856	7.38
742.607	7.38
743.357	8.38
744.107	8.38
744.857	9.38
745.607	9.38
746.357	10.38
747.106	5.38
747.856	8.38
748.606	8.38
749.355	10.38
750.105	11.38
750.854	8.38
751.603	9.38
752.353	10.38
753.102	8.38
753.851	12.38
754.6	10.38
755.349	10.38
756.098	10.38
756.847	10.38
757.595	9.38
758.344	10.38
759.093	10.38
759.841	7.38
760.589	9.38
761.338	12.38
762.086	12.38
762.834	12.38
763.582	10.38
764.331	12.38
765.079	11.38
765.826	14.38
766.574	13.38
767.322	12.38
768.07	10.38
768.817	11.38
769.565	14.38
770.312	14.38
771.06	10.38
771.807	11.38
772.554	12.38
773.302	11.38
774.049	10.38
774.796	16.38
775.543	14.38
776.29	13.38
777.036	11.38
777.783	13.38
778.53	14.38
779.276	14.38
780.023	14.38
780.769	14.38
781.516	12.38
782.262	13.38
783.008	11.38
783.754	13.38
784.5	14.38
785.246	12.38
785.992	14.38
786.738	13.38
787.484	12.38
788.23	14.38
788.975	11.38
789.721	12.38
790.466	13.38
791.212	13.38
791.957	12.38
792.702	13.38
793.447	11.38
794.193	16.38
794.938	13.38
795.683	13.38
796.427	12.38
797.172	14.38
797.917	13.38
798.662	14.38
799.406	12.38
800.151	10.38
800.895	10.38
801.64	11.38
802.384	11.38
803.128	9.38
803.872	9.38
804.616	9.38
805.36	9.38
806.104	12.38
806.848	9.38
807.592	9.38
808.336	8.38
809.079	11.38
809.823	5.38
810.566	9.38
811.31	9.38
812.053	5.38
812.796	7.38
813.539	7.38
814.283	9.38
815.026	9.38
815.769	9.38
816.511	9.38
817.254	7.38
817.997	8.38
818.74	7.38
819.482	7.38
820.225	7.38
820.967	7.38
821.71	5.38
822.452	8.38
823.194	9.38
823.936	7.38
824.678	6.38
825.42	8.38
826.162	7.38
826.904	7.38
827.646	4.38
828.388	7.38
829.129	5.38
829.871	7.38
830.612	6.38
831.354	7.38
832.095	6.38
832.836	6.38
833.577	6.38
834.319	6.38
835.06	6.38
835.801	5.38
836.542	7.38
837.282	3.38
838.023	5.38
838.764	5.38
839.504	2.38
840.245	4.38
840.985	7.38
841.726	6.38
842.466	6.38
843.206	4.38
843.946	5.38
844.687	4.38
845.427	4.38
846.166	3.38
846.906	5.38
847.646	5.38
848.386	5.38
849.125	5.38
849.865	5.38
850.605	4.38
851.344	5.38
852.083	5.38
852.823	3.38
853.562	4.38
854.301	4.38
855.04	5.38
855.779	4.38
856.518	2.38
857.257	4.38
857.995	5.38
858.734	1.38
859.473	5.38
860.211	3.38
860.95	2.38
861.688	4.38
862.426	4.38
863.165	2.38
863.903	2.38
864.641	3.38
865.379	3.38
866.117	4.38
866.855	2.38
867.593	2.38
868.33	5.38
869.068	3.38
869.806	3.38
870.543	1.38
871.28	3.38
872.018	1.38
872.755	3.38
873.492	5.38
874.229	1.38
874.967	0.38
875.703	4.38
876.44	2.38
877.177	2.38
877.914	0.38
878.651	3.38
879.387	2.38
880.124	1.38
880.86	1.38
881.597	1.38
882.333	-0.62
883.069	2.38
883.806	3.38
884.542	2.38
885.278	2.38
886.014	1.38
886.749	4.38
887.485	1.38
888.221	2.38
888.957	-0.62
889.692	1.38
890.428	0.38
891.163	1.38
891.899	0.38
892.634	0.38
893.369	3.38
894.104	1.38
894.839	0.38
895.574	0.38
896.309	0.38
897.044	0.38
897.779	1.38
898.514	1.38
899.248	1.38
899.983	2.38
900.717	2.38
901.452	0.38
902.186	1.38
902.92	1.38
903.654	2.38
904.389	1.38
905.123	1.38
905.857	2.38
906.59	3.38
907.324	-0.62
908.058	0.38
908.792	2.38
909.525	1.38
910.259	1.38
910.992	-0.62
911.726	-0.62
912.459	3.38
913.192	1.38
913.925	1.38
914.658	2.38
915.391	2.38
916.124	2.38
916.857	1.38
917.59	0.38
918.323	0.38
919.055	1.38
919.788	0.38
920.521	0.38
921.253	1.38
921.985	-0.62
922.718	2.38
923.45	2.38
924.182	1.38
924.914	0.38
925.646	1.38
926.378	2.38
927.11	3.38
927.841	-0.62
928.573	2.38
929.305	0.38
930.036	-0.62
930.768	1.38
931.499	4.38
932.23	-0.62
932.962	1.38
933.693	-0.62
934.424	1.38
935.155	1.38
935.886	-0.62
936.617	0.38
937.348	-0.62
938.078	0.38
938.809	1.38
939.54	-0.62
940.27	1.38
941.001	2.38
941.731	1.38
942.461	1.38
943.191	1.38
943.922	1.38
944.652	2.38
945.382	-1.62
946.112	2.38
946.841	1.38
947.571	1.38
948.301	2.38
949.031	1.38
949.76	1.38
950.49	2.38
951.219	0.38
951.948	2.38
952.678	1.38
953.407	-0.62
954.136	-0.62
954.865	1.38
955.594	1.38
956.323	1.38
957.052	1.38
957.78	3.38
958.509	0.38
959.238	-0.62
959.966	1.38
960.695	0.38
961.423	1.38
962.151	0.38
962.88	-0.62
963.608	0.38
964.336	0.38
965.064	1.38
965.792	-0.62
966.52	1.38
967.247	-0.62
967.975	3.38
968.703	3.38
969.43	1.38
970.158	-1.62
970.885	1.38
971.613	4.38
972.34	0.38
973.067	2.38
973.794	1.38
974.521	0.38
975.248	1.38
975.975	-1.62
976.702	2.38
977.429	-0.62
978.156	0.38
978.882	-0.62
979.609	3.38
980.335	-0.62
981.062	-0.62
981.788	1.38
982.514	0.38
983.24	0.38
983.967	0.38
984.693	1.38
985.419	2.38
986.144	-0.62
986.87	2.38
987.596	-1.62
988.322	1.38
989.047	0.38
989.773	1.38
990.498	-0.62
991.224	0.38
991.949	0.38
992.674	1.38
993.399	3.38
994.124	-0.62
994.849	1.38
995.574	-0.62
996.299	1.38
997.024	1.38
997.749	-1.62
998.473	0.38
999.198	1.38
999.922	1.38
1000.647	0.38
1001.371	1.38
1002.095	-0.62
1002.82	-0.62
1003.544	-0.62
1004.268	7.38
1004.992	1.38
1005.716	5.38
1006.439	3.38
1007.163	5.38
1007.887	2.38
1008.611	1.38
1009.334	1.38
1010.058	-1.62
1010.781	1.38
1011.504	-0.62
1012.228	3.38
1012.951	-0.62
1013.674	1.38
1014.397	-1.62
1015.12	1.38
