节点500_565_QEPB04081__559__09-59-43-044.txt的数据

Date: Thu Nov 13 09:59:43 CST 2025
User: PC
Spectrometer: QEPB0408
触发模式: 0
积分时间 (秒): 1.000000E-2
Scans to average: 1
启用暗噪声校正: true
启用非线性校正: false
滑动平均宽度: 0
X轴模式: Wavelengths
Number of Pixels in Spectrum: 1044
>>>>>Begin Spectral Data<<<<<
220.843	5.38
221.644	7.38
222.444	4.38
223.244	4.38
224.045	3.38
224.845	6.38
225.645	6.38
226.445	4.38
227.245	5.38
228.045	5.38
228.845	7.38
229.645	8.38
230.444	7.38
231.244	6.38
232.043	5.38
232.843	6.38
233.642	6.38
234.442	8.38
235.241	7.38
236.04	7.38
236.839	11.38
237.638	8.38
238.437	10.38
239.236	9.38
240.035	6.38
240.833	8.38
241.632	9.38
242.43	8.38
243.229	12.38
244.027	10.38
244.826	9.38
245.624	9.38
246.422	9.38
247.22	10.38
248.018	10.38
248.816	13.38
249.614	12.38
250.412	11.38
251.21	12.38
252.007	9.38
252.805	11.38
253.602	12.38
254.4	14.38
255.197	14.38
255.994	11.38
256.791	15.38
257.589	15.38
258.386	12.38
259.183	15.38
259.979	15.38
260.776	17.38
261.573	14.38
262.37	17.38
263.166	17.38
263.963	17.38
264.759	20.38
265.556	17.38
266.352	21.38
267.148	19.38
267.944	21.38
268.74	17.38
269.536	21.38
270.332	23.38
271.128	22.38
271.924	21.38
272.719	25.38
273.515	24.38
274.311	24.38
275.106	30.38
275.901	25.38
276.697	28.38
277.492	28.38
278.287	25.38
279.082	26.38
279.877	27.38
280.672	27.38
281.467	27.38
282.262	26.38
283.056	32.38
283.851	25.38
284.646	27.38
285.44	25.38
286.234	28.38
287.029	26.38
287.823	28.38
288.617	26.38
289.411	25.38
290.205	27.38
290.999	25.38
291.793	23.38
292.587	24.38
293.381	24.38
294.174	25.38
294.968	24.38
295.761	24.38
296.555	21.38
297.348	24.38
298.141	20.38
298.935	23.38
299.728	19.38
300.521	20.38
301.314	21.38
302.107	18.38
302.899	20.38
303.692	20.38
304.485	17.38
305.277	21.38
306.07	16.38
306.862	20.38
307.655	15.38
308.447	20.38
309.239	15.38
310.031	18.38
310.823	17.38
311.615	17.38
312.407	14.38
313.199	13.38
313.991	14.38
314.783	12.38
315.574	13.38
316.366	14.38
317.157	14.38
317.949	13.38
318.74	15.38
319.531	13.38
320.322	10.38
321.113	12.38
321.904	12.38
322.695	12.38
323.486	13.38
324.277	10.38
325.068	9.38
325.858	12.38
326.649	10.38
327.439	13.38
328.23	10.38
329.02	9.38
329.81	12.38
330.6	10.38
331.391	7.38
332.181	11.38
332.971	10.38
333.76	9.38
334.55	10.38
335.34	9.38
336.13	13.38
336.919	10.38
337.709	11.38
338.498	9.38
339.287	10.38
340.077	11.38
340.866	8.38
341.655	9.38
342.444	10.38
343.233	10.38
344.022	11.38
344.811	10.38
345.6	9.38
346.388	7.38
347.177	9.38
347.965	7.38
348.754	9.38
349.542	10.38
350.33	12.38
351.119	10.38
351.907	8.38
352.695	8.38
353.483	8.38
354.271	11.38
355.059	10.38
355.846	10.38
356.634	10.38
357.422	11.38
358.209	12.38
358.997	8.38
359.784	8.38
360.571	5.38
361.359	9.38
362.146	11.38
362.933	9.38
363.72	9.38
364.507	6.38
365.294	11.38
366.081	8.38
366.867	8.38
367.654	8.38
368.44	7.38
369.227	8.38
370.013	8.38
370.8	7.38
371.586	7.38
372.372	11.38
373.158	10.38
373.944	6.38
374.73	9.38
375.516	8.38
376.302	7.38
377.088	7.38
377.873	7.38
378.659	9.38
379.445	8.38
380.23	7.38
381.015	6.38
381.801	9.38
382.586	9.38
383.371	8.38
384.156	9.38
384.941	10.38
385.726	9.38
386.511	7.38
387.296	7.38
388.08	8.38
388.865	10.38
389.649	9.38
390.434	11.38
391.218	8.38
392.003	9.38
392.787	9.38
393.571	9.38
394.355	10.38
395.139	11.38
395.923	11.38
396.707	12.38
397.491	9.38
398.274	12.38
399.058	11.38
399.842	10.38
400.625	12.38
401.408	11.38
402.192	9.38
402.975	11.38
403.758	11.38
404.541	9.38
405.324	8.38
406.107	11.38
406.89	12.38
407.673	13.38
408.456	12.38
409.238	10.38
410.021	13.38
410.803	14.38
411.586	14.38
412.368	14.38
413.151	16.38
413.933	13.38
414.715	17.38
415.497	14.38
416.279	13.38
417.061	14.38
417.843	17.38
418.624	13.38
419.406	14.38
420.188	17.38
420.969	14.38
421.751	18.38
422.532	15.38
423.313	18.38
424.095	21.38
424.876	18.38
425.657	22.38
426.438	18.38
427.219	21.38
428	21.38
428.78	25.38
429.561	23.38
430.342	23.38
431.122	23.38
431.903	28.38
432.683	26.38
433.464	27.38
434.244	30.38
435.024	30.38
435.804	32.38
436.584	37.38
437.364	35.38
438.144	39.38
438.924	40.38
439.704	44.38
440.483	45.38
441.263	52.38
442.042	49.38
442.822	55.38
443.601	61.38
444.38	64.38
445.16	71.38
445.939	75.38
446.718	80.38
447.497	91.38
448.276	95.38
449.054	102.38
449.833	113.38
450.612	127.38
451.391	143.38
452.169	160.38
452.948	175.38
453.726	193.38
454.504	216.38
455.282	235.38
456.061	267.38
456.839	290.38
457.617	333.38
458.395	365.38
459.172	405.38
459.95	451.38
460.728	503.38
461.506	555.38
462.283	613.38
463.061	685.38
463.838	762.38
464.615	839.38
465.393	930.38
466.17	1036.38
466.947	1145.38
467.724	1275.38
468.501	1424.38
469.278	1555.38
470.055	1722.38
470.831	1889.38
471.608	2100.38
472.385	2285.38
473.161	2518.38
473.938	2777.38
474.714	3033.38
475.49	3294.38
476.266	3619.38
477.043	3955.38
477.819	4321.38
478.595	4717.38
479.371	5133.38
480.146	5577.38
480.922	6049.38
481.698	6554.38
482.473	7111.38
483.249	7722.38
484.024	8328.38
484.8	9067.38
485.575	9844.38
486.35	10609.38
487.126	11421.38
487.901	12343.38
488.676	13325.38
489.451	14387.38
490.225	15527.38
491	16637.38
491.775	17827.38
492.55	19106.38
493.324	20380.38
494.099	21701.38
494.873	23085.38
495.647	24551.38
496.422	25990.38
497.196	27365.38
497.97	28763.38
498.744	30147.38
499.518	31474.38
500.292	32685.38
501.066	33899.38
501.839	34889.38
502.613	35895.38
503.387	36722.38
504.16	37419.38
504.934	37869.38
505.707	38258.38
506.48	38313.38
507.253	38351.38
508.027	38033.38
508.8	37541.38
509.573	37164.38
510.346	36450.38
511.118	35582.38
511.891	34758.38
512.664	33768.38
513.437	32677.38
514.209	31571.38
514.982	30510.38
515.754	29456.38
516.526	28299.38
517.298	27152.38
518.071	26146.38
518.843	24995.38
519.615	23985.38
520.387	23074.38
521.159	22250.38
521.93	21380.38
522.702	20495.38
523.474	19672.38
524.245	18843.38
525.017	18148.38
525.788	17367.38
526.56	16642.38
527.331	15916.38
528.102	15228.38
528.873	14462.38
529.644	13871.38
530.415	13181.38
531.186	12536.38
531.957	11955.38
532.728	11359.38
533.498	10778.38
534.269	10210.38
535.039	9629.38
535.81	9162.38
536.58	8687.38
537.351	8258.38
538.121	7803.38
538.891	7399.38
539.661	6998.38
540.431	6635.38
541.201	6247.38
541.971	5918.38
542.741	5626.38
543.51	5338.38
544.28	5084.38
545.05	4831.38
545.819	4601.38
546.588	4360.38
547.358	4122.38
548.127	3960.38
548.896	3768.38
549.665	3557.38
550.434	3394.38
551.203	3209.38
551.972	3049.38
552.741	2881.38
553.51	2752.38
554.278	2600.38
555.047	2446.38
555.815	2323.38
556.584	2210.38
557.352	2082.38
558.121	1953.38
558.889	1849.38
559.657	1737.38
560.425	1652.38
561.193	1564.38
561.961	1482.38
562.729	1414.38
563.496	1321.38
564.264	1246.38
565.032	1183.38
565.799	1124.38
566.567	1060.38
567.334	1011.38
568.101	941.38
568.869	904.38
569.636	841.38
570.403	799.38
571.17	757.38
571.937	719.38
572.704	674.38
573.471	635.38
574.237	602.38
575.004	564.38
575.771	529.38
576.537	515.38
577.303	467.38
578.07	445.38
578.836	422.38
579.602	403.38
580.368	381.38
581.134	362.38
581.9	347.38
582.666	319.38
583.432	307.38
584.198	292.38
584.964	274.38
585.729	266.38
586.495	250.38
587.26	237.38
588.025	226.38
588.791	215.38
589.556	197.38
590.321	184.38
591.086	179.38
591.851	173.38
592.616	166.38
593.381	156.38
594.146	148.38
594.911	138.38
595.675	138.38
596.44	125.38
597.204	126.38
597.969	117.38
598.733	109.38
599.497	108.38
600.261	99.38
601.025	100.38
601.79	95.38
602.553	86.38
603.317	85.38
604.081	85.38
604.845	78.38
605.609	79.38
606.372	72.38
607.136	71.38
607.899	65.38
608.662	65.38
609.426	59.38
610.189	60.38
610.952	58.38
611.715	59.38
612.478	55.38
613.241	51.38
614.004	48.38
614.767	49.38
615.529	45.38
616.292	45.38
617.055	46.38
617.817	41.38
618.579	41.38
619.342	39.38
620.104	38.38
620.866	37.38
621.628	35.38
622.39	35.38
623.152	33.38
623.914	32.38
624.676	31.38
625.438	28.38
626.199	28.38
626.961	28.38
627.722	26.38
628.484	27.38
629.245	25.38
630.006	28.38
630.768	23.38
631.529	23.38
632.29	23.38
633.051	23.38
633.812	23.38
634.573	21.38
635.333	21.38
636.094	19.38
636.855	18.38
637.615	17.38
638.376	17.38
639.136	19.38
639.896	19.38
640.657	17.38
641.417	13.38
642.177	15.38
642.937	17.38
643.697	14.38
644.457	15.38
645.216	12.38
645.976	12.38
646.736	14.38
647.495	17.38
648.255	13.38
649.014	11.38
649.774	11.38
650.533	13.38
651.292	11.38
652.051	14.38
652.81	12.38
653.569	11.38
654.328	12.38
655.087	10.38
655.846	11.38
656.604	8.38
657.363	12.38
658.121	13.38
658.88	11.38
659.638	13.38
660.397	9.38
661.155	9.38
661.913	11.38
662.671	8.38
663.429	9.38
664.187	10.38
664.945	9.38
665.703	10.38
666.46	10.38
667.218	9.38
667.976	10.38
668.733	13.38
669.49	7.38
670.248	9.38
671.005	9.38
671.762	8.38
672.519	8.38
673.276	8.38
674.033	7.38
674.79	6.38
675.547	6.38
676.304	9.38
677.06	7.38
677.817	7.38
678.574	6.38
679.33	8.38
680.086	5.38
680.843	6.38
681.599	10.38
682.355	7.38
683.111	6.38
683.867	7.38
684.623	7.38
685.379	5.38
686.135	6.38
686.89	5.38
687.646	9.38
688.402	8.38
689.157	7.38
689.912	7.38
690.668	5.38
691.423	7.38
692.178	9.38
692.933	5.38
693.688	6.38
694.443	5.38
695.198	6.38
695.953	8.38
696.708	5.38
697.462	4.38
698.217	5.38
698.972	6.38
699.726	7.38
700.48	7.38
701.235	4.38
701.989	5.38
702.743	5.38
703.497	6.38
704.251	7.38
705.005	5.38
705.759	6.38
706.513	6.38
707.266	6.38
708.02	5.38
708.774	7.38
709.527	5.38
710.28	8.38
711.034	8.38
711.787	7.38
712.54	7.38
713.293	3.38
714.046	7.38
714.799	6.38
715.552	5.38
716.305	5.38
717.058	5.38
717.81	8.38
718.563	7.38
719.315	7.38
720.068	7.38
720.82	8.38
721.573	7.38
722.325	5.38
723.077	4.38
723.829	5.38
724.581	9.38
725.333	8.38
726.085	6.38
726.836	7.38
727.588	6.38
728.34	8.38
729.091	8.38
729.843	5.38
730.594	6.38
731.346	5.38
732.097	11.38
732.848	6.38
733.599	9.38
734.35	8.38
735.101	7.38
735.852	6.38
736.603	7.38
737.354	10.38
738.104	7.38
738.855	8.38
739.605	5.38
740.356	7.38
741.106	7.38
741.856	8.38
742.607	8.38
743.357	7.38
744.107	9.38
744.857	7.38
745.607	8.38
746.357	8.38
747.106	9.38
747.856	10.38
748.606	8.38
749.355	5.38
750.105	8.38
750.854	8.38
751.603	8.38
752.353	9.38
753.102	7.38
753.851	10.38
754.6	9.38
755.349	7.38
756.098	10.38
756.847	9.38
757.595	10.38
758.344	12.38
759.093	9.38
759.841	7.38
760.589	9.38
761.338	11.38
762.086	11.38
762.834	10.38
763.582	9.38
764.331	10.38
765.079	10.38
765.826	11.38
766.574	9.38
767.322	9.38
768.07	13.38
768.817	12.38
769.565	12.38
770.312	12.38
771.06	11.38
771.807	11.38
772.554	10.38
773.302	9.38
774.049	12.38
774.796	13.38
775.543	14.38
776.29	12.38
777.036	11.38
777.783	12.38
778.53	14.38
779.276	13.38
780.023	15.38
780.769	11.38
781.516	11.38
782.262	13.38
783.008	15.38
783.754	13.38
784.5	12.38
785.246	14.38
785.992	13.38
786.738	14.38
787.484	12.38
788.23	13.38
788.975	12.38
789.721	13.38
790.466	10.38
791.212	10.38
791.957	11.38
792.702	11.38
793.447	13.38
794.193	13.38
794.938	13.38
795.683	12.38
796.427	11.38
797.172	11.38
797.917	11.38
798.662	11.38
799.406	11.38
800.151	10.38
800.895	13.38
801.64	10.38
802.384	12.38
803.128	12.38
803.872	9.38
804.616	9.38
805.36	7.38
806.104	11.38
806.848	9.38
807.592	9.38
808.336	8.38
809.079	9.38
809.823	11.38
810.566	6.38
811.31	10.38
812.053	8.38
812.796	10.38
813.539	7.38
814.283	6.38
815.026	9.38
815.769	5.38
816.511	9.38
817.254	7.38
817.997	8.38
818.74	6.38
819.482	7.38
820.225	7.38
820.967	8.38
821.71	5.38
822.452	7.38
823.194	10.38
823.936	7.38
824.678	7.38
825.42	7.38
826.162	8.38
826.904	9.38
827.646	5.38
828.388	8.38
829.129	5.38
829.871	5.38
830.612	5.38
831.354	5.38
832.095	5.38
832.836	9.38
833.577	4.38
834.319	4.38
835.06	7.38
835.801	7.38
836.542	4.38
837.282	5.38
838.023	4.38
838.764	7.38
839.504	5.38
840.245	6.38
840.985	4.38
841.726	6.38
842.466	5.38
843.206	3.38
843.946	3.38
844.687	2.38
845.427	5.38
846.166	5.38
846.906	5.38
847.646	4.38
848.386	5.38
849.125	4.38
849.865	4.38
850.605	6.38
851.344	3.38
852.083	5.38
852.823	3.38
853.562	6.38
854.301	3.38
855.04	3.38
855.779	5.38
856.518	1.38
857.257	3.38
857.995	5.38
858.734	4.38
859.473	4.38
860.211	3.38
860.95	3.38
861.688	2.38
862.426	5.38
863.165	2.38
863.903	4.38
864.641	3.38
865.379	5.38
866.117	4.38
866.855	2.38
867.593	1.38
868.33	5.38
869.068	3.38
869.806	2.38
870.543	2.38
871.28	3.38
872.018	3.38
872.755	4.38
873.492	2.38
874.229	1.38
874.967	1.38
875.703	3.38
876.44	4.38
877.177	2.38
877.914	3.38
878.651	3.38
879.387	3.38
880.124	2.38
880.86	2.38
881.597	1.38
882.333	1.38
883.069	3.38
883.806	0.38
884.542	1.38
885.278	1.38
886.014	3.38
886.749	2.38
887.485	0.38
888.221	3.38
888.957	1.38
889.692	3.38
890.428	2.38
891.163	3.38
891.899	5.38
892.634	1.38
893.369	2.38
894.104	0.38
894.839	0.38
895.574	2.38
896.309	1.38
897.044	1.38
897.779	-0.62
898.514	2.38
899.248	-0.62
899.983	-0.62
900.717	0.38
901.452	2.38
902.186	2.38
902.92	0.38
903.654	-0.62
904.389	-0.62
905.123	2.38
905.857	0.38
906.59	0.38
907.324	0.38
908.058	-0.62
908.792	1.38
909.525	1.38
910.259	1.38
910.992	0.38
911.726	2.38
912.459	3.38
913.192	1.38
913.925	0.38
914.658	-0.62
915.391	2.38
916.124	1.38
916.857	1.38
917.59	1.38
918.323	1.38
919.055	1.38
919.788	0.38
920.521	2.38
921.253	-0.62
921.985	3.38
922.718	1.38
923.45	1.38
924.182	2.38
924.914	0.38
925.646	0.38
926.378	-0.62
927.11	1.38
927.841	1.38
928.573	-0.62
929.305	1.38
930.036	0.38
930.768	0.38
931.499	1.38
932.23	2.38
932.962	1.38
933.693	-1.62
934.424	1.38
935.155	1.38
935.886	0.38
936.617	2.38
937.348	1.38
938.078	1.38
938.809	1.38
939.54	0.38
940.27	2.38
941.001	0.38
941.731	2.38
942.461	0.38
943.191	0.38
943.922	0.38
944.652	1.38
945.382	1.38
946.112	2.38
946.841	-2.62
947.571	1.38
948.301	0.38
949.031	0.38
949.76	0.38
950.49	0.38
951.219	2.38
951.948	-0.62
952.678	3.38
953.407	2.38
954.136	1.38
954.865	0.38
955.594	0.38
956.323	3.38
957.052	-0.62
957.78	2.38
958.509	2.38
959.238	0.38
959.966	1.38
960.695	-0.62
961.423	1.38
962.151	-0.62
962.88	0.38
963.608	2.38
964.336	-0.62
965.064	0.38
965.792	1.38
966.52	2.38
967.247	0.38
967.975	0.38
968.703	-0.62
969.43	0.38
970.158	1.38
970.885	-0.62
971.613	1.38
972.34	2.38
973.067	1.38
973.794	-0.62
974.521	-0.62
975.248	1.38
975.975	-0.62
976.702	1.38
977.429	-1.62
978.156	1.38
978.882	0.38
979.609	2.38
980.335	1.38
981.062	0.38
981.788	1.38
982.514	1.38
983.24	0.38
983.967	2.38
984.693	1.38
985.419	1.38
986.144	1.38
986.87	1.38
987.596	0.38
988.322	1.38
989.047	1.38
989.773	0.38
990.498	0.38
991.224	-0.62
991.949	1.38
992.674	0.38
993.399	1.38
994.124	0.38
994.849	0.38
995.574	-0.62
996.299	0.38
997.024	2.38
997.749	0.38
998.473	0.38
999.198	1.38
999.922	1.38
1000.647	-0.62
1001.371	2.38
1002.095	-1.62
1002.82	-1.62
1003.544	-1.62
1004.268	4.38
1004.992	4.38
1005.716	3.38
1006.439	4.38
1007.163	3.38
1007.887	3.38
1008.611	1.38
1009.334	1.38
1010.058	-0.62
1010.781	1.38
1011.504	-0.62
1012.228	0.38
1012.951	0.38
1013.674	-0.62
1014.397	1.38
1015.12	1.38
