节点500_565_QEPB04081__69__09-51-35-034.txt的数据

Date: Thu Nov 13 09:51:35 CST 2025
User: PC
Spectrometer: QEPB0408
触发模式: 0
积分时间 (秒): 1.000000E-2
Scans to average: 1
启用暗噪声校正: true
启用非线性校正: false
滑动平均宽度: 0
X轴模式: Wavelengths
Number of Pixels in Spectrum: 1044
>>>>>Begin Spectral Data<<<<<
220.843	3.88
221.644	2.88
222.444	3.88
223.244	2.88
224.045	5.88
224.845	1.88
225.645	4.88
226.445	4.88
227.245	5.88
228.045	2.88
228.845	3.88
229.645	8.88
230.444	6.88
231.244	6.88
232.043	7.88
232.843	7.88
233.642	6.88
234.442	8.88
235.241	4.88
236.04	7.88
236.839	8.88
237.638	8.88
238.437	6.88
239.236	7.88
240.035	7.88
240.833	7.88
241.632	9.88
242.43	7.88
243.229	11.88
244.027	7.88
244.826	10.88
245.624	12.88
246.422	9.88
247.22	12.88
248.018	13.88
248.816	14.88
249.614	10.88
250.412	10.88
251.21	14.88
252.007	12.88
252.805	15.88
253.602	15.88
254.4	13.88
255.197	15.88
255.994	15.88
256.791	14.88
257.589	17.88
258.386	16.88
259.183	16.88
259.979	21.88
260.776	16.88
261.573	19.88
262.37	21.88
263.166	21.88
263.963	22.88
264.759	23.88
265.556	23.88
266.352	25.88
267.148	23.88
267.944	27.88
268.74	24.88
269.536	24.88
270.332	29.88
271.128	28.88
271.924	27.88
272.719	23.88
273.515	30.88
274.311	26.88
275.106	29.88
275.901	31.88
276.697	26.88
277.492	29.88
278.287	30.88
279.082	30.88
279.877	28.88
280.672	29.88
281.467	30.88
282.262	30.88
283.056	34.88
283.851	29.88
284.646	32.88
285.44	28.88
286.234	28.88
287.029	28.88
287.823	29.88
288.617	30.88
289.411	26.88
290.205	28.88
290.999	27.88
291.793	26.88
292.587	25.88
293.381	26.88
294.174	25.88
294.968	25.88
295.761	24.88
296.555	23.88
297.348	23.88
298.141	22.88
298.935	25.88
299.728	22.88
300.521	20.88
301.314	21.88
302.107	17.88
302.899	20.88
303.692	16.88
304.485	18.88
305.277	18.88
306.07	16.88
306.862	18.88
307.655	17.88
308.447	18.88
309.239	14.88
310.031	16.88
310.823	13.88
311.615	13.88
312.407	17.88
313.199	17.88
313.991	15.88
314.783	12.88
315.574	15.88
316.366	11.88
317.157	12.88
317.949	12.88
318.74	10.88
319.531	13.88
320.322	10.88
321.113	13.88
321.904	11.88
322.695	10.88
323.486	11.88
324.277	9.88
325.068	11.88
325.858	11.88
326.649	10.88
327.439	10.88
328.23	9.88
329.02	9.88
329.81	8.88
330.6	8.88
331.391	8.88
332.181	9.88
332.971	9.88
333.76	8.88
334.55	8.88
335.34	10.88
336.13	9.88
336.919	9.88
337.709	9.88
338.498	9.88
339.287	12.88
340.077	9.88
340.866	9.88
341.655	8.88
342.444	9.88
343.233	9.88
344.022	7.88
344.811	9.88
345.6	9.88
346.388	7.88
347.177	9.88
347.965	11.88
348.754	10.88
349.542	12.88
350.33	9.88
351.119	8.88
351.907	7.88
352.695	8.88
353.483	10.88
354.271	10.88
355.059	7.88
355.846	10.88
356.634	8.88
357.422	8.88
358.209	9.88
358.997	8.88
359.784	9.88
360.571	7.88
361.359	7.88
362.146	10.88
362.933	6.88
363.72	9.88
364.507	8.88
365.294	7.88
366.081	7.88
366.867	8.88
367.654	7.88
368.44	4.88
369.227	5.88
370.013	6.88
370.8	7.88
371.586	8.88
372.372	7.88
373.158	7.88
373.944	7.88
374.73	7.88
375.516	7.88
376.302	7.88
377.088	5.88
377.873	9.88
378.659	7.88
379.445	10.88
380.23	11.88
381.015	9.88
381.801	6.88
382.586	7.88
383.371	9.88
384.156	9.88
384.941	8.88
385.726	7.88
386.511	11.88
387.296	8.88
388.08	6.88
388.865	9.88
389.649	11.88
390.434	8.88
391.218	10.88
392.003	9.88
392.787	12.88
393.571	12.88
394.355	9.88
395.139	11.88
395.923	9.88
396.707	11.88
397.491	11.88
398.274	11.88
399.058	11.88
399.842	10.88
400.625	11.88
401.408	12.88
402.192	11.88
402.975	9.88
403.758	11.88
404.541	12.88
405.324	13.88
406.107	12.88
406.89	12.88
407.673	12.88
408.456	10.88
409.238	12.88
410.021	14.88
410.803	11.88
411.586	13.88
412.368	13.88
413.151	13.88
413.933	14.88
414.715	13.88
415.497	14.88
416.279	18.88
417.061	16.88
417.843	16.88
418.624	15.88
419.406	14.88
420.188	16.88
420.969	20.88
421.751	18.88
422.532	19.88
423.313	21.88
424.095	20.88
424.876	16.88
425.657	20.88
426.438	21.88
427.219	18.88
428	20.88
428.78	19.88
429.561	25.88
430.342	26.88
431.122	27.88
431.903	30.88
432.683	26.88
433.464	27.88
434.244	28.88
435.024	30.88
435.804	31.88
436.584	33.88
437.364	35.88
438.144	34.88
438.924	40.88
439.704	36.88
440.483	41.88
441.263	45.88
442.042	48.88
442.822	54.88
443.601	52.88
444.38	60.88
445.16	63.88
445.939	64.88
446.718	71.88
447.497	82.88
448.276	82.88
449.054	91.88
449.833	101.88
450.612	110.88
451.391	123.88
452.169	133.88
452.948	144.88
453.726	162.88
454.504	184.88
455.282	204.88
456.061	230.88
456.839	250.88
457.617	279.88
458.395	309.88
459.172	345.88
459.95	387.88
460.728	422.88
461.506	481.88
462.283	547.88
463.061	590.88
463.838	674.88
464.615	755.88
465.393	846.88
466.17	946.88
466.947	1064.88
467.724	1185.88
468.501	1321.88
469.278	1458.88
470.055	1632.88
470.831	1832.88
471.608	2029.88
472.385	2251.88
473.161	2495.88
473.938	2769.88
474.714	3064.88
475.49	3391.88
476.266	3734.88
477.043	4129.88
477.819	4584.88
478.595	5023.88
479.371	5523.88
480.146	6096.88
480.922	6726.88
481.698	7387.88
482.473	8095.88
483.249	8860.88
484.024	9712.88
484.8	10638.88
485.575	11634.88
486.35	12729.88
487.126	13821.88
487.901	15133.88
488.676	16467.88
489.451	17874.88
490.225	19375.88
491	20931.88
491.775	22584.88
492.55	24289.88
493.324	26051.88
494.099	27711.88
494.873	29600.88
495.647	31527.88
496.422	33304.88
497.196	35032.88
497.97	36653.88
498.744	38167.88
499.518	39591.88
500.292	40915.88
501.066	42017.88
501.839	43035.88
502.613	43721.88
503.387	44133.88
504.16	44389.88
504.934	44328.88
505.707	44105.88
506.48	43690.88
507.253	42973.88
508.027	42082.88
508.8	40948.88
509.573	39764.88
510.346	38405.88
511.118	37110.88
511.891	35879.88
512.664	34502.88
513.437	33020.88
514.209	31577.88
514.982	30267.88
515.754	29055.88
516.526	27683.88
517.298	26469.88
518.071	25401.88
518.843	24449.88
519.615	23399.88
520.387	22441.88
521.159	21589.88
521.93	20734.88
522.702	19877.88
523.474	19014.88
524.245	18233.88
525.017	17529.88
525.788	16644.88
526.56	15863.88
527.331	15128.88
528.102	14391.88
528.873	13646.88
529.644	12959.88
530.415	12257.88
531.186	11588.88
531.957	11008.88
532.728	10447.88
533.498	9834.88
534.269	9301.88
535.039	8793.88
535.81	8249.88
536.58	7896.88
537.351	7394.88
538.121	6996.88
538.891	6652.88
539.661	6304.88
540.431	5927.88
541.201	5608.88
541.971	5335.88
542.741	5020.88
543.51	4823.88
544.28	4539.88
545.05	4339.88
545.819	4137.88
546.588	3901.88
547.358	3685.88
548.127	3531.88
548.896	3345.88
549.665	3197.88
550.434	3036.88
551.203	2860.88
551.972	2704.88
552.741	2551.88
553.51	2401.88
554.278	2275.88
555.047	2137.88
555.815	2024.88
556.584	1910.88
557.352	1813.88
558.121	1702.88
558.889	1596.88
559.657	1507.88
560.425	1432.88
561.193	1345.88
561.961	1273.88
562.729	1211.88
563.496	1152.88
564.264	1091.88
565.032	1021.88
565.799	971.88
566.567	923.88
567.334	870.88
568.101	812.88
568.869	777.88
569.636	731.88
570.403	688.88
571.17	655.88
571.937	624.88
572.704	573.88
573.471	546.88
574.237	514.88
575.004	492.88
575.771	458.88
576.537	432.88
577.303	409.88
578.07	386.88
578.836	362.88
579.602	344.88
580.368	322.88
581.134	303.88
581.9	293.88
582.666	280.88
583.432	262.88
584.198	246.88
584.964	237.88
585.729	223.88
586.495	215.88
587.26	198.88
588.025	191.88
588.791	179.88
589.556	174.88
590.321	158.88
591.086	156.88
591.851	150.88
592.616	144.88
593.381	135.88
594.146	132.88
594.911	125.88
595.675	116.88
596.44	116.88
597.204	109.88
597.969	103.88
598.733	99.88
599.497	89.88
600.261	86.88
601.025	87.88
601.79	82.88
602.553	78.88
603.317	77.88
604.081	71.88
604.845	73.88
605.609	65.88
606.372	66.88
607.136	58.88
607.899	61.88
608.662	56.88
609.426	58.88
610.189	54.88
610.952	52.88
611.715	47.88
612.478	48.88
613.241	47.88
614.004	41.88
614.767	42.88
615.529	38.88
616.292	41.88
617.055	36.88
617.817	37.88
618.579	36.88
619.342	32.88
620.104	34.88
620.866	32.88
621.628	30.88
622.39	33.88
623.152	28.88
623.914	29.88
624.676	27.88
625.438	25.88
626.199	24.88
626.961	25.88
627.722	22.88
628.484	22.88
629.245	22.88
630.006	21.88
630.768	21.88
631.529	19.88
632.29	19.88
633.051	19.88
633.812	16.88
634.573	20.88
635.333	19.88
636.094	17.88
636.855	18.88
637.615	19.88
638.376	17.88
639.136	15.88
639.896	16.88
640.657	15.88
641.417	15.88
642.177	13.88
642.937	12.88
643.697	13.88
644.457	10.88
645.216	12.88
645.976	14.88
646.736	10.88
647.495	12.88
648.255	11.88
649.014	13.88
649.774	11.88
650.533	10.88
651.292	8.88
652.051	11.88
652.81	10.88
653.569	7.88
654.328	9.88
655.087	9.88
655.846	10.88
656.604	8.88
657.363	10.88
658.121	9.88
658.88	9.88
659.638	8.88
660.397	8.88
661.155	9.88
661.913	8.88
662.671	8.88
663.429	9.88
664.187	5.88
664.945	9.88
665.703	8.88
666.46	10.88
667.218	7.88
667.976	6.88
668.733	7.88
669.49	8.88
670.248	7.88
671.005	6.88
671.762	7.88
672.519	7.88
673.276	7.88
674.033	8.88
674.79	7.88
675.547	8.88
676.304	7.88
677.06	7.88
677.817	5.88
678.574	5.88
679.33	5.88
680.086	6.88
680.843	7.88
681.599	3.88
682.355	6.88
683.111	4.88
683.867	3.88
684.623	5.88
685.379	6.88
686.135	5.88
686.89	5.88
687.646	7.88
688.402	2.88
689.157	5.88
689.912	7.88
690.668	3.88
691.423	4.88
692.178	6.88
692.933	5.88
693.688	8.88
694.443	3.88
695.198	4.88
695.953	4.88
696.708	5.88
697.462	6.88
698.217	7.88
698.972	5.88
699.726	4.88
700.48	7.88
701.235	5.88
701.989	5.88
702.743	5.88
703.497	6.88
704.251	4.88
705.005	5.88
705.759	7.88
706.513	4.88
707.266	5.88
708.02	6.88
708.774	5.88
709.527	2.88
710.28	3.88
711.034	7.88
711.787	5.88
712.54	5.88
713.293	5.88
714.046	5.88
714.799	4.88
715.552	4.88
716.305	5.88
717.058	4.88
717.81	8.88
718.563	4.88
719.315	5.88
720.068	6.88
720.82	6.88
721.573	5.88
722.325	5.88
723.077	5.88
723.829	6.88
724.581	8.88
725.333	6.88
726.085	6.88
726.836	6.88
727.588	5.88
728.34	7.88
729.091	7.88
729.843	5.88
730.594	5.88
731.346	4.88
732.097	5.88
732.848	6.88
733.599	8.88
734.35	6.88
735.101	5.88
735.852	8.88
736.603	7.88
737.354	7.88
738.104	8.88
738.855	6.88
739.605	8.88
740.356	9.88
741.106	9.88
741.856	9.88
742.607	8.88
743.357	7.88
744.107	6.88
744.857	8.88
745.607	7.88
746.357	9.88
747.106	7.88
747.856	9.88
748.606	7.88
749.355	5.88
750.105	7.88
750.854	9.88
751.603	7.88
752.353	6.88
753.102	9.88
753.851	10.88
754.6	12.88
755.349	9.88
756.098	9.88
756.847	11.88
757.595	8.88
758.344	12.88
759.093	8.88
759.841	10.88
760.589	11.88
761.338	10.88
762.086	12.88
762.834	9.88
763.582	9.88
764.331	10.88
765.079	11.88
765.826	12.88
766.574	12.88
767.322	10.88
768.07	11.88
768.817	13.88
769.565	11.88
770.312	12.88
771.06	9.88
771.807	11.88
772.554	12.88
773.302	12.88
774.049	12.88
774.796	12.88
775.543	14.88
776.29	13.88
777.036	12.88
777.783	13.88
778.53	13.88
779.276	15.88
780.023	13.88
780.769	13.88
781.516	14.88
782.262	15.88
783.008	13.88
783.754	11.88
784.5	12.88
785.246	11.88
785.992	16.88
786.738	14.88
787.484	14.88
788.23	12.88
788.975	12.88
789.721	13.88
790.466	10.88
791.212	10.88
791.957	9.88
792.702	12.88
793.447	11.88
794.193	9.88
794.938	12.88
795.683	13.88
796.427	11.88
797.172	12.88
797.917	11.88
798.662	10.88
799.406	10.88
800.151	8.88
800.895	9.88
801.64	9.88
802.384	10.88
803.128	10.88
803.872	6.88
804.616	10.88
805.36	10.88
806.104	8.88
806.848	8.88
807.592	8.88
808.336	8.88
809.079	7.88
809.823	7.88
810.566	8.88
811.31	7.88
812.053	6.88
812.796	5.88
813.539	8.88
814.283	6.88
815.026	8.88
815.769	7.88
816.511	6.88
817.254	6.88
817.997	6.88
818.74	8.88
819.482	5.88
820.225	3.88
820.967	7.88
821.71	4.88
822.452	7.88
823.194	5.88
823.936	4.88
824.678	6.88
825.42	4.88
826.162	2.88
826.904	4.88
827.646	4.88
828.388	5.88
829.129	5.88
829.871	2.88
830.612	3.88
831.354	5.88
832.095	4.88
832.836	6.88
833.577	5.88
834.319	4.88
835.06	4.88
835.801	3.88
836.542	5.88
837.282	3.88
838.023	7.88
838.764	4.88
839.504	3.88
840.245	3.88
840.985	3.88
841.726	5.88
842.466	5.88
843.206	4.88
843.946	1.88
844.687	5.88
845.427	2.88
846.166	3.88
846.906	1.88
847.646	5.88
848.386	4.88
849.125	2.88
849.865	3.88
850.605	1.88
851.344	1.88
852.083	1.88
852.823	3.88
853.562	2.88
854.301	1.88
855.04	0.88
855.779	2.88
856.518	3.88
857.257	2.88
857.995	3.88
858.734	3.88
859.473	2.88
860.211	3.88
860.95	1.88
861.688	1.88
862.426	-0.12
863.165	1.88
863.903	0.88
864.641	-3.12
865.379	1.88
866.117	0.88
866.855	2.88
867.593	1.88
868.33	1.88
869.068	0.88
869.806	1.88
870.543	0.88
871.28	3.88
872.018	5.88
872.755	0.88
873.492	-0.12
874.229	-0.12
874.967	-1.12
875.703	2.88
876.44	-0.12
877.177	-0.12
877.914	-0.12
878.651	-0.12
879.387	-0.12
880.124	-0.12
880.86	0.88
881.597	-2.12
882.333	1.88
883.069	-0.12
883.806	0.88
884.542	0.88
885.278	-1.12
886.014	-0.12
886.749	-0.12
887.485	1.88
888.221	1.88
888.957	-1.12
889.692	0.88
890.428	-1.12
891.163	-0.12
891.899	-0.12
892.634	-0.12
893.369	1.88
894.104	0.88
894.839	0.88
895.574	-0.12
896.309	-0.12
897.044	-0.12
897.779	0.88
898.514	-0.12
899.248	2.88
899.983	0.88
900.717	0.88
901.452	-1.12
902.186	1.88
902.92	1.88
903.654	-0.12
904.389	-0.12
905.123	2.88
905.857	-0.12
906.59	0.88
907.324	-0.12
908.058	-1.12
908.792	-1.12
909.525	1.88
910.259	-1.12
910.992	-0.12
911.726	-0.12
912.459	-0.12
913.192	1.88
913.925	-1.12
914.658	1.88
915.391	-1.12
916.124	-0.12
916.857	-1.12
917.59	-0.12
918.323	0.88
919.055	-2.12
919.788	-0.12
920.521	0.88
921.253	-0.12
921.985	-0.12
922.718	-0.12
923.45	1.88
924.182	0.88
924.914	-0.12
925.646	-0.12
926.378	-0.12
927.11	0.88
927.841	0.88
928.573	-2.12
929.305	1.88
930.036	0.88
930.768	0.88
931.499	-0.12
932.23	0.88
932.962	-1.12
933.693	-1.12
934.424	-0.12
935.155	1.88
935.886	-0.12
936.617	-0.12
937.348	-0.12
938.078	-2.12
938.809	-0.12
939.54	-0.12
940.27	-0.12
941.001	-1.12
941.731	-1.12
942.461	0.88
943.191	0.88
943.922	0.88
944.652	-0.12
945.382	-1.12
946.112	-0.12
946.841	-0.12
947.571	-1.12
948.301	-2.12
949.031	-0.12
949.76	-0.12
950.49	0.88
951.219	0.88
951.948	0.88
952.678	0.88
953.407	-0.12
954.136	0.88
954.865	-3.12
955.594	0.88
956.323	0.88
957.052	-1.12
957.78	-0.12
958.509	-0.12
959.238	-0.12
959.966	-0.12
960.695	-0.12
961.423	-0.12
962.151	-1.12
962.88	-0.12
963.608	-2.12
964.336	-0.12
965.064	-1.12
965.792	0.88
966.52	-1.12
967.247	-0.12
967.975	-0.12
968.703	0.88
969.43	0.88
970.158	-0.12
970.885	0.88
971.613	-1.12
972.34	0.88
973.067	-3.12
973.794	0.88
974.521	-1.12
975.248	0.88
975.975	-0.12
976.702	1.88
977.429	1.88
978.156	-0.12
978.882	0.88
979.609	0.88
980.335	-0.12
981.062	2.88
981.788	-0.12
982.514	-0.12
983.24	-0.12
983.967	-1.12
984.693	0.88
985.419	-0.12
986.144	1.88
986.87	-0.12
987.596	2.88
988.322	-1.12
989.047	-1.12
989.773	3.88
990.498	-1.12
991.224	-1.12
991.949	-0.12
992.674	-1.12
993.399	-1.12
994.124	-0.12
994.849	-0.12
995.574	0.88
996.299	-0.12
997.024	0.88
997.749	-1.12
998.473	0.88
999.198	-0.12
999.922	-0.12
1000.647	0.88
1001.371	3.88
1002.095	-0.12
1002.82	-0.12
1003.544	-3.12
1004.268	4.88
1004.992	4.88
1005.716	3.88
1006.439	5.88
1007.163	2.88
1007.887	2.88
1008.611	-1.12
1009.334	-0.12
1010.058	-0.12
1010.781	-2.12
1011.504	-1.12
1012.228	-3.12
1012.951	-0.12
1013.674	-1.12
1014.397	0.88
1015.12	-0.12
