节点500_565_QEPB04081__278__09-55-02-571.txt的数据

Date: Thu Nov 13 09:55:02 CST 2025
User: PC
Spectrometer: QEPB0408
触发模式: 0
积分时间 (秒): 1.000000E-2
Scans to average: 1
启用暗噪声校正: true
启用非线性校正: false
滑动平均宽度: 0
X轴模式: Wavelengths
Number of Pixels in Spectrum: 1044
>>>>>Begin Spectral Data<<<<<
220.843	3.5
221.644	3.5
222.444	4.5
223.244	3.5
224.045	5.5
224.845	6.5
225.645	5.5
226.445	6.5
227.245	5.5
228.045	3.5
228.845	6.5
229.645	4.5
230.444	6.5
231.244	9.5
232.043	5.5
232.843	7.5
233.642	4.5
234.442	6.5
235.241	4.5
236.04	6.5
236.839	7.5
237.638	6.5
238.437	9.5
239.236	6.5
240.035	9.5
240.833	9.5
241.632	11.5
242.43	8.5
243.229	9.5
244.027	11.5
244.826	10.5
245.624	11.5
246.422	10.5
247.22	11.5
248.018	13.5
248.816	12.5
249.614	14.5
250.412	13.5
251.21	11.5
252.007	12.5
252.805	13.5
253.602	14.5
254.4	14.5
255.197	13.5
255.994	14.5
256.791	17.5
257.589	16.5
258.386	16.5
259.183	17.5
259.979	17.5
260.776	21.5
261.573	18.5
262.37	19.5
263.166	19.5
263.963	21.5
264.759	21.5
265.556	22.5
266.352	24.5
267.148	22.5
267.944	22.5
268.74	25.5
269.536	24.5
270.332	24.5
271.128	26.5
271.924	26.5
272.719	25.5
273.515	26.5
274.311	24.5
275.106	26.5
275.901	28.5
276.697	31.5
277.492	27.5
278.287	27.5
279.082	32.5
279.877	30.5
280.672	26.5
281.467	27.5
282.262	27.5
283.056	27.5
283.851	25.5
284.646	28.5
285.44	30.5
286.234	26.5
287.029	28.5
287.823	28.5
288.617	28.5
289.411	26.5
290.205	28.5
290.999	29.5
291.793	27.5
292.587	26.5
293.381	28.5
294.174	24.5
294.968	24.5
295.761	22.5
296.555	22.5
297.348	27.5
298.141	20.5
298.935	24.5
299.728	20.5
300.521	23.5
301.314	21.5
302.107	22.5
302.899	20.5
303.692	16.5
304.485	19.5
305.277	18.5
306.07	20.5
306.862	19.5
307.655	16.5
308.447	19.5
309.239	18.5
310.031	19.5
310.823	19.5
311.615	14.5
312.407	14.5
313.199	15.5
313.991	15.5
314.783	11.5
315.574	15.5
316.366	10.5
317.157	12.5
317.949	14.5
318.74	12.5
319.531	14.5
320.322	11.5
321.113	12.5
321.904	9.5
322.695	11.5
323.486	12.5
324.277	9.5
325.068	10.5
325.858	12.5
326.649	12.5
327.439	9.5
328.23	10.5
329.02	11.5
329.81	9.5
330.6	11.5
331.391	9.5
332.181	8.5
332.971	10.5
333.76	13.5
334.55	9.5
335.34	9.5
336.13	12.5
336.919	7.5
337.709	9.5
338.498	9.5
339.287	10.5
340.077	9.5
340.866	8.5
341.655	9.5
342.444	11.5
343.233	9.5
344.022	10.5
344.811	10.5
345.6	10.5
346.388	8.5
347.177	9.5
347.965	6.5
348.754	9.5
349.542	8.5
350.33	12.5
351.119	8.5
351.907	8.5
352.695	7.5
353.483	8.5
354.271	14.5
355.059	7.5
355.846	11.5
356.634	9.5
357.422	8.5
358.209	7.5
358.997	6.5
359.784	6.5
360.571	8.5
361.359	8.5
362.146	9.5
362.933	9.5
363.72	7.5
364.507	4.5
365.294	8.5
366.081	8.5
366.867	7.5
367.654	10.5
368.44	5.5
369.227	9.5
370.013	6.5
370.8	7.5
371.586	6.5
372.372	8.5
373.158	6.5
373.944	9.5
374.73	8.5
375.516	8.5
376.302	8.5
377.088	9.5
377.873	8.5
378.659	10.5
379.445	7.5
380.23	7.5
381.015	6.5
381.801	7.5
382.586	8.5
383.371	9.5
384.156	6.5
384.941	7.5
385.726	11.5
386.511	9.5
387.296	10.5
388.08	7.5
388.865	8.5
389.649	7.5
390.434	8.5
391.218	10.5
392.003	9.5
392.787	6.5
393.571	9.5
394.355	11.5
395.139	10.5
395.923	10.5
396.707	9.5
397.491	9.5
398.274	8.5
399.058	13.5
399.842	11.5
400.625	12.5
401.408	10.5
402.192	13.5
402.975	11.5
403.758	12.5
404.541	12.5
405.324	14.5
406.107	11.5
406.89	11.5
407.673	13.5
408.456	12.5
409.238	12.5
410.021	11.5
410.803	14.5
411.586	12.5
412.368	13.5
413.151	13.5
413.933	15.5
414.715	15.5
415.497	13.5
416.279	17.5
417.061	17.5
417.843	18.5
418.624	17.5
419.406	15.5
420.188	16.5
420.969	16.5
421.751	19.5
422.532	19.5
423.313	19.5
424.095	17.5
424.876	19.5
425.657	18.5
426.438	18.5
427.219	20.5
428	22.5
428.78	20.5
429.561	24.5
430.342	26.5
431.122	27.5
431.903	29.5
432.683	28.5
433.464	28.5
434.244	27.5
435.024	30.5
435.804	33.5
436.584	35.5
437.364	37.5
438.144	38.5
438.924	39.5
439.704	39.5
440.483	41.5
441.263	47.5
442.042	51.5
442.822	50.5
443.601	56.5
444.38	59.5
445.16	67.5
445.939	68.5
446.718	75.5
447.497	87.5
448.276	92.5
449.054	101.5
449.833	106.5
450.612	124.5
451.391	128.5
452.169	140.5
452.948	161.5
453.726	173.5
454.504	191.5
455.282	221.5
456.061	248.5
456.839	276.5
457.617	310.5
458.395	328.5
459.172	371.5
459.95	411.5
460.728	464.5
461.506	524.5
462.283	578.5
463.061	648.5
463.838	719.5
464.615	804.5
465.393	904.5
466.17	999.5
466.947	1097.5
467.724	1226.5
468.501	1368.5
469.278	1536.5
470.055	1672.5
470.831	1870.5
471.608	2065.5
472.385	2274.5
473.161	2544.5
473.938	2797.5
474.714	3075.5
475.49	3366.5
476.266	3723.5
477.043	4068.5
477.819	4465.5
478.595	4932.5
479.371	5396.5
480.146	5870.5
480.922	6440.5
481.698	7010.5
482.473	7674.5
483.249	8331.5
484.024	9090.5
484.8	9935.5
485.575	10858.5
486.35	11739.5
487.126	12758.5
487.901	13848.5
488.676	15033.5
489.451	16267.5
490.225	17571.5
491	18927.5
491.775	20309.5
492.55	21936.5
493.324	23431.5
494.099	24963.5
494.873	26604.5
495.647	28317.5
496.422	29978.5
497.196	31557.5
497.97	33181.5
498.744	34623.5
499.518	35927.5
500.292	37285.5
501.066	38498.5
501.839	39506.5
502.613	40300.5
503.387	40953.5
504.16	41495.5
504.934	41721.5
505.707	41740.5
506.48	41581.5
507.253	41175.5
508.027	40541.5
508.8	39749.5
509.573	38831.5
510.346	37830.5
511.118	36726.5
511.891	35659.5
512.664	34410.5
513.437	33104.5
514.209	31777.5
514.982	30580.5
515.754	29433.5
516.526	28180.5
517.298	26876.5
518.071	25907.5
518.843	24818.5
519.615	23796.5
520.387	22860.5
521.159	21924.5
521.93	21108.5
522.702	20132.5
523.474	19328.5
524.245	18582.5
525.017	17832.5
525.788	17018.5
526.56	16236.5
527.331	15508.5
528.102	14853.5
528.873	14051.5
529.644	13366.5
530.415	12668.5
531.186	12097.5
531.957	11429.5
532.728	10864.5
533.498	10295.5
534.269	9718.5
535.039	9139.5
535.81	8676.5
536.58	8215.5
537.351	7780.5
538.121	7391.5
538.891	6968.5
539.661	6602.5
540.431	6274.5
541.201	5898.5
541.971	5602.5
542.741	5310.5
543.51	5023.5
544.28	4786.5
545.05	4534.5
545.819	4350.5
546.588	4121.5
547.358	3927.5
548.127	3707.5
548.896	3513.5
549.665	3364.5
550.434	3200.5
551.203	3026.5
551.972	2884.5
552.741	2700.5
553.51	2552.5
554.278	2411.5
555.047	2280.5
555.815	2170.5
556.584	2025.5
557.352	1930.5
558.121	1810.5
558.889	1700.5
559.657	1625.5
560.425	1518.5
561.193	1454.5
561.961	1366.5
562.729	1287.5
563.496	1222.5
564.264	1168.5
565.032	1102.5
565.799	1041.5
566.567	978.5
567.334	927.5
568.101	863.5
568.869	824.5
569.636	772.5
570.403	722.5
571.17	705.5
571.937	658.5
572.704	629.5
573.471	586.5
574.237	551.5
575.004	525.5
575.771	490.5
576.537	463.5
577.303	433.5
578.07	410.5
578.836	388.5
579.602	361.5
580.368	341.5
581.134	329.5
581.9	313.5
582.666	295.5
583.432	281.5
584.198	269.5
584.964	260.5
585.729	246.5
586.495	231.5
587.26	217.5
588.025	204.5
588.791	196.5
589.556	183.5
590.321	178.5
591.086	170.5
591.851	159.5
592.616	152.5
593.381	147.5
594.146	134.5
594.911	131.5
595.675	121.5
596.44	114.5
597.204	114.5
597.969	109.5
598.733	104.5
599.497	98.5
600.261	95.5
601.025	90.5
601.79	84.5
602.553	83.5
603.317	79.5
604.081	75.5
604.845	71.5
605.609	71.5
606.372	65.5
607.136	62.5
607.899	64.5
608.662	62.5
609.426	61.5
610.189	54.5
610.952	54.5
611.715	52.5
612.478	53.5
613.241	46.5
614.004	45.5
614.767	45.5
615.529	44.5
616.292	38.5
617.055	39.5
617.817	39.5
618.579	38.5
619.342	37.5
620.104	38.5
620.866	33.5
621.628	32.5
622.39	31.5
623.152	31.5
623.914	28.5
624.676	28.5
625.438	30.5
626.199	27.5
626.961	25.5
627.722	26.5
628.484	26.5
629.245	24.5
630.006	22.5
630.768	23.5
631.529	20.5
632.29	20.5
633.051	21.5
633.812	21.5
634.573	19.5
635.333	20.5
636.094	19.5
636.855	19.5
637.615	18.5
638.376	18.5
639.136	20.5
639.896	18.5
640.657	15.5
641.417	18.5
642.177	14.5
642.937	14.5
643.697	13.5
644.457	13.5
645.216	15.5
645.976	14.5
646.736	10.5
647.495	14.5
648.255	10.5
649.014	12.5
649.774	12.5
650.533	10.5
651.292	10.5
652.051	12.5
652.81	9.5
653.569	10.5
654.328	8.5
655.087	12.5
655.846	10.5
656.604	13.5
657.363	10.5
658.121	10.5
658.88	10.5
659.638	9.5
660.397	7.5
661.155	7.5
661.913	9.5
662.671	9.5
663.429	8.5
664.187	8.5
664.945	8.5
665.703	11.5
666.46	9.5
667.218	8.5
667.976	9.5
668.733	6.5
669.49	7.5
670.248	6.5
671.005	8.5
671.762	8.5
672.519	6.5
673.276	6.5
674.033	9.5
674.79	7.5
675.547	7.5
676.304	8.5
677.06	7.5
677.817	5.5
678.574	7.5
679.33	6.5
680.086	6.5
680.843	5.5
681.599	6.5
682.355	6.5
683.111	7.5
683.867	8.5
684.623	6.5
685.379	6.5
686.135	5.5
686.89	3.5
687.646	7.5
688.402	7.5
689.157	7.5
689.912	6.5
690.668	5.5
691.423	6.5
692.178	5.5
692.933	7.5
693.688	8.5
694.443	6.5
695.198	8.5
695.953	6.5
696.708	5.5
697.462	8.5
698.217	4.5
698.972	6.5
699.726	6.5
700.48	4.5
701.235	5.5
701.989	4.5
702.743	4.5
703.497	5.5
704.251	6.5
705.005	7.5
705.759	8.5
706.513	4.5
707.266	5.5
708.02	6.5
708.774	7.5
709.527	3.5
710.28	5.5
711.034	5.5
711.787	4.5
712.54	6.5
713.293	6.5
714.046	6.5
714.799	8.5
715.552	7.5
716.305	6.5
717.058	6.5
717.81	4.5
718.563	8.5
719.315	9.5
720.068	6.5
720.82	7.5
721.573	9.5
722.325	5.5
723.077	6.5
723.829	5.5
724.581	4.5
725.333	7.5
726.085	6.5
726.836	5.5
727.588	6.5
728.34	5.5
729.091	8.5
729.843	6.5
730.594	7.5
731.346	4.5
732.097	6.5
732.848	6.5
733.599	7.5
734.35	8.5
735.101	7.5
735.852	6.5
736.603	7.5
737.354	6.5
738.104	8.5
738.855	8.5
739.605	7.5
740.356	7.5
741.106	6.5
741.856	7.5
742.607	8.5
743.357	4.5
744.107	8.5
744.857	9.5
745.607	8.5
746.357	8.5
747.106	9.5
747.856	9.5
748.606	9.5
749.355	8.5
750.105	9.5
750.854	6.5
751.603	8.5
752.353	9.5
753.102	10.5
753.851	11.5
754.6	8.5
755.349	11.5
756.098	10.5
756.847	8.5
757.595	9.5
758.344	10.5
759.093	11.5
759.841	13.5
760.589	8.5
761.338	11.5
762.086	9.5
762.834	9.5
763.582	12.5
764.331	12.5
765.079	10.5
765.826	9.5
766.574	12.5
767.322	11.5
768.07	10.5
768.817	11.5
769.565	9.5
770.312	12.5
771.06	11.5
771.807	8.5
772.554	12.5
773.302	9.5
774.049	13.5
774.796	10.5
775.543	11.5
776.29	11.5
777.036	9.5
777.783	14.5
778.53	14.5
779.276	13.5
780.023	10.5
780.769	13.5
781.516	12.5
782.262	11.5
783.008	10.5
783.754	14.5
784.5	14.5
785.246	14.5
785.992	13.5
786.738	11.5
787.484	11.5
788.23	13.5
788.975	12.5
789.721	16.5
790.466	11.5
791.212	13.5
791.957	12.5
792.702	11.5
793.447	12.5
794.193	12.5
794.938	11.5
795.683	13.5
796.427	12.5
797.172	11.5
797.917	12.5
798.662	12.5
799.406	10.5
800.151	11.5
800.895	8.5
801.64	11.5
802.384	10.5
803.128	9.5
803.872	10.5
804.616	10.5
805.36	9.5
806.104	9.5
806.848	9.5
807.592	6.5
808.336	9.5
809.079	7.5
809.823	7.5
810.566	8.5
811.31	8.5
812.053	7.5
812.796	6.5
813.539	7.5
814.283	6.5
815.026	7.5
815.769	8.5
816.511	6.5
817.254	6.5
817.997	8.5
818.74	5.5
819.482	6.5
820.225	9.5
820.967	6.5
821.71	4.5
822.452	6.5
823.194	5.5
823.936	6.5
824.678	4.5
825.42	4.5
826.162	7.5
826.904	6.5
827.646	7.5
828.388	4.5
829.129	4.5
829.871	6.5
830.612	3.5
831.354	6.5
832.095	5.5
832.836	4.5
833.577	3.5
834.319	4.5
835.06	6.5
835.801	4.5
836.542	4.5
837.282	1.5
838.023	4.5
838.764	3.5
839.504	3.5
840.245	4.5
840.985	6.5
841.726	4.5
842.466	2.5
843.206	4.5
843.946	0.5
844.687	4.5
845.427	3.5
846.166	4.5
846.906	3.5
847.646	3.5
848.386	3.5
849.125	3.5
849.865	3.5
850.605	5.5
851.344	3.5
852.083	2.5
852.823	2.5
853.562	4.5
854.301	6.5
855.04	3.5
855.779	0.5
856.518	4.5
857.257	3.5
857.995	0.5
858.734	2.5
859.473	2.5
860.211	5.5
860.95	2.5
861.688	3.5
862.426	3.5
863.165	1.5
863.903	3.5
864.641	3.5
865.379	1.5
866.117	3.5
866.855	1.5
867.593	3.5
868.33	1.5
869.068	2.5
869.806	1.5
870.543	1.5
871.28	3.5
872.018	2.5
872.755	3.5
873.492	3.5
874.229	3.5
874.967	4.5
875.703	2.5
876.44	0.5
877.177	0.5
877.914	1.5
878.651	2.5
879.387	2.5
880.124	1.5
880.86	1.5
881.597	0.5
882.333	2.5
883.069	0.5
883.806	2.5
884.542	0.5
885.278	1.5
886.014	0.5
886.749	1.5
887.485	2.5
888.221	0.5
888.957	0.5
889.692	0.5
890.428	-0.5
891.163	1.5
891.899	0.5
892.634	1.5
893.369	-0.5
894.104	2.5
894.839	1.5
895.574	0.5
896.309	0.5
897.044	0.5
897.779	2.5
898.514	-0.5
899.248	1.5
899.983	1.5
900.717	0.5
901.452	-2.5
902.186	-0.5
902.92	0.5
903.654	0.5
904.389	-0.5
905.123	1.5
905.857	1.5
906.59	0.5
907.324	1.5
908.058	0.5
908.792	-1.5
909.525	1.5
910.259	0.5
910.992	0.5
911.726	0.5
912.459	0.5
913.192	0.5
913.925	-0.5
914.658	-1.5
915.391	-0.5
916.124	1.5
916.857	0.5
917.59	1.5
918.323	0.5
919.055	-1.5
919.788	0.5
920.521	1.5
921.253	-1.5
921.985	1.5
922.718	1.5
923.45	1.5
924.182	0.5
924.914	2.5
925.646	-0.5
926.378	-0.5
927.11	3.5
927.841	-2.5
928.573	0.5
929.305	-2.5
930.036	-0.5
930.768	1.5
931.499	0.5
932.23	2.5
932.962	0.5
933.693	0.5
934.424	0.5
935.155	0.5
935.886	0.5
936.617	0.5
937.348	0.5
938.078	0.5
938.809	1.5
939.54	0.5
940.27	0.5
941.001	0.5
941.731	-1.5
942.461	1.5
943.191	0.5
943.922	-0.5
944.652	-0.5
945.382	0.5
946.112	-0.5
946.841	-1.5
947.571	-2.5
948.301	-0.5
949.031	2.5
949.76	1.5
950.49	2.5
951.219	0.5
951.948	-0.5
952.678	0.5
953.407	1.5
954.136	2.5
954.865	-1.5
955.594	1.5
956.323	-1.5
957.052	0.5
957.78	0.5
958.509	0.5
959.238	-0.5
959.966	0.5
960.695	-0.5
961.423	0.5
962.151	0.5
962.88	0.5
963.608	0.5
964.336	0.5
965.064	-0.5
965.792	0.5
966.52	1.5
967.247	0.5
967.975	-0.5
968.703	0.5
969.43	0.5
970.158	-0.5
970.885	-0.5
971.613	-0.5
972.34	2.5
973.067	1.5
973.794	0.5
974.521	-0.5
975.248	1.5
975.975	0.5
976.702	0.5
977.429	0.5
978.156	1.5
978.882	0.5
979.609	-0.5
980.335	0.5
981.062	-2.5
981.788	-2.5
982.514	1.5
983.24	-0.5
983.967	-1.5
984.693	0.5
985.419	1.5
986.144	0.5
986.87	-0.5
987.596	1.5
988.322	-0.5
989.047	1.5
989.773	1.5
990.498	0.5
991.224	-0.5
991.949	0.5
992.674	2.5
993.399	-0.5
994.124	-1.5
994.849	0.5
995.574	2.5
996.299	-0.5
997.024	-3.5
997.749	0.5
998.473	-0.5
999.198	-0.5
999.922	-0.5
1000.647	0.5
1001.371	0.5
1002.095	1.5
1002.82	0.5
1003.544	-1.5
1004.268	4.5
1004.992	2.5
1005.716	2.5
1006.439	3.5
1007.163	2.5
1007.887	4.5
1008.611	0.5
1009.334	1.5
1010.058	2.5
1010.781	0.5
1011.504	0.5
1012.228	1.5
1012.951	1.5
1013.674	-0.5
1014.397	-0.5
1015.12	-1.5
