节点500_565_QEPB04081__95__09-52-00-999.txt的数据

Date: Thu Nov 13 09:52:00 CST 2025
User: PC
Spectrometer: QEPB0408
触发模式: 0
积分时间 (秒): 1.000000E-2
Scans to average: 1
启用暗噪声校正: true
启用非线性校正: false
滑动平均宽度: 0
X轴模式: Wavelengths
Number of Pixels in Spectrum: 1044
>>>>>Begin Spectral Data<<<<<
220.843	3.38
221.644	3.38
222.444	3.38
223.244	5.38
224.045	4.38
224.845	6.38
225.645	7.38
226.445	3.38
227.245	6.38
228.045	4.38
228.845	8.38
229.645	6.38
230.444	6.38
231.244	7.38
232.043	6.38
232.843	9.38
233.642	6.38
234.442	7.38
235.241	8.38
236.04	9.38
236.839	8.38
237.638	7.38
238.437	11.38
239.236	8.38
240.035	9.38
240.833	10.38
241.632	9.38
242.43	11.38
243.229	8.38
244.027	10.38
244.826	9.38
245.624	12.38
246.422	11.38
247.22	13.38
248.018	11.38
248.816	12.38
249.614	12.38
250.412	16.38
251.21	16.38
252.007	15.38
252.805	14.38
253.602	15.38
254.4	12.38
255.197	14.38
255.994	19.38
256.791	15.38
257.589	15.38
258.386	18.38
259.183	19.38
259.979	21.38
260.776	20.38
261.573	19.38
262.37	22.38
263.166	21.38
263.963	22.38
264.759	23.38
265.556	22.38
266.352	24.38
267.148	20.38
267.944	26.38
268.74	25.38
269.536	28.38
270.332	25.38
271.128	26.38
271.924	26.38
272.719	29.38
273.515	28.38
274.311	29.38
275.106	28.38
275.901	29.38
276.697	30.38
277.492	29.38
278.287	28.38
279.082	32.38
279.877	33.38
280.672	33.38
281.467	29.38
282.262	28.38
283.056	30.38
283.851	30.38
284.646	31.38
285.44	31.38
286.234	32.38
287.029	31.38
287.823	30.38
288.617	29.38
289.411	31.38
290.205	31.38
290.999	26.38
291.793	28.38
292.587	26.38
293.381	28.38
294.174	28.38
294.968	26.38
295.761	25.38
296.555	25.38
297.348	23.38
298.141	23.38
298.935	26.38
299.728	24.38
300.521	19.38
301.314	21.38
302.107	20.38
302.899	19.38
303.692	21.38
304.485	18.38
305.277	18.38
306.07	16.38
306.862	19.38
307.655	17.38
308.447	16.38
309.239	18.38
310.031	19.38
310.823	15.38
311.615	13.38
312.407	15.38
313.199	16.38
313.991	14.38
314.783	15.38
315.574	13.38
316.366	13.38
317.157	11.38
317.949	13.38
318.74	9.38
319.531	10.38
320.322	10.38
321.113	11.38
321.904	11.38
322.695	10.38
323.486	13.38
324.277	11.38
325.068	10.38
325.858	10.38
326.649	13.38
327.439	10.38
328.23	10.38
329.02	11.38
329.81	9.38
330.6	12.38
331.391	13.38
332.181	10.38
332.971	12.38
333.76	8.38
334.55	10.38
335.34	11.38
336.13	11.38
336.919	10.38
337.709	11.38
338.498	12.38
339.287	8.38
340.077	7.38
340.866	9.38
341.655	7.38
342.444	11.38
343.233	8.38
344.022	11.38
344.811	7.38
345.6	12.38
346.388	10.38
347.177	9.38
347.965	9.38
348.754	9.38
349.542	9.38
350.33	9.38
351.119	8.38
351.907	10.38
352.695	10.38
353.483	10.38
354.271	6.38
355.059	10.38
355.846	9.38
356.634	10.38
357.422	9.38
358.209	9.38
358.997	10.38
359.784	9.38
360.571	10.38
361.359	7.38
362.146	10.38
362.933	10.38
363.72	7.38
364.507	8.38
365.294	7.38
366.081	9.38
366.867	7.38
367.654	8.38
368.44	8.38
369.227	8.38
370.013	9.38
370.8	8.38
371.586	7.38
372.372	9.38
373.158	8.38
373.944	8.38
374.73	9.38
375.516	8.38
376.302	9.38
377.088	7.38
377.873	9.38
378.659	8.38
379.445	8.38
380.23	7.38
381.015	7.38
381.801	11.38
382.586	9.38
383.371	8.38
384.156	6.38
384.941	8.38
385.726	9.38
386.511	10.38
387.296	9.38
388.08	11.38
388.865	8.38
389.649	9.38
390.434	8.38
391.218	9.38
392.003	11.38
392.787	9.38
393.571	13.38
394.355	9.38
395.139	9.38
395.923	11.38
396.707	11.38
397.491	12.38
398.274	12.38
399.058	11.38
399.842	12.38
400.625	14.38
401.408	10.38
402.192	9.38
402.975	11.38
403.758	13.38
404.541	13.38
405.324	11.38
406.107	12.38
406.89	13.38
407.673	13.38
408.456	14.38
409.238	12.38
410.021	14.38
410.803	11.38
411.586	13.38
412.368	14.38
413.151	15.38
413.933	16.38
414.715	15.38
415.497	16.38
416.279	15.38
417.061	16.38
417.843	16.38
418.624	18.38
419.406	17.38
420.188	17.38
420.969	17.38
421.751	15.38
422.532	18.38
423.313	19.38
424.095	21.38
424.876	22.38
425.657	21.38
426.438	21.38
427.219	20.38
428	22.38
428.78	24.38
429.561	24.38
430.342	23.38
431.122	27.38
431.903	27.38
432.683	27.38
433.464	30.38
434.244	30.38
435.024	32.38
435.804	32.38
436.584	32.38
437.364	36.38
438.144	40.38
438.924	38.38
439.704	40.38
440.483	45.38
441.263	44.38
442.042	47.38
442.822	52.38
443.601	56.38
444.38	57.38
445.16	65.38
445.939	69.38
446.718	77.38
447.497	78.38
448.276	90.38
449.054	93.38
449.833	104.38
450.612	115.38
451.391	126.38
452.169	135.38
452.948	149.38
453.726	166.38
454.504	180.38
455.282	208.38
456.061	228.38
456.839	254.38
457.617	288.38
458.395	316.38
459.172	349.38
459.95	387.38
460.728	439.38
461.506	493.38
462.283	553.38
463.061	620.38
463.838	685.38
464.615	768.38
465.393	849.38
466.17	954.38
466.947	1058.38
467.724	1187.38
468.501	1329.38
469.278	1482.38
470.055	1628.38
470.831	1829.38
471.608	2030.38
472.385	2242.38
473.161	2528.38
473.938	2780.38
474.714	3064.38
475.49	3387.38
476.266	3732.38
477.043	4111.38
477.819	4562.38
478.595	5009.38
479.371	5507.38
480.146	6045.38
480.922	6689.38
481.698	7326.38
482.473	7984.38
483.249	8728.38
484.024	9572.38
484.8	10570.38
485.575	11469.38
486.35	12480.38
487.126	13621.38
487.901	14885.38
488.676	16198.38
489.451	17591.38
490.225	19068.38
491	20588.38
491.775	22193.38
492.55	23915.38
493.324	25524.38
494.099	27202.38
494.873	28996.38
495.647	30828.38
496.422	32656.38
497.196	34380.38
497.97	36066.38
498.744	37562.38
499.518	38966.38
500.292	40289.38
501.066	41309.38
501.839	42365.38
502.613	43067.38
503.387	43568.38
504.16	43938.38
504.934	43974.38
505.707	43684.38
506.48	43246.38
507.253	42740.38
508.027	41841.38
508.8	40748.38
509.573	39635.38
510.346	38362.38
511.118	37068.38
511.891	35906.38
512.664	34462.38
513.437	33030.38
514.209	31583.38
514.982	30345.38
515.754	29115.38
516.526	27779.38
517.298	26635.38
518.071	25472.38
518.843	24490.38
519.615	23466.38
520.387	22526.38
521.159	21717.38
521.93	20712.38
522.702	19861.38
523.474	19077.38
524.245	18273.38
525.017	17532.38
525.788	16705.38
526.56	15919.38
527.331	15202.38
528.102	14481.38
528.873	13664.38
529.644	13018.38
530.415	12301.38
531.186	11684.38
531.957	11070.38
532.728	10531.38
533.498	9951.38
534.269	9389.38
535.039	8861.38
535.81	8393.38
536.58	7974.38
537.351	7490.38
538.121	7056.38
538.891	6700.38
539.661	6325.38
540.431	6000.38
541.201	5678.38
541.971	5370.38
542.741	5117.38
543.51	4828.38
544.28	4605.38
545.05	4379.38
545.819	4151.38
546.588	3940.38
547.358	3750.38
548.127	3556.38
548.896	3396.38
549.665	3197.38
550.434	3037.38
551.203	2864.38
551.972	2718.38
552.741	2563.38
553.51	2437.38
554.278	2299.38
555.047	2156.38
555.815	2045.38
556.584	1935.38
557.352	1844.38
558.121	1727.38
558.889	1621.38
559.657	1534.38
560.425	1446.38
561.193	1373.38
561.961	1296.38
562.729	1233.38
563.496	1160.38
564.264	1103.38
565.032	1050.38
565.799	970.38
566.567	936.38
567.334	885.38
568.101	832.38
568.869	782.38
569.636	750.38
570.403	705.38
571.17	657.38
571.937	628.38
572.704	592.38
573.471	549.38
574.237	514.38
575.004	488.38
575.771	468.38
576.537	441.38
577.303	411.38
578.07	391.38
578.836	373.38
579.602	345.38
580.368	326.38
581.134	311.38
581.9	300.38
582.666	280.38
583.432	270.38
584.198	252.38
584.964	242.38
585.729	228.38
586.495	213.38
587.26	198.38
588.025	199.38
588.791	182.38
589.556	175.38
590.321	164.38
591.086	157.38
591.851	149.38
592.616	145.38
593.381	137.38
594.146	132.38
594.911	125.38
595.675	118.38
596.44	111.38
597.204	107.38
597.969	105.38
598.733	100.38
599.497	92.38
600.261	93.38
601.025	86.38
601.79	83.38
602.553	80.38
603.317	80.38
604.081	71.38
604.845	74.38
605.609	71.38
606.372	67.38
607.136	66.38
607.899	60.38
608.662	58.38
609.426	54.38
610.189	59.38
610.952	53.38
611.715	52.38
612.478	51.38
613.241	46.38
614.004	46.38
614.767	41.38
615.529	43.38
616.292	40.38
617.055	38.38
617.817	36.38
618.579	39.38
619.342	36.38
620.104	34.38
620.866	34.38
621.628	31.38
622.39	29.38
623.152	29.38
623.914	25.38
624.676	30.38
625.438	28.38
626.199	22.38
626.961	26.38
627.722	25.38
628.484	26.38
629.245	23.38
630.006	22.38
630.768	24.38
631.529	20.38
632.29	22.38
633.051	22.38
633.812	21.38
634.573	18.38
635.333	16.38
636.094	20.38
636.855	18.38
637.615	15.38
638.376	20.38
639.136	19.38
639.896	12.38
640.657	16.38
641.417	17.38
642.177	15.38
642.937	12.38
643.697	15.38
644.457	14.38
645.216	12.38
645.976	14.38
646.736	13.38
647.495	13.38
648.255	13.38
649.014	14.38
649.774	11.38
650.533	11.38
651.292	11.38
652.051	12.38
652.81	12.38
653.569	10.38
654.328	12.38
655.087	10.38
655.846	7.38
656.604	10.38
657.363	10.38
658.121	10.38
658.88	10.38
659.638	9.38
660.397	8.38
661.155	12.38
661.913	9.38
662.671	10.38
663.429	9.38
664.187	9.38
664.945	8.38
665.703	9.38
666.46	7.38
667.218	9.38
667.976	7.38
668.733	8.38
669.49	6.38
670.248	9.38
671.005	8.38
671.762	8.38
672.519	8.38
673.276	8.38
674.033	6.38
674.79	7.38
675.547	7.38
676.304	6.38
677.06	4.38
677.817	8.38
678.574	5.38
679.33	8.38
680.086	5.38
680.843	7.38
681.599	6.38
682.355	7.38
683.111	10.38
683.867	8.38
684.623	8.38
685.379	7.38
686.135	7.38
686.89	4.38
687.646	6.38
688.402	6.38
689.157	8.38
689.912	6.38
690.668	4.38
691.423	9.38
692.178	6.38
692.933	6.38
693.688	6.38
694.443	6.38
695.198	6.38
695.953	7.38
696.708	5.38
697.462	5.38
698.217	8.38
698.972	6.38
699.726	5.38
700.48	7.38
701.235	5.38
701.989	8.38
702.743	7.38
703.497	7.38
704.251	6.38
705.005	6.38
705.759	6.38
706.513	6.38
707.266	7.38
708.02	6.38
708.774	6.38
709.527	8.38
710.28	7.38
711.034	4.38
711.787	6.38
712.54	6.38
713.293	6.38
714.046	7.38
714.799	4.38
715.552	7.38
716.305	8.38
717.058	7.38
717.81	8.38
718.563	9.38
719.315	6.38
720.068	6.38
720.82	5.38
721.573	6.38
722.325	6.38
723.077	4.38
723.829	4.38
724.581	6.38
725.333	8.38
726.085	8.38
726.836	7.38
727.588	8.38
728.34	7.38
729.091	5.38
729.843	6.38
730.594	8.38
731.346	7.38
732.097	9.38
732.848	10.38
733.599	9.38
734.35	7.38
735.101	8.38
735.852	8.38
736.603	8.38
737.354	8.38
738.104	7.38
738.855	8.38
739.605	9.38
740.356	8.38
741.106	10.38
741.856	9.38
742.607	7.38
743.357	4.38
744.107	11.38
744.857	8.38
745.607	9.38
746.357	9.38
747.106	8.38
747.856	8.38
748.606	9.38
749.355	8.38
750.105	9.38
750.854	6.38
751.603	8.38
752.353	10.38
753.102	10.38
753.851	8.38
754.6	8.38
755.349	11.38
756.098	13.38
756.847	12.38
757.595	12.38
758.344	10.38
759.093	10.38
759.841	11.38
760.589	12.38
761.338	10.38
762.086	12.38
762.834	11.38
763.582	12.38
764.331	10.38
765.079	13.38
765.826	12.38
766.574	11.38
767.322	12.38
768.07	12.38
768.817	11.38
769.565	12.38
770.312	13.38
771.06	14.38
771.807	12.38
772.554	13.38
773.302	12.38
774.049	13.38
774.796	13.38
775.543	16.38
776.29	12.38
777.036	16.38
777.783	13.38
778.53	13.38
779.276	13.38
780.023	12.38
780.769	13.38
781.516	13.38
782.262	14.38
783.008	15.38
783.754	15.38
784.5	13.38
785.246	12.38
785.992	13.38
786.738	13.38
787.484	16.38
788.23	13.38
788.975	14.38
789.721	15.38
790.466	10.38
791.212	13.38
791.957	11.38
792.702	13.38
793.447	12.38
794.193	13.38
794.938	13.38
795.683	11.38
796.427	12.38
797.172	10.38
797.917	14.38
798.662	13.38
799.406	8.38
800.151	8.38
800.895	9.38
801.64	11.38
802.384	9.38
803.128	10.38
803.872	10.38
804.616	9.38
805.36	8.38
806.104	10.38
806.848	8.38
807.592	9.38
808.336	10.38
809.079	12.38
809.823	9.38
810.566	9.38
811.31	9.38
812.053	7.38
812.796	6.38
813.539	7.38
814.283	7.38
815.026	8.38
815.769	6.38
816.511	8.38
817.254	6.38
817.997	6.38
818.74	9.38
819.482	5.38
820.225	7.38
820.967	9.38
821.71	5.38
822.452	7.38
823.194	5.38
823.936	7.38
824.678	8.38
825.42	5.38
826.162	5.38
826.904	7.38
827.646	5.38
828.388	6.38
829.129	6.38
829.871	6.38
830.612	6.38
831.354	6.38
832.095	4.38
832.836	6.38
833.577	4.38
834.319	4.38
835.06	4.38
835.801	5.38
836.542	4.38
837.282	6.38
838.023	4.38
838.764	5.38
839.504	3.38
840.245	3.38
840.985	6.38
841.726	4.38
842.466	5.38
843.206	4.38
843.946	3.38
844.687	4.38
845.427	6.38
846.166	5.38
846.906	2.38
847.646	4.38
848.386	5.38
849.125	2.38
849.865	4.38
850.605	1.38
851.344	6.38
852.083	5.38
852.823	2.38
853.562	3.38
854.301	6.38
855.04	2.38
855.779	3.38
856.518	3.38
857.257	2.38
857.995	3.38
858.734	4.38
859.473	0.38
860.211	1.38
860.95	2.38
861.688	2.38
862.426	3.38
863.165	2.38
863.903	1.38
864.641	2.38
865.379	2.38
866.117	0.38
866.855	1.38
867.593	3.38
868.33	2.38
869.068	1.38
869.806	2.38
870.543	3.38
871.28	1.38
872.018	0.38
872.755	1.38
873.492	1.38
874.229	2.38
874.967	2.38
875.703	3.38
876.44	1.38
877.177	1.38
877.914	2.38
878.651	2.38
879.387	0.38
880.124	1.38
880.86	-0.62
881.597	-0.62
882.333	1.38
883.069	1.38
883.806	2.38
884.542	3.38
885.278	2.38
886.014	1.38
886.749	-0.62
887.485	3.38
888.221	0.38
888.957	1.38
889.692	2.38
890.428	1.38
891.163	-0.62
891.899	0.38
892.634	1.38
893.369	-0.62
894.104	2.38
894.839	0.38
895.574	-0.62
896.309	0.38
897.044	0.38
897.779	-0.62
898.514	0.38
899.248	0.38
899.983	0.38
900.717	0.38
901.452	-0.62
902.186	1.38
902.92	1.38
903.654	0.38
904.389	0.38
905.123	1.38
905.857	0.38
906.59	0.38
907.324	1.38
908.058	0.38
908.792	1.38
909.525	2.38
910.259	1.38
910.992	-0.62
911.726	1.38
912.459	0.38
913.192	2.38
913.925	1.38
914.658	0.38
915.391	1.38
916.124	-1.62
916.857	1.38
917.59	-0.62
918.323	0.38
919.055	0.38
919.788	-0.62
920.521	0.38
921.253	0.38
921.985	0.38
922.718	0.38
923.45	2.38
924.182	1.38
924.914	0.38
925.646	-2.62
926.378	1.38
927.11	1.38
927.841	1.38
928.573	-0.62
929.305	-0.62
930.036	-1.62
930.768	-0.62
931.499	1.38
932.23	0.38
932.962	0.38
933.693	0.38
934.424	0.38
935.155	0.38
935.886	1.38
936.617	1.38
937.348	0.38
938.078	0.38
938.809	-0.62
939.54	-1.62
940.27	0.38
941.001	0.38
941.731	-1.62
942.461	1.38
943.191	-1.62
943.922	1.38
944.652	0.38
945.382	1.38
946.112	1.38
946.841	0.38
947.571	1.38
948.301	-2.62
949.031	1.38
949.76	-0.62
950.49	0.38
951.219	-0.62
951.948	-1.62
952.678	0.38
953.407	0.38
954.136	2.38
954.865	-1.62
955.594	0.38
956.323	0.38
957.052	-0.62
957.78	2.38
958.509	0.38
959.238	1.38
959.966	0.38
960.695	0.38
961.423	-0.62
962.151	1.38
962.88	0.38
963.608	-1.62
964.336	-0.62
965.064	0.38
965.792	2.38
966.52	-0.62
967.247	0.38
967.975	-1.62
968.703	-0.62
969.43	2.38
970.158	1.38
970.885	-0.62
971.613	3.38
972.34	-0.62
973.067	-0.62
973.794	0.38
974.521	1.38
975.248	-0.62
975.975	-0.62
976.702	1.38
977.429	1.38
978.156	-1.62
978.882	-0.62
979.609	-0.62
980.335	0.38
981.062	0.38
981.788	1.38
982.514	1.38
983.24	1.38
983.967	0.38
984.693	0.38
985.419	0.38
986.144	0.38
986.87	0.38
987.596	0.38
988.322	0.38
989.047	-0.62
989.773	-0.62
990.498	-0.62
991.224	2.38
991.949	1.38
992.674	0.38
993.399	0.38
994.124	-0.62
994.849	2.38
995.574	-0.62
996.299	1.38
997.024	1.38
997.749	-0.62
998.473	-1.62
999.198	-1.62
999.922	0.38
1000.647	-2.62
1001.371	2.38
1002.095	0.38
1002.82	-1.62
1003.544	-2.62
1004.268	2.38
1004.992	2.38
1005.716	3.38
1006.439	2.38
1007.163	5.38
1007.887	3.38
1008.611	0.38
1009.334	0.38
1010.058	-0.62
1010.781	0.38
1011.504	0.38
1012.228	0.38
1012.951	0.38
1013.674	1.38
1014.397	-0.62
1015.12	0.38
