节点500_565_QEPB04081__151__09-52-55-949.txt的数据

Date: Thu Nov 13 09:52:55 CST 2025
User: PC
Spectrometer: QEPB0408
触发模式: 0
积分时间 (秒): 1.000000E-2
Scans to average: 1
启用暗噪声校正: true
启用非线性校正: false
滑动平均宽度: 0
X轴模式: Wavelengths
Number of Pixels in Spectrum: 1044
>>>>>Begin Spectral Data<<<<<
220.843	2.25
221.644	1.25
222.444	3.25
223.244	5.25
224.045	5.25
224.845	6.25
225.645	4.25
226.445	4.25
227.245	4.25
228.045	4.25
228.845	5.25
229.645	6.25
230.444	6.25
231.244	4.25
232.043	5.25
232.843	7.25
233.642	8.25
234.442	6.25
235.241	7.25
236.04	7.25
236.839	9.25
237.638	10.25
238.437	8.25
239.236	9.25
240.035	6.25
240.833	8.25
241.632	6.25
242.43	12.25
243.229	10.25
244.027	9.25
244.826	12.25
245.624	10.25
246.422	13.25
247.22	12.25
248.018	11.25
248.816	10.25
249.614	14.25
250.412	12.25
251.21	11.25
252.007	12.25
252.805	10.25
253.602	14.25
254.4	18.25
255.197	14.25
255.994	16.25
256.791	16.25
257.589	17.25
258.386	14.25
259.183	18.25
259.979	19.25
260.776	18.25
261.573	21.25
262.37	19.25
263.166	21.25
263.963	21.25
264.759	24.25
265.556	20.25
266.352	20.25
267.148	24.25
267.944	24.25
268.74	23.25
269.536	27.25
270.332	25.25
271.128	28.25
271.924	27.25
272.719	25.25
273.515	25.25
274.311	29.25
275.106	28.25
275.901	30.25
276.697	29.25
277.492	28.25
278.287	27.25
279.082	26.25
279.877	31.25
280.672	30.25
281.467	28.25
282.262	32.25
283.056	30.25
283.851	30.25
284.646	27.25
285.44	30.25
286.234	29.25
287.029	25.25
287.823	29.25
288.617	27.25
289.411	28.25
290.205	26.25
290.999	29.25
291.793	28.25
292.587	30.25
293.381	26.25
294.174	23.25
294.968	26.25
295.761	21.25
296.555	24.25
297.348	22.25
298.141	20.25
298.935	27.25
299.728	19.25
300.521	22.25
301.314	21.25
302.107	20.25
302.899	20.25
303.692	20.25
304.485	19.25
305.277	18.25
306.07	19.25
306.862	17.25
307.655	19.25
308.447	19.25
309.239	16.25
310.031	16.25
310.823	16.25
311.615	14.25
312.407	16.25
313.199	13.25
313.991	14.25
314.783	14.25
315.574	15.25
316.366	13.25
317.157	12.25
317.949	13.25
318.74	12.25
319.531	11.25
320.322	14.25
321.113	14.25
321.904	14.25
322.695	13.25
323.486	11.25
324.277	10.25
325.068	9.25
325.858	9.25
326.649	10.25
327.439	11.25
328.23	10.25
329.02	11.25
329.81	11.25
330.6	10.25
331.391	10.25
332.181	12.25
332.971	12.25
333.76	9.25
334.55	10.25
335.34	13.25
336.13	10.25
336.919	10.25
337.709	10.25
338.498	11.25
339.287	8.25
340.077	9.25
340.866	10.25
341.655	11.25
342.444	10.25
343.233	10.25
344.022	10.25
344.811	6.25
345.6	9.25
346.388	11.25
347.177	9.25
347.965	11.25
348.754	8.25
349.542	9.25
350.33	11.25
351.119	7.25
351.907	12.25
352.695	10.25
353.483	9.25
354.271	7.25
355.059	9.25
355.846	9.25
356.634	8.25
357.422	7.25
358.209	6.25
358.997	9.25
359.784	7.25
360.571	8.25
361.359	9.25
362.146	10.25
362.933	13.25
363.72	7.25
364.507	10.25
365.294	6.25
366.081	8.25
366.867	8.25
367.654	10.25
368.44	9.25
369.227	8.25
370.013	6.25
370.8	8.25
371.586	9.25
372.372	8.25
373.158	8.25
373.944	8.25
374.73	6.25
375.516	9.25
376.302	6.25
377.088	9.25
377.873	9.25
378.659	8.25
379.445	8.25
380.23	8.25
381.015	8.25
381.801	8.25
382.586	8.25
383.371	9.25
384.156	8.25
384.941	6.25
385.726	9.25
386.511	12.25
387.296	9.25
388.08	8.25
388.865	8.25
389.649	9.25
390.434	11.25
391.218	10.25
392.003	8.25
392.787	9.25
393.571	9.25
394.355	9.25
395.139	11.25
395.923	11.25
396.707	12.25
397.491	13.25
398.274	11.25
399.058	11.25
399.842	12.25
400.625	10.25
401.408	12.25
402.192	9.25
402.975	13.25
403.758	13.25
404.541	12.25
405.324	12.25
406.107	13.25
406.89	14.25
407.673	10.25
408.456	13.25
409.238	12.25
410.021	13.25
410.803	15.25
411.586	15.25
412.368	12.25
413.151	12.25
413.933	13.25
414.715	17.25
415.497	16.25
416.279	16.25
417.061	16.25
417.843	15.25
418.624	16.25
419.406	16.25
420.188	16.25
420.969	17.25
421.751	17.25
422.532	20.25
423.313	19.25
424.095	18.25
424.876	18.25
425.657	20.25
426.438	19.25
427.219	22.25
428	21.25
428.78	24.25
429.561	23.25
430.342	24.25
431.122	25.25
431.903	28.25
432.683	29.25
433.464	30.25
434.244	31.25
435.024	34.25
435.804	29.25
436.584	34.25
437.364	37.25
438.144	34.25
438.924	42.25
439.704	42.25
440.483	44.25
441.263	44.25
442.042	49.25
442.822	52.25
443.601	54.25
444.38	57.25
445.16	64.25
445.939	68.25
446.718	77.25
447.497	77.25
448.276	88.25
449.054	98.25
449.833	102.25
450.612	117.25
451.391	128.25
452.169	141.25
452.948	152.25
453.726	165.25
454.504	190.25
455.282	212.25
456.061	233.25
456.839	265.25
457.617	286.25
458.395	318.25
459.172	353.25
459.95	400.25
460.728	444.25
461.506	500.25
462.283	557.25
463.061	621.25
463.838	682.25
464.615	774.25
465.393	874.25
466.17	968.25
466.947	1078.25
467.724	1207.25
468.501	1336.25
469.278	1492.25
470.055	1651.25
470.831	1838.25
471.608	2039.25
472.385	2266.25
473.161	2504.25
473.938	2780.25
474.714	3073.25
475.49	3377.25
476.266	3719.25
477.043	4109.25
477.819	4523.25
478.595	5011.25
479.371	5478.25
480.146	6030.25
480.922	6598.25
481.698	7226.25
482.473	7912.25
483.249	8634.25
484.024	9441.25
484.8	10381.25
485.575	11245.25
486.35	12311.25
487.126	13352.25
487.901	14575.25
488.676	15777.25
489.451	17200.25
490.225	18572.25
491	20070.25
491.775	21635.25
492.55	23309.25
493.324	24779.25
494.099	26478.25
494.873	28201.25
495.647	30091.25
496.422	31858.25
497.196	33521.25
497.97	35189.25
498.744	36722.25
499.518	38031.25
500.292	39332.25
501.066	40486.25
501.839	41546.25
502.613	42241.25
503.387	42756.25
504.16	43182.25
504.934	43265.25
505.707	43103.25
506.48	42902.25
507.253	42266.25
508.027	41466.25
508.8	40498.25
509.573	39391.25
510.346	38215.25
511.118	36944.25
511.891	35807.25
512.664	34470.25
513.437	33114.25
514.209	31707.25
514.982	30411.25
515.754	29121.25
516.526	27900.25
517.298	26692.25
518.071	25632.25
518.843	24489.25
519.615	23576.25
520.387	22607.25
521.159	21680.25
521.93	20879.25
522.702	19990.25
523.474	19094.25
524.245	18389.25
525.017	17643.25
525.788	16837.25
526.56	16062.25
527.331	15334.25
528.102	14581.25
528.873	13838.25
529.644	13110.25
530.415	12473.25
531.186	11793.25
531.957	11215.25
532.728	10602.25
533.498	10033.25
534.269	9445.25
535.039	8929.25
535.81	8437.25
536.58	7989.25
537.351	7601.25
538.121	7137.25
538.891	6745.25
539.661	6403.25
540.431	6082.25
541.201	5732.25
541.971	5462.25
542.741	5166.25
543.51	4890.25
544.28	4663.25
545.05	4431.25
545.819	4238.25
546.588	3996.25
547.358	3802.25
548.127	3602.25
548.896	3438.25
549.665	3270.25
550.434	3080.25
551.203	2920.25
551.972	2751.25
552.741	2620.25
553.51	2476.25
554.278	2336.25
555.047	2178.25
555.815	2079.25
556.584	1977.25
557.352	1869.25
558.121	1771.25
558.889	1643.25
559.657	1553.25
560.425	1476.25
561.193	1389.25
561.961	1322.25
562.729	1238.25
563.496	1174.25
564.264	1112.25
565.032	1067.25
565.799	991.25
566.567	948.25
567.334	893.25
568.101	849.25
568.869	792.25
569.636	761.25
570.403	715.25
571.17	675.25
571.937	636.25
572.704	604.25
573.471	561.25
574.237	523.25
575.004	507.25
575.771	474.25
576.537	440.25
577.303	414.25
578.07	399.25
578.836	373.25
579.602	354.25
580.368	336.25
581.134	316.25
581.9	298.25
582.666	286.25
583.432	275.25
584.198	249.25
584.964	239.25
585.729	232.25
586.495	220.25
587.26	212.25
588.025	198.25
588.791	186.25
589.556	177.25
590.321	167.25
591.086	161.25
591.851	155.25
592.616	142.25
593.381	138.25
594.146	134.25
594.911	129.25
595.675	115.25
596.44	115.25
597.204	111.25
597.969	105.25
598.733	100.25
599.497	97.25
600.261	93.25
601.025	90.25
601.79	86.25
602.553	81.25
603.317	80.25
604.081	80.25
604.845	72.25
605.609	67.25
606.372	65.25
607.136	64.25
607.899	65.25
608.662	61.25
609.426	55.25
610.189	54.25
610.952	54.25
611.715	49.25
612.478	49.25
613.241	49.25
614.004	45.25
614.767	43.25
615.529	40.25
616.292	44.25
617.055	38.25
617.817	39.25
618.579	41.25
619.342	38.25
620.104	37.25
620.866	34.25
621.628	34.25
622.39	33.25
623.152	31.25
623.914	28.25
624.676	31.25
625.438	28.25
626.199	26.25
626.961	26.25
627.722	25.25
628.484	24.25
629.245	23.25
630.006	24.25
630.768	24.25
631.529	23.25
632.29	20.25
633.051	21.25
633.812	21.25
634.573	19.25
635.333	18.25
636.094	18.25
636.855	18.25
637.615	16.25
638.376	16.25
639.136	18.25
639.896	16.25
640.657	18.25
641.417	14.25
642.177	12.25
642.937	14.25
643.697	14.25
644.457	14.25
645.216	13.25
645.976	16.25
646.736	14.25
647.495	14.25
648.255	14.25
649.014	11.25
649.774	12.25
650.533	12.25
651.292	10.25
652.051	12.25
652.81	9.25
653.569	11.25
654.328	12.25
655.087	12.25
655.846	11.25
656.604	10.25
657.363	7.25
658.121	8.25
658.88	10.25
659.638	9.25
660.397	9.25
661.155	10.25
661.913	8.25
662.671	9.25
663.429	7.25
664.187	8.25
664.945	8.25
665.703	11.25
666.46	6.25
667.218	6.25
667.976	8.25
668.733	10.25
669.49	9.25
670.248	7.25
671.005	8.25
671.762	9.25
672.519	8.25
673.276	7.25
674.033	5.25
674.79	7.25
675.547	6.25
676.304	8.25
677.06	6.25
677.817	7.25
678.574	6.25
679.33	6.25
680.086	7.25
680.843	5.25
681.599	7.25
682.355	7.25
683.111	7.25
683.867	8.25
684.623	6.25
685.379	6.25
686.135	6.25
686.89	7.25
687.646	6.25
688.402	7.25
689.157	9.25
689.912	4.25
690.668	5.25
691.423	5.25
692.178	6.25
692.933	7.25
693.688	6.25
694.443	6.25
695.198	5.25
695.953	4.25
696.708	6.25
697.462	6.25
698.217	6.25
698.972	6.25
699.726	6.25
700.48	5.25
701.235	6.25
701.989	6.25
702.743	7.25
703.497	5.25
704.251	4.25
705.005	8.25
705.759	6.25
706.513	7.25
707.266	5.25
708.02	6.25
708.774	5.25
709.527	7.25
710.28	6.25
711.034	8.25
711.787	5.25
712.54	7.25
713.293	5.25
714.046	7.25
714.799	6.25
715.552	7.25
716.305	7.25
717.058	7.25
717.81	5.25
718.563	9.25
719.315	7.25
720.068	6.25
720.82	6.25
721.573	6.25
722.325	8.25
723.077	5.25
723.829	6.25
724.581	7.25
725.333	6.25
726.085	7.25
726.836	6.25
727.588	6.25
728.34	5.25
729.091	5.25
729.843	6.25
730.594	5.25
731.346	8.25
732.097	8.25
732.848	5.25
733.599	6.25
734.35	8.25
735.101	8.25
735.852	6.25
736.603	9.25
737.354	8.25
738.104	8.25
738.855	9.25
739.605	6.25
740.356	6.25
741.106	8.25
741.856	7.25
742.607	8.25
743.357	8.25
744.107	8.25
744.857	9.25
745.607	8.25
746.357	8.25
747.106	7.25
747.856	10.25
748.606	9.25
749.355	8.25
750.105	10.25
750.854	11.25
751.603	8.25
752.353	10.25
753.102	13.25
753.851	10.25
754.6	10.25
755.349	10.25
756.098	10.25
756.847	11.25
757.595	8.25
758.344	12.25
759.093	8.25
759.841	11.25
760.589	12.25
761.338	8.25
762.086	11.25
762.834	9.25
763.582	11.25
764.331	10.25
765.079	13.25
765.826	12.25
766.574	10.25
767.322	10.25
768.07	12.25
768.817	12.25
769.565	13.25
770.312	12.25
771.06	11.25
771.807	14.25
772.554	13.25
773.302	12.25
774.049	13.25
774.796	13.25
775.543	12.25
776.29	16.25
777.036	12.25
777.783	12.25
778.53	11.25
779.276	15.25
780.023	12.25
780.769	14.25
781.516	15.25
782.262	13.25
783.008	15.25
783.754	12.25
784.5	14.25
785.246	17.25
785.992	16.25
786.738	13.25
787.484	14.25
788.23	15.25
788.975	12.25
789.721	15.25
790.466	13.25
791.212	15.25
791.957	13.25
792.702	12.25
793.447	10.25
794.193	13.25
794.938	13.25
795.683	11.25
796.427	13.25
797.172	8.25
797.917	11.25
798.662	11.25
799.406	9.25
800.151	10.25
800.895	7.25
801.64	8.25
802.384	12.25
803.128	10.25
803.872	8.25
804.616	8.25
805.36	9.25
806.104	8.25
806.848	8.25
807.592	12.25
808.336	8.25
809.079	7.25
809.823	9.25
810.566	9.25
811.31	8.25
812.053	8.25
812.796	7.25
813.539	7.25
814.283	8.25
815.026	6.25
815.769	9.25
816.511	6.25
817.254	7.25
817.997	10.25
818.74	6.25
819.482	6.25
820.225	6.25
820.967	8.25
821.71	6.25
822.452	8.25
823.194	3.25
823.936	5.25
824.678	6.25
825.42	4.25
826.162	6.25
826.904	7.25
827.646	4.25
828.388	5.25
829.129	2.25
829.871	5.25
830.612	5.25
831.354	4.25
832.095	6.25
832.836	5.25
833.577	5.25
834.319	5.25
835.06	5.25
835.801	6.25
836.542	4.25
837.282	2.25
838.023	4.25
838.764	4.25
839.504	5.25
840.245	5.25
840.985	5.25
841.726	4.25
842.466	5.25
843.206	5.25
843.946	2.25
844.687	2.25
845.427	6.25
846.166	3.25
846.906	5.25
847.646	3.25
848.386	3.25
849.125	3.25
849.865	5.25
850.605	4.25
851.344	4.25
852.083	4.25
852.823	4.25
853.562	4.25
854.301	8.25
855.04	2.25
855.779	3.25
856.518	3.25
857.257	5.25
857.995	4.25
858.734	3.25
859.473	4.25
860.211	1.25
860.95	4.25
861.688	2.25
862.426	3.25
863.165	2.25
863.903	0.25
864.641	2.25
865.379	-0.75
866.117	2.25
866.855	1.25
867.593	2.25
868.33	1.25
869.068	0.25
869.806	3.25
870.543	0.25
871.28	0.25
872.018	3.25
872.755	3.25
873.492	1.25
874.229	3.25
874.967	2.25
875.703	0.25
876.44	0.25
877.177	2.25
877.914	4.25
878.651	2.25
879.387	2.25
880.124	1.25
880.86	2.25
881.597	2.25
882.333	1.25
883.069	0.25
883.806	0.25
884.542	-0.75
885.278	0.25
886.014	1.25
886.749	-0.75
887.485	0.25
888.221	2.25
888.957	2.25
889.692	0.25
890.428	0.25
891.163	0.25
891.899	-0.75
892.634	1.25
893.369	1.25
894.104	0.25
894.839	0.25
895.574	1.25
896.309	1.25
897.044	2.25
897.779	1.25
898.514	0.25
899.248	1.25
899.983	2.25
900.717	-0.75
901.452	0.25
902.186	2.25
902.92	2.25
903.654	1.25
904.389	0.25
905.123	1.25
905.857	2.25
906.59	0.25
907.324	1.25
908.058	0.25
908.792	0.25
909.525	0.25
910.259	1.25
910.992	-0.75
911.726	1.25
912.459	0.25
913.192	0.25
913.925	-0.75
914.658	1.25
915.391	-0.75
916.124	1.25
916.857	0.25
917.59	2.25
918.323	-0.75
919.055	0.25
919.788	0.25
920.521	-0.75
921.253	1.25
921.985	1.25
922.718	-0.75
923.45	0.25
924.182	-0.75
924.914	0.25
925.646	1.25
926.378	-2.75
927.11	0.25
927.841	1.25
928.573	-0.75
929.305	1.25
930.036	0.25
930.768	3.25
931.499	0.25
932.23	-1.75
932.962	0.25
933.693	1.25
934.424	-0.75
935.155	2.25
935.886	1.25
936.617	-1.75
937.348	2.25
938.078	-0.75
938.809	-0.75
939.54	0.25
940.27	-0.75
941.001	0.25
941.731	0.25
942.461	1.25
943.191	0.25
943.922	1.25
944.652	0.25
945.382	-0.75
946.112	0.25
946.841	1.25
947.571	-0.75
948.301	-0.75
949.031	-1.75
949.76	1.25
950.49	0.25
951.219	0.25
951.948	1.25
952.678	1.25
953.407	0.25
954.136	2.25
954.865	-1.75
955.594	1.25
956.323	1.25
957.052	-0.75
957.78	0.25
958.509	-0.75
959.238	-1.75
959.966	1.25
960.695	-1.75
961.423	0.25
962.151	-0.75
962.88	-2.75
963.608	0.25
964.336	-1.75
965.064	-0.75
965.792	0.25
966.52	-0.75
967.247	-0.75
967.975	1.25
968.703	0.25
969.43	0.25
970.158	0.25
970.885	1.25
971.613	0.25
972.34	0.25
973.067	0.25
973.794	-0.75
974.521	2.25
975.248	1.25
975.975	-0.75
976.702	-2.75
977.429	-0.75
978.156	0.25
978.882	1.25
979.609	1.25
980.335	0.25
981.062	0.25
981.788	0.25
982.514	-1.75
983.24	-0.75
983.967	0.25
984.693	-0.75
985.419	2.25
986.144	0.25
986.87	-0.75
987.596	-1.75
988.322	2.25
989.047	1.25
989.773	-1.75
990.498	1.25
991.224	-2.75
991.949	0.25
992.674	-2.75
993.399	1.25
994.124	-1.75
994.849	2.25
995.574	-0.75
996.299	0.25
997.024	-1.75
997.749	0.25
998.473	1.25
999.198	-1.75
999.922	1.25
1000.647	0.25
1001.371	4.25
1002.095	-0.75
1002.82	-0.75
1003.544	-1.75
1004.268	3.25
1004.992	2.25
1005.716	2.25
1006.439	2.25
1007.163	6.25
1007.887	6.25
1008.611	2.25
1009.334	0.25
1010.058	0.25
1010.781	0.25
1011.504	-1.75
1012.228	-0.75
1012.951	-0.75
1013.674	1.25
1014.397	0.25
1015.12	-1.75
