节点500_565_QEPB04081__357__09-56-21-396.txt的数据

Date: Thu Nov 13 09:56:21 CST 2025
User: PC
Spectrometer: QEPB0408
触发模式: 0
积分时间 (秒): 1.000000E-2
Scans to average: 1
启用暗噪声校正: true
启用非线性校正: false
滑动平均宽度: 0
X轴模式: Wavelengths
Number of Pixels in Spectrum: 1044
>>>>>Begin Spectral Data<<<<<
220.843	6.12
221.644	5.12
222.444	5.12
223.244	3.12
224.045	3.12
224.845	7.12
225.645	5.12
226.445	5.12
227.245	5.12
228.045	6.12
228.845	7.12
229.645	6.12
230.444	5.12
231.244	5.12
232.043	8.12
232.843	5.12
233.642	6.12
234.442	4.12
235.241	7.12
236.04	6.12
236.839	7.12
237.638	11.12
238.437	9.12
239.236	10.12
240.035	8.12
240.833	11.12
241.632	11.12
242.43	10.12
243.229	7.12
244.027	8.12
244.826	11.12
245.624	12.12
246.422	10.12
247.22	10.12
248.018	12.12
248.816	12.12
249.614	10.12
250.412	10.12
251.21	12.12
252.007	11.12
252.805	17.12
253.602	14.12
254.4	13.12
255.197	16.12
255.994	17.12
256.791	14.12
257.589	15.12
258.386	15.12
259.183	14.12
259.979	17.12
260.776	17.12
261.573	19.12
262.37	18.12
263.166	19.12
263.963	21.12
264.759	20.12
265.556	21.12
266.352	20.12
267.148	22.12
267.944	19.12
268.74	23.12
269.536	25.12
270.332	19.12
271.128	25.12
271.924	22.12
272.719	28.12
273.515	28.12
274.311	28.12
275.106	26.12
275.901	28.12
276.697	26.12
277.492	28.12
278.287	26.12
279.082	25.12
279.877	29.12
280.672	26.12
281.467	27.12
282.262	28.12
283.056	28.12
283.851	28.12
284.646	29.12
285.44	30.12
286.234	27.12
287.029	28.12
287.823	30.12
288.617	31.12
289.411	27.12
290.205	25.12
290.999	26.12
291.793	28.12
292.587	26.12
293.381	28.12
294.174	26.12
294.968	25.12
295.761	25.12
296.555	24.12
297.348	25.12
298.141	23.12
298.935	25.12
299.728	25.12
300.521	20.12
301.314	21.12
302.107	21.12
302.899	20.12
303.692	21.12
304.485	17.12
305.277	17.12
306.07	16.12
306.862	18.12
307.655	19.12
308.447	17.12
309.239	18.12
310.031	18.12
310.823	15.12
311.615	14.12
312.407	12.12
313.199	16.12
313.991	15.12
314.783	19.12
315.574	16.12
316.366	13.12
317.157	14.12
317.949	11.12
318.74	13.12
319.531	13.12
320.322	11.12
321.113	11.12
321.904	13.12
322.695	9.12
323.486	12.12
324.277	10.12
325.068	7.12
325.858	13.12
326.649	14.12
327.439	11.12
328.23	10.12
329.02	11.12
329.81	11.12
330.6	11.12
331.391	11.12
332.181	11.12
332.971	9.12
333.76	9.12
334.55	12.12
335.34	10.12
336.13	9.12
336.919	12.12
337.709	9.12
338.498	9.12
339.287	10.12
340.077	12.12
340.866	12.12
341.655	10.12
342.444	10.12
343.233	9.12
344.022	10.12
344.811	9.12
345.6	10.12
346.388	10.12
347.177	10.12
347.965	9.12
348.754	9.12
349.542	11.12
350.33	8.12
351.119	8.12
351.907	10.12
352.695	9.12
353.483	8.12
354.271	9.12
355.059	9.12
355.846	13.12
356.634	11.12
357.422	9.12
358.209	7.12
358.997	8.12
359.784	8.12
360.571	9.12
361.359	11.12
362.146	10.12
362.933	8.12
363.72	9.12
364.507	8.12
365.294	6.12
366.081	9.12
366.867	7.12
367.654	6.12
368.44	9.12
369.227	7.12
370.013	7.12
370.8	6.12
371.586	8.12
372.372	9.12
373.158	11.12
373.944	8.12
374.73	8.12
375.516	12.12
376.302	10.12
377.088	10.12
377.873	8.12
378.659	8.12
379.445	6.12
380.23	9.12
381.015	11.12
381.801	5.12
382.586	8.12
383.371	9.12
384.156	9.12
384.941	9.12
385.726	9.12
386.511	9.12
387.296	11.12
388.08	8.12
388.865	9.12
389.649	9.12
390.434	10.12
391.218	9.12
392.003	9.12
392.787	10.12
393.571	11.12
394.355	11.12
395.139	11.12
395.923	10.12
396.707	12.12
397.491	11.12
398.274	12.12
399.058	11.12
399.842	8.12
400.625	13.12
401.408	10.12
402.192	12.12
402.975	10.12
403.758	13.12
404.541	11.12
405.324	12.12
406.107	13.12
406.89	13.12
407.673	14.12
408.456	12.12
409.238	12.12
410.021	13.12
410.803	12.12
411.586	13.12
412.368	15.12
413.151	17.12
413.933	16.12
414.715	13.12
415.497	15.12
416.279	15.12
417.061	17.12
417.843	15.12
418.624	17.12
419.406	16.12
420.188	16.12
420.969	17.12
421.751	17.12
422.532	18.12
423.313	19.12
424.095	21.12
424.876	21.12
425.657	17.12
426.438	21.12
427.219	21.12
428	20.12
428.78	22.12
429.561	23.12
430.342	22.12
431.122	24.12
431.903	29.12
432.683	29.12
433.464	29.12
434.244	30.12
435.024	31.12
435.804	33.12
436.584	33.12
437.364	33.12
438.144	38.12
438.924	43.12
439.704	43.12
440.483	43.12
441.263	47.12
442.042	52.12
442.822	57.12
443.601	58.12
444.38	61.12
445.16	68.12
445.939	75.12
446.718	79.12
447.497	89.12
448.276	97.12
449.054	100.12
449.833	111.12
450.612	124.12
451.391	136.12
452.169	151.12
452.948	165.12
453.726	179.12
454.504	200.12
455.282	225.12
456.061	247.12
456.839	277.12
457.617	304.12
458.395	339.12
459.172	380.12
459.95	428.12
460.728	476.12
461.506	542.12
462.283	595.12
463.061	663.12
463.838	733.12
464.615	813.12
465.393	903.12
466.17	1007.12
466.947	1111.12
467.724	1247.12
468.501	1386.12
469.278	1545.12
470.055	1700.12
470.831	1878.12
471.608	2079.12
472.385	2275.12
473.161	2519.12
473.938	2771.12
474.714	3034.12
475.49	3354.12
476.266	3665.12
477.043	4041.12
477.819	4407.12
478.595	4847.12
479.371	5289.12
480.146	5751.12
480.922	6321.12
481.698	6884.12
482.473	7479.12
483.249	8135.12
484.024	8837.12
484.8	9634.12
485.575	10434.12
486.35	11333.12
487.126	12284.12
487.901	13290.12
488.676	14434.12
489.451	15618.12
490.225	16829.12
491	18090.12
491.775	19387.12
492.55	20905.12
493.324	22300.12
494.099	23812.12
494.873	25340.12
495.647	26966.12
496.422	28507.12
497.196	30135.12
497.97	31576.12
498.744	33003.12
499.518	34383.12
500.292	35670.12
501.066	36847.12
501.839	37956.12
502.613	38858.12
503.387	39548.12
504.16	40221.12
504.934	40422.12
505.707	40526.12
506.48	40522.12
507.253	40278.12
508.027	39705.12
508.8	39127.12
509.573	38230.12
510.346	37311.12
511.118	36451.12
511.891	35367.12
512.664	34219.12
513.437	33015.12
514.209	31683.12
514.982	30597.12
515.754	29484.12
516.526	28151.12
517.298	26989.12
518.071	25906.12
518.843	24835.12
519.615	23902.12
520.387	22924.12
521.159	22100.12
521.93	21142.12
522.702	20224.12
523.474	19374.12
524.245	18723.12
525.017	17936.12
525.788	17129.12
526.56	16300.12
527.331	15651.12
528.102	14975.12
528.873	14204.12
529.644	13561.12
530.415	12824.12
531.186	12185.12
531.957	11615.12
532.728	11032.12
533.498	10442.12
534.269	9871.12
535.039	9358.12
535.81	8854.12
536.58	8386.12
537.351	7926.12
538.121	7514.12
538.891	7102.12
539.661	6760.12
540.431	6361.12
541.201	6049.12
541.971	5715.12
542.741	5380.12
543.51	5100.12
544.28	4878.12
545.05	4644.12
545.819	4384.12
546.588	4158.12
547.358	3976.12
548.127	3790.12
548.896	3597.12
549.665	3425.12
550.434	3234.12
551.203	3076.12
551.972	2934.12
552.741	2781.12
553.51	2628.12
554.278	2452.12
555.047	2327.12
555.815	2216.12
556.584	2093.12
557.352	1990.12
558.121	1877.12
558.889	1751.12
559.657	1653.12
560.425	1565.12
561.193	1487.12
561.961	1403.12
562.729	1326.12
563.496	1235.12
564.264	1189.12
565.032	1133.12
565.799	1075.12
566.567	1000.12
567.334	960.12
568.101	881.12
568.869	847.12
569.636	799.12
570.403	766.12
571.17	721.12
571.937	680.12
572.704	633.12
573.471	598.12
574.237	568.12
575.004	533.12
575.771	504.12
576.537	476.12
577.303	446.12
578.07	426.12
578.836	401.12
579.602	373.12
580.368	357.12
581.134	343.12
581.9	318.12
582.666	309.12
583.432	295.12
584.198	274.12
584.964	254.12
585.729	247.12
586.495	235.12
587.26	222.12
588.025	210.12
588.791	204.12
589.556	190.12
590.321	183.12
591.086	172.12
591.851	161.12
592.616	151.12
593.381	147.12
594.146	142.12
594.911	137.12
595.675	127.12
596.44	118.12
597.204	123.12
597.969	111.12
598.733	110.12
599.497	102.12
600.261	98.12
601.025	94.12
601.79	91.12
602.553	86.12
603.317	83.12
604.081	81.12
604.845	77.12
605.609	72.12
606.372	69.12
607.136	70.12
607.899	68.12
608.662	61.12
609.426	61.12
610.189	56.12
610.952	57.12
611.715	53.12
612.478	50.12
613.241	51.12
614.004	45.12
614.767	45.12
615.529	43.12
616.292	41.12
617.055	43.12
617.817	41.12
618.579	37.12
619.342	37.12
620.104	38.12
620.866	35.12
621.628	36.12
622.39	31.12
623.152	35.12
623.914	30.12
624.676	29.12
625.438	28.12
626.199	31.12
626.961	26.12
627.722	29.12
628.484	26.12
629.245	27.12
630.006	25.12
630.768	25.12
631.529	20.12
632.29	24.12
633.051	22.12
633.812	22.12
634.573	21.12
635.333	22.12
636.094	19.12
636.855	18.12
637.615	20.12
638.376	15.12
639.136	16.12
639.896	19.12
640.657	16.12
641.417	17.12
642.177	14.12
642.937	14.12
643.697	16.12
644.457	12.12
645.216	10.12
645.976	14.12
646.736	15.12
647.495	13.12
648.255	16.12
649.014	12.12
649.774	14.12
650.533	14.12
651.292	11.12
652.051	11.12
652.81	13.12
653.569	11.12
654.328	10.12
655.087	11.12
655.846	12.12
656.604	12.12
657.363	11.12
658.121	9.12
658.88	10.12
659.638	8.12
660.397	10.12
661.155	11.12
661.913	10.12
662.671	11.12
663.429	10.12
664.187	9.12
664.945	9.12
665.703	8.12
666.46	10.12
667.218	10.12
667.976	7.12
668.733	7.12
669.49	7.12
670.248	9.12
671.005	10.12
671.762	10.12
672.519	6.12
673.276	10.12
674.033	5.12
674.79	8.12
675.547	8.12
676.304	9.12
677.06	9.12
677.817	8.12
678.574	7.12
679.33	6.12
680.086	9.12
680.843	5.12
681.599	7.12
682.355	7.12
683.111	7.12
683.867	8.12
684.623	6.12
685.379	7.12
686.135	6.12
686.89	6.12
687.646	6.12
688.402	7.12
689.157	8.12
689.912	6.12
690.668	9.12
691.423	5.12
692.178	9.12
692.933	7.12
693.688	6.12
694.443	6.12
695.198	7.12
695.953	9.12
696.708	7.12
697.462	5.12
698.217	9.12
698.972	6.12
699.726	6.12
700.48	5.12
701.235	6.12
701.989	5.12
702.743	6.12
703.497	5.12
704.251	7.12
705.005	6.12
705.759	5.12
706.513	7.12
707.266	4.12
708.02	6.12
708.774	8.12
709.527	6.12
710.28	7.12
711.034	5.12
711.787	7.12
712.54	9.12
713.293	7.12
714.046	4.12
714.799	5.12
715.552	8.12
716.305	6.12
717.058	6.12
717.81	5.12
718.563	6.12
719.315	5.12
720.068	8.12
720.82	7.12
721.573	7.12
722.325	6.12
723.077	5.12
723.829	6.12
724.581	6.12
725.333	6.12
726.085	7.12
726.836	7.12
727.588	7.12
728.34	7.12
729.091	9.12
729.843	6.12
730.594	8.12
731.346	9.12
732.097	8.12
732.848	7.12
733.599	5.12
734.35	7.12
735.101	7.12
735.852	8.12
736.603	6.12
737.354	7.12
738.104	9.12
738.855	5.12
739.605	6.12
740.356	8.12
741.106	10.12
741.856	7.12
742.607	8.12
743.357	8.12
744.107	6.12
744.857	12.12
745.607	5.12
746.357	8.12
747.106	9.12
747.856	9.12
748.606	8.12
749.355	7.12
750.105	7.12
750.854	11.12
751.603	11.12
752.353	8.12
753.102	7.12
753.851	9.12
754.6	11.12
755.349	11.12
756.098	9.12
756.847	9.12
757.595	12.12
758.344	9.12
759.093	9.12
759.841	12.12
760.589	10.12
761.338	12.12
762.086	11.12
762.834	9.12
763.582	11.12
764.331	10.12
765.079	10.12
765.826	13.12
766.574	10.12
767.322	11.12
768.07	11.12
768.817	13.12
769.565	11.12
770.312	14.12
771.06	13.12
771.807	10.12
772.554	13.12
773.302	12.12
774.049	12.12
774.796	13.12
775.543	12.12
776.29	11.12
777.036	14.12
777.783	12.12
778.53	15.12
779.276	15.12
780.023	14.12
780.769	16.12
781.516	12.12
782.262	13.12
783.008	14.12
783.754	13.12
784.5	15.12
785.246	13.12
785.992	13.12
786.738	14.12
787.484	16.12
788.23	11.12
788.975	14.12
789.721	11.12
790.466	13.12
791.212	10.12
791.957	11.12
792.702	13.12
793.447	12.12
794.193	13.12
794.938	13.12
795.683	10.12
796.427	13.12
797.172	10.12
797.917	13.12
798.662	12.12
799.406	13.12
800.151	10.12
800.895	12.12
801.64	10.12
802.384	12.12
803.128	11.12
803.872	11.12
804.616	10.12
805.36	11.12
806.104	10.12
806.848	9.12
807.592	9.12
808.336	10.12
809.079	10.12
809.823	8.12
810.566	7.12
811.31	7.12
812.053	7.12
812.796	6.12
813.539	9.12
814.283	7.12
815.026	7.12
815.769	10.12
816.511	7.12
817.254	9.12
817.997	8.12
818.74	9.12
819.482	9.12
820.225	7.12
820.967	6.12
821.71	7.12
822.452	7.12
823.194	9.12
823.936	8.12
824.678	5.12
825.42	7.12
826.162	8.12
826.904	5.12
827.646	5.12
828.388	7.12
829.129	7.12
829.871	7.12
830.612	5.12
831.354	7.12
832.095	4.12
832.836	8.12
833.577	8.12
834.319	8.12
835.06	5.12
835.801	3.12
836.542	7.12
837.282	6.12
838.023	6.12
838.764	5.12
839.504	6.12
840.245	4.12
840.985	6.12
841.726	7.12
842.466	5.12
843.206	4.12
843.946	4.12
844.687	6.12
845.427	3.12
846.166	5.12
846.906	8.12
847.646	5.12
848.386	5.12
849.125	3.12
849.865	4.12
850.605	5.12
851.344	7.12
852.083	6.12
852.823	5.12
853.562	5.12
854.301	4.12
855.04	3.12
855.779	4.12
856.518	2.12
857.257	4.12
857.995	3.12
858.734	2.12
859.473	4.12
860.211	5.12
860.95	2.12
861.688	5.12
862.426	4.12
863.165	5.12
863.903	2.12
864.641	4.12
865.379	3.12
866.117	4.12
866.855	4.12
867.593	3.12
868.33	2.12
869.068	3.12
869.806	2.12
870.543	2.12
871.28	2.12
872.018	2.12
872.755	0.12
873.492	3.12
874.229	3.12
874.967	4.12
875.703	2.12
876.44	3.12
877.177	-1.88
877.914	3.12
878.651	2.12
879.387	2.12
880.124	2.12
880.86	4.12
881.597	1.12
882.333	3.12
883.069	1.12
883.806	2.12
884.542	1.12
885.278	2.12
886.014	1.12
886.749	0.12
887.485	1.12
888.221	2.12
888.957	3.12
889.692	2.12
890.428	3.12
891.163	1.12
891.899	1.12
892.634	3.12
893.369	3.12
894.104	-0.88
894.839	2.12
895.574	2.12
896.309	2.12
897.044	2.12
897.779	3.12
898.514	3.12
899.248	4.12
899.983	2.12
900.717	-0.88
901.452	3.12
902.186	-2.88
902.92	2.12
903.654	0.12
904.389	0.12
905.123	3.12
905.857	0.12
906.59	0.12
907.324	1.12
908.058	0.12
908.792	0.12
909.525	0.12
910.259	1.12
910.992	1.12
911.726	1.12
912.459	0.12
913.192	2.12
913.925	1.12
914.658	3.12
915.391	0.12
916.124	1.12
916.857	1.12
917.59	0.12
918.323	1.12
919.055	-1.88
919.788	0.12
920.521	1.12
921.253	2.12
921.985	2.12
922.718	0.12
923.45	1.12
924.182	0.12
924.914	1.12
925.646	-0.88
926.378	3.12
927.11	1.12
927.841	0.12
928.573	2.12
929.305	-0.88
930.036	2.12
930.768	0.12
931.499	1.12
932.23	0.12
932.962	1.12
933.693	1.12
934.424	-0.88
935.155	1.12
935.886	2.12
936.617	2.12
937.348	0.12
938.078	0.12
938.809	1.12
939.54	-2.88
940.27	1.12
941.001	-0.88
941.731	1.12
942.461	0.12
943.191	-0.88
943.922	1.12
944.652	1.12
945.382	3.12
946.112	0.12
946.841	1.12
947.571	-0.88
948.301	-1.88
949.031	2.12
949.76	0.12
950.49	3.12
951.219	-1.88
951.948	1.12
952.678	1.12
953.407	0.12
954.136	2.12
954.865	-0.88
955.594	1.12
956.323	-0.88
957.052	3.12
957.78	-0.88
958.509	1.12
959.238	1.12
959.966	0.12
960.695	0.12
961.423	3.12
962.151	-0.88
962.88	0.12
963.608	2.12
964.336	-0.88
965.064	-0.88
965.792	1.12
966.52	-0.88
967.247	0.12
967.975	-0.88
968.703	1.12
969.43	1.12
970.158	0.12
970.885	0.12
971.613	-0.88
972.34	1.12
973.067	1.12
973.794	3.12
974.521	-0.88
975.248	0.12
975.975	2.12
976.702	1.12
977.429	-2.88
978.156	-1.88
978.882	0.12
979.609	1.12
980.335	1.12
981.062	2.12
981.788	1.12
982.514	1.12
983.24	0.12
983.967	2.12
984.693	-0.88
985.419	-0.88
986.144	2.12
986.87	1.12
987.596	-0.88
988.322	-0.88
989.047	0.12
989.773	1.12
990.498	0.12
991.224	-1.88
991.949	1.12
992.674	-0.88
993.399	0.12
994.124	-0.88
994.849	-0.88
995.574	1.12
996.299	0.12
997.024	0.12
997.749	1.12
998.473	-0.88
999.198	3.12
999.922	-0.88
1000.647	1.12
1001.371	1.12
1002.095	-0.88
1002.82	-0.88
1003.544	0.12
1004.268	5.12
1004.992	4.12
1005.716	2.12
1006.439	4.12
1007.163	3.12
1007.887	4.12
1008.611	1.12
1009.334	2.12
1010.058	0.12
1010.781	1.12
1011.504	1.12
1012.228	-0.88
1012.951	1.12
1013.674	-1.88
1014.397	1.12
1015.12	0.12
