节点500_565_QEPB04081__140__09-52-45-916.txt的数据

Date: Thu Nov 13 09:52:45 CST 2025
User: PC
Spectrometer: QEPB0408
触发模式: 0
积分时间 (秒): 1.000000E-2
Scans to average: 1
启用暗噪声校正: true
启用非线性校正: false
滑动平均宽度: 0
X轴模式: Wavelengths
Number of Pixels in Spectrum: 1044
>>>>>Begin Spectral Data<<<<<
220.843	3.25
221.644	5.25
222.444	5.25
223.244	5.25
224.045	6.25
224.845	5.25
225.645	4.25
226.445	7.25
227.245	5.25
228.045	6.25
228.845	7.25
229.645	8.25
230.444	6.25
231.244	9.25
232.043	7.25
232.843	5.25
233.642	7.25
234.442	9.25
235.241	8.25
236.04	11.25
236.839	8.25
237.638	9.25
238.437	9.25
239.236	9.25
240.035	12.25
240.833	10.25
241.632	8.25
242.43	9.25
243.229	10.25
244.027	13.25
244.826	11.25
245.624	14.25
246.422	9.25
247.22	13.25
248.018	11.25
248.816	13.25
249.614	14.25
250.412	13.25
251.21	16.25
252.007	14.25
252.805	14.25
253.602	16.25
254.4	17.25
255.197	13.25
255.994	19.25
256.791	18.25
257.589	23.25
258.386	14.25
259.183	20.25
259.979	20.25
260.776	19.25
261.573	24.25
262.37	20.25
263.166	23.25
263.963	19.25
264.759	23.25
265.556	24.25
266.352	21.25
267.148	28.25
267.944	26.25
268.74	26.25
269.536	25.25
270.332	31.25
271.128	29.25
271.924	28.25
272.719	29.25
273.515	31.25
274.311	31.25
275.106	30.25
275.901	31.25
276.697	32.25
277.492	32.25
278.287	31.25
279.082	30.25
279.877	33.25
280.672	31.25
281.467	31.25
282.262	31.25
283.056	30.25
283.851	33.25
284.646	29.25
285.44	31.25
286.234	30.25
287.029	31.25
287.823	33.25
288.617	29.25
289.411	26.25
290.205	27.25
290.999	27.25
291.793	28.25
292.587	29.25
293.381	29.25
294.174	24.25
294.968	28.25
295.761	24.25
296.555	24.25
297.348	25.25
298.141	22.25
298.935	23.25
299.728	21.25
300.521	23.25
301.314	19.25
302.107	23.25
302.899	21.25
303.692	19.25
304.485	18.25
305.277	21.25
306.07	22.25
306.862	18.25
307.655	17.25
308.447	19.25
309.239	20.25
310.031	17.25
310.823	19.25
311.615	16.25
312.407	17.25
313.199	16.25
313.991	15.25
314.783	16.25
315.574	14.25
316.366	14.25
317.157	14.25
317.949	15.25
318.74	14.25
319.531	14.25
320.322	11.25
321.113	12.25
321.904	13.25
322.695	13.25
323.486	10.25
324.277	12.25
325.068	11.25
325.858	10.25
326.649	11.25
327.439	11.25
328.23	13.25
329.02	11.25
329.81	11.25
330.6	12.25
331.391	12.25
332.181	13.25
332.971	11.25
333.76	14.25
334.55	10.25
335.34	11.25
336.13	10.25
336.919	12.25
337.709	11.25
338.498	9.25
339.287	11.25
340.077	13.25
340.866	11.25
341.655	9.25
342.444	12.25
343.233	11.25
344.022	9.25
344.811	10.25
345.6	10.25
346.388	10.25
347.177	10.25
347.965	8.25
348.754	9.25
349.542	10.25
350.33	10.25
351.119	11.25
351.907	10.25
352.695	9.25
353.483	10.25
354.271	10.25
355.059	8.25
355.846	10.25
356.634	10.25
357.422	10.25
358.209	8.25
358.997	9.25
359.784	10.25
360.571	11.25
361.359	8.25
362.146	6.25
362.933	12.25
363.72	10.25
364.507	11.25
365.294	10.25
366.081	7.25
366.867	9.25
367.654	8.25
368.44	10.25
369.227	9.25
370.013	9.25
370.8	11.25
371.586	9.25
372.372	9.25
373.158	10.25
373.944	11.25
374.73	9.25
375.516	8.25
376.302	7.25
377.088	7.25
377.873	9.25
378.659	9.25
379.445	8.25
380.23	12.25
381.015	11.25
381.801	9.25
382.586	9.25
383.371	13.25
384.156	9.25
384.941	12.25
385.726	10.25
386.511	10.25
387.296	11.25
388.08	11.25
388.865	10.25
389.649	11.25
390.434	8.25
391.218	6.25
392.003	12.25
392.787	12.25
393.571	10.25
394.355	11.25
395.139	13.25
395.923	11.25
396.707	14.25
397.491	10.25
398.274	11.25
399.058	11.25
399.842	11.25
400.625	12.25
401.408	13.25
402.192	12.25
402.975	13.25
403.758	15.25
404.541	15.25
405.324	14.25
406.107	13.25
406.89	12.25
407.673	12.25
408.456	14.25
409.238	17.25
410.021	13.25
410.803	14.25
411.586	14.25
412.368	16.25
413.151	18.25
413.933	17.25
414.715	15.25
415.497	16.25
416.279	18.25
417.061	16.25
417.843	17.25
418.624	17.25
419.406	18.25
420.188	18.25
420.969	18.25
421.751	18.25
422.532	19.25
423.313	20.25
424.095	20.25
424.876	21.25
425.657	21.25
426.438	18.25
427.219	23.25
428	23.25
428.78	22.25
429.561	25.25
430.342	26.25
431.122	25.25
431.903	29.25
432.683	28.25
433.464	30.25
434.244	31.25
435.024	32.25
435.804	33.25
436.584	35.25
437.364	37.25
438.144	38.25
438.924	39.25
439.704	44.25
440.483	41.25
441.263	47.25
442.042	49.25
442.822	51.25
443.601	57.25
444.38	59.25
445.16	65.25
445.939	73.25
446.718	79.25
447.497	82.25
448.276	88.25
449.054	98.25
449.833	106.25
450.612	117.25
451.391	128.25
452.169	137.25
452.948	160.25
453.726	168.25
454.504	184.25
455.282	212.25
456.061	229.25
456.839	264.25
457.617	286.25
458.395	319.25
459.172	355.25
459.95	401.25
460.728	447.25
461.506	495.25
462.283	556.25
463.061	627.25
463.838	686.25
464.615	768.25
465.393	865.25
466.17	976.25
466.947	1078.25
467.724	1211.25
468.501	1344.25
469.278	1487.25
470.055	1654.25
470.831	1857.25
471.608	2041.25
472.385	2247.25
473.161	2511.25
473.938	2797.25
474.714	3095.25
475.49	3398.25
476.266	3718.25
477.043	4106.25
477.819	4540.25
478.595	4991.25
479.371	5456.25
480.146	6004.25
480.922	6633.25
481.698	7222.25
482.473	7887.25
483.249	8652.25
484.024	9461.25
484.8	10354.25
485.575	11299.25
486.35	12277.25
487.126	13405.25
487.901	14586.25
488.676	15869.25
489.451	17221.25
490.225	18636.25
491	20119.25
491.775	21677.25
492.55	23341.25
493.324	24933.25
494.099	26574.25
494.873	28325.25
495.647	30164.25
496.422	31969.25
497.196	33574.25
497.97	35259.25
498.744	36780.25
499.518	38109.25
500.292	39442.25
501.066	40539.25
501.839	41628.25
502.613	42295.25
503.387	42894.25
504.16	43271.25
504.934	43378.25
505.707	43154.25
506.48	42840.25
507.253	42369.25
508.027	41518.25
508.8	40469.25
509.573	39511.25
510.346	38255.25
511.118	37094.25
511.891	35810.25
512.664	34470.25
513.437	33054.25
514.209	31671.25
514.982	30399.25
515.754	29185.25
516.526	27901.25
517.298	26635.25
518.071	25562.25
518.843	24568.25
519.615	23577.25
520.387	22610.25
521.159	21709.25
521.93	20849.25
522.702	19948.25
523.474	19165.25
524.245	18331.25
525.017	17609.25
525.788	16782.25
526.56	15987.25
527.331	15299.25
528.102	14599.25
528.873	13811.25
529.644	13137.25
530.415	12416.25
531.186	11758.25
531.957	11175.25
532.728	10608.25
533.498	10039.25
534.269	9473.25
535.039	8935.25
535.81	8437.25
536.58	8010.25
537.351	7597.25
538.121	7150.25
538.891	6746.25
539.661	6411.25
540.431	6073.25
541.201	5743.25
541.971	5435.25
542.741	5136.25
543.51	4878.25
544.28	4642.25
545.05	4426.25
545.819	4192.25
546.588	4007.25
547.358	3792.25
548.127	3590.25
548.896	3445.25
549.665	3255.25
550.434	3079.25
551.203	2938.25
551.972	2761.25
552.741	2587.25
553.51	2464.25
554.278	2311.25
555.047	2181.25
555.815	2081.25
556.584	1957.25
557.352	1857.25
558.121	1757.25
558.889	1655.25
559.657	1554.25
560.425	1478.25
561.193	1386.25
561.961	1302.25
562.729	1246.25
563.496	1180.25
564.264	1112.25
565.032	1050.25
565.799	997.25
566.567	944.25
567.334	894.25
568.101	844.25
568.869	792.25
569.636	761.25
570.403	707.25
571.17	674.25
571.937	633.25
572.704	603.25
573.471	563.25
574.237	535.25
575.004	499.25
575.771	475.25
576.537	439.25
577.303	425.25
578.07	392.25
578.836	365.25
579.602	352.25
580.368	338.25
581.134	314.25
581.9	304.25
582.666	287.25
583.432	275.25
584.198	259.25
584.964	245.25
585.729	232.25
586.495	220.25
587.26	209.25
588.025	203.25
588.791	184.25
589.556	178.25
590.321	172.25
591.086	162.25
591.851	159.25
592.616	146.25
593.381	135.25
594.146	137.25
594.911	127.25
595.675	121.25
596.44	114.25
597.204	113.25
597.969	108.25
598.733	103.25
599.497	96.25
600.261	94.25
601.025	91.25
601.79	86.25
602.553	83.25
603.317	79.25
604.081	76.25
604.845	73.25
605.609	69.25
606.372	69.25
607.136	62.25
607.899	59.25
608.662	57.25
609.426	62.25
610.189	56.25
610.952	52.25
611.715	53.25
612.478	50.25
613.241	49.25
614.004	44.25
614.767	43.25
615.529	44.25
616.292	42.25
617.055	39.25
617.817	37.25
618.579	38.25
619.342	37.25
620.104	37.25
620.866	35.25
621.628	36.25
622.39	29.25
623.152	31.25
623.914	32.25
624.676	30.25
625.438	29.25
626.199	28.25
626.961	27.25
627.722	29.25
628.484	25.25
629.245	22.25
630.006	24.25
630.768	25.25
631.529	22.25
632.29	22.25
633.051	22.25
633.812	19.25
634.573	18.25
635.333	20.25
636.094	19.25
636.855	21.25
637.615	20.25
638.376	19.25
639.136	16.25
639.896	17.25
640.657	17.25
641.417	17.25
642.177	16.25
642.937	16.25
643.697	16.25
644.457	13.25
645.216	15.25
645.976	17.25
646.736	14.25
647.495	13.25
648.255	14.25
649.014	13.25
649.774	13.25
650.533	14.25
651.292	13.25
652.051	10.25
652.81	10.25
653.569	12.25
654.328	12.25
655.087	8.25
655.846	10.25
656.604	12.25
657.363	12.25
658.121	8.25
658.88	11.25
659.638	12.25
660.397	11.25
661.155	8.25
661.913	9.25
662.671	12.25
663.429	10.25
664.187	9.25
664.945	11.25
665.703	9.25
666.46	8.25
667.218	8.25
667.976	11.25
668.733	8.25
669.49	7.25
670.248	8.25
671.005	7.25
671.762	9.25
672.519	11.25
673.276	7.25
674.033	8.25
674.79	8.25
675.547	8.25
676.304	8.25
677.06	8.25
677.817	6.25
678.574	5.25
679.33	8.25
680.086	10.25
680.843	8.25
681.599	9.25
682.355	8.25
683.111	9.25
683.867	8.25
684.623	7.25
685.379	8.25
686.135	9.25
686.89	6.25
687.646	7.25
688.402	7.25
689.157	7.25
689.912	5.25
690.668	7.25
691.423	9.25
692.178	7.25
692.933	7.25
693.688	6.25
694.443	7.25
695.198	6.25
695.953	8.25
696.708	7.25
697.462	7.25
698.217	7.25
698.972	7.25
699.726	8.25
700.48	3.25
701.235	5.25
701.989	5.25
702.743	6.25
703.497	8.25
704.251	5.25
705.005	7.25
705.759	6.25
706.513	7.25
707.266	8.25
708.02	7.25
708.774	7.25
709.527	6.25
710.28	7.25
711.034	8.25
711.787	9.25
712.54	4.25
713.293	8.25
714.046	6.25
714.799	6.25
715.552	6.25
716.305	7.25
717.058	7.25
717.81	6.25
718.563	6.25
719.315	8.25
720.068	7.25
720.82	6.25
721.573	7.25
722.325	9.25
723.077	7.25
723.829	8.25
724.581	4.25
725.333	9.25
726.085	9.25
726.836	7.25
727.588	8.25
728.34	7.25
729.091	8.25
729.843	9.25
730.594	7.25
731.346	6.25
732.097	8.25
732.848	12.25
733.599	8.25
734.35	8.25
735.101	7.25
735.852	10.25
736.603	5.25
737.354	6.25
738.104	8.25
738.855	7.25
739.605	9.25
740.356	9.25
741.106	8.25
741.856	8.25
742.607	9.25
743.357	9.25
744.107	11.25
744.857	10.25
745.607	9.25
746.357	11.25
747.106	10.25
747.856	7.25
748.606	10.25
749.355	10.25
750.105	12.25
750.854	10.25
751.603	10.25
752.353	10.25
753.102	9.25
753.851	13.25
754.6	12.25
755.349	12.25
756.098	13.25
756.847	13.25
757.595	13.25
758.344	12.25
759.093	13.25
759.841	9.25
760.589	12.25
761.338	14.25
762.086	13.25
762.834	13.25
763.582	11.25
764.331	14.25
765.079	9.25
765.826	13.25
766.574	11.25
767.322	13.25
768.07	13.25
768.817	16.25
769.565	13.25
770.312	10.25
771.06	13.25
771.807	14.25
772.554	13.25
773.302	15.25
774.049	15.25
774.796	14.25
775.543	14.25
776.29	16.25
777.036	14.25
777.783	16.25
778.53	12.25
779.276	14.25
780.023	14.25
780.769	12.25
781.516	14.25
782.262	13.25
783.008	15.25
783.754	14.25
784.5	14.25
785.246	14.25
785.992	13.25
786.738	14.25
787.484	17.25
788.23	16.25
788.975	15.25
789.721	14.25
790.466	15.25
791.212	12.25
791.957	16.25
792.702	13.25
793.447	15.25
794.193	12.25
794.938	10.25
795.683	14.25
796.427	11.25
797.172	13.25
797.917	10.25
798.662	12.25
799.406	11.25
800.151	11.25
800.895	13.25
801.64	10.25
802.384	12.25
803.128	9.25
803.872	13.25
804.616	10.25
805.36	11.25
806.104	9.25
806.848	9.25
807.592	8.25
808.336	6.25
809.079	13.25
809.823	9.25
810.566	8.25
811.31	10.25
812.053	9.25
812.796	13.25
813.539	10.25
814.283	11.25
815.026	7.25
815.769	9.25
816.511	8.25
817.254	5.25
817.997	10.25
818.74	8.25
819.482	6.25
820.225	7.25
820.967	7.25
821.71	9.25
822.452	5.25
823.194	6.25
823.936	6.25
824.678	8.25
825.42	5.25
826.162	7.25
826.904	8.25
827.646	6.25
828.388	9.25
829.129	6.25
829.871	8.25
830.612	6.25
831.354	4.25
832.095	5.25
832.836	9.25
833.577	8.25
834.319	5.25
835.06	8.25
835.801	3.25
836.542	5.25
837.282	7.25
838.023	4.25
838.764	8.25
839.504	6.25
840.245	8.25
840.985	6.25
841.726	5.25
842.466	7.25
843.206	7.25
843.946	3.25
844.687	5.25
845.427	6.25
846.166	6.25
846.906	3.25
847.646	4.25
848.386	6.25
849.125	5.25
849.865	5.25
850.605	7.25
851.344	5.25
852.083	5.25
852.823	4.25
853.562	3.25
854.301	5.25
855.04	0.25
855.779	5.25
856.518	6.25
857.257	5.25
857.995	6.25
858.734	4.25
859.473	3.25
860.211	3.25
860.95	3.25
861.688	1.25
862.426	6.25
863.165	3.25
863.903	2.25
864.641	3.25
865.379	2.25
866.117	3.25
866.855	4.25
867.593	5.25
868.33	4.25
869.068	2.25
869.806	3.25
870.543	3.25
871.28	3.25
872.018	2.25
872.755	4.25
873.492	3.25
874.229	3.25
874.967	1.25
875.703	2.25
876.44	2.25
877.177	3.25
877.914	3.25
878.651	3.25
879.387	2.25
880.124	3.25
880.86	-0.75
881.597	3.25
882.333	1.25
883.069	1.25
883.806	1.25
884.542	3.25
885.278	4.25
886.014	4.25
886.749	3.25
887.485	2.25
888.221	2.25
888.957	1.25
889.692	-0.75
890.428	1.25
891.163	-0.75
891.899	5.25
892.634	2.25
893.369	1.25
894.104	2.25
894.839	3.25
895.574	2.25
896.309	3.25
897.044	1.25
897.779	2.25
898.514	1.25
899.248	2.25
899.983	1.25
900.717	1.25
901.452	1.25
902.186	0.25
902.92	1.25
903.654	0.25
904.389	2.25
905.123	1.25
905.857	0.25
906.59	2.25
907.324	3.25
908.058	2.25
908.792	1.25
909.525	1.25
910.259	2.25
910.992	1.25
911.726	2.25
912.459	0.25
913.192	0.25
913.925	3.25
914.658	-1.75
915.391	2.25
916.124	1.25
916.857	1.25
917.59	1.25
918.323	-0.75
919.055	1.25
919.788	0.25
920.521	1.25
921.253	0.25
921.985	1.25
922.718	1.25
923.45	0.25
924.182	0.25
924.914	2.25
925.646	0.25
926.378	2.25
927.11	0.25
927.841	1.25
928.573	0.25
929.305	2.25
930.036	1.25
930.768	0.25
931.499	-1.75
932.23	2.25
932.962	1.25
933.693	1.25
934.424	1.25
935.155	-1.75
935.886	1.25
936.617	0.25
937.348	0.25
938.078	2.25
938.809	2.25
939.54	2.25
940.27	1.25
941.001	2.25
941.731	1.25
942.461	1.25
943.191	2.25
943.922	1.25
944.652	3.25
945.382	1.25
946.112	1.25
946.841	0.25
947.571	1.25
948.301	0.25
949.031	1.25
949.76	0.25
950.49	-0.75
951.219	1.25
951.948	-0.75
952.678	1.25
953.407	2.25
954.136	-0.75
954.865	1.25
955.594	-1.75
956.323	1.25
957.052	1.25
957.78	-1.75
958.509	0.25
959.238	0.25
959.966	1.25
960.695	1.25
961.423	3.25
962.151	1.25
962.88	1.25
963.608	1.25
964.336	0.25
965.064	2.25
965.792	1.25
966.52	2.25
967.247	1.25
967.975	-1.75
968.703	1.25
969.43	0.25
970.158	0.25
970.885	1.25
971.613	2.25
972.34	4.25
973.067	1.25
973.794	0.25
974.521	1.25
975.248	2.25
975.975	1.25
976.702	2.25
977.429	2.25
978.156	1.25
978.882	2.25
979.609	2.25
980.335	3.25
981.062	2.25
981.788	0.25
982.514	0.25
983.24	2.25
983.967	-0.75
984.693	3.25
985.419	1.25
986.144	-0.75
986.87	3.25
987.596	1.25
988.322	0.25
989.047	1.25
989.773	1.25
990.498	2.25
991.224	1.25
991.949	0.25
992.674	1.25
993.399	3.25
994.124	1.25
994.849	0.25
995.574	1.25
996.299	1.25
997.024	2.25
997.749	1.25
998.473	1.25
999.198	2.25
999.922	1.25
1000.647	4.25
1001.371	2.25
1002.095	-1.75
1002.82	-1.75
1003.544	-0.75
1004.268	5.25
1004.992	6.25
1005.716	4.25
1006.439	5.25
1007.163	5.25
1007.887	4.25
1008.611	-2.75
1009.334	0.25
1010.058	2.25
1010.781	2.25
1011.504	1.25
1012.228	1.25
1012.951	-0.75
1013.674	0.25
1014.397	2.25
1015.12	0.25
