节点500_565_QEPB04081__552__09-59-36-055.txt的数据

Date: Thu Nov 13 09:59:36 CST 2025
User: PC
Spectrometer: QEPB0408
触发模式: 0
积分时间 (秒): 1.000000E-2
Scans to average: 1
启用暗噪声校正: true
启用非线性校正: false
滑动平均宽度: 0
X轴模式: Wavelengths
Number of Pixels in Spectrum: 1044
>>>>>Begin Spectral Data<<<<<
220.843	2.62
221.644	3.62
222.444	2.62
223.244	4.62
224.045	2.62
224.845	3.62
225.645	2.62
226.445	5.62
227.245	7.62
228.045	4.62
228.845	5.62
229.645	6.62
230.444	3.62
231.244	6.62
232.043	6.62
232.843	6.62
233.642	6.62
234.442	8.62
235.241	6.62
236.04	10.62
236.839	6.62
237.638	7.62
238.437	5.62
239.236	8.62
240.035	7.62
240.833	9.62
241.632	11.62
242.43	7.62
243.229	8.62
244.027	8.62
244.826	9.62
245.624	9.62
246.422	7.62
247.22	12.62
248.018	11.62
248.816	11.62
249.614	10.62
250.412	9.62
251.21	11.62
252.007	8.62
252.805	12.62
253.602	10.62
254.4	11.62
255.197	13.62
255.994	12.62
256.791	15.62
257.589	14.62
258.386	18.62
259.183	16.62
259.979	16.62
260.776	16.62
261.573	17.62
262.37	16.62
263.166	13.62
263.963	18.62
264.759	17.62
265.556	18.62
266.352	21.62
267.148	19.62
267.944	20.62
268.74	21.62
269.536	20.62
270.332	22.62
271.128	22.62
271.924	22.62
272.719	23.62
273.515	22.62
274.311	27.62
275.106	24.62
275.901	23.62
276.697	26.62
277.492	23.62
278.287	18.62
279.082	24.62
279.877	23.62
280.672	28.62
281.467	25.62
282.262	27.62
283.056	27.62
283.851	27.62
284.646	26.62
285.44	23.62
286.234	27.62
287.029	25.62
287.823	27.62
288.617	24.62
289.411	26.62
290.205	25.62
290.999	27.62
291.793	28.62
292.587	25.62
293.381	25.62
294.174	24.62
294.968	22.62
295.761	23.62
296.555	23.62
297.348	21.62
298.141	19.62
298.935	24.62
299.728	20.62
300.521	22.62
301.314	20.62
302.107	20.62
302.899	15.62
303.692	17.62
304.485	20.62
305.277	16.62
306.07	17.62
306.862	17.62
307.655	17.62
308.447	16.62
309.239	14.62
310.031	15.62
310.823	18.62
311.615	16.62
312.407	12.62
313.199	16.62
313.991	16.62
314.783	13.62
315.574	12.62
316.366	12.62
317.157	12.62
317.949	13.62
318.74	11.62
319.531	12.62
320.322	12.62
321.113	11.62
321.904	10.62
322.695	11.62
323.486	12.62
324.277	7.62
325.068	10.62
325.858	11.62
326.649	8.62
327.439	11.62
328.23	9.62
329.02	10.62
329.81	11.62
330.6	10.62
331.391	9.62
332.181	9.62
332.971	8.62
333.76	10.62
334.55	9.62
335.34	9.62
336.13	8.62
336.919	9.62
337.709	10.62
338.498	10.62
339.287	8.62
340.077	10.62
340.866	8.62
341.655	7.62
342.444	7.62
343.233	10.62
344.022	9.62
344.811	8.62
345.6	8.62
346.388	9.62
347.177	10.62
347.965	10.62
348.754	9.62
349.542	8.62
350.33	8.62
351.119	8.62
351.907	10.62
352.695	8.62
353.483	8.62
354.271	8.62
355.059	7.62
355.846	8.62
356.634	8.62
357.422	10.62
358.209	8.62
358.997	7.62
359.784	7.62
360.571	9.62
361.359	8.62
362.146	7.62
362.933	8.62
363.72	7.62
364.507	7.62
365.294	8.62
366.081	8.62
366.867	8.62
367.654	9.62
368.44	7.62
369.227	8.62
370.013	6.62
370.8	6.62
371.586	8.62
372.372	9.62
373.158	8.62
373.944	6.62
374.73	8.62
375.516	6.62
376.302	8.62
377.088	6.62
377.873	6.62
378.659	8.62
379.445	4.62
380.23	6.62
381.015	5.62
381.801	11.62
382.586	8.62
383.371	6.62
384.156	6.62
384.941	7.62
385.726	8.62
386.511	9.62
387.296	8.62
388.08	8.62
388.865	8.62
389.649	7.62
390.434	9.62
391.218	8.62
392.003	9.62
392.787	8.62
393.571	8.62
394.355	10.62
395.139	6.62
395.923	12.62
396.707	9.62
397.491	8.62
398.274	11.62
399.058	12.62
399.842	12.62
400.625	10.62
401.408	8.62
402.192	9.62
402.975	12.62
403.758	11.62
404.541	10.62
405.324	11.62
406.107	12.62
406.89	11.62
407.673	16.62
408.456	10.62
409.238	12.62
410.021	9.62
410.803	13.62
411.586	10.62
412.368	13.62
413.151	13.62
413.933	14.62
414.715	12.62
415.497	12.62
416.279	13.62
417.061	12.62
417.843	14.62
418.624	13.62
419.406	16.62
420.188	17.62
420.969	15.62
421.751	17.62
422.532	16.62
423.313	17.62
424.095	15.62
424.876	18.62
425.657	17.62
426.438	20.62
427.219	20.62
428	21.62
428.78	22.62
429.561	22.62
430.342	25.62
431.122	26.62
431.903	24.62
432.683	29.62
433.464	28.62
434.244	29.62
435.024	32.62
435.804	34.62
436.584	33.62
437.364	34.62
438.144	36.62
438.924	42.62
439.704	45.62
440.483	41.62
441.263	45.62
442.042	51.62
442.822	57.62
443.601	58.62
444.38	63.62
445.16	70.62
445.939	78.62
446.718	78.62
447.497	89.62
448.276	96.62
449.054	107.62
449.833	116.62
450.612	131.62
451.391	142.62
452.169	158.62
452.948	180.62
453.726	190.62
454.504	215.62
455.282	237.62
456.061	262.62
456.839	293.62
457.617	322.62
458.395	357.62
459.172	405.62
459.95	452.62
460.728	493.62
461.506	556.62
462.283	614.62
463.061	676.62
463.838	769.62
464.615	849.62
465.393	937.62
466.17	1036.62
466.947	1159.62
467.724	1282.62
468.501	1423.62
469.278	1557.62
470.055	1714.62
470.831	1887.62
471.608	2089.62
472.385	2289.62
473.161	2525.62
473.938	2774.62
474.714	3045.62
475.49	3285.62
476.266	3623.62
477.043	3980.62
477.819	4312.62
478.595	4752.62
479.371	5107.62
480.146	5612.62
480.922	6102.62
481.698	6608.62
482.473	7156.62
483.249	7718.62
484.024	8365.62
484.8	9093.62
485.575	9876.62
486.35	10648.62
487.126	11513.62
487.901	12392.62
488.676	13396.62
489.451	14490.62
490.225	15574.62
491	16702.62
491.775	17903.62
492.55	19197.62
493.324	20483.62
494.099	21809.62
494.873	23302.62
495.647	24757.62
496.422	26128.62
497.196	27455.62
497.97	28967.62
498.744	30253.62
499.518	31609.62
500.292	32863.62
501.066	34028.62
501.839	35261.62
502.613	36128.62
503.387	36894.62
504.16	37628.62
504.934	38031.62
505.707	38364.62
506.48	38456.62
507.253	38459.62
508.027	38206.62
508.8	37756.62
509.573	37215.62
510.346	36486.62
511.118	35602.62
511.891	34859.62
512.664	33929.62
513.437	32862.62
514.209	31718.62
514.982	30599.62
515.754	29476.62
516.526	28370.62
517.298	27266.62
518.071	26261.62
518.843	25109.62
519.615	24102.62
520.387	23152.62
521.159	22260.62
521.93	21384.62
522.702	20482.62
523.474	19714.62
524.245	18938.62
525.017	18165.62
525.788	17395.62
526.56	16668.62
527.331	15954.62
528.102	15306.62
528.873	14558.62
529.644	13871.62
530.415	13141.62
531.186	12584.62
531.957	11976.62
532.728	11422.62
533.498	10805.62
534.269	10231.62
535.039	9684.62
535.81	9212.62
536.58	8697.62
537.351	8240.62
538.121	7818.62
538.891	7398.62
539.661	7032.62
540.431	6634.62
541.201	6283.62
541.971	5956.62
542.741	5632.62
543.51	5330.62
544.28	5058.62
545.05	4798.62
545.819	4591.62
546.588	4363.62
547.358	4165.62
548.127	3950.62
548.896	3775.62
549.665	3586.62
550.434	3415.62
551.203	3238.62
551.972	3056.62
552.741	2920.62
553.51	2734.62
554.278	2607.62
555.047	2462.62
555.815	2316.62
556.584	2212.62
557.352	2077.62
558.121	1944.62
558.889	1853.62
559.657	1755.62
560.425	1649.62
561.193	1558.62
561.961	1480.62
562.729	1395.62
563.496	1337.62
564.264	1245.62
565.032	1190.62
565.799	1126.62
566.567	1064.62
567.334	1008.62
568.101	938.62
568.869	906.62
569.636	845.62
570.403	804.62
571.17	758.62
571.937	707.62
572.704	660.62
573.471	632.62
574.237	596.62
575.004	560.62
575.771	535.62
576.537	507.62
577.303	479.62
578.07	451.62
578.836	415.62
579.602	395.62
580.368	376.62
581.134	358.62
581.9	335.62
582.666	324.62
583.432	310.62
584.198	286.62
584.964	274.62
585.729	253.62
586.495	252.62
587.26	234.62
588.025	225.62
588.791	207.62
589.556	200.62
590.321	190.62
591.086	181.62
591.851	170.62
592.616	160.62
593.381	154.62
594.146	151.62
594.911	137.62
595.675	133.62
596.44	123.62
597.204	124.62
597.969	114.62
598.733	111.62
599.497	102.62
600.261	103.62
601.025	100.62
601.79	98.62
602.553	95.62
603.317	86.62
604.081	82.62
604.845	78.62
605.609	72.62
606.372	75.62
607.136	68.62
607.899	66.62
608.662	66.62
609.426	64.62
610.189	58.62
610.952	59.62
611.715	56.62
612.478	51.62
613.241	50.62
614.004	47.62
614.767	46.62
615.529	44.62
616.292	42.62
617.055	45.62
617.817	43.62
618.579	36.62
619.342	37.62
620.104	36.62
620.866	38.62
621.628	32.62
622.39	34.62
623.152	32.62
623.914	30.62
624.676	29.62
625.438	28.62
626.199	26.62
626.961	28.62
627.722	28.62
628.484	24.62
629.245	25.62
630.006	25.62
630.768	26.62
631.529	20.62
632.29	20.62
633.051	21.62
633.812	18.62
634.573	22.62
635.333	16.62
636.094	14.62
636.855	19.62
637.615	19.62
638.376	19.62
639.136	16.62
639.896	15.62
640.657	14.62
641.417	18.62
642.177	13.62
642.937	16.62
643.697	13.62
644.457	12.62
645.216	15.62
645.976	14.62
646.736	14.62
647.495	14.62
648.255	12.62
649.014	11.62
649.774	12.62
650.533	12.62
651.292	9.62
652.051	9.62
652.81	8.62
653.569	9.62
654.328	11.62
655.087	10.62
655.846	11.62
656.604	11.62
657.363	10.62
658.121	10.62
658.88	9.62
659.638	12.62
660.397	6.62
661.155	8.62
661.913	8.62
662.671	7.62
663.429	6.62
664.187	7.62
664.945	9.62
665.703	8.62
666.46	8.62
667.218	8.62
667.976	7.62
668.733	9.62
669.49	8.62
670.248	9.62
671.005	9.62
671.762	7.62
672.519	6.62
673.276	6.62
674.033	8.62
674.79	6.62
675.547	6.62
676.304	7.62
677.06	7.62
677.817	6.62
678.574	6.62
679.33	7.62
680.086	7.62
680.843	6.62
681.599	6.62
682.355	9.62
683.111	4.62
683.867	7.62
684.623	9.62
685.379	6.62
686.135	6.62
686.89	5.62
687.646	4.62
688.402	8.62
689.157	4.62
689.912	4.62
690.668	5.62
691.423	5.62
692.178	3.62
692.933	6.62
693.688	6.62
694.443	7.62
695.198	5.62
695.953	5.62
696.708	7.62
697.462	6.62
698.217	4.62
698.972	4.62
699.726	5.62
700.48	4.62
701.235	6.62
701.989	3.62
702.743	7.62
703.497	5.62
704.251	4.62
705.005	6.62
705.759	3.62
706.513	6.62
707.266	6.62
708.02	4.62
708.774	4.62
709.527	4.62
710.28	4.62
711.034	4.62
711.787	7.62
712.54	6.62
713.293	4.62
714.046	5.62
714.799	4.62
715.552	6.62
716.305	5.62
717.058	8.62
717.81	4.62
718.563	6.62
719.315	5.62
720.068	4.62
720.82	6.62
721.573	5.62
722.325	4.62
723.077	6.62
723.829	4.62
724.581	9.62
725.333	4.62
726.085	8.62
726.836	4.62
727.588	8.62
728.34	5.62
729.091	7.62
729.843	5.62
730.594	5.62
731.346	7.62
732.097	5.62
732.848	6.62
733.599	8.62
734.35	6.62
735.101	6.62
735.852	5.62
736.603	7.62
737.354	7.62
738.104	9.62
738.855	5.62
739.605	5.62
740.356	4.62
741.106	6.62
741.856	7.62
742.607	6.62
743.357	6.62
744.107	8.62
744.857	6.62
745.607	4.62
746.357	7.62
747.106	7.62
747.856	7.62
748.606	6.62
749.355	6.62
750.105	8.62
750.854	8.62
751.603	7.62
752.353	6.62
753.102	9.62
753.851	6.62
754.6	8.62
755.349	8.62
756.098	9.62
756.847	8.62
757.595	9.62
758.344	7.62
759.093	9.62
759.841	7.62
760.589	9.62
761.338	8.62
762.086	10.62
762.834	8.62
763.582	9.62
764.331	9.62
765.079	6.62
765.826	11.62
766.574	9.62
767.322	11.62
768.07	12.62
768.817	12.62
769.565	11.62
770.312	7.62
771.06	11.62
771.807	12.62
772.554	13.62
773.302	11.62
774.049	9.62
774.796	12.62
775.543	11.62
776.29	10.62
777.036	11.62
777.783	13.62
778.53	10.62
779.276	12.62
780.023	10.62
780.769	14.62
781.516	13.62
782.262	12.62
783.008	11.62
783.754	12.62
784.5	10.62
785.246	12.62
785.992	11.62
786.738	12.62
787.484	11.62
788.23	11.62
788.975	10.62
789.721	12.62
790.466	11.62
791.212	12.62
791.957	11.62
792.702	13.62
793.447	11.62
794.193	10.62
794.938	10.62
795.683	10.62
796.427	10.62
797.172	9.62
797.917	8.62
798.662	8.62
799.406	11.62
800.151	12.62
800.895	9.62
801.64	6.62
802.384	9.62
803.128	9.62
803.872	9.62
804.616	11.62
805.36	10.62
806.104	7.62
806.848	8.62
807.592	6.62
808.336	7.62
809.079	8.62
809.823	8.62
810.566	9.62
811.31	9.62
812.053	6.62
812.796	8.62
813.539	5.62
814.283	5.62
815.026	7.62
815.769	8.62
816.511	4.62
817.254	6.62
817.997	6.62
818.74	5.62
819.482	6.62
820.225	3.62
820.967	7.62
821.71	5.62
822.452	6.62
823.194	5.62
823.936	4.62
824.678	6.62
825.42	5.62
826.162	8.62
826.904	4.62
827.646	4.62
828.388	3.62
829.129	5.62
829.871	4.62
830.612	2.62
831.354	5.62
832.095	6.62
832.836	5.62
833.577	5.62
834.319	5.62
835.06	4.62
835.801	4.62
836.542	5.62
837.282	5.62
838.023	4.62
838.764	6.62
839.504	2.62
840.245	4.62
840.985	1.62
841.726	4.62
842.466	2.62
843.206	3.62
843.946	2.62
844.687	2.62
845.427	2.62
846.166	4.62
846.906	5.62
847.646	2.62
848.386	1.62
849.125	2.62
849.865	2.62
850.605	4.62
851.344	2.62
852.083	5.62
852.823	2.62
853.562	6.62
854.301	3.62
855.04	4.62
855.779	2.62
856.518	2.62
857.257	1.62
857.995	1.62
858.734	3.62
859.473	4.62
860.211	2.62
860.95	2.62
861.688	3.62
862.426	2.62
863.165	1.62
863.903	3.62
864.641	2.62
865.379	3.62
866.117	2.62
866.855	0.62
867.593	2.62
868.33	2.62
869.068	1.62
869.806	-0.38
870.543	3.62
871.28	1.62
872.018	4.62
872.755	2.62
873.492	2.62
874.229	2.62
874.967	1.62
875.703	-0.38
876.44	-0.38
877.177	2.62
877.914	2.62
878.651	1.62
879.387	2.62
880.124	0.62
880.86	0.62
881.597	0.62
882.333	2.62
883.069	0.62
883.806	0.62
884.542	1.62
885.278	-0.38
886.014	0.62
886.749	2.62
887.485	1.62
888.221	2.62
888.957	0.62
889.692	1.62
890.428	0.62
891.163	1.62
891.899	1.62
892.634	-0.38
893.369	2.62
894.104	2.62
894.839	1.62
895.574	-1.38
896.309	2.62
897.044	3.62
897.779	1.62
898.514	0.62
899.248	2.62
899.983	1.62
900.717	0.62
901.452	-0.38
902.186	-1.38
902.92	0.62
903.654	2.62
904.389	1.62
905.123	1.62
905.857	-0.38
906.59	0.62
907.324	-0.38
908.058	0.62
908.792	2.62
909.525	0.62
910.259	1.62
910.992	-2.38
911.726	1.62
912.459	-3.38
913.192	-1.38
913.925	1.62
914.658	0.62
915.391	-0.38
916.124	-0.38
916.857	0.62
917.59	-2.38
918.323	-0.38
919.055	1.62
919.788	0.62
920.521	-1.38
921.253	-0.38
921.985	1.62
922.718	-0.38
923.45	1.62
924.182	-1.38
924.914	-1.38
925.646	0.62
926.378	1.62
927.11	-1.38
927.841	-0.38
928.573	1.62
929.305	0.62
930.036	1.62
930.768	-0.38
931.499	-1.38
932.23	-0.38
932.962	0.62
933.693	-0.38
934.424	0.62
935.155	-0.38
935.886	1.62
936.617	-0.38
937.348	1.62
938.078	-0.38
938.809	0.62
939.54	-1.38
940.27	0.62
941.001	1.62
941.731	0.62
942.461	-2.38
943.191	0.62
943.922	0.62
944.652	0.62
945.382	0.62
946.112	-0.38
946.841	0.62
947.571	0.62
948.301	-1.38
949.031	0.62
949.76	1.62
950.49	0.62
951.219	-0.38
951.948	-0.38
952.678	1.62
953.407	0.62
954.136	2.62
954.865	0.62
955.594	1.62
956.323	-0.38
957.052	0.62
957.78	-1.38
958.509	-1.38
959.238	-0.38
959.966	0.62
960.695	2.62
961.423	0.62
962.151	0.62
962.88	-0.38
963.608	-1.38
964.336	-1.38
965.064	0.62
965.792	1.62
966.52	1.62
967.247	1.62
967.975	0.62
968.703	-0.38
969.43	0.62
970.158	-0.38
970.885	-0.38
971.613	0.62
972.34	0.62
973.067	0.62
973.794	-0.38
974.521	0.62
975.248	-0.38
975.975	-0.38
976.702	-0.38
977.429	2.62
978.156	0.62
978.882	0.62
979.609	-0.38
980.335	-0.38
981.062	0.62
981.788	-1.38
982.514	1.62
983.24	1.62
983.967	-2.38
984.693	-0.38
985.419	-1.38
986.144	1.62
986.87	-1.38
987.596	-1.38
988.322	0.62
989.047	-2.38
989.773	0.62
990.498	-0.38
991.224	-1.38
991.949	1.62
992.674	-0.38
993.399	-1.38
994.124	1.62
994.849	-1.38
995.574	0.62
996.299	0.62
997.024	0.62
997.749	0.62
998.473	1.62
999.198	-0.38
999.922	0.62
1000.647	0.62
1001.371	6.62
1002.095	-1.38
1002.82	-1.38
1003.544	-1.38
1004.268	2.62
1004.992	1.62
1005.716	2.62
1006.439	5.62
1007.163	2.62
1007.887	4.62
1008.611	2.62
1009.334	0.62
1010.058	-0.38
1010.781	-2.38
1011.504	1.62
1012.228	-0.38
1012.951	-0.38
1013.674	-1.38
1014.397	-1.38
1015.12	0.62
