节点500_565_QEPB04081__131__09-52-36-909.txt的数据

Date: Thu Nov 13 09:52:36 CST 2025
User: PC
Spectrometer: QEPB0408
触发模式: 0
积分时间 (秒): 1.000000E-2
Scans to average: 1
启用暗噪声校正: true
启用非线性校正: false
滑动平均宽度: 0
X轴模式: Wavelengths
Number of Pixels in Spectrum: 1044
>>>>>Begin Spectral Data<<<<<
220.843	5.88
221.644	2.88
222.444	0.88
223.244	6.88
224.045	4.88
224.845	4.88
225.645	3.88
226.445	5.88
227.245	0.88
228.045	3.88
228.845	5.88
229.645	7.88
230.444	6.88
231.244	5.88
232.043	6.88
232.843	3.88
233.642	6.88
234.442	6.88
235.241	7.88
236.04	6.88
236.839	7.88
237.638	8.88
238.437	4.88
239.236	6.88
240.035	7.88
240.833	8.88
241.632	9.88
242.43	8.88
243.229	9.88
244.027	8.88
244.826	10.88
245.624	10.88
246.422	9.88
247.22	10.88
248.018	10.88
248.816	14.88
249.614	11.88
250.412	12.88
251.21	14.88
252.007	13.88
252.805	12.88
253.602	13.88
254.4	16.88
255.197	16.88
255.994	16.88
256.791	16.88
257.589	16.88
258.386	17.88
259.183	17.88
259.979	17.88
260.776	21.88
261.573	17.88
262.37	19.88
263.166	20.88
263.963	21.88
264.759	20.88
265.556	23.88
266.352	23.88
267.148	24.88
267.944	21.88
268.74	24.88
269.536	26.88
270.332	24.88
271.128	25.88
271.924	28.88
272.719	28.88
273.515	27.88
274.311	28.88
275.106	28.88
275.901	28.88
276.697	29.88
277.492	26.88
278.287	27.88
279.082	29.88
279.877	30.88
280.672	30.88
281.467	30.88
282.262	29.88
283.056	29.88
283.851	27.88
284.646	29.88
285.44	30.88
286.234	30.88
287.029	29.88
287.823	30.88
288.617	26.88
289.411	27.88
290.205	28.88
290.999	27.88
291.793	28.88
292.587	28.88
293.381	23.88
294.174	25.88
294.968	24.88
295.761	22.88
296.555	21.88
297.348	23.88
298.141	21.88
298.935	26.88
299.728	22.88
300.521	19.88
301.314	21.88
302.107	20.88
302.899	19.88
303.692	17.88
304.485	18.88
305.277	16.88
306.07	18.88
306.862	15.88
307.655	19.88
308.447	16.88
309.239	17.88
310.031	18.88
310.823	15.88
311.615	15.88
312.407	14.88
313.199	13.88
313.991	12.88
314.783	13.88
315.574	13.88
316.366	9.88
317.157	12.88
317.949	11.88
318.74	13.88
319.531	10.88
320.322	11.88
321.113	9.88
321.904	9.88
322.695	11.88
323.486	8.88
324.277	8.88
325.068	11.88
325.858	11.88
326.649	11.88
327.439	8.88
328.23	10.88
329.02	9.88
329.81	8.88
330.6	9.88
331.391	11.88
332.181	6.88
332.971	9.88
333.76	10.88
334.55	6.88
335.34	10.88
336.13	10.88
336.919	11.88
337.709	11.88
338.498	9.88
339.287	7.88
340.077	9.88
340.866	7.88
341.655	10.88
342.444	8.88
343.233	9.88
344.022	8.88
344.811	9.88
345.6	7.88
346.388	11.88
347.177	10.88
347.965	8.88
348.754	8.88
349.542	6.88
350.33	9.88
351.119	8.88
351.907	9.88
352.695	7.88
353.483	9.88
354.271	8.88
355.059	7.88
355.846	11.88
356.634	9.88
357.422	8.88
358.209	9.88
358.997	6.88
359.784	9.88
360.571	8.88
361.359	12.88
362.146	10.88
362.933	7.88
363.72	9.88
364.507	7.88
365.294	8.88
366.081	4.88
366.867	8.88
367.654	9.88
368.44	7.88
369.227	7.88
370.013	5.88
370.8	8.88
371.586	9.88
372.372	9.88
373.158	5.88
373.944	7.88
374.73	7.88
375.516	8.88
376.302	6.88
377.088	7.88
377.873	7.88
378.659	6.88
379.445	8.88
380.23	8.88
381.015	9.88
381.801	7.88
382.586	7.88
383.371	8.88
384.156	9.88
384.941	8.88
385.726	8.88
386.511	8.88
387.296	6.88
388.08	8.88
388.865	10.88
389.649	7.88
390.434	9.88
391.218	9.88
392.003	8.88
392.787	7.88
393.571	9.88
394.355	8.88
395.139	10.88
395.923	12.88
396.707	12.88
397.491	9.88
398.274	11.88
399.058	9.88
399.842	13.88
400.625	11.88
401.408	12.88
402.192	12.88
402.975	11.88
403.758	11.88
404.541	10.88
405.324	13.88
406.107	12.88
406.89	12.88
407.673	12.88
408.456	12.88
409.238	14.88
410.021	12.88
410.803	14.88
411.586	13.88
412.368	14.88
413.151	15.88
413.933	12.88
414.715	13.88
415.497	12.88
416.279	16.88
417.061	18.88
417.843	16.88
418.624	17.88
419.406	17.88
420.188	17.88
420.969	15.88
421.751	19.88
422.532	17.88
423.313	20.88
424.095	16.88
424.876	20.88
425.657	21.88
426.438	22.88
427.219	21.88
428	20.88
428.78	21.88
429.561	22.88
430.342	23.88
431.122	26.88
431.903	25.88
432.683	25.88
433.464	30.88
434.244	28.88
435.024	30.88
435.804	30.88
436.584	35.88
437.364	35.88
438.144	40.88
438.924	38.88
439.704	42.88
440.483	43.88
441.263	45.88
442.042	50.88
442.822	52.88
443.601	56.88
444.38	56.88
445.16	66.88
445.939	69.88
446.718	72.88
447.497	81.88
448.276	87.88
449.054	99.88
449.833	102.88
450.612	114.88
451.391	125.88
452.169	138.88
452.948	155.88
453.726	170.88
454.504	191.88
455.282	203.88
456.061	229.88
456.839	258.88
457.617	293.88
458.395	320.88
459.172	350.88
459.95	399.88
460.728	441.88
461.506	497.88
462.283	558.88
463.061	621.88
463.838	702.88
464.615	792.88
465.393	859.88
466.17	975.88
466.947	1066.88
467.724	1195.88
468.501	1330.88
469.278	1489.88
470.055	1645.88
470.831	1850.88
471.608	2037.88
472.385	2271.88
473.161	2490.88
473.938	2767.88
474.714	3061.88
475.49	3369.88
476.266	3735.88
477.043	4122.88
477.819	4535.88
478.595	5009.88
479.371	5468.88
480.146	6000.88
480.922	6630.88
481.698	7247.88
482.473	7935.88
483.249	8660.88
484.024	9475.88
484.8	10365.88
485.575	11349.88
486.35	12361.88
487.126	13421.88
487.901	14670.88
488.676	15961.88
489.451	17282.88
490.225	18749.88
491	20162.88
491.775	21741.88
492.55	23379.88
493.324	25064.88
494.099	26738.88
494.873	28412.88
495.647	30291.88
496.422	32069.88
497.196	33772.88
497.97	35333.88
498.744	36885.88
499.518	38185.88
500.292	39555.88
501.066	40727.88
501.839	41718.88
502.613	42431.88
503.387	42997.88
504.16	43440.88
504.934	43499.88
505.707	43216.88
506.48	42886.88
507.253	42381.88
508.027	41550.88
508.8	40542.88
509.573	39461.88
510.346	38267.88
511.118	37006.88
511.891	35787.88
512.664	34421.88
513.437	33119.88
514.209	31645.88
514.982	30455.88
515.754	29168.88
516.526	27930.88
517.298	26668.88
518.071	25575.88
518.843	24567.88
519.615	23574.88
520.387	22591.88
521.159	21715.88
521.93	20773.88
522.702	19966.88
523.474	19147.88
524.245	18330.88
525.017	17650.88
525.788	16766.88
526.56	16050.88
527.331	15213.88
528.102	14549.88
528.873	13801.88
529.644	13123.88
530.415	12374.88
531.186	11775.88
531.957	11168.88
532.728	10616.88
533.498	10011.88
534.269	9437.88
535.039	8941.88
535.81	8396.88
536.58	8000.88
537.351	7580.88
538.121	7150.88
538.891	6745.88
539.661	6390.88
540.431	6095.88
541.201	5735.88
541.971	5447.88
542.741	5138.88
543.51	4876.88
544.28	4643.88
545.05	4417.88
545.819	4181.88
546.588	3987.88
547.358	3756.88
548.127	3608.88
548.896	3400.88
549.665	3237.88
550.434	3056.88
551.203	2908.88
551.972	2768.88
552.741	2602.88
553.51	2479.88
554.278	2316.88
555.047	2175.88
555.815	2071.88
556.584	1970.88
557.352	1862.88
558.121	1738.88
558.889	1639.88
559.657	1541.88
560.425	1465.88
561.193	1373.88
561.961	1311.88
562.729	1237.88
563.496	1172.88
564.264	1107.88
565.032	1052.88
565.799	1003.88
566.567	947.88
567.334	897.88
568.101	832.88
568.869	798.88
569.636	756.88
570.403	714.88
571.17	677.88
571.937	639.88
572.704	588.88
573.471	556.88
574.237	533.88
575.004	492.88
575.771	468.88
576.537	441.88
577.303	418.88
578.07	393.88
578.836	369.88
579.602	350.88
580.368	330.88
581.134	312.88
581.9	295.88
582.666	285.88
583.432	267.88
584.198	253.88
584.964	242.88
585.729	232.88
586.495	219.88
587.26	210.88
588.025	187.88
588.791	187.88
589.556	179.88
590.321	171.88
591.086	160.88
591.851	154.88
592.616	150.88
593.381	139.88
594.146	135.88
594.911	119.88
595.675	124.88
596.44	115.88
597.204	110.88
597.969	108.88
598.733	96.88
599.497	96.88
600.261	97.88
601.025	88.88
601.79	82.88
602.553	81.88
603.317	75.88
604.081	78.88
604.845	68.88
605.609	64.88
606.372	65.88
607.136	60.88
607.899	62.88
608.662	57.88
609.426	57.88
610.189	53.88
610.952	50.88
611.715	51.88
612.478	48.88
613.241	44.88
614.004	41.88
614.767	42.88
615.529	42.88
616.292	37.88
617.055	38.88
617.817	38.88
618.579	38.88
619.342	33.88
620.104	34.88
620.866	30.88
621.628	31.88
622.39	31.88
623.152	24.88
623.914	26.88
624.676	30.88
625.438	24.88
626.199	27.88
626.961	23.88
627.722	24.88
628.484	24.88
629.245	24.88
630.006	21.88
630.768	22.88
631.529	20.88
632.29	20.88
633.051	23.88
633.812	18.88
634.573	19.88
635.333	19.88
636.094	17.88
636.855	17.88
637.615	15.88
638.376	18.88
639.136	17.88
639.896	15.88
640.657	13.88
641.417	16.88
642.177	15.88
642.937	12.88
643.697	14.88
644.457	11.88
645.216	14.88
645.976	14.88
646.736	12.88
647.495	12.88
648.255	11.88
649.014	13.88
649.774	11.88
650.533	12.88
651.292	10.88
652.051	11.88
652.81	8.88
653.569	11.88
654.328	10.88
655.087	8.88
655.846	11.88
656.604	9.88
657.363	10.88
658.121	9.88
658.88	9.88
659.638	10.88
660.397	7.88
661.155	9.88
661.913	7.88
662.671	6.88
663.429	10.88
664.187	8.88
664.945	6.88
665.703	10.88
666.46	7.88
667.218	6.88
667.976	7.88
668.733	6.88
669.49	6.88
670.248	7.88
671.005	5.88
671.762	8.88
672.519	6.88
673.276	8.88
674.033	7.88
674.79	5.88
675.547	7.88
676.304	7.88
677.06	7.88
677.817	4.88
678.574	6.88
679.33	7.88
680.086	5.88
680.843	5.88
681.599	3.88
682.355	6.88
683.111	4.88
683.867	6.88
684.623	6.88
685.379	5.88
686.135	5.88
686.89	7.88
687.646	4.88
688.402	3.88
689.157	7.88
689.912	7.88
690.668	5.88
691.423	3.88
692.178	4.88
692.933	5.88
693.688	5.88
694.443	8.88
695.198	5.88
695.953	4.88
696.708	5.88
697.462	5.88
698.217	7.88
698.972	1.88
699.726	4.88
700.48	7.88
701.235	5.88
701.989	7.88
702.743	4.88
703.497	4.88
704.251	5.88
705.005	4.88
705.759	4.88
706.513	4.88
707.266	7.88
708.02	6.88
708.774	5.88
709.527	5.88
710.28	6.88
711.034	5.88
711.787	5.88
712.54	4.88
713.293	4.88
714.046	4.88
714.799	4.88
715.552	5.88
716.305	6.88
717.058	5.88
717.81	4.88
718.563	5.88
719.315	5.88
720.068	5.88
720.82	6.88
721.573	5.88
722.325	5.88
723.077	6.88
723.829	6.88
724.581	7.88
725.333	4.88
726.085	7.88
726.836	5.88
727.588	6.88
728.34	6.88
729.091	4.88
729.843	5.88
730.594	5.88
731.346	4.88
732.097	5.88
732.848	6.88
733.599	3.88
734.35	6.88
735.101	8.88
735.852	7.88
736.603	6.88
737.354	7.88
738.104	7.88
738.855	5.88
739.605	4.88
740.356	7.88
741.106	7.88
741.856	9.88
742.607	7.88
743.357	10.88
744.107	7.88
744.857	9.88
745.607	8.88
746.357	7.88
747.106	8.88
747.856	8.88
748.606	9.88
749.355	7.88
750.105	6.88
750.854	10.88
751.603	8.88
752.353	9.88
753.102	8.88
753.851	8.88
754.6	9.88
755.349	10.88
756.098	8.88
756.847	9.88
757.595	10.88
758.344	10.88
759.093	11.88
759.841	11.88
760.589	12.88
761.338	10.88
762.086	9.88
762.834	8.88
763.582	11.88
764.331	7.88
765.079	11.88
765.826	12.88
766.574	11.88
767.322	8.88
768.07	7.88
768.817	11.88
769.565	12.88
770.312	13.88
771.06	15.88
771.807	10.88
772.554	8.88
773.302	13.88
774.049	12.88
774.796	14.88
775.543	13.88
776.29	9.88
777.036	10.88
777.783	12.88
778.53	11.88
779.276	13.88
780.023	13.88
780.769	11.88
781.516	15.88
782.262	13.88
783.008	11.88
783.754	11.88
784.5	12.88
785.246	10.88
785.992	13.88
786.738	12.88
787.484	11.88
788.23	13.88
788.975	11.88
789.721	9.88
790.466	15.88
791.212	13.88
791.957	11.88
792.702	12.88
793.447	12.88
794.193	14.88
794.938	9.88
795.683	10.88
796.427	11.88
797.172	8.88
797.917	11.88
798.662	9.88
799.406	9.88
800.151	8.88
800.895	10.88
801.64	14.88
802.384	10.88
803.128	11.88
803.872	10.88
804.616	8.88
805.36	7.88
806.104	11.88
806.848	7.88
807.592	7.88
808.336	7.88
809.079	9.88
809.823	7.88
810.566	6.88
811.31	7.88
812.053	6.88
812.796	8.88
813.539	7.88
814.283	6.88
815.026	5.88
815.769	7.88
816.511	7.88
817.254	8.88
817.997	6.88
818.74	7.88
819.482	6.88
820.225	4.88
820.967	5.88
821.71	4.88
822.452	5.88
823.194	6.88
823.936	7.88
824.678	4.88
825.42	3.88
826.162	6.88
826.904	5.88
827.646	4.88
828.388	6.88
829.129	3.88
829.871	3.88
830.612	5.88
831.354	5.88
832.095	5.88
832.836	3.88
833.577	6.88
834.319	3.88
835.06	3.88
835.801	5.88
836.542	2.88
837.282	7.88
838.023	5.88
838.764	5.88
839.504	4.88
840.245	6.88
840.985	5.88
841.726	3.88
842.466	6.88
843.206	1.88
843.946	7.88
844.687	2.88
845.427	3.88
846.166	2.88
846.906	5.88
847.646	5.88
848.386	4.88
849.125	3.88
849.865	3.88
850.605	5.88
851.344	3.88
852.083	4.88
852.823	0.88
853.562	1.88
854.301	1.88
855.04	4.88
855.779	0.88
856.518	2.88
857.257	3.88
857.995	3.88
858.734	0.88
859.473	2.88
860.211	3.88
860.95	1.88
861.688	1.88
862.426	2.88
863.165	1.88
863.903	0.88
864.641	0.88
865.379	2.88
866.117	1.88
866.855	2.88
867.593	0.88
868.33	2.88
869.068	1.88
869.806	1.88
870.543	1.88
871.28	1.88
872.018	-0.12
872.755	-0.12
873.492	2.88
874.229	1.88
874.967	3.88
875.703	4.88
876.44	0.88
877.177	2.88
877.914	0.88
878.651	0.88
879.387	0.88
880.124	0.88
880.86	-0.12
881.597	1.88
882.333	-1.12
883.069	-0.12
883.806	0.88
884.542	-0.12
885.278	0.88
886.014	3.88
886.749	0.88
887.485	1.88
888.221	-0.12
888.957	0.88
889.692	0.88
890.428	1.88
891.163	-0.12
891.899	1.88
892.634	3.88
893.369	0.88
894.104	-2.12
894.839	-0.12
895.574	0.88
896.309	1.88
897.044	-0.12
897.779	-1.12
898.514	1.88
899.248	-0.12
899.983	1.88
900.717	0.88
901.452	-0.12
902.186	-0.12
902.92	1.88
903.654	-0.12
904.389	1.88
905.123	0.88
905.857	0.88
906.59	-2.12
907.324	1.88
908.058	0.88
908.792	-1.12
909.525	-0.12
910.259	-0.12
910.992	1.88
911.726	-1.12
912.459	1.88
913.192	-3.12
913.925	-0.12
914.658	-0.12
915.391	-0.12
916.124	1.88
916.857	0.88
917.59	-0.12
918.323	-0.12
919.055	0.88
919.788	-0.12
920.521	-0.12
921.253	0.88
921.985	0.88
922.718	-0.12
923.45	-0.12
924.182	-1.12
924.914	-0.12
925.646	-0.12
926.378	-0.12
927.11	-0.12
927.841	-1.12
928.573	0.88
929.305	-1.12
930.036	-0.12
930.768	-1.12
931.499	1.88
932.23	1.88
932.962	-0.12
933.693	-1.12
934.424	-0.12
935.155	-1.12
935.886	-0.12
936.617	0.88
937.348	-1.12
938.078	3.88
938.809	-0.12
939.54	-1.12
940.27	-1.12
941.001	0.88
941.731	0.88
942.461	-1.12
943.191	-1.12
943.922	-0.12
944.652	-0.12
945.382	0.88
946.112	0.88
946.841	-0.12
947.571	-3.12
948.301	-0.12
949.031	-0.12
949.76	-2.12
950.49	-1.12
951.219	-1.12
951.948	2.88
952.678	0.88
953.407	0.88
954.136	-0.12
954.865	-2.12
955.594	-1.12
956.323	0.88
957.052	-0.12
957.78	-1.12
958.509	-1.12
959.238	1.88
959.966	0.88
960.695	1.88
961.423	-1.12
962.151	1.88
962.88	0.88
963.608	-1.12
964.336	-2.12
965.064	-0.12
965.792	-2.12
966.52	-1.12
967.247	-2.12
967.975	1.88
968.703	0.88
969.43	0.88
970.158	-0.12
970.885	1.88
971.613	-2.12
972.34	-1.12
973.067	0.88
973.794	0.88
974.521	0.88
975.248	-0.12
975.975	-1.12
976.702	1.88
977.429	0.88
978.156	-1.12
978.882	1.88
979.609	-1.12
980.335	-1.12
981.062	-0.12
981.788	-1.12
982.514	0.88
983.24	-0.12
983.967	1.88
984.693	-0.12
985.419	-0.12
986.144	1.88
986.87	-1.12
987.596	1.88
988.322	0.88
989.047	1.88
989.773	-2.12
990.498	-0.12
991.224	-0.12
991.949	-2.12
992.674	-0.12
993.399	-0.12
994.124	0.88
994.849	1.88
995.574	-3.12
996.299	0.88
997.024	0.88
997.749	-0.12
998.473	-3.12
999.198	0.88
999.922	-0.12
1000.647	-0.12
1001.371	3.88
1002.095	-0.12
1002.82	-0.12
1003.544	-2.12
1004.268	1.88
1004.992	2.88
1005.716	2.88
1006.439	1.88
1007.163	3.88
1007.887	0.88
1008.611	-0.12
1009.334	0.88
1010.058	-1.12
1010.781	-0.12
1011.504	-1.12
1012.228	-1.12
1012.951	-0.12
1013.674	-1.12
1014.397	-0.12
1015.12	-0.12
