节点500_565_QEPB04081__535__09-59-19-103.txt的数据

Date: Thu Nov 13 09:59:19 CST 2025
User: PC
Spectrometer: QEPB0408
触发模式: 0
积分时间 (秒): 1.000000E-2
Scans to average: 1
启用暗噪声校正: true
启用非线性校正: false
滑动平均宽度: 0
X轴模式: Wavelengths
Number of Pixels in Spectrum: 1044
>>>>>Begin Spectral Data<<<<<
220.843	3.12
221.644	3.12
222.444	5.12
223.244	4.12
224.045	4.12
224.845	5.12
225.645	4.12
226.445	4.12
227.245	7.12
228.045	7.12
228.845	5.12
229.645	4.12
230.444	8.12
231.244	7.12
232.043	6.12
232.843	6.12
233.642	6.12
234.442	6.12
235.241	7.12
236.04	8.12
236.839	8.12
237.638	7.12
238.437	7.12
239.236	9.12
240.035	8.12
240.833	10.12
241.632	8.12
242.43	8.12
243.229	7.12
244.027	7.12
244.826	11.12
245.624	6.12
246.422	9.12
247.22	10.12
248.018	12.12
248.816	11.12
249.614	11.12
250.412	10.12
251.21	12.12
252.007	14.12
252.805	10.12
253.602	12.12
254.4	13.12
255.197	13.12
255.994	14.12
256.791	14.12
257.589	17.12
258.386	15.12
259.183	15.12
259.979	14.12
260.776	15.12
261.573	17.12
262.37	16.12
263.166	19.12
263.963	21.12
264.759	21.12
265.556	22.12
266.352	18.12
267.148	20.12
267.944	22.12
268.74	22.12
269.536	25.12
270.332	22.12
271.128	21.12
271.924	23.12
272.719	22.12
273.515	26.12
274.311	25.12
275.106	26.12
275.901	25.12
276.697	25.12
277.492	25.12
278.287	27.12
279.082	27.12
279.877	26.12
280.672	26.12
281.467	28.12
282.262	29.12
283.056	26.12
283.851	27.12
284.646	23.12
285.44	28.12
286.234	26.12
287.029	28.12
287.823	28.12
288.617	26.12
289.411	26.12
290.205	28.12
290.999	27.12
291.793	23.12
292.587	25.12
293.381	23.12
294.174	25.12
294.968	27.12
295.761	21.12
296.555	22.12
297.348	19.12
298.141	22.12
298.935	24.12
299.728	21.12
300.521	19.12
301.314	20.12
302.107	19.12
302.899	19.12
303.692	18.12
304.485	21.12
305.277	21.12
306.07	23.12
306.862	20.12
307.655	17.12
308.447	16.12
309.239	19.12
310.031	19.12
310.823	16.12
311.615	15.12
312.407	12.12
313.199	14.12
313.991	13.12
314.783	15.12
315.574	14.12
316.366	15.12
317.157	13.12
317.949	9.12
318.74	14.12
319.531	11.12
320.322	13.12
321.113	11.12
321.904	13.12
322.695	11.12
323.486	12.12
324.277	13.12
325.068	11.12
325.858	11.12
326.649	9.12
327.439	12.12
328.23	9.12
329.02	9.12
329.81	9.12
330.6	10.12
331.391	13.12
332.181	12.12
332.971	9.12
333.76	10.12
334.55	9.12
335.34	11.12
336.13	11.12
336.919	10.12
337.709	9.12
338.498	13.12
339.287	12.12
340.077	11.12
340.866	8.12
341.655	13.12
342.444	12.12
343.233	10.12
344.022	12.12
344.811	8.12
345.6	9.12
346.388	11.12
347.177	9.12
347.965	10.12
348.754	8.12
349.542	9.12
350.33	8.12
351.119	9.12
351.907	11.12
352.695	8.12
353.483	8.12
354.271	9.12
355.059	12.12
355.846	10.12
356.634	11.12
357.422	11.12
358.209	7.12
358.997	10.12
359.784	7.12
360.571	10.12
361.359	9.12
362.146	11.12
362.933	9.12
363.72	9.12
364.507	8.12
365.294	7.12
366.081	6.12
366.867	7.12
367.654	6.12
368.44	7.12
369.227	9.12
370.013	6.12
370.8	8.12
371.586	9.12
372.372	7.12
373.158	10.12
373.944	7.12
374.73	8.12
375.516	8.12
376.302	9.12
377.088	9.12
377.873	7.12
378.659	7.12
379.445	8.12
380.23	9.12
381.015	7.12
381.801	8.12
382.586	8.12
383.371	5.12
384.156	10.12
384.941	11.12
385.726	11.12
386.511	8.12
387.296	9.12
388.08	10.12
388.865	8.12
389.649	7.12
390.434	9.12
391.218	8.12
392.003	7.12
392.787	11.12
393.571	9.12
394.355	8.12
395.139	9.12
395.923	11.12
396.707	10.12
397.491	10.12
398.274	11.12
399.058	9.12
399.842	9.12
400.625	13.12
401.408	12.12
402.192	13.12
402.975	10.12
403.758	11.12
404.541	11.12
405.324	12.12
406.107	13.12
406.89	10.12
407.673	11.12
408.456	14.12
409.238	13.12
410.021	13.12
410.803	11.12
411.586	14.12
412.368	14.12
413.151	14.12
413.933	17.12
414.715	14.12
415.497	16.12
416.279	16.12
417.061	17.12
417.843	13.12
418.624	15.12
419.406	16.12
420.188	19.12
420.969	17.12
421.751	17.12
422.532	19.12
423.313	18.12
424.095	18.12
424.876	20.12
425.657	21.12
426.438	21.12
427.219	21.12
428	23.12
428.78	21.12
429.561	26.12
430.342	22.12
431.122	24.12
431.903	25.12
432.683	25.12
433.464	29.12
434.244	26.12
435.024	31.12
435.804	32.12
436.584	36.12
437.364	37.12
438.144	37.12
438.924	40.12
439.704	45.12
440.483	46.12
441.263	48.12
442.042	53.12
442.822	57.12
443.601	61.12
444.38	66.12
445.16	72.12
445.939	79.12
446.718	78.12
447.497	90.12
448.276	96.12
449.054	103.12
449.833	118.12
450.612	127.12
451.391	147.12
452.169	157.12
452.948	174.12
453.726	190.12
454.504	213.12
455.282	237.12
456.061	264.12
456.839	297.12
457.617	327.12
458.395	364.12
459.172	401.12
459.95	446.12
460.728	496.12
461.506	547.12
462.283	620.12
463.061	691.12
463.838	753.12
464.615	843.12
465.393	944.12
466.17	1043.12
466.947	1151.12
467.724	1287.12
468.501	1397.12
469.278	1567.12
470.055	1707.12
470.831	1885.12
471.608	2076.12
472.385	2290.12
473.161	2521.12
473.938	2779.12
474.714	3048.12
475.49	3298.12
476.266	3632.12
477.043	3966.12
477.819	4317.12
478.595	4722.12
479.371	5141.12
480.146	5580.12
480.922	6081.12
481.698	6585.12
482.473	7164.12
483.249	7775.12
484.024	8424.12
484.8	9057.12
485.575	9854.12
486.35	10674.12
487.126	11538.12
487.901	12415.12
488.676	13424.12
489.451	14486.12
490.225	15598.12
491	16753.12
491.775	17987.12
492.55	19279.12
493.324	20598.12
494.099	21873.12
494.873	23231.12
495.647	24772.12
496.422	26228.12
497.196	27575.12
497.97	29023.12
498.744	30453.12
499.518	31746.12
500.292	32954.12
501.066	34117.12
501.839	35232.12
502.613	36164.12
503.387	36932.12
504.16	37667.12
504.934	38157.12
505.707	38345.12
506.48	38479.12
507.253	38552.12
508.027	38139.12
508.8	37854.12
509.573	37154.12
510.346	36480.12
511.118	35622.12
511.891	34838.12
512.664	33843.12
513.437	32726.12
514.209	31694.12
514.982	30535.12
515.754	29475.12
516.526	28327.12
517.298	27124.12
518.071	25983.12
518.843	25015.12
519.615	23991.12
520.387	23078.12
521.159	22157.12
521.93	21307.12
522.702	20430.12
523.474	19625.12
524.245	18829.12
525.017	18092.12
525.788	17361.12
526.56	16686.12
527.331	15969.12
528.102	15220.12
528.873	14479.12
529.644	13759.12
530.415	13133.12
531.186	12504.12
531.957	11929.12
532.728	11379.12
533.498	10745.12
534.269	10157.12
535.039	9600.12
535.81	9169.12
536.58	8674.12
537.351	8188.12
538.121	7757.12
538.891	7344.12
539.661	6993.12
540.431	6575.12
541.201	6239.12
541.971	5921.12
542.741	5597.12
543.51	5306.12
544.28	5048.12
545.05	4810.12
545.819	4584.12
546.588	4341.12
547.358	4131.12
548.127	3914.12
548.896	3756.12
549.665	3567.12
550.434	3362.12
551.203	3212.12
551.972	3042.12
552.741	2874.12
553.51	2723.12
554.278	2580.12
555.047	2415.12
555.815	2309.12
556.584	2194.12
557.352	2087.12
558.121	1954.12
558.889	1839.12
559.657	1738.12
560.425	1639.12
561.193	1555.12
561.961	1466.12
562.729	1405.12
563.496	1310.12
564.264	1252.12
565.032	1178.12
565.799	1124.12
566.567	1053.12
567.334	1004.12
568.101	948.12
568.869	887.12
569.636	844.12
570.403	791.12
571.17	752.12
571.937	717.12
572.704	658.12
573.471	633.12
574.237	599.12
575.004	562.12
575.771	531.12
576.537	491.12
577.303	475.12
578.07	443.12
578.836	412.12
579.602	395.12
580.368	373.12
581.134	359.12
581.9	343.12
582.666	326.12
583.432	309.12
584.198	289.12
584.964	275.12
585.729	260.12
586.495	249.12
587.26	236.12
588.025	213.12
588.791	215.12
589.556	199.12
590.321	185.12
591.086	179.12
591.851	168.12
592.616	166.12
593.381	157.12
594.146	144.12
594.911	140.12
595.675	137.12
596.44	127.12
597.204	123.12
597.969	114.12
598.733	114.12
599.497	108.12
600.261	106.12
601.025	96.12
601.79	92.12
602.553	93.12
603.317	83.12
604.081	86.12
604.845	80.12
605.609	77.12
606.372	75.12
607.136	69.12
607.899	72.12
608.662	62.12
609.426	62.12
610.189	58.12
610.952	59.12
611.715	57.12
612.478	54.12
613.241	52.12
614.004	50.12
614.767	51.12
615.529	44.12
616.292	46.12
617.055	44.12
617.817	44.12
618.579	41.12
619.342	39.12
620.104	39.12
620.866	34.12
621.628	37.12
622.39	35.12
623.152	33.12
623.914	30.12
624.676	30.12
625.438	30.12
626.199	30.12
626.961	28.12
627.722	26.12
628.484	26.12
629.245	27.12
630.006	23.12
630.768	26.12
631.529	21.12
632.29	24.12
633.051	20.12
633.812	19.12
634.573	21.12
635.333	18.12
636.094	21.12
636.855	18.12
637.615	20.12
638.376	16.12
639.136	18.12
639.896	21.12
640.657	16.12
641.417	14.12
642.177	17.12
642.937	17.12
643.697	14.12
644.457	16.12
645.216	14.12
645.976	15.12
646.736	13.12
647.495	13.12
648.255	15.12
649.014	11.12
649.774	11.12
650.533	12.12
651.292	12.12
652.051	14.12
652.81	11.12
653.569	11.12
654.328	11.12
655.087	13.12
655.846	10.12
656.604	11.12
657.363	11.12
658.121	9.12
658.88	11.12
659.638	10.12
660.397	11.12
661.155	9.12
661.913	9.12
662.671	10.12
663.429	7.12
664.187	9.12
664.945	11.12
665.703	11.12
666.46	9.12
667.218	9.12
667.976	10.12
668.733	8.12
669.49	10.12
670.248	5.12
671.005	8.12
671.762	9.12
672.519	6.12
673.276	6.12
674.033	10.12
674.79	6.12
675.547	8.12
676.304	7.12
677.06	7.12
677.817	8.12
678.574	8.12
679.33	5.12
680.086	8.12
680.843	7.12
681.599	5.12
682.355	7.12
683.111	9.12
683.867	7.12
684.623	8.12
685.379	6.12
686.135	5.12
686.89	6.12
687.646	7.12
688.402	9.12
689.157	9.12
689.912	6.12
690.668	7.12
691.423	5.12
692.178	8.12
692.933	6.12
693.688	8.12
694.443	7.12
695.198	10.12
695.953	7.12
696.708	6.12
697.462	7.12
698.217	4.12
698.972	6.12
699.726	9.12
700.48	5.12
701.235	7.12
701.989	6.12
702.743	6.12
703.497	7.12
704.251	4.12
705.005	4.12
705.759	6.12
706.513	5.12
707.266	7.12
708.02	6.12
708.774	6.12
709.527	7.12
710.28	7.12
711.034	6.12
711.787	5.12
712.54	5.12
713.293	6.12
714.046	6.12
714.799	7.12
715.552	5.12
716.305	5.12
717.058	5.12
717.81	7.12
718.563	7.12
719.315	5.12
720.068	7.12
720.82	7.12
721.573	7.12
722.325	4.12
723.077	7.12
723.829	5.12
724.581	5.12
725.333	8.12
726.085	7.12
726.836	8.12
727.588	6.12
728.34	7.12
729.091	9.12
729.843	6.12
730.594	6.12
731.346	7.12
732.097	8.12
732.848	7.12
733.599	9.12
734.35	5.12
735.101	8.12
735.852	8.12
736.603	7.12
737.354	9.12
738.104	10.12
738.855	8.12
739.605	8.12
740.356	7.12
741.106	7.12
741.856	6.12
742.607	8.12
743.357	8.12
744.107	11.12
744.857	6.12
745.607	7.12
746.357	8.12
747.106	7.12
747.856	9.12
748.606	7.12
749.355	7.12
750.105	8.12
750.854	9.12
751.603	11.12
752.353	9.12
753.102	9.12
753.851	6.12
754.6	10.12
755.349	9.12
756.098	9.12
756.847	12.12
757.595	10.12
758.344	10.12
759.093	6.12
759.841	8.12
760.589	8.12
761.338	10.12
762.086	7.12
762.834	9.12
763.582	10.12
764.331	11.12
765.079	12.12
765.826	9.12
766.574	11.12
767.322	10.12
768.07	13.12
768.817	13.12
769.565	9.12
770.312	13.12
771.06	12.12
771.807	11.12
772.554	11.12
773.302	15.12
774.049	9.12
774.796	10.12
775.543	11.12
776.29	12.12
777.036	11.12
777.783	12.12
778.53	11.12
779.276	13.12
780.023	14.12
780.769	13.12
781.516	12.12
782.262	13.12
783.008	10.12
783.754	12.12
784.5	13.12
785.246	14.12
785.992	10.12
786.738	13.12
787.484	13.12
788.23	12.12
788.975	11.12
789.721	13.12
790.466	9.12
791.212	10.12
791.957	11.12
792.702	13.12
793.447	12.12
794.193	13.12
794.938	9.12
795.683	13.12
796.427	10.12
797.172	13.12
797.917	11.12
798.662	11.12
799.406	10.12
800.151	12.12
800.895	11.12
801.64	11.12
802.384	11.12
803.128	11.12
803.872	10.12
804.616	11.12
805.36	9.12
806.104	8.12
806.848	9.12
807.592	7.12
808.336	9.12
809.079	8.12
809.823	10.12
810.566	9.12
811.31	5.12
812.053	7.12
812.796	9.12
813.539	9.12
814.283	4.12
815.026	7.12
815.769	10.12
816.511	7.12
817.254	7.12
817.997	5.12
818.74	7.12
819.482	8.12
820.225	5.12
820.967	8.12
821.71	6.12
822.452	8.12
823.194	7.12
823.936	8.12
824.678	5.12
825.42	8.12
826.162	4.12
826.904	6.12
827.646	7.12
828.388	6.12
829.129	8.12
829.871	5.12
830.612	5.12
831.354	5.12
832.095	6.12
832.836	6.12
833.577	8.12
834.319	5.12
835.06	6.12
835.801	6.12
836.542	6.12
837.282	5.12
838.023	6.12
838.764	5.12
839.504	5.12
840.245	6.12
840.985	5.12
841.726	4.12
842.466	5.12
843.206	6.12
843.946	5.12
844.687	5.12
845.427	2.12
846.166	5.12
846.906	5.12
847.646	3.12
848.386	5.12
849.125	7.12
849.865	4.12
850.605	3.12
851.344	3.12
852.083	5.12
852.823	6.12
853.562	5.12
854.301	3.12
855.04	4.12
855.779	5.12
856.518	3.12
857.257	3.12
857.995	5.12
858.734	4.12
859.473	4.12
860.211	5.12
860.95	3.12
861.688	2.12
862.426	3.12
863.165	3.12
863.903	3.12
864.641	1.12
865.379	3.12
866.117	2.12
866.855	3.12
867.593	1.12
868.33	5.12
869.068	3.12
869.806	2.12
870.543	0.12
871.28	1.12
872.018	6.12
872.755	0.12
873.492	2.12
874.229	1.12
874.967	2.12
875.703	1.12
876.44	3.12
877.177	2.12
877.914	3.12
878.651	2.12
879.387	0.12
880.124	3.12
880.86	1.12
881.597	1.12
882.333	1.12
883.069	1.12
883.806	4.12
884.542	1.12
885.278	1.12
886.014	2.12
886.749	1.12
887.485	1.12
888.221	2.12
888.957	0.12
889.692	1.12
890.428	1.12
891.163	1.12
891.899	-0.88
892.634	2.12
893.369	-0.88
894.104	2.12
894.839	1.12
895.574	1.12
896.309	3.12
897.044	0.12
897.779	2.12
898.514	1.12
899.248	2.12
899.983	1.12
900.717	0.12
901.452	2.12
902.186	1.12
902.92	0.12
903.654	3.12
904.389	-0.88
905.123	2.12
905.857	0.12
906.59	2.12
907.324	1.12
908.058	0.12
908.792	-1.88
909.525	2.12
910.259	-0.88
910.992	-1.88
911.726	1.12
912.459	0.12
913.192	0.12
913.925	-0.88
914.658	2.12
915.391	0.12
916.124	2.12
916.857	4.12
917.59	0.12
918.323	1.12
919.055	-1.88
919.788	1.12
920.521	-0.88
921.253	1.12
921.985	3.12
922.718	-0.88
923.45	3.12
924.182	-0.88
924.914	0.12
925.646	3.12
926.378	3.12
927.11	1.12
927.841	2.12
928.573	1.12
929.305	-0.88
930.036	1.12
930.768	-0.88
931.499	1.12
932.23	0.12
932.962	0.12
933.693	0.12
934.424	-0.88
935.155	0.12
935.886	2.12
936.617	0.12
937.348	0.12
938.078	1.12
938.809	1.12
939.54	0.12
940.27	2.12
941.001	-0.88
941.731	0.12
942.461	1.12
943.191	2.12
943.922	1.12
944.652	1.12
945.382	1.12
946.112	0.12
946.841	2.12
947.571	0.12
948.301	1.12
949.031	1.12
949.76	0.12
950.49	3.12
951.219	1.12
951.948	1.12
952.678	1.12
953.407	1.12
954.136	2.12
954.865	3.12
955.594	2.12
956.323	0.12
957.052	1.12
957.78	-0.88
958.509	0.12
959.238	0.12
959.966	-0.88
960.695	1.12
961.423	-0.88
962.151	1.12
962.88	1.12
963.608	1.12
964.336	0.12
965.064	1.12
965.792	0.12
966.52	0.12
967.247	1.12
967.975	0.12
968.703	-0.88
969.43	-1.88
970.158	-0.88
970.885	2.12
971.613	-0.88
972.34	0.12
973.067	0.12
973.794	1.12
974.521	-0.88
975.248	2.12
975.975	0.12
976.702	-0.88
977.429	1.12
978.156	1.12
978.882	0.12
979.609	-0.88
980.335	-1.88
981.062	-1.88
981.788	0.12
982.514	-0.88
983.24	0.12
983.967	2.12
984.693	-0.88
985.419	0.12
986.144	1.12
986.87	2.12
987.596	1.12
988.322	-0.88
989.047	1.12
989.773	1.12
990.498	-1.88
991.224	2.12
991.949	3.12
992.674	1.12
993.399	1.12
994.124	2.12
994.849	1.12
995.574	1.12
996.299	0.12
997.024	1.12
997.749	2.12
998.473	0.12
999.198	1.12
999.922	-0.88
1000.647	1.12
1001.371	3.12
1002.095	0.12
1002.82	0.12
1003.544	-1.88
1004.268	4.12
1004.992	3.12
1005.716	3.12
1006.439	4.12
1007.163	1.12
1007.887	7.12
1008.611	-0.88
1009.334	1.12
1010.058	0.12
1010.781	1.12
1011.504	-2.88
1012.228	1.12
1012.951	1.12
1013.674	-0.88
1014.397	1.12
1015.12	-2.88
