节点500_565_QEPB04081__148__09-52-53-938.txt的数据

Date: Thu Nov 13 09:52:53 CST 2025
User: PC
Spectrometer: QEPB0408
触发模式: 0
积分时间 (秒): 1.000000E-2
Scans to average: 1
启用暗噪声校正: true
启用非线性校正: false
滑动平均宽度: 0
X轴模式: Wavelengths
Number of Pixels in Spectrum: 1044
>>>>>Begin Spectral Data<<<<<
220.843	5.25
221.644	5.25
222.444	4.25
223.244	3.25
224.045	4.25
224.845	3.25
225.645	3.25
226.445	7.25
227.245	6.25
228.045	6.25
228.845	6.25
229.645	4.25
230.444	7.25
231.244	5.25
232.043	8.25
232.843	4.25
233.642	10.25
234.442	10.25
235.241	8.25
236.04	8.25
236.839	8.25
237.638	8.25
238.437	8.25
239.236	8.25
240.035	10.25
240.833	9.25
241.632	6.25
242.43	10.25
243.229	12.25
244.027	6.25
244.826	11.25
245.624	10.25
246.422	9.25
247.22	12.25
248.018	11.25
248.816	10.25
249.614	12.25
250.412	15.25
251.21	12.25
252.007	13.25
252.805	13.25
253.602	14.25
254.4	18.25
255.197	13.25
255.994	18.25
256.791	15.25
257.589	19.25
258.386	16.25
259.183	17.25
259.979	16.25
260.776	21.25
261.573	19.25
262.37	21.25
263.166	21.25
263.963	23.25
264.759	21.25
265.556	22.25
266.352	22.25
267.148	25.25
267.944	23.25
268.74	25.25
269.536	26.25
270.332	26.25
271.128	30.25
271.924	25.25
272.719	27.25
273.515	26.25
274.311	28.25
275.106	32.25
275.901	30.25
276.697	28.25
277.492	32.25
278.287	28.25
279.082	28.25
279.877	33.25
280.672	30.25
281.467	30.25
282.262	28.25
283.056	28.25
283.851	31.25
284.646	31.25
285.44	28.25
286.234	33.25
287.029	29.25
287.823	29.25
288.617	29.25
289.411	31.25
290.205	28.25
290.999	29.25
291.793	29.25
292.587	26.25
293.381	26.25
294.174	25.25
294.968	26.25
295.761	22.25
296.555	24.25
297.348	22.25
298.141	25.25
298.935	25.25
299.728	21.25
300.521	21.25
301.314	20.25
302.107	19.25
302.899	21.25
303.692	17.25
304.485	20.25
305.277	17.25
306.07	19.25
306.862	16.25
307.655	17.25
308.447	19.25
309.239	19.25
310.031	14.25
310.823	18.25
311.615	16.25
312.407	15.25
313.199	13.25
313.991	13.25
314.783	14.25
315.574	12.25
316.366	13.25
317.157	13.25
317.949	11.25
318.74	9.25
319.531	12.25
320.322	12.25
321.113	11.25
321.904	11.25
322.695	11.25
323.486	11.25
324.277	11.25
325.068	10.25
325.858	12.25
326.649	12.25
327.439	10.25
328.23	12.25
329.02	10.25
329.81	12.25
330.6	11.25
331.391	10.25
332.181	12.25
332.971	10.25
333.76	12.25
334.55	9.25
335.34	11.25
336.13	13.25
336.919	8.25
337.709	12.25
338.498	12.25
339.287	9.25
340.077	10.25
340.866	9.25
341.655	10.25
342.444	10.25
343.233	8.25
344.022	9.25
344.811	12.25
345.6	9.25
346.388	8.25
347.177	10.25
347.965	9.25
348.754	11.25
349.542	10.25
350.33	12.25
351.119	9.25
351.907	11.25
352.695	9.25
353.483	9.25
354.271	11.25
355.059	6.25
355.846	8.25
356.634	8.25
357.422	10.25
358.209	10.25
358.997	10.25
359.784	7.25
360.571	10.25
361.359	10.25
362.146	8.25
362.933	7.25
363.72	7.25
364.507	8.25
365.294	7.25
366.081	6.25
366.867	9.25
367.654	7.25
368.44	7.25
369.227	8.25
370.013	9.25
370.8	8.25
371.586	8.25
372.372	7.25
373.158	8.25
373.944	9.25
374.73	10.25
375.516	8.25
376.302	8.25
377.088	8.25
377.873	7.25
378.659	8.25
379.445	8.25
380.23	6.25
381.015	8.25
381.801	8.25
382.586	6.25
383.371	9.25
384.156	10.25
384.941	11.25
385.726	10.25
386.511	9.25
387.296	11.25
388.08	9.25
388.865	11.25
389.649	9.25
390.434	12.25
391.218	10.25
392.003	10.25
392.787	10.25
393.571	8.25
394.355	11.25
395.139	11.25
395.923	10.25
396.707	10.25
397.491	11.25
398.274	11.25
399.058	11.25
399.842	12.25
400.625	10.25
401.408	12.25
402.192	13.25
402.975	11.25
403.758	13.25
404.541	9.25
405.324	13.25
406.107	12.25
406.89	15.25
407.673	14.25
408.456	14.25
409.238	13.25
410.021	13.25
410.803	14.25
411.586	12.25
412.368	15.25
413.151	15.25
413.933	16.25
414.715	15.25
415.497	19.25
416.279	15.25
417.061	18.25
417.843	16.25
418.624	18.25
419.406	18.25
420.188	16.25
420.969	17.25
421.751	19.25
422.532	16.25
423.313	20.25
424.095	22.25
424.876	20.25
425.657	22.25
426.438	20.25
427.219	21.25
428	22.25
428.78	26.25
429.561	22.25
430.342	26.25
431.122	25.25
431.903	25.25
432.683	26.25
433.464	31.25
434.244	31.25
435.024	34.25
435.804	34.25
436.584	34.25
437.364	37.25
438.144	38.25
438.924	38.25
439.704	41.25
440.483	41.25
441.263	48.25
442.042	50.25
442.822	51.25
443.601	56.25
444.38	61.25
445.16	63.25
445.939	72.25
446.718	77.25
447.497	80.25
448.276	88.25
449.054	97.25
449.833	104.25
450.612	117.25
451.391	126.25
452.169	141.25
452.948	162.25
453.726	172.25
454.504	188.25
455.282	205.25
456.061	235.25
456.839	258.25
457.617	279.25
458.395	318.25
459.172	358.25
459.95	399.25
460.728	449.25
461.506	497.25
462.283	560.25
463.061	625.25
463.838	703.25
464.615	777.25
465.393	870.25
466.17	959.25
466.947	1078.25
467.724	1218.25
468.501	1351.25
469.278	1488.25
470.055	1651.25
470.831	1841.25
471.608	2061.25
472.385	2270.25
473.161	2499.25
473.938	2787.25
474.714	3075.25
475.49	3399.25
476.266	3731.25
477.043	4120.25
477.819	4527.25
478.595	4971.25
479.371	5456.25
480.146	6027.25
480.922	6610.25
481.698	7206.25
482.473	7890.25
483.249	8646.25
484.024	9412.25
484.8	10347.25
485.575	11285.25
486.35	12229.25
487.126	13388.25
487.901	14570.25
488.676	15844.25
489.451	17184.25
490.225	18586.25
491	20071.25
491.775	21556.25
492.55	23274.25
493.324	24884.25
494.099	26621.25
494.873	28265.25
495.647	30119.25
496.422	31892.25
497.196	33572.25
497.97	35180.25
498.744	36615.25
499.518	37976.25
500.292	39290.25
501.066	40495.25
501.839	41546.25
502.613	42211.25
503.387	42868.25
504.16	43215.25
504.934	43239.25
505.707	43090.25
506.48	42934.25
507.253	42286.25
508.027	41527.25
508.8	40525.25
509.573	39418.25
510.346	38254.25
511.118	36999.25
511.891	35806.25
512.664	34511.25
513.437	33110.25
514.209	31728.25
514.982	30459.25
515.754	29257.25
516.526	27944.25
517.298	26674.25
518.071	25632.25
518.843	24570.25
519.615	23597.25
520.387	22723.25
521.159	21755.25
521.93	20870.25
522.702	19994.25
523.474	19202.25
524.245	18364.25
525.017	17695.25
525.788	16849.25
526.56	15977.25
527.331	15322.25
528.102	14578.25
528.873	13860.25
529.644	13105.25
530.415	12450.25
531.186	11810.25
531.957	11166.25
532.728	10608.25
533.498	10036.25
534.269	9460.25
535.039	8917.25
535.81	8450.25
536.58	8046.25
537.351	7582.25
538.121	7170.25
538.891	6738.25
539.661	6424.25
540.431	6084.25
541.201	5756.25
541.971	5436.25
542.741	5150.25
543.51	4885.25
544.28	4625.25
545.05	4432.25
545.819	4205.25
546.588	3982.25
547.358	3792.25
548.127	3617.25
548.896	3435.25
549.665	3248.25
550.434	3099.25
551.203	2931.25
551.972	2766.25
552.741	2611.25
553.51	2480.25
554.278	2329.25
555.047	2200.25
555.815	2086.25
556.584	1964.25
557.352	1861.25
558.121	1761.25
558.889	1646.25
559.657	1566.25
560.425	1465.25
561.193	1387.25
561.961	1315.25
562.729	1240.25
563.496	1184.25
564.264	1124.25
565.032	1069.25
565.799	997.25
566.567	961.25
567.334	904.25
568.101	846.25
568.869	796.25
569.636	760.25
570.403	716.25
571.17	670.25
571.937	642.25
572.704	605.25
573.471	568.25
574.237	534.25
575.004	499.25
575.771	465.25
576.537	437.25
577.303	421.25
578.07	394.25
578.836	371.25
579.602	351.25
580.368	335.25
581.134	314.25
581.9	294.25
582.666	287.25
583.432	270.25
584.198	257.25
584.964	243.25
585.729	233.25
586.495	213.25
587.26	214.25
588.025	195.25
588.791	188.25
589.556	178.25
590.321	169.25
591.086	160.25
591.851	155.25
592.616	152.25
593.381	140.25
594.146	131.25
594.911	122.25
595.675	122.25
596.44	113.25
597.204	110.25
597.969	106.25
598.733	98.25
599.497	98.25
600.261	93.25
601.025	87.25
601.79	82.25
602.553	87.25
603.317	81.25
604.081	75.25
604.845	72.25
605.609	68.25
606.372	64.25
607.136	65.25
607.899	62.25
608.662	61.25
609.426	58.25
610.189	57.25
610.952	51.25
611.715	52.25
612.478	48.25
613.241	47.25
614.004	42.25
614.767	44.25
615.529	39.25
616.292	45.25
617.055	40.25
617.817	36.25
618.579	37.25
619.342	35.25
620.104	35.25
620.866	36.25
621.628	34.25
622.39	32.25
623.152	29.25
623.914	29.25
624.676	27.25
625.438	30.25
626.199	27.25
626.961	26.25
627.722	24.25
628.484	22.25
629.245	21.25
630.006	23.25
630.768	20.25
631.529	21.25
632.29	20.25
633.051	22.25
633.812	20.25
634.573	20.25
635.333	18.25
636.094	17.25
636.855	19.25
637.615	18.25
638.376	18.25
639.136	16.25
639.896	19.25
640.657	14.25
641.417	18.25
642.177	15.25
642.937	19.25
643.697	17.25
644.457	13.25
645.216	15.25
645.976	12.25
646.736	13.25
647.495	11.25
648.255	14.25
649.014	14.25
649.774	12.25
650.533	13.25
651.292	11.25
652.051	10.25
652.81	9.25
653.569	10.25
654.328	11.25
655.087	11.25
655.846	12.25
656.604	9.25
657.363	9.25
658.121	10.25
658.88	7.25
659.638	10.25
660.397	9.25
661.155	9.25
661.913	11.25
662.671	9.25
663.429	9.25
664.187	8.25
664.945	6.25
665.703	11.25
666.46	8.25
667.218	9.25
667.976	9.25
668.733	8.25
669.49	8.25
670.248	8.25
671.005	9.25
671.762	7.25
672.519	7.25
673.276	9.25
674.033	5.25
674.79	7.25
675.547	8.25
676.304	6.25
677.06	8.25
677.817	6.25
678.574	7.25
679.33	6.25
680.086	7.25
680.843	6.25
681.599	6.25
682.355	8.25
683.111	5.25
683.867	8.25
684.623	5.25
685.379	6.25
686.135	3.25
686.89	7.25
687.646	8.25
688.402	5.25
689.157	6.25
689.912	8.25
690.668	8.25
691.423	7.25
692.178	5.25
692.933	5.25
693.688	5.25
694.443	8.25
695.198	4.25
695.953	7.25
696.708	7.25
697.462	5.25
698.217	5.25
698.972	4.25
699.726	5.25
700.48	6.25
701.235	7.25
701.989	8.25
702.743	6.25
703.497	7.25
704.251	7.25
705.005	7.25
705.759	5.25
706.513	6.25
707.266	7.25
708.02	4.25
708.774	6.25
709.527	6.25
710.28	6.25
711.034	4.25
711.787	7.25
712.54	6.25
713.293	6.25
714.046	4.25
714.799	6.25
715.552	6.25
716.305	6.25
717.058	7.25
717.81	8.25
718.563	6.25
719.315	7.25
720.068	4.25
720.82	6.25
721.573	4.25
722.325	6.25
723.077	7.25
723.829	8.25
724.581	7.25
725.333	3.25
726.085	8.25
726.836	7.25
727.588	7.25
728.34	8.25
729.091	8.25
729.843	7.25
730.594	5.25
731.346	8.25
732.097	5.25
732.848	7.25
733.599	8.25
734.35	7.25
735.101	6.25
735.852	7.25
736.603	8.25
737.354	7.25
738.104	9.25
738.855	10.25
739.605	8.25
740.356	10.25
741.106	7.25
741.856	9.25
742.607	5.25
743.357	8.25
744.107	8.25
744.857	9.25
745.607	7.25
746.357	6.25
747.106	7.25
747.856	8.25
748.606	10.25
749.355	10.25
750.105	10.25
750.854	7.25
751.603	9.25
752.353	10.25
753.102	8.25
753.851	11.25
754.6	8.25
755.349	11.25
756.098	8.25
756.847	9.25
757.595	10.25
758.344	11.25
759.093	11.25
759.841	9.25
760.589	10.25
761.338	13.25
762.086	11.25
762.834	14.25
763.582	12.25
764.331	11.25
765.079	12.25
765.826	14.25
766.574	10.25
767.322	11.25
768.07	11.25
768.817	12.25
769.565	15.25
770.312	12.25
771.06	11.25
771.807	12.25
772.554	13.25
773.302	13.25
774.049	12.25
774.796	13.25
775.543	11.25
776.29	15.25
777.036	16.25
777.783	14.25
778.53	12.25
779.276	11.25
780.023	14.25
780.769	15.25
781.516	15.25
782.262	14.25
783.008	11.25
783.754	13.25
784.5	11.25
785.246	17.25
785.992	12.25
786.738	15.25
787.484	12.25
788.23	12.25
788.975	14.25
789.721	13.25
790.466	12.25
791.212	14.25
791.957	14.25
792.702	11.25
793.447	13.25
794.193	11.25
794.938	13.25
795.683	13.25
796.427	11.25
797.172	8.25
797.917	10.25
798.662	11.25
799.406	12.25
800.151	8.25
800.895	11.25
801.64	12.25
802.384	10.25
803.128	9.25
803.872	9.25
804.616	12.25
805.36	8.25
806.104	9.25
806.848	8.25
807.592	8.25
808.336	9.25
809.079	9.25
809.823	9.25
810.566	8.25
811.31	6.25
812.053	8.25
812.796	8.25
813.539	5.25
814.283	8.25
815.026	9.25
815.769	7.25
816.511	9.25
817.254	6.25
817.997	8.25
818.74	7.25
819.482	7.25
820.225	7.25
820.967	8.25
821.71	6.25
822.452	6.25
823.194	7.25
823.936	5.25
824.678	6.25
825.42	5.25
826.162	5.25
826.904	5.25
827.646	6.25
828.388	6.25
829.129	3.25
829.871	6.25
830.612	3.25
831.354	6.25
832.095	7.25
832.836	4.25
833.577	8.25
834.319	6.25
835.06	5.25
835.801	6.25
836.542	4.25
837.282	7.25
838.023	3.25
838.764	5.25
839.504	4.25
840.245	2.25
840.985	5.25
841.726	5.25
842.466	3.25
843.206	5.25
843.946	5.25
844.687	4.25
845.427	3.25
846.166	5.25
846.906	7.25
847.646	5.25
848.386	4.25
849.125	6.25
849.865	2.25
850.605	3.25
851.344	4.25
852.083	3.25
852.823	3.25
853.562	4.25
854.301	4.25
855.04	2.25
855.779	3.25
856.518	3.25
857.257	4.25
857.995	4.25
858.734	2.25
859.473	1.25
860.211	2.25
860.95	5.25
861.688	2.25
862.426	2.25
863.165	5.25
863.903	2.25
864.641	4.25
865.379	4.25
866.117	1.25
866.855	2.25
867.593	1.25
868.33	4.25
869.068	2.25
869.806	4.25
870.543	3.25
871.28	1.25
872.018	3.25
872.755	1.25
873.492	3.25
874.229	5.25
874.967	3.25
875.703	2.25
876.44	1.25
877.177	2.25
877.914	3.25
878.651	1.25
879.387	1.25
880.124	3.25
880.86	-0.75
881.597	3.25
882.333	0.25
883.069	0.25
883.806	2.25
884.542	2.25
885.278	0.25
886.014	-0.75
886.749	1.25
887.485	1.25
888.221	2.25
888.957	1.25
889.692	1.25
890.428	4.25
891.163	0.25
891.899	3.25
892.634	0.25
893.369	1.25
894.104	0.25
894.839	1.25
895.574	0.25
896.309	1.25
897.044	0.25
897.779	-0.75
898.514	2.25
899.248	1.25
899.983	0.25
900.717	2.25
901.452	-1.75
902.186	0.25
902.92	1.25
903.654	2.25
904.389	1.25
905.123	0.25
905.857	1.25
906.59	-0.75
907.324	1.25
908.058	2.25
908.792	0.25
909.525	0.25
910.259	0.25
910.992	0.25
911.726	1.25
912.459	1.25
913.192	-1.75
913.925	1.25
914.658	1.25
915.391	0.25
916.124	1.25
916.857	-0.75
917.59	0.25
918.323	0.25
919.055	0.25
919.788	-0.75
920.521	-1.75
921.253	0.25
921.985	2.25
922.718	0.25
923.45	-0.75
924.182	2.25
924.914	-0.75
925.646	0.25
926.378	-0.75
927.11	0.25
927.841	0.25
928.573	0.25
929.305	2.25
930.036	0.25
930.768	1.25
931.499	2.25
932.23	0.25
932.962	0.25
933.693	0.25
934.424	0.25
935.155	2.25
935.886	1.25
936.617	1.25
937.348	0.25
938.078	-1.75
938.809	0.25
939.54	0.25
940.27	1.25
941.001	-1.75
941.731	-0.75
942.461	-0.75
943.191	0.25
943.922	0.25
944.652	0.25
945.382	-1.75
946.112	-0.75
946.841	1.25
947.571	0.25
948.301	-0.75
949.031	-0.75
949.76	0.25
950.49	1.25
951.219	1.25
951.948	-0.75
952.678	-0.75
953.407	2.25
954.136	1.25
954.865	1.25
955.594	0.25
956.323	0.25
957.052	2.25
957.78	0.25
958.509	-0.75
959.238	0.25
959.966	1.25
960.695	-0.75
961.423	1.25
962.151	2.25
962.88	-2.75
963.608	1.25
964.336	-0.75
965.064	-0.75
965.792	0.25
966.52	-0.75
967.247	0.25
967.975	1.25
968.703	0.25
969.43	-0.75
970.158	0.25
970.885	0.25
971.613	-0.75
972.34	1.25
973.067	0.25
973.794	1.25
974.521	1.25
975.248	1.25
975.975	1.25
976.702	-1.75
977.429	0.25
978.156	0.25
978.882	1.25
979.609	-0.75
980.335	0.25
981.062	0.25
981.788	-1.75
982.514	-0.75
983.24	-0.75
983.967	1.25
984.693	1.25
985.419	-2.75
986.144	-0.75
986.87	0.25
987.596	1.25
988.322	-1.75
989.047	1.25
989.773	0.25
990.498	1.25
991.224	1.25
991.949	0.25
992.674	0.25
993.399	1.25
994.124	0.25
994.849	1.25
995.574	0.25
996.299	0.25
997.024	1.25
997.749	1.25
998.473	-1.75
999.198	1.25
999.922	0.25
1000.647	-1.75
1001.371	2.25
1002.095	-0.75
1002.82	-0.75
1003.544	0.25
1004.268	2.25
1004.992	2.25
1005.716	4.25
1006.439	4.25
1007.163	2.25
1007.887	2.25
1008.611	-0.75
1009.334	0.25
1010.058	0.25
1010.781	-0.75
1011.504	0.25
1012.228	-1.75
1012.951	1.25
1013.674	-0.75
1014.397	-0.75
1015.12	-0.75
