节点500_565_QEPB04081__387__09-56-51-341.txt的数据

Date: Thu Nov 13 09:56:51 CST 2025
User: PC
Spectrometer: QEPB0408
触发模式: 0
积分时间 (秒): 1.000000E-2
Scans to average: 1
启用暗噪声校正: true
启用非线性校正: false
滑动平均宽度: 0
X轴模式: Wavelengths
Number of Pixels in Spectrum: 1044
>>>>>Begin Spectral Data<<<<<
220.843	4.12
221.644	4.12
222.444	3.12
223.244	1.12
224.045	5.12
224.845	5.12
225.645	8.12
226.445	4.12
227.245	6.12
228.045	6.12
228.845	5.12
229.645	6.12
230.444	5.12
231.244	6.12
232.043	7.12
232.843	7.12
233.642	7.12
234.442	6.12
235.241	6.12
236.04	8.12
236.839	5.12
237.638	8.12
238.437	10.12
239.236	7.12
240.035	7.12
240.833	7.12
241.632	8.12
242.43	8.12
243.229	10.12
244.027	11.12
244.826	9.12
245.624	9.12
246.422	11.12
247.22	9.12
248.018	9.12
248.816	10.12
249.614	9.12
250.412	10.12
251.21	11.12
252.007	13.12
252.805	8.12
253.602	13.12
254.4	13.12
255.197	15.12
255.994	13.12
256.791	15.12
257.589	13.12
258.386	17.12
259.183	17.12
259.979	15.12
260.776	17.12
261.573	15.12
262.37	17.12
263.166	19.12
263.963	20.12
264.759	20.12
265.556	20.12
266.352	19.12
267.148	20.12
267.944	19.12
268.74	21.12
269.536	22.12
270.332	23.12
271.128	24.12
271.924	26.12
272.719	25.12
273.515	24.12
274.311	24.12
275.106	27.12
275.901	23.12
276.697	27.12
277.492	27.12
278.287	25.12
279.082	26.12
279.877	27.12
280.672	25.12
281.467	27.12
282.262	30.12
283.056	27.12
283.851	24.12
284.646	26.12
285.44	24.12
286.234	25.12
287.029	25.12
287.823	31.12
288.617	28.12
289.411	25.12
290.205	24.12
290.999	25.12
291.793	26.12
292.587	22.12
293.381	24.12
294.174	26.12
294.968	23.12
295.761	23.12
296.555	23.12
297.348	20.12
298.141	19.12
298.935	25.12
299.728	22.12
300.521	20.12
301.314	21.12
302.107	19.12
302.899	19.12
303.692	16.12
304.485	17.12
305.277	16.12
306.07	15.12
306.862	16.12
307.655	19.12
308.447	18.12
309.239	16.12
310.031	15.12
310.823	16.12
311.615	15.12
312.407	14.12
313.199	14.12
313.991	13.12
314.783	14.12
315.574	15.12
316.366	11.12
317.157	12.12
317.949	13.12
318.74	12.12
319.531	10.12
320.322	13.12
321.113	13.12
321.904	11.12
322.695	13.12
323.486	10.12
324.277	10.12
325.068	8.12
325.858	11.12
326.649	12.12
327.439	10.12
328.23	10.12
329.02	10.12
329.81	10.12
330.6	10.12
331.391	11.12
332.181	8.12
332.971	10.12
333.76	11.12
334.55	12.12
335.34	9.12
336.13	9.12
336.919	7.12
337.709	11.12
338.498	10.12
339.287	12.12
340.077	9.12
340.866	9.12
341.655	8.12
342.444	7.12
343.233	11.12
344.022	9.12
344.811	9.12
345.6	10.12
346.388	9.12
347.177	11.12
347.965	8.12
348.754	9.12
349.542	8.12
350.33	9.12
351.119	10.12
351.907	7.12
352.695	8.12
353.483	13.12
354.271	8.12
355.059	8.12
355.846	9.12
356.634	7.12
357.422	9.12
358.209	9.12
358.997	9.12
359.784	7.12
360.571	8.12
361.359	8.12
362.146	7.12
362.933	7.12
363.72	6.12
364.507	9.12
365.294	8.12
366.081	7.12
366.867	9.12
367.654	8.12
368.44	10.12
369.227	7.12
370.013	8.12
370.8	8.12
371.586	8.12
372.372	8.12
373.158	9.12
373.944	9.12
374.73	8.12
375.516	6.12
376.302	9.12
377.088	9.12
377.873	7.12
378.659	9.12
379.445	9.12
380.23	6.12
381.015	4.12
381.801	9.12
382.586	7.12
383.371	7.12
384.156	7.12
384.941	9.12
385.726	8.12
386.511	8.12
387.296	8.12
388.08	9.12
388.865	12.12
389.649	11.12
390.434	7.12
391.218	8.12
392.003	12.12
392.787	11.12
393.571	9.12
394.355	10.12
395.139	9.12
395.923	9.12
396.707	11.12
397.491	8.12
398.274	9.12
399.058	11.12
399.842	12.12
400.625	10.12
401.408	11.12
402.192	14.12
402.975	12.12
403.758	12.12
404.541	12.12
405.324	12.12
406.107	12.12
406.89	11.12
407.673	13.12
408.456	15.12
409.238	14.12
410.021	12.12
410.803	13.12
411.586	13.12
412.368	13.12
413.151	15.12
413.933	13.12
414.715	16.12
415.497	14.12
416.279	14.12
417.061	13.12
417.843	16.12
418.624	16.12
419.406	13.12
420.188	14.12
420.969	15.12
421.751	16.12
422.532	18.12
423.313	19.12
424.095	16.12
424.876	21.12
425.657	21.12
426.438	18.12
427.219	20.12
428	19.12
428.78	21.12
429.561	23.12
430.342	23.12
431.122	24.12
431.903	24.12
432.683	25.12
433.464	27.12
434.244	30.12
435.024	27.12
435.804	31.12
436.584	30.12
437.364	31.12
438.144	33.12
438.924	36.12
439.704	39.12
440.483	40.12
441.263	46.12
442.042	49.12
442.822	54.12
443.601	57.12
444.38	59.12
445.16	63.12
445.939	67.12
446.718	74.12
447.497	79.12
448.276	88.12
449.054	98.12
449.833	107.12
450.612	114.12
451.391	125.12
452.169	137.12
452.948	155.12
453.726	169.12
454.504	190.12
455.282	215.12
456.061	239.12
456.839	254.12
457.617	293.12
458.395	318.12
459.172	360.12
459.95	411.12
460.728	451.12
461.506	498.12
462.283	558.12
463.061	620.12
463.838	680.12
464.615	768.12
465.393	845.12
466.17	934.12
466.947	1050.12
467.724	1175.12
468.501	1303.12
469.278	1434.12
470.055	1586.12
470.831	1742.12
471.608	1939.12
472.385	2154.12
473.161	2346.12
473.938	2586.12
474.714	2842.12
475.49	3126.12
476.266	3435.12
477.043	3737.12
477.819	4126.12
478.595	4502.12
479.371	4900.12
480.146	5344.12
480.922	5848.12
481.698	6369.12
482.473	6924.12
483.249	7489.12
484.024	8141.12
484.8	8864.12
485.575	9695.12
486.35	10441.12
487.126	11367.12
487.901	12289.12
488.676	13275.12
489.451	14394.12
490.225	15577.12
491	16688.12
491.775	18010.12
492.55	19273.12
493.324	20623.12
494.099	21928.12
494.873	23356.12
495.647	24856.12
496.422	26216.12
497.196	27740.12
497.97	29147.12
498.744	30440.12
499.518	31741.12
500.292	32873.12
501.066	33996.12
501.839	35032.12
502.613	35825.12
503.387	36477.12
504.16	37100.12
504.934	37456.12
505.707	37546.12
506.48	37524.12
507.253	37311.12
508.027	36778.12
508.8	36238.12
509.573	35521.12
510.346	34769.12
511.118	33807.12
511.891	32994.12
512.664	31906.12
513.437	30713.12
514.209	29561.12
514.982	28437.12
515.754	27408.12
516.526	26217.12
517.298	25143.12
518.071	24161.12
518.843	23203.12
519.615	22166.12
520.387	21344.12
521.159	20528.12
521.93	19729.12
522.702	18858.12
523.474	18075.12
524.245	17426.12
525.017	16699.12
525.788	15977.12
526.56	15263.12
527.331	14606.12
528.102	13920.12
528.873	13270.12
529.644	12627.12
530.415	11973.12
531.186	11376.12
531.957	10846.12
532.728	10326.12
533.498	9766.12
534.269	9226.12
535.039	8721.12
535.81	8267.12
536.58	7832.12
537.351	7422.12
538.121	7008.12
538.891	6630.12
539.661	6290.12
540.431	5956.12
541.201	5590.12
541.971	5346.12
542.741	5054.12
543.51	4777.12
544.28	4543.12
545.05	4317.12
545.819	4128.12
546.588	3930.12
547.358	3728.12
548.127	3517.12
548.896	3385.12
549.665	3201.12
550.434	3032.12
551.203	2859.12
551.972	2733.12
552.741	2597.12
553.51	2442.12
554.278	2299.12
555.047	2183.12
555.815	2059.12
556.584	1967.12
557.352	1837.12
558.121	1736.12
558.889	1642.12
559.657	1557.12
560.425	1455.12
561.193	1395.12
561.961	1315.12
562.729	1245.12
563.496	1184.12
564.264	1111.12
565.032	1055.12
565.799	1000.12
566.567	936.12
567.334	904.12
568.101	839.12
568.869	795.12
569.636	761.12
570.403	707.12
571.17	680.12
571.937	636.12
572.704	609.12
573.471	564.12
574.237	539.12
575.004	499.12
575.771	464.12
576.537	444.12
577.303	417.12
578.07	408.12
578.836	373.12
579.602	351.12
580.368	326.12
581.134	316.12
581.9	300.12
582.666	286.12
583.432	270.12
584.198	254.12
584.964	250.12
585.729	225.12
586.495	215.12
587.26	207.12
588.025	202.12
588.791	187.12
589.556	176.12
590.321	168.12
591.086	160.12
591.851	155.12
592.616	141.12
593.381	138.12
594.146	132.12
594.911	127.12
595.675	119.12
596.44	114.12
597.204	110.12
597.969	107.12
598.733	98.12
599.497	93.12
600.261	89.12
601.025	88.12
601.79	84.12
602.553	80.12
603.317	77.12
604.081	73.12
604.845	73.12
605.609	70.12
606.372	62.12
607.136	64.12
607.899	60.12
608.662	61.12
609.426	56.12
610.189	57.12
610.952	50.12
611.715	53.12
612.478	48.12
613.241	45.12
614.004	42.12
614.767	40.12
615.529	42.12
616.292	39.12
617.055	39.12
617.817	38.12
618.579	35.12
619.342	34.12
620.104	35.12
620.866	32.12
621.628	31.12
622.39	29.12
623.152	30.12
623.914	29.12
624.676	30.12
625.438	27.12
626.199	26.12
626.961	26.12
627.722	24.12
628.484	22.12
629.245	23.12
630.006	24.12
630.768	23.12
631.529	18.12
632.29	20.12
633.051	18.12
633.812	21.12
634.573	18.12
635.333	18.12
636.094	19.12
636.855	19.12
637.615	14.12
638.376	18.12
639.136	16.12
639.896	16.12
640.657	13.12
641.417	14.12
642.177	15.12
642.937	13.12
643.697	17.12
644.457	14.12
645.216	13.12
645.976	16.12
646.736	13.12
647.495	14.12
648.255	13.12
649.014	12.12
649.774	13.12
650.533	11.12
651.292	10.12
652.051	13.12
652.81	9.12
653.569	11.12
654.328	10.12
655.087	13.12
655.846	8.12
656.604	9.12
657.363	9.12
658.121	8.12
658.88	9.12
659.638	10.12
660.397	9.12
661.155	8.12
661.913	9.12
662.671	7.12
663.429	11.12
664.187	9.12
664.945	10.12
665.703	9.12
666.46	6.12
667.218	8.12
667.976	5.12
668.733	9.12
669.49	5.12
670.248	7.12
671.005	6.12
671.762	7.12
672.519	7.12
673.276	11.12
674.033	5.12
674.79	7.12
675.547	6.12
676.304	7.12
677.06	8.12
677.817	6.12
678.574	7.12
679.33	7.12
680.086	6.12
680.843	5.12
681.599	7.12
682.355	7.12
683.111	5.12
683.867	7.12
684.623	7.12
685.379	6.12
686.135	7.12
686.89	4.12
687.646	7.12
688.402	7.12
689.157	6.12
689.912	6.12
690.668	5.12
691.423	6.12
692.178	6.12
692.933	9.12
693.688	5.12
694.443	5.12
695.198	7.12
695.953	8.12
696.708	10.12
697.462	5.12
698.217	7.12
698.972	5.12
699.726	8.12
700.48	4.12
701.235	7.12
701.989	5.12
702.743	5.12
703.497	5.12
704.251	6.12
705.005	5.12
705.759	5.12
706.513	7.12
707.266	7.12
708.02	7.12
708.774	6.12
709.527	6.12
710.28	4.12
711.034	4.12
711.787	8.12
712.54	6.12
713.293	6.12
714.046	8.12
714.799	9.12
715.552	5.12
716.305	7.12
717.058	6.12
717.81	7.12
718.563	7.12
719.315	7.12
720.068	5.12
720.82	7.12
721.573	7.12
722.325	4.12
723.077	6.12
723.829	5.12
724.581	6.12
725.333	9.12
726.085	5.12
726.836	7.12
727.588	4.12
728.34	7.12
729.091	7.12
729.843	6.12
730.594	8.12
731.346	6.12
732.097	6.12
732.848	7.12
733.599	8.12
734.35	6.12
735.101	7.12
735.852	7.12
736.603	6.12
737.354	7.12
738.104	8.12
738.855	8.12
739.605	7.12
740.356	10.12
741.106	9.12
741.856	7.12
742.607	9.12
743.357	11.12
744.107	9.12
744.857	5.12
745.607	8.12
746.357	8.12
747.106	7.12
747.856	7.12
748.606	7.12
749.355	5.12
750.105	9.12
750.854	7.12
751.603	10.12
752.353	8.12
753.102	9.12
753.851	8.12
754.6	7.12
755.349	9.12
756.098	10.12
756.847	9.12
757.595	12.12
758.344	9.12
759.093	11.12
759.841	10.12
760.589	7.12
761.338	9.12
762.086	8.12
762.834	9.12
763.582	9.12
764.331	9.12
765.079	12.12
765.826	10.12
766.574	12.12
767.322	12.12
768.07	10.12
768.817	8.12
769.565	13.12
770.312	13.12
771.06	11.12
771.807	13.12
772.554	12.12
773.302	11.12
774.049	11.12
774.796	14.12
775.543	12.12
776.29	13.12
777.036	11.12
777.783	10.12
778.53	12.12
779.276	10.12
780.023	13.12
780.769	12.12
781.516	14.12
782.262	14.12
783.008	11.12
783.754	14.12
784.5	10.12
785.246	15.12
785.992	15.12
786.738	13.12
787.484	12.12
788.23	11.12
788.975	13.12
789.721	11.12
790.466	14.12
791.212	12.12
791.957	13.12
792.702	12.12
793.447	10.12
794.193	11.12
794.938	10.12
795.683	11.12
796.427	11.12
797.172	9.12
797.917	11.12
798.662	11.12
799.406	11.12
800.151	7.12
800.895	9.12
801.64	9.12
802.384	11.12
803.128	11.12
803.872	11.12
804.616	13.12
805.36	9.12
806.104	10.12
806.848	11.12
807.592	6.12
808.336	8.12
809.079	9.12
809.823	9.12
810.566	9.12
811.31	8.12
812.053	6.12
812.796	7.12
813.539	6.12
814.283	6.12
815.026	7.12
815.769	5.12
816.511	10.12
817.254	7.12
817.997	8.12
818.74	6.12
819.482	8.12
820.225	8.12
820.967	3.12
821.71	8.12
822.452	5.12
823.194	7.12
823.936	7.12
824.678	4.12
825.42	8.12
826.162	3.12
826.904	7.12
827.646	4.12
828.388	9.12
829.129	5.12
829.871	4.12
830.612	5.12
831.354	4.12
832.095	5.12
832.836	6.12
833.577	5.12
834.319	5.12
835.06	3.12
835.801	5.12
836.542	4.12
837.282	6.12
838.023	4.12
838.764	5.12
839.504	4.12
840.245	5.12
840.985	5.12
841.726	5.12
842.466	5.12
843.206	4.12
843.946	5.12
844.687	5.12
845.427	4.12
846.166	3.12
846.906	3.12
847.646	5.12
848.386	2.12
849.125	6.12
849.865	5.12
850.605	5.12
851.344	5.12
852.083	3.12
852.823	4.12
853.562	6.12
854.301	5.12
855.04	5.12
855.779	5.12
856.518	4.12
857.257	3.12
857.995	4.12
858.734	4.12
859.473	5.12
860.211	4.12
860.95	3.12
861.688	5.12
862.426	5.12
863.165	4.12
863.903	2.12
864.641	2.12
865.379	4.12
866.117	4.12
866.855	1.12
867.593	0.12
868.33	3.12
869.068	1.12
869.806	3.12
870.543	4.12
871.28	5.12
872.018	3.12
872.755	4.12
873.492	4.12
874.229	4.12
874.967	2.12
875.703	1.12
876.44	1.12
877.177	1.12
877.914	2.12
878.651	1.12
879.387	1.12
880.124	2.12
880.86	0.12
881.597	1.12
882.333	1.12
883.069	2.12
883.806	1.12
884.542	2.12
885.278	2.12
886.014	1.12
886.749	1.12
887.485	1.12
888.221	0.12
888.957	1.12
889.692	2.12
890.428	0.12
891.163	0.12
891.899	3.12
892.634	-0.88
893.369	2.12
894.104	1.12
894.839	2.12
895.574	4.12
896.309	2.12
897.044	1.12
897.779	2.12
898.514	2.12
899.248	2.12
899.983	2.12
900.717	0.12
901.452	0.12
902.186	5.12
902.92	1.12
903.654	2.12
904.389	1.12
905.123	2.12
905.857	1.12
906.59	1.12
907.324	0.12
908.058	1.12
908.792	2.12
909.525	0.12
910.259	-0.88
910.992	1.12
911.726	0.12
912.459	3.12
913.192	0.12
913.925	2.12
914.658	4.12
915.391	1.12
916.124	0.12
916.857	2.12
917.59	1.12
918.323	-0.88
919.055	3.12
919.788	1.12
920.521	1.12
921.253	0.12
921.985	1.12
922.718	3.12
923.45	0.12
924.182	1.12
924.914	1.12
925.646	0.12
926.378	0.12
927.11	1.12
927.841	2.12
928.573	1.12
929.305	1.12
930.036	1.12
930.768	2.12
931.499	0.12
932.23	1.12
932.962	-0.88
933.693	1.12
934.424	-0.88
935.155	1.12
935.886	2.12
936.617	0.12
937.348	-0.88
938.078	2.12
938.809	0.12
939.54	1.12
940.27	1.12
941.001	1.12
941.731	2.12
942.461	1.12
943.191	1.12
943.922	-0.88
944.652	-1.88
945.382	1.12
946.112	1.12
946.841	0.12
947.571	4.12
948.301	0.12
949.031	-0.88
949.76	2.12
950.49	1.12
951.219	1.12
951.948	-0.88
952.678	1.12
953.407	0.12
954.136	2.12
954.865	1.12
955.594	0.12
956.323	-0.88
957.052	0.12
957.78	1.12
958.509	1.12
959.238	1.12
959.966	1.12
960.695	2.12
961.423	2.12
962.151	0.12
962.88	0.12
963.608	0.12
964.336	0.12
965.064	1.12
965.792	0.12
966.52	3.12
967.247	0.12
967.975	1.12
968.703	0.12
969.43	-0.88
970.158	2.12
970.885	0.12
971.613	-0.88
972.34	1.12
973.067	2.12
973.794	-2.88
974.521	1.12
975.248	0.12
975.975	1.12
976.702	0.12
977.429	-0.88
978.156	1.12
978.882	2.12
979.609	0.12
980.335	-0.88
981.062	0.12
981.788	1.12
982.514	0.12
983.24	1.12
983.967	0.12
984.693	-0.88
985.419	1.12
986.144	-1.88
986.87	-1.88
987.596	0.12
988.322	0.12
989.047	2.12
989.773	1.12
990.498	1.12
991.224	1.12
991.949	1.12
992.674	2.12
993.399	1.12
994.124	-0.88
994.849	2.12
995.574	1.12
996.299	-0.88
997.024	0.12
997.749	1.12
998.473	1.12
999.198	0.12
999.922	1.12
1000.647	1.12
1001.371	3.12
1002.095	0.12
1002.82	0.12
1003.544	-1.88
1004.268	4.12
1004.992	4.12
1005.716	1.12
1006.439	4.12
1007.163	3.12
1007.887	4.12
1008.611	0.12
1009.334	1.12
1010.058	0.12
1010.781	1.12
1011.504	1.12
1012.228	-0.88
1012.951	0.12
1013.674	-0.88
1014.397	0.12
1015.12	-0.88
