节点500_565_QEPB04081__270__09-54-54-591.txt的数据

Date: Thu Nov 13 09:54:54 CST 2025
User: PC
Spectrometer: QEPB0408
触发模式: 0
积分时间 (秒): 1.000000E-2
Scans to average: 1
启用暗噪声校正: true
启用非线性校正: false
滑动平均宽度: 0
X轴模式: Wavelengths
Number of Pixels in Spectrum: 1044
>>>>>Begin Spectral Data<<<<<
220.843	2.62
221.644	5.62
222.444	4.62
223.244	5.62
224.045	6.62
224.845	3.62
225.645	7.62
226.445	4.62
227.245	3.62
228.045	3.62
228.845	7.62
229.645	4.62
230.444	8.62
231.244	7.62
232.043	7.62
232.843	6.62
233.642	7.62
234.442	9.62
235.241	8.62
236.04	8.62
236.839	6.62
237.638	10.62
238.437	9.62
239.236	8.62
240.035	8.62
240.833	6.62
241.632	7.62
242.43	9.62
243.229	7.62
244.027	9.62
244.826	10.62
245.624	11.62
246.422	9.62
247.22	11.62
248.018	12.62
248.816	12.62
249.614	11.62
250.412	13.62
251.21	11.62
252.007	11.62
252.805	12.62
253.602	12.62
254.4	12.62
255.197	15.62
255.994	15.62
256.791	15.62
257.589	16.62
258.386	19.62
259.183	18.62
259.979	17.62
260.776	16.62
261.573	18.62
262.37	21.62
263.166	19.62
263.963	18.62
264.759	19.62
265.556	20.62
266.352	23.62
267.148	22.62
267.944	22.62
268.74	23.62
269.536	24.62
270.332	25.62
271.128	23.62
271.924	24.62
272.719	25.62
273.515	28.62
274.311	25.62
275.106	29.62
275.901	27.62
276.697	27.62
277.492	28.62
278.287	27.62
279.082	28.62
279.877	28.62
280.672	31.62
281.467	26.62
282.262	31.62
283.056	25.62
283.851	28.62
284.646	30.62
285.44	30.62
286.234	25.62
287.029	29.62
287.823	29.62
288.617	29.62
289.411	30.62
290.205	27.62
290.999	23.62
291.793	27.62
292.587	28.62
293.381	24.62
294.174	25.62
294.968	24.62
295.761	23.62
296.555	22.62
297.348	23.62
298.141	21.62
298.935	27.62
299.728	20.62
300.521	21.62
301.314	20.62
302.107	18.62
302.899	20.62
303.692	19.62
304.485	19.62
305.277	20.62
306.07	19.62
306.862	17.62
307.655	20.62
308.447	18.62
309.239	16.62
310.031	18.62
310.823	17.62
311.615	18.62
312.407	15.62
313.199	12.62
313.991	14.62
314.783	10.62
315.574	13.62
316.366	12.62
317.157	13.62
317.949	16.62
318.74	9.62
319.531	13.62
320.322	11.62
321.113	10.62
321.904	12.62
322.695	11.62
323.486	12.62
324.277	10.62
325.068	12.62
325.858	11.62
326.649	9.62
327.439	9.62
328.23	9.62
329.02	8.62
329.81	10.62
330.6	9.62
331.391	9.62
332.181	9.62
332.971	10.62
333.76	9.62
334.55	9.62
335.34	7.62
336.13	8.62
336.919	8.62
337.709	10.62
338.498	9.62
339.287	8.62
340.077	10.62
340.866	9.62
341.655	10.62
342.444	9.62
343.233	8.62
344.022	7.62
344.811	7.62
345.6	9.62
346.388	8.62
347.177	8.62
347.965	8.62
348.754	10.62
349.542	9.62
350.33	9.62
351.119	10.62
351.907	10.62
352.695	9.62
353.483	7.62
354.271	11.62
355.059	9.62
355.846	7.62
356.634	8.62
357.422	8.62
358.209	9.62
358.997	8.62
359.784	9.62
360.571	8.62
361.359	9.62
362.146	8.62
362.933	9.62
363.72	8.62
364.507	8.62
365.294	9.62
366.081	7.62
366.867	6.62
367.654	8.62
368.44	7.62
369.227	6.62
370.013	7.62
370.8	7.62
371.586	6.62
372.372	7.62
373.158	8.62
373.944	8.62
374.73	6.62
375.516	10.62
376.302	7.62
377.088	7.62
377.873	7.62
378.659	5.62
379.445	9.62
380.23	9.62
381.015	8.62
381.801	8.62
382.586	4.62
383.371	7.62
384.156	8.62
384.941	9.62
385.726	10.62
386.511	9.62
387.296	9.62
388.08	7.62
388.865	9.62
389.649	9.62
390.434	9.62
391.218	9.62
392.003	9.62
392.787	8.62
393.571	10.62
394.355	8.62
395.139	10.62
395.923	10.62
396.707	10.62
397.491	12.62
398.274	9.62
399.058	10.62
399.842	10.62
400.625	6.62
401.408	15.62
402.192	11.62
402.975	12.62
403.758	12.62
404.541	11.62
405.324	14.62
406.107	12.62
406.89	12.62
407.673	12.62
408.456	12.62
409.238	14.62
410.021	13.62
410.803	17.62
411.586	14.62
412.368	14.62
413.151	12.62
413.933	11.62
414.715	14.62
415.497	16.62
416.279	16.62
417.061	16.62
417.843	15.62
418.624	17.62
419.406	16.62
420.188	16.62
420.969	18.62
421.751	21.62
422.532	20.62
423.313	20.62
424.095	19.62
424.876	19.62
425.657	19.62
426.438	18.62
427.219	19.62
428	21.62
428.78	23.62
429.561	24.62
430.342	25.62
431.122	26.62
431.903	25.62
432.683	26.62
433.464	28.62
434.244	28.62
435.024	30.62
435.804	34.62
436.584	36.62
437.364	38.62
438.144	39.62
438.924	38.62
439.704	41.62
440.483	43.62
441.263	46.62
442.042	52.62
442.822	52.62
443.601	58.62
444.38	55.62
445.16	68.62
445.939	68.62
446.718	79.62
447.497	82.62
448.276	95.62
449.054	101.62
449.833	109.62
450.612	120.62
451.391	131.62
452.169	147.62
452.948	153.62
453.726	176.62
454.504	194.62
455.282	210.62
456.061	237.62
456.839	267.62
457.617	302.62
458.395	322.62
459.172	372.62
459.95	413.62
460.728	463.62
461.506	509.62
462.283	578.62
463.061	640.62
463.838	721.62
464.615	798.62
465.393	894.62
466.17	995.62
466.947	1095.62
467.724	1215.62
468.501	1365.62
469.278	1522.62
470.055	1668.62
470.831	1868.62
471.608	2075.62
472.385	2286.62
473.161	2549.62
473.938	2769.62
474.714	3053.62
475.49	3378.62
476.266	3702.62
477.043	4070.62
477.819	4463.62
478.595	4926.62
479.371	5368.62
480.146	5896.62
480.922	6442.62
481.698	7010.62
482.473	7672.62
483.249	8340.62
484.024	9131.62
484.8	9964.62
485.575	10853.62
486.35	11792.62
487.126	12763.62
487.901	13909.62
488.676	15112.62
489.451	16339.62
490.225	17667.62
491	19062.62
491.775	20481.62
492.55	22028.62
493.324	23639.62
494.099	25138.62
494.873	26767.62
495.647	28522.62
496.422	30177.62
497.196	31657.62
497.97	33291.62
498.744	34740.62
499.518	36120.62
500.292	37396.62
501.066	38606.62
501.839	39622.62
502.613	40389.62
503.387	41106.62
504.16	41591.62
504.934	41813.62
505.707	41844.62
506.48	41696.62
507.253	41348.62
508.027	40619.62
508.8	39727.62
509.573	38821.62
510.346	37768.62
511.118	36733.62
511.891	35716.62
512.664	34402.62
513.437	33078.62
514.209	31796.62
514.982	30590.62
515.754	29283.62
516.526	28048.62
517.298	26867.62
518.071	25798.62
518.843	24789.62
519.615	23684.62
520.387	22820.62
521.159	21960.62
521.93	21003.62
522.702	20151.62
523.474	19332.62
524.245	18537.62
525.017	17828.62
525.788	17003.62
526.56	16271.62
527.331	15492.62
528.102	14816.62
528.873	14017.62
529.644	13392.62
530.415	12682.62
531.186	11996.62
531.957	11431.62
532.728	10860.62
533.498	10250.62
534.269	9738.62
535.039	9153.62
535.81	8664.62
536.58	8205.62
537.351	7795.62
538.121	7350.62
538.891	6935.62
539.661	6614.62
540.431	6243.62
541.201	5895.62
541.971	5581.62
542.741	5301.62
543.51	5025.62
544.28	4774.62
545.05	4536.62
545.819	4298.62
546.588	4096.62
547.358	3890.62
548.127	3709.62
548.896	3514.62
549.665	3360.62
550.434	3170.62
551.203	3026.62
551.972	2854.62
552.741	2685.62
553.51	2533.62
554.278	2390.62
555.047	2272.62
555.815	2160.62
556.584	2034.62
557.352	1916.62
558.121	1803.62
558.889	1703.62
559.657	1608.62
560.425	1524.62
561.193	1433.62
561.961	1364.62
562.729	1295.62
563.496	1210.62
564.264	1149.62
565.032	1091.62
565.799	1032.62
566.567	990.62
567.334	934.62
568.101	873.62
568.869	821.62
569.636	773.62
570.403	737.62
571.17	689.62
571.937	657.62
572.704	618.62
573.471	575.62
574.237	551.62
575.004	520.62
575.771	491.62
576.537	456.62
577.303	443.62
578.07	412.62
578.836	385.62
579.602	373.62
580.368	345.62
581.134	328.62
581.9	304.62
582.666	304.62
583.432	273.62
584.198	266.62
584.964	256.62
585.729	240.62
586.495	232.62
587.26	215.62
588.025	204.62
588.791	194.62
589.556	183.62
590.321	171.62
591.086	162.62
591.851	160.62
592.616	154.62
593.381	141.62
594.146	135.62
594.911	133.62
595.675	124.62
596.44	120.62
597.204	115.62
597.969	111.62
598.733	102.62
599.497	99.62
600.261	97.62
601.025	92.62
601.79	86.62
602.553	88.62
603.317	80.62
604.081	80.62
604.845	76.62
605.609	66.62
606.372	68.62
607.136	69.62
607.899	65.62
608.662	59.62
609.426	56.62
610.189	56.62
610.952	52.62
611.715	53.62
612.478	48.62
613.241	47.62
614.004	45.62
614.767	45.62
615.529	45.62
616.292	40.62
617.055	41.62
617.817	37.62
618.579	35.62
619.342	36.62
620.104	35.62
620.866	32.62
621.628	33.62
622.39	31.62
623.152	32.62
623.914	28.62
624.676	25.62
625.438	26.62
626.199	27.62
626.961	26.62
627.722	22.62
628.484	26.62
629.245	22.62
630.006	22.62
630.768	22.62
631.529	20.62
632.29	22.62
633.051	19.62
633.812	20.62
634.573	22.62
635.333	16.62
636.094	17.62
636.855	18.62
637.615	19.62
638.376	17.62
639.136	18.62
639.896	14.62
640.657	15.62
641.417	14.62
642.177	15.62
642.937	16.62
643.697	13.62
644.457	16.62
645.216	13.62
645.976	13.62
646.736	13.62
647.495	11.62
648.255	13.62
649.014	11.62
649.774	13.62
650.533	13.62
651.292	10.62
652.051	9.62
652.81	12.62
653.569	8.62
654.328	10.62
655.087	10.62
655.846	8.62
656.604	11.62
657.363	8.62
658.121	9.62
658.88	8.62
659.638	11.62
660.397	9.62
661.155	9.62
661.913	10.62
662.671	10.62
663.429	9.62
664.187	8.62
664.945	10.62
665.703	8.62
666.46	7.62
667.218	9.62
667.976	8.62
668.733	9.62
669.49	8.62
670.248	6.62
671.005	10.62
671.762	9.62
672.519	6.62
673.276	7.62
674.033	5.62
674.79	6.62
675.547	8.62
676.304	7.62
677.06	7.62
677.817	6.62
678.574	9.62
679.33	5.62
680.086	7.62
680.843	3.62
681.599	8.62
682.355	8.62
683.111	7.62
683.867	7.62
684.623	6.62
685.379	6.62
686.135	7.62
686.89	4.62
687.646	6.62
688.402	4.62
689.157	4.62
689.912	9.62
690.668	5.62
691.423	4.62
692.178	8.62
692.933	5.62
693.688	8.62
694.443	7.62
695.198	5.62
695.953	5.62
696.708	5.62
697.462	5.62
698.217	7.62
698.972	6.62
699.726	5.62
700.48	6.62
701.235	4.62
701.989	5.62
702.743	7.62
703.497	6.62
704.251	7.62
705.005	3.62
705.759	6.62
706.513	6.62
707.266	4.62
708.02	4.62
708.774	4.62
709.527	4.62
710.28	5.62
711.034	4.62
711.787	5.62
712.54	5.62
713.293	4.62
714.046	7.62
714.799	6.62
715.552	7.62
716.305	6.62
717.058	4.62
717.81	8.62
718.563	5.62
719.315	5.62
720.068	6.62
720.82	6.62
721.573	8.62
722.325	5.62
723.077	4.62
723.829	6.62
724.581	5.62
725.333	4.62
726.085	3.62
726.836	7.62
727.588	6.62
728.34	9.62
729.091	4.62
729.843	7.62
730.594	6.62
731.346	6.62
732.097	6.62
732.848	6.62
733.599	7.62
734.35	8.62
735.101	6.62
735.852	7.62
736.603	5.62
737.354	8.62
738.104	7.62
738.855	8.62
739.605	6.62
740.356	8.62
741.106	11.62
741.856	8.62
742.607	7.62
743.357	7.62
744.107	8.62
744.857	7.62
745.607	6.62
746.357	6.62
747.106	9.62
747.856	9.62
748.606	10.62
749.355	8.62
750.105	8.62
750.854	8.62
751.603	7.62
752.353	9.62
753.102	10.62
753.851	10.62
754.6	12.62
755.349	9.62
756.098	10.62
756.847	7.62
757.595	9.62
758.344	12.62
759.093	8.62
759.841	8.62
760.589	13.62
761.338	12.62
762.086	10.62
762.834	8.62
763.582	11.62
764.331	11.62
765.079	12.62
765.826	12.62
766.574	9.62
767.322	13.62
768.07	13.62
768.817	15.62
769.565	12.62
770.312	12.62
771.06	12.62
771.807	12.62
772.554	14.62
773.302	11.62
774.049	13.62
774.796	13.62
775.543	13.62
776.29	13.62
777.036	13.62
777.783	13.62
778.53	14.62
779.276	13.62
780.023	11.62
780.769	14.62
781.516	12.62
782.262	13.62
783.008	13.62
783.754	14.62
784.5	14.62
785.246	12.62
785.992	13.62
786.738	14.62
787.484	15.62
788.23	12.62
788.975	12.62
789.721	13.62
790.466	12.62
791.212	15.62
791.957	12.62
792.702	14.62
793.447	10.62
794.193	10.62
794.938	11.62
795.683	11.62
796.427	11.62
797.172	12.62
797.917	11.62
798.662	13.62
799.406	9.62
800.151	11.62
800.895	13.62
801.64	11.62
802.384	8.62
803.128	8.62
803.872	10.62
804.616	7.62
805.36	11.62
806.104	9.62
806.848	8.62
807.592	9.62
808.336	9.62
809.079	10.62
809.823	6.62
810.566	8.62
811.31	8.62
812.053	8.62
812.796	7.62
813.539	7.62
814.283	7.62
815.026	7.62
815.769	3.62
816.511	4.62
817.254	8.62
817.997	6.62
818.74	6.62
819.482	6.62
820.225	6.62
820.967	4.62
821.71	6.62
822.452	6.62
823.194	4.62
823.936	6.62
824.678	6.62
825.42	4.62
826.162	4.62
826.904	4.62
827.646	8.62
828.388	4.62
829.129	5.62
829.871	7.62
830.612	5.62
831.354	7.62
832.095	6.62
832.836	6.62
833.577	6.62
834.319	5.62
835.06	4.62
835.801	4.62
836.542	3.62
837.282	5.62
838.023	4.62
838.764	6.62
839.504	4.62
840.245	4.62
840.985	2.62
841.726	6.62
842.466	1.62
843.206	4.62
843.946	6.62
844.687	5.62
845.427	4.62
846.166	4.62
846.906	3.62
847.646	3.62
848.386	2.62
849.125	5.62
849.865	5.62
850.605	4.62
851.344	4.62
852.083	3.62
852.823	3.62
853.562	3.62
854.301	1.62
855.04	3.62
855.779	0.62
856.518	5.62
857.257	3.62
857.995	2.62
858.734	4.62
859.473	1.62
860.211	4.62
860.95	4.62
861.688	2.62
862.426	3.62
863.165	0.62
863.903	2.62
864.641	1.62
865.379	2.62
866.117	1.62
866.855	4.62
867.593	3.62
868.33	3.62
869.068	1.62
869.806	0.62
870.543	3.62
871.28	2.62
872.018	1.62
872.755	3.62
873.492	1.62
874.229	1.62
874.967	2.62
875.703	4.62
876.44	2.62
877.177	2.62
877.914	0.62
878.651	3.62
879.387	-0.38
880.124	-0.38
880.86	-0.38
881.597	1.62
882.333	2.62
883.069	2.62
883.806	0.62
884.542	-0.38
885.278	2.62
886.014	1.62
886.749	1.62
887.485	1.62
888.221	2.62
888.957	0.62
889.692	0.62
890.428	0.62
891.163	1.62
891.899	2.62
892.634	0.62
893.369	0.62
894.104	1.62
894.839	2.62
895.574	-2.38
896.309	1.62
897.044	1.62
897.779	2.62
898.514	1.62
899.248	1.62
899.983	-0.38
900.717	-0.38
901.452	-1.38
902.186	-0.38
902.92	2.62
903.654	2.62
904.389	-0.38
905.123	-0.38
905.857	0.62
906.59	1.62
907.324	0.62
908.058	1.62
908.792	1.62
909.525	0.62
910.259	0.62
910.992	0.62
911.726	1.62
912.459	0.62
913.192	2.62
913.925	0.62
914.658	0.62
915.391	1.62
916.124	-0.38
916.857	-2.38
917.59	0.62
918.323	-0.38
919.055	0.62
919.788	1.62
920.521	0.62
921.253	-1.38
921.985	1.62
922.718	-0.38
923.45	-0.38
924.182	-0.38
924.914	-1.38
925.646	1.62
926.378	-0.38
927.11	0.62
927.841	-0.38
928.573	0.62
929.305	-0.38
930.036	-2.38
930.768	0.62
931.499	1.62
932.23	0.62
932.962	-2.38
933.693	-0.38
934.424	0.62
935.155	0.62
935.886	0.62
936.617	1.62
937.348	1.62
938.078	1.62
938.809	0.62
939.54	-1.38
940.27	1.62
941.001	2.62
941.731	0.62
942.461	-1.38
943.191	0.62
943.922	2.62
944.652	0.62
945.382	0.62
946.112	2.62
946.841	-0.38
947.571	1.62
948.301	-0.38
949.031	-0.38
949.76	-0.38
950.49	2.62
951.219	0.62
951.948	1.62
952.678	-2.38
953.407	0.62
954.136	0.62
954.865	-1.38
955.594	0.62
956.323	0.62
957.052	0.62
957.78	0.62
958.509	0.62
959.238	-0.38
959.966	0.62
960.695	-0.38
961.423	-0.38
962.151	0.62
962.88	-1.38
963.608	-0.38
964.336	1.62
965.064	0.62
965.792	1.62
966.52	-1.38
967.247	0.62
967.975	-1.38
968.703	0.62
969.43	-0.38
970.158	-0.38
970.885	-1.38
971.613	-2.38
972.34	-1.38
973.067	1.62
973.794	-0.38
974.521	1.62
975.248	0.62
975.975	-0.38
976.702	-0.38
977.429	-1.38
978.156	0.62
978.882	1.62
979.609	-1.38
980.335	1.62
981.062	1.62
981.788	-0.38
982.514	1.62
983.24	1.62
983.967	1.62
984.693	0.62
985.419	-0.38
986.144	-0.38
986.87	-0.38
987.596	1.62
988.322	2.62
989.047	-2.38
989.773	-1.38
990.498	0.62
991.224	0.62
991.949	0.62
992.674	1.62
993.399	-2.38
994.124	1.62
994.849	0.62
995.574	-1.38
996.299	1.62
997.024	0.62
997.749	-1.38
998.473	0.62
999.198	-0.38
999.922	2.62
1000.647	0.62
1001.371	3.62
1002.095	-2.38
1002.82	0.62
1003.544	-2.38
1004.268	5.62
1004.992	2.62
1005.716	1.62
1006.439	1.62
1007.163	4.62
1007.887	4.62
1008.611	-0.38
1009.334	0.62
1010.058	1.62
1010.781	-1.38
1011.504	2.62
1012.228	0.62
1012.951	0.62
1013.674	0.62
1014.397	-2.38
1015.12	1.62
