节点500_565_QEPB04081__117__09-52-22-939.txt的数据

Date: Thu Nov 13 09:52:22 CST 2025
User: PC
Spectrometer: QEPB0408
触发模式: 0
积分时间 (秒): 1.000000E-2
Scans to average: 1
启用暗噪声校正: true
启用非线性校正: false
滑动平均宽度: 0
X轴模式: Wavelengths
Number of Pixels in Spectrum: 1044
>>>>>Begin Spectral Data<<<<<
220.843	3.12
221.644	2.12
222.444	5.12
223.244	4.12
224.045	3.12
224.845	3.12
225.645	4.12
226.445	4.12
227.245	4.12
228.045	5.12
228.845	4.12
229.645	8.12
230.444	4.12
231.244	4.12
232.043	6.12
232.843	7.12
233.642	8.12
234.442	6.12
235.241	6.12
236.04	8.12
236.839	6.12
237.638	9.12
238.437	9.12
239.236	8.12
240.035	7.12
240.833	9.12
241.632	10.12
242.43	10.12
243.229	9.12
244.027	10.12
244.826	10.12
245.624	12.12
246.422	11.12
247.22	10.12
248.018	13.12
248.816	13.12
249.614	13.12
250.412	11.12
251.21	12.12
252.007	12.12
252.805	13.12
253.602	16.12
254.4	14.12
255.197	16.12
255.994	18.12
256.791	12.12
257.589	18.12
258.386	13.12
259.183	19.12
259.979	20.12
260.776	20.12
261.573	19.12
262.37	18.12
263.166	22.12
263.963	23.12
264.759	21.12
265.556	24.12
266.352	23.12
267.148	24.12
267.944	24.12
268.74	25.12
269.536	27.12
270.332	25.12
271.128	32.12
271.924	25.12
272.719	28.12
273.515	28.12
274.311	34.12
275.106	29.12
275.901	28.12
276.697	34.12
277.492	32.12
278.287	31.12
279.082	28.12
279.877	31.12
280.672	31.12
281.467	32.12
282.262	32.12
283.056	31.12
283.851	32.12
284.646	28.12
285.44	31.12
286.234	30.12
287.029	32.12
287.823	33.12
288.617	30.12
289.411	27.12
290.205	28.12
290.999	29.12
291.793	25.12
292.587	26.12
293.381	29.12
294.174	25.12
294.968	26.12
295.761	24.12
296.555	21.12
297.348	24.12
298.141	21.12
298.935	26.12
299.728	22.12
300.521	20.12
301.314	21.12
302.107	22.12
302.899	18.12
303.692	19.12
304.485	20.12
305.277	19.12
306.07	16.12
306.862	19.12
307.655	22.12
308.447	17.12
309.239	17.12
310.031	18.12
310.823	16.12
311.615	12.12
312.407	15.12
313.199	13.12
313.991	15.12
314.783	14.12
315.574	13.12
316.366	11.12
317.157	14.12
317.949	11.12
318.74	14.12
319.531	10.12
320.322	13.12
321.113	14.12
321.904	14.12
322.695	9.12
323.486	12.12
324.277	12.12
325.068	11.12
325.858	12.12
326.649	10.12
327.439	10.12
328.23	10.12
329.02	11.12
329.81	10.12
330.6	10.12
331.391	13.12
332.181	10.12
332.971	8.12
333.76	11.12
334.55	12.12
335.34	9.12
336.13	8.12
336.919	9.12
337.709	10.12
338.498	10.12
339.287	10.12
340.077	7.12
340.866	11.12
341.655	9.12
342.444	9.12
343.233	9.12
344.022	11.12
344.811	12.12
345.6	10.12
346.388	12.12
347.177	9.12
347.965	10.12
348.754	11.12
349.542	10.12
350.33	12.12
351.119	8.12
351.907	10.12
352.695	8.12
353.483	10.12
354.271	9.12
355.059	10.12
355.846	8.12
356.634	6.12
357.422	10.12
358.209	8.12
358.997	9.12
359.784	9.12
360.571	6.12
361.359	8.12
362.146	10.12
362.933	9.12
363.72	7.12
364.507	8.12
365.294	8.12
366.081	9.12
366.867	8.12
367.654	7.12
368.44	6.12
369.227	5.12
370.013	11.12
370.8	8.12
371.586	9.12
372.372	10.12
373.158	8.12
373.944	8.12
374.73	6.12
375.516	10.12
376.302	9.12
377.088	8.12
377.873	9.12
378.659	5.12
379.445	8.12
380.23	9.12
381.015	9.12
381.801	8.12
382.586	8.12
383.371	8.12
384.156	7.12
384.941	11.12
385.726	8.12
386.511	9.12
387.296	11.12
388.08	8.12
388.865	8.12
389.649	9.12
390.434	8.12
391.218	9.12
392.003	13.12
392.787	12.12
393.571	8.12
394.355	11.12
395.139	9.12
395.923	10.12
396.707	11.12
397.491	11.12
398.274	12.12
399.058	11.12
399.842	12.12
400.625	10.12
401.408	10.12
402.192	12.12
402.975	11.12
403.758	14.12
404.541	13.12
405.324	14.12
406.107	12.12
406.89	15.12
407.673	10.12
408.456	12.12
409.238	13.12
410.021	13.12
410.803	13.12
411.586	11.12
412.368	13.12
413.151	16.12
413.933	13.12
414.715	15.12
415.497	15.12
416.279	14.12
417.061	15.12
417.843	16.12
418.624	13.12
419.406	15.12
420.188	17.12
420.969	20.12
421.751	20.12
422.532	18.12
423.313	20.12
424.095	19.12
424.876	20.12
425.657	20.12
426.438	20.12
427.219	22.12
428	22.12
428.78	22.12
429.561	22.12
430.342	24.12
431.122	26.12
431.903	28.12
432.683	29.12
433.464	26.12
434.244	26.12
435.024	31.12
435.804	32.12
436.584	34.12
437.364	35.12
438.144	37.12
438.924	39.12
439.704	42.12
440.483	42.12
441.263	46.12
442.042	48.12
442.822	53.12
443.601	56.12
444.38	60.12
445.16	67.12
445.939	72.12
446.718	77.12
447.497	76.12
448.276	88.12
449.054	93.12
449.833	103.12
450.612	117.12
451.391	122.12
452.169	135.12
452.948	150.12
453.726	164.12
454.504	182.12
455.282	208.12
456.061	227.12
456.839	253.12
457.617	288.12
458.395	316.12
459.172	359.12
459.95	394.12
460.728	441.12
461.506	494.12
462.283	552.12
463.061	615.12
463.838	691.12
464.615	773.12
465.393	858.12
466.17	949.12
466.947	1079.12
467.724	1207.12
468.501	1346.12
469.278	1481.12
470.055	1663.12
470.831	1856.12
471.608	2050.12
472.385	2272.12
473.161	2509.12
473.938	2777.12
474.714	3079.12
475.49	3373.12
476.266	3744.12
477.043	4107.12
477.819	4524.12
478.595	5008.12
479.371	5483.12
480.146	6025.12
480.922	6615.12
481.698	7288.12
482.473	7933.12
483.249	8693.12
484.024	9542.12
484.8	10411.12
485.575	11387.12
486.35	12365.12
487.126	13526.12
487.901	14725.12
488.676	15990.12
489.451	17374.12
490.225	18887.12
491	20366.12
491.775	21885.12
492.55	23545.12
493.324	25236.12
494.099	26881.12
494.873	28615.12
495.647	30520.12
496.422	32283.12
497.196	33996.12
497.97	35629.12
498.744	37051.12
499.518	38488.12
500.292	39786.12
501.066	40927.12
501.839	41980.12
502.613	42673.12
503.387	43178.12
504.16	43567.12
504.934	43623.12
505.707	43297.12
506.48	43111.12
507.253	42568.12
508.027	41685.12
508.8	40674.12
509.573	39475.12
510.346	38334.12
511.118	37058.12
511.891	35871.12
512.664	34632.12
513.437	33069.12
514.209	31631.12
514.982	30460.12
515.754	29172.12
516.526	27897.12
517.298	26715.12
518.071	25623.12
518.843	24590.12
519.615	23516.12
520.387	22617.12
521.159	21724.12
521.93	20814.12
522.702	19956.12
523.474	19164.12
524.245	18330.12
525.017	17607.12
525.788	16771.12
526.56	16040.12
527.331	15281.12
528.102	14522.12
528.873	13790.12
529.644	13054.12
530.415	12412.12
531.186	11707.12
531.957	11118.12
532.728	10567.12
533.498	10005.12
534.269	9367.12
535.039	8861.12
535.81	8464.12
536.58	7980.12
537.351	7574.12
538.121	7126.12
538.891	6744.12
539.661	6383.12
540.431	6057.12
541.201	5707.12
541.971	5443.12
542.741	5148.12
543.51	4864.12
544.28	4605.12
545.05	4417.12
545.819	4175.12
546.588	3949.12
547.358	3769.12
548.127	3582.12
548.896	3401.12
549.665	3246.12
550.434	3048.12
551.203	2924.12
551.972	2742.12
552.741	2597.12
553.51	2460.12
554.278	2325.12
555.047	2185.12
555.815	2060.12
556.584	1952.12
557.352	1841.12
558.121	1729.12
558.889	1634.12
559.657	1538.12
560.425	1462.12
561.193	1374.12
561.961	1305.12
562.729	1233.12
563.496	1176.12
564.264	1112.12
565.032	1042.12
565.799	988.12
566.567	937.12
567.334	877.12
568.101	833.12
568.869	788.12
569.636	755.12
570.403	713.12
571.17	669.12
571.937	623.12
572.704	592.12
573.471	572.12
574.237	523.12
575.004	497.12
575.771	472.12
576.537	451.12
577.303	422.12
578.07	402.12
578.836	368.12
579.602	352.12
580.368	333.12
581.134	318.12
581.9	298.12
582.666	287.12
583.432	267.12
584.198	259.12
584.964	244.12
585.729	232.12
586.495	220.12
587.26	212.12
588.025	198.12
588.791	187.12
589.556	173.12
590.321	166.12
591.086	157.12
591.851	153.12
592.616	144.12
593.381	141.12
594.146	130.12
594.911	128.12
595.675	118.12
596.44	116.12
597.204	109.12
597.969	104.12
598.733	101.12
599.497	96.12
600.261	92.12
601.025	88.12
601.79	81.12
602.553	77.12
603.317	77.12
604.081	76.12
604.845	69.12
605.609	69.12
606.372	68.12
607.136	65.12
607.899	60.12
608.662	58.12
609.426	58.12
610.189	56.12
610.952	56.12
611.715	50.12
612.478	48.12
613.241	48.12
614.004	43.12
614.767	45.12
615.529	42.12
616.292	43.12
617.055	37.12
617.817	40.12
618.579	37.12
619.342	35.12
620.104	35.12
620.866	34.12
621.628	34.12
622.39	31.12
623.152	29.12
623.914	33.12
624.676	29.12
625.438	27.12
626.199	23.12
626.961	24.12
627.722	24.12
628.484	26.12
629.245	24.12
630.006	22.12
630.768	22.12
631.529	20.12
632.29	21.12
633.051	20.12
633.812	20.12
634.573	18.12
635.333	17.12
636.094	17.12
636.855	18.12
637.615	18.12
638.376	14.12
639.136	16.12
639.896	15.12
640.657	17.12
641.417	15.12
642.177	14.12
642.937	17.12
643.697	13.12
644.457	13.12
645.216	11.12
645.976	12.12
646.736	13.12
647.495	13.12
648.255	12.12
649.014	13.12
649.774	13.12
650.533	10.12
651.292	11.12
652.051	9.12
652.81	11.12
653.569	10.12
654.328	12.12
655.087	10.12
655.846	8.12
656.604	12.12
657.363	11.12
658.121	8.12
658.88	9.12
659.638	7.12
660.397	10.12
661.155	8.12
661.913	7.12
662.671	7.12
663.429	9.12
664.187	12.12
664.945	7.12
665.703	9.12
666.46	8.12
667.218	7.12
667.976	9.12
668.733	9.12
669.49	6.12
670.248	11.12
671.005	7.12
671.762	8.12
672.519	9.12
673.276	7.12
674.033	9.12
674.79	10.12
675.547	6.12
676.304	8.12
677.06	4.12
677.817	10.12
678.574	6.12
679.33	5.12
680.086	9.12
680.843	6.12
681.599	8.12
682.355	6.12
683.111	8.12
683.867	6.12
684.623	6.12
685.379	7.12
686.135	6.12
686.89	5.12
687.646	3.12
688.402	7.12
689.157	6.12
689.912	8.12
690.668	6.12
691.423	5.12
692.178	7.12
692.933	5.12
693.688	4.12
694.443	8.12
695.198	6.12
695.953	8.12
696.708	6.12
697.462	6.12
698.217	7.12
698.972	5.12
699.726	6.12
700.48	6.12
701.235	7.12
701.989	4.12
702.743	7.12
703.497	6.12
704.251	7.12
705.005	9.12
705.759	6.12
706.513	6.12
707.266	5.12
708.02	5.12
708.774	5.12
709.527	6.12
710.28	3.12
711.034	6.12
711.787	6.12
712.54	6.12
713.293	5.12
714.046	7.12
714.799	4.12
715.552	6.12
716.305	5.12
717.058	7.12
717.81	6.12
718.563	8.12
719.315	5.12
720.068	8.12
720.82	6.12
721.573	5.12
722.325	6.12
723.077	3.12
723.829	7.12
724.581	6.12
725.333	7.12
726.085	4.12
726.836	6.12
727.588	7.12
728.34	6.12
729.091	5.12
729.843	10.12
730.594	8.12
731.346	7.12
732.097	6.12
732.848	7.12
733.599	9.12
734.35	8.12
735.101	7.12
735.852	8.12
736.603	10.12
737.354	5.12
738.104	7.12
738.855	7.12
739.605	10.12
740.356	7.12
741.106	7.12
741.856	10.12
742.607	6.12
743.357	8.12
744.107	9.12
744.857	7.12
745.607	9.12
746.357	9.12
747.106	7.12
747.856	9.12
748.606	8.12
749.355	8.12
750.105	9.12
750.854	9.12
751.603	11.12
752.353	9.12
753.102	9.12
753.851	8.12
754.6	10.12
755.349	10.12
756.098	10.12
756.847	11.12
757.595	9.12
758.344	8.12
759.093	9.12
759.841	11.12
760.589	10.12
761.338	11.12
762.086	11.12
762.834	11.12
763.582	9.12
764.331	11.12
765.079	11.12
765.826	14.12
766.574	9.12
767.322	13.12
768.07	12.12
768.817	12.12
769.565	14.12
770.312	10.12
771.06	13.12
771.807	12.12
772.554	12.12
773.302	12.12
774.049	16.12
774.796	15.12
775.543	13.12
776.29	13.12
777.036	14.12
777.783	15.12
778.53	14.12
779.276	14.12
780.023	15.12
780.769	15.12
781.516	16.12
782.262	13.12
783.008	12.12
783.754	12.12
784.5	13.12
785.246	16.12
785.992	14.12
786.738	12.12
787.484	11.12
788.23	14.12
788.975	12.12
789.721	14.12
790.466	14.12
791.212	12.12
791.957	11.12
792.702	11.12
793.447	12.12
794.193	13.12
794.938	12.12
795.683	12.12
796.427	12.12
797.172	15.12
797.917	9.12
798.662	10.12
799.406	11.12
800.151	12.12
800.895	11.12
801.64	10.12
802.384	9.12
803.128	11.12
803.872	13.12
804.616	10.12
805.36	11.12
806.104	9.12
806.848	8.12
807.592	8.12
808.336	8.12
809.079	10.12
809.823	8.12
810.566	7.12
811.31	8.12
812.053	10.12
812.796	9.12
813.539	7.12
814.283	9.12
815.026	7.12
815.769	6.12
816.511	7.12
817.254	6.12
817.997	6.12
818.74	6.12
819.482	6.12
820.225	8.12
820.967	6.12
821.71	8.12
822.452	8.12
823.194	6.12
823.936	7.12
824.678	5.12
825.42	7.12
826.162	5.12
826.904	7.12
827.646	5.12
828.388	6.12
829.129	6.12
829.871	5.12
830.612	7.12
831.354	2.12
832.095	3.12
832.836	4.12
833.577	7.12
834.319	6.12
835.06	7.12
835.801	6.12
836.542	4.12
837.282	3.12
838.023	5.12
838.764	4.12
839.504	4.12
840.245	4.12
840.985	2.12
841.726	6.12
842.466	5.12
843.206	3.12
843.946	5.12
844.687	3.12
845.427	4.12
846.166	3.12
846.906	3.12
847.646	3.12
848.386	7.12
849.125	1.12
849.865	5.12
850.605	4.12
851.344	3.12
852.083	6.12
852.823	2.12
853.562	4.12
854.301	3.12
855.04	2.12
855.779	1.12
856.518	4.12
857.257	3.12
857.995	2.12
858.734	4.12
859.473	2.12
860.211	3.12
860.95	3.12
861.688	1.12
862.426	2.12
863.165	2.12
863.903	3.12
864.641	3.12
865.379	5.12
866.117	4.12
866.855	2.12
867.593	3.12
868.33	1.12
869.068	0.12
869.806	1.12
870.543	2.12
871.28	2.12
872.018	1.12
872.755	4.12
873.492	2.12
874.229	1.12
874.967	3.12
875.703	1.12
876.44	0.12
877.177	1.12
877.914	0.12
878.651	1.12
879.387	0.12
880.124	-0.88
880.86	2.12
881.597	3.12
882.333	-0.88
883.069	0.12
883.806	1.12
884.542	1.12
885.278	2.12
886.014	1.12
886.749	0.12
887.485	1.12
888.221	1.12
888.957	-1.88
889.692	1.12
890.428	2.12
891.163	2.12
891.899	2.12
892.634	1.12
893.369	2.12
894.104	2.12
894.839	1.12
895.574	0.12
896.309	1.12
897.044	0.12
897.779	0.12
898.514	0.12
899.248	1.12
899.983	1.12
900.717	2.12
901.452	1.12
902.186	0.12
902.92	1.12
903.654	1.12
904.389	-0.88
905.123	1.12
905.857	1.12
906.59	2.12
907.324	-0.88
908.058	0.12
908.792	1.12
909.525	0.12
910.259	2.12
910.992	-0.88
911.726	1.12
912.459	1.12
913.192	-0.88
913.925	0.12
914.658	0.12
915.391	0.12
916.124	-0.88
916.857	1.12
917.59	-0.88
918.323	-0.88
919.055	1.12
919.788	-0.88
920.521	4.12
921.253	0.12
921.985	3.12
922.718	0.12
923.45	0.12
924.182	-0.88
924.914	0.12
925.646	1.12
926.378	1.12
927.11	1.12
927.841	0.12
928.573	1.12
929.305	2.12
930.036	0.12
930.768	1.12
931.499	0.12
932.23	1.12
932.962	1.12
933.693	-0.88
934.424	-1.88
935.155	-0.88
935.886	0.12
936.617	0.12
937.348	-1.88
938.078	0.12
938.809	2.12
939.54	3.12
940.27	-1.88
941.001	1.12
941.731	0.12
942.461	0.12
943.191	3.12
943.922	0.12
944.652	1.12
945.382	1.12
946.112	2.12
946.841	-2.88
947.571	0.12
948.301	0.12
949.031	-2.88
949.76	-0.88
950.49	-0.88
951.219	3.12
951.948	0.12
952.678	-0.88
953.407	0.12
954.136	0.12
954.865	0.12
955.594	-1.88
956.323	0.12
957.052	0.12
957.78	0.12
958.509	0.12
959.238	1.12
959.966	1.12
960.695	0.12
961.423	0.12
962.151	-0.88
962.88	-0.88
963.608	1.12
964.336	0.12
965.064	-0.88
965.792	1.12
966.52	1.12
967.247	0.12
967.975	-0.88
968.703	1.12
969.43	-2.88
970.158	-0.88
970.885	0.12
971.613	1.12
972.34	1.12
973.067	-1.88
973.794	-0.88
974.521	1.12
975.248	-0.88
975.975	-2.88
976.702	0.12
977.429	-1.88
978.156	-0.88
978.882	0.12
979.609	-0.88
980.335	0.12
981.062	-1.88
981.788	0.12
982.514	-0.88
983.24	2.12
983.967	0.12
984.693	0.12
985.419	0.12
986.144	-2.88
986.87	1.12
987.596	1.12
988.322	1.12
989.047	-0.88
989.773	0.12
990.498	-3.88
991.224	0.12
991.949	1.12
992.674	0.12
993.399	1.12
994.124	-0.88
994.849	-0.88
995.574	1.12
996.299	-0.88
997.024	1.12
997.749	-0.88
998.473	-0.88
999.198	0.12
999.922	1.12
1000.647	0.12
1001.371	2.12
1002.095	-0.88
1002.82	-1.88
1003.544	-1.88
1004.268	6.12
1004.992	4.12
1005.716	4.12
1006.439	3.12
1007.163	3.12
1007.887	4.12
1008.611	2.12
1009.334	1.12
1010.058	-2.88
1010.781	0.12
1011.504	0.12
1012.228	-0.88
1012.951	1.12
1013.674	1.12
1014.397	0.12
1015.12	0.12
