节点500_565_QEPB04081__573__09-59-57-012.txt的数据

Date: Thu Nov 13 09:59:57 CST 2025
User: PC
Spectrometer: QEPB0408
触发模式: 0
积分时间 (秒): 1.000000E-2
Scans to average: 1
启用暗噪声校正: true
启用非线性校正: false
滑动平均宽度: 0
X轴模式: Wavelengths
Number of Pixels in Spectrum: 1044
>>>>>Begin Spectral Data<<<<<
220.843	4.12
221.644	5.12
222.444	5.12
223.244	5.12
224.045	5.12
224.845	4.12
225.645	7.12
226.445	6.12
227.245	5.12
228.045	5.12
228.845	6.12
229.645	4.12
230.444	5.12
231.244	4.12
232.043	6.12
232.843	3.12
233.642	6.12
234.442	5.12
235.241	6.12
236.04	10.12
236.839	8.12
237.638	7.12
238.437	9.12
239.236	8.12
240.035	8.12
240.833	9.12
241.632	6.12
242.43	9.12
243.229	10.12
244.027	9.12
244.826	11.12
245.624	12.12
246.422	11.12
247.22	9.12
248.018	12.12
248.816	11.12
249.614	9.12
250.412	12.12
251.21	11.12
252.007	11.12
252.805	12.12
253.602	15.12
254.4	15.12
255.197	15.12
255.994	13.12
256.791	16.12
257.589	16.12
258.386	14.12
259.183	16.12
259.979	15.12
260.776	13.12
261.573	19.12
262.37	17.12
263.166	19.12
263.963	17.12
264.759	19.12
265.556	19.12
266.352	17.12
267.148	19.12
267.944	23.12
268.74	19.12
269.536	21.12
270.332	23.12
271.128	23.12
271.924	25.12
272.719	26.12
273.515	23.12
274.311	21.12
275.106	26.12
275.901	22.12
276.697	27.12
277.492	24.12
278.287	26.12
279.082	26.12
279.877	26.12
280.672	27.12
281.467	29.12
282.262	27.12
283.056	25.12
283.851	27.12
284.646	27.12
285.44	24.12
286.234	25.12
287.029	26.12
287.823	26.12
288.617	26.12
289.411	28.12
290.205	24.12
290.999	26.12
291.793	25.12
292.587	24.12
293.381	24.12
294.174	23.12
294.968	27.12
295.761	24.12
296.555	19.12
297.348	21.12
298.141	21.12
298.935	25.12
299.728	23.12
300.521	21.12
301.314	19.12
302.107	19.12
302.899	19.12
303.692	19.12
304.485	19.12
305.277	18.12
306.07	19.12
306.862	18.12
307.655	17.12
308.447	17.12
309.239	19.12
310.031	18.12
310.823	15.12
311.615	14.12
312.407	17.12
313.199	14.12
313.991	14.12
314.783	14.12
315.574	15.12
316.366	13.12
317.157	11.12
317.949	12.12
318.74	13.12
319.531	13.12
320.322	14.12
321.113	11.12
321.904	13.12
322.695	14.12
323.486	13.12
324.277	13.12
325.068	13.12
325.858	10.12
326.649	10.12
327.439	11.12
328.23	12.12
329.02	9.12
329.81	12.12
330.6	13.12
331.391	11.12
332.181	9.12
332.971	10.12
333.76	9.12
334.55	10.12
335.34	12.12
336.13	12.12
336.919	14.12
337.709	10.12
338.498	10.12
339.287	11.12
340.077	12.12
340.866	9.12
341.655	10.12
342.444	10.12
343.233	9.12
344.022	5.12
344.811	12.12
345.6	11.12
346.388	10.12
347.177	9.12
347.965	10.12
348.754	8.12
349.542	9.12
350.33	11.12
351.119	6.12
351.907	11.12
352.695	9.12
353.483	10.12
354.271	11.12
355.059	9.12
355.846	8.12
356.634	6.12
357.422	11.12
358.209	9.12
358.997	8.12
359.784	10.12
360.571	10.12
361.359	9.12
362.146	9.12
362.933	11.12
363.72	9.12
364.507	9.12
365.294	10.12
366.081	8.12
366.867	8.12
367.654	7.12
368.44	7.12
369.227	6.12
370.013	9.12
370.8	7.12
371.586	9.12
372.372	6.12
373.158	7.12
373.944	9.12
374.73	6.12
375.516	5.12
376.302	8.12
377.088	8.12
377.873	8.12
378.659	7.12
379.445	7.12
380.23	8.12
381.015	11.12
381.801	9.12
382.586	8.12
383.371	8.12
384.156	9.12
384.941	10.12
385.726	7.12
386.511	9.12
387.296	7.12
388.08	10.12
388.865	11.12
389.649	10.12
390.434	11.12
391.218	12.12
392.003	10.12
392.787	7.12
393.571	10.12
394.355	9.12
395.139	6.12
395.923	12.12
396.707	10.12
397.491	11.12
398.274	9.12
399.058	10.12
399.842	12.12
400.625	13.12
401.408	13.12
402.192	10.12
402.975	11.12
403.758	10.12
404.541	9.12
405.324	11.12
406.107	13.12
406.89	13.12
407.673	10.12
408.456	14.12
409.238	14.12
410.021	13.12
410.803	14.12
411.586	12.12
412.368	13.12
413.151	13.12
413.933	16.12
414.715	17.12
415.497	14.12
416.279	17.12
417.061	14.12
417.843	14.12
418.624	15.12
419.406	17.12
420.188	18.12
420.969	19.12
421.751	19.12
422.532	17.12
423.313	18.12
424.095	21.12
424.876	21.12
425.657	17.12
426.438	21.12
427.219	20.12
428	21.12
428.78	23.12
429.561	25.12
430.342	22.12
431.122	26.12
431.903	27.12
432.683	26.12
433.464	28.12
434.244	26.12
435.024	33.12
435.804	31.12
436.584	33.12
437.364	35.12
438.144	38.12
438.924	44.12
439.704	42.12
440.483	42.12
441.263	48.12
442.042	50.12
442.822	57.12
443.601	61.12
444.38	66.12
445.16	72.12
445.939	77.12
446.718	85.12
447.497	91.12
448.276	101.12
449.054	105.12
449.833	119.12
450.612	130.12
451.391	149.12
452.169	160.12
452.948	171.12
453.726	193.12
454.504	209.12
455.282	237.12
456.061	261.12
456.839	295.12
457.617	325.12
458.395	363.12
459.172	407.12
459.95	446.12
460.728	508.12
461.506	560.12
462.283	622.12
463.061	691.12
463.838	771.12
464.615	853.12
465.393	938.12
466.17	1045.12
466.947	1152.12
467.724	1281.12
468.501	1424.12
469.278	1558.12
470.055	1722.12
470.831	1897.12
471.608	2093.12
472.385	2284.12
473.161	2535.12
473.938	2789.12
474.714	3034.12
475.49	3298.12
476.266	3632.12
477.043	3978.12
477.819	4326.12
478.595	4702.12
479.371	5114.12
480.146	5564.12
480.922	6071.12
481.698	6558.12
482.473	7093.12
483.249	7727.12
484.024	8325.12
484.8	9063.12
485.575	9787.12
486.35	10595.12
487.126	11433.12
487.901	12345.12
488.676	13310.12
489.451	14353.12
490.225	15508.12
491	16558.12
491.775	17782.12
492.55	19062.12
493.324	20344.12
494.099	21647.12
494.873	23057.12
495.647	24512.12
496.422	25957.12
497.196	27263.12
497.97	28782.12
498.744	30022.12
499.518	31341.12
500.292	32663.12
501.066	33910.12
501.839	35001.12
502.613	35854.12
503.387	36615.12
504.16	37387.12
504.934	37883.12
505.707	38074.12
506.48	38337.12
507.253	38261.12
508.027	37975.12
508.8	37596.12
509.573	37045.12
510.346	36339.12
511.118	35436.12
511.891	34761.12
512.664	33872.12
513.437	32717.12
514.209	31595.12
514.982	30518.12
515.754	29444.12
516.526	28310.12
517.298	27209.12
518.071	26174.12
518.843	25097.12
519.615	24057.12
520.387	23135.12
521.159	22287.12
521.93	21384.12
522.702	20507.12
523.474	19598.12
524.245	18883.12
525.017	18154.12
525.788	17384.12
526.56	16665.12
527.331	15910.12
528.102	15277.12
528.873	14534.12
529.644	13833.12
530.415	13179.12
531.186	12557.12
531.957	11958.12
532.728	11371.12
533.498	10824.12
534.269	10229.12
535.039	9664.12
535.81	9188.12
536.58	8755.12
537.351	8261.12
538.121	7799.12
538.891	7398.12
539.661	7034.12
540.431	6663.12
541.201	6279.12
541.971	5976.12
542.741	5637.12
543.51	5344.12
544.28	5087.12
545.05	4851.12
545.819	4634.12
546.588	4383.12
547.358	4170.12
548.127	3966.12
548.896	3787.12
549.665	3574.12
550.434	3408.12
551.203	3207.12
551.972	3088.12
552.741	2909.12
553.51	2745.12
554.278	2598.12
555.047	2447.12
555.815	2322.12
556.584	2214.12
557.352	2096.12
558.121	1964.12
558.889	1858.12
559.657	1753.12
560.425	1667.12
561.193	1569.12
561.961	1484.12
562.729	1407.12
563.496	1338.12
564.264	1262.12
565.032	1193.12
565.799	1123.12
566.567	1072.12
567.334	1006.12
568.101	954.12
568.869	899.12
569.636	851.12
570.403	796.12
571.17	758.12
571.937	720.12
572.704	686.12
573.471	636.12
574.237	606.12
575.004	563.12
575.771	535.12
576.537	500.12
577.303	482.12
578.07	452.12
578.836	420.12
579.602	407.12
580.368	374.12
581.134	362.12
581.9	340.12
582.666	325.12
583.432	307.12
584.198	290.12
584.964	283.12
585.729	263.12
586.495	248.12
587.26	243.12
588.025	220.12
588.791	209.12
589.556	199.12
590.321	188.12
591.086	179.12
591.851	170.12
592.616	164.12
593.381	159.12
594.146	145.12
594.911	139.12
595.675	132.12
596.44	127.12
597.204	127.12
597.969	114.12
598.733	114.12
599.497	106.12
600.261	105.12
601.025	94.12
601.79	94.12
602.553	90.12
603.317	87.12
604.081	82.12
604.845	78.12
605.609	78.12
606.372	71.12
607.136	71.12
607.899	64.12
608.662	68.12
609.426	63.12
610.189	61.12
610.952	55.12
611.715	54.12
612.478	50.12
613.241	51.12
614.004	50.12
614.767	49.12
615.529	46.12
616.292	44.12
617.055	44.12
617.817	41.12
618.579	43.12
619.342	38.12
620.104	40.12
620.866	36.12
621.628	35.12
622.39	35.12
623.152	32.12
623.914	31.12
624.676	30.12
625.438	29.12
626.199	31.12
626.961	27.12
627.722	27.12
628.484	28.12
629.245	25.12
630.006	24.12
630.768	22.12
631.529	25.12
632.29	22.12
633.051	23.12
633.812	21.12
634.573	18.12
635.333	15.12
636.094	19.12
636.855	20.12
637.615	18.12
638.376	16.12
639.136	17.12
639.896	17.12
640.657	16.12
641.417	16.12
642.177	19.12
642.937	18.12
643.697	16.12
644.457	15.12
645.216	16.12
645.976	14.12
646.736	16.12
647.495	11.12
648.255	14.12
649.014	13.12
649.774	11.12
650.533	11.12
651.292	12.12
652.051	13.12
652.81	11.12
653.569	12.12
654.328	12.12
655.087	8.12
655.846	13.12
656.604	12.12
657.363	11.12
658.121	9.12
658.88	12.12
659.638	11.12
660.397	10.12
661.155	10.12
661.913	9.12
662.671	9.12
663.429	9.12
664.187	8.12
664.945	9.12
665.703	10.12
666.46	7.12
667.218	7.12
667.976	7.12
668.733	9.12
669.49	10.12
670.248	7.12
671.005	8.12
671.762	9.12
672.519	7.12
673.276	8.12
674.033	6.12
674.79	6.12
675.547	7.12
676.304	9.12
677.06	5.12
677.817	7.12
678.574	8.12
679.33	6.12
680.086	7.12
680.843	6.12
681.599	5.12
682.355	7.12
683.111	7.12
683.867	8.12
684.623	11.12
685.379	6.12
686.135	6.12
686.89	7.12
687.646	6.12
688.402	7.12
689.157	10.12
689.912	8.12
690.668	7.12
691.423	5.12
692.178	5.12
692.933	7.12
693.688	7.12
694.443	7.12
695.198	5.12
695.953	6.12
696.708	6.12
697.462	9.12
698.217	7.12
698.972	3.12
699.726	7.12
700.48	2.12
701.235	6.12
701.989	5.12
702.743	8.12
703.497	7.12
704.251	10.12
705.005	6.12
705.759	8.12
706.513	5.12
707.266	7.12
708.02	7.12
708.774	6.12
709.527	9.12
710.28	5.12
711.034	3.12
711.787	4.12
712.54	4.12
713.293	6.12
714.046	6.12
714.799	5.12
715.552	5.12
716.305	5.12
717.058	7.12
717.81	5.12
718.563	8.12
719.315	5.12
720.068	7.12
720.82	7.12
721.573	7.12
722.325	7.12
723.077	7.12
723.829	9.12
724.581	4.12
725.333	7.12
726.085	5.12
726.836	6.12
727.588	9.12
728.34	7.12
729.091	6.12
729.843	9.12
730.594	6.12
731.346	7.12
732.097	8.12
732.848	7.12
733.599	7.12
734.35	7.12
735.101	6.12
735.852	9.12
736.603	7.12
737.354	7.12
738.104	7.12
738.855	9.12
739.605	9.12
740.356	8.12
741.106	8.12
741.856	9.12
742.607	7.12
743.357	7.12
744.107	4.12
744.857	10.12
745.607	7.12
746.357	9.12
747.106	9.12
747.856	8.12
748.606	6.12
749.355	8.12
750.105	7.12
750.854	7.12
751.603	8.12
752.353	7.12
753.102	9.12
753.851	12.12
754.6	10.12
755.349	9.12
756.098	8.12
756.847	10.12
757.595	9.12
758.344	7.12
759.093	9.12
759.841	8.12
760.589	8.12
761.338	10.12
762.086	11.12
762.834	11.12
763.582	10.12
764.331	8.12
765.079	9.12
765.826	9.12
766.574	10.12
767.322	11.12
768.07	10.12
768.817	11.12
769.565	9.12
770.312	10.12
771.06	10.12
771.807	10.12
772.554	10.12
773.302	13.12
774.049	10.12
774.796	13.12
775.543	12.12
776.29	11.12
777.036	10.12
777.783	12.12
778.53	13.12
779.276	14.12
780.023	10.12
780.769	13.12
781.516	13.12
782.262	11.12
783.008	14.12
783.754	14.12
784.5	13.12
785.246	13.12
785.992	13.12
786.738	11.12
787.484	13.12
788.23	11.12
788.975	11.12
789.721	14.12
790.466	11.12
791.212	10.12
791.957	11.12
792.702	13.12
793.447	15.12
794.193	9.12
794.938	10.12
795.683	13.12
796.427	11.12
797.172	13.12
797.917	12.12
798.662	11.12
799.406	11.12
800.151	9.12
800.895	7.12
801.64	8.12
802.384	7.12
803.128	8.12
803.872	11.12
804.616	10.12
805.36	10.12
806.104	6.12
806.848	8.12
807.592	7.12
808.336	10.12
809.079	10.12
809.823	8.12
810.566	10.12
811.31	7.12
812.053	9.12
812.796	8.12
813.539	9.12
814.283	6.12
815.026	5.12
815.769	7.12
816.511	7.12
817.254	6.12
817.997	6.12
818.74	5.12
819.482	7.12
820.225	7.12
820.967	6.12
821.71	6.12
822.452	9.12
823.194	6.12
823.936	7.12
824.678	5.12
825.42	4.12
826.162	7.12
826.904	6.12
827.646	7.12
828.388	7.12
829.129	6.12
829.871	7.12
830.612	5.12
831.354	5.12
832.095	5.12
832.836	6.12
833.577	4.12
834.319	4.12
835.06	5.12
835.801	10.12
836.542	6.12
837.282	4.12
838.023	6.12
838.764	4.12
839.504	5.12
840.245	4.12
840.985	3.12
841.726	7.12
842.466	4.12
843.206	3.12
843.946	5.12
844.687	5.12
845.427	5.12
846.166	4.12
846.906	6.12
847.646	3.12
848.386	7.12
849.125	4.12
849.865	6.12
850.605	4.12
851.344	5.12
852.083	5.12
852.823	2.12
853.562	6.12
854.301	3.12
855.04	5.12
855.779	4.12
856.518	5.12
857.257	6.12
857.995	3.12
858.734	3.12
859.473	2.12
860.211	6.12
860.95	2.12
861.688	5.12
862.426	2.12
863.165	3.12
863.903	5.12
864.641	2.12
865.379	3.12
866.117	3.12
866.855	2.12
867.593	2.12
868.33	2.12
869.068	4.12
869.806	1.12
870.543	3.12
871.28	1.12
872.018	1.12
872.755	3.12
873.492	3.12
874.229	2.12
874.967	0.12
875.703	3.12
876.44	1.12
877.177	2.12
877.914	2.12
878.651	2.12
879.387	1.12
880.124	2.12
880.86	2.12
881.597	2.12
882.333	2.12
883.069	1.12
883.806	1.12
884.542	2.12
885.278	1.12
886.014	3.12
886.749	0.12
887.485	1.12
888.221	3.12
888.957	-0.88
889.692	2.12
890.428	0.12
891.163	1.12
891.899	2.12
892.634	1.12
893.369	1.12
894.104	1.12
894.839	3.12
895.574	1.12
896.309	0.12
897.044	0.12
897.779	2.12
898.514	1.12
899.248	2.12
899.983	-0.88
900.717	2.12
901.452	3.12
902.186	-1.88
902.92	2.12
903.654	3.12
904.389	2.12
905.123	1.12
905.857	0.12
906.59	2.12
907.324	1.12
908.058	1.12
908.792	-1.88
909.525	1.12
910.259	1.12
910.992	1.12
911.726	0.12
912.459	3.12
913.192	2.12
913.925	0.12
914.658	1.12
915.391	2.12
916.124	1.12
916.857	0.12
917.59	1.12
918.323	2.12
919.055	1.12
919.788	2.12
920.521	0.12
921.253	1.12
921.985	3.12
922.718	1.12
923.45	1.12
924.182	-1.88
924.914	0.12
925.646	3.12
926.378	0.12
927.11	2.12
927.841	1.12
928.573	0.12
929.305	-1.88
930.036	3.12
930.768	1.12
931.499	0.12
932.23	1.12
932.962	-0.88
933.693	0.12
934.424	-0.88
935.155	0.12
935.886	-0.88
936.617	1.12
937.348	-0.88
938.078	2.12
938.809	1.12
939.54	-0.88
940.27	2.12
941.001	-1.88
941.731	1.12
942.461	1.12
943.191	1.12
943.922	-0.88
944.652	-0.88
945.382	-0.88
946.112	1.12
946.841	3.12
947.571	0.12
948.301	1.12
949.031	0.12
949.76	1.12
950.49	1.12
951.219	0.12
951.948	0.12
952.678	1.12
953.407	0.12
954.136	1.12
954.865	0.12
955.594	0.12
956.323	1.12
957.052	1.12
957.78	1.12
958.509	1.12
959.238	0.12
959.966	1.12
960.695	0.12
961.423	-1.88
962.151	-1.88
962.88	-0.88
963.608	0.12
964.336	0.12
965.064	1.12
965.792	1.12
966.52	0.12
967.247	-0.88
967.975	0.12
968.703	1.12
969.43	1.12
970.158	-0.88
970.885	0.12
971.613	1.12
972.34	1.12
973.067	1.12
973.794	1.12
974.521	1.12
975.248	-1.88
975.975	0.12
976.702	0.12
977.429	0.12
978.156	3.12
978.882	-0.88
979.609	-0.88
980.335	-0.88
981.062	1.12
981.788	0.12
982.514	0.12
983.24	-1.88
983.967	-0.88
984.693	1.12
985.419	2.12
986.144	0.12
986.87	1.12
987.596	0.12
988.322	0.12
989.047	0.12
989.773	-1.88
990.498	1.12
991.224	1.12
991.949	-0.88
992.674	2.12
993.399	0.12
994.124	1.12
994.849	-0.88
995.574	-0.88
996.299	1.12
997.024	-0.88
997.749	-0.88
998.473	1.12
999.198	1.12
999.922	0.12
1000.647	1.12
1001.371	3.12
1002.095	1.12
1002.82	-3.88
1003.544	0.12
1004.268	3.12
1004.992	3.12
1005.716	2.12
1006.439	1.12
1007.163	4.12
1007.887	4.12
1008.611	2.12
1009.334	0.12
1010.058	2.12
1010.781	-0.88
1011.504	0.12
1012.228	-0.88
1012.951	0.12
1013.674	1.12
1014.397	-1.88
1015.12	0.12
