节点500_565_QEPB04081__576__10-00-00-000.txt的数据

Date: Thu Nov 13 10:00:00 CST 2025
User: PC
Spectrometer: QEPB0408
触发模式: 0
积分时间 (秒): 1.000000E-2
Scans to average: 1
启用暗噪声校正: true
启用非线性校正: false
滑动平均宽度: 0
X轴模式: Wavelengths
Number of Pixels in Spectrum: 1044
>>>>>Begin Spectral Data<<<<<
220.843	4.75
221.644	3.75
222.444	6.75
223.244	3.75
224.045	3.75
224.845	4.75
225.645	4.75
226.445	3.75
227.245	6.75
228.045	6.75
228.845	5.75
229.645	2.75
230.444	6.75
231.244	5.75
232.043	7.75
232.843	7.75
233.642	6.75
234.442	4.75
235.241	4.75
236.04	7.75
236.839	5.75
237.638	7.75
238.437	7.75
239.236	6.75
240.035	8.75
240.833	7.75
241.632	7.75
242.43	6.75
243.229	7.75
244.027	9.75
244.826	9.75
245.624	8.75
246.422	10.75
247.22	8.75
248.018	8.75
248.816	11.75
249.614	8.75
250.412	10.75
251.21	12.75
252.007	11.75
252.805	13.75
253.602	12.75
254.4	13.75
255.197	14.75
255.994	14.75
256.791	14.75
257.589	12.75
258.386	12.75
259.183	13.75
259.979	17.75
260.776	16.75
261.573	14.75
262.37	17.75
263.166	15.75
263.963	19.75
264.759	19.75
265.556	21.75
266.352	19.75
267.148	18.75
267.944	21.75
268.74	18.75
269.536	21.75
270.332	22.75
271.128	19.75
271.924	22.75
272.719	23.75
273.515	23.75
274.311	22.75
275.106	23.75
275.901	23.75
276.697	24.75
277.492	26.75
278.287	27.75
279.082	26.75
279.877	28.75
280.672	26.75
281.467	24.75
282.262	24.75
283.056	24.75
283.851	24.75
284.646	27.75
285.44	29.75
286.234	26.75
287.029	24.75
287.823	26.75
288.617	24.75
289.411	24.75
290.205	26.75
290.999	26.75
291.793	27.75
292.587	24.75
293.381	26.75
294.174	24.75
294.968	23.75
295.761	20.75
296.555	20.75
297.348	21.75
298.141	20.75
298.935	21.75
299.728	19.75
300.521	21.75
301.314	19.75
302.107	20.75
302.899	18.75
303.692	18.75
304.485	17.75
305.277	17.75
306.07	17.75
306.862	18.75
307.655	19.75
308.447	17.75
309.239	16.75
310.031	15.75
310.823	14.75
311.615	16.75
312.407	13.75
313.199	15.75
313.991	13.75
314.783	14.75
315.574	14.75
316.366	11.75
317.157	15.75
317.949	11.75
318.74	11.75
319.531	9.75
320.322	13.75
321.113	9.75
321.904	11.75
322.695	11.75
323.486	9.75
324.277	9.75
325.068	10.75
325.858	13.75
326.649	10.75
327.439	9.75
328.23	9.75
329.02	9.75
329.81	14.75
330.6	11.75
331.391	7.75
332.181	10.75
332.971	8.75
333.76	12.75
334.55	11.75
335.34	11.75
336.13	9.75
336.919	11.75
337.709	9.75
338.498	8.75
339.287	12.75
340.077	8.75
340.866	10.75
341.655	7.75
342.444	12.75
343.233	10.75
344.022	6.75
344.811	11.75
345.6	8.75
346.388	9.75
347.177	8.75
347.965	8.75
348.754	6.75
349.542	8.75
350.33	9.75
351.119	8.75
351.907	10.75
352.695	6.75
353.483	7.75
354.271	8.75
355.059	8.75
355.846	9.75
356.634	7.75
357.422	8.75
358.209	9.75
358.997	6.75
359.784	8.75
360.571	9.75
361.359	8.75
362.146	8.75
362.933	9.75
363.72	5.75
364.507	6.75
365.294	8.75
366.081	6.75
366.867	9.75
367.654	6.75
368.44	7.75
369.227	7.75
370.013	6.75
370.8	9.75
371.586	6.75
372.372	9.75
373.158	9.75
373.944	9.75
374.73	7.75
375.516	6.75
376.302	7.75
377.088	8.75
377.873	8.75
378.659	7.75
379.445	6.75
380.23	4.75
381.015	4.75
381.801	6.75
382.586	8.75
383.371	9.75
384.156	6.75
384.941	9.75
385.726	7.75
386.511	7.75
387.296	8.75
388.08	7.75
388.865	10.75
389.649	7.75
390.434	6.75
391.218	4.75
392.003	9.75
392.787	8.75
393.571	10.75
394.355	8.75
395.139	9.75
395.923	11.75
396.707	9.75
397.491	10.75
398.274	7.75
399.058	11.75
399.842	10.75
400.625	9.75
401.408	12.75
402.192	8.75
402.975	10.75
403.758	10.75
404.541	14.75
405.324	9.75
406.107	10.75
406.89	11.75
407.673	12.75
408.456	11.75
409.238	10.75
410.021	11.75
410.803	11.75
411.586	12.75
412.368	12.75
413.151	13.75
413.933	13.75
414.715	13.75
415.497	15.75
416.279	14.75
417.061	15.75
417.843	14.75
418.624	13.75
419.406	17.75
420.188	14.75
420.969	14.75
421.751	16.75
422.532	18.75
423.313	17.75
424.095	18.75
424.876	20.75
425.657	16.75
426.438	20.75
427.219	20.75
428	23.75
428.78	23.75
429.561	21.75
430.342	21.75
431.122	23.75
431.903	26.75
432.683	27.75
433.464	26.75
434.244	30.75
435.024	26.75
435.804	32.75
436.584	30.75
437.364	36.75
438.144	36.75
438.924	42.75
439.704	42.75
440.483	46.75
441.263	47.75
442.042	50.75
442.822	55.75
443.601	59.75
444.38	64.75
445.16	70.75
445.939	76.75
446.718	82.75
447.497	93.75
448.276	97.75
449.054	110.75
449.833	116.75
450.612	129.75
451.391	147.75
452.169	155.75
452.948	178.75
453.726	192.75
454.504	210.75
455.282	237.75
456.061	263.75
456.839	293.75
457.617	325.75
458.395	364.75
459.172	410.75
459.95	457.75
460.728	507.75
461.506	563.75
462.283	608.75
463.061	687.75
463.838	759.75
464.615	843.75
465.393	935.75
466.17	1044.75
466.947	1157.75
467.724	1276.75
468.501	1424.75
469.278	1565.75
470.055	1710.75
470.831	1882.75
471.608	2099.75
472.385	2298.75
473.161	2518.75
473.938	2763.75
474.714	3018.75
475.49	3318.75
476.266	3612.75
477.043	3944.75
477.819	4324.75
478.595	4693.75
479.371	5101.75
480.146	5551.75
480.922	6042.75
481.698	6551.75
482.473	7132.75
483.249	7706.75
484.024	8349.75
484.8	9067.75
485.575	9800.75
486.35	10553.75
487.126	11412.75
487.901	12316.75
488.676	13282.75
489.451	14372.75
490.225	15430.75
491	16571.75
491.775	17718.75
492.55	19061.75
493.324	20338.75
494.099	21633.75
494.873	23053.75
495.647	24450.75
496.422	25904.75
497.196	27261.75
497.97	28657.75
498.744	30118.75
499.518	31364.75
500.292	32641.75
501.066	33807.75
501.839	34841.75
502.613	35836.75
503.387	36634.75
504.16	37407.75
504.934	37846.75
505.707	38158.75
506.48	38310.75
507.253	38255.75
508.027	37988.75
508.8	37484.75
509.573	37062.75
510.346	36445.75
511.118	35485.75
511.891	34743.75
512.664	33803.75
513.437	32679.75
514.209	31596.75
514.982	30521.75
515.754	29484.75
516.526	28357.75
517.298	27135.75
518.071	26139.75
518.843	25113.75
519.615	24103.75
520.387	23094.75
521.159	22200.75
521.93	21341.75
522.702	20502.75
523.474	19742.75
524.245	18886.75
525.017	18144.75
525.788	17418.75
526.56	16690.75
527.331	15977.75
528.102	15274.75
528.873	14575.75
529.644	13859.75
530.415	13166.75
531.186	12570.75
531.957	12000.75
532.728	11443.75
533.498	10811.75
534.269	10240.75
535.039	9695.75
535.81	9206.75
536.58	8739.75
537.351	8254.75
538.121	7817.75
538.891	7415.75
539.661	6992.75
540.431	6676.75
541.201	6301.75
541.971	5975.75
542.741	5645.75
543.51	5367.75
544.28	5070.75
545.05	4836.75
545.819	4612.75
546.588	4353.75
547.358	4154.75
548.127	3959.75
548.896	3760.75
549.665	3567.75
550.434	3408.75
551.203	3208.75
551.972	3060.75
552.741	2908.75
553.51	2777.75
554.278	2608.75
555.047	2430.75
555.815	2308.75
556.584	2204.75
557.352	2069.75
558.121	1953.75
558.889	1864.75
559.657	1744.75
560.425	1663.75
561.193	1574.75
561.961	1490.75
562.729	1409.75
563.496	1336.75
564.264	1258.75
565.032	1192.75
565.799	1124.75
566.567	1064.75
567.334	997.75
568.101	945.75
568.869	895.75
569.636	843.75
570.403	802.75
571.17	765.75
571.937	708.75
572.704	672.75
573.471	638.75
574.237	597.75
575.004	560.75
575.771	542.75
576.537	505.75
577.303	474.75
578.07	449.75
578.836	426.75
579.602	402.75
580.368	378.75
581.134	359.75
581.9	345.75
582.666	325.75
583.432	302.75
584.198	298.75
584.964	272.75
585.729	260.75
586.495	247.75
587.26	236.75
588.025	228.75
588.791	213.75
589.556	207.75
590.321	188.75
591.086	182.75
591.851	177.75
592.616	162.75
593.381	159.75
594.146	146.75
594.911	135.75
595.675	136.75
596.44	128.75
597.204	127.75
597.969	118.75
598.733	110.75
599.497	112.75
600.261	102.75
601.025	98.75
601.79	91.75
602.553	92.75
603.317	82.75
604.081	78.75
604.845	82.75
605.609	74.75
606.372	71.75
607.136	67.75
607.899	69.75
608.662	64.75
609.426	60.75
610.189	58.75
610.952	56.75
611.715	55.75
612.478	52.75
613.241	52.75
614.004	47.75
614.767	48.75
615.529	45.75
616.292	42.75
617.055	42.75
617.817	39.75
618.579	39.75
619.342	41.75
620.104	37.75
620.866	34.75
621.628	34.75
622.39	37.75
623.152	31.75
623.914	30.75
624.676	28.75
625.438	28.75
626.199	25.75
626.961	27.75
627.722	25.75
628.484	26.75
629.245	24.75
630.006	22.75
630.768	24.75
631.529	21.75
632.29	20.75
633.051	22.75
633.812	18.75
634.573	20.75
635.333	16.75
636.094	17.75
636.855	19.75
637.615	16.75
638.376	18.75
639.136	17.75
639.896	16.75
640.657	15.75
641.417	16.75
642.177	15.75
642.937	15.75
643.697	16.75
644.457	12.75
645.216	16.75
645.976	13.75
646.736	13.75
647.495	11.75
648.255	13.75
649.014	10.75
649.774	12.75
650.533	12.75
651.292	10.75
652.051	9.75
652.81	10.75
653.569	11.75
654.328	10.75
655.087	10.75
655.846	12.75
656.604	10.75
657.363	12.75
658.121	7.75
658.88	7.75
659.638	10.75
660.397	7.75
661.155	8.75
661.913	6.75
662.671	10.75
663.429	8.75
664.187	10.75
664.945	8.75
665.703	9.75
666.46	6.75
667.218	8.75
667.976	8.75
668.733	8.75
669.49	6.75
670.248	6.75
671.005	8.75
671.762	5.75
672.519	7.75
673.276	8.75
674.033	6.75
674.79	7.75
675.547	8.75
676.304	6.75
677.06	6.75
677.817	6.75
678.574	6.75
679.33	8.75
680.086	6.75
680.843	7.75
681.599	6.75
682.355	4.75
683.111	7.75
683.867	8.75
684.623	6.75
685.379	7.75
686.135	7.75
686.89	6.75
687.646	6.75
688.402	4.75
689.157	4.75
689.912	6.75
690.668	4.75
691.423	6.75
692.178	7.75
692.933	3.75
693.688	7.75
694.443	5.75
695.198	5.75
695.953	7.75
696.708	4.75
697.462	7.75
698.217	4.75
698.972	4.75
699.726	6.75
700.48	5.75
701.235	6.75
701.989	7.75
702.743	5.75
703.497	6.75
704.251	6.75
705.005	4.75
705.759	6.75
706.513	4.75
707.266	6.75
708.02	6.75
708.774	4.75
709.527	5.75
710.28	4.75
711.034	4.75
711.787	4.75
712.54	5.75
713.293	5.75
714.046	6.75
714.799	8.75
715.552	5.75
716.305	5.75
717.058	8.75
717.81	4.75
718.563	8.75
719.315	4.75
720.068	3.75
720.82	5.75
721.573	5.75
722.325	7.75
723.077	7.75
723.829	8.75
724.581	7.75
725.333	5.75
726.085	6.75
726.836	5.75
727.588	7.75
728.34	3.75
729.091	3.75
729.843	7.75
730.594	6.75
731.346	5.75
732.097	6.75
732.848	5.75
733.599	7.75
734.35	5.75
735.101	6.75
735.852	5.75
736.603	6.75
737.354	7.75
738.104	8.75
738.855	5.75
739.605	7.75
740.356	5.75
741.106	6.75
741.856	6.75
742.607	6.75
743.357	6.75
744.107	7.75
744.857	8.75
745.607	8.75
746.357	6.75
747.106	6.75
747.856	8.75
748.606	10.75
749.355	8.75
750.105	6.75
750.854	7.75
751.603	8.75
752.353	6.75
753.102	10.75
753.851	7.75
754.6	9.75
755.349	9.75
756.098	6.75
756.847	8.75
757.595	8.75
758.344	7.75
759.093	10.75
759.841	10.75
760.589	8.75
761.338	9.75
762.086	10.75
762.834	8.75
763.582	10.75
764.331	8.75
765.079	10.75
765.826	8.75
766.574	9.75
767.322	9.75
768.07	10.75
768.817	13.75
769.565	10.75
770.312	11.75
771.06	8.75
771.807	10.75
772.554	12.75
773.302	9.75
774.049	11.75
774.796	12.75
775.543	12.75
776.29	11.75
777.036	12.75
777.783	12.75
778.53	10.75
779.276	9.75
780.023	10.75
780.769	11.75
781.516	11.75
782.262	10.75
783.008	12.75
783.754	10.75
784.5	12.75
785.246	10.75
785.992	14.75
786.738	12.75
787.484	12.75
788.23	13.75
788.975	11.75
789.721	12.75
790.466	9.75
791.212	11.75
791.957	11.75
792.702	9.75
793.447	10.75
794.193	9.75
794.938	9.75
795.683	10.75
796.427	11.75
797.172	8.75
797.917	10.75
798.662	11.75
799.406	12.75
800.151	9.75
800.895	8.75
801.64	9.75
802.384	11.75
803.128	9.75
803.872	10.75
804.616	8.75
805.36	9.75
806.104	10.75
806.848	9.75
807.592	8.75
808.336	9.75
809.079	8.75
809.823	7.75
810.566	8.75
811.31	4.75
812.053	8.75
812.796	6.75
813.539	8.75
814.283	7.75
815.026	8.75
815.769	8.75
816.511	6.75
817.254	7.75
817.997	2.75
818.74	8.75
819.482	4.75
820.225	6.75
820.967	6.75
821.71	7.75
822.452	6.75
823.194	5.75
823.936	5.75
824.678	6.75
825.42	5.75
826.162	4.75
826.904	5.75
827.646	5.75
828.388	6.75
829.129	6.75
829.871	4.75
830.612	6.75
831.354	6.75
832.095	4.75
832.836	5.75
833.577	3.75
834.319	5.75
835.06	5.75
835.801	7.75
836.542	5.75
837.282	5.75
838.023	4.75
838.764	6.75
839.504	4.75
840.245	5.75
840.985	4.75
841.726	2.75
842.466	4.75
843.206	2.75
843.946	3.75
844.687	3.75
845.427	2.75
846.166	4.75
846.906	3.75
847.646	4.75
848.386	5.75
849.125	1.75
849.865	1.75
850.605	4.75
851.344	4.75
852.083	3.75
852.823	3.75
853.562	4.75
854.301	0.75
855.04	2.75
855.779	3.75
856.518	2.75
857.257	2.75
857.995	2.75
858.734	4.75
859.473	2.75
860.211	5.75
860.95	1.75
861.688	3.75
862.426	0.75
863.165	2.75
863.903	2.75
864.641	1.75
865.379	2.75
866.117	2.75
866.855	0.75
867.593	0.75
868.33	0.75
869.068	3.75
869.806	2.75
870.543	2.75
871.28	-0.25
872.018	1.75
872.755	1.75
873.492	0.75
874.229	-1.25
874.967	0.75
875.703	2.75
876.44	0.75
877.177	3.75
877.914	0.75
878.651	1.75
879.387	1.75
880.124	2.75
880.86	0.75
881.597	0.75
882.333	-1.25
883.069	0.75
883.806	1.75
884.542	1.75
885.278	0.75
886.014	0.75
886.749	0.75
887.485	1.75
888.221	1.75
888.957	1.75
889.692	0.75
890.428	0.75
891.163	0.75
891.899	1.75
892.634	1.75
893.369	-0.25
894.104	2.75
894.839	-0.25
895.574	0.75
896.309	-0.25
897.044	0.75
897.779	0.75
898.514	0.75
899.248	2.75
899.983	0.75
900.717	0.75
901.452	0.75
902.186	-1.25
902.92	-1.25
903.654	-0.25
904.389	0.75
905.123	-0.25
905.857	-0.25
906.59	0.75
907.324	2.75
908.058	1.75
908.792	0.75
909.525	1.75
910.259	-0.25
910.992	1.75
911.726	0.75
912.459	0.75
913.192	-0.25
913.925	-0.25
914.658	0.75
915.391	-2.25
916.124	0.75
916.857	0.75
917.59	-0.25
918.323	0.75
919.055	-3.25
919.788	-0.25
920.521	0.75
921.253	0.75
921.985	0.75
922.718	0.75
923.45	-0.25
924.182	0.75
924.914	1.75
925.646	0.75
926.378	1.75
927.11	-2.25
927.841	0.75
928.573	-1.25
929.305	-0.25
930.036	-0.25
930.768	1.75
931.499	-0.25
932.23	-1.25
932.962	1.75
933.693	-0.25
934.424	-1.25
935.155	-0.25
935.886	-1.25
936.617	1.75
937.348	-1.25
938.078	0.75
938.809	-0.25
939.54	0.75
940.27	2.75
941.001	0.75
941.731	-0.25
942.461	-1.25
943.191	0.75
943.922	-0.25
944.652	-1.25
945.382	0.75
946.112	0.75
946.841	-2.25
947.571	-3.25
948.301	1.75
949.031	-0.25
949.76	-0.25
950.49	-0.25
951.219	0.75
951.948	-0.25
952.678	-1.25
953.407	-0.25
954.136	0.75
954.865	1.75
955.594	-0.25
956.323	1.75
957.052	-0.25
957.78	-0.25
958.509	1.75
959.238	0.75
959.966	1.75
960.695	-0.25
961.423	-1.25
962.151	0.75
962.88	0.75
963.608	0.75
964.336	1.75
965.064	1.75
965.792	0.75
966.52	0.75
967.247	0.75
967.975	-3.25
968.703	0.75
969.43	-0.25
970.158	2.75
970.885	0.75
971.613	-0.25
972.34	-0.25
973.067	-0.25
973.794	-0.25
974.521	1.75
975.248	-0.25
975.975	0.75
976.702	-0.25
977.429	1.75
978.156	0.75
978.882	1.75
979.609	0.75
980.335	0.75
981.062	1.75
981.788	0.75
982.514	0.75
983.24	1.75
983.967	1.75
984.693	-2.25
985.419	0.75
986.144	0.75
986.87	0.75
987.596	-0.25
988.322	-0.25
989.047	1.75
989.773	-1.25
990.498	2.75
991.224	-0.25
991.949	0.75
992.674	-0.25
993.399	1.75
994.124	0.75
994.849	0.75
995.574	-0.25
996.299	1.75
997.024	-1.25
997.749	-0.25
998.473	0.75
999.198	0.75
999.922	-0.25
1000.647	-0.25
1001.371	1.75
1002.095	-0.25
1002.82	-0.25
1003.544	-0.25
1004.268	0.75
1004.992	2.75
1005.716	4.75
1006.439	3.75
1007.163	4.75
1007.887	4.75
1008.611	-0.25
1009.334	2.75
1010.058	-0.25
1010.781	-1.25
1011.504	0.75
1012.228	0.75
1012.951	-1.25
1013.674	-0.25
1014.397	0.75
1015.12	-0.25
