节点500_565_QEPB04081__150__09-52-55-931.txt的数据

Date: Thu Nov 13 09:52:55 CST 2025
User: PC
Spectrometer: QEPB0408
触发模式: 0
积分时间 (秒): 1.000000E-2
Scans to average: 1
启用暗噪声校正: true
启用非线性校正: false
滑动平均宽度: 0
X轴模式: Wavelengths
Number of Pixels in Spectrum: 1044
>>>>>Begin Spectral Data<<<<<
220.843	4.38
221.644	4.38
222.444	4.38
223.244	3.38
224.045	6.38
224.845	4.38
225.645	4.38
226.445	7.38
227.245	3.38
228.045	5.38
228.845	3.38
229.645	7.38
230.444	6.38
231.244	6.38
232.043	5.38
232.843	7.38
233.642	6.38
234.442	7.38
235.241	10.38
236.04	8.38
236.839	8.38
237.638	9.38
238.437	8.38
239.236	7.38
240.035	9.38
240.833	11.38
241.632	10.38
242.43	9.38
243.229	8.38
244.027	10.38
244.826	11.38
245.624	8.38
246.422	12.38
247.22	9.38
248.018	10.38
248.816	11.38
249.614	10.38
250.412	13.38
251.21	14.38
252.007	14.38
252.805	12.38
253.602	16.38
254.4	15.38
255.197	15.38
255.994	17.38
256.791	14.38
257.589	18.38
258.386	15.38
259.183	17.38
259.979	20.38
260.776	17.38
261.573	17.38
262.37	20.38
263.166	22.38
263.963	22.38
264.759	22.38
265.556	24.38
266.352	22.38
267.148	24.38
267.944	22.38
268.74	27.38
269.536	24.38
270.332	24.38
271.128	23.38
271.924	27.38
272.719	30.38
273.515	27.38
274.311	32.38
275.106	29.38
275.901	28.38
276.697	29.38
277.492	30.38
278.287	30.38
279.082	30.38
279.877	33.38
280.672	29.38
281.467	30.38
282.262	30.38
283.056	33.38
283.851	28.38
284.646	27.38
285.44	30.38
286.234	29.38
287.029	30.38
287.823	31.38
288.617	30.38
289.411	29.38
290.205	27.38
290.999	28.38
291.793	25.38
292.587	27.38
293.381	25.38
294.174	25.38
294.968	27.38
295.761	23.38
296.555	24.38
297.348	20.38
298.141	22.38
298.935	24.38
299.728	21.38
300.521	20.38
301.314	20.38
302.107	22.38
302.899	18.38
303.692	20.38
304.485	19.38
305.277	20.38
306.07	18.38
306.862	20.38
307.655	19.38
308.447	16.38
309.239	19.38
310.031	17.38
310.823	18.38
311.615	17.38
312.407	13.38
313.199	15.38
313.991	14.38
314.783	15.38
315.574	11.38
316.366	15.38
317.157	13.38
317.949	11.38
318.74	11.38
319.531	13.38
320.322	12.38
321.113	13.38
321.904	11.38
322.695	13.38
323.486	13.38
324.277	12.38
325.068	10.38
325.858	11.38
326.649	10.38
327.439	13.38
328.23	12.38
329.02	10.38
329.81	10.38
330.6	11.38
331.391	12.38
332.181	10.38
332.971	9.38
333.76	10.38
334.55	7.38
335.34	11.38
336.13	9.38
336.919	9.38
337.709	10.38
338.498	9.38
339.287	11.38
340.077	8.38
340.866	9.38
341.655	10.38
342.444	11.38
343.233	7.38
344.022	8.38
344.811	9.38
345.6	10.38
346.388	8.38
347.177	12.38
347.965	11.38
348.754	10.38
349.542	11.38
350.33	8.38
351.119	8.38
351.907	7.38
352.695	9.38
353.483	8.38
354.271	12.38
355.059	9.38
355.846	7.38
356.634	8.38
357.422	9.38
358.209	6.38
358.997	8.38
359.784	9.38
360.571	9.38
361.359	10.38
362.146	7.38
362.933	7.38
363.72	9.38
364.507	8.38
365.294	8.38
366.081	7.38
366.867	7.38
367.654	6.38
368.44	8.38
369.227	5.38
370.013	8.38
370.8	8.38
371.586	8.38
372.372	7.38
373.158	6.38
373.944	7.38
374.73	9.38
375.516	10.38
376.302	8.38
377.088	7.38
377.873	8.38
378.659	9.38
379.445	10.38
380.23	8.38
381.015	8.38
381.801	10.38
382.586	9.38
383.371	10.38
384.156	8.38
384.941	8.38
385.726	9.38
386.511	9.38
387.296	8.38
388.08	10.38
388.865	7.38
389.649	10.38
390.434	11.38
391.218	9.38
392.003	10.38
392.787	11.38
393.571	11.38
394.355	10.38
395.139	10.38
395.923	11.38
396.707	10.38
397.491	10.38
398.274	9.38
399.058	13.38
399.842	11.38
400.625	12.38
401.408	10.38
402.192	13.38
402.975	12.38
403.758	11.38
404.541	12.38
405.324	13.38
406.107	15.38
406.89	14.38
407.673	12.38
408.456	14.38
409.238	14.38
410.021	12.38
410.803	14.38
411.586	15.38
412.368	13.38
413.151	13.38
413.933	14.38
414.715	13.38
415.497	16.38
416.279	14.38
417.061	15.38
417.843	18.38
418.624	14.38
419.406	15.38
420.188	20.38
420.969	17.38
421.751	17.38
422.532	19.38
423.313	19.38
424.095	19.38
424.876	19.38
425.657	19.38
426.438	22.38
427.219	21.38
428	22.38
428.78	25.38
429.561	24.38
430.342	24.38
431.122	24.38
431.903	27.38
432.683	26.38
433.464	28.38
434.244	29.38
435.024	31.38
435.804	33.38
436.584	34.38
437.364	32.38
438.144	38.38
438.924	40.38
439.704	40.38
440.483	42.38
441.263	45.38
442.042	47.38
442.822	52.38
443.601	54.38
444.38	61.38
445.16	67.38
445.939	73.38
446.718	78.38
447.497	81.38
448.276	87.38
449.054	97.38
449.833	106.38
450.612	116.38
451.391	124.38
452.169	139.38
452.948	150.38
453.726	168.38
454.504	195.38
455.282	212.38
456.061	232.38
456.839	261.38
457.617	288.38
458.395	322.38
459.172	361.38
459.95	400.38
460.728	443.38
461.506	500.38
462.283	565.38
463.061	624.38
463.838	696.38
464.615	776.38
465.393	866.38
466.17	958.38
466.947	1078.38
467.724	1214.38
468.501	1326.38
469.278	1499.38
470.055	1673.38
470.831	1844.38
471.608	2037.38
472.385	2267.38
473.161	2506.38
473.938	2783.38
474.714	3066.38
475.49	3381.38
476.266	3748.38
477.043	4113.38
477.819	4554.38
478.595	4984.38
479.371	5487.38
480.146	6014.38
480.922	6575.38
481.698	7250.38
482.473	7889.38
483.249	8613.38
484.024	9409.38
484.8	10357.38
485.575	11280.38
486.35	12253.38
487.126	13381.38
487.901	14574.38
488.676	15777.38
489.451	17216.38
490.225	18620.38
491	20067.38
491.775	21570.38
492.55	23285.38
493.324	24900.38
494.099	26533.38
494.873	28285.38
495.647	30089.38
496.422	31890.38
497.196	33512.38
497.97	35141.38
498.744	36680.38
499.518	37989.38
500.292	39230.38
501.066	40511.38
501.839	41624.38
502.613	42235.38
503.387	42870.38
504.16	43155.38
504.934	43302.38
505.707	43094.38
506.48	42797.38
507.253	42251.38
508.027	41458.38
508.8	40472.38
509.573	39409.38
510.346	38235.38
511.118	36903.38
511.891	35780.38
512.664	34454.38
513.437	32972.38
514.209	31643.38
514.982	30454.38
515.754	29147.38
516.526	27900.38
517.298	26651.38
518.071	25693.38
518.843	24603.38
519.615	23526.38
520.387	22597.38
521.159	21751.38
521.93	20813.38
522.702	19990.38
523.474	19111.38
524.245	18324.38
525.017	17642.38
525.788	16822.38
526.56	16052.38
527.331	15249.38
528.102	14555.38
528.873	13820.38
529.644	13092.38
530.415	12435.38
531.186	11776.38
531.957	11212.38
532.728	10595.38
533.498	10047.38
534.269	9515.38
535.039	8937.38
535.81	8449.38
536.58	8019.38
537.351	7563.38
538.121	7134.38
538.891	6781.38
539.661	6407.38
540.431	6116.38
541.201	5743.38
541.971	5458.38
542.741	5160.38
543.51	4893.38
544.28	4617.38
545.05	4431.38
545.819	4207.38
546.588	3981.38
547.358	3785.38
548.127	3599.38
548.896	3418.38
549.665	3245.38
550.434	3074.38
551.203	2944.38
551.972	2747.38
552.741	2623.38
553.51	2458.38
554.278	2330.38
555.047	2208.38
555.815	2084.38
556.584	1968.38
557.352	1865.38
558.121	1741.38
558.889	1660.38
559.657	1550.38
560.425	1462.38
561.193	1399.38
561.961	1323.38
562.729	1249.38
563.496	1169.38
564.264	1116.38
565.032	1070.38
565.799	1005.38
566.567	940.38
567.334	883.38
568.101	847.38
568.869	797.38
569.636	760.38
570.403	717.38
571.17	679.38
571.937	638.38
572.704	592.38
573.471	564.38
574.237	536.38
575.004	502.38
575.771	474.38
576.537	441.38
577.303	424.38
578.07	396.38
578.836	366.38
579.602	353.38
580.368	341.38
581.134	320.38
581.9	297.38
582.666	285.38
583.432	268.38
584.198	257.38
584.964	248.38
585.729	223.38
586.495	222.38
587.26	209.38
588.025	198.38
588.791	193.38
589.556	177.38
590.321	171.38
591.086	162.38
591.851	152.38
592.616	146.38
593.381	137.38
594.146	128.38
594.911	124.38
595.675	124.38
596.44	115.38
597.204	110.38
597.969	106.38
598.733	102.38
599.497	96.38
600.261	89.38
601.025	88.38
601.79	88.38
602.553	78.38
603.317	79.38
604.081	77.38
604.845	69.38
605.609	69.38
606.372	65.38
607.136	65.38
607.899	59.38
608.662	59.38
609.426	54.38
610.189	55.38
610.952	53.38
611.715	49.38
612.478	50.38
613.241	47.38
614.004	44.38
614.767	45.38
615.529	44.38
616.292	40.38
617.055	39.38
617.817	38.38
618.579	35.38
619.342	36.38
620.104	35.38
620.866	34.38
621.628	32.38
622.39	28.38
623.152	32.38
623.914	25.38
624.676	26.38
625.438	27.38
626.199	29.38
626.961	27.38
627.722	25.38
628.484	24.38
629.245	22.38
630.006	25.38
630.768	22.38
631.529	21.38
632.29	20.38
633.051	23.38
633.812	22.38
634.573	18.38
635.333	22.38
636.094	21.38
636.855	17.38
637.615	17.38
638.376	17.38
639.136	16.38
639.896	17.38
640.657	17.38
641.417	13.38
642.177	20.38
642.937	13.38
643.697	15.38
644.457	14.38
645.216	13.38
645.976	17.38
646.736	13.38
647.495	14.38
648.255	15.38
649.014	12.38
649.774	12.38
650.533	11.38
651.292	12.38
652.051	12.38
652.81	13.38
653.569	12.38
654.328	10.38
655.087	10.38
655.846	11.38
656.604	11.38
657.363	9.38
658.121	11.38
658.88	9.38
659.638	8.38
660.397	10.38
661.155	9.38
661.913	9.38
662.671	9.38
663.429	8.38
664.187	8.38
664.945	8.38
665.703	9.38
666.46	7.38
667.218	9.38
667.976	6.38
668.733	7.38
669.49	7.38
670.248	8.38
671.005	8.38
671.762	8.38
672.519	8.38
673.276	5.38
674.033	7.38
674.79	8.38
675.547	9.38
676.304	7.38
677.06	5.38
677.817	8.38
678.574	5.38
679.33	6.38
680.086	6.38
680.843	8.38
681.599	8.38
682.355	8.38
683.111	6.38
683.867	6.38
684.623	8.38
685.379	7.38
686.135	7.38
686.89	7.38
687.646	7.38
688.402	8.38
689.157	2.38
689.912	7.38
690.668	8.38
691.423	6.38
692.178	5.38
692.933	8.38
693.688	6.38
694.443	6.38
695.198	6.38
695.953	7.38
696.708	5.38
697.462	6.38
698.217	4.38
698.972	6.38
699.726	6.38
700.48	5.38
701.235	8.38
701.989	4.38
702.743	5.38
703.497	7.38
704.251	6.38
705.005	4.38
705.759	6.38
706.513	5.38
707.266	6.38
708.02	5.38
708.774	5.38
709.527	8.38
710.28	4.38
711.034	6.38
711.787	9.38
712.54	6.38
713.293	8.38
714.046	5.38
714.799	8.38
715.552	5.38
716.305	7.38
717.058	6.38
717.81	8.38
718.563	5.38
719.315	6.38
720.068	6.38
720.82	6.38
721.573	6.38
722.325	7.38
723.077	7.38
723.829	8.38
724.581	6.38
725.333	7.38
726.085	5.38
726.836	8.38
727.588	6.38
728.34	9.38
729.091	9.38
729.843	7.38
730.594	8.38
731.346	5.38
732.097	5.38
732.848	6.38
733.599	6.38
734.35	9.38
735.101	6.38
735.852	5.38
736.603	9.38
737.354	10.38
738.104	8.38
738.855	10.38
739.605	10.38
740.356	8.38
741.106	8.38
741.856	7.38
742.607	8.38
743.357	6.38
744.107	8.38
744.857	8.38
745.607	9.38
746.357	9.38
747.106	8.38
747.856	10.38
748.606	8.38
749.355	8.38
750.105	8.38
750.854	8.38
751.603	7.38
752.353	8.38
753.102	9.38
753.851	10.38
754.6	10.38
755.349	10.38
756.098	11.38
756.847	11.38
757.595	11.38
758.344	11.38
759.093	12.38
759.841	9.38
760.589	12.38
761.338	9.38
762.086	10.38
762.834	9.38
763.582	12.38
764.331	12.38
765.079	10.38
765.826	11.38
766.574	10.38
767.322	13.38
768.07	11.38
768.817	13.38
769.565	12.38
770.312	13.38
771.06	12.38
771.807	12.38
772.554	12.38
773.302	15.38
774.049	12.38
774.796	14.38
775.543	15.38
776.29	13.38
777.036	15.38
777.783	12.38
778.53	11.38
779.276	12.38
780.023	14.38
780.769	16.38
781.516	14.38
782.262	12.38
783.008	15.38
783.754	12.38
784.5	16.38
785.246	14.38
785.992	13.38
786.738	15.38
787.484	13.38
788.23	13.38
788.975	10.38
789.721	12.38
790.466	14.38
791.212	16.38
791.957	13.38
792.702	12.38
793.447	12.38
794.193	11.38
794.938	9.38
795.683	13.38
796.427	14.38
797.172	12.38
797.917	11.38
798.662	10.38
799.406	12.38
800.151	13.38
800.895	12.38
801.64	11.38
802.384	12.38
803.128	12.38
803.872	7.38
804.616	9.38
805.36	9.38
806.104	8.38
806.848	9.38
807.592	8.38
808.336	10.38
809.079	7.38
809.823	8.38
810.566	7.38
811.31	6.38
812.053	7.38
812.796	7.38
813.539	7.38
814.283	8.38
815.026	6.38
815.769	8.38
816.511	6.38
817.254	6.38
817.997	6.38
818.74	8.38
819.482	8.38
820.225	7.38
820.967	7.38
821.71	5.38
822.452	6.38
823.194	8.38
823.936	5.38
824.678	8.38
825.42	8.38
826.162	4.38
826.904	6.38
827.646	7.38
828.388	5.38
829.129	5.38
829.871	4.38
830.612	5.38
831.354	8.38
832.095	3.38
832.836	3.38
833.577	5.38
834.319	6.38
835.06	6.38
835.801	8.38
836.542	5.38
837.282	7.38
838.023	5.38
838.764	5.38
839.504	6.38
840.245	6.38
840.985	4.38
841.726	5.38
842.466	1.38
843.206	5.38
843.946	3.38
844.687	4.38
845.427	3.38
846.166	2.38
846.906	5.38
847.646	1.38
848.386	6.38
849.125	4.38
849.865	4.38
850.605	4.38
851.344	5.38
852.083	5.38
852.823	3.38
853.562	5.38
854.301	1.38
855.04	4.38
855.779	4.38
856.518	3.38
857.257	3.38
857.995	0.38
858.734	1.38
859.473	4.38
860.211	2.38
860.95	1.38
861.688	2.38
862.426	4.38
863.165	1.38
863.903	2.38
864.641	3.38
865.379	1.38
866.117	4.38
866.855	4.38
867.593	4.38
868.33	0.38
869.068	3.38
869.806	5.38
870.543	4.38
871.28	4.38
872.018	2.38
872.755	1.38
873.492	1.38
874.229	1.38
874.967	1.38
875.703	2.38
876.44	1.38
877.177	0.38
877.914	1.38
878.651	0.38
879.387	0.38
880.124	1.38
880.86	0.38
881.597	-0.62
882.333	-0.62
883.069	1.38
883.806	1.38
884.542	3.38
885.278	0.38
886.014	2.38
886.749	0.38
887.485	0.38
888.221	2.38
888.957	2.38
889.692	0.38
890.428	0.38
891.163	0.38
891.899	-1.62
892.634	1.38
893.369	1.38
894.104	1.38
894.839	2.38
895.574	1.38
896.309	0.38
897.044	0.38
897.779	1.38
898.514	1.38
899.248	2.38
899.983	2.38
900.717	0.38
901.452	1.38
902.186	0.38
902.92	-0.62
903.654	0.38
904.389	0.38
905.123	0.38
905.857	2.38
906.59	0.38
907.324	0.38
908.058	1.38
908.792	1.38
909.525	2.38
910.259	0.38
910.992	1.38
911.726	-0.62
912.459	0.38
913.192	0.38
913.925	1.38
914.658	-1.62
915.391	1.38
916.124	-1.62
916.857	-0.62
917.59	-2.62
918.323	0.38
919.055	2.38
919.788	0.38
920.521	1.38
921.253	1.38
921.985	2.38
922.718	-1.62
923.45	0.38
924.182	-0.62
924.914	0.38
925.646	0.38
926.378	0.38
927.11	1.38
927.841	0.38
928.573	2.38
929.305	1.38
930.036	0.38
930.768	-0.62
931.499	-1.62
932.23	-0.62
932.962	0.38
933.693	1.38
934.424	2.38
935.155	3.38
935.886	-0.62
936.617	-0.62
937.348	-2.62
938.078	-0.62
938.809	4.38
939.54	-1.62
940.27	1.38
941.001	0.38
941.731	-0.62
942.461	0.38
943.191	-1.62
943.922	2.38
944.652	-0.62
945.382	0.38
946.112	-0.62
946.841	0.38
947.571	0.38
948.301	-3.62
949.031	0.38
949.76	2.38
950.49	-0.62
951.219	-0.62
951.948	-0.62
952.678	1.38
953.407	1.38
954.136	-0.62
954.865	-0.62
955.594	2.38
956.323	1.38
957.052	-0.62
957.78	-0.62
958.509	1.38
959.238	2.38
959.966	-2.62
960.695	0.38
961.423	1.38
962.151	1.38
962.88	1.38
963.608	-0.62
964.336	0.38
965.064	0.38
965.792	0.38
966.52	0.38
967.247	-1.62
967.975	-1.62
968.703	-0.62
969.43	-0.62
970.158	0.38
970.885	1.38
971.613	0.38
972.34	0.38
973.067	0.38
973.794	-3.62
974.521	0.38
975.248	0.38
975.975	0.38
976.702	0.38
977.429	-0.62
978.156	0.38
978.882	0.38
979.609	-0.62
980.335	0.38
981.062	1.38
981.788	0.38
982.514	0.38
983.24	0.38
983.967	0.38
984.693	4.38
985.419	0.38
986.144	1.38
986.87	-0.62
987.596	0.38
988.322	-0.62
989.047	-2.62
989.773	1.38
990.498	1.38
991.224	1.38
991.949	-0.62
992.674	-1.62
993.399	1.38
994.124	0.38
994.849	1.38
995.574	0.38
996.299	0.38
997.024	1.38
997.749	-0.62
998.473	-0.62
999.198	-0.62
999.922	0.38
1000.647	0.38
1001.371	2.38
1002.095	-1.62
1002.82	0.38
1003.544	-1.62
1004.268	4.38
1004.992	4.38
1005.716	2.38
1006.439	1.38
1007.163	4.38
1007.887	4.38
1008.611	1.38
1009.334	1.38
1010.058	-0.62
1010.781	2.38
1011.504	-0.62
1012.228	0.38
1012.951	0.38
1013.674	-0.62
1014.397	0.38
1015.12	0.38
