节点500_565_QEPB04081__316__09-55-40-484.txt的数据

Date: Thu Nov 13 09:55:40 CST 2025
User: PC
Spectrometer: QEPB0408
触发模式: 0
积分时间 (秒): 1.000000E-2
Scans to average: 1
启用暗噪声校正: true
启用非线性校正: false
滑动平均宽度: 0
X轴模式: Wavelengths
Number of Pixels in Spectrum: 1044
>>>>>Begin Spectral Data<<<<<
220.843	3.62
221.644	3.62
222.444	4.62
223.244	4.62
224.045	3.62
224.845	3.62
225.645	6.62
226.445	2.62
227.245	4.62
228.045	4.62
228.845	5.62
229.645	4.62
230.444	4.62
231.244	6.62
232.043	4.62
232.843	5.62
233.642	6.62
234.442	5.62
235.241	5.62
236.04	5.62
236.839	8.62
237.638	6.62
238.437	6.62
239.236	6.62
240.035	7.62
240.833	7.62
241.632	7.62
242.43	8.62
243.229	9.62
244.027	7.62
244.826	7.62
245.624	10.62
246.422	6.62
247.22	11.62
248.018	9.62
248.816	10.62
249.614	11.62
250.412	7.62
251.21	9.62
252.007	10.62
252.805	10.62
253.602	12.62
254.4	13.62
255.197	10.62
255.994	12.62
256.791	12.62
257.589	14.62
258.386	17.62
259.183	14.62
259.979	13.62
260.776	14.62
261.573	13.62
262.37	15.62
263.166	17.62
263.963	18.62
264.759	20.62
265.556	18.62
266.352	18.62
267.148	18.62
267.944	20.62
268.74	19.62
269.536	20.62
270.332	20.62
271.128	23.62
271.924	20.62
272.719	20.62
273.515	25.62
274.311	20.62
275.106	24.62
275.901	21.62
276.697	23.62
277.492	24.62
278.287	24.62
279.082	27.62
279.877	25.62
280.672	25.62
281.467	23.62
282.262	24.62
283.056	25.62
283.851	22.62
284.646	25.62
285.44	25.62
286.234	24.62
287.029	25.62
287.823	28.62
288.617	24.62
289.411	27.62
290.205	24.62
290.999	25.62
291.793	20.62
292.587	24.62
293.381	23.62
294.174	23.62
294.968	22.62
295.761	22.62
296.555	20.62
297.348	21.62
298.141	20.62
298.935	20.62
299.728	20.62
300.521	17.62
301.314	16.62
302.107	17.62
302.899	16.62
303.692	16.62
304.485	17.62
305.277	18.62
306.07	16.62
306.862	19.62
307.655	16.62
308.447	15.62
309.239	15.62
310.031	16.62
310.823	14.62
311.615	12.62
312.407	13.62
313.199	12.62
313.991	13.62
314.783	9.62
315.574	12.62
316.366	13.62
317.157	12.62
317.949	12.62
318.74	10.62
319.531	13.62
320.322	11.62
321.113	11.62
321.904	11.62
322.695	9.62
323.486	11.62
324.277	8.62
325.068	10.62
325.858	11.62
326.649	10.62
327.439	8.62
328.23	7.62
329.02	10.62
329.81	10.62
330.6	8.62
331.391	8.62
332.181	9.62
332.971	7.62
333.76	9.62
334.55	8.62
335.34	10.62
336.13	9.62
336.919	7.62
337.709	9.62
338.498	8.62
339.287	8.62
340.077	9.62
340.866	9.62
341.655	7.62
342.444	7.62
343.233	8.62
344.022	8.62
344.811	9.62
345.6	6.62
346.388	8.62
347.177	7.62
347.965	9.62
348.754	7.62
349.542	7.62
350.33	10.62
351.119	7.62
351.907	6.62
352.695	8.62
353.483	10.62
354.271	10.62
355.059	5.62
355.846	9.62
356.634	7.62
357.422	6.62
358.209	9.62
358.997	8.62
359.784	9.62
360.571	6.62
361.359	7.62
362.146	8.62
362.933	5.62
363.72	5.62
364.507	6.62
365.294	8.62
366.081	7.62
366.867	7.62
367.654	6.62
368.44	7.62
369.227	8.62
370.013	7.62
370.8	5.62
371.586	6.62
372.372	6.62
373.158	8.62
373.944	8.62
374.73	8.62
375.516	7.62
376.302	6.62
377.088	7.62
377.873	8.62
378.659	7.62
379.445	9.62
380.23	6.62
381.015	3.62
381.801	8.62
382.586	6.62
383.371	8.62
384.156	5.62
384.941	9.62
385.726	6.62
386.511	7.62
387.296	10.62
388.08	7.62
388.865	10.62
389.649	6.62
390.434	8.62
391.218	9.62
392.003	10.62
392.787	9.62
393.571	6.62
394.355	8.62
395.139	9.62
395.923	10.62
396.707	7.62
397.491	10.62
398.274	11.62
399.058	7.62
399.842	9.62
400.625	12.62
401.408	10.62
402.192	11.62
402.975	11.62
403.758	11.62
404.541	8.62
405.324	12.62
406.107	11.62
406.89	12.62
407.673	12.62
408.456	10.62
409.238	12.62
410.021	10.62
410.803	12.62
411.586	11.62
412.368	14.62
413.151	11.62
413.933	11.62
414.715	15.62
415.497	14.62
416.279	13.62
417.061	12.62
417.843	15.62
418.624	13.62
419.406	15.62
420.188	16.62
420.969	15.62
421.751	17.62
422.532	14.62
423.313	16.62
424.095	16.62
424.876	19.62
425.657	16.62
426.438	20.62
427.219	18.62
428	20.62
428.78	19.62
429.561	17.62
430.342	19.62
431.122	24.62
431.903	24.62
432.683	24.62
433.464	25.62
434.244	26.62
435.024	27.62
435.804	30.62
436.584	29.62
437.364	31.62
438.144	32.62
438.924	36.62
439.704	36.62
440.483	41.62
441.263	43.62
442.042	43.62
442.822	48.62
443.601	54.62
444.38	57.62
445.16	60.62
445.939	61.62
446.718	69.62
447.497	76.62
448.276	86.62
449.054	90.62
449.833	94.62
450.612	112.62
451.391	122.62
452.169	134.62
452.948	148.62
453.726	158.62
454.504	178.62
455.282	202.62
456.061	223.62
456.839	243.62
457.617	273.62
458.395	306.62
459.172	342.62
459.95	379.62
460.728	427.62
461.506	478.62
462.283	528.62
463.061	594.62
463.838	664.62
464.615	738.62
465.393	809.62
466.17	903.62
466.947	1006.62
467.724	1120.62
468.501	1256.62
469.278	1377.62
470.055	1534.62
470.831	1705.62
471.608	1888.62
472.385	2076.62
473.161	2280.62
473.938	2525.62
474.714	2770.62
475.49	3014.62
476.266	3329.62
477.043	3692.62
477.819	4044.62
478.595	4445.62
479.371	4831.62
480.146	5246.62
480.922	5773.62
481.698	6317.62
482.473	6861.62
483.249	7453.62
484.024	8107.62
484.8	8858.62
485.575	9626.62
486.35	10411.62
487.126	11308.62
487.901	12293.62
488.676	13380.62
489.451	14429.62
490.225	15587.62
491	16799.62
491.775	18040.62
492.55	19426.62
493.324	20685.62
494.099	22122.62
494.873	23452.62
495.647	25015.62
496.422	26533.62
497.196	27940.62
497.97	29293.62
498.744	30607.62
499.518	31854.62
500.292	33090.62
501.066	34104.62
501.839	35086.62
502.613	35829.62
503.387	36446.62
504.16	37013.62
504.934	37258.62
505.707	37253.62
506.48	37204.62
507.253	36951.62
508.027	36336.62
508.8	35771.62
509.573	34936.62
510.346	34125.62
511.118	33094.62
511.891	32083.62
512.664	31107.62
513.437	29953.62
514.209	28762.62
514.982	27698.62
515.754	26599.62
516.526	25483.62
517.298	24321.62
518.071	23436.62
518.843	22484.62
519.615	21560.62
520.387	20768.62
521.159	19931.62
521.93	19137.62
522.702	18314.62
523.474	17560.62
524.245	16899.62
525.017	16167.62
525.788	15496.62
526.56	14736.62
527.331	14104.62
528.102	13458.62
528.873	12808.62
529.644	12158.62
530.415	11561.62
531.186	11010.62
531.957	10447.62
532.728	9918.62
533.498	9362.62
534.269	8868.62
535.039	8385.62
535.81	7935.62
536.58	7528.62
537.351	7105.62
538.121	6716.62
538.891	6332.62
539.661	6034.62
540.431	5713.62
541.201	5405.62
541.971	5122.62
542.741	4841.62
543.51	4600.62
544.28	4369.62
545.05	4165.62
545.819	3963.62
546.588	3756.62
547.358	3568.62
548.127	3402.62
548.896	3220.62
549.665	3069.62
550.434	2903.62
551.203	2760.62
551.972	2628.62
552.741	2470.62
553.51	2347.62
554.278	2217.62
555.047	2088.62
555.815	1975.62
556.584	1880.62
557.352	1759.62
558.121	1662.62
558.889	1570.62
559.657	1481.62
560.425	1404.62
561.193	1312.62
561.961	1247.62
562.729	1193.62
563.496	1118.62
564.264	1068.62
565.032	1010.62
565.799	947.62
566.567	903.62
567.334	850.62
568.101	802.62
568.869	764.62
569.636	718.62
570.403	674.62
571.17	644.62
571.937	609.62
572.704	580.62
573.471	531.62
574.237	506.62
575.004	471.62
575.771	447.62
576.537	424.62
577.303	409.62
578.07	376.62
578.836	360.62
579.602	342.62
580.368	323.62
581.134	300.62
581.9	283.62
582.666	278.62
583.432	262.62
584.198	244.62
584.964	232.62
585.729	217.62
586.495	213.62
587.26	196.62
588.025	186.62
588.791	177.62
589.556	172.62
590.321	159.62
591.086	154.62
591.851	140.62
592.616	147.62
593.381	129.62
594.146	123.62
594.911	122.62
595.675	113.62
596.44	106.62
597.204	104.62
597.969	100.62
598.733	98.62
599.497	91.62
600.261	85.62
601.025	86.62
601.79	78.62
602.553	78.62
603.317	76.62
604.081	69.62
604.845	64.62
605.609	67.62
606.372	64.62
607.136	61.62
607.899	55.62
608.662	51.62
609.426	53.62
610.189	51.62
610.952	51.62
611.715	46.62
612.478	47.62
613.241	43.62
614.004	41.62
614.767	42.62
615.529	36.62
616.292	40.62
617.055	35.62
617.817	34.62
618.579	35.62
619.342	34.62
620.104	30.62
620.866	33.62
621.628	29.62
622.39	29.62
623.152	28.62
623.914	23.62
624.676	26.62
625.438	24.62
626.199	24.62
626.961	24.62
627.722	26.62
628.484	19.62
629.245	22.62
630.006	22.62
630.768	20.62
631.529	19.62
632.29	17.62
633.051	21.62
633.812	20.62
634.573	18.62
635.333	17.62
636.094	16.62
636.855	15.62
637.615	15.62
638.376	13.62
639.136	17.62
639.896	14.62
640.657	15.62
641.417	11.62
642.177	12.62
642.937	13.62
643.697	12.62
644.457	12.62
645.216	12.62
645.976	12.62
646.736	12.62
647.495	12.62
648.255	12.62
649.014	10.62
649.774	8.62
650.533	10.62
651.292	8.62
652.051	9.62
652.81	12.62
653.569	10.62
654.328	9.62
655.087	11.62
655.846	9.62
656.604	10.62
657.363	10.62
658.121	10.62
658.88	8.62
659.638	5.62
660.397	8.62
661.155	8.62
661.913	6.62
662.671	6.62
663.429	9.62
664.187	8.62
664.945	6.62
665.703	6.62
666.46	8.62
667.218	8.62
667.976	6.62
668.733	6.62
669.49	5.62
670.248	8.62
671.005	7.62
671.762	4.62
672.519	6.62
673.276	8.62
674.033	6.62
674.79	6.62
675.547	7.62
676.304	7.62
677.06	7.62
677.817	5.62
678.574	6.62
679.33	5.62
680.086	4.62
680.843	6.62
681.599	4.62
682.355	4.62
683.111	8.62
683.867	5.62
684.623	8.62
685.379	6.62
686.135	4.62
686.89	5.62
687.646	5.62
688.402	6.62
689.157	5.62
689.912	7.62
690.668	5.62
691.423	6.62
692.178	7.62
692.933	5.62
693.688	6.62
694.443	6.62
695.198	5.62
695.953	5.62
696.708	5.62
697.462	4.62
698.217	6.62
698.972	5.62
699.726	6.62
700.48	7.62
701.235	4.62
701.989	4.62
702.743	8.62
703.497	5.62
704.251	6.62
705.005	5.62
705.759	4.62
706.513	5.62
707.266	5.62
708.02	6.62
708.774	4.62
709.527	3.62
710.28	4.62
711.034	4.62
711.787	3.62
712.54	5.62
713.293	7.62
714.046	6.62
714.799	6.62
715.552	5.62
716.305	5.62
717.058	7.62
717.81	5.62
718.563	3.62
719.315	7.62
720.068	7.62
720.82	5.62
721.573	6.62
722.325	4.62
723.077	4.62
723.829	5.62
724.581	8.62
725.333	5.62
726.085	6.62
726.836	6.62
727.588	6.62
728.34	5.62
729.091	7.62
729.843	6.62
730.594	4.62
731.346	6.62
732.097	6.62
732.848	8.62
733.599	6.62
734.35	3.62
735.101	4.62
735.852	5.62
736.603	7.62
737.354	6.62
738.104	5.62
738.855	7.62
739.605	4.62
740.356	4.62
741.106	5.62
741.856	6.62
742.607	6.62
743.357	6.62
744.107	7.62
744.857	7.62
745.607	7.62
746.357	6.62
747.106	6.62
747.856	8.62
748.606	8.62
749.355	6.62
750.105	8.62
750.854	7.62
751.603	8.62
752.353	10.62
753.102	7.62
753.851	7.62
754.6	9.62
755.349	8.62
756.098	7.62
756.847	8.62
757.595	8.62
758.344	8.62
759.093	10.62
759.841	8.62
760.589	8.62
761.338	9.62
762.086	5.62
762.834	9.62
763.582	7.62
764.331	7.62
765.079	8.62
765.826	7.62
766.574	8.62
767.322	8.62
768.07	10.62
768.817	10.62
769.565	8.62
770.312	8.62
771.06	11.62
771.807	11.62
772.554	11.62
773.302	13.62
774.049	11.62
774.796	12.62
775.543	8.62
776.29	10.62
777.036	14.62
777.783	12.62
778.53	9.62
779.276	11.62
780.023	13.62
780.769	10.62
781.516	10.62
782.262	12.62
783.008	9.62
783.754	12.62
784.5	11.62
785.246	12.62
785.992	12.62
786.738	11.62
787.484	11.62
788.23	11.62
788.975	11.62
789.721	11.62
790.466	12.62
791.212	12.62
791.957	11.62
792.702	9.62
793.447	11.62
794.193	13.62
794.938	11.62
795.683	10.62
796.427	12.62
797.172	11.62
797.917	8.62
798.662	8.62
799.406	10.62
800.151	8.62
800.895	6.62
801.64	8.62
802.384	10.62
803.128	10.62
803.872	8.62
804.616	7.62
805.36	10.62
806.104	9.62
806.848	5.62
807.592	9.62
808.336	8.62
809.079	9.62
809.823	6.62
810.566	6.62
811.31	7.62
812.053	6.62
812.796	6.62
813.539	7.62
814.283	6.62
815.026	8.62
815.769	5.62
816.511	6.62
817.254	7.62
817.997	3.62
818.74	4.62
819.482	6.62
820.225	6.62
820.967	4.62
821.71	8.62
822.452	5.62
823.194	6.62
823.936	5.62
824.678	5.62
825.42	4.62
826.162	6.62
826.904	4.62
827.646	5.62
828.388	6.62
829.129	5.62
829.871	6.62
830.612	4.62
831.354	3.62
832.095	4.62
832.836	5.62
833.577	4.62
834.319	6.62
835.06	4.62
835.801	7.62
836.542	2.62
837.282	4.62
838.023	4.62
838.764	5.62
839.504	4.62
840.245	4.62
840.985	3.62
841.726	4.62
842.466	3.62
843.206	3.62
843.946	3.62
844.687	3.62
845.427	5.62
846.166	2.62
846.906	4.62
847.646	6.62
848.386	2.62
849.125	4.62
849.865	1.62
850.605	4.62
851.344	4.62
852.083	2.62
852.823	2.62
853.562	4.62
854.301	2.62
855.04	2.62
855.779	5.62
856.518	3.62
857.257	2.62
857.995	3.62
858.734	1.62
859.473	1.62
860.211	3.62
860.95	0.62
861.688	2.62
862.426	2.62
863.165	3.62
863.903	2.62
864.641	4.62
865.379	1.62
866.117	4.62
866.855	1.62
867.593	1.62
868.33	0.62
869.068	2.62
869.806	0.62
870.543	1.62
871.28	1.62
872.018	1.62
872.755	2.62
873.492	2.62
874.229	-1.38
874.967	1.62
875.703	1.62
876.44	2.62
877.177	3.62
877.914	0.62
878.651	1.62
879.387	-0.38
880.124	-0.38
880.86	-1.38
881.597	2.62
882.333	-0.38
883.069	-0.38
883.806	0.62
884.542	0.62
885.278	1.62
886.014	0.62
886.749	0.62
887.485	-0.38
888.221	1.62
888.957	1.62
889.692	-0.38
890.428	2.62
891.163	0.62
891.899	2.62
892.634	0.62
893.369	0.62
894.104	0.62
894.839	-0.38
895.574	0.62
896.309	0.62
897.044	0.62
897.779	1.62
898.514	0.62
899.248	-0.38
899.983	-1.38
900.717	0.62
901.452	1.62
902.186	3.62
902.92	-0.38
903.654	2.62
904.389	-1.38
905.123	1.62
905.857	1.62
906.59	-0.38
907.324	2.62
908.058	0.62
908.792	-0.38
909.525	-1.38
910.259	0.62
910.992	3.62
911.726	-0.38
912.459	-1.38
913.192	1.62
913.925	0.62
914.658	-0.38
915.391	-2.38
916.124	0.62
916.857	-1.38
917.59	0.62
918.323	0.62
919.055	1.62
919.788	0.62
920.521	-0.38
921.253	-0.38
921.985	-1.38
922.718	-0.38
923.45	-0.38
924.182	-1.38
924.914	1.62
925.646	1.62
926.378	1.62
927.11	-1.38
927.841	0.62
928.573	0.62
929.305	2.62
930.036	-0.38
930.768	1.62
931.499	0.62
932.23	0.62
932.962	0.62
933.693	0.62
934.424	0.62
935.155	0.62
935.886	-0.38
936.617	-1.38
937.348	-0.38
938.078	2.62
938.809	0.62
939.54	0.62
940.27	0.62
941.001	0.62
941.731	0.62
942.461	-0.38
943.191	0.62
943.922	-1.38
944.652	3.62
945.382	1.62
946.112	-2.38
946.841	0.62
947.571	0.62
948.301	0.62
949.031	0.62
949.76	1.62
950.49	-0.38
951.219	2.62
951.948	2.62
952.678	-1.38
953.407	-2.38
954.136	-0.38
954.865	0.62
955.594	0.62
956.323	0.62
957.052	0.62
957.78	-1.38
958.509	1.62
959.238	-2.38
959.966	-0.38
960.695	0.62
961.423	0.62
962.151	0.62
962.88	1.62
963.608	0.62
964.336	-0.38
965.064	1.62
965.792	-0.38
966.52	1.62
967.247	-0.38
967.975	2.62
968.703	-0.38
969.43	-2.38
970.158	-2.38
970.885	-0.38
971.613	1.62
972.34	1.62
973.067	0.62
973.794	-1.38
974.521	-1.38
975.248	0.62
975.975	-1.38
976.702	0.62
977.429	1.62
978.156	-1.38
978.882	0.62
979.609	-0.38
980.335	0.62
981.062	0.62
981.788	0.62
982.514	0.62
983.24	0.62
983.967	-0.38
984.693	-0.38
985.419	1.62
986.144	-3.38
986.87	0.62
987.596	0.62
988.322	-1.38
989.047	-0.38
989.773	0.62
990.498	1.62
991.224	1.62
991.949	2.62
992.674	0.62
993.399	0.62
994.124	0.62
994.849	-3.38
995.574	2.62
996.299	-0.38
997.024	-0.38
997.749	-1.38
998.473	-0.38
999.198	0.62
999.922	2.62
1000.647	-0.38
1001.371	2.62
1002.095	-0.38
1002.82	0.62
1003.544	-0.38
1004.268	3.62
1004.992	-1.38
1005.716	1.62
1006.439	2.62
1007.163	4.62
1007.887	2.62
1008.611	-0.38
1009.334	1.62
1010.058	0.62
1010.781	2.62
1011.504	1.62
1012.228	-0.38
1012.951	0.62
1013.674	-1.38
1014.397	-2.38
1015.12	0.62
