节点500_565_QEPB04081__14__09-50-42-104.txt的数据

Date: Thu Nov 13 09:50:42 CST 2025
User: PC
Spectrometer: QEPB0408
触发模式: 0
积分时间 (秒): 1.000000E-2
Scans to average: 1
启用暗噪声校正: true
启用非线性校正: false
滑动平均宽度: 0
X轴模式: Wavelengths
Number of Pixels in Spectrum: 1044
>>>>>Begin Spectral Data<<<<<
220.843	4.38
221.644	4.38
222.444	7.38
223.244	3.38
224.045	4.38
224.845	4.38
225.645	7.38
226.445	5.38
227.245	4.38
228.045	4.38
228.845	7.38
229.645	6.38
230.444	5.38
231.244	8.38
232.043	7.38
232.843	5.38
233.642	7.38
234.442	6.38
235.241	9.38
236.04	11.38
236.839	9.38
237.638	8.38
238.437	6.38
239.236	9.38
240.035	7.38
240.833	11.38
241.632	10.38
242.43	9.38
243.229	10.38
244.027	11.38
244.826	13.38
245.624	12.38
246.422	14.38
247.22	11.38
248.018	13.38
248.816	15.38
249.614	12.38
250.412	18.38
251.21	15.38
252.007	14.38
252.805	15.38
253.602	16.38
254.4	16.38
255.197	16.38
255.994	16.38
256.791	16.38
257.589	17.38
258.386	18.38
259.183	20.38
259.979	22.38
260.776	21.38
261.573	23.38
262.37	20.38
263.166	23.38
263.963	21.38
264.759	24.38
265.556	24.38
266.352	27.38
267.148	27.38
267.944	24.38
268.74	26.38
269.536	27.38
270.332	28.38
271.128	29.38
271.924	27.38
272.719	30.38
273.515	29.38
274.311	31.38
275.106	32.38
275.901	29.38
276.697	33.38
277.492	30.38
278.287	33.38
279.082	30.38
279.877	32.38
280.672	31.38
281.467	32.38
282.262	33.38
283.056	29.38
283.851	34.38
284.646	31.38
285.44	31.38
286.234	30.38
287.029	30.38
287.823	30.38
288.617	29.38
289.411	32.38
290.205	27.38
290.999	33.38
291.793	27.38
292.587	28.38
293.381	27.38
294.174	24.38
294.968	25.38
295.761	23.38
296.555	25.38
297.348	21.38
298.141	20.38
298.935	24.38
299.728	22.38
300.521	23.38
301.314	21.38
302.107	22.38
302.899	21.38
303.692	17.38
304.485	20.38
305.277	17.38
306.07	20.38
306.862	20.38
307.655	18.38
308.447	18.38
309.239	17.38
310.031	16.38
310.823	17.38
311.615	15.38
312.407	14.38
313.199	16.38
313.991	15.38
314.783	16.38
315.574	15.38
316.366	13.38
317.157	12.38
317.949	12.38
318.74	12.38
319.531	13.38
320.322	11.38
321.113	13.38
321.904	11.38
322.695	13.38
323.486	10.38
324.277	10.38
325.068	10.38
325.858	10.38
326.649	12.38
327.439	11.38
328.23	10.38
329.02	10.38
329.81	10.38
330.6	11.38
331.391	10.38
332.181	10.38
332.971	11.38
333.76	11.38
334.55	12.38
335.34	10.38
336.13	12.38
336.919	12.38
337.709	9.38
338.498	12.38
339.287	11.38
340.077	8.38
340.866	11.38
341.655	10.38
342.444	10.38
343.233	10.38
344.022	8.38
344.811	11.38
345.6	12.38
346.388	11.38
347.177	8.38
347.965	9.38
348.754	9.38
349.542	7.38
350.33	10.38
351.119	9.38
351.907	9.38
352.695	11.38
353.483	8.38
354.271	10.38
355.059	7.38
355.846	9.38
356.634	8.38
357.422	11.38
358.209	9.38
358.997	10.38
359.784	11.38
360.571	9.38
361.359	9.38
362.146	9.38
362.933	11.38
363.72	8.38
364.507	10.38
365.294	8.38
366.081	9.38
366.867	10.38
367.654	11.38
368.44	10.38
369.227	8.38
370.013	8.38
370.8	10.38
371.586	7.38
372.372	9.38
373.158	7.38
373.944	8.38
374.73	8.38
375.516	8.38
376.302	10.38
377.088	8.38
377.873	9.38
378.659	11.38
379.445	7.38
380.23	9.38
381.015	7.38
381.801	8.38
382.586	8.38
383.371	9.38
384.156	10.38
384.941	11.38
385.726	10.38
386.511	9.38
387.296	11.38
388.08	10.38
388.865	10.38
389.649	9.38
390.434	9.38
391.218	9.38
392.003	10.38
392.787	11.38
393.571	10.38
394.355	13.38
395.139	11.38
395.923	11.38
396.707	11.38
397.491	13.38
398.274	13.38
399.058	12.38
399.842	10.38
400.625	10.38
401.408	13.38
402.192	15.38
402.975	10.38
403.758	10.38
404.541	12.38
405.324	12.38
406.107	15.38
406.89	14.38
407.673	12.38
408.456	15.38
409.238	14.38
410.021	12.38
410.803	13.38
411.586	16.38
412.368	16.38
413.151	17.38
413.933	15.38
414.715	16.38
415.497	15.38
416.279	17.38
417.061	14.38
417.843	16.38
418.624	16.38
419.406	20.38
420.188	19.38
420.969	16.38
421.751	20.38
422.532	20.38
423.313	22.38
424.095	22.38
424.876	22.38
425.657	20.38
426.438	20.38
427.219	25.38
428	22.38
428.78	22.38
429.561	26.38
430.342	23.38
431.122	28.38
431.903	27.38
432.683	30.38
433.464	28.38
434.244	29.38
435.024	29.38
435.804	33.38
436.584	34.38
437.364	38.38
438.144	38.38
438.924	38.38
439.704	45.38
440.483	44.38
441.263	44.38
442.042	51.38
442.822	53.38
443.601	56.38
444.38	60.38
445.16	64.38
445.939	68.38
446.718	76.38
447.497	77.38
448.276	88.38
449.054	96.38
449.833	103.38
450.612	108.38
451.391	124.38
452.169	132.38
452.948	143.38
453.726	160.38
454.504	177.38
455.282	195.38
456.061	221.38
456.839	241.38
457.617	268.38
458.395	297.38
459.172	342.38
459.95	371.38
460.728	427.38
461.506	479.38
462.283	528.38
463.061	599.38
463.838	669.38
464.615	752.38
465.393	836.38
466.17	928.38
466.947	1035.38
467.724	1167.38
468.501	1312.38
469.278	1451.38
470.055	1608.38
470.831	1812.38
471.608	2027.38
472.385	2242.38
473.161	2501.38
473.938	2789.38
474.714	3081.38
475.49	3395.38
476.266	3762.38
477.043	4193.38
477.819	4641.38
478.595	5105.38
479.371	5604.38
480.146	6162.38
480.922	6840.38
481.698	7489.38
482.473	8236.38
483.249	9086.38
484.024	9953.38
484.8	10966.38
485.575	12000.38
486.35	13140.38
487.126	14310.38
487.901	15580.38
488.676	17030.38
489.451	18446.38
490.225	20087.38
491	21708.38
491.775	23356.38
492.55	25280.38
493.324	27052.38
494.099	28864.38
494.873	30769.38
495.647	32784.38
496.422	34698.38
497.196	36400.38
497.97	38051.38
498.744	39563.38
499.518	40910.38
500.292	42208.38
501.066	43432.38
501.839	44272.38
502.613	44859.38
503.387	45276.38
504.16	45503.38
504.934	45304.38
505.707	44870.38
506.48	44406.38
507.253	43444.38
508.027	42503.38
508.8	41385.38
509.573	40013.38
510.346	38662.38
511.118	37215.38
511.891	35961.38
512.664	34419.38
513.437	32955.38
514.209	31457.38
514.982	30115.38
515.754	28893.38
516.526	27499.38
517.298	26365.38
518.071	25332.38
518.843	24256.38
519.615	23284.38
520.387	22331.38
521.159	21472.38
521.93	20594.38
522.702	19750.38
523.474	18887.38
524.245	18102.38
525.017	17327.38
525.788	16534.38
526.56	15708.38
527.331	14915.38
528.102	14228.38
528.873	13474.38
529.644	12813.38
530.415	12084.38
531.186	11438.38
531.957	10886.38
532.728	10304.38
533.498	9723.38
534.269	9131.38
535.039	8616.38
535.81	8172.38
536.58	7729.38
537.351	7326.38
538.121	6891.38
538.891	6513.38
539.661	6176.38
540.431	5856.38
541.201	5552.38
541.971	5248.38
542.741	4977.38
543.51	4716.38
544.28	4474.38
545.05	4284.38
545.819	4052.38
546.588	3825.38
547.358	3658.38
548.127	3475.38
548.896	3302.38
549.665	3120.38
550.434	2984.38
551.203	2798.38
551.972	2671.38
552.741	2527.38
553.51	2364.38
554.278	2220.38
555.047	2089.38
555.815	1975.38
556.584	1868.38
557.352	1753.38
558.121	1664.38
558.889	1578.38
559.657	1469.38
560.425	1408.38
561.193	1318.38
561.961	1267.38
562.729	1194.38
563.496	1114.38
564.264	1063.38
565.032	1021.38
565.799	947.38
566.567	900.38
567.334	857.38
568.101	796.38
568.869	770.38
569.636	724.38
570.403	674.38
571.17	640.38
571.937	611.38
572.704	571.38
573.471	540.38
574.237	515.38
575.004	486.38
575.771	447.38
576.537	431.38
577.303	397.38
578.07	369.38
578.836	350.38
579.602	334.38
580.368	318.38
581.134	300.38
581.9	281.38
582.666	274.38
583.432	256.38
584.198	247.38
584.964	226.38
585.729	224.38
586.495	203.38
587.26	198.38
588.025	186.38
588.791	187.38
589.556	170.38
590.321	164.38
591.086	155.38
591.851	147.38
592.616	139.38
593.381	135.38
594.146	132.38
594.911	119.38
595.675	114.38
596.44	109.38
597.204	106.38
597.969	100.38
598.733	95.38
599.497	93.38
600.261	89.38
601.025	88.38
601.79	84.38
602.553	74.38
603.317	78.38
604.081	74.38
604.845	70.38
605.609	70.38
606.372	66.38
607.136	63.38
607.899	59.38
608.662	58.38
609.426	56.38
610.189	56.38
610.952	51.38
611.715	48.38
612.478	49.38
613.241	47.38
614.004	46.38
614.767	42.38
615.529	38.38
616.292	41.38
617.055	38.38
617.817	38.38
618.579	35.38
619.342	35.38
620.104	35.38
620.866	34.38
621.628	30.38
622.39	31.38
623.152	33.38
623.914	30.38
624.676	27.38
625.438	27.38
626.199	25.38
626.961	25.38
627.722	23.38
628.484	25.38
629.245	24.38
630.006	22.38
630.768	21.38
631.529	20.38
632.29	19.38
633.051	23.38
633.812	20.38
634.573	18.38
635.333	18.38
636.094	17.38
636.855	19.38
637.615	19.38
638.376	16.38
639.136	19.38
639.896	16.38
640.657	18.38
641.417	16.38
642.177	15.38
642.937	15.38
643.697	14.38
644.457	14.38
645.216	14.38
645.976	15.38
646.736	11.38
647.495	12.38
648.255	12.38
649.014	15.38
649.774	11.38
650.533	11.38
651.292	13.38
652.051	11.38
652.81	12.38
653.569	9.38
654.328	12.38
655.087	11.38
655.846	8.38
656.604	12.38
657.363	9.38
658.121	13.38
658.88	9.38
659.638	11.38
660.397	10.38
661.155	10.38
661.913	12.38
662.671	10.38
663.429	10.38
664.187	8.38
664.945	10.38
665.703	10.38
666.46	8.38
667.218	9.38
667.976	8.38
668.733	9.38
669.49	11.38
670.248	8.38
671.005	8.38
671.762	8.38
672.519	11.38
673.276	8.38
674.033	7.38
674.79	8.38
675.547	9.38
676.304	8.38
677.06	4.38
677.817	8.38
678.574	8.38
679.33	8.38
680.086	5.38
680.843	6.38
681.599	9.38
682.355	7.38
683.111	7.38
683.867	8.38
684.623	6.38
685.379	9.38
686.135	5.38
686.89	6.38
687.646	8.38
688.402	7.38
689.157	6.38
689.912	9.38
690.668	8.38
691.423	7.38
692.178	4.38
692.933	6.38
693.688	6.38
694.443	6.38
695.198	7.38
695.953	8.38
696.708	4.38
697.462	5.38
698.217	7.38
698.972	7.38
699.726	6.38
700.48	6.38
701.235	8.38
701.989	6.38
702.743	8.38
703.497	5.38
704.251	7.38
705.005	3.38
705.759	6.38
706.513	6.38
707.266	7.38
708.02	7.38
708.774	6.38
709.527	5.38
710.28	6.38
711.034	7.38
711.787	7.38
712.54	6.38
713.293	6.38
714.046	6.38
714.799	7.38
715.552	6.38
716.305	8.38
717.058	7.38
717.81	9.38
718.563	9.38
719.315	7.38
720.068	6.38
720.82	7.38
721.573	6.38
722.325	6.38
723.077	6.38
723.829	6.38
724.581	8.38
725.333	7.38
726.085	5.38
726.836	7.38
727.588	9.38
728.34	6.38
729.091	9.38
729.843	6.38
730.594	8.38
731.346	7.38
732.097	10.38
732.848	8.38
733.599	6.38
734.35	6.38
735.101	9.38
735.852	8.38
736.603	9.38
737.354	7.38
738.104	8.38
738.855	6.38
739.605	10.38
740.356	8.38
741.106	9.38
741.856	10.38
742.607	11.38
743.357	7.38
744.107	8.38
744.857	9.38
745.607	10.38
746.357	9.38
747.106	8.38
747.856	10.38
748.606	9.38
749.355	11.38
750.105	9.38
750.854	11.38
751.603	12.38
752.353	10.38
753.102	10.38
753.851	10.38
754.6	9.38
755.349	10.38
756.098	10.38
756.847	12.38
757.595	11.38
758.344	12.38
759.093	12.38
759.841	11.38
760.589	13.38
761.338	11.38
762.086	12.38
762.834	13.38
763.582	11.38
764.331	13.38
765.079	11.38
765.826	11.38
766.574	12.38
767.322	13.38
768.07	15.38
768.817	14.38
769.565	12.38
770.312	14.38
771.06	14.38
771.807	15.38
772.554	15.38
773.302	15.38
774.049	13.38
774.796	15.38
775.543	13.38
776.29	14.38
777.036	14.38
777.783	16.38
778.53	14.38
779.276	13.38
780.023	15.38
780.769	14.38
781.516	17.38
782.262	14.38
783.008	16.38
783.754	17.38
784.5	13.38
785.246	12.38
785.992	17.38
786.738	13.38
787.484	14.38
788.23	15.38
788.975	14.38
789.721	14.38
790.466	15.38
791.212	11.38
791.957	14.38
792.702	13.38
793.447	13.38
794.193	14.38
794.938	14.38
795.683	11.38
796.427	11.38
797.172	12.38
797.917	13.38
798.662	12.38
799.406	10.38
800.151	11.38
800.895	10.38
801.64	11.38
802.384	12.38
803.128	10.38
803.872	10.38
804.616	9.38
805.36	12.38
806.104	11.38
806.848	8.38
807.592	11.38
808.336	9.38
809.079	10.38
809.823	11.38
810.566	8.38
811.31	8.38
812.053	8.38
812.796	9.38
813.539	8.38
814.283	6.38
815.026	8.38
815.769	9.38
816.511	7.38
817.254	10.38
817.997	6.38
818.74	9.38
819.482	8.38
820.225	6.38
820.967	7.38
821.71	6.38
822.452	8.38
823.194	6.38
823.936	6.38
824.678	6.38
825.42	5.38
826.162	6.38
826.904	7.38
827.646	8.38
828.388	6.38
829.129	5.38
829.871	9.38
830.612	6.38
831.354	6.38
832.095	4.38
832.836	5.38
833.577	4.38
834.319	4.38
835.06	5.38
835.801	4.38
836.542	6.38
837.282	6.38
838.023	4.38
838.764	5.38
839.504	2.38
840.245	8.38
840.985	5.38
841.726	7.38
842.466	4.38
843.206	8.38
843.946	4.38
844.687	4.38
845.427	5.38
846.166	3.38
846.906	4.38
847.646	4.38
848.386	3.38
849.125	3.38
849.865	4.38
850.605	5.38
851.344	2.38
852.083	4.38
852.823	4.38
853.562	4.38
854.301	3.38
855.04	5.38
855.779	2.38
856.518	3.38
857.257	2.38
857.995	4.38
858.734	0.38
859.473	3.38
860.211	2.38
860.95	2.38
861.688	3.38
862.426	3.38
863.165	2.38
863.903	3.38
864.641	2.38
865.379	1.38
866.117	3.38
866.855	3.38
867.593	3.38
868.33	3.38
869.068	1.38
869.806	2.38
870.543	3.38
871.28	3.38
872.018	1.38
872.755	1.38
873.492	2.38
874.229	3.38
874.967	0.38
875.703	1.38
876.44	2.38
877.177	2.38
877.914	2.38
878.651	1.38
879.387	0.38
880.124	1.38
880.86	1.38
881.597	1.38
882.333	0.38
883.069	1.38
883.806	2.38
884.542	1.38
885.278	2.38
886.014	1.38
886.749	3.38
887.485	1.38
888.221	1.38
888.957	-0.62
889.692	1.38
890.428	3.38
891.163	1.38
891.899	2.38
892.634	1.38
893.369	2.38
894.104	0.38
894.839	1.38
895.574	1.38
896.309	1.38
897.044	1.38
897.779	0.38
898.514	2.38
899.248	0.38
899.983	1.38
900.717	2.38
901.452	-0.62
902.186	3.38
902.92	-0.62
903.654	2.38
904.389	0.38
905.123	0.38
905.857	2.38
906.59	-2.62
907.324	0.38
908.058	-0.62
908.792	1.38
909.525	3.38
910.259	-0.62
910.992	1.38
911.726	-0.62
912.459	2.38
913.192	0.38
913.925	1.38
914.658	1.38
915.391	1.38
916.124	1.38
916.857	-0.62
917.59	0.38
918.323	2.38
919.055	1.38
919.788	-0.62
920.521	-0.62
921.253	0.38
921.985	-1.62
922.718	1.38
923.45	-1.62
924.182	0.38
924.914	0.38
925.646	-0.62
926.378	-0.62
927.11	0.38
927.841	2.38
928.573	0.38
929.305	-0.62
930.036	1.38
930.768	-0.62
931.499	2.38
932.23	1.38
932.962	2.38
933.693	1.38
934.424	0.38
935.155	-0.62
935.886	-0.62
936.617	0.38
937.348	0.38
938.078	2.38
938.809	1.38
939.54	0.38
940.27	2.38
941.001	-0.62
941.731	-0.62
942.461	1.38
943.191	0.38
943.922	0.38
944.652	0.38
945.382	1.38
946.112	-0.62
946.841	0.38
947.571	0.38
948.301	1.38
949.031	1.38
949.76	1.38
950.49	0.38
951.219	0.38
951.948	1.38
952.678	-0.62
953.407	0.38
954.136	0.38
954.865	3.38
955.594	-1.62
956.323	-0.62
957.052	1.38
957.78	1.38
958.509	-0.62
959.238	0.38
959.966	-0.62
960.695	2.38
961.423	-0.62
962.151	0.38
962.88	-1.62
963.608	1.38
964.336	1.38
965.064	1.38
965.792	-0.62
966.52	0.38
967.247	1.38
967.975	1.38
968.703	0.38
969.43	-0.62
970.158	0.38
970.885	-1.62
971.613	2.38
972.34	0.38
973.067	-0.62
973.794	0.38
974.521	3.38
975.248	1.38
975.975	2.38
976.702	0.38
977.429	1.38
978.156	1.38
978.882	0.38
979.609	0.38
980.335	0.38
981.062	1.38
981.788	1.38
982.514	1.38
983.24	0.38
983.967	0.38
984.693	-0.62
985.419	2.38
986.144	1.38
986.87	-0.62
987.596	1.38
988.322	2.38
989.047	1.38
989.773	2.38
990.498	0.38
991.224	-0.62
991.949	-0.62
992.674	2.38
993.399	0.38
994.124	0.38
994.849	-0.62
995.574	2.38
996.299	0.38
997.024	0.38
997.749	0.38
998.473	-0.62
999.198	-0.62
999.922	0.38
1000.647	-0.62
1001.371	2.38
1002.095	-1.62
1002.82	0.38
1003.544	-2.62
1004.268	3.38
1004.992	2.38
1005.716	2.38
1006.439	4.38
1007.163	5.38
1007.887	4.38
1008.611	2.38
1009.334	-0.62
1010.058	0.38
1010.781	0.38
1011.504	2.38
1012.228	0.38
1012.951	0.38
1013.674	-0.62
1014.397	0.38
1015.12	1.38
