节点500_565_QEPB04081__405__09-57-09-351.txt的数据

Date: Thu Nov 13 09:57:09 CST 2025
User: PC
Spectrometer: QEPB0408
触发模式: 0
积分时间 (秒): 1.000000E-2
Scans to average: 1
启用暗噪声校正: true
启用非线性校正: false
滑动平均宽度: 0
X轴模式: Wavelengths
Number of Pixels in Spectrum: 1044
>>>>>Begin Spectral Data<<<<<
220.843	3.62
221.644	5.62
222.444	4.62
223.244	4.62
224.045	3.62
224.845	5.62
225.645	4.62
226.445	4.62
227.245	5.62
228.045	4.62
228.845	5.62
229.645	3.62
230.444	7.62
231.244	5.62
232.043	9.62
232.843	5.62
233.642	7.62
234.442	9.62
235.241	6.62
236.04	6.62
236.839	3.62
237.638	7.62
238.437	8.62
239.236	6.62
240.035	6.62
240.833	9.62
241.632	8.62
242.43	8.62
243.229	8.62
244.027	6.62
244.826	10.62
245.624	10.62
246.422	9.62
247.22	12.62
248.018	11.62
248.816	13.62
249.614	10.62
250.412	9.62
251.21	12.62
252.007	13.62
252.805	12.62
253.602	13.62
254.4	13.62
255.197	13.62
255.994	15.62
256.791	16.62
257.589	14.62
258.386	16.62
259.183	20.62
259.979	18.62
260.776	15.62
261.573	17.62
262.37	16.62
263.166	19.62
263.963	19.62
264.759	20.62
265.556	18.62
266.352	19.62
267.148	22.62
267.944	20.62
268.74	25.62
269.536	22.62
270.332	23.62
271.128	28.62
271.924	26.62
272.719	24.62
273.515	23.62
274.311	28.62
275.106	25.62
275.901	29.62
276.697	26.62
277.492	25.62
278.287	25.62
279.082	25.62
279.877	27.62
280.672	28.62
281.467	29.62
282.262	28.62
283.056	25.62
283.851	28.62
284.646	26.62
285.44	28.62
286.234	27.62
287.029	28.62
287.823	28.62
288.617	28.62
289.411	28.62
290.205	28.62
290.999	26.62
291.793	25.62
292.587	27.62
293.381	26.62
294.174	24.62
294.968	22.62
295.761	23.62
296.555	22.62
297.348	21.62
298.141	21.62
298.935	24.62
299.728	22.62
300.521	22.62
301.314	20.62
302.107	20.62
302.899	20.62
303.692	17.62
304.485	18.62
305.277	20.62
306.07	20.62
306.862	17.62
307.655	20.62
308.447	19.62
309.239	16.62
310.031	16.62
310.823	17.62
311.615	17.62
312.407	12.62
313.199	15.62
313.991	14.62
314.783	13.62
315.574	14.62
316.366	12.62
317.157	12.62
317.949	14.62
318.74	13.62
319.531	11.62
320.322	12.62
321.113	12.62
321.904	9.62
322.695	11.62
323.486	10.62
324.277	9.62
325.068	11.62
325.858	11.62
326.649	10.62
327.439	8.62
328.23	11.62
329.02	9.62
329.81	10.62
330.6	8.62
331.391	10.62
332.181	10.62
332.971	8.62
333.76	8.62
334.55	11.62
335.34	10.62
336.13	10.62
336.919	12.62
337.709	10.62
338.498	10.62
339.287	8.62
340.077	9.62
340.866	11.62
341.655	8.62
342.444	9.62
343.233	8.62
344.022	7.62
344.811	10.62
345.6	8.62
346.388	7.62
347.177	9.62
347.965	7.62
348.754	9.62
349.542	8.62
350.33	8.62
351.119	11.62
351.907	10.62
352.695	9.62
353.483	10.62
354.271	7.62
355.059	8.62
355.846	8.62
356.634	8.62
357.422	10.62
358.209	8.62
358.997	9.62
359.784	8.62
360.571	8.62
361.359	7.62
362.146	7.62
362.933	8.62
363.72	9.62
364.507	9.62
365.294	8.62
366.081	7.62
366.867	8.62
367.654	8.62
368.44	8.62
369.227	7.62
370.013	6.62
370.8	7.62
371.586	7.62
372.372	6.62
373.158	7.62
373.944	5.62
374.73	8.62
375.516	6.62
376.302	6.62
377.088	7.62
377.873	8.62
378.659	10.62
379.445	8.62
380.23	8.62
381.015	7.62
381.801	7.62
382.586	7.62
383.371	6.62
384.156	8.62
384.941	8.62
385.726	7.62
386.511	9.62
387.296	9.62
388.08	9.62
388.865	9.62
389.649	8.62
390.434	9.62
391.218	9.62
392.003	12.62
392.787	9.62
393.571	9.62
394.355	9.62
395.139	8.62
395.923	10.62
396.707	9.62
397.491	11.62
398.274	11.62
399.058	12.62
399.842	8.62
400.625	10.62
401.408	10.62
402.192	10.62
402.975	13.62
403.758	13.62
404.541	13.62
405.324	10.62
406.107	10.62
406.89	13.62
407.673	10.62
408.456	13.62
409.238	10.62
410.021	11.62
410.803	12.62
411.586	12.62
412.368	14.62
413.151	14.62
413.933	14.62
414.715	15.62
415.497	13.62
416.279	13.62
417.061	13.62
417.843	17.62
418.624	15.62
419.406	14.62
420.188	16.62
420.969	16.62
421.751	17.62
422.532	16.62
423.313	17.62
424.095	20.62
424.876	22.62
425.657	20.62
426.438	20.62
427.219	22.62
428	20.62
428.78	19.62
429.561	21.62
430.342	24.62
431.122	23.62
431.903	26.62
432.683	26.62
433.464	30.62
434.244	29.62
435.024	30.62
435.804	32.62
436.584	34.62
437.364	37.62
438.144	38.62
438.924	41.62
439.704	43.62
440.483	42.62
441.263	45.62
442.042	46.62
442.822	54.62
443.601	61.62
444.38	62.62
445.16	68.62
445.939	72.62
446.718	77.62
447.497	85.62
448.276	97.62
449.054	104.62
449.833	114.62
450.612	121.62
451.391	136.62
452.169	149.62
452.948	168.62
453.726	184.62
454.504	200.62
455.282	227.62
456.061	258.62
456.839	274.62
457.617	310.62
458.395	346.62
459.172	390.62
459.95	429.62
460.728	483.62
461.506	545.62
462.283	592.62
463.061	669.62
463.838	733.62
464.615	823.62
465.393	916.62
466.17	1011.62
466.947	1130.62
467.724	1253.62
468.501	1402.62
469.278	1544.62
470.055	1684.62
470.831	1878.62
471.608	2081.62
472.385	2293.62
473.161	2532.62
473.938	2788.62
474.714	3047.62
475.49	3326.62
476.266	3675.62
477.043	4035.62
477.819	4406.62
478.595	4829.62
479.371	5245.62
480.146	5726.62
480.922	6249.62
481.698	6851.62
482.473	7421.62
483.249	8032.62
484.024	8774.62
484.8	9496.62
485.575	10336.62
486.35	11150.62
487.126	12100.62
487.901	13100.62
488.676	14168.62
489.451	15318.62
490.225	16597.62
491	17787.62
491.775	19146.62
492.55	20509.62
493.324	21955.62
494.099	23353.62
494.873	24854.62
495.647	26436.62
496.422	28007.62
497.196	29506.62
497.97	31048.62
498.744	32447.62
499.518	33764.62
500.292	35076.62
501.066	36216.62
501.839	37373.62
502.613	38139.62
503.387	38928.62
504.16	39674.62
504.934	39930.62
505.707	40067.62
506.48	40093.62
507.253	39882.62
508.027	39447.62
508.8	38793.62
509.573	38196.62
510.346	37187.62
511.118	36236.62
511.891	35265.62
512.664	34253.62
513.437	33044.62
514.209	31790.62
514.982	30645.62
515.754	29427.62
516.526	28292.62
517.298	27038.62
518.071	25970.62
518.843	24924.62
519.615	23908.62
520.387	23002.62
521.159	22073.62
521.93	21201.62
522.702	20378.62
523.474	19494.62
524.245	18762.62
525.017	18018.62
525.788	17246.62
526.56	16447.62
527.331	15710.62
528.102	15024.62
528.873	14306.62
529.644	13595.62
530.415	12912.62
531.186	12294.62
531.957	11679.62
532.728	11103.62
533.498	10560.62
534.269	9968.62
535.039	9422.62
535.81	8955.62
536.58	8479.62
537.351	8010.62
538.121	7575.62
538.891	7163.62
539.661	6819.62
540.431	6429.62
541.201	6090.62
541.971	5795.62
542.741	5457.62
543.51	5190.62
544.28	4905.62
545.05	4672.62
545.819	4438.62
546.588	4219.62
547.358	4045.62
548.127	3813.62
548.896	3625.62
549.665	3469.62
550.434	3299.62
551.203	3114.62
551.972	2964.62
552.741	2800.62
553.51	2659.62
554.278	2509.62
555.047	2337.62
555.815	2243.62
556.584	2117.62
557.352	2001.62
558.121	1876.62
558.889	1789.62
559.657	1671.62
560.425	1584.62
561.193	1500.62
561.961	1419.62
562.729	1343.62
563.496	1277.62
564.264	1199.62
565.032	1146.62
565.799	1068.62
566.567	1026.62
567.334	965.62
568.101	898.62
568.869	855.62
569.636	806.62
570.403	772.62
571.17	725.62
571.937	689.62
572.704	658.62
573.471	602.62
574.237	572.62
575.004	543.62
575.771	510.62
576.537	495.62
577.303	449.62
578.07	422.62
578.836	409.62
579.602	379.62
580.368	362.62
581.134	342.62
581.9	321.62
582.666	306.62
583.432	293.62
584.198	280.62
584.964	268.62
585.729	246.62
586.495	237.62
587.26	226.62
588.025	211.62
588.791	197.62
589.556	186.62
590.321	181.62
591.086	171.62
591.851	164.62
592.616	154.62
593.381	147.62
594.146	142.62
594.911	135.62
595.675	126.62
596.44	121.62
597.204	117.62
597.969	115.62
598.733	104.62
599.497	101.62
600.261	97.62
601.025	95.62
601.79	93.62
602.553	85.62
603.317	89.62
604.081	82.62
604.845	76.62
605.609	72.62
606.372	68.62
607.136	69.62
607.899	64.62
608.662	61.62
609.426	60.62
610.189	59.62
610.952	56.62
611.715	51.62
612.478	50.62
613.241	51.62
614.004	48.62
614.767	41.62
615.529	45.62
616.292	46.62
617.055	40.62
617.817	41.62
618.579	38.62
619.342	38.62
620.104	38.62
620.866	36.62
621.628	36.62
622.39	33.62
623.152	37.62
623.914	29.62
624.676	31.62
625.438	30.62
626.199	27.62
626.961	27.62
627.722	26.62
628.484	23.62
629.245	24.62
630.006	24.62
630.768	22.62
631.529	21.62
632.29	22.62
633.051	21.62
633.812	18.62
634.573	20.62
635.333	20.62
636.094	19.62
636.855	17.62
637.615	19.62
638.376	17.62
639.136	16.62
639.896	17.62
640.657	15.62
641.417	14.62
642.177	14.62
642.937	15.62
643.697	14.62
644.457	15.62
645.216	15.62
645.976	14.62
646.736	12.62
647.495	10.62
648.255	13.62
649.014	12.62
649.774	13.62
650.533	12.62
651.292	10.62
652.051	11.62
652.81	11.62
653.569	10.62
654.328	11.62
655.087	8.62
655.846	9.62
656.604	10.62
657.363	9.62
658.121	10.62
658.88	10.62
659.638	11.62
660.397	8.62
661.155	9.62
661.913	10.62
662.671	8.62
663.429	9.62
664.187	7.62
664.945	7.62
665.703	9.62
666.46	9.62
667.218	8.62
667.976	8.62
668.733	8.62
669.49	8.62
670.248	8.62
671.005	6.62
671.762	10.62
672.519	7.62
673.276	8.62
674.033	7.62
674.79	6.62
675.547	8.62
676.304	7.62
677.06	8.62
677.817	9.62
678.574	5.62
679.33	6.62
680.086	6.62
680.843	8.62
681.599	4.62
682.355	7.62
683.111	6.62
683.867	6.62
684.623	6.62
685.379	7.62
686.135	3.62
686.89	7.62
687.646	3.62
688.402	5.62
689.157	9.62
689.912	6.62
690.668	6.62
691.423	5.62
692.178	6.62
692.933	5.62
693.688	4.62
694.443	6.62
695.198	4.62
695.953	4.62
696.708	3.62
697.462	5.62
698.217	5.62
698.972	8.62
699.726	4.62
700.48	4.62
701.235	7.62
701.989	5.62
702.743	6.62
703.497	5.62
704.251	6.62
705.005	6.62
705.759	6.62
706.513	5.62
707.266	8.62
708.02	7.62
708.774	4.62
709.527	6.62
710.28	3.62
711.034	7.62
711.787	5.62
712.54	5.62
713.293	4.62
714.046	8.62
714.799	7.62
715.552	6.62
716.305	4.62
717.058	5.62
717.81	6.62
718.563	6.62
719.315	7.62
720.068	6.62
720.82	5.62
721.573	8.62
722.325	4.62
723.077	8.62
723.829	6.62
724.581	4.62
725.333	4.62
726.085	8.62
726.836	6.62
727.588	8.62
728.34	6.62
729.091	4.62
729.843	7.62
730.594	4.62
731.346	5.62
732.097	6.62
732.848	5.62
733.599	8.62
734.35	4.62
735.101	5.62
735.852	4.62
736.603	6.62
737.354	8.62
738.104	10.62
738.855	8.62
739.605	7.62
740.356	6.62
741.106	10.62
741.856	6.62
742.607	8.62
743.357	7.62
744.107	6.62
744.857	7.62
745.607	6.62
746.357	10.62
747.106	10.62
747.856	7.62
748.606	6.62
749.355	6.62
750.105	9.62
750.854	7.62
751.603	6.62
752.353	9.62
753.102	8.62
753.851	8.62
754.6	8.62
755.349	7.62
756.098	10.62
756.847	8.62
757.595	10.62
758.344	8.62
759.093	9.62
759.841	8.62
760.589	12.62
761.338	8.62
762.086	10.62
762.834	11.62
763.582	9.62
764.331	9.62
765.079	8.62
765.826	10.62
766.574	9.62
767.322	10.62
768.07	10.62
768.817	11.62
769.565	11.62
770.312	13.62
771.06	12.62
771.807	10.62
772.554	13.62
773.302	10.62
774.049	11.62
774.796	12.62
775.543	11.62
776.29	13.62
777.036	12.62
777.783	12.62
778.53	12.62
779.276	13.62
780.023	14.62
780.769	10.62
781.516	11.62
782.262	10.62
783.008	13.62
783.754	12.62
784.5	12.62
785.246	13.62
785.992	11.62
786.738	12.62
787.484	12.62
788.23	11.62
788.975	12.62
789.721	12.62
790.466	13.62
791.212	12.62
791.957	11.62
792.702	11.62
793.447	13.62
794.193	10.62
794.938	12.62
795.683	12.62
796.427	11.62
797.172	12.62
797.917	10.62
798.662	10.62
799.406	10.62
800.151	11.62
800.895	10.62
801.64	8.62
802.384	12.62
803.128	9.62
803.872	12.62
804.616	9.62
805.36	9.62
806.104	8.62
806.848	8.62
807.592	7.62
808.336	8.62
809.079	9.62
809.823	6.62
810.566	9.62
811.31	6.62
812.053	6.62
812.796	7.62
813.539	7.62
814.283	8.62
815.026	6.62
815.769	6.62
816.511	6.62
817.254	6.62
817.997	6.62
818.74	4.62
819.482	8.62
820.225	5.62
820.967	8.62
821.71	4.62
822.452	7.62
823.194	7.62
823.936	4.62
824.678	6.62
825.42	6.62
826.162	7.62
826.904	3.62
827.646	8.62
828.388	3.62
829.129	3.62
829.871	4.62
830.612	4.62
831.354	2.62
832.095	6.62
832.836	4.62
833.577	5.62
834.319	3.62
835.06	4.62
835.801	5.62
836.542	2.62
837.282	2.62
838.023	6.62
838.764	3.62
839.504	3.62
840.245	5.62
840.985	6.62
841.726	2.62
842.466	1.62
843.206	4.62
843.946	3.62
844.687	3.62
845.427	1.62
846.166	3.62
846.906	3.62
847.646	1.62
848.386	4.62
849.125	2.62
849.865	5.62
850.605	4.62
851.344	2.62
852.083	3.62
852.823	4.62
853.562	5.62
854.301	2.62
855.04	3.62
855.779	1.62
856.518	3.62
857.257	2.62
857.995	2.62
858.734	2.62
859.473	3.62
860.211	3.62
860.95	4.62
861.688	1.62
862.426	1.62
863.165	4.62
863.903	3.62
864.641	3.62
865.379	2.62
866.117	1.62
866.855	1.62
867.593	1.62
868.33	2.62
869.068	3.62
869.806	3.62
870.543	2.62
871.28	2.62
872.018	2.62
872.755	2.62
873.492	0.62
874.229	3.62
874.967	0.62
875.703	4.62
876.44	2.62
877.177	0.62
877.914	1.62
878.651	1.62
879.387	0.62
880.124	1.62
880.86	1.62
881.597	2.62
882.333	2.62
883.069	0.62
883.806	-0.38
884.542	0.62
885.278	0.62
886.014	0.62
886.749	1.62
887.485	0.62
888.221	0.62
888.957	0.62
889.692	1.62
890.428	0.62
891.163	1.62
891.899	0.62
892.634	0.62
893.369	1.62
894.104	0.62
894.839	0.62
895.574	-1.38
896.309	3.62
897.044	1.62
897.779	-0.38
898.514	0.62
899.248	0.62
899.983	1.62
900.717	-0.38
901.452	3.62
902.186	0.62
902.92	-1.38
903.654	0.62
904.389	-0.38
905.123	-2.38
905.857	2.62
906.59	2.62
907.324	0.62
908.058	-0.38
908.792	-1.38
909.525	0.62
910.259	2.62
910.992	0.62
911.726	1.62
912.459	1.62
913.192	-0.38
913.925	-0.38
914.658	0.62
915.391	0.62
916.124	-1.38
916.857	0.62
917.59	-0.38
918.323	1.62
919.055	-1.38
919.788	0.62
920.521	-0.38
921.253	0.62
921.985	2.62
922.718	-1.38
923.45	0.62
924.182	-1.38
924.914	-0.38
925.646	0.62
926.378	-0.38
927.11	-0.38
927.841	-0.38
928.573	1.62
929.305	0.62
930.036	2.62
930.768	-2.38
931.499	0.62
932.23	0.62
932.962	-1.38
933.693	-1.38
934.424	-1.38
935.155	-0.38
935.886	-2.38
936.617	-1.38
937.348	0.62
938.078	-0.38
938.809	-0.38
939.54	0.62
940.27	-3.38
941.001	1.62
941.731	-1.38
942.461	-2.38
943.191	0.62
943.922	0.62
944.652	-0.38
945.382	0.62
946.112	0.62
946.841	-0.38
947.571	0.62
948.301	-2.38
949.031	0.62
949.76	-0.38
950.49	1.62
951.219	0.62
951.948	0.62
952.678	0.62
953.407	0.62
954.136	0.62
954.865	-0.38
955.594	-0.38
956.323	-0.38
957.052	-0.38
957.78	0.62
958.509	-3.38
959.238	0.62
959.966	0.62
960.695	-1.38
961.423	-0.38
962.151	-0.38
962.88	-0.38
963.608	-1.38
964.336	0.62
965.064	-0.38
965.792	-0.38
966.52	-0.38
967.247	0.62
967.975	0.62
968.703	-0.38
969.43	-0.38
970.158	-0.38
970.885	-1.38
971.613	2.62
972.34	-1.38
973.067	2.62
973.794	-1.38
974.521	-1.38
975.248	-1.38
975.975	0.62
976.702	-0.38
977.429	0.62
978.156	-0.38
978.882	-1.38
979.609	-1.38
980.335	-0.38
981.062	0.62
981.788	0.62
982.514	2.62
983.24	-0.38
983.967	-2.38
984.693	1.62
985.419	-1.38
986.144	-0.38
986.87	0.62
987.596	0.62
988.322	-0.38
989.047	0.62
989.773	-0.38
990.498	-1.38
991.224	-0.38
991.949	-0.38
992.674	-1.38
993.399	4.62
994.124	-2.38
994.849	-0.38
995.574	-0.38
996.299	0.62
997.024	-1.38
997.749	1.62
998.473	0.62
999.198	-1.38
999.922	0.62
1000.647	0.62
1001.371	2.62
1002.095	0.62
1002.82	-2.38
1003.544	-1.38
1004.268	1.62
1004.992	4.62
1005.716	3.62
1006.439	3.62
1007.163	4.62
1007.887	3.62
1008.611	0.62
1009.334	-1.38
1010.058	1.62
1010.781	0.62
1011.504	0.62
1012.228	-0.38
1012.951	-0.38
1013.674	0.62
1014.397	-0.38
1015.12	0.62
