节点500_565_QEPB04081__420__09-57-24-303.txt的数据

Date: Thu Nov 13 09:57:24 CST 2025
User: PC
Spectrometer: QEPB0408
触发模式: 0
积分时间 (秒): 1.000000E-2
Scans to average: 1
启用暗噪声校正: true
启用非线性校正: false
滑动平均宽度: 0
X轴模式: Wavelengths
Number of Pixels in Spectrum: 1044
>>>>>Begin Spectral Data<<<<<
220.843	5.12
221.644	4.12
222.444	3.12
223.244	7.12
224.045	8.12
224.845	4.12
225.645	6.12
226.445	3.12
227.245	5.12
228.045	8.12
228.845	7.12
229.645	9.12
230.444	7.12
231.244	8.12
232.043	7.12
232.843	8.12
233.642	8.12
234.442	8.12
235.241	9.12
236.04	8.12
236.839	9.12
237.638	8.12
238.437	10.12
239.236	11.12
240.035	6.12
240.833	9.12
241.632	9.12
242.43	7.12
243.229	11.12
244.027	10.12
244.826	12.12
245.624	13.12
246.422	12.12
247.22	12.12
248.018	12.12
248.816	13.12
249.614	13.12
250.412	13.12
251.21	15.12
252.007	16.12
252.805	16.12
253.602	14.12
254.4	15.12
255.197	15.12
255.994	15.12
256.791	18.12
257.589	18.12
258.386	16.12
259.183	17.12
259.979	19.12
260.776	18.12
261.573	21.12
262.37	19.12
263.166	21.12
263.963	22.12
264.759	20.12
265.556	22.12
266.352	20.12
267.148	21.12
267.944	22.12
268.74	25.12
269.536	26.12
270.332	24.12
271.128	28.12
271.924	25.12
272.719	30.12
273.515	29.12
274.311	27.12
275.106	26.12
275.901	30.12
276.697	30.12
277.492	27.12
278.287	32.12
279.082	29.12
279.877	28.12
280.672	25.12
281.467	31.12
282.262	28.12
283.056	28.12
283.851	29.12
284.646	27.12
285.44	29.12
286.234	27.12
287.029	30.12
287.823	30.12
288.617	33.12
289.411	28.12
290.205	28.12
290.999	28.12
291.793	26.12
292.587	31.12
293.381	26.12
294.174	24.12
294.968	27.12
295.761	24.12
296.555	25.12
297.348	26.12
298.141	22.12
298.935	25.12
299.728	23.12
300.521	21.12
301.314	21.12
302.107	20.12
302.899	21.12
303.692	22.12
304.485	17.12
305.277	20.12
306.07	21.12
306.862	21.12
307.655	19.12
308.447	19.12
309.239	20.12
310.031	17.12
310.823	17.12
311.615	19.12
312.407	14.12
313.199	16.12
313.991	16.12
314.783	15.12
315.574	15.12
316.366	17.12
317.157	15.12
317.949	14.12
318.74	14.12
319.531	14.12
320.322	15.12
321.113	13.12
321.904	11.12
322.695	16.12
323.486	12.12
324.277	12.12
325.068	9.12
325.858	11.12
326.649	14.12
327.439	11.12
328.23	12.12
329.02	11.12
329.81	14.12
330.6	13.12
331.391	12.12
332.181	13.12
332.971	12.12
333.76	12.12
334.55	14.12
335.34	9.12
336.13	10.12
336.919	12.12
337.709	10.12
338.498	11.12
339.287	12.12
340.077	10.12
340.866	14.12
341.655	11.12
342.444	11.12
343.233	9.12
344.022	11.12
344.811	15.12
345.6	11.12
346.388	11.12
347.177	11.12
347.965	12.12
348.754	10.12
349.542	10.12
350.33	11.12
351.119	10.12
351.907	11.12
352.695	12.12
353.483	9.12
354.271	10.12
355.059	10.12
355.846	10.12
356.634	10.12
357.422	10.12
358.209	10.12
358.997	11.12
359.784	9.12
360.571	10.12
361.359	12.12
362.146	9.12
362.933	11.12
363.72	8.12
364.507	10.12
365.294	10.12
366.081	11.12
366.867	12.12
367.654	10.12
368.44	10.12
369.227	8.12
370.013	11.12
370.8	6.12
371.586	8.12
372.372	10.12
373.158	10.12
373.944	11.12
374.73	10.12
375.516	10.12
376.302	8.12
377.088	10.12
377.873	11.12
378.659	10.12
379.445	12.12
380.23	6.12
381.015	10.12
381.801	9.12
382.586	11.12
383.371	11.12
384.156	7.12
384.941	8.12
385.726	9.12
386.511	12.12
387.296	12.12
388.08	12.12
388.865	11.12
389.649	11.12
390.434	14.12
391.218	10.12
392.003	9.12
392.787	11.12
393.571	11.12
394.355	11.12
395.139	11.12
395.923	11.12
396.707	12.12
397.491	12.12
398.274	12.12
399.058	14.12
399.842	11.12
400.625	12.12
401.408	13.12
402.192	14.12
402.975	16.12
403.758	11.12
404.541	14.12
405.324	13.12
406.107	13.12
406.89	13.12
407.673	14.12
408.456	10.12
409.238	16.12
410.021	11.12
410.803	16.12
411.586	16.12
412.368	14.12
413.151	14.12
413.933	17.12
414.715	16.12
415.497	18.12
416.279	18.12
417.061	16.12
417.843	17.12
418.624	20.12
419.406	18.12
420.188	21.12
420.969	20.12
421.751	19.12
422.532	20.12
423.313	22.12
424.095	20.12
424.876	20.12
425.657	21.12
426.438	23.12
427.219	24.12
428	23.12
428.78	20.12
429.561	25.12
430.342	27.12
431.122	25.12
431.903	28.12
432.683	30.12
433.464	30.12
434.244	29.12
435.024	34.12
435.804	36.12
436.584	32.12
437.364	38.12
438.144	39.12
438.924	44.12
439.704	40.12
440.483	43.12
441.263	47.12
442.042	50.12
442.822	57.12
443.601	62.12
444.38	64.12
445.16	65.12
445.939	72.12
446.718	85.12
447.497	90.12
448.276	94.12
449.054	107.12
449.833	114.12
450.612	124.12
451.391	143.12
452.169	155.12
452.948	163.12
453.726	185.12
454.504	208.12
455.282	233.12
456.061	248.12
456.839	283.12
457.617	311.12
458.395	350.12
459.172	390.12
459.95	432.12
460.728	492.12
461.506	540.12
462.283	600.12
463.061	674.12
463.838	745.12
464.615	832.12
465.393	923.12
466.17	1031.12
466.947	1121.12
467.724	1263.12
468.501	1391.12
469.278	1549.12
470.055	1702.12
470.831	1876.12
471.608	2069.12
472.385	2279.12
473.161	2511.12
473.938	2778.12
474.714	3046.12
475.49	3321.12
476.266	3651.12
477.043	4016.12
477.819	4406.12
478.595	4805.12
479.371	5229.12
480.146	5707.12
480.922	6235.12
481.698	6766.12
482.473	7345.12
483.249	7943.12
484.024	8714.12
484.8	9444.12
485.575	10242.12
486.35	11094.12
487.126	12027.12
487.901	12962.12
488.676	14050.12
489.451	15200.12
490.225	16404.12
491	17680.12
491.775	18963.12
492.55	20310.12
493.324	21754.12
494.099	23096.12
494.873	24660.12
495.647	26180.12
496.422	27838.12
497.196	29212.12
497.97	30703.12
498.744	32137.12
499.518	33431.12
500.292	34750.12
501.066	35865.12
501.839	36940.12
502.613	37883.12
503.387	38594.12
504.16	39290.12
504.934	39627.12
505.707	39754.12
506.48	39744.12
507.253	39658.12
508.027	39139.12
508.8	38612.12
509.573	37965.12
510.346	37057.12
511.118	36070.12
511.891	35205.12
512.664	34047.12
513.437	32894.12
514.209	31701.12
514.982	30563.12
515.754	29411.12
516.526	28132.12
517.298	27073.12
518.071	26011.12
518.843	24896.12
519.615	23881.12
520.387	22930.12
521.159	22049.12
521.93	21216.12
522.702	20317.12
523.474	19493.12
524.245	18714.12
525.017	17987.12
525.788	17233.12
526.56	16461.12
527.331	15690.12
528.102	15021.12
528.873	14297.12
529.644	13556.12
530.415	12915.12
531.186	12311.12
531.957	11766.12
532.728	11146.12
533.498	10526.12
534.269	9977.12
535.039	9434.12
535.81	8948.12
536.58	8479.12
537.351	8030.12
538.121	7585.12
538.891	7167.12
539.661	6844.12
540.431	6434.12
541.201	6093.12
541.971	5758.12
542.741	5489.12
543.51	5199.12
544.28	4928.12
545.05	4690.12
545.819	4482.12
546.588	4250.12
547.358	4040.12
548.127	3824.12
548.896	3642.12
549.665	3450.12
550.434	3284.12
551.203	3106.12
551.972	2961.12
552.741	2813.12
553.51	2645.12
554.278	2499.12
555.047	2349.12
555.815	2234.12
556.584	2127.12
557.352	2016.12
558.121	1880.12
558.889	1781.12
559.657	1674.12
560.425	1578.12
561.193	1501.12
561.961	1418.12
562.729	1353.12
563.496	1284.12
564.264	1204.12
565.032	1150.12
565.799	1075.12
566.567	1017.12
567.334	969.12
568.101	921.12
568.869	867.12
569.636	815.12
570.403	761.12
571.17	733.12
571.937	694.12
572.704	648.12
573.471	617.12
574.237	579.12
575.004	550.12
575.771	510.12
576.537	484.12
577.303	461.12
578.07	427.12
578.836	406.12
579.602	388.12
580.368	360.12
581.134	345.12
581.9	326.12
582.666	312.12
583.432	295.12
584.198	280.12
584.964	272.12
585.729	253.12
586.495	239.12
587.26	223.12
588.025	218.12
588.791	202.12
589.556	197.12
590.321	181.12
591.086	170.12
591.851	169.12
592.616	159.12
593.381	151.12
594.146	141.12
594.911	137.12
595.675	131.12
596.44	128.12
597.204	120.12
597.969	112.12
598.733	104.12
599.497	107.12
600.261	102.12
601.025	96.12
601.79	90.12
602.553	89.12
603.317	82.12
604.081	83.12
604.845	78.12
605.609	78.12
606.372	76.12
607.136	69.12
607.899	66.12
608.662	65.12
609.426	61.12
610.189	62.12
610.952	56.12
611.715	54.12
612.478	52.12
613.241	51.12
614.004	51.12
614.767	48.12
615.529	45.12
616.292	42.12
617.055	41.12
617.817	43.12
618.579	39.12
619.342	37.12
620.104	36.12
620.866	40.12
621.628	38.12
622.39	33.12
623.152	31.12
623.914	32.12
624.676	30.12
625.438	36.12
626.199	27.12
626.961	26.12
627.722	28.12
628.484	28.12
629.245	26.12
630.006	24.12
630.768	24.12
631.529	25.12
632.29	20.12
633.051	22.12
633.812	24.12
634.573	20.12
635.333	20.12
636.094	22.12
636.855	22.12
637.615	23.12
638.376	20.12
639.136	17.12
639.896	18.12
640.657	14.12
641.417	18.12
642.177	19.12
642.937	18.12
643.697	16.12
644.457	18.12
645.216	16.12
645.976	16.12
646.736	18.12
647.495	16.12
648.255	17.12
649.014	14.12
649.774	13.12
650.533	13.12
651.292	11.12
652.051	13.12
652.81	14.12
653.569	13.12
654.328	12.12
655.087	11.12
655.846	16.12
656.604	12.12
657.363	10.12
658.121	12.12
658.88	10.12
659.638	8.12
660.397	11.12
661.155	12.12
661.913	9.12
662.671	10.12
663.429	11.12
664.187	10.12
664.945	11.12
665.703	9.12
666.46	11.12
667.218	11.12
667.976	10.12
668.733	9.12
669.49	9.12
670.248	9.12
671.005	10.12
671.762	10.12
672.519	9.12
673.276	10.12
674.033	9.12
674.79	9.12
675.547	8.12
676.304	7.12
677.06	8.12
677.817	8.12
678.574	10.12
679.33	8.12
680.086	9.12
680.843	8.12
681.599	8.12
682.355	8.12
683.111	8.12
683.867	7.12
684.623	9.12
685.379	9.12
686.135	9.12
686.89	9.12
687.646	7.12
688.402	8.12
689.157	10.12
689.912	7.12
690.668	8.12
691.423	8.12
692.178	9.12
692.933	8.12
693.688	8.12
694.443	10.12
695.198	6.12
695.953	11.12
696.708	7.12
697.462	8.12
698.217	6.12
698.972	5.12
699.726	6.12
700.48	6.12
701.235	8.12
701.989	5.12
702.743	7.12
703.497	7.12
704.251	9.12
705.005	10.12
705.759	7.12
706.513	7.12
707.266	8.12
708.02	9.12
708.774	11.12
709.527	8.12
710.28	8.12
711.034	6.12
711.787	8.12
712.54	5.12
713.293	5.12
714.046	5.12
714.799	5.12
715.552	7.12
716.305	7.12
717.058	8.12
717.81	7.12
718.563	6.12
719.315	7.12
720.068	7.12
720.82	8.12
721.573	8.12
722.325	10.12
723.077	9.12
723.829	10.12
724.581	8.12
725.333	6.12
726.085	8.12
726.836	9.12
727.588	8.12
728.34	10.12
729.091	8.12
729.843	10.12
730.594	7.12
731.346	9.12
732.097	9.12
732.848	6.12
733.599	6.12
734.35	10.12
735.101	7.12
735.852	8.12
736.603	7.12
737.354	6.12
738.104	10.12
738.855	9.12
739.605	9.12
740.356	6.12
741.106	11.12
741.856	8.12
742.607	7.12
743.357	10.12
744.107	9.12
744.857	10.12
745.607	8.12
746.357	11.12
747.106	8.12
747.856	8.12
748.606	9.12
749.355	10.12
750.105	11.12
750.854	10.12
751.603	10.12
752.353	7.12
753.102	9.12
753.851	13.12
754.6	10.12
755.349	13.12
756.098	11.12
756.847	10.12
757.595	11.12
758.344	10.12
759.093	11.12
759.841	11.12
760.589	10.12
761.338	10.12
762.086	11.12
762.834	13.12
763.582	11.12
764.331	12.12
765.079	10.12
765.826	12.12
766.574	13.12
767.322	13.12
768.07	11.12
768.817	15.12
769.565	14.12
770.312	12.12
771.06	11.12
771.807	12.12
772.554	15.12
773.302	15.12
774.049	13.12
774.796	17.12
775.543	15.12
776.29	14.12
777.036	15.12
777.783	14.12
778.53	14.12
779.276	14.12
780.023	14.12
780.769	13.12
781.516	14.12
782.262	14.12
783.008	14.12
783.754	13.12
784.5	15.12
785.246	14.12
785.992	14.12
786.738	15.12
787.484	16.12
788.23	12.12
788.975	14.12
789.721	13.12
790.466	14.12
791.212	14.12
791.957	12.12
792.702	10.12
793.447	13.12
794.193	14.12
794.938	10.12
795.683	14.12
796.427	13.12
797.172	12.12
797.917	11.12
798.662	15.12
799.406	11.12
800.151	13.12
800.895	15.12
801.64	10.12
802.384	11.12
803.128	11.12
803.872	10.12
804.616	12.12
805.36	9.12
806.104	10.12
806.848	8.12
807.592	11.12
808.336	8.12
809.079	7.12
809.823	10.12
810.566	10.12
811.31	10.12
812.053	11.12
812.796	8.12
813.539	11.12
814.283	10.12
815.026	8.12
815.769	9.12
816.511	8.12
817.254	8.12
817.997	8.12
818.74	9.12
819.482	9.12
820.225	6.12
820.967	7.12
821.71	8.12
822.452	9.12
823.194	10.12
823.936	8.12
824.678	10.12
825.42	6.12
826.162	7.12
826.904	8.12
827.646	8.12
828.388	10.12
829.129	4.12
829.871	7.12
830.612	5.12
831.354	6.12
832.095	8.12
832.836	7.12
833.577	5.12
834.319	7.12
835.06	6.12
835.801	6.12
836.542	7.12
837.282	6.12
838.023	5.12
838.764	7.12
839.504	7.12
840.245	8.12
840.985	8.12
841.726	6.12
842.466	7.12
843.206	8.12
843.946	3.12
844.687	5.12
845.427	7.12
846.166	7.12
846.906	6.12
847.646	7.12
848.386	6.12
849.125	5.12
849.865	6.12
850.605	8.12
851.344	4.12
852.083	5.12
852.823	4.12
853.562	5.12
854.301	6.12
855.04	4.12
855.779	5.12
856.518	4.12
857.257	7.12
857.995	3.12
858.734	6.12
859.473	6.12
860.211	4.12
860.95	4.12
861.688	4.12
862.426	4.12
863.165	4.12
863.903	8.12
864.641	5.12
865.379	5.12
866.117	4.12
866.855	4.12
867.593	6.12
868.33	3.12
869.068	3.12
869.806	4.12
870.543	4.12
871.28	2.12
872.018	4.12
872.755	4.12
873.492	3.12
874.229	4.12
874.967	3.12
875.703	1.12
876.44	3.12
877.177	4.12
877.914	6.12
878.651	2.12
879.387	4.12
880.124	3.12
880.86	2.12
881.597	3.12
882.333	3.12
883.069	3.12
883.806	2.12
884.542	3.12
885.278	1.12
886.014	4.12
886.749	3.12
887.485	3.12
888.221	1.12
888.957	2.12
889.692	3.12
890.428	2.12
891.163	2.12
891.899	4.12
892.634	2.12
893.369	2.12
894.104	1.12
894.839	2.12
895.574	2.12
896.309	2.12
897.044	3.12
897.779	3.12
898.514	5.12
899.248	0.12
899.983	1.12
900.717	2.12
901.452	3.12
902.186	0.12
902.92	3.12
903.654	1.12
904.389	2.12
905.123	3.12
905.857	0.12
906.59	-0.88
907.324	0.12
908.058	3.12
908.792	5.12
909.525	1.12
910.259	2.12
910.992	1.12
911.726	2.12
912.459	4.12
913.192	1.12
913.925	3.12
914.658	2.12
915.391	1.12
916.124	2.12
916.857	2.12
917.59	3.12
918.323	2.12
919.055	3.12
919.788	2.12
920.521	2.12
921.253	2.12
921.985	0.12
922.718	2.12
923.45	0.12
924.182	2.12
924.914	0.12
925.646	1.12
926.378	1.12
927.11	3.12
927.841	3.12
928.573	4.12
929.305	3.12
930.036	1.12
930.768	0.12
931.499	-0.88
932.23	3.12
932.962	1.12
933.693	2.12
934.424	1.12
935.155	1.12
935.886	1.12
936.617	1.12
937.348	4.12
938.078	1.12
938.809	3.12
939.54	2.12
940.27	1.12
941.001	2.12
941.731	-0.88
942.461	2.12
943.191	1.12
943.922	1.12
944.652	2.12
945.382	2.12
946.112	2.12
946.841	2.12
947.571	1.12
948.301	2.12
949.031	0.12
949.76	4.12
950.49	-1.88
951.219	2.12
951.948	1.12
952.678	0.12
953.407	3.12
954.136	4.12
954.865	1.12
955.594	4.12
956.323	2.12
957.052	0.12
957.78	2.12
958.509	3.12
959.238	2.12
959.966	1.12
960.695	-0.88
961.423	3.12
962.151	4.12
962.88	3.12
963.608	-0.88
964.336	2.12
965.064	1.12
965.792	-1.88
966.52	2.12
967.247	2.12
967.975	-0.88
968.703	2.12
969.43	2.12
970.158	2.12
970.885	2.12
971.613	2.12
972.34	-0.88
973.067	2.12
973.794	1.12
974.521	3.12
975.248	1.12
975.975	0.12
976.702	2.12
977.429	1.12
978.156	0.12
978.882	2.12
979.609	2.12
980.335	1.12
981.062	1.12
981.788	2.12
982.514	3.12
983.24	3.12
983.967	2.12
984.693	2.12
985.419	2.12
986.144	1.12
986.87	1.12
987.596	-1.88
988.322	2.12
989.047	1.12
989.773	1.12
990.498	0.12
991.224	2.12
991.949	1.12
992.674	3.12
993.399	0.12
994.124	3.12
994.849	1.12
995.574	0.12
996.299	0.12
997.024	2.12
997.749	1.12
998.473	2.12
999.198	3.12
999.922	1.12
1000.647	-0.88
1001.371	3.12
1002.095	-0.88
1002.82	-0.88
1003.544	-0.88
1004.268	5.12
1004.992	4.12
1005.716	5.12
1006.439	5.12
1007.163	5.12
1007.887	6.12
1008.611	1.12
1009.334	-0.88
1010.058	2.12
1010.781	1.12
1011.504	0.12
1012.228	2.12
1012.951	-0.88
1013.674	1.12
1014.397	-0.88
1015.12	0.12
