节点500_565_QEPB04081__124__09-52-29-923.txt的数据

Date: Thu Nov 13 09:52:29 CST 2025
User: PC
Spectrometer: QEPB0408
触发模式: 0
积分时间 (秒): 1.000000E-2
Scans to average: 1
启用暗噪声校正: true
启用非线性校正: false
滑动平均宽度: 0
X轴模式: Wavelengths
Number of Pixels in Spectrum: 1044
>>>>>Begin Spectral Data<<<<<
220.843	5.5
221.644	6.5
222.444	2.5
223.244	4.5
224.045	4.5
224.845	4.5
225.645	3.5
226.445	6.5
227.245	6.5
228.045	5.5
228.845	6.5
229.645	6.5
230.444	4.5
231.244	7.5
232.043	6.5
232.843	9.5
233.642	6.5
234.442	8.5
235.241	8.5
236.04	7.5
236.839	10.5
237.638	7.5
238.437	11.5
239.236	8.5
240.035	8.5
240.833	6.5
241.632	9.5
242.43	11.5
243.229	6.5
244.027	10.5
244.826	11.5
245.624	12.5
246.422	10.5
247.22	9.5
248.018	11.5
248.816	9.5
249.614	12.5
250.412	13.5
251.21	12.5
252.007	13.5
252.805	12.5
253.602	17.5
254.4	16.5
255.197	16.5
255.994	14.5
256.791	16.5
257.589	17.5
258.386	16.5
259.183	20.5
259.979	19.5
260.776	21.5
261.573	19.5
262.37	18.5
263.166	20.5
263.963	22.5
264.759	22.5
265.556	19.5
266.352	20.5
267.148	23.5
267.944	24.5
268.74	25.5
269.536	26.5
270.332	28.5
271.128	26.5
271.924	28.5
272.719	26.5
273.515	29.5
274.311	27.5
275.106	31.5
275.901	27.5
276.697	29.5
277.492	34.5
278.287	30.5
279.082	31.5
279.877	27.5
280.672	28.5
281.467	28.5
282.262	27.5
283.056	28.5
283.851	29.5
284.646	30.5
285.44	30.5
286.234	26.5
287.029	29.5
287.823	29.5
288.617	28.5
289.411	29.5
290.205	29.5
290.999	30.5
291.793	27.5
292.587	26.5
293.381	27.5
294.174	29.5
294.968	24.5
295.761	26.5
296.555	23.5
297.348	23.5
298.141	22.5
298.935	25.5
299.728	25.5
300.521	21.5
301.314	22.5
302.107	19.5
302.899	20.5
303.692	19.5
304.485	19.5
305.277	20.5
306.07	17.5
306.862	18.5
307.655	16.5
308.447	17.5
309.239	19.5
310.031	18.5
310.823	19.5
311.615	15.5
312.407	17.5
313.199	14.5
313.991	15.5
314.783	13.5
315.574	15.5
316.366	13.5
317.157	14.5
317.949	14.5
318.74	13.5
319.531	10.5
320.322	11.5
321.113	13.5
321.904	12.5
322.695	9.5
323.486	12.5
324.277	11.5
325.068	9.5
325.858	10.5
326.649	11.5
327.439	13.5
328.23	11.5
329.02	13.5
329.81	11.5
330.6	10.5
331.391	12.5
332.181	11.5
332.971	9.5
333.76	9.5
334.55	10.5
335.34	12.5
336.13	12.5
336.919	12.5
337.709	11.5
338.498	10.5
339.287	8.5
340.077	10.5
340.866	12.5
341.655	13.5
342.444	9.5
343.233	8.5
344.022	13.5
344.811	11.5
345.6	10.5
346.388	12.5
347.177	9.5
347.965	7.5
348.754	9.5
349.542	9.5
350.33	8.5
351.119	11.5
351.907	8.5
352.695	10.5
353.483	6.5
354.271	12.5
355.059	10.5
355.846	10.5
356.634	8.5
357.422	8.5
358.209	10.5
358.997	9.5
359.784	7.5
360.571	9.5
361.359	7.5
362.146	9.5
362.933	7.5
363.72	9.5
364.507	7.5
365.294	8.5
366.081	9.5
366.867	6.5
367.654	8.5
368.44	8.5
369.227	7.5
370.013	8.5
370.8	8.5
371.586	9.5
372.372	8.5
373.158	8.5
373.944	9.5
374.73	8.5
375.516	8.5
376.302	8.5
377.088	8.5
377.873	8.5
378.659	8.5
379.445	9.5
380.23	8.5
381.015	6.5
381.801	6.5
382.586	9.5
383.371	10.5
384.156	7.5
384.941	9.5
385.726	9.5
386.511	12.5
387.296	10.5
388.08	10.5
388.865	9.5
389.649	8.5
390.434	9.5
391.218	8.5
392.003	11.5
392.787	10.5
393.571	12.5
394.355	9.5
395.139	12.5
395.923	9.5
396.707	13.5
397.491	11.5
398.274	12.5
399.058	12.5
399.842	10.5
400.625	12.5
401.408	11.5
402.192	12.5
402.975	12.5
403.758	13.5
404.541	11.5
405.324	13.5
406.107	12.5
406.89	12.5
407.673	15.5
408.456	13.5
409.238	10.5
410.021	14.5
410.803	14.5
411.586	13.5
412.368	16.5
413.151	14.5
413.933	17.5
414.715	16.5
415.497	18.5
416.279	17.5
417.061	17.5
417.843	18.5
418.624	15.5
419.406	17.5
420.188	14.5
420.969	18.5
421.751	17.5
422.532	20.5
423.313	20.5
424.095	20.5
424.876	20.5
425.657	19.5
426.438	20.5
427.219	21.5
428	22.5
428.78	22.5
429.561	23.5
430.342	23.5
431.122	26.5
431.903	28.5
432.683	27.5
433.464	31.5
434.244	31.5
435.024	32.5
435.804	34.5
436.584	36.5
437.364	35.5
438.144	36.5
438.924	39.5
439.704	38.5
440.483	45.5
441.263	45.5
442.042	49.5
442.822	55.5
443.601	56.5
444.38	63.5
445.16	65.5
445.939	70.5
446.718	77.5
447.497	81.5
448.276	89.5
449.054	94.5
449.833	108.5
450.612	113.5
451.391	125.5
452.169	141.5
452.948	149.5
453.726	166.5
454.504	185.5
455.282	208.5
456.061	237.5
456.839	253.5
457.617	290.5
458.395	317.5
459.172	356.5
459.95	396.5
460.728	442.5
461.506	491.5
462.283	546.5
463.061	611.5
463.838	693.5
464.615	774.5
465.393	848.5
466.17	973.5
466.947	1078.5
467.724	1194.5
468.501	1340.5
469.278	1489.5
470.055	1661.5
470.831	1851.5
471.608	2051.5
472.385	2257.5
473.161	2524.5
473.938	2774.5
474.714	3073.5
475.49	3402.5
476.266	3721.5
477.043	4152.5
477.819	4552.5
478.595	4973.5
479.371	5468.5
480.146	6028.5
480.922	6628.5
481.698	7240.5
482.473	7917.5
483.249	8653.5
484.024	9469.5
484.8	10352.5
485.575	11337.5
486.35	12388.5
487.126	13474.5
487.901	14669.5
488.676	15920.5
489.451	17321.5
490.225	18731.5
491	20260.5
491.775	21812.5
492.55	23500.5
493.324	25100.5
494.099	26789.5
494.873	28581.5
495.647	30279.5
496.422	32092.5
497.196	33823.5
497.97	35482.5
498.744	36876.5
499.518	38297.5
500.292	39612.5
501.066	40799.5
501.839	41796.5
502.613	42470.5
503.387	42980.5
504.16	43454.5
504.934	43442.5
505.707	43238.5
506.48	42930.5
507.253	42406.5
508.027	41595.5
508.8	40561.5
509.573	39439.5
510.346	38294.5
511.118	37027.5
511.891	35839.5
512.664	34459.5
513.437	33097.5
514.209	31595.5
514.982	30396.5
515.754	29144.5
516.526	27900.5
517.298	26578.5
518.071	25546.5
518.843	24502.5
519.615	23509.5
520.387	22600.5
521.159	21729.5
521.93	20810.5
522.702	19924.5
523.474	19113.5
524.245	18312.5
525.017	17616.5
525.788	16820.5
526.56	15919.5
527.331	15242.5
528.102	14557.5
528.873	13773.5
529.644	13060.5
530.415	12405.5
531.186	11762.5
531.957	11141.5
532.728	10546.5
533.498	9993.5
534.269	9418.5
535.039	8901.5
535.81	8434.5
536.58	7987.5
537.351	7558.5
538.121	7106.5
538.891	6740.5
539.661	6381.5
540.431	6060.5
541.201	5731.5
541.971	5431.5
542.741	5126.5
543.51	4852.5
544.28	4649.5
545.05	4422.5
545.819	4190.5
546.588	3972.5
547.358	3776.5
548.127	3621.5
548.896	3406.5
549.665	3241.5
550.434	3068.5
551.203	2915.5
551.972	2748.5
552.741	2600.5
553.51	2445.5
554.278	2320.5
555.047	2188.5
555.815	2084.5
556.584	1954.5
557.352	1839.5
558.121	1744.5
558.889	1627.5
559.657	1543.5
560.425	1479.5
561.193	1389.5
561.961	1314.5
562.729	1255.5
563.496	1177.5
564.264	1113.5
565.032	1059.5
565.799	995.5
566.567	948.5
567.334	896.5
568.101	832.5
568.869	785.5
569.636	747.5
570.403	700.5
571.17	667.5
571.937	638.5
572.704	598.5
573.471	561.5
574.237	523.5
575.004	494.5
575.771	466.5
576.537	438.5
577.303	426.5
578.07	392.5
578.836	368.5
579.602	350.5
580.368	326.5
581.134	321.5
581.9	297.5
582.666	285.5
583.432	270.5
584.198	258.5
584.964	246.5
585.729	229.5
586.495	215.5
587.26	207.5
588.025	190.5
588.791	191.5
589.556	182.5
590.321	168.5
591.086	165.5
591.851	158.5
592.616	139.5
593.381	134.5
594.146	137.5
594.911	127.5
595.675	117.5
596.44	116.5
597.204	109.5
597.969	106.5
598.733	102.5
599.497	98.5
600.261	88.5
601.025	91.5
601.79	84.5
602.553	79.5
603.317	78.5
604.081	69.5
604.845	71.5
605.609	67.5
606.372	62.5
607.136	63.5
607.899	61.5
608.662	55.5
609.426	60.5
610.189	52.5
610.952	52.5
611.715	48.5
612.478	45.5
613.241	45.5
614.004	44.5
614.767	40.5
615.529	45.5
616.292	38.5
617.055	40.5
617.817	40.5
618.579	36.5
619.342	36.5
620.104	35.5
620.866	35.5
621.628	31.5
622.39	32.5
623.152	27.5
623.914	26.5
624.676	27.5
625.438	25.5
626.199	27.5
626.961	24.5
627.722	25.5
628.484	24.5
629.245	22.5
630.006	25.5
630.768	21.5
631.529	22.5
632.29	21.5
633.051	18.5
633.812	20.5
634.573	19.5
635.333	20.5
636.094	16.5
636.855	18.5
637.615	18.5
638.376	17.5
639.136	17.5
639.896	15.5
640.657	18.5
641.417	13.5
642.177	14.5
642.937	15.5
643.697	16.5
644.457	15.5
645.216	16.5
645.976	13.5
646.736	13.5
647.495	13.5
648.255	12.5
649.014	14.5
649.774	10.5
650.533	12.5
651.292	12.5
652.051	11.5
652.81	10.5
653.569	12.5
654.328	10.5
655.087	8.5
655.846	8.5
656.604	10.5
657.363	11.5
658.121	10.5
658.88	9.5
659.638	9.5
660.397	11.5
661.155	8.5
661.913	11.5
662.671	11.5
663.429	10.5
664.187	11.5
664.945	7.5
665.703	8.5
666.46	7.5
667.218	9.5
667.976	9.5
668.733	9.5
669.49	9.5
670.248	7.5
671.005	8.5
671.762	7.5
672.519	7.5
673.276	7.5
674.033	6.5
674.79	8.5
675.547	6.5
676.304	7.5
677.06	7.5
677.817	7.5
678.574	7.5
679.33	7.5
680.086	6.5
680.843	9.5
681.599	6.5
682.355	7.5
683.111	7.5
683.867	8.5
684.623	6.5
685.379	8.5
686.135	4.5
686.89	6.5
687.646	5.5
688.402	7.5
689.157	7.5
689.912	6.5
690.668	8.5
691.423	7.5
692.178	10.5
692.933	8.5
693.688	6.5
694.443	5.5
695.198	5.5
695.953	9.5
696.708	8.5
697.462	6.5
698.217	6.5
698.972	7.5
699.726	6.5
700.48	5.5
701.235	6.5
701.989	6.5
702.743	4.5
703.497	6.5
704.251	8.5
705.005	7.5
705.759	4.5
706.513	6.5
707.266	6.5
708.02	7.5
708.774	5.5
709.527	4.5
710.28	6.5
711.034	6.5
711.787	6.5
712.54	7.5
713.293	7.5
714.046	6.5
714.799	5.5
715.552	7.5
716.305	7.5
717.058	6.5
717.81	5.5
718.563	8.5
719.315	3.5
720.068	7.5
720.82	6.5
721.573	8.5
722.325	6.5
723.077	3.5
723.829	6.5
724.581	6.5
725.333	6.5
726.085	6.5
726.836	8.5
727.588	7.5
728.34	5.5
729.091	8.5
729.843	5.5
730.594	6.5
731.346	7.5
732.097	5.5
732.848	7.5
733.599	7.5
734.35	8.5
735.101	8.5
735.852	8.5
736.603	7.5
737.354	8.5
738.104	8.5
738.855	7.5
739.605	10.5
740.356	6.5
741.106	11.5
741.856	8.5
742.607	8.5
743.357	8.5
744.107	7.5
744.857	8.5
745.607	10.5
746.357	9.5
747.106	9.5
747.856	9.5
748.606	8.5
749.355	8.5
750.105	9.5
750.854	8.5
751.603	9.5
752.353	9.5
753.102	9.5
753.851	10.5
754.6	9.5
755.349	10.5
756.098	8.5
756.847	11.5
757.595	11.5
758.344	10.5
759.093	11.5
759.841	11.5
760.589	11.5
761.338	11.5
762.086	12.5
762.834	11.5
763.582	11.5
764.331	12.5
765.079	14.5
765.826	11.5
766.574	10.5
767.322	14.5
768.07	9.5
768.817	12.5
769.565	12.5
770.312	14.5
771.06	13.5
771.807	13.5
772.554	12.5
773.302	13.5
774.049	11.5
774.796	12.5
775.543	13.5
776.29	12.5
777.036	12.5
777.783	12.5
778.53	13.5
779.276	13.5
780.023	17.5
780.769	13.5
781.516	11.5
782.262	11.5
783.008	17.5
783.754	12.5
784.5	14.5
785.246	12.5
785.992	13.5
786.738	12.5
787.484	13.5
788.23	15.5
788.975	14.5
789.721	15.5
790.466	13.5
791.212	12.5
791.957	13.5
792.702	13.5
793.447	11.5
794.193	10.5
794.938	13.5
795.683	10.5
796.427	12.5
797.172	12.5
797.917	11.5
798.662	13.5
799.406	11.5
800.151	12.5
800.895	10.5
801.64	11.5
802.384	6.5
803.128	9.5
803.872	8.5
804.616	9.5
805.36	10.5
806.104	10.5
806.848	10.5
807.592	6.5
808.336	7.5
809.079	9.5
809.823	7.5
810.566	8.5
811.31	6.5
812.053	10.5
812.796	7.5
813.539	11.5
814.283	8.5
815.026	6.5
815.769	6.5
816.511	9.5
817.254	7.5
817.997	6.5
818.74	6.5
819.482	7.5
820.225	5.5
820.967	6.5
821.71	5.5
822.452	9.5
823.194	7.5
823.936	6.5
824.678	6.5
825.42	4.5
826.162	6.5
826.904	6.5
827.646	5.5
828.388	5.5
829.129	5.5
829.871	6.5
830.612	4.5
831.354	8.5
832.095	6.5
832.836	6.5
833.577	5.5
834.319	6.5
835.06	4.5
835.801	4.5
836.542	3.5
837.282	4.5
838.023	5.5
838.764	2.5
839.504	3.5
840.245	6.5
840.985	6.5
841.726	4.5
842.466	4.5
843.206	4.5
843.946	4.5
844.687	5.5
845.427	5.5
846.166	4.5
846.906	2.5
847.646	5.5
848.386	4.5
849.125	4.5
849.865	3.5
850.605	3.5
851.344	4.5
852.083	3.5
852.823	4.5
853.562	3.5
854.301	6.5
855.04	5.5
855.779	4.5
856.518	5.5
857.257	6.5
857.995	4.5
858.734	2.5
859.473	2.5
860.211	1.5
860.95	4.5
861.688	3.5
862.426	3.5
863.165	0.5
863.903	2.5
864.641	4.5
865.379	3.5
866.117	2.5
866.855	4.5
867.593	4.5
868.33	0.5
869.068	4.5
869.806	0.5
870.543	1.5
871.28	5.5
872.018	2.5
872.755	2.5
873.492	1.5
874.229	3.5
874.967	2.5
875.703	2.5
876.44	4.5
877.177	1.5
877.914	0.5
878.651	0.5
879.387	4.5
880.124	3.5
880.86	0.5
881.597	1.5
882.333	1.5
883.069	2.5
883.806	1.5
884.542	3.5
885.278	0.5
886.014	-0.5
886.749	1.5
887.485	0.5
888.221	3.5
888.957	1.5
889.692	0.5
890.428	2.5
891.163	3.5
891.899	0.5
892.634	1.5
893.369	0.5
894.104	0.5
894.839	4.5
895.574	1.5
896.309	1.5
897.044	3.5
897.779	0.5
898.514	0.5
899.248	1.5
899.983	3.5
900.717	-2.5
901.452	-1.5
902.186	0.5
902.92	0.5
903.654	1.5
904.389	2.5
905.123	-0.5
905.857	-0.5
906.59	1.5
907.324	1.5
908.058	0.5
908.792	2.5
909.525	-0.5
910.259	0.5
910.992	-1.5
911.726	0.5
912.459	0.5
913.192	3.5
913.925	1.5
914.658	-2.5
915.391	0.5
916.124	1.5
916.857	3.5
917.59	1.5
918.323	1.5
919.055	0.5
919.788	-0.5
920.521	2.5
921.253	-0.5
921.985	2.5
922.718	0.5
923.45	1.5
924.182	-0.5
924.914	1.5
925.646	3.5
926.378	0.5
927.11	-0.5
927.841	-1.5
928.573	0.5
929.305	1.5
930.036	0.5
930.768	0.5
931.499	0.5
932.23	-0.5
932.962	1.5
933.693	2.5
934.424	0.5
935.155	-2.5
935.886	1.5
936.617	-0.5
937.348	0.5
938.078	1.5
938.809	0.5
939.54	0.5
940.27	-2.5
941.001	0.5
941.731	0.5
942.461	1.5
943.191	1.5
943.922	0.5
944.652	1.5
945.382	0.5
946.112	0.5
946.841	-1.5
947.571	0.5
948.301	-0.5
949.031	1.5
949.76	2.5
950.49	0.5
951.219	1.5
951.948	-2.5
952.678	0.5
953.407	0.5
954.136	-0.5
954.865	-0.5
955.594	-1.5
956.323	-1.5
957.052	-0.5
957.78	1.5
958.509	1.5
959.238	0.5
959.966	0.5
960.695	0.5
961.423	-0.5
962.151	-1.5
962.88	-0.5
963.608	1.5
964.336	-0.5
965.064	1.5
965.792	-0.5
966.52	1.5
967.247	0.5
967.975	0.5
968.703	-0.5
969.43	-0.5
970.158	1.5
970.885	0.5
971.613	1.5
972.34	0.5
973.067	0.5
973.794	1.5
974.521	0.5
975.248	-0.5
975.975	-2.5
976.702	-0.5
977.429	0.5
978.156	2.5
978.882	0.5
979.609	0.5
980.335	-0.5
981.062	-0.5
981.788	1.5
982.514	0.5
983.24	-0.5
983.967	1.5
984.693	0.5
985.419	0.5
986.144	0.5
986.87	1.5
987.596	0.5
988.322	0.5
989.047	0.5
989.773	1.5
990.498	0.5
991.224	0.5
991.949	-0.5
992.674	-0.5
993.399	1.5
994.124	-0.5
994.849	0.5
995.574	-0.5
996.299	-0.5
997.024	1.5
997.749	-2.5
998.473	1.5
999.198	0.5
999.922	-0.5
1000.647	-0.5
1001.371	4.5
1002.095	-1.5
1002.82	-0.5
1003.544	-0.5
1004.268	5.5
1004.992	3.5
1005.716	2.5
1006.439	2.5
1007.163	1.5
1007.887	4.5
1008.611	0.5
1009.334	0.5
1010.058	0.5
1010.781	1.5
1011.504	2.5
1012.228	2.5
1012.951	0.5
1013.674	-0.5
1014.397	-0.5
1015.12	-1.5
