节点500_565_QEPB04081__521__09-59-05-112.txt的数据

Date: Thu Nov 13 09:59:05 CST 2025
User: PC
Spectrometer: QEPB0408
触发模式: 0
积分时间 (秒): 1.000000E-2
Scans to average: 1
启用暗噪声校正: true
启用非线性校正: false
滑动平均宽度: 0
X轴模式: Wavelengths
Number of Pixels in Spectrum: 1044
>>>>>Begin Spectral Data<<<<<
220.843	3.25
221.644	4.25
222.444	5.25
223.244	4.25
224.045	5.25
224.845	7.25
225.645	4.25
226.445	7.25
227.245	4.25
228.045	6.25
228.845	5.25
229.645	5.25
230.444	7.25
231.244	7.25
232.043	9.25
232.843	6.25
233.642	7.25
234.442	6.25
235.241	9.25
236.04	7.25
236.839	5.25
237.638	7.25
238.437	7.25
239.236	9.25
240.035	7.25
240.833	9.25
241.632	8.25
242.43	9.25
243.229	11.25
244.027	9.25
244.826	9.25
245.624	9.25
246.422	10.25
247.22	10.25
248.018	7.25
248.816	12.25
249.614	11.25
250.412	12.25
251.21	12.25
252.007	8.25
252.805	13.25
253.602	12.25
254.4	14.25
255.197	17.25
255.994	14.25
256.791	13.25
257.589	15.25
258.386	12.25
259.183	17.25
259.979	16.25
260.776	15.25
261.573	19.25
262.37	18.25
263.166	23.25
263.963	18.25
264.759	17.25
265.556	22.25
266.352	21.25
267.148	19.25
267.944	21.25
268.74	24.25
269.536	22.25
270.332	19.25
271.128	24.25
271.924	24.25
272.719	28.25
273.515	26.25
274.311	24.25
275.106	28.25
275.901	26.25
276.697	25.25
277.492	27.25
278.287	25.25
279.082	27.25
279.877	25.25
280.672	24.25
281.467	28.25
282.262	29.25
283.056	27.25
283.851	26.25
284.646	27.25
285.44	26.25
286.234	25.25
287.029	26.25
287.823	26.25
288.617	26.25
289.411	24.25
290.205	24.25
290.999	27.25
291.793	26.25
292.587	25.25
293.381	25.25
294.174	24.25
294.968	26.25
295.761	25.25
296.555	22.25
297.348	21.25
298.141	21.25
298.935	25.25
299.728	20.25
300.521	22.25
301.314	21.25
302.107	19.25
302.899	20.25
303.692	21.25
304.485	20.25
305.277	17.25
306.07	22.25
306.862	17.25
307.655	21.25
308.447	18.25
309.239	17.25
310.031	16.25
310.823	16.25
311.615	15.25
312.407	15.25
313.199	15.25
313.991	13.25
314.783	15.25
315.574	15.25
316.366	13.25
317.157	15.25
317.949	13.25
318.74	11.25
319.531	14.25
320.322	12.25
321.113	11.25
321.904	10.25
322.695	13.25
323.486	15.25
324.277	13.25
325.068	11.25
325.858	11.25
326.649	10.25
327.439	10.25
328.23	12.25
329.02	10.25
329.81	10.25
330.6	9.25
331.391	12.25
332.181	12.25
332.971	7.25
333.76	10.25
334.55	8.25
335.34	10.25
336.13	11.25
336.919	11.25
337.709	11.25
338.498	14.25
339.287	10.25
340.077	11.25
340.866	11.25
341.655	11.25
342.444	10.25
343.233	10.25
344.022	9.25
344.811	9.25
345.6	10.25
346.388	9.25
347.177	9.25
347.965	11.25
348.754	10.25
349.542	6.25
350.33	9.25
351.119	7.25
351.907	8.25
352.695	7.25
353.483	8.25
354.271	8.25
355.059	8.25
355.846	8.25
356.634	9.25
357.422	8.25
358.209	8.25
358.997	9.25
359.784	8.25
360.571	9.25
361.359	9.25
362.146	8.25
362.933	8.25
363.72	10.25
364.507	11.25
365.294	10.25
366.081	11.25
366.867	7.25
367.654	7.25
368.44	8.25
369.227	9.25
370.013	6.25
370.8	9.25
371.586	9.25
372.372	8.25
373.158	8.25
373.944	6.25
374.73	9.25
375.516	11.25
376.302	8.25
377.088	6.25
377.873	8.25
378.659	8.25
379.445	9.25
380.23	6.25
381.015	10.25
381.801	6.25
382.586	9.25
383.371	8.25
384.156	7.25
384.941	9.25
385.726	8.25
386.511	10.25
387.296	9.25
388.08	9.25
388.865	10.25
389.649	11.25
390.434	9.25
391.218	8.25
392.003	9.25
392.787	11.25
393.571	11.25
394.355	9.25
395.139	10.25
395.923	11.25
396.707	10.25
397.491	9.25
398.274	11.25
399.058	10.25
399.842	13.25
400.625	10.25
401.408	11.25
402.192	11.25
402.975	12.25
403.758	11.25
404.541	12.25
405.324	14.25
406.107	11.25
406.89	13.25
407.673	12.25
408.456	13.25
409.238	12.25
410.021	13.25
410.803	13.25
411.586	13.25
412.368	12.25
413.151	13.25
413.933	15.25
414.715	14.25
415.497	15.25
416.279	12.25
417.061	14.25
417.843	14.25
418.624	14.25
419.406	19.25
420.188	18.25
420.969	15.25
421.751	19.25
422.532	17.25
423.313	20.25
424.095	21.25
424.876	16.25
425.657	21.25
426.438	21.25
427.219	20.25
428	21.25
428.78	23.25
429.561	22.25
430.342	24.25
431.122	25.25
431.903	24.25
432.683	25.25
433.464	29.25
434.244	30.25
435.024	33.25
435.804	31.25
436.584	34.25
437.364	37.25
438.144	37.25
438.924	40.25
439.704	45.25
440.483	47.25
441.263	47.25
442.042	53.25
442.822	55.25
443.601	59.25
444.38	64.25
445.16	69.25
445.939	77.25
446.718	82.25
447.497	88.25
448.276	96.25
449.054	107.25
449.833	116.25
450.612	124.25
451.391	139.25
452.169	158.25
452.948	172.25
453.726	189.25
454.504	212.25
455.282	231.25
456.061	258.25
456.839	288.25
457.617	317.25
458.395	359.25
459.172	399.25
459.95	442.25
460.728	495.25
461.506	558.25
462.283	619.25
463.061	681.25
463.838	759.25
464.615	842.25
465.393	931.25
466.17	1027.25
466.947	1133.25
467.724	1258.25
468.501	1404.25
469.278	1545.25
470.055	1698.25
470.831	1893.25
471.608	2070.25
472.385	2287.25
473.161	2502.25
473.938	2771.25
474.714	3030.25
475.49	3309.25
476.266	3615.25
477.043	3969.25
477.819	4328.25
478.595	4741.25
479.371	5150.25
480.146	5622.25
480.922	6106.25
481.698	6652.25
482.473	7201.25
483.249	7781.25
484.024	8449.25
484.8	9141.25
485.575	9918.25
486.35	10703.25
487.126	11590.25
487.901	12509.25
488.676	13488.25
489.451	14586.25
490.225	15744.25
491	16908.25
491.775	18088.25
492.55	19361.25
493.324	20722.25
494.099	22035.25
494.873	23435.25
495.647	24980.25
496.422	26473.25
497.196	27849.25
497.97	29252.25
498.744	30707.25
499.518	31946.25
500.292	33248.25
501.066	34343.25
501.839	35535.25
502.613	36366.25
503.387	37207.25
504.16	37854.25
504.934	38299.25
505.707	38623.25
506.48	38731.25
507.253	38637.25
508.027	38403.25
508.8	37836.25
509.573	37227.25
510.346	36499.25
511.118	35578.25
511.891	34797.25
512.664	33872.25
513.437	32719.25
514.209	31599.25
514.982	30418.25
515.754	29397.25
516.526	28255.25
517.298	27053.25
518.071	26054.25
518.843	24941.25
519.615	23938.25
520.387	22993.25
521.159	22131.25
521.93	21230.25
522.702	20432.25
523.474	19599.25
524.245	18797.25
525.017	18081.25
525.788	17297.25
526.56	16567.25
527.331	15897.25
528.102	15173.25
528.873	14421.25
529.644	13729.25
530.415	13087.25
531.186	12472.25
531.957	11840.25
532.728	11292.25
533.498	10738.25
534.269	10126.25
535.039	9640.25
535.81	9071.25
536.58	8626.25
537.351	8152.25
538.121	7742.25
538.891	7309.25
539.661	6934.25
540.431	6593.25
541.201	6183.25
541.971	5884.25
542.741	5547.25
543.51	5258.25
544.28	5038.25
545.05	4764.25
545.819	4536.25
546.588	4319.25
547.358	4144.25
548.127	3915.25
548.896	3717.25
549.665	3554.25
550.434	3340.25
551.203	3186.25
551.972	3039.25
552.741	2868.25
553.51	2706.25
554.278	2564.25
555.047	2426.25
555.815	2280.25
556.584	2161.25
557.352	2036.25
558.121	1943.25
558.889	1834.25
559.657	1727.25
560.425	1640.25
561.193	1540.25
561.961	1469.25
562.729	1389.25
563.496	1305.25
564.264	1253.25
565.032	1187.25
565.799	1116.25
566.567	1062.25
567.334	993.25
568.101	930.25
568.869	891.25
569.636	838.25
570.403	792.25
571.17	744.25
571.937	698.25
572.704	660.25
573.471	630.25
574.237	591.25
575.004	553.25
575.771	524.25
576.537	491.25
577.303	460.25
578.07	441.25
578.836	421.25
579.602	391.25
580.368	374.25
581.134	350.25
581.9	340.25
582.666	317.25
583.432	302.25
584.198	291.25
584.964	273.25
585.729	265.25
586.495	245.25
587.26	234.25
588.025	222.25
588.791	210.25
589.556	201.25
590.321	189.25
591.086	175.25
591.851	172.25
592.616	160.25
593.381	159.25
594.146	147.25
594.911	138.25
595.675	131.25
596.44	124.25
597.204	125.25
597.969	112.25
598.733	113.25
599.497	109.25
600.261	103.25
601.025	98.25
601.79	94.25
602.553	90.25
603.317	85.25
604.081	80.25
604.845	77.25
605.609	74.25
606.372	70.25
607.136	65.25
607.899	68.25
608.662	66.25
609.426	63.25
610.189	61.25
610.952	58.25
611.715	54.25
612.478	54.25
613.241	50.25
614.004	46.25
614.767	46.25
615.529	45.25
616.292	44.25
617.055	40.25
617.817	42.25
618.579	38.25
619.342	41.25
620.104	43.25
620.866	38.25
621.628	37.25
622.39	34.25
623.152	31.25
623.914	33.25
624.676	31.25
625.438	33.25
626.199	28.25
626.961	29.25
627.722	27.25
628.484	27.25
629.245	25.25
630.006	24.25
630.768	23.25
631.529	22.25
632.29	21.25
633.051	22.25
633.812	20.25
634.573	23.25
635.333	20.25
636.094	19.25
636.855	17.25
637.615	19.25
638.376	15.25
639.136	17.25
639.896	16.25
640.657	16.25
641.417	13.25
642.177	16.25
642.937	16.25
643.697	14.25
644.457	14.25
645.216	17.25
645.976	15.25
646.736	17.25
647.495	14.25
648.255	14.25
649.014	11.25
649.774	11.25
650.533	11.25
651.292	11.25
652.051	12.25
652.81	11.25
653.569	11.25
654.328	10.25
655.087	10.25
655.846	11.25
656.604	12.25
657.363	10.25
658.121	10.25
658.88	11.25
659.638	11.25
660.397	10.25
661.155	9.25
661.913	9.25
662.671	10.25
663.429	9.25
664.187	8.25
664.945	9.25
665.703	10.25
666.46	8.25
667.218	8.25
667.976	7.25
668.733	8.25
669.49	11.25
670.248	8.25
671.005	5.25
671.762	10.25
672.519	8.25
673.276	7.25
674.033	9.25
674.79	9.25
675.547	7.25
676.304	10.25
677.06	7.25
677.817	8.25
678.574	8.25
679.33	5.25
680.086	7.25
680.843	8.25
681.599	6.25
682.355	8.25
683.111	7.25
683.867	5.25
684.623	8.25
685.379	6.25
686.135	7.25
686.89	7.25
687.646	7.25
688.402	5.25
689.157	8.25
689.912	6.25
690.668	7.25
691.423	7.25
692.178	6.25
692.933	6.25
693.688	7.25
694.443	7.25
695.198	3.25
695.953	8.25
696.708	6.25
697.462	7.25
698.217	5.25
698.972	7.25
699.726	7.25
700.48	5.25
701.235	7.25
701.989	5.25
702.743	6.25
703.497	6.25
704.251	7.25
705.005	6.25
705.759	7.25
706.513	6.25
707.266	7.25
708.02	8.25
708.774	6.25
709.527	8.25
710.28	7.25
711.034	4.25
711.787	7.25
712.54	5.25
713.293	8.25
714.046	4.25
714.799	6.25
715.552	6.25
716.305	6.25
717.058	7.25
717.81	5.25
718.563	8.25
719.315	7.25
720.068	7.25
720.82	7.25
721.573	6.25
722.325	8.25
723.077	6.25
723.829	5.25
724.581	7.25
725.333	5.25
726.085	5.25
726.836	7.25
727.588	6.25
728.34	5.25
729.091	7.25
729.843	5.25
730.594	7.25
731.346	6.25
732.097	9.25
732.848	7.25
733.599	7.25
734.35	7.25
735.101	7.25
735.852	8.25
736.603	9.25
737.354	9.25
738.104	8.25
738.855	7.25
739.605	9.25
740.356	7.25
741.106	9.25
741.856	10.25
742.607	7.25
743.357	5.25
744.107	6.25
744.857	8.25
745.607	6.25
746.357	8.25
747.106	9.25
747.856	8.25
748.606	8.25
749.355	7.25
750.105	9.25
750.854	9.25
751.603	10.25
752.353	8.25
753.102	7.25
753.851	9.25
754.6	9.25
755.349	10.25
756.098	8.25
756.847	9.25
757.595	10.25
758.344	8.25
759.093	9.25
759.841	10.25
760.589	8.25
761.338	10.25
762.086	11.25
762.834	6.25
763.582	11.25
764.331	9.25
765.079	10.25
765.826	10.25
766.574	11.25
767.322	11.25
768.07	12.25
768.817	10.25
769.565	11.25
770.312	12.25
771.06	13.25
771.807	12.25
772.554	12.25
773.302	11.25
774.049	10.25
774.796	13.25
775.543	12.25
776.29	12.25
777.036	11.25
777.783	11.25
778.53	11.25
779.276	13.25
780.023	13.25
780.769	13.25
781.516	12.25
782.262	11.25
783.008	14.25
783.754	11.25
784.5	13.25
785.246	11.25
785.992	13.25
786.738	11.25
787.484	13.25
788.23	14.25
788.975	13.25
789.721	14.25
790.466	12.25
791.212	14.25
791.957	12.25
792.702	13.25
793.447	12.25
794.193	9.25
794.938	12.25
795.683	13.25
796.427	11.25
797.172	10.25
797.917	13.25
798.662	10.25
799.406	10.25
800.151	10.25
800.895	11.25
801.64	10.25
802.384	10.25
803.128	11.25
803.872	13.25
804.616	7.25
805.36	11.25
806.104	12.25
806.848	8.25
807.592	8.25
808.336	7.25
809.079	9.25
809.823	7.25
810.566	8.25
811.31	10.25
812.053	8.25
812.796	7.25
813.539	8.25
814.283	9.25
815.026	9.25
815.769	7.25
816.511	7.25
817.254	6.25
817.997	8.25
818.74	7.25
819.482	7.25
820.225	7.25
820.967	8.25
821.71	8.25
822.452	6.25
823.194	9.25
823.936	7.25
824.678	6.25
825.42	5.25
826.162	6.25
826.904	7.25
827.646	6.25
828.388	5.25
829.129	7.25
829.871	5.25
830.612	5.25
831.354	5.25
832.095	6.25
832.836	5.25
833.577	9.25
834.319	5.25
835.06	4.25
835.801	5.25
836.542	2.25
837.282	8.25
838.023	7.25
838.764	3.25
839.504	7.25
840.245	6.25
840.985	6.25
841.726	4.25
842.466	5.25
843.206	5.25
843.946	3.25
844.687	6.25
845.427	1.25
846.166	4.25
846.906	6.25
847.646	4.25
848.386	5.25
849.125	3.25
849.865	6.25
850.605	3.25
851.344	4.25
852.083	3.25
852.823	3.25
853.562	3.25
854.301	2.25
855.04	2.25
855.779	1.25
856.518	4.25
857.257	4.25
857.995	4.25
858.734	4.25
859.473	3.25
860.211	2.25
860.95	1.25
861.688	6.25
862.426	2.25
863.165	5.25
863.903	5.25
864.641	2.25
865.379	2.25
866.117	1.25
866.855	3.25
867.593	3.25
868.33	3.25
869.068	2.25
869.806	1.25
870.543	3.25
871.28	3.25
872.018	3.25
872.755	3.25
873.492	5.25
874.229	2.25
874.967	2.25
875.703	2.25
876.44	0.25
877.177	2.25
877.914	3.25
878.651	1.25
879.387	-0.75
880.124	3.25
880.86	1.25
881.597	3.25
882.333	2.25
883.069	2.25
883.806	3.25
884.542	1.25
885.278	2.25
886.014	1.25
886.749	1.25
887.485	3.25
888.221	1.25
888.957	0.25
889.692	1.25
890.428	3.25
891.163	1.25
891.899	1.25
892.634	2.25
893.369	0.25
894.104	1.25
894.839	0.25
895.574	1.25
896.309	0.25
897.044	1.25
897.779	1.25
898.514	-0.75
899.248	2.25
899.983	0.25
900.717	1.25
901.452	2.25
902.186	0.25
902.92	2.25
903.654	0.25
904.389	2.25
905.123	1.25
905.857	0.25
906.59	0.25
907.324	2.25
908.058	2.25
908.792	0.25
909.525	1.25
910.259	0.25
910.992	1.25
911.726	3.25
912.459	0.25
913.192	3.25
913.925	-1.75
914.658	3.25
915.391	2.25
916.124	3.25
916.857	-1.75
917.59	0.25
918.323	3.25
919.055	2.25
919.788	2.25
920.521	1.25
921.253	0.25
921.985	1.25
922.718	3.25
923.45	2.25
924.182	2.25
924.914	1.25
925.646	1.25
926.378	1.25
927.11	-0.75
927.841	0.25
928.573	1.25
929.305	0.25
930.036	4.25
930.768	2.25
931.499	0.25
932.23	0.25
932.962	2.25
933.693	1.25
934.424	3.25
935.155	1.25
935.886	-0.75
936.617	2.25
937.348	-0.75
938.078	0.25
938.809	-0.75
939.54	0.25
940.27	3.25
941.001	2.25
941.731	1.25
942.461	1.25
943.191	1.25
943.922	0.25
944.652	2.25
945.382	-1.75
946.112	1.25
946.841	0.25
947.571	1.25
948.301	0.25
949.031	0.25
949.76	1.25
950.49	1.25
951.219	2.25
951.948	-0.75
952.678	-0.75
953.407	0.25
954.136	1.25
954.865	1.25
955.594	0.25
956.323	2.25
957.052	2.25
957.78	1.25
958.509	3.25
959.238	1.25
959.966	1.25
960.695	0.25
961.423	0.25
962.151	2.25
962.88	1.25
963.608	0.25
964.336	-1.75
965.064	-1.75
965.792	1.25
966.52	1.25
967.247	1.25
967.975	0.25
968.703	-0.75
969.43	0.25
970.158	1.25
970.885	2.25
971.613	-0.75
972.34	0.25
973.067	-0.75
973.794	1.25
974.521	-0.75
975.248	0.25
975.975	1.25
976.702	1.25
977.429	-1.75
978.156	-0.75
978.882	0.25
979.609	-0.75
980.335	-0.75
981.062	1.25
981.788	2.25
982.514	-0.75
983.24	-1.75
983.967	0.25
984.693	-0.75
985.419	1.25
986.144	3.25
986.87	-1.75
987.596	1.25
988.322	0.25
989.047	-0.75
989.773	-0.75
990.498	1.25
991.224	-2.75
991.949	-0.75
992.674	-1.75
993.399	2.25
994.124	1.25
994.849	0.25
995.574	1.25
996.299	1.25
997.024	-0.75
997.749	3.25
998.473	-0.75
999.198	0.25
999.922	1.25
1000.647	1.25
1001.371	2.25
1002.095	0.25
1002.82	-1.75
1003.544	-0.75
1004.268	5.25
1004.992	3.25
1005.716	2.25
1006.439	3.25
1007.163	3.25
1007.887	5.25
1008.611	-1.75
1009.334	1.25
1010.058	0.25
1010.781	0.25
1011.504	1.25
1012.228	-1.75
1012.951	0.25
1013.674	0.25
1014.397	-0.75
1015.12	0.25
