节点500_565_QEPB04081__437__09-57-41-267.txt的数据

Date: Thu Nov 13 09:57:41 CST 2025
User: PC
Spectrometer: QEPB0408
触发模式: 0
积分时间 (秒): 1.000000E-2
Scans to average: 1
启用暗噪声校正: true
启用非线性校正: false
滑动平均宽度: 0
X轴模式: Wavelengths
Number of Pixels in Spectrum: 1044
>>>>>Begin Spectral Data<<<<<
220.843	3.5
221.644	3.5
222.444	4.5
223.244	3.5
224.045	5.5
224.845	4.5
225.645	3.5
226.445	5.5
227.245	3.5
228.045	5.5
228.845	4.5
229.645	4.5
230.444	4.5
231.244	3.5
232.043	8.5
232.843	8.5
233.642	5.5
234.442	4.5
235.241	8.5
236.04	8.5
236.839	6.5
237.638	8.5
238.437	6.5
239.236	5.5
240.035	8.5
240.833	7.5
241.632	9.5
242.43	8.5
243.229	8.5
244.027	7.5
244.826	11.5
245.624	10.5
246.422	8.5
247.22	10.5
248.018	8.5
248.816	11.5
249.614	12.5
250.412	11.5
251.21	11.5
252.007	11.5
252.805	12.5
253.602	8.5
254.4	12.5
255.197	14.5
255.994	14.5
256.791	14.5
257.589	15.5
258.386	15.5
259.183	15.5
259.979	16.5
260.776	16.5
261.573	17.5
262.37	18.5
263.166	18.5
263.963	18.5
264.759	18.5
265.556	19.5
266.352	19.5
267.148	20.5
267.944	20.5
268.74	22.5
269.536	23.5
270.332	22.5
271.128	22.5
271.924	24.5
272.719	20.5
273.515	24.5
274.311	24.5
275.106	24.5
275.901	24.5
276.697	25.5
277.492	25.5
278.287	28.5
279.082	27.5
279.877	28.5
280.672	24.5
281.467	30.5
282.262	25.5
283.056	28.5
283.851	28.5
284.646	28.5
285.44	26.5
286.234	29.5
287.029	26.5
287.823	26.5
288.617	26.5
289.411	27.5
290.205	26.5
290.999	27.5
291.793	28.5
292.587	27.5
293.381	24.5
294.174	22.5
294.968	25.5
295.761	24.5
296.555	20.5
297.348	21.5
298.141	21.5
298.935	22.5
299.728	19.5
300.521	22.5
301.314	18.5
302.107	21.5
302.899	18.5
303.692	19.5
304.485	18.5
305.277	20.5
306.07	19.5
306.862	18.5
307.655	18.5
308.447	19.5
309.239	18.5
310.031	17.5
310.823	16.5
311.615	15.5
312.407	13.5
313.199	15.5
313.991	13.5
314.783	15.5
315.574	13.5
316.366	13.5
317.157	10.5
317.949	12.5
318.74	10.5
319.531	12.5
320.322	10.5
321.113	12.5
321.904	10.5
322.695	8.5
323.486	10.5
324.277	10.5
325.068	8.5
325.858	13.5
326.649	10.5
327.439	11.5
328.23	10.5
329.02	7.5
329.81	9.5
330.6	10.5
331.391	8.5
332.181	10.5
332.971	8.5
333.76	8.5
334.55	7.5
335.34	11.5
336.13	9.5
336.919	9.5
337.709	10.5
338.498	10.5
339.287	5.5
340.077	8.5
340.866	11.5
341.655	9.5
342.444	7.5
343.233	9.5
344.022	7.5
344.811	9.5
345.6	8.5
346.388	12.5
347.177	7.5
347.965	9.5
348.754	8.5
349.542	10.5
350.33	10.5
351.119	8.5
351.907	10.5
352.695	8.5
353.483	8.5
354.271	11.5
355.059	9.5
355.846	6.5
356.634	9.5
357.422	8.5
358.209	5.5
358.997	6.5
359.784	9.5
360.571	8.5
361.359	8.5
362.146	9.5
362.933	8.5
363.72	8.5
364.507	7.5
365.294	7.5
366.081	7.5
366.867	8.5
367.654	8.5
368.44	7.5
369.227	7.5
370.013	10.5
370.8	10.5
371.586	8.5
372.372	7.5
373.158	6.5
373.944	6.5
374.73	5.5
375.516	9.5
376.302	8.5
377.088	6.5
377.873	8.5
378.659	6.5
379.445	9.5
380.23	6.5
381.015	8.5
381.801	7.5
382.586	9.5
383.371	8.5
384.156	6.5
384.941	4.5
385.726	8.5
386.511	7.5
387.296	7.5
388.08	10.5
388.865	10.5
389.649	8.5
390.434	8.5
391.218	10.5
392.003	9.5
392.787	7.5
393.571	8.5
394.355	9.5
395.139	10.5
395.923	12.5
396.707	11.5
397.491	10.5
398.274	10.5
399.058	11.5
399.842	9.5
400.625	9.5
401.408	13.5
402.192	10.5
402.975	12.5
403.758	11.5
404.541	10.5
405.324	11.5
406.107	9.5
406.89	11.5
407.673	12.5
408.456	14.5
409.238	13.5
410.021	13.5
410.803	13.5
411.586	13.5
412.368	11.5
413.151	15.5
413.933	15.5
414.715	14.5
415.497	16.5
416.279	13.5
417.061	14.5
417.843	12.5
418.624	14.5
419.406	15.5
420.188	16.5
420.969	17.5
421.751	15.5
422.532	18.5
423.313	19.5
424.095	19.5
424.876	19.5
425.657	16.5
426.438	20.5
427.219	19.5
428	21.5
428.78	22.5
429.561	20.5
430.342	21.5
431.122	22.5
431.903	27.5
432.683	29.5
433.464	26.5
434.244	29.5
435.024	30.5
435.804	33.5
436.584	32.5
437.364	34.5
438.144	36.5
438.924	41.5
439.704	41.5
440.483	44.5
441.263	48.5
442.042	53.5
442.822	50.5
443.601	55.5
444.38	59.5
445.16	70.5
445.939	74.5
446.718	79.5
447.497	81.5
448.276	90.5
449.054	106.5
449.833	116.5
450.612	123.5
451.391	134.5
452.169	152.5
452.948	167.5
453.726	188.5
454.504	202.5
455.282	230.5
456.061	259.5
456.839	280.5
457.617	314.5
458.395	343.5
459.172	388.5
459.95	438.5
460.728	480.5
461.506	548.5
462.283	602.5
463.061	660.5
463.838	747.5
464.615	831.5
465.393	923.5
466.17	1034.5
466.947	1141.5
467.724	1256.5
468.501	1404.5
469.278	1533.5
470.055	1711.5
470.831	1887.5
471.608	2090.5
472.385	2289.5
473.161	2519.5
473.938	2790.5
474.714	3032.5
475.49	3329.5
476.266	3665.5
477.043	4022.5
477.819	4403.5
478.595	4812.5
479.371	5230.5
480.146	5691.5
480.922	6224.5
481.698	6786.5
482.473	7344.5
483.249	7948.5
484.024	8665.5
484.8	9390.5
485.575	10227.5
486.35	11031.5
487.126	11940.5
487.901	12929.5
488.676	14005.5
489.451	15117.5
490.225	16347.5
491	17567.5
491.775	18875.5
492.55	20202.5
493.324	21540.5
494.099	22988.5
494.873	24443.5
495.647	25972.5
496.422	27543.5
497.196	29092.5
497.97	30503.5
498.744	31936.5
499.518	33256.5
500.292	34568.5
501.066	35728.5
501.839	36834.5
502.613	37725.5
503.387	38492.5
504.16	39091.5
504.934	39472.5
505.707	39627.5
506.48	39734.5
507.253	39514.5
508.027	39104.5
508.8	38560.5
509.573	37779.5
510.346	37008.5
511.118	36023.5
511.891	35239.5
512.664	34140.5
513.437	32952.5
514.209	31708.5
514.982	30522.5
515.754	29349.5
516.526	28203.5
517.298	27078.5
518.071	26003.5
518.843	24950.5
519.615	23938.5
520.387	23049.5
521.159	22131.5
521.93	21218.5
522.702	20333.5
523.474	19576.5
524.245	18788.5
525.017	18004.5
525.788	17213.5
526.56	16513.5
527.331	15789.5
528.102	15070.5
528.873	14379.5
529.644	13618.5
530.415	12971.5
531.186	12383.5
531.957	11754.5
532.728	11207.5
533.498	10602.5
534.269	10004.5
535.039	9450.5
535.81	9014.5
536.58	8537.5
537.351	8053.5
538.121	7621.5
538.891	7202.5
539.661	6848.5
540.431	6469.5
541.201	6105.5
541.971	5826.5
542.741	5508.5
543.51	5198.5
544.28	4966.5
545.05	4709.5
545.819	4482.5
546.588	4264.5
547.358	4038.5
548.127	3869.5
548.896	3659.5
549.665	3482.5
550.434	3298.5
551.203	3119.5
551.972	2967.5
552.741	2833.5
553.51	2656.5
554.278	2518.5
555.047	2373.5
555.815	2252.5
556.584	2154.5
557.352	2018.5
558.121	1883.5
558.889	1784.5
559.657	1699.5
560.425	1596.5
561.193	1517.5
561.961	1425.5
562.729	1360.5
563.496	1282.5
564.264	1207.5
565.032	1145.5
565.799	1104.5
566.567	1030.5
567.334	964.5
568.101	911.5
568.869	872.5
569.636	819.5
570.403	770.5
571.17	731.5
571.937	695.5
572.704	659.5
573.471	612.5
574.237	582.5
575.004	542.5
575.771	519.5
576.537	487.5
577.303	468.5
578.07	435.5
578.836	401.5
579.602	382.5
580.368	361.5
581.134	339.5
581.9	330.5
582.666	314.5
583.432	299.5
584.198	288.5
584.964	268.5
585.729	247.5
586.495	242.5
587.26	227.5
588.025	210.5
588.791	206.5
589.556	192.5
590.321	186.5
591.086	171.5
591.851	165.5
592.616	156.5
593.381	150.5
594.146	144.5
594.911	142.5
595.675	131.5
596.44	123.5
597.204	115.5
597.969	112.5
598.733	108.5
599.497	104.5
600.261	97.5
601.025	94.5
601.79	86.5
602.553	89.5
603.317	83.5
604.081	77.5
604.845	76.5
605.609	70.5
606.372	70.5
607.136	67.5
607.899	64.5
608.662	62.5
609.426	61.5
610.189	57.5
610.952	54.5
611.715	54.5
612.478	53.5
613.241	50.5
614.004	47.5
614.767	45.5
615.529	41.5
616.292	40.5
617.055	40.5
617.817	42.5
618.579	36.5
619.342	36.5
620.104	37.5
620.866	36.5
621.628	32.5
622.39	34.5
623.152	29.5
623.914	32.5
624.676	30.5
625.438	33.5
626.199	28.5
626.961	27.5
627.722	24.5
628.484	24.5
629.245	25.5
630.006	22.5
630.768	22.5
631.529	21.5
632.29	24.5
633.051	21.5
633.812	20.5
634.573	21.5
635.333	22.5
636.094	19.5
636.855	16.5
637.615	16.5
638.376	18.5
639.136	16.5
639.896	14.5
640.657	17.5
641.417	14.5
642.177	11.5
642.937	16.5
643.697	14.5
644.457	14.5
645.216	14.5
645.976	14.5
646.736	14.5
647.495	13.5
648.255	12.5
649.014	13.5
649.774	11.5
650.533	12.5
651.292	12.5
652.051	10.5
652.81	11.5
653.569	11.5
654.328	13.5
655.087	8.5
655.846	8.5
656.604	11.5
657.363	10.5
658.121	10.5
658.88	11.5
659.638	10.5
660.397	8.5
661.155	7.5
661.913	6.5
662.671	7.5
663.429	10.5
664.187	7.5
664.945	8.5
665.703	6.5
666.46	9.5
667.218	6.5
667.976	8.5
668.733	8.5
669.49	6.5
670.248	6.5
671.005	7.5
671.762	6.5
672.519	7.5
673.276	8.5
674.033	7.5
674.79	4.5
675.547	8.5
676.304	7.5
677.06	6.5
677.817	7.5
678.574	6.5
679.33	4.5
680.086	6.5
680.843	8.5
681.599	7.5
682.355	8.5
683.111	6.5
683.867	6.5
684.623	5.5
685.379	8.5
686.135	6.5
686.89	6.5
687.646	7.5
688.402	6.5
689.157	8.5
689.912	5.5
690.668	4.5
691.423	9.5
692.178	8.5
692.933	6.5
693.688	4.5
694.443	6.5
695.198	7.5
695.953	6.5
696.708	6.5
697.462	6.5
698.217	5.5
698.972	8.5
699.726	6.5
700.48	2.5
701.235	5.5
701.989	5.5
702.743	6.5
703.497	7.5
704.251	4.5
705.005	5.5
705.759	4.5
706.513	5.5
707.266	5.5
708.02	6.5
708.774	6.5
709.527	5.5
710.28	7.5
711.034	4.5
711.787	5.5
712.54	5.5
713.293	6.5
714.046	5.5
714.799	3.5
715.552	5.5
716.305	5.5
717.058	4.5
717.81	6.5
718.563	5.5
719.315	5.5
720.068	6.5
720.82	6.5
721.573	4.5
722.325	7.5
723.077	4.5
723.829	8.5
724.581	4.5
725.333	5.5
726.085	5.5
726.836	5.5
727.588	3.5
728.34	9.5
729.091	9.5
729.843	5.5
730.594	5.5
731.346	7.5
732.097	7.5
732.848	7.5
733.599	6.5
734.35	6.5
735.101	4.5
735.852	6.5
736.603	6.5
737.354	8.5
738.104	8.5
738.855	5.5
739.605	7.5
740.356	8.5
741.106	7.5
741.856	8.5
742.607	4.5
743.357	7.5
744.107	6.5
744.857	9.5
745.607	6.5
746.357	8.5
747.106	7.5
747.856	6.5
748.606	10.5
749.355	7.5
750.105	7.5
750.854	5.5
751.603	8.5
752.353	8.5
753.102	9.5
753.851	8.5
754.6	9.5
755.349	8.5
756.098	8.5
756.847	9.5
757.595	10.5
758.344	7.5
759.093	8.5
759.841	9.5
760.589	10.5
761.338	7.5
762.086	12.5
762.834	9.5
763.582	10.5
764.331	9.5
765.079	11.5
765.826	9.5
766.574	9.5
767.322	11.5
768.07	9.5
768.817	9.5
769.565	9.5
770.312	11.5
771.06	11.5
771.807	10.5
772.554	10.5
773.302	12.5
774.049	11.5
774.796	10.5
775.543	13.5
776.29	10.5
777.036	11.5
777.783	10.5
778.53	11.5
779.276	11.5
780.023	12.5
780.769	13.5
781.516	11.5
782.262	13.5
783.008	12.5
783.754	11.5
784.5	13.5
785.246	12.5
785.992	12.5
786.738	11.5
787.484	15.5
788.23	13.5
788.975	11.5
789.721	13.5
790.466	12.5
791.212	10.5
791.957	10.5
792.702	13.5
793.447	12.5
794.193	11.5
794.938	10.5
795.683	12.5
796.427	10.5
797.172	10.5
797.917	8.5
798.662	12.5
799.406	7.5
800.151	9.5
800.895	9.5
801.64	9.5
802.384	9.5
803.128	10.5
803.872	9.5
804.616	10.5
805.36	9.5
806.104	10.5
806.848	7.5
807.592	9.5
808.336	8.5
809.079	8.5
809.823	8.5
810.566	8.5
811.31	6.5
812.053	8.5
812.796	8.5
813.539	6.5
814.283	7.5
815.026	5.5
815.769	7.5
816.511	6.5
817.254	7.5
817.997	7.5
818.74	7.5
819.482	5.5
820.225	7.5
820.967	7.5
821.71	2.5
822.452	10.5
823.194	6.5
823.936	6.5
824.678	6.5
825.42	8.5
826.162	4.5
826.904	5.5
827.646	7.5
828.388	5.5
829.129	9.5
829.871	5.5
830.612	4.5
831.354	5.5
832.095	5.5
832.836	4.5
833.577	3.5
834.319	5.5
835.06	4.5
835.801	4.5
836.542	3.5
837.282	4.5
838.023	7.5
838.764	5.5
839.504	5.5
840.245	4.5
840.985	5.5
841.726	4.5
842.466	4.5
843.206	6.5
843.946	4.5
844.687	3.5
845.427	2.5
846.166	4.5
846.906	5.5
847.646	4.5
848.386	4.5
849.125	5.5
849.865	5.5
850.605	4.5
851.344	3.5
852.083	4.5
852.823	4.5
853.562	3.5
854.301	4.5
855.04	3.5
855.779	3.5
856.518	4.5
857.257	2.5
857.995	3.5
858.734	2.5
859.473	1.5
860.211	1.5
860.95	1.5
861.688	4.5
862.426	3.5
863.165	2.5
863.903	3.5
864.641	2.5
865.379	1.5
866.117	-0.5
866.855	2.5
867.593	3.5
868.33	1.5
869.068	0.5
869.806	2.5
870.543	0.5
871.28	1.5
872.018	1.5
872.755	0.5
873.492	2.5
874.229	2.5
874.967	1.5
875.703	1.5
876.44	0.5
877.177	2.5
877.914	0.5
878.651	1.5
879.387	-0.5
880.124	1.5
880.86	2.5
881.597	-2.5
882.333	0.5
883.069	0.5
883.806	1.5
884.542	1.5
885.278	2.5
886.014	2.5
886.749	1.5
887.485	1.5
888.221	0.5
888.957	2.5
889.692	-0.5
890.428	-0.5
891.163	-1.5
891.899	-1.5
892.634	0.5
893.369	1.5
894.104	1.5
894.839	0.5
895.574	-0.5
896.309	1.5
897.044	-0.5
897.779	0.5
898.514	-0.5
899.248	2.5
899.983	1.5
900.717	1.5
901.452	-1.5
902.186	-0.5
902.92	0.5
903.654	1.5
904.389	1.5
905.123	0.5
905.857	0.5
906.59	1.5
907.324	0.5
908.058	2.5
908.792	0.5
909.525	1.5
910.259	-0.5
910.992	2.5
911.726	-1.5
912.459	0.5
913.192	1.5
913.925	0.5
914.658	1.5
915.391	-1.5
916.124	0.5
916.857	1.5
917.59	0.5
918.323	0.5
919.055	0.5
919.788	1.5
920.521	0.5
921.253	2.5
921.985	-0.5
922.718	-0.5
923.45	2.5
924.182	0.5
924.914	2.5
925.646	1.5
926.378	-1.5
927.11	0.5
927.841	-0.5
928.573	-0.5
929.305	-2.5
930.036	0.5
930.768	-0.5
931.499	-1.5
932.23	-0.5
932.962	0.5
933.693	0.5
934.424	0.5
935.155	0.5
935.886	-0.5
936.617	-0.5
937.348	-0.5
938.078	0.5
938.809	0.5
939.54	-0.5
940.27	-0.5
941.001	-0.5
941.731	0.5
942.461	-1.5
943.191	2.5
943.922	4.5
944.652	1.5
945.382	-2.5
946.112	0.5
946.841	2.5
947.571	-1.5
948.301	-0.5
949.031	-0.5
949.76	-2.5
950.49	0.5
951.219	-2.5
951.948	-0.5
952.678	1.5
953.407	-0.5
954.136	-1.5
954.865	-0.5
955.594	-0.5
956.323	1.5
957.052	1.5
957.78	1.5
958.509	1.5
959.238	1.5
959.966	0.5
960.695	-0.5
961.423	0.5
962.151	0.5
962.88	1.5
963.608	-0.5
964.336	-0.5
965.064	2.5
965.792	0.5
966.52	-0.5
967.247	-1.5
967.975	-0.5
968.703	1.5
969.43	1.5
970.158	-1.5
970.885	0.5
971.613	0.5
972.34	0.5
973.067	0.5
973.794	-0.5
974.521	0.5
975.248	0.5
975.975	0.5
976.702	-2.5
977.429	0.5
978.156	0.5
978.882	-1.5
979.609	0.5
980.335	0.5
981.062	0.5
981.788	-0.5
982.514	0.5
983.24	-0.5
983.967	1.5
984.693	-1.5
985.419	0.5
986.144	1.5
986.87	-0.5
987.596	0.5
988.322	1.5
989.047	0.5
989.773	2.5
990.498	1.5
991.224	-1.5
991.949	2.5
992.674	0.5
993.399	0.5
994.124	1.5
994.849	-1.5
995.574	-0.5
996.299	1.5
997.024	-3.5
997.749	-0.5
998.473	-2.5
999.198	0.5
999.922	0.5
1000.647	0.5
1001.371	2.5
1002.095	0.5
1002.82	-1.5
1003.544	-1.5
1004.268	3.5
1004.992	0.5
1005.716	4.5
1006.439	2.5
1007.163	2.5
1007.887	2.5
1008.611	-0.5
1009.334	-3.5
1010.058	0.5
1010.781	-1.5
1011.504	-2.5
1012.228	0.5
1012.951	1.5
1013.674	0.5
1014.397	-1.5
1015.12	-0.5
