节点500_565_QEPB04081__412__09-57-16-336.txt的数据

Date: Thu Nov 13 09:57:16 CST 2025
User: PC
Spectrometer: QEPB0408
触发模式: 0
积分时间 (秒): 1.000000E-2
Scans to average: 1
启用暗噪声校正: true
启用非线性校正: false
滑动平均宽度: 0
X轴模式: Wavelengths
Number of Pixels in Spectrum: 1044
>>>>>Begin Spectral Data<<<<<
220.843	3.12
221.644	3.12
222.444	5.12
223.244	4.12
224.045	6.12
224.845	3.12
225.645	4.12
226.445	5.12
227.245	5.12
228.045	3.12
228.845	6.12
229.645	6.12
230.444	5.12
231.244	6.12
232.043	7.12
232.843	6.12
233.642	6.12
234.442	8.12
235.241	8.12
236.04	7.12
236.839	9.12
237.638	7.12
238.437	8.12
239.236	7.12
240.035	8.12
240.833	10.12
241.632	9.12
242.43	8.12
243.229	10.12
244.027	9.12
244.826	10.12
245.624	10.12
246.422	10.12
247.22	10.12
248.018	14.12
248.816	10.12
249.614	13.12
250.412	13.12
251.21	13.12
252.007	13.12
252.805	13.12
253.602	15.12
254.4	14.12
255.197	14.12
255.994	15.12
256.791	14.12
257.589	14.12
258.386	13.12
259.183	17.12
259.979	17.12
260.776	20.12
261.573	18.12
262.37	19.12
263.166	17.12
263.963	18.12
264.759	22.12
265.556	21.12
266.352	19.12
267.148	20.12
267.944	23.12
268.74	24.12
269.536	21.12
270.332	23.12
271.128	23.12
271.924	25.12
272.719	23.12
273.515	26.12
274.311	27.12
275.106	26.12
275.901	25.12
276.697	28.12
277.492	29.12
278.287	31.12
279.082	31.12
279.877	29.12
280.672	30.12
281.467	27.12
282.262	29.12
283.056	29.12
283.851	29.12
284.646	29.12
285.44	29.12
286.234	29.12
287.029	28.12
287.823	26.12
288.617	26.12
289.411	28.12
290.205	24.12
290.999	26.12
291.793	24.12
292.587	27.12
293.381	26.12
294.174	25.12
294.968	23.12
295.761	22.12
296.555	23.12
297.348	23.12
298.141	21.12
298.935	23.12
299.728	21.12
300.521	21.12
301.314	22.12
302.107	19.12
302.899	18.12
303.692	19.12
304.485	23.12
305.277	18.12
306.07	20.12
306.862	19.12
307.655	22.12
308.447	17.12
309.239	19.12
310.031	17.12
310.823	17.12
311.615	16.12
312.407	16.12
313.199	16.12
313.991	14.12
314.783	13.12
315.574	14.12
316.366	14.12
317.157	13.12
317.949	15.12
318.74	14.12
319.531	13.12
320.322	13.12
321.113	11.12
321.904	11.12
322.695	14.12
323.486	14.12
324.277	10.12
325.068	10.12
325.858	10.12
326.649	9.12
327.439	7.12
328.23	10.12
329.02	8.12
329.81	11.12
330.6	10.12
331.391	10.12
332.181	10.12
332.971	11.12
333.76	13.12
334.55	11.12
335.34	11.12
336.13	14.12
336.919	12.12
337.709	11.12
338.498	12.12
339.287	10.12
340.077	11.12
340.866	11.12
341.655	11.12
342.444	9.12
343.233	7.12
344.022	9.12
344.811	9.12
345.6	10.12
346.388	9.12
347.177	12.12
347.965	10.12
348.754	11.12
349.542	9.12
350.33	9.12
351.119	12.12
351.907	8.12
352.695	10.12
353.483	10.12
354.271	8.12
355.059	11.12
355.846	7.12
356.634	10.12
357.422	7.12
358.209	7.12
358.997	9.12
359.784	9.12
360.571	9.12
361.359	9.12
362.146	11.12
362.933	7.12
363.72	9.12
364.507	7.12
365.294	7.12
366.081	7.12
366.867	7.12
367.654	11.12
368.44	8.12
369.227	10.12
370.013	8.12
370.8	9.12
371.586	9.12
372.372	9.12
373.158	6.12
373.944	9.12
374.73	9.12
375.516	9.12
376.302	9.12
377.088	10.12
377.873	9.12
378.659	9.12
379.445	8.12
380.23	8.12
381.015	7.12
381.801	12.12
382.586	10.12
383.371	7.12
384.156	10.12
384.941	5.12
385.726	9.12
386.511	8.12
387.296	9.12
388.08	9.12
388.865	7.12
389.649	10.12
390.434	9.12
391.218	10.12
392.003	10.12
392.787	10.12
393.571	10.12
394.355	12.12
395.139	11.12
395.923	9.12
396.707	13.12
397.491	8.12
398.274	12.12
399.058	10.12
399.842	12.12
400.625	11.12
401.408	8.12
402.192	12.12
402.975	11.12
403.758	11.12
404.541	12.12
405.324	13.12
406.107	13.12
406.89	11.12
407.673	14.12
408.456	14.12
409.238	13.12
410.021	14.12
410.803	13.12
411.586	16.12
412.368	13.12
413.151	14.12
413.933	16.12
414.715	16.12
415.497	13.12
416.279	14.12
417.061	14.12
417.843	15.12
418.624	16.12
419.406	14.12
420.188	17.12
420.969	18.12
421.751	18.12
422.532	17.12
423.313	18.12
424.095	17.12
424.876	21.12
425.657	19.12
426.438	23.12
427.219	23.12
428	21.12
428.78	23.12
429.561	23.12
430.342	24.12
431.122	27.12
431.903	25.12
432.683	27.12
433.464	29.12
434.244	26.12
435.024	32.12
435.804	30.12
436.584	34.12
437.364	35.12
438.144	39.12
438.924	39.12
439.704	42.12
440.483	45.12
441.263	45.12
442.042	49.12
442.822	54.12
443.601	56.12
444.38	64.12
445.16	68.12
445.939	74.12
446.718	80.12
447.497	87.12
448.276	96.12
449.054	106.12
449.833	113.12
450.612	123.12
451.391	138.12
452.169	155.12
452.948	162.12
453.726	187.12
454.504	209.12
455.282	225.12
456.061	255.12
456.839	286.12
457.617	308.12
458.395	350.12
459.172	388.12
459.95	432.12
460.728	480.12
461.506	535.12
462.283	599.12
463.061	672.12
463.838	735.12
464.615	830.12
465.393	911.12
466.17	1040.12
466.947	1132.12
467.724	1258.12
468.501	1380.12
469.278	1546.12
470.055	1687.12
470.831	1876.12
471.608	2094.12
472.385	2277.12
473.161	2525.12
473.938	2778.12
474.714	3046.12
475.49	3325.12
476.266	3679.12
477.043	4011.12
477.819	4382.12
478.595	4795.12
479.371	5241.12
480.146	5735.12
480.922	6253.12
481.698	6784.12
482.473	7407.12
483.249	8014.12
484.024	8690.12
484.8	9461.12
485.575	10249.12
486.35	11102.12
487.126	12093.12
487.901	13077.12
488.676	14085.12
489.451	15268.12
490.225	16441.12
491	17684.12
491.775	19021.12
492.55	20394.12
493.324	21777.12
494.099	23236.12
494.873	24684.12
495.647	26262.12
496.422	27881.12
497.196	29310.12
497.97	30840.12
498.744	32266.12
499.518	33607.12
500.292	34899.12
501.066	36058.12
501.839	37135.12
502.613	38005.12
503.387	38742.12
504.16	39441.12
504.934	39793.12
505.707	39888.12
506.48	39930.12
507.253	39726.12
508.027	39143.12
508.8	38740.12
509.573	38083.12
510.346	37143.12
511.118	36179.12
511.891	35225.12
512.664	34100.12
513.437	32946.12
514.209	31704.12
514.982	30554.12
515.754	29422.12
516.526	28258.12
517.298	27068.12
518.071	25983.12
518.843	24875.12
519.615	23833.12
520.387	22959.12
521.159	22051.12
521.93	21238.12
522.702	20331.12
523.474	19484.12
524.245	18675.12
525.017	17985.12
525.788	17155.12
526.56	16461.12
527.331	15688.12
528.102	15049.12
528.873	14290.12
529.644	13610.12
530.415	12901.12
531.186	12271.12
531.957	11670.12
532.728	11113.12
533.498	10491.12
534.269	9957.12
535.039	9417.12
535.81	8920.12
536.58	8448.12
537.351	8018.12
538.121	7565.12
538.891	7163.12
539.661	6823.12
540.431	6485.12
541.201	6086.12
541.971	5771.12
542.741	5447.12
543.51	5178.12
544.28	4906.12
545.05	4687.12
545.819	4459.12
546.588	4215.12
547.358	4020.12
548.127	3827.12
548.896	3642.12
549.665	3476.12
550.434	3306.12
551.203	3107.12
551.972	2975.12
552.741	2797.12
553.51	2633.12
554.278	2501.12
555.047	2330.12
555.815	2195.12
556.584	2125.12
557.352	1995.12
558.121	1880.12
558.889	1774.12
559.657	1670.12
560.425	1584.12
561.193	1507.12
561.961	1406.12
562.729	1349.12
563.496	1284.12
564.264	1198.12
565.032	1154.12
565.799	1082.12
566.567	1017.12
567.334	961.12
568.101	911.12
568.869	864.12
569.636	820.12
570.403	765.12
571.17	734.12
571.937	687.12
572.704	645.12
573.471	603.12
574.237	578.12
575.004	532.12
575.771	514.12
576.537	482.12
577.303	459.12
578.07	425.12
578.836	401.12
579.602	384.12
580.368	366.12
581.134	342.12
581.9	322.12
582.666	316.12
583.432	294.12
584.198	277.12
584.964	270.12
585.729	254.12
586.495	245.12
587.26	224.12
588.025	215.12
588.791	205.12
589.556	199.12
590.321	183.12
591.086	171.12
591.851	169.12
592.616	162.12
593.381	152.12
594.146	139.12
594.911	139.12
595.675	133.12
596.44	123.12
597.204	124.12
597.969	117.12
598.733	108.12
599.497	100.12
600.261	102.12
601.025	91.12
601.79	90.12
602.553	87.12
603.317	87.12
604.081	82.12
604.845	76.12
605.609	74.12
606.372	68.12
607.136	67.12
607.899	64.12
608.662	63.12
609.426	60.12
610.189	56.12
610.952	51.12
611.715	56.12
612.478	55.12
613.241	50.12
614.004	47.12
614.767	48.12
615.529	44.12
616.292	41.12
617.055	42.12
617.817	40.12
618.579	41.12
619.342	36.12
620.104	38.12
620.866	34.12
621.628	35.12
622.39	31.12
623.152	34.12
623.914	31.12
624.676	30.12
625.438	29.12
626.199	26.12
626.961	29.12
627.722	23.12
628.484	23.12
629.245	25.12
630.006	24.12
630.768	23.12
631.529	24.12
632.29	24.12
633.051	22.12
633.812	21.12
634.573	21.12
635.333	19.12
636.094	20.12
636.855	18.12
637.615	18.12
638.376	17.12
639.136	16.12
639.896	17.12
640.657	17.12
641.417	17.12
642.177	17.12
642.937	16.12
643.697	15.12
644.457	14.12
645.216	12.12
645.976	15.12
646.736	15.12
647.495	12.12
648.255	13.12
649.014	14.12
649.774	13.12
650.533	11.12
651.292	13.12
652.051	12.12
652.81	11.12
653.569	12.12
654.328	11.12
655.087	12.12
655.846	12.12
656.604	10.12
657.363	11.12
658.121	9.12
658.88	11.12
659.638	11.12
660.397	11.12
661.155	11.12
661.913	11.12
662.671	9.12
663.429	9.12
664.187	9.12
664.945	9.12
665.703	9.12
666.46	7.12
667.218	7.12
667.976	9.12
668.733	7.12
669.49	7.12
670.248	7.12
671.005	9.12
671.762	10.12
672.519	7.12
673.276	8.12
674.033	9.12
674.79	7.12
675.547	9.12
676.304	10.12
677.06	7.12
677.817	8.12
678.574	8.12
679.33	7.12
680.086	6.12
680.843	7.12
681.599	9.12
682.355	7.12
683.111	6.12
683.867	6.12
684.623	7.12
685.379	6.12
686.135	5.12
686.89	6.12
687.646	7.12
688.402	8.12
689.157	7.12
689.912	6.12
690.668	4.12
691.423	7.12
692.178	6.12
692.933	5.12
693.688	7.12
694.443	6.12
695.198	7.12
695.953	7.12
696.708	9.12
697.462	7.12
698.217	5.12
698.972	6.12
699.726	5.12
700.48	7.12
701.235	7.12
701.989	7.12
702.743	8.12
703.497	6.12
704.251	8.12
705.005	5.12
705.759	6.12
706.513	7.12
707.266	6.12
708.02	6.12
708.774	7.12
709.527	8.12
710.28	6.12
711.034	6.12
711.787	6.12
712.54	5.12
713.293	7.12
714.046	3.12
714.799	5.12
715.552	6.12
716.305	5.12
717.058	7.12
717.81	7.12
718.563	7.12
719.315	5.12
720.068	7.12
720.82	7.12
721.573	6.12
722.325	6.12
723.077	7.12
723.829	8.12
724.581	5.12
725.333	8.12
726.085	7.12
726.836	6.12
727.588	9.12
728.34	6.12
729.091	6.12
729.843	5.12
730.594	8.12
731.346	5.12
732.097	8.12
732.848	7.12
733.599	6.12
734.35	9.12
735.101	7.12
735.852	8.12
736.603	7.12
737.354	8.12
738.104	10.12
738.855	9.12
739.605	8.12
740.356	11.12
741.106	8.12
741.856	9.12
742.607	7.12
743.357	7.12
744.107	10.12
744.857	9.12
745.607	7.12
746.357	10.12
747.106	7.12
747.856	8.12
748.606	9.12
749.355	7.12
750.105	9.12
750.854	10.12
751.603	11.12
752.353	9.12
753.102	9.12
753.851	11.12
754.6	11.12
755.349	8.12
756.098	11.12
756.847	8.12
757.595	9.12
758.344	11.12
759.093	7.12
759.841	11.12
760.589	10.12
761.338	10.12
762.086	10.12
762.834	8.12
763.582	12.12
764.331	10.12
765.079	12.12
765.826	10.12
766.574	9.12
767.322	11.12
768.07	11.12
768.817	11.12
769.565	11.12
770.312	13.12
771.06	14.12
771.807	10.12
772.554	10.12
773.302	11.12
774.049	12.12
774.796	12.12
775.543	12.12
776.29	11.12
777.036	15.12
777.783	12.12
778.53	13.12
779.276	13.12
780.023	13.12
780.769	13.12
781.516	14.12
782.262	15.12
783.008	13.12
783.754	14.12
784.5	14.12
785.246	10.12
785.992	14.12
786.738	14.12
787.484	13.12
788.23	15.12
788.975	12.12
789.721	15.12
790.466	13.12
791.212	14.12
791.957	11.12
792.702	14.12
793.447	11.12
794.193	11.12
794.938	13.12
795.683	10.12
796.427	11.12
797.172	10.12
797.917	9.12
798.662	11.12
799.406	12.12
800.151	10.12
800.895	12.12
801.64	11.12
802.384	12.12
803.128	11.12
803.872	10.12
804.616	8.12
805.36	9.12
806.104	9.12
806.848	10.12
807.592	10.12
808.336	7.12
809.079	10.12
809.823	8.12
810.566	8.12
811.31	6.12
812.053	10.12
812.796	8.12
813.539	5.12
814.283	7.12
815.026	10.12
815.769	9.12
816.511	6.12
817.254	6.12
817.997	7.12
818.74	9.12
819.482	8.12
820.225	7.12
820.967	6.12
821.71	7.12
822.452	5.12
823.194	5.12
823.936	8.12
824.678	5.12
825.42	5.12
826.162	9.12
826.904	8.12
827.646	8.12
828.388	5.12
829.129	6.12
829.871	5.12
830.612	6.12
831.354	5.12
832.095	5.12
832.836	7.12
833.577	4.12
834.319	6.12
835.06	6.12
835.801	8.12
836.542	5.12
837.282	6.12
838.023	5.12
838.764	5.12
839.504	5.12
840.245	6.12
840.985	3.12
841.726	6.12
842.466	2.12
843.206	4.12
843.946	5.12
844.687	3.12
845.427	5.12
846.166	7.12
846.906	7.12
847.646	5.12
848.386	6.12
849.125	4.12
849.865	7.12
850.605	3.12
851.344	4.12
852.083	4.12
852.823	4.12
853.562	5.12
854.301	2.12
855.04	5.12
855.779	3.12
856.518	5.12
857.257	3.12
857.995	5.12
858.734	4.12
859.473	4.12
860.211	4.12
860.95	5.12
861.688	5.12
862.426	4.12
863.165	3.12
863.903	2.12
864.641	1.12
865.379	3.12
866.117	4.12
866.855	2.12
867.593	3.12
868.33	1.12
869.068	5.12
869.806	0.12
870.543	2.12
871.28	2.12
872.018	4.12
872.755	3.12
873.492	2.12
874.229	3.12
874.967	2.12
875.703	1.12
876.44	3.12
877.177	2.12
877.914	-0.88
878.651	1.12
879.387	3.12
880.124	1.12
880.86	1.12
881.597	3.12
882.333	3.12
883.069	2.12
883.806	2.12
884.542	3.12
885.278	1.12
886.014	3.12
886.749	1.12
887.485	1.12
888.221	1.12
888.957	1.12
889.692	2.12
890.428	1.12
891.163	2.12
891.899	1.12
892.634	1.12
893.369	2.12
894.104	-0.88
894.839	0.12
895.574	2.12
896.309	2.12
897.044	1.12
897.779	3.12
898.514	1.12
899.248	1.12
899.983	0.12
900.717	0.12
901.452	-0.88
902.186	2.12
902.92	1.12
903.654	1.12
904.389	-0.88
905.123	0.12
905.857	0.12
906.59	2.12
907.324	2.12
908.058	2.12
908.792	-0.88
909.525	3.12
910.259	1.12
910.992	2.12
911.726	-0.88
912.459	1.12
913.192	0.12
913.925	2.12
914.658	3.12
915.391	0.12
916.124	1.12
916.857	3.12
917.59	-1.88
918.323	1.12
919.055	4.12
919.788	1.12
920.521	1.12
921.253	1.12
921.985	2.12
922.718	-0.88
923.45	3.12
924.182	1.12
924.914	1.12
925.646	0.12
926.378	-0.88
927.11	3.12
927.841	-0.88
928.573	1.12
929.305	0.12
930.036	0.12
930.768	-0.88
931.499	2.12
932.23	1.12
932.962	3.12
933.693	0.12
934.424	2.12
935.155	-0.88
935.886	1.12
936.617	1.12
937.348	1.12
938.078	-1.88
938.809	0.12
939.54	1.12
940.27	1.12
941.001	0.12
941.731	3.12
942.461	1.12
943.191	2.12
943.922	1.12
944.652	2.12
945.382	-0.88
946.112	2.12
946.841	0.12
947.571	2.12
948.301	1.12
949.031	0.12
949.76	0.12
950.49	2.12
951.219	-0.88
951.948	2.12
952.678	0.12
953.407	1.12
954.136	1.12
954.865	-1.88
955.594	0.12
956.323	0.12
957.052	2.12
957.78	4.12
958.509	2.12
959.238	2.12
959.966	0.12
960.695	1.12
961.423	-0.88
962.151	2.12
962.88	1.12
963.608	1.12
964.336	0.12
965.064	1.12
965.792	1.12
966.52	1.12
967.247	3.12
967.975	1.12
968.703	-0.88
969.43	-0.88
970.158	-0.88
970.885	-0.88
971.613	0.12
972.34	1.12
973.067	-0.88
973.794	1.12
974.521	1.12
975.248	0.12
975.975	-0.88
976.702	1.12
977.429	1.12
978.156	-0.88
978.882	0.12
979.609	0.12
980.335	2.12
981.062	0.12
981.788	1.12
982.514	3.12
983.24	-2.88
983.967	1.12
984.693	0.12
985.419	1.12
986.144	0.12
986.87	-0.88
987.596	3.12
988.322	-0.88
989.047	0.12
989.773	1.12
990.498	-1.88
991.224	1.12
991.949	-0.88
992.674	1.12
993.399	-0.88
994.124	3.12
994.849	-2.88
995.574	3.12
996.299	-0.88
997.024	0.12
997.749	0.12
998.473	0.12
999.198	-0.88
999.922	2.12
1000.647	-1.88
1001.371	3.12
1002.095	-2.88
1002.82	0.12
1003.544	-0.88
1004.268	5.12
1004.992	2.12
1005.716	5.12
1006.439	2.12
1007.163	2.12
1007.887	6.12
1008.611	1.12
1009.334	1.12
1010.058	1.12
1010.781	-0.88
1011.504	0.12
1012.228	1.12
1012.951	1.12
1013.674	-1.88
1014.397	1.12
1015.12	0.12
