节点500_565_QEPB04081__378__09-56-42-353.txt的数据

Date: Thu Nov 13 09:56:42 CST 2025
User: PC
Spectrometer: QEPB0408
触发模式: 0
积分时间 (秒): 1.000000E-2
Scans to average: 1
启用暗噪声校正: true
启用非线性校正: false
滑动平均宽度: 0
X轴模式: Wavelengths
Number of Pixels in Spectrum: 1044
>>>>>Begin Spectral Data<<<<<
220.843	3.38
221.644	3.38
222.444	4.38
223.244	7.38
224.045	4.38
224.845	4.38
225.645	3.38
226.445	4.38
227.245	4.38
228.045	6.38
228.845	6.38
229.645	5.38
230.444	3.38
231.244	6.38
232.043	6.38
232.843	6.38
233.642	6.38
234.442	6.38
235.241	7.38
236.04	7.38
236.839	5.38
237.638	6.38
238.437	8.38
239.236	7.38
240.035	6.38
240.833	8.38
241.632	8.38
242.43	8.38
243.229	10.38
244.027	8.38
244.826	8.38
245.624	11.38
246.422	10.38
247.22	10.38
248.018	12.38
248.816	13.38
249.614	11.38
250.412	13.38
251.21	13.38
252.007	10.38
252.805	13.38
253.602	10.38
254.4	12.38
255.197	15.38
255.994	13.38
256.791	14.38
257.589	15.38
258.386	16.38
259.183	16.38
259.979	15.38
260.776	18.38
261.573	16.38
262.37	18.38
263.166	19.38
263.963	20.38
264.759	20.38
265.556	22.38
266.352	18.38
267.148	18.38
267.944	23.38
268.74	22.38
269.536	24.38
270.332	22.38
271.128	24.38
271.924	22.38
272.719	24.38
273.515	23.38
274.311	25.38
275.106	26.38
275.901	27.38
276.697	27.38
277.492	25.38
278.287	25.38
279.082	28.38
279.877	29.38
280.672	29.38
281.467	30.38
282.262	29.38
283.056	26.38
283.851	30.38
284.646	28.38
285.44	26.38
286.234	26.38
287.029	26.38
287.823	28.38
288.617	27.38
289.411	24.38
290.205	24.38
290.999	28.38
291.793	26.38
292.587	25.38
293.381	26.38
294.174	24.38
294.968	24.38
295.761	23.38
296.555	21.38
297.348	24.38
298.141	22.38
298.935	23.38
299.728	23.38
300.521	20.38
301.314	22.38
302.107	20.38
302.899	18.38
303.692	17.38
304.485	19.38
305.277	17.38
306.07	19.38
306.862	18.38
307.655	18.38
308.447	15.38
309.239	17.38
310.031	19.38
310.823	15.38
311.615	16.38
312.407	12.38
313.199	16.38
313.991	13.38
314.783	15.38
315.574	12.38
316.366	11.38
317.157	12.38
317.949	12.38
318.74	11.38
319.531	12.38
320.322	9.38
321.113	11.38
321.904	12.38
322.695	11.38
323.486	11.38
324.277	13.38
325.068	13.38
325.858	11.38
326.649	11.38
327.439	9.38
328.23	10.38
329.02	11.38
329.81	11.38
330.6	8.38
331.391	7.38
332.181	10.38
332.971	10.38
333.76	9.38
334.55	11.38
335.34	9.38
336.13	10.38
336.919	10.38
337.709	10.38
338.498	9.38
339.287	10.38
340.077	9.38
340.866	8.38
341.655	8.38
342.444	10.38
343.233	7.38
344.022	7.38
344.811	10.38
345.6	8.38
346.388	5.38
347.177	9.38
347.965	10.38
348.754	11.38
349.542	10.38
350.33	8.38
351.119	8.38
351.907	9.38
352.695	9.38
353.483	10.38
354.271	7.38
355.059	8.38
355.846	10.38
356.634	9.38
357.422	8.38
358.209	10.38
358.997	7.38
359.784	8.38
360.571	9.38
361.359	9.38
362.146	8.38
362.933	7.38
363.72	9.38
364.507	6.38
365.294	9.38
366.081	8.38
366.867	9.38
367.654	7.38
368.44	6.38
369.227	8.38
370.013	5.38
370.8	6.38
371.586	6.38
372.372	10.38
373.158	5.38
373.944	8.38
374.73	7.38
375.516	8.38
376.302	9.38
377.088	10.38
377.873	8.38
378.659	7.38
379.445	6.38
380.23	8.38
381.015	6.38
381.801	6.38
382.586	8.38
383.371	8.38
384.156	8.38
384.941	6.38
385.726	10.38
386.511	7.38
387.296	10.38
388.08	7.38
388.865	8.38
389.649	8.38
390.434	9.38
391.218	8.38
392.003	8.38
392.787	7.38
393.571	9.38
394.355	9.38
395.139	9.38
395.923	10.38
396.707	9.38
397.491	12.38
398.274	10.38
399.058	11.38
399.842	9.38
400.625	9.38
401.408	11.38
402.192	13.38
402.975	9.38
403.758	12.38
404.541	13.38
405.324	12.38
406.107	10.38
406.89	14.38
407.673	12.38
408.456	10.38
409.238	11.38
410.021	11.38
410.803	12.38
411.586	13.38
412.368	16.38
413.151	13.38
413.933	15.38
414.715	15.38
415.497	15.38
416.279	14.38
417.061	13.38
417.843	16.38
418.624	16.38
419.406	18.38
420.188	16.38
420.969	15.38
421.751	18.38
422.532	16.38
423.313	16.38
424.095	20.38
424.876	16.38
425.657	23.38
426.438	24.38
427.219	21.38
428	20.38
428.78	23.38
429.561	28.38
430.342	25.38
431.122	23.38
431.903	23.38
432.683	26.38
433.464	27.38
434.244	29.38
435.024	30.38
435.804	29.38
436.584	32.38
437.364	35.38
438.144	37.38
438.924	40.38
439.704	39.38
440.483	45.38
441.263	50.38
442.042	49.38
442.822	49.38
443.601	55.38
444.38	64.38
445.16	65.38
445.939	71.38
446.718	78.38
447.497	87.38
448.276	92.38
449.054	103.38
449.833	109.38
450.612	125.38
451.391	133.38
452.169	150.38
452.948	167.38
453.726	183.38
454.504	201.38
455.282	220.38
456.061	252.38
456.839	272.38
457.617	314.38
458.395	338.38
459.172	386.38
459.95	431.38
460.728	480.38
461.506	525.38
462.283	597.38
463.061	668.38
463.838	745.38
464.615	819.38
465.393	919.38
466.17	1009.38
466.947	1129.38
467.724	1259.38
468.501	1377.38
469.278	1535.38
470.055	1686.38
470.831	1870.38
471.608	2090.38
472.385	2305.38
473.161	2528.38
473.938	2778.38
474.714	3037.38
475.49	3350.38
476.266	3668.38
477.043	4043.38
477.819	4417.38
478.595	4830.38
479.371	5266.38
480.146	5754.38
480.922	6287.38
481.698	6834.38
482.473	7432.38
483.249	8062.38
484.024	8796.38
484.8	9580.38
485.575	10388.38
486.35	11212.38
487.126	12203.38
487.901	13228.38
488.676	14296.38
489.451	15467.38
490.225	16746.38
491	18013.38
491.775	19303.38
492.55	20714.38
493.324	22162.38
494.099	23635.38
494.873	25190.38
495.647	26792.38
496.422	28329.38
497.196	29900.38
497.97	31372.38
498.744	32819.38
499.518	34076.38
500.292	35447.38
501.066	36610.38
501.839	37653.38
502.613	38601.38
503.387	39270.38
504.16	39947.38
504.934	40218.38
505.707	40401.38
506.48	40296.38
507.253	40088.38
508.027	39608.38
508.8	38964.38
509.573	38211.38
510.346	37323.38
511.118	36245.38
511.891	35368.38
512.664	34167.38
513.437	33002.38
514.209	31725.38
514.982	30558.38
515.754	29387.38
516.526	28109.38
517.298	26982.38
518.071	26025.38
518.843	24915.38
519.615	23930.38
520.387	22959.38
521.159	22121.38
521.93	21153.38
522.702	20274.38
523.474	19434.38
524.245	18697.38
525.017	17920.38
525.788	17168.38
526.56	16397.38
527.331	15641.38
528.102	15004.38
528.873	14241.38
529.644	13533.38
530.415	12897.38
531.186	12232.38
531.957	11616.38
532.728	11091.38
533.498	10523.38
534.269	9902.38
535.039	9390.38
535.81	8910.38
536.58	8424.38
537.351	7998.38
538.121	7520.38
538.891	7105.38
539.661	6730.38
540.431	6389.38
541.201	6042.38
541.971	5750.38
542.741	5420.38
543.51	5140.38
544.28	4899.38
545.05	4642.38
545.819	4403.38
546.588	4200.38
547.358	3997.38
548.127	3810.38
548.896	3602.38
549.665	3418.38
550.434	3256.38
551.203	3104.38
551.972	2933.38
552.741	2754.38
553.51	2615.38
554.278	2462.38
555.047	2336.38
555.815	2209.38
556.584	2100.38
557.352	1978.38
558.121	1883.38
558.889	1768.38
559.657	1657.38
560.425	1567.38
561.193	1490.38
561.961	1406.38
562.729	1335.38
563.496	1268.38
564.264	1210.38
565.032	1135.38
565.799	1075.38
566.567	1021.38
567.334	950.38
568.101	894.38
568.869	852.38
569.636	809.38
570.403	756.38
571.17	722.38
571.937	678.38
572.704	641.38
573.471	599.38
574.237	572.38
575.004	538.38
575.771	509.38
576.537	488.38
577.303	455.38
578.07	431.38
578.836	396.38
579.602	370.38
580.368	355.38
581.134	342.38
581.9	326.38
582.666	305.38
583.432	289.38
584.198	264.38
584.964	260.38
585.729	251.38
586.495	227.38
587.26	225.38
588.025	210.38
588.791	196.38
589.556	192.38
590.321	182.38
591.086	169.38
591.851	165.38
592.616	161.38
593.381	149.38
594.146	141.38
594.911	135.38
595.675	127.38
596.44	124.38
597.204	117.38
597.969	106.38
598.733	109.38
599.497	105.38
600.261	99.38
601.025	92.38
601.79	91.38
602.553	87.38
603.317	82.38
604.081	79.38
604.845	74.38
605.609	73.38
606.372	67.38
607.136	66.38
607.899	60.38
608.662	63.38
609.426	58.38
610.189	55.38
610.952	56.38
611.715	56.38
612.478	51.38
613.241	49.38
614.004	48.38
614.767	44.38
615.529	43.38
616.292	45.38
617.055	42.38
617.817	42.38
618.579	42.38
619.342	38.38
620.104	33.38
620.866	32.38
621.628	33.38
622.39	32.38
623.152	32.38
623.914	32.38
624.676	29.38
625.438	29.38
626.199	27.38
626.961	24.38
627.722	22.38
628.484	25.38
629.245	24.38
630.006	21.38
630.768	19.38
631.529	22.38
632.29	24.38
633.051	19.38
633.812	20.38
634.573	18.38
635.333	16.38
636.094	17.38
636.855	18.38
637.615	19.38
638.376	16.38
639.136	16.38
639.896	16.38
640.657	16.38
641.417	13.38
642.177	16.38
642.937	13.38
643.697	15.38
644.457	16.38
645.216	13.38
645.976	11.38
646.736	15.38
647.495	13.38
648.255	13.38
649.014	11.38
649.774	11.38
650.533	12.38
651.292	11.38
652.051	10.38
652.81	12.38
653.569	10.38
654.328	11.38
655.087	8.38
655.846	12.38
656.604	10.38
657.363	6.38
658.121	9.38
658.88	9.38
659.638	10.38
660.397	8.38
661.155	9.38
661.913	8.38
662.671	7.38
663.429	9.38
664.187	8.38
664.945	8.38
665.703	11.38
666.46	7.38
667.218	6.38
667.976	7.38
668.733	10.38
669.49	6.38
670.248	8.38
671.005	7.38
671.762	6.38
672.519	8.38
673.276	8.38
674.033	9.38
674.79	6.38
675.547	6.38
676.304	7.38
677.06	7.38
677.817	8.38
678.574	5.38
679.33	8.38
680.086	4.38
680.843	5.38
681.599	7.38
682.355	5.38
683.111	6.38
683.867	10.38
684.623	6.38
685.379	8.38
686.135	6.38
686.89	5.38
687.646	7.38
688.402	8.38
689.157	4.38
689.912	6.38
690.668	4.38
691.423	7.38
692.178	4.38
692.933	6.38
693.688	6.38
694.443	5.38
695.198	5.38
695.953	6.38
696.708	8.38
697.462	6.38
698.217	5.38
698.972	6.38
699.726	4.38
700.48	6.38
701.235	6.38
701.989	6.38
702.743	6.38
703.497	8.38
704.251	6.38
705.005	4.38
705.759	6.38
706.513	6.38
707.266	6.38
708.02	4.38
708.774	5.38
709.527	6.38
710.28	5.38
711.034	6.38
711.787	4.38
712.54	6.38
713.293	7.38
714.046	6.38
714.799	3.38
715.552	5.38
716.305	5.38
717.058	6.38
717.81	6.38
718.563	6.38
719.315	6.38
720.068	4.38
720.82	6.38
721.573	8.38
722.325	6.38
723.077	6.38
723.829	7.38
724.581	6.38
725.333	6.38
726.085	5.38
726.836	8.38
727.588	6.38
728.34	6.38
729.091	3.38
729.843	6.38
730.594	7.38
731.346	6.38
732.097	8.38
732.848	7.38
733.599	4.38
734.35	8.38
735.101	6.38
735.852	6.38
736.603	8.38
737.354	6.38
738.104	7.38
738.855	8.38
739.605	8.38
740.356	9.38
741.106	6.38
741.856	8.38
742.607	8.38
743.357	6.38
744.107	8.38
744.857	6.38
745.607	9.38
746.357	8.38
747.106	8.38
747.856	8.38
748.606	8.38
749.355	8.38
750.105	7.38
750.854	8.38
751.603	12.38
752.353	9.38
753.102	8.38
753.851	8.38
754.6	9.38
755.349	6.38
756.098	9.38
756.847	10.38
757.595	8.38
758.344	9.38
759.093	12.38
759.841	10.38
760.589	6.38
761.338	8.38
762.086	7.38
762.834	10.38
763.582	9.38
764.331	11.38
765.079	8.38
765.826	12.38
766.574	10.38
767.322	10.38
768.07	12.38
768.817	10.38
769.565	10.38
770.312	12.38
771.06	9.38
771.807	11.38
772.554	9.38
773.302	10.38
774.049	11.38
774.796	12.38
775.543	13.38
776.29	13.38
777.036	14.38
777.783	10.38
778.53	13.38
779.276	10.38
780.023	13.38
780.769	12.38
781.516	11.38
782.262	12.38
783.008	14.38
783.754	13.38
784.5	16.38
785.246	14.38
785.992	13.38
786.738	12.38
787.484	12.38
788.23	12.38
788.975	12.38
789.721	11.38
790.466	15.38
791.212	11.38
791.957	8.38
792.702	10.38
793.447	11.38
794.193	13.38
794.938	11.38
795.683	10.38
796.427	11.38
797.172	12.38
797.917	11.38
798.662	10.38
799.406	10.38
800.151	8.38
800.895	11.38
801.64	9.38
802.384	8.38
803.128	11.38
803.872	8.38
804.616	7.38
805.36	10.38
806.104	9.38
806.848	10.38
807.592	8.38
808.336	10.38
809.079	6.38
809.823	7.38
810.566	6.38
811.31	7.38
812.053	8.38
812.796	9.38
813.539	7.38
814.283	5.38
815.026	7.38
815.769	6.38
816.511	6.38
817.254	7.38
817.997	6.38
818.74	8.38
819.482	4.38
820.225	5.38
820.967	8.38
821.71	6.38
822.452	7.38
823.194	6.38
823.936	5.38
824.678	5.38
825.42	6.38
826.162	3.38
826.904	5.38
827.646	4.38
828.388	5.38
829.129	5.38
829.871	4.38
830.612	6.38
831.354	4.38
832.095	6.38
832.836	4.38
833.577	6.38
834.319	3.38
835.06	5.38
835.801	4.38
836.542	4.38
837.282	5.38
838.023	5.38
838.764	7.38
839.504	4.38
840.245	5.38
840.985	4.38
841.726	4.38
842.466	6.38
843.206	6.38
843.946	5.38
844.687	2.38
845.427	4.38
846.166	3.38
846.906	5.38
847.646	5.38
848.386	2.38
849.125	2.38
849.865	5.38
850.605	3.38
851.344	4.38
852.083	4.38
852.823	4.38
853.562	1.38
854.301	4.38
855.04	3.38
855.779	3.38
856.518	3.38
857.257	2.38
857.995	3.38
858.734	2.38
859.473	0.38
860.211	0.38
860.95	2.38
861.688	5.38
862.426	2.38
863.165	2.38
863.903	1.38
864.641	2.38
865.379	2.38
866.117	1.38
866.855	2.38
867.593	2.38
868.33	0.38
869.068	1.38
869.806	1.38
870.543	2.38
871.28	1.38
872.018	2.38
872.755	0.38
873.492	2.38
874.229	0.38
874.967	2.38
875.703	2.38
876.44	1.38
877.177	1.38
877.914	0.38
878.651	1.38
879.387	-0.62
880.124	1.38
880.86	0.38
881.597	1.38
882.333	1.38
883.069	0.38
883.806	1.38
884.542	1.38
885.278	0.38
886.014	0.38
886.749	1.38
887.485	0.38
888.221	2.38
888.957	-1.62
889.692	0.38
890.428	1.38
891.163	-0.62
891.899	0.38
892.634	0.38
893.369	1.38
894.104	0.38
894.839	1.38
895.574	2.38
896.309	2.38
897.044	0.38
897.779	0.38
898.514	2.38
899.248	0.38
899.983	-0.62
900.717	0.38
901.452	-1.62
902.186	1.38
902.92	-0.62
903.654	0.38
904.389	-1.62
905.123	0.38
905.857	3.38
906.59	1.38
907.324	1.38
908.058	0.38
908.792	0.38
909.525	1.38
910.259	0.38
910.992	1.38
911.726	0.38
912.459	2.38
913.192	0.38
913.925	0.38
914.658	0.38
915.391	-0.62
916.124	1.38
916.857	0.38
917.59	2.38
918.323	0.38
919.055	1.38
919.788	-2.62
920.521	1.38
921.253	-0.62
921.985	0.38
922.718	0.38
923.45	0.38
924.182	0.38
924.914	1.38
925.646	-0.62
926.378	-0.62
927.11	0.38
927.841	-0.62
928.573	0.38
929.305	0.38
930.036	-0.62
930.768	-1.62
931.499	0.38
932.23	1.38
932.962	0.38
933.693	-0.62
934.424	0.38
935.155	-0.62
935.886	1.38
936.617	0.38
937.348	-0.62
938.078	1.38
938.809	0.38
939.54	0.38
940.27	0.38
941.001	1.38
941.731	0.38
942.461	-0.62
943.191	0.38
943.922	-2.62
944.652	0.38
945.382	0.38
946.112	-0.62
946.841	0.38
947.571	-0.62
948.301	1.38
949.031	-2.62
949.76	0.38
950.49	0.38
951.219	1.38
951.948	1.38
952.678	-1.62
953.407	-0.62
954.136	-0.62
954.865	0.38
955.594	-1.62
956.323	0.38
957.052	-2.62
957.78	1.38
958.509	0.38
959.238	0.38
959.966	0.38
960.695	0.38
961.423	1.38
962.151	-0.62
962.88	0.38
963.608	-0.62
964.336	-0.62
965.064	-0.62
965.792	0.38
966.52	0.38
967.247	0.38
967.975	-0.62
968.703	0.38
969.43	-0.62
970.158	0.38
970.885	-2.62
971.613	0.38
972.34	-1.62
973.067	0.38
973.794	-1.62
974.521	0.38
975.248	0.38
975.975	-0.62
976.702	0.38
977.429	1.38
978.156	-1.62
978.882	-1.62
979.609	0.38
980.335	0.38
981.062	0.38
981.788	-0.62
982.514	-0.62
983.24	-0.62
983.967	-0.62
984.693	1.38
985.419	0.38
986.144	-1.62
986.87	-0.62
987.596	0.38
988.322	0.38
989.047	-0.62
989.773	-0.62
990.498	0.38
991.224	-0.62
991.949	1.38
992.674	-1.62
993.399	-0.62
994.124	-0.62
994.849	2.38
995.574	0.38
996.299	1.38
997.024	0.38
997.749	0.38
998.473	-1.62
999.198	-0.62
999.922	0.38
1000.647	-1.62
1001.371	3.38
1002.095	-2.62
1002.82	0.38
1003.544	-1.62
1004.268	2.38
1004.992	5.38
1005.716	4.38
1006.439	2.38
1007.163	2.38
1007.887	5.38
1008.611	-1.62
1009.334	1.38
1010.058	-1.62
1010.781	-0.62
1011.504	-2.62
1012.228	-0.62
1012.951	0.38
1013.674	-0.62
1014.397	1.38
1015.12	-0.62
