节点500_565_QEPB04081__171__09-53-15-923.txt的数据

Date: Thu Nov 13 09:53:15 CST 2025
User: PC
Spectrometer: QEPB0408
触发模式: 0
积分时间 (秒): 1.000000E-2
Scans to average: 1
启用暗噪声校正: true
启用非线性校正: false
滑动平均宽度: 0
X轴模式: Wavelengths
Number of Pixels in Spectrum: 1044
>>>>>Begin Spectral Data<<<<<
220.843	6.38
221.644	4.38
222.444	5.38
223.244	6.38
224.045	5.38
224.845	6.38
225.645	6.38
226.445	4.38
227.245	5.38
228.045	5.38
228.845	5.38
229.645	8.38
230.444	6.38
231.244	5.38
232.043	6.38
232.843	6.38
233.642	6.38
234.442	8.38
235.241	8.38
236.04	7.38
236.839	6.38
237.638	10.38
238.437	8.38
239.236	8.38
240.035	8.38
240.833	6.38
241.632	8.38
242.43	8.38
243.229	11.38
244.027	9.38
244.826	8.38
245.624	9.38
246.422	10.38
247.22	15.38
248.018	12.38
248.816	14.38
249.614	15.38
250.412	13.38
251.21	15.38
252.007	15.38
252.805	14.38
253.602	13.38
254.4	16.38
255.197	16.38
255.994	14.38
256.791	15.38
257.589	17.38
258.386	18.38
259.183	16.38
259.979	17.38
260.776	20.38
261.573	20.38
262.37	22.38
263.166	19.38
263.963	22.38
264.759	21.38
265.556	21.38
266.352	22.38
267.148	25.38
267.944	26.38
268.74	26.38
269.536	25.38
270.332	23.38
271.128	26.38
271.924	27.38
272.719	29.38
273.515	29.38
274.311	28.38
275.106	27.38
275.901	28.38
276.697	27.38
277.492	30.38
278.287	31.38
279.082	28.38
279.877	29.38
280.672	30.38
281.467	29.38
282.262	34.38
283.056	31.38
283.851	30.38
284.646	30.38
285.44	31.38
286.234	28.38
287.029	27.38
287.823	30.38
288.617	27.38
289.411	31.38
290.205	28.38
290.999	27.38
291.793	29.38
292.587	27.38
293.381	27.38
294.174	29.38
294.968	25.38
295.761	22.38
296.555	23.38
297.348	23.38
298.141	24.38
298.935	25.38
299.728	22.38
300.521	22.38
301.314	21.38
302.107	19.38
302.899	19.38
303.692	20.38
304.485	24.38
305.277	17.38
306.07	20.38
306.862	19.38
307.655	18.38
308.447	20.38
309.239	19.38
310.031	18.38
310.823	16.38
311.615	17.38
312.407	15.38
313.199	14.38
313.991	13.38
314.783	13.38
315.574	16.38
316.366	12.38
317.157	14.38
317.949	12.38
318.74	10.38
319.531	12.38
320.322	9.38
321.113	14.38
321.904	12.38
322.695	12.38
323.486	11.38
324.277	10.38
325.068	10.38
325.858	10.38
326.649	10.38
327.439	12.38
328.23	11.38
329.02	11.38
329.81	10.38
330.6	11.38
331.391	9.38
332.181	10.38
332.971	8.38
333.76	9.38
334.55	11.38
335.34	13.38
336.13	10.38
336.919	9.38
337.709	9.38
338.498	9.38
339.287	11.38
340.077	10.38
340.866	11.38
341.655	10.38
342.444	7.38
343.233	7.38
344.022	11.38
344.811	9.38
345.6	10.38
346.388	10.38
347.177	9.38
347.965	8.38
348.754	8.38
349.542	10.38
350.33	10.38
351.119	10.38
351.907	10.38
352.695	9.38
353.483	8.38
354.271	11.38
355.059	9.38
355.846	10.38
356.634	8.38
357.422	7.38
358.209	8.38
358.997	8.38
359.784	8.38
360.571	10.38
361.359	11.38
362.146	8.38
362.933	8.38
363.72	10.38
364.507	8.38
365.294	7.38
366.081	9.38
366.867	9.38
367.654	9.38
368.44	8.38
369.227	7.38
370.013	8.38
370.8	8.38
371.586	6.38
372.372	7.38
373.158	6.38
373.944	8.38
374.73	9.38
375.516	8.38
376.302	8.38
377.088	9.38
377.873	8.38
378.659	9.38
379.445	9.38
380.23	9.38
381.015	4.38
381.801	9.38
382.586	5.38
383.371	12.38
384.156	8.38
384.941	9.38
385.726	9.38
386.511	9.38
387.296	8.38
388.08	8.38
388.865	10.38
389.649	10.38
390.434	9.38
391.218	10.38
392.003	9.38
392.787	11.38
393.571	9.38
394.355	9.38
395.139	12.38
395.923	9.38
396.707	10.38
397.491	8.38
398.274	11.38
399.058	9.38
399.842	12.38
400.625	13.38
401.408	11.38
402.192	13.38
402.975	13.38
403.758	13.38
404.541	10.38
405.324	11.38
406.107	11.38
406.89	13.38
407.673	12.38
408.456	15.38
409.238	12.38
410.021	13.38
410.803	12.38
411.586	11.38
412.368	14.38
413.151	14.38
413.933	15.38
414.715	14.38
415.497	15.38
416.279	13.38
417.061	15.38
417.843	17.38
418.624	16.38
419.406	18.38
420.188	18.38
420.969	14.38
421.751	18.38
422.532	16.38
423.313	17.38
424.095	20.38
424.876	20.38
425.657	22.38
426.438	23.38
427.219	24.38
428	24.38
428.78	24.38
429.561	23.38
430.342	22.38
431.122	24.38
431.903	24.38
432.683	28.38
433.464	28.38
434.244	32.38
435.024	32.38
435.804	32.38
436.584	32.38
437.364	36.38
438.144	36.38
438.924	42.38
439.704	41.38
440.483	43.38
441.263	44.38
442.042	48.38
442.822	56.38
443.601	53.38
444.38	59.38
445.16	65.38
445.939	68.38
446.718	75.38
447.497	85.38
448.276	88.38
449.054	100.38
449.833	105.38
450.612	115.38
451.391	121.38
452.169	140.38
452.948	154.38
453.726	167.38
454.504	189.38
455.282	207.38
456.061	237.38
456.839	255.38
457.617	289.38
458.395	316.38
459.172	359.38
459.95	403.38
460.728	447.38
461.506	499.38
462.283	550.38
463.061	622.38
463.838	702.38
464.615	776.38
465.393	863.38
466.17	983.38
466.947	1075.38
467.724	1219.38
468.501	1342.38
469.278	1496.38
470.055	1659.38
470.831	1846.38
471.608	2059.38
472.385	2274.38
473.161	2514.38
473.938	2788.38
474.714	3036.38
475.49	3380.38
476.266	3726.38
477.043	4136.38
477.819	4538.38
478.595	4961.38
479.371	5466.38
480.146	5982.38
480.922	6569.38
481.698	7170.38
482.473	7865.38
483.249	8614.38
484.024	9415.38
484.8	10283.38
485.575	11222.38
486.35	12190.38
487.126	13264.38
487.901	14462.38
488.676	15745.38
489.451	17038.38
490.225	18446.38
491	19939.38
491.775	21431.38
492.55	23074.38
493.324	24656.38
494.099	26282.38
494.873	28051.38
495.647	29803.38
496.422	31533.38
497.196	33235.38
497.97	34753.38
498.744	36380.38
499.518	37720.38
500.292	38953.38
501.066	40236.38
501.839	41143.38
502.613	41890.38
503.387	42520.38
504.16	42929.38
504.934	42988.38
505.707	42820.38
506.48	42562.38
507.253	42078.38
508.027	41258.38
508.8	40419.38
509.573	39264.38
510.346	38197.38
511.118	37026.38
511.891	35793.38
512.664	34431.38
513.437	33058.38
514.209	31693.38
514.982	30400.38
515.754	29129.38
516.526	27973.38
517.298	26784.38
518.071	25642.38
518.843	24611.38
519.615	23548.38
520.387	22608.38
521.159	21768.38
521.93	20835.38
522.702	20010.38
523.474	19206.38
524.245	18410.38
525.017	17708.38
525.788	16822.38
526.56	16015.38
527.331	15314.38
528.102	14622.38
528.873	13828.38
529.644	13134.38
530.415	12456.38
531.186	11783.38
531.957	11259.38
532.728	10646.38
533.498	10039.38
534.269	9508.38
535.039	8967.38
535.81	8509.38
536.58	8062.38
537.351	7628.38
538.121	7155.38
538.891	6805.38
539.661	6462.38
540.431	6090.38
541.201	5786.38
541.971	5466.38
542.741	5205.38
543.51	4902.38
544.28	4684.38
545.05	4461.38
545.819	4229.38
546.588	4004.38
547.358	3799.38
548.127	3636.38
548.896	3460.38
549.665	3273.38
550.434	3101.38
551.203	2948.38
551.972	2785.38
552.741	2621.38
553.51	2473.38
554.278	2323.38
555.047	2199.38
555.815	2089.38
556.584	1968.38
557.352	1873.38
558.121	1770.38
558.889	1656.38
559.657	1564.38
560.425	1478.38
561.193	1404.38
561.961	1326.38
562.729	1248.38
563.496	1179.38
564.264	1119.38
565.032	1065.38
565.799	999.38
566.567	946.38
567.334	900.38
568.101	845.38
568.869	805.38
569.636	758.38
570.403	718.38
571.17	678.38
571.937	637.38
572.704	602.38
573.471	559.38
574.237	530.38
575.004	505.38
575.771	471.38
576.537	450.38
577.303	424.38
578.07	400.38
578.836	369.38
579.602	354.38
580.368	336.38
581.134	316.38
581.9	303.38
582.666	281.38
583.432	270.38
584.198	254.38
584.964	248.38
585.729	228.38
586.495	217.38
587.26	211.38
588.025	196.38
588.791	183.38
589.556	177.38
590.321	170.38
591.086	159.38
591.851	153.38
592.616	147.38
593.381	138.38
594.146	130.38
594.911	123.38
595.675	116.38
596.44	117.38
597.204	112.38
597.969	109.38
598.733	103.38
599.497	96.38
600.261	91.38
601.025	91.38
601.79	89.38
602.553	79.38
603.317	81.38
604.081	75.38
604.845	75.38
605.609	67.38
606.372	68.38
607.136	61.38
607.899	61.38
608.662	58.38
609.426	56.38
610.189	56.38
610.952	50.38
611.715	53.38
612.478	50.38
613.241	44.38
614.004	45.38
614.767	43.38
615.529	43.38
616.292	40.38
617.055	38.38
617.817	36.38
618.579	38.38
619.342	33.38
620.104	39.38
620.866	34.38
621.628	34.38
622.39	32.38
623.152	29.38
623.914	31.38
624.676	27.38
625.438	28.38
626.199	25.38
626.961	25.38
627.722	25.38
628.484	22.38
629.245	26.38
630.006	23.38
630.768	24.38
631.529	23.38
632.29	21.38
633.051	20.38
633.812	17.38
634.573	20.38
635.333	17.38
636.094	22.38
636.855	19.38
637.615	17.38
638.376	18.38
639.136	18.38
639.896	16.38
640.657	16.38
641.417	14.38
642.177	17.38
642.937	13.38
643.697	13.38
644.457	14.38
645.216	15.38
645.976	12.38
646.736	12.38
647.495	14.38
648.255	13.38
649.014	12.38
649.774	10.38
650.533	13.38
651.292	11.38
652.051	12.38
652.81	11.38
653.569	10.38
654.328	9.38
655.087	11.38
655.846	11.38
656.604	8.38
657.363	14.38
658.121	10.38
658.88	10.38
659.638	10.38
660.397	9.38
661.155	11.38
661.913	10.38
662.671	10.38
663.429	6.38
664.187	10.38
664.945	8.38
665.703	8.38
666.46	9.38
667.218	10.38
667.976	10.38
668.733	7.38
669.49	9.38
670.248	6.38
671.005	7.38
671.762	8.38
672.519	5.38
673.276	9.38
674.033	7.38
674.79	7.38
675.547	4.38
676.304	6.38
677.06	8.38
677.817	7.38
678.574	8.38
679.33	4.38
680.086	10.38
680.843	7.38
681.599	8.38
682.355	6.38
683.111	7.38
683.867	6.38
684.623	4.38
685.379	6.38
686.135	6.38
686.89	6.38
687.646	7.38
688.402	6.38
689.157	8.38
689.912	7.38
690.668	6.38
691.423	4.38
692.178	6.38
692.933	6.38
693.688	5.38
694.443	6.38
695.198	6.38
695.953	4.38
696.708	7.38
697.462	6.38
698.217	7.38
698.972	6.38
699.726	5.38
700.48	7.38
701.235	6.38
701.989	5.38
702.743	6.38
703.497	6.38
704.251	5.38
705.005	8.38
705.759	6.38
706.513	5.38
707.266	7.38
708.02	6.38
708.774	6.38
709.527	6.38
710.28	6.38
711.034	6.38
711.787	8.38
712.54	6.38
713.293	4.38
714.046	7.38
714.799	4.38
715.552	6.38
716.305	7.38
717.058	6.38
717.81	6.38
718.563	8.38
719.315	6.38
720.068	4.38
720.82	6.38
721.573	7.38
722.325	9.38
723.077	7.38
723.829	5.38
724.581	6.38
725.333	6.38
726.085	7.38
726.836	7.38
727.588	8.38
728.34	6.38
729.091	8.38
729.843	6.38
730.594	5.38
731.346	8.38
732.097	7.38
732.848	10.38
733.599	6.38
734.35	7.38
735.101	8.38
735.852	6.38
736.603	8.38
737.354	5.38
738.104	9.38
738.855	7.38
739.605	9.38
740.356	6.38
741.106	7.38
741.856	10.38
742.607	6.38
743.357	11.38
744.107	7.38
744.857	7.38
745.607	9.38
746.357	10.38
747.106	10.38
747.856	10.38
748.606	7.38
749.355	9.38
750.105	8.38
750.854	10.38
751.603	8.38
752.353	10.38
753.102	8.38
753.851	8.38
754.6	10.38
755.349	9.38
756.098	12.38
756.847	8.38
757.595	10.38
758.344	9.38
759.093	10.38
759.841	10.38
760.589	9.38
761.338	12.38
762.086	13.38
762.834	10.38
763.582	11.38
764.331	11.38
765.079	11.38
765.826	11.38
766.574	9.38
767.322	12.38
768.07	10.38
768.817	11.38
769.565	12.38
770.312	13.38
771.06	12.38
771.807	12.38
772.554	12.38
773.302	14.38
774.049	11.38
774.796	12.38
775.543	11.38
776.29	11.38
777.036	11.38
777.783	12.38
778.53	13.38
779.276	12.38
780.023	13.38
780.769	13.38
781.516	15.38
782.262	14.38
783.008	12.38
783.754	14.38
784.5	15.38
785.246	12.38
785.992	12.38
786.738	14.38
787.484	15.38
788.23	16.38
788.975	14.38
789.721	12.38
790.466	14.38
791.212	13.38
791.957	14.38
792.702	12.38
793.447	12.38
794.193	12.38
794.938	12.38
795.683	12.38
796.427	12.38
797.172	12.38
797.917	10.38
798.662	11.38
799.406	12.38
800.151	11.38
800.895	12.38
801.64	11.38
802.384	11.38
803.128	9.38
803.872	11.38
804.616	10.38
805.36	6.38
806.104	9.38
806.848	10.38
807.592	9.38
808.336	10.38
809.079	12.38
809.823	6.38
810.566	8.38
811.31	9.38
812.053	7.38
812.796	8.38
813.539	6.38
814.283	10.38
815.026	8.38
815.769	7.38
816.511	7.38
817.254	4.38
817.997	4.38
818.74	8.38
819.482	8.38
820.225	6.38
820.967	6.38
821.71	4.38
822.452	4.38
823.194	6.38
823.936	8.38
824.678	8.38
825.42	9.38
826.162	7.38
826.904	6.38
827.646	4.38
828.388	8.38
829.129	7.38
829.871	6.38
830.612	6.38
831.354	6.38
832.095	6.38
832.836	6.38
833.577	4.38
834.319	6.38
835.06	4.38
835.801	5.38
836.542	2.38
837.282	4.38
838.023	4.38
838.764	6.38
839.504	6.38
840.245	5.38
840.985	4.38
841.726	5.38
842.466	5.38
843.206	4.38
843.946	4.38
844.687	4.38
845.427	5.38
846.166	4.38
846.906	4.38
847.646	5.38
848.386	5.38
849.125	1.38
849.865	2.38
850.605	4.38
851.344	4.38
852.083	5.38
852.823	3.38
853.562	4.38
854.301	4.38
855.04	3.38
855.779	3.38
856.518	5.38
857.257	2.38
857.995	2.38
858.734	1.38
859.473	3.38
860.211	0.38
860.95	2.38
861.688	0.38
862.426	4.38
863.165	2.38
863.903	3.38
864.641	3.38
865.379	1.38
866.117	2.38
866.855	4.38
867.593	3.38
868.33	3.38
869.068	2.38
869.806	0.38
870.543	3.38
871.28	2.38
872.018	2.38
872.755	3.38
873.492	0.38
874.229	2.38
874.967	2.38
875.703	0.38
876.44	0.38
877.177	-0.62
877.914	1.38
878.651	1.38
879.387	0.38
880.124	1.38
880.86	-0.62
881.597	2.38
882.333	2.38
883.069	2.38
883.806	2.38
884.542	-0.62
885.278	0.38
886.014	0.38
886.749	3.38
887.485	0.38
888.221	2.38
888.957	2.38
889.692	-0.62
890.428	-1.62
891.163	0.38
891.899	0.38
892.634	2.38
893.369	2.38
894.104	1.38
894.839	2.38
895.574	-0.62
896.309	0.38
897.044	1.38
897.779	2.38
898.514	-0.62
899.248	3.38
899.983	0.38
900.717	0.38
901.452	-0.62
902.186	-0.62
902.92	2.38
903.654	0.38
904.389	1.38
905.123	2.38
905.857	0.38
906.59	0.38
907.324	2.38
908.058	0.38
908.792	-0.62
909.525	-0.62
910.259	0.38
910.992	2.38
911.726	1.38
912.459	1.38
913.192	1.38
913.925	-0.62
914.658	0.38
915.391	0.38
916.124	-0.62
916.857	-0.62
917.59	-0.62
918.323	0.38
919.055	1.38
919.788	2.38
920.521	0.38
921.253	0.38
921.985	-1.62
922.718	0.38
923.45	-1.62
924.182	0.38
924.914	1.38
925.646	0.38
926.378	0.38
927.11	-0.62
927.841	2.38
928.573	1.38
929.305	0.38
930.036	1.38
930.768	0.38
931.499	1.38
932.23	0.38
932.962	2.38
933.693	-0.62
934.424	1.38
935.155	0.38
935.886	1.38
936.617	0.38
937.348	-0.62
938.078	-0.62
938.809	0.38
939.54	2.38
940.27	-0.62
941.001	1.38
941.731	0.38
942.461	0.38
943.191	0.38
943.922	-0.62
944.652	2.38
945.382	1.38
946.112	-0.62
946.841	-0.62
947.571	-0.62
948.301	1.38
949.031	-1.62
949.76	0.38
950.49	0.38
951.219	0.38
951.948	2.38
952.678	0.38
953.407	-0.62
954.136	-0.62
954.865	-0.62
955.594	-0.62
956.323	2.38
957.052	0.38
957.78	1.38
958.509	0.38
959.238	-2.62
959.966	0.38
960.695	-1.62
961.423	1.38
962.151	-1.62
962.88	-1.62
963.608	2.38
964.336	-1.62
965.064	-1.62
965.792	0.38
966.52	1.38
967.247	0.38
967.975	-0.62
968.703	1.38
969.43	-1.62
970.158	0.38
970.885	-2.62
971.613	0.38
972.34	0.38
973.067	0.38
973.794	-1.62
974.521	-0.62
975.248	0.38
975.975	-2.62
976.702	1.38
977.429	1.38
978.156	0.38
978.882	-0.62
979.609	0.38
980.335	-0.62
981.062	0.38
981.788	0.38
982.514	1.38
983.24	0.38
983.967	0.38
984.693	1.38
985.419	0.38
986.144	-2.62
986.87	1.38
987.596	-0.62
988.322	-0.62
989.047	1.38
989.773	-0.62
990.498	-1.62
991.224	1.38
991.949	0.38
992.674	-0.62
993.399	2.38
994.124	3.38
994.849	-0.62
995.574	1.38
996.299	0.38
997.024	2.38
997.749	2.38
998.473	-0.62
999.198	1.38
999.922	-0.62
1000.647	1.38
1001.371	0.38
1002.095	-1.62
1002.82	-0.62
1003.544	1.38
1004.268	5.38
1004.992	3.38
1005.716	4.38
1006.439	4.38
1007.163	4.38
1007.887	4.38
1008.611	-1.62
1009.334	0.38
1010.058	1.38
1010.781	0.38
1011.504	1.38
1012.228	0.38
1012.951	2.38
1013.674	-0.62
1014.397	-0.62
1015.12	-0.62
