节点500_565_QEPB04081__206__09-53-50-862.txt的数据

Date: Thu Nov 13 09:53:50 CST 2025
User: PC
Spectrometer: QEPB0408
触发模式: 0
积分时间 (秒): 1.000000E-2
Scans to average: 1
启用暗噪声校正: true
启用非线性校正: false
滑动平均宽度: 0
X轴模式: Wavelengths
Number of Pixels in Spectrum: 1044
>>>>>Begin Spectral Data<<<<<
220.843	4.38
221.644	4.38
222.444	3.38
223.244	6.38
224.045	4.38
224.845	3.38
225.645	4.38
226.445	4.38
227.245	7.38
228.045	6.38
228.845	4.38
229.645	7.38
230.444	6.38
231.244	8.38
232.043	6.38
232.843	4.38
233.642	5.38
234.442	7.38
235.241	5.38
236.04	10.38
236.839	7.38
237.638	6.38
238.437	10.38
239.236	9.38
240.035	7.38
240.833	8.38
241.632	8.38
242.43	8.38
243.229	8.38
244.027	8.38
244.826	8.38
245.624	10.38
246.422	10.38
247.22	10.38
248.018	11.38
248.816	10.38
249.614	10.38
250.412	9.38
251.21	10.38
252.007	8.38
252.805	14.38
253.602	12.38
254.4	16.38
255.197	13.38
255.994	13.38
256.791	16.38
257.589	15.38
258.386	15.38
259.183	17.38
259.979	17.38
260.776	18.38
261.573	16.38
262.37	18.38
263.166	22.38
263.963	18.38
264.759	20.38
265.556	20.38
266.352	23.38
267.148	24.38
267.944	25.38
268.74	23.38
269.536	22.38
270.332	24.38
271.128	24.38
271.924	26.38
272.719	27.38
273.515	25.38
274.311	27.38
275.106	26.38
275.901	26.38
276.697	24.38
277.492	27.38
278.287	23.38
279.082	27.38
279.877	27.38
280.672	28.38
281.467	28.38
282.262	31.38
283.056	28.38
283.851	31.38
284.646	27.38
285.44	29.38
286.234	29.38
287.029	25.38
287.823	27.38
288.617	25.38
289.411	26.38
290.205	29.38
290.999	24.38
291.793	26.38
292.587	25.38
293.381	24.38
294.174	22.38
294.968	25.38
295.761	21.38
296.555	23.38
297.348	19.38
298.141	21.38
298.935	26.38
299.728	21.38
300.521	23.38
301.314	18.38
302.107	19.38
302.899	19.38
303.692	19.38
304.485	18.38
305.277	17.38
306.07	17.38
306.862	19.38
307.655	18.38
308.447	18.38
309.239	16.38
310.031	18.38
310.823	15.38
311.615	14.38
312.407	16.38
313.199	14.38
313.991	13.38
314.783	13.38
315.574	12.38
316.366	13.38
317.157	11.38
317.949	11.38
318.74	14.38
319.531	12.38
320.322	11.38
321.113	13.38
321.904	12.38
322.695	11.38
323.486	12.38
324.277	8.38
325.068	8.38
325.858	9.38
326.649	10.38
327.439	9.38
328.23	8.38
329.02	11.38
329.81	10.38
330.6	8.38
331.391	8.38
332.181	8.38
332.971	9.38
333.76	12.38
334.55	11.38
335.34	10.38
336.13	8.38
336.919	11.38
337.709	8.38
338.498	9.38
339.287	9.38
340.077	9.38
340.866	12.38
341.655	10.38
342.444	7.38
343.233	9.38
344.022	6.38
344.811	10.38
345.6	8.38
346.388	10.38
347.177	7.38
347.965	9.38
348.754	9.38
349.542	8.38
350.33	8.38
351.119	8.38
351.907	7.38
352.695	7.38
353.483	5.38
354.271	5.38
355.059	8.38
355.846	9.38
356.634	8.38
357.422	9.38
358.209	8.38
358.997	8.38
359.784	6.38
360.571	7.38
361.359	10.38
362.146	8.38
362.933	7.38
363.72	8.38
364.507	7.38
365.294	7.38
366.081	8.38
366.867	11.38
367.654	10.38
368.44	8.38
369.227	10.38
370.013	9.38
370.8	10.38
371.586	6.38
372.372	7.38
373.158	8.38
373.944	8.38
374.73	8.38
375.516	6.38
376.302	10.38
377.088	7.38
377.873	7.38
378.659	8.38
379.445	8.38
380.23	7.38
381.015	6.38
381.801	8.38
382.586	6.38
383.371	10.38
384.156	8.38
384.941	8.38
385.726	9.38
386.511	8.38
387.296	7.38
388.08	10.38
388.865	10.38
389.649	7.38
390.434	8.38
391.218	8.38
392.003	9.38
392.787	12.38
393.571	10.38
394.355	8.38
395.139	8.38
395.923	9.38
396.707	11.38
397.491	8.38
398.274	9.38
399.058	9.38
399.842	11.38
400.625	9.38
401.408	12.38
402.192	9.38
402.975	12.38
403.758	10.38
404.541	10.38
405.324	11.38
406.107	12.38
406.89	11.38
407.673	13.38
408.456	11.38
409.238	13.38
410.021	11.38
410.803	9.38
411.586	13.38
412.368	12.38
413.151	12.38
413.933	14.38
414.715	13.38
415.497	13.38
416.279	16.38
417.061	17.38
417.843	16.38
418.624	15.38
419.406	13.38
420.188	16.38
420.969	16.38
421.751	16.38
422.532	15.38
423.313	18.38
424.095	20.38
424.876	19.38
425.657	17.38
426.438	20.38
427.219	21.38
428	21.38
428.78	20.38
429.561	22.38
430.342	24.38
431.122	24.38
431.903	27.38
432.683	25.38
433.464	26.38
434.244	27.38
435.024	27.38
435.804	28.38
436.584	36.38
437.364	34.38
438.144	36.38
438.924	36.38
439.704	39.38
440.483	40.38
441.263	41.38
442.042	47.38
442.822	48.38
443.601	53.38
444.38	57.38
445.16	65.38
445.939	67.38
446.718	69.38
447.497	80.38
448.276	84.38
449.054	93.38
449.833	99.38
450.612	109.38
451.391	123.38
452.169	140.38
452.948	144.38
453.726	161.38
454.504	182.38
455.282	199.38
456.061	220.38
456.839	250.38
457.617	278.38
458.395	311.38
459.172	349.38
459.95	389.38
460.728	436.38
461.506	478.38
462.283	538.38
463.061	591.38
463.838	677.38
464.615	737.38
465.393	835.38
466.17	925.38
466.947	1034.38
467.724	1149.38
468.501	1282.38
469.278	1429.38
470.055	1572.38
470.831	1766.38
471.608	1938.38
472.385	2163.38
473.161	2398.38
473.938	2643.38
474.714	2896.38
475.49	3197.38
476.266	3504.38
477.043	3870.38
477.819	4266.38
478.595	4677.38
479.371	5133.38
480.146	5629.38
480.922	6159.38
481.698	6749.38
482.473	7390.38
483.249	8002.38
484.024	8782.38
484.8	9600.38
485.575	10443.38
486.35	11352.38
487.126	12347.38
487.901	13499.38
488.676	14614.38
489.451	15829.38
490.225	17171.38
491	18488.38
491.775	19915.38
492.55	21387.38
493.324	22904.38
494.099	24406.38
494.873	26033.38
495.647	27654.38
496.422	29346.38
497.196	30817.38
497.97	32465.38
498.744	33770.38
499.518	35087.38
500.292	36311.38
501.066	37442.38
501.839	38415.38
502.613	39088.38
503.387	39643.38
504.16	40122.38
504.934	40213.38
505.707	40242.38
506.48	40025.38
507.253	39522.38
508.027	38881.38
508.8	38034.38
509.573	37077.38
510.346	35982.38
511.118	34872.38
511.891	33718.38
512.664	32587.38
513.437	31375.38
514.209	30005.38
514.982	28848.38
515.754	27712.38
516.526	26512.38
517.298	25352.38
518.071	24306.38
518.843	23316.38
519.615	22373.38
520.387	21478.38
521.159	20608.38
521.93	19762.38
522.702	18910.38
523.474	18147.38
524.245	17449.38
525.017	16757.38
525.788	15988.38
526.56	15262.38
527.331	14527.38
528.102	13833.38
528.873	13157.38
529.644	12497.38
530.415	11836.38
531.186	11244.38
531.957	10721.38
532.728	10102.38
533.498	9609.38
534.269	9067.38
535.039	8547.38
535.81	8080.38
536.58	7654.38
537.351	7237.38
538.121	6841.38
538.891	6456.38
539.661	6145.38
540.431	5796.38
541.201	5503.38
541.971	5215.38
542.741	4966.38
543.51	4678.38
544.28	4433.38
545.05	4241.38
545.819	4012.38
546.588	3815.38
547.358	3654.38
548.127	3451.38
548.896	3308.38
549.665	3129.38
550.434	2937.38
551.203	2804.38
551.972	2647.38
552.741	2504.38
553.51	2370.38
554.278	2220.38
555.047	2097.38
555.815	1997.38
556.584	1877.38
557.352	1784.38
558.121	1664.38
558.889	1579.38
559.657	1496.38
560.425	1420.38
561.193	1334.38
561.961	1260.38
562.729	1204.38
563.496	1137.38
564.264	1071.38
565.032	1015.38
565.799	968.38
566.567	905.38
567.334	862.38
568.101	809.38
568.869	757.38
569.636	718.38
570.403	688.38
571.17	646.38
571.937	607.38
572.704	576.38
573.471	543.38
574.237	502.38
575.004	482.38
575.771	457.38
576.537	438.38
577.303	402.38
578.07	379.38
578.836	356.38
579.602	335.38
580.368	319.38
581.134	305.38
581.9	292.38
582.666	274.38
583.432	264.38
584.198	250.38
584.964	236.38
585.729	222.38
586.495	209.38
587.26	200.38
588.025	200.38
588.791	177.38
589.556	167.38
590.321	162.38
591.086	157.38
591.851	145.38
592.616	136.38
593.381	135.38
594.146	123.38
594.911	122.38
595.675	113.38
596.44	114.38
597.204	107.38
597.969	102.38
598.733	94.38
599.497	90.38
600.261	92.38
601.025	86.38
601.79	84.38
602.553	78.38
603.317	77.38
604.081	71.38
604.845	71.38
605.609	70.38
606.372	62.38
607.136	65.38
607.899	61.38
608.662	58.38
609.426	54.38
610.189	50.38
610.952	49.38
611.715	49.38
612.478	47.38
613.241	44.38
614.004	39.38
614.767	43.38
615.529	38.38
616.292	37.38
617.055	40.38
617.817	38.38
618.579	34.38
619.342	33.38
620.104	35.38
620.866	33.38
621.628	32.38
622.39	31.38
623.152	31.38
623.914	27.38
624.676	24.38
625.438	28.38
626.199	26.38
626.961	24.38
627.722	22.38
628.484	23.38
629.245	20.38
630.006	20.38
630.768	21.38
631.529	23.38
632.29	20.38
633.051	21.38
633.812	21.38
634.573	17.38
635.333	16.38
636.094	20.38
636.855	15.38
637.615	16.38
638.376	15.38
639.136	16.38
639.896	15.38
640.657	16.38
641.417	13.38
642.177	15.38
642.937	13.38
643.697	16.38
644.457	14.38
645.216	11.38
645.976	13.38
646.736	12.38
647.495	11.38
648.255	14.38
649.014	12.38
649.774	11.38
650.533	11.38
651.292	8.38
652.051	12.38
652.81	10.38
653.569	12.38
654.328	11.38
655.087	10.38
655.846	11.38
656.604	12.38
657.363	14.38
658.121	11.38
658.88	8.38
659.638	9.38
660.397	10.38
661.155	6.38
661.913	9.38
662.671	11.38
663.429	7.38
664.187	8.38
664.945	8.38
665.703	9.38
666.46	8.38
667.218	8.38
667.976	8.38
668.733	5.38
669.49	6.38
670.248	9.38
671.005	6.38
671.762	6.38
672.519	7.38
673.276	7.38
674.033	7.38
674.79	7.38
675.547	7.38
676.304	7.38
677.06	9.38
677.817	6.38
678.574	6.38
679.33	6.38
680.086	7.38
680.843	5.38
681.599	5.38
682.355	6.38
683.111	8.38
683.867	8.38
684.623	5.38
685.379	6.38
686.135	6.38
686.89	5.38
687.646	6.38
688.402	7.38
689.157	5.38
689.912	6.38
690.668	4.38
691.423	4.38
692.178	7.38
692.933	7.38
693.688	5.38
694.443	4.38
695.198	7.38
695.953	5.38
696.708	5.38
697.462	3.38
698.217	7.38
698.972	6.38
699.726	6.38
700.48	7.38
701.235	7.38
701.989	6.38
702.743	4.38
703.497	4.38
704.251	6.38
705.005	8.38
705.759	4.38
706.513	6.38
707.266	4.38
708.02	6.38
708.774	3.38
709.527	5.38
710.28	6.38
711.034	6.38
711.787	6.38
712.54	5.38
713.293	7.38
714.046	8.38
714.799	5.38
715.552	4.38
716.305	7.38
717.058	4.38
717.81	5.38
718.563	5.38
719.315	7.38
720.068	7.38
720.82	5.38
721.573	9.38
722.325	7.38
723.077	6.38
723.829	6.38
724.581	5.38
725.333	6.38
726.085	5.38
726.836	7.38
727.588	5.38
728.34	5.38
729.091	6.38
729.843	9.38
730.594	7.38
731.346	7.38
732.097	6.38
732.848	5.38
733.599	7.38
734.35	8.38
735.101	8.38
735.852	7.38
736.603	5.38
737.354	7.38
738.104	7.38
738.855	6.38
739.605	8.38
740.356	8.38
741.106	9.38
741.856	7.38
742.607	6.38
743.357	7.38
744.107	6.38
744.857	7.38
745.607	8.38
746.357	7.38
747.106	9.38
747.856	8.38
748.606	9.38
749.355	9.38
750.105	8.38
750.854	8.38
751.603	9.38
752.353	9.38
753.102	7.38
753.851	9.38
754.6	8.38
755.349	10.38
756.098	10.38
756.847	8.38
757.595	9.38
758.344	6.38
759.093	10.38
759.841	12.38
760.589	10.38
761.338	10.38
762.086	12.38
762.834	10.38
763.582	8.38
764.331	10.38
765.079	10.38
765.826	12.38
766.574	9.38
767.322	12.38
768.07	12.38
768.817	12.38
769.565	9.38
770.312	10.38
771.06	12.38
771.807	12.38
772.554	11.38
773.302	12.38
774.049	12.38
774.796	11.38
775.543	13.38
776.29	13.38
777.036	11.38
777.783	14.38
778.53	12.38
779.276	12.38
780.023	13.38
780.769	12.38
781.516	14.38
782.262	13.38
783.008	14.38
783.754	12.38
784.5	12.38
785.246	13.38
785.992	12.38
786.738	12.38
787.484	13.38
788.23	13.38
788.975	12.38
789.721	13.38
790.466	12.38
791.212	11.38
791.957	11.38
792.702	12.38
793.447	12.38
794.193	14.38
794.938	11.38
795.683	13.38
796.427	11.38
797.172	10.38
797.917	11.38
798.662	10.38
799.406	10.38
800.151	10.38
800.895	10.38
801.64	10.38
802.384	8.38
803.128	9.38
803.872	11.38
804.616	9.38
805.36	6.38
806.104	8.38
806.848	5.38
807.592	9.38
808.336	9.38
809.079	6.38
809.823	7.38
810.566	8.38
811.31	8.38
812.053	9.38
812.796	8.38
813.539	8.38
814.283	7.38
815.026	8.38
815.769	7.38
816.511	5.38
817.254	6.38
817.997	6.38
818.74	6.38
819.482	8.38
820.225	6.38
820.967	7.38
821.71	6.38
822.452	6.38
823.194	7.38
823.936	5.38
824.678	6.38
825.42	4.38
826.162	6.38
826.904	4.38
827.646	2.38
828.388	5.38
829.129	6.38
829.871	6.38
830.612	5.38
831.354	5.38
832.095	8.38
832.836	3.38
833.577	5.38
834.319	2.38
835.06	8.38
835.801	4.38
836.542	7.38
837.282	3.38
838.023	4.38
838.764	5.38
839.504	4.38
840.245	7.38
840.985	3.38
841.726	7.38
842.466	4.38
843.206	3.38
843.946	2.38
844.687	2.38
845.427	3.38
846.166	3.38
846.906	4.38
847.646	4.38
848.386	2.38
849.125	3.38
849.865	0.38
850.605	4.38
851.344	3.38
852.083	4.38
852.823	4.38
853.562	4.38
854.301	3.38
855.04	4.38
855.779	3.38
856.518	3.38
857.257	2.38
857.995	1.38
858.734	1.38
859.473	4.38
860.211	3.38
860.95	4.38
861.688	2.38
862.426	4.38
863.165	3.38
863.903	0.38
864.641	3.38
865.379	1.38
866.117	5.38
866.855	-0.62
867.593	2.38
868.33	2.38
869.068	1.38
869.806	0.38
870.543	0.38
871.28	2.38
872.018	2.38
872.755	-0.62
873.492	1.38
874.229	0.38
874.967	0.38
875.703	-0.62
876.44	1.38
877.177	0.38
877.914	2.38
878.651	0.38
879.387	0.38
880.124	1.38
880.86	0.38
881.597	0.38
882.333	2.38
883.069	0.38
883.806	1.38
884.542	2.38
885.278	1.38
886.014	1.38
886.749	0.38
887.485	0.38
888.221	2.38
888.957	1.38
889.692	-0.62
890.428	2.38
891.163	0.38
891.899	0.38
892.634	1.38
893.369	0.38
894.104	0.38
894.839	0.38
895.574	3.38
896.309	2.38
897.044	-0.62
897.779	0.38
898.514	1.38
899.248	3.38
899.983	0.38
900.717	0.38
901.452	0.38
902.186	1.38
902.92	1.38
903.654	1.38
904.389	0.38
905.123	2.38
905.857	-1.62
906.59	0.38
907.324	-1.62
908.058	0.38
908.792	0.38
909.525	0.38
910.259	0.38
910.992	0.38
911.726	2.38
912.459	-2.62
913.192	0.38
913.925	-0.62
914.658	3.38
915.391	0.38
916.124	0.38
916.857	0.38
917.59	2.38
918.323	1.38
919.055	0.38
919.788	0.38
920.521	2.38
921.253	-0.62
921.985	2.38
922.718	1.38
923.45	1.38
924.182	2.38
924.914	0.38
925.646	0.38
926.378	2.38
927.11	0.38
927.841	1.38
928.573	-0.62
929.305	1.38
930.036	-0.62
930.768	0.38
931.499	-1.62
932.23	3.38
932.962	1.38
933.693	0.38
934.424	-0.62
935.155	2.38
935.886	1.38
936.617	-1.62
937.348	-0.62
938.078	0.38
938.809	1.38
939.54	-0.62
940.27	0.38
941.001	0.38
941.731	-0.62
942.461	2.38
943.191	-0.62
943.922	2.38
944.652	0.38
945.382	-0.62
946.112	2.38
946.841	0.38
947.571	-0.62
948.301	0.38
949.031	0.38
949.76	0.38
950.49	-1.62
951.219	1.38
951.948	0.38
952.678	1.38
953.407	0.38
954.136	-1.62
954.865	-0.62
955.594	1.38
956.323	3.38
957.052	-0.62
957.78	-0.62
958.509	2.38
959.238	0.38
959.966	1.38
960.695	-0.62
961.423	0.38
962.151	0.38
962.88	-1.62
963.608	1.38
964.336	-0.62
965.064	0.38
965.792	-0.62
966.52	0.38
967.247	-0.62
967.975	-0.62
968.703	-1.62
969.43	0.38
970.158	0.38
970.885	1.38
971.613	1.38
972.34	1.38
973.067	1.38
973.794	0.38
974.521	1.38
975.248	1.38
975.975	-0.62
976.702	-0.62
977.429	0.38
978.156	1.38
978.882	-0.62
979.609	-0.62
980.335	0.38
981.062	-1.62
981.788	0.38
982.514	-0.62
983.24	-0.62
983.967	0.38
984.693	1.38
985.419	1.38
986.144	-0.62
986.87	-0.62
987.596	0.38
988.322	2.38
989.047	-0.62
989.773	0.38
990.498	1.38
991.224	0.38
991.949	1.38
992.674	-2.62
993.399	2.38
994.124	-2.62
994.849	-0.62
995.574	-1.62
996.299	-0.62
997.024	-1.62
997.749	2.38
998.473	0.38
999.198	-1.62
999.922	-1.62
1000.647	0.38
1001.371	2.38
1002.095	-0.62
1002.82	0.38
1003.544	-2.62
1004.268	3.38
1004.992	3.38
1005.716	5.38
1006.439	2.38
1007.163	5.38
1007.887	4.38
1008.611	1.38
1009.334	1.38
1010.058	-0.62
1010.781	0.38
1011.504	0.38
1012.228	1.38
1012.951	0.38
1013.674	-1.62
1014.397	1.38
1015.12	0.38
