节点500_565_QEPB04081__597__10-00-20-948.txt的数据

Date: Thu Nov 13 10:00:20 CST 2025
User: PC
Spectrometer: QEPB0408
触发模式: 0
积分时间 (秒): 1.000000E-2
Scans to average: 1
启用暗噪声校正: true
启用非线性校正: false
滑动平均宽度: 0
X轴模式: Wavelengths
Number of Pixels in Spectrum: 1044
>>>>>Begin Spectral Data<<<<<
220.843	5.12
221.644	1.12
222.444	4.12
223.244	4.12
224.045	5.12
224.845	5.12
225.645	5.12
226.445	3.12
227.245	6.12
228.045	5.12
228.845	5.12
229.645	5.12
230.444	6.12
231.244	7.12
232.043	8.12
232.843	6.12
233.642	8.12
234.442	7.12
235.241	7.12
236.04	9.12
236.839	5.12
237.638	8.12
238.437	7.12
239.236	7.12
240.035	8.12
240.833	9.12
241.632	9.12
242.43	9.12
243.229	7.12
244.027	11.12
244.826	10.12
245.624	10.12
246.422	12.12
247.22	9.12
248.018	10.12
248.816	12.12
249.614	11.12
250.412	9.12
251.21	12.12
252.007	14.12
252.805	12.12
253.602	14.12
254.4	14.12
255.197	14.12
255.994	12.12
256.791	13.12
257.589	16.12
258.386	15.12
259.183	16.12
259.979	16.12
260.776	16.12
261.573	17.12
262.37	15.12
263.166	18.12
263.963	16.12
264.759	18.12
265.556	20.12
266.352	15.12
267.148	19.12
267.944	19.12
268.74	21.12
269.536	20.12
270.332	23.12
271.128	23.12
271.924	25.12
272.719	28.12
273.515	21.12
274.311	26.12
275.106	25.12
275.901	23.12
276.697	26.12
277.492	30.12
278.287	26.12
279.082	27.12
279.877	27.12
280.672	23.12
281.467	27.12
282.262	27.12
283.056	26.12
283.851	25.12
284.646	24.12
285.44	28.12
286.234	25.12
287.029	25.12
287.823	30.12
288.617	26.12
289.411	27.12
290.205	26.12
290.999	25.12
291.793	26.12
292.587	26.12
293.381	24.12
294.174	25.12
294.968	23.12
295.761	21.12
296.555	25.12
297.348	21.12
298.141	21.12
298.935	22.12
299.728	21.12
300.521	20.12
301.314	20.12
302.107	21.12
302.899	16.12
303.692	21.12
304.485	18.12
305.277	20.12
306.07	18.12
306.862	17.12
307.655	17.12
308.447	18.12
309.239	20.12
310.031	17.12
310.823	16.12
311.615	15.12
312.407	15.12
313.199	17.12
313.991	17.12
314.783	13.12
315.574	13.12
316.366	12.12
317.157	13.12
317.949	13.12
318.74	11.12
319.531	12.12
320.322	13.12
321.113	13.12
321.904	13.12
322.695	11.12
323.486	13.12
324.277	11.12
325.068	11.12
325.858	9.12
326.649	10.12
327.439	12.12
328.23	9.12
329.02	9.12
329.81	12.12
330.6	12.12
331.391	12.12
332.181	9.12
332.971	7.12
333.76	8.12
334.55	11.12
335.34	11.12
336.13	7.12
336.919	10.12
337.709	9.12
338.498	10.12
339.287	9.12
340.077	9.12
340.866	9.12
341.655	9.12
342.444	9.12
343.233	11.12
344.022	11.12
344.811	9.12
345.6	13.12
346.388	11.12
347.177	10.12
347.965	11.12
348.754	7.12
349.542	11.12
350.33	9.12
351.119	13.12
351.907	8.12
352.695	7.12
353.483	9.12
354.271	8.12
355.059	10.12
355.846	6.12
356.634	9.12
357.422	11.12
358.209	8.12
358.997	10.12
359.784	9.12
360.571	8.12
361.359	11.12
362.146	6.12
362.933	7.12
363.72	8.12
364.507	7.12
365.294	7.12
366.081	8.12
366.867	10.12
367.654	10.12
368.44	5.12
369.227	10.12
370.013	7.12
370.8	9.12
371.586	6.12
372.372	6.12
373.158	7.12
373.944	8.12
374.73	6.12
375.516	9.12
376.302	7.12
377.088	10.12
377.873	6.12
378.659	9.12
379.445	5.12
380.23	9.12
381.015	10.12
381.801	9.12
382.586	11.12
383.371	8.12
384.156	7.12
384.941	7.12
385.726	7.12
386.511	7.12
387.296	9.12
388.08	13.12
388.865	9.12
389.649	9.12
390.434	9.12
391.218	9.12
392.003	9.12
392.787	7.12
393.571	9.12
394.355	13.12
395.139	10.12
395.923	9.12
396.707	11.12
397.491	10.12
398.274	9.12
399.058	11.12
399.842	9.12
400.625	13.12
401.408	10.12
402.192	11.12
402.975	11.12
403.758	9.12
404.541	13.12
405.324	10.12
406.107	12.12
406.89	13.12
407.673	13.12
408.456	13.12
409.238	13.12
410.021	13.12
410.803	11.12
411.586	14.12
412.368	15.12
413.151	14.12
413.933	15.12
414.715	13.12
415.497	17.12
416.279	16.12
417.061	17.12
417.843	17.12
418.624	14.12
419.406	18.12
420.188	17.12
420.969	16.12
421.751	17.12
422.532	21.12
423.313	16.12
424.095	18.12
424.876	16.12
425.657	20.12
426.438	20.12
427.219	23.12
428	23.12
428.78	23.12
429.561	23.12
430.342	24.12
431.122	24.12
431.903	25.12
432.683	28.12
433.464	27.12
434.244	27.12
435.024	28.12
435.804	29.12
436.584	33.12
437.364	35.12
438.144	37.12
438.924	43.12
439.704	45.12
440.483	44.12
441.263	48.12
442.042	54.12
442.822	53.12
443.601	63.12
444.38	64.12
445.16	66.12
445.939	72.12
446.718	84.12
447.497	91.12
448.276	99.12
449.054	108.12
449.833	116.12
450.612	133.12
451.391	143.12
452.169	157.12
452.948	177.12
453.726	190.12
454.504	213.12
455.282	233.12
456.061	266.12
456.839	292.12
457.617	328.12
458.395	367.12
459.172	407.12
459.95	458.12
460.728	501.12
461.506	561.12
462.283	610.12
463.061	690.12
463.838	758.12
464.615	840.12
465.393	938.12
466.17	1040.12
466.947	1149.12
467.724	1269.12
468.501	1399.12
469.278	1550.12
470.055	1715.12
470.831	1879.12
471.608	2084.12
472.385	2283.12
473.161	2545.12
473.938	2767.12
474.714	3022.12
475.49	3303.12
476.266	3602.12
477.043	3942.12
477.819	4306.12
478.595	4677.12
479.371	5090.12
480.146	5578.12
480.922	6047.12
481.698	6590.12
482.473	7066.12
483.249	7649.12
484.024	8329.12
484.8	9030.12
485.575	9783.12
486.35	10515.12
487.126	11441.12
487.901	12267.12
488.676	13251.12
489.451	14295.12
490.225	15433.12
491	16482.12
491.775	17715.12
492.55	18972.12
493.324	20207.12
494.099	21511.12
494.873	22885.12
495.647	24345.12
496.422	25817.12
497.196	27119.12
497.97	28553.12
498.744	29966.12
499.518	31261.12
500.292	32524.12
501.066	33645.12
501.839	34804.12
502.613	35690.12
503.387	36450.12
504.16	37203.12
504.934	37702.12
505.707	38012.12
506.48	38114.12
507.253	38193.12
508.027	37837.12
508.8	37440.12
509.573	36902.12
510.346	36322.12
511.118	35429.12
511.891	34777.12
512.664	33749.12
513.437	32731.12
514.209	31610.12
514.982	30519.12
515.754	29430.12
516.526	28320.12
517.298	27232.12
518.071	26129.12
518.843	25062.12
519.615	24019.12
520.387	23117.12
521.159	22247.12
521.93	21359.12
522.702	20453.12
523.474	19667.12
524.245	18886.12
525.017	18188.12
525.788	17387.12
526.56	16670.12
527.331	15961.12
528.102	15274.12
528.873	14571.12
529.644	13855.12
530.415	13222.12
531.186	12529.12
531.957	11986.12
532.728	11427.12
533.498	10855.12
534.269	10230.12
535.039	9673.12
535.81	9245.12
536.58	8740.12
537.351	8272.12
538.121	7847.12
538.891	7440.12
539.661	7066.12
540.431	6641.12
541.201	6284.12
541.971	5969.12
542.741	5654.12
543.51	5374.12
544.28	5077.12
545.05	4849.12
545.819	4631.12
546.588	4384.12
547.358	4171.12
548.127	3969.12
548.896	3772.12
549.665	3601.12
550.434	3399.12
551.203	3220.12
551.972	3060.12
552.741	2920.12
553.51	2737.12
554.278	2604.12
555.047	2436.12
555.815	2309.12
556.584	2205.12
557.352	2103.12
558.121	1976.12
558.889	1858.12
559.657	1753.12
560.425	1661.12
561.193	1579.12
561.961	1481.12
562.729	1420.12
563.496	1349.12
564.264	1259.12
565.032	1198.12
565.799	1127.12
566.567	1060.12
567.334	1009.12
568.101	951.12
568.869	892.12
569.636	844.12
570.403	803.12
571.17	757.12
571.937	713.12
572.704	675.12
573.471	646.12
574.237	604.12
575.004	576.12
575.771	538.12
576.537	510.12
577.303	480.12
578.07	450.12
578.836	431.12
579.602	404.12
580.368	379.12
581.134	361.12
581.9	345.12
582.666	329.12
583.432	308.12
584.198	297.12
584.964	281.12
585.729	265.12
586.495	254.12
587.26	237.12
588.025	221.12
588.791	215.12
589.556	203.12
590.321	197.12
591.086	182.12
591.851	168.12
592.616	164.12
593.381	157.12
594.146	150.12
594.911	142.12
595.675	132.12
596.44	132.12
597.204	125.12
597.969	118.12
598.733	115.12
599.497	108.12
600.261	108.12
601.025	101.12
601.79	94.12
602.553	91.12
603.317	90.12
604.081	85.12
604.845	80.12
605.609	76.12
606.372	74.12
607.136	73.12
607.899	69.12
608.662	66.12
609.426	64.12
610.189	58.12
610.952	59.12
611.715	53.12
612.478	56.12
613.241	52.12
614.004	48.12
614.767	48.12
615.529	48.12
616.292	46.12
617.055	42.12
617.817	42.12
618.579	41.12
619.342	40.12
620.104	36.12
620.866	36.12
621.628	36.12
622.39	33.12
623.152	34.12
623.914	28.12
624.676	33.12
625.438	30.12
626.199	27.12
626.961	29.12
627.722	27.12
628.484	24.12
629.245	26.12
630.006	25.12
630.768	23.12
631.529	24.12
632.29	22.12
633.051	19.12
633.812	22.12
634.573	22.12
635.333	19.12
636.094	21.12
636.855	17.12
637.615	19.12
638.376	17.12
639.136	19.12
639.896	14.12
640.657	16.12
641.417	16.12
642.177	13.12
642.937	17.12
643.697	16.12
644.457	17.12
645.216	16.12
645.976	14.12
646.736	13.12
647.495	13.12
648.255	16.12
649.014	11.12
649.774	11.12
650.533	11.12
651.292	12.12
652.051	13.12
652.81	13.12
653.569	9.12
654.328	10.12
655.087	10.12
655.846	10.12
656.604	11.12
657.363	9.12
658.121	12.12
658.88	9.12
659.638	9.12
660.397	10.12
661.155	10.12
661.913	9.12
662.671	9.12
663.429	10.12
664.187	10.12
664.945	7.12
665.703	7.12
666.46	9.12
667.218	9.12
667.976	8.12
668.733	9.12
669.49	9.12
670.248	11.12
671.005	9.12
671.762	7.12
672.519	7.12
673.276	9.12
674.033	8.12
674.79	7.12
675.547	10.12
676.304	10.12
677.06	7.12
677.817	7.12
678.574	6.12
679.33	9.12
680.086	7.12
680.843	9.12
681.599	8.12
682.355	7.12
683.111	7.12
683.867	5.12
684.623	7.12
685.379	5.12
686.135	7.12
686.89	5.12
687.646	6.12
688.402	8.12
689.157	5.12
689.912	7.12
690.668	6.12
691.423	8.12
692.178	6.12
692.933	6.12
693.688	5.12
694.443	8.12
695.198	6.12
695.953	6.12
696.708	6.12
697.462	7.12
698.217	4.12
698.972	7.12
699.726	6.12
700.48	7.12
701.235	5.12
701.989	7.12
702.743	9.12
703.497	5.12
704.251	7.12
705.005	6.12
705.759	7.12
706.513	7.12
707.266	4.12
708.02	5.12
708.774	7.12
709.527	7.12
710.28	5.12
711.034	7.12
711.787	7.12
712.54	7.12
713.293	4.12
714.046	5.12
714.799	3.12
715.552	8.12
716.305	6.12
717.058	5.12
717.81	6.12
718.563	5.12
719.315	5.12
720.068	5.12
720.82	4.12
721.573	9.12
722.325	6.12
723.077	9.12
723.829	5.12
724.581	6.12
725.333	6.12
726.085	8.12
726.836	10.12
727.588	6.12
728.34	5.12
729.091	7.12
729.843	6.12
730.594	7.12
731.346	5.12
732.097	6.12
732.848	6.12
733.599	7.12
734.35	6.12
735.101	8.12
735.852	6.12
736.603	8.12
737.354	9.12
738.104	8.12
738.855	9.12
739.605	6.12
740.356	7.12
741.106	7.12
741.856	7.12
742.607	6.12
743.357	9.12
744.107	7.12
744.857	7.12
745.607	8.12
746.357	8.12
747.106	8.12
747.856	7.12
748.606	9.12
749.355	9.12
750.105	8.12
750.854	10.12
751.603	7.12
752.353	8.12
753.102	9.12
753.851	9.12
754.6	10.12
755.349	8.12
756.098	9.12
756.847	8.12
757.595	9.12
758.344	10.12
759.093	10.12
759.841	9.12
760.589	9.12
761.338	10.12
762.086	11.12
762.834	13.12
763.582	7.12
764.331	12.12
765.079	10.12
765.826	9.12
766.574	10.12
767.322	10.12
768.07	9.12
768.817	11.12
769.565	12.12
770.312	10.12
771.06	11.12
771.807	12.12
772.554	10.12
773.302	11.12
774.049	14.12
774.796	10.12
775.543	11.12
776.29	11.12
777.036	13.12
777.783	11.12
778.53	15.12
779.276	12.12
780.023	12.12
780.769	10.12
781.516	13.12
782.262	12.12
783.008	9.12
783.754	13.12
784.5	10.12
785.246	11.12
785.992	14.12
786.738	14.12
787.484	12.12
788.23	14.12
788.975	14.12
789.721	13.12
790.466	11.12
791.212	10.12
791.957	11.12
792.702	13.12
793.447	12.12
794.193	10.12
794.938	12.12
795.683	13.12
796.427	12.12
797.172	12.12
797.917	10.12
798.662	11.12
799.406	11.12
800.151	9.12
800.895	9.12
801.64	11.12
802.384	11.12
803.128	9.12
803.872	9.12
804.616	9.12
805.36	9.12
806.104	10.12
806.848	7.12
807.592	9.12
808.336	12.12
809.079	4.12
809.823	7.12
810.566	6.12
811.31	9.12
812.053	5.12
812.796	9.12
813.539	9.12
814.283	7.12
815.026	7.12
815.769	8.12
816.511	8.12
817.254	6.12
817.997	4.12
818.74	7.12
819.482	6.12
820.225	8.12
820.967	5.12
821.71	7.12
822.452	7.12
823.194	7.12
823.936	5.12
824.678	7.12
825.42	5.12
826.162	5.12
826.904	7.12
827.646	6.12
828.388	7.12
829.129	3.12
829.871	5.12
830.612	5.12
831.354	8.12
832.095	5.12
832.836	4.12
833.577	4.12
834.319	5.12
835.06	5.12
835.801	5.12
836.542	5.12
837.282	6.12
838.023	3.12
838.764	5.12
839.504	5.12
840.245	8.12
840.985	3.12
841.726	4.12
842.466	4.12
843.206	6.12
843.946	6.12
844.687	6.12
845.427	4.12
846.166	3.12
846.906	6.12
847.646	4.12
848.386	5.12
849.125	5.12
849.865	3.12
850.605	4.12
851.344	4.12
852.083	8.12
852.823	4.12
853.562	1.12
854.301	4.12
855.04	1.12
855.779	3.12
856.518	3.12
857.257	1.12
857.995	1.12
858.734	2.12
859.473	3.12
860.211	5.12
860.95	1.12
861.688	5.12
862.426	2.12
863.165	3.12
863.903	2.12
864.641	3.12
865.379	3.12
866.117	2.12
866.855	4.12
867.593	3.12
868.33	3.12
869.068	3.12
869.806	3.12
870.543	3.12
871.28	3.12
872.018	2.12
872.755	2.12
873.492	2.12
874.229	0.12
874.967	3.12
875.703	1.12
876.44	3.12
877.177	4.12
877.914	3.12
878.651	3.12
879.387	4.12
880.124	3.12
880.86	-1.88
881.597	2.12
882.333	3.12
883.069	3.12
883.806	3.12
884.542	1.12
885.278	1.12
886.014	3.12
886.749	1.12
887.485	1.12
888.221	1.12
888.957	1.12
889.692	2.12
890.428	1.12
891.163	2.12
891.899	1.12
892.634	2.12
893.369	3.12
894.104	3.12
894.839	1.12
895.574	1.12
896.309	1.12
897.044	3.12
897.779	-0.88
898.514	0.12
899.248	0.12
899.983	1.12
900.717	3.12
901.452	0.12
902.186	2.12
902.92	2.12
903.654	2.12
904.389	1.12
905.123	2.12
905.857	2.12
906.59	-0.88
907.324	2.12
908.058	1.12
908.792	3.12
909.525	0.12
910.259	-0.88
910.992	1.12
911.726	0.12
912.459	3.12
913.192	0.12
913.925	0.12
914.658	1.12
915.391	-0.88
916.124	0.12
916.857	1.12
917.59	1.12
918.323	1.12
919.055	2.12
919.788	2.12
920.521	0.12
921.253	-0.88
921.985	0.12
922.718	0.12
923.45	-1.88
924.182	-0.88
924.914	1.12
925.646	1.12
926.378	-0.88
927.11	-1.88
927.841	0.12
928.573	0.12
929.305	1.12
930.036	2.12
930.768	1.12
931.499	1.12
932.23	-0.88
932.962	-0.88
933.693	2.12
934.424	-0.88
935.155	0.12
935.886	-0.88
936.617	1.12
937.348	1.12
938.078	1.12
938.809	2.12
939.54	1.12
940.27	-0.88
941.001	1.12
941.731	1.12
942.461	0.12
943.191	1.12
943.922	1.12
944.652	-0.88
945.382	-0.88
946.112	1.12
946.841	1.12
947.571	3.12
948.301	0.12
949.031	0.12
949.76	0.12
950.49	-1.88
951.219	2.12
951.948	1.12
952.678	0.12
953.407	-0.88
954.136	1.12
954.865	-0.88
955.594	-0.88
956.323	0.12
957.052	1.12
957.78	2.12
958.509	1.12
959.238	0.12
959.966	1.12
960.695	1.12
961.423	0.12
962.151	0.12
962.88	1.12
963.608	0.12
964.336	0.12
965.064	0.12
965.792	1.12
966.52	1.12
967.247	1.12
967.975	1.12
968.703	0.12
969.43	5.12
970.158	2.12
970.885	-0.88
971.613	0.12
972.34	0.12
973.067	1.12
973.794	1.12
974.521	3.12
975.248	1.12
975.975	0.12
976.702	0.12
977.429	0.12
978.156	0.12
978.882	-0.88
979.609	3.12
980.335	2.12
981.062	1.12
981.788	0.12
982.514	0.12
983.24	0.12
983.967	-0.88
984.693	2.12
985.419	-0.88
986.144	1.12
986.87	1.12
987.596	3.12
988.322	-0.88
989.047	1.12
989.773	0.12
990.498	0.12
991.224	3.12
991.949	1.12
992.674	-0.88
993.399	-1.88
994.124	-0.88
994.849	4.12
995.574	-0.88
996.299	2.12
997.024	-0.88
997.749	-0.88
998.473	1.12
999.198	0.12
999.922	2.12
1000.647	-0.88
1001.371	2.12
1002.095	-0.88
1002.82	0.12
1003.544	1.12
1004.268	0.12
1004.992	5.12
1005.716	3.12
1006.439	3.12
1007.163	3.12
1007.887	6.12
1008.611	1.12
1009.334	1.12
1010.058	-1.88
1010.781	4.12
1011.504	0.12
1012.228	3.12
1012.951	-1.88
1013.674	1.12
1014.397	-1.88
1015.12	0.12
