节点500_565_QEPB04081__292__09-55-16-559.txt的数据

Date: Thu Nov 13 09:55:16 CST 2025
User: PC
Spectrometer: QEPB0408
触发模式: 0
积分时间 (秒): 1.000000E-2
Scans to average: 1
启用暗噪声校正: true
启用非线性校正: false
滑动平均宽度: 0
X轴模式: Wavelengths
Number of Pixels in Spectrum: 1044
>>>>>Begin Spectral Data<<<<<
220.843	4.88
221.644	4.88
222.444	3.88
223.244	4.88
224.045	4.88
224.845	5.88
225.645	3.88
226.445	4.88
227.245	6.88
228.045	4.88
228.845	6.88
229.645	2.88
230.444	6.88
231.244	6.88
232.043	5.88
232.843	8.88
233.642	7.88
234.442	7.88
235.241	6.88
236.04	8.88
236.839	6.88
237.638	8.88
238.437	9.88
239.236	7.88
240.035	9.88
240.833	8.88
241.632	8.88
242.43	11.88
243.229	10.88
244.027	12.88
244.826	10.88
245.624	11.88
246.422	10.88
247.22	13.88
248.018	10.88
248.816	13.88
249.614	10.88
250.412	13.88
251.21	12.88
252.007	12.88
252.805	14.88
253.602	14.88
254.4	14.88
255.197	14.88
255.994	14.88
256.791	14.88
257.589	15.88
258.386	19.88
259.183	15.88
259.979	17.88
260.776	17.88
261.573	19.88
262.37	16.88
263.166	17.88
263.963	20.88
264.759	20.88
265.556	22.88
266.352	21.88
267.148	19.88
267.944	23.88
268.74	21.88
269.536	25.88
270.332	27.88
271.128	26.88
271.924	23.88
272.719	26.88
273.515	25.88
274.311	25.88
275.106	26.88
275.901	26.88
276.697	28.88
277.492	26.88
278.287	26.88
279.082	28.88
279.877	28.88
280.672	26.88
281.467	30.88
282.262	28.88
283.056	29.88
283.851	26.88
284.646	24.88
285.44	28.88
286.234	25.88
287.029	27.88
287.823	32.88
288.617	24.88
289.411	27.88
290.205	30.88
290.999	27.88
291.793	28.88
292.587	24.88
293.381	26.88
294.174	25.88
294.968	22.88
295.761	22.88
296.555	24.88
297.348	21.88
298.141	20.88
298.935	24.88
299.728	24.88
300.521	20.88
301.314	22.88
302.107	20.88
302.899	18.88
303.692	18.88
304.485	22.88
305.277	18.88
306.07	17.88
306.862	20.88
307.655	17.88
308.447	18.88
309.239	17.88
310.031	15.88
310.823	16.88
311.615	16.88
312.407	12.88
313.199	16.88
313.991	12.88
314.783	12.88
315.574	13.88
316.366	13.88
317.157	12.88
317.949	12.88
318.74	13.88
319.531	12.88
320.322	13.88
321.113	11.88
321.904	13.88
322.695	11.88
323.486	10.88
324.277	11.88
325.068	10.88
325.858	10.88
326.649	11.88
327.439	8.88
328.23	12.88
329.02	9.88
329.81	8.88
330.6	12.88
331.391	9.88
332.181	10.88
332.971	11.88
333.76	11.88
334.55	11.88
335.34	10.88
336.13	9.88
336.919	10.88
337.709	10.88
338.498	9.88
339.287	10.88
340.077	8.88
340.866	11.88
341.655	9.88
342.444	11.88
343.233	9.88
344.022	10.88
344.811	10.88
345.6	8.88
346.388	8.88
347.177	10.88
347.965	9.88
348.754	8.88
349.542	9.88
350.33	8.88
351.119	10.88
351.907	8.88
352.695	8.88
353.483	10.88
354.271	8.88
355.059	9.88
355.846	8.88
356.634	7.88
357.422	8.88
358.209	6.88
358.997	8.88
359.784	5.88
360.571	6.88
361.359	9.88
362.146	9.88
362.933	7.88
363.72	9.88
364.507	7.88
365.294	7.88
366.081	6.88
366.867	8.88
367.654	8.88
368.44	5.88
369.227	6.88
370.013	8.88
370.8	6.88
371.586	7.88
372.372	8.88
373.158	8.88
373.944	6.88
374.73	7.88
375.516	9.88
376.302	7.88
377.088	6.88
377.873	7.88
378.659	6.88
379.445	7.88
380.23	8.88
381.015	9.88
381.801	9.88
382.586	7.88
383.371	11.88
384.156	7.88
384.941	10.88
385.726	9.88
386.511	9.88
387.296	9.88
388.08	8.88
388.865	9.88
389.649	9.88
390.434	10.88
391.218	12.88
392.003	9.88
392.787	10.88
393.571	7.88
394.355	10.88
395.139	7.88
395.923	10.88
396.707	10.88
397.491	9.88
398.274	12.88
399.058	11.88
399.842	11.88
400.625	12.88
401.408	12.88
402.192	11.88
402.975	9.88
403.758	11.88
404.541	8.88
405.324	12.88
406.107	8.88
406.89	14.88
407.673	12.88
408.456	13.88
409.238	14.88
410.021	14.88
410.803	12.88
411.586	12.88
412.368	14.88
413.151	14.88
413.933	19.88
414.715	13.88
415.497	16.88
416.279	13.88
417.061	16.88
417.843	16.88
418.624	16.88
419.406	17.88
420.188	16.88
420.969	16.88
421.751	17.88
422.532	15.88
423.313	17.88
424.095	20.88
424.876	18.88
425.657	19.88
426.438	18.88
427.219	20.88
428	20.88
428.78	20.88
429.561	24.88
430.342	19.88
431.122	26.88
431.903	26.88
432.683	26.88
433.464	27.88
434.244	31.88
435.024	30.88
435.804	31.88
436.584	34.88
437.364	39.88
438.144	38.88
438.924	41.88
439.704	45.88
440.483	44.88
441.263	43.88
442.042	52.88
442.822	51.88
443.601	60.88
444.38	64.88
445.16	67.88
445.939	71.88
446.718	77.88
447.497	85.88
448.276	92.88
449.054	98.88
449.833	111.88
450.612	121.88
451.391	126.88
452.169	142.88
452.948	162.88
453.726	180.88
454.504	198.88
455.282	213.88
456.061	240.88
456.839	269.88
457.617	309.88
458.395	333.88
459.172	376.88
459.95	417.88
460.728	474.88
461.506	520.88
462.283	585.88
463.061	654.88
463.838	725.88
464.615	805.88
465.393	898.88
466.17	986.88
466.947	1116.88
467.724	1228.88
468.501	1372.88
469.278	1531.88
470.055	1677.88
470.831	1886.88
471.608	2083.88
472.385	2305.88
473.161	2540.88
473.938	2782.88
474.714	3048.88
475.49	3348.88
476.266	3683.88
477.043	4066.88
477.819	4486.88
478.595	4889.88
479.371	5357.88
480.146	5854.88
480.922	6412.88
481.698	6990.88
482.473	7632.88
483.249	8284.88
484.024	9015.88
484.8	9892.88
485.575	10696.88
486.35	11648.88
487.126	12646.88
487.901	13772.88
488.676	14882.88
489.451	16157.88
490.225	17426.88
491	18732.88
491.775	20098.88
492.55	21649.88
493.324	23164.88
494.099	24646.88
494.873	26285.88
495.647	27995.88
496.422	29605.88
497.196	31224.88
497.97	32727.88
498.744	34201.88
499.518	35479.88
500.292	36846.88
501.066	38081.88
501.839	39102.88
502.613	39905.88
503.387	40601.88
504.16	41224.88
504.934	41414.88
505.707	41467.88
506.48	41366.88
507.253	40960.88
508.027	40326.88
508.8	39603.88
509.573	38704.88
510.346	37624.88
511.118	36572.88
511.891	35659.88
512.664	34337.88
513.437	33119.88
514.209	31795.88
514.982	30570.88
515.754	29375.88
516.526	28100.88
517.298	26904.88
518.071	25859.88
518.843	24832.88
519.615	23834.88
520.387	22857.88
521.159	22001.88
521.93	21065.88
522.702	20162.88
523.474	19399.88
524.245	18609.88
525.017	17875.88
525.788	17070.88
526.56	16279.88
527.331	15564.88
528.102	14857.88
528.873	14101.88
529.644	13399.88
530.415	12710.88
531.186	12108.88
531.957	11512.88
532.728	10900.88
533.498	10348.88
534.269	9789.88
535.039	9220.88
535.81	8766.88
536.58	8318.88
537.351	7815.88
538.121	7404.88
538.891	7008.88
539.661	6635.88
540.431	6283.88
541.201	5949.88
541.971	5655.88
542.741	5353.88
543.51	5029.88
544.28	4812.88
545.05	4593.88
545.819	4359.88
546.588	4118.88
547.358	3921.88
548.127	3728.88
548.896	3567.88
549.665	3377.88
550.434	3208.88
551.203	3014.88
551.972	2873.88
552.741	2713.88
553.51	2568.88
554.278	2439.88
555.047	2299.88
555.815	2187.88
556.584	2061.88
557.352	1949.88
558.121	1831.88
558.889	1715.88
559.657	1630.88
560.425	1547.88
561.193	1461.88
561.961	1376.88
562.729	1296.88
563.496	1241.88
564.264	1167.88
565.032	1107.88
565.799	1042.88
566.567	994.88
567.334	928.88
568.101	888.88
568.869	828.88
569.636	786.88
570.403	744.88
571.17	701.88
571.937	667.88
572.704	630.88
573.471	586.88
574.237	554.88
575.004	524.88
575.771	498.88
576.537	464.88
577.303	436.88
578.07	410.88
578.836	390.88
579.602	366.88
580.368	353.88
581.134	326.88
581.9	314.88
582.666	299.88
583.432	286.88
584.198	268.88
584.964	257.88
585.729	247.88
586.495	235.88
587.26	216.88
588.025	204.88
588.791	196.88
589.556	181.88
590.321	176.88
591.086	165.88
591.851	151.88
592.616	148.88
593.381	145.88
594.146	136.88
594.911	129.88
595.675	125.88
596.44	124.88
597.204	121.88
597.969	112.88
598.733	107.88
599.497	96.88
600.261	95.88
601.025	89.88
601.79	88.88
602.553	85.88
603.317	82.88
604.081	75.88
604.845	74.88
605.609	69.88
606.372	69.88
607.136	65.88
607.899	64.88
608.662	59.88
609.426	59.88
610.189	58.88
610.952	55.88
611.715	54.88
612.478	52.88
613.241	47.88
614.004	48.88
614.767	44.88
615.529	43.88
616.292	39.88
617.055	39.88
617.817	40.88
618.579	37.88
619.342	37.88
620.104	32.88
620.866	36.88
621.628	36.88
622.39	31.88
623.152	31.88
623.914	30.88
624.676	28.88
625.438	29.88
626.199	27.88
626.961	27.88
627.722	27.88
628.484	24.88
629.245	22.88
630.006	23.88
630.768	25.88
631.529	23.88
632.29	22.88
633.051	18.88
633.812	20.88
634.573	21.88
635.333	20.88
636.094	20.88
636.855	20.88
637.615	16.88
638.376	18.88
639.136	17.88
639.896	18.88
640.657	14.88
641.417	14.88
642.177	14.88
642.937	16.88
643.697	15.88
644.457	15.88
645.216	15.88
645.976	15.88
646.736	12.88
647.495	14.88
648.255	11.88
649.014	11.88
649.774	13.88
650.533	10.88
651.292	9.88
652.051	12.88
652.81	12.88
653.569	11.88
654.328	12.88
655.087	12.88
655.846	11.88
656.604	9.88
657.363	11.88
658.121	12.88
658.88	9.88
659.638	11.88
660.397	10.88
661.155	8.88
661.913	9.88
662.671	10.88
663.429	7.88
664.187	8.88
664.945	8.88
665.703	7.88
666.46	8.88
667.218	8.88
667.976	9.88
668.733	6.88
669.49	7.88
670.248	7.88
671.005	8.88
671.762	6.88
672.519	7.88
673.276	7.88
674.033	6.88
674.79	6.88
675.547	4.88
676.304	9.88
677.06	4.88
677.817	8.88
678.574	7.88
679.33	4.88
680.086	6.88
680.843	6.88
681.599	6.88
682.355	5.88
683.111	5.88
683.867	8.88
684.623	8.88
685.379	6.88
686.135	7.88
686.89	7.88
687.646	6.88
688.402	6.88
689.157	7.88
689.912	6.88
690.668	5.88
691.423	6.88
692.178	4.88
692.933	5.88
693.688	6.88
694.443	4.88
695.198	6.88
695.953	6.88
696.708	6.88
697.462	6.88
698.217	6.88
698.972	5.88
699.726	4.88
700.48	3.88
701.235	5.88
701.989	9.88
702.743	7.88
703.497	4.88
704.251	4.88
705.005	6.88
705.759	9.88
706.513	8.88
707.266	4.88
708.02	7.88
708.774	4.88
709.527	7.88
710.28	6.88
711.034	5.88
711.787	6.88
712.54	5.88
713.293	5.88
714.046	5.88
714.799	6.88
715.552	6.88
716.305	8.88
717.058	6.88
717.81	5.88
718.563	6.88
719.315	6.88
720.068	8.88
720.82	6.88
721.573	7.88
722.325	7.88
723.077	6.88
723.829	10.88
724.581	5.88
725.333	7.88
726.085	5.88
726.836	8.88
727.588	7.88
728.34	7.88
729.091	7.88
729.843	5.88
730.594	10.88
731.346	7.88
732.097	8.88
732.848	5.88
733.599	6.88
734.35	6.88
735.101	9.88
735.852	8.88
736.603	8.88
737.354	8.88
738.104	8.88
738.855	6.88
739.605	10.88
740.356	5.88
741.106	6.88
741.856	7.88
742.607	7.88
743.357	6.88
744.107	10.88
744.857	6.88
745.607	4.88
746.357	6.88
747.106	11.88
747.856	10.88
748.606	8.88
749.355	9.88
750.105	8.88
750.854	10.88
751.603	9.88
752.353	7.88
753.102	10.88
753.851	11.88
754.6	11.88
755.349	10.88
756.098	10.88
756.847	11.88
757.595	9.88
758.344	9.88
759.093	9.88
759.841	8.88
760.589	9.88
761.338	9.88
762.086	7.88
762.834	12.88
763.582	11.88
764.331	9.88
765.079	13.88
765.826	11.88
766.574	13.88
767.322	13.88
768.07	13.88
768.817	13.88
769.565	10.88
770.312	12.88
771.06	11.88
771.807	12.88
772.554	11.88
773.302	11.88
774.049	13.88
774.796	9.88
775.543	13.88
776.29	14.88
777.036	14.88
777.783	13.88
778.53	11.88
779.276	13.88
780.023	14.88
780.769	13.88
781.516	12.88
782.262	11.88
783.008	12.88
783.754	13.88
784.5	14.88
785.246	14.88
785.992	13.88
786.738	13.88
787.484	14.88
788.23	11.88
788.975	13.88
789.721	13.88
790.466	11.88
791.212	11.88
791.957	12.88
792.702	13.88
793.447	9.88
794.193	11.88
794.938	13.88
795.683	13.88
796.427	11.88
797.172	8.88
797.917	9.88
798.662	11.88
799.406	10.88
800.151	9.88
800.895	9.88
801.64	11.88
802.384	10.88
803.128	9.88
803.872	10.88
804.616	9.88
805.36	11.88
806.104	9.88
806.848	11.88
807.592	6.88
808.336	8.88
809.079	6.88
809.823	8.88
810.566	8.88
811.31	5.88
812.053	8.88
812.796	8.88
813.539	5.88
814.283	9.88
815.026	9.88
815.769	6.88
816.511	7.88
817.254	7.88
817.997	4.88
818.74	8.88
819.482	6.88
820.225	7.88
820.967	6.88
821.71	7.88
822.452	6.88
823.194	6.88
823.936	6.88
824.678	3.88
825.42	8.88
826.162	5.88
826.904	3.88
827.646	3.88
828.388	6.88
829.129	5.88
829.871	3.88
830.612	5.88
831.354	4.88
832.095	4.88
832.836	6.88
833.577	4.88
834.319	0.88
835.06	5.88
835.801	4.88
836.542	2.88
837.282	5.88
838.023	3.88
838.764	4.88
839.504	5.88
840.245	3.88
840.985	4.88
841.726	6.88
842.466	5.88
843.206	3.88
843.946	4.88
844.687	2.88
845.427	2.88
846.166	6.88
846.906	5.88
847.646	4.88
848.386	3.88
849.125	2.88
849.865	5.88
850.605	4.88
851.344	4.88
852.083	4.88
852.823	4.88
853.562	2.88
854.301	1.88
855.04	2.88
855.779	4.88
856.518	2.88
857.257	3.88
857.995	5.88
858.734	2.88
859.473	2.88
860.211	2.88
860.95	2.88
861.688	1.88
862.426	1.88
863.165	3.88
863.903	3.88
864.641	2.88
865.379	3.88
866.117	1.88
866.855	2.88
867.593	2.88
868.33	1.88
869.068	1.88
869.806	0.88
870.543	-0.12
871.28	1.88
872.018	1.88
872.755	0.88
873.492	1.88
874.229	2.88
874.967	0.88
875.703	2.88
876.44	2.88
877.177	1.88
877.914	0.88
878.651	2.88
879.387	0.88
880.124	2.88
880.86	0.88
881.597	3.88
882.333	1.88
883.069	0.88
883.806	2.88
884.542	0.88
885.278	1.88
886.014	-0.12
886.749	0.88
887.485	1.88
888.221	0.88
888.957	1.88
889.692	0.88
890.428	0.88
891.163	0.88
891.899	-0.12
892.634	2.88
893.369	1.88
894.104	1.88
894.839	0.88
895.574	1.88
896.309	1.88
897.044	0.88
897.779	1.88
898.514	1.88
899.248	1.88
899.983	0.88
900.717	-0.12
901.452	1.88
902.186	2.88
902.92	2.88
903.654	-1.12
904.389	1.88
905.123	-0.12
905.857	3.88
906.59	0.88
907.324	0.88
908.058	0.88
908.792	-1.12
909.525	0.88
910.259	0.88
910.992	1.88
911.726	0.88
912.459	-2.12
913.192	2.88
913.925	-1.12
914.658	0.88
915.391	-1.12
916.124	-0.12
916.857	0.88
917.59	-1.12
918.323	-0.12
919.055	0.88
919.788	0.88
920.521	-0.12
921.253	1.88
921.985	1.88
922.718	-1.12
923.45	1.88
924.182	-0.12
924.914	-0.12
925.646	1.88
926.378	0.88
927.11	0.88
927.841	0.88
928.573	0.88
929.305	-0.12
930.036	1.88
930.768	0.88
931.499	1.88
932.23	0.88
932.962	0.88
933.693	1.88
934.424	-1.12
935.155	3.88
935.886	2.88
936.617	2.88
937.348	-2.12
938.078	0.88
938.809	1.88
939.54	0.88
940.27	0.88
941.001	-2.12
941.731	1.88
942.461	-0.12
943.191	0.88
943.922	-0.12
944.652	0.88
945.382	0.88
946.112	1.88
946.841	2.88
947.571	-0.12
948.301	0.88
949.031	-1.12
949.76	2.88
950.49	0.88
951.219	0.88
951.948	1.88
952.678	-1.12
953.407	-1.12
954.136	1.88
954.865	1.88
955.594	-1.12
956.323	1.88
957.052	-0.12
957.78	-0.12
958.509	0.88
959.238	-0.12
959.966	-0.12
960.695	-2.12
961.423	0.88
962.151	0.88
962.88	1.88
963.608	1.88
964.336	1.88
965.064	-2.12
965.792	2.88
966.52	-0.12
967.247	1.88
967.975	1.88
968.703	0.88
969.43	3.88
970.158	2.88
970.885	-1.12
971.613	0.88
972.34	0.88
973.067	-1.12
973.794	-1.12
974.521	1.88
975.248	-1.12
975.975	2.88
976.702	-2.12
977.429	0.88
978.156	-1.12
978.882	0.88
979.609	1.88
980.335	4.88
981.062	-0.12
981.788	0.88
982.514	-0.12
983.24	0.88
983.967	-1.12
984.693	0.88
985.419	0.88
986.144	0.88
986.87	-1.12
987.596	1.88
988.322	0.88
989.047	-0.12
989.773	0.88
990.498	-1.12
991.224	0.88
991.949	-0.12
992.674	-0.12
993.399	0.88
994.124	0.88
994.849	3.88
995.574	-2.12
996.299	0.88
997.024	0.88
997.749	0.88
998.473	0.88
999.198	0.88
999.922	-0.12
1000.647	-1.12
1001.371	4.88
1002.095	-0.12
1002.82	-1.12
1003.544	-3.12
1004.268	5.88
1004.992	2.88
1005.716	2.88
1006.439	1.88
1007.163	5.88
1007.887	4.88
1008.611	0.88
1009.334	0.88
1010.058	2.88
1010.781	0.88
1011.504	0.88
1012.228	1.88
1012.951	-1.12
1013.674	-0.12
1014.397	-0.12
1015.12	0.88
