节点500_565_QEPB04081__60__09-51-26-073.txt的数据

Date: Thu Nov 13 09:51:26 CST 2025
User: PC
Spectrometer: QEPB0408
触发模式: 0
积分时间 (秒): 1.000000E-2
Scans to average: 1
启用暗噪声校正: true
启用非线性校正: false
滑动平均宽度: 0
X轴模式: Wavelengths
Number of Pixels in Spectrum: 1044
>>>>>Begin Spectral Data<<<<<
220.843	5.62
221.644	5.62
222.444	4.62
223.244	3.62
224.045	6.62
224.845	6.62
225.645	6.62
226.445	4.62
227.245	4.62
228.045	5.62
228.845	7.62
229.645	6.62
230.444	6.62
231.244	6.62
232.043	8.62
232.843	7.62
233.642	7.62
234.442	10.62
235.241	7.62
236.04	11.62
236.839	10.62
237.638	7.62
238.437	11.62
239.236	7.62
240.035	10.62
240.833	9.62
241.632	10.62
242.43	8.62
243.229	9.62
244.027	8.62
244.826	10.62
245.624	12.62
246.422	11.62
247.22	12.62
248.018	13.62
248.816	12.62
249.614	12.62
250.412	12.62
251.21	14.62
252.007	15.62
252.805	14.62
253.602	15.62
254.4	14.62
255.197	17.62
255.994	19.62
256.791	18.62
257.589	18.62
258.386	21.62
259.183	19.62
259.979	20.62
260.776	19.62
261.573	19.62
262.37	23.62
263.166	22.62
263.963	22.62
264.759	23.62
265.556	26.62
266.352	25.62
267.148	23.62
267.944	28.62
268.74	27.62
269.536	28.62
270.332	24.62
271.128	26.62
271.924	28.62
272.719	27.62
273.515	29.62
274.311	30.62
275.106	31.62
275.901	30.62
276.697	32.62
277.492	33.62
278.287	32.62
279.082	32.62
279.877	33.62
280.672	28.62
281.467	28.62
282.262	32.62
283.056	32.62
283.851	30.62
284.646	33.62
285.44	29.62
286.234	30.62
287.029	30.62
287.823	30.62
288.617	32.62
289.411	30.62
290.205	28.62
290.999	28.62
291.793	30.62
292.587	31.62
293.381	25.62
294.174	29.62
294.968	23.62
295.761	23.62
296.555	23.62
297.348	24.62
298.141	24.62
298.935	23.62
299.728	22.62
300.521	21.62
301.314	21.62
302.107	23.62
302.899	20.62
303.692	20.62
304.485	20.62
305.277	20.62
306.07	16.62
306.862	18.62
307.655	18.62
308.447	18.62
309.239	16.62
310.031	18.62
310.823	17.62
311.615	15.62
312.407	15.62
313.199	13.62
313.991	13.62
314.783	15.62
315.574	12.62
316.366	13.62
317.157	15.62
317.949	15.62
318.74	12.62
319.531	13.62
320.322	12.62
321.113	11.62
321.904	11.62
322.695	11.62
323.486	10.62
324.277	11.62
325.068	11.62
325.858	13.62
326.649	10.62
327.439	11.62
328.23	12.62
329.02	13.62
329.81	10.62
330.6	9.62
331.391	11.62
332.181	10.62
332.971	10.62
333.76	11.62
334.55	9.62
335.34	11.62
336.13	10.62
336.919	12.62
337.709	7.62
338.498	11.62
339.287	8.62
340.077	12.62
340.866	13.62
341.655	10.62
342.444	11.62
343.233	10.62
344.022	11.62
344.811	10.62
345.6	12.62
346.388	10.62
347.177	12.62
347.965	11.62
348.754	10.62
349.542	10.62
350.33	11.62
351.119	11.62
351.907	8.62
352.695	9.62
353.483	8.62
354.271	7.62
355.059	10.62
355.846	8.62
356.634	9.62
357.422	10.62
358.209	9.62
358.997	9.62
359.784	10.62
360.571	7.62
361.359	8.62
362.146	6.62
362.933	7.62
363.72	9.62
364.507	9.62
365.294	11.62
366.081	10.62
366.867	8.62
367.654	8.62
368.44	10.62
369.227	9.62
370.013	8.62
370.8	8.62
371.586	9.62
372.372	5.62
373.158	9.62
373.944	9.62
374.73	9.62
375.516	8.62
376.302	8.62
377.088	7.62
377.873	10.62
378.659	7.62
379.445	8.62
380.23	10.62
381.015	9.62
381.801	8.62
382.586	9.62
383.371	7.62
384.156	11.62
384.941	8.62
385.726	8.62
386.511	8.62
387.296	9.62
388.08	10.62
388.865	10.62
389.649	11.62
390.434	8.62
391.218	11.62
392.003	12.62
392.787	10.62
393.571	10.62
394.355	6.62
395.139	13.62
395.923	11.62
396.707	9.62
397.491	12.62
398.274	11.62
399.058	12.62
399.842	12.62
400.625	16.62
401.408	12.62
402.192	12.62
402.975	12.62
403.758	13.62
404.541	13.62
405.324	14.62
406.107	15.62
406.89	13.62
407.673	12.62
408.456	12.62
409.238	18.62
410.021	12.62
410.803	14.62
411.586	13.62
412.368	14.62
413.151	14.62
413.933	15.62
414.715	13.62
415.497	18.62
416.279	17.62
417.061	19.62
417.843	16.62
418.624	17.62
419.406	16.62
420.188	16.62
420.969	20.62
421.751	19.62
422.532	22.62
423.313	19.62
424.095	19.62
424.876	22.62
425.657	21.62
426.438	21.62
427.219	21.62
428	25.62
428.78	27.62
429.561	23.62
430.342	27.62
431.122	28.62
431.903	25.62
432.683	28.62
433.464	30.62
434.244	30.62
435.024	34.62
435.804	34.62
436.584	37.62
437.364	36.62
438.144	36.62
438.924	41.62
439.704	43.62
440.483	46.62
441.263	44.62
442.042	49.62
442.822	51.62
443.601	56.62
444.38	61.62
445.16	61.62
445.939	70.62
446.718	73.62
447.497	79.62
448.276	86.62
449.054	95.62
449.833	104.62
450.612	107.62
451.391	124.62
452.169	138.62
452.948	145.62
453.726	159.62
454.504	180.62
455.282	199.62
456.061	223.62
456.839	249.62
457.617	274.62
458.395	311.62
459.172	348.62
459.95	384.62
460.728	434.62
461.506	479.62
462.283	535.62
463.061	604.62
463.838	682.62
464.615	753.62
465.393	838.62
466.17	932.62
466.947	1053.62
467.724	1189.62
468.501	1318.62
469.278	1455.62
470.055	1634.62
470.831	1806.62
471.608	2028.62
472.385	2241.62
473.161	2493.62
473.938	2775.62
474.714	3064.62
475.49	3394.62
476.266	3723.62
477.043	4144.62
477.819	4563.62
478.595	5072.62
479.371	5566.62
480.146	6116.62
480.922	6751.62
481.698	7393.62
482.473	8103.62
483.249	8895.62
484.024	9759.62
484.8	10676.62
485.575	11715.62
486.35	12752.62
487.126	13946.62
487.901	15213.62
488.676	16515.62
489.451	17926.62
490.225	19476.62
491	21080.62
491.775	22692.62
492.55	24419.62
493.324	26144.62
494.099	27883.62
494.873	29773.62
495.647	31668.62
496.422	33518.62
497.196	35261.62
497.97	36899.62
498.744	38447.62
499.518	39795.62
500.292	41061.62
501.066	42201.62
501.839	43217.62
502.613	43867.62
503.387	44389.62
504.16	44568.62
504.934	44564.62
505.707	44322.62
506.48	43815.62
507.253	43013.62
508.027	42170.62
508.8	41005.62
509.573	39740.62
510.346	38494.62
511.118	37078.62
511.891	35835.62
512.664	34385.62
513.437	32994.62
514.209	31481.62
514.982	30199.62
515.754	29003.62
516.526	27596.62
517.298	26404.62
518.071	25391.62
518.843	24393.62
519.615	23362.62
520.387	22491.62
521.159	21572.62
521.93	20740.62
522.702	19778.62
523.474	18966.62
524.245	18193.62
525.017	17483.62
525.788	16625.62
526.56	15804.62
527.331	15136.62
528.102	14407.62
528.873	13634.62
529.644	12874.62
530.415	12210.62
531.186	11551.62
531.957	10996.62
532.728	10405.62
533.498	9823.62
534.269	9282.62
535.039	8744.62
535.81	8273.62
536.58	7856.62
537.351	7420.62
538.121	6954.62
538.891	6637.62
539.661	6264.62
540.431	5922.62
541.201	5599.62
541.971	5339.62
542.741	5040.62
543.51	4790.62
544.28	4532.62
545.05	4306.62
545.819	4102.62
546.588	3886.62
547.358	3704.62
548.127	3516.62
548.896	3317.62
549.665	3163.62
550.434	2997.62
551.203	2852.62
551.972	2674.62
552.741	2543.62
553.51	2423.62
554.278	2275.62
555.047	2128.62
555.815	2001.62
556.584	1920.62
557.352	1787.62
558.121	1696.62
558.889	1593.62
559.657	1507.62
560.425	1418.62
561.193	1351.62
561.961	1272.62
562.729	1219.62
563.496	1137.62
564.264	1078.62
565.032	1017.62
565.799	968.62
566.567	912.62
567.334	871.62
568.101	809.62
568.869	774.62
569.636	732.62
570.403	689.62
571.17	653.62
571.937	612.62
572.704	578.62
573.471	548.62
574.237	513.62
575.004	492.62
575.771	453.62
576.537	429.62
577.303	409.62
578.07	382.62
578.836	355.62
579.602	346.62
580.368	327.62
581.134	311.62
581.9	295.62
582.666	274.62
583.432	262.62
584.198	248.62
584.964	233.62
585.729	228.62
586.495	213.62
587.26	205.62
588.025	192.62
588.791	182.62
589.556	174.62
590.321	166.62
591.086	156.62
591.851	148.62
592.616	145.62
593.381	139.62
594.146	129.62
594.911	122.62
595.675	117.62
596.44	109.62
597.204	105.62
597.969	104.62
598.733	102.62
599.497	94.62
600.261	88.62
601.025	86.62
601.79	84.62
602.553	80.62
603.317	77.62
604.081	68.62
604.845	72.62
605.609	68.62
606.372	66.62
607.136	64.62
607.899	59.62
608.662	61.62
609.426	51.62
610.189	52.62
610.952	51.62
611.715	49.62
612.478	49.62
613.241	48.62
614.004	45.62
614.767	42.62
615.529	42.62
616.292	41.62
617.055	39.62
617.817	36.62
618.579	37.62
619.342	36.62
620.104	36.62
620.866	31.62
621.628	32.62
622.39	32.62
623.152	29.62
623.914	27.62
624.676	29.62
625.438	25.62
626.199	28.62
626.961	25.62
627.722	22.62
628.484	24.62
629.245	22.62
630.006	21.62
630.768	24.62
631.529	25.62
632.29	21.62
633.051	22.62
633.812	21.62
634.573	20.62
635.333	18.62
636.094	20.62
636.855	19.62
637.615	17.62
638.376	18.62
639.136	18.62
639.896	16.62
640.657	14.62
641.417	14.62
642.177	17.62
642.937	15.62
643.697	13.62
644.457	13.62
645.216	12.62
645.976	16.62
646.736	13.62
647.495	14.62
648.255	12.62
649.014	15.62
649.774	13.62
650.533	8.62
651.292	11.62
652.051	11.62
652.81	11.62
653.569	10.62
654.328	11.62
655.087	12.62
655.846	10.62
656.604	9.62
657.363	8.62
658.121	9.62
658.88	10.62
659.638	8.62
660.397	8.62
661.155	8.62
661.913	8.62
662.671	9.62
663.429	10.62
664.187	10.62
664.945	7.62
665.703	9.62
666.46	7.62
667.218	10.62
667.976	9.62
668.733	9.62
669.49	6.62
670.248	8.62
671.005	8.62
671.762	6.62
672.519	7.62
673.276	10.62
674.033	7.62
674.79	11.62
675.547	5.62
676.304	6.62
677.06	6.62
677.817	7.62
678.574	7.62
679.33	8.62
680.086	6.62
680.843	9.62
681.599	8.62
682.355	7.62
683.111	6.62
683.867	5.62
684.623	8.62
685.379	6.62
686.135	7.62
686.89	6.62
687.646	7.62
688.402	6.62
689.157	8.62
689.912	6.62
690.668	6.62
691.423	8.62
692.178	7.62
692.933	5.62
693.688	6.62
694.443	8.62
695.198	7.62
695.953	5.62
696.708	4.62
697.462	6.62
698.217	5.62
698.972	6.62
699.726	7.62
700.48	5.62
701.235	5.62
701.989	6.62
702.743	7.62
703.497	8.62
704.251	8.62
705.005	6.62
705.759	6.62
706.513	8.62
707.266	4.62
708.02	5.62
708.774	4.62
709.527	6.62
710.28	5.62
711.034	6.62
711.787	7.62
712.54	6.62
713.293	8.62
714.046	6.62
714.799	5.62
715.552	8.62
716.305	7.62
717.058	8.62
717.81	7.62
718.563	7.62
719.315	7.62
720.068	6.62
720.82	7.62
721.573	6.62
722.325	9.62
723.077	5.62
723.829	5.62
724.581	9.62
725.333	8.62
726.085	6.62
726.836	8.62
727.588	8.62
728.34	8.62
729.091	7.62
729.843	8.62
730.594	7.62
731.346	8.62
732.097	7.62
732.848	7.62
733.599	8.62
734.35	6.62
735.101	7.62
735.852	8.62
736.603	10.62
737.354	10.62
738.104	8.62
738.855	8.62
739.605	7.62
740.356	10.62
741.106	8.62
741.856	9.62
742.607	10.62
743.357	8.62
744.107	8.62
744.857	8.62
745.607	9.62
746.357	9.62
747.106	7.62
747.856	8.62
748.606	8.62
749.355	12.62
750.105	10.62
750.854	11.62
751.603	9.62
752.353	10.62
753.102	11.62
753.851	14.62
754.6	12.62
755.349	13.62
756.098	8.62
756.847	9.62
757.595	11.62
758.344	12.62
759.093	11.62
759.841	12.62
760.589	12.62
761.338	13.62
762.086	8.62
762.834	11.62
763.582	11.62
764.331	11.62
765.079	11.62
765.826	13.62
766.574	13.62
767.322	12.62
768.07	9.62
768.817	14.62
769.565	12.62
770.312	13.62
771.06	13.62
771.807	14.62
772.554	14.62
773.302	14.62
774.049	15.62
774.796	11.62
775.543	13.62
776.29	13.62
777.036	13.62
777.783	15.62
778.53	12.62
779.276	13.62
780.023	11.62
780.769	15.62
781.516	15.62
782.262	16.62
783.008	16.62
783.754	13.62
784.5	15.62
785.246	14.62
785.992	13.62
786.738	16.62
787.484	13.62
788.23	14.62
788.975	13.62
789.721	16.62
790.466	13.62
791.212	16.62
791.957	12.62
792.702	12.62
793.447	12.62
794.193	15.62
794.938	13.62
795.683	12.62
796.427	12.62
797.172	12.62
797.917	11.62
798.662	10.62
799.406	9.62
800.151	12.62
800.895	12.62
801.64	12.62
802.384	10.62
803.128	10.62
803.872	12.62
804.616	9.62
805.36	10.62
806.104	8.62
806.848	10.62
807.592	9.62
808.336	9.62
809.079	9.62
809.823	7.62
810.566	8.62
811.31	7.62
812.053	10.62
812.796	8.62
813.539	8.62
814.283	7.62
815.026	8.62
815.769	8.62
816.511	4.62
817.254	8.62
817.997	7.62
818.74	7.62
819.482	7.62
820.225	5.62
820.967	7.62
821.71	7.62
822.452	6.62
823.194	7.62
823.936	8.62
824.678	8.62
825.42	6.62
826.162	4.62
826.904	7.62
827.646	5.62
828.388	5.62
829.129	4.62
829.871	7.62
830.612	4.62
831.354	4.62
832.095	6.62
832.836	6.62
833.577	2.62
834.319	5.62
835.06	5.62
835.801	6.62
836.542	4.62
837.282	3.62
838.023	6.62
838.764	6.62
839.504	6.62
840.245	6.62
840.985	6.62
841.726	3.62
842.466	5.62
843.206	5.62
843.946	6.62
844.687	5.62
845.427	4.62
846.166	3.62
846.906	6.62
847.646	4.62
848.386	4.62
849.125	1.62
849.865	4.62
850.605	4.62
851.344	3.62
852.083	4.62
852.823	2.62
853.562	2.62
854.301	5.62
855.04	2.62
855.779	3.62
856.518	2.62
857.257	2.62
857.995	2.62
858.734	5.62
859.473	5.62
860.211	1.62
860.95	4.62
861.688	2.62
862.426	5.62
863.165	5.62
863.903	4.62
864.641	4.62
865.379	3.62
866.117	2.62
866.855	2.62
867.593	1.62
868.33	-0.38
869.068	4.62
869.806	2.62
870.543	5.62
871.28	0.62
872.018	1.62
872.755	2.62
873.492	0.62
874.229	3.62
874.967	3.62
875.703	4.62
876.44	1.62
877.177	3.62
877.914	2.62
878.651	0.62
879.387	3.62
880.124	1.62
880.86	2.62
881.597	1.62
882.333	1.62
883.069	1.62
883.806	0.62
884.542	0.62
885.278	0.62
886.014	1.62
886.749	2.62
887.485	0.62
888.221	0.62
888.957	0.62
889.692	0.62
890.428	0.62
891.163	0.62
891.899	3.62
892.634	-0.38
893.369	1.62
894.104	2.62
894.839	3.62
895.574	1.62
896.309	2.62
897.044	0.62
897.779	2.62
898.514	1.62
899.248	1.62
899.983	0.62
900.717	2.62
901.452	-1.38
902.186	2.62
902.92	-0.38
903.654	0.62
904.389	0.62
905.123	1.62
905.857	-0.38
906.59	0.62
907.324	1.62
908.058	1.62
908.792	1.62
909.525	0.62
910.259	2.62
910.992	0.62
911.726	2.62
912.459	0.62
913.192	0.62
913.925	2.62
914.658	-0.38
915.391	0.62
916.124	1.62
916.857	1.62
917.59	2.62
918.323	0.62
919.055	0.62
919.788	0.62
920.521	0.62
921.253	1.62
921.985	0.62
922.718	-0.38
923.45	0.62
924.182	-1.38
924.914	-0.38
925.646	1.62
926.378	2.62
927.11	1.62
927.841	0.62
928.573	-0.38
929.305	0.62
930.036	-1.38
930.768	1.62
931.499	1.62
932.23	1.62
932.962	2.62
933.693	-1.38
934.424	-0.38
935.155	-0.38
935.886	-0.38
936.617	1.62
937.348	4.62
938.078	1.62
938.809	2.62
939.54	-1.38
940.27	1.62
941.001	1.62
941.731	0.62
942.461	2.62
943.191	2.62
943.922	0.62
944.652	1.62
945.382	-1.38
946.112	4.62
946.841	2.62
947.571	2.62
948.301	-0.38
949.031	2.62
949.76	0.62
950.49	-2.38
951.219	0.62
951.948	1.62
952.678	2.62
953.407	1.62
954.136	-1.38
954.865	0.62
955.594	0.62
956.323	1.62
957.052	-1.38
957.78	0.62
958.509	0.62
959.238	-0.38
959.966	-2.38
960.695	0.62
961.423	0.62
962.151	-0.38
962.88	1.62
963.608	0.62
964.336	2.62
965.064	-1.38
965.792	-0.38
966.52	2.62
967.247	0.62
967.975	1.62
968.703	0.62
969.43	1.62
970.158	3.62
970.885	0.62
971.613	-1.38
972.34	0.62
973.067	2.62
973.794	-0.38
974.521	1.62
975.248	0.62
975.975	-0.38
976.702	2.62
977.429	-0.38
978.156	1.62
978.882	0.62
979.609	-1.38
980.335	2.62
981.062	-0.38
981.788	0.62
982.514	0.62
983.24	0.62
983.967	0.62
984.693	0.62
985.419	2.62
986.144	-0.38
986.87	1.62
987.596	-0.38
988.322	0.62
989.047	0.62
989.773	0.62
990.498	1.62
991.224	2.62
991.949	2.62
992.674	0.62
993.399	-0.38
994.124	-1.38
994.849	0.62
995.574	1.62
996.299	-0.38
997.024	-0.38
997.749	-0.38
998.473	0.62
999.198	0.62
999.922	3.62
1000.647	1.62
1001.371	3.62
1002.095	0.62
1002.82	-0.38
1003.544	-3.38
1004.268	5.62
1004.992	1.62
1005.716	2.62
1006.439	4.62
1007.163	4.62
1007.887	3.62
1008.611	0.62
1009.334	2.62
1010.058	1.62
1010.781	-1.38
1011.504	0.62
1012.228	0.62
1012.951	0.62
1013.674	-1.38
1014.397	-0.38
1015.12	0.62
