节点500_565_QEPB04081__10__09-50-38-109.txt的数据

Date: Thu Nov 13 09:50:38 CST 2025
User: PC
Spectrometer: QEPB0408
触发模式: 0
积分时间 (秒): 1.000000E-2
Scans to average: 1
启用暗噪声校正: true
启用非线性校正: false
滑动平均宽度: 0
X轴模式: Wavelengths
Number of Pixels in Spectrum: 1044
>>>>>Begin Spectral Data<<<<<
220.843	5.62
221.644	3.62
222.444	3.62
223.244	5.62
224.045	4.62
224.845	6.62
225.645	4.62
226.445	6.62
227.245	7.62
228.045	3.62
228.845	6.62
229.645	7.62
230.444	8.62
231.244	3.62
232.043	5.62
232.843	5.62
233.642	6.62
234.442	8.62
235.241	6.62
236.04	6.62
236.839	9.62
237.638	10.62
238.437	9.62
239.236	10.62
240.035	9.62
240.833	10.62
241.632	10.62
242.43	9.62
243.229	10.62
244.027	12.62
244.826	11.62
245.624	12.62
246.422	12.62
247.22	14.62
248.018	13.62
248.816	13.62
249.614	13.62
250.412	13.62
251.21	13.62
252.007	16.62
252.805	15.62
253.602	17.62
254.4	19.62
255.197	17.62
255.994	19.62
256.791	18.62
257.589	19.62
258.386	17.62
259.183	18.62
259.979	20.62
260.776	24.62
261.573	20.62
262.37	23.62
263.166	25.62
263.963	23.62
264.759	24.62
265.556	25.62
266.352	24.62
267.148	27.62
267.944	28.62
268.74	25.62
269.536	28.62
270.332	29.62
271.128	27.62
271.924	29.62
272.719	31.62
273.515	28.62
274.311	32.62
275.106	30.62
275.901	28.62
276.697	31.62
277.492	32.62
278.287	29.62
279.082	33.62
279.877	32.62
280.672	28.62
281.467	29.62
282.262	33.62
283.056	29.62
283.851	29.62
284.646	31.62
285.44	32.62
286.234	32.62
287.029	30.62
287.823	29.62
288.617	30.62
289.411	30.62
290.205	30.62
290.999	29.62
291.793	29.62
292.587	27.62
293.381	26.62
294.174	28.62
294.968	25.62
295.761	25.62
296.555	20.62
297.348	23.62
298.141	20.62
298.935	27.62
299.728	21.62
300.521	21.62
301.314	21.62
302.107	19.62
302.899	18.62
303.692	20.62
304.485	22.62
305.277	17.62
306.07	20.62
306.862	21.62
307.655	19.62
308.447	20.62
309.239	18.62
310.031	17.62
310.823	15.62
311.615	16.62
312.407	13.62
313.199	14.62
313.991	14.62
314.783	13.62
315.574	14.62
316.366	12.62
317.157	16.62
317.949	16.62
318.74	11.62
319.531	11.62
320.322	13.62
321.113	12.62
321.904	9.62
322.695	13.62
323.486	10.62
324.277	11.62
325.068	13.62
325.858	10.62
326.649	12.62
327.439	12.62
328.23	8.62
329.02	14.62
329.81	8.62
330.6	11.62
331.391	12.62
332.181	11.62
332.971	9.62
333.76	11.62
334.55	9.62
335.34	12.62
336.13	11.62
336.919	12.62
337.709	9.62
338.498	9.62
339.287	10.62
340.077	8.62
340.866	10.62
341.655	12.62
342.444	9.62
343.233	10.62
344.022	10.62
344.811	10.62
345.6	9.62
346.388	13.62
347.177	10.62
347.965	11.62
348.754	9.62
349.542	11.62
350.33	9.62
351.119	8.62
351.907	9.62
352.695	9.62
353.483	11.62
354.271	10.62
355.059	10.62
355.846	8.62
356.634	9.62
357.422	9.62
358.209	10.62
358.997	10.62
359.784	10.62
360.571	11.62
361.359	9.62
362.146	8.62
362.933	11.62
363.72	9.62
364.507	10.62
365.294	9.62
366.081	7.62
366.867	8.62
367.654	9.62
368.44	7.62
369.227	8.62
370.013	7.62
370.8	9.62
371.586	10.62
372.372	9.62
373.158	8.62
373.944	8.62
374.73	9.62
375.516	9.62
376.302	8.62
377.088	8.62
377.873	8.62
378.659	9.62
379.445	6.62
380.23	10.62
381.015	8.62
381.801	8.62
382.586	9.62
383.371	9.62
384.156	11.62
384.941	7.62
385.726	12.62
386.511	11.62
387.296	10.62
388.08	9.62
388.865	8.62
389.649	10.62
390.434	10.62
391.218	11.62
392.003	8.62
392.787	8.62
393.571	11.62
394.355	9.62
395.139	11.62
395.923	12.62
396.707	12.62
397.491	8.62
398.274	14.62
399.058	14.62
399.842	12.62
400.625	13.62
401.408	12.62
402.192	12.62
402.975	12.62
403.758	15.62
404.541	13.62
405.324	14.62
406.107	15.62
406.89	12.62
407.673	12.62
408.456	12.62
409.238	12.62
410.021	14.62
410.803	15.62
411.586	13.62
412.368	17.62
413.151	15.62
413.933	16.62
414.715	13.62
415.497	16.62
416.279	16.62
417.061	16.62
417.843	17.62
418.624	14.62
419.406	18.62
420.188	18.62
420.969	20.62
421.751	20.62
422.532	22.62
423.313	16.62
424.095	22.62
424.876	20.62
425.657	20.62
426.438	22.62
427.219	21.62
428	23.62
428.78	25.62
429.561	23.62
430.342	26.62
431.122	26.62
431.903	25.62
432.683	26.62
433.464	29.62
434.244	29.62
435.024	32.62
435.804	34.62
436.584	34.62
437.364	34.62
438.144	35.62
438.924	41.62
439.704	41.62
440.483	43.62
441.263	47.62
442.042	47.62
442.822	51.62
443.601	53.62
444.38	61.62
445.16	61.62
445.939	68.62
446.718	75.62
447.497	80.62
448.276	82.62
449.054	93.62
449.833	101.62
450.612	105.62
451.391	123.62
452.169	131.62
452.948	146.62
453.726	158.62
454.504	175.62
455.282	193.62
456.061	220.62
456.839	247.62
457.617	276.62
458.395	297.62
459.172	341.62
459.95	370.62
460.728	419.62
461.506	469.62
462.283	529.62
463.061	593.62
463.838	673.62
464.615	747.62
465.393	837.62
466.17	930.62
466.947	1041.62
467.724	1163.62
468.501	1305.62
469.278	1454.62
470.055	1629.62
470.831	1796.62
471.608	2009.62
472.385	2244.62
473.161	2502.62
473.938	2796.62
474.714	3054.62
475.49	3403.62
476.266	3769.62
477.043	4180.62
477.819	4600.62
478.595	5097.62
479.371	5644.62
480.146	6228.62
480.922	6846.62
481.698	7530.62
482.473	8259.62
483.249	9053.62
484.024	9968.62
484.8	10954.62
485.575	12031.62
486.35	13120.62
487.126	14297.62
487.901	15688.62
488.676	17090.62
489.451	18546.62
490.225	20158.62
491	21757.62
491.775	23500.62
492.55	25313.62
493.324	27143.62
494.099	28943.62
494.873	30830.62
495.647	32843.62
496.422	34670.62
497.196	36506.62
497.97	38163.62
498.744	39686.62
499.518	41007.62
500.292	42305.62
501.066	43485.62
501.839	44447.62
502.613	45014.62
503.387	45279.62
504.16	45588.62
504.934	45468.62
505.707	45019.62
506.48	44501.62
507.253	43575.62
508.027	42599.62
508.8	41410.62
509.573	40022.62
510.346	38689.62
511.118	37236.62
511.891	35911.62
512.664	34437.62
513.437	32953.62
514.209	31437.62
514.982	30156.62
515.754	28902.62
516.526	27654.62
517.298	26375.62
518.071	25340.62
518.843	24284.62
519.615	23275.62
520.387	22379.62
521.159	21487.62
521.93	20646.62
522.702	19736.62
523.474	18883.62
524.245	18206.62
525.017	17337.62
525.788	16564.62
526.56	15741.62
527.331	14976.62
528.102	14227.62
528.873	13427.62
529.644	12716.62
530.415	12126.62
531.186	11481.62
531.957	10857.62
532.728	10264.62
533.498	9686.62
534.269	9138.62
535.039	8601.62
535.81	8156.62
536.58	7748.62
537.351	7293.62
538.121	6881.62
538.891	6505.62
539.661	6183.62
540.431	5835.62
541.201	5541.62
541.971	5274.62
542.741	4963.62
543.51	4737.62
544.28	4494.62
545.05	4266.62
545.819	4033.62
546.588	3855.62
547.358	3655.62
548.127	3484.62
548.896	3286.62
549.665	3113.62
550.434	2939.62
551.203	2809.62
551.972	2672.62
552.741	2478.62
553.51	2360.62
554.278	2249.62
555.047	2096.62
555.815	1984.62
556.584	1879.62
557.352	1785.62
558.121	1671.62
558.889	1574.62
559.657	1484.62
560.425	1397.62
561.193	1338.62
561.961	1252.62
562.729	1198.62
563.496	1116.62
564.264	1066.62
565.032	1016.62
565.799	944.62
566.567	901.62
567.334	846.62
568.101	797.62
568.869	756.62
569.636	716.62
570.403	692.62
571.17	630.62
571.937	603.62
572.704	568.62
573.471	527.62
574.237	507.62
575.004	472.62
575.771	449.62
576.537	423.62
577.303	394.62
578.07	376.62
578.836	359.62
579.602	337.62
580.368	318.62
581.134	301.62
581.9	284.62
582.666	276.62
583.432	258.62
584.198	248.62
584.964	230.62
585.729	226.62
586.495	208.62
587.26	200.62
588.025	189.62
588.791	175.62
589.556	169.62
590.321	162.62
591.086	153.62
591.851	152.62
592.616	139.62
593.381	133.62
594.146	125.62
594.911	125.62
595.675	116.62
596.44	107.62
597.204	105.62
597.969	104.62
598.733	98.62
599.497	94.62
600.261	85.62
601.025	84.62
601.79	85.62
602.553	81.62
603.317	75.62
604.081	71.62
604.845	70.62
605.609	64.62
606.372	62.62
607.136	61.62
607.899	56.62
608.662	56.62
609.426	57.62
610.189	51.62
610.952	55.62
611.715	48.62
612.478	47.62
613.241	44.62
614.004	46.62
614.767	44.62
615.529	39.62
616.292	40.62
617.055	36.62
617.817	36.62
618.579	37.62
619.342	32.62
620.104	35.62
620.866	36.62
621.628	35.62
622.39	28.62
623.152	28.62
623.914	26.62
624.676	27.62
625.438	31.62
626.199	26.62
626.961	28.62
627.722	25.62
628.484	26.62
629.245	23.62
630.006	22.62
630.768	22.62
631.529	20.62
632.29	21.62
633.051	23.62
633.812	22.62
634.573	21.62
635.333	21.62
636.094	18.62
636.855	18.62
637.615	18.62
638.376	15.62
639.136	17.62
639.896	15.62
640.657	15.62
641.417	18.62
642.177	17.62
642.937	15.62
643.697	13.62
644.457	15.62
645.216	12.62
645.976	15.62
646.736	13.62
647.495	11.62
648.255	14.62
649.014	12.62
649.774	11.62
650.533	15.62
651.292	13.62
652.051	11.62
652.81	11.62
653.569	12.62
654.328	9.62
655.087	10.62
655.846	11.62
656.604	10.62
657.363	12.62
658.121	9.62
658.88	11.62
659.638	10.62
660.397	12.62
661.155	9.62
661.913	10.62
662.671	10.62
663.429	7.62
664.187	10.62
664.945	8.62
665.703	8.62
666.46	10.62
667.218	9.62
667.976	9.62
668.733	8.62
669.49	8.62
670.248	7.62
671.005	8.62
671.762	8.62
672.519	5.62
673.276	8.62
674.033	7.62
674.79	8.62
675.547	9.62
676.304	7.62
677.06	9.62
677.817	7.62
678.574	4.62
679.33	8.62
680.086	7.62
680.843	9.62
681.599	6.62
682.355	7.62
683.111	9.62
683.867	8.62
684.623	8.62
685.379	7.62
686.135	7.62
686.89	5.62
687.646	7.62
688.402	6.62
689.157	7.62
689.912	5.62
690.668	7.62
691.423	6.62
692.178	7.62
692.933	7.62
693.688	7.62
694.443	9.62
695.198	3.62
695.953	4.62
696.708	6.62
697.462	8.62
698.217	6.62
698.972	4.62
699.726	6.62
700.48	8.62
701.235	9.62
701.989	8.62
702.743	8.62
703.497	6.62
704.251	5.62
705.005	8.62
705.759	5.62
706.513	6.62
707.266	5.62
708.02	6.62
708.774	7.62
709.527	6.62
710.28	8.62
711.034	4.62
711.787	4.62
712.54	5.62
713.293	7.62
714.046	6.62
714.799	4.62
715.552	6.62
716.305	6.62
717.058	7.62
717.81	7.62
718.563	7.62
719.315	7.62
720.068	6.62
720.82	6.62
721.573	6.62
722.325	9.62
723.077	7.62
723.829	7.62
724.581	7.62
725.333	4.62
726.085	9.62
726.836	8.62
727.588	7.62
728.34	6.62
729.091	9.62
729.843	9.62
730.594	9.62
731.346	8.62
732.097	8.62
732.848	7.62
733.599	7.62
734.35	7.62
735.101	9.62
735.852	7.62
736.603	9.62
737.354	8.62
738.104	9.62
738.855	9.62
739.605	10.62
740.356	9.62
741.106	8.62
741.856	7.62
742.607	9.62
743.357	11.62
744.107	8.62
744.857	9.62
745.607	9.62
746.357	9.62
747.106	8.62
747.856	11.62
748.606	8.62
749.355	9.62
750.105	9.62
750.854	10.62
751.603	7.62
752.353	12.62
753.102	10.62
753.851	9.62
754.6	12.62
755.349	12.62
756.098	13.62
756.847	13.62
757.595	11.62
758.344	10.62
759.093	12.62
759.841	12.62
760.589	10.62
761.338	14.62
762.086	11.62
762.834	11.62
763.582	13.62
764.331	13.62
765.079	12.62
765.826	13.62
766.574	13.62
767.322	12.62
768.07	14.62
768.817	12.62
769.565	11.62
770.312	19.62
771.06	11.62
771.807	14.62
772.554	13.62
773.302	14.62
774.049	14.62
774.796	15.62
775.543	14.62
776.29	15.62
777.036	14.62
777.783	16.62
778.53	16.62
779.276	16.62
780.023	14.62
780.769	14.62
781.516	15.62
782.262	15.62
783.008	13.62
783.754	16.62
784.5	16.62
785.246	12.62
785.992	14.62
786.738	13.62
787.484	16.62
788.23	15.62
788.975	13.62
789.721	12.62
790.466	15.62
791.212	13.62
791.957	10.62
792.702	14.62
793.447	13.62
794.193	13.62
794.938	13.62
795.683	12.62
796.427	11.62
797.172	11.62
797.917	13.62
798.662	9.62
799.406	13.62
800.151	10.62
800.895	11.62
801.64	10.62
802.384	10.62
803.128	10.62
803.872	9.62
804.616	11.62
805.36	9.62
806.104	8.62
806.848	10.62
807.592	8.62
808.336	10.62
809.079	9.62
809.823	10.62
810.566	9.62
811.31	8.62
812.053	9.62
812.796	9.62
813.539	4.62
814.283	6.62
815.026	8.62
815.769	8.62
816.511	8.62
817.254	8.62
817.997	6.62
818.74	9.62
819.482	8.62
820.225	9.62
820.967	7.62
821.71	7.62
822.452	6.62
823.194	6.62
823.936	7.62
824.678	3.62
825.42	8.62
826.162	7.62
826.904	4.62
827.646	7.62
828.388	6.62
829.129	8.62
829.871	4.62
830.612	6.62
831.354	6.62
832.095	7.62
832.836	6.62
833.577	6.62
834.319	6.62
835.06	4.62
835.801	9.62
836.542	5.62
837.282	6.62
838.023	4.62
838.764	7.62
839.504	6.62
840.245	4.62
840.985	4.62
841.726	7.62
842.466	6.62
843.206	3.62
843.946	4.62
844.687	7.62
845.427	3.62
846.166	5.62
846.906	6.62
847.646	4.62
848.386	4.62
849.125	3.62
849.865	3.62
850.605	5.62
851.344	5.62
852.083	4.62
852.823	4.62
853.562	5.62
854.301	3.62
855.04	4.62
855.779	2.62
856.518	5.62
857.257	4.62
857.995	2.62
858.734	2.62
859.473	6.62
860.211	3.62
860.95	2.62
861.688	3.62
862.426	3.62
863.165	3.62
863.903	4.62
864.641	2.62
865.379	2.62
866.117	3.62
866.855	2.62
867.593	2.62
868.33	2.62
869.068	0.62
869.806	2.62
870.543	1.62
871.28	0.62
872.018	3.62
872.755	1.62
873.492	2.62
874.229	1.62
874.967	1.62
875.703	4.62
876.44	-0.38
877.177	2.62
877.914	2.62
878.651	2.62
879.387	2.62
880.124	2.62
880.86	0.62
881.597	-0.38
882.333	3.62
883.069	2.62
883.806	2.62
884.542	0.62
885.278	0.62
886.014	1.62
886.749	1.62
887.485	3.62
888.221	0.62
888.957	3.62
889.692	1.62
890.428	0.62
891.163	3.62
891.899	-0.38
892.634	0.62
893.369	1.62
894.104	1.62
894.839	1.62
895.574	-0.38
896.309	2.62
897.044	1.62
897.779	2.62
898.514	1.62
899.248	-0.38
899.983	0.62
900.717	0.62
901.452	0.62
902.186	0.62
902.92	1.62
903.654	0.62
904.389	1.62
905.123	1.62
905.857	0.62
906.59	1.62
907.324	1.62
908.058	3.62
908.792	0.62
909.525	1.62
910.259	0.62
910.992	0.62
911.726	0.62
912.459	-0.38
913.192	1.62
913.925	1.62
914.658	0.62
915.391	2.62
916.124	0.62
916.857	2.62
917.59	0.62
918.323	0.62
919.055	1.62
919.788	0.62
920.521	1.62
921.253	0.62
921.985	0.62
922.718	-0.38
923.45	0.62
924.182	1.62
924.914	-1.38
925.646	0.62
926.378	0.62
927.11	1.62
927.841	1.62
928.573	1.62
929.305	1.62
930.036	-0.38
930.768	1.62
931.499	0.62
932.23	-0.38
932.962	-0.38
933.693	0.62
934.424	-1.38
935.155	1.62
935.886	2.62
936.617	-1.38
937.348	3.62
938.078	-0.38
938.809	0.62
939.54	1.62
940.27	0.62
941.001	0.62
941.731	1.62
942.461	1.62
943.191	-0.38
943.922	2.62
944.652	0.62
945.382	0.62
946.112	0.62
946.841	0.62
947.571	0.62
948.301	0.62
949.031	1.62
949.76	-0.38
950.49	0.62
951.219	0.62
951.948	0.62
952.678	0.62
953.407	-0.38
954.136	1.62
954.865	2.62
955.594	-0.38
956.323	0.62
957.052	0.62
957.78	2.62
958.509	-0.38
959.238	0.62
959.966	-0.38
960.695	-0.38
961.423	1.62
962.151	-0.38
962.88	2.62
963.608	0.62
964.336	2.62
965.064	0.62
965.792	1.62
966.52	1.62
967.247	0.62
967.975	0.62
968.703	-0.38
969.43	-0.38
970.158	0.62
970.885	-0.38
971.613	0.62
972.34	0.62
973.067	2.62
973.794	-0.38
974.521	0.62
975.248	1.62
975.975	1.62
976.702	2.62
977.429	2.62
978.156	1.62
978.882	0.62
979.609	0.62
980.335	2.62
981.062	-0.38
981.788	2.62
982.514	0.62
983.24	1.62
983.967	0.62
984.693	0.62
985.419	-0.38
986.144	1.62
986.87	1.62
987.596	0.62
988.322	1.62
989.047	4.62
989.773	0.62
990.498	0.62
991.224	1.62
991.949	2.62
992.674	0.62
993.399	1.62
994.124	1.62
994.849	1.62
995.574	1.62
996.299	0.62
997.024	0.62
997.749	0.62
998.473	4.62
999.198	0.62
999.922	1.62
1000.647	0.62
1001.371	1.62
1002.095	0.62
1002.82	-2.38
1003.544	0.62
1004.268	3.62
1004.992	3.62
1005.716	1.62
1006.439	3.62
1007.163	6.62
1007.887	4.62
1008.611	1.62
1009.334	1.62
1010.058	1.62
1010.781	1.62
1011.504	1.62
1012.228	0.62
1012.951	-0.38
1013.674	-0.38
1014.397	0.62
1015.12	-0.38
