节点500_565_QEPB04081__170__09-53-14-927.txt的数据

Date: Thu Nov 13 09:53:14 CST 2025
User: PC
Spectrometer: QEPB0408
触发模式: 0
积分时间 (秒): 1.000000E-2
Scans to average: 1
启用暗噪声校正: true
启用非线性校正: false
滑动平均宽度: 0
X轴模式: Wavelengths
Number of Pixels in Spectrum: 1044
>>>>>Begin Spectral Data<<<<<
220.843	3.38
221.644	6.38
222.444	5.38
223.244	7.38
224.045	6.38
224.845	2.38
225.645	7.38
226.445	4.38
227.245	6.38
228.045	7.38
228.845	5.38
229.645	7.38
230.444	7.38
231.244	8.38
232.043	8.38
232.843	6.38
233.642	7.38
234.442	10.38
235.241	8.38
236.04	9.38
236.839	10.38
237.638	6.38
238.437	9.38
239.236	9.38
240.035	11.38
240.833	8.38
241.632	9.38
242.43	12.38
243.229	10.38
244.027	12.38
244.826	13.38
245.624	11.38
246.422	12.38
247.22	11.38
248.018	13.38
248.816	14.38
249.614	13.38
250.412	14.38
251.21	11.38
252.007	13.38
252.805	18.38
253.602	13.38
254.4	16.38
255.197	17.38
255.994	17.38
256.791	17.38
257.589	19.38
258.386	16.38
259.183	20.38
259.979	21.38
260.776	22.38
261.573	19.38
262.37	20.38
263.166	24.38
263.963	19.38
264.759	24.38
265.556	23.38
266.352	22.38
267.148	26.38
267.944	20.38
268.74	27.38
269.536	29.38
270.332	28.38
271.128	27.38
271.924	30.38
272.719	27.38
273.515	27.38
274.311	27.38
275.106	31.38
275.901	28.38
276.697	31.38
277.492	32.38
278.287	29.38
279.082	33.38
279.877	31.38
280.672	29.38
281.467	32.38
282.262	27.38
283.056	32.38
283.851	31.38
284.646	29.38
285.44	30.38
286.234	29.38
287.029	32.38
287.823	30.38
288.617	28.38
289.411	29.38
290.205	27.38
290.999	28.38
291.793	29.38
292.587	29.38
293.381	28.38
294.174	26.38
294.968	27.38
295.761	25.38
296.555	24.38
297.348	23.38
298.141	22.38
298.935	25.38
299.728	23.38
300.521	24.38
301.314	21.38
302.107	22.38
302.899	20.38
303.692	23.38
304.485	20.38
305.277	21.38
306.07	19.38
306.862	21.38
307.655	18.38
308.447	18.38
309.239	17.38
310.031	17.38
310.823	21.38
311.615	17.38
312.407	14.38
313.199	13.38
313.991	16.38
314.783	15.38
315.574	13.38
316.366	14.38
317.157	14.38
317.949	15.38
318.74	13.38
319.531	16.38
320.322	14.38
321.113	13.38
321.904	14.38
322.695	11.38
323.486	13.38
324.277	13.38
325.068	10.38
325.858	13.38
326.649	12.38
327.439	12.38
328.23	10.38
329.02	13.38
329.81	10.38
330.6	12.38
331.391	11.38
332.181	11.38
332.971	12.38
333.76	11.38
334.55	13.38
335.34	11.38
336.13	10.38
336.919	11.38
337.709	10.38
338.498	12.38
339.287	11.38
340.077	13.38
340.866	9.38
341.655	13.38
342.444	10.38
343.233	11.38
344.022	11.38
344.811	11.38
345.6	10.38
346.388	10.38
347.177	10.38
347.965	10.38
348.754	10.38
349.542	10.38
350.33	9.38
351.119	10.38
351.907	12.38
352.695	7.38
353.483	9.38
354.271	10.38
355.059	9.38
355.846	9.38
356.634	12.38
357.422	10.38
358.209	6.38
358.997	9.38
359.784	9.38
360.571	11.38
361.359	9.38
362.146	10.38
362.933	8.38
363.72	8.38
364.507	9.38
365.294	8.38
366.081	8.38
366.867	11.38
367.654	9.38
368.44	9.38
369.227	8.38
370.013	9.38
370.8	11.38
371.586	9.38
372.372	9.38
373.158	12.38
373.944	9.38
374.73	11.38
375.516	9.38
376.302	9.38
377.088	9.38
377.873	12.38
378.659	9.38
379.445	9.38
380.23	9.38
381.015	11.38
381.801	4.38
382.586	10.38
383.371	9.38
384.156	11.38
384.941	10.38
385.726	9.38
386.511	12.38
387.296	10.38
388.08	10.38
388.865	10.38
389.649	11.38
390.434	10.38
391.218	10.38
392.003	10.38
392.787	8.38
393.571	12.38
394.355	12.38
395.139	13.38
395.923	13.38
396.707	13.38
397.491	8.38
398.274	10.38
399.058	11.38
399.842	11.38
400.625	15.38
401.408	13.38
402.192	13.38
402.975	14.38
403.758	13.38
404.541	14.38
405.324	10.38
406.107	16.38
406.89	14.38
407.673	12.38
408.456	14.38
409.238	10.38
410.021	16.38
410.803	12.38
411.586	13.38
412.368	16.38
413.151	11.38
413.933	14.38
414.715	16.38
415.497	15.38
416.279	17.38
417.061	17.38
417.843	19.38
418.624	18.38
419.406	16.38
420.188	20.38
420.969	21.38
421.751	17.38
422.532	21.38
423.313	20.38
424.095	21.38
424.876	21.38
425.657	21.38
426.438	21.38
427.219	25.38
428	25.38
428.78	23.38
429.561	27.38
430.342	23.38
431.122	27.38
431.903	26.38
432.683	26.38
433.464	30.38
434.244	30.38
435.024	32.38
435.804	38.38
436.584	37.38
437.364	37.38
438.144	38.38
438.924	41.38
439.704	44.38
440.483	50.38
441.263	47.38
442.042	51.38
442.822	55.38
443.601	58.38
444.38	61.38
445.16	68.38
445.939	69.38
446.718	74.38
447.497	81.38
448.276	88.38
449.054	97.38
449.833	106.38
450.612	113.38
451.391	128.38
452.169	141.38
452.948	155.38
453.726	172.38
454.504	188.38
455.282	207.38
456.061	234.38
456.839	256.38
457.617	295.38
458.395	323.38
459.172	354.38
459.95	398.38
460.728	452.38
461.506	497.38
462.283	562.38
463.061	630.38
463.838	701.38
464.615	773.38
465.393	871.38
466.17	966.38
466.947	1085.38
467.724	1203.38
468.501	1337.38
469.278	1500.38
470.055	1667.38
470.831	1857.38
471.608	2051.38
472.385	2268.38
473.161	2509.38
473.938	2796.38
474.714	3066.38
475.49	3370.38
476.266	3735.38
477.043	4111.38
477.819	4527.38
478.595	4982.38
479.371	5476.38
480.146	5942.38
480.922	6592.38
481.698	7201.38
482.473	7857.38
483.249	8580.38
484.024	9362.38
484.8	10274.38
485.575	11227.38
486.35	12239.38
487.126	13306.38
487.901	14459.38
488.676	15725.38
489.451	17051.38
490.225	18448.38
491	19912.38
491.775	21442.38
492.55	23000.38
493.324	24657.38
494.099	26336.38
494.873	28016.38
495.647	29840.38
496.422	31516.38
497.196	33264.38
497.97	34803.38
498.744	36316.38
499.518	37676.38
500.292	39022.38
501.066	40162.38
501.839	41220.38
502.613	41895.38
503.387	42510.38
504.16	42909.38
504.934	43074.38
505.707	42833.38
506.48	42596.38
507.253	42074.38
508.027	41220.38
508.8	40329.38
509.573	39270.38
510.346	38187.38
511.118	36888.38
511.891	35742.38
512.664	34465.38
513.437	33093.38
514.209	31707.38
514.982	30456.38
515.754	29221.38
516.526	27938.38
517.298	26727.38
518.071	25561.38
518.843	24565.38
519.615	23554.38
520.387	22613.38
521.159	21784.38
521.93	20835.38
522.702	19985.38
523.474	19164.38
524.245	18392.38
525.017	17579.38
525.788	16862.38
526.56	15997.38
527.331	15312.38
528.102	14599.38
528.873	13858.38
529.644	13166.38
530.415	12458.38
531.186	11784.38
531.957	11227.38
532.728	10675.38
533.498	10097.38
534.269	9519.38
535.039	8901.38
535.81	8475.38
536.58	8039.38
537.351	7626.38
538.121	7156.38
538.891	6791.38
539.661	6443.38
540.431	6083.38
541.201	5752.38
541.971	5467.38
542.741	5209.38
543.51	4894.38
544.28	4660.38
545.05	4455.38
545.819	4205.38
546.588	3993.38
547.358	3792.38
548.127	3610.38
548.896	3448.38
549.665	3283.38
550.434	3093.38
551.203	2943.38
551.972	2782.38
552.741	2644.38
553.51	2474.38
554.278	2338.38
555.047	2206.38
555.815	2070.38
556.584	1988.38
557.352	1868.38
558.121	1757.38
558.889	1673.38
559.657	1571.38
560.425	1476.38
561.193	1384.38
561.961	1323.38
562.729	1251.38
563.496	1179.38
564.264	1124.38
565.032	1056.38
565.799	1004.38
566.567	961.38
567.334	905.38
568.101	837.38
568.869	799.38
569.636	755.38
570.403	707.38
571.17	679.38
571.937	645.38
572.704	608.38
573.471	568.38
574.237	530.38
575.004	499.38
575.771	470.38
576.537	454.38
577.303	425.38
578.07	396.38
578.836	372.38
579.602	356.38
580.368	339.38
581.134	312.38
581.9	306.38
582.666	289.38
583.432	271.38
584.198	262.38
584.964	243.38
585.729	238.38
586.495	223.38
587.26	209.38
588.025	195.38
588.791	188.38
589.556	186.38
590.321	169.38
591.086	161.38
591.851	155.38
592.616	145.38
593.381	138.38
594.146	132.38
594.911	127.38
595.675	123.38
596.44	121.38
597.204	113.38
597.969	106.38
598.733	102.38
599.497	99.38
600.261	96.38
601.025	91.38
601.79	88.38
602.553	84.38
603.317	81.38
604.081	75.38
604.845	74.38
605.609	72.38
606.372	68.38
607.136	68.38
607.899	61.38
608.662	59.38
609.426	59.38
610.189	56.38
610.952	56.38
611.715	49.38
612.478	50.38
613.241	50.38
614.004	45.38
614.767	45.38
615.529	43.38
616.292	43.38
617.055	40.38
617.817	41.38
618.579	37.38
619.342	40.38
620.104	36.38
620.866	34.38
621.628	35.38
622.39	31.38
623.152	32.38
623.914	29.38
624.676	33.38
625.438	31.38
626.199	27.38
626.961	27.38
627.722	27.38
628.484	23.38
629.245	24.38
630.006	26.38
630.768	23.38
631.529	23.38
632.29	21.38
633.051	19.38
633.812	21.38
634.573	19.38
635.333	20.38
636.094	20.38
636.855	18.38
637.615	20.38
638.376	20.38
639.136	17.38
639.896	17.38
640.657	16.38
641.417	16.38
642.177	16.38
642.937	16.38
643.697	14.38
644.457	14.38
645.216	14.38
645.976	14.38
646.736	13.38
647.495	15.38
648.255	14.38
649.014	13.38
649.774	15.38
650.533	11.38
651.292	14.38
652.051	14.38
652.81	15.38
653.569	10.38
654.328	13.38
655.087	12.38
655.846	10.38
656.604	12.38
657.363	9.38
658.121	10.38
658.88	12.38
659.638	10.38
660.397	9.38
661.155	8.38
661.913	12.38
662.671	11.38
663.429	11.38
664.187	10.38
664.945	9.38
665.703	9.38
666.46	9.38
667.218	12.38
667.976	8.38
668.733	8.38
669.49	10.38
670.248	7.38
671.005	9.38
671.762	8.38
672.519	8.38
673.276	8.38
674.033	9.38
674.79	9.38
675.547	7.38
676.304	8.38
677.06	7.38
677.817	9.38
678.574	8.38
679.33	9.38
680.086	9.38
680.843	6.38
681.599	9.38
682.355	8.38
683.111	7.38
683.867	8.38
684.623	9.38
685.379	7.38
686.135	9.38
686.89	8.38
687.646	8.38
688.402	9.38
689.157	7.38
689.912	5.38
690.668	6.38
691.423	9.38
692.178	6.38
692.933	7.38
693.688	9.38
694.443	7.38
695.198	6.38
695.953	7.38
696.708	4.38
697.462	5.38
698.217	7.38
698.972	9.38
699.726	9.38
700.48	5.38
701.235	8.38
701.989	6.38
702.743	8.38
703.497	8.38
704.251	6.38
705.005	5.38
705.759	7.38
706.513	7.38
707.266	6.38
708.02	6.38
708.774	9.38
709.527	8.38
710.28	7.38
711.034	8.38
711.787	6.38
712.54	7.38
713.293	8.38
714.046	7.38
714.799	8.38
715.552	6.38
716.305	9.38
717.058	6.38
717.81	7.38
718.563	8.38
719.315	5.38
720.068	9.38
720.82	5.38
721.573	8.38
722.325	5.38
723.077	9.38
723.829	6.38
724.581	7.38
725.333	9.38
726.085	4.38
726.836	9.38
727.588	7.38
728.34	8.38
729.091	8.38
729.843	7.38
730.594	9.38
731.346	7.38
732.097	9.38
732.848	8.38
733.599	9.38
734.35	9.38
735.101	9.38
735.852	8.38
736.603	9.38
737.354	10.38
738.104	10.38
738.855	10.38
739.605	9.38
740.356	9.38
741.106	11.38
741.856	9.38
742.607	9.38
743.357	12.38
744.107	10.38
744.857	10.38
745.607	11.38
746.357	11.38
747.106	9.38
747.856	9.38
748.606	7.38
749.355	11.38
750.105	11.38
750.854	12.38
751.603	10.38
752.353	11.38
753.102	12.38
753.851	10.38
754.6	11.38
755.349	11.38
756.098	11.38
756.847	10.38
757.595	9.38
758.344	11.38
759.093	10.38
759.841	13.38
760.589	10.38
761.338	14.38
762.086	11.38
762.834	9.38
763.582	11.38
764.331	11.38
765.079	15.38
765.826	11.38
766.574	10.38
767.322	14.38
768.07	14.38
768.817	13.38
769.565	9.38
770.312	13.38
771.06	13.38
771.807	14.38
772.554	16.38
773.302	13.38
774.049	12.38
774.796	13.38
775.543	13.38
776.29	17.38
777.036	15.38
777.783	13.38
778.53	14.38
779.276	14.38
780.023	14.38
780.769	17.38
781.516	15.38
782.262	15.38
783.008	13.38
783.754	15.38
784.5	15.38
785.246	14.38
785.992	14.38
786.738	13.38
787.484	14.38
788.23	14.38
788.975	13.38
789.721	11.38
790.466	13.38
791.212	13.38
791.957	14.38
792.702	12.38
793.447	13.38
794.193	12.38
794.938	12.38
795.683	13.38
796.427	13.38
797.172	12.38
797.917	14.38
798.662	9.38
799.406	12.38
800.151	10.38
800.895	9.38
801.64	14.38
802.384	10.38
803.128	12.38
803.872	11.38
804.616	11.38
805.36	11.38
806.104	10.38
806.848	14.38
807.592	11.38
808.336	10.38
809.079	9.38
809.823	10.38
810.566	9.38
811.31	7.38
812.053	10.38
812.796	10.38
813.539	9.38
814.283	9.38
815.026	6.38
815.769	7.38
816.511	6.38
817.254	8.38
817.997	6.38
818.74	6.38
819.482	8.38
820.225	5.38
820.967	5.38
821.71	8.38
822.452	8.38
823.194	10.38
823.936	6.38
824.678	8.38
825.42	6.38
826.162	7.38
826.904	5.38
827.646	6.38
828.388	7.38
829.129	7.38
829.871	6.38
830.612	7.38
831.354	9.38
832.095	7.38
832.836	6.38
833.577	8.38
834.319	8.38
835.06	6.38
835.801	7.38
836.542	8.38
837.282	6.38
838.023	9.38
838.764	7.38
839.504	5.38
840.245	2.38
840.985	5.38
841.726	6.38
842.466	4.38
843.206	7.38
843.946	5.38
844.687	7.38
845.427	4.38
846.166	5.38
846.906	6.38
847.646	6.38
848.386	3.38
849.125	5.38
849.865	6.38
850.605	3.38
851.344	2.38
852.083	5.38
852.823	6.38
853.562	4.38
854.301	3.38
855.04	6.38
855.779	4.38
856.518	6.38
857.257	4.38
857.995	5.38
858.734	4.38
859.473	4.38
860.211	6.38
860.95	4.38
861.688	5.38
862.426	5.38
863.165	1.38
863.903	5.38
864.641	4.38
865.379	6.38
866.117	3.38
866.855	4.38
867.593	2.38
868.33	4.38
869.068	2.38
869.806	2.38
870.543	5.38
871.28	4.38
872.018	1.38
872.755	3.38
873.492	2.38
874.229	5.38
874.967	1.38
875.703	3.38
876.44	3.38
877.177	5.38
877.914	3.38
878.651	2.38
879.387	3.38
880.124	1.38
880.86	1.38
881.597	1.38
882.333	3.38
883.069	3.38
883.806	1.38
884.542	0.38
885.278	2.38
886.014	3.38
886.749	1.38
887.485	3.38
888.221	1.38
888.957	1.38
889.692	2.38
890.428	0.38
891.163	3.38
891.899	2.38
892.634	1.38
893.369	0.38
894.104	2.38
894.839	0.38
895.574	1.38
896.309	1.38
897.044	1.38
897.779	2.38
898.514	2.38
899.248	0.38
899.983	1.38
900.717	1.38
901.452	0.38
902.186	3.38
902.92	2.38
903.654	0.38
904.389	-1.62
905.123	2.38
905.857	-1.62
906.59	1.38
907.324	0.38
908.058	0.38
908.792	2.38
909.525	2.38
910.259	0.38
910.992	1.38
911.726	-0.62
912.459	2.38
913.192	3.38
913.925	1.38
914.658	1.38
915.391	4.38
916.124	1.38
916.857	0.38
917.59	2.38
918.323	3.38
919.055	0.38
919.788	-0.62
920.521	-0.62
921.253	0.38
921.985	1.38
922.718	1.38
923.45	2.38
924.182	2.38
924.914	1.38
925.646	1.38
926.378	1.38
927.11	2.38
927.841	1.38
928.573	1.38
929.305	3.38
930.036	1.38
930.768	0.38
931.499	1.38
932.23	2.38
932.962	1.38
933.693	1.38
934.424	1.38
935.155	1.38
935.886	1.38
936.617	0.38
937.348	2.38
938.078	1.38
938.809	1.38
939.54	3.38
940.27	-0.62
941.001	1.38
941.731	3.38
942.461	0.38
943.191	1.38
943.922	2.38
944.652	0.38
945.382	0.38
946.112	2.38
946.841	0.38
947.571	1.38
948.301	1.38
949.031	1.38
949.76	-0.62
950.49	1.38
951.219	0.38
951.948	0.38
952.678	1.38
953.407	2.38
954.136	1.38
954.865	2.38
955.594	1.38
956.323	2.38
957.052	0.38
957.78	2.38
958.509	2.38
959.238	3.38
959.966	0.38
960.695	1.38
961.423	0.38
962.151	-0.62
962.88	0.38
963.608	2.38
964.336	2.38
965.064	2.38
965.792	1.38
966.52	0.38
967.247	1.38
967.975	2.38
968.703	1.38
969.43	1.38
970.158	2.38
970.885	0.38
971.613	2.38
972.34	0.38
973.067	1.38
973.794	1.38
974.521	0.38
975.248	0.38
975.975	-0.62
976.702	0.38
977.429	0.38
978.156	2.38
978.882	1.38
979.609	1.38
980.335	0.38
981.062	0.38
981.788	1.38
982.514	1.38
983.24	0.38
983.967	2.38
984.693	1.38
985.419	1.38
986.144	0.38
986.87	3.38
987.596	0.38
988.322	3.38
989.047	-0.62
989.773	2.38
990.498	0.38
991.224	-0.62
991.949	-0.62
992.674	1.38
993.399	3.38
994.124	0.38
994.849	0.38
995.574	1.38
996.299	0.38
997.024	1.38
997.749	1.38
998.473	0.38
999.198	-0.62
999.922	3.38
1000.647	0.38
1001.371	4.38
1002.095	0.38
1002.82	-1.62
1003.544	-0.62
1004.268	3.38
1004.992	4.38
1005.716	7.38
1006.439	6.38
1007.163	3.38
1007.887	5.38
1008.611	4.38
1009.334	1.38
1010.058	1.38
1010.781	0.38
1011.504	-0.62
1012.228	3.38
1012.951	1.38
1013.674	-2.62
1014.397	-1.62
1015.12	0.38
