节点500_565_QEPB04081__203__09-53-47-861.txt的数据

Date: Thu Nov 13 09:53:47 CST 2025
User: PC
Spectrometer: QEPB0408
触发模式: 0
积分时间 (秒): 1.000000E-2
Scans to average: 1
启用暗噪声校正: true
启用非线性校正: false
滑动平均宽度: 0
X轴模式: Wavelengths
Number of Pixels in Spectrum: 1044
>>>>>Begin Spectral Data<<<<<
220.843	1.62
221.644	2.62
222.444	3.62
223.244	0.62
224.045	4.62
224.845	3.62
225.645	3.62
226.445	6.62
227.245	3.62
228.045	5.62
228.845	3.62
229.645	3.62
230.444	4.62
231.244	6.62
232.043	3.62
232.843	5.62
233.642	6.62
234.442	6.62
235.241	7.62
236.04	4.62
236.839	7.62
237.638	7.62
238.437	6.62
239.236	5.62
240.035	6.62
240.833	9.62
241.632	9.62
242.43	7.62
243.229	8.62
244.027	8.62
244.826	11.62
245.624	10.62
246.422	11.62
247.22	11.62
248.018	11.62
248.816	10.62
249.614	11.62
250.412	11.62
251.21	14.62
252.007	11.62
252.805	11.62
253.602	12.62
254.4	13.62
255.197	14.62
255.994	16.62
256.791	14.62
257.589	15.62
258.386	15.62
259.183	15.62
259.979	16.62
260.776	15.62
261.573	18.62
262.37	19.62
263.166	21.62
263.963	19.62
264.759	21.62
265.556	20.62
266.352	19.62
267.148	22.62
267.944	22.62
268.74	22.62
269.536	23.62
270.332	25.62
271.128	23.62
271.924	26.62
272.719	23.62
273.515	24.62
274.311	24.62
275.106	26.62
275.901	31.62
276.697	28.62
277.492	31.62
278.287	27.62
279.082	27.62
279.877	29.62
280.672	28.62
281.467	29.62
282.262	28.62
283.056	27.62
283.851	26.62
284.646	31.62
285.44	28.62
286.234	28.62
287.029	25.62
287.823	26.62
288.617	28.62
289.411	26.62
290.205	27.62
290.999	27.62
291.793	26.62
292.587	24.62
293.381	23.62
294.174	25.62
294.968	23.62
295.761	23.62
296.555	21.62
297.348	19.62
298.141	21.62
298.935	23.62
299.728	19.62
300.521	21.62
301.314	21.62
302.107	18.62
302.899	21.62
303.692	19.62
304.485	18.62
305.277	17.62
306.07	19.62
306.862	18.62
307.655	17.62
308.447	17.62
309.239	18.62
310.031	16.62
310.823	14.62
311.615	11.62
312.407	13.62
313.199	13.62
313.991	10.62
314.783	13.62
315.574	11.62
316.366	11.62
317.157	11.62
317.949	14.62
318.74	13.62
319.531	8.62
320.322	13.62
321.113	12.62
321.904	11.62
322.695	12.62
323.486	10.62
324.277	9.62
325.068	9.62
325.858	9.62
326.649	7.62
327.439	9.62
328.23	12.62
329.02	9.62
329.81	10.62
330.6	6.62
331.391	8.62
332.181	7.62
332.971	9.62
333.76	8.62
334.55	9.62
335.34	7.62
336.13	8.62
336.919	11.62
337.709	8.62
338.498	11.62
339.287	8.62
340.077	10.62
340.866	8.62
341.655	7.62
342.444	10.62
343.233	10.62
344.022	8.62
344.811	6.62
345.6	7.62
346.388	9.62
347.177	7.62
347.965	8.62
348.754	7.62
349.542	9.62
350.33	7.62
351.119	8.62
351.907	10.62
352.695	8.62
353.483	8.62
354.271	7.62
355.059	7.62
355.846	6.62
356.634	8.62
357.422	7.62
358.209	7.62
358.997	7.62
359.784	7.62
360.571	9.62
361.359	6.62
362.146	7.62
362.933	8.62
363.72	6.62
364.507	8.62
365.294	5.62
366.081	7.62
366.867	6.62
367.654	7.62
368.44	7.62
369.227	8.62
370.013	7.62
370.8	7.62
371.586	7.62
372.372	5.62
373.158	9.62
373.944	7.62
374.73	6.62
375.516	6.62
376.302	8.62
377.088	7.62
377.873	7.62
378.659	9.62
379.445	5.62
380.23	6.62
381.015	9.62
381.801	5.62
382.586	7.62
383.371	7.62
384.156	9.62
384.941	6.62
385.726	9.62
386.511	8.62
387.296	7.62
388.08	7.62
388.865	7.62
389.649	7.62
390.434	9.62
391.218	6.62
392.003	8.62
392.787	8.62
393.571	8.62
394.355	10.62
395.139	7.62
395.923	7.62
396.707	6.62
397.491	11.62
398.274	10.62
399.058	8.62
399.842	7.62
400.625	12.62
401.408	10.62
402.192	11.62
402.975	10.62
403.758	12.62
404.541	7.62
405.324	9.62
406.107	12.62
406.89	10.62
407.673	12.62
408.456	13.62
409.238	13.62
410.021	13.62
410.803	10.62
411.586	13.62
412.368	15.62
413.151	14.62
413.933	13.62
414.715	15.62
415.497	13.62
416.279	13.62
417.061	14.62
417.843	16.62
418.624	15.62
419.406	16.62
420.188	15.62
420.969	18.62
421.751	17.62
422.532	16.62
423.313	17.62
424.095	19.62
424.876	17.62
425.657	19.62
426.438	21.62
427.219	19.62
428	21.62
428.78	24.62
429.561	23.62
430.342	20.62
431.122	24.62
431.903	23.62
432.683	25.62
433.464	27.62
434.244	29.62
435.024	29.62
435.804	31.62
436.584	31.62
437.364	35.62
438.144	33.62
438.924	41.62
439.704	40.62
440.483	40.62
441.263	43.62
442.042	47.62
442.822	53.62
443.601	54.62
444.38	60.62
445.16	64.62
445.939	67.62
446.718	71.62
447.497	81.62
448.276	90.62
449.054	96.62
449.833	106.62
450.612	118.62
451.391	127.62
452.169	143.62
452.948	155.62
453.726	169.62
454.504	193.62
455.282	208.62
456.061	236.62
456.839	260.62
457.617	294.62
458.395	327.62
459.172	368.62
459.95	401.62
460.728	459.62
461.506	499.62
462.283	563.62
463.061	627.62
463.838	712.62
464.615	778.62
465.393	885.62
466.17	965.62
466.947	1075.62
467.724	1221.62
468.501	1353.62
469.278	1511.62
470.055	1676.62
470.831	1840.62
471.608	2065.62
472.385	2271.62
473.161	2517.62
473.938	2807.62
474.714	3067.62
475.49	3373.62
476.266	3709.62
477.043	4115.62
477.819	4541.62
478.595	4974.62
479.371	5410.62
480.146	5947.62
480.922	6560.62
481.698	7143.62
482.473	7784.62
483.249	8534.62
484.024	9312.62
484.8	10185.62
485.575	11096.62
486.35	12033.62
487.126	13145.62
487.901	14265.62
488.676	15500.62
489.451	16805.62
490.225	18185.62
491	19594.62
491.775	21134.62
492.55	22652.62
493.324	24259.62
494.099	25886.62
494.873	27596.62
495.647	29310.62
496.422	30990.62
497.196	32743.62
497.97	34258.62
498.744	35837.62
499.518	37164.62
500.292	38499.62
501.066	39685.62
501.839	40626.62
502.613	41449.62
503.387	42050.62
504.16	42578.62
504.934	42680.62
505.707	42615.62
506.48	42308.62
507.253	41859.62
508.027	41109.62
508.8	40256.62
509.573	39295.62
510.346	38012.62
511.118	36905.62
511.891	35680.62
512.664	34518.62
513.437	33195.62
514.209	31805.62
514.982	30557.62
515.754	29292.62
516.526	28041.62
517.298	26861.62
518.071	25762.62
518.843	24685.62
519.615	23601.62
520.387	22721.62
521.159	21850.62
521.93	20974.62
522.702	20065.62
523.474	19244.62
524.245	18471.62
525.017	17681.62
525.788	16941.62
526.56	16072.62
527.331	15331.62
528.102	14694.62
528.873	13917.62
529.644	13266.62
530.415	12561.62
531.186	11903.62
531.957	11331.62
532.728	10712.62
533.498	10181.62
534.269	9616.62
535.039	9049.62
535.81	8539.62
536.58	8124.62
537.351	7664.62
538.121	7217.62
538.891	6850.62
539.661	6517.62
540.431	6139.62
541.201	5828.62
541.971	5519.62
542.741	5224.62
543.51	4932.62
544.28	4692.62
545.05	4477.62
545.819	4267.62
546.588	4052.62
547.358	3827.62
548.127	3636.62
548.896	3474.62
549.665	3302.62
550.434	3121.62
551.203	2956.62
551.972	2806.62
552.741	2664.62
553.51	2496.62
554.278	2360.62
555.047	2223.62
555.815	2108.62
556.584	1999.62
557.352	1889.62
558.121	1774.62
558.889	1671.62
559.657	1581.62
560.425	1486.62
561.193	1405.62
561.961	1338.62
562.729	1278.62
563.496	1214.62
564.264	1144.62
565.032	1076.62
565.799	1003.62
566.567	954.62
567.334	912.62
568.101	857.62
568.869	807.62
569.636	760.62
570.403	715.62
571.17	691.62
571.937	647.62
572.704	610.62
573.471	565.62
574.237	540.62
575.004	507.62
575.771	472.62
576.537	446.62
577.303	431.62
578.07	405.62
578.836	375.62
579.602	359.62
580.368	334.62
581.134	324.62
581.9	309.62
582.666	292.62
583.432	275.62
584.198	258.62
584.964	244.62
585.729	232.62
586.495	220.62
587.26	207.62
588.025	199.62
588.791	189.62
589.556	174.62
590.321	169.62
591.086	169.62
591.851	150.62
592.616	149.62
593.381	143.62
594.146	133.62
594.911	126.62
595.675	123.62
596.44	117.62
597.204	109.62
597.969	109.62
598.733	99.62
599.497	95.62
600.261	99.62
601.025	84.62
601.79	86.62
602.553	78.62
603.317	76.62
604.081	75.62
604.845	73.62
605.609	69.62
606.372	67.62
607.136	62.62
607.899	59.62
608.662	59.62
609.426	57.62
610.189	53.62
610.952	54.62
611.715	50.62
612.478	49.62
613.241	47.62
614.004	45.62
614.767	41.62
615.529	43.62
616.292	40.62
617.055	38.62
617.817	37.62
618.579	33.62
619.342	35.62
620.104	33.62
620.866	36.62
621.628	31.62
622.39	31.62
623.152	27.62
623.914	27.62
624.676	28.62
625.438	24.62
626.199	28.62
626.961	24.62
627.722	23.62
628.484	24.62
629.245	22.62
630.006	23.62
630.768	19.62
631.529	23.62
632.29	21.62
633.051	21.62
633.812	21.62
634.573	19.62
635.333	16.62
636.094	18.62
636.855	18.62
637.615	17.62
638.376	15.62
639.136	16.62
639.896	16.62
640.657	14.62
641.417	11.62
642.177	14.62
642.937	13.62
643.697	14.62
644.457	9.62
645.216	12.62
645.976	13.62
646.736	14.62
647.495	13.62
648.255	12.62
649.014	12.62
649.774	11.62
650.533	8.62
651.292	10.62
652.051	8.62
652.81	9.62
653.569	10.62
654.328	10.62
655.087	9.62
655.846	9.62
656.604	10.62
657.363	9.62
658.121	11.62
658.88	11.62
659.638	10.62
660.397	8.62
661.155	7.62
661.913	9.62
662.671	7.62
663.429	8.62
664.187	6.62
664.945	6.62
665.703	6.62
666.46	7.62
667.218	7.62
667.976	10.62
668.733	7.62
669.49	6.62
670.248	7.62
671.005	7.62
671.762	6.62
672.519	9.62
673.276	4.62
674.033	7.62
674.79	4.62
675.547	7.62
676.304	5.62
677.06	7.62
677.817	4.62
678.574	5.62
679.33	2.62
680.086	3.62
680.843	4.62
681.599	5.62
682.355	7.62
683.111	5.62
683.867	4.62
684.623	4.62
685.379	4.62
686.135	6.62
686.89	3.62
687.646	5.62
688.402	4.62
689.157	4.62
689.912	7.62
690.668	3.62
691.423	5.62
692.178	5.62
692.933	3.62
693.688	5.62
694.443	3.62
695.198	5.62
695.953	4.62
696.708	3.62
697.462	5.62
698.217	5.62
698.972	3.62
699.726	5.62
700.48	5.62
701.235	4.62
701.989	7.62
702.743	8.62
703.497	5.62
704.251	5.62
705.005	5.62
705.759	6.62
706.513	5.62
707.266	5.62
708.02	5.62
708.774	4.62
709.527	7.62
710.28	4.62
711.034	7.62
711.787	4.62
712.54	7.62
713.293	6.62
714.046	5.62
714.799	6.62
715.552	4.62
716.305	5.62
717.058	2.62
717.81	5.62
718.563	5.62
719.315	4.62
720.068	5.62
720.82	6.62
721.573	5.62
722.325	4.62
723.077	5.62
723.829	4.62
724.581	5.62
725.333	5.62
726.085	6.62
726.836	3.62
727.588	5.62
728.34	8.62
729.091	4.62
729.843	6.62
730.594	4.62
731.346	7.62
732.097	6.62
732.848	3.62
733.599	5.62
734.35	5.62
735.101	7.62
735.852	6.62
736.603	7.62
737.354	7.62
738.104	5.62
738.855	7.62
739.605	5.62
740.356	7.62
741.106	6.62
741.856	7.62
742.607	5.62
743.357	6.62
744.107	5.62
744.857	7.62
745.607	7.62
746.357	8.62
747.106	8.62
747.856	9.62
748.606	6.62
749.355	8.62
750.105	6.62
750.854	7.62
751.603	10.62
752.353	8.62
753.102	7.62
753.851	9.62
754.6	7.62
755.349	8.62
756.098	11.62
756.847	8.62
757.595	11.62
758.344	7.62
759.093	8.62
759.841	10.62
760.589	8.62
761.338	8.62
762.086	8.62
762.834	9.62
763.582	7.62
764.331	10.62
765.079	9.62
765.826	8.62
766.574	12.62
767.322	11.62
768.07	10.62
768.817	11.62
769.565	11.62
770.312	11.62
771.06	11.62
771.807	13.62
772.554	11.62
773.302	11.62
774.049	10.62
774.796	11.62
775.543	10.62
776.29	11.62
777.036	10.62
777.783	13.62
778.53	15.62
779.276	12.62
780.023	14.62
780.769	13.62
781.516	12.62
782.262	14.62
783.008	12.62
783.754	12.62
784.5	11.62
785.246	9.62
785.992	13.62
786.738	13.62
787.484	13.62
788.23	14.62
788.975	12.62
789.721	13.62
790.466	12.62
791.212	12.62
791.957	12.62
792.702	11.62
793.447	9.62
794.193	10.62
794.938	12.62
795.683	10.62
796.427	12.62
797.172	11.62
797.917	8.62
798.662	10.62
799.406	8.62
800.151	10.62
800.895	8.62
801.64	10.62
802.384	8.62
803.128	9.62
803.872	10.62
804.616	8.62
805.36	9.62
806.104	5.62
806.848	6.62
807.592	9.62
808.336	5.62
809.079	7.62
809.823	7.62
810.566	7.62
811.31	6.62
812.053	7.62
812.796	7.62
813.539	6.62
814.283	5.62
815.026	6.62
815.769	5.62
816.511	5.62
817.254	7.62
817.997	6.62
818.74	5.62
819.482	7.62
820.225	8.62
820.967	5.62
821.71	5.62
822.452	8.62
823.194	3.62
823.936	4.62
824.678	3.62
825.42	6.62
826.162	5.62
826.904	2.62
827.646	4.62
828.388	3.62
829.129	5.62
829.871	3.62
830.612	5.62
831.354	5.62
832.095	2.62
832.836	1.62
833.577	3.62
834.319	5.62
835.06	4.62
835.801	4.62
836.542	5.62
837.282	4.62
838.023	4.62
838.764	3.62
839.504	6.62
840.245	3.62
840.985	5.62
841.726	0.62
842.466	3.62
843.206	3.62
843.946	4.62
844.687	3.62
845.427	4.62
846.166	3.62
846.906	3.62
847.646	1.62
848.386	2.62
849.125	4.62
849.865	4.62
850.605	1.62
851.344	3.62
852.083	2.62
852.823	1.62
853.562	2.62
854.301	2.62
855.04	3.62
855.779	4.62
856.518	3.62
857.257	0.62
857.995	3.62
858.734	2.62
859.473	1.62
860.211	3.62
860.95	-0.38
861.688	0.62
862.426	0.62
863.165	2.62
863.903	2.62
864.641	1.62
865.379	2.62
866.117	0.62
866.855	-1.38
867.593	-0.38
868.33	1.62
869.068	1.62
869.806	-0.38
870.543	0.62
871.28	0.62
872.018	2.62
872.755	2.62
873.492	1.62
874.229	1.62
874.967	-0.38
875.703	2.62
876.44	0.62
877.177	1.62
877.914	-0.38
878.651	-0.38
879.387	2.62
880.124	1.62
880.86	0.62
881.597	1.62
882.333	1.62
883.069	0.62
883.806	-0.38
884.542	-2.38
885.278	0.62
886.014	3.62
886.749	0.62
887.485	2.62
888.221	2.62
888.957	-0.38
889.692	0.62
890.428	0.62
891.163	-0.38
891.899	1.62
892.634	0.62
893.369	-1.38
894.104	0.62
894.839	0.62
895.574	-0.38
896.309	0.62
897.044	0.62
897.779	0.62
898.514	0.62
899.248	1.62
899.983	0.62
900.717	0.62
901.452	1.62
902.186	-0.38
902.92	-0.38
903.654	-0.38
904.389	0.62
905.123	-2.38
905.857	1.62
906.59	-0.38
907.324	0.62
908.058	-0.38
908.792	-1.38
909.525	-3.38
910.259	-0.38
910.992	1.62
911.726	1.62
912.459	0.62
913.192	-1.38
913.925	-0.38
914.658	-1.38
915.391	-0.38
916.124	-0.38
916.857	-0.38
917.59	-0.38
918.323	-0.38
919.055	-0.38
919.788	-0.38
920.521	-0.38
921.253	2.62
921.985	-2.38
922.718	-0.38
923.45	-1.38
924.182	-0.38
924.914	-0.38
925.646	1.62
926.378	0.62
927.11	0.62
927.841	-0.38
928.573	-1.38
929.305	-1.38
930.036	1.62
930.768	-0.38
931.499	-2.38
932.23	-0.38
932.962	-2.38
933.693	0.62
934.424	1.62
935.155	1.62
935.886	-1.38
936.617	0.62
937.348	-0.38
938.078	-1.38
938.809	0.62
939.54	-2.38
940.27	0.62
941.001	-1.38
941.731	0.62
942.461	-2.38
943.191	0.62
943.922	-1.38
944.652	-1.38
945.382	1.62
946.112	-0.38
946.841	-1.38
947.571	1.62
948.301	-2.38
949.031	-1.38
949.76	-3.38
950.49	-0.38
951.219	-1.38
951.948	1.62
952.678	-0.38
953.407	-0.38
954.136	0.62
954.865	-0.38
955.594	1.62
956.323	-0.38
957.052	-1.38
957.78	-0.38
958.509	-1.38
959.238	0.62
959.966	-0.38
960.695	-0.38
961.423	-1.38
962.151	-2.38
962.88	-3.38
963.608	-0.38
964.336	-1.38
965.064	-0.38
965.792	0.62
966.52	-0.38
967.247	0.62
967.975	-2.38
968.703	0.62
969.43	1.62
970.158	-1.38
970.885	-2.38
971.613	-0.38
972.34	-0.38
973.067	-0.38
973.794	-0.38
974.521	-0.38
975.248	-3.38
975.975	0.62
976.702	-0.38
977.429	-1.38
978.156	-1.38
978.882	-3.38
979.609	-1.38
980.335	0.62
981.062	0.62
981.788	-0.38
982.514	-0.38
983.24	-1.38
983.967	-3.38
984.693	-0.38
985.419	-2.38
986.144	-1.38
986.87	0.62
987.596	0.62
988.322	-1.38
989.047	-0.38
989.773	-0.38
990.498	-0.38
991.224	0.62
991.949	-1.38
992.674	-0.38
993.399	-1.38
994.124	-2.38
994.849	0.62
995.574	-3.38
996.299	0.62
997.024	0.62
997.749	0.62
998.473	-2.38
999.198	-1.38
999.922	-1.38
1000.647	-0.38
1001.371	3.62
1002.095	-2.38
1002.82	-1.38
1003.544	-1.38
1004.268	0.62
1004.992	3.62
1005.716	0.62
1006.439	3.62
1007.163	2.62
1007.887	1.62
1008.611	0.62
1009.334	-0.38
1010.058	0.62
1010.781	0.62
1011.504	-0.38
1012.228	-0.38
1012.951	1.62
1013.674	1.62
1014.397	-0.38
1015.12	-1.38
