节点500_565_QEPB04081__253__09-54-37-639.txt的数据

Date: Thu Nov 13 09:54:37 CST 2025
User: PC
Spectrometer: QEPB0408
触发模式: 0
积分时间 (秒): 1.000000E-2
Scans to average: 1
启用暗噪声校正: true
启用非线性校正: false
滑动平均宽度: 0
X轴模式: Wavelengths
Number of Pixels in Spectrum: 1044
>>>>>Begin Spectral Data<<<<<
220.843	4.62
221.644	4.62
222.444	3.62
223.244	4.62
224.045	4.62
224.845	4.62
225.645	6.62
226.445	7.62
227.245	6.62
228.045	5.62
228.845	4.62
229.645	5.62
230.444	8.62
231.244	5.62
232.043	8.62
232.843	8.62
233.642	7.62
234.442	6.62
235.241	5.62
236.04	6.62
236.839	10.62
237.638	7.62
238.437	6.62
239.236	6.62
240.035	8.62
240.833	8.62
241.632	10.62
242.43	9.62
243.229	10.62
244.027	7.62
244.826	11.62
245.624	9.62
246.422	9.62
247.22	10.62
248.018	10.62
248.816	12.62
249.614	12.62
250.412	13.62
251.21	13.62
252.007	13.62
252.805	16.62
253.602	11.62
254.4	17.62
255.197	14.62
255.994	15.62
256.791	15.62
257.589	16.62
258.386	17.62
259.183	15.62
259.979	19.62
260.776	18.62
261.573	19.62
262.37	20.62
263.166	18.62
263.963	20.62
264.759	19.62
265.556	24.62
266.352	21.62
267.148	25.62
267.944	23.62
268.74	22.62
269.536	27.62
270.332	24.62
271.128	28.62
271.924	26.62
272.719	28.62
273.515	27.62
274.311	26.62
275.106	29.62
275.901	27.62
276.697	29.62
277.492	28.62
278.287	29.62
279.082	30.62
279.877	30.62
280.672	29.62
281.467	28.62
282.262	29.62
283.056	28.62
283.851	29.62
284.646	30.62
285.44	29.62
286.234	27.62
287.029	29.62
287.823	28.62
288.617	28.62
289.411	27.62
290.205	28.62
290.999	25.62
291.793	30.62
292.587	29.62
293.381	26.62
294.174	24.62
294.968	24.62
295.761	24.62
296.555	22.62
297.348	23.62
298.141	23.62
298.935	25.62
299.728	24.62
300.521	22.62
301.314	21.62
302.107	21.62
302.899	22.62
303.692	21.62
304.485	15.62
305.277	19.62
306.07	16.62
306.862	16.62
307.655	14.62
308.447	19.62
309.239	18.62
310.031	18.62
310.823	17.62
311.615	16.62
312.407	18.62
313.199	16.62
313.991	14.62
314.783	14.62
315.574	12.62
316.366	12.62
317.157	14.62
317.949	13.62
318.74	13.62
319.531	16.62
320.322	8.62
321.113	13.62
321.904	11.62
322.695	11.62
323.486	12.62
324.277	10.62
325.068	9.62
325.858	10.62
326.649	10.62
327.439	10.62
328.23	11.62
329.02	8.62
329.81	9.62
330.6	11.62
331.391	8.62
332.181	9.62
332.971	9.62
333.76	10.62
334.55	10.62
335.34	7.62
336.13	8.62
336.919	9.62
337.709	11.62
338.498	8.62
339.287	10.62
340.077	9.62
340.866	9.62
341.655	8.62
342.444	8.62
343.233	13.62
344.022	9.62
344.811	9.62
345.6	9.62
346.388	10.62
347.177	10.62
347.965	10.62
348.754	9.62
349.542	8.62
350.33	10.62
351.119	9.62
351.907	10.62
352.695	9.62
353.483	11.62
354.271	7.62
355.059	10.62
355.846	9.62
356.634	8.62
357.422	10.62
358.209	7.62
358.997	8.62
359.784	7.62
360.571	9.62
361.359	8.62
362.146	10.62
362.933	8.62
363.72	8.62
364.507	8.62
365.294	7.62
366.081	8.62
366.867	6.62
367.654	6.62
368.44	8.62
369.227	8.62
370.013	8.62
370.8	9.62
371.586	8.62
372.372	8.62
373.158	9.62
373.944	7.62
374.73	9.62
375.516	10.62
376.302	6.62
377.088	9.62
377.873	7.62
378.659	7.62
379.445	9.62
380.23	7.62
381.015	8.62
381.801	8.62
382.586	7.62
383.371	7.62
384.156	9.62
384.941	11.62
385.726	9.62
386.511	7.62
387.296	8.62
388.08	10.62
388.865	10.62
389.649	10.62
390.434	10.62
391.218	12.62
392.003	9.62
392.787	8.62
393.571	9.62
394.355	9.62
395.139	11.62
395.923	10.62
396.707	10.62
397.491	11.62
398.274	10.62
399.058	9.62
399.842	12.62
400.625	9.62
401.408	12.62
402.192	12.62
402.975	10.62
403.758	12.62
404.541	13.62
405.324	13.62
406.107	13.62
406.89	11.62
407.673	10.62
408.456	12.62
409.238	13.62
410.021	12.62
410.803	13.62
411.586	14.62
412.368	13.62
413.151	14.62
413.933	11.62
414.715	14.62
415.497	15.62
416.279	15.62
417.061	13.62
417.843	17.62
418.624	15.62
419.406	17.62
420.188	16.62
420.969	16.62
421.751	18.62
422.532	17.62
423.313	17.62
424.095	17.62
424.876	21.62
425.657	20.62
426.438	22.62
427.219	22.62
428	19.62
428.78	21.62
429.561	25.62
430.342	24.62
431.122	26.62
431.903	26.62
432.683	27.62
433.464	28.62
434.244	29.62
435.024	32.62
435.804	31.62
436.584	33.62
437.364	32.62
438.144	41.62
438.924	39.62
439.704	40.62
440.483	43.62
441.263	47.62
442.042	46.62
442.822	51.62
443.601	59.62
444.38	61.62
445.16	69.62
445.939	73.62
446.718	77.62
447.497	87.62
448.276	92.62
449.054	98.62
449.833	112.62
450.612	114.62
451.391	131.62
452.169	146.62
452.948	160.62
453.726	174.62
454.504	193.62
455.282	218.62
456.061	241.62
456.839	261.62
457.617	300.62
458.395	328.62
459.172	368.62
459.95	410.62
460.728	462.62
461.506	520.62
462.283	559.62
463.061	640.62
463.838	719.62
464.615	797.62
465.393	883.62
466.17	995.62
466.947	1097.62
467.724	1236.62
468.501	1364.62
469.278	1513.62
470.055	1677.62
470.831	1880.62
471.608	2066.62
472.385	2292.62
473.161	2534.62
473.938	2799.62
474.714	3059.62
475.49	3362.62
476.266	3700.62
477.043	4103.62
477.819	4475.62
478.595	4946.62
479.371	5388.62
480.146	5906.62
480.922	6459.62
481.698	7057.62
482.473	7717.62
483.249	8425.62
484.024	9172.62
484.8	10056.62
485.575	10932.62
486.35	11880.62
487.126	12927.62
487.901	14018.62
488.676	15198.62
489.451	16475.62
490.225	17802.62
491	19206.62
491.775	20669.62
492.55	22150.62
493.324	23721.62
494.099	25284.62
494.873	27018.62
495.647	28630.62
496.422	30410.62
497.196	31946.62
497.97	33560.62
498.744	35040.62
499.518	36436.62
500.292	37710.62
501.066	38854.62
501.839	39908.62
502.613	40731.62
503.387	41373.62
504.16	41909.62
504.934	42085.62
505.707	41974.62
506.48	41878.62
507.253	41500.62
508.027	40752.62
508.8	39973.62
509.573	39020.62
510.346	37927.62
511.118	36807.62
511.891	35708.62
512.664	34487.62
513.437	33133.62
514.209	31802.62
514.982	30540.62
515.754	29328.62
516.526	28054.62
517.298	26871.62
518.071	25757.62
518.843	24741.62
519.615	23759.62
520.387	22793.62
521.159	21965.62
521.93	21011.62
522.702	20171.62
523.474	19317.62
524.245	18550.62
525.017	17848.62
525.788	16946.62
526.56	16201.62
527.331	15490.62
528.102	14773.62
528.873	14053.62
529.644	13344.62
530.415	12706.62
531.186	12036.62
531.957	11381.62
532.728	10813.62
533.498	10271.62
534.269	9664.62
535.039	9166.62
535.81	8662.62
536.58	8210.62
537.351	7782.62
538.121	7331.62
538.891	6944.62
539.661	6595.62
540.431	6240.62
541.201	5877.62
541.971	5592.62
542.741	5276.62
543.51	4988.62
544.28	4743.62
545.05	4539.62
545.819	4321.62
546.588	4077.62
547.358	3888.62
548.127	3682.62
548.896	3504.62
549.665	3336.62
550.434	3156.62
551.203	2998.62
551.972	2844.62
552.741	2704.62
553.51	2543.62
554.278	2390.62
555.047	2264.62
555.815	2146.62
556.584	2019.62
557.352	1897.62
558.121	1803.62
558.889	1702.62
559.657	1605.62
560.425	1529.62
561.193	1434.62
561.961	1362.62
562.729	1280.62
563.496	1212.62
564.264	1150.62
565.032	1088.62
565.799	1038.62
566.567	977.62
567.334	928.62
568.101	873.62
568.869	816.62
569.636	786.62
570.403	740.62
571.17	689.62
571.937	651.62
572.704	615.62
573.471	583.62
574.237	544.62
575.004	513.62
575.771	498.62
576.537	465.62
577.303	434.62
578.07	409.62
578.836	387.62
579.602	366.62
580.368	346.62
581.134	337.62
581.9	310.62
582.666	294.62
583.432	280.62
584.198	264.62
584.964	248.62
585.729	238.62
586.495	224.62
587.26	215.62
588.025	205.62
588.791	192.62
589.556	185.62
590.321	171.62
591.086	166.62
591.851	157.62
592.616	148.62
593.381	148.62
594.146	138.62
594.911	129.62
595.675	123.62
596.44	119.62
597.204	115.62
597.969	106.62
598.733	100.62
599.497	102.62
600.261	94.62
601.025	90.62
601.79	85.62
602.553	82.62
603.317	80.62
604.081	76.62
604.845	76.62
605.609	68.62
606.372	70.62
607.136	67.62
607.899	59.62
608.662	58.62
609.426	57.62
610.189	58.62
610.952	50.62
611.715	50.62
612.478	48.62
613.241	49.62
614.004	45.62
614.767	42.62
615.529	42.62
616.292	44.62
617.055	40.62
617.817	39.62
618.579	37.62
619.342	34.62
620.104	36.62
620.866	33.62
621.628	33.62
622.39	31.62
623.152	33.62
623.914	28.62
624.676	28.62
625.438	31.62
626.199	26.62
626.961	28.62
627.722	24.62
628.484	25.62
629.245	24.62
630.006	22.62
630.768	24.62
631.529	21.62
632.29	22.62
633.051	23.62
633.812	21.62
634.573	20.62
635.333	18.62
636.094	19.62
636.855	16.62
637.615	16.62
638.376	18.62
639.136	17.62
639.896	15.62
640.657	17.62
641.417	16.62
642.177	15.62
642.937	15.62
643.697	14.62
644.457	14.62
645.216	12.62
645.976	12.62
646.736	15.62
647.495	14.62
648.255	12.62
649.014	11.62
649.774	9.62
650.533	13.62
651.292	13.62
652.051	14.62
652.81	11.62
653.569	11.62
654.328	10.62
655.087	12.62
655.846	12.62
656.604	10.62
657.363	10.62
658.121	10.62
658.88	11.62
659.638	11.62
660.397	10.62
661.155	9.62
661.913	8.62
662.671	9.62
663.429	8.62
664.187	7.62
664.945	11.62
665.703	8.62
666.46	11.62
667.218	8.62
667.976	8.62
668.733	6.62
669.49	8.62
670.248	6.62
671.005	8.62
671.762	8.62
672.519	7.62
673.276	8.62
674.033	8.62
674.79	7.62
675.547	6.62
676.304	8.62
677.06	8.62
677.817	8.62
678.574	6.62
679.33	5.62
680.086	6.62
680.843	6.62
681.599	8.62
682.355	7.62
683.111	7.62
683.867	6.62
684.623	7.62
685.379	8.62
686.135	8.62
686.89	6.62
687.646	6.62
688.402	7.62
689.157	6.62
689.912	7.62
690.668	5.62
691.423	7.62
692.178	7.62
692.933	8.62
693.688	6.62
694.443	4.62
695.198	5.62
695.953	6.62
696.708	8.62
697.462	8.62
698.217	7.62
698.972	5.62
699.726	5.62
700.48	3.62
701.235	7.62
701.989	7.62
702.743	7.62
703.497	5.62
704.251	7.62
705.005	5.62
705.759	4.62
706.513	4.62
707.266	8.62
708.02	5.62
708.774	5.62
709.527	7.62
710.28	5.62
711.034	3.62
711.787	6.62
712.54	9.62
713.293	6.62
714.046	8.62
714.799	5.62
715.552	4.62
716.305	3.62
717.058	8.62
717.81	7.62
718.563	9.62
719.315	6.62
720.068	6.62
720.82	4.62
721.573	5.62
722.325	6.62
723.077	5.62
723.829	6.62
724.581	6.62
725.333	6.62
726.085	5.62
726.836	7.62
727.588	7.62
728.34	4.62
729.091	5.62
729.843	7.62
730.594	7.62
731.346	6.62
732.097	9.62
732.848	8.62
733.599	9.62
734.35	9.62
735.101	4.62
735.852	7.62
736.603	7.62
737.354	5.62
738.104	8.62
738.855	7.62
739.605	8.62
740.356	9.62
741.106	7.62
741.856	9.62
742.607	6.62
743.357	8.62
744.107	8.62
744.857	8.62
745.607	7.62
746.357	10.62
747.106	9.62
747.856	8.62
748.606	8.62
749.355	6.62
750.105	8.62
750.854	9.62
751.603	7.62
752.353	8.62
753.102	7.62
753.851	11.62
754.6	9.62
755.349	10.62
756.098	9.62
756.847	10.62
757.595	9.62
758.344	8.62
759.093	11.62
759.841	8.62
760.589	10.62
761.338	9.62
762.086	9.62
762.834	13.62
763.582	12.62
764.331	12.62
765.079	9.62
765.826	11.62
766.574	11.62
767.322	13.62
768.07	13.62
768.817	12.62
769.565	12.62
770.312	11.62
771.06	13.62
771.807	13.62
772.554	13.62
773.302	13.62
774.049	12.62
774.796	12.62
775.543	12.62
776.29	14.62
777.036	13.62
777.783	14.62
778.53	12.62
779.276	16.62
780.023	13.62
780.769	12.62
781.516	13.62
782.262	13.62
783.008	13.62
783.754	16.62
784.5	15.62
785.246	11.62
785.992	12.62
786.738	15.62
787.484	13.62
788.23	13.62
788.975	12.62
789.721	10.62
790.466	12.62
791.212	11.62
791.957	11.62
792.702	14.62
793.447	13.62
794.193	10.62
794.938	12.62
795.683	12.62
796.427	10.62
797.172	10.62
797.917	12.62
798.662	11.62
799.406	9.62
800.151	10.62
800.895	8.62
801.64	9.62
802.384	10.62
803.128	8.62
803.872	8.62
804.616	9.62
805.36	10.62
806.104	8.62
806.848	8.62
807.592	7.62
808.336	9.62
809.079	7.62
809.823	8.62
810.566	7.62
811.31	6.62
812.053	7.62
812.796	7.62
813.539	7.62
814.283	8.62
815.026	7.62
815.769	6.62
816.511	8.62
817.254	7.62
817.997	7.62
818.74	6.62
819.482	6.62
820.225	6.62
820.967	8.62
821.71	7.62
822.452	4.62
823.194	7.62
823.936	4.62
824.678	6.62
825.42	5.62
826.162	6.62
826.904	5.62
827.646	6.62
828.388	6.62
829.129	3.62
829.871	6.62
830.612	7.62
831.354	7.62
832.095	5.62
832.836	4.62
833.577	3.62
834.319	5.62
835.06	5.62
835.801	3.62
836.542	5.62
837.282	3.62
838.023	4.62
838.764	6.62
839.504	2.62
840.245	3.62
840.985	4.62
841.726	7.62
842.466	6.62
843.206	6.62
843.946	5.62
844.687	4.62
845.427	3.62
846.166	4.62
846.906	5.62
847.646	4.62
848.386	4.62
849.125	5.62
849.865	5.62
850.605	4.62
851.344	2.62
852.083	4.62
852.823	4.62
853.562	5.62
854.301	4.62
855.04	4.62
855.779	5.62
856.518	4.62
857.257	2.62
857.995	0.62
858.734	3.62
859.473	4.62
860.211	3.62
860.95	3.62
861.688	0.62
862.426	2.62
863.165	-1.38
863.903	3.62
864.641	2.62
865.379	2.62
866.117	3.62
866.855	-0.38
867.593	3.62
868.33	2.62
869.068	0.62
869.806	3.62
870.543	1.62
871.28	4.62
872.018	1.62
872.755	3.62
873.492	2.62
874.229	1.62
874.967	1.62
875.703	0.62
876.44	3.62
877.177	-0.38
877.914	1.62
878.651	0.62
879.387	-0.38
880.124	2.62
880.86	1.62
881.597	2.62
882.333	4.62
883.069	3.62
883.806	0.62
884.542	1.62
885.278	1.62
886.014	0.62
886.749	0.62
887.485	-0.38
888.221	1.62
888.957	0.62
889.692	-1.38
890.428	0.62
891.163	0.62
891.899	0.62
892.634	2.62
893.369	1.62
894.104	1.62
894.839	0.62
895.574	1.62
896.309	2.62
897.044	1.62
897.779	0.62
898.514	1.62
899.248	1.62
899.983	0.62
900.717	0.62
901.452	0.62
902.186	-0.38
902.92	0.62
903.654	0.62
904.389	1.62
905.123	1.62
905.857	-0.38
906.59	-1.38
907.324	1.62
908.058	-0.38
908.792	0.62
909.525	0.62
910.259	2.62
910.992	0.62
911.726	0.62
912.459	0.62
913.192	0.62
913.925	1.62
914.658	0.62
915.391	0.62
916.124	0.62
916.857	2.62
917.59	0.62
918.323	-0.38
919.055	0.62
919.788	0.62
920.521	1.62
921.253	-0.38
921.985	0.62
922.718	0.62
923.45	-1.38
924.182	0.62
924.914	1.62
925.646	1.62
926.378	0.62
927.11	0.62
927.841	-1.38
928.573	-0.38
929.305	0.62
930.036	0.62
930.768	0.62
931.499	1.62
932.23	-0.38
932.962	0.62
933.693	-1.38
934.424	0.62
935.155	0.62
935.886	0.62
936.617	-0.38
937.348	-2.38
938.078	0.62
938.809	0.62
939.54	1.62
940.27	-0.38
941.001	-0.38
941.731	-0.38
942.461	0.62
943.191	1.62
943.922	0.62
944.652	-0.38
945.382	1.62
946.112	0.62
946.841	-0.38
947.571	0.62
948.301	-0.38
949.031	0.62
949.76	1.62
950.49	0.62
951.219	0.62
951.948	0.62
952.678	0.62
953.407	-0.38
954.136	-1.38
954.865	0.62
955.594	0.62
956.323	0.62
957.052	-0.38
957.78	0.62
958.509	1.62
959.238	1.62
959.966	0.62
960.695	0.62
961.423	0.62
962.151	1.62
962.88	0.62
963.608	2.62
964.336	-1.38
965.064	0.62
965.792	-0.38
966.52	0.62
967.247	0.62
967.975	3.62
968.703	-0.38
969.43	-0.38
970.158	-0.38
970.885	-0.38
971.613	1.62
972.34	0.62
973.067	0.62
973.794	1.62
974.521	-1.38
975.248	-0.38
975.975	-0.38
976.702	1.62
977.429	-0.38
978.156	0.62
978.882	1.62
979.609	0.62
980.335	0.62
981.062	2.62
981.788	-0.38
982.514	-0.38
983.24	-0.38
983.967	1.62
984.693	-1.38
985.419	1.62
986.144	-0.38
986.87	0.62
987.596	0.62
988.322	-0.38
989.047	0.62
989.773	-1.38
990.498	2.62
991.224	0.62
991.949	0.62
992.674	-1.38
993.399	0.62
994.124	-0.38
994.849	1.62
995.574	1.62
996.299	-2.38
997.024	0.62
997.749	1.62
998.473	-0.38
999.198	-0.38
999.922	0.62
1000.647	0.62
1001.371	2.62
1002.095	-1.38
1002.82	-0.38
1003.544	-2.38
1004.268	2.62
1004.992	2.62
1005.716	4.62
1006.439	3.62
1007.163	4.62
1007.887	4.62
1008.611	0.62
1009.334	0.62
1010.058	-2.38
1010.781	0.62
1011.504	0.62
1012.228	1.62
1012.951	1.62
1013.674	0.62
1014.397	-0.38
1015.12	-0.38
