节点500_565_QEPB04081__115__09-52-20-945.txt的数据

Date: Thu Nov 13 09:52:20 CST 2025
User: PC
Spectrometer: QEPB0408
触发模式: 0
积分时间 (秒): 1.000000E-2
Scans to average: 1
启用暗噪声校正: true
启用非线性校正: false
滑动平均宽度: 0
X轴模式: Wavelengths
Number of Pixels in Spectrum: 1044
>>>>>Begin Spectral Data<<<<<
220.843	5.12
221.644	4.12
222.444	4.12
223.244	5.12
224.045	5.12
224.845	6.12
225.645	5.12
226.445	6.12
227.245	6.12
228.045	6.12
228.845	6.12
229.645	8.12
230.444	7.12
231.244	7.12
232.043	6.12
232.843	7.12
233.642	8.12
234.442	7.12
235.241	7.12
236.04	8.12
236.839	7.12
237.638	8.12
238.437	9.12
239.236	8.12
240.035	8.12
240.833	9.12
241.632	11.12
242.43	9.12
243.229	12.12
244.027	12.12
244.826	9.12
245.624	11.12
246.422	13.12
247.22	12.12
248.018	12.12
248.816	12.12
249.614	11.12
250.412	13.12
251.21	13.12
252.007	13.12
252.805	16.12
253.602	14.12
254.4	14.12
255.197	17.12
255.994	16.12
256.791	17.12
257.589	15.12
258.386	16.12
259.183	19.12
259.979	20.12
260.776	19.12
261.573	19.12
262.37	21.12
263.166	21.12
263.963	22.12
264.759	22.12
265.556	24.12
266.352	25.12
267.148	26.12
267.944	22.12
268.74	25.12
269.536	26.12
270.332	24.12
271.128	27.12
271.924	27.12
272.719	28.12
273.515	26.12
274.311	27.12
275.106	31.12
275.901	30.12
276.697	30.12
277.492	32.12
278.287	31.12
279.082	34.12
279.877	31.12
280.672	33.12
281.467	31.12
282.262	28.12
283.056	28.12
283.851	27.12
284.646	29.12
285.44	30.12
286.234	27.12
287.029	31.12
287.823	30.12
288.617	28.12
289.411	28.12
290.205	29.12
290.999	28.12
291.793	27.12
292.587	28.12
293.381	27.12
294.174	25.12
294.968	26.12
295.761	27.12
296.555	23.12
297.348	23.12
298.141	25.12
298.935	25.12
299.728	22.12
300.521	21.12
301.314	21.12
302.107	20.12
302.899	20.12
303.692	19.12
304.485	20.12
305.277	20.12
306.07	17.12
306.862	21.12
307.655	17.12
308.447	18.12
309.239	15.12
310.031	17.12
310.823	14.12
311.615	17.12
312.407	16.12
313.199	14.12
313.991	16.12
314.783	12.12
315.574	14.12
316.366	14.12
317.157	13.12
317.949	11.12
318.74	12.12
319.531	11.12
320.322	10.12
321.113	12.12
321.904	13.12
322.695	14.12
323.486	11.12
324.277	10.12
325.068	10.12
325.858	8.12
326.649	11.12
327.439	9.12
328.23	11.12
329.02	9.12
329.81	10.12
330.6	12.12
331.391	8.12
332.181	10.12
332.971	10.12
333.76	9.12
334.55	10.12
335.34	10.12
336.13	10.12
336.919	9.12
337.709	11.12
338.498	13.12
339.287	9.12
340.077	7.12
340.866	8.12
341.655	6.12
342.444	10.12
343.233	9.12
344.022	9.12
344.811	9.12
345.6	7.12
346.388	9.12
347.177	11.12
347.965	12.12
348.754	11.12
349.542	10.12
350.33	9.12
351.119	12.12
351.907	8.12
352.695	11.12
353.483	7.12
354.271	9.12
355.059	6.12
355.846	9.12
356.634	9.12
357.422	7.12
358.209	12.12
358.997	7.12
359.784	11.12
360.571	9.12
361.359	12.12
362.146	9.12
362.933	7.12
363.72	8.12
364.507	6.12
365.294	10.12
366.081	8.12
366.867	9.12
367.654	10.12
368.44	7.12
369.227	9.12
370.013	9.12
370.8	8.12
371.586	9.12
372.372	8.12
373.158	8.12
373.944	9.12
374.73	10.12
375.516	5.12
376.302	8.12
377.088	7.12
377.873	10.12
378.659	10.12
379.445	9.12
380.23	8.12
381.015	9.12
381.801	11.12
382.586	10.12
383.371	9.12
384.156	10.12
384.941	9.12
385.726	9.12
386.511	8.12
387.296	11.12
388.08	8.12
388.865	9.12
389.649	11.12
390.434	9.12
391.218	11.12
392.003	9.12
392.787	10.12
393.571	11.12
394.355	8.12
395.139	9.12
395.923	9.12
396.707	13.12
397.491	8.12
398.274	11.12
399.058	11.12
399.842	11.12
400.625	11.12
401.408	9.12
402.192	10.12
402.975	12.12
403.758	14.12
404.541	11.12
405.324	12.12
406.107	13.12
406.89	13.12
407.673	13.12
408.456	16.12
409.238	12.12
410.021	15.12
410.803	15.12
411.586	13.12
412.368	16.12
413.151	13.12
413.933	16.12
414.715	15.12
415.497	14.12
416.279	16.12
417.061	14.12
417.843	14.12
418.624	17.12
419.406	16.12
420.188	19.12
420.969	18.12
421.751	18.12
422.532	23.12
423.313	19.12
424.095	18.12
424.876	20.12
425.657	18.12
426.438	21.12
427.219	20.12
428	23.12
428.78	21.12
429.561	25.12
430.342	24.12
431.122	26.12
431.903	24.12
432.683	32.12
433.464	29.12
434.244	30.12
435.024	29.12
435.804	32.12
436.584	34.12
437.364	34.12
438.144	38.12
438.924	37.12
439.704	40.12
440.483	46.12
441.263	44.12
442.042	48.12
442.822	51.12
443.601	56.12
444.38	60.12
445.16	63.12
445.939	69.12
446.718	77.12
447.497	83.12
448.276	89.12
449.054	96.12
449.833	101.12
450.612	109.12
451.391	127.12
452.169	139.12
452.948	152.12
453.726	163.12
454.504	192.12
455.282	212.12
456.061	229.12
456.839	256.12
457.617	282.12
458.395	320.12
459.172	350.12
459.95	396.12
460.728	447.12
461.506	499.12
462.283	551.12
463.061	616.12
463.838	694.12
464.615	771.12
465.393	860.12
466.17	958.12
466.947	1075.12
467.724	1193.12
468.501	1331.12
469.278	1485.12
470.055	1649.12
470.831	1834.12
471.608	2065.12
472.385	2275.12
473.161	2520.12
473.938	2781.12
474.714	3092.12
475.49	3393.12
476.266	3714.12
477.043	4129.12
477.819	4564.12
478.595	5011.12
479.371	5475.12
480.146	6034.12
480.922	6613.12
481.698	7315.12
482.473	7954.12
483.249	8706.12
484.024	9534.12
484.8	10444.12
485.575	11401.12
486.35	12445.12
487.126	13512.12
487.901	14754.12
488.676	16035.12
489.451	17423.12
490.225	18838.12
491	20344.12
491.775	21921.12
492.55	23601.12
493.324	25249.12
494.099	26878.12
494.873	28702.12
495.647	30526.12
496.422	32284.12
497.196	33981.12
497.97	35605.12
498.744	37149.12
499.518	38473.12
500.292	39714.12
501.066	40864.12
501.839	42002.12
502.613	42721.12
503.387	43256.12
504.16	43477.12
504.934	43661.12
505.707	43426.12
506.48	43052.12
507.253	42504.12
508.027	41589.12
508.8	40690.12
509.573	39469.12
510.346	38287.12
511.118	37033.12
511.891	35822.12
512.664	34505.12
513.437	33120.12
514.209	31686.12
514.982	30368.12
515.754	29166.12
516.526	27926.12
517.298	26633.12
518.071	25570.12
518.843	24552.12
519.615	23554.12
520.387	22569.12
521.159	21748.12
521.93	20858.12
522.702	19920.12
523.474	19096.12
524.245	18315.12
525.017	17647.12
525.788	16774.12
526.56	16021.12
527.331	15227.12
528.102	14525.12
528.873	13786.12
529.644	13058.12
530.415	12386.12
531.186	11768.12
531.957	11144.12
532.728	10586.12
533.498	9970.12
534.269	9421.12
535.039	8857.12
535.81	8438.12
536.58	7976.12
537.351	7536.12
538.121	7093.12
538.891	6708.12
539.661	6385.12
540.431	6020.12
541.201	5685.12
541.971	5424.12
542.741	5096.12
543.51	4877.12
544.28	4631.12
545.05	4397.12
545.819	4178.12
546.588	3952.12
547.358	3778.12
548.127	3605.12
548.896	3396.12
549.665	3241.12
550.434	3072.12
551.203	2907.12
551.972	2729.12
552.741	2598.12
553.51	2444.12
554.278	2323.12
555.047	2169.12
555.815	2052.12
556.584	1954.12
557.352	1841.12
558.121	1736.12
558.889	1637.12
559.657	1542.12
560.425	1467.12
561.193	1395.12
561.961	1305.12
562.729	1253.12
563.496	1174.12
564.264	1111.12
565.032	1043.12
565.799	1000.12
566.567	946.12
567.334	881.12
568.101	841.12
568.869	789.12
569.636	738.12
570.403	713.12
571.17	667.12
571.937	634.12
572.704	592.12
573.471	558.12
574.237	522.12
575.004	491.12
575.771	470.12
576.537	438.12
577.303	420.12
578.07	396.12
578.836	364.12
579.602	352.12
580.368	338.12
581.134	304.12
581.9	299.12
582.666	281.12
583.432	267.12
584.198	257.12
584.964	241.12
585.729	229.12
586.495	216.12
587.26	202.12
588.025	195.12
588.791	187.12
589.556	171.12
590.321	167.12
591.086	157.12
591.851	155.12
592.616	147.12
593.381	138.12
594.146	132.12
594.911	126.12
595.675	119.12
596.44	118.12
597.204	109.12
597.969	108.12
598.733	101.12
599.497	99.12
600.261	89.12
601.025	86.12
601.79	82.12
602.553	84.12
603.317	76.12
604.081	74.12
604.845	73.12
605.609	67.12
606.372	66.12
607.136	65.12
607.899	64.12
608.662	58.12
609.426	57.12
610.189	55.12
610.952	53.12
611.715	51.12
612.478	49.12
613.241	47.12
614.004	42.12
614.767	42.12
615.529	42.12
616.292	40.12
617.055	41.12
617.817	40.12
618.579	39.12
619.342	33.12
620.104	35.12
620.866	36.12
621.628	36.12
622.39	32.12
623.152	30.12
623.914	32.12
624.676	30.12
625.438	27.12
626.199	26.12
626.961	25.12
627.722	25.12
628.484	24.12
629.245	26.12
630.006	24.12
630.768	21.12
631.529	22.12
632.29	21.12
633.051	21.12
633.812	19.12
634.573	20.12
635.333	20.12
636.094	17.12
636.855	16.12
637.615	18.12
638.376	16.12
639.136	19.12
639.896	18.12
640.657	15.12
641.417	15.12
642.177	14.12
642.937	14.12
643.697	16.12
644.457	15.12
645.216	15.12
645.976	13.12
646.736	12.12
647.495	14.12
648.255	10.12
649.014	14.12
649.774	10.12
650.533	14.12
651.292	12.12
652.051	11.12
652.81	13.12
653.569	11.12
654.328	10.12
655.087	10.12
655.846	11.12
656.604	9.12
657.363	11.12
658.121	13.12
658.88	11.12
659.638	10.12
660.397	9.12
661.155	9.12
661.913	12.12
662.671	8.12
663.429	9.12
664.187	10.12
664.945	6.12
665.703	6.12
666.46	10.12
667.218	7.12
667.976	9.12
668.733	11.12
669.49	6.12
670.248	7.12
671.005	8.12
671.762	7.12
672.519	9.12
673.276	8.12
674.033	8.12
674.79	7.12
675.547	9.12
676.304	4.12
677.06	8.12
677.817	9.12
678.574	6.12
679.33	7.12
680.086	8.12
680.843	3.12
681.599	6.12
682.355	7.12
683.111	6.12
683.867	6.12
684.623	7.12
685.379	6.12
686.135	7.12
686.89	6.12
687.646	6.12
688.402	7.12
689.157	8.12
689.912	8.12
690.668	6.12
691.423	7.12
692.178	4.12
692.933	6.12
693.688	6.12
694.443	7.12
695.198	5.12
695.953	8.12
696.708	8.12
697.462	6.12
698.217	5.12
698.972	6.12
699.726	5.12
700.48	6.12
701.235	4.12
701.989	8.12
702.743	5.12
703.497	7.12
704.251	6.12
705.005	4.12
705.759	5.12
706.513	5.12
707.266	7.12
708.02	5.12
708.774	6.12
709.527	8.12
710.28	7.12
711.034	5.12
711.787	4.12
712.54	7.12
713.293	5.12
714.046	6.12
714.799	6.12
715.552	4.12
716.305	5.12
717.058	7.12
717.81	6.12
718.563	7.12
719.315	6.12
720.068	7.12
720.82	7.12
721.573	4.12
722.325	7.12
723.077	6.12
723.829	8.12
724.581	8.12
725.333	7.12
726.085	7.12
726.836	8.12
727.588	6.12
728.34	6.12
729.091	6.12
729.843	8.12
730.594	6.12
731.346	7.12
732.097	8.12
732.848	8.12
733.599	8.12
734.35	8.12
735.101	8.12
735.852	7.12
736.603	10.12
737.354	7.12
738.104	8.12
738.855	10.12
739.605	10.12
740.356	10.12
741.106	8.12
741.856	8.12
742.607	8.12
743.357	10.12
744.107	9.12
744.857	6.12
745.607	9.12
746.357	9.12
747.106	11.12
747.856	8.12
748.606	8.12
749.355	9.12
750.105	9.12
750.854	11.12
751.603	7.12
752.353	10.12
753.102	8.12
753.851	8.12
754.6	10.12
755.349	12.12
756.098	9.12
756.847	10.12
757.595	12.12
758.344	8.12
759.093	11.12
759.841	10.12
760.589	10.12
761.338	11.12
762.086	11.12
762.834	9.12
763.582	11.12
764.331	10.12
765.079	13.12
765.826	10.12
766.574	11.12
767.322	13.12
768.07	14.12
768.817	14.12
769.565	13.12
770.312	12.12
771.06	10.12
771.807	13.12
772.554	11.12
773.302	12.12
774.049	11.12
774.796	17.12
775.543	12.12
776.29	13.12
777.036	12.12
777.783	13.12
778.53	16.12
779.276	12.12
780.023	12.12
780.769	16.12
781.516	14.12
782.262	11.12
783.008	14.12
783.754	13.12
784.5	13.12
785.246	14.12
785.992	15.12
786.738	13.12
787.484	15.12
788.23	12.12
788.975	15.12
789.721	11.12
790.466	12.12
791.212	14.12
791.957	14.12
792.702	14.12
793.447	14.12
794.193	13.12
794.938	14.12
795.683	15.12
796.427	12.12
797.172	12.12
797.917	10.12
798.662	11.12
799.406	9.12
800.151	10.12
800.895	11.12
801.64	12.12
802.384	11.12
803.128	11.12
803.872	9.12
804.616	11.12
805.36	8.12
806.104	9.12
806.848	9.12
807.592	9.12
808.336	9.12
809.079	9.12
809.823	9.12
810.566	7.12
811.31	9.12
812.053	9.12
812.796	8.12
813.539	8.12
814.283	6.12
815.026	8.12
815.769	8.12
816.511	8.12
817.254	6.12
817.997	6.12
818.74	5.12
819.482	6.12
820.225	8.12
820.967	4.12
821.71	7.12
822.452	8.12
823.194	3.12
823.936	8.12
824.678	5.12
825.42	6.12
826.162	4.12
826.904	4.12
827.646	7.12
828.388	5.12
829.129	6.12
829.871	7.12
830.612	4.12
831.354	6.12
832.095	5.12
832.836	6.12
833.577	6.12
834.319	5.12
835.06	4.12
835.801	6.12
836.542	4.12
837.282	5.12
838.023	5.12
838.764	3.12
839.504	6.12
840.245	6.12
840.985	6.12
841.726	4.12
842.466	5.12
843.206	3.12
843.946	5.12
844.687	6.12
845.427	2.12
846.166	4.12
846.906	5.12
847.646	5.12
848.386	4.12
849.125	4.12
849.865	4.12
850.605	1.12
851.344	5.12
852.083	3.12
852.823	4.12
853.562	0.12
854.301	3.12
855.04	4.12
855.779	2.12
856.518	2.12
857.257	1.12
857.995	4.12
858.734	3.12
859.473	3.12
860.211	2.12
860.95	4.12
861.688	2.12
862.426	2.12
863.165	3.12
863.903	3.12
864.641	-0.88
865.379	3.12
866.117	2.12
866.855	3.12
867.593	2.12
868.33	2.12
869.068	-0.88
869.806	2.12
870.543	4.12
871.28	0.12
872.018	2.12
872.755	-0.88
873.492	3.12
874.229	1.12
874.967	0.12
875.703	2.12
876.44	0.12
877.177	1.12
877.914	1.12
878.651	3.12
879.387	0.12
880.124	2.12
880.86	1.12
881.597	3.12
882.333	1.12
883.069	1.12
883.806	-1.88
884.542	1.12
885.278	0.12
886.014	0.12
886.749	0.12
887.485	1.12
888.221	0.12
888.957	3.12
889.692	1.12
890.428	-0.88
891.163	0.12
891.899	0.12
892.634	2.12
893.369	-0.88
894.104	2.12
894.839	2.12
895.574	3.12
896.309	2.12
897.044	1.12
897.779	1.12
898.514	0.12
899.248	0.12
899.983	2.12
900.717	2.12
901.452	2.12
902.186	0.12
902.92	1.12
903.654	0.12
904.389	1.12
905.123	0.12
905.857	1.12
906.59	0.12
907.324	1.12
908.058	1.12
908.792	1.12
909.525	1.12
910.259	1.12
910.992	1.12
911.726	-0.88
912.459	-0.88
913.192	0.12
913.925	0.12
914.658	1.12
915.391	0.12
916.124	0.12
916.857	0.12
917.59	-0.88
918.323	1.12
919.055	0.12
919.788	0.12
920.521	-0.88
921.253	0.12
921.985	1.12
922.718	-0.88
923.45	-1.88
924.182	-0.88
924.914	0.12
925.646	0.12
926.378	0.12
927.11	-0.88
927.841	0.12
928.573	0.12
929.305	1.12
930.036	0.12
930.768	0.12
931.499	1.12
932.23	0.12
932.962	0.12
933.693	-1.88
934.424	-0.88
935.155	0.12
935.886	-1.88
936.617	-0.88
937.348	1.12
938.078	0.12
938.809	0.12
939.54	-0.88
940.27	2.12
941.001	-0.88
941.731	1.12
942.461	-1.88
943.191	0.12
943.922	0.12
944.652	-1.88
945.382	0.12
946.112	-0.88
946.841	0.12
947.571	0.12
948.301	-0.88
949.031	0.12
949.76	0.12
950.49	2.12
951.219	-1.88
951.948	1.12
952.678	2.12
953.407	2.12
954.136	0.12
954.865	0.12
955.594	0.12
956.323	-2.88
957.052	1.12
957.78	0.12
958.509	0.12
959.238	0.12
959.966	-0.88
960.695	0.12
961.423	-0.88
962.151	1.12
962.88	-0.88
963.608	0.12
964.336	-0.88
965.064	-0.88
965.792	-0.88
966.52	0.12
967.247	-1.88
967.975	-0.88
968.703	1.12
969.43	1.12
970.158	0.12
970.885	1.12
971.613	-0.88
972.34	1.12
973.067	0.12
973.794	-0.88
974.521	0.12
975.248	-1.88
975.975	0.12
976.702	0.12
977.429	-0.88
978.156	-0.88
978.882	0.12
979.609	0.12
980.335	-0.88
981.062	1.12
981.788	-1.88
982.514	-1.88
983.24	-0.88
983.967	1.12
984.693	-2.88
985.419	-0.88
986.144	2.12
986.87	-1.88
987.596	-1.88
988.322	1.12
989.047	2.12
989.773	1.12
990.498	0.12
991.224	-0.88
991.949	0.12
992.674	0.12
993.399	1.12
994.124	0.12
994.849	2.12
995.574	1.12
996.299	1.12
997.024	-0.88
997.749	2.12
998.473	-0.88
999.198	-1.88
999.922	-1.88
1000.647	-1.88
1001.371	2.12
1002.095	-1.88
1002.82	-2.88
1003.544	0.12
1004.268	2.12
1004.992	4.12
1005.716	2.12
1006.439	3.12
1007.163	3.12
1007.887	4.12
1008.611	0.12
1009.334	0.12
1010.058	1.12
1010.781	-0.88
1011.504	0.12
1012.228	-0.88
1012.951	-0.88
1013.674	-0.88
1014.397	1.12
1015.12	3.12
