节点500_565_QEPB04081__43__09-51-09-084.txt的数据

Date: Thu Nov 13 09:51:09 CST 2025
User: PC
Spectrometer: QEPB0408
触发模式: 0
积分时间 (秒): 1.000000E-2
Scans to average: 1
启用暗噪声校正: true
启用非线性校正: false
滑动平均宽度: 0
X轴模式: Wavelengths
Number of Pixels in Spectrum: 1044
>>>>>Begin Spectral Data<<<<<
220.843	2
221.644	6
222.444	5
223.244	5
224.045	3
224.845	5
225.645	5
226.445	4
227.245	7
228.045	4
228.845	7
229.645	6
230.444	7
231.244	7
232.043	10
232.843	8
233.642	3
234.442	8
235.241	8
236.04	8
236.839	10
237.638	8
238.437	8
239.236	6
240.035	8
240.833	8
241.632	11
242.43	8
243.229	9
244.027	12
244.826	12
245.624	13
246.422	11
247.22	10
248.018	11
248.816	12
249.614	13
250.412	13
251.21	14
252.007	13
252.805	12
253.602	14
254.4	13
255.197	18
255.994	16
256.791	19
257.589	20
258.386	17
259.183	20
259.979	18
260.776	20
261.573	21
262.37	21
263.166	24
263.963	23
264.759	25
265.556	23
266.352	22
267.148	27
267.944	26
268.74	26
269.536	22
270.332	27
271.128	29
271.924	28
272.719	28
273.515	29
274.311	31
275.106	34
275.901	33
276.697	28
277.492	32
278.287	30
279.082	32
279.877	30
280.672	30
281.467	33
282.262	30
283.056	32
283.851	29
284.646	35
285.44	35
286.234	31
287.029	29
287.823	30
288.617	32
289.411	28
290.205	34
290.999	27
291.793	31
292.587	28
293.381	26
294.174	27
294.968	24
295.761	25
296.555	21
297.348	23
298.141	22
298.935	23
299.728	25
300.521	21
301.314	24
302.107	20
302.899	19
303.692	22
304.485	19
305.277	19
306.07	17
306.862	19
307.655	18
308.447	17
309.239	16
310.031	16
310.823	15
311.615	16
312.407	17
313.199	14
313.991	13
314.783	11
315.574	16
316.366	15
317.157	13
317.949	12
318.74	13
319.531	14
320.322	10
321.113	12
321.904	10
322.695	9
323.486	11
324.277	13
325.068	11
325.858	12
326.649	9
327.439	12
328.23	10
329.02	10
329.81	14
330.6	10
331.391	10
332.181	11
332.971	12
333.76	8
334.55	12
335.34	8
336.13	9
336.919	11
337.709	10
338.498	11
339.287	8
340.077	11
340.866	9
341.655	8
342.444	9
343.233	10
344.022	10
344.811	9
345.6	9
346.388	9
347.177	9
347.965	9
348.754	10
349.542	11
350.33	9
351.119	10
351.907	7
352.695	10
353.483	8
354.271	7
355.059	9
355.846	11
356.634	9
357.422	8
358.209	9
358.997	8
359.784	8
360.571	9
361.359	9
362.146	11
362.933	9
363.72	9
364.507	10
365.294	8
366.081	7
366.867	5
367.654	8
368.44	8
369.227	9
370.013	9
370.8	7
371.586	7
372.372	11
373.158	9
373.944	9
374.73	10
375.516	9
376.302	8
377.088	9
377.873	9
378.659	9
379.445	8
380.23	8
381.015	7
381.801	8
382.586	10
383.371	9
384.156	11
384.941	8
385.726	7
386.511	9
387.296	12
388.08	12
388.865	12
389.649	9
390.434	8
391.218	9
392.003	11
392.787	9
393.571	12
394.355	11
395.139	11
395.923	10
396.707	14
397.491	12
398.274	9
399.058	11
399.842	14
400.625	13
401.408	13
402.192	12
402.975	13
403.758	11
404.541	13
405.324	13
406.107	12
406.89	14
407.673	15
408.456	12
409.238	14
410.021	15
410.803	13
411.586	14
412.368	17
413.151	17
413.933	15
414.715	15
415.497	17
416.279	17
417.061	15
417.843	16
418.624	18
419.406	15
420.188	17
420.969	18
421.751	17
422.532	20
423.313	18
424.095	21
424.876	20
425.657	19
426.438	22
427.219	24
428	23
428.78	22
429.561	24
430.342	22
431.122	26
431.903	27
432.683	25
433.464	28
434.244	28
435.024	28
435.804	31
436.584	33
437.364	37
438.144	36
438.924	40
439.704	39
440.483	45
441.263	46
442.042	48
442.822	52
443.601	54
444.38	59
445.16	60
445.939	68
446.718	73
447.497	80
448.276	87
449.054	88
449.833	99
450.612	111
451.391	123
452.169	132
452.948	147
453.726	161
454.504	178
455.282	200
456.061	218
456.839	248
457.617	271
458.395	308
459.172	336
459.95	377
460.728	428
461.506	472
462.283	528
463.061	593
463.838	656
464.615	739
465.393	836
466.17	938
466.947	1059
467.724	1175
468.501	1294
469.278	1462
470.055	1618
470.831	1803
471.608	2006
472.385	2238
473.161	2493
473.938	2751
474.714	3041
475.49	3366
476.266	3764
477.043	4152
477.819	4618
478.595	5037
479.371	5584
480.146	6158
480.922	6801
481.698	7443
482.473	8173
483.249	8931
484.024	9868
484.8	10784
485.575	11806
486.35	12917
487.126	14107
487.901	15427
488.676	16730
489.451	18211
490.225	19812
491	21372
491.775	23106
492.55	24877
493.324	26579
494.099	28416
494.873	30268
495.647	32242
496.422	34071
497.196	35746
497.97	37518
498.744	39007
499.518	40331
500.292	41665
501.066	42817
501.839	43677
502.613	44407
503.387	44851
504.16	44981
504.934	44982
505.707	44530
506.48	44028
507.253	43303
508.027	42344
508.8	41120
509.573	39808
510.346	38505
511.118	37132
511.891	35859
512.664	34455
513.437	32943
514.209	31412
514.982	30221
515.754	28826
516.526	27623
517.298	26432
518.071	25300
518.843	24322
519.615	23227
520.387	22350
521.159	21567
521.93	20636
522.702	19755
523.474	18944
524.245	18157
525.017	17492
525.788	16560
526.56	15750
527.331	14945
528.102	14252
528.873	13479
529.644	12836
530.415	12169
531.186	11513
531.957	10925
532.728	10303
533.498	9815
534.269	9172
535.039	8656
535.81	8221
536.58	7798
537.351	7311
538.121	6940
538.891	6547
539.661	6204
540.431	5876
541.201	5572
541.971	5271
542.741	4976
543.51	4746
544.28	4509
545.05	4318
545.819	4074
546.588	3862
547.358	3653
548.127	3500
548.896	3327
549.665	3146
550.434	2983
551.203	2828
551.972	2655
552.741	2515
553.51	2382
554.278	2247
555.047	2138
555.815	1997
556.584	1872
557.352	1794
558.121	1678
558.889	1576
559.657	1482
560.425	1409
561.193	1332
561.961	1274
562.729	1190
563.496	1131
564.264	1063
565.032	1006
565.799	956
566.567	917
567.334	861
568.101	805
568.869	756
569.636	716
570.403	681
571.17	639
571.937	617
572.704	570
573.471	536
574.237	508
575.004	484
575.771	454
576.537	432
577.303	404
578.07	378
578.836	359
579.602	337
580.368	316
581.134	302
581.9	296
582.666	272
583.432	263
584.198	244
584.964	236
585.729	224
586.495	212
587.26	204
588.025	194
588.791	180
589.556	176
590.321	163
591.086	159
591.851	150
592.616	136
593.381	132
594.146	131
594.911	122
595.675	115
596.44	109
597.204	104
597.969	105
598.733	97
599.497	92
600.261	91
601.025	87
601.79	82
602.553	80
603.317	74
604.081	71
604.845	70
605.609	65
606.372	63
607.136	63
607.899	58
608.662	55
609.426	56
610.189	52
610.952	49
611.715	47
612.478	50
613.241	49
614.004	46
614.767	42
615.529	43
616.292	42
617.055	40
617.817	38
618.579	36
619.342	37
620.104	34
620.866	34
621.628	33
622.39	34
623.152	28
623.914	32
624.676	28
625.438	25
626.199	28
626.961	26
627.722	22
628.484	23
629.245	24
630.006	23
630.768	23
631.529	23
632.29	17
633.051	23
633.812	22
634.573	21
635.333	21
636.094	19
636.855	18
637.615	20
638.376	18
639.136	17
639.896	19
640.657	16
641.417	17
642.177	18
642.937	13
643.697	14
644.457	15
645.216	13
645.976	14
646.736	9
647.495	12
648.255	13
649.014	11
649.774	12
650.533	13
651.292	12
652.051	13
652.81	12
653.569	12
654.328	9
655.087	9
655.846	12
656.604	11
657.363	9
658.121	9
658.88	10
659.638	9
660.397	14
661.155	9
661.913	10
662.671	8
663.429	6
664.187	10
664.945	6
665.703	9
666.46	9
667.218	8
667.976	9
668.733	9
669.49	9
670.248	8
671.005	8
671.762	8
672.519	7
673.276	7
674.033	7
674.79	6
675.547	4
676.304	9
677.06	7
677.817	7
678.574	7
679.33	7
680.086	9
680.843	7
681.599	8
682.355	8
683.111	7
683.867	7
684.623	5
685.379	8
686.135	5
686.89	6
687.646	4
688.402	8
689.157	7
689.912	8
690.668	6
691.423	5
692.178	7
692.933	6
693.688	5
694.443	8
695.198	4
695.953	6
696.708	7
697.462	5
698.217	5
698.972	4
699.726	8
700.48	5
701.235	5
701.989	4
702.743	5
703.497	6
704.251	9
705.005	6
705.759	5
706.513	4
707.266	5
708.02	8
708.774	6
709.527	5
710.28	4
711.034	6
711.787	5
712.54	6
713.293	6
714.046	8
714.799	6
715.552	9
716.305	8
717.058	9
717.81	7
718.563	9
719.315	6
720.068	8
720.82	6
721.573	7
722.325	6
723.077	6
723.829	8
724.581	7
725.333	6
726.085	7
726.836	7
727.588	8
728.34	4
729.091	6
729.843	7
730.594	8
731.346	8
732.097	8
732.848	8
733.599	5
734.35	8
735.101	8
735.852	8
736.603	7
737.354	9
738.104	7
738.855	8
739.605	8
740.356	9
741.106	9
741.856	8
742.607	6
743.357	9
744.107	8
744.857	8
745.607	10
746.357	11
747.106	9
747.856	8
748.606	8
749.355	9
750.105	10
750.854	13
751.603	10
752.353	9
753.102	11
753.851	11
754.6	11
755.349	11
756.098	11
756.847	12
757.595	12
758.344	10
759.093	11
759.841	10
760.589	12
761.338	12
762.086	12
762.834	12
763.582	10
764.331	14
765.079	11
765.826	12
766.574	14
767.322	11
768.07	11
768.817	11
769.565	15
770.312	10
771.06	13
771.807	15
772.554	12
773.302	13
774.049	16
774.796	13
775.543	15
776.29	15
777.036	14
777.783	14
778.53	16
779.276	17
780.023	17
780.769	14
781.516	12
782.262	16
783.008	12
783.754	17
784.5	14
785.246	16
785.992	15
786.738	17
787.484	13
788.23	15
788.975	12
789.721	12
790.466	16
791.212	15
791.957	15
792.702	12
793.447	13
794.193	12
794.938	10
795.683	16
796.427	13
797.172	10
797.917	12
798.662	13
799.406	11
800.151	12
800.895	11
801.64	11
802.384	12
803.128	11
803.872	13
804.616	9
805.36	9
806.104	11
806.848	8
807.592	12
808.336	8
809.079	11
809.823	8
810.566	9
811.31	7
812.053	7
812.796	9
813.539	8
814.283	7
815.026	6
815.769	8
816.511	8
817.254	8
817.997	6
818.74	7
819.482	10
820.225	5
820.967	7
821.71	6
822.452	3
823.194	7
823.936	7
824.678	4
825.42	8
826.162	6
826.904	6
827.646	4
828.388	5
829.129	5
829.871	6
830.612	2
831.354	5
832.095	7
832.836	5
833.577	7
834.319	3
835.06	5
835.801	3
836.542	7
837.282	4
838.023	8
838.764	5
839.504	5
840.245	5
840.985	4
841.726	5
842.466	7
843.206	4
843.946	5
844.687	2
845.427	3
846.166	1
846.906	5
847.646	5
848.386	5
849.125	5
849.865	3
850.605	6
851.344	2
852.083	5
852.823	6
853.562	5
854.301	5
855.04	4
855.779	6
856.518	2
857.257	3
857.995	2
858.734	5
859.473	4
860.211	4
860.95	4
861.688	1
862.426	5
863.165	1
863.903	4
864.641	3
865.379	2
866.117	1
866.855	1
867.593	3
868.33	0
869.068	1
869.806	2
870.543	1
871.28	2
872.018	1
872.755	2
873.492	1
874.229	1
874.967	3
875.703	0
876.44	3
877.177	1
877.914	0
878.651	2
879.387	1
880.124	0
880.86	-2
881.597	3
882.333	0
883.069	1
883.806	0
884.542	1
885.278	3
886.014	1
886.749	-1
887.485	1
888.221	2
888.957	3
889.692	3
890.428	-1
891.163	-1
891.899	0
892.634	2
893.369	2
894.104	0
894.839	0
895.574	0
896.309	1
897.044	0
897.779	-1
898.514	1
899.248	0
899.983	1
900.717	1
901.452	2
902.186	1
902.92	-1
903.654	-1
904.389	-1
905.123	-1
905.857	2
906.59	2
907.324	0
908.058	1
908.792	0
909.525	2
910.259	0
910.992	1
911.726	1
912.459	2
913.192	0
913.925	0
914.658	0
915.391	0
916.124	3
916.857	1
917.59	0
918.323	-1
919.055	1
919.788	0
920.521	1
921.253	2
921.985	-2
922.718	3
923.45	-1
924.182	1
924.914	1
925.646	1
926.378	2
927.11	-1
927.841	-2
928.573	-2
929.305	-1
930.036	1
930.768	2
931.499	2
932.23	0
932.962	0
933.693	-1
934.424	3
935.155	-1
935.886	1
936.617	-3
937.348	-1
938.078	1
938.809	-2
939.54	0
940.27	2
941.001	-1
941.731	-1
942.461	0
943.191	0
943.922	0
944.652	0
945.382	-1
946.112	0
946.841	-1
947.571	2
948.301	1
949.031	0
949.76	0
950.49	-1
951.219	0
951.948	0
952.678	0
953.407	0
954.136	2
954.865	1
955.594	0
956.323	2
957.052	-1
957.78	-1
958.509	2
959.238	0
959.966	0
960.695	2
961.423	0
962.151	-1
962.88	0
963.608	0
964.336	-1
965.064	0
965.792	-1
966.52	0
967.247	0
967.975	0
968.703	0
969.43	0
970.158	2
970.885	0
971.613	-2
972.34	-1
973.067	0
973.794	1
974.521	-2
975.248	0
975.975	1
976.702	1
977.429	-1
978.156	0
978.882	1
979.609	0
980.335	1
981.062	0
981.788	2
982.514	1
983.24	1
983.967	1
984.693	0
985.419	2
986.144	0
986.87	0
987.596	0
988.322	2
989.047	0
989.773	-1
990.498	0
991.224	0
991.949	1
992.674	0
993.399	-1
994.124	1
994.849	-2
995.574	0
996.299	0
997.024	2
997.749	0
998.473	0
999.198	-1
999.922	-2
1000.647	-2
1001.371	5
1002.095	-2
1002.82	-2
1003.544	-1
1004.268	3
1004.992	1
1005.716	3
1006.439	2
1007.163	3
1007.887	4
1008.611	-3
1009.334	-2
1010.058	1
1010.781	-1
1011.504	0
1012.228	-1
1012.951	-1
1013.674	-1
1014.397	2
1015.12	0
