节点500_565_QEPB04081__426__09-57-30-287.txt的数据

Date: Thu Nov 13 09:57:30 CST 2025
User: PC
Spectrometer: QEPB0408
触发模式: 0
积分时间 (秒): 1.000000E-2
Scans to average: 1
启用暗噪声校正: true
启用非线性校正: false
滑动平均宽度: 0
X轴模式: Wavelengths
Number of Pixels in Spectrum: 1044
>>>>>Begin Spectral Data<<<<<
220.843	2.75
221.644	4.75
222.444	4.75
223.244	5.75
224.045	4.75
224.845	5.75
225.645	2.75
226.445	3.75
227.245	5.75
228.045	5.75
228.845	6.75
229.645	3.75
230.444	6.75
231.244	5.75
232.043	8.75
232.843	5.75
233.642	6.75
234.442	6.75
235.241	5.75
236.04	9.75
236.839	6.75
237.638	7.75
238.437	6.75
239.236	6.75
240.035	7.75
240.833	8.75
241.632	10.75
242.43	11.75
243.229	8.75
244.027	8.75
244.826	8.75
245.624	10.75
246.422	11.75
247.22	9.75
248.018	11.75
248.816	14.75
249.614	12.75
250.412	10.75
251.21	15.75
252.007	11.75
252.805	10.75
253.602	11.75
254.4	14.75
255.197	14.75
255.994	14.75
256.791	17.75
257.589	13.75
258.386	15.75
259.183	16.75
259.979	18.75
260.776	14.75
261.573	18.75
262.37	16.75
263.166	19.75
263.963	18.75
264.759	18.75
265.556	21.75
266.352	17.75
267.148	20.75
267.944	19.75
268.74	19.75
269.536	20.75
270.332	23.75
271.128	25.75
271.924	24.75
272.719	25.75
273.515	24.75
274.311	25.75
275.106	26.75
275.901	27.75
276.697	26.75
277.492	25.75
278.287	25.75
279.082	28.75
279.877	27.75
280.672	28.75
281.467	27.75
282.262	26.75
283.056	30.75
283.851	28.75
284.646	23.75
285.44	27.75
286.234	29.75
287.029	26.75
287.823	26.75
288.617	27.75
289.411	27.75
290.205	28.75
290.999	26.75
291.793	26.75
292.587	23.75
293.381	24.75
294.174	23.75
294.968	26.75
295.761	23.75
296.555	21.75
297.348	22.75
298.141	21.75
298.935	27.75
299.728	20.75
300.521	20.75
301.314	17.75
302.107	18.75
302.899	16.75
303.692	17.75
304.485	20.75
305.277	16.75
306.07	18.75
306.862	18.75
307.655	18.75
308.447	14.75
309.239	16.75
310.031	16.75
310.823	16.75
311.615	14.75
312.407	15.75
313.199	14.75
313.991	14.75
314.783	11.75
315.574	12.75
316.366	9.75
317.157	12.75
317.949	12.75
318.74	11.75
319.531	12.75
320.322	14.75
321.113	9.75
321.904	12.75
322.695	10.75
323.486	10.75
324.277	9.75
325.068	10.75
325.858	10.75
326.649	9.75
327.439	9.75
328.23	8.75
329.02	10.75
329.81	12.75
330.6	8.75
331.391	8.75
332.181	9.75
332.971	9.75
333.76	11.75
334.55	10.75
335.34	12.75
336.13	8.75
336.919	9.75
337.709	11.75
338.498	9.75
339.287	10.75
340.077	7.75
340.866	9.75
341.655	10.75
342.444	10.75
343.233	8.75
344.022	9.75
344.811	10.75
345.6	8.75
346.388	10.75
347.177	8.75
347.965	7.75
348.754	11.75
349.542	9.75
350.33	9.75
351.119	6.75
351.907	7.75
352.695	6.75
353.483	9.75
354.271	9.75
355.059	9.75
355.846	9.75
356.634	6.75
357.422	8.75
358.209	8.75
358.997	8.75
359.784	8.75
360.571	5.75
361.359	8.75
362.146	8.75
362.933	7.75
363.72	9.75
364.507	6.75
365.294	5.75
366.081	9.75
366.867	8.75
367.654	5.75
368.44	11.75
369.227	4.75
370.013	9.75
370.8	8.75
371.586	5.75
372.372	6.75
373.158	8.75
373.944	9.75
374.73	7.75
375.516	9.75
376.302	8.75
377.088	7.75
377.873	8.75
378.659	6.75
379.445	8.75
380.23	9.75
381.015	8.75
381.801	5.75
382.586	8.75
383.371	8.75
384.156	8.75
384.941	9.75
385.726	8.75
386.511	9.75
387.296	9.75
388.08	9.75
388.865	11.75
389.649	10.75
390.434	9.75
391.218	7.75
392.003	9.75
392.787	6.75
393.571	9.75
394.355	10.75
395.139	8.75
395.923	7.75
396.707	9.75
397.491	10.75
398.274	10.75
399.058	9.75
399.842	10.75
400.625	9.75
401.408	11.75
402.192	9.75
402.975	9.75
403.758	10.75
404.541	13.75
405.324	12.75
406.107	10.75
406.89	13.75
407.673	10.75
408.456	12.75
409.238	11.75
410.021	14.75
410.803	11.75
411.586	13.75
412.368	14.75
413.151	14.75
413.933	12.75
414.715	12.75
415.497	13.75
416.279	15.75
417.061	13.75
417.843	14.75
418.624	16.75
419.406	15.75
420.188	16.75
420.969	16.75
421.751	16.75
422.532	16.75
423.313	18.75
424.095	18.75
424.876	21.75
425.657	19.75
426.438	19.75
427.219	20.75
428	21.75
428.78	20.75
429.561	23.75
430.342	22.75
431.122	24.75
431.903	23.75
432.683	27.75
433.464	28.75
434.244	27.75
435.024	30.75
435.804	31.75
436.584	35.75
437.364	34.75
438.144	39.75
438.924	43.75
439.704	39.75
440.483	44.75
441.263	46.75
442.042	49.75
442.822	55.75
443.601	57.75
444.38	61.75
445.16	65.75
445.939	68.75
446.718	78.75
447.497	84.75
448.276	91.75
449.054	106.75
449.833	109.75
450.612	127.75
451.391	139.75
452.169	151.75
452.948	157.75
453.726	186.75
454.504	201.75
455.282	225.75
456.061	261.75
456.839	277.75
457.617	315.75
458.395	352.75
459.172	386.75
459.95	440.75
460.728	477.75
461.506	544.75
462.283	597.75
463.061	664.75
463.838	733.75
464.615	833.75
465.393	926.75
466.17	1013.75
466.947	1133.75
467.724	1264.75
468.501	1383.75
469.278	1529.75
470.055	1693.75
470.831	1882.75
471.608	2074.75
472.385	2289.75
473.161	2521.75
473.938	2784.75
474.714	3037.75
475.49	3326.75
476.266	3640.75
477.043	3992.75
477.819	4431.75
478.595	4818.75
479.371	5256.75
480.146	5737.75
480.922	6238.75
481.698	6753.75
482.473	7381.75
483.249	8008.75
484.024	8666.75
484.8	9435.75
485.575	10246.75
486.35	11107.75
487.126	12004.75
487.901	13026.75
488.676	14077.75
489.451	15200.75
490.225	16399.75
491	17603.75
491.775	18879.75
492.55	20237.75
493.324	21652.75
494.099	23066.75
494.873	24530.75
495.647	26123.75
496.422	27743.75
497.196	29204.75
497.97	30642.75
498.744	32072.75
499.518	33350.75
500.292	34620.75
501.066	35887.75
501.839	36886.75
502.613	37819.75
503.387	38477.75
504.16	39233.75
504.934	39574.75
505.707	39825.75
506.48	39824.75
507.253	39723.75
508.027	39110.75
508.8	38566.75
509.573	37880.75
510.346	37093.75
511.118	36105.75
511.891	35175.75
512.664	34089.75
513.437	32958.75
514.209	31700.75
514.982	30544.75
515.754	29475.75
516.526	28269.75
517.298	27102.75
518.071	25995.75
518.843	24946.75
519.615	23939.75
520.387	22993.75
521.159	22098.75
521.93	21244.75
522.702	20306.75
523.474	19528.75
524.245	18803.75
525.017	17996.75
525.788	17229.75
526.56	16403.75
527.331	15753.75
528.102	15097.75
528.873	14287.75
529.644	13611.75
530.415	12976.75
531.186	12322.75
531.957	11753.75
532.728	11165.75
533.498	10576.75
534.269	10003.75
535.039	9431.75
535.81	8958.75
536.58	8494.75
537.351	8024.75
538.121	7569.75
538.891	7222.75
539.661	6803.75
540.431	6478.75
541.201	6121.75
541.971	5802.75
542.741	5511.75
543.51	5213.75
544.28	4948.75
545.05	4699.75
545.819	4460.75
546.588	4262.75
547.358	4053.75
548.127	3867.75
548.896	3646.75
549.665	3459.75
550.434	3270.75
551.203	3137.75
551.972	2971.75
552.741	2814.75
553.51	2663.75
554.278	2519.75
555.047	2358.75
555.815	2240.75
556.584	2135.75
557.352	2011.75
558.121	1888.75
558.889	1781.75
559.657	1678.75
560.425	1595.75
561.193	1517.75
561.961	1440.75
562.729	1335.75
563.496	1290.75
564.264	1207.75
565.032	1155.75
565.799	1086.75
566.567	1022.75
567.334	963.75
568.101	912.75
568.869	862.75
569.636	823.75
570.403	775.75
571.17	737.75
571.937	688.75
572.704	646.75
573.471	600.75
574.237	579.75
575.004	544.75
575.771	518.75
576.537	493.75
577.303	460.75
578.07	426.75
578.836	405.75
579.602	386.75
580.368	364.75
581.134	348.75
581.9	326.75
582.666	308.75
583.432	296.75
584.198	282.75
584.964	260.75
585.729	249.75
586.495	238.75
587.26	225.75
588.025	212.75
588.791	202.75
589.556	196.75
590.321	181.75
591.086	167.75
591.851	163.75
592.616	156.75
593.381	143.75
594.146	143.75
594.911	132.75
595.675	130.75
596.44	122.75
597.204	117.75
597.969	113.75
598.733	105.75
599.497	106.75
600.261	99.75
601.025	93.75
601.79	90.75
602.553	88.75
603.317	83.75
604.081	83.75
604.845	77.75
605.609	72.75
606.372	70.75
607.136	65.75
607.899	67.75
608.662	61.75
609.426	61.75
610.189	55.75
610.952	54.75
611.715	51.75
612.478	53.75
613.241	51.75
614.004	46.75
614.767	47.75
615.529	43.75
616.292	40.75
617.055	39.75
617.817	36.75
618.579	39.75
619.342	36.75
620.104	35.75
620.866	34.75
621.628	35.75
622.39	30.75
623.152	31.75
623.914	32.75
624.676	30.75
625.438	26.75
626.199	28.75
626.961	29.75
627.722	27.75
628.484	23.75
629.245	26.75
630.006	23.75
630.768	23.75
631.529	21.75
632.29	22.75
633.051	20.75
633.812	19.75
634.573	19.75
635.333	20.75
636.094	19.75
636.855	18.75
637.615	14.75
638.376	17.75
639.136	17.75
639.896	17.75
640.657	17.75
641.417	16.75
642.177	17.75
642.937	14.75
643.697	14.75
644.457	13.75
645.216	15.75
645.976	15.75
646.736	10.75
647.495	13.75
648.255	12.75
649.014	12.75
649.774	11.75
650.533	10.75
651.292	12.75
652.051	10.75
652.81	12.75
653.569	11.75
654.328	9.75
655.087	12.75
655.846	11.75
656.604	13.75
657.363	11.75
658.121	8.75
658.88	10.75
659.638	8.75
660.397	6.75
661.155	8.75
661.913	6.75
662.671	8.75
663.429	10.75
664.187	9.75
664.945	6.75
665.703	7.75
666.46	9.75
667.218	8.75
667.976	7.75
668.733	10.75
669.49	7.75
670.248	9.75
671.005	6.75
671.762	7.75
672.519	7.75
673.276	6.75
674.033	5.75
674.79	9.75
675.547	7.75
676.304	6.75
677.06	5.75
677.817	5.75
678.574	5.75
679.33	7.75
680.086	7.75
680.843	7.75
681.599	4.75
682.355	6.75
683.111	6.75
683.867	6.75
684.623	4.75
685.379	6.75
686.135	5.75
686.89	7.75
687.646	7.75
688.402	6.75
689.157	6.75
689.912	6.75
690.668	7.75
691.423	4.75
692.178	5.75
692.933	5.75
693.688	5.75
694.443	4.75
695.198	3.75
695.953	5.75
696.708	6.75
697.462	5.75
698.217	6.75
698.972	8.75
699.726	6.75
700.48	7.75
701.235	4.75
701.989	6.75
702.743	3.75
703.497	8.75
704.251	4.75
705.005	4.75
705.759	6.75
706.513	4.75
707.266	4.75
708.02	4.75
708.774	5.75
709.527	2.75
710.28	5.75
711.034	4.75
711.787	6.75
712.54	4.75
713.293	6.75
714.046	6.75
714.799	6.75
715.552	5.75
716.305	6.75
717.058	5.75
717.81	6.75
718.563	5.75
719.315	6.75
720.068	5.75
720.82	7.75
721.573	5.75
722.325	4.75
723.077	7.75
723.829	6.75
724.581	6.75
725.333	6.75
726.085	7.75
726.836	6.75
727.588	6.75
728.34	4.75
729.091	8.75
729.843	4.75
730.594	6.75
731.346	7.75
732.097	4.75
732.848	5.75
733.599	6.75
734.35	6.75
735.101	7.75
735.852	8.75
736.603	6.75
737.354	6.75
738.104	6.75
738.855	6.75
739.605	8.75
740.356	8.75
741.106	6.75
741.856	4.75
742.607	7.75
743.357	8.75
744.107	5.75
744.857	6.75
745.607	7.75
746.357	8.75
747.106	10.75
747.856	7.75
748.606	8.75
749.355	6.75
750.105	7.75
750.854	7.75
751.603	4.75
752.353	10.75
753.102	8.75
753.851	9.75
754.6	10.75
755.349	8.75
756.098	7.75
756.847	5.75
757.595	10.75
758.344	8.75
759.093	13.75
759.841	10.75
760.589	10.75
761.338	11.75
762.086	7.75
762.834	11.75
763.582	8.75
764.331	9.75
765.079	12.75
765.826	10.75
766.574	10.75
767.322	7.75
768.07	13.75
768.817	8.75
769.565	12.75
770.312	9.75
771.06	12.75
771.807	9.75
772.554	13.75
773.302	13.75
774.049	9.75
774.796	12.75
775.543	11.75
776.29	12.75
777.036	13.75
777.783	12.75
778.53	14.75
779.276	10.75
780.023	15.75
780.769	13.75
781.516	13.75
782.262	12.75
783.008	11.75
783.754	13.75
784.5	11.75
785.246	15.75
785.992	11.75
786.738	14.75
787.484	13.75
788.23	12.75
788.975	12.75
789.721	12.75
790.466	13.75
791.212	11.75
791.957	13.75
792.702	12.75
793.447	13.75
794.193	10.75
794.938	10.75
795.683	10.75
796.427	11.75
797.172	10.75
797.917	10.75
798.662	10.75
799.406	11.75
800.151	8.75
800.895	10.75
801.64	10.75
802.384	10.75
803.128	8.75
803.872	7.75
804.616	8.75
805.36	8.75
806.104	10.75
806.848	7.75
807.592	8.75
808.336	8.75
809.079	10.75
809.823	6.75
810.566	7.75
811.31	8.75
812.053	8.75
812.796	5.75
813.539	6.75
814.283	4.75
815.026	5.75
815.769	6.75
816.511	5.75
817.254	6.75
817.997	9.75
818.74	6.75
819.482	6.75
820.225	7.75
820.967	7.75
821.71	7.75
822.452	4.75
823.194	6.75
823.936	5.75
824.678	5.75
825.42	3.75
826.162	4.75
826.904	5.75
827.646	8.75
828.388	6.75
829.129	5.75
829.871	6.75
830.612	5.75
831.354	5.75
832.095	4.75
832.836	5.75
833.577	4.75
834.319	5.75
835.06	4.75
835.801	6.75
836.542	4.75
837.282	6.75
838.023	2.75
838.764	4.75
839.504	4.75
840.245	6.75
840.985	4.75
841.726	6.75
842.466	2.75
843.206	5.75
843.946	2.75
844.687	3.75
845.427	5.75
846.166	1.75
846.906	3.75
847.646	4.75
848.386	4.75
849.125	3.75
849.865	4.75
850.605	3.75
851.344	2.75
852.083	4.75
852.823	3.75
853.562	5.75
854.301	3.75
855.04	1.75
855.779	5.75
856.518	4.75
857.257	4.75
857.995	4.75
858.734	3.75
859.473	3.75
860.211	4.75
860.95	2.75
861.688	2.75
862.426	4.75
863.165	0.75
863.903	2.75
864.641	1.75
865.379	2.75
866.117	3.75
866.855	2.75
867.593	1.75
868.33	0.75
869.068	2.75
869.806	1.75
870.543	1.75
871.28	0.75
872.018	4.75
872.755	2.75
873.492	-0.25
874.229	1.75
874.967	0.75
875.703	1.75
876.44	2.75
877.177	-1.25
877.914	1.75
878.651	1.75
879.387	0.75
880.124	-0.25
880.86	1.75
881.597	0.75
882.333	0.75
883.069	0.75
883.806	0.75
884.542	0.75
885.278	0.75
886.014	0.75
886.749	-0.25
887.485	-0.25
888.221	1.75
888.957	0.75
889.692	0.75
890.428	-0.25
891.163	-0.25
891.899	-0.25
892.634	1.75
893.369	-0.25
894.104	0.75
894.839	2.75
895.574	0.75
896.309	1.75
897.044	-0.25
897.779	-0.25
898.514	0.75
899.248	-0.25
899.983	0.75
900.717	-1.25
901.452	1.75
902.186	-1.25
902.92	2.75
903.654	0.75
904.389	0.75
905.123	-0.25
905.857	-1.25
906.59	0.75
907.324	0.75
908.058	0.75
908.792	2.75
909.525	-1.25
910.259	-0.25
910.992	1.75
911.726	2.75
912.459	-1.25
913.192	0.75
913.925	0.75
914.658	0.75
915.391	1.75
916.124	1.75
916.857	0.75
917.59	-0.25
918.323	-1.25
919.055	-0.25
919.788	0.75
920.521	2.75
921.253	-1.25
921.985	2.75
922.718	1.75
923.45	-0.25
924.182	-0.25
924.914	-2.25
925.646	0.75
926.378	0.75
927.11	1.75
927.841	-2.25
928.573	0.75
929.305	0.75
930.036	-2.25
930.768	0.75
931.499	0.75
932.23	-0.25
932.962	-1.25
933.693	0.75
934.424	-1.25
935.155	-1.25
935.886	-2.25
936.617	-2.25
937.348	0.75
938.078	0.75
938.809	-0.25
939.54	1.75
940.27	-1.25
941.001	1.75
941.731	-2.25
942.461	0.75
943.191	-1.25
943.922	0.75
944.652	-0.25
945.382	0.75
946.112	-0.25
946.841	0.75
947.571	2.75
948.301	-1.25
949.031	-0.25
949.76	-0.25
950.49	1.75
951.219	0.75
951.948	-0.25
952.678	0.75
953.407	0.75
954.136	1.75
954.865	0.75
955.594	1.75
956.323	-2.25
957.052	-2.25
957.78	0.75
958.509	0.75
959.238	2.75
959.966	0.75
960.695	1.75
961.423	-0.25
962.151	-1.25
962.88	-0.25
963.608	-2.25
964.336	0.75
965.064	-1.25
965.792	0.75
966.52	-0.25
967.247	0.75
967.975	-0.25
968.703	-0.25
969.43	-0.25
970.158	-1.25
970.885	-1.25
971.613	0.75
972.34	-0.25
973.067	0.75
973.794	-1.25
974.521	2.75
975.248	1.75
975.975	-0.25
976.702	0.75
977.429	0.75
978.156	-0.25
978.882	-0.25
979.609	0.75
980.335	-0.25
981.062	2.75
981.788	-0.25
982.514	-0.25
983.24	0.75
983.967	-1.25
984.693	-0.25
985.419	-0.25
986.144	-2.25
986.87	0.75
987.596	0.75
988.322	-0.25
989.047	-2.25
989.773	0.75
990.498	0.75
991.224	0.75
991.949	2.75
992.674	-0.25
993.399	-0.25
994.124	-0.25
994.849	-0.25
995.574	-1.25
996.299	1.75
997.024	-0.25
997.749	-0.25
998.473	2.75
999.198	0.75
999.922	0.75
1000.647	0.75
1001.371	3.75
1002.095	-1.25
1002.82	-0.25
1003.544	-2.25
1004.268	2.75
1004.992	1.75
1005.716	1.75
1006.439	3.75
1007.163	3.75
1007.887	3.75
1008.611	0.75
1009.334	-1.25
1010.058	-1.25
1010.781	0.75
1011.504	-0.25
1012.228	-0.25
1012.951	-0.25
1013.674	1.75
1014.397	-1.25
1015.12	-0.25
