节点500_565_QEPB04081__209__09-53-53-837.txt的数据

Date: Thu Nov 13 09:53:53 CST 2025
User: PC
Spectrometer: QEPB0408
触发模式: 0
积分时间 (秒): 1.000000E-2
Scans to average: 1
启用暗噪声校正: true
启用非线性校正: false
滑动平均宽度: 0
X轴模式: Wavelengths
Number of Pixels in Spectrum: 1044
>>>>>Begin Spectral Data<<<<<
220.843	4.88
221.644	4.88
222.444	4.88
223.244	2.88
224.045	4.88
224.845	6.88
225.645	5.88
226.445	6.88
227.245	3.88
228.045	4.88
228.845	5.88
229.645	4.88
230.444	5.88
231.244	6.88
232.043	9.88
232.843	7.88
233.642	5.88
234.442	8.88
235.241	7.88
236.04	8.88
236.839	6.88
237.638	7.88
238.437	9.88
239.236	9.88
240.035	9.88
240.833	7.88
241.632	11.88
242.43	8.88
243.229	8.88
244.027	11.88
244.826	11.88
245.624	11.88
246.422	10.88
247.22	12.88
248.018	12.88
248.816	12.88
249.614	14.88
250.412	10.88
251.21	15.88
252.007	14.88
252.805	15.88
253.602	13.88
254.4	16.88
255.197	13.88
255.994	14.88
256.791	15.88
257.589	15.88
258.386	16.88
259.183	19.88
259.979	15.88
260.776	21.88
261.573	19.88
262.37	19.88
263.166	22.88
263.963	22.88
264.759	22.88
265.556	22.88
266.352	21.88
267.148	22.88
267.944	23.88
268.74	24.88
269.536	24.88
270.332	26.88
271.128	25.88
271.924	27.88
272.719	28.88
273.515	27.88
274.311	27.88
275.106	28.88
275.901	26.88
276.697	28.88
277.492	30.88
278.287	31.88
279.082	29.88
279.877	30.88
280.672	29.88
281.467	29.88
282.262	30.88
283.056	29.88
283.851	29.88
284.646	28.88
285.44	30.88
286.234	28.88
287.029	31.88
287.823	29.88
288.617	27.88
289.411	32.88
290.205	26.88
290.999	26.88
291.793	26.88
292.587	26.88
293.381	27.88
294.174	26.88
294.968	23.88
295.761	25.88
296.555	23.88
297.348	24.88
298.141	24.88
298.935	25.88
299.728	22.88
300.521	20.88
301.314	22.88
302.107	24.88
302.899	21.88
303.692	19.88
304.485	19.88
305.277	20.88
306.07	19.88
306.862	18.88
307.655	19.88
308.447	18.88
309.239	16.88
310.031	19.88
310.823	16.88
311.615	16.88
312.407	13.88
313.199	14.88
313.991	17.88
314.783	11.88
315.574	15.88
316.366	12.88
317.157	10.88
317.949	11.88
318.74	10.88
319.531	12.88
320.322	11.88
321.113	12.88
321.904	11.88
322.695	10.88
323.486	11.88
324.277	9.88
325.068	11.88
325.858	11.88
326.649	11.88
327.439	11.88
328.23	12.88
329.02	9.88
329.81	10.88
330.6	10.88
331.391	12.88
332.181	10.88
332.971	9.88
333.76	8.88
334.55	12.88
335.34	9.88
336.13	11.88
336.919	10.88
337.709	11.88
338.498	11.88
339.287	11.88
340.077	9.88
340.866	7.88
341.655	9.88
342.444	10.88
343.233	12.88
344.022	10.88
344.811	11.88
345.6	10.88
346.388	8.88
347.177	12.88
347.965	7.88
348.754	7.88
349.542	10.88
350.33	10.88
351.119	9.88
351.907	10.88
352.695	8.88
353.483	9.88
354.271	9.88
355.059	6.88
355.846	8.88
356.634	6.88
357.422	9.88
358.209	7.88
358.997	9.88
359.784	9.88
360.571	8.88
361.359	10.88
362.146	7.88
362.933	7.88
363.72	8.88
364.507	7.88
365.294	8.88
366.081	8.88
366.867	9.88
367.654	8.88
368.44	7.88
369.227	8.88
370.013	8.88
370.8	9.88
371.586	8.88
372.372	8.88
373.158	9.88
373.944	8.88
374.73	8.88
375.516	6.88
376.302	8.88
377.088	10.88
377.873	8.88
378.659	8.88
379.445	9.88
380.23	8.88
381.015	8.88
381.801	8.88
382.586	8.88
383.371	10.88
384.156	8.88
384.941	7.88
385.726	10.88
386.511	8.88
387.296	8.88
388.08	10.88
388.865	11.88
389.649	11.88
390.434	5.88
391.218	10.88
392.003	7.88
392.787	12.88
393.571	10.88
394.355	8.88
395.139	10.88
395.923	10.88
396.707	8.88
397.491	11.88
398.274	12.88
399.058	9.88
399.842	9.88
400.625	12.88
401.408	12.88
402.192	10.88
402.975	12.88
403.758	11.88
404.541	13.88
405.324	12.88
406.107	13.88
406.89	11.88
407.673	13.88
408.456	11.88
409.238	11.88
410.021	13.88
410.803	14.88
411.586	15.88
412.368	13.88
413.151	16.88
413.933	13.88
414.715	14.88
415.497	16.88
416.279	19.88
417.061	16.88
417.843	16.88
418.624	18.88
419.406	16.88
420.188	16.88
420.969	17.88
421.751	18.88
422.532	19.88
423.313	18.88
424.095	20.88
424.876	20.88
425.657	21.88
426.438	16.88
427.219	21.88
428	21.88
428.78	24.88
429.561	22.88
430.342	22.88
431.122	27.88
431.903	26.88
432.683	26.88
433.464	30.88
434.244	32.88
435.024	32.88
435.804	34.88
436.584	35.88
437.364	33.88
438.144	39.88
438.924	40.88
439.704	39.88
440.483	42.88
441.263	46.88
442.042	50.88
442.822	51.88
443.601	58.88
444.38	62.88
445.16	66.88
445.939	68.88
446.718	72.88
447.497	82.88
448.276	89.88
449.054	96.88
449.833	110.88
450.612	117.88
451.391	131.88
452.169	141.88
452.948	151.88
453.726	168.88
454.504	190.88
455.282	212.88
456.061	236.88
456.839	260.88
457.617	288.88
458.395	326.88
459.172	364.88
459.95	408.88
460.728	448.88
461.506	508.88
462.283	562.88
463.061	632.88
463.838	698.88
464.615	784.88
465.393	873.88
466.17	987.88
466.947	1084.88
467.724	1216.88
468.501	1356.88
469.278	1499.88
470.055	1656.88
470.831	1850.88
471.608	2058.88
472.385	2273.88
473.161	2523.88
473.938	2787.88
474.714	3056.88
475.49	3376.88
476.266	3708.88
477.043	4103.88
477.819	4491.88
478.595	4950.88
479.371	5401.88
480.146	5946.88
480.922	6553.88
481.698	7136.88
482.473	7762.88
483.249	8496.88
484.024	9304.88
484.8	10159.88
485.575	11125.88
486.35	12008.88
487.126	13142.88
487.901	14179.88
488.676	15464.88
489.451	16716.88
490.225	18132.88
491	19584.88
491.775	21045.88
492.55	22609.88
493.324	24212.88
494.099	25791.88
494.873	27476.88
495.647	29281.88
496.422	30963.88
497.196	32520.88
497.97	34262.88
498.744	35684.88
499.518	37058.88
500.292	38408.88
501.066	39600.88
501.839	40533.88
502.613	41231.88
503.387	42064.88
504.16	42352.88
504.934	42519.88
505.707	42534.88
506.48	42215.88
507.253	41763.88
508.027	41147.88
508.8	40166.88
509.573	39209.88
510.346	38047.88
511.118	36838.88
511.891	35722.88
512.664	34415.88
513.437	33116.88
514.209	31782.88
514.982	30555.88
515.754	29268.88
516.526	28000.88
517.298	26825.88
518.071	25658.88
518.843	24709.88
519.615	23652.88
520.387	22749.88
521.159	21812.88
521.93	20894.88
522.702	20063.88
523.474	19305.88
524.245	18496.88
525.017	17754.88
525.788	16961.88
526.56	16109.88
527.331	15365.88
528.102	14639.88
528.873	13946.88
529.644	13244.88
530.415	12560.88
531.186	11924.88
531.957	11321.88
532.728	10697.88
533.498	10163.88
534.269	9607.88
535.039	9064.88
535.81	8583.88
536.58	8160.88
537.351	7691.88
538.121	7251.88
538.891	6842.88
539.661	6471.88
540.431	6176.88
541.201	5810.88
541.971	5519.88
542.741	5236.88
543.51	4930.88
544.28	4720.88
545.05	4451.88
545.819	4251.88
546.588	4056.88
547.358	3835.88
548.127	3640.88
548.896	3473.88
549.665	3304.88
550.434	3130.88
551.203	2965.88
551.972	2822.88
552.741	2659.88
553.51	2503.88
554.278	2346.88
555.047	2217.88
555.815	2096.88
556.584	1994.88
557.352	1883.88
558.121	1787.88
558.889	1680.88
559.657	1573.88
560.425	1475.88
561.193	1415.88
561.961	1344.88
562.729	1281.88
563.496	1181.88
564.264	1131.88
565.032	1082.88
565.799	1010.88
566.567	962.88
567.334	909.88
568.101	858.88
568.869	806.88
569.636	766.88
570.403	724.88
571.17	676.88
571.937	650.88
572.704	611.88
573.471	577.88
574.237	536.88
575.004	513.88
575.771	487.88
576.537	450.88
577.303	432.88
578.07	404.88
578.836	382.88
579.602	358.88
580.368	339.88
581.134	316.88
581.9	306.88
582.666	290.88
583.432	275.88
584.198	258.88
584.964	249.88
585.729	235.88
586.495	224.88
587.26	212.88
588.025	202.88
588.791	189.88
589.556	185.88
590.321	169.88
591.086	163.88
591.851	152.88
592.616	146.88
593.381	141.88
594.146	133.88
594.911	127.88
595.675	121.88
596.44	118.88
597.204	114.88
597.969	103.88
598.733	103.88
599.497	104.88
600.261	93.88
601.025	90.88
601.79	81.88
602.553	82.88
603.317	78.88
604.081	79.88
604.845	74.88
605.609	70.88
606.372	65.88
607.136	63.88
607.899	62.88
608.662	60.88
609.426	55.88
610.189	54.88
610.952	55.88
611.715	52.88
612.478	45.88
613.241	42.88
614.004	42.88
614.767	43.88
615.529	41.88
616.292	41.88
617.055	42.88
617.817	39.88
618.579	39.88
619.342	36.88
620.104	34.88
620.866	34.88
621.628	34.88
622.39	32.88
623.152	30.88
623.914	30.88
624.676	28.88
625.438	26.88
626.199	24.88
626.961	26.88
627.722	28.88
628.484	24.88
629.245	25.88
630.006	24.88
630.768	21.88
631.529	19.88
632.29	19.88
633.051	21.88
633.812	21.88
634.573	21.88
635.333	17.88
636.094	18.88
636.855	20.88
637.615	16.88
638.376	19.88
639.136	18.88
639.896	16.88
640.657	15.88
641.417	16.88
642.177	14.88
642.937	15.88
643.697	15.88
644.457	12.88
645.216	14.88
645.976	12.88
646.736	12.88
647.495	15.88
648.255	12.88
649.014	13.88
649.774	10.88
650.533	13.88
651.292	12.88
652.051	14.88
652.81	11.88
653.569	10.88
654.328	10.88
655.087	10.88
655.846	11.88
656.604	9.88
657.363	11.88
658.121	9.88
658.88	12.88
659.638	9.88
660.397	7.88
661.155	9.88
661.913	9.88
662.671	11.88
663.429	7.88
664.187	7.88
664.945	8.88
665.703	8.88
666.46	10.88
667.218	8.88
667.976	9.88
668.733	9.88
669.49	5.88
670.248	10.88
671.005	6.88
671.762	5.88
672.519	7.88
673.276	8.88
674.033	5.88
674.79	7.88
675.547	8.88
676.304	7.88
677.06	8.88
677.817	5.88
678.574	7.88
679.33	6.88
680.086	8.88
680.843	8.88
681.599	6.88
682.355	10.88
683.111	5.88
683.867	6.88
684.623	8.88
685.379	6.88
686.135	7.88
686.89	6.88
687.646	8.88
688.402	6.88
689.157	5.88
689.912	7.88
690.668	5.88
691.423	6.88
692.178	7.88
692.933	6.88
693.688	5.88
694.443	9.88
695.198	4.88
695.953	7.88
696.708	7.88
697.462	8.88
698.217	8.88
698.972	8.88
699.726	7.88
700.48	5.88
701.235	5.88
701.989	6.88
702.743	5.88
703.497	6.88
704.251	5.88
705.005	8.88
705.759	2.88
706.513	7.88
707.266	5.88
708.02	6.88
708.774	8.88
709.527	6.88
710.28	4.88
711.034	6.88
711.787	6.88
712.54	3.88
713.293	4.88
714.046	5.88
714.799	4.88
715.552	8.88
716.305	7.88
717.058	6.88
717.81	6.88
718.563	6.88
719.315	8.88
720.068	7.88
720.82	5.88
721.573	8.88
722.325	5.88
723.077	8.88
723.829	8.88
724.581	5.88
725.333	8.88
726.085	5.88
726.836	7.88
727.588	8.88
728.34	6.88
729.091	7.88
729.843	7.88
730.594	7.88
731.346	11.88
732.097	6.88
732.848	8.88
733.599	5.88
734.35	5.88
735.101	10.88
735.852	8.88
736.603	6.88
737.354	4.88
738.104	8.88
738.855	8.88
739.605	9.88
740.356	10.88
741.106	6.88
741.856	8.88
742.607	6.88
743.357	9.88
744.107	9.88
744.857	8.88
745.607	9.88
746.357	8.88
747.106	9.88
747.856	7.88
748.606	9.88
749.355	9.88
750.105	9.88
750.854	8.88
751.603	10.88
752.353	10.88
753.102	7.88
753.851	9.88
754.6	10.88
755.349	11.88
756.098	9.88
756.847	10.88
757.595	10.88
758.344	8.88
759.093	8.88
759.841	8.88
760.589	12.88
761.338	10.88
762.086	9.88
762.834	9.88
763.582	13.88
764.331	12.88
765.079	12.88
765.826	12.88
766.574	9.88
767.322	11.88
768.07	13.88
768.817	12.88
769.565	11.88
770.312	12.88
771.06	14.88
771.807	16.88
772.554	10.88
773.302	12.88
774.049	12.88
774.796	14.88
775.543	12.88
776.29	12.88
777.036	15.88
777.783	15.88
778.53	15.88
779.276	14.88
780.023	16.88
780.769	14.88
781.516	14.88
782.262	13.88
783.008	14.88
783.754	13.88
784.5	14.88
785.246	14.88
785.992	13.88
786.738	15.88
787.484	13.88
788.23	12.88
788.975	13.88
789.721	13.88
790.466	16.88
791.212	12.88
791.957	11.88
792.702	14.88
793.447	14.88
794.193	10.88
794.938	11.88
795.683	14.88
796.427	11.88
797.172	11.88
797.917	10.88
798.662	10.88
799.406	13.88
800.151	10.88
800.895	11.88
801.64	9.88
802.384	11.88
803.128	9.88
803.872	11.88
804.616	11.88
805.36	12.88
806.104	10.88
806.848	10.88
807.592	10.88
808.336	9.88
809.079	10.88
809.823	9.88
810.566	7.88
811.31	10.88
812.053	6.88
812.796	7.88
813.539	9.88
814.283	9.88
815.026	8.88
815.769	6.88
816.511	7.88
817.254	5.88
817.997	5.88
818.74	9.88
819.482	6.88
820.225	6.88
820.967	4.88
821.71	6.88
822.452	5.88
823.194	6.88
823.936	6.88
824.678	5.88
825.42	4.88
826.162	6.88
826.904	5.88
827.646	5.88
828.388	7.88
829.129	6.88
829.871	7.88
830.612	4.88
831.354	5.88
832.095	4.88
832.836	6.88
833.577	5.88
834.319	6.88
835.06	5.88
835.801	4.88
836.542	3.88
837.282	3.88
838.023	3.88
838.764	4.88
839.504	4.88
840.245	3.88
840.985	4.88
841.726	6.88
842.466	5.88
843.206	3.88
843.946	5.88
844.687	5.88
845.427	4.88
846.166	4.88
846.906	4.88
847.646	2.88
848.386	0.88
849.125	3.88
849.865	3.88
850.605	5.88
851.344	3.88
852.083	3.88
852.823	3.88
853.562	4.88
854.301	2.88
855.04	0.88
855.779	4.88
856.518	2.88
857.257	3.88
857.995	2.88
858.734	3.88
859.473	4.88
860.211	4.88
860.95	1.88
861.688	3.88
862.426	4.88
863.165	3.88
863.903	0.88
864.641	2.88
865.379	0.88
866.117	0.88
866.855	0.88
867.593	2.88
868.33	4.88
869.068	3.88
869.806	3.88
870.543	1.88
871.28	0.88
872.018	2.88
872.755	1.88
873.492	1.88
874.229	0.88
874.967	4.88
875.703	3.88
876.44	1.88
877.177	2.88
877.914	2.88
878.651	1.88
879.387	2.88
880.124	1.88
880.86	1.88
881.597	4.88
882.333	0.88
883.069	1.88
883.806	1.88
884.542	1.88
885.278	2.88
886.014	0.88
886.749	4.88
887.485	0.88
888.221	-0.12
888.957	-1.12
889.692	1.88
890.428	0.88
891.163	-2.12
891.899	2.88
892.634	2.88
893.369	4.88
894.104	0.88
894.839	3.88
895.574	1.88
896.309	0.88
897.044	3.88
897.779	1.88
898.514	2.88
899.248	-0.12
899.983	0.88
900.717	3.88
901.452	0.88
902.186	0.88
902.92	1.88
903.654	0.88
904.389	-2.12
905.123	-0.12
905.857	0.88
906.59	-0.12
907.324	1.88
908.058	-0.12
908.792	2.88
909.525	1.88
910.259	2.88
910.992	-0.12
911.726	1.88
912.459	1.88
913.192	0.88
913.925	2.88
914.658	0.88
915.391	1.88
916.124	1.88
916.857	-1.12
917.59	-0.12
918.323	0.88
919.055	2.88
919.788	0.88
920.521	-1.12
921.253	1.88
921.985	-0.12
922.718	0.88
923.45	0.88
924.182	1.88
924.914	0.88
925.646	0.88
926.378	2.88
927.11	0.88
927.841	0.88
928.573	-0.12
929.305	2.88
930.036	0.88
930.768	0.88
931.499	0.88
932.23	0.88
932.962	0.88
933.693	0.88
934.424	1.88
935.155	0.88
935.886	1.88
936.617	2.88
937.348	0.88
938.078	2.88
938.809	-2.12
939.54	1.88
940.27	0.88
941.001	1.88
941.731	0.88
942.461	0.88
943.191	1.88
943.922	0.88
944.652	-0.12
945.382	1.88
946.112	2.88
946.841	0.88
947.571	-0.12
948.301	0.88
949.031	-0.12
949.76	1.88
950.49	-2.12
951.219	0.88
951.948	0.88
952.678	-0.12
953.407	0.88
954.136	0.88
954.865	0.88
955.594	2.88
956.323	0.88
957.052	0.88
957.78	0.88
958.509	-0.12
959.238	0.88
959.966	0.88
960.695	0.88
961.423	1.88
962.151	-1.12
962.88	0.88
963.608	-0.12
964.336	1.88
965.064	0.88
965.792	0.88
966.52	0.88
967.247	2.88
967.975	0.88
968.703	2.88
969.43	0.88
970.158	1.88
970.885	-1.12
971.613	0.88
972.34	0.88
973.067	-0.12
973.794	0.88
974.521	-2.12
975.248	0.88
975.975	1.88
976.702	0.88
977.429	-0.12
978.156	0.88
978.882	0.88
979.609	-0.12
980.335	0.88
981.062	1.88
981.788	0.88
982.514	1.88
983.24	-2.12
983.967	0.88
984.693	-0.12
985.419	-1.12
986.144	-1.12
986.87	2.88
987.596	-0.12
988.322	1.88
989.047	1.88
989.773	-0.12
990.498	0.88
991.224	-0.12
991.949	0.88
992.674	0.88
993.399	0.88
994.124	-1.12
994.849	2.88
995.574	1.88
996.299	1.88
997.024	0.88
997.749	1.88
998.473	2.88
999.198	-2.12
999.922	0.88
1000.647	2.88
1001.371	2.88
1002.095	-1.12
1002.82	-1.12
1003.544	-2.12
1004.268	2.88
1004.992	2.88
1005.716	4.88
1006.439	4.88
1007.163	4.88
1007.887	5.88
1008.611	-2.12
1009.334	0.88
1010.058	-0.12
1010.781	-0.12
1011.504	-0.12
1012.228	0.88
1012.951	-0.12
1013.674	0.88
1014.397	1.88
1015.12	-1.12
