节点500_565_QEPB04081__454__09-57-58-220.txt的数据

Date: Thu Nov 13 09:57:58 CST 2025
User: PC
Spectrometer: QEPB0408
触发模式: 0
积分时间 (秒): 1.000000E-2
Scans to average: 1
启用暗噪声校正: true
启用非线性校正: false
滑动平均宽度: 0
X轴模式: Wavelengths
Number of Pixels in Spectrum: 1044
>>>>>Begin Spectral Data<<<<<
220.843	3.75
221.644	2.75
222.444	4.75
223.244	1.75
224.045	4.75
224.845	7.75
225.645	2.75
226.445	5.75
227.245	4.75
228.045	6.75
228.845	6.75
229.645	6.75
230.444	4.75
231.244	6.75
232.043	6.75
232.843	7.75
233.642	4.75
234.442	9.75
235.241	6.75
236.04	8.75
236.839	7.75
237.638	8.75
238.437	10.75
239.236	9.75
240.035	8.75
240.833	7.75
241.632	10.75
242.43	6.75
243.229	8.75
244.027	9.75
244.826	9.75
245.624	10.75
246.422	8.75
247.22	9.75
248.018	10.75
248.816	12.75
249.614	7.75
250.412	12.75
251.21	12.75
252.007	12.75
252.805	11.75
253.602	10.75
254.4	14.75
255.197	14.75
255.994	11.75
256.791	14.75
257.589	15.75
258.386	17.75
259.183	16.75
259.979	16.75
260.776	17.75
261.573	17.75
262.37	16.75
263.166	17.75
263.963	19.75
264.759	17.75
265.556	20.75
266.352	20.75
267.148	17.75
267.944	23.75
268.74	19.75
269.536	25.75
270.332	24.75
271.128	22.75
271.924	23.75
272.719	23.75
273.515	23.75
274.311	23.75
275.106	24.75
275.901	24.75
276.697	25.75
277.492	29.75
278.287	24.75
279.082	23.75
279.877	24.75
280.672	29.75
281.467	27.75
282.262	29.75
283.056	24.75
283.851	27.75
284.646	27.75
285.44	26.75
286.234	26.75
287.029	26.75
287.823	27.75
288.617	25.75
289.411	24.75
290.205	24.75
290.999	26.75
291.793	27.75
292.587	27.75
293.381	28.75
294.174	27.75
294.968	21.75
295.761	21.75
296.555	24.75
297.348	20.75
298.141	20.75
298.935	22.75
299.728	22.75
300.521	21.75
301.314	20.75
302.107	19.75
302.899	23.75
303.692	20.75
304.485	18.75
305.277	19.75
306.07	18.75
306.862	18.75
307.655	16.75
308.447	20.75
309.239	18.75
310.031	20.75
310.823	14.75
311.615	16.75
312.407	15.75
313.199	15.75
313.991	13.75
314.783	13.75
315.574	14.75
316.366	11.75
317.157	13.75
317.949	12.75
318.74	9.75
319.531	13.75
320.322	12.75
321.113	11.75
321.904	12.75
322.695	10.75
323.486	11.75
324.277	12.75
325.068	11.75
325.858	10.75
326.649	11.75
327.439	10.75
328.23	10.75
329.02	10.75
329.81	8.75
330.6	11.75
331.391	10.75
332.181	10.75
332.971	6.75
333.76	10.75
334.55	9.75
335.34	9.75
336.13	9.75
336.919	10.75
337.709	8.75
338.498	8.75
339.287	11.75
340.077	10.75
340.866	8.75
341.655	12.75
342.444	7.75
343.233	10.75
344.022	8.75
344.811	9.75
345.6	8.75
346.388	10.75
347.177	8.75
347.965	9.75
348.754	9.75
349.542	7.75
350.33	7.75
351.119	7.75
351.907	9.75
352.695	8.75
353.483	8.75
354.271	8.75
355.059	7.75
355.846	8.75
356.634	8.75
357.422	10.75
358.209	8.75
358.997	6.75
359.784	7.75
360.571	6.75
361.359	8.75
362.146	10.75
362.933	8.75
363.72	8.75
364.507	7.75
365.294	8.75
366.081	5.75
366.867	6.75
367.654	8.75
368.44	9.75
369.227	9.75
370.013	8.75
370.8	8.75
371.586	6.75
372.372	9.75
373.158	6.75
373.944	11.75
374.73	8.75
375.516	8.75
376.302	6.75
377.088	5.75
377.873	6.75
378.659	8.75
379.445	7.75
380.23	8.75
381.015	7.75
381.801	8.75
382.586	8.75
383.371	7.75
384.156	8.75
384.941	8.75
385.726	9.75
386.511	8.75
387.296	9.75
388.08	7.75
388.865	9.75
389.649	7.75
390.434	8.75
391.218	9.75
392.003	10.75
392.787	9.75
393.571	9.75
394.355	9.75
395.139	8.75
395.923	9.75
396.707	10.75
397.491	9.75
398.274	11.75
399.058	8.75
399.842	11.75
400.625	11.75
401.408	10.75
402.192	12.75
402.975	12.75
403.758	9.75
404.541	10.75
405.324	12.75
406.107	11.75
406.89	15.75
407.673	13.75
408.456	11.75
409.238	14.75
410.021	13.75
410.803	12.75
411.586	10.75
412.368	15.75
413.151	15.75
413.933	13.75
414.715	13.75
415.497	15.75
416.279	15.75
417.061	16.75
417.843	16.75
418.624	13.75
419.406	14.75
420.188	15.75
420.969	19.75
421.751	16.75
422.532	18.75
423.313	19.75
424.095	17.75
424.876	18.75
425.657	21.75
426.438	20.75
427.219	18.75
428	24.75
428.78	21.75
429.561	22.75
430.342	25.75
431.122	22.75
431.903	28.75
432.683	26.75
433.464	28.75
434.244	31.75
435.024	29.75
435.804	32.75
436.584	34.75
437.364	36.75
438.144	36.75
438.924	41.75
439.704	41.75
440.483	41.75
441.263	50.75
442.042	50.75
442.822	54.75
443.601	58.75
444.38	64.75
445.16	65.75
445.939	70.75
446.718	79.75
447.497	88.75
448.276	90.75
449.054	101.75
449.833	119.75
450.612	127.75
451.391	139.75
452.169	156.75
452.948	166.75
453.726	188.75
454.504	207.75
455.282	228.75
456.061	252.75
456.839	277.75
457.617	313.75
458.395	354.75
459.172	393.75
459.95	437.75
460.728	486.75
461.506	551.75
462.283	608.75
463.061	680.75
463.838	744.75
464.615	830.75
465.393	929.75
466.17	1018.75
466.947	1145.75
467.724	1258.75
468.501	1406.75
469.278	1542.75
470.055	1704.75
470.831	1887.75
471.608	2070.75
472.385	2300.75
473.161	2510.75
473.938	2755.75
474.714	3056.75
475.49	3339.75
476.266	3650.75
477.043	4016.75
477.819	4381.75
478.595	4774.75
479.371	5210.75
480.146	5686.75
480.922	6194.75
481.698	6737.75
482.473	7306.75
483.249	7922.75
484.024	8641.75
484.8	9375.75
485.575	10163.75
486.35	11010.75
487.126	11940.75
487.901	12834.75
488.676	13892.75
489.451	15086.75
490.225	16243.75
491	17433.75
491.775	18663.75
492.55	20089.75
493.324	21503.75
494.099	22901.75
494.873	24329.75
495.647	25853.75
496.422	27387.75
497.196	28839.75
497.97	30348.75
498.744	31821.75
499.518	33147.75
500.292	34378.75
501.066	35581.75
501.839	36630.75
502.613	37585.75
503.387	38320.75
504.16	38974.75
504.934	39332.75
505.707	39459.75
506.48	39548.75
507.253	39434.75
508.027	38960.75
508.8	38472.75
509.573	37772.75
510.346	36941.75
511.118	35975.75
511.891	35137.75
512.664	34078.75
513.437	32881.75
514.209	31777.75
514.982	30486.75
515.754	29388.75
516.526	28231.75
517.298	27077.75
518.071	26096.75
518.843	24916.75
519.615	23891.75
520.387	23036.75
521.159	22200.75
521.93	21203.75
522.702	20331.75
523.474	19504.75
524.245	18738.75
525.017	17999.75
525.788	17220.75
526.56	16545.75
527.331	15791.75
528.102	15090.75
528.873	14326.75
529.644	13611.75
530.415	12980.75
531.186	12359.75
531.957	11747.75
532.728	11186.75
533.498	10592.75
534.269	10034.75
535.039	9458.75
535.81	8976.75
536.58	8511.75
537.351	8084.75
538.121	7596.75
538.891	7242.75
539.661	6828.75
540.431	6480.75
541.201	6132.75
541.971	5832.75
542.741	5513.75
543.51	5203.75
544.28	4926.75
545.05	4720.75
545.819	4489.75
546.588	4293.75
547.358	4072.75
548.127	3868.75
548.896	3679.75
549.665	3488.75
550.434	3308.75
551.203	3130.75
551.972	2994.75
552.741	2814.75
553.51	2654.75
554.278	2513.75
555.047	2379.75
555.815	2255.75
556.584	2132.75
557.352	2022.75
558.121	1895.75
558.889	1800.75
559.657	1704.75
560.425	1604.75
561.193	1506.75
561.961	1439.75
562.729	1359.75
563.496	1297.75
564.264	1207.75
565.032	1160.75
565.799	1086.75
566.567	1034.75
567.334	982.75
568.101	918.75
568.869	864.75
569.636	827.75
570.403	776.75
571.17	729.75
571.937	691.75
572.704	642.75
573.471	612.75
574.237	584.75
575.004	541.75
575.771	517.75
576.537	494.75
577.303	470.75
578.07	440.75
578.836	408.75
579.602	382.75
580.368	367.75
581.134	353.75
581.9	325.75
582.666	314.75
583.432	300.75
584.198	280.75
584.964	273.75
585.729	254.75
586.495	240.75
587.26	226.75
588.025	213.75
588.791	210.75
589.556	194.75
590.321	185.75
591.086	173.75
591.851	165.75
592.616	160.75
593.381	151.75
594.146	141.75
594.911	136.75
595.675	127.75
596.44	126.75
597.204	116.75
597.969	113.75
598.733	111.75
599.497	105.75
600.261	98.75
601.025	95.75
601.79	93.75
602.553	87.75
603.317	82.75
604.081	78.75
604.845	74.75
605.609	72.75
606.372	68.75
607.136	68.75
607.899	65.75
608.662	64.75
609.426	55.75
610.189	58.75
610.952	58.75
611.715	52.75
612.478	58.75
613.241	50.75
614.004	47.75
614.767	45.75
615.529	43.75
616.292	44.75
617.055	44.75
617.817	38.75
618.579	36.75
619.342	36.75
620.104	36.75
620.866	35.75
621.628	30.75
622.39	33.75
623.152	30.75
623.914	30.75
624.676	30.75
625.438	27.75
626.199	26.75
626.961	25.75
627.722	27.75
628.484	26.75
629.245	24.75
630.006	23.75
630.768	21.75
631.529	24.75
632.29	20.75
633.051	21.75
633.812	19.75
634.573	18.75
635.333	19.75
636.094	17.75
636.855	19.75
637.615	16.75
638.376	16.75
639.136	15.75
639.896	16.75
640.657	15.75
641.417	14.75
642.177	14.75
642.937	14.75
643.697	14.75
644.457	16.75
645.216	13.75
645.976	12.75
646.736	12.75
647.495	14.75
648.255	10.75
649.014	12.75
649.774	12.75
650.533	10.75
651.292	12.75
652.051	10.75
652.81	11.75
653.569	12.75
654.328	10.75
655.087	10.75
655.846	9.75
656.604	10.75
657.363	6.75
658.121	8.75
658.88	8.75
659.638	7.75
660.397	7.75
661.155	12.75
661.913	9.75
662.671	7.75
663.429	8.75
664.187	9.75
664.945	9.75
665.703	8.75
666.46	8.75
667.218	8.75
667.976	8.75
668.733	9.75
669.49	7.75
670.248	6.75
671.005	6.75
671.762	7.75
672.519	8.75
673.276	8.75
674.033	6.75
674.79	4.75
675.547	5.75
676.304	5.75
677.06	7.75
677.817	7.75
678.574	5.75
679.33	6.75
680.086	7.75
680.843	8.75
681.599	5.75
682.355	6.75
683.111	8.75
683.867	6.75
684.623	9.75
685.379	7.75
686.135	3.75
686.89	5.75
687.646	4.75
688.402	7.75
689.157	5.75
689.912	4.75
690.668	4.75
691.423	9.75
692.178	5.75
692.933	7.75
693.688	6.75
694.443	6.75
695.198	7.75
695.953	6.75
696.708	3.75
697.462	8.75
698.217	9.75
698.972	7.75
699.726	6.75
700.48	7.75
701.235	6.75
701.989	4.75
702.743	5.75
703.497	4.75
704.251	6.75
705.005	6.75
705.759	6.75
706.513	5.75
707.266	7.75
708.02	6.75
708.774	6.75
709.527	5.75
710.28	5.75
711.034	6.75
711.787	6.75
712.54	4.75
713.293	4.75
714.046	5.75
714.799	1.75
715.552	6.75
716.305	4.75
717.058	4.75
717.81	7.75
718.563	4.75
719.315	7.75
720.068	6.75
720.82	4.75
721.573	5.75
722.325	6.75
723.077	5.75
723.829	4.75
724.581	9.75
725.333	7.75
726.085	6.75
726.836	6.75
727.588	5.75
728.34	6.75
729.091	6.75
729.843	8.75
730.594	6.75
731.346	6.75
732.097	6.75
732.848	5.75
733.599	9.75
734.35	7.75
735.101	6.75
735.852	6.75
736.603	8.75
737.354	7.75
738.104	6.75
738.855	6.75
739.605	7.75
740.356	8.75
741.106	7.75
741.856	4.75
742.607	6.75
743.357	7.75
744.107	6.75
744.857	4.75
745.607	8.75
746.357	8.75
747.106	9.75
747.856	5.75
748.606	8.75
749.355	8.75
750.105	8.75
750.854	8.75
751.603	8.75
752.353	9.75
753.102	6.75
753.851	8.75
754.6	9.75
755.349	8.75
756.098	9.75
756.847	8.75
757.595	8.75
758.344	8.75
759.093	12.75
759.841	8.75
760.589	9.75
761.338	9.75
762.086	11.75
762.834	10.75
763.582	9.75
764.331	9.75
765.079	10.75
765.826	9.75
766.574	12.75
767.322	9.75
768.07	11.75
768.817	8.75
769.565	10.75
770.312	9.75
771.06	9.75
771.807	12.75
772.554	10.75
773.302	11.75
774.049	11.75
774.796	14.75
775.543	11.75
776.29	12.75
777.036	13.75
777.783	10.75
778.53	12.75
779.276	11.75
780.023	11.75
780.769	12.75
781.516	13.75
782.262	11.75
783.008	12.75
783.754	13.75
784.5	10.75
785.246	14.75
785.992	13.75
786.738	9.75
787.484	11.75
788.23	12.75
788.975	14.75
789.721	12.75
790.466	13.75
791.212	13.75
791.957	11.75
792.702	10.75
793.447	11.75
794.193	12.75
794.938	9.75
795.683	10.75
796.427	12.75
797.172	9.75
797.917	13.75
798.662	7.75
799.406	9.75
800.151	10.75
800.895	12.75
801.64	11.75
802.384	9.75
803.128	7.75
803.872	7.75
804.616	10.75
805.36	8.75
806.104	10.75
806.848	8.75
807.592	11.75
808.336	8.75
809.079	6.75
809.823	5.75
810.566	7.75
811.31	8.75
812.053	6.75
812.796	8.75
813.539	6.75
814.283	9.75
815.026	5.75
815.769	7.75
816.511	6.75
817.254	6.75
817.997	6.75
818.74	6.75
819.482	4.75
820.225	6.75
820.967	6.75
821.71	4.75
822.452	5.75
823.194	10.75
823.936	6.75
824.678	5.75
825.42	6.75
826.162	3.75
826.904	6.75
827.646	7.75
828.388	5.75
829.129	4.75
829.871	5.75
830.612	6.75
831.354	4.75
832.095	5.75
832.836	6.75
833.577	6.75
834.319	4.75
835.06	6.75
835.801	5.75
836.542	4.75
837.282	5.75
838.023	3.75
838.764	5.75
839.504	4.75
840.245	4.75
840.985	4.75
841.726	4.75
842.466	3.75
843.206	3.75
843.946	4.75
844.687	4.75
845.427	4.75
846.166	4.75
846.906	5.75
847.646	4.75
848.386	1.75
849.125	4.75
849.865	2.75
850.605	3.75
851.344	3.75
852.083	3.75
852.823	3.75
853.562	3.75
854.301	3.75
855.04	1.75
855.779	4.75
856.518	1.75
857.257	3.75
857.995	2.75
858.734	0.75
859.473	2.75
860.211	3.75
860.95	3.75
861.688	4.75
862.426	2.75
863.165	2.75
863.903	2.75
864.641	2.75
865.379	1.75
866.117	1.75
866.855	2.75
867.593	2.75
868.33	2.75
869.068	0.75
869.806	2.75
870.543	0.75
871.28	1.75
872.018	1.75
872.755	0.75
873.492	1.75
874.229	0.75
874.967	3.75
875.703	0.75
876.44	3.75
877.177	-0.25
877.914	1.75
878.651	-0.25
879.387	2.75
880.124	0.75
880.86	1.75
881.597	0.75
882.333	1.75
883.069	2.75
883.806	2.75
884.542	2.75
885.278	0.75
886.014	-0.25
886.749	0.75
887.485	2.75
888.221	2.75
888.957	1.75
889.692	-1.25
890.428	-0.25
891.163	1.75
891.899	0.75
892.634	0.75
893.369	2.75
894.104	-0.25
894.839	0.75
895.574	2.75
896.309	0.75
897.044	-0.25
897.779	-0.25
898.514	-1.25
899.248	2.75
899.983	3.75
900.717	-0.25
901.452	1.75
902.186	0.75
902.92	0.75
903.654	0.75
904.389	2.75
905.123	2.75
905.857	2.75
906.59	1.75
907.324	1.75
908.058	1.75
908.792	1.75
909.525	-0.25
910.259	0.75
910.992	-0.25
911.726	0.75
912.459	2.75
913.192	-0.25
913.925	-0.25
914.658	-2.25
915.391	0.75
916.124	0.75
916.857	0.75
917.59	0.75
918.323	-1.25
919.055	0.75
919.788	0.75
920.521	0.75
921.253	-2.25
921.985	-0.25
922.718	-0.25
923.45	-0.25
924.182	-0.25
924.914	0.75
925.646	1.75
926.378	-0.25
927.11	-0.25
927.841	-1.25
928.573	-0.25
929.305	0.75
930.036	0.75
930.768	1.75
931.499	0.75
932.23	0.75
932.962	-1.25
933.693	-1.25
934.424	1.75
935.155	0.75
935.886	-0.25
936.617	-1.25
937.348	0.75
938.078	0.75
938.809	-2.25
939.54	-1.25
940.27	-2.25
941.001	-0.25
941.731	0.75
942.461	-0.25
943.191	0.75
943.922	0.75
944.652	-1.25
945.382	-0.25
946.112	-0.25
946.841	0.75
947.571	2.75
948.301	-0.25
949.031	-1.25
949.76	1.75
950.49	1.75
951.219	-0.25
951.948	0.75
952.678	0.75
953.407	0.75
954.136	0.75
954.865	-0.25
955.594	1.75
956.323	0.75
957.052	-0.25
957.78	-0.25
958.509	0.75
959.238	0.75
959.966	-0.25
960.695	0.75
961.423	0.75
962.151	-0.25
962.88	0.75
963.608	0.75
964.336	0.75
965.064	0.75
965.792	-2.25
966.52	2.75
967.247	-0.25
967.975	-0.25
968.703	-1.25
969.43	1.75
970.158	1.75
970.885	0.75
971.613	0.75
972.34	-2.25
973.067	-1.25
973.794	-2.25
974.521	0.75
975.248	1.75
975.975	-0.25
976.702	-1.25
977.429	-2.25
978.156	1.75
978.882	0.75
979.609	-0.25
980.335	0.75
981.062	0.75
981.788	-1.25
982.514	-0.25
983.24	0.75
983.967	-0.25
984.693	-1.25
985.419	-1.25
986.144	0.75
986.87	0.75
987.596	-0.25
988.322	2.75
989.047	-0.25
989.773	-0.25
990.498	0.75
991.224	0.75
991.949	0.75
992.674	-0.25
993.399	0.75
994.124	-0.25
994.849	1.75
995.574	0.75
996.299	-2.25
997.024	0.75
997.749	-0.25
998.473	1.75
999.198	0.75
999.922	2.75
1000.647	0.75
1001.371	4.75
1002.095	0.75
1002.82	-1.25
1003.544	-1.25
1004.268	2.75
1004.992	1.75
1005.716	0.75
1006.439	3.75
1007.163	3.75
1007.887	4.75
1008.611	0.75
1009.334	-0.25
1010.058	-0.25
1010.781	0.75
1011.504	-2.25
1012.228	1.75
1012.951	-0.25
1013.674	-0.25
1014.397	-1.25
1015.12	-1.25
