节点500_565_QEPB04081__391__09-56-55-348.txt的数据

Date: Thu Nov 13 09:56:55 CST 2025
User: PC
Spectrometer: QEPB0408
触发模式: 0
积分时间 (秒): 1.000000E-2
Scans to average: 1
启用暗噪声校正: true
启用非线性校正: false
滑动平均宽度: 0
X轴模式: Wavelengths
Number of Pixels in Spectrum: 1044
>>>>>Begin Spectral Data<<<<<
220.843	3
221.644	1
222.444	4
223.244	5
224.045	4
224.845	7
225.645	8
226.445	5
227.245	6
228.045	6
228.845	5
229.645	7
230.444	5
231.244	8
232.043	6
232.843	5
233.642	7
234.442	7
235.241	7
236.04	6
236.839	9
237.638	6
238.437	11
239.236	9
240.035	11
240.833	8
241.632	11
242.43	8
243.229	11
244.027	9
244.826	13
245.624	11
246.422	12
247.22	8
248.018	13
248.816	13
249.614	14
250.412	12
251.21	11
252.007	14
252.805	12
253.602	13
254.4	14
255.197	12
255.994	17
256.791	12
257.589	15
258.386	15
259.183	19
259.979	18
260.776	19
261.573	16
262.37	18
263.166	15
263.963	20
264.759	19
265.556	19
266.352	21
267.148	20
267.944	24
268.74	22
269.536	22
270.332	22
271.128	21
271.924	25
272.719	27
273.515	28
274.311	25
275.106	25
275.901	26
276.697	30
277.492	28
278.287	27
279.082	27
279.877	27
280.672	30
281.467	30
282.262	28
283.056	28
283.851	29
284.646	28
285.44	28
286.234	29
287.029	30
287.823	28
288.617	27
289.411	30
290.205	27
290.999	27
291.793	27
292.587	31
293.381	26
294.174	26
294.968	25
295.761	23
296.555	22
297.348	22
298.141	23
298.935	25
299.728	22
300.521	22
301.314	18
302.107	24
302.899	17
303.692	17
304.485	21
305.277	21
306.07	20
306.862	21
307.655	21
308.447	19
309.239	18
310.031	17
310.823	17
311.615	15
312.407	14
313.199	17
313.991	15
314.783	15
315.574	17
316.366	13
317.157	13
317.949	13
318.74	11
319.531	13
320.322	12
321.113	10
321.904	13
322.695	14
323.486	12
324.277	10
325.068	12
325.858	11
326.649	11
327.439	10
328.23	12
329.02	10
329.81	11
330.6	11
331.391	9
332.181	11
332.971	9
333.76	10
334.55	11
335.34	13
336.13	9
336.919	9
337.709	10
338.498	9
339.287	11
340.077	11
340.866	9
341.655	10
342.444	9
343.233	8
344.022	8
344.811	7
345.6	11
346.388	9
347.177	11
347.965	9
348.754	7
349.542	8
350.33	9
351.119	12
351.907	13
352.695	11
353.483	8
354.271	7
355.059	9
355.846	8
356.634	9
357.422	9
358.209	11
358.997	10
359.784	8
360.571	9
361.359	9
362.146	11
362.933	10
363.72	9
364.507	8
365.294	7
366.081	6
366.867	9
367.654	10
368.44	8
369.227	11
370.013	6
370.8	5
371.586	8
372.372	5
373.158	9
373.944	8
374.73	7
375.516	10
376.302	7
377.088	8
377.873	8
378.659	8
379.445	8
380.23	7
381.015	8
381.801	7
382.586	9
383.371	6
384.156	9
384.941	11
385.726	9
386.511	9
387.296	11
388.08	8
388.865	7
389.649	10
390.434	10
391.218	10
392.003	10
392.787	12
393.571	9
394.355	11
395.139	9
395.923	9
396.707	12
397.491	8
398.274	13
399.058	9
399.842	11
400.625	11
401.408	13
402.192	11
402.975	14
403.758	13
404.541	13
405.324	12
406.107	13
406.89	13
407.673	12
408.456	12
409.238	14
410.021	17
410.803	12
411.586	14
412.368	14
413.151	15
413.933	13
414.715	15
415.497	17
416.279	15
417.061	15
417.843	15
418.624	20
419.406	17
420.188	21
420.969	19
421.751	18
422.532	20
423.313	17
424.095	18
424.876	20
425.657	21
426.438	21
427.219	25
428	21
428.78	19
429.561	21
430.342	26
431.122	26
431.903	26
432.683	27
433.464	28
434.244	30
435.024	30
435.804	33
436.584	29
437.364	38
438.144	37
438.924	43
439.704	39
440.483	47
441.263	48
442.042	52
442.822	50
443.601	56
444.38	61
445.16	64
445.939	76
446.718	79
447.497	83
448.276	92
449.054	104
449.833	112
450.612	120
451.391	140
452.169	149
452.948	163
453.726	181
454.504	205
455.282	233
456.061	251
456.839	280
457.617	308
458.395	348
459.172	390
459.95	432
460.728	471
461.506	535
462.283	592
463.061	656
463.838	738
464.615	816
465.393	916
466.17	1005
466.947	1128
467.724	1244
468.501	1377
469.278	1540
470.055	1682
470.831	1862
471.608	2066
472.385	2292
473.161	2508
473.938	2782
474.714	3038
475.49	3336
476.266	3657
477.043	4025
477.819	4412
478.595	4820
479.371	5255
480.146	5738
480.922	6288
481.698	6802
482.473	7437
483.249	8056
484.024	8768
484.8	9542
485.575	10340
486.35	11210
487.126	12216
487.901	13141
488.676	14247
489.451	15402
490.225	16673
491	17895
491.775	19266
492.55	20606
493.324	22094
494.099	23478
494.873	25063
495.647	26631
496.422	28201
497.196	29654
497.97	31198
498.744	32672
499.518	34007
500.292	35228
501.066	36491
501.839	37576
502.613	38375
503.387	39030
504.16	39789
504.934	40144
505.707	40148
506.48	40190
507.253	40008
508.027	39473
508.8	38859
509.573	38123
510.346	37211
511.118	36113
511.891	35249
512.664	34150
513.437	32906
514.209	31764
514.982	30545
515.754	29374
516.526	28190
517.298	26995
518.071	25948
518.843	24883
519.615	23850
520.387	22874
521.159	22046
521.93	21187
522.702	20285
523.474	19473
524.245	18674
525.017	17914
525.788	17176
526.56	16351
527.331	15666
528.102	14931
528.873	14219
529.644	13536
530.415	12834
531.186	12264
531.957	11625
532.728	11087
533.498	10490
534.269	9951
535.039	9353
535.81	8859
536.58	8430
537.351	7972
538.121	7547
538.891	7102
539.661	6768
540.431	6362
541.201	6049
541.971	5768
542.741	5436
543.51	5145
544.28	4906
545.05	4625
545.819	4415
546.588	4217
547.358	4001
548.127	3814
548.896	3630
549.665	3438
550.434	3258
551.203	3084
551.972	2934
552.741	2771
553.51	2627
554.278	2480
555.047	2332
555.815	2216
556.584	2108
557.352	1983
558.121	1870
558.889	1757
559.657	1668
560.425	1567
561.193	1495
561.961	1411
562.729	1332
563.496	1271
564.264	1199
565.032	1127
565.799	1077
566.567	1009
567.334	961
568.101	896
568.869	848
569.636	817
570.403	760
571.17	714
571.937	693
572.704	647
573.471	610
574.237	560
575.004	539
575.771	505
576.537	488
577.303	461
578.07	424
578.836	403
579.602	382
580.368	351
581.134	335
581.9	321
582.666	311
583.432	290
584.198	275
584.964	262
585.729	246
586.495	227
587.26	227
588.025	211
588.791	199
589.556	190
590.321	183
591.086	171
591.851	164
592.616	157
593.381	151
594.146	142
594.911	133
595.675	128
596.44	126
597.204	120
597.969	113
598.733	108
599.497	105
600.261	100
601.025	94
601.79	89
602.553	93
603.317	82
604.081	78
604.845	76
605.609	70
606.372	75
607.136	65
607.899	68
608.662	62
609.426	63
610.189	55
610.952	59
611.715	56
612.478	53
613.241	51
614.004	49
614.767	50
615.529	46
616.292	44
617.055	40
617.817	41
618.579	42
619.342	36
620.104	36
620.866	34
621.628	37
622.39	35
623.152	31
623.914	31
624.676	30
625.438	27
626.199	25
626.961	27
627.722	29
628.484	29
629.245	23
630.006	23
630.768	25
631.529	22
632.29	23
633.051	25
633.812	24
634.573	21
635.333	19
636.094	18
636.855	21
637.615	19
638.376	17
639.136	16
639.896	17
640.657	15
641.417	16
642.177	13
642.937	19
643.697	13
644.457	15
645.216	13
645.976	12
646.736	13
647.495	11
648.255	15
649.014	11
649.774	14
650.533	14
651.292	12
652.051	10
652.81	10
653.569	14
654.328	14
655.087	14
655.846	11
656.604	10
657.363	11
658.121	12
658.88	11
659.638	9
660.397	10
661.155	11
661.913	11
662.671	11
663.429	8
664.187	9
664.945	9
665.703	8
666.46	8
667.218	8
667.976	8
668.733	6
669.49	7
670.248	7
671.005	7
671.762	7
672.519	11
673.276	9
674.033	7
674.79	5
675.547	9
676.304	8
677.06	7
677.817	8
678.574	8
679.33	8
680.086	6
680.843	8
681.599	7
682.355	7
683.111	9
683.867	6
684.623	5
685.379	7
686.135	8
686.89	6
687.646	8
688.402	5
689.157	6
689.912	7
690.668	5
691.423	6
692.178	8
692.933	6
693.688	6
694.443	8
695.198	5
695.953	8
696.708	8
697.462	6
698.217	9
698.972	6
699.726	7
700.48	6
701.235	7
701.989	7
702.743	8
703.497	8
704.251	8
705.005	4
705.759	5
706.513	8
707.266	6
708.02	7
708.774	7
709.527	8
710.28	7
711.034	8
711.787	9
712.54	4
713.293	5
714.046	5
714.799	6
715.552	7
716.305	6
717.058	6
717.81	5
718.563	7
719.315	7
720.068	7
720.82	6
721.573	8
722.325	8
723.077	6
723.829	7
724.581	7
725.333	6
726.085	5
726.836	7
727.588	7
728.34	5
729.091	5
729.843	7
730.594	8
731.346	3
732.097	8
732.848	7
733.599	5
734.35	8
735.101	8
735.852	8
736.603	7
737.354	7
738.104	8
738.855	7
739.605	7
740.356	9
741.106	9
741.856	10
742.607	9
743.357	9
744.107	7
744.857	8
745.607	8
746.357	9
747.106	8
747.856	10
748.606	11
749.355	7
750.105	9
750.854	10
751.603	11
752.353	8
753.102	11
753.851	9
754.6	9
755.349	10
756.098	6
756.847	10
757.595	7
758.344	9
759.093	9
759.841	9
760.589	11
761.338	10
762.086	12
762.834	10
763.582	13
764.331	10
765.079	11
765.826	12
766.574	11
767.322	10
768.07	10
768.817	12
769.565	10
770.312	11
771.06	13
771.807	10
772.554	12
773.302	13
774.049	13
774.796	11
775.543	14
776.29	16
777.036	13
777.783	13
778.53	10
779.276	13
780.023	13
780.769	13
781.516	14
782.262	14
783.008	13
783.754	14
784.5	14
785.246	15
785.992	14
786.738	12
787.484	13
788.23	13
788.975	12
789.721	14
790.466	12
791.212	13
791.957	10
792.702	12
793.447	14
794.193	16
794.938	15
795.683	12
796.427	10
797.172	13
797.917	13
798.662	12
799.406	10
800.151	13
800.895	10
801.64	11
802.384	10
803.128	12
803.872	12
804.616	9
805.36	10
806.104	10
806.848	10
807.592	10
808.336	10
809.079	9
809.823	9
810.566	11
811.31	6
812.053	7
812.796	7
813.539	9
814.283	8
815.026	6
815.769	10
816.511	6
817.254	9
817.997	6
818.74	8
819.482	6
820.225	7
820.967	5
821.71	6
822.452	7
823.194	7
823.936	8
824.678	7
825.42	5
826.162	5
826.904	6
827.646	5
828.388	9
829.129	7
829.871	6
830.612	5
831.354	9
832.095	5
832.836	6
833.577	5
834.319	5
835.06	5
835.801	7
836.542	5
837.282	5
838.023	7
838.764	6
839.504	5
840.245	6
840.985	5
841.726	3
842.466	3
843.206	6
843.946	4
844.687	5
845.427	4
846.166	5
846.906	5
847.646	3
848.386	6
849.125	2
849.865	4
850.605	4
851.344	5
852.083	3
852.823	3
853.562	4
854.301	2
855.04	5
855.779	4
856.518	4
857.257	3
857.995	5
858.734	2
859.473	3
860.211	2
860.95	1
861.688	6
862.426	5
863.165	3
863.903	4
864.641	2
865.379	2
866.117	4
866.855	3
867.593	4
868.33	2
869.068	3
869.806	1
870.543	6
871.28	3
872.018	3
872.755	1
873.492	3
874.229	2
874.967	0
875.703	3
876.44	1
877.177	2
877.914	3
878.651	2
879.387	3
880.124	1
880.86	3
881.597	-1
882.333	0
883.069	3
883.806	3
884.542	1
885.278	2
886.014	3
886.749	0
887.485	3
888.221	-1
888.957	1
889.692	0
890.428	2
891.163	0
891.899	3
892.634	3
893.369	2
894.104	0
894.839	2
895.574	-1
896.309	3
897.044	3
897.779	0
898.514	0
899.248	1
899.983	1
900.717	0
901.452	1
902.186	1
902.92	1
903.654	-1
904.389	2
905.123	-1
905.857	-1
906.59	2
907.324	0
908.058	2
908.792	1
909.525	0
910.259	0
910.992	3
911.726	1
912.459	3
913.192	2
913.925	2
914.658	2
915.391	0
916.124	1
916.857	1
917.59	0
918.323	2
919.055	-1
919.788	2
920.521	1
921.253	3
921.985	0
922.718	2
923.45	1
924.182	0
924.914	1
925.646	0
926.378	0
927.11	2
927.841	0
928.573	2
929.305	-1
930.036	1
930.768	0
931.499	2
932.23	0
932.962	2
933.693	-2
934.424	-2
935.155	2
935.886	-1
936.617	0
937.348	1
938.078	-1
938.809	1
939.54	1
940.27	-1
941.001	-1
941.731	0
942.461	0
943.191	0
943.922	2
944.652	1
945.382	-1
946.112	-2
946.841	1
947.571	0
948.301	0
949.031	-1
949.76	1
950.49	0
951.219	3
951.948	1
952.678	0
953.407	0
954.136	0
954.865	0
955.594	-3
956.323	2
957.052	1
957.78	0
958.509	0
959.238	1
959.966	3
960.695	1
961.423	-1
962.151	1
962.88	0
963.608	0
964.336	2
965.064	2
965.792	3
966.52	0
967.247	2
967.975	0
968.703	2
969.43	0
970.158	-2
970.885	1
971.613	0
972.34	0
973.067	2
973.794	-2
974.521	0
975.248	-3
975.975	-2
976.702	0
977.429	1
978.156	1
978.882	0
979.609	0
980.335	1
981.062	0
981.788	1
982.514	1
983.24	-1
983.967	0
984.693	2
985.419	1
986.144	1
986.87	1
987.596	0
988.322	1
989.047	1
989.773	2
990.498	-2
991.224	3
991.949	1
992.674	1
993.399	1
994.124	1
994.849	1
995.574	2
996.299	1
997.024	-1
997.749	0
998.473	-1
999.198	0
999.922	0
1000.647	1
1001.371	5
1002.095	-1
1002.82	1
1003.544	-2
1004.268	2
1004.992	3
1005.716	2
1006.439	3
1007.163	5
1007.887	4
1008.611	1
1009.334	-1
1010.058	0
1010.781	1
1011.504	1
1012.228	-1
1012.951	0
1013.674	0
1014.397	-3
1015.12	0
