节点500_565_QEPB04081__190__09-53-34-909.txt的数据

Date: Thu Nov 13 09:53:34 CST 2025
User: PC
Spectrometer: QEPB0408
触发模式: 0
积分时间 (秒): 1.000000E-2
Scans to average: 1
启用暗噪声校正: true
启用非线性校正: false
滑动平均宽度: 0
X轴模式: Wavelengths
Number of Pixels in Spectrum: 1044
>>>>>Begin Spectral Data<<<<<
220.843	3.25
221.644	2.25
222.444	2.25
223.244	4.25
224.045	4.25
224.845	4.25
225.645	3.25
226.445	3.25
227.245	6.25
228.045	7.25
228.845	3.25
229.645	5.25
230.444	6.25
231.244	5.25
232.043	8.25
232.843	5.25
233.642	6.25
234.442	8.25
235.241	6.25
236.04	6.25
236.839	7.25
237.638	7.25
238.437	8.25
239.236	9.25
240.035	8.25
240.833	9.25
241.632	11.25
242.43	8.25
243.229	8.25
244.027	12.25
244.826	10.25
245.624	11.25
246.422	10.25
247.22	10.25
248.018	11.25
248.816	11.25
249.614	15.25
250.412	10.25
251.21	12.25
252.007	12.25
252.805	12.25
253.602	14.25
254.4	14.25
255.197	17.25
255.994	16.25
256.791	16.25
257.589	16.25
258.386	16.25
259.183	18.25
259.979	20.25
260.776	18.25
261.573	21.25
262.37	21.25
263.166	23.25
263.963	19.25
264.759	21.25
265.556	22.25
266.352	21.25
267.148	24.25
267.944	24.25
268.74	24.25
269.536	27.25
270.332	25.25
271.128	25.25
271.924	26.25
272.719	26.25
273.515	31.25
274.311	26.25
275.106	29.25
275.901	28.25
276.697	28.25
277.492	27.25
278.287	28.25
279.082	30.25
279.877	29.25
280.672	30.25
281.467	29.25
282.262	30.25
283.056	31.25
283.851	28.25
284.646	29.25
285.44	32.25
286.234	30.25
287.029	28.25
287.823	28.25
288.617	27.25
289.411	28.25
290.205	25.25
290.999	27.25
291.793	28.25
292.587	26.25
293.381	26.25
294.174	24.25
294.968	24.25
295.761	24.25
296.555	24.25
297.348	23.25
298.141	22.25
298.935	21.25
299.728	22.25
300.521	22.25
301.314	21.25
302.107	21.25
302.899	20.25
303.692	17.25
304.485	17.25
305.277	18.25
306.07	18.25
306.862	18.25
307.655	20.25
308.447	18.25
309.239	17.25
310.031	18.25
310.823	17.25
311.615	16.25
312.407	16.25
313.199	13.25
313.991	14.25
314.783	13.25
315.574	13.25
316.366	12.25
317.157	13.25
317.949	13.25
318.74	13.25
319.531	10.25
320.322	13.25
321.113	11.25
321.904	10.25
322.695	14.25
323.486	11.25
324.277	12.25
325.068	9.25
325.858	11.25
326.649	12.25
327.439	10.25
328.23	13.25
329.02	10.25
329.81	8.25
330.6	10.25
331.391	11.25
332.181	10.25
332.971	9.25
333.76	10.25
334.55	8.25
335.34	9.25
336.13	9.25
336.919	11.25
337.709	9.25
338.498	7.25
339.287	9.25
340.077	9.25
340.866	12.25
341.655	7.25
342.444	11.25
343.233	8.25
344.022	12.25
344.811	8.25
345.6	10.25
346.388	9.25
347.177	7.25
347.965	11.25
348.754	10.25
349.542	9.25
350.33	10.25
351.119	8.25
351.907	9.25
352.695	11.25
353.483	9.25
354.271	9.25
355.059	10.25
355.846	9.25
356.634	8.25
357.422	8.25
358.209	8.25
358.997	6.25
359.784	9.25
360.571	9.25
361.359	9.25
362.146	8.25
362.933	10.25
363.72	9.25
364.507	9.25
365.294	8.25
366.081	7.25
366.867	8.25
367.654	8.25
368.44	8.25
369.227	6.25
370.013	6.25
370.8	7.25
371.586	9.25
372.372	8.25
373.158	8.25
373.944	7.25
374.73	10.25
375.516	7.25
376.302	7.25
377.088	8.25
377.873	10.25
378.659	7.25
379.445	6.25
380.23	7.25
381.015	8.25
381.801	7.25
382.586	11.25
383.371	6.25
384.156	8.25
384.941	9.25
385.726	10.25
386.511	11.25
387.296	8.25
388.08	6.25
388.865	8.25
389.649	10.25
390.434	8.25
391.218	9.25
392.003	10.25
392.787	8.25
393.571	12.25
394.355	8.25
395.139	12.25
395.923	11.25
396.707	12.25
397.491	12.25
398.274	12.25
399.058	11.25
399.842	10.25
400.625	11.25
401.408	11.25
402.192	12.25
402.975	12.25
403.758	9.25
404.541	11.25
405.324	11.25
406.107	12.25
406.89	13.25
407.673	14.25
408.456	12.25
409.238	14.25
410.021	13.25
410.803	14.25
411.586	13.25
412.368	13.25
413.151	15.25
413.933	15.25
414.715	16.25
415.497	15.25
416.279	14.25
417.061	15.25
417.843	16.25
418.624	14.25
419.406	17.25
420.188	17.25
420.969	17.25
421.751	18.25
422.532	19.25
423.313	19.25
424.095	18.25
424.876	22.25
425.657	24.25
426.438	20.25
427.219	23.25
428	22.25
428.78	20.25
429.561	25.25
430.342	22.25
431.122	23.25
431.903	25.25
432.683	27.25
433.464	28.25
434.244	30.25
435.024	28.25
435.804	33.25
436.584	34.25
437.364	35.25
438.144	37.25
438.924	40.25
439.704	45.25
440.483	43.25
441.263	45.25
442.042	50.25
442.822	52.25
443.601	58.25
444.38	62.25
445.16	65.25
445.939	72.25
446.718	77.25
447.497	80.25
448.276	93.25
449.054	93.25
449.833	105.25
450.612	118.25
451.391	125.25
452.169	141.25
452.948	145.25
453.726	170.25
454.504	190.25
455.282	207.25
456.061	241.25
456.839	264.25
457.617	291.25
458.395	330.25
459.172	361.25
459.95	402.25
460.728	445.25
461.506	507.25
462.283	555.25
463.061	625.25
463.838	698.25
464.615	771.25
465.393	880.25
466.17	966.25
466.947	1090.25
467.724	1217.25
468.501	1353.25
469.278	1511.25
470.055	1666.25
470.831	1838.25
471.608	2044.25
472.385	2272.25
473.161	2514.25
473.938	2793.25
474.714	3063.25
475.49	3379.25
476.266	3726.25
477.043	4111.25
477.819	4520.25
478.595	4981.25
479.371	5419.25
480.146	5954.25
480.922	6545.25
481.698	7186.25
482.473	7830.25
483.249	8533.25
484.024	9368.25
484.8	10154.25
485.575	11105.25
486.35	12067.25
487.126	13179.25
487.901	14302.25
488.676	15582.25
489.451	16889.25
490.225	18334.25
491	19697.25
491.775	21201.25
492.55	22802.25
493.324	24380.25
494.099	26035.25
494.873	27672.25
495.647	29471.25
496.422	31222.25
497.196	32821.25
497.97	34433.25
498.744	35993.25
499.518	37264.25
500.292	38575.25
501.066	39731.25
501.839	40745.25
502.613	41535.25
503.387	42094.25
504.16	42604.25
504.934	42770.25
505.707	42609.25
506.48	42434.25
507.253	41874.25
508.027	41095.25
508.8	40255.25
509.573	39140.25
510.346	38078.25
511.118	36862.25
511.891	35747.25
512.664	34422.25
513.437	33012.25
514.209	31710.25
514.982	30397.25
515.754	29247.25
516.526	27969.25
517.298	26733.25
518.071	25677.25
518.843	24656.25
519.615	23655.25
520.387	22669.25
521.159	21782.25
521.93	20907.25
522.702	19986.25
523.474	19186.25
524.245	18423.25
525.017	17723.25
525.788	16870.25
526.56	16073.25
527.331	15304.25
528.102	14627.25
528.873	13893.25
529.644	13197.25
530.415	12491.25
531.186	11882.25
531.957	11278.25
532.728	10669.25
533.498	10133.25
534.269	9523.25
535.039	9033.25
535.81	8567.25
536.58	8089.25
537.351	7646.25
538.121	7213.25
538.891	6816.25
539.661	6461.25
540.431	6156.25
541.201	5783.25
541.971	5507.25
542.741	5235.25
543.51	4913.25
544.28	4693.25
545.05	4465.25
545.819	4231.25
546.588	4038.25
547.358	3839.25
548.127	3631.25
548.896	3454.25
549.665	3313.25
550.434	3121.25
551.203	2937.25
551.972	2791.25
552.741	2640.25
553.51	2491.25
554.278	2365.25
555.047	2210.25
555.815	2112.25
556.584	2004.25
557.352	1886.25
558.121	1765.25
558.889	1673.25
559.657	1570.25
560.425	1475.25
561.193	1409.25
561.961	1332.25
562.729	1272.25
563.496	1195.25
564.264	1131.25
565.032	1077.25
565.799	1004.25
566.567	967.25
567.334	896.25
568.101	857.25
568.869	801.25
569.636	758.25
570.403	720.25
571.17	682.25
571.937	644.25
572.704	603.25
573.471	574.25
574.237	536.25
575.004	509.25
575.771	475.25
576.537	450.25
577.303	418.25
578.07	401.25
578.836	375.25
579.602	349.25
580.368	337.25
581.134	319.25
581.9	306.25
582.666	282.25
583.432	273.25
584.198	256.25
584.964	248.25
585.729	235.25
586.495	229.25
587.26	216.25
588.025	195.25
588.791	191.25
589.556	179.25
590.321	172.25
591.086	162.25
591.851	156.25
592.616	148.25
593.381	137.25
594.146	135.25
594.911	132.25
595.675	123.25
596.44	116.25
597.204	112.25
597.969	110.25
598.733	99.25
599.497	97.25
600.261	92.25
601.025	92.25
601.79	85.25
602.553	79.25
603.317	79.25
604.081	79.25
604.845	70.25
605.609	69.25
606.372	68.25
607.136	63.25
607.899	62.25
608.662	59.25
609.426	60.25
610.189	55.25
610.952	54.25
611.715	47.25
612.478	48.25
613.241	47.25
614.004	46.25
614.767	40.25
615.529	43.25
616.292	40.25
617.055	39.25
617.817	37.25
618.579	36.25
619.342	37.25
620.104	34.25
620.866	32.25
621.628	32.25
622.39	36.25
623.152	32.25
623.914	28.25
624.676	31.25
625.438	25.25
626.199	28.25
626.961	28.25
627.722	25.25
628.484	25.25
629.245	25.25
630.006	24.25
630.768	18.25
631.529	23.25
632.29	23.25
633.051	18.25
633.812	21.25
634.573	21.25
635.333	20.25
636.094	18.25
636.855	14.25
637.615	17.25
638.376	17.25
639.136	17.25
639.896	16.25
640.657	17.25
641.417	17.25
642.177	15.25
642.937	14.25
643.697	14.25
644.457	14.25
645.216	15.25
645.976	12.25
646.736	13.25
647.495	13.25
648.255	12.25
649.014	14.25
649.774	13.25
650.533	11.25
651.292	12.25
652.051	11.25
652.81	12.25
653.569	11.25
654.328	10.25
655.087	13.25
655.846	9.25
656.604	11.25
657.363	11.25
658.121	7.25
658.88	8.25
659.638	9.25
660.397	10.25
661.155	12.25
661.913	8.25
662.671	9.25
663.429	9.25
664.187	10.25
664.945	7.25
665.703	7.25
666.46	8.25
667.218	6.25
667.976	7.25
668.733	7.25
669.49	9.25
670.248	7.25
671.005	9.25
671.762	7.25
672.519	10.25
673.276	10.25
674.033	8.25
674.79	6.25
675.547	4.25
676.304	7.25
677.06	4.25
677.817	5.25
678.574	6.25
679.33	7.25
680.086	7.25
680.843	6.25
681.599	8.25
682.355	7.25
683.111	7.25
683.867	6.25
684.623	7.25
685.379	6.25
686.135	6.25
686.89	6.25
687.646	6.25
688.402	7.25
689.157	8.25
689.912	4.25
690.668	7.25
691.423	5.25
692.178	7.25
692.933	6.25
693.688	5.25
694.443	4.25
695.198	6.25
695.953	6.25
696.708	8.25
697.462	4.25
698.217	4.25
698.972	7.25
699.726	5.25
700.48	8.25
701.235	7.25
701.989	7.25
702.743	8.25
703.497	3.25
704.251	8.25
705.005	2.25
705.759	6.25
706.513	5.25
707.266	6.25
708.02	6.25
708.774	7.25
709.527	6.25
710.28	6.25
711.034	6.25
711.787	7.25
712.54	5.25
713.293	9.25
714.046	5.25
714.799	7.25
715.552	6.25
716.305	7.25
717.058	7.25
717.81	5.25
718.563	6.25
719.315	4.25
720.068	4.25
720.82	8.25
721.573	7.25
722.325	6.25
723.077	7.25
723.829	7.25
724.581	5.25
725.333	7.25
726.085	8.25
726.836	4.25
727.588	5.25
728.34	5.25
729.091	6.25
729.843	6.25
730.594	7.25
731.346	6.25
732.097	8.25
732.848	8.25
733.599	6.25
734.35	7.25
735.101	8.25
735.852	7.25
736.603	6.25
737.354	6.25
738.104	10.25
738.855	9.25
739.605	8.25
740.356	8.25
741.106	11.25
741.856	8.25
742.607	10.25
743.357	8.25
744.107	8.25
744.857	8.25
745.607	7.25
746.357	9.25
747.106	9.25
747.856	9.25
748.606	7.25
749.355	6.25
750.105	9.25
750.854	8.25
751.603	9.25
752.353	9.25
753.102	12.25
753.851	7.25
754.6	7.25
755.349	8.25
756.098	9.25
756.847	10.25
757.595	11.25
758.344	10.25
759.093	11.25
759.841	13.25
760.589	10.25
761.338	8.25
762.086	11.25
762.834	12.25
763.582	11.25
764.331	12.25
765.079	9.25
765.826	10.25
766.574	11.25
767.322	9.25
768.07	10.25
768.817	13.25
769.565	12.25
770.312	11.25
771.06	13.25
771.807	12.25
772.554	11.25
773.302	11.25
774.049	13.25
774.796	12.25
775.543	12.25
776.29	12.25
777.036	13.25
777.783	13.25
778.53	11.25
779.276	15.25
780.023	13.25
780.769	14.25
781.516	15.25
782.262	13.25
783.008	15.25
783.754	12.25
784.5	16.25
785.246	12.25
785.992	13.25
786.738	12.25
787.484	12.25
788.23	15.25
788.975	12.25
789.721	13.25
790.466	13.25
791.212	14.25
791.957	13.25
792.702	12.25
793.447	12.25
794.193	12.25
794.938	12.25
795.683	11.25
796.427	12.25
797.172	13.25
797.917	11.25
798.662	10.25
799.406	9.25
800.151	11.25
800.895	11.25
801.64	10.25
802.384	11.25
803.128	8.25
803.872	11.25
804.616	12.25
805.36	11.25
806.104	10.25
806.848	8.25
807.592	8.25
808.336	8.25
809.079	10.25
809.823	7.25
810.566	9.25
811.31	7.25
812.053	9.25
812.796	8.25
813.539	8.25
814.283	8.25
815.026	7.25
815.769	8.25
816.511	6.25
817.254	5.25
817.997	7.25
818.74	5.25
819.482	7.25
820.225	5.25
820.967	6.25
821.71	6.25
822.452	4.25
823.194	5.25
823.936	6.25
824.678	6.25
825.42	5.25
826.162	4.25
826.904	4.25
827.646	4.25
828.388	7.25
829.129	6.25
829.871	5.25
830.612	5.25
831.354	4.25
832.095	8.25
832.836	5.25
833.577	2.25
834.319	6.25
835.06	4.25
835.801	6.25
836.542	4.25
837.282	2.25
838.023	4.25
838.764	2.25
839.504	3.25
840.245	5.25
840.985	6.25
841.726	6.25
842.466	4.25
843.206	6.25
843.946	6.25
844.687	4.25
845.427	3.25
846.166	8.25
846.906	5.25
847.646	4.25
848.386	3.25
849.125	4.25
849.865	7.25
850.605	4.25
851.344	4.25
852.083	2.25
852.823	-0.75
853.562	4.25
854.301	4.25
855.04	3.25
855.779	5.25
856.518	4.25
857.257	3.25
857.995	2.25
858.734	3.25
859.473	3.25
860.211	2.25
860.95	3.25
861.688	2.25
862.426	2.25
863.165	2.25
863.903	4.25
864.641	2.25
865.379	3.25
866.117	2.25
866.855	1.25
867.593	0.25
868.33	1.25
869.068	2.25
869.806	1.25
870.543	2.25
871.28	2.25
872.018	2.25
872.755	0.25
873.492	1.25
874.229	3.25
874.967	0.25
875.703	2.25
876.44	1.25
877.177	1.25
877.914	1.25
878.651	1.25
879.387	2.25
880.124	0.25
880.86	1.25
881.597	2.25
882.333	3.25
883.069	1.25
883.806	0.25
884.542	2.25
885.278	0.25
886.014	0.25
886.749	-0.75
887.485	1.25
888.221	2.25
888.957	1.25
889.692	4.25
890.428	1.25
891.163	1.25
891.899	0.25
892.634	-1.75
893.369	3.25
894.104	0.25
894.839	3.25
895.574	0.25
896.309	0.25
897.044	0.25
897.779	0.25
898.514	2.25
899.248	0.25
899.983	3.25
900.717	-0.75
901.452	-0.75
902.186	0.25
902.92	0.25
903.654	2.25
904.389	1.25
905.123	2.25
905.857	0.25
906.59	0.25
907.324	0.25
908.058	2.25
908.792	-1.75
909.525	1.25
910.259	-0.75
910.992	0.25
911.726	-0.75
912.459	1.25
913.192	0.25
913.925	0.25
914.658	0.25
915.391	1.25
916.124	0.25
916.857	0.25
917.59	2.25
918.323	0.25
919.055	2.25
919.788	0.25
920.521	-0.75
921.253	1.25
921.985	1.25
922.718	2.25
923.45	0.25
924.182	2.25
924.914	-0.75
925.646	1.25
926.378	1.25
927.11	1.25
927.841	1.25
928.573	1.25
929.305	1.25
930.036	-0.75
930.768	-1.75
931.499	1.25
932.23	0.25
932.962	-0.75
933.693	0.25
934.424	1.25
935.155	-1.75
935.886	-0.75
936.617	0.25
937.348	-0.75
938.078	-1.75
938.809	0.25
939.54	1.25
940.27	-1.75
941.001	0.25
941.731	2.25
942.461	2.25
943.191	-0.75
943.922	-0.75
944.652	1.25
945.382	-1.75
946.112	-0.75
946.841	0.25
947.571	1.25
948.301	-0.75
949.031	0.25
949.76	-0.75
950.49	-2.75
951.219	-2.75
951.948	0.25
952.678	1.25
953.407	-0.75
954.136	0.25
954.865	-1.75
955.594	1.25
956.323	0.25
957.052	0.25
957.78	0.25
958.509	-0.75
959.238	-0.75
959.966	-0.75
960.695	0.25
961.423	-0.75
962.151	-1.75
962.88	1.25
963.608	-1.75
964.336	0.25
965.064	1.25
965.792	0.25
966.52	-0.75
967.247	0.25
967.975	1.25
968.703	2.25
969.43	1.25
970.158	0.25
970.885	0.25
971.613	1.25
972.34	-0.75
973.067	0.25
973.794	-1.75
974.521	0.25
975.248	0.25
975.975	1.25
976.702	0.25
977.429	0.25
978.156	0.25
978.882	3.25
979.609	1.25
980.335	0.25
981.062	-1.75
981.788	1.25
982.514	-0.75
983.24	0.25
983.967	0.25
984.693	2.25
985.419	2.25
986.144	-0.75
986.87	0.25
987.596	1.25
988.322	0.25
989.047	-0.75
989.773	1.25
990.498	0.25
991.224	0.25
991.949	-0.75
992.674	-0.75
993.399	0.25
994.124	0.25
994.849	-0.75
995.574	1.25
996.299	0.25
997.024	0.25
997.749	-0.75
998.473	2.25
999.198	-0.75
999.922	0.25
1000.647	1.25
1001.371	4.25
1002.095	-0.75
1002.82	-0.75
1003.544	0.25
1004.268	1.25
1004.992	2.25
1005.716	1.25
1006.439	3.25
1007.163	3.25
1007.887	4.25
1008.611	0.25
1009.334	-0.75
1010.058	-0.75
1010.781	-0.75
1011.504	0.25
1012.228	0.25
1012.951	0.25
1013.674	-2.75
1014.397	0.25
1015.12	-0.75
