节点500_565_QEPB04081__327__09-55-51-459.txt的数据

Date: Thu Nov 13 09:55:51 CST 2025
User: PC
Spectrometer: QEPB0408
触发模式: 0
积分时间 (秒): 1.000000E-2
Scans to average: 1
启用暗噪声校正: true
启用非线性校正: false
滑动平均宽度: 0
X轴模式: Wavelengths
Number of Pixels in Spectrum: 1044
>>>>>Begin Spectral Data<<<<<
220.843	4.25
221.644	5.25
222.444	5.25
223.244	6.25
224.045	5.25
224.845	4.25
225.645	8.25
226.445	5.25
227.245	6.25
228.045	5.25
228.845	4.25
229.645	6.25
230.444	7.25
231.244	5.25
232.043	6.25
232.843	7.25
233.642	7.25
234.442	8.25
235.241	10.25
236.04	7.25
236.839	9.25
237.638	5.25
238.437	7.25
239.236	9.25
240.035	7.25
240.833	9.25
241.632	11.25
242.43	10.25
243.229	9.25
244.027	10.25
244.826	10.25
245.624	9.25
246.422	14.25
247.22	11.25
248.018	12.25
248.816	12.25
249.614	11.25
250.412	11.25
251.21	10.25
252.007	14.25
252.805	14.25
253.602	14.25
254.4	12.25
255.197	14.25
255.994	15.25
256.791	14.25
257.589	17.25
258.386	17.25
259.183	19.25
259.979	18.25
260.776	17.25
261.573	17.25
262.37	21.25
263.166	18.25
263.963	19.25
264.759	19.25
265.556	20.25
266.352	23.25
267.148	21.25
267.944	24.25
268.74	21.25
269.536	25.25
270.332	24.25
271.128	25.25
271.924	28.25
272.719	25.25
273.515	30.25
274.311	27.25
275.106	29.25
275.901	27.25
276.697	26.25
277.492	29.25
278.287	29.25
279.082	32.25
279.877	30.25
280.672	28.25
281.467	28.25
282.262	27.25
283.056	30.25
283.851	27.25
284.646	30.25
285.44	28.25
286.234	30.25
287.029	29.25
287.823	30.25
288.617	27.25
289.411	26.25
290.205	28.25
290.999	29.25
291.793	27.25
292.587	29.25
293.381	24.25
294.174	24.25
294.968	25.25
295.761	23.25
296.555	22.25
297.348	20.25
298.141	23.25
298.935	24.25
299.728	24.25
300.521	19.25
301.314	23.25
302.107	21.25
302.899	18.25
303.692	21.25
304.485	21.25
305.277	20.25
306.07	19.25
306.862	21.25
307.655	19.25
308.447	20.25
309.239	19.25
310.031	15.25
310.823	17.25
311.615	14.25
312.407	15.25
313.199	13.25
313.991	14.25
314.783	14.25
315.574	14.25
316.366	12.25
317.157	10.25
317.949	13.25
318.74	13.25
319.531	13.25
320.322	12.25
321.113	13.25
321.904	11.25
322.695	13.25
323.486	13.25
324.277	11.25
325.068	13.25
325.858	11.25
326.649	10.25
327.439	13.25
328.23	9.25
329.02	14.25
329.81	12.25
330.6	11.25
331.391	11.25
332.181	11.25
332.971	10.25
333.76	10.25
334.55	12.25
335.34	8.25
336.13	12.25
336.919	13.25
337.709	10.25
338.498	11.25
339.287	10.25
340.077	8.25
340.866	11.25
341.655	12.25
342.444	9.25
343.233	9.25
344.022	10.25
344.811	10.25
345.6	11.25
346.388	10.25
347.177	11.25
347.965	11.25
348.754	11.25
349.542	9.25
350.33	8.25
351.119	8.25
351.907	9.25
352.695	9.25
353.483	8.25
354.271	8.25
355.059	7.25
355.846	12.25
356.634	9.25
357.422	7.25
358.209	12.25
358.997	10.25
359.784	11.25
360.571	8.25
361.359	10.25
362.146	7.25
362.933	9.25
363.72	7.25
364.507	5.25
365.294	10.25
366.081	9.25
366.867	11.25
367.654	7.25
368.44	9.25
369.227	7.25
370.013	9.25
370.8	9.25
371.586	7.25
372.372	8.25
373.158	9.25
373.944	6.25
374.73	7.25
375.516	10.25
376.302	11.25
377.088	9.25
377.873	8.25
378.659	11.25
379.445	7.25
380.23	8.25
381.015	8.25
381.801	10.25
382.586	12.25
383.371	10.25
384.156	11.25
384.941	11.25
385.726	11.25
386.511	9.25
387.296	9.25
388.08	10.25
388.865	9.25
389.649	8.25
390.434	9.25
391.218	9.25
392.003	11.25
392.787	11.25
393.571	10.25
394.355	11.25
395.139	9.25
395.923	10.25
396.707	9.25
397.491	9.25
398.274	10.25
399.058	12.25
399.842	12.25
400.625	12.25
401.408	13.25
402.192	13.25
402.975	10.25
403.758	13.25
404.541	11.25
405.324	12.25
406.107	10.25
406.89	12.25
407.673	12.25
408.456	13.25
409.238	13.25
410.021	14.25
410.803	15.25
411.586	13.25
412.368	14.25
413.151	13.25
413.933	14.25
414.715	15.25
415.497	15.25
416.279	13.25
417.061	14.25
417.843	13.25
418.624	18.25
419.406	17.25
420.188	20.25
420.969	18.25
421.751	19.25
422.532	18.25
423.313	20.25
424.095	20.25
424.876	21.25
425.657	21.25
426.438	21.25
427.219	22.25
428	23.25
428.78	21.25
429.561	22.25
430.342	26.25
431.122	27.25
431.903	26.25
432.683	28.25
433.464	27.25
434.244	26.25
435.024	32.25
435.804	32.25
436.584	36.25
437.364	35.25
438.144	39.25
438.924	42.25
439.704	45.25
440.483	44.25
441.263	49.25
442.042	51.25
442.822	52.25
443.601	59.25
444.38	57.25
445.16	70.25
445.939	72.25
446.718	77.25
447.497	84.25
448.276	94.25
449.054	101.25
449.833	114.25
450.612	119.25
451.391	132.25
452.169	152.25
452.948	160.25
453.726	180.25
454.504	207.25
455.282	219.25
456.061	243.25
456.839	270.25
457.617	304.25
458.395	338.25
459.172	381.25
459.95	421.25
460.728	475.25
461.506	521.25
462.283	583.25
463.061	653.25
463.838	720.25
464.615	810.25
465.393	897.25
466.17	993.25
466.947	1123.25
467.724	1236.25
468.501	1361.25
469.278	1519.25
470.055	1688.25
470.831	1868.25
471.608	2073.25
472.385	2282.25
473.161	2508.25
473.938	2781.25
474.714	3051.25
475.49	3330.25
476.266	3684.25
477.043	4041.25
477.819	4444.25
478.595	4864.25
479.371	5294.25
480.146	5798.25
480.922	6336.25
481.698	6943.25
482.473	7517.25
483.249	8217.25
484.024	8900.25
484.8	9723.25
485.575	10578.25
486.35	11444.25
487.126	12442.25
487.901	13503.25
488.676	14597.25
489.451	15885.25
490.225	17071.25
491	18421.25
491.775	19757.25
492.55	21272.25
493.324	22754.25
494.099	24184.25
494.873	25815.25
495.647	27421.25
496.422	29014.25
497.196	30612.25
497.97	32144.25
498.744	33590.25
499.518	34971.25
500.292	36224.25
501.066	37435.25
501.839	38461.25
502.613	39270.25
503.387	39999.25
504.16	40588.25
504.934	40817.25
505.707	40895.25
506.48	40859.25
507.253	40525.25
508.027	39923.25
508.8	39238.25
509.573	38449.25
510.346	37513.25
511.118	36351.25
511.891	35414.25
512.664	34263.25
513.437	32997.25
514.209	31640.25
514.982	30478.25
515.754	29281.25
516.526	28031.25
517.298	26910.25
518.071	25860.25
518.843	24729.25
519.615	23731.25
520.387	22824.25
521.159	22028.25
521.93	21034.25
522.702	20164.25
523.474	19382.25
524.245	18620.25
525.017	17837.25
525.788	17031.25
526.56	16334.25
527.331	15550.25
528.102	14815.25
528.873	14101.25
529.644	13461.25
530.415	12776.25
531.186	12148.25
531.957	11518.25
532.728	10965.25
533.498	10343.25
534.269	9777.25
535.039	9263.25
535.81	8800.25
536.58	8313.25
537.351	7872.25
538.121	7444.25
538.891	7048.25
539.661	6657.25
540.431	6325.25
541.201	5970.25
541.971	5662.25
542.741	5381.25
543.51	5050.25
544.28	4821.25
545.05	4572.25
545.819	4345.25
546.588	4134.25
547.358	3948.25
548.127	3747.25
548.896	3552.25
549.665	3398.25
550.434	3189.25
551.203	3036.25
551.972	2900.25
552.741	2737.25
553.51	2581.25
554.278	2438.25
555.047	2310.25
555.815	2185.25
556.584	2076.25
557.352	1938.25
558.121	1834.25
558.889	1737.25
559.657	1649.25
560.425	1545.25
561.193	1464.25
561.961	1382.25
562.729	1314.25
563.496	1236.25
564.264	1174.25
565.032	1119.25
565.799	1058.25
566.567	991.25
567.334	935.25
568.101	891.25
568.869	841.25
569.636	787.25
570.403	754.25
571.17	713.25
571.937	675.25
572.704	628.25
573.471	594.25
574.237	554.25
575.004	527.25
575.771	505.25
576.537	470.25
577.303	445.25
578.07	415.25
578.836	396.25
579.602	377.25
580.368	351.25
581.134	336.25
581.9	322.25
582.666	305.25
583.432	289.25
584.198	272.25
584.964	260.25
585.729	245.25
586.495	227.25
587.26	220.25
588.025	208.25
588.791	198.25
589.556	195.25
590.321	178.25
591.086	171.25
591.851	166.25
592.616	150.25
593.381	150.25
594.146	141.25
594.911	134.25
595.675	124.25
596.44	119.25
597.204	121.25
597.969	108.25
598.733	108.25
599.497	99.25
600.261	97.25
601.025	92.25
601.79	92.25
602.553	87.25
603.317	82.25
604.081	78.25
604.845	76.25
605.609	72.25
606.372	71.25
607.136	69.25
607.899	63.25
608.662	61.25
609.426	60.25
610.189	53.25
610.952	56.25
611.715	52.25
612.478	53.25
613.241	50.25
614.004	47.25
614.767	44.25
615.529	46.25
616.292	42.25
617.055	40.25
617.817	42.25
618.579	39.25
619.342	40.25
620.104	34.25
620.866	34.25
621.628	33.25
622.39	34.25
623.152	30.25
623.914	33.25
624.676	30.25
625.438	29.25
626.199	27.25
626.961	27.25
627.722	27.25
628.484	26.25
629.245	26.25
630.006	25.25
630.768	22.25
631.529	21.25
632.29	23.25
633.051	21.25
633.812	21.25
634.573	20.25
635.333	18.25
636.094	22.25
636.855	19.25
637.615	17.25
638.376	18.25
639.136	19.25
639.896	14.25
640.657	17.25
641.417	18.25
642.177	14.25
642.937	15.25
643.697	12.25
644.457	14.25
645.216	15.25
645.976	15.25
646.736	13.25
647.495	14.25
648.255	12.25
649.014	9.25
649.774	13.25
650.533	16.25
651.292	11.25
652.051	14.25
652.81	12.25
653.569	13.25
654.328	13.25
655.087	10.25
655.846	12.25
656.604	11.25
657.363	12.25
658.121	11.25
658.88	11.25
659.638	10.25
660.397	11.25
661.155	11.25
661.913	9.25
662.671	9.25
663.429	8.25
664.187	10.25
664.945	9.25
665.703	8.25
666.46	8.25
667.218	9.25
667.976	10.25
668.733	7.25
669.49	7.25
670.248	11.25
671.005	10.25
671.762	7.25
672.519	7.25
673.276	8.25
674.033	9.25
674.79	7.25
675.547	7.25
676.304	7.25
677.06	8.25
677.817	7.25
678.574	7.25
679.33	7.25
680.086	9.25
680.843	8.25
681.599	5.25
682.355	5.25
683.111	9.25
683.867	7.25
684.623	9.25
685.379	9.25
686.135	7.25
686.89	7.25
687.646	5.25
688.402	10.25
689.157	7.25
689.912	9.25
690.668	8.25
691.423	7.25
692.178	7.25
692.933	7.25
693.688	6.25
694.443	6.25
695.198	6.25
695.953	7.25
696.708	6.25
697.462	7.25
698.217	7.25
698.972	5.25
699.726	8.25
700.48	5.25
701.235	7.25
701.989	5.25
702.743	5.25
703.497	4.25
704.251	8.25
705.005	7.25
705.759	7.25
706.513	5.25
707.266	4.25
708.02	8.25
708.774	3.25
709.527	7.25
710.28	6.25
711.034	5.25
711.787	5.25
712.54	7.25
713.293	7.25
714.046	8.25
714.799	7.25
715.552	5.25
716.305	6.25
717.058	7.25
717.81	7.25
718.563	7.25
719.315	9.25
720.068	7.25
720.82	7.25
721.573	7.25
722.325	7.25
723.077	7.25
723.829	7.25
724.581	5.25
725.333	8.25
726.085	7.25
726.836	9.25
727.588	7.25
728.34	7.25
729.091	8.25
729.843	7.25
730.594	7.25
731.346	7.25
732.097	9.25
732.848	8.25
733.599	9.25
734.35	8.25
735.101	6.25
735.852	8.25
736.603	7.25
737.354	7.25
738.104	5.25
738.855	7.25
739.605	7.25
740.356	9.25
741.106	9.25
741.856	7.25
742.607	7.25
743.357	9.25
744.107	9.25
744.857	11.25
745.607	8.25
746.357	9.25
747.106	9.25
747.856	9.25
748.606	9.25
749.355	11.25
750.105	7.25
750.854	9.25
751.603	10.25
752.353	9.25
753.102	10.25
753.851	8.25
754.6	11.25
755.349	9.25
756.098	10.25
756.847	10.25
757.595	8.25
758.344	12.25
759.093	10.25
759.841	10.25
760.589	9.25
761.338	9.25
762.086	11.25
762.834	9.25
763.582	12.25
764.331	12.25
765.079	12.25
765.826	12.25
766.574	10.25
767.322	12.25
768.07	14.25
768.817	13.25
769.565	13.25
770.312	13.25
771.06	14.25
771.807	11.25
772.554	14.25
773.302	13.25
774.049	12.25
774.796	11.25
775.543	12.25
776.29	13.25
777.036	13.25
777.783	12.25
778.53	13.25
779.276	14.25
780.023	14.25
780.769	14.25
781.516	13.25
782.262	14.25
783.008	13.25
783.754	8.25
784.5	11.25
785.246	13.25
785.992	14.25
786.738	12.25
787.484	14.25
788.23	15.25
788.975	12.25
789.721	14.25
790.466	14.25
791.212	13.25
791.957	13.25
792.702	14.25
793.447	13.25
794.193	11.25
794.938	13.25
795.683	12.25
796.427	12.25
797.172	11.25
797.917	13.25
798.662	11.25
799.406	10.25
800.151	11.25
800.895	9.25
801.64	11.25
802.384	11.25
803.128	11.25
803.872	11.25
804.616	10.25
805.36	12.25
806.104	12.25
806.848	9.25
807.592	9.25
808.336	7.25
809.079	9.25
809.823	10.25
810.566	8.25
811.31	7.25
812.053	7.25
812.796	9.25
813.539	9.25
814.283	7.25
815.026	5.25
815.769	7.25
816.511	7.25
817.254	8.25
817.997	5.25
818.74	8.25
819.482	8.25
820.225	10.25
820.967	7.25
821.71	7.25
822.452	7.25
823.194	3.25
823.936	6.25
824.678	5.25
825.42	5.25
826.162	8.25
826.904	5.25
827.646	7.25
828.388	5.25
829.129	7.25
829.871	7.25
830.612	5.25
831.354	7.25
832.095	4.25
832.836	4.25
833.577	3.25
834.319	7.25
835.06	5.25
835.801	5.25
836.542	4.25
837.282	5.25
838.023	4.25
838.764	4.25
839.504	7.25
840.245	7.25
840.985	6.25
841.726	5.25
842.466	5.25
843.206	4.25
843.946	4.25
844.687	5.25
845.427	7.25
846.166	7.25
846.906	4.25
847.646	4.25
848.386	5.25
849.125	3.25
849.865	7.25
850.605	4.25
851.344	5.25
852.083	5.25
852.823	3.25
853.562	5.25
854.301	3.25
855.04	2.25
855.779	3.25
856.518	4.25
857.257	5.25
857.995	5.25
858.734	1.25
859.473	3.25
860.211	3.25
860.95	2.25
861.688	2.25
862.426	2.25
863.165	6.25
863.903	6.25
864.641	3.25
865.379	4.25
866.117	2.25
866.855	3.25
867.593	0.25
868.33	2.25
869.068	2.25
869.806	3.25
870.543	1.25
871.28	2.25
872.018	3.25
872.755	2.25
873.492	4.25
874.229	1.25
874.967	1.25
875.703	3.25
876.44	1.25
877.177	3.25
877.914	2.25
878.651	2.25
879.387	0.25
880.124	1.25
880.86	1.25
881.597	2.25
882.333	1.25
883.069	-0.75
883.806	3.25
884.542	2.25
885.278	2.25
886.014	2.25
886.749	1.25
887.485	3.25
888.221	1.25
888.957	0.25
889.692	2.25
890.428	1.25
891.163	0.25
891.899	2.25
892.634	5.25
893.369	3.25
894.104	1.25
894.839	2.25
895.574	1.25
896.309	3.25
897.044	0.25
897.779	3.25
898.514	3.25
899.248	1.25
899.983	1.25
900.717	4.25
901.452	2.25
902.186	-0.75
902.92	1.25
903.654	0.25
904.389	0.25
905.123	2.25
905.857	2.25
906.59	3.25
907.324	3.25
908.058	1.25
908.792	-0.75
909.525	1.25
910.259	0.25
910.992	1.25
911.726	1.25
912.459	-1.75
913.192	1.25
913.925	1.25
914.658	1.25
915.391	3.25
916.124	1.25
916.857	2.25
917.59	2.25
918.323	1.25
919.055	0.25
919.788	1.25
920.521	-0.75
921.253	1.25
921.985	3.25
922.718	0.25
923.45	-1.75
924.182	-0.75
924.914	1.25
925.646	-0.75
926.378	1.25
927.11	0.25
927.841	0.25
928.573	1.25
929.305	-0.75
930.036	1.25
930.768	-1.75
931.499	2.25
932.23	1.25
932.962	-0.75
933.693	2.25
934.424	1.25
935.155	2.25
935.886	1.25
936.617	1.25
937.348	-0.75
938.078	1.25
938.809	1.25
939.54	2.25
940.27	3.25
941.001	1.25
941.731	0.25
942.461	3.25
943.191	2.25
943.922	1.25
944.652	1.25
945.382	0.25
946.112	0.25
946.841	1.25
947.571	1.25
948.301	-1.75
949.031	1.25
949.76	2.25
950.49	2.25
951.219	0.25
951.948	2.25
952.678	0.25
953.407	-0.75
954.136	4.25
954.865	1.25
955.594	0.25
956.323	-0.75
957.052	1.25
957.78	1.25
958.509	0.25
959.238	1.25
959.966	-1.75
960.695	0.25
961.423	0.25
962.151	-0.75
962.88	-2.75
963.608	2.25
964.336	-1.75
965.064	2.25
965.792	2.25
966.52	-0.75
967.247	2.25
967.975	0.25
968.703	1.25
969.43	3.25
970.158	3.25
970.885	-0.75
971.613	-0.75
972.34	0.25
973.067	1.25
973.794	0.25
974.521	0.25
975.248	1.25
975.975	1.25
976.702	1.25
977.429	1.25
978.156	1.25
978.882	1.25
979.609	-0.75
980.335	2.25
981.062	-1.75
981.788	1.25
982.514	0.25
983.24	-0.75
983.967	3.25
984.693	1.25
985.419	1.25
986.144	1.25
986.87	1.25
987.596	1.25
988.322	-0.75
989.047	1.25
989.773	1.25
990.498	-0.75
991.224	0.25
991.949	1.25
992.674	1.25
993.399	-1.75
994.124	0.25
994.849	0.25
995.574	1.25
996.299	1.25
997.024	2.25
997.749	0.25
998.473	0.25
999.198	0.25
999.922	1.25
1000.647	0.25
1001.371	5.25
1002.095	-0.75
1002.82	-1.75
1003.544	0.25
1004.268	4.25
1004.992	1.25
1005.716	2.25
1006.439	4.25
1007.163	2.25
1007.887	3.25
1008.611	-0.75
1009.334	0.25
1010.058	0.25
1010.781	-0.75
1011.504	2.25
1012.228	0.25
1012.951	-0.75
1013.674	-0.75
1014.397	-0.75
1015.12	-0.75
