节点500_565_QEPB04081__317__09-55-41-485.txt的数据

Date: Thu Nov 13 09:55:41 CST 2025
User: PC
Spectrometer: QEPB0408
触发模式: 0
积分时间 (秒): 1.000000E-2
Scans to average: 1
启用暗噪声校正: true
启用非线性校正: false
滑动平均宽度: 0
X轴模式: Wavelengths
Number of Pixels in Spectrum: 1044
>>>>>Begin Spectral Data<<<<<
220.843	1.5
221.644	5.5
222.444	3.5
223.244	1.5
224.045	4.5
224.845	2.5
225.645	5.5
226.445	5.5
227.245	5.5
228.045	7.5
228.845	3.5
229.645	6.5
230.444	4.5
231.244	5.5
232.043	6.5
232.843	4.5
233.642	5.5
234.442	4.5
235.241	6.5
236.04	5.5
236.839	10.5
237.638	8.5
238.437	7.5
239.236	8.5
240.035	8.5
240.833	8.5
241.632	7.5
242.43	9.5
243.229	10.5
244.027	8.5
244.826	9.5
245.624	7.5
246.422	12.5
247.22	8.5
248.018	9.5
248.816	9.5
249.614	13.5
250.412	11.5
251.21	10.5
252.007	13.5
252.805	11.5
253.602	12.5
254.4	12.5
255.197	13.5
255.994	14.5
256.791	14.5
257.589	17.5
258.386	13.5
259.183	15.5
259.979	15.5
260.776	19.5
261.573	14.5
262.37	16.5
263.166	17.5
263.963	17.5
264.759	16.5
265.556	20.5
266.352	18.5
267.148	20.5
267.944	19.5
268.74	21.5
269.536	22.5
270.332	23.5
271.128	24.5
271.924	24.5
272.719	22.5
273.515	27.5
274.311	23.5
275.106	26.5
275.901	24.5
276.697	25.5
277.492	24.5
278.287	25.5
279.082	26.5
279.877	24.5
280.672	27.5
281.467	26.5
282.262	26.5
283.056	25.5
283.851	28.5
284.646	28.5
285.44	26.5
286.234	26.5
287.029	25.5
287.823	24.5
288.617	26.5
289.411	24.5
290.205	25.5
290.999	26.5
291.793	22.5
292.587	24.5
293.381	23.5
294.174	24.5
294.968	23.5
295.761	23.5
296.555	25.5
297.348	22.5
298.141	23.5
298.935	24.5
299.728	20.5
300.521	19.5
301.314	21.5
302.107	18.5
302.899	17.5
303.692	18.5
304.485	17.5
305.277	15.5
306.07	17.5
306.862	18.5
307.655	16.5
308.447	16.5
309.239	17.5
310.031	17.5
310.823	17.5
311.615	13.5
312.407	14.5
313.199	14.5
313.991	11.5
314.783	15.5
315.574	12.5
316.366	12.5
317.157	13.5
317.949	13.5
318.74	10.5
319.531	11.5
320.322	12.5
321.113	11.5
321.904	8.5
322.695	8.5
323.486	11.5
324.277	9.5
325.068	12.5
325.858	9.5
326.649	11.5
327.439	10.5
328.23	7.5
329.02	9.5
329.81	8.5
330.6	7.5
331.391	10.5
332.181	10.5
332.971	11.5
333.76	9.5
334.55	10.5
335.34	10.5
336.13	8.5
336.919	8.5
337.709	8.5
338.498	9.5
339.287	7.5
340.077	8.5
340.866	6.5
341.655	7.5
342.444	9.5
343.233	7.5
344.022	10.5
344.811	9.5
345.6	9.5
346.388	8.5
347.177	10.5
347.965	10.5
348.754	10.5
349.542	10.5
350.33	8.5
351.119	8.5
351.907	9.5
352.695	7.5
353.483	8.5
354.271	8.5
355.059	5.5
355.846	7.5
356.634	8.5
357.422	8.5
358.209	8.5
358.997	7.5
359.784	8.5
360.571	9.5
361.359	6.5
362.146	9.5
362.933	8.5
363.72	4.5
364.507	7.5
365.294	7.5
366.081	9.5
366.867	8.5
367.654	7.5
368.44	8.5
369.227	7.5
370.013	7.5
370.8	7.5
371.586	10.5
372.372	6.5
373.158	9.5
373.944	9.5
374.73	7.5
375.516	7.5
376.302	8.5
377.088	6.5
377.873	8.5
378.659	6.5
379.445	4.5
380.23	7.5
381.015	8.5
381.801	8.5
382.586	8.5
383.371	8.5
384.156	8.5
384.941	6.5
385.726	7.5
386.511	8.5
387.296	8.5
388.08	7.5
388.865	6.5
389.649	11.5
390.434	7.5
391.218	8.5
392.003	5.5
392.787	8.5
393.571	10.5
394.355	9.5
395.139	10.5
395.923	7.5
396.707	9.5
397.491	10.5
398.274	10.5
399.058	13.5
399.842	10.5
400.625	10.5
401.408	9.5
402.192	10.5
402.975	12.5
403.758	10.5
404.541	13.5
405.324	10.5
406.107	12.5
406.89	13.5
407.673	11.5
408.456	12.5
409.238	12.5
410.021	13.5
410.803	10.5
411.586	13.5
412.368	14.5
413.151	13.5
413.933	14.5
414.715	16.5
415.497	15.5
416.279	11.5
417.061	16.5
417.843	13.5
418.624	13.5
419.406	13.5
420.188	16.5
420.969	18.5
421.751	16.5
422.532	18.5
423.313	16.5
424.095	20.5
424.876	18.5
425.657	18.5
426.438	19.5
427.219	21.5
428	17.5
428.78	21.5
429.561	21.5
430.342	21.5
431.122	20.5
431.903	26.5
432.683	26.5
433.464	26.5
434.244	27.5
435.024	30.5
435.804	26.5
436.584	30.5
437.364	33.5
438.144	34.5
438.924	36.5
439.704	36.5
440.483	42.5
441.263	42.5
442.042	47.5
442.822	49.5
443.601	54.5
444.38	57.5
445.16	60.5
445.939	69.5
446.718	72.5
447.497	82.5
448.276	84.5
449.054	95.5
449.833	106.5
450.612	118.5
451.391	124.5
452.169	136.5
452.948	151.5
453.726	171.5
454.504	186.5
455.282	200.5
456.061	228.5
456.839	260.5
457.617	286.5
458.395	324.5
459.172	366.5
459.95	395.5
460.728	449.5
461.506	493.5
462.283	545.5
463.061	620.5
463.838	684.5
464.615	760.5
465.393	856.5
466.17	940.5
466.947	1046.5
467.724	1168.5
468.501	1290.5
469.278	1444.5
470.055	1585.5
470.831	1758.5
471.608	1959.5
472.385	2151.5
473.161	2375.5
473.938	2623.5
474.714	2870.5
475.49	3159.5
476.266	3468.5
477.043	3825.5
477.819	4188.5
478.595	4577.5
479.371	5034.5
480.146	5497.5
480.922	6005.5
481.698	6530.5
482.473	7108.5
483.249	7760.5
484.024	8407.5
484.8	9210.5
485.575	9982.5
486.35	10804.5
487.126	11761.5
487.901	12782.5
488.676	13825.5
489.451	14986.5
490.225	16148.5
491	17426.5
491.775	18672.5
492.55	20119.5
493.324	21551.5
494.099	22874.5
494.873	24396.5
495.647	26022.5
496.422	27481.5
497.196	28979.5
497.97	30409.5
498.744	31793.5
499.518	33028.5
500.292	34291.5
501.066	35376.5
501.839	36372.5
502.613	37194.5
503.387	37770.5
504.16	38395.5
504.934	38642.5
505.707	38697.5
506.48	38561.5
507.253	38353.5
508.027	37724.5
508.8	37106.5
509.573	36223.5
510.346	35373.5
511.118	34399.5
511.891	33381.5
512.664	32252.5
513.437	31110.5
514.209	29853.5
514.982	28712.5
515.754	27652.5
516.526	26412.5
517.298	25351.5
518.071	24325.5
518.843	23357.5
519.615	22348.5
520.387	21465.5
521.159	20692.5
521.93	19828.5
522.702	19001.5
523.474	18212.5
524.245	17492.5
525.017	16798.5
525.788	16047.5
526.56	15317.5
527.331	14659.5
528.102	14029.5
528.873	13347.5
529.644	12645.5
530.415	11995.5
531.186	11381.5
531.957	10882.5
532.728	10272.5
533.498	9766.5
534.269	9206.5
535.039	8700.5
535.81	8254.5
536.58	7834.5
537.351	7409.5
538.121	6966.5
538.891	6607.5
539.661	6256.5
540.431	5964.5
541.201	5631.5
541.971	5322.5
542.741	5033.5
543.51	4748.5
544.28	4547.5
545.05	4312.5
545.819	4103.5
546.588	3901.5
547.358	3711.5
548.127	3525.5
548.896	3356.5
549.665	3201.5
550.434	3013.5
551.203	2886.5
551.972	2710.5
552.741	2578.5
553.51	2439.5
554.278	2292.5
555.047	2169.5
555.815	2050.5
556.584	1936.5
557.352	1835.5
558.121	1730.5
558.889	1622.5
559.657	1536.5
560.425	1452.5
561.193	1378.5
561.961	1302.5
562.729	1224.5
563.496	1156.5
564.264	1097.5
565.032	1047.5
565.799	992.5
566.567	931.5
567.334	894.5
568.101	836.5
568.869	779.5
569.636	751.5
570.403	706.5
571.17	658.5
571.937	621.5
572.704	600.5
573.471	558.5
574.237	522.5
575.004	497.5
575.771	466.5
576.537	442.5
577.303	415.5
578.07	389.5
578.836	370.5
579.602	352.5
580.368	331.5
581.134	314.5
581.9	296.5
582.666	288.5
583.432	266.5
584.198	252.5
584.964	248.5
585.729	231.5
586.495	215.5
587.26	201.5
588.025	194.5
588.791	183.5
589.556	174.5
590.321	168.5
591.086	158.5
591.851	144.5
592.616	146.5
593.381	135.5
594.146	128.5
594.911	121.5
595.675	116.5
596.44	113.5
597.204	110.5
597.969	106.5
598.733	101.5
599.497	96.5
600.261	90.5
601.025	89.5
601.79	83.5
602.553	81.5
603.317	76.5
604.081	72.5
604.845	66.5
605.609	70.5
606.372	64.5
607.136	62.5
607.899	59.5
608.662	55.5
609.426	54.5
610.189	54.5
610.952	48.5
611.715	49.5
612.478	47.5
613.241	45.5
614.004	43.5
614.767	40.5
615.529	40.5
616.292	40.5
617.055	40.5
617.817	39.5
618.579	35.5
619.342	36.5
620.104	33.5
620.866	31.5
621.628	33.5
622.39	31.5
623.152	28.5
623.914	28.5
624.676	24.5
625.438	28.5
626.199	24.5
626.961	28.5
627.722	24.5
628.484	22.5
629.245	22.5
630.006	23.5
630.768	22.5
631.529	20.5
632.29	23.5
633.051	20.5
633.812	17.5
634.573	16.5
635.333	17.5
636.094	17.5
636.855	15.5
637.615	18.5
638.376	15.5
639.136	15.5
639.896	17.5
640.657	17.5
641.417	15.5
642.177	11.5
642.937	15.5
643.697	14.5
644.457	13.5
645.216	12.5
645.976	12.5
646.736	13.5
647.495	12.5
648.255	13.5
649.014	11.5
649.774	11.5
650.533	11.5
651.292	11.5
652.051	9.5
652.81	11.5
653.569	8.5
654.328	9.5
655.087	11.5
655.846	11.5
656.604	10.5
657.363	10.5
658.121	8.5
658.88	8.5
659.638	7.5
660.397	11.5
661.155	7.5
661.913	9.5
662.671	7.5
663.429	8.5
664.187	9.5
664.945	8.5
665.703	9.5
666.46	9.5
667.218	10.5
667.976	7.5
668.733	6.5
669.49	7.5
670.248	6.5
671.005	6.5
671.762	7.5
672.519	6.5
673.276	6.5
674.033	7.5
674.79	6.5
675.547	5.5
676.304	6.5
677.06	6.5
677.817	4.5
678.574	8.5
679.33	6.5
680.086	8.5
680.843	4.5
681.599	8.5
682.355	6.5
683.111	6.5
683.867	8.5
684.623	9.5
685.379	6.5
686.135	4.5
686.89	8.5
687.646	5.5
688.402	6.5
689.157	5.5
689.912	3.5
690.668	7.5
691.423	3.5
692.178	6.5
692.933	7.5
693.688	6.5
694.443	6.5
695.198	4.5
695.953	4.5
696.708	7.5
697.462	7.5
698.217	5.5
698.972	6.5
699.726	5.5
700.48	7.5
701.235	5.5
701.989	4.5
702.743	6.5
703.497	5.5
704.251	7.5
705.005	6.5
705.759	3.5
706.513	7.5
707.266	4.5
708.02	6.5
708.774	5.5
709.527	6.5
710.28	6.5
711.034	5.5
711.787	6.5
712.54	6.5
713.293	6.5
714.046	5.5
714.799	8.5
715.552	4.5
716.305	6.5
717.058	4.5
717.81	6.5
718.563	8.5
719.315	6.5
720.068	7.5
720.82	6.5
721.573	3.5
722.325	5.5
723.077	4.5
723.829	6.5
724.581	5.5
725.333	5.5
726.085	4.5
726.836	6.5
727.588	4.5
728.34	3.5
729.091	6.5
729.843	5.5
730.594	7.5
731.346	7.5
732.097	5.5
732.848	5.5
733.599	6.5
734.35	8.5
735.101	7.5
735.852	5.5
736.603	6.5
737.354	5.5
738.104	5.5
738.855	4.5
739.605	7.5
740.356	6.5
741.106	6.5
741.856	7.5
742.607	5.5
743.357	7.5
744.107	6.5
744.857	12.5
745.607	6.5
746.357	8.5
747.106	9.5
747.856	8.5
748.606	9.5
749.355	8.5
750.105	9.5
750.854	7.5
751.603	8.5
752.353	9.5
753.102	7.5
753.851	8.5
754.6	10.5
755.349	9.5
756.098	7.5
756.847	11.5
757.595	9.5
758.344	9.5
759.093	8.5
759.841	6.5
760.589	8.5
761.338	7.5
762.086	11.5
762.834	10.5
763.582	12.5
764.331	11.5
765.079	8.5
765.826	10.5
766.574	10.5
767.322	11.5
768.07	13.5
768.817	10.5
769.565	9.5
770.312	12.5
771.06	9.5
771.807	9.5
772.554	12.5
773.302	9.5
774.049	9.5
774.796	12.5
775.543	9.5
776.29	11.5
777.036	11.5
777.783	13.5
778.53	10.5
779.276	14.5
780.023	10.5
780.769	11.5
781.516	12.5
782.262	12.5
783.008	11.5
783.754	10.5
784.5	14.5
785.246	12.5
785.992	11.5
786.738	12.5
787.484	11.5
788.23	12.5
788.975	11.5
789.721	12.5
790.466	11.5
791.212	12.5
791.957	12.5
792.702	12.5
793.447	11.5
794.193	10.5
794.938	11.5
795.683	9.5
796.427	11.5
797.172	9.5
797.917	9.5
798.662	8.5
799.406	10.5
800.151	8.5
800.895	8.5
801.64	8.5
802.384	9.5
803.128	8.5
803.872	8.5
804.616	6.5
805.36	9.5
806.104	8.5
806.848	11.5
807.592	10.5
808.336	9.5
809.079	9.5
809.823	8.5
810.566	8.5
811.31	8.5
812.053	6.5
812.796	7.5
813.539	5.5
814.283	6.5
815.026	4.5
815.769	5.5
816.511	5.5
817.254	7.5
817.997	7.5
818.74	5.5
819.482	7.5
820.225	4.5
820.967	7.5
821.71	5.5
822.452	4.5
823.194	6.5
823.936	7.5
824.678	6.5
825.42	5.5
826.162	6.5
826.904	4.5
827.646	3.5
828.388	2.5
829.129	5.5
829.871	5.5
830.612	4.5
831.354	4.5
832.095	4.5
832.836	4.5
833.577	5.5
834.319	3.5
835.06	3.5
835.801	3.5
836.542	6.5
837.282	1.5
838.023	4.5
838.764	5.5
839.504	6.5
840.245	5.5
840.985	2.5
841.726	3.5
842.466	3.5
843.206	5.5
843.946	4.5
844.687	6.5
845.427	3.5
846.166	4.5
846.906	1.5
847.646	2.5
848.386	3.5
849.125	3.5
849.865	3.5
850.605	4.5
851.344	4.5
852.083	2.5
852.823	4.5
853.562	4.5
854.301	1.5
855.04	4.5
855.779	2.5
856.518	1.5
857.257	4.5
857.995	3.5
858.734	1.5
859.473	5.5
860.211	3.5
860.95	3.5
861.688	1.5
862.426	3.5
863.165	1.5
863.903	2.5
864.641	0.5
865.379	3.5
866.117	0.5
866.855	3.5
867.593	3.5
868.33	2.5
869.068	1.5
869.806	1.5
870.543	1.5
871.28	1.5
872.018	2.5
872.755	0.5
873.492	1.5
874.229	0.5
874.967	2.5
875.703	1.5
876.44	2.5
877.177	1.5
877.914	1.5
878.651	-0.5
879.387	-0.5
880.124	-0.5
880.86	0.5
881.597	2.5
882.333	2.5
883.069	1.5
883.806	0.5
884.542	2.5
885.278	0.5
886.014	0.5
886.749	0.5
887.485	0.5
888.221	1.5
888.957	0.5
889.692	0.5
890.428	2.5
891.163	1.5
891.899	-0.5
892.634	1.5
893.369	0.5
894.104	0.5
894.839	1.5
895.574	1.5
896.309	2.5
897.044	0.5
897.779	2.5
898.514	0.5
899.248	1.5
899.983	-1.5
900.717	-0.5
901.452	1.5
902.186	1.5
902.92	-0.5
903.654	-0.5
904.389	1.5
905.123	-0.5
905.857	-0.5
906.59	0.5
907.324	-0.5
908.058	0.5
908.792	0.5
909.525	2.5
910.259	-0.5
910.992	0.5
911.726	0.5
912.459	-0.5
913.192	1.5
913.925	0.5
914.658	2.5
915.391	2.5
916.124	0.5
916.857	-1.5
917.59	1.5
918.323	1.5
919.055	-1.5
919.788	-1.5
920.521	1.5
921.253	-0.5
921.985	0.5
922.718	-0.5
923.45	1.5
924.182	-2.5
924.914	-0.5
925.646	0.5
926.378	0.5
927.11	2.5
927.841	-0.5
928.573	0.5
929.305	-2.5
930.036	1.5
930.768	0.5
931.499	1.5
932.23	2.5
932.962	1.5
933.693	-0.5
934.424	1.5
935.155	-0.5
935.886	0.5
936.617	1.5
937.348	-0.5
938.078	0.5
938.809	1.5
939.54	-0.5
940.27	0.5
941.001	0.5
941.731	1.5
942.461	-0.5
943.191	1.5
943.922	0.5
944.652	0.5
945.382	0.5
946.112	-0.5
946.841	-0.5
947.571	0.5
948.301	-1.5
949.031	-0.5
949.76	-0.5
950.49	-0.5
951.219	0.5
951.948	0.5
952.678	-0.5
953.407	1.5
954.136	-0.5
954.865	-2.5
955.594	0.5
956.323	-2.5
957.052	1.5
957.78	0.5
958.509	-1.5
959.238	-0.5
959.966	-1.5
960.695	-0.5
961.423	0.5
962.151	-0.5
962.88	-0.5
963.608	0.5
964.336	0.5
965.064	0.5
965.792	0.5
966.52	-0.5
967.247	2.5
967.975	0.5
968.703	-0.5
969.43	-0.5
970.158	0.5
970.885	-0.5
971.613	-1.5
972.34	-0.5
973.067	0.5
973.794	0.5
974.521	1.5
975.248	1.5
975.975	-2.5
976.702	0.5
977.429	0.5
978.156	0.5
978.882	0.5
979.609	-0.5
980.335	2.5
981.062	0.5
981.788	-0.5
982.514	3.5
983.24	-1.5
983.967	1.5
984.693	-0.5
985.419	-0.5
986.144	0.5
986.87	-0.5
987.596	0.5
988.322	1.5
989.047	0.5
989.773	0.5
990.498	-0.5
991.224	-0.5
991.949	-0.5
992.674	0.5
993.399	-1.5
994.124	-0.5
994.849	0.5
995.574	-0.5
996.299	0.5
997.024	-0.5
997.749	-1.5
998.473	-2.5
999.198	0.5
999.922	-0.5
1000.647	1.5
1001.371	3.5
1002.095	0.5
1002.82	0.5
1003.544	-1.5
1004.268	3.5
1004.992	1.5
1005.716	3.5
1006.439	4.5
1007.163	0.5
1007.887	1.5
1008.611	1.5
1009.334	0.5
1010.058	2.5
1010.781	1.5
1011.504	0.5
1012.228	-0.5
1012.951	-1.5
1013.674	-0.5
1014.397	0.5
1015.12	-1.5
