节点500_565_QEPB04081__344__09-56-08-432.txt的数据

Date: Thu Nov 13 09:56:08 CST 2025
User: PC
Spectrometer: QEPB0408
触发模式: 0
积分时间 (秒): 1.000000E-2
Scans to average: 1
启用暗噪声校正: true
启用非线性校正: false
滑动平均宽度: 0
X轴模式: Wavelengths
Number of Pixels in Spectrum: 1044
>>>>>Begin Spectral Data<<<<<
220.843	6.12
221.644	4.12
222.444	3.12
223.244	6.12
224.045	6.12
224.845	5.12
225.645	6.12
226.445	6.12
227.245	4.12
228.045	5.12
228.845	7.12
229.645	4.12
230.444	6.12
231.244	8.12
232.043	6.12
232.843	7.12
233.642	6.12
234.442	7.12
235.241	8.12
236.04	7.12
236.839	9.12
237.638	6.12
238.437	5.12
239.236	9.12
240.035	8.12
240.833	9.12
241.632	10.12
242.43	9.12
243.229	11.12
244.027	9.12
244.826	8.12
245.624	11.12
246.422	9.12
247.22	10.12
248.018	13.12
248.816	14.12
249.614	13.12
250.412	11.12
251.21	11.12
252.007	16.12
252.805	13.12
253.602	14.12
254.4	14.12
255.197	19.12
255.994	16.12
256.791	14.12
257.589	16.12
258.386	15.12
259.183	16.12
259.979	19.12
260.776	19.12
261.573	17.12
262.37	17.12
263.166	19.12
263.963	20.12
264.759	22.12
265.556	18.12
266.352	20.12
267.148	24.12
267.944	23.12
268.74	23.12
269.536	24.12
270.332	27.12
271.128	23.12
271.924	28.12
272.719	25.12
273.515	24.12
274.311	29.12
275.106	24.12
275.901	24.12
276.697	28.12
277.492	30.12
278.287	27.12
279.082	32.12
279.877	29.12
280.672	30.12
281.467	30.12
282.262	28.12
283.056	29.12
283.851	28.12
284.646	27.12
285.44	31.12
286.234	28.12
287.029	28.12
287.823	28.12
288.617	29.12
289.411	25.12
290.205	30.12
290.999	28.12
291.793	26.12
292.587	29.12
293.381	29.12
294.174	26.12
294.968	22.12
295.761	25.12
296.555	25.12
297.348	19.12
298.141	22.12
298.935	25.12
299.728	23.12
300.521	20.12
301.314	22.12
302.107	21.12
302.899	21.12
303.692	19.12
304.485	20.12
305.277	20.12
306.07	20.12
306.862	20.12
307.655	21.12
308.447	17.12
309.239	19.12
310.031	16.12
310.823	17.12
311.615	17.12
312.407	13.12
313.199	14.12
313.991	14.12
314.783	14.12
315.574	13.12
316.366	16.12
317.157	13.12
317.949	13.12
318.74	12.12
319.531	13.12
320.322	12.12
321.113	14.12
321.904	17.12
322.695	11.12
323.486	11.12
324.277	11.12
325.068	14.12
325.858	12.12
326.649	12.12
327.439	13.12
328.23	9.12
329.02	8.12
329.81	12.12
330.6	11.12
331.391	11.12
332.181	9.12
332.971	12.12
333.76	9.12
334.55	11.12
335.34	9.12
336.13	12.12
336.919	10.12
337.709	11.12
338.498	9.12
339.287	9.12
340.077	9.12
340.866	11.12
341.655	8.12
342.444	11.12
343.233	9.12
344.022	11.12
344.811	9.12
345.6	12.12
346.388	10.12
347.177	9.12
347.965	8.12
348.754	11.12
349.542	11.12
350.33	8.12
351.119	10.12
351.907	10.12
352.695	9.12
353.483	8.12
354.271	10.12
355.059	10.12
355.846	7.12
356.634	10.12
357.422	10.12
358.209	10.12
358.997	7.12
359.784	8.12
360.571	9.12
361.359	7.12
362.146	9.12
362.933	8.12
363.72	6.12
364.507	7.12
365.294	8.12
366.081	9.12
366.867	4.12
367.654	7.12
368.44	8.12
369.227	7.12
370.013	8.12
370.8	9.12
371.586	10.12
372.372	11.12
373.158	9.12
373.944	7.12
374.73	4.12
375.516	8.12
376.302	7.12
377.088	8.12
377.873	8.12
378.659	9.12
379.445	8.12
380.23	9.12
381.015	7.12
381.801	8.12
382.586	7.12
383.371	9.12
384.156	10.12
384.941	7.12
385.726	9.12
386.511	11.12
387.296	8.12
388.08	12.12
388.865	11.12
389.649	10.12
390.434	10.12
391.218	9.12
392.003	10.12
392.787	9.12
393.571	9.12
394.355	10.12
395.139	10.12
395.923	11.12
396.707	11.12
397.491	13.12
398.274	13.12
399.058	11.12
399.842	12.12
400.625	10.12
401.408	12.12
402.192	14.12
402.975	12.12
403.758	11.12
404.541	12.12
405.324	11.12
406.107	15.12
406.89	10.12
407.673	15.12
408.456	14.12
409.238	15.12
410.021	14.12
410.803	13.12
411.586	13.12
412.368	14.12
413.151	14.12
413.933	14.12
414.715	14.12
415.497	13.12
416.279	14.12
417.061	17.12
417.843	14.12
418.624	17.12
419.406	17.12
420.188	17.12
420.969	19.12
421.751	20.12
422.532	19.12
423.313	18.12
424.095	17.12
424.876	17.12
425.657	19.12
426.438	21.12
427.219	21.12
428	23.12
428.78	23.12
429.561	23.12
430.342	23.12
431.122	25.12
431.903	28.12
432.683	28.12
433.464	31.12
434.244	30.12
435.024	33.12
435.804	32.12
436.584	37.12
437.364	36.12
438.144	38.12
438.924	38.12
439.704	41.12
440.483	46.12
441.263	47.12
442.042	54.12
442.822	50.12
443.601	56.12
444.38	64.12
445.16	66.12
445.939	77.12
446.718	77.12
447.497	85.12
448.276	96.12
449.054	98.12
449.833	113.12
450.612	124.12
451.391	135.12
452.169	144.12
452.948	166.12
453.726	185.12
454.504	202.12
455.282	221.12
456.061	241.12
456.839	273.12
457.617	309.12
458.395	340.12
459.172	381.12
459.95	425.12
460.728	475.12
461.506	526.12
462.283	595.12
463.061	664.12
463.838	729.12
464.615	811.12
465.393	913.12
466.17	1012.12
466.947	1111.12
467.724	1252.12
468.501	1383.12
469.278	1520.12
470.055	1700.12
470.831	1877.12
471.608	2076.12
472.385	2282.12
473.161	2511.12
473.938	2773.12
474.714	3062.12
475.49	3354.12
476.266	3685.12
477.043	4042.12
477.819	4449.12
478.595	4859.12
479.371	5277.12
480.146	5764.12
480.922	6307.12
481.698	6927.12
482.473	7454.12
483.249	8132.12
484.024	8877.12
484.8	9650.12
485.575	10493.12
486.35	11349.12
487.126	12366.12
487.901	13379.12
488.676	14434.12
489.451	15695.12
490.225	16923.12
491	18213.12
491.775	19623.12
492.55	21056.12
493.324	22464.12
494.099	23916.12
494.873	25545.12
495.647	27129.12
496.422	28751.12
497.196	30288.12
497.97	31739.12
498.744	33258.12
499.518	34501.12
500.292	35911.12
501.066	37081.12
501.839	38123.12
502.613	38972.12
503.387	39696.12
504.16	40357.12
504.934	40636.12
505.707	40694.12
506.48	40627.12
507.253	40361.12
508.027	39840.12
508.8	39106.12
509.573	38337.12
510.346	37433.12
511.118	36377.12
511.891	35475.12
512.664	34247.12
513.437	33026.12
514.209	31745.12
514.982	30574.12
515.754	29399.12
516.526	28215.12
517.298	27001.12
518.071	25878.12
518.843	24835.12
519.615	23865.12
520.387	22899.12
521.159	22026.12
521.93	21156.12
522.702	20255.12
523.474	19453.12
524.245	18618.12
525.017	17925.12
525.788	17123.12
526.56	16373.12
527.331	15630.12
528.102	14898.12
528.873	14182.12
529.644	13503.12
530.415	12802.12
531.186	12175.12
531.957	11623.12
532.728	11055.12
533.498	10448.12
534.269	9887.12
535.039	9315.12
535.81	8854.12
536.58	8390.12
537.351	7927.12
538.121	7484.12
538.891	7082.12
539.661	6742.12
540.431	6361.12
541.201	6035.12
541.971	5684.12
542.741	5393.12
543.51	5143.12
544.28	4827.12
545.05	4597.12
545.819	4394.12
546.588	4191.12
547.358	3978.12
548.127	3777.12
548.896	3579.12
549.665	3426.12
550.434	3220.12
551.203	3070.12
551.972	2903.12
552.741	2749.12
553.51	2610.12
554.278	2468.12
555.047	2323.12
555.815	2202.12
556.584	2088.12
557.352	1969.12
558.121	1861.12
558.889	1744.12
559.657	1653.12
560.425	1557.12
561.193	1480.12
561.961	1404.12
562.729	1325.12
563.496	1259.12
564.264	1191.12
565.032	1116.12
565.799	1043.12
566.567	1005.12
567.334	942.12
568.101	903.12
568.869	848.12
569.636	809.12
570.403	761.12
571.17	703.12
571.937	674.12
572.704	629.12
573.471	607.12
574.237	571.12
575.004	533.12
575.771	502.12
576.537	467.12
577.303	444.12
578.07	424.12
578.836	395.12
579.602	371.12
580.368	356.12
581.134	339.12
581.9	314.12
582.666	301.12
583.432	284.12
584.198	273.12
584.964	263.12
585.729	246.12
586.495	234.12
587.26	225.12
588.025	215.12
588.791	204.12
589.556	190.12
590.321	176.12
591.086	170.12
591.851	166.12
592.616	157.12
593.381	147.12
594.146	141.12
594.911	135.12
595.675	131.12
596.44	118.12
597.204	117.12
597.969	109.12
598.733	107.12
599.497	102.12
600.261	104.12
601.025	90.12
601.79	89.12
602.553	86.12
603.317	81.12
604.081	81.12
604.845	76.12
605.609	75.12
606.372	73.12
607.136	66.12
607.899	67.12
608.662	63.12
609.426	64.12
610.189	56.12
610.952	56.12
611.715	52.12
612.478	53.12
613.241	49.12
614.004	45.12
614.767	47.12
615.529	47.12
616.292	42.12
617.055	38.12
617.817	40.12
618.579	36.12
619.342	37.12
620.104	38.12
620.866	37.12
621.628	35.12
622.39	32.12
623.152	35.12
623.914	29.12
624.676	27.12
625.438	27.12
626.199	29.12
626.961	26.12
627.722	27.12
628.484	27.12
629.245	25.12
630.006	22.12
630.768	22.12
631.529	22.12
632.29	23.12
633.051	19.12
633.812	21.12
634.573	21.12
635.333	20.12
636.094	19.12
636.855	17.12
637.615	18.12
638.376	15.12
639.136	17.12
639.896	16.12
640.657	15.12
641.417	16.12
642.177	16.12
642.937	15.12
643.697	15.12
644.457	16.12
645.216	17.12
645.976	14.12
646.736	14.12
647.495	12.12
648.255	12.12
649.014	14.12
649.774	13.12
650.533	14.12
651.292	14.12
652.051	14.12
652.81	10.12
653.569	12.12
654.328	12.12
655.087	10.12
655.846	12.12
656.604	8.12
657.363	11.12
658.121	10.12
658.88	13.12
659.638	13.12
660.397	9.12
661.155	10.12
661.913	8.12
662.671	11.12
663.429	10.12
664.187	9.12
664.945	9.12
665.703	9.12
666.46	9.12
667.218	9.12
667.976	8.12
668.733	6.12
669.49	10.12
670.248	7.12
671.005	7.12
671.762	8.12
672.519	7.12
673.276	8.12
674.033	9.12
674.79	10.12
675.547	6.12
676.304	7.12
677.06	6.12
677.817	9.12
678.574	8.12
679.33	8.12
680.086	7.12
680.843	7.12
681.599	7.12
682.355	7.12
683.111	7.12
683.867	8.12
684.623	5.12
685.379	8.12
686.135	9.12
686.89	7.12
687.646	5.12
688.402	8.12
689.157	7.12
689.912	5.12
690.668	8.12
691.423	6.12
692.178	5.12
692.933	10.12
693.688	6.12
694.443	6.12
695.198	7.12
695.953	8.12
696.708	5.12
697.462	6.12
698.217	4.12
698.972	6.12
699.726	5.12
700.48	7.12
701.235	7.12
701.989	7.12
702.743	6.12
703.497	7.12
704.251	4.12
705.005	6.12
705.759	9.12
706.513	8.12
707.266	9.12
708.02	7.12
708.774	5.12
709.527	6.12
710.28	6.12
711.034	6.12
711.787	7.12
712.54	6.12
713.293	8.12
714.046	7.12
714.799	7.12
715.552	6.12
716.305	5.12
717.058	9.12
717.81	7.12
718.563	7.12
719.315	7.12
720.068	7.12
720.82	7.12
721.573	5.12
722.325	10.12
723.077	7.12
723.829	7.12
724.581	7.12
725.333	8.12
726.085	8.12
726.836	5.12
727.588	5.12
728.34	7.12
729.091	8.12
729.843	6.12
730.594	9.12
731.346	6.12
732.097	7.12
732.848	8.12
733.599	7.12
734.35	9.12
735.101	7.12
735.852	7.12
736.603	7.12
737.354	6.12
738.104	7.12
738.855	8.12
739.605	7.12
740.356	11.12
741.106	10.12
741.856	6.12
742.607	7.12
743.357	9.12
744.107	9.12
744.857	7.12
745.607	9.12
746.357	9.12
747.106	9.12
747.856	8.12
748.606	8.12
749.355	10.12
750.105	10.12
750.854	8.12
751.603	10.12
752.353	7.12
753.102	10.12
753.851	7.12
754.6	7.12
755.349	7.12
756.098	11.12
756.847	12.12
757.595	10.12
758.344	10.12
759.093	12.12
759.841	10.12
760.589	13.12
761.338	9.12
762.086	11.12
762.834	10.12
763.582	10.12
764.331	13.12
765.079	13.12
765.826	11.12
766.574	11.12
767.322	11.12
768.07	12.12
768.817	12.12
769.565	12.12
770.312	12.12
771.06	12.12
771.807	10.12
772.554	13.12
773.302	13.12
774.049	14.12
774.796	13.12
775.543	11.12
776.29	13.12
777.036	13.12
777.783	12.12
778.53	14.12
779.276	14.12
780.023	13.12
780.769	14.12
781.516	17.12
782.262	13.12
783.008	13.12
783.754	14.12
784.5	14.12
785.246	13.12
785.992	12.12
786.738	12.12
787.484	13.12
788.23	12.12
788.975	13.12
789.721	14.12
790.466	13.12
791.212	14.12
791.957	12.12
792.702	12.12
793.447	12.12
794.193	13.12
794.938	15.12
795.683	11.12
796.427	9.12
797.172	11.12
797.917	13.12
798.662	12.12
799.406	10.12
800.151	13.12
800.895	12.12
801.64	10.12
802.384	10.12
803.128	10.12
803.872	12.12
804.616	10.12
805.36	8.12
806.104	11.12
806.848	10.12
807.592	9.12
808.336	6.12
809.079	10.12
809.823	9.12
810.566	8.12
811.31	7.12
812.053	9.12
812.796	9.12
813.539	10.12
814.283	9.12
815.026	5.12
815.769	9.12
816.511	6.12
817.254	9.12
817.997	9.12
818.74	8.12
819.482	7.12
820.225	7.12
820.967	5.12
821.71	6.12
822.452	6.12
823.194	5.12
823.936	7.12
824.678	4.12
825.42	7.12
826.162	6.12
826.904	4.12
827.646	9.12
828.388	6.12
829.129	9.12
829.871	5.12
830.612	4.12
831.354	5.12
832.095	5.12
832.836	6.12
833.577	7.12
834.319	6.12
835.06	5.12
835.801	5.12
836.542	4.12
837.282	5.12
838.023	4.12
838.764	6.12
839.504	5.12
840.245	5.12
840.985	6.12
841.726	4.12
842.466	5.12
843.206	5.12
843.946	4.12
844.687	4.12
845.427	7.12
846.166	5.12
846.906	5.12
847.646	4.12
848.386	4.12
849.125	3.12
849.865	5.12
850.605	6.12
851.344	5.12
852.083	6.12
852.823	3.12
853.562	4.12
854.301	5.12
855.04	4.12
855.779	2.12
856.518	3.12
857.257	4.12
857.995	3.12
858.734	3.12
859.473	4.12
860.211	7.12
860.95	5.12
861.688	2.12
862.426	4.12
863.165	3.12
863.903	3.12
864.641	1.12
865.379	4.12
866.117	5.12
866.855	4.12
867.593	3.12
868.33	2.12
869.068	2.12
869.806	1.12
870.543	2.12
871.28	0.12
872.018	5.12
872.755	0.12
873.492	1.12
874.229	3.12
874.967	3.12
875.703	1.12
876.44	2.12
877.177	2.12
877.914	1.12
878.651	3.12
879.387	1.12
880.124	1.12
880.86	2.12
881.597	-0.88
882.333	2.12
883.069	3.12
883.806	1.12
884.542	2.12
885.278	3.12
886.014	1.12
886.749	1.12
887.485	1.12
888.221	2.12
888.957	2.12
889.692	-0.88
890.428	1.12
891.163	1.12
891.899	1.12
892.634	3.12
893.369	1.12
894.104	2.12
894.839	2.12
895.574	1.12
896.309	2.12
897.044	0.12
897.779	-1.88
898.514	0.12
899.248	2.12
899.983	0.12
900.717	1.12
901.452	3.12
902.186	1.12
902.92	0.12
903.654	2.12
904.389	1.12
905.123	2.12
905.857	2.12
906.59	1.12
907.324	0.12
908.058	2.12
908.792	-0.88
909.525	0.12
910.259	1.12
910.992	0.12
911.726	3.12
912.459	2.12
913.192	-0.88
913.925	-0.88
914.658	0.12
915.391	3.12
916.124	2.12
916.857	0.12
917.59	-0.88
918.323	3.12
919.055	-0.88
919.788	2.12
920.521	-0.88
921.253	2.12
921.985	1.12
922.718	-0.88
923.45	1.12
924.182	-0.88
924.914	1.12
925.646	-1.88
926.378	-0.88
927.11	0.12
927.841	2.12
928.573	-0.88
929.305	-0.88
930.036	2.12
930.768	-0.88
931.499	-0.88
932.23	0.12
932.962	0.12
933.693	-0.88
934.424	2.12
935.155	1.12
935.886	-0.88
936.617	-0.88
937.348	1.12
938.078	0.12
938.809	2.12
939.54	1.12
940.27	1.12
941.001	1.12
941.731	1.12
942.461	3.12
943.191	0.12
943.922	2.12
944.652	-0.88
945.382	2.12
946.112	0.12
946.841	2.12
947.571	1.12
948.301	1.12
949.031	2.12
949.76	-0.88
950.49	2.12
951.219	0.12
951.948	0.12
952.678	1.12
953.407	2.12
954.136	1.12
954.865	-1.88
955.594	1.12
956.323	0.12
957.052	-0.88
957.78	-1.88
958.509	1.12
959.238	0.12
959.966	1.12
960.695	-0.88
961.423	0.12
962.151	1.12
962.88	0.12
963.608	1.12
964.336	0.12
965.064	1.12
965.792	2.12
966.52	1.12
967.247	1.12
967.975	-0.88
968.703	1.12
969.43	0.12
970.158	1.12
970.885	0.12
971.613	2.12
972.34	1.12
973.067	1.12
973.794	0.12
974.521	2.12
975.248	1.12
975.975	0.12
976.702	0.12
977.429	0.12
978.156	2.12
978.882	1.12
979.609	1.12
980.335	1.12
981.062	1.12
981.788	0.12
982.514	0.12
983.24	1.12
983.967	1.12
984.693	1.12
985.419	1.12
986.144	2.12
986.87	1.12
987.596	0.12
988.322	0.12
989.047	2.12
989.773	-0.88
990.498	0.12
991.224	1.12
991.949	0.12
992.674	1.12
993.399	-0.88
994.124	0.12
994.849	0.12
995.574	3.12
996.299	1.12
997.024	1.12
997.749	-0.88
998.473	2.12
999.198	0.12
999.922	-1.88
1000.647	3.12
1001.371	4.12
1002.095	-1.88
1002.82	1.12
1003.544	-0.88
1004.268	3.12
1004.992	2.12
1005.716	2.12
1006.439	4.12
1007.163	5.12
1007.887	3.12
1008.611	1.12
1009.334	1.12
1010.058	0.12
1010.781	0.12
1011.504	0.12
1012.228	0.12
1012.951	-1.88
1013.674	2.12
1014.397	-0.88
1015.12	-1.88
