节点500_565_QEPB04081__425__09-57-29-297.txt的数据

Date: Thu Nov 13 09:57:29 CST 2025
User: PC
Spectrometer: QEPB0408
触发模式: 0
积分时间 (秒): 1.000000E-2
Scans to average: 1
启用暗噪声校正: true
启用非线性校正: false
滑动平均宽度: 0
X轴模式: Wavelengths
Number of Pixels in Spectrum: 1044
>>>>>Begin Spectral Data<<<<<
220.843	5.62
221.644	5.62
222.444	4.62
223.244	2.62
224.045	4.62
224.845	4.62
225.645	5.62
226.445	4.62
227.245	5.62
228.045	5.62
228.845	5.62
229.645	6.62
230.444	6.62
231.244	6.62
232.043	6.62
232.843	6.62
233.642	7.62
234.442	7.62
235.241	8.62
236.04	6.62
236.839	6.62
237.638	8.62
238.437	9.62
239.236	6.62
240.035	8.62
240.833	9.62
241.632	9.62
242.43	10.62
243.229	8.62
244.027	8.62
244.826	10.62
245.624	7.62
246.422	10.62
247.22	9.62
248.018	7.62
248.816	9.62
249.614	10.62
250.412	11.62
251.21	8.62
252.007	11.62
252.805	13.62
253.602	12.62
254.4	14.62
255.197	13.62
255.994	15.62
256.791	12.62
257.589	15.62
258.386	14.62
259.183	15.62
259.979	17.62
260.776	16.62
261.573	16.62
262.37	17.62
263.166	20.62
263.963	21.62
264.759	19.62
265.556	20.62
266.352	20.62
267.148	19.62
267.944	20.62
268.74	21.62
269.536	19.62
270.332	23.62
271.128	23.62
271.924	24.62
272.719	28.62
273.515	22.62
274.311	24.62
275.106	26.62
275.901	28.62
276.697	24.62
277.492	28.62
278.287	26.62
279.082	26.62
279.877	27.62
280.672	27.62
281.467	26.62
282.262	28.62
283.056	25.62
283.851	30.62
284.646	26.62
285.44	28.62
286.234	25.62
287.029	24.62
287.823	27.62
288.617	26.62
289.411	23.62
290.205	27.62
290.999	26.62
291.793	26.62
292.587	27.62
293.381	25.62
294.174	23.62
294.968	24.62
295.761	19.62
296.555	22.62
297.348	20.62
298.141	20.62
298.935	23.62
299.728	20.62
300.521	18.62
301.314	18.62
302.107	21.62
302.899	17.62
303.692	17.62
304.485	20.62
305.277	17.62
306.07	16.62
306.862	16.62
307.655	20.62
308.447	20.62
309.239	16.62
310.031	18.62
310.823	16.62
311.615	17.62
312.407	15.62
313.199	13.62
313.991	14.62
314.783	14.62
315.574	11.62
316.366	12.62
317.157	14.62
317.949	12.62
318.74	12.62
319.531	13.62
320.322	13.62
321.113	12.62
321.904	12.62
322.695	12.62
323.486	12.62
324.277	10.62
325.068	9.62
325.858	10.62
326.649	9.62
327.439	10.62
328.23	9.62
329.02	10.62
329.81	10.62
330.6	8.62
331.391	12.62
332.181	6.62
332.971	9.62
333.76	10.62
334.55	10.62
335.34	11.62
336.13	8.62
336.919	9.62
337.709	10.62
338.498	8.62
339.287	9.62
340.077	8.62
340.866	9.62
341.655	9.62
342.444	8.62
343.233	7.62
344.022	8.62
344.811	6.62
345.6	6.62
346.388	9.62
347.177	10.62
347.965	8.62
348.754	9.62
349.542	12.62
350.33	11.62
351.119	8.62
351.907	7.62
352.695	9.62
353.483	9.62
354.271	8.62
355.059	9.62
355.846	8.62
356.634	13.62
357.422	9.62
358.209	6.62
358.997	10.62
359.784	7.62
360.571	8.62
361.359	4.62
362.146	9.62
362.933	7.62
363.72	7.62
364.507	5.62
365.294	7.62
366.081	8.62
366.867	8.62
367.654	9.62
368.44	7.62
369.227	7.62
370.013	7.62
370.8	8.62
371.586	9.62
372.372	6.62
373.158	7.62
373.944	8.62
374.73	9.62
375.516	8.62
376.302	8.62
377.088	6.62
377.873	7.62
378.659	8.62
379.445	10.62
380.23	7.62
381.015	8.62
381.801	9.62
382.586	8.62
383.371	9.62
384.156	9.62
384.941	6.62
385.726	6.62
386.511	8.62
387.296	6.62
388.08	8.62
388.865	8.62
389.649	8.62
390.434	8.62
391.218	9.62
392.003	10.62
392.787	9.62
393.571	8.62
394.355	8.62
395.139	8.62
395.923	8.62
396.707	11.62
397.491	10.62
398.274	11.62
399.058	13.62
399.842	9.62
400.625	13.62
401.408	8.62
402.192	11.62
402.975	12.62
403.758	10.62
404.541	12.62
405.324	14.62
406.107	12.62
406.89	11.62
407.673	12.62
408.456	12.62
409.238	13.62
410.021	12.62
410.803	12.62
411.586	13.62
412.368	12.62
413.151	13.62
413.933	14.62
414.715	14.62
415.497	14.62
416.279	14.62
417.061	14.62
417.843	15.62
418.624	17.62
419.406	15.62
420.188	15.62
420.969	19.62
421.751	16.62
422.532	18.62
423.313	18.62
424.095	19.62
424.876	18.62
425.657	18.62
426.438	20.62
427.219	21.62
428	20.62
428.78	24.62
429.561	25.62
430.342	22.62
431.122	24.62
431.903	28.62
432.683	28.62
433.464	28.62
434.244	30.62
435.024	31.62
435.804	33.62
436.584	35.62
437.364	34.62
438.144	35.62
438.924	39.62
439.704	40.62
440.483	44.62
441.263	44.62
442.042	55.62
442.822	53.62
443.601	56.62
444.38	62.62
445.16	69.62
445.939	75.62
446.718	79.62
447.497	88.62
448.276	94.62
449.054	106.62
449.833	111.62
450.612	120.62
451.391	137.62
452.169	151.62
452.948	161.62
453.726	184.62
454.504	205.62
455.282	227.62
456.061	258.62
456.839	283.62
457.617	312.62
458.395	350.62
459.172	384.62
459.95	439.62
460.728	481.62
461.506	536.62
462.283	602.62
463.061	675.62
463.838	744.62
464.615	818.62
465.393	909.62
466.17	1010.62
466.947	1128.62
467.724	1248.62
468.501	1384.62
469.278	1540.62
470.055	1712.62
470.831	1871.62
471.608	2074.62
472.385	2277.62
473.161	2526.62
473.938	2758.62
474.714	3042.62
475.49	3318.62
476.266	3667.62
477.043	4008.62
477.819	4404.62
478.595	4802.62
479.371	5220.62
480.146	5731.62
480.922	6227.62
481.698	6772.62
482.473	7328.62
483.249	7947.62
484.024	8675.62
484.8	9414.62
485.575	10204.62
486.35	11058.62
487.126	11985.62
487.901	12980.62
488.676	14017.62
489.451	15207.62
490.225	16414.62
491	17611.62
491.775	18866.62
492.55	20258.62
493.324	21650.62
494.099	23088.62
494.873	24567.62
495.647	26047.62
496.422	27625.62
497.196	29176.62
497.97	30596.62
498.744	32012.62
499.518	33360.62
500.292	34606.62
501.066	35860.62
501.839	36966.62
502.613	37766.62
503.387	38506.62
504.16	39287.62
504.934	39591.62
505.707	39737.62
506.48	39749.62
507.253	39612.62
508.027	39098.62
508.8	38500.62
509.573	37849.62
510.346	37040.62
511.118	36032.62
511.891	35227.62
512.664	34100.62
513.437	32936.62
514.209	31702.62
514.982	30492.62
515.754	29380.62
516.526	28230.62
517.298	27061.62
518.071	26034.62
518.843	24908.62
519.615	23934.62
520.387	22997.62
521.159	22133.62
521.93	21213.62
522.702	20338.62
523.474	19572.62
524.245	18777.62
525.017	17983.62
525.788	17165.62
526.56	16457.62
527.331	15734.62
528.102	15061.62
528.873	14333.62
529.644	13643.62
530.415	12992.62
531.186	12319.62
531.957	11700.62
532.728	11169.62
533.498	10561.62
534.269	9988.62
535.039	9436.62
535.81	8964.62
536.58	8550.62
537.351	8014.62
538.121	7562.62
538.891	7185.62
539.661	6830.62
540.431	6436.62
541.201	6093.62
541.971	5795.62
542.741	5469.62
543.51	5194.62
544.28	4943.62
545.05	4700.62
545.819	4464.62
546.588	4244.62
547.358	4067.62
548.127	3862.62
548.896	3658.62
549.665	3466.62
550.434	3281.62
551.203	3127.62
551.972	2961.62
552.741	2819.62
553.51	2648.62
554.278	2522.62
555.047	2350.62
555.815	2253.62
556.584	2118.62
557.352	2014.62
558.121	1899.62
558.889	1767.62
559.657	1680.62
560.425	1592.62
561.193	1502.62
561.961	1428.62
562.729	1336.62
563.496	1273.62
564.264	1212.62
565.032	1152.62
565.799	1088.62
566.567	1024.62
567.334	973.62
568.101	899.62
568.869	863.62
569.636	819.62
570.403	774.62
571.17	731.62
571.937	685.62
572.704	649.62
573.471	612.62
574.237	585.62
575.004	531.62
575.771	516.62
576.537	481.62
577.303	457.62
578.07	425.62
578.836	407.62
579.602	377.62
580.368	367.62
581.134	345.62
581.9	322.62
582.666	306.62
583.432	293.62
584.198	278.62
584.964	262.62
585.729	251.62
586.495	241.62
587.26	224.62
588.025	211.62
588.791	205.62
589.556	192.62
590.321	186.62
591.086	177.62
591.851	171.62
592.616	152.62
593.381	148.62
594.146	143.62
594.911	130.62
595.675	130.62
596.44	123.62
597.204	118.62
597.969	113.62
598.733	113.62
599.497	102.62
600.261	101.62
601.025	93.62
601.79	93.62
602.553	90.62
603.317	82.62
604.081	85.62
604.845	75.62
605.609	73.62
606.372	71.62
607.136	66.62
607.899	67.62
608.662	62.62
609.426	60.62
610.189	57.62
610.952	56.62
611.715	55.62
612.478	47.62
613.241	47.62
614.004	48.62
614.767	44.62
615.529	46.62
616.292	43.62
617.055	43.62
617.817	38.62
618.579	40.62
619.342	37.62
620.104	39.62
620.866	33.62
621.628	33.62
622.39	31.62
623.152	29.62
623.914	31.62
624.676	30.62
625.438	29.62
626.199	28.62
626.961	25.62
627.722	24.62
628.484	26.62
629.245	25.62
630.006	21.62
630.768	22.62
631.529	22.62
632.29	21.62
633.051	21.62
633.812	18.62
634.573	21.62
635.333	20.62
636.094	18.62
636.855	17.62
637.615	17.62
638.376	17.62
639.136	15.62
639.896	17.62
640.657	12.62
641.417	13.62
642.177	16.62
642.937	15.62
643.697	13.62
644.457	16.62
645.216	11.62
645.976	13.62
646.736	13.62
647.495	13.62
648.255	11.62
649.014	13.62
649.774	16.62
650.533	11.62
651.292	8.62
652.051	12.62
652.81	12.62
653.569	12.62
654.328	12.62
655.087	11.62
655.846	10.62
656.604	9.62
657.363	6.62
658.121	10.62
658.88	10.62
659.638	8.62
660.397	9.62
661.155	8.62
661.913	8.62
662.671	8.62
663.429	9.62
664.187	10.62
664.945	8.62
665.703	9.62
666.46	7.62
667.218	8.62
667.976	10.62
668.733	8.62
669.49	8.62
670.248	6.62
671.005	6.62
671.762	8.62
672.519	6.62
673.276	8.62
674.033	6.62
674.79	6.62
675.547	6.62
676.304	8.62
677.06	6.62
677.817	4.62
678.574	5.62
679.33	8.62
680.086	9.62
680.843	6.62
681.599	4.62
682.355	8.62
683.111	5.62
683.867	6.62
684.623	5.62
685.379	6.62
686.135	7.62
686.89	6.62
687.646	3.62
688.402	8.62
689.157	6.62
689.912	6.62
690.668	5.62
691.423	6.62
692.178	6.62
692.933	7.62
693.688	9.62
694.443	3.62
695.198	6.62
695.953	6.62
696.708	4.62
697.462	4.62
698.217	5.62
698.972	4.62
699.726	6.62
700.48	5.62
701.235	5.62
701.989	5.62
702.743	7.62
703.497	6.62
704.251	3.62
705.005	6.62
705.759	6.62
706.513	4.62
707.266	5.62
708.02	5.62
708.774	4.62
709.527	6.62
710.28	5.62
711.034	6.62
711.787	5.62
712.54	5.62
713.293	4.62
714.046	4.62
714.799	7.62
715.552	8.62
716.305	8.62
717.058	4.62
717.81	6.62
718.563	6.62
719.315	6.62
720.068	8.62
720.82	5.62
721.573	6.62
722.325	4.62
723.077	4.62
723.829	6.62
724.581	5.62
725.333	7.62
726.085	4.62
726.836	6.62
727.588	7.62
728.34	6.62
729.091	8.62
729.843	6.62
730.594	5.62
731.346	5.62
732.097	6.62
732.848	7.62
733.599	3.62
734.35	6.62
735.101	7.62
735.852	7.62
736.603	5.62
737.354	9.62
738.104	8.62
738.855	8.62
739.605	9.62
740.356	7.62
741.106	8.62
741.856	8.62
742.607	9.62
743.357	8.62
744.107	6.62
744.857	6.62
745.607	6.62
746.357	8.62
747.106	8.62
747.856	9.62
748.606	5.62
749.355	9.62
750.105	11.62
750.854	9.62
751.603	8.62
752.353	9.62
753.102	10.62
753.851	7.62
754.6	8.62
755.349	9.62
756.098	8.62
756.847	7.62
757.595	8.62
758.344	9.62
759.093	9.62
759.841	9.62
760.589	10.62
761.338	9.62
762.086	12.62
762.834	8.62
763.582	12.62
764.331	9.62
765.079	10.62
765.826	11.62
766.574	10.62
767.322	8.62
768.07	11.62
768.817	12.62
769.565	11.62
770.312	9.62
771.06	10.62
771.807	6.62
772.554	9.62
773.302	12.62
774.049	11.62
774.796	13.62
775.543	10.62
776.29	11.62
777.036	12.62
777.783	13.62
778.53	11.62
779.276	11.62
780.023	12.62
780.769	13.62
781.516	11.62
782.262	12.62
783.008	9.62
783.754	9.62
784.5	11.62
785.246	12.62
785.992	15.62
786.738	12.62
787.484	12.62
788.23	13.62
788.975	11.62
789.721	12.62
790.466	11.62
791.212	12.62
791.957	12.62
792.702	12.62
793.447	12.62
794.193	11.62
794.938	11.62
795.683	11.62
796.427	11.62
797.172	12.62
797.917	10.62
798.662	9.62
799.406	10.62
800.151	10.62
800.895	9.62
801.64	9.62
802.384	10.62
803.128	8.62
803.872	10.62
804.616	8.62
805.36	10.62
806.104	8.62
806.848	12.62
807.592	9.62
808.336	7.62
809.079	10.62
809.823	7.62
810.566	6.62
811.31	6.62
812.053	8.62
812.796	7.62
813.539	8.62
814.283	7.62
815.026	6.62
815.769	7.62
816.511	8.62
817.254	6.62
817.997	6.62
818.74	5.62
819.482	7.62
820.225	7.62
820.967	5.62
821.71	6.62
822.452	8.62
823.194	6.62
823.936	3.62
824.678	6.62
825.42	5.62
826.162	4.62
826.904	4.62
827.646	7.62
828.388	3.62
829.129	6.62
829.871	4.62
830.612	5.62
831.354	6.62
832.095	4.62
832.836	3.62
833.577	4.62
834.319	4.62
835.06	5.62
835.801	4.62
836.542	6.62
837.282	4.62
838.023	6.62
838.764	4.62
839.504	3.62
840.245	4.62
840.985	4.62
841.726	4.62
842.466	4.62
843.206	4.62
843.946	6.62
844.687	4.62
845.427	4.62
846.166	5.62
846.906	4.62
847.646	4.62
848.386	4.62
849.125	1.62
849.865	2.62
850.605	4.62
851.344	5.62
852.083	2.62
852.823	1.62
853.562	3.62
854.301	0.62
855.04	4.62
855.779	1.62
856.518	3.62
857.257	3.62
857.995	3.62
858.734	4.62
859.473	0.62
860.211	3.62
860.95	3.62
861.688	3.62
862.426	2.62
863.165	2.62
863.903	3.62
864.641	4.62
865.379	4.62
866.117	1.62
866.855	1.62
867.593	1.62
868.33	3.62
869.068	2.62
869.806	2.62
870.543	3.62
871.28	-1.38
872.018	3.62
872.755	2.62
873.492	2.62
874.229	3.62
874.967	1.62
875.703	0.62
876.44	-0.38
877.177	2.62
877.914	2.62
878.651	1.62
879.387	0.62
880.124	0.62
880.86	-0.38
881.597	2.62
882.333	1.62
883.069	0.62
883.806	2.62
884.542	3.62
885.278	1.62
886.014	2.62
886.749	-0.38
887.485	1.62
888.221	1.62
888.957	0.62
889.692	2.62
890.428	1.62
891.163	0.62
891.899	1.62
892.634	-0.38
893.369	1.62
894.104	1.62
894.839	-0.38
895.574	0.62
896.309	-0.38
897.044	-0.38
897.779	-0.38
898.514	0.62
899.248	0.62
899.983	-1.38
900.717	0.62
901.452	-0.38
902.186	1.62
902.92	0.62
903.654	-0.38
904.389	1.62
905.123	1.62
905.857	1.62
906.59	0.62
907.324	-1.38
908.058	-1.38
908.792	0.62
909.525	-0.38
910.259	2.62
910.992	2.62
911.726	0.62
912.459	-0.38
913.192	0.62
913.925	1.62
914.658	-1.38
915.391	0.62
916.124	-1.38
916.857	0.62
917.59	-1.38
918.323	0.62
919.055	0.62
919.788	0.62
920.521	-1.38
921.253	-0.38
921.985	0.62
922.718	-1.38
923.45	0.62
924.182	0.62
924.914	3.62
925.646	-1.38
926.378	2.62
927.11	-0.38
927.841	2.62
928.573	0.62
929.305	-1.38
930.036	0.62
930.768	-1.38
931.499	0.62
932.23	0.62
932.962	-0.38
933.693	0.62
934.424	-1.38
935.155	0.62
935.886	-0.38
936.617	1.62
937.348	-0.38
938.078	0.62
938.809	0.62
939.54	0.62
940.27	0.62
941.001	1.62
941.731	-0.38
942.461	-1.38
943.191	-0.38
943.922	0.62
944.652	1.62
945.382	0.62
946.112	-1.38
946.841	1.62
947.571	0.62
948.301	-1.38
949.031	-1.38
949.76	-0.38
950.49	0.62
951.219	-0.38
951.948	-1.38
952.678	-1.38
953.407	0.62
954.136	0.62
954.865	-0.38
955.594	-0.38
956.323	1.62
957.052	-1.38
957.78	0.62
958.509	-0.38
959.238	0.62
959.966	0.62
960.695	-0.38
961.423	0.62
962.151	0.62
962.88	1.62
963.608	0.62
964.336	0.62
965.064	0.62
965.792	0.62
966.52	-1.38
967.247	0.62
967.975	-0.38
968.703	-0.38
969.43	-0.38
970.158	-0.38
970.885	-0.38
971.613	-0.38
972.34	0.62
973.067	0.62
973.794	2.62
974.521	0.62
975.248	0.62
975.975	1.62
976.702	1.62
977.429	-0.38
978.156	-0.38
978.882	0.62
979.609	-0.38
980.335	1.62
981.062	-1.38
981.788	-0.38
982.514	-0.38
983.24	-1.38
983.967	-2.38
984.693	0.62
985.419	0.62
986.144	0.62
986.87	0.62
987.596	-0.38
988.322	0.62
989.047	-1.38
989.773	-1.38
990.498	-0.38
991.224	-1.38
991.949	0.62
992.674	-0.38
993.399	-0.38
994.124	1.62
994.849	-0.38
995.574	-0.38
996.299	0.62
997.024	-1.38
997.749	-0.38
998.473	0.62
999.198	0.62
999.922	-2.38
1000.647	0.62
1001.371	3.62
1002.095	-2.38
1002.82	-1.38
1003.544	0.62
1004.268	3.62
1004.992	1.62
1005.716	0.62
1006.439	1.62
1007.163	5.62
1007.887	1.62
1008.611	-0.38
1009.334	1.62
1010.058	0.62
1010.781	2.62
1011.504	0.62
1012.228	-1.38
1012.951	-1.38
1013.674	0.62
1014.397	0.62
1015.12	-0.38
