节点500_565_QEPB04081__547__09-59-31-074.txt的数据

Date: Thu Nov 13 09:59:31 CST 2025
User: PC
Spectrometer: QEPB0408
触发模式: 0
积分时间 (秒): 1.000000E-2
Scans to average: 1
启用暗噪声校正: true
启用非线性校正: false
滑动平均宽度: 0
X轴模式: Wavelengths
Number of Pixels in Spectrum: 1044
>>>>>Begin Spectral Data<<<<<
220.843	3.25
221.644	5.25
222.444	6.25
223.244	4.25
224.045	6.25
224.845	5.25
225.645	6.25
226.445	5.25
227.245	4.25
228.045	8.25
228.845	7.25
229.645	8.25
230.444	4.25
231.244	7.25
232.043	7.25
232.843	6.25
233.642	7.25
234.442	8.25
235.241	6.25
236.04	7.25
236.839	7.25
237.638	8.25
238.437	7.25
239.236	10.25
240.035	9.25
240.833	10.25
241.632	5.25
242.43	9.25
243.229	8.25
244.027	9.25
244.826	11.25
245.624	10.25
246.422	10.25
247.22	12.25
248.018	10.25
248.816	13.25
249.614	8.25
250.412	11.25
251.21	13.25
252.007	11.25
252.805	13.25
253.602	17.25
254.4	11.25
255.197	17.25
255.994	15.25
256.791	15.25
257.589	14.25
258.386	15.25
259.183	13.25
259.979	15.25
260.776	17.25
261.573	18.25
262.37	18.25
263.166	18.25
263.963	17.25
264.759	20.25
265.556	21.25
266.352	20.25
267.148	21.25
267.944	23.25
268.74	23.25
269.536	24.25
270.332	21.25
271.128	22.25
271.924	23.25
272.719	24.25
273.515	24.25
274.311	24.25
275.106	24.25
275.901	28.25
276.697	23.25
277.492	27.25
278.287	29.25
279.082	27.25
279.877	28.25
280.672	28.25
281.467	27.25
282.262	25.25
283.056	28.25
283.851	28.25
284.646	23.25
285.44	27.25
286.234	26.25
287.029	26.25
287.823	29.25
288.617	26.25
289.411	26.25
290.205	27.25
290.999	23.25
291.793	25.25
292.587	24.25
293.381	24.25
294.174	27.25
294.968	23.25
295.761	22.25
296.555	23.25
297.348	19.25
298.141	21.25
298.935	26.25
299.728	21.25
300.521	22.25
301.314	19.25
302.107	18.25
302.899	20.25
303.692	17.25
304.485	19.25
305.277	19.25
306.07	18.25
306.862	19.25
307.655	18.25
308.447	17.25
309.239	21.25
310.031	17.25
310.823	16.25
311.615	13.25
312.407	15.25
313.199	15.25
313.991	12.25
314.783	14.25
315.574	13.25
316.366	15.25
317.157	13.25
317.949	13.25
318.74	13.25
319.531	10.25
320.322	13.25
321.113	10.25
321.904	11.25
322.695	11.25
323.486	13.25
324.277	10.25
325.068	12.25
325.858	12.25
326.649	10.25
327.439	12.25
328.23	8.25
329.02	10.25
329.81	10.25
330.6	10.25
331.391	9.25
332.181	8.25
332.971	11.25
333.76	8.25
334.55	11.25
335.34	10.25
336.13	13.25
336.919	13.25
337.709	10.25
338.498	8.25
339.287	11.25
340.077	11.25
340.866	10.25
341.655	9.25
342.444	9.25
343.233	11.25
344.022	12.25
344.811	11.25
345.6	8.25
346.388	9.25
347.177	10.25
347.965	10.25
348.754	10.25
349.542	9.25
350.33	9.25
351.119	9.25
351.907	9.25
352.695	8.25
353.483	8.25
354.271	9.25
355.059	9.25
355.846	7.25
356.634	11.25
357.422	8.25
358.209	9.25
358.997	9.25
359.784	6.25
360.571	12.25
361.359	10.25
362.146	9.25
362.933	8.25
363.72	6.25
364.507	8.25
365.294	8.25
366.081	9.25
366.867	9.25
367.654	9.25
368.44	9.25
369.227	7.25
370.013	7.25
370.8	6.25
371.586	9.25
372.372	9.25
373.158	10.25
373.944	8.25
374.73	8.25
375.516	8.25
376.302	9.25
377.088	7.25
377.873	8.25
378.659	8.25
379.445	8.25
380.23	8.25
381.015	8.25
381.801	10.25
382.586	8.25
383.371	8.25
384.156	9.25
384.941	6.25
385.726	9.25
386.511	11.25
387.296	9.25
388.08	8.25
388.865	10.25
389.649	10.25
390.434	7.25
391.218	11.25
392.003	9.25
392.787	13.25
393.571	10.25
394.355	10.25
395.139	9.25
395.923	9.25
396.707	11.25
397.491	9.25
398.274	13.25
399.058	10.25
399.842	12.25
400.625	11.25
401.408	11.25
402.192	13.25
402.975	10.25
403.758	11.25
404.541	10.25
405.324	11.25
406.107	12.25
406.89	13.25
407.673	11.25
408.456	10.25
409.238	13.25
410.021	12.25
410.803	11.25
411.586	13.25
412.368	15.25
413.151	13.25
413.933	16.25
414.715	14.25
415.497	16.25
416.279	14.25
417.061	15.25
417.843	16.25
418.624	16.25
419.406	15.25
420.188	16.25
420.969	17.25
421.751	19.25
422.532	16.25
423.313	17.25
424.095	16.25
424.876	18.25
425.657	20.25
426.438	19.25
427.219	21.25
428	24.25
428.78	21.25
429.561	22.25
430.342	27.25
431.122	25.25
431.903	27.25
432.683	28.25
433.464	26.25
434.244	31.25
435.024	31.25
435.804	32.25
436.584	33.25
437.364	35.25
438.144	37.25
438.924	40.25
439.704	43.25
440.483	48.25
441.263	47.25
442.042	53.25
442.822	52.25
443.601	60.25
444.38	67.25
445.16	73.25
445.939	76.25
446.718	85.25
447.497	93.25
448.276	97.25
449.054	105.25
449.833	113.25
450.612	129.25
451.391	138.25
452.169	159.25
452.948	169.25
453.726	190.25
454.504	209.25
455.282	241.25
456.061	265.25
456.839	291.25
457.617	328.25
458.395	365.25
459.172	403.25
459.95	447.25
460.728	501.25
461.506	559.25
462.283	617.25
463.061	683.25
463.838	770.25
464.615	843.25
465.393	939.25
466.17	1034.25
466.947	1157.25
467.724	1275.25
468.501	1411.25
469.278	1552.25
470.055	1725.25
470.831	1889.25
471.608	2092.25
472.385	2277.25
473.161	2509.25
473.938	2768.25
474.714	3010.25
475.49	3345.25
476.266	3640.25
477.043	3962.25
477.819	4336.25
478.595	4683.25
479.371	5104.25
480.146	5569.25
480.922	6069.25
481.698	6609.25
482.473	7131.25
483.249	7694.25
484.024	8389.25
484.8	9116.25
485.575	9879.25
486.35	10636.25
487.126	11538.25
487.901	12429.25
488.676	13332.25
489.451	14412.25
490.225	15550.25
491	16664.25
491.775	17910.25
492.55	19181.25
493.324	20517.25
494.099	21764.25
494.873	23221.25
495.647	24699.25
496.422	26103.25
497.196	27499.25
497.97	28926.25
498.744	30351.25
499.518	31629.25
500.292	32842.25
501.066	34118.25
501.839	35153.25
502.613	36068.25
503.387	36865.25
504.16	37638.25
504.934	38078.25
505.707	38349.25
506.48	38417.25
507.253	38471.25
508.027	38104.25
508.8	37671.25
509.573	37141.25
510.346	36466.25
511.118	35547.25
511.891	34836.25
512.664	33807.25
513.437	32775.25
514.209	31548.25
514.982	30511.25
515.754	29395.25
516.526	28322.25
517.298	27073.25
518.071	26080.25
518.843	25031.25
519.615	23999.25
520.387	23085.25
521.159	22242.25
521.93	21366.25
522.702	20481.25
523.474	19679.25
524.245	18848.25
525.017	18107.25
525.788	17357.25
526.56	16664.25
527.331	15921.25
528.102	15228.25
528.873	14512.25
529.644	13844.25
530.415	13146.25
531.186	12524.25
531.957	11920.25
532.728	11351.25
533.498	10808.25
534.269	10178.25
535.039	9643.25
535.81	9184.25
536.58	8712.25
537.351	8234.25
538.121	7768.25
538.891	7379.25
539.661	6990.25
540.431	6641.25
541.201	6271.25
541.971	5927.25
542.741	5619.25
543.51	5341.25
544.28	5051.25
545.05	4805.25
545.819	4602.25
546.588	4377.25
547.358	4147.25
548.127	3932.25
548.896	3775.25
549.665	3561.25
550.434	3405.25
551.203	3230.25
551.972	3049.25
552.741	2875.25
553.51	2753.25
554.278	2559.25
555.047	2433.25
555.815	2306.25
556.584	2215.25
557.352	2055.25
558.121	1956.25
558.889	1858.25
559.657	1733.25
560.425	1655.25
561.193	1564.25
561.961	1481.25
562.729	1397.25
563.496	1326.25
564.264	1257.25
565.032	1186.25
565.799	1122.25
566.567	1067.25
567.334	981.25
568.101	939.25
568.869	891.25
569.636	850.25
570.403	796.25
571.17	758.25
571.937	712.25
572.704	668.25
573.471	617.25
574.237	597.25
575.004	556.25
575.771	534.25
576.537	501.25
577.303	469.25
578.07	444.25
578.836	414.25
579.602	401.25
580.368	378.25
581.134	353.25
581.9	339.25
582.666	326.25
583.432	298.25
584.198	290.25
584.964	273.25
585.729	265.25
586.495	252.25
587.26	239.25
588.025	218.25
588.791	212.25
589.556	200.25
590.321	186.25
591.086	174.25
591.851	174.25
592.616	164.25
593.381	152.25
594.146	146.25
594.911	140.25
595.675	134.25
596.44	126.25
597.204	116.25
597.969	116.25
598.733	110.25
599.497	112.25
600.261	104.25
601.025	95.25
601.79	96.25
602.553	87.25
603.317	86.25
604.081	84.25
604.845	78.25
605.609	75.25
606.372	76.25
607.136	68.25
607.899	71.25
608.662	69.25
609.426	60.25
610.189	60.25
610.952	59.25
611.715	52.25
612.478	53.25
613.241	52.25
614.004	51.25
614.767	48.25
615.529	45.25
616.292	44.25
617.055	40.25
617.817	40.25
618.579	38.25
619.342	42.25
620.104	35.25
620.866	37.25
621.628	37.25
622.39	33.25
623.152	32.25
623.914	31.25
624.676	30.25
625.438	30.25
626.199	29.25
626.961	25.25
627.722	26.25
628.484	26.25
629.245	25.25
630.006	23.25
630.768	21.25
631.529	22.25
632.29	23.25
633.051	21.25
633.812	22.25
634.573	23.25
635.333	19.25
636.094	21.25
636.855	21.25
637.615	22.25
638.376	15.25
639.136	17.25
639.896	17.25
640.657	17.25
641.417	15.25
642.177	16.25
642.937	18.25
643.697	17.25
644.457	14.25
645.216	17.25
645.976	13.25
646.736	13.25
647.495	15.25
648.255	13.25
649.014	12.25
649.774	13.25
650.533	11.25
651.292	10.25
652.051	10.25
652.81	13.25
653.569	11.25
654.328	9.25
655.087	11.25
655.846	13.25
656.604	10.25
657.363	10.25
658.121	9.25
658.88	10.25
659.638	10.25
660.397	9.25
661.155	11.25
661.913	10.25
662.671	7.25
663.429	7.25
664.187	7.25
664.945	10.25
665.703	9.25
666.46	8.25
667.218	9.25
667.976	8.25
668.733	11.25
669.49	9.25
670.248	7.25
671.005	6.25
671.762	9.25
672.519	8.25
673.276	8.25
674.033	7.25
674.79	7.25
675.547	7.25
676.304	7.25
677.06	8.25
677.817	7.25
678.574	7.25
679.33	7.25
680.086	7.25
680.843	7.25
681.599	9.25
682.355	7.25
683.111	6.25
683.867	6.25
684.623	4.25
685.379	7.25
686.135	9.25
686.89	6.25
687.646	6.25
688.402	9.25
689.157	6.25
689.912	6.25
690.668	7.25
691.423	6.25
692.178	5.25
692.933	9.25
693.688	7.25
694.443	7.25
695.198	6.25
695.953	6.25
696.708	5.25
697.462	6.25
698.217	7.25
698.972	6.25
699.726	6.25
700.48	5.25
701.235	9.25
701.989	7.25
702.743	5.25
703.497	7.25
704.251	5.25
705.005	8.25
705.759	7.25
706.513	2.25
707.266	6.25
708.02	6.25
708.774	6.25
709.527	7.25
710.28	4.25
711.034	7.25
711.787	7.25
712.54	4.25
713.293	5.25
714.046	9.25
714.799	5.25
715.552	6.25
716.305	7.25
717.058	9.25
717.81	6.25
718.563	7.25
719.315	6.25
720.068	5.25
720.82	7.25
721.573	6.25
722.325	5.25
723.077	8.25
723.829	7.25
724.581	7.25
725.333	7.25
726.085	8.25
726.836	5.25
727.588	5.25
728.34	8.25
729.091	7.25
729.843	6.25
730.594	4.25
731.346	8.25
732.097	7.25
732.848	7.25
733.599	5.25
734.35	7.25
735.101	8.25
735.852	7.25
736.603	8.25
737.354	7.25
738.104	8.25
738.855	6.25
739.605	6.25
740.356	8.25
741.106	7.25
741.856	9.25
742.607	7.25
743.357	6.25
744.107	9.25
744.857	8.25
745.607	6.25
746.357	8.25
747.106	9.25
747.856	7.25
748.606	10.25
749.355	7.25
750.105	10.25
750.854	8.25
751.603	8.25
752.353	9.25
753.102	7.25
753.851	8.25
754.6	10.25
755.349	6.25
756.098	7.25
756.847	6.25
757.595	11.25
758.344	7.25
759.093	10.25
759.841	9.25
760.589	9.25
761.338	9.25
762.086	10.25
762.834	11.25
763.582	9.25
764.331	10.25
765.079	11.25
765.826	12.25
766.574	10.25
767.322	9.25
768.07	11.25
768.817	9.25
769.565	13.25
770.312	12.25
771.06	10.25
771.807	13.25
772.554	11.25
773.302	12.25
774.049	13.25
774.796	12.25
775.543	12.25
776.29	13.25
777.036	11.25
777.783	11.25
778.53	14.25
779.276	10.25
780.023	16.25
780.769	13.25
781.516	11.25
782.262	13.25
783.008	12.25
783.754	12.25
784.5	13.25
785.246	12.25
785.992	12.25
786.738	13.25
787.484	10.25
788.23	13.25
788.975	13.25
789.721	12.25
790.466	12.25
791.212	14.25
791.957	11.25
792.702	13.25
793.447	12.25
794.193	12.25
794.938	12.25
795.683	11.25
796.427	10.25
797.172	11.25
797.917	11.25
798.662	11.25
799.406	13.25
800.151	8.25
800.895	12.25
801.64	11.25
802.384	10.25
803.128	10.25
803.872	10.25
804.616	10.25
805.36	10.25
806.104	11.25
806.848	9.25
807.592	9.25
808.336	9.25
809.079	9.25
809.823	11.25
810.566	8.25
811.31	9.25
812.053	7.25
812.796	10.25
813.539	7.25
814.283	10.25
815.026	8.25
815.769	8.25
816.511	8.25
817.254	9.25
817.997	5.25
818.74	7.25
819.482	7.25
820.225	4.25
820.967	7.25
821.71	7.25
822.452	5.25
823.194	6.25
823.936	5.25
824.678	5.25
825.42	8.25
826.162	7.25
826.904	9.25
827.646	5.25
828.388	5.25
829.129	5.25
829.871	7.25
830.612	5.25
831.354	3.25
832.095	4.25
832.836	5.25
833.577	6.25
834.319	5.25
835.06	5.25
835.801	5.25
836.542	4.25
837.282	3.25
838.023	7.25
838.764	5.25
839.504	5.25
840.245	3.25
840.985	7.25
841.726	7.25
842.466	4.25
843.206	5.25
843.946	7.25
844.687	5.25
845.427	5.25
846.166	6.25
846.906	3.25
847.646	5.25
848.386	4.25
849.125	5.25
849.865	6.25
850.605	5.25
851.344	7.25
852.083	1.25
852.823	4.25
853.562	4.25
854.301	4.25
855.04	3.25
855.779	5.25
856.518	5.25
857.257	3.25
857.995	3.25
858.734	3.25
859.473	5.25
860.211	1.25
860.95	4.25
861.688	2.25
862.426	3.25
863.165	5.25
863.903	3.25
864.641	3.25
865.379	1.25
866.117	2.25
866.855	4.25
867.593	3.25
868.33	3.25
869.068	3.25
869.806	1.25
870.543	2.25
871.28	3.25
872.018	0.25
872.755	2.25
873.492	1.25
874.229	1.25
874.967	4.25
875.703	3.25
876.44	3.25
877.177	3.25
877.914	1.25
878.651	2.25
879.387	3.25
880.124	1.25
880.86	2.25
881.597	3.25
882.333	2.25
883.069	1.25
883.806	1.25
884.542	1.25
885.278	0.25
886.014	1.25
886.749	3.25
887.485	2.25
888.221	0.25
888.957	0.25
889.692	1.25
890.428	0.25
891.163	1.25
891.899	3.25
892.634	2.25
893.369	1.25
894.104	4.25
894.839	3.25
895.574	0.25
896.309	2.25
897.044	3.25
897.779	1.25
898.514	3.25
899.248	2.25
899.983	0.25
900.717	0.25
901.452	1.25
902.186	1.25
902.92	-0.75
903.654	0.25
904.389	2.25
905.123	1.25
905.857	2.25
906.59	-0.75
907.324	1.25
908.058	1.25
908.792	2.25
909.525	-1.75
910.259	2.25
910.992	0.25
911.726	-0.75
912.459	2.25
913.192	1.25
913.925	-2.75
914.658	1.25
915.391	0.25
916.124	1.25
916.857	-0.75
917.59	1.25
918.323	0.25
919.055	1.25
919.788	-0.75
920.521	1.25
921.253	0.25
921.985	0.25
922.718	-0.75
923.45	0.25
924.182	1.25
924.914	1.25
925.646	1.25
926.378	0.25
927.11	1.25
927.841	2.25
928.573	1.25
929.305	0.25
930.036	-0.75
930.768	0.25
931.499	0.25
932.23	0.25
932.962	-0.75
933.693	0.25
934.424	1.25
935.155	-1.75
935.886	1.25
936.617	1.25
937.348	-1.75
938.078	1.25
938.809	1.25
939.54	1.25
940.27	1.25
941.001	-0.75
941.731	-0.75
942.461	2.25
943.191	2.25
943.922	1.25
944.652	-1.75
945.382	0.25
946.112	2.25
946.841	0.25
947.571	1.25
948.301	1.25
949.031	-1.75
949.76	1.25
950.49	-2.75
951.219	1.25
951.948	0.25
952.678	0.25
953.407	-0.75
954.136	1.25
954.865	3.25
955.594	2.25
956.323	3.25
957.052	1.25
957.78	1.25
958.509	-0.75
959.238	1.25
959.966	0.25
960.695	0.25
961.423	1.25
962.151	0.25
962.88	1.25
963.608	3.25
964.336	3.25
965.064	-0.75
965.792	1.25
966.52	-2.75
967.247	0.25
967.975	2.25
968.703	1.25
969.43	1.25
970.158	1.25
970.885	-1.75
971.613	-0.75
972.34	2.25
973.067	1.25
973.794	0.25
974.521	-1.75
975.248	-0.75
975.975	1.25
976.702	1.25
977.429	1.25
978.156	1.25
978.882	0.25
979.609	1.25
980.335	-0.75
981.062	1.25
981.788	0.25
982.514	0.25
983.24	1.25
983.967	0.25
984.693	2.25
985.419	1.25
986.144	1.25
986.87	1.25
987.596	0.25
988.322	0.25
989.047	0.25
989.773	1.25
990.498	-0.75
991.224	1.25
991.949	0.25
992.674	2.25
993.399	3.25
994.124	-1.75
994.849	2.25
995.574	3.25
996.299	1.25
997.024	1.25
997.749	1.25
998.473	0.25
999.198	1.25
999.922	3.25
1000.647	0.25
1001.371	4.25
1002.095	-2.75
1002.82	-1.75
1003.544	1.25
1004.268	5.25
1004.992	3.25
1005.716	2.25
1006.439	7.25
1007.163	4.25
1007.887	5.25
1008.611	1.25
1009.334	0.25
1010.058	-0.75
1010.781	1.25
1011.504	0.25
1012.228	2.25
1012.951	-2.75
1013.674	2.25
1014.397	-1.75
1015.12	1.25
