节点500_565_QEPB04081__178__09-53-22-912.txt的数据

Date: Thu Nov 13 09:53:22 CST 2025
User: PC
Spectrometer: QEPB0408
触发模式: 0
积分时间 (秒): 1.000000E-2
Scans to average: 1
启用暗噪声校正: true
启用非线性校正: false
滑动平均宽度: 0
X轴模式: Wavelengths
Number of Pixels in Spectrum: 1044
>>>>>Begin Spectral Data<<<<<
220.843	6.12
221.644	4.12
222.444	5.12
223.244	5.12
224.045	6.12
224.845	4.12
225.645	4.12
226.445	4.12
227.245	4.12
228.045	7.12
228.845	6.12
229.645	6.12
230.444	5.12
231.244	4.12
232.043	8.12
232.843	5.12
233.642	6.12
234.442	7.12
235.241	8.12
236.04	5.12
236.839	7.12
237.638	6.12
238.437	8.12
239.236	10.12
240.035	7.12
240.833	8.12
241.632	11.12
242.43	8.12
243.229	9.12
244.027	8.12
244.826	8.12
245.624	10.12
246.422	12.12
247.22	10.12
248.018	12.12
248.816	11.12
249.614	12.12
250.412	13.12
251.21	15.12
252.007	13.12
252.805	15.12
253.602	12.12
254.4	14.12
255.197	17.12
255.994	16.12
256.791	15.12
257.589	17.12
258.386	14.12
259.183	17.12
259.979	19.12
260.776	19.12
261.573	18.12
262.37	19.12
263.166	21.12
263.963	22.12
264.759	25.12
265.556	18.12
266.352	25.12
267.148	24.12
267.944	25.12
268.74	27.12
269.536	29.12
270.332	23.12
271.128	25.12
271.924	24.12
272.719	26.12
273.515	29.12
274.311	24.12
275.106	29.12
275.901	30.12
276.697	28.12
277.492	30.12
278.287	30.12
279.082	30.12
279.877	32.12
280.672	30.12
281.467	30.12
282.262	29.12
283.056	28.12
283.851	31.12
284.646	29.12
285.44	29.12
286.234	30.12
287.029	31.12
287.823	28.12
288.617	30.12
289.411	28.12
290.205	28.12
290.999	27.12
291.793	30.12
292.587	29.12
293.381	26.12
294.174	24.12
294.968	23.12
295.761	24.12
296.555	21.12
297.348	22.12
298.141	21.12
298.935	22.12
299.728	19.12
300.521	22.12
301.314	24.12
302.107	22.12
302.899	21.12
303.692	20.12
304.485	18.12
305.277	18.12
306.07	17.12
306.862	20.12
307.655	16.12
308.447	16.12
309.239	20.12
310.031	16.12
310.823	15.12
311.615	15.12
312.407	15.12
313.199	14.12
313.991	13.12
314.783	15.12
315.574	12.12
316.366	14.12
317.157	12.12
317.949	11.12
318.74	14.12
319.531	12.12
320.322	13.12
321.113	11.12
321.904	12.12
322.695	12.12
323.486	12.12
324.277	8.12
325.068	10.12
325.858	11.12
326.649	10.12
327.439	11.12
328.23	10.12
329.02	11.12
329.81	10.12
330.6	10.12
331.391	11.12
332.181	8.12
332.971	11.12
333.76	8.12
334.55	11.12
335.34	8.12
336.13	11.12
336.919	12.12
337.709	9.12
338.498	11.12
339.287	10.12
340.077	10.12
340.866	12.12
341.655	7.12
342.444	10.12
343.233	9.12
344.022	12.12
344.811	12.12
345.6	11.12
346.388	9.12
347.177	12.12
347.965	11.12
348.754	10.12
349.542	8.12
350.33	10.12
351.119	8.12
351.907	8.12
352.695	9.12
353.483	12.12
354.271	9.12
355.059	8.12
355.846	8.12
356.634	9.12
357.422	10.12
358.209	8.12
358.997	10.12
359.784	8.12
360.571	8.12
361.359	7.12
362.146	9.12
362.933	8.12
363.72	9.12
364.507	7.12
365.294	10.12
366.081	8.12
366.867	7.12
367.654	8.12
368.44	7.12
369.227	8.12
370.013	6.12
370.8	9.12
371.586	7.12
372.372	6.12
373.158	8.12
373.944	9.12
374.73	8.12
375.516	6.12
376.302	8.12
377.088	9.12
377.873	9.12
378.659	9.12
379.445	7.12
380.23	10.12
381.015	8.12
381.801	8.12
382.586	8.12
383.371	9.12
384.156	8.12
384.941	8.12
385.726	6.12
386.511	8.12
387.296	6.12
388.08	9.12
388.865	10.12
389.649	6.12
390.434	7.12
391.218	11.12
392.003	11.12
392.787	11.12
393.571	12.12
394.355	11.12
395.139	9.12
395.923	12.12
396.707	9.12
397.491	10.12
398.274	12.12
399.058	10.12
399.842	11.12
400.625	11.12
401.408	10.12
402.192	10.12
402.975	11.12
403.758	12.12
404.541	12.12
405.324	12.12
406.107	12.12
406.89	14.12
407.673	14.12
408.456	10.12
409.238	12.12
410.021	12.12
410.803	16.12
411.586	15.12
412.368	12.12
413.151	16.12
413.933	14.12
414.715	12.12
415.497	14.12
416.279	17.12
417.061	14.12
417.843	16.12
418.624	17.12
419.406	17.12
420.188	17.12
420.969	19.12
421.751	16.12
422.532	21.12
423.313	20.12
424.095	18.12
424.876	18.12
425.657	19.12
426.438	21.12
427.219	23.12
428	22.12
428.78	21.12
429.561	22.12
430.342	23.12
431.122	25.12
431.903	27.12
432.683	28.12
433.464	28.12
434.244	29.12
435.024	31.12
435.804	34.12
436.584	34.12
437.364	36.12
438.144	38.12
438.924	40.12
439.704	40.12
440.483	43.12
441.263	45.12
442.042	49.12
442.822	51.12
443.601	54.12
444.38	62.12
445.16	63.12
445.939	69.12
446.718	73.12
447.497	80.12
448.276	85.12
449.054	97.12
449.833	104.12
450.612	117.12
451.391	127.12
452.169	138.12
452.948	152.12
453.726	167.12
454.504	190.12
455.282	206.12
456.061	232.12
456.839	251.12
457.617	291.12
458.395	311.12
459.172	353.12
459.95	401.12
460.728	443.12
461.506	498.12
462.283	569.12
463.061	632.12
463.838	705.12
464.615	778.12
465.393	858.12
466.17	974.12
466.947	1078.12
467.724	1209.12
468.501	1332.12
469.278	1504.12
470.055	1670.12
470.831	1851.12
471.608	2054.12
472.385	2273.12
473.161	2516.12
473.938	2773.12
474.714	3081.12
475.49	3363.12
476.266	3716.12
477.043	4128.12
477.819	4535.12
478.595	4967.12
479.371	5453.12
480.146	5959.12
480.922	6557.12
481.698	7195.12
482.473	7821.12
483.249	8553.12
484.024	9346.12
484.8	10249.12
485.575	11180.12
486.35	12120.12
487.126	13216.12
487.901	14379.12
488.676	15626.12
489.451	16943.12
490.225	18328.12
491	19880.12
491.775	21338.12
492.55	22949.12
493.324	24570.12
494.099	26181.12
494.873	27868.12
495.647	29644.12
496.422	31377.12
497.196	33016.12
497.97	34710.12
498.744	36183.12
499.518	37532.12
500.292	38945.12
501.066	39984.12
501.839	41074.12
502.613	41758.12
503.387	42304.12
504.16	42736.12
504.934	42863.12
505.707	42736.12
506.48	42484.12
507.253	41990.12
508.027	41251.12
508.8	40284.12
509.573	39306.12
510.346	38132.12
511.118	36891.12
511.891	35792.12
512.664	34396.12
513.437	33036.12
514.209	31707.12
514.982	30461.12
515.754	29227.12
516.526	27916.12
517.298	26752.12
518.071	25704.12
518.843	24606.12
519.615	23624.12
520.387	22625.12
521.159	21795.12
521.93	20923.12
522.702	20026.12
523.474	19235.12
524.245	18438.12
525.017	17677.12
525.788	16862.12
526.56	16070.12
527.331	15317.12
528.102	14613.12
528.873	13931.12
529.644	13190.12
530.415	12485.12
531.186	11822.12
531.957	11247.12
532.728	10632.12
533.498	10074.12
534.269	9530.12
535.039	8943.12
535.81	8496.12
536.58	8061.12
537.351	7633.12
538.121	7207.12
538.891	6793.12
539.661	6447.12
540.431	6114.12
541.201	5819.12
541.971	5487.12
542.741	5226.12
543.51	4921.12
544.28	4706.12
545.05	4459.12
545.819	4218.12
546.588	4021.12
547.358	3826.12
548.127	3653.12
548.896	3435.12
549.665	3271.12
550.434	3087.12
551.203	2962.12
551.972	2786.12
552.741	2621.12
553.51	2488.12
554.278	2337.12
555.047	2216.12
555.815	2079.12
556.584	1994.12
557.352	1874.12
558.121	1762.12
558.889	1659.12
559.657	1565.12
560.425	1482.12
561.193	1411.12
561.961	1327.12
562.729	1256.12
563.496	1194.12
564.264	1130.12
565.032	1055.12
565.799	1007.12
566.567	963.12
567.334	908.12
568.101	846.12
568.869	797.12
569.636	758.12
570.403	723.12
571.17	676.12
571.937	647.12
572.704	599.12
573.471	569.12
574.237	543.12
575.004	504.12
575.771	477.12
576.537	442.12
577.303	429.12
578.07	401.12
578.836	376.12
579.602	346.12
580.368	340.12
581.134	323.12
581.9	305.12
582.666	288.12
583.432	278.12
584.198	264.12
584.964	246.12
585.729	230.12
586.495	215.12
587.26	208.12
588.025	204.12
588.791	188.12
589.556	179.12
590.321	168.12
591.086	160.12
591.851	153.12
592.616	147.12
593.381	140.12
594.146	137.12
594.911	128.12
595.675	123.12
596.44	119.12
597.204	107.12
597.969	105.12
598.733	104.12
599.497	95.12
600.261	91.12
601.025	88.12
601.79	87.12
602.553	83.12
603.317	80.12
604.081	74.12
604.845	73.12
605.609	73.12
606.372	68.12
607.136	62.12
607.899	58.12
608.662	60.12
609.426	51.12
610.189	54.12
610.952	52.12
611.715	49.12
612.478	53.12
613.241	44.12
614.004	49.12
614.767	44.12
615.529	45.12
616.292	42.12
617.055	38.12
617.817	37.12
618.579	36.12
619.342	35.12
620.104	32.12
620.866	37.12
621.628	31.12
622.39	30.12
623.152	32.12
623.914	29.12
624.676	28.12
625.438	24.12
626.199	24.12
626.961	25.12
627.722	29.12
628.484	23.12
629.245	22.12
630.006	23.12
630.768	21.12
631.529	21.12
632.29	21.12
633.051	21.12
633.812	19.12
634.573	18.12
635.333	17.12
636.094	16.12
636.855	19.12
637.615	16.12
638.376	17.12
639.136	18.12
639.896	13.12
640.657	17.12
641.417	15.12
642.177	17.12
642.937	14.12
643.697	12.12
644.457	15.12
645.216	14.12
645.976	15.12
646.736	12.12
647.495	14.12
648.255	13.12
649.014	12.12
649.774	11.12
650.533	11.12
651.292	12.12
652.051	11.12
652.81	12.12
653.569	11.12
654.328	10.12
655.087	12.12
655.846	12.12
656.604	10.12
657.363	8.12
658.121	9.12
658.88	7.12
659.638	7.12
660.397	10.12
661.155	10.12
661.913	10.12
662.671	8.12
663.429	6.12
664.187	9.12
664.945	11.12
665.703	7.12
666.46	5.12
667.218	10.12
667.976	10.12
668.733	7.12
669.49	6.12
670.248	9.12
671.005	9.12
671.762	8.12
672.519	8.12
673.276	6.12
674.033	9.12
674.79	6.12
675.547	6.12
676.304	7.12
677.06	4.12
677.817	8.12
678.574	7.12
679.33	9.12
680.086	6.12
680.843	7.12
681.599	5.12
682.355	6.12
683.111	5.12
683.867	4.12
684.623	9.12
685.379	5.12
686.135	9.12
686.89	6.12
687.646	5.12
688.402	8.12
689.157	6.12
689.912	7.12
690.668	5.12
691.423	7.12
692.178	3.12
692.933	7.12
693.688	6.12
694.443	6.12
695.198	7.12
695.953	8.12
696.708	6.12
697.462	8.12
698.217	6.12
698.972	8.12
699.726	4.12
700.48	5.12
701.235	7.12
701.989	7.12
702.743	7.12
703.497	6.12
704.251	8.12
705.005	4.12
705.759	5.12
706.513	5.12
707.266	7.12
708.02	8.12
708.774	6.12
709.527	7.12
710.28	3.12
711.034	7.12
711.787	6.12
712.54	6.12
713.293	5.12
714.046	5.12
714.799	6.12
715.552	7.12
716.305	7.12
717.058	7.12
717.81	7.12
718.563	7.12
719.315	6.12
720.068	5.12
720.82	6.12
721.573	8.12
722.325	7.12
723.077	8.12
723.829	8.12
724.581	8.12
725.333	8.12
726.085	7.12
726.836	6.12
727.588	4.12
728.34	8.12
729.091	8.12
729.843	6.12
730.594	5.12
731.346	7.12
732.097	8.12
732.848	6.12
733.599	9.12
734.35	7.12
735.101	8.12
735.852	6.12
736.603	6.12
737.354	8.12
738.104	7.12
738.855	3.12
739.605	7.12
740.356	8.12
741.106	9.12
741.856	9.12
742.607	8.12
743.357	8.12
744.107	8.12
744.857	8.12
745.607	8.12
746.357	9.12
747.106	9.12
747.856	10.12
748.606	8.12
749.355	7.12
750.105	10.12
750.854	8.12
751.603	11.12
752.353	8.12
753.102	11.12
753.851	9.12
754.6	7.12
755.349	10.12
756.098	11.12
756.847	12.12
757.595	9.12
758.344	11.12
759.093	9.12
759.841	9.12
760.589	9.12
761.338	10.12
762.086	11.12
762.834	10.12
763.582	12.12
764.331	12.12
765.079	12.12
765.826	10.12
766.574	9.12
767.322	11.12
768.07	12.12
768.817	13.12
769.565	12.12
770.312	12.12
771.06	11.12
771.807	12.12
772.554	15.12
773.302	13.12
774.049	14.12
774.796	13.12
775.543	13.12
776.29	12.12
777.036	13.12
777.783	12.12
778.53	12.12
779.276	13.12
780.023	14.12
780.769	13.12
781.516	11.12
782.262	12.12
783.008	16.12
783.754	14.12
784.5	12.12
785.246	12.12
785.992	12.12
786.738	14.12
787.484	15.12
788.23	15.12
788.975	13.12
789.721	15.12
790.466	12.12
791.212	13.12
791.957	12.12
792.702	12.12
793.447	13.12
794.193	13.12
794.938	11.12
795.683	11.12
796.427	13.12
797.172	11.12
797.917	12.12
798.662	11.12
799.406	12.12
800.151	10.12
800.895	10.12
801.64	8.12
802.384	9.12
803.128	9.12
803.872	11.12
804.616	10.12
805.36	10.12
806.104	10.12
806.848	9.12
807.592	8.12
808.336	10.12
809.079	9.12
809.823	7.12
810.566	8.12
811.31	7.12
812.053	10.12
812.796	8.12
813.539	8.12
814.283	7.12
815.026	8.12
815.769	9.12
816.511	9.12
817.254	6.12
817.997	4.12
818.74	6.12
819.482	6.12
820.225	5.12
820.967	6.12
821.71	3.12
822.452	8.12
823.194	4.12
823.936	6.12
824.678	5.12
825.42	8.12
826.162	4.12
826.904	6.12
827.646	7.12
828.388	4.12
829.129	5.12
829.871	4.12
830.612	4.12
831.354	4.12
832.095	4.12
832.836	2.12
833.577	7.12
834.319	6.12
835.06	6.12
835.801	5.12
836.542	6.12
837.282	5.12
838.023	6.12
838.764	2.12
839.504	6.12
840.245	6.12
840.985	4.12
841.726	6.12
842.466	4.12
843.206	6.12
843.946	1.12
844.687	5.12
845.427	7.12
846.166	1.12
846.906	3.12
847.646	4.12
848.386	2.12
849.125	1.12
849.865	4.12
850.605	3.12
851.344	2.12
852.083	4.12
852.823	4.12
853.562	3.12
854.301	5.12
855.04	5.12
855.779	2.12
856.518	2.12
857.257	5.12
857.995	4.12
858.734	2.12
859.473	3.12
860.211	4.12
860.95	2.12
861.688	2.12
862.426	0.12
863.165	3.12
863.903	3.12
864.641	0.12
865.379	4.12
866.117	2.12
866.855	4.12
867.593	2.12
868.33	1.12
869.068	2.12
869.806	1.12
870.543	3.12
871.28	0.12
872.018	1.12
872.755	0.12
873.492	1.12
874.229	1.12
874.967	1.12
875.703	2.12
876.44	1.12
877.177	4.12
877.914	-0.88
878.651	1.12
879.387	0.12
880.124	0.12
880.86	3.12
881.597	0.12
882.333	4.12
883.069	4.12
883.806	2.12
884.542	2.12
885.278	1.12
886.014	1.12
886.749	1.12
887.485	2.12
888.221	1.12
888.957	0.12
889.692	1.12
890.428	1.12
891.163	-0.88
891.899	-1.88
892.634	2.12
893.369	1.12
894.104	1.12
894.839	2.12
895.574	0.12
896.309	3.12
897.044	0.12
897.779	1.12
898.514	1.12
899.248	0.12
899.983	-0.88
900.717	0.12
901.452	1.12
902.186	0.12
902.92	0.12
903.654	0.12
904.389	0.12
905.123	0.12
905.857	0.12
906.59	0.12
907.324	0.12
908.058	0.12
908.792	1.12
909.525	-1.88
910.259	-0.88
910.992	-2.88
911.726	1.12
912.459	-0.88
913.192	1.12
913.925	0.12
914.658	2.12
915.391	-2.88
916.124	-0.88
916.857	-0.88
917.59	1.12
918.323	0.12
919.055	0.12
919.788	1.12
920.521	0.12
921.253	-0.88
921.985	0.12
922.718	-0.88
923.45	1.12
924.182	0.12
924.914	1.12
925.646	1.12
926.378	2.12
927.11	0.12
927.841	0.12
928.573	0.12
929.305	-0.88
930.036	0.12
930.768	-0.88
931.499	0.12
932.23	0.12
932.962	-1.88
933.693	0.12
934.424	0.12
935.155	0.12
935.886	1.12
936.617	0.12
937.348	0.12
938.078	1.12
938.809	1.12
939.54	2.12
940.27	0.12
941.001	1.12
941.731	0.12
942.461	0.12
943.191	1.12
943.922	-0.88
944.652	-1.88
945.382	1.12
946.112	-1.88
946.841	-1.88
947.571	0.12
948.301	-2.88
949.031	4.12
949.76	-0.88
950.49	1.12
951.219	0.12
951.948	-2.88
952.678	-0.88
953.407	2.12
954.136	-0.88
954.865	-1.88
955.594	1.12
956.323	-2.88
957.052	-0.88
957.78	2.12
958.509	-0.88
959.238	-0.88
959.966	-0.88
960.695	-0.88
961.423	-0.88
962.151	1.12
962.88	-0.88
963.608	0.12
964.336	1.12
965.064	-0.88
965.792	0.12
966.52	-1.88
967.247	1.12
967.975	0.12
968.703	0.12
969.43	2.12
970.158	1.12
970.885	0.12
971.613	-1.88
972.34	2.12
973.067	1.12
973.794	-1.88
974.521	0.12
975.248	0.12
975.975	-0.88
976.702	-0.88
977.429	-1.88
978.156	-0.88
978.882	0.12
979.609	0.12
980.335	0.12
981.062	0.12
981.788	0.12
982.514	1.12
983.24	-0.88
983.967	-2.88
984.693	-2.88
985.419	-2.88
986.144	0.12
986.87	-1.88
987.596	-0.88
988.322	-1.88
989.047	1.12
989.773	1.12
990.498	0.12
991.224	-0.88
991.949	-0.88
992.674	0.12
993.399	0.12
994.124	-1.88
994.849	-0.88
995.574	1.12
996.299	0.12
997.024	-0.88
997.749	0.12
998.473	0.12
999.198	0.12
999.922	0.12
1000.647	-1.88
1001.371	2.12
1002.095	-0.88
1002.82	0.12
1003.544	0.12
1004.268	1.12
1004.992	1.12
1005.716	1.12
1006.439	3.12
1007.163	4.12
1007.887	4.12
1008.611	2.12
1009.334	-0.88
1010.058	1.12
1010.781	2.12
1011.504	2.12
1012.228	-0.88
1012.951	1.12
1013.674	0.12
1014.397	-1.88
1015.12	-0.88
