节点500_565_QEPB04081__81__09-51-47-038.txt的数据

Date: Thu Nov 13 09:51:47 CST 2025
User: PC
Spectrometer: QEPB0408
触发模式: 0
积分时间 (秒): 1.000000E-2
Scans to average: 1
启用暗噪声校正: true
启用非线性校正: false
滑动平均宽度: 0
X轴模式: Wavelengths
Number of Pixels in Spectrum: 1044
>>>>>Begin Spectral Data<<<<<
220.843	2.75
221.644	5.75
222.444	3.75
223.244	3.75
224.045	3.75
224.845	4.75
225.645	4.75
226.445	2.75
227.245	4.75
228.045	4.75
228.845	4.75
229.645	3.75
230.444	4.75
231.244	8.75
232.043	7.75
232.843	7.75
233.642	9.75
234.442	4.75
235.241	6.75
236.04	6.75
236.839	10.75
237.638	8.75
238.437	8.75
239.236	10.75
240.035	8.75
240.833	7.75
241.632	9.75
242.43	11.75
243.229	11.75
244.027	9.75
244.826	10.75
245.624	7.75
246.422	11.75
247.22	6.75
248.018	10.75
248.816	11.75
249.614	11.75
250.412	10.75
251.21	10.75
252.007	12.75
252.805	12.75
253.602	11.75
254.4	14.75
255.197	14.75
255.994	15.75
256.791	15.75
257.589	15.75
258.386	17.75
259.183	21.75
259.979	18.75
260.776	19.75
261.573	21.75
262.37	18.75
263.166	20.75
263.963	22.75
264.759	22.75
265.556	21.75
266.352	21.75
267.148	24.75
267.944	23.75
268.74	24.75
269.536	22.75
270.332	26.75
271.128	28.75
271.924	27.75
272.719	25.75
273.515	28.75
274.311	28.75
275.106	29.75
275.901	30.75
276.697	33.75
277.492	27.75
278.287	31.75
279.082	28.75
279.877	28.75
280.672	27.75
281.467	31.75
282.262	33.75
283.056	30.75
283.851	29.75
284.646	28.75
285.44	27.75
286.234	26.75
287.029	30.75
287.823	29.75
288.617	28.75
289.411	28.75
290.205	24.75
290.999	29.75
291.793	23.75
292.587	28.75
293.381	27.75
294.174	25.75
294.968	28.75
295.761	23.75
296.555	23.75
297.348	22.75
298.141	21.75
298.935	25.75
299.728	24.75
300.521	22.75
301.314	20.75
302.107	18.75
302.899	18.75
303.692	18.75
304.485	19.75
305.277	19.75
306.07	19.75
306.862	17.75
307.655	16.75
308.447	16.75
309.239	18.75
310.031	16.75
310.823	16.75
311.615	16.75
312.407	13.75
313.199	16.75
313.991	12.75
314.783	12.75
315.574	15.75
316.366	12.75
317.157	9.75
317.949	11.75
318.74	11.75
319.531	10.75
320.322	12.75
321.113	10.75
321.904	12.75
322.695	11.75
323.486	12.75
324.277	11.75
325.068	11.75
325.858	10.75
326.649	10.75
327.439	9.75
328.23	9.75
329.02	8.75
329.81	11.75
330.6	10.75
331.391	11.75
332.181	8.75
332.971	10.75
333.76	8.75
334.55	10.75
335.34	11.75
336.13	8.75
336.919	10.75
337.709	7.75
338.498	8.75
339.287	9.75
340.077	8.75
340.866	10.75
341.655	8.75
342.444	10.75
343.233	5.75
344.022	8.75
344.811	8.75
345.6	8.75
346.388	9.75
347.177	10.75
347.965	8.75
348.754	8.75
349.542	11.75
350.33	6.75
351.119	9.75
351.907	9.75
352.695	6.75
353.483	9.75
354.271	10.75
355.059	8.75
355.846	7.75
356.634	7.75
357.422	7.75
358.209	6.75
358.997	9.75
359.784	10.75
360.571	6.75
361.359	9.75
362.146	7.75
362.933	5.75
363.72	8.75
364.507	7.75
365.294	8.75
366.081	7.75
366.867	7.75
367.654	6.75
368.44	7.75
369.227	8.75
370.013	8.75
370.8	7.75
371.586	6.75
372.372	7.75
373.158	5.75
373.944	7.75
374.73	6.75
375.516	8.75
376.302	5.75
377.088	7.75
377.873	6.75
378.659	7.75
379.445	9.75
380.23	8.75
381.015	11.75
381.801	7.75
382.586	6.75
383.371	5.75
384.156	7.75
384.941	5.75
385.726	7.75
386.511	8.75
387.296	9.75
388.08	10.75
388.865	6.75
389.649	11.75
390.434	11.75
391.218	9.75
392.003	9.75
392.787	9.75
393.571	11.75
394.355	12.75
395.139	9.75
395.923	10.75
396.707	8.75
397.491	12.75
398.274	10.75
399.058	12.75
399.842	12.75
400.625	9.75
401.408	11.75
402.192	10.75
402.975	12.75
403.758	12.75
404.541	12.75
405.324	11.75
406.107	12.75
406.89	13.75
407.673	9.75
408.456	16.75
409.238	12.75
410.021	16.75
410.803	15.75
411.586	15.75
412.368	14.75
413.151	12.75
413.933	15.75
414.715	13.75
415.497	15.75
416.279	12.75
417.061	15.75
417.843	15.75
418.624	15.75
419.406	16.75
420.188	16.75
420.969	18.75
421.751	18.75
422.532	19.75
423.313	19.75
424.095	14.75
424.876	19.75
425.657	20.75
426.438	23.75
427.219	21.75
428	21.75
428.78	22.75
429.561	22.75
430.342	25.75
431.122	25.75
431.903	23.75
432.683	26.75
433.464	29.75
434.244	27.75
435.024	28.75
435.804	30.75
436.584	33.75
437.364	37.75
438.144	35.75
438.924	35.75
439.704	41.75
440.483	39.75
441.263	45.75
442.042	48.75
442.822	50.75
443.601	57.75
444.38	54.75
445.16	64.75
445.939	66.75
446.718	74.75
447.497	78.75
448.276	84.75
449.054	92.75
449.833	105.75
450.612	116.75
451.391	121.75
452.169	137.75
452.948	146.75
453.726	165.75
454.504	180.75
455.282	202.75
456.061	231.75
456.839	257.75
457.617	280.75
458.395	315.75
459.172	347.75
459.95	392.75
460.728	440.75
461.506	483.75
462.283	542.75
463.061	614.75
463.838	676.75
464.615	753.75
465.393	846.75
466.17	948.75
466.947	1070.75
467.724	1183.75
468.501	1325.75
469.278	1479.75
470.055	1632.75
470.831	1812.75
471.608	2030.75
472.385	2257.75
473.161	2527.75
473.938	2765.75
474.714	3065.75
475.49	3396.75
476.266	3729.75
477.043	4154.75
477.819	4575.75
478.595	5026.75
479.371	5522.75
480.146	6063.75
480.922	6688.75
481.698	7341.75
482.473	8023.75
483.249	8820.75
484.024	9610.75
484.8	10639.75
485.575	11565.75
486.35	12563.75
487.126	13739.75
487.901	14990.75
488.676	16353.75
489.451	17703.75
490.225	19243.75
491	20747.75
491.775	22422.75
492.55	24112.75
493.324	25795.75
494.099	27527.75
494.873	29277.75
495.647	31253.75
496.422	33075.75
497.196	34735.75
497.97	36359.75
498.744	37883.75
499.518	39307.75
500.292	40559.75
501.066	41727.75
501.839	42741.75
502.613	43403.75
503.387	43790.75
504.16	44183.75
504.934	44139.75
505.707	43840.75
506.48	43438.75
507.253	42795.75
508.027	41975.75
508.8	40789.75
509.573	39563.75
510.346	38335.75
511.118	37036.75
511.891	35812.75
512.664	34447.75
513.437	33020.75
514.209	31506.75
514.982	30259.75
515.754	29025.75
516.526	27724.75
517.298	26527.75
518.071	25489.75
518.843	24409.75
519.615	23439.75
520.387	22386.75
521.159	21673.75
521.93	20738.75
522.702	19823.75
523.474	18982.75
524.245	18232.75
525.017	17520.75
525.788	16681.75
526.56	15849.75
527.331	15104.75
528.102	14371.75
528.873	13663.75
529.644	12976.75
530.415	12280.75
531.186	11630.75
531.957	11041.75
532.728	10426.75
533.498	9844.75
534.269	9323.75
535.039	8791.75
535.81	8310.75
536.58	7910.75
537.351	7447.75
538.121	7011.75
538.891	6608.75
539.661	6333.75
540.431	5981.75
541.201	5643.75
541.971	5357.75
542.741	5063.75
543.51	4816.75
544.28	4552.75
545.05	4335.75
545.819	4134.75
546.588	3926.75
547.358	3717.75
548.127	3562.75
548.896	3366.75
549.665	3175.75
550.434	3010.75
551.203	2871.75
551.972	2714.75
552.741	2548.75
553.51	2400.75
554.278	2282.75
555.047	2138.75
555.815	2029.75
556.584	1940.75
557.352	1817.75
558.121	1708.75
558.889	1619.75
559.657	1515.75
560.425	1443.75
561.193	1351.75
561.961	1284.75
562.729	1216.75
563.496	1148.75
564.264	1096.75
565.032	1036.75
565.799	984.75
566.567	925.75
567.334	863.75
568.101	824.75
568.869	781.75
569.636	726.75
570.403	696.75
571.17	658.75
571.937	617.75
572.704	582.75
573.471	537.75
574.237	515.75
575.004	495.75
575.771	460.75
576.537	433.75
577.303	418.75
578.07	386.75
578.836	364.75
579.602	346.75
580.368	325.75
581.134	311.75
581.9	292.75
582.666	276.75
583.432	262.75
584.198	251.75
584.964	238.75
585.729	227.75
586.495	209.75
587.26	203.75
588.025	191.75
588.791	178.75
589.556	176.75
590.321	161.75
591.086	155.75
591.851	153.75
592.616	144.75
593.381	136.75
594.146	130.75
594.911	124.75
595.675	117.75
596.44	112.75
597.204	103.75
597.969	103.75
598.733	96.75
599.497	94.75
600.261	87.75
601.025	87.75
601.79	81.75
602.553	78.75
603.317	77.75
604.081	74.75
604.845	68.75
605.609	70.75
606.372	62.75
607.136	64.75
607.899	58.75
608.662	57.75
609.426	54.75
610.189	51.75
610.952	50.75
611.715	50.75
612.478	51.75
613.241	46.75
614.004	42.75
614.767	43.75
615.529	43.75
616.292	40.75
617.055	35.75
617.817	38.75
618.579	33.75
619.342	34.75
620.104	32.75
620.866	33.75
621.628	30.75
622.39	31.75
623.152	25.75
623.914	27.75
624.676	26.75
625.438	26.75
626.199	25.75
626.961	23.75
627.722	23.75
628.484	22.75
629.245	23.75
630.006	20.75
630.768	23.75
631.529	23.75
632.29	19.75
633.051	20.75
633.812	19.75
634.573	19.75
635.333	18.75
636.094	17.75
636.855	14.75
637.615	15.75
638.376	15.75
639.136	13.75
639.896	16.75
640.657	13.75
641.417	14.75
642.177	14.75
642.937	16.75
643.697	12.75
644.457	14.75
645.216	12.75
645.976	13.75
646.736	13.75
647.495	12.75
648.255	11.75
649.014	11.75
649.774	11.75
650.533	12.75
651.292	10.75
652.051	12.75
652.81	10.75
653.569	12.75
654.328	9.75
655.087	8.75
655.846	13.75
656.604	6.75
657.363	10.75
658.121	9.75
658.88	11.75
659.638	10.75
660.397	10.75
661.155	10.75
661.913	8.75
662.671	11.75
663.429	9.75
664.187	7.75
664.945	7.75
665.703	8.75
666.46	9.75
667.218	8.75
667.976	7.75
668.733	7.75
669.49	6.75
670.248	6.75
671.005	8.75
671.762	6.75
672.519	6.75
673.276	6.75
674.033	6.75
674.79	6.75
675.547	8.75
676.304	6.75
677.06	9.75
677.817	7.75
678.574	7.75
679.33	5.75
680.086	6.75
680.843	7.75
681.599	5.75
682.355	6.75
683.111	7.75
683.867	7.75
684.623	6.75
685.379	6.75
686.135	3.75
686.89	6.75
687.646	5.75
688.402	6.75
689.157	6.75
689.912	7.75
690.668	4.75
691.423	4.75
692.178	7.75
692.933	5.75
693.688	3.75
694.443	7.75
695.198	4.75
695.953	4.75
696.708	5.75
697.462	4.75
698.217	4.75
698.972	4.75
699.726	5.75
700.48	3.75
701.235	6.75
701.989	4.75
702.743	5.75
703.497	6.75
704.251	5.75
705.005	5.75
705.759	6.75
706.513	5.75
707.266	4.75
708.02	7.75
708.774	5.75
709.527	5.75
710.28	5.75
711.034	1.75
711.787	5.75
712.54	4.75
713.293	4.75
714.046	4.75
714.799	4.75
715.552	5.75
716.305	8.75
717.058	5.75
717.81	7.75
718.563	5.75
719.315	3.75
720.068	5.75
720.82	7.75
721.573	4.75
722.325	4.75
723.077	9.75
723.829	6.75
724.581	8.75
725.333	3.75
726.085	7.75
726.836	5.75
727.588	7.75
728.34	5.75
729.091	2.75
729.843	8.75
730.594	7.75
731.346	9.75
732.097	5.75
732.848	7.75
733.599	5.75
734.35	5.75
735.101	5.75
735.852	4.75
736.603	7.75
737.354	5.75
738.104	7.75
738.855	6.75
739.605	7.75
740.356	4.75
741.106	8.75
741.856	9.75
742.607	7.75
743.357	10.75
744.107	5.75
744.857	9.75
745.607	8.75
746.357	8.75
747.106	7.75
747.856	7.75
748.606	8.75
749.355	9.75
750.105	7.75
750.854	7.75
751.603	7.75
752.353	9.75
753.102	7.75
753.851	7.75
754.6	11.75
755.349	9.75
756.098	9.75
756.847	7.75
757.595	9.75
758.344	10.75
759.093	8.75
759.841	10.75
760.589	10.75
761.338	12.75
762.086	11.75
762.834	11.75
763.582	10.75
764.331	11.75
765.079	12.75
765.826	11.75
766.574	8.75
767.322	11.75
768.07	10.75
768.817	11.75
769.565	12.75
770.312	9.75
771.06	11.75
771.807	13.75
772.554	12.75
773.302	11.75
774.049	12.75
774.796	14.75
775.543	12.75
776.29	13.75
777.036	12.75
777.783	13.75
778.53	15.75
779.276	13.75
780.023	14.75
780.769	13.75
781.516	12.75
782.262	15.75
783.008	12.75
783.754	13.75
784.5	11.75
785.246	13.75
785.992	10.75
786.738	12.75
787.484	13.75
788.23	12.75
788.975	15.75
789.721	12.75
790.466	13.75
791.212	13.75
791.957	12.75
792.702	10.75
793.447	13.75
794.193	13.75
794.938	11.75
795.683	14.75
796.427	11.75
797.172	11.75
797.917	11.75
798.662	12.75
799.406	7.75
800.151	9.75
800.895	10.75
801.64	8.75
802.384	10.75
803.128	10.75
803.872	8.75
804.616	12.75
805.36	11.75
806.104	6.75
806.848	7.75
807.592	8.75
808.336	9.75
809.079	8.75
809.823	7.75
810.566	7.75
811.31	7.75
812.053	7.75
812.796	8.75
813.539	10.75
814.283	8.75
815.026	6.75
815.769	6.75
816.511	7.75
817.254	7.75
817.997	5.75
818.74	6.75
819.482	5.75
820.225	5.75
820.967	5.75
821.71	5.75
822.452	4.75
823.194	5.75
823.936	3.75
824.678	4.75
825.42	5.75
826.162	1.75
826.904	6.75
827.646	5.75
828.388	7.75
829.129	4.75
829.871	3.75
830.612	7.75
831.354	4.75
832.095	4.75
832.836	4.75
833.577	3.75
834.319	3.75
835.06	1.75
835.801	5.75
836.542	2.75
837.282	4.75
838.023	3.75
838.764	4.75
839.504	5.75
840.245	4.75
840.985	5.75
841.726	1.75
842.466	5.75
843.206	3.75
843.946	4.75
844.687	1.75
845.427	3.75
846.166	4.75
846.906	1.75
847.646	3.75
848.386	3.75
849.125	5.75
849.865	3.75
850.605	0.75
851.344	1.75
852.083	2.75
852.823	3.75
853.562	2.75
854.301	2.75
855.04	2.75
855.779	2.75
856.518	0.75
857.257	1.75
857.995	1.75
858.734	0.75
859.473	2.75
860.211	1.75
860.95	3.75
861.688	0.75
862.426	0.75
863.165	3.75
863.903	2.75
864.641	-0.25
865.379	2.75
866.117	1.75
866.855	0.75
867.593	2.75
868.33	3.75
869.068	1.75
869.806	-0.25
870.543	0.75
871.28	0.75
872.018	1.75
872.755	1.75
873.492	3.75
874.229	-0.25
874.967	0.75
875.703	1.75
876.44	1.75
877.177	0.75
877.914	0.75
878.651	1.75
879.387	-3.25
880.124	0.75
880.86	1.75
881.597	0.75
882.333	1.75
883.069	-0.25
883.806	0.75
884.542	-1.25
885.278	0.75
886.014	1.75
886.749	1.75
887.485	0.75
888.221	0.75
888.957	1.75
889.692	-0.25
890.428	-0.25
891.163	-0.25
891.899	0.75
892.634	-0.25
893.369	-1.25
894.104	-1.25
894.839	-0.25
895.574	2.75
896.309	-0.25
897.044	1.75
897.779	-0.25
898.514	-0.25
899.248	1.75
899.983	0.75
900.717	0.75
901.452	0.75
902.186	1.75
902.92	-3.25
903.654	-2.25
904.389	-1.25
905.123	0.75
905.857	0.75
906.59	-0.25
907.324	0.75
908.058	0.75
908.792	-1.25
909.525	0.75
910.259	-1.25
910.992	0.75
911.726	0.75
912.459	-0.25
913.192	0.75
913.925	-0.25
914.658	-0.25
915.391	-0.25
916.124	1.75
916.857	0.75
917.59	-1.25
918.323	1.75
919.055	1.75
919.788	0.75
920.521	-0.25
921.253	2.75
921.985	-0.25
922.718	0.75
923.45	-1.25
924.182	-2.25
924.914	-0.25
925.646	-1.25
926.378	2.75
927.11	0.75
927.841	-0.25
928.573	-0.25
929.305	-0.25
930.036	-0.25
930.768	0.75
931.499	-0.25
932.23	-1.25
932.962	0.75
933.693	0.75
934.424	-0.25
935.155	0.75
935.886	-0.25
936.617	-2.25
937.348	-1.25
938.078	1.75
938.809	0.75
939.54	-1.25
940.27	-0.25
941.001	-2.25
941.731	0.75
942.461	-1.25
943.191	-0.25
943.922	0.75
944.652	-1.25
945.382	-0.25
946.112	0.75
946.841	1.75
947.571	-1.25
948.301	0.75
949.031	-0.25
949.76	-0.25
950.49	-1.25
951.219	-0.25
951.948	-0.25
952.678	-3.25
953.407	0.75
954.136	0.75
954.865	0.75
955.594	-2.25
956.323	-0.25
957.052	1.75
957.78	-2.25
958.509	-1.25
959.238	-0.25
959.966	0.75
960.695	-1.25
961.423	-0.25
962.151	-0.25
962.88	-1.25
963.608	-0.25
964.336	-0.25
965.064	-0.25
965.792	-1.25
966.52	-1.25
967.247	-1.25
967.975	-0.25
968.703	0.75
969.43	-1.25
970.158	1.75
970.885	1.75
971.613	-3.25
972.34	-0.25
973.067	-1.25
973.794	0.75
974.521	-0.25
975.248	0.75
975.975	-0.25
976.702	-0.25
977.429	0.75
978.156	-1.25
978.882	1.75
979.609	-0.25
980.335	-1.25
981.062	0.75
981.788	-2.25
982.514	-0.25
983.24	-1.25
983.967	-0.25
984.693	0.75
985.419	0.75
986.144	0.75
986.87	-0.25
987.596	1.75
988.322	-3.25
989.047	3.75
989.773	-0.25
990.498	0.75
991.224	1.75
991.949	-1.25
992.674	0.75
993.399	-0.25
994.124	1.75
994.849	-2.25
995.574	-1.25
996.299	-1.25
997.024	-0.25
997.749	-1.25
998.473	-0.25
999.198	-0.25
999.922	-0.25
1000.647	2.75
1001.371	4.75
1002.095	-0.25
1002.82	-1.25
1003.544	-2.25
1004.268	0.75
1004.992	0.75
1005.716	-0.25
1006.439	2.75
1007.163	2.75
1007.887	3.75
1008.611	-0.25
1009.334	0.75
1010.058	-0.25
1010.781	-0.25
1011.504	0.75
1012.228	0.75
1012.951	-0.25
1013.674	-0.25
1014.397	0.75
1015.12	-1.25
