节点500_565_QEPB04081__484__09-58-28-160.txt的数据

Date: Thu Nov 13 09:58:28 CST 2025
User: PC
Spectrometer: QEPB0408
触发模式: 0
积分时间 (秒): 1.000000E-2
Scans to average: 1
启用暗噪声校正: true
启用非线性校正: false
滑动平均宽度: 0
X轴模式: Wavelengths
Number of Pixels in Spectrum: 1044
>>>>>Begin Spectral Data<<<<<
220.843	2.88
221.644	4.88
222.444	3.88
223.244	3.88
224.045	3.88
224.845	4.88
225.645	2.88
226.445	7.88
227.245	4.88
228.045	6.88
228.845	5.88
229.645	6.88
230.444	6.88
231.244	4.88
232.043	5.88
232.843	2.88
233.642	8.88
234.442	7.88
235.241	6.88
236.04	8.88
236.839	7.88
237.638	6.88
238.437	6.88
239.236	7.88
240.035	5.88
240.833	8.88
241.632	7.88
242.43	7.88
243.229	6.88
244.027	11.88
244.826	10.88
245.624	8.88
246.422	10.88
247.22	9.88
248.018	9.88
248.816	13.88
249.614	12.88
250.412	11.88
251.21	12.88
252.007	11.88
252.805	12.88
253.602	11.88
254.4	15.88
255.197	13.88
255.994	15.88
256.791	16.88
257.589	16.88
258.386	14.88
259.183	16.88
259.979	17.88
260.776	15.88
261.573	17.88
262.37	18.88
263.166	18.88
263.963	18.88
264.759	18.88
265.556	18.88
266.352	20.88
267.148	20.88
267.944	21.88
268.74	23.88
269.536	24.88
270.332	21.88
271.128	22.88
271.924	26.88
272.719	22.88
273.515	22.88
274.311	23.88
275.106	26.88
275.901	28.88
276.697	24.88
277.492	26.88
278.287	26.88
279.082	25.88
279.877	27.88
280.672	23.88
281.467	26.88
282.262	25.88
283.056	28.88
283.851	27.88
284.646	26.88
285.44	26.88
286.234	28.88
287.029	25.88
287.823	26.88
288.617	24.88
289.411	24.88
290.205	25.88
290.999	22.88
291.793	25.88
292.587	25.88
293.381	25.88
294.174	23.88
294.968	23.88
295.761	19.88
296.555	20.88
297.348	21.88
298.141	22.88
298.935	20.88
299.728	21.88
300.521	18.88
301.314	20.88
302.107	19.88
302.899	19.88
303.692	17.88
304.485	16.88
305.277	16.88
306.07	16.88
306.862	17.88
307.655	19.88
308.447	15.88
309.239	17.88
310.031	17.88
310.823	15.88
311.615	16.88
312.407	16.88
313.199	13.88
313.991	13.88
314.783	14.88
315.574	11.88
316.366	12.88
317.157	12.88
317.949	12.88
318.74	14.88
319.531	8.88
320.322	11.88
321.113	11.88
321.904	13.88
322.695	12.88
323.486	11.88
324.277	12.88
325.068	11.88
325.858	12.88
326.649	11.88
327.439	10.88
328.23	11.88
329.02	9.88
329.81	9.88
330.6	9.88
331.391	11.88
332.181	10.88
332.971	10.88
333.76	7.88
334.55	9.88
335.34	9.88
336.13	8.88
336.919	10.88
337.709	10.88
338.498	10.88
339.287	10.88
340.077	8.88
340.866	8.88
341.655	11.88
342.444	8.88
343.233	8.88
344.022	9.88
344.811	7.88
345.6	10.88
346.388	8.88
347.177	8.88
347.965	10.88
348.754	7.88
349.542	10.88
350.33	7.88
351.119	11.88
351.907	10.88
352.695	7.88
353.483	8.88
354.271	9.88
355.059	10.88
355.846	9.88
356.634	10.88
357.422	9.88
358.209	8.88
358.997	8.88
359.784	6.88
360.571	7.88
361.359	8.88
362.146	6.88
362.933	8.88
363.72	8.88
364.507	6.88
365.294	4.88
366.081	9.88
366.867	6.88
367.654	6.88
368.44	6.88
369.227	7.88
370.013	8.88
370.8	8.88
371.586	6.88
372.372	8.88
373.158	6.88
373.944	7.88
374.73	10.88
375.516	8.88
376.302	6.88
377.088	7.88
377.873	5.88
378.659	8.88
379.445	8.88
380.23	8.88
381.015	5.88
381.801	6.88
382.586	8.88
383.371	5.88
384.156	9.88
384.941	7.88
385.726	6.88
386.511	8.88
387.296	7.88
388.08	4.88
388.865	8.88
389.649	9.88
390.434	8.88
391.218	10.88
392.003	7.88
392.787	8.88
393.571	7.88
394.355	8.88
395.139	9.88
395.923	9.88
396.707	8.88
397.491	9.88
398.274	12.88
399.058	10.88
399.842	8.88
400.625	12.88
401.408	8.88
402.192	10.88
402.975	9.88
403.758	13.88
404.541	9.88
405.324	12.88
406.107	10.88
406.89	12.88
407.673	11.88
408.456	12.88
409.238	11.88
410.021	12.88
410.803	10.88
411.586	12.88
412.368	12.88
413.151	13.88
413.933	14.88
414.715	13.88
415.497	13.88
416.279	13.88
417.061	17.88
417.843	13.88
418.624	13.88
419.406	14.88
420.188	18.88
420.969	16.88
421.751	16.88
422.532	18.88
423.313	17.88
424.095	16.88
424.876	19.88
425.657	19.88
426.438	19.88
427.219	20.88
428	22.88
428.78	21.88
429.561	23.88
430.342	25.88
431.122	22.88
431.903	25.88
432.683	29.88
433.464	28.88
434.244	28.88
435.024	30.88
435.804	30.88
436.584	35.88
437.364	34.88
438.144	35.88
438.924	38.88
439.704	41.88
440.483	43.88
441.263	47.88
442.042	50.88
442.822	57.88
443.601	56.88
444.38	64.88
445.16	69.88
445.939	76.88
446.718	83.88
447.497	85.88
448.276	97.88
449.054	103.88
449.833	118.88
450.612	128.88
451.391	142.88
452.169	153.88
452.948	172.88
453.726	191.88
454.504	210.88
455.282	230.88
456.061	258.88
456.839	284.88
457.617	323.88
458.395	355.88
459.172	391.88
459.95	438.88
460.728	491.88
461.506	545.88
462.283	609.88
463.061	676.88
463.838	759.88
464.615	837.88
465.393	933.88
466.17	1039.88
466.947	1135.88
467.724	1269.88
468.501	1412.88
469.278	1545.88
470.055	1695.88
470.831	1904.88
471.608	2073.88
472.385	2312.88
473.161	2530.88
473.938	2779.88
474.714	3040.88
475.49	3332.88
476.266	3665.88
477.043	3994.88
477.819	4351.88
478.595	4762.88
479.371	5181.88
480.146	5644.88
480.922	6154.88
481.698	6676.88
482.473	7227.88
483.249	7856.88
484.024	8518.88
484.8	9253.88
485.575	10016.88
486.35	10866.88
487.126	11742.88
487.901	12721.88
488.676	13670.88
489.451	14790.88
490.225	15977.88
491	17183.88
491.775	18386.88
492.55	19703.88
493.324	21065.88
494.099	22479.88
494.873	23883.88
495.647	25372.88
496.422	26875.88
497.196	28356.88
497.97	29816.88
498.744	31163.88
499.518	32536.88
500.292	33807.88
501.066	35005.88
501.839	36017.88
502.613	36961.88
503.387	37707.88
504.16	38427.88
504.934	38801.88
505.707	39143.88
506.48	39119.88
507.253	39014.88
508.027	38701.88
508.8	38217.88
509.573	37573.88
510.346	36778.88
511.118	35900.88
511.891	35066.88
512.664	33940.88
513.437	32841.88
514.209	31653.88
514.982	30508.88
515.754	29395.88
516.526	28318.88
517.298	27096.88
518.071	26023.88
518.843	25014.88
519.615	23988.88
520.387	23082.88
521.159	22147.88
521.93	21289.88
522.702	20409.88
523.474	19602.88
524.245	18790.88
525.017	18093.88
525.788	17308.88
526.56	16500.88
527.331	15817.88
528.102	15114.88
528.873	14415.88
529.644	13714.88
530.415	13064.88
531.186	12414.88
531.957	11858.88
532.728	11240.88
533.498	10676.88
534.269	10100.88
535.039	9548.88
535.81	9072.88
536.58	8599.88
537.351	8105.88
538.121	7672.88
538.891	7250.88
539.661	6918.88
540.431	6528.88
541.201	6211.88
541.971	5886.88
542.741	5529.88
543.51	5273.88
544.28	4979.88
545.05	4727.88
545.819	4520.88
546.588	4308.88
547.358	4088.88
548.127	3891.88
548.896	3707.88
549.665	3528.88
550.434	3338.88
551.203	3167.88
551.972	3024.88
552.741	2850.88
553.51	2692.88
554.278	2551.88
555.047	2417.88
555.815	2277.88
556.584	2171.88
557.352	2036.88
558.121	1935.88
558.889	1821.88
559.657	1713.88
560.425	1636.88
561.193	1536.88
561.961	1458.88
562.729	1368.88
563.496	1299.88
564.264	1242.88
565.032	1163.88
565.799	1113.88
566.567	1049.88
567.334	985.88
568.101	935.88
568.869	870.88
569.636	827.88
570.403	770.88
571.17	736.88
571.937	698.88
572.704	651.88
573.471	620.88
574.237	580.88
575.004	555.88
575.771	519.88
576.537	496.88
577.303	469.88
578.07	441.88
578.836	407.88
579.602	396.88
580.368	371.88
581.134	355.88
581.9	336.88
582.666	317.88
583.432	294.88
584.198	283.88
584.964	272.88
585.729	252.88
586.495	246.88
587.26	230.88
588.025	217.88
588.791	210.88
589.556	195.88
590.321	189.88
591.086	179.88
591.851	168.88
592.616	160.88
593.381	145.88
594.146	143.88
594.911	138.88
595.675	131.88
596.44	122.88
597.204	119.88
597.969	116.88
598.733	110.88
599.497	103.88
600.261	103.88
601.025	96.88
601.79	92.88
602.553	87.88
603.317	81.88
604.081	82.88
604.845	77.88
605.609	74.88
606.372	69.88
607.136	67.88
607.899	65.88
608.662	62.88
609.426	61.88
610.189	60.88
610.952	56.88
611.715	54.88
612.478	50.88
613.241	53.88
614.004	48.88
614.767	47.88
615.529	44.88
616.292	44.88
617.055	41.88
617.817	41.88
618.579	41.88
619.342	38.88
620.104	38.88
620.866	38.88
621.628	37.88
622.39	33.88
623.152	32.88
623.914	29.88
624.676	28.88
625.438	28.88
626.199	27.88
626.961	26.88
627.722	23.88
628.484	24.88
629.245	24.88
630.006	24.88
630.768	21.88
631.529	20.88
632.29	22.88
633.051	23.88
633.812	20.88
634.573	20.88
635.333	19.88
636.094	20.88
636.855	17.88
637.615	18.88
638.376	18.88
639.136	15.88
639.896	16.88
640.657	14.88
641.417	14.88
642.177	14.88
642.937	17.88
643.697	14.88
644.457	14.88
645.216	14.88
645.976	9.88
646.736	16.88
647.495	11.88
648.255	12.88
649.014	13.88
649.774	13.88
650.533	10.88
651.292	12.88
652.051	10.88
652.81	9.88
653.569	11.88
654.328	9.88
655.087	9.88
655.846	12.88
656.604	10.88
657.363	10.88
658.121	10.88
658.88	10.88
659.638	9.88
660.397	10.88
661.155	8.88
661.913	9.88
662.671	7.88
663.429	8.88
664.187	7.88
664.945	8.88
665.703	9.88
666.46	7.88
667.218	7.88
667.976	8.88
668.733	9.88
669.49	6.88
670.248	7.88
671.005	6.88
671.762	7.88
672.519	6.88
673.276	6.88
674.033	8.88
674.79	7.88
675.547	4.88
676.304	9.88
677.06	7.88
677.817	6.88
678.574	7.88
679.33	7.88
680.086	7.88
680.843	8.88
681.599	6.88
682.355	6.88
683.111	6.88
683.867	3.88
684.623	4.88
685.379	7.88
686.135	4.88
686.89	8.88
687.646	7.88
688.402	7.88
689.157	6.88
689.912	6.88
690.668	8.88
691.423	5.88
692.178	8.88
692.933	5.88
693.688	5.88
694.443	3.88
695.198	6.88
695.953	6.88
696.708	4.88
697.462	6.88
698.217	3.88
698.972	6.88
699.726	6.88
700.48	4.88
701.235	3.88
701.989	7.88
702.743	6.88
703.497	4.88
704.251	6.88
705.005	6.88
705.759	4.88
706.513	6.88
707.266	6.88
708.02	4.88
708.774	4.88
709.527	8.88
710.28	6.88
711.034	7.88
711.787	4.88
712.54	6.88
713.293	5.88
714.046	4.88
714.799	8.88
715.552	4.88
716.305	6.88
717.058	6.88
717.81	5.88
718.563	6.88
719.315	5.88
720.068	6.88
720.82	6.88
721.573	8.88
722.325	2.88
723.077	5.88
723.829	8.88
724.581	4.88
725.333	6.88
726.085	6.88
726.836	4.88
727.588	5.88
728.34	7.88
729.091	8.88
729.843	6.88
730.594	10.88
731.346	6.88
732.097	6.88
732.848	6.88
733.599	7.88
734.35	8.88
735.101	8.88
735.852	7.88
736.603	7.88
737.354	10.88
738.104	6.88
738.855	6.88
739.605	4.88
740.356	5.88
741.106	7.88
741.856	7.88
742.607	8.88
743.357	6.88
744.107	8.88
744.857	7.88
745.607	4.88
746.357	8.88
747.106	8.88
747.856	8.88
748.606	4.88
749.355	7.88
750.105	8.88
750.854	9.88
751.603	9.88
752.353	10.88
753.102	8.88
753.851	9.88
754.6	9.88
755.349	9.88
756.098	9.88
756.847	8.88
757.595	9.88
758.344	11.88
759.093	8.88
759.841	9.88
760.589	10.88
761.338	8.88
762.086	7.88
762.834	8.88
763.582	10.88
764.331	7.88
765.079	9.88
765.826	13.88
766.574	9.88
767.322	11.88
768.07	9.88
768.817	9.88
769.565	12.88
770.312	10.88
771.06	10.88
771.807	10.88
772.554	11.88
773.302	8.88
774.049	11.88
774.796	10.88
775.543	8.88
776.29	12.88
777.036	10.88
777.783	10.88
778.53	11.88
779.276	10.88
780.023	12.88
780.769	10.88
781.516	11.88
782.262	9.88
783.008	13.88
783.754	10.88
784.5	13.88
785.246	11.88
785.992	9.88
786.738	13.88
787.484	13.88
788.23	12.88
788.975	12.88
789.721	12.88
790.466	11.88
791.212	13.88
791.957	11.88
792.702	10.88
793.447	12.88
794.193	11.88
794.938	13.88
795.683	12.88
796.427	12.88
797.172	9.88
797.917	11.88
798.662	12.88
799.406	8.88
800.151	9.88
800.895	7.88
801.64	10.88
802.384	12.88
803.128	10.88
803.872	9.88
804.616	9.88
805.36	8.88
806.104	10.88
806.848	11.88
807.592	9.88
808.336	7.88
809.079	5.88
809.823	5.88
810.566	7.88
811.31	5.88
812.053	7.88
812.796	7.88
813.539	4.88
814.283	7.88
815.026	6.88
815.769	7.88
816.511	8.88
817.254	6.88
817.997	7.88
818.74	5.88
819.482	5.88
820.225	5.88
820.967	7.88
821.71	8.88
822.452	5.88
823.194	3.88
823.936	5.88
824.678	5.88
825.42	6.88
826.162	5.88
826.904	5.88
827.646	7.88
828.388	6.88
829.129	6.88
829.871	5.88
830.612	4.88
831.354	3.88
832.095	5.88
832.836	3.88
833.577	5.88
834.319	6.88
835.06	3.88
835.801	6.88
836.542	4.88
837.282	4.88
838.023	4.88
838.764	4.88
839.504	8.88
840.245	5.88
840.985	5.88
841.726	4.88
842.466	3.88
843.206	3.88
843.946	3.88
844.687	4.88
845.427	1.88
846.166	3.88
846.906	4.88
847.646	3.88
848.386	4.88
849.125	2.88
849.865	4.88
850.605	2.88
851.344	2.88
852.083	0.88
852.823	4.88
853.562	3.88
854.301	2.88
855.04	4.88
855.779	1.88
856.518	2.88
857.257	4.88
857.995	1.88
858.734	2.88
859.473	2.88
860.211	2.88
860.95	2.88
861.688	2.88
862.426	2.88
863.165	2.88
863.903	0.88
864.641	3.88
865.379	2.88
866.117	1.88
866.855	2.88
867.593	0.88
868.33	0.88
869.068	3.88
869.806	2.88
870.543	1.88
871.28	0.88
872.018	3.88
872.755	1.88
873.492	0.88
874.229	1.88
874.967	2.88
875.703	2.88
876.44	1.88
877.177	-0.12
877.914	2.88
878.651	3.88
879.387	1.88
880.124	1.88
880.86	1.88
881.597	0.88
882.333	2.88
883.069	-0.12
883.806	-0.12
884.542	0.88
885.278	2.88
886.014	0.88
886.749	1.88
887.485	1.88
888.221	-1.12
888.957	0.88
889.692	-1.12
890.428	-0.12
891.163	-0.12
891.899	0.88
892.634	1.88
893.369	-0.12
894.104	1.88
894.839	0.88
895.574	0.88
896.309	0.88
897.044	0.88
897.779	1.88
898.514	0.88
899.248	0.88
899.983	0.88
900.717	3.88
901.452	-1.12
902.186	0.88
902.92	2.88
903.654	1.88
904.389	1.88
905.123	-0.12
905.857	-0.12
906.59	0.88
907.324	-0.12
908.058	1.88
908.792	2.88
909.525	-0.12
910.259	-1.12
910.992	2.88
911.726	1.88
912.459	0.88
913.192	-0.12
913.925	-0.12
914.658	0.88
915.391	0.88
916.124	0.88
916.857	0.88
917.59	0.88
918.323	-0.12
919.055	-1.12
919.788	0.88
920.521	-0.12
921.253	-1.12
921.985	2.88
922.718	2.88
923.45	-0.12
924.182	0.88
924.914	0.88
925.646	-1.12
926.378	1.88
927.11	-1.12
927.841	-0.12
928.573	0.88
929.305	0.88
930.036	1.88
930.768	-1.12
931.499	0.88
932.23	0.88
932.962	2.88
933.693	0.88
934.424	-0.12
935.155	-0.12
935.886	-0.12
936.617	1.88
937.348	-2.12
938.078	0.88
938.809	2.88
939.54	1.88
940.27	0.88
941.001	1.88
941.731	-0.12
942.461	-1.12
943.191	0.88
943.922	-1.12
944.652	-2.12
945.382	0.88
946.112	-0.12
946.841	0.88
947.571	0.88
948.301	0.88
949.031	1.88
949.76	2.88
950.49	0.88
951.219	-0.12
951.948	-1.12
952.678	-1.12
953.407	-2.12
954.136	-2.12
954.865	0.88
955.594	-1.12
956.323	-2.12
957.052	-0.12
957.78	-2.12
958.509	0.88
959.238	-1.12
959.966	-2.12
960.695	2.88
961.423	2.88
962.151	1.88
962.88	-1.12
963.608	2.88
964.336	0.88
965.064	-2.12
965.792	3.88
966.52	-1.12
967.247	-0.12
967.975	0.88
968.703	0.88
969.43	0.88
970.158	2.88
970.885	0.88
971.613	2.88
972.34	-0.12
973.067	-2.12
973.794	0.88
974.521	1.88
975.248	-0.12
975.975	0.88
976.702	0.88
977.429	-0.12
978.156	0.88
978.882	2.88
979.609	0.88
980.335	1.88
981.062	-0.12
981.788	-0.12
982.514	-0.12
983.24	-0.12
983.967	0.88
984.693	1.88
985.419	1.88
986.144	-0.12
986.87	0.88
987.596	0.88
988.322	0.88
989.047	-0.12
989.773	0.88
990.498	2.88
991.224	0.88
991.949	-0.12
992.674	-0.12
993.399	-0.12
994.124	0.88
994.849	1.88
995.574	-1.12
996.299	-1.12
997.024	-0.12
997.749	-0.12
998.473	-1.12
999.198	0.88
999.922	-0.12
1000.647	0.88
1001.371	2.88
1002.095	-2.12
1002.82	-1.12
1003.544	-2.12
1004.268	2.88
1004.992	3.88
1005.716	4.88
1006.439	4.88
1007.163	3.88
1007.887	3.88
1008.611	0.88
1009.334	-0.12
1010.058	-1.12
1010.781	-1.12
1011.504	0.88
1012.228	0.88
1012.951	-0.12
1013.674	0.88
1014.397	1.88
1015.12	-0.12
