节点500_565_QEPB04081__157__09-53-01-956.txt的数据

Date: Thu Nov 13 09:53:01 CST 2025
User: PC
Spectrometer: QEPB0408
触发模式: 0
积分时间 (秒): 1.000000E-2
Scans to average: 1
启用暗噪声校正: true
启用非线性校正: false
滑动平均宽度: 0
X轴模式: Wavelengths
Number of Pixels in Spectrum: 1044
>>>>>Begin Spectral Data<<<<<
220.843	5.38
221.644	2.38
222.444	5.38
223.244	2.38
224.045	5.38
224.845	5.38
225.645	4.38
226.445	6.38
227.245	5.38
228.045	8.38
228.845	4.38
229.645	3.38
230.444	4.38
231.244	7.38
232.043	6.38
232.843	9.38
233.642	6.38
234.442	9.38
235.241	11.38
236.04	6.38
236.839	7.38
237.638	8.38
238.437	8.38
239.236	8.38
240.035	9.38
240.833	9.38
241.632	8.38
242.43	8.38
243.229	9.38
244.027	12.38
244.826	10.38
245.624	10.38
246.422	12.38
247.22	9.38
248.018	11.38
248.816	13.38
249.614	12.38
250.412	14.38
251.21	13.38
252.007	14.38
252.805	13.38
253.602	13.38
254.4	14.38
255.197	16.38
255.994	16.38
256.791	16.38
257.589	15.38
258.386	17.38
259.183	18.38
259.979	17.38
260.776	19.38
261.573	19.38
262.37	23.38
263.166	22.38
263.963	23.38
264.759	22.38
265.556	24.38
266.352	25.38
267.148	23.38
267.944	25.38
268.74	25.38
269.536	23.38
270.332	23.38
271.128	30.38
271.924	27.38
272.719	27.38
273.515	26.38
274.311	26.38
275.106	26.38
275.901	33.38
276.697	28.38
277.492	28.38
278.287	28.38
279.082	30.38
279.877	29.38
280.672	28.38
281.467	32.38
282.262	30.38
283.056	29.38
283.851	31.38
284.646	28.38
285.44	30.38
286.234	27.38
287.029	29.38
287.823	25.38
288.617	28.38
289.411	28.38
290.205	28.38
290.999	30.38
291.793	28.38
292.587	28.38
293.381	27.38
294.174	27.38
294.968	27.38
295.761	25.38
296.555	24.38
297.348	22.38
298.141	21.38
298.935	26.38
299.728	25.38
300.521	23.38
301.314	20.38
302.107	21.38
302.899	19.38
303.692	19.38
304.485	19.38
305.277	16.38
306.07	20.38
306.862	18.38
307.655	18.38
308.447	18.38
309.239	18.38
310.031	17.38
310.823	18.38
311.615	15.38
312.407	12.38
313.199	14.38
313.991	15.38
314.783	16.38
315.574	12.38
316.366	11.38
317.157	13.38
317.949	14.38
318.74	13.38
319.531	14.38
320.322	11.38
321.113	14.38
321.904	12.38
322.695	12.38
323.486	9.38
324.277	11.38
325.068	11.38
325.858	13.38
326.649	11.38
327.439	10.38
328.23	12.38
329.02	11.38
329.81	10.38
330.6	9.38
331.391	12.38
332.181	10.38
332.971	11.38
333.76	10.38
334.55	11.38
335.34	12.38
336.13	11.38
336.919	14.38
337.709	8.38
338.498	7.38
339.287	9.38
340.077	9.38
340.866	12.38
341.655	8.38
342.444	9.38
343.233	9.38
344.022	8.38
344.811	10.38
345.6	9.38
346.388	9.38
347.177	10.38
347.965	10.38
348.754	9.38
349.542	9.38
350.33	8.38
351.119	10.38
351.907	8.38
352.695	8.38
353.483	8.38
354.271	6.38
355.059	8.38
355.846	9.38
356.634	8.38
357.422	10.38
358.209	7.38
358.997	8.38
359.784	8.38
360.571	8.38
361.359	7.38
362.146	9.38
362.933	7.38
363.72	8.38
364.507	8.38
365.294	9.38
366.081	6.38
366.867	8.38
367.654	7.38
368.44	7.38
369.227	6.38
370.013	10.38
370.8	6.38
371.586	12.38
372.372	9.38
373.158	8.38
373.944	8.38
374.73	5.38
375.516	8.38
376.302	8.38
377.088	8.38
377.873	8.38
378.659	8.38
379.445	8.38
380.23	7.38
381.015	10.38
381.801	8.38
382.586	8.38
383.371	7.38
384.156	9.38
384.941	8.38
385.726	6.38
386.511	11.38
387.296	8.38
388.08	10.38
388.865	11.38
389.649	10.38
390.434	7.38
391.218	8.38
392.003	8.38
392.787	10.38
393.571	8.38
394.355	10.38
395.139	9.38
395.923	11.38
396.707	13.38
397.491	11.38
398.274	11.38
399.058	12.38
399.842	9.38
400.625	12.38
401.408	13.38
402.192	11.38
402.975	13.38
403.758	13.38
404.541	10.38
405.324	12.38
406.107	13.38
406.89	13.38
407.673	12.38
408.456	12.38
409.238	13.38
410.021	16.38
410.803	11.38
411.586	14.38
412.368	15.38
413.151	16.38
413.933	15.38
414.715	16.38
415.497	15.38
416.279	16.38
417.061	16.38
417.843	14.38
418.624	15.38
419.406	19.38
420.188	20.38
420.969	18.38
421.751	21.38
422.532	20.38
423.313	19.38
424.095	18.38
424.876	24.38
425.657	19.38
426.438	20.38
427.219	23.38
428	23.38
428.78	24.38
429.561	22.38
430.342	23.38
431.122	25.38
431.903	25.38
432.683	26.38
433.464	29.38
434.244	27.38
435.024	34.38
435.804	34.38
436.584	34.38
437.364	38.38
438.144	35.38
438.924	35.38
439.704	42.38
440.483	42.38
441.263	49.38
442.042	46.38
442.822	55.38
443.601	59.38
444.38	62.38
445.16	63.38
445.939	69.38
446.718	71.38
447.497	80.38
448.276	88.38
449.054	96.38
449.833	106.38
450.612	115.38
451.391	123.38
452.169	142.38
452.948	152.38
453.726	166.38
454.504	187.38
455.282	204.38
456.061	229.38
456.839	255.38
457.617	289.38
458.395	319.38
459.172	358.38
459.95	403.38
460.728	445.38
461.506	493.38
462.283	557.38
463.061	624.38
463.838	691.38
464.615	769.38
465.393	867.38
466.17	967.38
466.947	1063.38
467.724	1199.38
468.501	1337.38
469.278	1491.38
470.055	1642.38
470.831	1846.38
471.608	2044.38
472.385	2255.38
473.161	2497.38
473.938	2764.38
474.714	3056.38
475.49	3371.38
476.266	3707.38
477.043	4100.38
477.819	4504.38
478.595	4985.38
479.371	5445.38
480.146	6005.38
480.922	6576.38
481.698	7193.38
482.473	7884.38
483.249	8584.38
484.024	9410.38
484.8	10310.38
485.575	11234.38
486.35	12240.38
487.126	13299.38
487.901	14495.38
488.676	15763.38
489.451	17138.38
490.225	18500.38
491	19988.38
491.775	21516.38
492.55	23206.38
493.324	24760.38
494.099	26403.38
494.873	28192.38
495.647	29988.38
496.422	31669.38
497.196	33360.38
497.97	35062.38
498.744	36501.38
499.518	37950.38
500.292	39195.38
501.066	40293.38
501.839	41392.38
502.613	42097.38
503.387	42605.38
504.16	43024.38
504.934	43130.38
505.707	42951.38
506.48	42672.38
507.253	42201.38
508.027	41318.38
508.8	40381.38
509.573	39228.38
510.346	38057.38
511.118	36861.38
511.891	35764.38
512.664	34358.38
513.437	32957.38
514.209	31569.38
514.982	30378.38
515.754	29120.38
516.526	27851.38
517.298	26599.38
518.071	25562.38
518.843	24487.38
519.615	23507.38
520.387	22553.38
521.159	21685.38
521.93	20779.38
522.702	19916.38
523.474	19051.38
524.245	18289.38
525.017	17576.38
525.788	16756.38
526.56	15911.38
527.331	15262.38
528.102	14553.38
528.873	13770.38
529.644	13087.38
530.415	12469.38
531.186	11757.38
531.957	11165.38
532.728	10556.38
533.498	10013.38
534.269	9445.38
535.039	8894.38
535.81	8461.38
536.58	7997.38
537.351	7554.38
538.121	7136.38
538.891	6736.38
539.661	6387.38
540.431	6069.38
541.201	5730.38
541.971	5423.38
542.741	5149.38
543.51	4886.38
544.28	4639.38
545.05	4409.38
545.819	4202.38
546.588	3952.38
547.358	3761.38
548.127	3593.38
548.896	3422.38
549.665	3249.38
550.434	3084.38
551.203	2898.38
551.972	2764.38
552.741	2603.38
553.51	2449.38
554.278	2319.38
555.047	2182.38
555.815	2077.38
556.584	1960.38
557.352	1863.38
558.121	1765.38
558.889	1630.38
559.657	1560.38
560.425	1463.38
561.193	1389.38
561.961	1301.38
562.729	1236.38
563.496	1173.38
564.264	1115.38
565.032	1049.38
565.799	994.38
566.567	942.38
567.334	893.38
568.101	831.38
568.869	786.38
569.636	748.38
570.403	702.38
571.17	671.38
571.937	626.38
572.704	605.38
573.471	567.38
574.237	539.38
575.004	503.38
575.771	472.38
576.537	447.38
577.303	419.38
578.07	393.38
578.836	374.38
579.602	350.38
580.368	334.38
581.134	318.38
581.9	297.38
582.666	280.38
583.432	272.38
584.198	256.38
584.964	243.38
585.729	231.38
586.495	221.38
587.26	213.38
588.025	197.38
588.791	191.38
589.556	175.38
590.321	170.38
591.086	160.38
591.851	153.38
592.616	148.38
593.381	137.38
594.146	134.38
594.911	128.38
595.675	118.38
596.44	115.38
597.204	105.38
597.969	107.38
598.733	102.38
599.497	93.38
600.261	92.38
601.025	92.38
601.79	85.38
602.553	76.38
603.317	79.38
604.081	76.38
604.845	76.38
605.609	76.38
606.372	64.38
607.136	61.38
607.899	59.38
608.662	61.38
609.426	53.38
610.189	56.38
610.952	51.38
611.715	52.38
612.478	47.38
613.241	47.38
614.004	46.38
614.767	43.38
615.529	41.38
616.292	40.38
617.055	41.38
617.817	39.38
618.579	34.38
619.342	36.38
620.104	35.38
620.866	35.38
621.628	33.38
622.39	33.38
623.152	32.38
623.914	31.38
624.676	28.38
625.438	24.38
626.199	25.38
626.961	24.38
627.722	24.38
628.484	23.38
629.245	20.38
630.006	24.38
630.768	21.38
631.529	24.38
632.29	24.38
633.051	21.38
633.812	20.38
634.573	18.38
635.333	20.38
636.094	19.38
636.855	17.38
637.615	20.38
638.376	16.38
639.136	16.38
639.896	18.38
640.657	16.38
641.417	14.38
642.177	15.38
642.937	12.38
643.697	15.38
644.457	14.38
645.216	12.38
645.976	12.38
646.736	13.38
647.495	14.38
648.255	9.38
649.014	14.38
649.774	10.38
650.533	11.38
651.292	12.38
652.051	10.38
652.81	9.38
653.569	11.38
654.328	10.38
655.087	12.38
655.846	10.38
656.604	11.38
657.363	8.38
658.121	10.38
658.88	10.38
659.638	10.38
660.397	10.38
661.155	9.38
661.913	11.38
662.671	10.38
663.429	12.38
664.187	9.38
664.945	9.38
665.703	6.38
666.46	9.38
667.218	9.38
667.976	8.38
668.733	9.38
669.49	8.38
670.248	6.38
671.005	6.38
671.762	6.38
672.519	8.38
673.276	8.38
674.033	8.38
674.79	9.38
675.547	7.38
676.304	6.38
677.06	8.38
677.817	8.38
678.574	6.38
679.33	11.38
680.086	6.38
680.843	5.38
681.599	6.38
682.355	6.38
683.111	7.38
683.867	7.38
684.623	5.38
685.379	6.38
686.135	8.38
686.89	9.38
687.646	6.38
688.402	6.38
689.157	5.38
689.912	8.38
690.668	7.38
691.423	6.38
692.178	7.38
692.933	4.38
693.688	6.38
694.443	6.38
695.198	6.38
695.953	8.38
696.708	5.38
697.462	6.38
698.217	4.38
698.972	6.38
699.726	5.38
700.48	5.38
701.235	8.38
701.989	7.38
702.743	4.38
703.497	6.38
704.251	6.38
705.005	4.38
705.759	8.38
706.513	4.38
707.266	7.38
708.02	6.38
708.774	6.38
709.527	4.38
710.28	6.38
711.034	6.38
711.787	8.38
712.54	7.38
713.293	6.38
714.046	7.38
714.799	5.38
715.552	6.38
716.305	6.38
717.058	5.38
717.81	7.38
718.563	6.38
719.315	5.38
720.068	6.38
720.82	6.38
721.573	5.38
722.325	6.38
723.077	8.38
723.829	4.38
724.581	7.38
725.333	4.38
726.085	4.38
726.836	7.38
727.588	2.38
728.34	8.38
729.091	6.38
729.843	4.38
730.594	6.38
731.346	8.38
732.097	7.38
732.848	8.38
733.599	8.38
734.35	9.38
735.101	8.38
735.852	5.38
736.603	7.38
737.354	8.38
738.104	8.38
738.855	7.38
739.605	7.38
740.356	8.38
741.106	6.38
741.856	6.38
742.607	6.38
743.357	7.38
744.107	9.38
744.857	8.38
745.607	7.38
746.357	8.38
747.106	7.38
747.856	8.38
748.606	6.38
749.355	10.38
750.105	6.38
750.854	7.38
751.603	11.38
752.353	9.38
753.102	8.38
753.851	8.38
754.6	9.38
755.349	9.38
756.098	11.38
756.847	8.38
757.595	9.38
758.344	9.38
759.093	8.38
759.841	9.38
760.589	12.38
761.338	10.38
762.086	11.38
762.834	11.38
763.582	10.38
764.331	10.38
765.079	11.38
765.826	13.38
766.574	12.38
767.322	11.38
768.07	9.38
768.817	8.38
769.565	11.38
770.312	13.38
771.06	13.38
771.807	14.38
772.554	15.38
773.302	13.38
774.049	15.38
774.796	10.38
775.543	14.38
776.29	15.38
777.036	13.38
777.783	13.38
778.53	12.38
779.276	13.38
780.023	10.38
780.769	14.38
781.516	14.38
782.262	16.38
783.008	13.38
783.754	13.38
784.5	14.38
785.246	12.38
785.992	13.38
786.738	12.38
787.484	12.38
788.23	13.38
788.975	12.38
789.721	13.38
790.466	12.38
791.212	13.38
791.957	11.38
792.702	13.38
793.447	12.38
794.193	11.38
794.938	12.38
795.683	12.38
796.427	9.38
797.172	11.38
797.917	13.38
798.662	12.38
799.406	12.38
800.151	12.38
800.895	9.38
801.64	12.38
802.384	9.38
803.128	12.38
803.872	9.38
804.616	9.38
805.36	10.38
806.104	10.38
806.848	10.38
807.592	6.38
808.336	10.38
809.079	6.38
809.823	9.38
810.566	8.38
811.31	9.38
812.053	6.38
812.796	7.38
813.539	8.38
814.283	6.38
815.026	8.38
815.769	7.38
816.511	5.38
817.254	9.38
817.997	8.38
818.74	10.38
819.482	5.38
820.225	7.38
820.967	8.38
821.71	7.38
822.452	6.38
823.194	6.38
823.936	6.38
824.678	4.38
825.42	6.38
826.162	8.38
826.904	5.38
827.646	6.38
828.388	4.38
829.129	8.38
829.871	3.38
830.612	8.38
831.354	5.38
832.095	4.38
832.836	5.38
833.577	2.38
834.319	6.38
835.06	9.38
835.801	5.38
836.542	4.38
837.282	4.38
838.023	4.38
838.764	3.38
839.504	7.38
840.245	6.38
840.985	2.38
841.726	6.38
842.466	6.38
843.206	4.38
843.946	2.38
844.687	4.38
845.427	3.38
846.166	4.38
846.906	2.38
847.646	4.38
848.386	4.38
849.125	4.38
849.865	6.38
850.605	3.38
851.344	5.38
852.083	3.38
852.823	4.38
853.562	3.38
854.301	5.38
855.04	4.38
855.779	3.38
856.518	3.38
857.257	4.38
857.995	2.38
858.734	3.38
859.473	0.38
860.211	3.38
860.95	3.38
861.688	1.38
862.426	4.38
863.165	3.38
863.903	4.38
864.641	2.38
865.379	3.38
866.117	1.38
866.855	2.38
867.593	3.38
868.33	2.38
869.068	2.38
869.806	2.38
870.543	-0.62
871.28	2.38
872.018	3.38
872.755	3.38
873.492	1.38
874.229	2.38
874.967	1.38
875.703	1.38
876.44	2.38
877.177	2.38
877.914	0.38
878.651	-0.62
879.387	4.38
880.124	2.38
880.86	1.38
881.597	-0.62
882.333	1.38
883.069	0.38
883.806	4.38
884.542	2.38
885.278	-0.62
886.014	0.38
886.749	0.38
887.485	1.38
888.221	2.38
888.957	1.38
889.692	4.38
890.428	0.38
891.163	4.38
891.899	0.38
892.634	4.38
893.369	-0.62
894.104	0.38
894.839	2.38
895.574	0.38
896.309	0.38
897.044	2.38
897.779	0.38
898.514	-0.62
899.248	0.38
899.983	0.38
900.717	0.38
901.452	1.38
902.186	-0.62
902.92	2.38
903.654	-0.62
904.389	1.38
905.123	1.38
905.857	0.38
906.59	-0.62
907.324	0.38
908.058	0.38
908.792	0.38
909.525	2.38
910.259	1.38
910.992	-1.62
911.726	0.38
912.459	-0.62
913.192	0.38
913.925	1.38
914.658	-1.62
915.391	-0.62
916.124	0.38
916.857	0.38
917.59	-0.62
918.323	2.38
919.055	0.38
919.788	0.38
920.521	-0.62
921.253	1.38
921.985	1.38
922.718	-0.62
923.45	0.38
924.182	0.38
924.914	0.38
925.646	1.38
926.378	1.38
927.11	0.38
927.841	0.38
928.573	1.38
929.305	0.38
930.036	1.38
930.768	2.38
931.499	-2.62
932.23	0.38
932.962	0.38
933.693	-0.62
934.424	-1.62
935.155	-1.62
935.886	-0.62
936.617	1.38
937.348	-0.62
938.078	0.38
938.809	0.38
939.54	1.38
940.27	1.38
941.001	0.38
941.731	-1.62
942.461	1.38
943.191	0.38
943.922	-0.62
944.652	1.38
945.382	1.38
946.112	0.38
946.841	1.38
947.571	-0.62
948.301	0.38
949.031	0.38
949.76	0.38
950.49	-2.62
951.219	-1.62
951.948	0.38
952.678	1.38
953.407	0.38
954.136	0.38
954.865	-2.62
955.594	0.38
956.323	1.38
957.052	0.38
957.78	0.38
958.509	-0.62
959.238	0.38
959.966	0.38
960.695	1.38
961.423	0.38
962.151	3.38
962.88	1.38
963.608	1.38
964.336	-1.62
965.064	1.38
965.792	1.38
966.52	0.38
967.247	1.38
967.975	-0.62
968.703	-1.62
969.43	0.38
970.158	0.38
970.885	-0.62
971.613	-2.62
972.34	-1.62
973.067	-0.62
973.794	0.38
974.521	2.38
975.248	0.38
975.975	0.38
976.702	1.38
977.429	0.38
978.156	1.38
978.882	-1.62
979.609	0.38
980.335	-0.62
981.062	-0.62
981.788	2.38
982.514	0.38
983.24	2.38
983.967	0.38
984.693	1.38
985.419	-0.62
986.144	1.38
986.87	0.38
987.596	0.38
988.322	-0.62
989.047	-1.62
989.773	-1.62
990.498	0.38
991.224	2.38
991.949	-0.62
992.674	1.38
993.399	-2.62
994.124	-1.62
994.849	-0.62
995.574	0.38
996.299	0.38
997.024	0.38
997.749	0.38
998.473	0.38
999.198	0.38
999.922	-0.62
1000.647	0.38
1001.371	2.38
1002.095	-0.62
1002.82	0.38
1003.544	0.38
1004.268	3.38
1004.992	3.38
1005.716	1.38
1006.439	6.38
1007.163	2.38
1007.887	5.38
1008.611	3.38
1009.334	0.38
1010.058	-0.62
1010.781	-1.62
1011.504	-0.62
1012.228	-1.62
1012.951	-1.62
1013.674	-0.62
1014.397	-0.62
1015.12	0.38
