节点500_565_QEPB04081__586__10-00-09-985.txt的数据

Date: Thu Nov 13 10:00:09 CST 2025
User: PC
Spectrometer: QEPB0408
触发模式: 0
积分时间 (秒): 1.000000E-2
Scans to average: 1
启用暗噪声校正: true
启用非线性校正: false
滑动平均宽度: 0
X轴模式: Wavelengths
Number of Pixels in Spectrum: 1044
>>>>>Begin Spectral Data<<<<<
220.843	4.5
221.644	2.5
222.444	6.5
223.244	4.5
224.045	4.5
224.845	4.5
225.645	4.5
226.445	3.5
227.245	4.5
228.045	6.5
228.845	4.5
229.645	6.5
230.444	6.5
231.244	3.5
232.043	4.5
232.843	4.5
233.642	5.5
234.442	5.5
235.241	6.5
236.04	7.5
236.839	6.5
237.638	6.5
238.437	6.5
239.236	8.5
240.035	8.5
240.833	8.5
241.632	6.5
242.43	6.5
243.229	7.5
244.027	8.5
244.826	8.5
245.624	9.5
246.422	11.5
247.22	8.5
248.018	10.5
248.816	10.5
249.614	9.5
250.412	12.5
251.21	10.5
252.007	11.5
252.805	11.5
253.602	11.5
254.4	12.5
255.197	12.5
255.994	13.5
256.791	11.5
257.589	15.5
258.386	14.5
259.183	16.5
259.979	12.5
260.776	15.5
261.573	17.5
262.37	16.5
263.166	15.5
263.963	16.5
264.759	16.5
265.556	21.5
266.352	16.5
267.148	20.5
267.944	18.5
268.74	19.5
269.536	22.5
270.332	24.5
271.128	21.5
271.924	20.5
272.719	26.5
273.515	23.5
274.311	25.5
275.106	25.5
275.901	24.5
276.697	27.5
277.492	25.5
278.287	25.5
279.082	25.5
279.877	26.5
280.672	26.5
281.467	25.5
282.262	25.5
283.056	27.5
283.851	28.5
284.646	28.5
285.44	25.5
286.234	25.5
287.029	25.5
287.823	26.5
288.617	24.5
289.411	23.5
290.205	23.5
290.999	25.5
291.793	24.5
292.587	27.5
293.381	25.5
294.174	25.5
294.968	24.5
295.761	23.5
296.555	19.5
297.348	20.5
298.141	20.5
298.935	23.5
299.728	20.5
300.521	22.5
301.314	22.5
302.107	17.5
302.899	19.5
303.692	17.5
304.485	20.5
305.277	18.5
306.07	17.5
306.862	20.5
307.655	15.5
308.447	15.5
309.239	16.5
310.031	17.5
310.823	18.5
311.615	13.5
312.407	13.5
313.199	14.5
313.991	14.5
314.783	13.5
315.574	13.5
316.366	14.5
317.157	11.5
317.949	11.5
318.74	12.5
319.531	9.5
320.322	14.5
321.113	10.5
321.904	14.5
322.695	12.5
323.486	12.5
324.277	8.5
325.068	11.5
325.858	11.5
326.649	11.5
327.439	10.5
328.23	9.5
329.02	10.5
329.81	10.5
330.6	10.5
331.391	10.5
332.181	8.5
332.971	9.5
333.76	10.5
334.55	12.5
335.34	10.5
336.13	9.5
336.919	10.5
337.709	9.5
338.498	8.5
339.287	10.5
340.077	8.5
340.866	12.5
341.655	8.5
342.444	10.5
343.233	7.5
344.022	7.5
344.811	9.5
345.6	9.5
346.388	8.5
347.177	6.5
347.965	10.5
348.754	11.5
349.542	8.5
350.33	10.5
351.119	10.5
351.907	8.5
352.695	8.5
353.483	9.5
354.271	9.5
355.059	8.5
355.846	8.5
356.634	10.5
357.422	8.5
358.209	8.5
358.997	5.5
359.784	9.5
360.571	5.5
361.359	9.5
362.146	6.5
362.933	9.5
363.72	9.5
364.507	8.5
365.294	6.5
366.081	5.5
366.867	9.5
367.654	5.5
368.44	8.5
369.227	6.5
370.013	7.5
370.8	7.5
371.586	8.5
372.372	5.5
373.158	6.5
373.944	8.5
374.73	6.5
375.516	10.5
376.302	7.5
377.088	8.5
377.873	7.5
378.659	8.5
379.445	7.5
380.23	5.5
381.015	8.5
381.801	6.5
382.586	8.5
383.371	7.5
384.156	6.5
384.941	9.5
385.726	6.5
386.511	7.5
387.296	8.5
388.08	8.5
388.865	8.5
389.649	7.5
390.434	6.5
391.218	10.5
392.003	11.5
392.787	10.5
393.571	8.5
394.355	7.5
395.139	8.5
395.923	9.5
396.707	8.5
397.491	11.5
398.274	10.5
399.058	10.5
399.842	10.5
400.625	11.5
401.408	9.5
402.192	9.5
402.975	14.5
403.758	10.5
404.541	11.5
405.324	13.5
406.107	11.5
406.89	10.5
407.673	10.5
408.456	10.5
409.238	11.5
410.021	9.5
410.803	11.5
411.586	12.5
412.368	15.5
413.151	11.5
413.933	12.5
414.715	15.5
415.497	15.5
416.279	14.5
417.061	14.5
417.843	16.5
418.624	13.5
419.406	16.5
420.188	12.5
420.969	17.5
421.751	16.5
422.532	17.5
423.313	16.5
424.095	19.5
424.876	18.5
425.657	19.5
426.438	18.5
427.219	21.5
428	17.5
428.78	22.5
429.561	23.5
430.342	21.5
431.122	26.5
431.903	26.5
432.683	27.5
433.464	30.5
434.244	25.5
435.024	30.5
435.804	32.5
436.584	32.5
437.364	35.5
438.144	36.5
438.924	43.5
439.704	40.5
440.483	47.5
441.263	47.5
442.042	52.5
442.822	54.5
443.601	60.5
444.38	64.5
445.16	69.5
445.939	77.5
446.718	83.5
447.497	91.5
448.276	97.5
449.054	109.5
449.833	118.5
450.612	126.5
451.391	146.5
452.169	157.5
452.948	176.5
453.726	193.5
454.504	214.5
455.282	236.5
456.061	266.5
456.839	296.5
457.617	330.5
458.395	360.5
459.172	404.5
459.95	445.5
460.728	506.5
461.506	562.5
462.283	620.5
463.061	679.5
463.838	754.5
464.615	844.5
465.393	939.5
466.17	1024.5
466.947	1164.5
467.724	1276.5
468.501	1405.5
469.278	1552.5
470.055	1710.5
470.831	1893.5
471.608	2082.5
472.385	2293.5
473.161	2530.5
473.938	2791.5
474.714	3049.5
475.49	3290.5
476.266	3615.5
477.043	3957.5
477.819	4327.5
478.595	4725.5
479.371	5101.5
480.146	5558.5
480.922	6050.5
481.698	6542.5
482.473	7130.5
483.249	7710.5
484.024	8352.5
484.8	9004.5
485.575	9820.5
486.35	10621.5
487.126	11361.5
487.901	12295.5
488.676	13240.5
489.451	14337.5
490.225	15402.5
491	16525.5
491.775	17712.5
492.55	18975.5
493.324	20294.5
494.099	21597.5
494.873	22983.5
495.647	24469.5
496.422	25815.5
497.196	27244.5
497.97	28667.5
498.744	30038.5
499.518	31283.5
500.292	32605.5
501.066	33733.5
501.839	34821.5
502.613	35781.5
503.387	36588.5
504.16	37338.5
504.934	37829.5
505.707	38110.5
506.48	38247.5
507.253	38167.5
508.027	37928.5
508.8	37531.5
509.573	37029.5
510.346	36343.5
511.118	35426.5
511.891	34745.5
512.664	33760.5
513.437	32721.5
514.209	31595.5
514.982	30528.5
515.754	29476.5
516.526	28277.5
517.298	27182.5
518.071	26091.5
518.843	25046.5
519.615	24054.5
520.387	23084.5
521.159	22206.5
521.93	21368.5
522.702	20544.5
523.474	19740.5
524.245	18854.5
525.017	18145.5
525.788	17434.5
526.56	16669.5
527.331	15964.5
528.102	15287.5
528.873	14538.5
529.644	13873.5
530.415	13205.5
531.186	12557.5
531.957	11994.5
532.728	11388.5
533.498	10833.5
534.269	10265.5
535.039	9674.5
535.81	9246.5
536.58	8728.5
537.351	8228.5
538.121	7806.5
538.891	7400.5
539.661	7045.5
540.431	6684.5
541.201	6270.5
541.971	5950.5
542.741	5654.5
543.51	5355.5
544.28	5075.5
545.05	4842.5
545.819	4609.5
546.588	4388.5
547.358	4157.5
548.127	3970.5
548.896	3741.5
549.665	3600.5
550.434	3416.5
551.203	3206.5
551.972	3072.5
552.741	2905.5
553.51	2751.5
554.278	2589.5
555.047	2451.5
555.815	2323.5
556.584	2208.5
557.352	2094.5
558.121	1974.5
558.889	1843.5
559.657	1754.5
560.425	1651.5
561.193	1567.5
561.961	1487.5
562.729	1396.5
563.496	1318.5
564.264	1258.5
565.032	1186.5
565.799	1115.5
566.567	1062.5
567.334	1015.5
568.101	947.5
568.869	897.5
569.636	847.5
570.403	810.5
571.17	760.5
571.937	720.5
572.704	675.5
573.471	632.5
574.237	602.5
575.004	573.5
575.771	532.5
576.537	501.5
577.303	468.5
578.07	452.5
578.836	429.5
579.602	407.5
580.368	384.5
581.134	370.5
581.9	340.5
582.666	326.5
583.432	302.5
584.198	296.5
584.964	278.5
585.729	264.5
586.495	252.5
587.26	232.5
588.025	220.5
588.791	209.5
589.556	200.5
590.321	192.5
591.086	179.5
591.851	173.5
592.616	163.5
593.381	156.5
594.146	146.5
594.911	141.5
595.675	132.5
596.44	125.5
597.204	124.5
597.969	113.5
598.733	110.5
599.497	113.5
600.261	105.5
601.025	93.5
601.79	91.5
602.553	91.5
603.317	86.5
604.081	85.5
604.845	77.5
605.609	71.5
606.372	72.5
607.136	68.5
607.899	65.5
608.662	62.5
609.426	63.5
610.189	60.5
610.952	54.5
611.715	56.5
612.478	56.5
613.241	53.5
614.004	48.5
614.767	45.5
615.529	44.5
616.292	43.5
617.055	44.5
617.817	36.5
618.579	41.5
619.342	39.5
620.104	36.5
620.866	35.5
621.628	35.5
622.39	35.5
623.152	30.5
623.914	31.5
624.676	28.5
625.438	29.5
626.199	27.5
626.961	26.5
627.722	26.5
628.484	27.5
629.245	24.5
630.006	19.5
630.768	24.5
631.529	22.5
632.29	21.5
633.051	21.5
633.812	21.5
634.573	20.5
635.333	20.5
636.094	20.5
636.855	15.5
637.615	17.5
638.376	16.5
639.136	18.5
639.896	17.5
640.657	15.5
641.417	15.5
642.177	17.5
642.937	12.5
643.697	13.5
644.457	13.5
645.216	13.5
645.976	14.5
646.736	15.5
647.495	12.5
648.255	14.5
649.014	11.5
649.774	11.5
650.533	11.5
651.292	8.5
652.051	15.5
652.81	9.5
653.569	8.5
654.328	11.5
655.087	11.5
655.846	8.5
656.604	10.5
657.363	12.5
658.121	10.5
658.88	11.5
659.638	9.5
660.397	8.5
661.155	10.5
661.913	8.5
662.671	9.5
663.429	9.5
664.187	8.5
664.945	8.5
665.703	7.5
666.46	6.5
667.218	9.5
667.976	7.5
668.733	4.5
669.49	8.5
670.248	9.5
671.005	8.5
671.762	6.5
672.519	7.5
673.276	5.5
674.033	6.5
674.79	6.5
675.547	6.5
676.304	6.5
677.06	5.5
677.817	6.5
678.574	6.5
679.33	6.5
680.086	7.5
680.843	8.5
681.599	6.5
682.355	6.5
683.111	7.5
683.867	5.5
684.623	7.5
685.379	5.5
686.135	4.5
686.89	6.5
687.646	5.5
688.402	3.5
689.157	4.5
689.912	5.5
690.668	6.5
691.423	5.5
692.178	6.5
692.933	9.5
693.688	6.5
694.443	7.5
695.198	6.5
695.953	7.5
696.708	4.5
697.462	5.5
698.217	6.5
698.972	4.5
699.726	5.5
700.48	5.5
701.235	6.5
701.989	7.5
702.743	6.5
703.497	4.5
704.251	4.5
705.005	6.5
705.759	4.5
706.513	8.5
707.266	5.5
708.02	7.5
708.774	3.5
709.527	4.5
710.28	7.5
711.034	4.5
711.787	5.5
712.54	8.5
713.293	6.5
714.046	6.5
714.799	5.5
715.552	6.5
716.305	3.5
717.058	5.5
717.81	7.5
718.563	4.5
719.315	6.5
720.068	6.5
720.82	5.5
721.573	4.5
722.325	6.5
723.077	6.5
723.829	7.5
724.581	3.5
725.333	6.5
726.085	5.5
726.836	6.5
727.588	6.5
728.34	4.5
729.091	5.5
729.843	6.5
730.594	7.5
731.346	6.5
732.097	6.5
732.848	4.5
733.599	5.5
734.35	5.5
735.101	6.5
735.852	7.5
736.603	9.5
737.354	8.5
738.104	9.5
738.855	8.5
739.605	8.5
740.356	6.5
741.106	5.5
741.856	7.5
742.607	6.5
743.357	10.5
744.107	6.5
744.857	6.5
745.607	6.5
746.357	8.5
747.106	7.5
747.856	8.5
748.606	8.5
749.355	7.5
750.105	8.5
750.854	4.5
751.603	7.5
752.353	8.5
753.102	9.5
753.851	10.5
754.6	8.5
755.349	8.5
756.098	8.5
756.847	7.5
757.595	9.5
758.344	10.5
759.093	11.5
759.841	8.5
760.589	8.5
761.338	6.5
762.086	12.5
762.834	8.5
763.582	10.5
764.331	8.5
765.079	11.5
765.826	11.5
766.574	8.5
767.322	10.5
768.07	9.5
768.817	9.5
769.565	10.5
770.312	12.5
771.06	11.5
771.807	10.5
772.554	11.5
773.302	11.5
774.049	13.5
774.796	9.5
775.543	12.5
776.29	12.5
777.036	11.5
777.783	9.5
778.53	13.5
779.276	13.5
780.023	8.5
780.769	12.5
781.516	12.5
782.262	12.5
783.008	12.5
783.754	11.5
784.5	13.5
785.246	11.5
785.992	11.5
786.738	8.5
787.484	12.5
788.23	13.5
788.975	14.5
789.721	11.5
790.466	12.5
791.212	13.5
791.957	11.5
792.702	12.5
793.447	10.5
794.193	10.5
794.938	8.5
795.683	9.5
796.427	11.5
797.172	10.5
797.917	9.5
798.662	10.5
799.406	8.5
800.151	12.5
800.895	9.5
801.64	8.5
802.384	8.5
803.128	11.5
803.872	9.5
804.616	6.5
805.36	8.5
806.104	6.5
806.848	9.5
807.592	7.5
808.336	6.5
809.079	8.5
809.823	8.5
810.566	7.5
811.31	8.5
812.053	7.5
812.796	7.5
813.539	6.5
814.283	6.5
815.026	9.5
815.769	6.5
816.511	6.5
817.254	6.5
817.997	6.5
818.74	7.5
819.482	3.5
820.225	8.5
820.967	7.5
821.71	4.5
822.452	5.5
823.194	4.5
823.936	6.5
824.678	6.5
825.42	5.5
826.162	7.5
826.904	3.5
827.646	4.5
828.388	5.5
829.129	5.5
829.871	5.5
830.612	3.5
831.354	6.5
832.095	4.5
832.836	4.5
833.577	3.5
834.319	3.5
835.06	3.5
835.801	7.5
836.542	3.5
837.282	4.5
838.023	4.5
838.764	5.5
839.504	5.5
840.245	3.5
840.985	3.5
841.726	3.5
842.466	3.5
843.206	2.5
843.946	5.5
844.687	4.5
845.427	1.5
846.166	2.5
846.906	4.5
847.646	3.5
848.386	1.5
849.125	6.5
849.865	4.5
850.605	4.5
851.344	2.5
852.083	2.5
852.823	3.5
853.562	4.5
854.301	3.5
855.04	2.5
855.779	2.5
856.518	3.5
857.257	1.5
857.995	5.5
858.734	5.5
859.473	4.5
860.211	1.5
860.95	0.5
861.688	4.5
862.426	4.5
863.165	2.5
863.903	1.5
864.641	2.5
865.379	3.5
866.117	2.5
866.855	4.5
867.593	0.5
868.33	2.5
869.068	1.5
869.806	3.5
870.543	2.5
871.28	0.5
872.018	0.5
872.755	1.5
873.492	-0.5
874.229	1.5
874.967	2.5
875.703	1.5
876.44	1.5
877.177	2.5
877.914	1.5
878.651	0.5
879.387	1.5
880.124	2.5
880.86	0.5
881.597	0.5
882.333	3.5
883.069	2.5
883.806	2.5
884.542	0.5
885.278	0.5
886.014	1.5
886.749	-0.5
887.485	0.5
888.221	0.5
888.957	0.5
889.692	3.5
890.428	0.5
891.163	-0.5
891.899	1.5
892.634	-0.5
893.369	1.5
894.104	0.5
894.839	0.5
895.574	-0.5
896.309	1.5
897.044	1.5
897.779	0.5
898.514	-0.5
899.248	1.5
899.983	-1.5
900.717	0.5
901.452	0.5
902.186	0.5
902.92	-0.5
903.654	1.5
904.389	-0.5
905.123	-0.5
905.857	1.5
906.59	1.5
907.324	0.5
908.058	0.5
908.792	-0.5
909.525	0.5
910.259	0.5
910.992	-0.5
911.726	-0.5
912.459	0.5
913.192	-1.5
913.925	-0.5
914.658	-1.5
915.391	-0.5
916.124	1.5
916.857	0.5
917.59	0.5
918.323	1.5
919.055	-1.5
919.788	0.5
920.521	0.5
921.253	-2.5
921.985	-1.5
922.718	-0.5
923.45	-1.5
924.182	-2.5
924.914	1.5
925.646	-0.5
926.378	-1.5
927.11	0.5
927.841	-1.5
928.573	-0.5
929.305	-0.5
930.036	1.5
930.768	-1.5
931.499	2.5
932.23	0.5
932.962	1.5
933.693	0.5
934.424	-2.5
935.155	0.5
935.886	-2.5
936.617	1.5
937.348	1.5
938.078	-1.5
938.809	-1.5
939.54	0.5
940.27	-0.5
941.001	-2.5
941.731	1.5
942.461	0.5
943.191	0.5
943.922	-1.5
944.652	1.5
945.382	0.5
946.112	0.5
946.841	0.5
947.571	-2.5
948.301	0.5
949.031	0.5
949.76	0.5
950.49	-0.5
951.219	0.5
951.948	-3.5
952.678	0.5
953.407	0.5
954.136	1.5
954.865	-2.5
955.594	0.5
956.323	0.5
957.052	0.5
957.78	-0.5
958.509	-0.5
959.238	-1.5
959.966	-1.5
960.695	0.5
961.423	-3.5
962.151	1.5
962.88	-2.5
963.608	-1.5
964.336	-1.5
965.064	0.5
965.792	-0.5
966.52	0.5
967.247	0.5
967.975	-0.5
968.703	-0.5
969.43	0.5
970.158	0.5
970.885	-2.5
971.613	-0.5
972.34	0.5
973.067	0.5
973.794	-0.5
974.521	0.5
975.248	1.5
975.975	2.5
976.702	-1.5
977.429	0.5
978.156	-2.5
978.882	0.5
979.609	0.5
980.335	0.5
981.062	-2.5
981.788	-1.5
982.514	0.5
983.24	-1.5
983.967	0.5
984.693	0.5
985.419	-1.5
986.144	-0.5
986.87	-1.5
987.596	1.5
988.322	0.5
989.047	-0.5
989.773	2.5
990.498	1.5
991.224	1.5
991.949	0.5
992.674	-0.5
993.399	-0.5
994.124	0.5
994.849	0.5
995.574	0.5
996.299	2.5
997.024	2.5
997.749	-1.5
998.473	-0.5
999.198	-0.5
999.922	-2.5
1000.647	-0.5
1001.371	3.5
1002.095	-1.5
1002.82	-2.5
1003.544	-0.5
1004.268	2.5
1004.992	0.5
1005.716	4.5
1006.439	3.5
1007.163	2.5
1007.887	3.5
1008.611	-0.5
1009.334	-1.5
1010.058	-2.5
1010.781	-0.5
1011.504	-0.5
1012.228	-1.5
1012.951	-0.5
1013.674	0.5
1014.397	0.5
1015.12	0.5
