节点500_565_QEPB04081__89__09-51-55-003.txt的数据

Date: Thu Nov 13 09:51:55 CST 2025
User: PC
Spectrometer: QEPB0408
触发模式: 0
积分时间 (秒): 1.000000E-2
Scans to average: 1
启用暗噪声校正: true
启用非线性校正: false
滑动平均宽度: 0
X轴模式: Wavelengths
Number of Pixels in Spectrum: 1044
>>>>>Begin Spectral Data<<<<<
220.843	4.38
221.644	4.38
222.444	4.38
223.244	4.38
224.045	5.38
224.845	4.38
225.645	5.38
226.445	6.38
227.245	5.38
228.045	5.38
228.845	5.38
229.645	2.38
230.444	5.38
231.244	5.38
232.043	7.38
232.843	9.38
233.642	5.38
234.442	7.38
235.241	4.38
236.04	6.38
236.839	11.38
237.638	6.38
238.437	10.38
239.236	11.38
240.035	9.38
240.833	7.38
241.632	12.38
242.43	10.38
243.229	9.38
244.027	11.38
244.826	11.38
245.624	13.38
246.422	11.38
247.22	11.38
248.018	13.38
248.816	12.38
249.614	12.38
250.412	11.38
251.21	15.38
252.007	11.38
252.805	13.38
253.602	15.38
254.4	14.38
255.197	14.38
255.994	16.38
256.791	17.38
257.589	18.38
258.386	19.38
259.183	18.38
259.979	17.38
260.776	19.38
261.573	18.38
262.37	22.38
263.166	20.38
263.963	25.38
264.759	25.38
265.556	23.38
266.352	24.38
267.148	22.38
267.944	26.38
268.74	28.38
269.536	26.38
270.332	25.38
271.128	26.38
271.924	28.38
272.719	28.38
273.515	30.38
274.311	32.38
275.106	28.38
275.901	31.38
276.697	33.38
277.492	30.38
278.287	32.38
279.082	33.38
279.877	33.38
280.672	32.38
281.467	34.38
282.262	29.38
283.056	30.38
283.851	32.38
284.646	30.38
285.44	28.38
286.234	32.38
287.029	31.38
287.823	31.38
288.617	29.38
289.411	28.38
290.205	30.38
290.999	25.38
291.793	27.38
292.587	30.38
293.381	29.38
294.174	24.38
294.968	23.38
295.761	23.38
296.555	25.38
297.348	22.38
298.141	23.38
298.935	23.38
299.728	22.38
300.521	20.38
301.314	22.38
302.107	21.38
302.899	19.38
303.692	19.38
304.485	17.38
305.277	19.38
306.07	20.38
306.862	18.38
307.655	16.38
308.447	16.38
309.239	18.38
310.031	15.38
310.823	14.38
311.615	13.38
312.407	14.38
313.199	13.38
313.991	15.38
314.783	13.38
315.574	11.38
316.366	11.38
317.157	11.38
317.949	11.38
318.74	13.38
319.531	16.38
320.322	12.38
321.113	8.38
321.904	7.38
322.695	8.38
323.486	12.38
324.277	11.38
325.068	12.38
325.858	10.38
326.649	10.38
327.439	11.38
328.23	9.38
329.02	10.38
329.81	9.38
330.6	11.38
331.391	10.38
332.181	13.38
332.971	10.38
333.76	10.38
334.55	8.38
335.34	11.38
336.13	12.38
336.919	9.38
337.709	9.38
338.498	8.38
339.287	11.38
340.077	10.38
340.866	8.38
341.655	10.38
342.444	10.38
343.233	9.38
344.022	8.38
344.811	8.38
345.6	12.38
346.388	8.38
347.177	9.38
347.965	9.38
348.754	11.38
349.542	9.38
350.33	10.38
351.119	9.38
351.907	7.38
352.695	7.38
353.483	6.38
354.271	9.38
355.059	10.38
355.846	8.38
356.634	8.38
357.422	10.38
358.209	8.38
358.997	9.38
359.784	9.38
360.571	9.38
361.359	8.38
362.146	10.38
362.933	7.38
363.72	7.38
364.507	8.38
365.294	6.38
366.081	6.38
366.867	8.38
367.654	8.38
368.44	7.38
369.227	9.38
370.013	8.38
370.8	7.38
371.586	9.38
372.372	9.38
373.158	9.38
373.944	9.38
374.73	9.38
375.516	8.38
376.302	10.38
377.088	7.38
377.873	10.38
378.659	9.38
379.445	8.38
380.23	9.38
381.015	7.38
381.801	8.38
382.586	9.38
383.371	9.38
384.156	11.38
384.941	9.38
385.726	9.38
386.511	9.38
387.296	9.38
388.08	7.38
388.865	10.38
389.649	7.38
390.434	8.38
391.218	11.38
392.003	10.38
392.787	11.38
393.571	12.38
394.355	10.38
395.139	13.38
395.923	10.38
396.707	10.38
397.491	10.38
398.274	11.38
399.058	10.38
399.842	9.38
400.625	10.38
401.408	11.38
402.192	9.38
402.975	13.38
403.758	11.38
404.541	11.38
405.324	9.38
406.107	11.38
406.89	11.38
407.673	13.38
408.456	12.38
409.238	13.38
410.021	16.38
410.803	14.38
411.586	14.38
412.368	13.38
413.151	17.38
413.933	16.38
414.715	15.38
415.497	15.38
416.279	17.38
417.061	16.38
417.843	17.38
418.624	18.38
419.406	16.38
420.188	18.38
420.969	19.38
421.751	17.38
422.532	20.38
423.313	17.38
424.095	18.38
424.876	21.38
425.657	22.38
426.438	20.38
427.219	21.38
428	23.38
428.78	21.38
429.561	27.38
430.342	26.38
431.122	25.38
431.903	26.38
432.683	29.38
433.464	27.38
434.244	29.38
435.024	31.38
435.804	33.38
436.584	36.38
437.364	36.38
438.144	38.38
438.924	41.38
439.704	41.38
440.483	46.38
441.263	48.38
442.042	47.38
442.822	50.38
443.601	57.38
444.38	60.38
445.16	66.38
445.939	67.38
446.718	75.38
447.497	85.38
448.276	85.38
449.054	94.38
449.833	108.38
450.612	112.38
451.391	125.38
452.169	136.38
452.948	151.38
453.726	166.38
454.504	183.38
455.282	210.38
456.061	230.38
456.839	257.38
457.617	286.38
458.395	315.38
459.172	355.38
459.95	389.38
460.728	440.38
461.506	489.38
462.283	540.38
463.061	610.38
463.838	688.38
464.615	759.38
465.393	853.38
466.17	951.38
466.947	1073.38
467.724	1194.38
468.501	1316.38
469.278	1476.38
470.055	1641.38
470.831	1835.38
471.608	2029.38
472.385	2255.38
473.161	2502.38
473.938	2787.38
474.714	3057.38
475.49	3377.38
476.266	3747.38
477.043	4136.38
477.819	4553.38
478.595	5029.38
479.371	5515.38
480.146	6078.38
480.922	6676.38
481.698	7331.38
482.473	8027.38
483.249	8774.38
484.024	9645.38
484.8	10527.38
485.575	11520.38
486.35	12551.38
487.126	13711.38
487.901	15002.38
488.676	16213.38
489.451	17632.38
490.225	19129.38
491	20607.38
491.775	22294.38
492.55	23982.38
493.324	25629.38
494.099	27364.38
494.873	29156.38
495.647	31051.38
496.422	32881.38
497.196	34586.38
497.97	36248.38
498.744	37717.38
499.518	39027.38
500.292	40386.38
501.066	41525.38
501.839	42503.38
502.613	43251.38
503.387	43732.38
504.16	43991.38
504.934	44034.38
505.707	43686.38
506.48	43438.38
507.253	42699.38
508.027	41830.38
508.8	40801.38
509.573	39610.38
510.346	38379.38
511.118	37053.38
511.891	35919.38
512.664	34414.38
513.437	33069.38
514.209	31592.38
514.982	30341.38
515.754	29114.38
516.526	27794.38
517.298	26635.38
518.071	25481.38
518.843	24418.38
519.615	23454.38
520.387	22491.38
521.159	21641.38
521.93	20797.38
522.702	19853.38
523.474	19060.38
524.245	18262.38
525.017	17531.38
525.788	16753.38
526.56	15889.38
527.331	15126.38
528.102	14461.38
528.873	13654.38
529.644	13012.38
530.415	12320.38
531.186	11650.38
531.957	11057.38
532.728	10457.38
533.498	9916.38
534.269	9344.38
535.039	8817.38
535.81	8329.38
536.58	7901.38
537.351	7485.38
538.121	7073.38
538.891	6700.38
539.661	6312.38
540.431	5996.38
541.201	5654.38
541.971	5379.38
542.741	5092.38
543.51	4803.38
544.28	4598.38
545.05	4367.38
545.819	4168.38
546.588	3881.38
547.358	3744.38
548.127	3544.38
548.896	3376.38
549.665	3201.38
550.434	3040.38
551.203	2886.38
551.972	2715.38
552.741	2568.38
553.51	2420.38
554.278	2291.38
555.047	2158.38
555.815	2029.38
556.584	1936.38
557.352	1831.38
558.121	1715.38
558.889	1614.38
559.657	1521.38
560.425	1433.38
561.193	1366.38
561.961	1307.38
562.729	1230.38
563.496	1165.38
564.264	1089.38
565.032	1047.38
565.799	989.38
566.567	933.38
567.334	875.38
568.101	837.38
568.869	784.38
569.636	742.38
570.403	704.38
571.17	667.38
571.937	623.38
572.704	584.38
573.471	554.38
574.237	519.38
575.004	498.38
575.771	463.38
576.537	436.38
577.303	414.38
578.07	382.38
578.836	363.38
579.602	347.38
580.368	325.38
581.134	310.38
581.9	298.38
582.666	284.38
583.432	274.38
584.198	255.38
584.964	235.38
585.729	231.38
586.495	217.38
587.26	202.38
588.025	195.38
588.791	187.38
589.556	167.38
590.321	170.38
591.086	165.38
591.851	154.38
592.616	142.38
593.381	139.38
594.146	132.38
594.911	123.38
595.675	117.38
596.44	115.38
597.204	110.38
597.969	104.38
598.733	98.38
599.497	98.38
600.261	89.38
601.025	89.38
601.79	81.38
602.553	80.38
603.317	76.38
604.081	74.38
604.845	69.38
605.609	67.38
606.372	65.38
607.136	65.38
607.899	57.38
608.662	58.38
609.426	53.38
610.189	54.38
610.952	51.38
611.715	50.38
612.478	47.38
613.241	44.38
614.004	44.38
614.767	40.38
615.529	45.38
616.292	40.38
617.055	39.38
617.817	40.38
618.579	37.38
619.342	36.38
620.104	32.38
620.866	36.38
621.628	32.38
622.39	31.38
623.152	30.38
623.914	28.38
624.676	28.38
625.438	25.38
626.199	26.38
626.961	26.38
627.722	24.38
628.484	28.38
629.245	19.38
630.006	24.38
630.768	20.38
631.529	22.38
632.29	21.38
633.051	22.38
633.812	21.38
634.573	20.38
635.333	19.38
636.094	16.38
636.855	18.38
637.615	18.38
638.376	15.38
639.136	14.38
639.896	14.38
640.657	16.38
641.417	13.38
642.177	16.38
642.937	14.38
643.697	14.38
644.457	15.38
645.216	12.38
645.976	10.38
646.736	13.38
647.495	15.38
648.255	12.38
649.014	13.38
649.774	11.38
650.533	10.38
651.292	12.38
652.051	13.38
652.81	12.38
653.569	13.38
654.328	12.38
655.087	10.38
655.846	9.38
656.604	10.38
657.363	9.38
658.121	11.38
658.88	9.38
659.638	9.38
660.397	9.38
661.155	6.38
661.913	9.38
662.671	9.38
663.429	9.38
664.187	8.38
664.945	9.38
665.703	9.38
666.46	8.38
667.218	9.38
667.976	9.38
668.733	9.38
669.49	5.38
670.248	9.38
671.005	4.38
671.762	6.38
672.519	7.38
673.276	7.38
674.033	9.38
674.79	6.38
675.547	8.38
676.304	5.38
677.06	6.38
677.817	8.38
678.574	8.38
679.33	8.38
680.086	6.38
680.843	7.38
681.599	8.38
682.355	6.38
683.111	8.38
683.867	6.38
684.623	8.38
685.379	6.38
686.135	7.38
686.89	6.38
687.646	6.38
688.402	6.38
689.157	7.38
689.912	5.38
690.668	10.38
691.423	8.38
692.178	8.38
692.933	8.38
693.688	7.38
694.443	4.38
695.198	5.38
695.953	4.38
696.708	6.38
697.462	7.38
698.217	8.38
698.972	6.38
699.726	5.38
700.48	6.38
701.235	4.38
701.989	7.38
702.743	5.38
703.497	6.38
704.251	5.38
705.005	4.38
705.759	8.38
706.513	4.38
707.266	7.38
708.02	6.38
708.774	6.38
709.527	4.38
710.28	6.38
711.034	7.38
711.787	6.38
712.54	6.38
713.293	5.38
714.046	5.38
714.799	6.38
715.552	3.38
716.305	7.38
717.058	6.38
717.81	5.38
718.563	5.38
719.315	7.38
720.068	6.38
720.82	6.38
721.573	7.38
722.325	7.38
723.077	8.38
723.829	9.38
724.581	8.38
725.333	8.38
726.085	8.38
726.836	6.38
727.588	6.38
728.34	8.38
729.091	8.38
729.843	8.38
730.594	7.38
731.346	7.38
732.097	9.38
732.848	8.38
733.599	8.38
734.35	8.38
735.101	8.38
735.852	7.38
736.603	6.38
737.354	9.38
738.104	7.38
738.855	9.38
739.605	7.38
740.356	9.38
741.106	7.38
741.856	7.38
742.607	8.38
743.357	8.38
744.107	10.38
744.857	10.38
745.607	9.38
746.357	8.38
747.106	10.38
747.856	9.38
748.606	10.38
749.355	12.38
750.105	8.38
750.854	7.38
751.603	10.38
752.353	9.38
753.102	10.38
753.851	9.38
754.6	11.38
755.349	10.38
756.098	9.38
756.847	11.38
757.595	10.38
758.344	14.38
759.093	9.38
759.841	11.38
760.589	10.38
761.338	12.38
762.086	11.38
762.834	11.38
763.582	10.38
764.331	8.38
765.079	11.38
765.826	10.38
766.574	11.38
767.322	14.38
768.07	13.38
768.817	13.38
769.565	14.38
770.312	14.38
771.06	12.38
771.807	13.38
772.554	13.38
773.302	12.38
774.049	15.38
774.796	13.38
775.543	16.38
776.29	11.38
777.036	17.38
777.783	15.38
778.53	13.38
779.276	14.38
780.023	13.38
780.769	13.38
781.516	12.38
782.262	13.38
783.008	13.38
783.754	14.38
784.5	16.38
785.246	16.38
785.992	13.38
786.738	14.38
787.484	13.38
788.23	13.38
788.975	11.38
789.721	14.38
790.466	11.38
791.212	14.38
791.957	12.38
792.702	14.38
793.447	13.38
794.193	12.38
794.938	12.38
795.683	11.38
796.427	13.38
797.172	12.38
797.917	11.38
798.662	10.38
799.406	10.38
800.151	10.38
800.895	10.38
801.64	11.38
802.384	12.38
803.128	12.38
803.872	12.38
804.616	10.38
805.36	12.38
806.104	9.38
806.848	9.38
807.592	10.38
808.336	8.38
809.079	10.38
809.823	9.38
810.566	7.38
811.31	7.38
812.053	8.38
812.796	8.38
813.539	7.38
814.283	7.38
815.026	6.38
815.769	10.38
816.511	7.38
817.254	6.38
817.997	5.38
818.74	9.38
819.482	8.38
820.225	5.38
820.967	7.38
821.71	6.38
822.452	8.38
823.194	5.38
823.936	5.38
824.678	6.38
825.42	6.38
826.162	6.38
826.904	5.38
827.646	6.38
828.388	6.38
829.129	6.38
829.871	5.38
830.612	7.38
831.354	5.38
832.095	4.38
832.836	5.38
833.577	6.38
834.319	5.38
835.06	4.38
835.801	3.38
836.542	6.38
837.282	4.38
838.023	6.38
838.764	4.38
839.504	7.38
840.245	4.38
840.985	6.38
841.726	4.38
842.466	4.38
843.206	5.38
843.946	3.38
844.687	8.38
845.427	4.38
846.166	6.38
846.906	2.38
847.646	4.38
848.386	3.38
849.125	2.38
849.865	5.38
850.605	4.38
851.344	4.38
852.083	1.38
852.823	4.38
853.562	4.38
854.301	6.38
855.04	3.38
855.779	4.38
856.518	2.38
857.257	3.38
857.995	4.38
858.734	5.38
859.473	2.38
860.211	1.38
860.95	4.38
861.688	6.38
862.426	3.38
863.165	4.38
863.903	3.38
864.641	2.38
865.379	3.38
866.117	0.38
866.855	4.38
867.593	3.38
868.33	2.38
869.068	1.38
869.806	1.38
870.543	3.38
871.28	1.38
872.018	5.38
872.755	3.38
873.492	0.38
874.229	2.38
874.967	1.38
875.703	2.38
876.44	0.38
877.177	2.38
877.914	0.38
878.651	1.38
879.387	0.38
880.124	2.38
880.86	-0.62
881.597	1.38
882.333	1.38
883.069	1.38
883.806	2.38
884.542	1.38
885.278	1.38
886.014	5.38
886.749	1.38
887.485	-0.62
888.221	1.38
888.957	0.38
889.692	0.38
890.428	0.38
891.163	1.38
891.899	1.38
892.634	0.38
893.369	2.38
894.104	1.38
894.839	0.38
895.574	0.38
896.309	2.38
897.044	-0.62
897.779	0.38
898.514	1.38
899.248	2.38
899.983	2.38
900.717	0.38
901.452	3.38
902.186	-0.62
902.92	0.38
903.654	0.38
904.389	0.38
905.123	1.38
905.857	0.38
906.59	0.38
907.324	-1.62
908.058	0.38
908.792	-0.62
909.525	-0.62
910.259	1.38
910.992	-2.62
911.726	1.38
912.459	-0.62
913.192	1.38
913.925	1.38
914.658	-0.62
915.391	0.38
916.124	0.38
916.857	1.38
917.59	-0.62
918.323	0.38
919.055	0.38
919.788	1.38
920.521	1.38
921.253	-0.62
921.985	3.38
922.718	0.38
923.45	1.38
924.182	2.38
924.914	-0.62
925.646	1.38
926.378	-1.62
927.11	-0.62
927.841	0.38
928.573	-1.62
929.305	1.38
930.036	0.38
930.768	0.38
931.499	0.38
932.23	1.38
932.962	2.38
933.693	1.38
934.424	1.38
935.155	-0.62
935.886	-0.62
936.617	1.38
937.348	0.38
938.078	-1.62
938.809	-0.62
939.54	-0.62
940.27	-0.62
941.001	1.38
941.731	2.38
942.461	0.38
943.191	1.38
943.922	0.38
944.652	1.38
945.382	-1.62
946.112	1.38
946.841	0.38
947.571	0.38
948.301	1.38
949.031	-0.62
949.76	3.38
950.49	-0.62
951.219	-0.62
951.948	-0.62
952.678	0.38
953.407	-0.62
954.136	1.38
954.865	-0.62
955.594	0.38
956.323	0.38
957.052	0.38
957.78	-0.62
958.509	-1.62
959.238	1.38
959.966	1.38
960.695	0.38
961.423	1.38
962.151	-0.62
962.88	0.38
963.608	0.38
964.336	0.38
965.064	-0.62
965.792	0.38
966.52	0.38
967.247	0.38
967.975	-0.62
968.703	-0.62
969.43	0.38
970.158	0.38
970.885	0.38
971.613	0.38
972.34	1.38
973.067	0.38
973.794	0.38
974.521	0.38
975.248	0.38
975.975	0.38
976.702	0.38
977.429	1.38
978.156	1.38
978.882	-2.62
979.609	1.38
980.335	1.38
981.062	1.38
981.788	-0.62
982.514	0.38
983.24	2.38
983.967	-0.62
984.693	0.38
985.419	0.38
986.144	0.38
986.87	-0.62
987.596	0.38
988.322	0.38
989.047	-0.62
989.773	-0.62
990.498	-0.62
991.224	2.38
991.949	0.38
992.674	0.38
993.399	-2.62
994.124	-0.62
994.849	0.38
995.574	-0.62
996.299	0.38
997.024	0.38
997.749	0.38
998.473	0.38
999.198	0.38
999.922	-1.62
1000.647	-0.62
1001.371	4.38
1002.095	-1.62
1002.82	0.38
1003.544	-0.62
1004.268	3.38
1004.992	1.38
1005.716	3.38
1006.439	3.38
1007.163	4.38
1007.887	1.38
1008.611	2.38
1009.334	-2.62
1010.058	1.38
1010.781	-0.62
1011.504	-0.62
1012.228	0.38
1012.951	1.38
1013.674	-0.62
1014.397	-1.62
1015.12	-1.62
