节点500_565_QEPB04081__183__09-53-27-911.txt的数据

Date: Thu Nov 13 09:53:27 CST 2025
User: PC
Spectrometer: QEPB0408
触发模式: 0
积分时间 (秒): 1.000000E-2
Scans to average: 1
启用暗噪声校正: true
启用非线性校正: false
滑动平均宽度: 0
X轴模式: Wavelengths
Number of Pixels in Spectrum: 1044
>>>>>Begin Spectral Data<<<<<
220.843	4.75
221.644	1.75
222.444	3.75
223.244	4.75
224.045	5.75
224.845	4.75
225.645	6.75
226.445	7.75
227.245	6.75
228.045	4.75
228.845	4.75
229.645	9.75
230.444	7.75
231.244	7.75
232.043	5.75
232.843	7.75
233.642	8.75
234.442	4.75
235.241	8.75
236.04	6.75
236.839	7.75
237.638	8.75
238.437	8.75
239.236	6.75
240.035	8.75
240.833	9.75
241.632	9.75
242.43	12.75
243.229	9.75
244.027	10.75
244.826	12.75
245.624	10.75
246.422	11.75
247.22	13.75
248.018	14.75
248.816	11.75
249.614	13.75
250.412	13.75
251.21	12.75
252.007	12.75
252.805	14.75
253.602	10.75
254.4	15.75
255.197	13.75
255.994	12.75
256.791	16.75
257.589	19.75
258.386	17.75
259.183	20.75
259.979	19.75
260.776	20.75
261.573	20.75
262.37	19.75
263.166	22.75
263.963	18.75
264.759	23.75
265.556	23.75
266.352	24.75
267.148	23.75
267.944	24.75
268.74	24.75
269.536	23.75
270.332	26.75
271.128	29.75
271.924	27.75
272.719	27.75
273.515	30.75
274.311	29.75
275.106	25.75
275.901	30.75
276.697	28.75
277.492	29.75
278.287	28.75
279.082	29.75
279.877	30.75
280.672	30.75
281.467	31.75
282.262	29.75
283.056	30.75
283.851	32.75
284.646	28.75
285.44	28.75
286.234	29.75
287.029	32.75
287.823	27.75
288.617	28.75
289.411	29.75
290.205	28.75
290.999	28.75
291.793	27.75
292.587	28.75
293.381	25.75
294.174	24.75
294.968	24.75
295.761	25.75
296.555	23.75
297.348	21.75
298.141	25.75
298.935	24.75
299.728	23.75
300.521	20.75
301.314	22.75
302.107	23.75
302.899	18.75
303.692	18.75
304.485	18.75
305.277	22.75
306.07	22.75
306.862	18.75
307.655	18.75
308.447	15.75
309.239	17.75
310.031	16.75
310.823	16.75
311.615	15.75
312.407	16.75
313.199	13.75
313.991	17.75
314.783	15.75
315.574	15.75
316.366	16.75
317.157	12.75
317.949	13.75
318.74	12.75
319.531	12.75
320.322	9.75
321.113	12.75
321.904	12.75
322.695	12.75
323.486	12.75
324.277	11.75
325.068	12.75
325.858	11.75
326.649	12.75
327.439	12.75
328.23	12.75
329.02	9.75
329.81	13.75
330.6	8.75
331.391	11.75
332.181	11.75
332.971	10.75
333.76	10.75
334.55	9.75
335.34	9.75
336.13	9.75
336.919	11.75
337.709	8.75
338.498	11.75
339.287	10.75
340.077	11.75
340.866	7.75
341.655	9.75
342.444	8.75
343.233	10.75
344.022	8.75
344.811	9.75
345.6	10.75
346.388	8.75
347.177	11.75
347.965	10.75
348.754	8.75
349.542	8.75
350.33	7.75
351.119	11.75
351.907	9.75
352.695	10.75
353.483	7.75
354.271	6.75
355.059	9.75
355.846	8.75
356.634	9.75
357.422	6.75
358.209	9.75
358.997	8.75
359.784	7.75
360.571	7.75
361.359	6.75
362.146	9.75
362.933	8.75
363.72	8.75
364.507	6.75
365.294	8.75
366.081	9.75
366.867	7.75
367.654	10.75
368.44	9.75
369.227	8.75
370.013	8.75
370.8	8.75
371.586	8.75
372.372	7.75
373.158	7.75
373.944	7.75
374.73	7.75
375.516	7.75
376.302	8.75
377.088	9.75
377.873	7.75
378.659	6.75
379.445	10.75
380.23	8.75
381.015	7.75
381.801	9.75
382.586	9.75
383.371	8.75
384.156	8.75
384.941	7.75
385.726	9.75
386.511	8.75
387.296	9.75
388.08	10.75
388.865	10.75
389.649	12.75
390.434	11.75
391.218	9.75
392.003	12.75
392.787	9.75
393.571	8.75
394.355	9.75
395.139	11.75
395.923	11.75
396.707	11.75
397.491	12.75
398.274	12.75
399.058	12.75
399.842	9.75
400.625	11.75
401.408	12.75
402.192	12.75
402.975	11.75
403.758	14.75
404.541	15.75
405.324	12.75
406.107	13.75
406.89	12.75
407.673	13.75
408.456	14.75
409.238	12.75
410.021	15.75
410.803	13.75
411.586	16.75
412.368	16.75
413.151	14.75
413.933	15.75
414.715	17.75
415.497	17.75
416.279	16.75
417.061	16.75
417.843	13.75
418.624	17.75
419.406	17.75
420.188	16.75
420.969	17.75
421.751	17.75
422.532	16.75
423.313	19.75
424.095	19.75
424.876	21.75
425.657	22.75
426.438	21.75
427.219	21.75
428	23.75
428.78	23.75
429.561	24.75
430.342	27.75
431.122	25.75
431.903	23.75
432.683	28.75
433.464	28.75
434.244	30.75
435.024	30.75
435.804	32.75
436.584	33.75
437.364	33.75
438.144	38.75
438.924	39.75
439.704	39.75
440.483	41.75
441.263	46.75
442.042	50.75
442.822	53.75
443.601	59.75
444.38	57.75
445.16	64.75
445.939	72.75
446.718	72.75
447.497	80.75
448.276	90.75
449.054	96.75
449.833	106.75
450.612	112.75
451.391	128.75
452.169	142.75
452.948	155.75
453.726	169.75
454.504	189.75
455.282	208.75
456.061	234.75
456.839	258.75
457.617	286.75
458.395	325.75
459.172	363.75
459.95	401.75
460.728	452.75
461.506	502.75
462.283	564.75
463.061	627.75
463.838	684.75
464.615	781.75
465.393	876.75
466.17	970.75
466.947	1084.75
467.724	1212.75
468.501	1357.75
469.278	1498.75
470.055	1652.75
470.831	1853.75
471.608	2054.75
472.385	2262.75
473.161	2501.75
473.938	2780.75
474.714	3055.75
475.49	3381.75
476.266	3716.75
477.043	4100.75
477.819	4506.75
478.595	4938.75
479.371	5440.75
480.146	5972.75
480.922	6531.75
481.698	7151.75
482.473	7801.75
483.249	8545.75
484.024	9371.75
484.8	10182.75
485.575	11145.75
486.35	12115.75
487.126	13252.75
487.901	14326.75
488.676	15560.75
489.451	16934.75
490.225	18304.75
491	19797.75
491.775	21272.75
492.55	22863.75
493.324	24477.75
494.099	26014.75
494.873	27757.75
495.647	29594.75
496.422	31323.75
497.196	32893.75
497.97	34562.75
498.744	36006.75
499.518	37436.75
500.292	38720.75
501.066	39896.75
501.839	40888.75
502.613	41633.75
503.387	42226.75
504.16	42628.75
504.934	42775.75
505.707	42630.75
506.48	42407.75
507.253	41962.75
508.027	41068.75
508.8	40284.75
509.573	39161.75
510.346	38062.75
511.118	36859.75
511.891	35767.75
512.664	34425.75
513.437	33028.75
514.209	31672.75
514.982	30419.75
515.754	29226.75
516.526	27911.75
517.298	26693.75
518.071	25676.75
518.843	24639.75
519.615	23626.75
520.387	22608.75
521.159	21777.75
521.93	20905.75
522.702	20014.75
523.474	19190.75
524.245	18388.75
525.017	17670.75
525.788	16894.75
526.56	16080.75
527.331	15317.75
528.102	14634.75
528.873	13879.75
529.644	13174.75
530.415	12517.75
531.186	11867.75
531.957	11215.75
532.728	10681.75
533.498	10082.75
534.269	9522.75
535.039	9009.75
535.81	8517.75
536.58	8067.75
537.351	7622.75
538.121	7229.75
538.891	6810.75
539.661	6453.75
540.431	6128.75
541.201	5803.75
541.971	5474.75
542.741	5180.75
543.51	4924.75
544.28	4665.75
545.05	4485.75
545.819	4223.75
546.588	4011.75
547.358	3841.75
548.127	3639.75
548.896	3474.75
549.665	3269.75
550.434	3089.75
551.203	2944.75
551.972	2786.75
552.741	2650.75
553.51	2485.75
554.278	2343.75
555.047	2200.75
555.815	2102.75
556.584	1988.75
557.352	1885.75
558.121	1778.75
558.889	1673.75
559.657	1568.75
560.425	1479.75
561.193	1396.75
561.961	1315.75
562.729	1261.75
563.496	1193.75
564.264	1126.75
565.032	1072.75
565.799	990.75
566.567	960.75
567.334	896.75
568.101	851.75
568.869	792.75
569.636	754.75
570.403	718.75
571.17	677.75
571.937	647.75
572.704	613.75
573.471	568.75
574.237	530.75
575.004	509.75
575.771	478.75
576.537	450.75
577.303	423.75
578.07	404.75
578.836	373.75
579.602	356.75
580.368	343.75
581.134	319.75
581.9	305.75
582.666	292.75
583.432	279.75
584.198	260.75
584.964	251.75
585.729	229.75
586.495	221.75
587.26	209.75
588.025	195.75
588.791	194.75
589.556	183.75
590.321	173.75
591.086	164.75
591.851	156.75
592.616	145.75
593.381	136.75
594.146	132.75
594.911	123.75
595.675	121.75
596.44	117.75
597.204	112.75
597.969	107.75
598.733	102.75
599.497	94.75
600.261	93.75
601.025	91.75
601.79	81.75
602.553	81.75
603.317	75.75
604.081	77.75
604.845	73.75
605.609	70.75
606.372	62.75
607.136	62.75
607.899	61.75
608.662	61.75
609.426	60.75
610.189	56.75
610.952	54.75
611.715	51.75
612.478	48.75
613.241	44.75
614.004	48.75
614.767	43.75
615.529	43.75
616.292	42.75
617.055	38.75
617.817	36.75
618.579	33.75
619.342	35.75
620.104	35.75
620.866	34.75
621.628	31.75
622.39	32.75
623.152	27.75
623.914	27.75
624.676	32.75
625.438	27.75
626.199	29.75
626.961	23.75
627.722	26.75
628.484	27.75
629.245	22.75
630.006	23.75
630.768	20.75
631.529	21.75
632.29	20.75
633.051	22.75
633.812	21.75
634.573	17.75
635.333	20.75
636.094	15.75
636.855	19.75
637.615	16.75
638.376	20.75
639.136	16.75
639.896	15.75
640.657	16.75
641.417	16.75
642.177	12.75
642.937	13.75
643.697	14.75
644.457	16.75
645.216	15.75
645.976	15.75
646.736	13.75
647.495	12.75
648.255	12.75
649.014	14.75
649.774	13.75
650.533	9.75
651.292	10.75
652.051	9.75
652.81	13.75
653.569	9.75
654.328	10.75
655.087	12.75
655.846	8.75
656.604	10.75
657.363	9.75
658.121	9.75
658.88	8.75
659.638	10.75
660.397	10.75
661.155	9.75
661.913	10.75
662.671	8.75
663.429	8.75
664.187	11.75
664.945	9.75
665.703	9.75
666.46	7.75
667.218	5.75
667.976	9.75
668.733	8.75
669.49	6.75
670.248	5.75
671.005	7.75
671.762	8.75
672.519	8.75
673.276	8.75
674.033	6.75
674.79	6.75
675.547	7.75
676.304	8.75
677.06	6.75
677.817	6.75
678.574	9.75
679.33	8.75
680.086	6.75
680.843	6.75
681.599	5.75
682.355	6.75
683.111	7.75
683.867	6.75
684.623	9.75
685.379	7.75
686.135	6.75
686.89	5.75
687.646	6.75
688.402	6.75
689.157	6.75
689.912	6.75
690.668	4.75
691.423	7.75
692.178	5.75
692.933	6.75
693.688	7.75
694.443	7.75
695.198	7.75
695.953	4.75
696.708	6.75
697.462	4.75
698.217	4.75
698.972	3.75
699.726	6.75
700.48	5.75
701.235	5.75
701.989	7.75
702.743	6.75
703.497	3.75
704.251	8.75
705.005	5.75
705.759	4.75
706.513	7.75
707.266	7.75
708.02	5.75
708.774	7.75
709.527	7.75
710.28	3.75
711.034	4.75
711.787	4.75
712.54	6.75
713.293	5.75
714.046	5.75
714.799	6.75
715.552	6.75
716.305	6.75
717.058	5.75
717.81	6.75
718.563	6.75
719.315	5.75
720.068	5.75
720.82	2.75
721.573	7.75
722.325	4.75
723.077	6.75
723.829	5.75
724.581	8.75
725.333	7.75
726.085	6.75
726.836	3.75
727.588	5.75
728.34	6.75
729.091	6.75
729.843	7.75
730.594	10.75
731.346	6.75
732.097	5.75
732.848	6.75
733.599	7.75
734.35	7.75
735.101	9.75
735.852	7.75
736.603	7.75
737.354	7.75
738.104	8.75
738.855	8.75
739.605	9.75
740.356	7.75
741.106	11.75
741.856	7.75
742.607	8.75
743.357	5.75
744.107	10.75
744.857	8.75
745.607	9.75
746.357	8.75
747.106	8.75
747.856	8.75
748.606	9.75
749.355	9.75
750.105	10.75
750.854	8.75
751.603	11.75
752.353	10.75
753.102	9.75
753.851	9.75
754.6	7.75
755.349	10.75
756.098	8.75
756.847	9.75
757.595	9.75
758.344	11.75
759.093	7.75
759.841	9.75
760.589	10.75
761.338	12.75
762.086	12.75
762.834	14.75
763.582	11.75
764.331	10.75
765.079	10.75
765.826	10.75
766.574	12.75
767.322	12.75
768.07	13.75
768.817	11.75
769.565	12.75
770.312	15.75
771.06	13.75
771.807	12.75
772.554	15.75
773.302	14.75
774.049	14.75
774.796	14.75
775.543	15.75
776.29	13.75
777.036	15.75
777.783	13.75
778.53	15.75
779.276	12.75
780.023	13.75
780.769	12.75
781.516	12.75
782.262	11.75
783.008	14.75
783.754	15.75
784.5	14.75
785.246	13.75
785.992	14.75
786.738	12.75
787.484	14.75
788.23	13.75
788.975	14.75
789.721	11.75
790.466	11.75
791.212	11.75
791.957	12.75
792.702	14.75
793.447	13.75
794.193	14.75
794.938	13.75
795.683	13.75
796.427	11.75
797.172	12.75
797.917	10.75
798.662	10.75
799.406	15.75
800.151	12.75
800.895	12.75
801.64	8.75
802.384	11.75
803.128	10.75
803.872	9.75
804.616	11.75
805.36	11.75
806.104	9.75
806.848	9.75
807.592	8.75
808.336	8.75
809.079	8.75
809.823	7.75
810.566	7.75
811.31	8.75
812.053	7.75
812.796	7.75
813.539	8.75
814.283	7.75
815.026	9.75
815.769	8.75
816.511	5.75
817.254	8.75
817.997	6.75
818.74	6.75
819.482	6.75
820.225	8.75
820.967	5.75
821.71	3.75
822.452	7.75
823.194	6.75
823.936	6.75
824.678	5.75
825.42	6.75
826.162	7.75
826.904	4.75
827.646	6.75
828.388	4.75
829.129	4.75
829.871	6.75
830.612	4.75
831.354	5.75
832.095	6.75
832.836	5.75
833.577	4.75
834.319	6.75
835.06	3.75
835.801	5.75
836.542	5.75
837.282	3.75
838.023	5.75
838.764	3.75
839.504	4.75
840.245	3.75
840.985	5.75
841.726	5.75
842.466	3.75
843.206	5.75
843.946	5.75
844.687	2.75
845.427	2.75
846.166	4.75
846.906	4.75
847.646	3.75
848.386	5.75
849.125	2.75
849.865	3.75
850.605	1.75
851.344	5.75
852.083	3.75
852.823	4.75
853.562	3.75
854.301	2.75
855.04	5.75
855.779	3.75
856.518	3.75
857.257	4.75
857.995	2.75
858.734	3.75
859.473	3.75
860.211	3.75
860.95	4.75
861.688	3.75
862.426	2.75
863.165	4.75
863.903	2.75
864.641	3.75
865.379	3.75
866.117	1.75
866.855	2.75
867.593	3.75
868.33	1.75
869.068	1.75
869.806	2.75
870.543	2.75
871.28	0.75
872.018	1.75
872.755	2.75
873.492	1.75
874.229	-0.25
874.967	1.75
875.703	3.75
876.44	0.75
877.177	1.75
877.914	1.75
878.651	0.75
879.387	2.75
880.124	0.75
880.86	1.75
881.597	0.75
882.333	2.75
883.069	0.75
883.806	1.75
884.542	0.75
885.278	0.75
886.014	2.75
886.749	-0.25
887.485	3.75
888.221	-0.25
888.957	2.75
889.692	-0.25
890.428	2.75
891.163	1.75
891.899	0.75
892.634	0.75
893.369	-1.25
894.104	1.75
894.839	1.75
895.574	0.75
896.309	0.75
897.044	-0.25
897.779	2.75
898.514	-1.25
899.248	0.75
899.983	1.75
900.717	0.75
901.452	1.75
902.186	-0.25
902.92	2.75
903.654	0.75
904.389	0.75
905.123	1.75
905.857	0.75
906.59	-0.25
907.324	0.75
908.058	1.75
908.792	1.75
909.525	0.75
910.259	0.75
910.992	0.75
911.726	0.75
912.459	-1.25
913.192	-0.25
913.925	-1.25
914.658	1.75
915.391	-0.25
916.124	-0.25
916.857	0.75
917.59	0.75
918.323	-0.25
919.055	1.75
919.788	0.75
920.521	-1.25
921.253	1.75
921.985	0.75
922.718	1.75
923.45	0.75
924.182	-3.25
924.914	-0.25
925.646	0.75
926.378	0.75
927.11	0.75
927.841	1.75
928.573	-0.25
929.305	-0.25
930.036	2.75
930.768	0.75
931.499	-0.25
932.23	1.75
932.962	-0.25
933.693	0.75
934.424	-1.25
935.155	-1.25
935.886	-2.25
936.617	2.75
937.348	-2.25
938.078	3.75
938.809	1.75
939.54	1.75
940.27	-0.25
941.001	-1.25
941.731	-0.25
942.461	0.75
943.191	-3.25
943.922	0.75
944.652	0.75
945.382	0.75
946.112	-0.25
946.841	0.75
947.571	-1.25
948.301	1.75
949.031	-0.25
949.76	0.75
950.49	0.75
951.219	0.75
951.948	0.75
952.678	-0.25
953.407	-0.25
954.136	0.75
954.865	1.75
955.594	0.75
956.323	0.75
957.052	-2.25
957.78	1.75
958.509	-0.25
959.238	0.75
959.966	-0.25
960.695	0.75
961.423	-2.25
962.151	2.75
962.88	0.75
963.608	-0.25
964.336	0.75
965.064	-3.25
965.792	1.75
966.52	1.75
967.247	-1.25
967.975	1.75
968.703	1.75
969.43	2.75
970.158	-0.25
970.885	1.75
971.613	-0.25
972.34	-1.25
973.067	0.75
973.794	1.75
974.521	0.75
975.248	0.75
975.975	-2.25
976.702	1.75
977.429	2.75
978.156	1.75
978.882	1.75
979.609	-0.25
980.335	-0.25
981.062	1.75
981.788	1.75
982.514	0.75
983.24	0.75
983.967	1.75
984.693	-0.25
985.419	0.75
986.144	2.75
986.87	-0.25
987.596	0.75
988.322	-0.25
989.047	0.75
989.773	0.75
990.498	1.75
991.224	-2.25
991.949	-1.25
992.674	3.75
993.399	0.75
994.124	0.75
994.849	1.75
995.574	-0.25
996.299	1.75
997.024	-0.25
997.749	-0.25
998.473	1.75
999.198	-0.25
999.922	1.75
1000.647	1.75
1001.371	2.75
1002.095	-3.25
1002.82	-0.25
1003.544	-2.25
1004.268	4.75
1004.992	2.75
1005.716	2.75
1006.439	2.75
1007.163	2.75
1007.887	5.75
1008.611	0.75
1009.334	-1.25
1010.058	0.75
1010.781	0.75
1011.504	-0.25
1012.228	0.75
1012.951	-0.25
1013.674	0.75
1014.397	1.75
1015.12	0.75
