节点500_565_QEPB04081__70__09-51-36-025.txt的数据

Date: Thu Nov 13 09:51:36 CST 2025
User: PC
Spectrometer: QEPB0408
触发模式: 0
积分时间 (秒): 1.000000E-2
Scans to average: 1
启用暗噪声校正: true
启用非线性校正: false
滑动平均宽度: 0
X轴模式: Wavelengths
Number of Pixels in Spectrum: 1044
>>>>>Begin Spectral Data<<<<<
220.843	6.62
221.644	2.62
222.444	6.62
223.244	3.62
224.045	6.62
224.845	7.62
225.645	5.62
226.445	6.62
227.245	6.62
228.045	7.62
228.845	7.62
229.645	7.62
230.444	8.62
231.244	4.62
232.043	6.62
232.843	4.62
233.642	8.62
234.442	6.62
235.241	10.62
236.04	8.62
236.839	7.62
237.638	9.62
238.437	8.62
239.236	9.62
240.035	10.62
240.833	11.62
241.632	10.62
242.43	10.62
243.229	12.62
244.027	10.62
244.826	12.62
245.624	9.62
246.422	12.62
247.22	13.62
248.018	14.62
248.816	14.62
249.614	13.62
250.412	13.62
251.21	13.62
252.007	13.62
252.805	16.62
253.602	15.62
254.4	15.62
255.197	16.62
255.994	16.62
256.791	16.62
257.589	20.62
258.386	19.62
259.183	21.62
259.979	22.62
260.776	21.62
261.573	21.62
262.37	21.62
263.166	24.62
263.963	23.62
264.759	23.62
265.556	23.62
266.352	23.62
267.148	21.62
267.944	27.62
268.74	26.62
269.536	26.62
270.332	29.62
271.128	27.62
271.924	24.62
272.719	30.62
273.515	25.62
274.311	28.62
275.106	30.62
275.901	31.62
276.697	31.62
277.492	29.62
278.287	32.62
279.082	27.62
279.877	31.62
280.672	32.62
281.467	31.62
282.262	28.62
283.056	29.62
283.851	28.62
284.646	29.62
285.44	29.62
286.234	29.62
287.029	33.62
287.823	33.62
288.617	26.62
289.411	29.62
290.205	27.62
290.999	28.62
291.793	27.62
292.587	25.62
293.381	27.62
294.174	28.62
294.968	29.62
295.761	25.62
296.555	24.62
297.348	24.62
298.141	23.62
298.935	25.62
299.728	18.62
300.521	22.62
301.314	20.62
302.107	20.62
302.899	20.62
303.692	19.62
304.485	18.62
305.277	21.62
306.07	18.62
306.862	18.62
307.655	18.62
308.447	17.62
309.239	20.62
310.031	17.62
310.823	16.62
311.615	15.62
312.407	14.62
313.199	14.62
313.991	13.62
314.783	15.62
315.574	11.62
316.366	12.62
317.157	13.62
317.949	12.62
318.74	13.62
319.531	12.62
320.322	11.62
321.113	14.62
321.904	12.62
322.695	11.62
323.486	13.62
324.277	11.62
325.068	12.62
325.858	10.62
326.649	13.62
327.439	9.62
328.23	10.62
329.02	9.62
329.81	12.62
330.6	9.62
331.391	10.62
332.181	10.62
332.971	12.62
333.76	12.62
334.55	10.62
335.34	12.62
336.13	11.62
336.919	9.62
337.709	11.62
338.498	9.62
339.287	12.62
340.077	9.62
340.866	9.62
341.655	10.62
342.444	12.62
343.233	12.62
344.022	9.62
344.811	13.62
345.6	9.62
346.388	6.62
347.177	11.62
347.965	11.62
348.754	10.62
349.542	11.62
350.33	8.62
351.119	9.62
351.907	8.62
352.695	7.62
353.483	11.62
354.271	8.62
355.059	8.62
355.846	11.62
356.634	9.62
357.422	8.62
358.209	10.62
358.997	9.62
359.784	9.62
360.571	10.62
361.359	6.62
362.146	8.62
362.933	9.62
363.72	6.62
364.507	7.62
365.294	9.62
366.081	7.62
366.867	8.62
367.654	9.62
368.44	7.62
369.227	9.62
370.013	10.62
370.8	9.62
371.586	10.62
372.372	11.62
373.158	10.62
373.944	11.62
374.73	7.62
375.516	9.62
376.302	9.62
377.088	8.62
377.873	10.62
378.659	9.62
379.445	11.62
380.23	7.62
381.015	10.62
381.801	7.62
382.586	9.62
383.371	11.62
384.156	8.62
384.941	11.62
385.726	8.62
386.511	11.62
387.296	9.62
388.08	11.62
388.865	11.62
389.649	8.62
390.434	11.62
391.218	11.62
392.003	11.62
392.787	12.62
393.571	11.62
394.355	11.62
395.139	10.62
395.923	11.62
396.707	8.62
397.491	11.62
398.274	12.62
399.058	8.62
399.842	12.62
400.625	11.62
401.408	12.62
402.192	11.62
402.975	13.62
403.758	11.62
404.541	13.62
405.324	13.62
406.107	12.62
406.89	14.62
407.673	15.62
408.456	13.62
409.238	12.62
410.021	12.62
410.803	16.62
411.586	16.62
412.368	16.62
413.151	14.62
413.933	16.62
414.715	16.62
415.497	15.62
416.279	17.62
417.061	15.62
417.843	16.62
418.624	17.62
419.406	17.62
420.188	14.62
420.969	16.62
421.751	17.62
422.532	20.62
423.313	20.62
424.095	19.62
424.876	21.62
425.657	21.62
426.438	24.62
427.219	24.62
428	22.62
428.78	24.62
429.561	25.62
430.342	25.62
431.122	27.62
431.903	28.62
432.683	28.62
433.464	29.62
434.244	33.62
435.024	29.62
435.804	34.62
436.584	34.62
437.364	36.62
438.144	37.62
438.924	39.62
439.704	42.62
440.483	42.62
441.263	47.62
442.042	48.62
442.822	54.62
443.601	55.62
444.38	58.62
445.16	64.62
445.939	67.62
446.718	77.62
447.497	82.62
448.276	87.62
449.054	93.62
449.833	103.62
450.612	115.62
451.391	126.62
452.169	136.62
452.948	152.62
453.726	160.62
454.504	178.62
455.282	200.62
456.061	220.62
456.839	250.62
457.617	278.62
458.395	312.62
459.172	349.62
459.95	388.62
460.728	428.62
461.506	483.62
462.283	532.62
463.061	608.62
463.838	670.62
464.615	753.62
465.393	853.62
466.17	942.62
466.947	1054.62
467.724	1180.62
468.501	1308.62
469.278	1471.62
470.055	1637.62
470.831	1819.62
471.608	2022.62
472.385	2251.62
473.161	2502.62
473.938	2762.62
474.714	3057.62
475.49	3407.62
476.266	3736.62
477.043	4139.62
477.819	4579.62
478.595	5053.62
479.371	5546.62
480.146	6108.62
480.922	6680.62
481.698	7366.62
482.473	8062.62
483.249	8834.62
484.024	9687.62
484.8	10654.62
485.575	11651.62
486.35	12714.62
487.126	13876.62
487.901	15112.62
488.676	16445.62
489.451	17855.62
490.225	19333.62
491	20907.62
491.775	22535.62
492.55	24274.62
493.324	26011.62
494.099	27721.62
494.873	29526.62
495.647	31419.62
496.422	33294.62
497.196	35002.62
497.97	36593.62
498.744	38112.62
499.518	39543.62
500.292	40852.62
501.066	42000.62
501.839	42968.62
502.613	43606.62
503.387	44105.62
504.16	44393.62
504.934	44355.62
505.707	44052.62
506.48	43630.62
507.253	43026.62
508.027	42116.62
508.8	40968.62
509.573	39717.62
510.346	38473.62
511.118	37085.62
511.891	35890.62
512.664	34479.62
513.437	33005.62
514.209	31552.62
514.982	30220.62
515.754	29060.62
516.526	27713.62
517.298	26511.62
518.071	25401.62
518.843	24416.62
519.615	23400.62
520.387	22421.62
521.159	21590.62
521.93	20687.62
522.702	19837.62
523.474	19039.62
524.245	18240.62
525.017	17468.62
525.788	16673.62
526.56	15878.62
527.331	15173.62
528.102	14395.62
528.873	13649.62
529.644	12937.62
530.415	12276.62
531.186	11606.62
531.957	11008.62
532.728	10444.62
533.498	9856.62
534.269	9284.62
535.039	8760.62
535.81	8297.62
536.58	7857.62
537.351	7439.62
538.121	6997.62
538.891	6626.62
539.661	6290.62
540.431	5949.62
541.201	5643.62
541.971	5341.62
542.741	5046.62
543.51	4799.62
544.28	4571.62
545.05	4346.62
545.819	4124.62
546.588	3906.62
547.358	3701.62
548.127	3504.62
548.896	3347.62
549.665	3173.62
550.434	3026.62
551.203	2868.62
551.972	2708.62
552.741	2556.62
553.51	2410.62
554.278	2271.62
555.047	2159.62
555.815	2035.62
556.584	1916.62
557.352	1812.62
558.121	1697.62
558.889	1593.62
559.657	1508.62
560.425	1436.62
561.193	1365.62
561.961	1277.62
562.729	1218.62
563.496	1149.62
564.264	1080.62
565.032	1040.62
565.799	977.62
566.567	933.62
567.334	865.62
568.101	819.62
568.869	775.62
569.636	728.62
570.403	690.62
571.17	652.62
571.937	623.62
572.704	583.62
573.471	547.62
574.237	516.62
575.004	488.62
575.771	456.62
576.537	426.62
577.303	413.62
578.07	382.62
578.836	368.62
579.602	343.62
580.368	320.62
581.134	309.62
581.9	292.62
582.666	278.62
583.432	264.62
584.198	250.62
584.964	246.62
585.729	229.62
586.495	212.62
587.26	201.62
588.025	197.62
588.791	191.62
589.556	173.62
590.321	164.62
591.086	152.62
591.851	149.62
592.616	140.62
593.381	137.62
594.146	129.62
594.911	124.62
595.675	116.62
596.44	110.62
597.204	111.62
597.969	100.62
598.733	99.62
599.497	95.62
600.261	91.62
601.025	84.62
601.79	84.62
602.553	82.62
603.317	75.62
604.081	72.62
604.845	73.62
605.609	65.62
606.372	66.62
607.136	61.62
607.899	61.62
608.662	58.62
609.426	57.62
610.189	54.62
610.952	53.62
611.715	52.62
612.478	48.62
613.241	49.62
614.004	44.62
614.767	46.62
615.529	40.62
616.292	45.62
617.055	37.62
617.817	38.62
618.579	36.62
619.342	36.62
620.104	34.62
620.866	34.62
621.628	31.62
622.39	32.62
623.152	29.62
623.914	30.62
624.676	28.62
625.438	27.62
626.199	26.62
626.961	26.62
627.722	24.62
628.484	22.62
629.245	26.62
630.006	21.62
630.768	23.62
631.529	21.62
632.29	21.62
633.051	22.62
633.812	20.62
634.573	20.62
635.333	18.62
636.094	17.62
636.855	19.62
637.615	20.62
638.376	18.62
639.136	18.62
639.896	20.62
640.657	16.62
641.417	15.62
642.177	15.62
642.937	17.62
643.697	14.62
644.457	14.62
645.216	16.62
645.976	12.62
646.736	12.62
647.495	12.62
648.255	16.62
649.014	12.62
649.774	12.62
650.533	12.62
651.292	10.62
652.051	11.62
652.81	12.62
653.569	11.62
654.328	13.62
655.087	9.62
655.846	9.62
656.604	13.62
657.363	10.62
658.121	11.62
658.88	12.62
659.638	9.62
660.397	9.62
661.155	10.62
661.913	8.62
662.671	10.62
663.429	7.62
664.187	8.62
664.945	10.62
665.703	8.62
666.46	6.62
667.218	7.62
667.976	7.62
668.733	9.62
669.49	8.62
670.248	11.62
671.005	7.62
671.762	7.62
672.519	6.62
673.276	5.62
674.033	6.62
674.79	6.62
675.547	6.62
676.304	6.62
677.06	5.62
677.817	8.62
678.574	8.62
679.33	6.62
680.086	4.62
680.843	6.62
681.599	8.62
682.355	7.62
683.111	8.62
683.867	8.62
684.623	7.62
685.379	6.62
686.135	9.62
686.89	4.62
687.646	8.62
688.402	6.62
689.157	8.62
689.912	8.62
690.668	5.62
691.423	10.62
692.178	6.62
692.933	6.62
693.688	6.62
694.443	7.62
695.198	6.62
695.953	8.62
696.708	7.62
697.462	5.62
698.217	6.62
698.972	4.62
699.726	6.62
700.48	7.62
701.235	4.62
701.989	6.62
702.743	7.62
703.497	6.62
704.251	6.62
705.005	8.62
705.759	6.62
706.513	4.62
707.266	9.62
708.02	6.62
708.774	6.62
709.527	4.62
710.28	6.62
711.034	5.62
711.787	6.62
712.54	5.62
713.293	6.62
714.046	6.62
714.799	6.62
715.552	7.62
716.305	9.62
717.058	8.62
717.81	7.62
718.563	7.62
719.315	5.62
720.068	6.62
720.82	7.62
721.573	5.62
722.325	6.62
723.077	6.62
723.829	7.62
724.581	9.62
725.333	8.62
726.085	10.62
726.836	5.62
727.588	6.62
728.34	6.62
729.091	7.62
729.843	9.62
730.594	9.62
731.346	8.62
732.097	4.62
732.848	9.62
733.599	6.62
734.35	8.62
735.101	10.62
735.852	9.62
736.603	10.62
737.354	8.62
738.104	9.62
738.855	8.62
739.605	8.62
740.356	9.62
741.106	9.62
741.856	9.62
742.607	11.62
743.357	12.62
744.107	10.62
744.857	8.62
745.607	9.62
746.357	10.62
747.106	10.62
747.856	8.62
748.606	10.62
749.355	10.62
750.105	11.62
750.854	11.62
751.603	8.62
752.353	10.62
753.102	12.62
753.851	12.62
754.6	12.62
755.349	11.62
756.098	11.62
756.847	9.62
757.595	10.62
758.344	10.62
759.093	11.62
759.841	11.62
760.589	11.62
761.338	12.62
762.086	10.62
762.834	13.62
763.582	11.62
764.331	13.62
765.079	13.62
765.826	10.62
766.574	11.62
767.322	13.62
768.07	13.62
768.817	13.62
769.565	12.62
770.312	11.62
771.06	12.62
771.807	13.62
772.554	16.62
773.302	14.62
774.049	15.62
774.796	13.62
775.543	14.62
776.29	13.62
777.036	14.62
777.783	16.62
778.53	16.62
779.276	13.62
780.023	14.62
780.769	15.62
781.516	17.62
782.262	17.62
783.008	15.62
783.754	16.62
784.5	13.62
785.246	16.62
785.992	13.62
786.738	17.62
787.484	16.62
788.23	13.62
788.975	14.62
789.721	14.62
790.466	12.62
791.212	13.62
791.957	13.62
792.702	15.62
793.447	13.62
794.193	14.62
794.938	10.62
795.683	15.62
796.427	11.62
797.172	12.62
797.917	11.62
798.662	13.62
799.406	12.62
800.151	11.62
800.895	11.62
801.64	10.62
802.384	9.62
803.128	9.62
803.872	9.62
804.616	11.62
805.36	10.62
806.104	10.62
806.848	11.62
807.592	8.62
808.336	11.62
809.079	9.62
809.823	9.62
810.566	8.62
811.31	9.62
812.053	7.62
812.796	9.62
813.539	8.62
814.283	10.62
815.026	8.62
815.769	6.62
816.511	9.62
817.254	8.62
817.997	6.62
818.74	4.62
819.482	7.62
820.225	6.62
820.967	7.62
821.71	8.62
822.452	7.62
823.194	6.62
823.936	9.62
824.678	4.62
825.42	7.62
826.162	8.62
826.904	4.62
827.646	9.62
828.388	2.62
829.129	4.62
829.871	5.62
830.612	4.62
831.354	4.62
832.095	7.62
832.836	6.62
833.577	6.62
834.319	3.62
835.06	4.62
835.801	7.62
836.542	4.62
837.282	6.62
838.023	5.62
838.764	6.62
839.504	4.62
840.245	4.62
840.985	3.62
841.726	5.62
842.466	4.62
843.206	3.62
843.946	3.62
844.687	7.62
845.427	2.62
846.166	4.62
846.906	4.62
847.646	3.62
848.386	3.62
849.125	6.62
849.865	3.62
850.605	8.62
851.344	4.62
852.083	4.62
852.823	4.62
853.562	3.62
854.301	2.62
855.04	5.62
855.779	2.62
856.518	5.62
857.257	4.62
857.995	3.62
858.734	3.62
859.473	6.62
860.211	3.62
860.95	3.62
861.688	5.62
862.426	4.62
863.165	4.62
863.903	1.62
864.641	2.62
865.379	3.62
866.117	3.62
866.855	4.62
867.593	2.62
868.33	1.62
869.068	-1.38
869.806	1.62
870.543	1.62
871.28	3.62
872.018	3.62
872.755	3.62
873.492	2.62
874.229	1.62
874.967	1.62
875.703	2.62
876.44	4.62
877.177	2.62
877.914	0.62
878.651	2.62
879.387	2.62
880.124	1.62
880.86	0.62
881.597	2.62
882.333	1.62
883.069	3.62
883.806	0.62
884.542	2.62
885.278	2.62
886.014	-1.38
886.749	2.62
887.485	3.62
888.221	1.62
888.957	0.62
889.692	0.62
890.428	1.62
891.163	2.62
891.899	1.62
892.634	1.62
893.369	0.62
894.104	-1.38
894.839	-0.38
895.574	2.62
896.309	2.62
897.044	3.62
897.779	0.62
898.514	0.62
899.248	0.62
899.983	0.62
900.717	1.62
901.452	0.62
902.186	-0.38
902.92	2.62
903.654	1.62
904.389	2.62
905.123	0.62
905.857	1.62
906.59	0.62
907.324	2.62
908.058	-0.38
908.792	1.62
909.525	1.62
910.259	1.62
910.992	0.62
911.726	0.62
912.459	2.62
913.192	1.62
913.925	2.62
914.658	1.62
915.391	-0.38
916.124	0.62
916.857	2.62
917.59	-0.38
918.323	3.62
919.055	1.62
919.788	-0.38
920.521	-0.38
921.253	-0.38
921.985	0.62
922.718	3.62
923.45	0.62
924.182	0.62
924.914	-0.38
925.646	0.62
926.378	-0.38
927.11	1.62
927.841	0.62
928.573	0.62
929.305	2.62
930.036	0.62
930.768	-2.38
931.499	0.62
932.23	-0.38
932.962	2.62
933.693	-2.38
934.424	0.62
935.155	0.62
935.886	0.62
936.617	0.62
937.348	-0.38
938.078	1.62
938.809	0.62
939.54	-0.38
940.27	-0.38
941.001	0.62
941.731	0.62
942.461	3.62
943.191	1.62
943.922	-1.38
944.652	1.62
945.382	1.62
946.112	-0.38
946.841	0.62
947.571	0.62
948.301	-0.38
949.031	1.62
949.76	-0.38
950.49	1.62
951.219	2.62
951.948	1.62
952.678	2.62
953.407	2.62
954.136	0.62
954.865	0.62
955.594	1.62
956.323	-2.38
957.052	2.62
957.78	-0.38
958.509	1.62
959.238	-1.38
959.966	-0.38
960.695	2.62
961.423	0.62
962.151	0.62
962.88	0.62
963.608	1.62
964.336	1.62
965.064	1.62
965.792	2.62
966.52	0.62
967.247	2.62
967.975	1.62
968.703	1.62
969.43	-0.38
970.158	0.62
970.885	0.62
971.613	0.62
972.34	0.62
973.067	0.62
973.794	1.62
974.521	-2.38
975.248	0.62
975.975	-0.38
976.702	0.62
977.429	-0.38
978.156	-0.38
978.882	1.62
979.609	2.62
980.335	0.62
981.062	2.62
981.788	1.62
982.514	1.62
983.24	-0.38
983.967	1.62
984.693	1.62
985.419	0.62
986.144	-0.38
986.87	-2.38
987.596	0.62
988.322	1.62
989.047	-0.38
989.773	1.62
990.498	-0.38
991.224	-1.38
991.949	-0.38
992.674	0.62
993.399	0.62
994.124	0.62
994.849	1.62
995.574	1.62
996.299	1.62
997.024	1.62
997.749	0.62
998.473	1.62
999.198	0.62
999.922	0.62
1000.647	0.62
1001.371	4.62
1002.095	0.62
1002.82	-1.38
1003.544	-2.38
1004.268	4.62
1004.992	6.62
1005.716	3.62
1006.439	2.62
1007.163	5.62
1007.887	3.62
1008.611	-0.38
1009.334	1.62
1010.058	2.62
1010.781	-0.38
1011.504	0.62
1012.228	1.62
1012.951	-0.38
1013.674	0.62
1014.397	-0.38
1015.12	-1.38
