节点500_565_QEPB04081__141__09-52-46-922.txt的数据

Date: Thu Nov 13 09:52:46 CST 2025
User: PC
Spectrometer: QEPB0408
触发模式: 0
积分时间 (秒): 1.000000E-2
Scans to average: 1
启用暗噪声校正: true
启用非线性校正: false
滑动平均宽度: 0
X轴模式: Wavelengths
Number of Pixels in Spectrum: 1044
>>>>>Begin Spectral Data<<<<<
220.843	3.5
221.644	5.5
222.444	2.5
223.244	5.5
224.045	5.5
224.845	4.5
225.645	5.5
226.445	3.5
227.245	2.5
228.045	5.5
228.845	6.5
229.645	5.5
230.444	6.5
231.244	4.5
232.043	4.5
232.843	7.5
233.642	4.5
234.442	7.5
235.241	7.5
236.04	8.5
236.839	8.5
237.638	7.5
238.437	10.5
239.236	6.5
240.035	10.5
240.833	7.5
241.632	7.5
242.43	7.5
243.229	8.5
244.027	10.5
244.826	9.5
245.624	13.5
246.422	9.5
247.22	10.5
248.018	12.5
248.816	14.5
249.614	11.5
250.412	12.5
251.21	15.5
252.007	12.5
252.805	10.5
253.602	11.5
254.4	16.5
255.197	15.5
255.994	16.5
256.791	13.5
257.589	15.5
258.386	15.5
259.183	19.5
259.979	16.5
260.776	20.5
261.573	17.5
262.37	21.5
263.166	20.5
263.963	21.5
264.759	21.5
265.556	21.5
266.352	23.5
267.148	22.5
267.944	26.5
268.74	24.5
269.536	24.5
270.332	27.5
271.128	23.5
271.924	25.5
272.719	27.5
273.515	29.5
274.311	29.5
275.106	29.5
275.901	27.5
276.697	27.5
277.492	29.5
278.287	31.5
279.082	32.5
279.877	28.5
280.672	27.5
281.467	29.5
282.262	31.5
283.056	29.5
283.851	27.5
284.646	25.5
285.44	29.5
286.234	30.5
287.029	30.5
287.823	26.5
288.617	27.5
289.411	26.5
290.205	26.5
290.999	27.5
291.793	28.5
292.587	26.5
293.381	24.5
294.174	25.5
294.968	23.5
295.761	23.5
296.555	21.5
297.348	23.5
298.141	23.5
298.935	22.5
299.728	24.5
300.521	19.5
301.314	17.5
302.107	16.5
302.899	19.5
303.692	18.5
304.485	19.5
305.277	20.5
306.07	16.5
306.862	18.5
307.655	17.5
308.447	21.5
309.239	16.5
310.031	17.5
310.823	14.5
311.615	14.5
312.407	12.5
313.199	14.5
313.991	16.5
314.783	15.5
315.574	12.5
316.366	12.5
317.157	12.5
317.949	12.5
318.74	11.5
319.531	15.5
320.322	12.5
321.113	10.5
321.904	11.5
322.695	13.5
323.486	9.5
324.277	14.5
325.068	12.5
325.858	8.5
326.649	9.5
327.439	9.5
328.23	11.5
329.02	10.5
329.81	10.5
330.6	9.5
331.391	9.5
332.181	10.5
332.971	8.5
333.76	9.5
334.55	9.5
335.34	9.5
336.13	7.5
336.919	6.5
337.709	10.5
338.498	9.5
339.287	7.5
340.077	10.5
340.866	11.5
341.655	11.5
342.444	9.5
343.233	8.5
344.022	10.5
344.811	8.5
345.6	9.5
346.388	7.5
347.177	9.5
347.965	6.5
348.754	7.5
349.542	11.5
350.33	9.5
351.119	9.5
351.907	7.5
352.695	7.5
353.483	7.5
354.271	8.5
355.059	7.5
355.846	8.5
356.634	4.5
357.422	7.5
358.209	7.5
358.997	8.5
359.784	4.5
360.571	7.5
361.359	7.5
362.146	9.5
362.933	6.5
363.72	9.5
364.507	6.5
365.294	8.5
366.081	9.5
366.867	8.5
367.654	8.5
368.44	7.5
369.227	6.5
370.013	4.5
370.8	7.5
371.586	8.5
372.372	5.5
373.158	7.5
373.944	7.5
374.73	8.5
375.516	7.5
376.302	9.5
377.088	5.5
377.873	9.5
378.659	4.5
379.445	6.5
380.23	7.5
381.015	8.5
381.801	7.5
382.586	10.5
383.371	9.5
384.156	7.5
384.941	8.5
385.726	8.5
386.511	7.5
387.296	10.5
388.08	11.5
388.865	9.5
389.649	7.5
390.434	10.5
391.218	10.5
392.003	9.5
392.787	9.5
393.571	10.5
394.355	10.5
395.139	8.5
395.923	8.5
396.707	11.5
397.491	9.5
398.274	9.5
399.058	11.5
399.842	10.5
400.625	10.5
401.408	11.5
402.192	11.5
402.975	13.5
403.758	12.5
404.541	11.5
405.324	8.5
406.107	11.5
406.89	11.5
407.673	12.5
408.456	11.5
409.238	15.5
410.021	13.5
410.803	13.5
411.586	13.5
412.368	12.5
413.151	15.5
413.933	15.5
414.715	14.5
415.497	16.5
416.279	11.5
417.061	15.5
417.843	15.5
418.624	16.5
419.406	15.5
420.188	16.5
420.969	16.5
421.751	17.5
422.532	19.5
423.313	16.5
424.095	18.5
424.876	17.5
425.657	20.5
426.438	19.5
427.219	24.5
428	24.5
428.78	21.5
429.561	23.5
430.342	22.5
431.122	26.5
431.903	22.5
432.683	25.5
433.464	28.5
434.244	31.5
435.024	28.5
435.804	32.5
436.584	32.5
437.364	36.5
438.144	38.5
438.924	38.5
439.704	41.5
440.483	44.5
441.263	47.5
442.042	49.5
442.822	50.5
443.601	56.5
444.38	58.5
445.16	63.5
445.939	69.5
446.718	72.5
447.497	79.5
448.276	87.5
449.054	93.5
449.833	102.5
450.612	109.5
451.391	120.5
452.169	133.5
452.948	150.5
453.726	164.5
454.504	193.5
455.282	208.5
456.061	227.5
456.839	253.5
457.617	287.5
458.395	319.5
459.172	355.5
459.95	398.5
460.728	445.5
461.506	488.5
462.283	555.5
463.061	624.5
463.838	697.5
464.615	780.5
465.393	862.5
466.17	972.5
466.947	1075.5
467.724	1208.5
468.501	1339.5
469.278	1489.5
470.055	1639.5
470.831	1841.5
471.608	2048.5
472.385	2267.5
473.161	2516.5
473.938	2752.5
474.714	3075.5
475.49	3377.5
476.266	3728.5
477.043	4118.5
477.819	4528.5
478.595	4982.5
479.371	5455.5
480.146	6019.5
480.922	6609.5
481.698	7241.5
482.473	7922.5
483.249	8637.5
484.024	9473.5
484.8	10323.5
485.575	11292.5
486.35	12292.5
487.126	13406.5
487.901	14633.5
488.676	15872.5
489.451	17211.5
490.225	18669.5
491	20107.5
491.775	21663.5
492.55	23343.5
493.324	24923.5
494.099	26616.5
494.873	28342.5
495.647	30207.5
496.422	31924.5
497.196	33569.5
497.97	35237.5
498.744	36727.5
499.518	38139.5
500.292	39303.5
501.066	40563.5
501.839	41619.5
502.613	42288.5
503.387	42891.5
504.16	43237.5
504.934	43336.5
505.707	43179.5
506.48	42794.5
507.253	42382.5
508.027	41480.5
508.8	40568.5
509.573	39483.5
510.346	38200.5
511.118	37012.5
511.891	35804.5
512.664	34492.5
513.437	33051.5
514.209	31633.5
514.982	30446.5
515.754	29149.5
516.526	27920.5
517.298	26665.5
518.071	25631.5
518.843	24574.5
519.615	23577.5
520.387	22618.5
521.159	21756.5
521.93	20824.5
522.702	19929.5
523.474	19146.5
524.245	18374.5
525.017	17667.5
525.788	16804.5
526.56	16021.5
527.331	15268.5
528.102	14544.5
528.873	13831.5
529.644	13075.5
530.415	12426.5
531.186	11782.5
531.957	11191.5
532.728	10589.5
533.498	9999.5
534.269	9443.5
535.039	8928.5
535.81	8492.5
536.58	8015.5
537.351	7598.5
538.121	7119.5
538.891	6773.5
539.661	6384.5
540.431	6074.5
541.201	5744.5
541.971	5459.5
542.741	5133.5
543.51	4883.5
544.28	4622.5
545.05	4402.5
545.819	4189.5
546.588	4003.5
547.358	3775.5
548.127	3627.5
548.896	3425.5
549.665	3233.5
550.434	3100.5
551.203	2927.5
551.972	2779.5
552.741	2595.5
553.51	2461.5
554.278	2319.5
555.047	2185.5
555.815	2071.5
556.584	1962.5
557.352	1864.5
558.121	1749.5
558.889	1642.5
559.657	1547.5
560.425	1460.5
561.193	1393.5
561.961	1312.5
562.729	1240.5
563.496	1179.5
564.264	1104.5
565.032	1059.5
565.799	995.5
566.567	941.5
567.334	891.5
568.101	840.5
568.869	796.5
569.636	753.5
570.403	718.5
571.17	672.5
571.937	627.5
572.704	594.5
573.471	557.5
574.237	528.5
575.004	500.5
575.771	469.5
576.537	447.5
577.303	426.5
578.07	402.5
578.836	365.5
579.602	346.5
580.368	335.5
581.134	313.5
581.9	296.5
582.666	286.5
583.432	274.5
584.198	256.5
584.964	243.5
585.729	229.5
586.495	219.5
587.26	207.5
588.025	197.5
588.791	190.5
589.556	177.5
590.321	168.5
591.086	159.5
591.851	156.5
592.616	147.5
593.381	138.5
594.146	128.5
594.911	127.5
595.675	122.5
596.44	117.5
597.204	108.5
597.969	105.5
598.733	103.5
599.497	92.5
600.261	89.5
601.025	87.5
601.79	84.5
602.553	82.5
603.317	78.5
604.081	75.5
604.845	70.5
605.609	69.5
606.372	65.5
607.136	65.5
607.899	61.5
608.662	60.5
609.426	52.5
610.189	51.5
610.952	52.5
611.715	51.5
612.478	46.5
613.241	45.5
614.004	46.5
614.767	43.5
615.529	42.5
616.292	42.5
617.055	38.5
617.817	34.5
618.579	38.5
619.342	37.5
620.104	31.5
620.866	31.5
621.628	27.5
622.39	29.5
623.152	26.5
623.914	28.5
624.676	27.5
625.438	30.5
626.199	23.5
626.961	26.5
627.722	26.5
628.484	22.5
629.245	25.5
630.006	23.5
630.768	21.5
631.529	23.5
632.29	17.5
633.051	20.5
633.812	17.5
634.573	20.5
635.333	19.5
636.094	21.5
636.855	17.5
637.615	14.5
638.376	18.5
639.136	14.5
639.896	15.5
640.657	15.5
641.417	13.5
642.177	13.5
642.937	15.5
643.697	15.5
644.457	13.5
645.216	14.5
645.976	12.5
646.736	13.5
647.495	15.5
648.255	9.5
649.014	12.5
649.774	11.5
650.533	11.5
651.292	13.5
652.051	12.5
652.81	11.5
653.569	7.5
654.328	12.5
655.087	9.5
655.846	10.5
656.604	8.5
657.363	11.5
658.121	8.5
658.88	11.5
659.638	7.5
660.397	7.5
661.155	8.5
661.913	8.5
662.671	6.5
663.429	7.5
664.187	8.5
664.945	8.5
665.703	7.5
666.46	7.5
667.218	8.5
667.976	7.5
668.733	8.5
669.49	7.5
670.248	7.5
671.005	5.5
671.762	6.5
672.519	7.5
673.276	8.5
674.033	9.5
674.79	5.5
675.547	7.5
676.304	6.5
677.06	7.5
677.817	6.5
678.574	9.5
679.33	5.5
680.086	5.5
680.843	7.5
681.599	3.5
682.355	6.5
683.111	5.5
683.867	7.5
684.623	5.5
685.379	6.5
686.135	5.5
686.89	4.5
687.646	6.5
688.402	3.5
689.157	5.5
689.912	7.5
690.668	6.5
691.423	4.5
692.178	5.5
692.933	6.5
693.688	5.5
694.443	6.5
695.198	6.5
695.953	5.5
696.708	5.5
697.462	4.5
698.217	5.5
698.972	4.5
699.726	5.5
700.48	4.5
701.235	4.5
701.989	6.5
702.743	3.5
703.497	4.5
704.251	3.5
705.005	5.5
705.759	1.5
706.513	5.5
707.266	4.5
708.02	7.5
708.774	7.5
709.527	3.5
710.28	5.5
711.034	5.5
711.787	7.5
712.54	3.5
713.293	5.5
714.046	5.5
714.799	3.5
715.552	5.5
716.305	2.5
717.058	5.5
717.81	4.5
718.563	7.5
719.315	8.5
720.068	4.5
720.82	6.5
721.573	4.5
722.325	5.5
723.077	5.5
723.829	5.5
724.581	4.5
725.333	5.5
726.085	6.5
726.836	6.5
727.588	8.5
728.34	5.5
729.091	4.5
729.843	8.5
730.594	5.5
731.346	8.5
732.097	5.5
732.848	9.5
733.599	7.5
734.35	6.5
735.101	7.5
735.852	5.5
736.603	9.5
737.354	5.5
738.104	8.5
738.855	8.5
739.605	6.5
740.356	8.5
741.106	7.5
741.856	8.5
742.607	6.5
743.357	7.5
744.107	7.5
744.857	5.5
745.607	8.5
746.357	6.5
747.106	9.5
747.856	7.5
748.606	8.5
749.355	9.5
750.105	8.5
750.854	10.5
751.603	7.5
752.353	11.5
753.102	7.5
753.851	7.5
754.6	9.5
755.349	9.5
756.098	10.5
756.847	10.5
757.595	10.5
758.344	9.5
759.093	9.5
759.841	8.5
760.589	8.5
761.338	12.5
762.086	9.5
762.834	12.5
763.582	12.5
764.331	10.5
765.079	13.5
765.826	9.5
766.574	10.5
767.322	12.5
768.07	10.5
768.817	11.5
769.565	10.5
770.312	14.5
771.06	10.5
771.807	11.5
772.554	7.5
773.302	11.5
774.049	11.5
774.796	12.5
775.543	12.5
776.29	12.5
777.036	12.5
777.783	12.5
778.53	14.5
779.276	14.5
780.023	12.5
780.769	12.5
781.516	10.5
782.262	13.5
783.008	12.5
783.754	15.5
784.5	12.5
785.246	15.5
785.992	12.5
786.738	11.5
787.484	13.5
788.23	10.5
788.975	12.5
789.721	12.5
790.466	14.5
791.212	11.5
791.957	12.5
792.702	12.5
793.447	13.5
794.193	12.5
794.938	10.5
795.683	12.5
796.427	13.5
797.172	11.5
797.917	12.5
798.662	10.5
799.406	10.5
800.151	11.5
800.895	6.5
801.64	11.5
802.384	9.5
803.128	7.5
803.872	9.5
804.616	9.5
805.36	9.5
806.104	8.5
806.848	8.5
807.592	9.5
808.336	10.5
809.079	7.5
809.823	10.5
810.566	6.5
811.31	5.5
812.053	7.5
812.796	8.5
813.539	7.5
814.283	7.5
815.026	6.5
815.769	7.5
816.511	5.5
817.254	8.5
817.997	7.5
818.74	7.5
819.482	3.5
820.225	7.5
820.967	6.5
821.71	6.5
822.452	5.5
823.194	5.5
823.936	4.5
824.678	4.5
825.42	4.5
826.162	3.5
826.904	4.5
827.646	4.5
828.388	4.5
829.129	4.5
829.871	3.5
830.612	5.5
831.354	3.5
832.095	5.5
832.836	2.5
833.577	4.5
834.319	4.5
835.06	6.5
835.801	3.5
836.542	2.5
837.282	3.5
838.023	1.5
838.764	4.5
839.504	4.5
840.245	3.5
840.985	1.5
841.726	3.5
842.466	4.5
843.206	3.5
843.946	5.5
844.687	3.5
845.427	3.5
846.166	3.5
846.906	2.5
847.646	5.5
848.386	2.5
849.125	3.5
849.865	3.5
850.605	3.5
851.344	3.5
852.083	2.5
852.823	2.5
853.562	1.5
854.301	5.5
855.04	3.5
855.779	3.5
856.518	2.5
857.257	2.5
857.995	4.5
858.734	2.5
859.473	3.5
860.211	0.5
860.95	2.5
861.688	3.5
862.426	3.5
863.165	2.5
863.903	4.5
864.641	2.5
865.379	2.5
866.117	1.5
866.855	3.5
867.593	0.5
868.33	0.5
869.068	2.5
869.806	0.5
870.543	3.5
871.28	-0.5
872.018	-0.5
872.755	0.5
873.492	1.5
874.229	2.5
874.967	1.5
875.703	0.5
876.44	1.5
877.177	0.5
877.914	-1.5
878.651	-0.5
879.387	2.5
880.124	-0.5
880.86	0.5
881.597	0.5
882.333	-0.5
883.069	-1.5
883.806	0.5
884.542	0.5
885.278	-1.5
886.014	2.5
886.749	-0.5
887.485	2.5
888.221	-2.5
888.957	3.5
889.692	-2.5
890.428	2.5
891.163	-1.5
891.899	1.5
892.634	0.5
893.369	-0.5
894.104	-0.5
894.839	-0.5
895.574	2.5
896.309	0.5
897.044	0.5
897.779	2.5
898.514	-1.5
899.248	-0.5
899.983	0.5
900.717	0.5
901.452	-0.5
902.186	-1.5
902.92	1.5
903.654	1.5
904.389	-1.5
905.123	-3.5
905.857	0.5
906.59	-0.5
907.324	-2.5
908.058	1.5
908.792	0.5
909.525	0.5
910.259	-1.5
910.992	1.5
911.726	1.5
912.459	-0.5
913.192	0.5
913.925	-0.5
914.658	-0.5
915.391	-0.5
916.124	0.5
916.857	-1.5
917.59	-1.5
918.323	-0.5
919.055	0.5
919.788	-0.5
920.521	-0.5
921.253	-1.5
921.985	0.5
922.718	-1.5
923.45	-0.5
924.182	0.5
924.914	-1.5
925.646	-3.5
926.378	-0.5
927.11	-0.5
927.841	1.5
928.573	-0.5
929.305	-1.5
930.036	-1.5
930.768	0.5
931.499	1.5
932.23	-0.5
932.962	-1.5
933.693	-2.5
934.424	-0.5
935.155	1.5
935.886	0.5
936.617	-1.5
937.348	-2.5
938.078	-1.5
938.809	0.5
939.54	-1.5
940.27	-0.5
941.001	-1.5
941.731	0.5
942.461	1.5
943.191	0.5
943.922	-0.5
944.652	-1.5
945.382	0.5
946.112	0.5
946.841	0.5
947.571	-2.5
948.301	-1.5
949.031	-0.5
949.76	-0.5
950.49	0.5
951.219	-3.5
951.948	1.5
952.678	0.5
953.407	-1.5
954.136	-2.5
954.865	-0.5
955.594	-0.5
956.323	-1.5
957.052	-0.5
957.78	-0.5
958.509	0.5
959.238	-2.5
959.966	-0.5
960.695	0.5
961.423	-2.5
962.151	-1.5
962.88	-0.5
963.608	-1.5
964.336	-0.5
965.064	1.5
965.792	-1.5
966.52	-1.5
967.247	-0.5
967.975	-1.5
968.703	-0.5
969.43	1.5
970.158	-0.5
970.885	-1.5
971.613	-0.5
972.34	-0.5
973.067	-0.5
973.794	-0.5
974.521	-0.5
975.248	-1.5
975.975	0.5
976.702	2.5
977.429	2.5
978.156	-0.5
978.882	-0.5
979.609	0.5
980.335	-1.5
981.062	-0.5
981.788	-2.5
982.514	-0.5
983.24	-1.5
983.967	0.5
984.693	-1.5
985.419	-1.5
986.144	0.5
986.87	-3.5
987.596	-0.5
988.322	-1.5
989.047	-0.5
989.773	-0.5
990.498	-2.5
991.224	-1.5
991.949	-3.5
992.674	-2.5
993.399	-1.5
994.124	2.5
994.849	-0.5
995.574	-0.5
996.299	0.5
997.024	-0.5
997.749	0.5
998.473	-0.5
999.198	0.5
999.922	-0.5
1000.647	-0.5
1001.371	5.5
1002.095	-0.5
1002.82	0.5
1003.544	-2.5
1004.268	3.5
1004.992	1.5
1005.716	2.5
1006.439	2.5
1007.163	4.5
1007.887	3.5
1008.611	0.5
1009.334	-0.5
1010.058	2.5
1010.781	-1.5
1011.504	-1.5
1012.228	-0.5
1012.951	0.5
1013.674	-0.5
1014.397	-0.5
1015.12	-2.5
