节点500_565_QEPB04081__496__09-58-40-128.txt的数据

Date: Thu Nov 13 09:58:40 CST 2025
User: PC
Spectrometer: QEPB0408
触发模式: 0
积分时间 (秒): 1.000000E-2
Scans to average: 1
启用暗噪声校正: true
启用非线性校正: false
滑动平均宽度: 0
X轴模式: Wavelengths
Number of Pixels in Spectrum: 1044
>>>>>Begin Spectral Data<<<<<
220.843	4.12
221.644	5.12
222.444	5.12
223.244	5.12
224.045	7.12
224.845	4.12
225.645	5.12
226.445	5.12
227.245	7.12
228.045	5.12
228.845	9.12
229.645	5.12
230.444	4.12
231.244	10.12
232.043	8.12
232.843	5.12
233.642	6.12
234.442	9.12
235.241	8.12
236.04	5.12
236.839	7.12
237.638	9.12
238.437	9.12
239.236	7.12
240.035	10.12
240.833	11.12
241.632	8.12
242.43	9.12
243.229	11.12
244.027	10.12
244.826	10.12
245.624	12.12
246.422	11.12
247.22	12.12
248.018	11.12
248.816	13.12
249.614	13.12
250.412	12.12
251.21	13.12
252.007	15.12
252.805	13.12
253.602	14.12
254.4	13.12
255.197	16.12
255.994	14.12
256.791	13.12
257.589	15.12
258.386	15.12
259.183	15.12
259.979	17.12
260.776	19.12
261.573	17.12
262.37	19.12
263.166	19.12
263.963	19.12
264.759	19.12
265.556	18.12
266.352	23.12
267.148	20.12
267.944	21.12
268.74	19.12
269.536	22.12
270.332	24.12
271.128	22.12
271.924	22.12
272.719	25.12
273.515	24.12
274.311	25.12
275.106	24.12
275.901	23.12
276.697	26.12
277.492	30.12
278.287	25.12
279.082	27.12
279.877	27.12
280.672	26.12
281.467	27.12
282.262	30.12
283.056	26.12
283.851	27.12
284.646	26.12
285.44	29.12
286.234	29.12
287.029	27.12
287.823	27.12
288.617	29.12
289.411	26.12
290.205	27.12
290.999	26.12
291.793	25.12
292.587	25.12
293.381	24.12
294.174	24.12
294.968	22.12
295.761	25.12
296.555	21.12
297.348	25.12
298.141	22.12
298.935	23.12
299.728	22.12
300.521	21.12
301.314	22.12
302.107	18.12
302.899	20.12
303.692	20.12
304.485	18.12
305.277	22.12
306.07	20.12
306.862	18.12
307.655	17.12
308.447	20.12
309.239	20.12
310.031	19.12
310.823	15.12
311.615	15.12
312.407	14.12
313.199	14.12
313.991	15.12
314.783	14.12
315.574	15.12
316.366	14.12
317.157	13.12
317.949	12.12
318.74	14.12
319.531	15.12
320.322	12.12
321.113	15.12
321.904	12.12
322.695	11.12
323.486	13.12
324.277	13.12
325.068	13.12
325.858	10.12
326.649	13.12
327.439	11.12
328.23	9.12
329.02	11.12
329.81	12.12
330.6	10.12
331.391	10.12
332.181	11.12
332.971	12.12
333.76	11.12
334.55	12.12
335.34	10.12
336.13	10.12
336.919	9.12
337.709	9.12
338.498	9.12
339.287	9.12
340.077	9.12
340.866	9.12
341.655	11.12
342.444	10.12
343.233	10.12
344.022	11.12
344.811	11.12
345.6	11.12
346.388	11.12
347.177	10.12
347.965	9.12
348.754	9.12
349.542	7.12
350.33	10.12
351.119	7.12
351.907	9.12
352.695	11.12
353.483	10.12
354.271	9.12
355.059	9.12
355.846	9.12
356.634	6.12
357.422	11.12
358.209	10.12
358.997	7.12
359.784	9.12
360.571	7.12
361.359	11.12
362.146	8.12
362.933	9.12
363.72	9.12
364.507	10.12
365.294	10.12
366.081	11.12
366.867	7.12
367.654	8.12
368.44	9.12
369.227	9.12
370.013	9.12
370.8	8.12
371.586	5.12
372.372	10.12
373.158	9.12
373.944	5.12
374.73	9.12
375.516	8.12
376.302	8.12
377.088	5.12
377.873	9.12
378.659	9.12
379.445	6.12
380.23	11.12
381.015	8.12
381.801	9.12
382.586	7.12
383.371	7.12
384.156	7.12
384.941	7.12
385.726	8.12
386.511	7.12
387.296	13.12
388.08	11.12
388.865	11.12
389.649	9.12
390.434	8.12
391.218	10.12
392.003	10.12
392.787	11.12
393.571	9.12
394.355	11.12
395.139	12.12
395.923	9.12
396.707	12.12
397.491	13.12
398.274	10.12
399.058	9.12
399.842	12.12
400.625	10.12
401.408	11.12
402.192	13.12
402.975	12.12
403.758	13.12
404.541	14.12
405.324	11.12
406.107	13.12
406.89	12.12
407.673	13.12
408.456	14.12
409.238	15.12
410.021	12.12
410.803	15.12
411.586	12.12
412.368	14.12
413.151	14.12
413.933	15.12
414.715	14.12
415.497	13.12
416.279	13.12
417.061	15.12
417.843	15.12
418.624	15.12
419.406	19.12
420.188	16.12
420.969	19.12
421.751	17.12
422.532	18.12
423.313	20.12
424.095	22.12
424.876	18.12
425.657	18.12
426.438	18.12
427.219	20.12
428	21.12
428.78	21.12
429.561	22.12
430.342	23.12
431.122	25.12
431.903	26.12
432.683	28.12
433.464	31.12
434.244	31.12
435.024	30.12
435.804	33.12
436.584	30.12
437.364	39.12
438.144	37.12
438.924	35.12
439.704	43.12
440.483	46.12
441.263	46.12
442.042	51.12
442.822	57.12
443.601	62.12
444.38	65.12
445.16	67.12
445.939	76.12
446.718	85.12
447.497	85.12
448.276	98.12
449.054	105.12
449.833	118.12
450.612	126.12
451.391	141.12
452.169	157.12
452.948	175.12
453.726	190.12
454.504	209.12
455.282	234.12
456.061	268.12
456.839	283.12
457.617	330.12
458.395	355.12
459.172	394.12
459.95	444.12
460.728	493.12
461.506	545.12
462.283	605.12
463.061	685.12
463.838	759.12
464.615	832.12
465.393	919.12
466.17	1020.12
466.947	1154.12
467.724	1261.12
468.501	1393.12
469.278	1567.12
470.055	1718.12
470.831	1895.12
471.608	2083.12
472.385	2299.12
473.161	2520.12
473.938	2791.12
474.714	3022.12
475.49	3327.12
476.266	3666.12
477.043	3992.12
477.819	4389.12
478.595	4738.12
479.371	5155.12
480.146	5650.12
480.922	6162.12
481.698	6658.12
482.473	7274.12
483.249	7851.12
484.024	8519.12
484.8	9258.12
485.575	10033.12
486.35	10813.12
487.126	11739.12
487.901	12609.12
488.676	13714.12
489.451	14727.12
490.225	15929.12
491	17122.12
491.775	18339.12
492.55	19574.12
493.324	21101.12
494.099	22334.12
494.873	23809.12
495.647	25315.12
496.422	26870.12
497.196	28204.12
497.97	29695.12
498.744	31123.12
499.518	32465.12
500.292	33697.12
501.066	34851.12
501.839	35953.12
502.613	36792.12
503.387	37516.12
504.16	38372.12
504.934	38752.12
505.707	38966.12
506.48	39141.12
507.253	38969.12
508.027	38671.12
508.8	38107.12
509.573	37584.12
510.346	36763.12
511.118	35811.12
511.891	35024.12
512.664	33995.12
513.437	32857.12
514.209	31710.12
514.982	30622.12
515.754	29406.12
516.526	28289.12
517.298	27192.12
518.071	26140.12
518.843	25003.12
519.615	23974.12
520.387	23119.12
521.159	22154.12
521.93	21335.12
522.702	20394.12
523.474	19688.12
524.245	18824.12
525.017	18096.12
525.788	17331.12
526.56	16578.12
527.331	15856.12
528.102	15145.12
528.873	14438.12
529.644	13766.12
530.415	13099.12
531.186	12471.12
531.957	11869.12
532.728	11311.12
533.498	10729.12
534.269	10117.12
535.039	9594.12
535.81	9079.12
536.58	8606.12
537.351	8128.12
538.121	7702.12
538.891	7353.12
539.661	6939.12
540.431	6539.12
541.201	6188.12
541.971	5877.12
542.741	5566.12
543.51	5243.12
544.28	5021.12
545.05	4753.12
545.819	4519.12
546.588	4310.12
547.358	4098.12
548.127	3932.12
548.896	3728.12
549.665	3533.12
550.434	3331.12
551.203	3183.12
551.972	3024.12
552.741	2868.12
553.51	2691.12
554.278	2559.12
555.047	2415.12
555.815	2280.12
556.584	2164.12
557.352	2046.12
558.121	1950.12
558.889	1815.12
559.657	1719.12
560.425	1633.12
561.193	1550.12
561.961	1446.12
562.729	1386.12
563.496	1306.12
564.264	1224.12
565.032	1187.12
565.799	1115.12
566.567	1046.12
567.334	987.12
568.101	940.12
568.869	878.12
569.636	842.12
570.403	791.12
571.17	743.12
571.937	709.12
572.704	662.12
573.471	632.12
574.237	585.12
575.004	560.12
575.771	517.12
576.537	498.12
577.303	464.12
578.07	439.12
578.836	419.12
579.602	390.12
580.368	375.12
581.134	360.12
581.9	340.12
582.666	315.12
583.432	306.12
584.198	282.12
584.964	277.12
585.729	259.12
586.495	243.12
587.26	231.12
588.025	215.12
588.791	209.12
589.556	201.12
590.321	189.12
591.086	178.12
591.851	170.12
592.616	161.12
593.381	154.12
594.146	147.12
594.911	144.12
595.675	136.12
596.44	133.12
597.204	120.12
597.969	118.12
598.733	109.12
599.497	110.12
600.261	101.12
601.025	97.12
601.79	94.12
602.553	91.12
603.317	85.12
604.081	82.12
604.845	78.12
605.609	74.12
606.372	73.12
607.136	73.12
607.899	67.12
608.662	60.12
609.426	58.12
610.189	62.12
610.952	57.12
611.715	51.12
612.478	52.12
613.241	55.12
614.004	49.12
614.767	47.12
615.529	47.12
616.292	44.12
617.055	41.12
617.817	45.12
618.579	41.12
619.342	40.12
620.104	37.12
620.866	39.12
621.628	34.12
622.39	35.12
623.152	32.12
623.914	28.12
624.676	32.12
625.438	29.12
626.199	29.12
626.961	29.12
627.722	28.12
628.484	25.12
629.245	25.12
630.006	24.12
630.768	23.12
631.529	25.12
632.29	22.12
633.051	22.12
633.812	18.12
634.573	22.12
635.333	20.12
636.094	19.12
636.855	19.12
637.615	17.12
638.376	19.12
639.136	17.12
639.896	15.12
640.657	14.12
641.417	15.12
642.177	17.12
642.937	16.12
643.697	16.12
644.457	15.12
645.216	15.12
645.976	14.12
646.736	15.12
647.495	14.12
648.255	13.12
649.014	13.12
649.774	13.12
650.533	10.12
651.292	11.12
652.051	14.12
652.81	13.12
653.569	9.12
654.328	10.12
655.087	11.12
655.846	11.12
656.604	7.12
657.363	10.12
658.121	10.12
658.88	10.12
659.638	9.12
660.397	9.12
661.155	10.12
661.913	8.12
662.671	9.12
663.429	8.12
664.187	8.12
664.945	9.12
665.703	11.12
666.46	10.12
667.218	7.12
667.976	9.12
668.733	10.12
669.49	9.12
670.248	8.12
671.005	9.12
671.762	8.12
672.519	7.12
673.276	8.12
674.033	8.12
674.79	5.12
675.547	9.12
676.304	8.12
677.06	8.12
677.817	4.12
678.574	8.12
679.33	7.12
680.086	9.12
680.843	6.12
681.599	7.12
682.355	8.12
683.111	7.12
683.867	7.12
684.623	8.12
685.379	6.12
686.135	7.12
686.89	6.12
687.646	7.12
688.402	7.12
689.157	7.12
689.912	6.12
690.668	7.12
691.423	7.12
692.178	7.12
692.933	7.12
693.688	7.12
694.443	6.12
695.198	7.12
695.953	7.12
696.708	5.12
697.462	7.12
698.217	8.12
698.972	7.12
699.726	7.12
700.48	7.12
701.235	5.12
701.989	9.12
702.743	5.12
703.497	7.12
704.251	5.12
705.005	7.12
705.759	6.12
706.513	6.12
707.266	6.12
708.02	7.12
708.774	6.12
709.527	5.12
710.28	8.12
711.034	8.12
711.787	7.12
712.54	7.12
713.293	6.12
714.046	5.12
714.799	8.12
715.552	6.12
716.305	9.12
717.058	6.12
717.81	8.12
718.563	6.12
719.315	5.12
720.068	7.12
720.82	8.12
721.573	7.12
722.325	10.12
723.077	5.12
723.829	8.12
724.581	9.12
725.333	7.12
726.085	9.12
726.836	7.12
727.588	7.12
728.34	7.12
729.091	7.12
729.843	8.12
730.594	7.12
731.346	9.12
732.097	7.12
732.848	8.12
733.599	8.12
734.35	8.12
735.101	7.12
735.852	10.12
736.603	6.12
737.354	7.12
738.104	6.12
738.855	7.12
739.605	6.12
740.356	9.12
741.106	8.12
741.856	8.12
742.607	8.12
743.357	9.12
744.107	7.12
744.857	6.12
745.607	9.12
746.357	9.12
747.106	10.12
747.856	9.12
748.606	11.12
749.355	7.12
750.105	7.12
750.854	8.12
751.603	8.12
752.353	10.12
753.102	9.12
753.851	8.12
754.6	8.12
755.349	11.12
756.098	8.12
756.847	9.12
757.595	8.12
758.344	10.12
759.093	9.12
759.841	8.12
760.589	11.12
761.338	12.12
762.086	10.12
762.834	9.12
763.582	8.12
764.331	13.12
765.079	9.12
765.826	10.12
766.574	10.12
767.322	13.12
768.07	10.12
768.817	9.12
769.565	10.12
770.312	12.12
771.06	10.12
771.807	12.12
772.554	11.12
773.302	12.12
774.049	12.12
774.796	11.12
775.543	13.12
776.29	12.12
777.036	12.12
777.783	12.12
778.53	11.12
779.276	11.12
780.023	12.12
780.769	13.12
781.516	14.12
782.262	11.12
783.008	12.12
783.754	14.12
784.5	11.12
785.246	15.12
785.992	11.12
786.738	14.12
787.484	13.12
788.23	12.12
788.975	12.12
789.721	14.12
790.466	14.12
791.212	13.12
791.957	12.12
792.702	11.12
793.447	13.12
794.193	13.12
794.938	9.12
795.683	12.12
796.427	9.12
797.172	14.12
797.917	13.12
798.662	13.12
799.406	9.12
800.151	8.12
800.895	8.12
801.64	10.12
802.384	11.12
803.128	11.12
803.872	11.12
804.616	10.12
805.36	9.12
806.104	9.12
806.848	7.12
807.592	11.12
808.336	8.12
809.079	8.12
809.823	9.12
810.566	10.12
811.31	8.12
812.053	9.12
812.796	8.12
813.539	8.12
814.283	7.12
815.026	8.12
815.769	8.12
816.511	9.12
817.254	5.12
817.997	8.12
818.74	7.12
819.482	7.12
820.225	9.12
820.967	7.12
821.71	6.12
822.452	7.12
823.194	7.12
823.936	5.12
824.678	7.12
825.42	6.12
826.162	5.12
826.904	6.12
827.646	5.12
828.388	4.12
829.129	6.12
829.871	6.12
830.612	4.12
831.354	9.12
832.095	7.12
832.836	5.12
833.577	5.12
834.319	5.12
835.06	6.12
835.801	3.12
836.542	5.12
837.282	5.12
838.023	5.12
838.764	5.12
839.504	7.12
840.245	4.12
840.985	5.12
841.726	5.12
842.466	5.12
843.206	4.12
843.946	6.12
844.687	4.12
845.427	2.12
846.166	4.12
846.906	3.12
847.646	3.12
848.386	4.12
849.125	3.12
849.865	6.12
850.605	4.12
851.344	4.12
852.083	5.12
852.823	2.12
853.562	5.12
854.301	3.12
855.04	4.12
855.779	1.12
856.518	6.12
857.257	1.12
857.995	1.12
858.734	4.12
859.473	2.12
860.211	2.12
860.95	4.12
861.688	3.12
862.426	3.12
863.165	3.12
863.903	1.12
864.641	3.12
865.379	0.12
866.117	3.12
866.855	2.12
867.593	4.12
868.33	3.12
869.068	2.12
869.806	2.12
870.543	0.12
871.28	4.12
872.018	5.12
872.755	2.12
873.492	2.12
874.229	3.12
874.967	2.12
875.703	0.12
876.44	2.12
877.177	2.12
877.914	4.12
878.651	2.12
879.387	2.12
880.124	5.12
880.86	1.12
881.597	2.12
882.333	-0.88
883.069	2.12
883.806	3.12
884.542	3.12
885.278	3.12
886.014	3.12
886.749	-2.88
887.485	1.12
888.221	3.12
888.957	1.12
889.692	2.12
890.428	1.12
891.163	1.12
891.899	2.12
892.634	1.12
893.369	2.12
894.104	2.12
894.839	1.12
895.574	1.12
896.309	2.12
897.044	0.12
897.779	0.12
898.514	3.12
899.248	1.12
899.983	3.12
900.717	2.12
901.452	2.12
902.186	0.12
902.92	3.12
903.654	2.12
904.389	-0.88
905.123	2.12
905.857	1.12
906.59	1.12
907.324	1.12
908.058	1.12
908.792	1.12
909.525	1.12
910.259	2.12
910.992	1.12
911.726	1.12
912.459	0.12
913.192	0.12
913.925	2.12
914.658	0.12
915.391	1.12
916.124	2.12
916.857	0.12
917.59	0.12
918.323	1.12
919.055	1.12
919.788	0.12
920.521	3.12
921.253	0.12
921.985	1.12
922.718	-1.88
923.45	1.12
924.182	2.12
924.914	1.12
925.646	1.12
926.378	-0.88
927.11	0.12
927.841	0.12
928.573	0.12
929.305	1.12
930.036	3.12
930.768	1.12
931.499	0.12
932.23	2.12
932.962	-0.88
933.693	0.12
934.424	0.12
935.155	0.12
935.886	-0.88
936.617	-0.88
937.348	2.12
938.078	-0.88
938.809	1.12
939.54	-1.88
940.27	2.12
941.001	1.12
941.731	0.12
942.461	2.12
943.191	-1.88
943.922	0.12
944.652	0.12
945.382	0.12
946.112	1.12
946.841	1.12
947.571	1.12
948.301	0.12
949.031	0.12
949.76	0.12
950.49	-0.88
951.219	-1.88
951.948	-0.88
952.678	2.12
953.407	0.12
954.136	0.12
954.865	2.12
955.594	0.12
956.323	-1.88
957.052	0.12
957.78	1.12
958.509	2.12
959.238	-0.88
959.966	-0.88
960.695	1.12
961.423	0.12
962.151	-1.88
962.88	3.12
963.608	5.12
964.336	1.12
965.064	1.12
965.792	1.12
966.52	2.12
967.247	-0.88
967.975	2.12
968.703	0.12
969.43	1.12
970.158	-0.88
970.885	0.12
971.613	2.12
972.34	0.12
973.067	-0.88
973.794	-2.88
974.521	1.12
975.248	-0.88
975.975	1.12
976.702	1.12
977.429	0.12
978.156	1.12
978.882	0.12
979.609	3.12
980.335	2.12
981.062	1.12
981.788	2.12
982.514	0.12
983.24	-0.88
983.967	0.12
984.693	1.12
985.419	1.12
986.144	0.12
986.87	0.12
987.596	-0.88
988.322	0.12
989.047	1.12
989.773	1.12
990.498	0.12
991.224	-0.88
991.949	-1.88
992.674	0.12
993.399	0.12
994.124	0.12
994.849	0.12
995.574	0.12
996.299	0.12
997.024	0.12
997.749	-0.88
998.473	1.12
999.198	-0.88
999.922	-0.88
1000.647	-0.88
1001.371	2.12
1002.095	-1.88
1002.82	-0.88
1003.544	0.12
1004.268	2.12
1004.992	2.12
1005.716	3.12
1006.439	2.12
1007.163	5.12
1007.887	7.12
1008.611	1.12
1009.334	3.12
1010.058	1.12
1010.781	-0.88
1011.504	1.12
1012.228	1.12
1012.951	0.12
1013.674	1.12
1014.397	0.12
1015.12	-0.88
