节点500_565_QEPB04081__423__09-57-27-295.txt的数据

Date: Thu Nov 13 09:57:27 CST 2025
User: PC
Spectrometer: QEPB0408
触发模式: 0
积分时间 (秒): 1.000000E-2
Scans to average: 1
启用暗噪声校正: true
启用非线性校正: false
滑动平均宽度: 0
X轴模式: Wavelengths
Number of Pixels in Spectrum: 1044
>>>>>Begin Spectral Data<<<<<
220.843	5.62
221.644	1.62
222.444	3.62
223.244	3.62
224.045	5.62
224.845	3.62
225.645	1.62
226.445	3.62
227.245	4.62
228.045	5.62
228.845	6.62
229.645	6.62
230.444	8.62
231.244	6.62
232.043	8.62
232.843	8.62
233.642	6.62
234.442	6.62
235.241	5.62
236.04	7.62
236.839	6.62
237.638	6.62
238.437	8.62
239.236	9.62
240.035	8.62
240.833	6.62
241.632	8.62
242.43	7.62
243.229	7.62
244.027	8.62
244.826	10.62
245.624	8.62
246.422	9.62
247.22	10.62
248.018	9.62
248.816	11.62
249.614	12.62
250.412	12.62
251.21	10.62
252.007	11.62
252.805	13.62
253.602	12.62
254.4	14.62
255.197	12.62
255.994	12.62
256.791	14.62
257.589	13.62
258.386	17.62
259.183	15.62
259.979	16.62
260.776	16.62
261.573	16.62
262.37	18.62
263.166	17.62
263.963	17.62
264.759	20.62
265.556	18.62
266.352	19.62
267.148	22.62
267.944	21.62
268.74	21.62
269.536	24.62
270.332	22.62
271.128	24.62
271.924	23.62
272.719	27.62
273.515	22.62
274.311	27.62
275.106	23.62
275.901	25.62
276.697	23.62
277.492	25.62
278.287	25.62
279.082	27.62
279.877	27.62
280.672	26.62
281.467	24.62
282.262	25.62
283.056	27.62
283.851	27.62
284.646	27.62
285.44	26.62
286.234	25.62
287.029	28.62
287.823	28.62
288.617	27.62
289.411	26.62
290.205	24.62
290.999	27.62
291.793	26.62
292.587	26.62
293.381	26.62
294.174	24.62
294.968	23.62
295.761	22.62
296.555	20.62
297.348	22.62
298.141	22.62
298.935	22.62
299.728	21.62
300.521	23.62
301.314	20.62
302.107	19.62
302.899	18.62
303.692	17.62
304.485	19.62
305.277	15.62
306.07	18.62
306.862	20.62
307.655	19.62
308.447	15.62
309.239	19.62
310.031	17.62
310.823	15.62
311.615	18.62
312.407	13.62
313.199	15.62
313.991	12.62
314.783	14.62
315.574	15.62
316.366	12.62
317.157	12.62
317.949	13.62
318.74	13.62
319.531	10.62
320.322	10.62
321.113	12.62
321.904	10.62
322.695	10.62
323.486	10.62
324.277	10.62
325.068	11.62
325.858	9.62
326.649	8.62
327.439	8.62
328.23	9.62
329.02	9.62
329.81	10.62
330.6	7.62
331.391	8.62
332.181	10.62
332.971	8.62
333.76	10.62
334.55	11.62
335.34	9.62
336.13	8.62
336.919	9.62
337.709	7.62
338.498	11.62
339.287	9.62
340.077	7.62
340.866	10.62
341.655	6.62
342.444	9.62
343.233	8.62
344.022	8.62
344.811	8.62
345.6	10.62
346.388	8.62
347.177	7.62
347.965	10.62
348.754	7.62
349.542	10.62
350.33	8.62
351.119	8.62
351.907	8.62
352.695	6.62
353.483	8.62
354.271	10.62
355.059	10.62
355.846	7.62
356.634	9.62
357.422	7.62
358.209	7.62
358.997	8.62
359.784	7.62
360.571	9.62
361.359	8.62
362.146	8.62
362.933	9.62
363.72	8.62
364.507	5.62
365.294	6.62
366.081	6.62
366.867	4.62
367.654	7.62
368.44	7.62
369.227	4.62
370.013	6.62
370.8	4.62
371.586	6.62
372.372	8.62
373.158	7.62
373.944	5.62
374.73	8.62
375.516	9.62
376.302	7.62
377.088	9.62
377.873	9.62
378.659	7.62
379.445	6.62
380.23	6.62
381.015	8.62
381.801	6.62
382.586	10.62
383.371	9.62
384.156	8.62
384.941	8.62
385.726	8.62
386.511	9.62
387.296	8.62
388.08	10.62
388.865	6.62
389.649	9.62
390.434	8.62
391.218	10.62
392.003	6.62
392.787	9.62
393.571	9.62
394.355	8.62
395.139	8.62
395.923	9.62
396.707	9.62
397.491	8.62
398.274	8.62
399.058	9.62
399.842	11.62
400.625	11.62
401.408	9.62
402.192	10.62
402.975	9.62
403.758	13.62
404.541	11.62
405.324	11.62
406.107	12.62
406.89	10.62
407.673	12.62
408.456	12.62
409.238	12.62
410.021	13.62
410.803	12.62
411.586	14.62
412.368	13.62
413.151	15.62
413.933	14.62
414.715	19.62
415.497	12.62
416.279	15.62
417.061	13.62
417.843	14.62
418.624	16.62
419.406	15.62
420.188	13.62
420.969	16.62
421.751	18.62
422.532	18.62
423.313	18.62
424.095	19.62
424.876	17.62
425.657	19.62
426.438	24.62
427.219	18.62
428	22.62
428.78	21.62
429.561	20.62
430.342	25.62
431.122	22.62
431.903	27.62
432.683	25.62
433.464	26.62
434.244	30.62
435.024	32.62
435.804	32.62
436.584	32.62
437.364	35.62
438.144	36.62
438.924	39.62
439.704	42.62
440.483	44.62
441.263	46.62
442.042	49.62
442.822	55.62
443.601	60.62
444.38	60.62
445.16	66.62
445.939	74.62
446.718	81.62
447.497	92.62
448.276	92.62
449.054	103.62
449.833	116.62
450.612	122.62
451.391	133.62
452.169	149.62
452.948	167.62
453.726	184.62
454.504	201.62
455.282	226.62
456.061	252.62
456.839	282.62
457.617	306.62
458.395	348.62
459.172	391.62
459.95	435.62
460.728	475.62
461.506	531.62
462.283	599.62
463.061	670.62
463.838	736.62
464.615	820.62
465.393	908.62
466.17	1021.62
466.947	1131.62
467.724	1251.62
468.501	1381.62
469.278	1533.62
470.055	1691.62
470.831	1886.62
471.608	2052.62
472.385	2292.62
473.161	2526.62
473.938	2785.62
474.714	3041.62
475.49	3341.62
476.266	3672.62
477.043	4007.62
477.819	4385.62
478.595	4802.62
479.371	5217.62
480.146	5731.62
480.922	6205.62
481.698	6766.62
482.473	7357.62
483.249	7997.62
484.024	8680.62
484.8	9427.62
485.575	10235.62
486.35	11055.62
487.126	11984.62
487.901	12964.62
488.676	14043.62
489.451	15187.62
490.225	16429.62
491	17650.62
491.775	18881.62
492.55	20247.62
493.324	21679.62
494.099	23070.62
494.873	24574.62
495.647	26115.62
496.422	27625.62
497.196	29141.62
497.97	30638.62
498.744	32025.62
499.518	33435.62
500.292	34762.62
501.066	35810.62
501.839	36932.62
502.613	37825.62
503.387	38575.62
504.16	39231.62
504.934	39535.62
505.707	39759.62
506.48	39768.62
507.253	39692.62
508.027	39128.62
508.8	38625.62
509.573	37919.62
510.346	37058.62
511.118	36156.62
511.891	35186.62
512.664	34144.62
513.437	32919.62
514.209	31671.62
514.982	30481.62
515.754	29362.62
516.526	28180.62
517.298	27033.62
518.071	26003.62
518.843	24905.62
519.615	23903.62
520.387	22972.62
521.159	22080.62
521.93	21227.62
522.702	20281.62
523.474	19512.62
524.245	18747.62
525.017	17979.62
525.788	17241.62
526.56	16465.62
527.331	15709.62
528.102	15035.62
528.873	14341.62
529.644	13608.62
530.415	12936.62
531.186	12268.62
531.957	11743.62
532.728	11165.62
533.498	10597.62
534.269	9999.62
535.039	9457.62
535.81	8969.62
536.58	8522.62
537.351	8060.62
538.121	7578.62
538.891	7194.62
539.661	6810.62
540.431	6473.62
541.201	6082.62
541.971	5773.62
542.741	5475.62
543.51	5195.62
544.28	4928.62
545.05	4687.62
545.819	4473.62
546.588	4262.62
547.358	4038.62
548.127	3820.62
548.896	3635.62
549.665	3455.62
550.434	3283.62
551.203	3117.62
551.972	2969.62
552.741	2820.62
553.51	2647.62
554.278	2494.62
555.047	2357.62
555.815	2240.62
556.584	2127.62
557.352	2003.62
558.121	1889.62
558.889	1782.62
559.657	1679.62
560.425	1594.62
561.193	1506.62
561.961	1426.62
562.729	1321.62
563.496	1261.62
564.264	1206.62
565.032	1147.62
565.799	1085.62
566.567	1034.62
567.334	971.62
568.101	908.62
568.869	864.62
569.636	817.62
570.403	761.62
571.17	733.62
571.937	678.62
572.704	647.62
573.471	618.62
574.237	574.62
575.004	542.62
575.771	514.62
576.537	485.62
577.303	460.62
578.07	433.62
578.836	404.62
579.602	381.62
580.368	370.62
581.134	338.62
581.9	327.62
582.666	316.62
583.432	292.62
584.198	286.62
584.964	263.62
585.729	248.62
586.495	244.62
587.26	231.62
588.025	214.62
588.791	201.62
589.556	191.62
590.321	180.62
591.086	174.62
591.851	169.62
592.616	152.62
593.381	150.62
594.146	144.62
594.911	135.62
595.675	133.62
596.44	123.62
597.204	120.62
597.969	114.62
598.733	109.62
599.497	103.62
600.261	94.62
601.025	97.62
601.79	89.62
602.553	92.62
603.317	83.62
604.081	80.62
604.845	78.62
605.609	72.62
606.372	67.62
607.136	65.62
607.899	64.62
608.662	64.62
609.426	58.62
610.189	59.62
610.952	55.62
611.715	53.62
612.478	53.62
613.241	47.62
614.004	46.62
614.767	45.62
615.529	46.62
616.292	40.62
617.055	41.62
617.817	41.62
618.579	38.62
619.342	37.62
620.104	34.62
620.866	33.62
621.628	34.62
622.39	31.62
623.152	32.62
623.914	27.62
624.676	26.62
625.438	30.62
626.199	26.62
626.961	24.62
627.722	28.62
628.484	23.62
629.245	27.62
630.006	22.62
630.768	25.62
631.529	24.62
632.29	21.62
633.051	20.62
633.812	20.62
634.573	20.62
635.333	19.62
636.094	19.62
636.855	16.62
637.615	15.62
638.376	15.62
639.136	17.62
639.896	16.62
640.657	13.62
641.417	16.62
642.177	14.62
642.937	16.62
643.697	13.62
644.457	14.62
645.216	12.62
645.976	13.62
646.736	15.62
647.495	14.62
648.255	14.62
649.014	13.62
649.774	12.62
650.533	12.62
651.292	10.62
652.051	12.62
652.81	11.62
653.569	10.62
654.328	12.62
655.087	11.62
655.846	8.62
656.604	9.62
657.363	9.62
658.121	9.62
658.88	9.62
659.638	9.62
660.397	7.62
661.155	8.62
661.913	9.62
662.671	10.62
663.429	10.62
664.187	10.62
664.945	6.62
665.703	7.62
666.46	8.62
667.218	6.62
667.976	6.62
668.733	7.62
669.49	6.62
670.248	8.62
671.005	5.62
671.762	7.62
672.519	7.62
673.276	7.62
674.033	4.62
674.79	8.62
675.547	8.62
676.304	7.62
677.06	7.62
677.817	4.62
678.574	6.62
679.33	6.62
680.086	6.62
680.843	7.62
681.599	8.62
682.355	8.62
683.111	5.62
683.867	8.62
684.623	7.62
685.379	6.62
686.135	5.62
686.89	5.62
687.646	3.62
688.402	6.62
689.157	6.62
689.912	4.62
690.668	5.62
691.423	4.62
692.178	6.62
692.933	8.62
693.688	6.62
694.443	4.62
695.198	6.62
695.953	4.62
696.708	6.62
697.462	7.62
698.217	7.62
698.972	4.62
699.726	5.62
700.48	5.62
701.235	6.62
701.989	7.62
702.743	7.62
703.497	4.62
704.251	6.62
705.005	6.62
705.759	5.62
706.513	6.62
707.266	7.62
708.02	9.62
708.774	3.62
709.527	7.62
710.28	5.62
711.034	4.62
711.787	7.62
712.54	5.62
713.293	6.62
714.046	5.62
714.799	5.62
715.552	3.62
716.305	5.62
717.058	5.62
717.81	5.62
718.563	6.62
719.315	4.62
720.068	5.62
720.82	4.62
721.573	6.62
722.325	5.62
723.077	5.62
723.829	6.62
724.581	4.62
725.333	4.62
726.085	6.62
726.836	7.62
727.588	8.62
728.34	7.62
729.091	7.62
729.843	7.62
730.594	8.62
731.346	6.62
732.097	8.62
732.848	9.62
733.599	8.62
734.35	7.62
735.101	7.62
735.852	8.62
736.603	7.62
737.354	7.62
738.104	7.62
738.855	8.62
739.605	7.62
740.356	6.62
741.106	7.62
741.856	6.62
742.607	5.62
743.357	8.62
744.107	9.62
744.857	7.62
745.607	8.62
746.357	9.62
747.106	7.62
747.856	7.62
748.606	8.62
749.355	5.62
750.105	6.62
750.854	7.62
751.603	6.62
752.353	8.62
753.102	7.62
753.851	8.62
754.6	10.62
755.349	9.62
756.098	7.62
756.847	8.62
757.595	7.62
758.344	9.62
759.093	9.62
759.841	8.62
760.589	10.62
761.338	10.62
762.086	12.62
762.834	9.62
763.582	9.62
764.331	8.62
765.079	12.62
765.826	11.62
766.574	9.62
767.322	10.62
768.07	8.62
768.817	9.62
769.565	11.62
770.312	8.62
771.06	12.62
771.807	10.62
772.554	12.62
773.302	12.62
774.049	9.62
774.796	10.62
775.543	9.62
776.29	13.62
777.036	13.62
777.783	11.62
778.53	12.62
779.276	14.62
780.023	12.62
780.769	15.62
781.516	14.62
782.262	12.62
783.008	13.62
783.754	10.62
784.5	13.62
785.246	11.62
785.992	11.62
786.738	11.62
787.484	10.62
788.23	15.62
788.975	12.62
789.721	12.62
790.466	11.62
791.212	12.62
791.957	15.62
792.702	9.62
793.447	12.62
794.193	8.62
794.938	11.62
795.683	11.62
796.427	10.62
797.172	12.62
797.917	10.62
798.662	11.62
799.406	8.62
800.151	11.62
800.895	11.62
801.64	10.62
802.384	6.62
803.128	9.62
803.872	8.62
804.616	9.62
805.36	10.62
806.104	9.62
806.848	7.62
807.592	9.62
808.336	6.62
809.079	7.62
809.823	6.62
810.566	7.62
811.31	5.62
812.053	9.62
812.796	5.62
813.539	8.62
814.283	9.62
815.026	6.62
815.769	6.62
816.511	6.62
817.254	6.62
817.997	7.62
818.74	6.62
819.482	5.62
820.225	6.62
820.967	6.62
821.71	5.62
822.452	6.62
823.194	6.62
823.936	7.62
824.678	8.62
825.42	4.62
826.162	5.62
826.904	4.62
827.646	8.62
828.388	6.62
829.129	6.62
829.871	5.62
830.612	4.62
831.354	3.62
832.095	2.62
832.836	6.62
833.577	5.62
834.319	4.62
835.06	5.62
835.801	3.62
836.542	4.62
837.282	3.62
838.023	3.62
838.764	6.62
839.504	5.62
840.245	4.62
840.985	4.62
841.726	6.62
842.466	4.62
843.206	5.62
843.946	5.62
844.687	4.62
845.427	4.62
846.166	4.62
846.906	2.62
847.646	4.62
848.386	4.62
849.125	3.62
849.865	5.62
850.605	4.62
851.344	3.62
852.083	3.62
852.823	3.62
853.562	4.62
854.301	6.62
855.04	3.62
855.779	2.62
856.518	2.62
857.257	3.62
857.995	4.62
858.734	2.62
859.473	3.62
860.211	1.62
860.95	2.62
861.688	1.62
862.426	2.62
863.165	-0.38
863.903	2.62
864.641	2.62
865.379	0.62
866.117	1.62
866.855	3.62
867.593	3.62
868.33	-0.38
869.068	1.62
869.806	2.62
870.543	3.62
871.28	1.62
872.018	1.62
872.755	1.62
873.492	1.62
874.229	1.62
874.967	0.62
875.703	2.62
876.44	0.62
877.177	2.62
877.914	1.62
878.651	0.62
879.387	2.62
880.124	2.62
880.86	0.62
881.597	3.62
882.333	2.62
883.069	-0.38
883.806	0.62
884.542	0.62
885.278	1.62
886.014	1.62
886.749	2.62
887.485	2.62
888.221	1.62
888.957	2.62
889.692	2.62
890.428	-0.38
891.163	2.62
891.899	0.62
892.634	1.62
893.369	-1.38
894.104	-0.38
894.839	0.62
895.574	-0.38
896.309	2.62
897.044	-0.38
897.779	1.62
898.514	1.62
899.248	2.62
899.983	0.62
900.717	-0.38
901.452	-0.38
902.186	0.62
902.92	2.62
903.654	-0.38
904.389	0.62
905.123	-0.38
905.857	1.62
906.59	0.62
907.324	-0.38
908.058	1.62
908.792	1.62
909.525	1.62
910.259	-1.38
910.992	-0.38
911.726	2.62
912.459	0.62
913.192	-0.38
913.925	0.62
914.658	-1.38
915.391	2.62
916.124	-1.38
916.857	-0.38
917.59	-0.38
918.323	2.62
919.055	0.62
919.788	2.62
920.521	1.62
921.253	-0.38
921.985	0.62
922.718	-1.38
923.45	0.62
924.182	0.62
924.914	-0.38
925.646	0.62
926.378	0.62
927.11	-0.38
927.841	0.62
928.573	-3.38
929.305	1.62
930.036	-0.38
930.768	-0.38
931.499	1.62
932.23	2.62
932.962	-1.38
933.693	-2.38
934.424	0.62
935.155	-0.38
935.886	1.62
936.617	-0.38
937.348	-0.38
938.078	-0.38
938.809	2.62
939.54	-1.38
940.27	1.62
941.001	-2.38
941.731	1.62
942.461	-0.38
943.191	0.62
943.922	2.62
944.652	-0.38
945.382	-0.38
946.112	0.62
946.841	0.62
947.571	-0.38
948.301	-0.38
949.031	-0.38
949.76	-1.38
950.49	1.62
951.219	-0.38
951.948	-1.38
952.678	1.62
953.407	-2.38
954.136	0.62
954.865	0.62
955.594	-1.38
956.323	0.62
957.052	-0.38
957.78	-0.38
958.509	2.62
959.238	1.62
959.966	-0.38
960.695	1.62
961.423	1.62
962.151	0.62
962.88	0.62
963.608	0.62
964.336	-0.38
965.064	-0.38
965.792	1.62
966.52	0.62
967.247	2.62
967.975	0.62
968.703	-0.38
969.43	-0.38
970.158	-1.38
970.885	0.62
971.613	1.62
972.34	-0.38
973.067	0.62
973.794	-1.38
974.521	-0.38
975.248	-2.38
975.975	-0.38
976.702	-1.38
977.429	0.62
978.156	-2.38
978.882	-0.38
979.609	0.62
980.335	-0.38
981.062	0.62
981.788	-1.38
982.514	0.62
983.24	-0.38
983.967	-0.38
984.693	2.62
985.419	-0.38
986.144	-0.38
986.87	1.62
987.596	0.62
988.322	-1.38
989.047	0.62
989.773	-2.38
990.498	-1.38
991.224	1.62
991.949	0.62
992.674	1.62
993.399	-1.38
994.124	-1.38
994.849	0.62
995.574	0.62
996.299	0.62
997.024	-2.38
997.749	-0.38
998.473	1.62
999.198	0.62
999.922	0.62
1000.647	1.62
1001.371	2.62
1002.095	-1.38
1002.82	-2.38
1003.544	-2.38
1004.268	2.62
1004.992	3.62
1005.716	1.62
1006.439	3.62
1007.163	5.62
1007.887	2.62
1008.611	-1.38
1009.334	-1.38
1010.058	0.62
1010.781	-0.38
1011.504	-1.38
1012.228	-0.38
1012.951	2.62
1013.674	0.62
1014.397	-1.38
1015.12	1.62
