节点500_565_QEPB04081__340__09-56-04-443.txt的数据

Date: Thu Nov 13 09:56:04 CST 2025
User: PC
Spectrometer: QEPB0408
触发模式: 0
积分时间 (秒): 1.000000E-2
Scans to average: 1
启用暗噪声校正: true
启用非线性校正: false
滑动平均宽度: 0
X轴模式: Wavelengths
Number of Pixels in Spectrum: 1044
>>>>>Begin Spectral Data<<<<<
220.843	2.25
221.644	4.25
222.444	4.25
223.244	3.25
224.045	5.25
224.845	4.25
225.645	6.25
226.445	3.25
227.245	5.25
228.045	3.25
228.845	6.25
229.645	7.25
230.444	4.25
231.244	7.25
232.043	5.25
232.843	6.25
233.642	3.25
234.442	5.25
235.241	6.25
236.04	9.25
236.839	7.25
237.638	3.25
238.437	8.25
239.236	8.25
240.035	5.25
240.833	9.25
241.632	8.25
242.43	8.25
243.229	8.25
244.027	7.25
244.826	8.25
245.624	11.25
246.422	6.25
247.22	11.25
248.018	11.25
248.816	11.25
249.614	11.25
250.412	12.25
251.21	12.25
252.007	11.25
252.805	12.25
253.602	12.25
254.4	11.25
255.197	15.25
255.994	13.25
256.791	16.25
257.589	14.25
258.386	17.25
259.183	14.25
259.979	16.25
260.776	14.25
261.573	16.25
262.37	18.25
263.166	19.25
263.963	19.25
264.759	22.25
265.556	19.25
266.352	22.25
267.148	18.25
267.944	22.25
268.74	19.25
269.536	22.25
270.332	25.25
271.128	22.25
271.924	25.25
272.719	26.25
273.515	24.25
274.311	24.25
275.106	29.25
275.901	25.25
276.697	24.25
277.492	28.25
278.287	24.25
279.082	28.25
279.877	25.25
280.672	27.25
281.467	27.25
282.262	29.25
283.056	26.25
283.851	26.25
284.646	26.25
285.44	29.25
286.234	28.25
287.029	26.25
287.823	30.25
288.617	24.25
289.411	27.25
290.205	28.25
290.999	26.25
291.793	26.25
292.587	25.25
293.381	26.25
294.174	26.25
294.968	22.25
295.761	22.25
296.555	22.25
297.348	21.25
298.141	23.25
298.935	24.25
299.728	21.25
300.521	16.25
301.314	23.25
302.107	19.25
302.899	19.25
303.692	21.25
304.485	20.25
305.277	18.25
306.07	23.25
306.862	19.25
307.655	19.25
308.447	18.25
309.239	18.25
310.031	19.25
310.823	15.25
311.615	13.25
312.407	13.25
313.199	13.25
313.991	15.25
314.783	14.25
315.574	15.25
316.366	13.25
317.157	13.25
317.949	12.25
318.74	11.25
319.531	12.25
320.322	12.25
321.113	8.25
321.904	13.25
322.695	9.25
323.486	11.25
324.277	10.25
325.068	9.25
325.858	10.25
326.649	9.25
327.439	8.25
328.23	10.25
329.02	9.25
329.81	9.25
330.6	10.25
331.391	10.25
332.181	7.25
332.971	10.25
333.76	7.25
334.55	11.25
335.34	9.25
336.13	10.25
336.919	12.25
337.709	8.25
338.498	12.25
339.287	8.25
340.077	7.25
340.866	12.25
341.655	9.25
342.444	9.25
343.233	8.25
344.022	8.25
344.811	8.25
345.6	9.25
346.388	10.25
347.177	11.25
347.965	11.25
348.754	10.25
349.542	9.25
350.33	8.25
351.119	9.25
351.907	7.25
352.695	9.25
353.483	11.25
354.271	8.25
355.059	6.25
355.846	10.25
356.634	10.25
357.422	7.25
358.209	7.25
358.997	5.25
359.784	9.25
360.571	7.25
361.359	8.25
362.146	7.25
362.933	6.25
363.72	5.25
364.507	8.25
365.294	6.25
366.081	7.25
366.867	9.25
367.654	7.25
368.44	8.25
369.227	9.25
370.013	4.25
370.8	8.25
371.586	8.25
372.372	6.25
373.158	8.25
373.944	6.25
374.73	6.25
375.516	6.25
376.302	9.25
377.088	7.25
377.873	9.25
378.659	7.25
379.445	10.25
380.23	10.25
381.015	8.25
381.801	9.25
382.586	10.25
383.371	7.25
384.156	9.25
384.941	6.25
385.726	8.25
386.511	8.25
387.296	10.25
388.08	8.25
388.865	10.25
389.649	7.25
390.434	8.25
391.218	10.25
392.003	9.25
392.787	10.25
393.571	9.25
394.355	9.25
395.139	10.25
395.923	8.25
396.707	9.25
397.491	11.25
398.274	11.25
399.058	12.25
399.842	10.25
400.625	10.25
401.408	10.25
402.192	11.25
402.975	10.25
403.758	11.25
404.541	11.25
405.324	13.25
406.107	12.25
406.89	13.25
407.673	12.25
408.456	13.25
409.238	12.25
410.021	11.25
410.803	13.25
411.586	14.25
412.368	13.25
413.151	14.25
413.933	17.25
414.715	13.25
415.497	12.25
416.279	15.25
417.061	13.25
417.843	17.25
418.624	16.25
419.406	16.25
420.188	15.25
420.969	16.25
421.751	18.25
422.532	18.25
423.313	20.25
424.095	18.25
424.876	18.25
425.657	20.25
426.438	18.25
427.219	23.25
428	20.25
428.78	24.25
429.561	25.25
430.342	23.25
431.122	26.25
431.903	24.25
432.683	25.25
433.464	26.25
434.244	27.25
435.024	31.25
435.804	31.25
436.584	34.25
437.364	34.25
438.144	38.25
438.924	39.25
439.704	44.25
440.483	44.25
441.263	46.25
442.042	51.25
442.822	48.25
443.601	59.25
444.38	62.25
445.16	69.25
445.939	72.25
446.718	81.25
447.497	83.25
448.276	90.25
449.054	102.25
449.833	109.25
450.612	119.25
451.391	128.25
452.169	149.25
452.948	164.25
453.726	182.25
454.504	196.25
455.282	226.25
456.061	242.25
456.839	276.25
457.617	306.25
458.395	343.25
459.172	379.25
459.95	429.25
460.728	474.25
461.506	530.25
462.283	583.25
463.061	665.25
463.838	742.25
464.615	835.25
465.393	913.25
466.17	997.25
466.947	1129.25
467.724	1241.25
468.501	1372.25
469.278	1540.25
470.055	1678.25
470.831	1872.25
471.608	2092.25
472.385	2286.25
473.161	2527.25
473.938	2796.25
474.714	3048.25
475.49	3344.25
476.266	3668.25
477.043	4035.25
477.819	4437.25
478.595	4848.25
479.371	5289.25
480.146	5757.25
480.922	6323.25
481.698	6885.25
482.473	7499.25
483.249	8139.25
484.024	8854.25
484.8	9661.25
485.575	10495.25
486.35	11419.25
487.126	12354.25
487.901	13368.25
488.676	14506.25
489.451	15750.25
490.225	16936.25
491	18247.25
491.775	19654.25
492.55	21041.25
493.324	22524.25
494.099	24014.25
494.873	25502.25
495.647	27144.25
496.422	28754.25
497.196	30383.25
497.97	31822.25
498.744	33213.25
499.518	34673.25
500.292	35973.25
501.066	37077.25
501.839	38232.25
502.613	39041.25
503.387	39734.25
504.16	40335.25
504.934	40687.25
505.707	40792.25
506.48	40675.25
507.253	40398.25
508.027	39907.25
508.8	39218.25
509.573	38356.25
510.346	37372.25
511.118	36372.25
511.891	35432.25
512.664	34281.25
513.437	33015.25
514.209	31705.25
514.982	30557.25
515.754	29280.25
516.526	28131.25
517.298	26958.25
518.071	25900.25
518.843	24859.25
519.615	23797.25
520.387	22827.25
521.159	22073.25
521.93	21130.25
522.702	20246.25
523.474	19453.25
524.245	18654.25
525.017	17867.25
525.788	17121.25
526.56	16314.25
527.331	15646.25
528.102	14918.25
528.873	14220.25
529.644	13491.25
530.415	12851.25
531.186	12149.25
531.957	11581.25
532.728	11010.25
533.498	10412.25
534.269	9834.25
535.039	9269.25
535.81	8789.25
536.58	8394.25
537.351	7897.25
538.121	7482.25
538.891	7085.25
539.661	6690.25
540.431	6395.25
541.201	6011.25
541.971	5676.25
542.741	5416.25
543.51	5092.25
544.28	4840.25
545.05	4630.25
545.819	4414.25
546.588	4187.25
547.358	3973.25
548.127	3767.25
548.896	3589.25
549.665	3416.25
550.434	3234.25
551.203	3080.25
551.972	2906.25
552.741	2763.25
553.51	2594.25
554.278	2441.25
555.047	2321.25
555.815	2195.25
556.584	2085.25
557.352	1976.25
558.121	1844.25
558.889	1751.25
559.657	1659.25
560.425	1554.25
561.193	1479.25
561.961	1397.25
562.729	1316.25
563.496	1241.25
564.264	1184.25
565.032	1128.25
565.799	1058.25
566.567	1001.25
567.334	929.25
568.101	898.25
568.869	845.25
569.636	797.25
570.403	747.25
571.17	706.25
571.937	671.25
572.704	634.25
573.471	596.25
574.237	563.25
575.004	535.25
575.771	493.25
576.537	475.25
577.303	443.25
578.07	424.25
578.836	392.25
579.602	369.25
580.368	353.25
581.134	339.25
581.9	319.25
582.666	301.25
583.432	288.25
584.198	267.25
584.964	250.25
585.729	248.25
586.495	234.25
587.26	220.25
588.025	209.25
588.791	197.25
589.556	188.25
590.321	180.25
591.086	164.25
591.851	165.25
592.616	152.25
593.381	149.25
594.146	141.25
594.911	135.25
595.675	128.25
596.44	120.25
597.204	115.25
597.969	112.25
598.733	104.25
599.497	102.25
600.261	100.25
601.025	92.25
601.79	90.25
602.553	85.25
603.317	83.25
604.081	82.25
604.845	75.25
605.609	70.25
606.372	67.25
607.136	64.25
607.899	66.25
608.662	62.25
609.426	62.25
610.189	58.25
610.952	56.25
611.715	50.25
612.478	52.25
613.241	45.25
614.004	46.25
614.767	41.25
615.529	41.25
616.292	41.25
617.055	37.25
617.817	40.25
618.579	35.25
619.342	39.25
620.104	36.25
620.866	35.25
621.628	35.25
622.39	33.25
623.152	30.25
623.914	29.25
624.676	28.25
625.438	28.25
626.199	27.25
626.961	27.25
627.722	28.25
628.484	24.25
629.245	24.25
630.006	25.25
630.768	26.25
631.529	22.25
632.29	19.25
633.051	21.25
633.812	20.25
634.573	22.25
635.333	19.25
636.094	20.25
636.855	20.25
637.615	18.25
638.376	18.25
639.136	18.25
639.896	16.25
640.657	15.25
641.417	14.25
642.177	16.25
642.937	16.25
643.697	12.25
644.457	13.25
645.216	10.25
645.976	12.25
646.736	13.25
647.495	12.25
648.255	15.25
649.014	11.25
649.774	10.25
650.533	12.25
651.292	11.25
652.051	12.25
652.81	11.25
653.569	11.25
654.328	11.25
655.087	8.25
655.846	12.25
656.604	8.25
657.363	12.25
658.121	10.25
658.88	8.25
659.638	9.25
660.397	9.25
661.155	10.25
661.913	11.25
662.671	6.25
663.429	10.25
664.187	9.25
664.945	7.25
665.703	8.25
666.46	7.25
667.218	6.25
667.976	7.25
668.733	7.25
669.49	6.25
670.248	9.25
671.005	8.25
671.762	5.25
672.519	8.25
673.276	6.25
674.033	10.25
674.79	6.25
675.547	8.25
676.304	7.25
677.06	6.25
677.817	4.25
678.574	8.25
679.33	6.25
680.086	6.25
680.843	6.25
681.599	5.25
682.355	4.25
683.111	7.25
683.867	7.25
684.623	7.25
685.379	6.25
686.135	7.25
686.89	6.25
687.646	6.25
688.402	7.25
689.157	4.25
689.912	7.25
690.668	6.25
691.423	6.25
692.178	5.25
692.933	7.25
693.688	6.25
694.443	6.25
695.198	5.25
695.953	6.25
696.708	8.25
697.462	3.25
698.217	5.25
698.972	8.25
699.726	6.25
700.48	5.25
701.235	4.25
701.989	6.25
702.743	4.25
703.497	6.25
704.251	4.25
705.005	5.25
705.759	8.25
706.513	5.25
707.266	5.25
708.02	5.25
708.774	5.25
709.527	6.25
710.28	7.25
711.034	7.25
711.787	3.25
712.54	4.25
713.293	5.25
714.046	6.25
714.799	6.25
715.552	4.25
716.305	5.25
717.058	8.25
717.81	7.25
718.563	5.25
719.315	6.25
720.068	9.25
720.82	3.25
721.573	5.25
722.325	8.25
723.077	7.25
723.829	5.25
724.581	7.25
725.333	6.25
726.085	7.25
726.836	10.25
727.588	3.25
728.34	6.25
729.091	4.25
729.843	6.25
730.594	8.25
731.346	7.25
732.097	7.25
732.848	7.25
733.599	6.25
734.35	6.25
735.101	7.25
735.852	7.25
736.603	7.25
737.354	7.25
738.104	6.25
738.855	8.25
739.605	8.25
740.356	7.25
741.106	5.25
741.856	11.25
742.607	7.25
743.357	7.25
744.107	8.25
744.857	7.25
745.607	8.25
746.357	8.25
747.106	9.25
747.856	8.25
748.606	7.25
749.355	8.25
750.105	8.25
750.854	9.25
751.603	10.25
752.353	9.25
753.102	7.25
753.851	10.25
754.6	9.25
755.349	7.25
756.098	7.25
756.847	9.25
757.595	8.25
758.344	11.25
759.093	9.25
759.841	11.25
760.589	9.25
761.338	9.25
762.086	10.25
762.834	11.25
763.582	10.25
764.331	12.25
765.079	12.25
765.826	11.25
766.574	10.25
767.322	9.25
768.07	12.25
768.817	12.25
769.565	11.25
770.312	10.25
771.06	13.25
771.807	10.25
772.554	12.25
773.302	14.25
774.049	11.25
774.796	12.25
775.543	10.25
776.29	14.25
777.036	12.25
777.783	11.25
778.53	12.25
779.276	10.25
780.023	14.25
780.769	9.25
781.516	11.25
782.262	13.25
783.008	11.25
783.754	13.25
784.5	13.25
785.246	11.25
785.992	11.25
786.738	12.25
787.484	12.25
788.23	9.25
788.975	14.25
789.721	11.25
790.466	13.25
791.212	8.25
791.957	12.25
792.702	14.25
793.447	12.25
794.193	12.25
794.938	11.25
795.683	8.25
796.427	10.25
797.172	9.25
797.917	13.25
798.662	11.25
799.406	9.25
800.151	8.25
800.895	10.25
801.64	10.25
802.384	11.25
803.128	9.25
803.872	8.25
804.616	12.25
805.36	7.25
806.104	8.25
806.848	11.25
807.592	10.25
808.336	8.25
809.079	6.25
809.823	9.25
810.566	9.25
811.31	7.25
812.053	7.25
812.796	6.25
813.539	9.25
814.283	7.25
815.026	6.25
815.769	8.25
816.511	8.25
817.254	6.25
817.997	8.25
818.74	4.25
819.482	6.25
820.225	6.25
820.967	4.25
821.71	4.25
822.452	5.25
823.194	6.25
823.936	3.25
824.678	6.25
825.42	5.25
826.162	5.25
826.904	6.25
827.646	6.25
828.388	7.25
829.129	5.25
829.871	6.25
830.612	6.25
831.354	4.25
832.095	4.25
832.836	2.25
833.577	3.25
834.319	3.25
835.06	3.25
835.801	6.25
836.542	5.25
837.282	5.25
838.023	4.25
838.764	4.25
839.504	4.25
840.245	6.25
840.985	4.25
841.726	4.25
842.466	4.25
843.206	5.25
843.946	6.25
844.687	2.25
845.427	3.25
846.166	4.25
846.906	4.25
847.646	6.25
848.386	1.25
849.125	5.25
849.865	1.25
850.605	2.25
851.344	3.25
852.083	3.25
852.823	3.25
853.562	1.25
854.301	2.25
855.04	0.25
855.779	4.25
856.518	6.25
857.257	3.25
857.995	5.25
858.734	2.25
859.473	3.25
860.211	4.25
860.95	2.25
861.688	4.25
862.426	0.25
863.165	1.25
863.903	3.25
864.641	4.25
865.379	0.25
866.117	1.25
866.855	2.25
867.593	0.25
868.33	1.25
869.068	1.25
869.806	2.25
870.543	1.25
871.28	3.25
872.018	1.25
872.755	3.25
873.492	2.25
874.229	0.25
874.967	4.25
875.703	-0.75
876.44	3.25
877.177	1.25
877.914	-0.75
878.651	2.25
879.387	0.25
880.124	1.25
880.86	0.25
881.597	2.25
882.333	0.25
883.069	1.25
883.806	3.25
884.542	1.25
885.278	2.25
886.014	1.25
886.749	2.25
887.485	0.25
888.221	-0.75
888.957	0.25
889.692	0.25
890.428	1.25
891.163	1.25
891.899	1.25
892.634	0.25
893.369	-0.75
894.104	1.25
894.839	1.25
895.574	1.25
896.309	2.25
897.044	-0.75
897.779	1.25
898.514	0.25
899.248	-0.75
899.983	0.25
900.717	-0.75
901.452	-0.75
902.186	1.25
902.92	2.25
903.654	-0.75
904.389	1.25
905.123	0.25
905.857	1.25
906.59	-0.75
907.324	1.25
908.058	0.25
908.792	1.25
909.525	-2.75
910.259	-1.75
910.992	1.25
911.726	-0.75
912.459	1.25
913.192	0.25
913.925	0.25
914.658	0.25
915.391	0.25
916.124	1.25
916.857	0.25
917.59	-0.75
918.323	0.25
919.055	1.25
919.788	1.25
920.521	0.25
921.253	-1.75
921.985	-0.75
922.718	0.25
923.45	0.25
924.182	0.25
924.914	0.25
925.646	-1.75
926.378	1.25
927.11	0.25
927.841	0.25
928.573	2.25
929.305	0.25
930.036	0.25
930.768	-0.75
931.499	0.25
932.23	-0.75
932.962	2.25
933.693	-0.75
934.424	0.25
935.155	2.25
935.886	0.25
936.617	-2.75
937.348	0.25
938.078	0.25
938.809	-0.75
939.54	0.25
940.27	0.25
941.001	-0.75
941.731	2.25
942.461	1.25
943.191	-3.75
943.922	-0.75
944.652	-1.75
945.382	0.25
946.112	0.25
946.841	1.25
947.571	-0.75
948.301	0.25
949.031	1.25
949.76	0.25
950.49	0.25
951.219	0.25
951.948	-0.75
952.678	0.25
953.407	0.25
954.136	-2.75
954.865	1.25
955.594	-0.75
956.323	0.25
957.052	0.25
957.78	-1.75
958.509	1.25
959.238	-0.75
959.966	0.25
960.695	-0.75
961.423	0.25
962.151	-0.75
962.88	0.25
963.608	-1.75
964.336	-1.75
965.064	0.25
965.792	0.25
966.52	-0.75
967.247	0.25
967.975	0.25
968.703	0.25
969.43	1.25
970.158	0.25
970.885	-0.75
971.613	2.25
972.34	-1.75
973.067	-1.75
973.794	-2.75
974.521	-2.75
975.248	0.25
975.975	0.25
976.702	0.25
977.429	1.25
978.156	0.25
978.882	1.25
979.609	-1.75
980.335	0.25
981.062	0.25
981.788	1.25
982.514	-2.75
983.24	-1.75
983.967	-1.75
984.693	0.25
985.419	-0.75
986.144	0.25
986.87	0.25
987.596	1.25
988.322	1.25
989.047	1.25
989.773	0.25
990.498	-0.75
991.224	-3.75
991.949	2.25
992.674	1.25
993.399	1.25
994.124	1.25
994.849	0.25
995.574	0.25
996.299	1.25
997.024	-1.75
997.749	-0.75
998.473	1.25
999.198	1.25
999.922	0.25
1000.647	-0.75
1001.371	4.25
1002.095	-1.75
1002.82	-1.75
1003.544	0.25
1004.268	5.25
1004.992	1.25
1005.716	2.25
1006.439	5.25
1007.163	3.25
1007.887	5.25
1008.611	-2.75
1009.334	0.25
1010.058	-1.75
1010.781	-1.75
1011.504	1.25
1012.228	1.25
1012.951	0.25
1013.674	0.25
1014.397	0.25
1015.12	-1.75
