节点500_565_QEPB04081__424__09-57-28-301.txt的数据

Date: Thu Nov 13 09:57:28 CST 2025
User: PC
Spectrometer: QEPB0408
触发模式: 0
积分时间 (秒): 1.000000E-2
Scans to average: 1
启用暗噪声校正: true
启用非线性校正: false
滑动平均宽度: 0
X轴模式: Wavelengths
Number of Pixels in Spectrum: 1044
>>>>>Begin Spectral Data<<<<<
220.843	4.62
221.644	3.62
222.444	3.62
223.244	3.62
224.045	3.62
224.845	5.62
225.645	2.62
226.445	2.62
227.245	4.62
228.045	6.62
228.845	6.62
229.645	7.62
230.444	4.62
231.244	4.62
232.043	6.62
232.843	6.62
233.642	6.62
234.442	6.62
235.241	6.62
236.04	9.62
236.839	7.62
237.638	10.62
238.437	7.62
239.236	7.62
240.035	9.62
240.833	8.62
241.632	9.62
242.43	6.62
243.229	11.62
244.027	6.62
244.826	11.62
245.624	10.62
246.422	13.62
247.22	10.62
248.018	11.62
248.816	9.62
249.614	12.62
250.412	11.62
251.21	10.62
252.007	10.62
252.805	15.62
253.602	13.62
254.4	13.62
255.197	13.62
255.994	14.62
256.791	15.62
257.589	15.62
258.386	13.62
259.183	16.62
259.979	15.62
260.776	16.62
261.573	18.62
262.37	15.62
263.166	18.62
263.963	21.62
264.759	18.62
265.556	20.62
266.352	19.62
267.148	22.62
267.944	20.62
268.74	20.62
269.536	22.62
270.332	25.62
271.128	23.62
271.924	24.62
272.719	24.62
273.515	26.62
274.311	27.62
275.106	24.62
275.901	26.62
276.697	25.62
277.492	24.62
278.287	25.62
279.082	26.62
279.877	29.62
280.672	28.62
281.467	29.62
282.262	29.62
283.056	27.62
283.851	29.62
284.646	26.62
285.44	28.62
286.234	26.62
287.029	28.62
287.823	24.62
288.617	25.62
289.411	27.62
290.205	25.62
290.999	29.62
291.793	28.62
292.587	25.62
293.381	26.62
294.174	24.62
294.968	23.62
295.761	22.62
296.555	26.62
297.348	22.62
298.141	21.62
298.935	25.62
299.728	22.62
300.521	21.62
301.314	20.62
302.107	20.62
302.899	19.62
303.692	18.62
304.485	17.62
305.277	19.62
306.07	20.62
306.862	18.62
307.655	17.62
308.447	18.62
309.239	15.62
310.031	16.62
310.823	14.62
311.615	16.62
312.407	13.62
313.199	14.62
313.991	13.62
314.783	14.62
315.574	15.62
316.366	13.62
317.157	12.62
317.949	12.62
318.74	12.62
319.531	10.62
320.322	11.62
321.113	12.62
321.904	9.62
322.695	12.62
323.486	10.62
324.277	11.62
325.068	11.62
325.858	11.62
326.649	10.62
327.439	10.62
328.23	11.62
329.02	8.62
329.81	8.62
330.6	11.62
331.391	13.62
332.181	8.62
332.971	9.62
333.76	9.62
334.55	8.62
335.34	10.62
336.13	9.62
336.919	8.62
337.709	9.62
338.498	9.62
339.287	9.62
340.077	10.62
340.866	12.62
341.655	8.62
342.444	10.62
343.233	6.62
344.022	11.62
344.811	8.62
345.6	8.62
346.388	8.62
347.177	6.62
347.965	8.62
348.754	9.62
349.542	9.62
350.33	8.62
351.119	8.62
351.907	8.62
352.695	6.62
353.483	11.62
354.271	6.62
355.059	7.62
355.846	7.62
356.634	8.62
357.422	7.62
358.209	9.62
358.997	8.62
359.784	6.62
360.571	7.62
361.359	10.62
362.146	9.62
362.933	7.62
363.72	8.62
364.507	6.62
365.294	7.62
366.081	7.62
366.867	9.62
367.654	8.62
368.44	7.62
369.227	8.62
370.013	9.62
370.8	5.62
371.586	9.62
372.372	6.62
373.158	8.62
373.944	6.62
374.73	8.62
375.516	7.62
376.302	7.62
377.088	9.62
377.873	6.62
378.659	8.62
379.445	9.62
380.23	5.62
381.015	9.62
381.801	6.62
382.586	8.62
383.371	6.62
384.156	10.62
384.941	8.62
385.726	9.62
386.511	9.62
387.296	10.62
388.08	6.62
388.865	8.62
389.649	9.62
390.434	10.62
391.218	10.62
392.003	12.62
392.787	9.62
393.571	11.62
394.355	11.62
395.139	10.62
395.923	10.62
396.707	11.62
397.491	8.62
398.274	12.62
399.058	10.62
399.842	8.62
400.625	6.62
401.408	11.62
402.192	9.62
402.975	12.62
403.758	10.62
404.541	14.62
405.324	12.62
406.107	11.62
406.89	12.62
407.673	11.62
408.456	11.62
409.238	10.62
410.021	13.62
410.803	11.62
411.586	16.62
412.368	13.62
413.151	15.62
413.933	15.62
414.715	16.62
415.497	13.62
416.279	13.62
417.061	18.62
417.843	12.62
418.624	16.62
419.406	17.62
420.188	15.62
420.969	18.62
421.751	18.62
422.532	17.62
423.313	19.62
424.095	20.62
424.876	21.62
425.657	18.62
426.438	19.62
427.219	18.62
428	20.62
428.78	22.62
429.561	23.62
430.342	25.62
431.122	22.62
431.903	29.62
432.683	26.62
433.464	26.62
434.244	28.62
435.024	29.62
435.804	34.62
436.584	35.62
437.364	37.62
438.144	38.62
438.924	37.62
439.704	44.62
440.483	44.62
441.263	44.62
442.042	51.62
442.822	49.62
443.601	59.62
444.38	65.62
445.16	67.62
445.939	74.62
446.718	73.62
447.497	82.62
448.276	96.62
449.054	107.62
449.833	112.62
450.612	116.62
451.391	135.62
452.169	150.62
452.948	168.62
453.726	180.62
454.504	202.62
455.282	227.62
456.061	250.62
456.839	282.62
457.617	316.62
458.395	348.62
459.172	395.62
459.95	431.62
460.728	481.62
461.506	536.62
462.283	605.62
463.061	668.62
463.838	743.62
464.615	818.62
465.393	916.62
466.17	1006.62
466.947	1137.62
467.724	1253.62
468.501	1391.62
469.278	1555.62
470.055	1686.62
470.831	1881.62
471.608	2082.62
472.385	2312.62
473.161	2524.62
473.938	2750.62
474.714	3054.62
475.49	3324.62
476.266	3659.62
477.043	4039.62
477.819	4387.62
478.595	4810.62
479.371	5221.62
480.146	5683.62
480.922	6249.62
481.698	6783.62
482.473	7340.62
483.249	7951.62
484.024	8690.62
484.8	9436.62
485.575	10250.62
486.35	11080.62
487.126	12011.62
487.901	12991.62
488.676	14001.62
489.451	15178.62
490.225	16388.62
491	17614.62
491.775	18935.62
492.55	20290.62
493.324	21681.62
494.099	23099.62
494.873	24609.62
495.647	26149.62
496.422	27666.62
497.196	29143.62
497.97	30679.62
498.744	32105.62
499.518	33434.62
500.292	34689.62
501.066	35901.62
501.839	36903.62
502.613	37836.62
503.387	38518.62
504.16	39288.62
504.934	39622.62
505.707	39752.62
506.48	39793.62
507.253	39605.62
508.027	39197.62
508.8	38620.62
509.573	37950.62
510.346	37137.62
511.118	36031.62
511.891	35291.62
512.664	34123.62
513.437	33001.62
514.209	31754.62
514.982	30531.62
515.754	29393.62
516.526	28248.62
517.298	27045.62
518.071	25974.62
518.843	24944.62
519.615	23970.62
520.387	23018.62
521.159	22093.62
521.93	21227.62
522.702	20347.62
523.474	19547.62
524.245	18722.62
525.017	17960.62
525.788	17162.62
526.56	16447.62
527.331	15720.62
528.102	15047.62
528.873	14326.62
529.644	13599.62
530.415	12999.62
531.186	12336.62
531.957	11726.62
532.728	11147.62
533.498	10585.62
534.269	9958.62
535.039	9409.62
535.81	8971.62
536.58	8494.62
537.351	8061.62
538.121	7562.62
538.891	7206.62
539.661	6826.62
540.431	6460.62
541.201	6086.62
541.971	5807.62
542.741	5494.62
543.51	5208.62
544.28	4946.62
545.05	4720.62
545.819	4489.62
546.588	4262.62
547.358	4036.62
548.127	3828.62
548.896	3648.62
549.665	3448.62
550.434	3322.62
551.203	3121.62
551.972	2970.62
552.741	2813.62
553.51	2632.62
554.278	2510.62
555.047	2355.62
555.815	2238.62
556.584	2114.62
557.352	2002.62
558.121	1895.62
558.889	1797.62
559.657	1676.62
560.425	1605.62
561.193	1510.62
561.961	1408.62
562.729	1341.62
563.496	1274.62
564.264	1204.62
565.032	1157.62
565.799	1083.62
566.567	1027.62
567.334	971.62
568.101	919.62
568.869	851.62
569.636	817.62
570.403	780.62
571.17	732.62
571.937	693.62
572.704	647.62
573.471	605.62
574.237	581.62
575.004	543.62
575.771	505.62
576.537	485.62
577.303	450.62
578.07	430.62
578.836	408.62
579.602	383.62
580.368	367.62
581.134	346.62
581.9	325.62
582.666	310.62
583.432	298.62
584.198	276.62
584.964	262.62
585.729	257.62
586.495	234.62
587.26	224.62
588.025	213.62
588.791	199.62
589.556	193.62
590.321	183.62
591.086	170.62
591.851	168.62
592.616	162.62
593.381	147.62
594.146	145.62
594.911	139.62
595.675	133.62
596.44	126.62
597.204	117.62
597.969	112.62
598.733	112.62
599.497	103.62
600.261	98.62
601.025	92.62
601.79	90.62
602.553	90.62
603.317	85.62
604.081	79.62
604.845	74.62
605.609	73.62
606.372	69.62
607.136	67.62
607.899	62.62
608.662	65.62
609.426	61.62
610.189	58.62
610.952	54.62
611.715	53.62
612.478	52.62
613.241	51.62
614.004	49.62
614.767	47.62
615.529	44.62
616.292	42.62
617.055	40.62
617.817	38.62
618.579	43.62
619.342	37.62
620.104	36.62
620.866	36.62
621.628	34.62
622.39	32.62
623.152	34.62
623.914	31.62
624.676	30.62
625.438	27.62
626.199	25.62
626.961	26.62
627.722	25.62
628.484	23.62
629.245	21.62
630.006	24.62
630.768	24.62
631.529	24.62
632.29	21.62
633.051	21.62
633.812	21.62
634.573	20.62
635.333	18.62
636.094	19.62
636.855	18.62
637.615	15.62
638.376	20.62
639.136	17.62
639.896	18.62
640.657	15.62
641.417	16.62
642.177	13.62
642.937	14.62
643.697	13.62
644.457	14.62
645.216	12.62
645.976	13.62
646.736	14.62
647.495	14.62
648.255	11.62
649.014	13.62
649.774	12.62
650.533	11.62
651.292	13.62
652.051	12.62
652.81	11.62
653.569	11.62
654.328	13.62
655.087	8.62
655.846	11.62
656.604	6.62
657.363	10.62
658.121	9.62
658.88	10.62
659.638	11.62
660.397	9.62
661.155	10.62
661.913	8.62
662.671	8.62
663.429	9.62
664.187	10.62
664.945	5.62
665.703	9.62
666.46	7.62
667.218	5.62
667.976	10.62
668.733	7.62
669.49	8.62
670.248	8.62
671.005	8.62
671.762	9.62
672.519	8.62
673.276	9.62
674.033	6.62
674.79	6.62
675.547	9.62
676.304	5.62
677.06	6.62
677.817	5.62
678.574	8.62
679.33	9.62
680.086	5.62
680.843	4.62
681.599	8.62
682.355	6.62
683.111	6.62
683.867	7.62
684.623	4.62
685.379	7.62
686.135	9.62
686.89	6.62
687.646	7.62
688.402	9.62
689.157	7.62
689.912	4.62
690.668	7.62
691.423	6.62
692.178	5.62
692.933	7.62
693.688	7.62
694.443	5.62
695.198	6.62
695.953	5.62
696.708	6.62
697.462	6.62
698.217	7.62
698.972	4.62
699.726	5.62
700.48	6.62
701.235	5.62
701.989	3.62
702.743	6.62
703.497	7.62
704.251	6.62
705.005	6.62
705.759	6.62
706.513	5.62
707.266	6.62
708.02	6.62
708.774	4.62
709.527	4.62
710.28	6.62
711.034	4.62
711.787	6.62
712.54	7.62
713.293	3.62
714.046	5.62
714.799	6.62
715.552	7.62
716.305	8.62
717.058	6.62
717.81	8.62
718.563	4.62
719.315	6.62
720.068	5.62
720.82	7.62
721.573	7.62
722.325	6.62
723.077	6.62
723.829	6.62
724.581	3.62
725.333	7.62
726.085	8.62
726.836	4.62
727.588	8.62
728.34	4.62
729.091	6.62
729.843	6.62
730.594	6.62
731.346	6.62
732.097	7.62
732.848	8.62
733.599	6.62
734.35	7.62
735.101	5.62
735.852	7.62
736.603	7.62
737.354	7.62
738.104	7.62
738.855	6.62
739.605	10.62
740.356	8.62
741.106	8.62
741.856	8.62
742.607	8.62
743.357	8.62
744.107	5.62
744.857	9.62
745.607	8.62
746.357	9.62
747.106	8.62
747.856	8.62
748.606	8.62
749.355	9.62
750.105	9.62
750.854	8.62
751.603	8.62
752.353	8.62
753.102	7.62
753.851	8.62
754.6	8.62
755.349	9.62
756.098	10.62
756.847	9.62
757.595	8.62
758.344	8.62
759.093	9.62
759.841	8.62
760.589	9.62
761.338	9.62
762.086	12.62
762.834	10.62
763.582	10.62
764.331	8.62
765.079	11.62
765.826	7.62
766.574	8.62
767.322	11.62
768.07	8.62
768.817	8.62
769.565	12.62
770.312	11.62
771.06	11.62
771.807	12.62
772.554	10.62
773.302	11.62
774.049	11.62
774.796	14.62
775.543	13.62
776.29	10.62
777.036	10.62
777.783	12.62
778.53	12.62
779.276	13.62
780.023	13.62
780.769	12.62
781.516	12.62
782.262	13.62
783.008	12.62
783.754	11.62
784.5	11.62
785.246	9.62
785.992	13.62
786.738	13.62
787.484	11.62
788.23	13.62
788.975	10.62
789.721	12.62
790.466	11.62
791.212	11.62
791.957	13.62
792.702	10.62
793.447	11.62
794.193	10.62
794.938	14.62
795.683	9.62
796.427	8.62
797.172	9.62
797.917	10.62
798.662	12.62
799.406	11.62
800.151	10.62
800.895	9.62
801.64	10.62
802.384	8.62
803.128	9.62
803.872	10.62
804.616	6.62
805.36	9.62
806.104	8.62
806.848	9.62
807.592	9.62
808.336	6.62
809.079	6.62
809.823	8.62
810.566	8.62
811.31	8.62
812.053	6.62
812.796	9.62
813.539	6.62
814.283	7.62
815.026	6.62
815.769	8.62
816.511	6.62
817.254	7.62
817.997	9.62
818.74	7.62
819.482	5.62
820.225	6.62
820.967	6.62
821.71	6.62
822.452	5.62
823.194	7.62
823.936	6.62
824.678	3.62
825.42	6.62
826.162	6.62
826.904	4.62
827.646	6.62
828.388	5.62
829.129	4.62
829.871	6.62
830.612	4.62
831.354	4.62
832.095	3.62
832.836	6.62
833.577	2.62
834.319	5.62
835.06	4.62
835.801	4.62
836.542	5.62
837.282	5.62
838.023	4.62
838.764	4.62
839.504	4.62
840.245	5.62
840.985	4.62
841.726	4.62
842.466	4.62
843.206	5.62
843.946	6.62
844.687	5.62
845.427	5.62
846.166	5.62
846.906	1.62
847.646	4.62
848.386	4.62
849.125	4.62
849.865	2.62
850.605	3.62
851.344	1.62
852.083	2.62
852.823	1.62
853.562	3.62
854.301	2.62
855.04	5.62
855.779	4.62
856.518	1.62
857.257	1.62
857.995	4.62
858.734	4.62
859.473	2.62
860.211	2.62
860.95	4.62
861.688	4.62
862.426	3.62
863.165	2.62
863.903	2.62
864.641	3.62
865.379	4.62
866.117	1.62
866.855	2.62
867.593	2.62
868.33	2.62
869.068	2.62
869.806	3.62
870.543	3.62
871.28	1.62
872.018	1.62
872.755	2.62
873.492	2.62
874.229	0.62
874.967	1.62
875.703	0.62
876.44	2.62
877.177	3.62
877.914	1.62
878.651	3.62
879.387	3.62
880.124	0.62
880.86	1.62
881.597	0.62
882.333	0.62
883.069	0.62
883.806	0.62
884.542	4.62
885.278	0.62
886.014	1.62
886.749	-1.38
887.485	1.62
888.221	0.62
888.957	0.62
889.692	2.62
890.428	-1.38
891.163	0.62
891.899	0.62
892.634	-0.38
893.369	1.62
894.104	2.62
894.839	0.62
895.574	1.62
896.309	2.62
897.044	-1.38
897.779	0.62
898.514	1.62
899.248	0.62
899.983	-2.38
900.717	0.62
901.452	2.62
902.186	0.62
902.92	0.62
903.654	2.62
904.389	1.62
905.123	2.62
905.857	-0.38
906.59	1.62
907.324	1.62
908.058	0.62
908.792	1.62
909.525	0.62
910.259	-1.38
910.992	0.62
911.726	1.62
912.459	0.62
913.192	-0.38
913.925	3.62
914.658	0.62
915.391	1.62
916.124	0.62
916.857	1.62
917.59	-0.38
918.323	-0.38
919.055	1.62
919.788	2.62
920.521	0.62
921.253	-1.38
921.985	2.62
922.718	1.62
923.45	0.62
924.182	-0.38
924.914	1.62
925.646	-1.38
926.378	-0.38
927.11	1.62
927.841	0.62
928.573	-1.38
929.305	1.62
930.036	0.62
930.768	1.62
931.499	0.62
932.23	0.62
932.962	0.62
933.693	-0.38
934.424	0.62
935.155	-0.38
935.886	2.62
936.617	-0.38
937.348	0.62
938.078	0.62
938.809	0.62
939.54	1.62
940.27	0.62
941.001	0.62
941.731	-0.38
942.461	0.62
943.191	-1.38
943.922	1.62
944.652	0.62
945.382	0.62
946.112	0.62
946.841	1.62
947.571	1.62
948.301	0.62
949.031	2.62
949.76	-0.38
950.49	0.62
951.219	0.62
951.948	-0.38
952.678	1.62
953.407	1.62
954.136	2.62
954.865	0.62
955.594	2.62
956.323	-0.38
957.052	0.62
957.78	-1.38
958.509	1.62
959.238	-0.38
959.966	-3.38
960.695	1.62
961.423	0.62
962.151	1.62
962.88	1.62
963.608	0.62
964.336	0.62
965.064	-0.38
965.792	0.62
966.52	0.62
967.247	0.62
967.975	-1.38
968.703	-1.38
969.43	0.62
970.158	-2.38
970.885	1.62
971.613	-0.38
972.34	-0.38
973.067	-0.38
973.794	2.62
974.521	0.62
975.248	0.62
975.975	-0.38
976.702	0.62
977.429	0.62
978.156	0.62
978.882	0.62
979.609	0.62
980.335	-2.38
981.062	0.62
981.788	0.62
982.514	-2.38
983.24	0.62
983.967	0.62
984.693	0.62
985.419	0.62
986.144	1.62
986.87	0.62
987.596	-0.38
988.322	4.62
989.047	-1.38
989.773	0.62
990.498	0.62
991.224	1.62
991.949	-1.38
992.674	1.62
993.399	0.62
994.124	2.62
994.849	1.62
995.574	-0.38
996.299	0.62
997.024	0.62
997.749	2.62
998.473	0.62
999.198	0.62
999.922	-2.38
1000.647	0.62
1001.371	2.62
1002.095	-1.38
1002.82	-2.38
1003.544	-0.38
1004.268	3.62
1004.992	3.62
1005.716	3.62
1006.439	4.62
1007.163	5.62
1007.887	4.62
1008.611	0.62
1009.334	-2.38
1010.058	1.62
1010.781	-0.38
1011.504	0.62
1012.228	1.62
1012.951	0.62
1013.674	0.62
1014.397	-0.38
1015.12	0.62
