节点500_565_QEPB04081__557__09-59-41-037.txt的数据

Date: Thu Nov 13 09:59:41 CST 2025
User: PC
Spectrometer: QEPB0408
触发模式: 0
积分时间 (秒): 1.000000E-2
Scans to average: 1
启用暗噪声校正: true
启用非线性校正: false
滑动平均宽度: 0
X轴模式: Wavelengths
Number of Pixels in Spectrum: 1044
>>>>>Begin Spectral Data<<<<<
220.843	2.38
221.644	5.38
222.444	2.38
223.244	5.38
224.045	5.38
224.845	5.38
225.645	5.38
226.445	4.38
227.245	7.38
228.045	6.38
228.845	7.38
229.645	7.38
230.444	5.38
231.244	5.38
232.043	6.38
232.843	6.38
233.642	5.38
234.442	9.38
235.241	7.38
236.04	7.38
236.839	7.38
237.638	7.38
238.437	10.38
239.236	9.38
240.035	10.38
240.833	8.38
241.632	9.38
242.43	11.38
243.229	8.38
244.027	11.38
244.826	9.38
245.624	11.38
246.422	10.38
247.22	8.38
248.018	9.38
248.816	9.38
249.614	12.38
250.412	12.38
251.21	11.38
252.007	12.38
252.805	13.38
253.602	13.38
254.4	13.38
255.197	12.38
255.994	12.38
256.791	16.38
257.589	15.38
258.386	17.38
259.183	16.38
259.979	15.38
260.776	18.38
261.573	19.38
262.37	19.38
263.166	17.38
263.963	18.38
264.759	21.38
265.556	17.38
266.352	19.38
267.148	22.38
267.944	19.38
268.74	21.38
269.536	22.38
270.332	20.38
271.128	22.38
271.924	22.38
272.719	23.38
273.515	23.38
274.311	25.38
275.106	25.38
275.901	24.38
276.697	27.38
277.492	26.38
278.287	26.38
279.082	27.38
279.877	27.38
280.672	29.38
281.467	28.38
282.262	26.38
283.056	27.38
283.851	25.38
284.646	27.38
285.44	26.38
286.234	25.38
287.029	27.38
287.823	29.38
288.617	28.38
289.411	29.38
290.205	26.38
290.999	25.38
291.793	25.38
292.587	25.38
293.381	26.38
294.174	23.38
294.968	22.38
295.761	25.38
296.555	21.38
297.348	21.38
298.141	21.38
298.935	27.38
299.728	20.38
300.521	21.38
301.314	23.38
302.107	18.38
302.899	19.38
303.692	19.38
304.485	21.38
305.277	21.38
306.07	18.38
306.862	19.38
307.655	17.38
308.447	18.38
309.239	18.38
310.031	17.38
310.823	16.38
311.615	16.38
312.407	15.38
313.199	17.38
313.991	15.38
314.783	13.38
315.574	15.38
316.366	13.38
317.157	15.38
317.949	13.38
318.74	11.38
319.531	14.38
320.322	10.38
321.113	14.38
321.904	13.38
322.695	12.38
323.486	14.38
324.277	13.38
325.068	12.38
325.858	10.38
326.649	11.38
327.439	12.38
328.23	9.38
329.02	10.38
329.81	11.38
330.6	12.38
331.391	10.38
332.181	9.38
332.971	10.38
333.76	9.38
334.55	10.38
335.34	9.38
336.13	10.38
336.919	10.38
337.709	9.38
338.498	10.38
339.287	12.38
340.077	11.38
340.866	8.38
341.655	10.38
342.444	9.38
343.233	8.38
344.022	11.38
344.811	8.38
345.6	9.38
346.388	11.38
347.177	9.38
347.965	9.38
348.754	11.38
349.542	13.38
350.33	10.38
351.119	10.38
351.907	9.38
352.695	9.38
353.483	9.38
354.271	9.38
355.059	9.38
355.846	8.38
356.634	9.38
357.422	11.38
358.209	9.38
358.997	10.38
359.784	9.38
360.571	7.38
361.359	9.38
362.146	9.38
362.933	6.38
363.72	7.38
364.507	10.38
365.294	8.38
366.081	7.38
366.867	10.38
367.654	8.38
368.44	7.38
369.227	9.38
370.013	7.38
370.8	9.38
371.586	7.38
372.372	9.38
373.158	10.38
373.944	7.38
374.73	8.38
375.516	7.38
376.302	9.38
377.088	8.38
377.873	11.38
378.659	9.38
379.445	5.38
380.23	9.38
381.015	7.38
381.801	9.38
382.586	6.38
383.371	9.38
384.156	7.38
384.941	8.38
385.726	8.38
386.511	7.38
387.296	8.38
388.08	9.38
388.865	11.38
389.649	9.38
390.434	9.38
391.218	11.38
392.003	9.38
392.787	11.38
393.571	10.38
394.355	11.38
395.139	11.38
395.923	11.38
396.707	11.38
397.491	11.38
398.274	12.38
399.058	10.38
399.842	13.38
400.625	10.38
401.408	11.38
402.192	13.38
402.975	12.38
403.758	12.38
404.541	12.38
405.324	13.38
406.107	13.38
406.89	13.38
407.673	14.38
408.456	12.38
409.238	15.38
410.021	12.38
410.803	15.38
411.586	14.38
412.368	13.38
413.151	13.38
413.933	15.38
414.715	16.38
415.497	12.38
416.279	14.38
417.061	17.38
417.843	16.38
418.624	16.38
419.406	15.38
420.188	17.38
420.969	16.38
421.751	17.38
422.532	17.38
423.313	19.38
424.095	19.38
424.876	20.38
425.657	20.38
426.438	18.38
427.219	22.38
428	20.38
428.78	21.38
429.561	24.38
430.342	22.38
431.122	25.38
431.903	25.38
432.683	27.38
433.464	29.38
434.244	31.38
435.024	30.38
435.804	34.38
436.584	33.38
437.364	34.38
438.144	38.38
438.924	38.38
439.704	47.38
440.483	48.38
441.263	48.38
442.042	53.38
442.822	57.38
443.601	62.38
444.38	65.38
445.16	65.38
445.939	75.38
446.718	83.38
447.497	90.38
448.276	98.38
449.054	106.38
449.833	120.38
450.612	132.38
451.391	143.38
452.169	157.38
452.948	172.38
453.726	193.38
454.504	212.38
455.282	236.38
456.061	259.38
456.839	295.38
457.617	326.38
458.395	367.38
459.172	400.38
459.95	448.38
460.728	505.38
461.506	549.38
462.283	621.38
463.061	683.38
463.838	764.38
464.615	837.38
465.393	942.38
466.17	1040.38
466.947	1156.38
467.724	1271.38
468.501	1412.38
469.278	1544.38
470.055	1735.38
470.831	1906.38
471.608	2071.38
472.385	2305.38
473.161	2521.38
473.938	2780.38
474.714	3049.38
475.49	3317.38
476.266	3617.38
477.043	3961.38
477.819	4324.38
478.595	4714.38
479.371	5110.38
480.146	5567.38
480.922	6072.38
481.698	6551.38
482.473	7145.38
483.249	7727.38
484.024	8381.38
484.8	9108.38
485.575	9844.38
486.35	10602.38
487.126	11445.38
487.901	12392.38
488.676	13339.38
489.451	14392.38
490.225	15501.38
491	16647.38
491.775	17852.38
492.55	19081.38
493.324	20462.38
494.099	21756.38
494.873	23195.38
495.647	24613.38
496.422	26158.38
497.196	27446.38
497.97	28904.38
498.744	30245.38
499.518	31512.38
500.292	32767.38
501.066	33944.38
501.839	35103.38
502.613	36014.38
503.387	36797.38
504.16	37475.38
504.934	37906.38
505.707	38284.38
506.48	38407.38
507.253	38368.38
508.027	38099.38
508.8	37640.38
509.573	37133.38
510.346	36384.38
511.118	35591.38
511.891	34837.38
512.664	33818.38
513.437	32694.38
514.209	31599.38
514.982	30517.38
515.754	29472.38
516.526	28332.38
517.298	27182.38
518.071	26117.38
518.843	25090.38
519.615	24023.38
520.387	23072.38
521.159	22254.38
521.93	21341.38
522.702	20486.38
523.474	19657.38
524.245	18883.38
525.017	18144.38
525.788	17415.38
526.56	16622.38
527.331	15995.38
528.102	15259.38
528.873	14555.38
529.644	13840.38
530.415	13166.38
531.186	12534.38
531.957	11964.38
532.728	11419.38
533.498	10813.38
534.269	10191.38
535.039	9677.38
535.81	9206.38
536.58	8716.38
537.351	8259.38
538.121	7817.38
538.891	7398.38
539.661	6993.38
540.431	6632.38
541.201	6242.38
541.971	5947.38
542.741	5612.38
543.51	5360.38
544.28	5082.38
545.05	4830.38
545.819	4575.38
546.588	4353.38
547.358	4168.38
548.127	3942.38
548.896	3763.38
549.665	3574.38
550.434	3387.38
551.203	3220.38
551.972	3057.38
552.741	2903.38
553.51	2743.38
554.278	2579.38
555.047	2438.38
555.815	2326.38
556.584	2204.38
557.352	2101.38
558.121	1958.38
558.889	1828.38
559.657	1742.38
560.425	1642.38
561.193	1561.38
561.961	1484.38
562.729	1404.38
563.496	1324.38
564.264	1256.38
565.032	1189.38
565.799	1135.38
566.567	1073.38
567.334	1007.38
568.101	950.38
568.869	896.38
569.636	848.38
570.403	802.38
571.17	761.38
571.937	712.38
572.704	678.38
573.471	637.38
574.237	606.38
575.004	574.38
575.771	536.38
576.537	499.38
577.303	478.38
578.07	441.38
578.836	423.38
579.602	392.38
580.368	378.38
581.134	359.38
581.9	348.38
582.666	320.38
583.432	307.38
584.198	296.38
584.964	273.38
585.729	267.38
586.495	254.38
587.26	236.38
588.025	219.38
588.791	210.38
589.556	199.38
590.321	193.38
591.086	181.38
591.851	171.38
592.616	167.38
593.381	158.38
594.146	146.38
594.911	133.38
595.675	140.38
596.44	131.38
597.204	120.38
597.969	123.38
598.733	114.38
599.497	113.38
600.261	104.38
601.025	101.38
601.79	96.38
602.553	88.38
603.317	86.38
604.081	81.38
604.845	82.38
605.609	76.38
606.372	70.38
607.136	72.38
607.899	65.38
608.662	67.38
609.426	62.38
610.189	61.38
610.952	57.38
611.715	55.38
612.478	52.38
613.241	55.38
614.004	50.38
614.767	49.38
615.529	47.38
616.292	46.38
617.055	45.38
617.817	44.38
618.579	41.38
619.342	39.38
620.104	37.38
620.866	41.38
621.628	37.38
622.39	35.38
623.152	32.38
623.914	33.38
624.676	33.38
625.438	31.38
626.199	31.38
626.961	25.38
627.722	25.38
628.484	26.38
629.245	24.38
630.006	23.38
630.768	24.38
631.529	25.38
632.29	22.38
633.051	23.38
633.812	23.38
634.573	19.38
635.333	21.38
636.094	20.38
636.855	21.38
637.615	19.38
638.376	20.38
639.136	18.38
639.896	17.38
640.657	19.38
641.417	16.38
642.177	16.38
642.937	13.38
643.697	17.38
644.457	16.38
645.216	14.38
645.976	16.38
646.736	15.38
647.495	14.38
648.255	14.38
649.014	13.38
649.774	13.38
650.533	13.38
651.292	13.38
652.051	12.38
652.81	11.38
653.569	8.38
654.328	13.38
655.087	13.38
655.846	10.38
656.604	12.38
657.363	8.38
658.121	9.38
658.88	10.38
659.638	11.38
660.397	10.38
661.155	8.38
661.913	9.38
662.671	9.38
663.429	10.38
664.187	11.38
664.945	11.38
665.703	9.38
666.46	7.38
667.218	8.38
667.976	8.38
668.733	10.38
669.49	10.38
670.248	8.38
671.005	7.38
671.762	7.38
672.519	10.38
673.276	8.38
674.033	10.38
674.79	5.38
675.547	6.38
676.304	7.38
677.06	6.38
677.817	8.38
678.574	6.38
679.33	6.38
680.086	7.38
680.843	5.38
681.599	7.38
682.355	8.38
683.111	8.38
683.867	7.38
684.623	7.38
685.379	7.38
686.135	7.38
686.89	6.38
687.646	7.38
688.402	6.38
689.157	8.38
689.912	5.38
690.668	7.38
691.423	5.38
692.178	9.38
692.933	7.38
693.688	7.38
694.443	6.38
695.198	7.38
695.953	5.38
696.708	8.38
697.462	8.38
698.217	8.38
698.972	5.38
699.726	6.38
700.48	7.38
701.235	8.38
701.989	5.38
702.743	7.38
703.497	8.38
704.251	7.38
705.005	7.38
705.759	6.38
706.513	5.38
707.266	9.38
708.02	6.38
708.774	7.38
709.527	7.38
710.28	7.38
711.034	7.38
711.787	6.38
712.54	9.38
713.293	6.38
714.046	5.38
714.799	7.38
715.552	6.38
716.305	5.38
717.058	7.38
717.81	5.38
718.563	9.38
719.315	7.38
720.068	5.38
720.82	5.38
721.573	5.38
722.325	9.38
723.077	7.38
723.829	7.38
724.581	7.38
725.333	7.38
726.085	7.38
726.836	7.38
727.588	9.38
728.34	8.38
729.091	4.38
729.843	5.38
730.594	7.38
731.346	8.38
732.097	5.38
732.848	6.38
733.599	7.38
734.35	7.38
735.101	5.38
735.852	7.38
736.603	7.38
737.354	8.38
738.104	7.38
738.855	7.38
739.605	9.38
740.356	8.38
741.106	8.38
741.856	7.38
742.607	8.38
743.357	8.38
744.107	12.38
744.857	7.38
745.607	8.38
746.357	7.38
747.106	9.38
747.856	7.38
748.606	7.38
749.355	11.38
750.105	7.38
750.854	9.38
751.603	8.38
752.353	10.38
753.102	7.38
753.851	8.38
754.6	9.38
755.349	6.38
756.098	10.38
756.847	8.38
757.595	11.38
758.344	9.38
759.093	10.38
759.841	9.38
760.589	8.38
761.338	10.38
762.086	8.38
762.834	11.38
763.582	12.38
764.331	10.38
765.079	8.38
765.826	10.38
766.574	12.38
767.322	13.38
768.07	12.38
768.817	11.38
769.565	11.38
770.312	11.38
771.06	9.38
771.807	12.38
772.554	9.38
773.302	11.38
774.049	12.38
774.796	13.38
775.543	10.38
776.29	13.38
777.036	11.38
777.783	11.38
778.53	13.38
779.276	10.38
780.023	12.38
780.769	12.38
781.516	10.38
782.262	12.38
783.008	13.38
783.754	11.38
784.5	11.38
785.246	11.38
785.992	13.38
786.738	14.38
787.484	12.38
788.23	13.38
788.975	11.38
789.721	12.38
790.466	14.38
791.212	10.38
791.957	9.38
792.702	11.38
793.447	13.38
794.193	11.38
794.938	13.38
795.683	14.38
796.427	12.38
797.172	9.38
797.917	13.38
798.662	11.38
799.406	11.38
800.151	8.38
800.895	9.38
801.64	9.38
802.384	10.38
803.128	9.38
803.872	9.38
804.616	9.38
805.36	9.38
806.104	9.38
806.848	7.38
807.592	10.38
808.336	9.38
809.079	9.38
809.823	9.38
810.566	7.38
811.31	9.38
812.053	9.38
812.796	6.38
813.539	7.38
814.283	9.38
815.026	8.38
815.769	7.38
816.511	8.38
817.254	7.38
817.997	7.38
818.74	6.38
819.482	8.38
820.225	5.38
820.967	8.38
821.71	8.38
822.452	6.38
823.194	9.38
823.936	7.38
824.678	4.38
825.42	2.38
826.162	6.38
826.904	6.38
827.646	5.38
828.388	7.38
829.129	7.38
829.871	7.38
830.612	5.38
831.354	4.38
832.095	6.38
832.836	5.38
833.577	5.38
834.319	5.38
835.06	7.38
835.801	9.38
836.542	5.38
837.282	6.38
838.023	3.38
838.764	9.38
839.504	4.38
840.245	5.38
840.985	7.38
841.726	7.38
842.466	4.38
843.206	3.38
843.946	5.38
844.687	4.38
845.427	6.38
846.166	5.38
846.906	3.38
847.646	5.38
848.386	7.38
849.125	6.38
849.865	7.38
850.605	4.38
851.344	2.38
852.083	6.38
852.823	3.38
853.562	4.38
854.301	3.38
855.04	3.38
855.779	4.38
856.518	4.38
857.257	8.38
857.995	5.38
858.734	3.38
859.473	5.38
860.211	3.38
860.95	5.38
861.688	2.38
862.426	3.38
863.165	4.38
863.903	1.38
864.641	2.38
865.379	2.38
866.117	3.38
866.855	2.38
867.593	4.38
868.33	3.38
869.068	3.38
869.806	2.38
870.543	3.38
871.28	2.38
872.018	3.38
872.755	2.38
873.492	2.38
874.229	3.38
874.967	2.38
875.703	0.38
876.44	3.38
877.177	1.38
877.914	2.38
878.651	4.38
879.387	3.38
880.124	5.38
880.86	4.38
881.597	2.38
882.333	1.38
883.069	2.38
883.806	1.38
884.542	2.38
885.278	1.38
886.014	1.38
886.749	1.38
887.485	2.38
888.221	1.38
888.957	1.38
889.692	2.38
890.428	1.38
891.163	-1.62
891.899	2.38
892.634	-0.62
893.369	1.38
894.104	1.38
894.839	3.38
895.574	-0.62
896.309	0.38
897.044	1.38
897.779	1.38
898.514	1.38
899.248	3.38
899.983	0.38
900.717	1.38
901.452	0.38
902.186	1.38
902.92	1.38
903.654	3.38
904.389	0.38
905.123	3.38
905.857	0.38
906.59	1.38
907.324	-0.62
908.058	0.38
908.792	1.38
909.525	-0.62
910.259	1.38
910.992	-1.62
911.726	0.38
912.459	3.38
913.192	1.38
913.925	0.38
914.658	0.38
915.391	2.38
916.124	0.38
916.857	2.38
917.59	3.38
918.323	1.38
919.055	1.38
919.788	0.38
920.521	2.38
921.253	1.38
921.985	0.38
922.718	-0.62
923.45	1.38
924.182	2.38
924.914	1.38
925.646	3.38
926.378	-0.62
927.11	2.38
927.841	0.38
928.573	1.38
929.305	0.38
930.036	1.38
930.768	-0.62
931.499	1.38
932.23	1.38
932.962	2.38
933.693	1.38
934.424	1.38
935.155	2.38
935.886	2.38
936.617	0.38
937.348	1.38
938.078	0.38
938.809	-0.62
939.54	-0.62
940.27	-0.62
941.001	3.38
941.731	2.38
942.461	4.38
943.191	0.38
943.922	2.38
944.652	1.38
945.382	0.38
946.112	1.38
946.841	-1.62
947.571	2.38
948.301	1.38
949.031	1.38
949.76	0.38
950.49	-0.62
951.219	0.38
951.948	1.38
952.678	1.38
953.407	0.38
954.136	3.38
954.865	1.38
955.594	-0.62
956.323	2.38
957.052	3.38
957.78	0.38
958.509	0.38
959.238	4.38
959.966	-0.62
960.695	1.38
961.423	1.38
962.151	-0.62
962.88	4.38
963.608	-0.62
964.336	2.38
965.064	0.38
965.792	0.38
966.52	2.38
967.247	1.38
967.975	0.38
968.703	0.38
969.43	-0.62
970.158	1.38
970.885	1.38
971.613	0.38
972.34	1.38
973.067	1.38
973.794	0.38
974.521	0.38
975.248	1.38
975.975	1.38
976.702	1.38
977.429	-0.62
978.156	0.38
978.882	1.38
979.609	1.38
980.335	1.38
981.062	1.38
981.788	0.38
982.514	1.38
983.24	0.38
983.967	0.38
984.693	1.38
985.419	-0.62
986.144	0.38
986.87	1.38
987.596	-2.62
988.322	3.38
989.047	1.38
989.773	1.38
990.498	2.38
991.224	2.38
991.949	2.38
992.674	-0.62
993.399	1.38
994.124	-1.62
994.849	2.38
995.574	1.38
996.299	0.38
997.024	2.38
997.749	0.38
998.473	0.38
999.198	1.38
999.922	0.38
1000.647	0.38
1001.371	3.38
1002.095	-1.62
1002.82	-0.62
1003.544	-0.62
1004.268	3.38
1004.992	2.38
1005.716	2.38
1006.439	3.38
1007.163	3.38
1007.887	4.38
1008.611	3.38
1009.334	2.38
1010.058	-1.62
1010.781	0.38
1011.504	2.38
1012.228	1.38
1012.951	0.38
1013.674	-0.62
1014.397	1.38
1015.12	-1.62
