节点500_565_QEPB04081__339__09-56-03-437.txt的数据

Date: Thu Nov 13 09:56:03 CST 2025
User: PC
Spectrometer: QEPB0408
触发模式: 0
积分时间 (秒): 1.000000E-2
Scans to average: 1
启用暗噪声校正: true
启用非线性校正: false
滑动平均宽度: 0
X轴模式: Wavelengths
Number of Pixels in Spectrum: 1044
>>>>>Begin Spectral Data<<<<<
220.843	5.38
221.644	4.38
222.444	6.38
223.244	5.38
224.045	5.38
224.845	3.38
225.645	5.38
226.445	5.38
227.245	6.38
228.045	6.38
228.845	6.38
229.645	6.38
230.444	7.38
231.244	4.38
232.043	7.38
232.843	6.38
233.642	7.38
234.442	10.38
235.241	8.38
236.04	11.38
236.839	9.38
237.638	7.38
238.437	9.38
239.236	8.38
240.035	11.38
240.833	8.38
241.632	12.38
242.43	11.38
243.229	10.38
244.027	12.38
244.826	8.38
245.624	11.38
246.422	13.38
247.22	12.38
248.018	14.38
248.816	11.38
249.614	12.38
250.412	14.38
251.21	15.38
252.007	12.38
252.805	13.38
253.602	15.38
254.4	14.38
255.197	16.38
255.994	14.38
256.791	13.38
257.589	17.38
258.386	16.38
259.183	19.38
259.979	17.38
260.776	19.38
261.573	18.38
262.37	19.38
263.166	20.38
263.963	21.38
264.759	23.38
265.556	23.38
266.352	23.38
267.148	25.38
267.944	23.38
268.74	25.38
269.536	23.38
270.332	25.38
271.128	25.38
271.924	26.38
272.719	23.38
273.515	25.38
274.311	26.38
275.106	27.38
275.901	27.38
276.697	27.38
277.492	28.38
278.287	28.38
279.082	30.38
279.877	30.38
280.672	29.38
281.467	33.38
282.262	27.38
283.056	29.38
283.851	29.38
284.646	33.38
285.44	26.38
286.234	30.38
287.029	29.38
287.823	29.38
288.617	28.38
289.411	30.38
290.205	28.38
290.999	29.38
291.793	29.38
292.587	29.38
293.381	28.38
294.174	27.38
294.968	27.38
295.761	25.38
296.555	24.38
297.348	25.38
298.141	23.38
298.935	25.38
299.728	20.38
300.521	24.38
301.314	23.38
302.107	18.38
302.899	21.38
303.692	20.38
304.485	20.38
305.277	22.38
306.07	18.38
306.862	19.38
307.655	19.38
308.447	21.38
309.239	19.38
310.031	19.38
310.823	17.38
311.615	14.38
312.407	17.38
313.199	17.38
313.991	14.38
314.783	14.38
315.574	14.38
316.366	16.38
317.157	13.38
317.949	12.38
318.74	12.38
319.531	14.38
320.322	12.38
321.113	14.38
321.904	14.38
322.695	10.38
323.486	12.38
324.277	10.38
325.068	11.38
325.858	9.38
326.649	13.38
327.439	13.38
328.23	10.38
329.02	12.38
329.81	11.38
330.6	12.38
331.391	8.38
332.181	9.38
332.971	11.38
333.76	12.38
334.55	11.38
335.34	10.38
336.13	13.38
336.919	10.38
337.709	11.38
338.498	10.38
339.287	9.38
340.077	8.38
340.866	11.38
341.655	11.38
342.444	9.38
343.233	13.38
344.022	12.38
344.811	9.38
345.6	13.38
346.388	10.38
347.177	10.38
347.965	9.38
348.754	10.38
349.542	11.38
350.33	10.38
351.119	11.38
351.907	9.38
352.695	10.38
353.483	8.38
354.271	11.38
355.059	9.38
355.846	9.38
356.634	9.38
357.422	11.38
358.209	8.38
358.997	11.38
359.784	10.38
360.571	9.38
361.359	10.38
362.146	11.38
362.933	7.38
363.72	9.38
364.507	9.38
365.294	9.38
366.081	8.38
366.867	8.38
367.654	8.38
368.44	9.38
369.227	11.38
370.013	9.38
370.8	9.38
371.586	5.38
372.372	8.38
373.158	9.38
373.944	9.38
374.73	10.38
375.516	8.38
376.302	7.38
377.088	7.38
377.873	10.38
378.659	8.38
379.445	7.38
380.23	9.38
381.015	9.38
381.801	10.38
382.586	9.38
383.371	8.38
384.156	10.38
384.941	7.38
385.726	9.38
386.511	8.38
387.296	9.38
388.08	6.38
388.865	9.38
389.649	10.38
390.434	11.38
391.218	12.38
392.003	12.38
392.787	10.38
393.571	11.38
394.355	9.38
395.139	11.38
395.923	13.38
396.707	13.38
397.491	12.38
398.274	11.38
399.058	10.38
399.842	13.38
400.625	11.38
401.408	10.38
402.192	12.38
402.975	12.38
403.758	14.38
404.541	11.38
405.324	13.38
406.107	13.38
406.89	14.38
407.673	14.38
408.456	12.38
409.238	18.38
410.021	13.38
410.803	15.38
411.586	15.38
412.368	14.38
413.151	15.38
413.933	18.38
414.715	17.38
415.497	15.38
416.279	20.38
417.061	17.38
417.843	17.38
418.624	17.38
419.406	16.38
420.188	19.38
420.969	17.38
421.751	18.38
422.532	16.38
423.313	21.38
424.095	20.38
424.876	23.38
425.657	20.38
426.438	21.38
427.219	20.38
428	20.38
428.78	23.38
429.561	26.38
430.342	28.38
431.122	27.38
431.903	23.38
432.683	30.38
433.464	29.38
434.244	31.38
435.024	30.38
435.804	33.38
436.584	33.38
437.364	40.38
438.144	34.38
438.924	41.38
439.704	43.38
440.483	44.38
441.263	51.38
442.042	53.38
442.822	53.38
443.601	58.38
444.38	62.38
445.16	73.38
445.939	75.38
446.718	78.38
447.497	84.38
448.276	92.38
449.054	106.38
449.833	109.38
450.612	125.38
451.391	132.38
452.169	150.38
452.948	159.38
453.726	185.38
454.504	197.38
455.282	224.38
456.061	250.38
456.839	275.38
457.617	306.38
458.395	347.38
459.172	385.38
459.95	423.38
460.728	474.38
461.506	524.38
462.283	583.38
463.061	657.38
463.838	734.38
464.615	810.38
465.393	912.38
466.17	1014.38
466.947	1121.38
467.724	1236.38
468.501	1376.38
469.278	1520.38
470.055	1695.38
470.831	1858.38
471.608	2059.38
472.385	2283.38
473.161	2541.38
473.938	2758.38
474.714	3039.38
475.49	3351.38
476.266	3686.38
477.043	4029.38
477.819	4420.38
478.595	4828.38
479.371	5287.38
480.146	5790.38
480.922	6319.38
481.698	6913.38
482.473	7507.38
483.249	8160.38
484.024	8887.38
484.8	9672.38
485.575	10506.38
486.35	11470.38
487.126	12371.38
487.901	13384.38
488.676	14499.38
489.451	15741.38
490.225	17027.38
491	18273.38
491.775	19609.38
492.55	21076.38
493.324	22570.38
494.099	24041.38
494.873	25557.38
495.647	27219.38
496.422	28869.38
497.196	30381.38
497.97	31852.38
498.744	33342.38
499.518	34638.38
500.292	35909.38
501.066	37166.38
501.839	38305.38
502.613	39026.38
503.387	39817.38
504.16	40315.38
504.934	40633.38
505.707	40720.38
506.48	40743.38
507.253	40397.38
508.027	39859.38
508.8	39169.38
509.573	38390.38
510.346	37428.38
511.118	36415.38
511.891	35450.38
512.664	34237.38
513.437	32963.38
514.209	31704.38
514.982	30528.38
515.754	29333.38
516.526	28138.38
517.298	26967.38
518.071	25857.38
518.843	24809.38
519.615	23829.38
520.387	22863.38
521.159	22039.38
521.93	21101.38
522.702	20208.38
523.474	19435.38
524.245	18614.38
525.017	17881.38
525.788	17148.38
526.56	16296.38
527.331	15603.38
528.102	14887.38
528.873	14160.38
529.644	13436.38
530.415	12814.38
531.186	12139.38
531.957	11591.38
532.728	11025.38
533.498	10438.38
534.269	9841.38
535.039	9307.38
535.81	8835.38
536.58	8361.38
537.351	7888.38
538.121	7456.38
538.891	7070.38
539.661	6717.38
540.431	6343.38
541.201	6021.38
541.971	5734.38
542.741	5397.38
543.51	5090.38
544.28	4839.38
545.05	4606.38
545.819	4374.38
546.588	4181.38
547.358	3953.38
548.127	3762.38
548.896	3585.38
549.665	3392.38
550.434	3230.38
551.203	3067.38
551.972	2905.38
552.741	2761.38
553.51	2603.38
554.278	2466.38
555.047	2305.38
555.815	2188.38
556.584	2088.38
557.352	1958.38
558.121	1858.38
558.889	1752.38
559.657	1646.38
560.425	1551.38
561.193	1476.38
561.961	1394.38
562.729	1322.38
563.496	1256.38
564.264	1181.38
565.032	1136.38
565.799	1063.38
566.567	999.38
567.334	951.38
568.101	893.38
568.869	837.38
569.636	791.38
570.403	747.38
571.17	710.38
571.937	677.38
572.704	643.38
573.471	591.38
574.237	571.38
575.004	531.38
575.771	506.38
576.537	473.38
577.303	444.38
578.07	417.38
578.836	392.38
579.602	373.38
580.368	355.38
581.134	341.38
581.9	323.38
582.666	303.38
583.432	288.38
584.198	275.38
584.964	259.38
585.729	247.38
586.495	238.38
587.26	216.38
588.025	202.38
588.791	199.38
589.556	193.38
590.321	180.38
591.086	174.38
591.851	166.38
592.616	155.38
593.381	146.38
594.146	142.38
594.911	136.38
595.675	129.38
596.44	129.38
597.204	120.38
597.969	114.38
598.733	105.38
599.497	101.38
600.261	99.38
601.025	91.38
601.79	92.38
602.553	86.38
603.317	81.38
604.081	80.38
604.845	71.38
605.609	75.38
606.372	69.38
607.136	68.38
607.899	64.38
608.662	62.38
609.426	62.38
610.189	57.38
610.952	57.38
611.715	55.38
612.478	50.38
613.241	51.38
614.004	48.38
614.767	45.38
615.529	46.38
616.292	41.38
617.055	40.38
617.817	39.38
618.579	39.38
619.342	40.38
620.104	35.38
620.866	35.38
621.628	35.38
622.39	33.38
623.152	33.38
623.914	29.38
624.676	33.38
625.438	30.38
626.199	27.38
626.961	28.38
627.722	26.38
628.484	25.38
629.245	23.38
630.006	24.38
630.768	22.38
631.529	25.38
632.29	22.38
633.051	22.38
633.812	21.38
634.573	17.38
635.333	21.38
636.094	18.38
636.855	20.38
637.615	19.38
638.376	16.38
639.136	19.38
639.896	18.38
640.657	17.38
641.417	15.38
642.177	17.38
642.937	16.38
643.697	17.38
644.457	15.38
645.216	15.38
645.976	14.38
646.736	14.38
647.495	14.38
648.255	16.38
649.014	13.38
649.774	17.38
650.533	12.38
651.292	14.38
652.051	13.38
652.81	14.38
653.569	11.38
654.328	12.38
655.087	11.38
655.846	12.38
656.604	11.38
657.363	7.38
658.121	10.38
658.88	12.38
659.638	11.38
660.397	6.38
661.155	12.38
661.913	13.38
662.671	7.38
663.429	12.38
664.187	9.38
664.945	10.38
665.703	11.38
666.46	7.38
667.218	10.38
667.976	8.38
668.733	7.38
669.49	9.38
670.248	9.38
671.005	9.38
671.762	10.38
672.519	10.38
673.276	8.38
674.033	8.38
674.79	8.38
675.547	10.38
676.304	7.38
677.06	7.38
677.817	10.38
678.574	8.38
679.33	9.38
680.086	4.38
680.843	7.38
681.599	8.38
682.355	8.38
683.111	5.38
683.867	9.38
684.623	9.38
685.379	9.38
686.135	8.38
686.89	8.38
687.646	6.38
688.402	6.38
689.157	7.38
689.912	5.38
690.668	7.38
691.423	8.38
692.178	7.38
692.933	8.38
693.688	7.38
694.443	9.38
695.198	5.38
695.953	8.38
696.708	7.38
697.462	6.38
698.217	5.38
698.972	5.38
699.726	6.38
700.48	8.38
701.235	7.38
701.989	7.38
702.743	7.38
703.497	7.38
704.251	5.38
705.005	4.38
705.759	5.38
706.513	4.38
707.266	8.38
708.02	7.38
708.774	9.38
709.527	5.38
710.28	6.38
711.034	8.38
711.787	7.38
712.54	7.38
713.293	6.38
714.046	7.38
714.799	7.38
715.552	7.38
716.305	7.38
717.058	7.38
717.81	7.38
718.563	7.38
719.315	9.38
720.068	5.38
720.82	6.38
721.573	6.38
722.325	7.38
723.077	6.38
723.829	8.38
724.581	6.38
725.333	7.38
726.085	8.38
726.836	7.38
727.588	6.38
728.34	7.38
729.091	6.38
729.843	7.38
730.594	8.38
731.346	8.38
732.097	10.38
732.848	8.38
733.599	8.38
734.35	5.38
735.101	8.38
735.852	10.38
736.603	6.38
737.354	9.38
738.104	8.38
738.855	9.38
739.605	6.38
740.356	8.38
741.106	7.38
741.856	8.38
742.607	9.38
743.357	8.38
744.107	8.38
744.857	10.38
745.607	9.38
746.357	8.38
747.106	9.38
747.856	9.38
748.606	7.38
749.355	12.38
750.105	9.38
750.854	8.38
751.603	8.38
752.353	9.38
753.102	9.38
753.851	9.38
754.6	11.38
755.349	9.38
756.098	11.38
756.847	10.38
757.595	10.38
758.344	12.38
759.093	11.38
759.841	10.38
760.589	8.38
761.338	11.38
762.086	11.38
762.834	13.38
763.582	10.38
764.331	11.38
765.079	11.38
765.826	12.38
766.574	14.38
767.322	13.38
768.07	14.38
768.817	12.38
769.565	11.38
770.312	14.38
771.06	13.38
771.807	15.38
772.554	9.38
773.302	13.38
774.049	12.38
774.796	12.38
775.543	14.38
776.29	14.38
777.036	16.38
777.783	11.38
778.53	16.38
779.276	13.38
780.023	14.38
780.769	14.38
781.516	14.38
782.262	14.38
783.008	13.38
783.754	16.38
784.5	14.38
785.246	15.38
785.992	15.38
786.738	14.38
787.484	13.38
788.23	15.38
788.975	13.38
789.721	14.38
790.466	14.38
791.212	12.38
791.957	13.38
792.702	12.38
793.447	13.38
794.193	14.38
794.938	11.38
795.683	12.38
796.427	13.38
797.172	12.38
797.917	12.38
798.662	11.38
799.406	12.38
800.151	12.38
800.895	11.38
801.64	11.38
802.384	11.38
803.128	12.38
803.872	9.38
804.616	12.38
805.36	11.38
806.104	11.38
806.848	8.38
807.592	8.38
808.336	7.38
809.079	8.38
809.823	8.38
810.566	9.38
811.31	9.38
812.053	8.38
812.796	8.38
813.539	9.38
814.283	7.38
815.026	9.38
815.769	8.38
816.511	8.38
817.254	8.38
817.997	8.38
818.74	7.38
819.482	6.38
820.225	8.38
820.967	7.38
821.71	8.38
822.452	7.38
823.194	6.38
823.936	6.38
824.678	7.38
825.42	7.38
826.162	5.38
826.904	7.38
827.646	6.38
828.388	3.38
829.129	6.38
829.871	6.38
830.612	7.38
831.354	7.38
832.095	5.38
832.836	8.38
833.577	6.38
834.319	3.38
835.06	4.38
835.801	7.38
836.542	6.38
837.282	6.38
838.023	6.38
838.764	7.38
839.504	6.38
840.245	4.38
840.985	5.38
841.726	5.38
842.466	5.38
843.206	5.38
843.946	6.38
844.687	5.38
845.427	3.38
846.166	7.38
846.906	3.38
847.646	6.38
848.386	5.38
849.125	6.38
849.865	5.38
850.605	2.38
851.344	4.38
852.083	5.38
852.823	8.38
853.562	4.38
854.301	8.38
855.04	6.38
855.779	4.38
856.518	4.38
857.257	3.38
857.995	4.38
858.734	3.38
859.473	4.38
860.211	4.38
860.95	5.38
861.688	5.38
862.426	3.38
863.165	3.38
863.903	0.38
864.641	3.38
865.379	3.38
866.117	3.38
866.855	2.38
867.593	5.38
868.33	3.38
869.068	2.38
869.806	3.38
870.543	4.38
871.28	3.38
872.018	3.38
872.755	1.38
873.492	2.38
874.229	5.38
874.967	2.38
875.703	2.38
876.44	2.38
877.177	1.38
877.914	-0.62
878.651	2.38
879.387	1.38
880.124	5.38
880.86	1.38
881.597	1.38
882.333	2.38
883.069	1.38
883.806	4.38
884.542	1.38
885.278	2.38
886.014	1.38
886.749	0.38
887.485	2.38
888.221	1.38
888.957	2.38
889.692	0.38
890.428	1.38
891.163	0.38
891.899	2.38
892.634	2.38
893.369	0.38
894.104	1.38
894.839	3.38
895.574	1.38
896.309	2.38
897.044	2.38
897.779	3.38
898.514	2.38
899.248	1.38
899.983	2.38
900.717	3.38
901.452	-0.62
902.186	2.38
902.92	1.38
903.654	2.38
904.389	1.38
905.123	-0.62
905.857	2.38
906.59	2.38
907.324	3.38
908.058	4.38
908.792	1.38
909.525	4.38
910.259	0.38
910.992	2.38
911.726	0.38
912.459	-0.62
913.192	0.38
913.925	1.38
914.658	2.38
915.391	2.38
916.124	1.38
916.857	0.38
917.59	3.38
918.323	1.38
919.055	2.38
919.788	1.38
920.521	2.38
921.253	0.38
921.985	0.38
922.718	3.38
923.45	2.38
924.182	0.38
924.914	0.38
925.646	1.38
926.378	-0.62
927.11	1.38
927.841	0.38
928.573	-0.62
929.305	3.38
930.036	0.38
930.768	-0.62
931.499	2.38
932.23	-0.62
932.962	2.38
933.693	-0.62
934.424	-0.62
935.155	-2.62
935.886	-0.62
936.617	0.38
937.348	0.38
938.078	0.38
938.809	1.38
939.54	0.38
940.27	-1.62
941.001	1.38
941.731	-0.62
942.461	1.38
943.191	2.38
943.922	1.38
944.652	1.38
945.382	1.38
946.112	1.38
946.841	2.38
947.571	0.38
948.301	1.38
949.031	1.38
949.76	1.38
950.49	-0.62
951.219	0.38
951.948	-1.62
952.678	-0.62
953.407	0.38
954.136	-0.62
954.865	2.38
955.594	0.38
956.323	1.38
957.052	2.38
957.78	0.38
958.509	0.38
959.238	-1.62
959.966	0.38
960.695	-0.62
961.423	0.38
962.151	0.38
962.88	1.38
963.608	1.38
964.336	2.38
965.064	3.38
965.792	1.38
966.52	0.38
967.247	4.38
967.975	1.38
968.703	0.38
969.43	3.38
970.158	0.38
970.885	2.38
971.613	2.38
972.34	1.38
973.067	-0.62
973.794	1.38
974.521	0.38
975.248	0.38
975.975	1.38
976.702	1.38
977.429	1.38
978.156	2.38
978.882	-0.62
979.609	1.38
980.335	2.38
981.062	-1.62
981.788	-0.62
982.514	1.38
983.24	3.38
983.967	1.38
984.693	1.38
985.419	1.38
986.144	0.38
986.87	1.38
987.596	2.38
988.322	2.38
989.047	-1.62
989.773	2.38
990.498	2.38
991.224	1.38
991.949	2.38
992.674	0.38
993.399	2.38
994.124	1.38
994.849	2.38
995.574	1.38
996.299	1.38
997.024	3.38
997.749	-0.62
998.473	1.38
999.198	2.38
999.922	2.38
1000.647	1.38
1001.371	4.38
1002.095	-1.62
1002.82	0.38
1003.544	-4.62
1004.268	5.38
1004.992	3.38
1005.716	7.38
1006.439	2.38
1007.163	5.38
1007.887	5.38
1008.611	0.38
1009.334	2.38
1010.058	1.38
1010.781	2.38
1011.504	2.38
1012.228	-0.62
1012.951	1.38
1013.674	-2.62
1014.397	1.38
1015.12	1.38
