节点500_565_QEPB04081__336__09-56-00-424.txt的数据

Date: Thu Nov 13 09:56:00 CST 2025
User: PC
Spectrometer: QEPB0408
触发模式: 0
积分时间 (秒): 1.000000E-2
Scans to average: 1
启用暗噪声校正: true
启用非线性校正: false
滑动平均宽度: 0
X轴模式: Wavelengths
Number of Pixels in Spectrum: 1044
>>>>>Begin Spectral Data<<<<<
220.843	1.62
221.644	6.62
222.444	5.62
223.244	7.62
224.045	5.62
224.845	5.62
225.645	4.62
226.445	6.62
227.245	6.62
228.045	7.62
228.845	7.62
229.645	5.62
230.444	7.62
231.244	7.62
232.043	8.62
232.843	7.62
233.642	7.62
234.442	9.62
235.241	8.62
236.04	7.62
236.839	7.62
237.638	9.62
238.437	9.62
239.236	7.62
240.035	11.62
240.833	9.62
241.632	8.62
242.43	9.62
243.229	8.62
244.027	11.62
244.826	10.62
245.624	11.62
246.422	12.62
247.22	12.62
248.018	13.62
248.816	12.62
249.614	11.62
250.412	13.62
251.21	14.62
252.007	11.62
252.805	14.62
253.602	14.62
254.4	13.62
255.197	14.62
255.994	14.62
256.791	15.62
257.589	17.62
258.386	18.62
259.183	14.62
259.979	18.62
260.776	17.62
261.573	20.62
262.37	20.62
263.166	18.62
263.963	19.62
264.759	21.62
265.556	23.62
266.352	23.62
267.148	20.62
267.944	20.62
268.74	25.62
269.536	22.62
270.332	22.62
271.128	26.62
271.924	25.62
272.719	25.62
273.515	25.62
274.311	28.62
275.106	27.62
275.901	28.62
276.697	28.62
277.492	31.62
278.287	30.62
279.082	26.62
279.877	28.62
280.672	25.62
281.467	27.62
282.262	31.62
283.056	26.62
283.851	30.62
284.646	32.62
285.44	29.62
286.234	28.62
287.029	27.62
287.823	28.62
288.617	28.62
289.411	29.62
290.205	27.62
290.999	28.62
291.793	28.62
292.587	27.62
293.381	26.62
294.174	24.62
294.968	25.62
295.761	24.62
296.555	25.62
297.348	21.62
298.141	20.62
298.935	26.62
299.728	23.62
300.521	25.62
301.314	18.62
302.107	20.62
302.899	19.62
303.692	19.62
304.485	18.62
305.277	19.62
306.07	19.62
306.862	21.62
307.655	19.62
308.447	18.62
309.239	15.62
310.031	16.62
310.823	16.62
311.615	16.62
312.407	15.62
313.199	16.62
313.991	15.62
314.783	14.62
315.574	15.62
316.366	14.62
317.157	14.62
317.949	13.62
318.74	11.62
319.531	13.62
320.322	11.62
321.113	14.62
321.904	11.62
322.695	11.62
323.486	13.62
324.277	11.62
325.068	11.62
325.858	11.62
326.649	13.62
327.439	10.62
328.23	10.62
329.02	11.62
329.81	10.62
330.6	13.62
331.391	11.62
332.181	10.62
332.971	9.62
333.76	10.62
334.55	13.62
335.34	14.62
336.13	10.62
336.919	10.62
337.709	10.62
338.498	9.62
339.287	12.62
340.077	9.62
340.866	10.62
341.655	13.62
342.444	10.62
343.233	11.62
344.022	10.62
344.811	10.62
345.6	10.62
346.388	11.62
347.177	9.62
347.965	8.62
348.754	12.62
349.542	12.62
350.33	11.62
351.119	9.62
351.907	8.62
352.695	12.62
353.483	10.62
354.271	8.62
355.059	7.62
355.846	9.62
356.634	9.62
357.422	8.62
358.209	9.62
358.997	7.62
359.784	10.62
360.571	6.62
361.359	10.62
362.146	9.62
362.933	11.62
363.72	10.62
364.507	9.62
365.294	9.62
366.081	7.62
366.867	10.62
367.654	7.62
368.44	10.62
369.227	8.62
370.013	8.62
370.8	7.62
371.586	7.62
372.372	6.62
373.158	8.62
373.944	8.62
374.73	10.62
375.516	7.62
376.302	7.62
377.088	9.62
377.873	10.62
378.659	7.62
379.445	10.62
380.23	9.62
381.015	9.62
381.801	12.62
382.586	5.62
383.371	9.62
384.156	9.62
384.941	9.62
385.726	11.62
386.511	10.62
387.296	8.62
388.08	11.62
388.865	8.62
389.649	11.62
390.434	10.62
391.218	9.62
392.003	13.62
392.787	13.62
393.571	8.62
394.355	10.62
395.139	12.62
395.923	10.62
396.707	11.62
397.491	12.62
398.274	11.62
399.058	9.62
399.842	11.62
400.625	9.62
401.408	13.62
402.192	12.62
402.975	11.62
403.758	12.62
404.541	11.62
405.324	11.62
406.107	12.62
406.89	13.62
407.673	13.62
408.456	15.62
409.238	13.62
410.021	13.62
410.803	15.62
411.586	13.62
412.368	15.62
413.151	14.62
413.933	17.62
414.715	17.62
415.497	13.62
416.279	14.62
417.061	15.62
417.843	16.62
418.624	15.62
419.406	17.62
420.188	14.62
420.969	18.62
421.751	17.62
422.532	17.62
423.313	18.62
424.095	21.62
424.876	21.62
425.657	19.62
426.438	23.62
427.219	22.62
428	23.62
428.78	25.62
429.561	25.62
430.342	24.62
431.122	26.62
431.903	27.62
432.683	28.62
433.464	30.62
434.244	32.62
435.024	31.62
435.804	30.62
436.584	34.62
437.364	37.62
438.144	38.62
438.924	43.62
439.704	43.62
440.483	45.62
441.263	51.62
442.042	49.62
442.822	52.62
443.601	56.62
444.38	64.62
445.16	68.62
445.939	72.62
446.718	81.62
447.497	88.62
448.276	93.62
449.054	98.62
449.833	106.62
450.612	122.62
451.391	133.62
452.169	149.62
452.948	165.62
453.726	177.62
454.504	201.62
455.282	225.62
456.061	246.62
456.839	271.62
457.617	311.62
458.395	337.62
459.172	387.62
459.95	425.62
460.728	480.62
461.506	530.62
462.283	589.62
463.061	647.62
463.838	733.62
464.615	805.62
465.393	904.62
466.17	997.62
466.947	1119.62
467.724	1252.62
468.501	1377.62
469.278	1527.62
470.055	1680.62
470.831	1884.62
471.608	2078.62
472.385	2302.62
473.161	2508.62
473.938	2779.62
474.714	3062.62
475.49	3342.62
476.266	3698.62
477.043	4052.62
477.819	4445.62
478.595	4864.62
479.371	5302.62
480.146	5787.62
480.922	6292.62
481.698	6897.62
482.473	7503.62
483.249	8115.62
484.024	8897.62
484.8	9720.62
485.575	10514.62
486.35	11416.62
487.126	12337.62
487.901	13435.62
488.676	14543.62
489.451	15765.62
490.225	16998.62
491	18352.62
491.775	19664.62
492.55	21144.62
493.324	22525.62
494.099	24055.62
494.873	25607.62
495.647	27273.62
496.422	28868.62
497.196	30405.62
497.97	31922.62
498.744	33428.62
499.518	34699.62
500.292	35946.62
501.066	37274.62
501.839	38299.62
502.613	39188.62
503.387	39907.62
504.16	40446.62
504.934	40772.62
505.707	40759.62
506.48	40776.62
507.253	40418.62
508.027	39787.62
508.8	39217.62
509.573	38350.62
510.346	37449.62
511.118	36444.62
511.891	35449.62
512.664	34240.62
513.437	33008.62
514.209	31730.62
514.982	30482.62
515.754	29365.62
516.526	28094.62
517.298	26899.62
518.071	25852.62
518.843	24814.62
519.615	23815.62
520.387	22830.62
521.159	22045.62
521.93	21108.62
522.702	20233.62
523.474	19384.62
524.245	18628.62
525.017	17878.62
525.788	17063.62
526.56	16309.62
527.331	15584.62
528.102	14880.62
528.873	14173.62
529.644	13406.62
530.415	12778.62
531.186	12130.62
531.957	11521.62
532.728	10988.62
533.498	10377.62
534.269	9820.62
535.039	9253.62
535.81	8797.62
536.58	8379.62
537.351	7898.62
538.121	7473.62
538.891	7036.62
539.661	6697.62
540.431	6353.62
541.201	5997.62
541.971	5655.62
542.741	5379.62
543.51	5075.62
544.28	4837.62
545.05	4594.62
545.819	4389.62
546.588	4181.62
547.358	3981.62
548.127	3767.62
548.896	3586.62
549.665	3419.62
550.434	3219.62
551.203	3050.62
551.972	2918.62
552.741	2757.62
553.51	2601.62
554.278	2448.62
555.047	2314.62
555.815	2194.62
556.584	2069.62
557.352	1962.62
558.121	1835.62
558.889	1730.62
559.657	1640.62
560.425	1565.62
561.193	1467.62
561.961	1394.62
562.729	1331.62
563.496	1241.62
564.264	1180.62
565.032	1116.62
565.799	1056.62
566.567	1004.62
567.334	952.62
568.101	895.62
568.869	841.62
569.636	789.62
570.403	749.62
571.17	713.62
571.937	678.62
572.704	634.62
573.471	588.62
574.237	559.62
575.004	525.62
575.771	503.62
576.537	468.62
577.303	441.62
578.07	417.62
578.836	387.62
579.602	370.62
580.368	352.62
581.134	342.62
581.9	317.62
582.666	307.62
583.432	290.62
584.198	274.62
584.964	262.62
585.729	249.62
586.495	229.62
587.26	224.62
588.025	211.62
588.791	199.62
589.556	193.62
590.321	182.62
591.086	168.62
591.851	153.62
592.616	158.62
593.381	146.62
594.146	145.62
594.911	132.62
595.675	129.62
596.44	119.62
597.204	121.62
597.969	111.62
598.733	109.62
599.497	102.62
600.261	97.62
601.025	97.62
601.79	90.62
602.553	90.62
603.317	85.62
604.081	81.62
604.845	74.62
605.609	72.62
606.372	69.62
607.136	69.62
607.899	63.62
608.662	62.62
609.426	63.62
610.189	59.62
610.952	51.62
611.715	55.62
612.478	55.62
613.241	51.62
614.004	49.62
614.767	47.62
615.529	46.62
616.292	45.62
617.055	41.62
617.817	43.62
618.579	41.62
619.342	37.62
620.104	37.62
620.866	37.62
621.628	33.62
622.39	30.62
623.152	35.62
623.914	31.62
624.676	32.62
625.438	29.62
626.199	29.62
626.961	31.62
627.722	28.62
628.484	25.62
629.245	24.62
630.006	24.62
630.768	22.62
631.529	23.62
632.29	24.62
633.051	22.62
633.812	21.62
634.573	17.62
635.333	18.62
636.094	19.62
636.855	20.62
637.615	20.62
638.376	17.62
639.136	19.62
639.896	16.62
640.657	17.62
641.417	16.62
642.177	17.62
642.937	17.62
643.697	17.62
644.457	16.62
645.216	15.62
645.976	14.62
646.736	12.62
647.495	14.62
648.255	13.62
649.014	12.62
649.774	13.62
650.533	12.62
651.292	10.62
652.051	9.62
652.81	12.62
653.569	9.62
654.328	12.62
655.087	8.62
655.846	12.62
656.604	10.62
657.363	9.62
658.121	15.62
658.88	10.62
659.638	11.62
660.397	9.62
661.155	10.62
661.913	9.62
662.671	9.62
663.429	9.62
664.187	8.62
664.945	9.62
665.703	9.62
666.46	10.62
667.218	10.62
667.976	8.62
668.733	8.62
669.49	9.62
670.248	12.62
671.005	7.62
671.762	8.62
672.519	9.62
673.276	8.62
674.033	9.62
674.79	6.62
675.547	7.62
676.304	6.62
677.06	6.62
677.817	7.62
678.574	7.62
679.33	9.62
680.086	8.62
680.843	8.62
681.599	7.62
682.355	6.62
683.111	7.62
683.867	5.62
684.623	9.62
685.379	4.62
686.135	8.62
686.89	5.62
687.646	7.62
688.402	7.62
689.157	6.62
689.912	9.62
690.668	6.62
691.423	7.62
692.178	4.62
692.933	7.62
693.688	8.62
694.443	8.62
695.198	6.62
695.953	7.62
696.708	6.62
697.462	8.62
698.217	7.62
698.972	7.62
699.726	5.62
700.48	10.62
701.235	7.62
701.989	6.62
702.743	5.62
703.497	6.62
704.251	5.62
705.005	7.62
705.759	7.62
706.513	7.62
707.266	7.62
708.02	7.62
708.774	8.62
709.527	8.62
710.28	9.62
711.034	8.62
711.787	3.62
712.54	6.62
713.293	6.62
714.046	8.62
714.799	6.62
715.552	6.62
716.305	7.62
717.058	7.62
717.81	7.62
718.563	6.62
719.315	6.62
720.068	7.62
720.82	7.62
721.573	7.62
722.325	5.62
723.077	8.62
723.829	7.62
724.581	5.62
725.333	7.62
726.085	8.62
726.836	7.62
727.588	8.62
728.34	7.62
729.091	4.62
729.843	9.62
730.594	10.62
731.346	8.62
732.097	7.62
732.848	8.62
733.599	8.62
734.35	7.62
735.101	9.62
735.852	7.62
736.603	9.62
737.354	7.62
738.104	9.62
738.855	9.62
739.605	7.62
740.356	7.62
741.106	9.62
741.856	9.62
742.607	9.62
743.357	8.62
744.107	10.62
744.857	7.62
745.607	8.62
746.357	8.62
747.106	7.62
747.856	8.62
748.606	10.62
749.355	10.62
750.105	9.62
750.854	9.62
751.603	11.62
752.353	11.62
753.102	8.62
753.851	10.62
754.6	10.62
755.349	8.62
756.098	8.62
756.847	11.62
757.595	12.62
758.344	11.62
759.093	10.62
759.841	10.62
760.589	8.62
761.338	11.62
762.086	11.62
762.834	8.62
763.582	12.62
764.331	11.62
765.079	9.62
765.826	13.62
766.574	12.62
767.322	13.62
768.07	13.62
768.817	11.62
769.565	12.62
770.312	11.62
771.06	13.62
771.807	13.62
772.554	13.62
773.302	10.62
774.049	13.62
774.796	9.62
775.543	13.62
776.29	13.62
777.036	14.62
777.783	13.62
778.53	12.62
779.276	13.62
780.023	13.62
780.769	13.62
781.516	13.62
782.262	11.62
783.008	11.62
783.754	15.62
784.5	14.62
785.246	15.62
785.992	13.62
786.738	13.62
787.484	15.62
788.23	14.62
788.975	16.62
789.721	15.62
790.466	13.62
791.212	12.62
791.957	15.62
792.702	11.62
793.447	11.62
794.193	12.62
794.938	10.62
795.683	13.62
796.427	14.62
797.172	13.62
797.917	13.62
798.662	10.62
799.406	10.62
800.151	11.62
800.895	10.62
801.64	10.62
802.384	11.62
803.128	6.62
803.872	11.62
804.616	11.62
805.36	12.62
806.104	9.62
806.848	9.62
807.592	8.62
808.336	10.62
809.079	9.62
809.823	9.62
810.566	9.62
811.31	8.62
812.053	8.62
812.796	10.62
813.539	7.62
814.283	7.62
815.026	9.62
815.769	9.62
816.511	7.62
817.254	6.62
817.997	5.62
818.74	6.62
819.482	7.62
820.225	9.62
820.967	7.62
821.71	8.62
822.452	5.62
823.194	6.62
823.936	6.62
824.678	7.62
825.42	9.62
826.162	8.62
826.904	6.62
827.646	5.62
828.388	8.62
829.129	7.62
829.871	9.62
830.612	7.62
831.354	7.62
832.095	6.62
832.836	6.62
833.577	6.62
834.319	5.62
835.06	4.62
835.801	7.62
836.542	5.62
837.282	6.62
838.023	6.62
838.764	5.62
839.504	4.62
840.245	6.62
840.985	6.62
841.726	5.62
842.466	7.62
843.206	5.62
843.946	7.62
844.687	5.62
845.427	5.62
846.166	5.62
846.906	6.62
847.646	5.62
848.386	5.62
849.125	5.62
849.865	5.62
850.605	7.62
851.344	7.62
852.083	5.62
852.823	3.62
853.562	5.62
854.301	4.62
855.04	4.62
855.779	4.62
856.518	5.62
857.257	6.62
857.995	3.62
858.734	3.62
859.473	3.62
860.211	4.62
860.95	3.62
861.688	3.62
862.426	4.62
863.165	5.62
863.903	5.62
864.641	5.62
865.379	1.62
866.117	3.62
866.855	3.62
867.593	5.62
868.33	3.62
869.068	2.62
869.806	2.62
870.543	2.62
871.28	0.62
872.018	3.62
872.755	1.62
873.492	3.62
874.229	3.62
874.967	2.62
875.703	0.62
876.44	1.62
877.177	1.62
877.914	3.62
878.651	1.62
879.387	2.62
880.124	2.62
880.86	2.62
881.597	1.62
882.333	1.62
883.069	3.62
883.806	1.62
884.542	0.62
885.278	3.62
886.014	1.62
886.749	3.62
887.485	2.62
888.221	3.62
888.957	1.62
889.692	-0.38
890.428	3.62
891.163	2.62
891.899	3.62
892.634	1.62
893.369	1.62
894.104	2.62
894.839	3.62
895.574	-1.38
896.309	-2.38
897.044	2.62
897.779	-1.38
898.514	1.62
899.248	2.62
899.983	1.62
900.717	0.62
901.452	1.62
902.186	1.62
902.92	0.62
903.654	0.62
904.389	0.62
905.123	1.62
905.857	2.62
906.59	0.62
907.324	2.62
908.058	0.62
908.792	1.62
909.525	1.62
910.259	1.62
910.992	0.62
911.726	1.62
912.459	2.62
913.192	1.62
913.925	1.62
914.658	0.62
915.391	1.62
916.124	1.62
916.857	1.62
917.59	2.62
918.323	0.62
919.055	0.62
919.788	1.62
920.521	1.62
921.253	2.62
921.985	2.62
922.718	1.62
923.45	1.62
924.182	1.62
924.914	1.62
925.646	2.62
926.378	1.62
927.11	-0.38
927.841	2.62
928.573	0.62
929.305	2.62
930.036	0.62
930.768	3.62
931.499	3.62
932.23	1.62
932.962	1.62
933.693	1.62
934.424	0.62
935.155	0.62
935.886	1.62
936.617	-1.38
937.348	0.62
938.078	1.62
938.809	0.62
939.54	2.62
940.27	-1.38
941.001	4.62
941.731	2.62
942.461	2.62
943.191	1.62
943.922	0.62
944.652	1.62
945.382	1.62
946.112	1.62
946.841	1.62
947.571	-0.38
948.301	0.62
949.031	1.62
949.76	2.62
950.49	-0.38
951.219	2.62
951.948	-0.38
952.678	0.62
953.407	1.62
954.136	-0.38
954.865	-0.38
955.594	1.62
956.323	2.62
957.052	3.62
957.78	0.62
958.509	2.62
959.238	0.62
959.966	1.62
960.695	1.62
961.423	2.62
962.151	1.62
962.88	0.62
963.608	1.62
964.336	-0.38
965.064	0.62
965.792	0.62
966.52	-2.38
967.247	0.62
967.975	1.62
968.703	1.62
969.43	-0.38
970.158	1.62
970.885	-1.38
971.613	1.62
972.34	0.62
973.067	1.62
973.794	2.62
974.521	2.62
975.248	1.62
975.975	-0.38
976.702	1.62
977.429	-1.38
978.156	2.62
978.882	0.62
979.609	0.62
980.335	1.62
981.062	0.62
981.788	2.62
982.514	1.62
983.24	0.62
983.967	2.62
984.693	1.62
985.419	3.62
986.144	2.62
986.87	0.62
987.596	0.62
988.322	1.62
989.047	1.62
989.773	-1.38
990.498	-0.38
991.224	0.62
991.949	1.62
992.674	0.62
993.399	3.62
994.124	-0.38
994.849	-0.38
995.574	1.62
996.299	2.62
997.024	-0.38
997.749	1.62
998.473	1.62
999.198	0.62
999.922	-1.38
1000.647	-0.38
1001.371	4.62
1002.095	-1.38
1002.82	-1.38
1003.544	-0.38
1004.268	4.62
1004.992	3.62
1005.716	5.62
1006.439	5.62
1007.163	3.62
1007.887	6.62
1008.611	1.62
1009.334	2.62
1010.058	1.62
1010.781	-0.38
1011.504	2.62
1012.228	2.62
1012.951	-1.38
1013.674	-1.38
1014.397	1.62
1015.12	-0.38
