节点500_565_QEPB04081__365__09-56-29-352.txt的数据

Date: Thu Nov 13 09:56:29 CST 2025
User: PC
Spectrometer: QEPB0408
触发模式: 0
积分时间 (秒): 1.000000E-2
Scans to average: 1
启用暗噪声校正: true
启用非线性校正: false
滑动平均宽度: 0
X轴模式: Wavelengths
Number of Pixels in Spectrum: 1044
>>>>>Begin Spectral Data<<<<<
220.843	2.62
221.644	3.62
222.444	2.62
223.244	5.62
224.045	4.62
224.845	6.62
225.645	4.62
226.445	4.62
227.245	3.62
228.045	7.62
228.845	6.62
229.645	6.62
230.444	6.62
231.244	6.62
232.043	6.62
232.843	6.62
233.642	5.62
234.442	8.62
235.241	6.62
236.04	7.62
236.839	7.62
237.638	5.62
238.437	7.62
239.236	6.62
240.035	7.62
240.833	6.62
241.632	8.62
242.43	10.62
243.229	8.62
244.027	10.62
244.826	11.62
245.624	9.62
246.422	8.62
247.22	10.62
248.018	13.62
248.816	11.62
249.614	10.62
250.412	12.62
251.21	12.62
252.007	11.62
252.805	13.62
253.602	12.62
254.4	11.62
255.197	14.62
255.994	12.62
256.791	14.62
257.589	16.62
258.386	17.62
259.183	15.62
259.979	17.62
260.776	16.62
261.573	16.62
262.37	19.62
263.166	18.62
263.963	17.62
264.759	19.62
265.556	17.62
266.352	22.62
267.148	24.62
267.944	23.62
268.74	20.62
269.536	22.62
270.332	22.62
271.128	26.62
271.924	27.62
272.719	25.62
273.515	26.62
274.311	25.62
275.106	25.62
275.901	23.62
276.697	26.62
277.492	24.62
278.287	28.62
279.082	25.62
279.877	26.62
280.672	27.62
281.467	27.62
282.262	29.62
283.056	27.62
283.851	29.62
284.646	28.62
285.44	23.62
286.234	28.62
287.029	29.62
287.823	28.62
288.617	26.62
289.411	27.62
290.205	27.62
290.999	28.62
291.793	27.62
292.587	25.62
293.381	23.62
294.174	28.62
294.968	25.62
295.761	22.62
296.555	20.62
297.348	22.62
298.141	22.62
298.935	25.62
299.728	21.62
300.521	21.62
301.314	18.62
302.107	20.62
302.899	21.62
303.692	20.62
304.485	17.62
305.277	16.62
306.07	17.62
306.862	17.62
307.655	17.62
308.447	19.62
309.239	20.62
310.031	16.62
310.823	15.62
311.615	16.62
312.407	13.62
313.199	14.62
313.991	14.62
314.783	14.62
315.574	13.62
316.366	14.62
317.157	12.62
317.949	12.62
318.74	14.62
319.531	12.62
320.322	11.62
321.113	12.62
321.904	12.62
322.695	13.62
323.486	11.62
324.277	12.62
325.068	12.62
325.858	11.62
326.649	11.62
327.439	10.62
328.23	10.62
329.02	10.62
329.81	13.62
330.6	9.62
331.391	9.62
332.181	11.62
332.971	8.62
333.76	9.62
334.55	9.62
335.34	12.62
336.13	8.62
336.919	8.62
337.709	9.62
338.498	10.62
339.287	11.62
340.077	8.62
340.866	8.62
341.655	10.62
342.444	11.62
343.233	9.62
344.022	9.62
344.811	12.62
345.6	6.62
346.388	7.62
347.177	9.62
347.965	9.62
348.754	8.62
349.542	8.62
350.33	10.62
351.119	9.62
351.907	8.62
352.695	8.62
353.483	9.62
354.271	11.62
355.059	7.62
355.846	5.62
356.634	8.62
357.422	9.62
358.209	6.62
358.997	8.62
359.784	9.62
360.571	6.62
361.359	9.62
362.146	10.62
362.933	8.62
363.72	7.62
364.507	8.62
365.294	8.62
366.081	8.62
366.867	5.62
367.654	6.62
368.44	6.62
369.227	8.62
370.013	8.62
370.8	8.62
371.586	7.62
372.372	8.62
373.158	8.62
373.944	7.62
374.73	10.62
375.516	8.62
376.302	9.62
377.088	6.62
377.873	10.62
378.659	6.62
379.445	8.62
380.23	8.62
381.015	7.62
381.801	7.62
382.586	7.62
383.371	8.62
384.156	7.62
384.941	8.62
385.726	8.62
386.511	9.62
387.296	8.62
388.08	6.62
388.865	10.62
389.649	6.62
390.434	7.62
391.218	10.62
392.003	9.62
392.787	9.62
393.571	13.62
394.355	8.62
395.139	7.62
395.923	9.62
396.707	11.62
397.491	9.62
398.274	10.62
399.058	10.62
399.842	10.62
400.625	10.62
401.408	16.62
402.192	9.62
402.975	9.62
403.758	12.62
404.541	13.62
405.324	14.62
406.107	11.62
406.89	10.62
407.673	11.62
408.456	13.62
409.238	12.62
410.021	12.62
410.803	13.62
411.586	12.62
412.368	13.62
413.151	13.62
413.933	16.62
414.715	14.62
415.497	14.62
416.279	14.62
417.061	17.62
417.843	15.62
418.624	16.62
419.406	18.62
420.188	20.62
420.969	19.62
421.751	19.62
422.532	14.62
423.313	19.62
424.095	16.62
424.876	17.62
425.657	17.62
426.438	19.62
427.219	20.62
428	21.62
428.78	23.62
429.561	24.62
430.342	26.62
431.122	24.62
431.903	26.62
432.683	26.62
433.464	28.62
434.244	30.62
435.024	30.62
435.804	30.62
436.584	30.62
437.364	36.62
438.144	38.62
438.924	42.62
439.704	43.62
440.483	46.62
441.263	48.62
442.042	52.62
442.822	52.62
443.601	56.62
444.38	60.62
445.16	65.62
445.939	71.62
446.718	79.62
447.497	86.62
448.276	92.62
449.054	100.62
449.833	112.62
450.612	122.62
451.391	134.62
452.169	150.62
452.948	166.62
453.726	184.62
454.504	200.62
455.282	224.62
456.061	245.62
456.839	268.62
457.617	309.62
458.395	336.62
459.172	395.62
459.95	426.62
460.728	467.62
461.506	531.62
462.283	596.62
463.061	664.62
463.838	735.62
464.615	816.62
465.393	910.62
466.17	1007.62
466.947	1115.62
467.724	1239.62
468.501	1376.62
469.278	1524.62
470.055	1701.62
470.831	1881.62
471.608	2094.62
472.385	2311.62
473.161	2502.62
473.938	2782.62
474.714	3045.62
475.49	3336.62
476.266	3668.62
477.043	4058.62
477.819	4407.62
478.595	4849.62
479.371	5274.62
480.146	5748.62
480.922	6306.62
481.698	6857.62
482.473	7434.62
483.249	8076.62
484.024	8838.62
484.8	9583.62
485.575	10437.62
486.35	11300.62
487.126	12264.62
487.901	13290.62
488.676	14326.62
489.451	15587.62
490.225	16792.62
491	18045.62
491.775	19384.62
492.55	20842.62
493.324	22324.62
494.099	23704.62
494.873	25186.62
495.647	26891.62
496.422	28494.62
497.196	29988.62
497.97	31543.62
498.744	32965.62
499.518	34263.62
500.292	35615.62
501.066	36824.62
501.839	37837.62
502.613	38678.62
503.387	39452.62
504.16	40057.62
504.934	40333.62
505.707	40410.62
506.48	40442.62
507.253	40166.62
508.027	39672.62
508.8	39055.62
509.573	38222.62
510.346	37328.62
511.118	36317.62
511.891	35370.62
512.664	34220.62
513.437	33056.62
514.209	31740.62
514.982	30529.62
515.754	29389.62
516.526	28174.62
517.298	27031.62
518.071	25913.62
518.843	24955.62
519.615	23817.62
520.387	22951.62
521.159	22089.62
521.93	21197.62
522.702	20297.62
523.474	19453.62
524.245	18652.62
525.017	17934.62
525.788	17103.62
526.56	16404.62
527.331	15630.62
528.102	14954.62
528.873	14237.62
529.644	13521.62
530.415	12876.62
531.186	12249.62
531.957	11584.62
532.728	11094.62
533.498	10464.62
534.269	9883.62
535.039	9337.62
535.81	8848.62
536.58	8424.62
537.351	7966.62
538.121	7500.62
538.891	7087.62
539.661	6738.62
540.431	6391.62
541.201	6037.62
541.971	5733.62
542.741	5395.62
543.51	5140.62
544.28	4896.62
545.05	4649.62
545.819	4435.62
546.588	4214.62
547.358	4016.62
548.127	3806.62
548.896	3621.62
549.665	3428.62
550.434	3248.62
551.203	3096.62
551.972	2917.62
552.741	2774.62
553.51	2637.62
554.278	2450.62
555.047	2324.62
555.815	2211.62
556.584	2091.62
557.352	1981.62
558.121	1866.62
558.889	1754.62
559.657	1664.62
560.425	1557.62
561.193	1473.62
561.961	1407.62
562.729	1345.62
563.496	1259.62
564.264	1182.62
565.032	1140.62
565.799	1083.62
566.567	1000.62
567.334	953.62
568.101	895.62
568.869	855.62
569.636	790.62
570.403	759.62
571.17	718.62
571.937	669.62
572.704	648.62
573.471	594.62
574.237	568.62
575.004	532.62
575.771	505.62
576.537	486.62
577.303	447.62
578.07	417.62
578.836	404.62
579.602	377.62
580.368	353.62
581.134	332.62
581.9	325.62
582.666	301.62
583.432	292.62
584.198	279.62
584.964	261.62
585.729	243.62
586.495	229.62
587.26	221.62
588.025	209.62
588.791	196.62
589.556	192.62
590.321	182.62
591.086	173.62
591.851	165.62
592.616	156.62
593.381	147.62
594.146	140.62
594.911	129.62
595.675	125.62
596.44	123.62
597.204	119.62
597.969	112.62
598.733	106.62
599.497	104.62
600.261	96.62
601.025	89.62
601.79	87.62
602.553	87.62
603.317	80.62
604.081	80.62
604.845	70.62
605.609	74.62
606.372	70.62
607.136	69.62
607.899	60.62
608.662	65.62
609.426	59.62
610.189	62.62
610.952	52.62
611.715	51.62
612.478	51.62
613.241	48.62
614.004	47.62
614.767	45.62
615.529	41.62
616.292	41.62
617.055	38.62
617.817	36.62
618.579	36.62
619.342	36.62
620.104	34.62
620.866	33.62
621.628	34.62
622.39	31.62
623.152	34.62
623.914	30.62
624.676	30.62
625.438	28.62
626.199	26.62
626.961	26.62
627.722	26.62
628.484	26.62
629.245	25.62
630.006	22.62
630.768	24.62
631.529	19.62
632.29	19.62
633.051	20.62
633.812	19.62
634.573	20.62
635.333	19.62
636.094	16.62
636.855	17.62
637.615	15.62
638.376	16.62
639.136	16.62
639.896	18.62
640.657	17.62
641.417	16.62
642.177	16.62
642.937	15.62
643.697	13.62
644.457	15.62
645.216	13.62
645.976	15.62
646.736	11.62
647.495	13.62
648.255	12.62
649.014	10.62
649.774	9.62
650.533	11.62
651.292	11.62
652.051	12.62
652.81	10.62
653.569	12.62
654.328	10.62
655.087	9.62
655.846	9.62
656.604	9.62
657.363	9.62
658.121	9.62
658.88	8.62
659.638	10.62
660.397	8.62
661.155	11.62
661.913	8.62
662.671	9.62
663.429	10.62
664.187	8.62
664.945	9.62
665.703	6.62
666.46	8.62
667.218	7.62
667.976	9.62
668.733	7.62
669.49	7.62
670.248	10.62
671.005	8.62
671.762	8.62
672.519	5.62
673.276	6.62
674.033	8.62
674.79	7.62
675.547	6.62
676.304	7.62
677.06	8.62
677.817	7.62
678.574	8.62
679.33	6.62
680.086	6.62
680.843	6.62
681.599	6.62
682.355	7.62
683.111	5.62
683.867	8.62
684.623	8.62
685.379	6.62
686.135	5.62
686.89	5.62
687.646	8.62
688.402	4.62
689.157	8.62
689.912	5.62
690.668	6.62
691.423	7.62
692.178	7.62
692.933	7.62
693.688	4.62
694.443	5.62
695.198	4.62
695.953	6.62
696.708	7.62
697.462	6.62
698.217	5.62
698.972	6.62
699.726	5.62
700.48	1.62
701.235	6.62
701.989	6.62
702.743	4.62
703.497	9.62
704.251	6.62
705.005	5.62
705.759	6.62
706.513	7.62
707.266	5.62
708.02	6.62
708.774	5.62
709.527	5.62
710.28	6.62
711.034	6.62
711.787	5.62
712.54	6.62
713.293	4.62
714.046	4.62
714.799	6.62
715.552	4.62
716.305	5.62
717.058	8.62
717.81	4.62
718.563	8.62
719.315	7.62
720.068	1.62
720.82	8.62
721.573	6.62
722.325	6.62
723.077	6.62
723.829	6.62
724.581	6.62
725.333	6.62
726.085	5.62
726.836	4.62
727.588	8.62
728.34	7.62
729.091	6.62
729.843	8.62
730.594	6.62
731.346	8.62
732.097	6.62
732.848	9.62
733.599	8.62
734.35	7.62
735.101	8.62
735.852	7.62
736.603	6.62
737.354	8.62
738.104	8.62
738.855	7.62
739.605	6.62
740.356	9.62
741.106	4.62
741.856	8.62
742.607	7.62
743.357	7.62
744.107	6.62
744.857	7.62
745.607	9.62
746.357	8.62
747.106	8.62
747.856	7.62
748.606	9.62
749.355	7.62
750.105	8.62
750.854	7.62
751.603	10.62
752.353	7.62
753.102	9.62
753.851	9.62
754.6	9.62
755.349	11.62
756.098	10.62
756.847	10.62
757.595	8.62
758.344	7.62
759.093	10.62
759.841	8.62
760.589	8.62
761.338	9.62
762.086	9.62
762.834	12.62
763.582	11.62
764.331	10.62
765.079	10.62
765.826	10.62
766.574	11.62
767.322	10.62
768.07	12.62
768.817	11.62
769.565	11.62
770.312	13.62
771.06	13.62
771.807	12.62
772.554	10.62
773.302	11.62
774.049	9.62
774.796	14.62
775.543	8.62
776.29	13.62
777.036	11.62
777.783	13.62
778.53	13.62
779.276	10.62
780.023	10.62
780.769	11.62
781.516	13.62
782.262	13.62
783.008	15.62
783.754	12.62
784.5	11.62
785.246	12.62
785.992	12.62
786.738	13.62
787.484	11.62
788.23	14.62
788.975	14.62
789.721	14.62
790.466	12.62
791.212	9.62
791.957	12.62
792.702	9.62
793.447	13.62
794.193	10.62
794.938	9.62
795.683	11.62
796.427	12.62
797.172	10.62
797.917	9.62
798.662	11.62
799.406	8.62
800.151	9.62
800.895	12.62
801.64	8.62
802.384	9.62
803.128	10.62
803.872	8.62
804.616	10.62
805.36	8.62
806.104	9.62
806.848	9.62
807.592	8.62
808.336	11.62
809.079	7.62
809.823	7.62
810.566	8.62
811.31	7.62
812.053	5.62
812.796	9.62
813.539	5.62
814.283	6.62
815.026	7.62
815.769	7.62
816.511	8.62
817.254	7.62
817.997	4.62
818.74	4.62
819.482	5.62
820.225	6.62
820.967	6.62
821.71	5.62
822.452	7.62
823.194	6.62
823.936	5.62
824.678	6.62
825.42	5.62
826.162	6.62
826.904	5.62
827.646	7.62
828.388	6.62
829.129	5.62
829.871	4.62
830.612	3.62
831.354	6.62
832.095	4.62
832.836	6.62
833.577	5.62
834.319	2.62
835.06	5.62
835.801	4.62
836.542	5.62
837.282	3.62
838.023	7.62
838.764	3.62
839.504	4.62
840.245	6.62
840.985	3.62
841.726	3.62
842.466	3.62
843.206	4.62
843.946	5.62
844.687	6.62
845.427	1.62
846.166	5.62
846.906	4.62
847.646	4.62
848.386	2.62
849.125	5.62
849.865	3.62
850.605	4.62
851.344	2.62
852.083	2.62
852.823	3.62
853.562	5.62
854.301	2.62
855.04	3.62
855.779	4.62
856.518	3.62
857.257	3.62
857.995	2.62
858.734	4.62
859.473	1.62
860.211	2.62
860.95	2.62
861.688	3.62
862.426	1.62
863.165	2.62
863.903	3.62
864.641	2.62
865.379	2.62
866.117	1.62
866.855	4.62
867.593	1.62
868.33	1.62
869.068	4.62
869.806	1.62
870.543	0.62
871.28	1.62
872.018	-0.38
872.755	2.62
873.492	-0.38
874.229	4.62
874.967	3.62
875.703	3.62
876.44	0.62
877.177	0.62
877.914	1.62
878.651	4.62
879.387	0.62
880.124	0.62
880.86	1.62
881.597	1.62
882.333	0.62
883.069	1.62
883.806	0.62
884.542	2.62
885.278	2.62
886.014	2.62
886.749	-0.38
887.485	1.62
888.221	1.62
888.957	0.62
889.692	2.62
890.428	1.62
891.163	1.62
891.899	0.62
892.634	3.62
893.369	2.62
894.104	0.62
894.839	0.62
895.574	0.62
896.309	2.62
897.044	0.62
897.779	0.62
898.514	2.62
899.248	-0.38
899.983	-0.38
900.717	0.62
901.452	0.62
902.186	-0.38
902.92	1.62
903.654	0.62
904.389	0.62
905.123	-0.38
905.857	0.62
906.59	1.62
907.324	-0.38
908.058	0.62
908.792	1.62
909.525	0.62
910.259	1.62
910.992	-1.38
911.726	2.62
912.459	-0.38
913.192	-1.38
913.925	0.62
914.658	-2.38
915.391	0.62
916.124	-0.38
916.857	1.62
917.59	0.62
918.323	1.62
919.055	-4.38
919.788	2.62
920.521	0.62
921.253	-0.38
921.985	-0.38
922.718	0.62
923.45	-0.38
924.182	1.62
924.914	-0.38
925.646	-0.38
926.378	0.62
927.11	-1.38
927.841	-0.38
928.573	2.62
929.305	0.62
930.036	-0.38
930.768	-1.38
931.499	1.62
932.23	-1.38
932.962	-0.38
933.693	-0.38
934.424	2.62
935.155	0.62
935.886	0.62
936.617	-0.38
937.348	-1.38
938.078	-1.38
938.809	-0.38
939.54	0.62
940.27	-1.38
941.001	0.62
941.731	-1.38
942.461	0.62
943.191	0.62
943.922	-1.38
944.652	-0.38
945.382	-1.38
946.112	-0.38
946.841	-0.38
947.571	1.62
948.301	-1.38
949.031	0.62
949.76	0.62
950.49	-1.38
951.219	0.62
951.948	-1.38
952.678	-0.38
953.407	0.62
954.136	-1.38
954.865	1.62
955.594	-0.38
956.323	-0.38
957.052	0.62
957.78	-0.38
958.509	-2.38
959.238	0.62
959.966	-2.38
960.695	-0.38
961.423	1.62
962.151	1.62
962.88	-0.38
963.608	2.62
964.336	-0.38
965.064	-1.38
965.792	2.62
966.52	0.62
967.247	-0.38
967.975	-1.38
968.703	0.62
969.43	1.62
970.158	-3.38
970.885	1.62
971.613	0.62
972.34	1.62
973.067	-0.38
973.794	-0.38
974.521	1.62
975.248	0.62
975.975	1.62
976.702	-2.38
977.429	0.62
978.156	2.62
978.882	-0.38
979.609	0.62
980.335	-1.38
981.062	-2.38
981.788	-2.38
982.514	1.62
983.24	0.62
983.967	-2.38
984.693	0.62
985.419	-0.38
986.144	0.62
986.87	0.62
987.596	-2.38
988.322	-0.38
989.047	0.62
989.773	0.62
990.498	0.62
991.224	1.62
991.949	-1.38
992.674	0.62
993.399	0.62
994.124	0.62
994.849	-1.38
995.574	0.62
996.299	2.62
997.024	0.62
997.749	-0.38
998.473	0.62
999.198	-0.38
999.922	-1.38
1000.647	0.62
1001.371	1.62
1002.095	-1.38
1002.82	-2.38
1003.544	-1.38
1004.268	4.62
1004.992	2.62
1005.716	3.62
1006.439	3.62
1007.163	3.62
1007.887	3.62
1008.611	0.62
1009.334	-0.38
1010.058	0.62
1010.781	-0.38
1011.504	-1.38
1012.228	0.62
1012.951	-0.38
1013.674	0.62
1014.397	0.62
1015.12	2.62
