节点500_565_QEPB04081__322__09-55-46-476.txt的数据

Date: Thu Nov 13 09:55:46 CST 2025
User: PC
Spectrometer: QEPB0408
触发模式: 0
积分时间 (秒): 1.000000E-2
Scans to average: 1
启用暗噪声校正: true
启用非线性校正: false
滑动平均宽度: 0
X轴模式: Wavelengths
Number of Pixels in Spectrum: 1044
>>>>>Begin Spectral Data<<<<<
220.843	4.12
221.644	5.12
222.444	7.12
223.244	6.12
224.045	6.12
224.845	5.12
225.645	6.12
226.445	6.12
227.245	6.12
228.045	5.12
228.845	5.12
229.645	8.12
230.444	6.12
231.244	10.12
232.043	8.12
232.843	9.12
233.642	7.12
234.442	8.12
235.241	8.12
236.04	10.12
236.839	7.12
237.638	6.12
238.437	8.12
239.236	10.12
240.035	9.12
240.833	11.12
241.632	9.12
242.43	10.12
243.229	10.12
244.027	14.12
244.826	10.12
245.624	13.12
246.422	13.12
247.22	11.12
248.018	12.12
248.816	10.12
249.614	12.12
250.412	10.12
251.21	13.12
252.007	14.12
252.805	13.12
253.602	15.12
254.4	13.12
255.197	17.12
255.994	14.12
256.791	15.12
257.589	16.12
258.386	18.12
259.183	17.12
259.979	17.12
260.776	18.12
261.573	19.12
262.37	19.12
263.166	18.12
263.963	21.12
264.759	24.12
265.556	19.12
266.352	22.12
267.148	24.12
267.944	25.12
268.74	24.12
269.536	23.12
270.332	25.12
271.128	25.12
271.924	27.12
272.719	24.12
273.515	25.12
274.311	28.12
275.106	25.12
275.901	26.12
276.697	25.12
277.492	29.12
278.287	32.12
279.082	29.12
279.877	31.12
280.672	30.12
281.467	27.12
282.262	28.12
283.056	33.12
283.851	27.12
284.646	29.12
285.44	30.12
286.234	29.12
287.029	27.12
287.823	29.12
288.617	29.12
289.411	25.12
290.205	25.12
290.999	29.12
291.793	27.12
292.587	26.12
293.381	25.12
294.174	27.12
294.968	26.12
295.761	24.12
296.555	23.12
297.348	22.12
298.141	22.12
298.935	25.12
299.728	23.12
300.521	17.12
301.314	21.12
302.107	20.12
302.899	21.12
303.692	19.12
304.485	18.12
305.277	17.12
306.07	18.12
306.862	18.12
307.655	19.12
308.447	17.12
309.239	19.12
310.031	17.12
310.823	16.12
311.615	15.12
312.407	16.12
313.199	14.12
313.991	15.12
314.783	14.12
315.574	14.12
316.366	14.12
317.157	14.12
317.949	11.12
318.74	15.12
319.531	11.12
320.322	13.12
321.113	13.12
321.904	11.12
322.695	10.12
323.486	13.12
324.277	11.12
325.068	10.12
325.858	12.12
326.649	11.12
327.439	9.12
328.23	11.12
329.02	13.12
329.81	11.12
330.6	11.12
331.391	10.12
332.181	11.12
332.971	10.12
333.76	9.12
334.55	11.12
335.34	10.12
336.13	11.12
336.919	13.12
337.709	9.12
338.498	12.12
339.287	9.12
340.077	11.12
340.866	9.12
341.655	8.12
342.444	9.12
343.233	10.12
344.022	9.12
344.811	11.12
345.6	10.12
346.388	11.12
347.177	9.12
347.965	9.12
348.754	12.12
349.542	11.12
350.33	10.12
351.119	11.12
351.907	9.12
352.695	9.12
353.483	7.12
354.271	9.12
355.059	10.12
355.846	9.12
356.634	11.12
357.422	9.12
358.209	9.12
358.997	9.12
359.784	10.12
360.571	11.12
361.359	9.12
362.146	10.12
362.933	9.12
363.72	13.12
364.507	11.12
365.294	9.12
366.081	7.12
366.867	10.12
367.654	9.12
368.44	7.12
369.227	8.12
370.013	9.12
370.8	8.12
371.586	8.12
372.372	8.12
373.158	11.12
373.944	8.12
374.73	10.12
375.516	9.12
376.302	9.12
377.088	10.12
377.873	9.12
378.659	11.12
379.445	7.12
380.23	7.12
381.015	9.12
381.801	9.12
382.586	8.12
383.371	10.12
384.156	8.12
384.941	7.12
385.726	11.12
386.511	10.12
387.296	9.12
388.08	9.12
388.865	9.12
389.649	8.12
390.434	11.12
391.218	11.12
392.003	7.12
392.787	11.12
393.571	8.12
394.355	11.12
395.139	12.12
395.923	12.12
396.707	10.12
397.491	10.12
398.274	10.12
399.058	12.12
399.842	11.12
400.625	11.12
401.408	13.12
402.192	12.12
402.975	14.12
403.758	12.12
404.541	15.12
405.324	13.12
406.107	13.12
406.89	13.12
407.673	14.12
408.456	14.12
409.238	14.12
410.021	11.12
410.803	14.12
411.586	15.12
412.368	17.12
413.151	17.12
413.933	14.12
414.715	14.12
415.497	14.12
416.279	14.12
417.061	16.12
417.843	18.12
418.624	18.12
419.406	16.12
420.188	18.12
420.969	17.12
421.751	19.12
422.532	16.12
423.313	18.12
424.095	20.12
424.876	21.12
425.657	23.12
426.438	21.12
427.219	24.12
428	23.12
428.78	23.12
429.561	22.12
430.342	23.12
431.122	28.12
431.903	27.12
432.683	30.12
433.464	25.12
434.244	30.12
435.024	32.12
435.804	37.12
436.584	35.12
437.364	37.12
438.144	36.12
438.924	40.12
439.704	43.12
440.483	46.12
441.263	48.12
442.042	51.12
442.822	54.12
443.601	57.12
444.38	63.12
445.16	63.12
445.939	70.12
446.718	80.12
447.497	84.12
448.276	89.12
449.054	105.12
449.833	109.12
450.612	123.12
451.391	138.12
452.169	148.12
452.948	162.12
453.726	178.12
454.504	198.12
455.282	222.12
456.061	245.12
456.839	276.12
457.617	312.12
458.395	338.12
459.172	377.12
459.95	417.12
460.728	471.12
461.506	528.12
462.283	585.12
463.061	647.12
463.838	725.12
464.615	820.12
465.393	888.12
466.17	996.12
466.947	1113.12
467.724	1249.12
468.501	1367.12
469.278	1523.12
470.055	1687.12
470.831	1870.12
471.608	2067.12
472.385	2283.12
473.161	2505.12
473.938	2773.12
474.714	3057.12
475.49	3337.12
476.266	3677.12
477.043	4050.12
477.819	4451.12
478.595	4865.12
479.371	5295.12
480.146	5783.12
480.922	6316.12
481.698	6897.12
482.473	7520.12
483.249	8201.12
484.024	8917.12
484.8	9752.12
485.575	10559.12
486.35	11481.12
487.126	12410.12
487.901	13527.12
488.676	14686.12
489.451	15873.12
490.225	17097.12
491	18430.12
491.775	19782.12
492.55	21245.12
493.324	22773.12
494.099	24205.12
494.873	25869.12
495.647	27441.12
496.422	29056.12
497.196	30682.12
497.97	32174.12
498.744	33579.12
499.518	34957.12
500.292	36218.12
501.066	37372.12
501.839	38522.12
502.613	39310.12
503.387	40043.12
504.16	40683.12
504.934	40914.12
505.707	40886.12
506.48	40780.12
507.253	40516.12
508.027	40001.12
508.8	39274.12
509.573	38338.12
510.346	37341.12
511.118	36376.12
511.891	35453.12
512.664	34210.12
513.437	32979.12
514.209	31631.12
514.982	30442.12
515.754	29262.12
516.526	28018.12
517.298	26830.12
518.071	25805.12
518.843	24702.12
519.615	23723.12
520.387	22822.12
521.159	21946.12
521.93	21049.12
522.702	20145.12
523.474	19310.12
524.245	18591.12
525.017	17886.12
525.788	17050.12
526.56	16214.12
527.331	15531.12
528.102	14829.12
528.873	14071.12
529.644	13397.12
530.415	12763.12
531.186	12073.12
531.957	11497.12
532.728	10900.12
533.498	10355.12
534.269	9765.12
535.039	9232.12
535.81	8762.12
536.58	8314.12
537.351	7838.12
538.121	7406.12
538.891	7015.12
539.661	6635.12
540.431	6310.12
541.201	5983.12
541.971	5641.12
542.741	5358.12
543.51	5045.12
544.28	4809.12
545.05	4564.12
545.819	4370.12
546.588	4158.12
547.358	3960.12
548.127	3744.12
548.896	3551.12
549.665	3351.12
550.434	3229.12
551.203	3045.12
551.972	2868.12
552.741	2734.12
553.51	2578.12
554.278	2438.12
555.047	2286.12
555.815	2186.12
556.584	2072.12
557.352	1965.12
558.121	1834.12
558.889	1731.12
559.657	1637.12
560.425	1543.12
561.193	1470.12
561.961	1405.12
562.729	1295.12
563.496	1236.12
564.264	1166.12
565.032	1112.12
565.799	1053.12
566.567	992.12
567.334	941.12
568.101	887.12
568.869	836.12
569.636	792.12
570.403	739.12
571.17	697.12
571.937	669.12
572.704	626.12
573.471	588.12
574.237	560.12
575.004	525.12
575.771	502.12
576.537	471.12
577.303	444.12
578.07	415.12
578.836	391.12
579.602	371.12
580.368	354.12
581.134	332.12
581.9	321.12
582.666	304.12
583.432	289.12
584.198	272.12
584.964	253.12
585.729	248.12
586.495	230.12
587.26	218.12
588.025	211.12
588.791	196.12
589.556	183.12
590.321	182.12
591.086	176.12
591.851	157.12
592.616	151.12
593.381	145.12
594.146	139.12
594.911	132.12
595.675	120.12
596.44	119.12
597.204	114.12
597.969	111.12
598.733	108.12
599.497	96.12
600.261	96.12
601.025	98.12
601.79	90.12
602.553	83.12
603.317	80.12
604.081	76.12
604.845	77.12
605.609	74.12
606.372	69.12
607.136	68.12
607.899	66.12
608.662	62.12
609.426	61.12
610.189	58.12
610.952	57.12
611.715	53.12
612.478	53.12
613.241	50.12
614.004	47.12
614.767	46.12
615.529	44.12
616.292	42.12
617.055	43.12
617.817	41.12
618.579	42.12
619.342	36.12
620.104	36.12
620.866	32.12
621.628	35.12
622.39	29.12
623.152	34.12
623.914	32.12
624.676	29.12
625.438	29.12
626.199	30.12
626.961	29.12
627.722	27.12
628.484	26.12
629.245	25.12
630.006	22.12
630.768	23.12
631.529	22.12
632.29	22.12
633.051	20.12
633.812	20.12
634.573	22.12
635.333	21.12
636.094	21.12
636.855	17.12
637.615	19.12
638.376	16.12
639.136	16.12
639.896	18.12
640.657	16.12
641.417	15.12
642.177	18.12
642.937	14.12
643.697	16.12
644.457	13.12
645.216	14.12
645.976	13.12
646.736	15.12
647.495	14.12
648.255	15.12
649.014	12.12
649.774	13.12
650.533	13.12
651.292	13.12
652.051	11.12
652.81	13.12
653.569	11.12
654.328	9.12
655.087	11.12
655.846	10.12
656.604	12.12
657.363	12.12
658.121	9.12
658.88	12.12
659.638	10.12
660.397	10.12
661.155	8.12
661.913	11.12
662.671	12.12
663.429	9.12
664.187	10.12
664.945	7.12
665.703	10.12
666.46	8.12
667.218	8.12
667.976	9.12
668.733	10.12
669.49	9.12
670.248	7.12
671.005	9.12
671.762	7.12
672.519	11.12
673.276	8.12
674.033	7.12
674.79	8.12
675.547	7.12
676.304	7.12
677.06	7.12
677.817	9.12
678.574	9.12
679.33	8.12
680.086	7.12
680.843	8.12
681.599	5.12
682.355	9.12
683.111	9.12
683.867	7.12
684.623	9.12
685.379	9.12
686.135	7.12
686.89	8.12
687.646	4.12
688.402	9.12
689.157	8.12
689.912	7.12
690.668	8.12
691.423	5.12
692.178	5.12
692.933	7.12
693.688	7.12
694.443	6.12
695.198	5.12
695.953	7.12
696.708	5.12
697.462	6.12
698.217	6.12
698.972	7.12
699.726	6.12
700.48	9.12
701.235	7.12
701.989	6.12
702.743	6.12
703.497	4.12
704.251	6.12
705.005	6.12
705.759	6.12
706.513	5.12
707.266	7.12
708.02	7.12
708.774	6.12
709.527	6.12
710.28	7.12
711.034	7.12
711.787	5.12
712.54	7.12
713.293	7.12
714.046	6.12
714.799	9.12
715.552	7.12
716.305	7.12
717.058	6.12
717.81	9.12
718.563	6.12
719.315	7.12
720.068	7.12
720.82	7.12
721.573	9.12
722.325	7.12
723.077	5.12
723.829	9.12
724.581	7.12
725.333	6.12
726.085	5.12
726.836	6.12
727.588	8.12
728.34	10.12
729.091	5.12
729.843	9.12
730.594	8.12
731.346	5.12
732.097	8.12
732.848	7.12
733.599	8.12
734.35	8.12
735.101	6.12
735.852	7.12
736.603	9.12
737.354	6.12
738.104	6.12
738.855	9.12
739.605	9.12
740.356	8.12
741.106	7.12
741.856	7.12
742.607	9.12
743.357	11.12
744.107	10.12
744.857	10.12
745.607	10.12
746.357	7.12
747.106	7.12
747.856	10.12
748.606	9.12
749.355	10.12
750.105	11.12
750.854	10.12
751.603	9.12
752.353	9.12
753.102	10.12
753.851	8.12
754.6	11.12
755.349	9.12
756.098	10.12
756.847	11.12
757.595	10.12
758.344	10.12
759.093	11.12
759.841	11.12
760.589	10.12
761.338	12.12
762.086	8.12
762.834	10.12
763.582	10.12
764.331	12.12
765.079	11.12
765.826	9.12
766.574	11.12
767.322	13.12
768.07	12.12
768.817	13.12
769.565	11.12
770.312	10.12
771.06	11.12
771.807	12.12
772.554	10.12
773.302	16.12
774.049	11.12
774.796	13.12
775.543	12.12
776.29	10.12
777.036	14.12
777.783	13.12
778.53	14.12
779.276	13.12
780.023	14.12
780.769	14.12
781.516	12.12
782.262	15.12
783.008	16.12
783.754	13.12
784.5	14.12
785.246	13.12
785.992	15.12
786.738	14.12
787.484	16.12
788.23	13.12
788.975	13.12
789.721	13.12
790.466	14.12
791.212	12.12
791.957	11.12
792.702	12.12
793.447	12.12
794.193	12.12
794.938	10.12
795.683	13.12
796.427	10.12
797.172	11.12
797.917	12.12
798.662	10.12
799.406	11.12
800.151	11.12
800.895	11.12
801.64	9.12
802.384	11.12
803.128	10.12
803.872	11.12
804.616	9.12
805.36	10.12
806.104	11.12
806.848	10.12
807.592	9.12
808.336	10.12
809.079	8.12
809.823	9.12
810.566	9.12
811.31	7.12
812.053	8.12
812.796	7.12
813.539	8.12
814.283	8.12
815.026	9.12
815.769	8.12
816.511	6.12
817.254	7.12
817.997	4.12
818.74	8.12
819.482	8.12
820.225	9.12
820.967	7.12
821.71	7.12
822.452	9.12
823.194	7.12
823.936	6.12
824.678	6.12
825.42	8.12
826.162	7.12
826.904	6.12
827.646	8.12
828.388	5.12
829.129	5.12
829.871	5.12
830.612	5.12
831.354	4.12
832.095	4.12
832.836	6.12
833.577	3.12
834.319	6.12
835.06	6.12
835.801	4.12
836.542	6.12
837.282	5.12
838.023	5.12
838.764	5.12
839.504	7.12
840.245	6.12
840.985	8.12
841.726	6.12
842.466	3.12
843.206	3.12
843.946	5.12
844.687	4.12
845.427	4.12
846.166	5.12
846.906	4.12
847.646	7.12
848.386	2.12
849.125	5.12
849.865	5.12
850.605	4.12
851.344	7.12
852.083	4.12
852.823	2.12
853.562	5.12
854.301	3.12
855.04	6.12
855.779	2.12
856.518	3.12
857.257	3.12
857.995	6.12
858.734	4.12
859.473	5.12
860.211	5.12
860.95	3.12
861.688	4.12
862.426	3.12
863.165	5.12
863.903	1.12
864.641	5.12
865.379	5.12
866.117	3.12
866.855	1.12
867.593	3.12
868.33	2.12
869.068	3.12
869.806	2.12
870.543	2.12
871.28	1.12
872.018	5.12
872.755	1.12
873.492	3.12
874.229	3.12
874.967	3.12
875.703	1.12
876.44	1.12
877.177	2.12
877.914	2.12
878.651	2.12
879.387	3.12
880.124	3.12
880.86	0.12
881.597	1.12
882.333	3.12
883.069	2.12
883.806	3.12
884.542	1.12
885.278	1.12
886.014	0.12
886.749	1.12
887.485	2.12
888.221	0.12
888.957	4.12
889.692	3.12
890.428	1.12
891.163	2.12
891.899	1.12
892.634	0.12
893.369	0.12
894.104	1.12
894.839	1.12
895.574	3.12
896.309	2.12
897.044	1.12
897.779	1.12
898.514	1.12
899.248	2.12
899.983	1.12
900.717	1.12
901.452	0.12
902.186	2.12
902.92	1.12
903.654	0.12
904.389	0.12
905.123	3.12
905.857	1.12
906.59	2.12
907.324	1.12
908.058	2.12
908.792	1.12
909.525	3.12
910.259	1.12
910.992	3.12
911.726	1.12
912.459	-0.88
913.192	1.12
913.925	-0.88
914.658	1.12
915.391	1.12
916.124	2.12
916.857	1.12
917.59	3.12
918.323	0.12
919.055	2.12
919.788	0.12
920.521	3.12
921.253	-0.88
921.985	-1.88
922.718	0.12
923.45	0.12
924.182	0.12
924.914	1.12
925.646	1.12
926.378	2.12
927.11	0.12
927.841	1.12
928.573	-1.88
929.305	0.12
930.036	3.12
930.768	0.12
931.499	1.12
932.23	2.12
932.962	0.12
933.693	3.12
934.424	2.12
935.155	1.12
935.886	1.12
936.617	-0.88
937.348	0.12
938.078	2.12
938.809	1.12
939.54	2.12
940.27	0.12
941.001	0.12
941.731	2.12
942.461	1.12
943.191	0.12
943.922	1.12
944.652	0.12
945.382	1.12
946.112	0.12
946.841	0.12
947.571	-1.88
948.301	-0.88
949.031	-0.88
949.76	1.12
950.49	1.12
951.219	0.12
951.948	1.12
952.678	-0.88
953.407	3.12
954.136	0.12
954.865	0.12
955.594	-1.88
956.323	2.12
957.052	-1.88
957.78	0.12
958.509	1.12
959.238	1.12
959.966	1.12
960.695	-0.88
961.423	1.12
962.151	1.12
962.88	2.12
963.608	1.12
964.336	0.12
965.064	2.12
965.792	1.12
966.52	1.12
967.247	0.12
967.975	0.12
968.703	2.12
969.43	0.12
970.158	1.12
970.885	1.12
971.613	0.12
972.34	-0.88
973.067	0.12
973.794	1.12
974.521	-0.88
975.248	1.12
975.975	2.12
976.702	0.12
977.429	1.12
978.156	0.12
978.882	-0.88
979.609	1.12
980.335	-0.88
981.062	1.12
981.788	-1.88
982.514	3.12
983.24	1.12
983.967	1.12
984.693	2.12
985.419	1.12
986.144	1.12
986.87	1.12
987.596	1.12
988.322	1.12
989.047	2.12
989.773	1.12
990.498	3.12
991.224	0.12
991.949	2.12
992.674	1.12
993.399	0.12
994.124	-1.88
994.849	1.12
995.574	1.12
996.299	0.12
997.024	1.12
997.749	0.12
998.473	0.12
999.198	1.12
999.922	1.12
1000.647	2.12
1001.371	3.12
1002.095	-0.88
1002.82	-0.88
1003.544	-2.88
1004.268	3.12
1004.992	1.12
1005.716	3.12
1006.439	4.12
1007.163	5.12
1007.887	5.12
1008.611	1.12
1009.334	0.12
1010.058	1.12
1010.781	2.12
1011.504	1.12
1012.228	0.12
1012.951	-0.88
1013.674	0.12
1014.397	1.12
1015.12	1.12
