节点500_565_QEPB04081__104__09-52-09-972.txt的数据

Date: Thu Nov 13 09:52:09 CST 2025
User: PC
Spectrometer: QEPB0408
触发模式: 0
积分时间 (秒): 1.000000E-2
Scans to average: 1
启用暗噪声校正: true
启用非线性校正: false
滑动平均宽度: 0
X轴模式: Wavelengths
Number of Pixels in Spectrum: 1044
>>>>>Begin Spectral Data<<<<<
220.843	1.12
221.644	5.12
222.444	5.12
223.244	5.12
224.045	4.12
224.845	3.12
225.645	5.12
226.445	6.12
227.245	5.12
228.045	5.12
228.845	5.12
229.645	6.12
230.444	5.12
231.244	7.12
232.043	4.12
232.843	10.12
233.642	6.12
234.442	6.12
235.241	9.12
236.04	7.12
236.839	8.12
237.638	9.12
238.437	6.12
239.236	8.12
240.035	11.12
240.833	7.12
241.632	6.12
242.43	10.12
243.229	11.12
244.027	11.12
244.826	9.12
245.624	11.12
246.422	8.12
247.22	12.12
248.018	13.12
248.816	12.12
249.614	13.12
250.412	14.12
251.21	12.12
252.007	12.12
252.805	14.12
253.602	13.12
254.4	16.12
255.197	15.12
255.994	14.12
256.791	17.12
257.589	17.12
258.386	18.12
259.183	20.12
259.979	18.12
260.776	18.12
261.573	17.12
262.37	23.12
263.166	22.12
263.963	24.12
264.759	24.12
265.556	24.12
266.352	24.12
267.148	19.12
267.944	24.12
268.74	24.12
269.536	25.12
270.332	26.12
271.128	26.12
271.924	28.12
272.719	27.12
273.515	28.12
274.311	29.12
275.106	30.12
275.901	29.12
276.697	26.12
277.492	32.12
278.287	32.12
279.082	32.12
279.877	30.12
280.672	30.12
281.467	31.12
282.262	29.12
283.056	29.12
283.851	32.12
284.646	31.12
285.44	30.12
286.234	31.12
287.029	28.12
287.823	30.12
288.617	26.12
289.411	27.12
290.205	28.12
290.999	28.12
291.793	31.12
292.587	28.12
293.381	29.12
294.174	27.12
294.968	27.12
295.761	24.12
296.555	22.12
297.348	21.12
298.141	23.12
298.935	23.12
299.728	24.12
300.521	18.12
301.314	22.12
302.107	20.12
302.899	21.12
303.692	24.12
304.485	17.12
305.277	18.12
306.07	17.12
306.862	19.12
307.655	20.12
308.447	17.12
309.239	19.12
310.031	18.12
310.823	17.12
311.615	14.12
312.407	16.12
313.199	14.12
313.991	15.12
314.783	15.12
315.574	13.12
316.366	13.12
317.157	12.12
317.949	13.12
318.74	13.12
319.531	14.12
320.322	12.12
321.113	13.12
321.904	8.12
322.695	9.12
323.486	11.12
324.277	10.12
325.068	13.12
325.858	12.12
326.649	11.12
327.439	9.12
328.23	10.12
329.02	12.12
329.81	11.12
330.6	11.12
331.391	10.12
332.181	10.12
332.971	10.12
333.76	8.12
334.55	10.12
335.34	9.12
336.13	12.12
336.919	10.12
337.709	12.12
338.498	13.12
339.287	11.12
340.077	12.12
340.866	7.12
341.655	11.12
342.444	9.12
343.233	9.12
344.022	8.12
344.811	10.12
345.6	9.12
346.388	9.12
347.177	10.12
347.965	8.12
348.754	9.12
349.542	8.12
350.33	9.12
351.119	8.12
351.907	8.12
352.695	8.12
353.483	9.12
354.271	7.12
355.059	6.12
355.846	10.12
356.634	9.12
357.422	8.12
358.209	7.12
358.997	9.12
359.784	9.12
360.571	6.12
361.359	7.12
362.146	6.12
362.933	8.12
363.72	7.12
364.507	8.12
365.294	8.12
366.081	8.12
366.867	7.12
367.654	10.12
368.44	6.12
369.227	6.12
370.013	8.12
370.8	9.12
371.586	8.12
372.372	10.12
373.158	8.12
373.944	8.12
374.73	9.12
375.516	8.12
376.302	8.12
377.088	9.12
377.873	8.12
378.659	9.12
379.445	8.12
380.23	8.12
381.015	9.12
381.801	8.12
382.586	8.12
383.371	7.12
384.156	9.12
384.941	8.12
385.726	9.12
386.511	8.12
387.296	9.12
388.08	12.12
388.865	10.12
389.649	11.12
390.434	9.12
391.218	12.12
392.003	12.12
392.787	11.12
393.571	8.12
394.355	9.12
395.139	11.12
395.923	12.12
396.707	10.12
397.491	12.12
398.274	12.12
399.058	14.12
399.842	12.12
400.625	13.12
401.408	12.12
402.192	13.12
402.975	13.12
403.758	12.12
404.541	13.12
405.324	13.12
406.107	14.12
406.89	12.12
407.673	13.12
408.456	12.12
409.238	13.12
410.021	14.12
410.803	12.12
411.586	13.12
412.368	14.12
413.151	14.12
413.933	12.12
414.715	15.12
415.497	16.12
416.279	16.12
417.061	17.12
417.843	14.12
418.624	18.12
419.406	17.12
420.188	20.12
420.969	17.12
421.751	17.12
422.532	19.12
423.313	22.12
424.095	23.12
424.876	21.12
425.657	22.12
426.438	22.12
427.219	21.12
428	25.12
428.78	24.12
429.561	24.12
430.342	27.12
431.122	22.12
431.903	27.12
432.683	27.12
433.464	31.12
434.244	30.12
435.024	32.12
435.804	33.12
436.584	35.12
437.364	36.12
438.144	40.12
438.924	40.12
439.704	40.12
440.483	46.12
441.263	45.12
442.042	49.12
442.822	49.12
443.601	56.12
444.38	59.12
445.16	64.12
445.939	71.12
446.718	77.12
447.497	81.12
448.276	88.12
449.054	99.12
449.833	104.12
450.612	113.12
451.391	127.12
452.169	142.12
452.948	150.12
453.726	168.12
454.504	183.12
455.282	204.12
456.061	226.12
456.839	258.12
457.617	285.12
458.395	316.12
459.172	351.12
459.95	396.12
460.728	444.12
461.506	493.12
462.283	556.12
463.061	628.12
463.838	697.12
464.615	769.12
465.393	855.12
466.17	957.12
466.947	1074.12
467.724	1193.12
468.501	1333.12
469.278	1484.12
470.055	1654.12
470.831	1848.12
471.608	2050.12
472.385	2263.12
473.161	2489.12
473.938	2777.12
474.714	3069.12
475.49	3381.12
476.266	3736.12
477.043	4115.12
477.819	4546.12
478.595	5020.12
479.371	5483.12
480.146	6066.12
480.922	6632.12
481.698	7289.12
482.473	7967.12
483.249	8767.12
484.024	9557.12
484.8	10463.12
485.575	11453.12
486.35	12456.12
487.126	13576.12
487.901	14795.12
488.676	16050.12
489.451	17452.12
490.225	18945.12
491	20463.12
491.775	22022.12
492.55	23722.12
493.324	25378.12
494.099	27029.12
494.873	28857.12
495.647	30744.12
496.422	32364.12
497.196	34220.12
497.97	35838.12
498.744	37324.12
499.518	38702.12
500.292	39960.12
501.066	41145.12
501.839	42153.12
502.613	42820.12
503.387	43446.12
504.16	43760.12
504.934	43784.12
505.707	43526.12
506.48	43192.12
507.253	42603.12
508.027	41701.12
508.8	40758.12
509.573	39462.12
510.346	38418.12
511.118	37018.12
511.891	35730.12
512.664	34473.12
513.437	33128.12
514.209	31614.12
514.982	30353.12
515.754	29086.12
516.526	27845.12
517.298	26618.12
518.071	25540.12
518.843	24451.12
519.615	23467.12
520.387	22511.12
521.159	21701.12
521.93	20738.12
522.702	19902.12
523.474	19084.12
524.245	18324.12
525.017	17486.12
525.788	16733.12
526.56	15927.12
527.331	15224.12
528.102	14416.12
528.873	13748.12
529.644	13058.12
530.415	12373.12
531.186	11709.12
531.957	11140.12
532.728	10505.12
533.498	9981.12
534.269	9356.12
535.039	8834.12
535.81	8390.12
536.58	7977.12
537.351	7519.12
538.121	7076.12
538.891	6699.12
539.661	6366.12
540.431	6028.12
541.201	5727.12
541.971	5404.12
542.741	5084.12
543.51	4837.12
544.28	4616.12
545.05	4346.12
545.819	4176.12
546.588	3959.12
547.358	3781.12
548.127	3586.12
548.896	3404.12
549.665	3230.12
550.434	3076.12
551.203	2888.12
551.972	2739.12
552.741	2583.12
553.51	2460.12
554.278	2299.12
555.047	2167.12
555.815	2055.12
556.584	1942.12
557.352	1846.12
558.121	1722.12
558.889	1637.12
559.657	1541.12
560.425	1456.12
561.193	1368.12
561.961	1294.12
562.729	1242.12
563.496	1162.12
564.264	1108.12
565.032	1054.12
565.799	990.12
566.567	943.12
567.334	875.12
568.101	839.12
568.869	781.12
569.636	747.12
570.403	699.12
571.17	663.12
571.937	629.12
572.704	582.12
573.471	555.12
574.237	521.12
575.004	486.12
575.771	462.12
576.537	436.12
577.303	419.12
578.07	392.12
578.836	376.12
579.602	343.12
580.368	323.12
581.134	312.12
581.9	299.12
582.666	284.12
583.432	269.12
584.198	253.12
584.964	244.12
585.729	226.12
586.495	212.12
587.26	208.12
588.025	200.12
588.791	186.12
589.556	177.12
590.321	170.12
591.086	161.12
591.851	151.12
592.616	149.12
593.381	141.12
594.146	135.12
594.911	122.12
595.675	120.12
596.44	115.12
597.204	112.12
597.969	102.12
598.733	102.12
599.497	94.12
600.261	93.12
601.025	93.12
601.79	84.12
602.553	78.12
603.317	79.12
604.081	70.12
604.845	68.12
605.609	64.12
606.372	64.12
607.136	63.12
607.899	63.12
608.662	59.12
609.426	55.12
610.189	53.12
610.952	49.12
611.715	51.12
612.478	50.12
613.241	46.12
614.004	44.12
614.767	40.12
615.529	40.12
616.292	40.12
617.055	39.12
617.817	38.12
618.579	36.12
619.342	37.12
620.104	35.12
620.866	34.12
621.628	31.12
622.39	31.12
623.152	29.12
623.914	28.12
624.676	30.12
625.438	25.12
626.199	26.12
626.961	24.12
627.722	24.12
628.484	22.12
629.245	24.12
630.006	22.12
630.768	21.12
631.529	23.12
632.29	19.12
633.051	20.12
633.812	21.12
634.573	20.12
635.333	18.12
636.094	19.12
636.855	15.12
637.615	18.12
638.376	16.12
639.136	17.12
639.896	17.12
640.657	16.12
641.417	13.12
642.177	17.12
642.937	16.12
643.697	11.12
644.457	15.12
645.216	12.12
645.976	16.12
646.736	13.12
647.495	12.12
648.255	12.12
649.014	13.12
649.774	14.12
650.533	12.12
651.292	12.12
652.051	12.12
652.81	9.12
653.569	10.12
654.328	12.12
655.087	10.12
655.846	12.12
656.604	12.12
657.363	8.12
658.121	9.12
658.88	8.12
659.638	11.12
660.397	11.12
661.155	9.12
661.913	8.12
662.671	9.12
663.429	8.12
664.187	11.12
664.945	10.12
665.703	8.12
666.46	8.12
667.218	9.12
667.976	6.12
668.733	7.12
669.49	6.12
670.248	8.12
671.005	8.12
671.762	6.12
672.519	5.12
673.276	7.12
674.033	4.12
674.79	6.12
675.547	5.12
676.304	10.12
677.06	5.12
677.817	5.12
678.574	6.12
679.33	7.12
680.086	6.12
680.843	6.12
681.599	7.12
682.355	9.12
683.111	9.12
683.867	7.12
684.623	5.12
685.379	5.12
686.135	5.12
686.89	5.12
687.646	7.12
688.402	7.12
689.157	6.12
689.912	9.12
690.668	4.12
691.423	7.12
692.178	6.12
692.933	7.12
693.688	5.12
694.443	7.12
695.198	7.12
695.953	6.12
696.708	4.12
697.462	5.12
698.217	7.12
698.972	6.12
699.726	5.12
700.48	5.12
701.235	7.12
701.989	6.12
702.743	6.12
703.497	5.12
704.251	6.12
705.005	6.12
705.759	3.12
706.513	5.12
707.266	7.12
708.02	8.12
708.774	6.12
709.527	6.12
710.28	6.12
711.034	5.12
711.787	6.12
712.54	4.12
713.293	6.12
714.046	8.12
714.799	6.12
715.552	6.12
716.305	6.12
717.058	7.12
717.81	6.12
718.563	7.12
719.315	5.12
720.068	8.12
720.82	5.12
721.573	8.12
722.325	6.12
723.077	6.12
723.829	7.12
724.581	7.12
725.333	8.12
726.085	6.12
726.836	6.12
727.588	8.12
728.34	7.12
729.091	6.12
729.843	8.12
730.594	8.12
731.346	7.12
732.097	6.12
732.848	9.12
733.599	8.12
734.35	6.12
735.101	7.12
735.852	9.12
736.603	4.12
737.354	6.12
738.104	7.12
738.855	7.12
739.605	10.12
740.356	8.12
741.106	6.12
741.856	8.12
742.607	6.12
743.357	8.12
744.107	9.12
744.857	7.12
745.607	10.12
746.357	6.12
747.106	9.12
747.856	9.12
748.606	8.12
749.355	9.12
750.105	6.12
750.854	12.12
751.603	9.12
752.353	8.12
753.102	10.12
753.851	9.12
754.6	10.12
755.349	9.12
756.098	9.12
756.847	11.12
757.595	10.12
758.344	11.12
759.093	10.12
759.841	12.12
760.589	10.12
761.338	13.12
762.086	12.12
762.834	12.12
763.582	8.12
764.331	8.12
765.079	12.12
765.826	10.12
766.574	13.12
767.322	12.12
768.07	13.12
768.817	12.12
769.565	12.12
770.312	12.12
771.06	13.12
771.807	12.12
772.554	12.12
773.302	12.12
774.049	13.12
774.796	13.12
775.543	13.12
776.29	12.12
777.036	15.12
777.783	15.12
778.53	14.12
779.276	15.12
780.023	15.12
780.769	15.12
781.516	17.12
782.262	12.12
783.008	14.12
783.754	18.12
784.5	15.12
785.246	12.12
785.992	14.12
786.738	12.12
787.484	15.12
788.23	12.12
788.975	13.12
789.721	12.12
790.466	15.12
791.212	12.12
791.957	12.12
792.702	13.12
793.447	14.12
794.193	13.12
794.938	12.12
795.683	12.12
796.427	10.12
797.172	11.12
797.917	10.12
798.662	13.12
799.406	10.12
800.151	11.12
800.895	11.12
801.64	8.12
802.384	11.12
803.128	11.12
803.872	10.12
804.616	11.12
805.36	11.12
806.104	7.12
806.848	9.12
807.592	8.12
808.336	8.12
809.079	10.12
809.823	7.12
810.566	9.12
811.31	10.12
812.053	8.12
812.796	7.12
813.539	7.12
814.283	8.12
815.026	7.12
815.769	9.12
816.511	7.12
817.254	7.12
817.997	7.12
818.74	7.12
819.482	7.12
820.225	7.12
820.967	4.12
821.71	6.12
822.452	7.12
823.194	6.12
823.936	5.12
824.678	6.12
825.42	4.12
826.162	6.12
826.904	8.12
827.646	6.12
828.388	5.12
829.129	6.12
829.871	7.12
830.612	6.12
831.354	4.12
832.095	6.12
832.836	3.12
833.577	4.12
834.319	6.12
835.06	5.12
835.801	5.12
836.542	4.12
837.282	2.12
838.023	6.12
838.764	3.12
839.504	4.12
840.245	5.12
840.985	5.12
841.726	5.12
842.466	4.12
843.206	6.12
843.946	3.12
844.687	5.12
845.427	6.12
846.166	3.12
846.906	5.12
847.646	4.12
848.386	3.12
849.125	5.12
849.865	3.12
850.605	6.12
851.344	2.12
852.083	0.12
852.823	5.12
853.562	1.12
854.301	4.12
855.04	4.12
855.779	5.12
856.518	6.12
857.257	5.12
857.995	4.12
858.734	4.12
859.473	4.12
860.211	5.12
860.95	-0.88
861.688	5.12
862.426	3.12
863.165	3.12
863.903	1.12
864.641	3.12
865.379	2.12
866.117	2.12
866.855	3.12
867.593	4.12
868.33	3.12
869.068	1.12
869.806	1.12
870.543	2.12
871.28	0.12
872.018	0.12
872.755	3.12
873.492	3.12
874.229	2.12
874.967	0.12
875.703	1.12
876.44	1.12
877.177	0.12
877.914	2.12
878.651	0.12
879.387	4.12
880.124	1.12
880.86	1.12
881.597	0.12
882.333	0.12
883.069	2.12
883.806	1.12
884.542	2.12
885.278	-1.88
886.014	1.12
886.749	1.12
887.485	2.12
888.221	-0.88
888.957	1.12
889.692	0.12
890.428	0.12
891.163	1.12
891.899	-2.88
892.634	3.12
893.369	1.12
894.104	1.12
894.839	0.12
895.574	1.12
896.309	0.12
897.044	1.12
897.779	0.12
898.514	1.12
899.248	0.12
899.983	1.12
900.717	-0.88
901.452	0.12
902.186	-1.88
902.92	3.12
903.654	0.12
904.389	-0.88
905.123	0.12
905.857	0.12
906.59	-0.88
907.324	-1.88
908.058	1.12
908.792	2.12
909.525	-0.88
910.259	1.12
910.992	0.12
911.726	2.12
912.459	-1.88
913.192	0.12
913.925	0.12
914.658	0.12
915.391	2.12
916.124	2.12
916.857	1.12
917.59	-0.88
918.323	-0.88
919.055	1.12
919.788	1.12
920.521	0.12
921.253	-0.88
921.985	-1.88
922.718	0.12
923.45	1.12
924.182	0.12
924.914	2.12
925.646	-0.88
926.378	1.12
927.11	0.12
927.841	0.12
928.573	-0.88
929.305	0.12
930.036	1.12
930.768	0.12
931.499	1.12
932.23	-0.88
932.962	-1.88
933.693	0.12
934.424	0.12
935.155	1.12
935.886	1.12
936.617	-0.88
937.348	2.12
938.078	0.12
938.809	-0.88
939.54	1.12
940.27	0.12
941.001	-0.88
941.731	0.12
942.461	1.12
943.191	-0.88
943.922	0.12
944.652	-0.88
945.382	1.12
946.112	-2.88
946.841	1.12
947.571	0.12
948.301	0.12
949.031	0.12
949.76	1.12
950.49	1.12
951.219	0.12
951.948	-0.88
952.678	3.12
953.407	0.12
954.136	0.12
954.865	-1.88
955.594	0.12
956.323	-1.88
957.052	1.12
957.78	0.12
958.509	0.12
959.238	0.12
959.966	-1.88
960.695	1.12
961.423	1.12
962.151	-0.88
962.88	1.12
963.608	-0.88
964.336	0.12
965.064	-0.88
965.792	-0.88
966.52	-1.88
967.247	1.12
967.975	1.12
968.703	0.12
969.43	1.12
970.158	-1.88
970.885	2.12
971.613	-0.88
972.34	-1.88
973.067	-0.88
973.794	1.12
974.521	-0.88
975.248	0.12
975.975	-0.88
976.702	2.12
977.429	-1.88
978.156	1.12
978.882	0.12
979.609	0.12
980.335	-1.88
981.062	2.12
981.788	1.12
982.514	1.12
983.24	0.12
983.967	-2.88
984.693	-0.88
985.419	0.12
986.144	0.12
986.87	-1.88
987.596	-1.88
988.322	0.12
989.047	0.12
989.773	0.12
990.498	-2.88
991.224	2.12
991.949	-0.88
992.674	0.12
993.399	-1.88
994.124	1.12
994.849	1.12
995.574	-1.88
996.299	-0.88
997.024	-0.88
997.749	1.12
998.473	0.12
999.198	-1.88
999.922	0.12
1000.647	0.12
1001.371	3.12
1002.095	-1.88
1002.82	-1.88
1003.544	0.12
1004.268	3.12
1004.992	4.12
1005.716	4.12
1006.439	3.12
1007.163	4.12
1007.887	3.12
1008.611	-1.88
1009.334	0.12
1010.058	0.12
1010.781	-0.88
1011.504	0.12
1012.228	0.12
1012.951	0.12
1013.674	0.12
1014.397	0.12
1015.12	0.12
