节点500_565_QEPB04081__331__09-55-55-438.txt的数据

Date: Thu Nov 13 09:55:55 CST 2025
User: PC
Spectrometer: QEPB0408
触发模式: 0
积分时间 (秒): 1.000000E-2
Scans to average: 1
启用暗噪声校正: true
启用非线性校正: false
滑动平均宽度: 0
X轴模式: Wavelengths
Number of Pixels in Spectrum: 1044
>>>>>Begin Spectral Data<<<<<
220.843	3.75
221.644	5.75
222.444	3.75
223.244	7.75
224.045	4.75
224.845	5.75
225.645	5.75
226.445	4.75
227.245	4.75
228.045	7.75
228.845	6.75
229.645	7.75
230.444	6.75
231.244	9.75
232.043	4.75
232.843	8.75
233.642	10.75
234.442	5.75
235.241	7.75
236.04	9.75
236.839	8.75
237.638	9.75
238.437	9.75
239.236	10.75
240.035	9.75
240.833	11.75
241.632	10.75
242.43	9.75
243.229	11.75
244.027	13.75
244.826	9.75
245.624	7.75
246.422	12.75
247.22	11.75
248.018	11.75
248.816	13.75
249.614	11.75
250.412	15.75
251.21	11.75
252.007	14.75
252.805	12.75
253.602	13.75
254.4	13.75
255.197	17.75
255.994	14.75
256.791	16.75
257.589	16.75
258.386	14.75
259.183	17.75
259.979	17.75
260.776	16.75
261.573	17.75
262.37	20.75
263.166	17.75
263.963	20.75
264.759	21.75
265.556	21.75
266.352	22.75
267.148	22.75
267.944	22.75
268.74	23.75
269.536	23.75
270.332	26.75
271.128	25.75
271.924	25.75
272.719	26.75
273.515	29.75
274.311	27.75
275.106	29.75
275.901	26.75
276.697	27.75
277.492	28.75
278.287	28.75
279.082	30.75
279.877	27.75
280.672	29.75
281.467	31.75
282.262	28.75
283.056	30.75
283.851	29.75
284.646	30.75
285.44	33.75
286.234	28.75
287.029	28.75
287.823	26.75
288.617	26.75
289.411	26.75
290.205	26.75
290.999	25.75
291.793	27.75
292.587	27.75
293.381	27.75
294.174	28.75
294.968	27.75
295.761	25.75
296.555	24.75
297.348	22.75
298.141	19.75
298.935	21.75
299.728	25.75
300.521	21.75
301.314	21.75
302.107	20.75
302.899	19.75
303.692	17.75
304.485	21.75
305.277	17.75
306.07	20.75
306.862	19.75
307.655	18.75
308.447	16.75
309.239	18.75
310.031	15.75
310.823	16.75
311.615	18.75
312.407	17.75
313.199	14.75
313.991	15.75
314.783	13.75
315.574	14.75
316.366	14.75
317.157	13.75
317.949	14.75
318.74	14.75
319.531	13.75
320.322	12.75
321.113	11.75
321.904	12.75
322.695	11.75
323.486	12.75
324.277	12.75
325.068	12.75
325.858	13.75
326.649	11.75
327.439	11.75
328.23	9.75
329.02	11.75
329.81	13.75
330.6	10.75
331.391	14.75
332.181	11.75
332.971	11.75
333.76	8.75
334.55	11.75
335.34	8.75
336.13	9.75
336.919	10.75
337.709	8.75
338.498	9.75
339.287	10.75
340.077	9.75
340.866	10.75
341.655	12.75
342.444	9.75
343.233	9.75
344.022	10.75
344.811	9.75
345.6	11.75
346.388	10.75
347.177	9.75
347.965	10.75
348.754	11.75
349.542	10.75
350.33	10.75
351.119	11.75
351.907	12.75
352.695	10.75
353.483	8.75
354.271	8.75
355.059	9.75
355.846	4.75
356.634	10.75
357.422	7.75
358.209	10.75
358.997	9.75
359.784	8.75
360.571	9.75
361.359	7.75
362.146	10.75
362.933	8.75
363.72	9.75
364.507	7.75
365.294	8.75
366.081	9.75
366.867	7.75
367.654	9.75
368.44	7.75
369.227	8.75
370.013	8.75
370.8	7.75
371.586	9.75
372.372	9.75
373.158	9.75
373.944	9.75
374.73	10.75
375.516	9.75
376.302	5.75
377.088	8.75
377.873	8.75
378.659	11.75
379.445	9.75
380.23	10.75
381.015	6.75
381.801	10.75
382.586	8.75
383.371	7.75
384.156	10.75
384.941	9.75
385.726	10.75
386.511	8.75
387.296	8.75
388.08	11.75
388.865	11.75
389.649	11.75
390.434	8.75
391.218	9.75
392.003	11.75
392.787	11.75
393.571	11.75
394.355	12.75
395.139	10.75
395.923	9.75
396.707	12.75
397.491	10.75
398.274	12.75
399.058	11.75
399.842	12.75
400.625	9.75
401.408	13.75
402.192	12.75
402.975	10.75
403.758	14.75
404.541	10.75
405.324	11.75
406.107	12.75
406.89	13.75
407.673	14.75
408.456	13.75
409.238	13.75
410.021	12.75
410.803	14.75
411.586	14.75
412.368	14.75
413.151	15.75
413.933	13.75
414.715	16.75
415.497	14.75
416.279	16.75
417.061	18.75
417.843	14.75
418.624	16.75
419.406	17.75
420.188	19.75
420.969	18.75
421.751	21.75
422.532	19.75
423.313	16.75
424.095	18.75
424.876	24.75
425.657	22.75
426.438	18.75
427.219	22.75
428	24.75
428.78	25.75
429.561	22.75
430.342	23.75
431.122	28.75
431.903	30.75
432.683	27.75
433.464	28.75
434.244	31.75
435.024	30.75
435.804	31.75
436.584	36.75
437.364	37.75
438.144	39.75
438.924	41.75
439.704	43.75
440.483	44.75
441.263	51.75
442.042	51.75
442.822	54.75
443.601	57.75
444.38	59.75
445.16	68.75
445.939	72.75
446.718	80.75
447.497	81.75
448.276	94.75
449.054	100.75
449.833	113.75
450.612	121.75
451.391	128.75
452.169	147.75
452.948	167.75
453.726	184.75
454.504	200.75
455.282	221.75
456.061	248.75
456.839	270.75
457.617	307.75
458.395	329.75
459.172	382.75
459.95	428.75
460.728	471.75
461.506	525.75
462.283	591.75
463.061	651.75
463.838	726.75
464.615	816.75
465.393	904.75
466.17	1015.75
466.947	1115.75
467.724	1233.75
468.501	1395.75
469.278	1518.75
470.055	1681.75
470.831	1876.75
471.608	2072.75
472.385	2283.75
473.161	2533.75
473.938	2803.75
474.714	3058.75
475.49	3357.75
476.266	3681.75
477.043	4043.75
477.819	4430.75
478.595	4881.75
479.371	5272.75
480.146	5805.75
480.922	6319.75
481.698	6926.75
482.473	7549.75
483.249	8172.75
484.024	8903.75
484.8	9712.75
485.575	10577.75
486.35	11441.75
487.126	12389.75
487.901	13477.75
488.676	14572.75
489.451	15793.75
490.225	17106.75
491	18380.75
491.775	19700.75
492.55	21200.75
493.324	22658.75
494.099	24163.75
494.873	25740.75
495.647	27352.75
496.422	28972.75
497.196	30516.75
497.97	32081.75
498.744	33500.75
499.518	34812.75
500.292	36147.75
501.066	37390.75
501.839	38443.75
502.613	39232.75
503.387	39919.75
504.16	40600.75
504.934	40848.75
505.707	40953.75
506.48	40863.75
507.253	40482.75
508.027	39925.75
508.8	39221.75
509.573	38422.75
510.346	37421.75
511.118	36339.75
511.891	35447.75
512.664	34250.75
513.437	32960.75
514.209	31650.75
514.982	30471.75
515.754	29322.75
516.526	28083.75
517.298	26953.75
518.071	25847.75
518.843	24830.75
519.615	23819.75
520.387	22912.75
521.159	21995.75
521.93	21073.75
522.702	20153.75
523.474	19375.75
524.245	18587.75
525.017	17856.75
525.788	17103.75
526.56	16319.75
527.331	15609.75
528.102	14906.75
528.873	14197.75
529.644	13477.75
530.415	12744.75
531.186	12147.75
531.957	11568.75
532.728	10920.75
533.498	10371.75
534.269	9794.75
535.039	9237.75
535.81	8799.75
536.58	8324.75
537.351	7902.75
538.121	7462.75
538.891	7011.75
539.661	6699.75
540.431	6317.75
541.201	5988.75
541.971	5672.75
542.741	5375.75
543.51	5091.75
544.28	4828.75
545.05	4609.75
545.819	4385.75
546.588	4155.75
547.358	3939.75
548.127	3769.75
548.896	3587.75
549.665	3402.75
550.434	3203.75
551.203	3063.75
551.972	2889.75
552.741	2752.75
553.51	2593.75
554.278	2445.75
555.047	2291.75
555.815	2191.75
556.584	2064.75
557.352	1955.75
558.121	1836.75
558.889	1741.75
559.657	1640.75
560.425	1549.75
561.193	1473.75
561.961	1395.75
562.729	1311.75
563.496	1243.75
564.264	1176.75
565.032	1113.75
565.799	1048.75
566.567	1005.75
567.334	937.75
568.101	887.75
568.869	830.75
569.636	800.75
570.403	752.75
571.17	700.75
571.937	669.75
572.704	627.75
573.471	594.75
574.237	563.75
575.004	530.75
575.771	500.75
576.537	470.75
577.303	444.75
578.07	423.75
578.836	400.75
579.602	380.75
580.368	349.75
581.134	337.75
581.9	326.75
582.666	307.75
583.432	287.75
584.198	279.75
584.964	261.75
585.729	250.75
586.495	232.75
587.26	220.75
588.025	209.75
588.791	195.75
589.556	191.75
590.321	181.75
591.086	170.75
591.851	163.75
592.616	157.75
593.381	149.75
594.146	142.75
594.911	132.75
595.675	127.75
596.44	121.75
597.204	116.75
597.969	110.75
598.733	109.75
599.497	106.75
600.261	96.75
601.025	94.75
601.79	92.75
602.553	89.75
603.317	80.75
604.081	79.75
604.845	76.75
605.609	71.75
606.372	67.75
607.136	66.75
607.899	63.75
608.662	65.75
609.426	60.75
610.189	57.75
610.952	53.75
611.715	51.75
612.478	49.75
613.241	50.75
614.004	47.75
614.767	45.75
615.529	44.75
616.292	48.75
617.055	43.75
617.817	40.75
618.579	39.75
619.342	38.75
620.104	36.75
620.866	33.75
621.628	35.75
622.39	33.75
623.152	33.75
623.914	30.75
624.676	31.75
625.438	26.75
626.199	27.75
626.961	28.75
627.722	24.75
628.484	27.75
629.245	23.75
630.006	23.75
630.768	25.75
631.529	20.75
632.29	25.75
633.051	21.75
633.812	20.75
634.573	19.75
635.333	17.75
636.094	21.75
636.855	18.75
637.615	21.75
638.376	15.75
639.136	19.75
639.896	13.75
640.657	17.75
641.417	18.75
642.177	17.75
642.937	15.75
643.697	15.75
644.457	17.75
645.216	13.75
645.976	14.75
646.736	14.75
647.495	13.75
648.255	13.75
649.014	15.75
649.774	13.75
650.533	13.75
651.292	11.75
652.051	10.75
652.81	13.75
653.569	12.75
654.328	10.75
655.087	10.75
655.846	11.75
656.604	10.75
657.363	13.75
658.121	10.75
658.88	9.75
659.638	10.75
660.397	10.75
661.155	9.75
661.913	7.75
662.671	9.75
663.429	7.75
664.187	10.75
664.945	9.75
665.703	9.75
666.46	6.75
667.218	7.75
667.976	7.75
668.733	9.75
669.49	11.75
670.248	7.75
671.005	8.75
671.762	10.75
672.519	10.75
673.276	7.75
674.033	8.75
674.79	6.75
675.547	8.75
676.304	8.75
677.06	9.75
677.817	8.75
678.574	8.75
679.33	10.75
680.086	6.75
680.843	6.75
681.599	8.75
682.355	9.75
683.111	7.75
683.867	7.75
684.623	9.75
685.379	7.75
686.135	6.75
686.89	5.75
687.646	5.75
688.402	6.75
689.157	6.75
689.912	7.75
690.668	6.75
691.423	8.75
692.178	9.75
692.933	6.75
693.688	5.75
694.443	6.75
695.198	7.75
695.953	7.75
696.708	6.75
697.462	6.75
698.217	7.75
698.972	7.75
699.726	5.75
700.48	7.75
701.235	6.75
701.989	5.75
702.743	7.75
703.497	5.75
704.251	6.75
705.005	6.75
705.759	6.75
706.513	9.75
707.266	5.75
708.02	8.75
708.774	6.75
709.527	6.75
710.28	6.75
711.034	6.75
711.787	7.75
712.54	7.75
713.293	4.75
714.046	7.75
714.799	7.75
715.552	6.75
716.305	8.75
717.058	6.75
717.81	9.75
718.563	6.75
719.315	6.75
720.068	7.75
720.82	7.75
721.573	8.75
722.325	5.75
723.077	10.75
723.829	9.75
724.581	8.75
725.333	8.75
726.085	8.75
726.836	6.75
727.588	7.75
728.34	6.75
729.091	8.75
729.843	9.75
730.594	10.75
731.346	7.75
732.097	9.75
732.848	7.75
733.599	9.75
734.35	8.75
735.101	9.75
735.852	10.75
736.603	7.75
737.354	10.75
738.104	8.75
738.855	8.75
739.605	9.75
740.356	9.75
741.106	8.75
741.856	8.75
742.607	9.75
743.357	8.75
744.107	8.75
744.857	6.75
745.607	9.75
746.357	9.75
747.106	8.75
747.856	7.75
748.606	10.75
749.355	8.75
750.105	8.75
750.854	8.75
751.603	7.75
752.353	11.75
753.102	12.75
753.851	7.75
754.6	10.75
755.349	10.75
756.098	12.75
756.847	11.75
757.595	10.75
758.344	13.75
759.093	11.75
759.841	9.75
760.589	11.75
761.338	11.75
762.086	12.75
762.834	9.75
763.582	10.75
764.331	10.75
765.079	11.75
765.826	12.75
766.574	11.75
767.322	12.75
768.07	13.75
768.817	14.75
769.565	13.75
770.312	11.75
771.06	12.75
771.807	12.75
772.554	15.75
773.302	10.75
774.049	12.75
774.796	14.75
775.543	15.75
776.29	13.75
777.036	13.75
777.783	13.75
778.53	11.75
779.276	11.75
780.023	11.75
780.769	15.75
781.516	13.75
782.262	13.75
783.008	14.75
783.754	13.75
784.5	12.75
785.246	16.75
785.992	16.75
786.738	16.75
787.484	14.75
788.23	11.75
788.975	13.75
789.721	14.75
790.466	9.75
791.212	16.75
791.957	11.75
792.702	11.75
793.447	11.75
794.193	12.75
794.938	12.75
795.683	14.75
796.427	14.75
797.172	10.75
797.917	12.75
798.662	12.75
799.406	11.75
800.151	9.75
800.895	10.75
801.64	10.75
802.384	10.75
803.128	10.75
803.872	10.75
804.616	12.75
805.36	11.75
806.104	8.75
806.848	9.75
807.592	8.75
808.336	11.75
809.079	9.75
809.823	8.75
810.566	11.75
811.31	7.75
812.053	7.75
812.796	6.75
813.539	9.75
814.283	7.75
815.026	9.75
815.769	7.75
816.511	9.75
817.254	6.75
817.997	8.75
818.74	8.75
819.482	7.75
820.225	9.75
820.967	7.75
821.71	5.75
822.452	9.75
823.194	5.75
823.936	6.75
824.678	2.75
825.42	6.75
826.162	6.75
826.904	7.75
827.646	7.75
828.388	7.75
829.129	8.75
829.871	5.75
830.612	6.75
831.354	7.75
832.095	4.75
832.836	8.75
833.577	4.75
834.319	6.75
835.06	6.75
835.801	8.75
836.542	4.75
837.282	6.75
838.023	2.75
838.764	5.75
839.504	5.75
840.245	6.75
840.985	3.75
841.726	5.75
842.466	5.75
843.206	5.75
843.946	3.75
844.687	4.75
845.427	3.75
846.166	3.75
846.906	4.75
847.646	4.75
848.386	5.75
849.125	4.75
849.865	4.75
850.605	3.75
851.344	3.75
852.083	4.75
852.823	7.75
853.562	4.75
854.301	4.75
855.04	5.75
855.779	4.75
856.518	4.75
857.257	2.75
857.995	5.75
858.734	4.75
859.473	2.75
860.211	4.75
860.95	6.75
861.688	3.75
862.426	3.75
863.165	3.75
863.903	4.75
864.641	2.75
865.379	2.75
866.117	2.75
866.855	3.75
867.593	2.75
868.33	0.75
869.068	5.75
869.806	0.75
870.543	2.75
871.28	2.75
872.018	4.75
872.755	2.75
873.492	3.75
874.229	3.75
874.967	1.75
875.703	5.75
876.44	4.75
877.177	2.75
877.914	1.75
878.651	2.75
879.387	1.75
880.124	2.75
880.86	0.75
881.597	1.75
882.333	2.75
883.069	0.75
883.806	3.75
884.542	3.75
885.278	1.75
886.014	2.75
886.749	1.75
887.485	2.75
888.221	-1.25
888.957	3.75
889.692	0.75
890.428	1.75
891.163	1.75
891.899	0.75
892.634	2.75
893.369	1.75
894.104	2.75
894.839	2.75
895.574	2.75
896.309	1.75
897.044	2.75
897.779	0.75
898.514	4.75
899.248	2.75
899.983	2.75
900.717	1.75
901.452	3.75
902.186	-0.25
902.92	0.75
903.654	0.75
904.389	1.75
905.123	0.75
905.857	3.75
906.59	-0.25
907.324	2.75
908.058	-0.25
908.792	1.75
909.525	2.75
910.259	1.75
910.992	1.75
911.726	1.75
912.459	-0.25
913.192	2.75
913.925	0.75
914.658	3.75
915.391	0.75
916.124	1.75
916.857	0.75
917.59	3.75
918.323	0.75
919.055	1.75
919.788	0.75
920.521	1.75
921.253	3.75
921.985	3.75
922.718	1.75
923.45	2.75
924.182	0.75
924.914	0.75
925.646	1.75
926.378	0.75
927.11	2.75
927.841	0.75
928.573	1.75
929.305	3.75
930.036	-0.25
930.768	-1.25
931.499	3.75
932.23	2.75
932.962	2.75
933.693	-0.25
934.424	0.75
935.155	1.75
935.886	1.75
936.617	-0.25
937.348	0.75
938.078	1.75
938.809	2.75
939.54	1.75
940.27	0.75
941.001	0.75
941.731	1.75
942.461	0.75
943.191	0.75
943.922	0.75
944.652	0.75
945.382	-0.25
946.112	-0.25
946.841	2.75
947.571	-1.25
948.301	0.75
949.031	-1.25
949.76	1.75
950.49	1.75
951.219	1.75
951.948	0.75
952.678	1.75
953.407	0.75
954.136	0.75
954.865	1.75
955.594	2.75
956.323	-0.25
957.052	0.75
957.78	0.75
958.509	1.75
959.238	1.75
959.966	-0.25
960.695	0.75
961.423	3.75
962.151	1.75
962.88	-1.25
963.608	-0.25
964.336	-1.25
965.064	1.75
965.792	0.75
966.52	2.75
967.247	0.75
967.975	0.75
968.703	1.75
969.43	-0.25
970.158	2.75
970.885	0.75
971.613	1.75
972.34	-1.25
973.067	-0.25
973.794	0.75
974.521	0.75
975.248	-0.25
975.975	0.75
976.702	1.75
977.429	1.75
978.156	2.75
978.882	2.75
979.609	-0.25
980.335	-0.25
981.062	0.75
981.788	0.75
982.514	1.75
983.24	0.75
983.967	0.75
984.693	-0.25
985.419	-0.25
986.144	0.75
986.87	-1.25
987.596	0.75
988.322	-0.25
989.047	1.75
989.773	1.75
990.498	0.75
991.224	0.75
991.949	1.75
992.674	1.75
993.399	-0.25
994.124	1.75
994.849	-0.25
995.574	0.75
996.299	0.75
997.024	1.75
997.749	1.75
998.473	0.75
999.198	1.75
999.922	0.75
1000.647	0.75
1001.371	1.75
1002.095	-1.25
1002.82	-1.25
1003.544	-1.25
1004.268	4.75
1004.992	4.75
1005.716	1.75
1006.439	6.75
1007.163	5.75
1007.887	4.75
1008.611	1.75
1009.334	2.75
1010.058	1.75
1010.781	1.75
1011.504	0.75
1012.228	-0.25
1012.951	0.75
1013.674	-0.25
1014.397	0.75
1015.12	0.75
