节点500_565_QEPB04081__102__09-52-07-978.txt的数据

Date: Thu Nov 13 09:52:07 CST 2025
User: PC
Spectrometer: QEPB0408
触发模式: 0
积分时间 (秒): 1.000000E-2
Scans to average: 1
启用暗噪声校正: true
启用非线性校正: false
滑动平均宽度: 0
X轴模式: Wavelengths
Number of Pixels in Spectrum: 1044
>>>>>Begin Spectral Data<<<<<
220.843	3.88
221.644	4.88
222.444	6.88
223.244	5.88
224.045	5.88
224.845	6.88
225.645	4.88
226.445	6.88
227.245	4.88
228.045	7.88
228.845	7.88
229.645	6.88
230.444	5.88
231.244	6.88
232.043	6.88
232.843	8.88
233.642	7.88
234.442	5.88
235.241	10.88
236.04	5.88
236.839	9.88
237.638	8.88
238.437	8.88
239.236	9.88
240.035	12.88
240.833	10.88
241.632	8.88
242.43	10.88
243.229	10.88
244.027	11.88
244.826	12.88
245.624	9.88
246.422	13.88
247.22	12.88
248.018	11.88
248.816	13.88
249.614	11.88
250.412	10.88
251.21	14.88
252.007	13.88
252.805	16.88
253.602	14.88
254.4	13.88
255.197	13.88
255.994	16.88
256.791	15.88
257.589	20.88
258.386	17.88
259.183	17.88
259.979	20.88
260.776	20.88
261.573	21.88
262.37	18.88
263.166	21.88
263.963	20.88
264.759	22.88
265.556	24.88
266.352	25.88
267.148	26.88
267.944	24.88
268.74	27.88
269.536	24.88
270.332	30.88
271.128	26.88
271.924	25.88
272.719	28.88
273.515	29.88
274.311	28.88
275.106	29.88
275.901	29.88
276.697	33.88
277.492	30.88
278.287	29.88
279.082	31.88
279.877	29.88
280.672	31.88
281.467	32.88
282.262	30.88
283.056	31.88
283.851	30.88
284.646	30.88
285.44	29.88
286.234	29.88
287.029	28.88
287.823	29.88
288.617	29.88
289.411	29.88
290.205	27.88
290.999	30.88
291.793	28.88
292.587	29.88
293.381	28.88
294.174	24.88
294.968	25.88
295.761	26.88
296.555	23.88
297.348	22.88
298.141	23.88
298.935	26.88
299.728	22.88
300.521	22.88
301.314	22.88
302.107	22.88
302.899	20.88
303.692	19.88
304.485	22.88
305.277	18.88
306.07	18.88
306.862	20.88
307.655	17.88
308.447	19.88
309.239	17.88
310.031	18.88
310.823	17.88
311.615	16.88
312.407	13.88
313.199	11.88
313.991	14.88
314.783	15.88
315.574	13.88
316.366	15.88
317.157	14.88
317.949	13.88
318.74	11.88
319.531	11.88
320.322	14.88
321.113	11.88
321.904	11.88
322.695	12.88
323.486	13.88
324.277	9.88
325.068	11.88
325.858	12.88
326.649	11.88
327.439	10.88
328.23	12.88
329.02	13.88
329.81	11.88
330.6	10.88
331.391	12.88
332.181	10.88
332.971	9.88
333.76	9.88
334.55	10.88
335.34	10.88
336.13	10.88
336.919	10.88
337.709	8.88
338.498	9.88
339.287	9.88
340.077	10.88
340.866	10.88
341.655	10.88
342.444	10.88
343.233	9.88
344.022	8.88
344.811	9.88
345.6	8.88
346.388	10.88
347.177	10.88
347.965	9.88
348.754	10.88
349.542	9.88
350.33	10.88
351.119	9.88
351.907	8.88
352.695	8.88
353.483	12.88
354.271	8.88
355.059	7.88
355.846	8.88
356.634	9.88
357.422	8.88
358.209	9.88
358.997	8.88
359.784	9.88
360.571	8.88
361.359	8.88
362.146	7.88
362.933	10.88
363.72	9.88
364.507	11.88
365.294	7.88
366.081	8.88
366.867	6.88
367.654	8.88
368.44	9.88
369.227	8.88
370.013	10.88
370.8	9.88
371.586	11.88
372.372	6.88
373.158	7.88
373.944	8.88
374.73	7.88
375.516	8.88
376.302	9.88
377.088	8.88
377.873	8.88
378.659	8.88
379.445	6.88
380.23	8.88
381.015	8.88
381.801	9.88
382.586	12.88
383.371	10.88
384.156	8.88
384.941	9.88
385.726	9.88
386.511	9.88
387.296	8.88
388.08	9.88
388.865	12.88
389.649	11.88
390.434	11.88
391.218	7.88
392.003	7.88
392.787	8.88
393.571	11.88
394.355	9.88
395.139	8.88
395.923	9.88
396.707	13.88
397.491	11.88
398.274	11.88
399.058	11.88
399.842	12.88
400.625	10.88
401.408	11.88
402.192	11.88
402.975	15.88
403.758	12.88
404.541	14.88
405.324	11.88
406.107	13.88
406.89	11.88
407.673	14.88
408.456	13.88
409.238	11.88
410.021	14.88
410.803	13.88
411.586	13.88
412.368	15.88
413.151	12.88
413.933	16.88
414.715	13.88
415.497	17.88
416.279	14.88
417.061	16.88
417.843	17.88
418.624	13.88
419.406	17.88
420.188	17.88
420.969	16.88
421.751	21.88
422.532	17.88
423.313	18.88
424.095	16.88
424.876	21.88
425.657	17.88
426.438	20.88
427.219	20.88
428	24.88
428.78	24.88
429.561	24.88
430.342	22.88
431.122	27.88
431.903	25.88
432.683	27.88
433.464	28.88
434.244	30.88
435.024	32.88
435.804	32.88
436.584	31.88
437.364	33.88
438.144	36.88
438.924	38.88
439.704	41.88
440.483	44.88
441.263	47.88
442.042	48.88
442.822	52.88
443.601	56.88
444.38	57.88
445.16	64.88
445.939	70.88
446.718	75.88
447.497	83.88
448.276	86.88
449.054	94.88
449.833	107.88
450.612	117.88
451.391	126.88
452.169	142.88
452.948	150.88
453.726	166.88
454.504	180.88
455.282	201.88
456.061	230.88
456.839	256.88
457.617	281.88
458.395	320.88
459.172	355.88
459.95	387.88
460.728	436.88
461.506	492.88
462.283	554.88
463.061	624.88
463.838	688.88
464.615	759.88
465.393	857.88
466.17	956.88
466.947	1073.88
467.724	1190.88
468.501	1324.88
469.278	1476.88
470.055	1646.88
470.831	1824.88
471.608	2034.88
472.385	2243.88
473.161	2518.88
473.938	2786.88
474.714	3073.88
475.49	3365.88
476.266	3753.88
477.043	4150.88
477.819	4534.88
478.595	5004.88
479.371	5490.88
480.146	6049.88
480.922	6647.88
481.698	7305.88
482.473	8017.88
483.249	8729.88
484.024	9575.88
484.8	10489.88
485.575	11427.88
486.35	12507.88
487.126	13628.88
487.901	14817.88
488.676	16146.88
489.451	17485.88
490.225	18996.88
491	20493.88
491.775	22057.88
492.55	23776.88
493.324	25419.88
494.099	27048.88
494.873	28847.88
495.647	30746.88
496.422	32483.88
497.196	34212.88
497.97	35826.88
498.744	37379.88
499.518	38681.88
500.292	40032.88
501.066	41208.88
501.839	42263.88
502.613	42975.88
503.387	43505.88
504.16	43787.88
504.934	43769.88
505.707	43538.88
506.48	43206.88
507.253	42652.88
508.027	41788.88
508.8	40603.88
509.573	39529.88
510.346	38308.88
511.118	37055.88
511.891	35762.88
512.664	34468.88
513.437	33058.88
514.209	31638.88
514.982	30407.88
515.754	29064.88
516.526	27810.88
517.298	26598.88
518.071	25468.88
518.843	24523.88
519.615	23487.88
520.387	22551.88
521.159	21714.88
521.93	20795.88
522.702	19938.88
523.474	19061.88
524.245	18311.88
525.017	17597.88
525.788	16760.88
526.56	15992.88
527.331	15209.88
528.102	14485.88
528.873	13759.88
529.644	13049.88
530.415	12366.88
531.186	11729.88
531.957	11150.88
532.728	10533.88
533.498	9937.88
534.269	9399.88
535.039	8872.88
535.81	8413.88
536.58	7968.88
537.351	7512.88
538.121	7105.88
538.891	6727.88
539.661	6346.88
540.431	6010.88
541.201	5702.88
541.971	5394.88
542.741	5111.88
543.51	4845.88
544.28	4594.88
545.05	4386.88
545.819	4157.88
546.588	3944.88
547.358	3770.88
548.127	3573.88
548.896	3388.88
549.665	3223.88
550.434	3065.88
551.203	2887.88
551.972	2742.88
552.741	2586.88
553.51	2440.88
554.278	2320.88
555.047	2174.88
555.815	2036.88
556.584	1944.88
557.352	1838.88
558.121	1729.88
558.889	1616.88
559.657	1543.88
560.425	1467.88
561.193	1372.88
561.961	1314.88
562.729	1238.88
563.496	1159.88
564.264	1109.88
565.032	1039.88
565.799	994.88
566.567	946.88
567.334	884.88
568.101	823.88
568.869	781.88
569.636	741.88
570.403	695.88
571.17	653.88
571.937	634.88
572.704	582.88
573.471	556.88
574.237	524.88
575.004	493.88
575.771	470.88
576.537	446.88
577.303	416.88
578.07	387.88
578.836	368.88
579.602	349.88
580.368	330.88
581.134	315.88
581.9	302.88
582.666	283.88
583.432	268.88
584.198	257.88
584.964	237.88
585.729	232.88
586.495	219.88
587.26	211.88
588.025	192.88
588.791	186.88
589.556	177.88
590.321	167.88
591.086	154.88
591.851	153.88
592.616	148.88
593.381	140.88
594.146	130.88
594.911	125.88
595.675	121.88
596.44	118.88
597.204	109.88
597.969	107.88
598.733	103.88
599.497	98.88
600.261	91.88
601.025	87.88
601.79	85.88
602.553	84.88
603.317	78.88
604.081	73.88
604.845	72.88
605.609	68.88
606.372	63.88
607.136	67.88
607.899	60.88
608.662	54.88
609.426	55.88
610.189	51.88
610.952	52.88
611.715	49.88
612.478	48.88
613.241	49.88
614.004	45.88
614.767	43.88
615.529	40.88
616.292	42.88
617.055	37.88
617.817	38.88
618.579	36.88
619.342	36.88
620.104	31.88
620.866	32.88
621.628	30.88
622.39	32.88
623.152	32.88
623.914	32.88
624.676	26.88
625.438	28.88
626.199	24.88
626.961	26.88
627.722	25.88
628.484	25.88
629.245	20.88
630.006	23.88
630.768	21.88
631.529	23.88
632.29	22.88
633.051	20.88
633.812	18.88
634.573	19.88
635.333	19.88
636.094	19.88
636.855	16.88
637.615	17.88
638.376	20.88
639.136	19.88
639.896	17.88
640.657	13.88
641.417	18.88
642.177	14.88
642.937	16.88
643.697	14.88
644.457	16.88
645.216	14.88
645.976	13.88
646.736	14.88
647.495	14.88
648.255	12.88
649.014	12.88
649.774	11.88
650.533	14.88
651.292	13.88
652.051	11.88
652.81	12.88
653.569	13.88
654.328	10.88
655.087	12.88
655.846	11.88
656.604	7.88
657.363	12.88
658.121	9.88
658.88	9.88
659.638	10.88
660.397	9.88
661.155	12.88
661.913	10.88
662.671	9.88
663.429	10.88
664.187	8.88
664.945	5.88
665.703	10.88
666.46	8.88
667.218	8.88
667.976	8.88
668.733	9.88
669.49	7.88
670.248	9.88
671.005	8.88
671.762	9.88
672.519	8.88
673.276	9.88
674.033	7.88
674.79	7.88
675.547	5.88
676.304	7.88
677.06	7.88
677.817	7.88
678.574	6.88
679.33	8.88
680.086	5.88
680.843	4.88
681.599	9.88
682.355	5.88
683.111	7.88
683.867	7.88
684.623	7.88
685.379	8.88
686.135	5.88
686.89	8.88
687.646	6.88
688.402	6.88
689.157	5.88
689.912	5.88
690.668	8.88
691.423	6.88
692.178	6.88
692.933	6.88
693.688	7.88
694.443	7.88
695.198	5.88
695.953	7.88
696.708	6.88
697.462	4.88
698.217	7.88
698.972	6.88
699.726	7.88
700.48	7.88
701.235	6.88
701.989	6.88
702.743	7.88
703.497	4.88
704.251	7.88
705.005	6.88
705.759	5.88
706.513	6.88
707.266	6.88
708.02	6.88
708.774	7.88
709.527	8.88
710.28	5.88
711.034	6.88
711.787	7.88
712.54	5.88
713.293	5.88
714.046	6.88
714.799	6.88
715.552	9.88
716.305	6.88
717.058	6.88
717.81	7.88
718.563	6.88
719.315	5.88
720.068	6.88
720.82	7.88
721.573	7.88
722.325	8.88
723.077	5.88
723.829	7.88
724.581	3.88
725.333	4.88
726.085	7.88
726.836	7.88
727.588	8.88
728.34	6.88
729.091	7.88
729.843	5.88
730.594	9.88
731.346	7.88
732.097	7.88
732.848	9.88
733.599	8.88
734.35	7.88
735.101	8.88
735.852	8.88
736.603	7.88
737.354	8.88
738.104	6.88
738.855	5.88
739.605	8.88
740.356	8.88
741.106	9.88
741.856	8.88
742.607	9.88
743.357	7.88
744.107	9.88
744.857	9.88
745.607	8.88
746.357	9.88
747.106	6.88
747.856	11.88
748.606	8.88
749.355	10.88
750.105	9.88
750.854	9.88
751.603	9.88
752.353	9.88
753.102	8.88
753.851	12.88
754.6	10.88
755.349	11.88
756.098	12.88
756.847	11.88
757.595	10.88
758.344	12.88
759.093	11.88
759.841	11.88
760.589	10.88
761.338	10.88
762.086	11.88
762.834	11.88
763.582	12.88
764.331	12.88
765.079	11.88
765.826	12.88
766.574	12.88
767.322	13.88
768.07	12.88
768.817	13.88
769.565	13.88
770.312	13.88
771.06	12.88
771.807	12.88
772.554	14.88
773.302	13.88
774.049	12.88
774.796	13.88
775.543	14.88
776.29	15.88
777.036	16.88
777.783	16.88
778.53	13.88
779.276	13.88
780.023	13.88
780.769	14.88
781.516	14.88
782.262	13.88
783.008	15.88
783.754	12.88
784.5	15.88
785.246	12.88
785.992	13.88
786.738	14.88
787.484	13.88
788.23	15.88
788.975	12.88
789.721	13.88
790.466	12.88
791.212	12.88
791.957	13.88
792.702	13.88
793.447	14.88
794.193	12.88
794.938	15.88
795.683	13.88
796.427	12.88
797.172	9.88
797.917	11.88
798.662	13.88
799.406	11.88
800.151	11.88
800.895	11.88
801.64	11.88
802.384	9.88
803.128	7.88
803.872	10.88
804.616	10.88
805.36	11.88
806.104	9.88
806.848	7.88
807.592	7.88
808.336	9.88
809.079	9.88
809.823	8.88
810.566	7.88
811.31	9.88
812.053	7.88
812.796	7.88
813.539	7.88
814.283	5.88
815.026	6.88
815.769	8.88
816.511	7.88
817.254	5.88
817.997	4.88
818.74	7.88
819.482	7.88
820.225	5.88
820.967	6.88
821.71	5.88
822.452	5.88
823.194	5.88
823.936	7.88
824.678	7.88
825.42	7.88
826.162	6.88
826.904	6.88
827.646	6.88
828.388	6.88
829.129	7.88
829.871	6.88
830.612	7.88
831.354	4.88
832.095	5.88
832.836	6.88
833.577	5.88
834.319	2.88
835.06	7.88
835.801	5.88
836.542	6.88
837.282	4.88
838.023	6.88
838.764	3.88
839.504	6.88
840.245	6.88
840.985	3.88
841.726	6.88
842.466	6.88
843.206	4.88
843.946	6.88
844.687	2.88
845.427	4.88
846.166	2.88
846.906	2.88
847.646	4.88
848.386	5.88
849.125	6.88
849.865	2.88
850.605	3.88
851.344	3.88
852.083	4.88
852.823	6.88
853.562	4.88
854.301	4.88
855.04	3.88
855.779	3.88
856.518	4.88
857.257	3.88
857.995	3.88
858.734	3.88
859.473	5.88
860.211	3.88
860.95	2.88
861.688	4.88
862.426	3.88
863.165	1.88
863.903	3.88
864.641	4.88
865.379	3.88
866.117	5.88
866.855	3.88
867.593	4.88
868.33	2.88
869.068	1.88
869.806	0.88
870.543	1.88
871.28	2.88
872.018	0.88
872.755	2.88
873.492	2.88
874.229	2.88
874.967	3.88
875.703	3.88
876.44	2.88
877.177	1.88
877.914	1.88
878.651	-0.12
879.387	2.88
880.124	-0.12
880.86	3.88
881.597	3.88
882.333	0.88
883.069	3.88
883.806	0.88
884.542	3.88
885.278	1.88
886.014	1.88
886.749	2.88
887.485	2.88
888.221	1.88
888.957	1.88
889.692	1.88
890.428	0.88
891.163	-0.12
891.899	0.88
892.634	-0.12
893.369	1.88
894.104	-0.12
894.839	0.88
895.574	1.88
896.309	3.88
897.044	3.88
897.779	3.88
898.514	-0.12
899.248	2.88
899.983	1.88
900.717	3.88
901.452	0.88
902.186	1.88
902.92	0.88
903.654	1.88
904.389	0.88
905.123	2.88
905.857	0.88
906.59	0.88
907.324	1.88
908.058	-2.12
908.792	1.88
909.525	-0.12
910.259	0.88
910.992	1.88
911.726	1.88
912.459	-1.12
913.192	-1.12
913.925	0.88
914.658	1.88
915.391	2.88
916.124	0.88
916.857	0.88
917.59	0.88
918.323	-1.12
919.055	-0.12
919.788	0.88
920.521	1.88
921.253	-0.12
921.985	1.88
922.718	0.88
923.45	-0.12
924.182	0.88
924.914	1.88
925.646	2.88
926.378	0.88
927.11	1.88
927.841	-0.12
928.573	-0.12
929.305	-1.12
930.036	1.88
930.768	2.88
931.499	0.88
932.23	1.88
932.962	0.88
933.693	-0.12
934.424	2.88
935.155	0.88
935.886	0.88
936.617	0.88
937.348	0.88
938.078	-1.12
938.809	2.88
939.54	0.88
940.27	0.88
941.001	-1.12
941.731	1.88
942.461	0.88
943.191	0.88
943.922	-1.12
944.652	0.88
945.382	-0.12
946.112	0.88
946.841	-1.12
947.571	-0.12
948.301	0.88
949.031	0.88
949.76	-0.12
950.49	0.88
951.219	-0.12
951.948	-0.12
952.678	1.88
953.407	0.88
954.136	-0.12
954.865	0.88
955.594	0.88
956.323	0.88
957.052	-0.12
957.78	-1.12
958.509	0.88
959.238	-1.12
959.966	1.88
960.695	0.88
961.423	0.88
962.151	0.88
962.88	0.88
963.608	-0.12
964.336	0.88
965.064	0.88
965.792	-2.12
966.52	0.88
967.247	0.88
967.975	-0.12
968.703	0.88
969.43	1.88
970.158	-0.12
970.885	-1.12
971.613	0.88
972.34	-1.12
973.067	0.88
973.794	1.88
974.521	2.88
975.248	0.88
975.975	0.88
976.702	1.88
977.429	-1.12
978.156	0.88
978.882	0.88
979.609	3.88
980.335	0.88
981.062	1.88
981.788	-2.12
982.514	-0.12
983.24	0.88
983.967	0.88
984.693	0.88
985.419	0.88
986.144	-0.12
986.87	2.88
987.596	0.88
988.322	0.88
989.047	1.88
989.773	0.88
990.498	-1.12
991.224	-0.12
991.949	-0.12
992.674	-0.12
993.399	1.88
994.124	0.88
994.849	-1.12
995.574	0.88
996.299	-0.12
997.024	0.88
997.749	0.88
998.473	1.88
999.198	0.88
999.922	0.88
1000.647	-1.12
1001.371	3.88
1002.095	-1.12
1002.82	-2.12
1003.544	-2.12
1004.268	2.88
1004.992	2.88
1005.716	3.88
1006.439	5.88
1007.163	2.88
1007.887	4.88
1008.611	-1.12
1009.334	1.88
1010.058	0.88
1010.781	-1.12
1011.504	-0.12
1012.228	1.88
1012.951	0.88
1013.674	0.88
1014.397	1.88
1015.12	-2.12
