节点500_565_QEPB04081__39__09-51-06-070.txt的数据

Date: Thu Nov 13 09:51:06 CST 2025
User: PC
Spectrometer: QEPB0408
触发模式: 0
积分时间 (秒): 1.000000E-2
Scans to average: 1
启用暗噪声校正: true
启用非线性校正: false
滑动平均宽度: 0
X轴模式: Wavelengths
Number of Pixels in Spectrum: 1044
>>>>>Begin Spectral Data<<<<<
220.843	4.75
221.644	0.75
222.444	4.75
223.244	5.75
224.045	5.75
224.845	2.75
225.645	1.75
226.445	5.75
227.245	4.75
228.045	3.75
228.845	6.75
229.645	5.75
230.444	6.75
231.244	6.75
232.043	5.75
232.843	5.75
233.642	9.75
234.442	7.75
235.241	5.75
236.04	7.75
236.839	7.75
237.638	8.75
238.437	8.75
239.236	8.75
240.035	8.75
240.833	10.75
241.632	8.75
242.43	10.75
243.229	11.75
244.027	11.75
244.826	11.75
245.624	11.75
246.422	11.75
247.22	13.75
248.018	11.75
248.816	11.75
249.614	12.75
250.412	13.75
251.21	14.75
252.007	16.75
252.805	14.75
253.602	13.75
254.4	15.75
255.197	15.75
255.994	17.75
256.791	18.75
257.589	18.75
258.386	19.75
259.183	16.75
259.979	20.75
260.776	20.75
261.573	20.75
262.37	21.75
263.166	23.75
263.963	22.75
264.759	21.75
265.556	24.75
266.352	23.75
267.148	25.75
267.944	24.75
268.74	25.75
269.536	27.75
270.332	27.75
271.128	25.75
271.924	29.75
272.719	31.75
273.515	30.75
274.311	28.75
275.106	31.75
275.901	32.75
276.697	34.75
277.492	29.75
278.287	30.75
279.082	29.75
279.877	33.75
280.672	30.75
281.467	32.75
282.262	32.75
283.056	29.75
283.851	29.75
284.646	32.75
285.44	31.75
286.234	32.75
287.029	30.75
287.823	32.75
288.617	28.75
289.411	28.75
290.205	26.75
290.999	27.75
291.793	27.75
292.587	26.75
293.381	24.75
294.174	26.75
294.968	24.75
295.761	22.75
296.555	23.75
297.348	22.75
298.141	21.75
298.935	26.75
299.728	23.75
300.521	24.75
301.314	20.75
302.107	23.75
302.899	20.75
303.692	16.75
304.485	19.75
305.277	15.75
306.07	18.75
306.862	19.75
307.655	17.75
308.447	17.75
309.239	19.75
310.031	19.75
310.823	16.75
311.615	18.75
312.407	14.75
313.199	14.75
313.991	16.75
314.783	11.75
315.574	12.75
316.366	9.75
317.157	12.75
317.949	11.75
318.74	14.75
319.531	11.75
320.322	11.75
321.113	11.75
321.904	12.75
322.695	8.75
323.486	11.75
324.277	12.75
325.068	11.75
325.858	11.75
326.649	9.75
327.439	10.75
328.23	10.75
329.02	10.75
329.81	8.75
330.6	7.75
331.391	8.75
332.181	9.75
332.971	7.75
333.76	13.75
334.55	10.75
335.34	8.75
336.13	10.75
336.919	8.75
337.709	10.75
338.498	7.75
339.287	8.75
340.077	9.75
340.866	10.75
341.655	8.75
342.444	12.75
343.233	10.75
344.022	9.75
344.811	10.75
345.6	9.75
346.388	10.75
347.177	8.75
347.965	8.75
348.754	7.75
349.542	9.75
350.33	9.75
351.119	9.75
351.907	11.75
352.695	9.75
353.483	8.75
354.271	9.75
355.059	7.75
355.846	8.75
356.634	8.75
357.422	8.75
358.209	9.75
358.997	9.75
359.784	7.75
360.571	8.75
361.359	7.75
362.146	9.75
362.933	7.75
363.72	8.75
364.507	7.75
365.294	7.75
366.081	9.75
366.867	6.75
367.654	5.75
368.44	7.75
369.227	8.75
370.013	7.75
370.8	7.75
371.586	6.75
372.372	6.75
373.158	6.75
373.944	7.75
374.73	7.75
375.516	4.75
376.302	10.75
377.088	6.75
377.873	9.75
378.659	9.75
379.445	6.75
380.23	7.75
381.015	7.75
381.801	8.75
382.586	7.75
383.371	11.75
384.156	9.75
384.941	9.75
385.726	7.75
386.511	8.75
387.296	9.75
388.08	8.75
388.865	8.75
389.649	8.75
390.434	11.75
391.218	11.75
392.003	9.75
392.787	11.75
393.571	11.75
394.355	9.75
395.139	8.75
395.923	9.75
396.707	7.75
397.491	9.75
398.274	12.75
399.058	8.75
399.842	10.75
400.625	12.75
401.408	10.75
402.192	14.75
402.975	11.75
403.758	15.75
404.541	14.75
405.324	11.75
406.107	12.75
406.89	11.75
407.673	14.75
408.456	14.75
409.238	15.75
410.021	11.75
410.803	11.75
411.586	15.75
412.368	12.75
413.151	16.75
413.933	12.75
414.715	18.75
415.497	15.75
416.279	16.75
417.061	16.75
417.843	17.75
418.624	16.75
419.406	16.75
420.188	17.75
420.969	16.75
421.751	19.75
422.532	19.75
423.313	17.75
424.095	20.75
424.876	21.75
425.657	18.75
426.438	23.75
427.219	23.75
428	19.75
428.78	22.75
429.561	23.75
430.342	25.75
431.122	27.75
431.903	26.75
432.683	30.75
433.464	29.75
434.244	30.75
435.024	30.75
435.804	33.75
436.584	33.75
437.364	32.75
438.144	34.75
438.924	38.75
439.704	37.75
440.483	38.75
441.263	42.75
442.042	49.75
442.822	53.75
443.601	54.75
444.38	59.75
445.16	63.75
445.939	66.75
446.718	70.75
447.497	79.75
448.276	82.75
449.054	89.75
449.833	101.75
450.612	107.75
451.391	118.75
452.169	128.75
452.948	141.75
453.726	162.75
454.504	178.75
455.282	199.75
456.061	221.75
456.839	242.75
457.617	271.75
458.395	308.75
459.172	348.75
459.95	379.75
460.728	426.75
461.506	484.75
462.283	533.75
463.061	594.75
463.838	669.75
464.615	755.75
465.393	836.75
466.17	936.75
466.947	1038.75
467.724	1174.75
468.501	1312.75
469.278	1446.75
470.055	1611.75
470.831	1793.75
471.608	2022.75
472.385	2219.75
473.161	2488.75
473.938	2757.75
474.714	3064.75
475.49	3375.75
476.266	3772.75
477.043	4160.75
477.819	4602.75
478.595	5060.75
479.371	5545.75
480.146	6150.75
480.922	6782.75
481.698	7497.75
482.473	8199.75
483.249	8942.75
484.024	9869.75
484.8	10834.75
485.575	11871.75
486.35	12975.75
487.126	14145.75
487.901	15444.75
488.676	16867.75
489.451	18303.75
490.225	19849.75
491	21486.75
491.775	23070.75
492.55	24922.75
493.324	26728.75
494.099	28488.75
494.873	30344.75
495.647	32302.75
496.422	34189.75
497.196	35880.75
497.97	37544.75
498.744	39156.75
499.518	40426.75
500.292	41753.75
501.066	42889.75
501.839	43752.75
502.613	44426.75
503.387	44893.75
504.16	45080.75
504.934	45036.75
505.707	44662.75
506.48	44035.75
507.253	43409.75
508.027	42309.75
508.8	41137.75
509.573	39828.75
510.346	38484.75
511.118	37091.75
511.891	35848.75
512.664	34363.75
513.437	32896.75
514.209	31399.75
514.982	30140.75
515.754	28951.75
516.526	27617.75
517.298	26423.75
518.071	25338.75
518.843	24241.75
519.615	23235.75
520.387	22278.75
521.159	21481.75
521.93	20614.75
522.702	19727.75
523.474	18956.75
524.245	18128.75
525.017	17410.75
525.788	16537.75
526.56	15686.75
527.331	14930.75
528.102	14240.75
528.873	13477.75
529.644	12771.75
530.415	12101.75
531.186	11446.75
531.957	10871.75
532.728	10291.75
533.498	9722.75
534.269	9208.75
535.039	8668.75
535.81	8183.75
536.58	7755.75
537.351	7309.75
538.121	6897.75
538.891	6577.75
539.661	6204.75
540.431	5886.75
541.201	5512.75
541.971	5263.75
542.741	5005.75
543.51	4721.75
544.28	4506.75
545.05	4263.75
545.819	4079.75
546.588	3821.75
547.358	3661.75
548.127	3477.75
548.896	3299.75
549.665	3127.75
550.434	2959.75
551.203	2788.75
551.972	2669.75
552.741	2507.75
553.51	2370.75
554.278	2239.75
555.047	2085.75
555.815	2007.75
556.584	1883.75
557.352	1785.75
558.121	1665.75
558.889	1569.75
559.657	1484.75
560.425	1404.75
561.193	1324.75
561.961	1263.75
562.729	1201.75
563.496	1125.75
564.264	1065.75
565.032	1009.75
565.799	961.75
566.567	899.75
567.334	862.75
568.101	802.75
568.869	763.75
569.636	721.75
570.403	687.75
571.17	651.75
571.937	601.75
572.704	567.75
573.471	542.75
574.237	509.75
575.004	480.75
575.771	450.75
576.537	432.75
577.303	394.75
578.07	374.75
578.836	355.75
579.602	333.75
580.368	319.75
581.134	294.75
581.9	289.75
582.666	273.75
583.432	259.75
584.198	244.75
584.964	228.75
585.729	219.75
586.495	211.75
587.26	193.75
588.025	184.75
588.791	178.75
589.556	172.75
590.321	164.75
591.086	153.75
591.851	147.75
592.616	139.75
593.381	133.75
594.146	126.75
594.911	117.75
595.675	120.75
596.44	110.75
597.204	108.75
597.969	100.75
598.733	98.75
599.497	93.75
600.261	91.75
601.025	88.75
601.79	82.75
602.553	81.75
603.317	74.75
604.081	70.75
604.845	70.75
605.609	65.75
606.372	61.75
607.136	62.75
607.899	59.75
608.662	57.75
609.426	52.75
610.189	50.75
610.952	51.75
611.715	52.75
612.478	42.75
613.241	44.75
614.004	43.75
614.767	41.75
615.529	38.75
616.292	36.75
617.055	36.75
617.817	36.75
618.579	35.75
619.342	33.75
620.104	33.75
620.866	30.75
621.628	29.75
622.39	29.75
623.152	29.75
623.914	29.75
624.676	25.75
625.438	26.75
626.199	23.75
626.961	25.75
627.722	25.75
628.484	26.75
629.245	23.75
630.006	21.75
630.768	21.75
631.529	22.75
632.29	19.75
633.051	19.75
633.812	17.75
634.573	17.75
635.333	18.75
636.094	17.75
636.855	17.75
637.615	19.75
638.376	17.75
639.136	15.75
639.896	16.75
640.657	15.75
641.417	16.75
642.177	16.75
642.937	12.75
643.697	14.75
644.457	15.75
645.216	9.75
645.976	12.75
646.736	14.75
647.495	13.75
648.255	12.75
649.014	14.75
649.774	12.75
650.533	9.75
651.292	13.75
652.051	9.75
652.81	10.75
653.569	9.75
654.328	10.75
655.087	11.75
655.846	6.75
656.604	9.75
657.363	7.75
658.121	10.75
658.88	9.75
659.638	7.75
660.397	8.75
661.155	9.75
661.913	8.75
662.671	9.75
663.429	8.75
664.187	9.75
664.945	6.75
665.703	9.75
666.46	6.75
667.218	6.75
667.976	4.75
668.733	7.75
669.49	6.75
670.248	5.75
671.005	8.75
671.762	9.75
672.519	8.75
673.276	5.75
674.033	7.75
674.79	7.75
675.547	4.75
676.304	7.75
677.06	7.75
677.817	4.75
678.574	7.75
679.33	6.75
680.086	5.75
680.843	8.75
681.599	8.75
682.355	7.75
683.111	6.75
683.867	6.75
684.623	7.75
685.379	4.75
686.135	5.75
686.89	4.75
687.646	6.75
688.402	4.75
689.157	4.75
689.912	7.75
690.668	5.75
691.423	4.75
692.178	4.75
692.933	7.75
693.688	5.75
694.443	3.75
695.198	4.75
695.953	5.75
696.708	5.75
697.462	6.75
698.217	5.75
698.972	4.75
699.726	7.75
700.48	5.75
701.235	4.75
701.989	9.75
702.743	8.75
703.497	5.75
704.251	6.75
705.005	5.75
705.759	7.75
706.513	5.75
707.266	6.75
708.02	5.75
708.774	3.75
709.527	5.75
710.28	3.75
711.034	6.75
711.787	5.75
712.54	4.75
713.293	7.75
714.046	5.75
714.799	7.75
715.552	7.75
716.305	2.75
717.058	4.75
717.81	7.75
718.563	5.75
719.315	6.75
720.068	7.75
720.82	7.75
721.573	6.75
722.325	7.75
723.077	6.75
723.829	6.75
724.581	7.75
725.333	6.75
726.085	3.75
726.836	6.75
727.588	8.75
728.34	8.75
729.091	5.75
729.843	5.75
730.594	6.75
731.346	7.75
732.097	8.75
732.848	6.75
733.599	8.75
734.35	6.75
735.101	7.75
735.852	8.75
736.603	5.75
737.354	9.75
738.104	7.75
738.855	9.75
739.605	4.75
740.356	8.75
741.106	7.75
741.856	10.75
742.607	9.75
743.357	9.75
744.107	6.75
744.857	9.75
745.607	8.75
746.357	10.75
747.106	7.75
747.856	7.75
748.606	10.75
749.355	8.75
750.105	8.75
750.854	8.75
751.603	9.75
752.353	8.75
753.102	10.75
753.851	10.75
754.6	10.75
755.349	10.75
756.098	10.75
756.847	9.75
757.595	9.75
758.344	12.75
759.093	9.75
759.841	11.75
760.589	13.75
761.338	13.75
762.086	9.75
762.834	10.75
763.582	11.75
764.331	9.75
765.079	12.75
765.826	11.75
766.574	9.75
767.322	13.75
768.07	12.75
768.817	11.75
769.565	13.75
770.312	12.75
771.06	12.75
771.807	14.75
772.554	12.75
773.302	14.75
774.049	12.75
774.796	11.75
775.543	15.75
776.29	13.75
777.036	13.75
777.783	11.75
778.53	12.75
779.276	13.75
780.023	14.75
780.769	14.75
781.516	13.75
782.262	12.75
783.008	13.75
783.754	13.75
784.5	16.75
785.246	14.75
785.992	15.75
786.738	14.75
787.484	12.75
788.23	13.75
788.975	12.75
789.721	13.75
790.466	11.75
791.212	11.75
791.957	11.75
792.702	10.75
793.447	12.75
794.193	13.75
794.938	12.75
795.683	13.75
796.427	12.75
797.172	12.75
797.917	10.75
798.662	12.75
799.406	9.75
800.151	11.75
800.895	10.75
801.64	10.75
802.384	10.75
803.128	11.75
803.872	9.75
804.616	8.75
805.36	10.75
806.104	9.75
806.848	6.75
807.592	7.75
808.336	9.75
809.079	8.75
809.823	5.75
810.566	8.75
811.31	7.75
812.053	6.75
812.796	8.75
813.539	7.75
814.283	6.75
815.026	7.75
815.769	8.75
816.511	7.75
817.254	7.75
817.997	8.75
818.74	6.75
819.482	5.75
820.225	7.75
820.967	6.75
821.71	5.75
822.452	6.75
823.194	7.75
823.936	5.75
824.678	4.75
825.42	6.75
826.162	4.75
826.904	5.75
827.646	8.75
828.388	5.75
829.129	7.75
829.871	4.75
830.612	5.75
831.354	5.75
832.095	1.75
832.836	5.75
833.577	1.75
834.319	4.75
835.06	5.75
835.801	4.75
836.542	5.75
837.282	2.75
838.023	5.75
838.764	2.75
839.504	3.75
840.245	5.75
840.985	5.75
841.726	3.75
842.466	3.75
843.206	0.75
843.946	2.75
844.687	4.75
845.427	3.75
846.166	3.75
846.906	3.75
847.646	5.75
848.386	4.75
849.125	2.75
849.865	4.75
850.605	4.75
851.344	0.75
852.083	4.75
852.823	4.75
853.562	3.75
854.301	3.75
855.04	2.75
855.779	2.75
856.518	3.75
857.257	2.75
857.995	2.75
858.734	4.75
859.473	1.75
860.211	2.75
860.95	2.75
861.688	1.75
862.426	3.75
863.165	2.75
863.903	1.75
864.641	0.75
865.379	0.75
866.117	0.75
866.855	1.75
867.593	1.75
868.33	-0.25
869.068	1.75
869.806	0.75
870.543	2.75
871.28	-0.25
872.018	0.75
872.755	1.75
873.492	1.75
874.229	2.75
874.967	1.75
875.703	1.75
876.44	-2.25
877.177	0.75
877.914	0.75
878.651	1.75
879.387	2.75
880.124	-0.25
880.86	1.75
881.597	0.75
882.333	1.75
883.069	0.75
883.806	0.75
884.542	1.75
885.278	-0.25
886.014	1.75
886.749	2.75
887.485	-0.25
888.221	0.75
888.957	2.75
889.692	3.75
890.428	-1.25
891.163	0.75
891.899	-0.25
892.634	0.75
893.369	-2.25
894.104	0.75
894.839	1.75
895.574	-0.25
896.309	-0.25
897.044	0.75
897.779	-1.25
898.514	1.75
899.248	1.75
899.983	-1.25
900.717	0.75
901.452	0.75
902.186	-0.25
902.92	-2.25
903.654	0.75
904.389	-0.25
905.123	-0.25
905.857	0.75
906.59	0.75
907.324	-0.25
908.058	-0.25
908.792	-0.25
909.525	1.75
910.259	-1.25
910.992	0.75
911.726	-0.25
912.459	1.75
913.192	1.75
913.925	0.75
914.658	0.75
915.391	-1.25
916.124	-0.25
916.857	1.75
917.59	-1.25
918.323	1.75
919.055	-2.25
919.788	-1.25
920.521	0.75
921.253	0.75
921.985	1.75
922.718	-1.25
923.45	0.75
924.182	-0.25
924.914	0.75
925.646	1.75
926.378	-0.25
927.11	-1.25
927.841	-0.25
928.573	1.75
929.305	-0.25
930.036	0.75
930.768	-1.25
931.499	-2.25
932.23	0.75
932.962	0.75
933.693	0.75
934.424	-0.25
935.155	0.75
935.886	-0.25
936.617	-1.25
937.348	0.75
938.078	-1.25
938.809	0.75
939.54	-0.25
940.27	-2.25
941.001	-0.25
941.731	1.75
942.461	-0.25
943.191	-1.25
943.922	0.75
944.652	-0.25
945.382	-2.25
946.112	1.75
946.841	0.75
947.571	-1.25
948.301	-1.25
949.031	0.75
949.76	0.75
950.49	-1.25
951.219	0.75
951.948	-1.25
952.678	-0.25
953.407	-2.25
954.136	1.75
954.865	-0.25
955.594	-1.25
956.323	1.75
957.052	0.75
957.78	-0.25
958.509	-0.25
959.238	3.75
959.966	-1.25
960.695	0.75
961.423	0.75
962.151	0.75
962.88	-0.25
963.608	-0.25
964.336	-0.25
965.064	2.75
965.792	-0.25
966.52	0.75
967.247	-1.25
967.975	1.75
968.703	1.75
969.43	-1.25
970.158	-1.25
970.885	1.75
971.613	-0.25
972.34	0.75
973.067	0.75
973.794	-1.25
974.521	1.75
975.248	-1.25
975.975	-1.25
976.702	-0.25
977.429	0.75
978.156	-0.25
978.882	-2.25
979.609	-0.25
980.335	-1.25
981.062	0.75
981.788	1.75
982.514	-0.25
983.24	0.75
983.967	-3.25
984.693	0.75
985.419	-0.25
986.144	-0.25
986.87	-0.25
987.596	-0.25
988.322	0.75
989.047	-1.25
989.773	0.75
990.498	-2.25
991.224	-1.25
991.949	-0.25
992.674	-1.25
993.399	1.75
994.124	-0.25
994.849	-1.25
995.574	0.75
996.299	1.75
997.024	-1.25
997.749	-0.25
998.473	-0.25
999.198	0.75
999.922	-2.25
1000.647	1.75
1001.371	0.75
1002.095	-0.25
1002.82	-0.25
1003.544	-1.25
1004.268	4.75
1004.992	3.75
1005.716	4.75
1006.439	3.75
1007.163	5.75
1007.887	4.75
1008.611	-0.25
1009.334	0.75
1010.058	-1.25
1010.781	-0.25
1011.504	-2.25
1012.228	0.75
1012.951	-1.25
1013.674	1.75
1014.397	0.75
1015.12	-0.25
