节点500_565_QEPB04081__608__10-00-31-973.txt的数据

Date: Thu Nov 13 10:00:31 CST 2025
User: PC
Spectrometer: QEPB0408
触发模式: 0
积分时间 (秒): 1.000000E-2
Scans to average: 1
启用暗噪声校正: true
启用非线性校正: false
滑动平均宽度: 0
X轴模式: Wavelengths
Number of Pixels in Spectrum: 1044
>>>>>Begin Spectral Data<<<<<
220.843	1.12
221.644	1.12
222.444	4.12
223.244	4.12
224.045	6.12
224.845	6.12
225.645	2.12
226.445	4.12
227.245	7.12
228.045	6.12
228.845	5.12
229.645	4.12
230.444	5.12
231.244	3.12
232.043	7.12
232.843	8.12
233.642	9.12
234.442	7.12
235.241	7.12
236.04	10.12
236.839	9.12
237.638	8.12
238.437	6.12
239.236	8.12
240.035	8.12
240.833	8.12
241.632	5.12
242.43	8.12
243.229	9.12
244.027	9.12
244.826	13.12
245.624	8.12
246.422	13.12
247.22	11.12
248.018	10.12
248.816	10.12
249.614	11.12
250.412	12.12
251.21	9.12
252.007	11.12
252.805	11.12
253.602	11.12
254.4	12.12
255.197	13.12
255.994	13.12
256.791	16.12
257.589	15.12
258.386	16.12
259.183	16.12
259.979	14.12
260.776	17.12
261.573	17.12
262.37	15.12
263.166	16.12
263.963	16.12
264.759	18.12
265.556	18.12
266.352	18.12
267.148	21.12
267.944	22.12
268.74	22.12
269.536	19.12
270.332	23.12
271.128	25.12
271.924	24.12
272.719	23.12
273.515	23.12
274.311	27.12
275.106	26.12
275.901	24.12
276.697	24.12
277.492	25.12
278.287	27.12
279.082	25.12
279.877	26.12
280.672	24.12
281.467	28.12
282.262	23.12
283.056	25.12
283.851	27.12
284.646	27.12
285.44	25.12
286.234	28.12
287.029	25.12
287.823	25.12
288.617	27.12
289.411	25.12
290.205	27.12
290.999	23.12
291.793	27.12
292.587	24.12
293.381	23.12
294.174	23.12
294.968	25.12
295.761	21.12
296.555	21.12
297.348	21.12
298.141	24.12
298.935	22.12
299.728	20.12
300.521	21.12
301.314	21.12
302.107	20.12
302.899	14.12
303.692	18.12
304.485	19.12
305.277	18.12
306.07	20.12
306.862	17.12
307.655	16.12
308.447	18.12
309.239	16.12
310.031	15.12
310.823	19.12
311.615	16.12
312.407	18.12
313.199	15.12
313.991	16.12
314.783	15.12
315.574	14.12
316.366	13.12
317.157	13.12
317.949	12.12
318.74	13.12
319.531	14.12
320.322	12.12
321.113	13.12
321.904	14.12
322.695	12.12
323.486	13.12
324.277	13.12
325.068	11.12
325.858	11.12
326.649	13.12
327.439	12.12
328.23	10.12
329.02	8.12
329.81	10.12
330.6	7.12
331.391	9.12
332.181	8.12
332.971	9.12
333.76	10.12
334.55	11.12
335.34	7.12
336.13	8.12
336.919	11.12
337.709	8.12
338.498	11.12
339.287	12.12
340.077	9.12
340.866	11.12
341.655	9.12
342.444	9.12
343.233	12.12
344.022	11.12
344.811	8.12
345.6	11.12
346.388	11.12
347.177	7.12
347.965	10.12
348.754	7.12
349.542	7.12
350.33	7.12
351.119	8.12
351.907	11.12
352.695	9.12
353.483	9.12
354.271	8.12
355.059	10.12
355.846	9.12
356.634	9.12
357.422	7.12
358.209	11.12
358.997	6.12
359.784	10.12
360.571	9.12
361.359	8.12
362.146	9.12
362.933	10.12
363.72	7.12
364.507	7.12
365.294	8.12
366.081	9.12
366.867	7.12
367.654	7.12
368.44	10.12
369.227	10.12
370.013	6.12
370.8	7.12
371.586	9.12
372.372	8.12
373.158	7.12
373.944	8.12
374.73	6.12
375.516	9.12
376.302	8.12
377.088	9.12
377.873	7.12
378.659	8.12
379.445	7.12
380.23	9.12
381.015	8.12
381.801	10.12
382.586	7.12
383.371	9.12
384.156	10.12
384.941	9.12
385.726	9.12
386.511	9.12
387.296	7.12
388.08	8.12
388.865	8.12
389.649	9.12
390.434	10.12
391.218	9.12
392.003	7.12
392.787	11.12
393.571	12.12
394.355	9.12
395.139	9.12
395.923	9.12
396.707	10.12
397.491	11.12
398.274	10.12
399.058	11.12
399.842	11.12
400.625	11.12
401.408	13.12
402.192	11.12
402.975	10.12
403.758	13.12
404.541	11.12
405.324	13.12
406.107	12.12
406.89	10.12
407.673	11.12
408.456	14.12
409.238	11.12
410.021	15.12
410.803	13.12
411.586	15.12
412.368	12.12
413.151	14.12
413.933	13.12
414.715	14.12
415.497	14.12
416.279	16.12
417.061	16.12
417.843	15.12
418.624	13.12
419.406	17.12
420.188	16.12
420.969	17.12
421.751	18.12
422.532	17.12
423.313	16.12
424.095	20.12
424.876	19.12
425.657	20.12
426.438	20.12
427.219	19.12
428	19.12
428.78	21.12
429.561	27.12
430.342	26.12
431.122	25.12
431.903	29.12
432.683	28.12
433.464	25.12
434.244	28.12
435.024	32.12
435.804	31.12
436.584	34.12
437.364	34.12
438.144	41.12
438.924	41.12
439.704	41.12
440.483	46.12
441.263	49.12
442.042	53.12
442.822	55.12
443.601	59.12
444.38	66.12
445.16	68.12
445.939	77.12
446.718	83.12
447.497	88.12
448.276	100.12
449.054	108.12
449.833	121.12
450.612	133.12
451.391	147.12
452.169	155.12
452.948	175.12
453.726	189.12
454.504	217.12
455.282	238.12
456.061	269.12
456.839	296.12
457.617	325.12
458.395	367.12
459.172	400.12
459.95	455.12
460.728	504.12
461.506	560.12
462.283	623.12
463.061	695.12
463.838	768.12
464.615	845.12
465.393	942.12
466.17	1042.12
466.947	1153.12
467.724	1274.12
468.501	1415.12
469.278	1558.12
470.055	1714.12
470.831	1921.12
471.608	2093.12
472.385	2318.12
473.161	2521.12
473.938	2772.12
474.714	3008.12
475.49	3303.12
476.266	3587.12
477.043	3954.12
477.819	4312.12
478.595	4694.12
479.371	5108.12
480.146	5564.12
480.922	6062.12
481.698	6550.12
482.473	7099.12
483.249	7691.12
484.024	8290.12
484.8	9000.12
485.575	9795.12
486.35	10518.12
487.126	11419.12
487.901	12309.12
488.676	13224.12
489.451	14318.12
490.225	15346.12
491	16514.12
491.775	17689.12
492.55	18951.12
493.324	20253.12
494.099	21501.12
494.873	22877.12
495.647	24366.12
496.422	25794.12
497.196	27085.12
497.97	28555.12
498.744	29945.12
499.518	31170.12
500.292	32479.12
501.066	33661.12
501.839	34741.12
502.613	35715.12
503.387	36522.12
504.16	37177.12
504.934	37745.12
505.707	38013.12
506.48	38271.12
507.253	38105.12
508.027	37942.12
508.8	37497.12
509.573	37028.12
510.346	36354.12
511.118	35475.12
511.891	34769.12
512.664	33805.12
513.437	32763.12
514.209	31591.12
514.982	30519.12
515.754	29487.12
516.526	28302.12
517.298	27249.12
518.071	26195.12
518.843	25124.12
519.615	24124.12
520.387	23146.12
521.159	22258.12
521.93	21417.12
522.702	20558.12
523.474	19686.12
524.245	18893.12
525.017	18216.12
525.788	17474.12
526.56	16788.12
527.331	16018.12
528.102	15291.12
528.873	14521.12
529.644	13875.12
530.415	13181.12
531.186	12608.12
531.957	12025.12
532.728	11438.12
533.498	10841.12
534.269	10254.12
535.039	9718.12
535.81	9217.12
536.58	8751.12
537.351	8291.12
538.121	7831.12
538.891	7428.12
539.661	7060.12
540.431	6689.12
541.201	6280.12
541.971	6001.12
542.741	5653.12
543.51	5352.12
544.28	5101.12
545.05	4826.12
545.819	4611.12
546.588	4386.12
547.358	4157.12
548.127	3951.12
548.896	3790.12
549.665	3615.12
550.434	3407.12
551.203	3235.12
551.972	3087.12
552.741	2911.12
553.51	2757.12
554.278	2600.12
555.047	2451.12
555.815	2339.12
556.584	2214.12
557.352	2113.12
558.121	1969.12
558.889	1833.12
559.657	1764.12
560.425	1661.12
561.193	1554.12
561.961	1504.12
562.729	1408.12
563.496	1340.12
564.264	1251.12
565.032	1197.12
565.799	1137.12
566.567	1066.12
567.334	1008.12
568.101	959.12
568.869	898.12
569.636	858.12
570.403	812.12
571.17	764.12
571.937	720.12
572.704	686.12
573.471	643.12
574.237	605.12
575.004	574.12
575.771	537.12
576.537	505.12
577.303	479.12
578.07	461.12
578.836	426.12
579.602	404.12
580.368	379.12
581.134	365.12
581.9	348.12
582.666	325.12
583.432	314.12
584.198	296.12
584.964	283.12
585.729	267.12
586.495	256.12
587.26	233.12
588.025	227.12
588.791	210.12
589.556	198.12
590.321	189.12
591.086	182.12
591.851	174.12
592.616	166.12
593.381	157.12
594.146	145.12
594.911	140.12
595.675	138.12
596.44	131.12
597.204	122.12
597.969	119.12
598.733	112.12
599.497	109.12
600.261	104.12
601.025	95.12
601.79	92.12
602.553	90.12
603.317	86.12
604.081	82.12
604.845	81.12
605.609	77.12
606.372	71.12
607.136	69.12
607.899	69.12
608.662	64.12
609.426	66.12
610.189	59.12
610.952	56.12
611.715	55.12
612.478	56.12
613.241	52.12
614.004	53.12
614.767	47.12
615.529	45.12
616.292	42.12
617.055	44.12
617.817	44.12
618.579	37.12
619.342	38.12
620.104	40.12
620.866	35.12
621.628	36.12
622.39	36.12
623.152	35.12
623.914	35.12
624.676	32.12
625.438	33.12
626.199	29.12
626.961	27.12
627.722	28.12
628.484	25.12
629.245	27.12
630.006	22.12
630.768	23.12
631.529	21.12
632.29	23.12
633.051	21.12
633.812	22.12
634.573	20.12
635.333	19.12
636.094	17.12
636.855	20.12
637.615	20.12
638.376	17.12
639.136	15.12
639.896	17.12
640.657	19.12
641.417	17.12
642.177	15.12
642.937	16.12
643.697	16.12
644.457	17.12
645.216	15.12
645.976	14.12
646.736	15.12
647.495	17.12
648.255	13.12
649.014	15.12
649.774	13.12
650.533	11.12
651.292	11.12
652.051	11.12
652.81	11.12
653.569	10.12
654.328	11.12
655.087	11.12
655.846	10.12
656.604	13.12
657.363	8.12
658.121	9.12
658.88	11.12
659.638	11.12
660.397	9.12
661.155	8.12
661.913	10.12
662.671	10.12
663.429	9.12
664.187	10.12
664.945	7.12
665.703	10.12
666.46	7.12
667.218	11.12
667.976	9.12
668.733	9.12
669.49	10.12
670.248	9.12
671.005	8.12
671.762	9.12
672.519	7.12
673.276	6.12
674.033	7.12
674.79	6.12
675.547	8.12
676.304	6.12
677.06	9.12
677.817	7.12
678.574	7.12
679.33	7.12
680.086	8.12
680.843	6.12
681.599	8.12
682.355	5.12
683.111	7.12
683.867	6.12
684.623	8.12
685.379	8.12
686.135	7.12
686.89	5.12
687.646	3.12
688.402	8.12
689.157	7.12
689.912	5.12
690.668	6.12
691.423	7.12
692.178	8.12
692.933	7.12
693.688	6.12
694.443	3.12
695.198	7.12
695.953	8.12
696.708	6.12
697.462	5.12
698.217	6.12
698.972	8.12
699.726	6.12
700.48	5.12
701.235	6.12
701.989	7.12
702.743	5.12
703.497	6.12
704.251	5.12
705.005	7.12
705.759	5.12
706.513	6.12
707.266	7.12
708.02	6.12
708.774	5.12
709.527	5.12
710.28	5.12
711.034	6.12
711.787	7.12
712.54	6.12
713.293	7.12
714.046	6.12
714.799	7.12
715.552	6.12
716.305	7.12
717.058	7.12
717.81	8.12
718.563	8.12
719.315	6.12
720.068	5.12
720.82	6.12
721.573	7.12
722.325	6.12
723.077	7.12
723.829	5.12
724.581	7.12
725.333	6.12
726.085	7.12
726.836	6.12
727.588	6.12
728.34	6.12
729.091	5.12
729.843	4.12
730.594	6.12
731.346	7.12
732.097	8.12
732.848	5.12
733.599	8.12
734.35	8.12
735.101	7.12
735.852	8.12
736.603	6.12
737.354	8.12
738.104	7.12
738.855	9.12
739.605	6.12
740.356	9.12
741.106	6.12
741.856	10.12
742.607	8.12
743.357	8.12
744.107	7.12
744.857	4.12
745.607	8.12
746.357	8.12
747.106	9.12
747.856	8.12
748.606	9.12
749.355	8.12
750.105	7.12
750.854	9.12
751.603	8.12
752.353	9.12
753.102	11.12
753.851	9.12
754.6	10.12
755.349	8.12
756.098	9.12
756.847	10.12
757.595	10.12
758.344	9.12
759.093	8.12
759.841	7.12
760.589	9.12
761.338	10.12
762.086	8.12
762.834	11.12
763.582	11.12
764.331	11.12
765.079	11.12
765.826	9.12
766.574	9.12
767.322	8.12
768.07	11.12
768.817	12.12
769.565	11.12
770.312	10.12
771.06	9.12
771.807	13.12
772.554	12.12
773.302	11.12
774.049	10.12
774.796	11.12
775.543	13.12
776.29	13.12
777.036	12.12
777.783	12.12
778.53	13.12
779.276	10.12
780.023	12.12
780.769	11.12
781.516	12.12
782.262	13.12
783.008	14.12
783.754	12.12
784.5	13.12
785.246	11.12
785.992	13.12
786.738	12.12
787.484	12.12
788.23	11.12
788.975	12.12
789.721	13.12
790.466	16.12
791.212	11.12
791.957	12.12
792.702	15.12
793.447	10.12
794.193	13.12
794.938	12.12
795.683	10.12
796.427	9.12
797.172	11.12
797.917	10.12
798.662	8.12
799.406	11.12
800.151	10.12
800.895	10.12
801.64	11.12
802.384	9.12
803.128	13.12
803.872	9.12
804.616	8.12
805.36	5.12
806.104	9.12
806.848	7.12
807.592	9.12
808.336	7.12
809.079	7.12
809.823	9.12
810.566	7.12
811.31	5.12
812.053	9.12
812.796	9.12
813.539	7.12
814.283	8.12
815.026	7.12
815.769	8.12
816.511	7.12
817.254	5.12
817.997	7.12
818.74	6.12
819.482	7.12
820.225	9.12
820.967	8.12
821.71	9.12
822.452	5.12
823.194	6.12
823.936	7.12
824.678	7.12
825.42	7.12
826.162	6.12
826.904	5.12
827.646	4.12
828.388	6.12
829.129	7.12
829.871	5.12
830.612	6.12
831.354	4.12
832.095	4.12
832.836	6.12
833.577	6.12
834.319	7.12
835.06	8.12
835.801	4.12
836.542	6.12
837.282	5.12
838.023	5.12
838.764	6.12
839.504	5.12
840.245	5.12
840.985	5.12
841.726	3.12
842.466	4.12
843.206	6.12
843.946	4.12
844.687	7.12
845.427	4.12
846.166	4.12
846.906	4.12
847.646	6.12
848.386	2.12
849.125	5.12
849.865	5.12
850.605	2.12
851.344	0.12
852.083	4.12
852.823	5.12
853.562	3.12
854.301	6.12
855.04	3.12
855.779	4.12
856.518	3.12
857.257	3.12
857.995	2.12
858.734	2.12
859.473	5.12
860.211	2.12
860.95	3.12
861.688	2.12
862.426	4.12
863.165	1.12
863.903	1.12
864.641	2.12
865.379	3.12
866.117	4.12
866.855	4.12
867.593	0.12
868.33	3.12
869.068	3.12
869.806	1.12
870.543	2.12
871.28	3.12
872.018	4.12
872.755	2.12
873.492	2.12
874.229	3.12
874.967	0.12
875.703	0.12
876.44	3.12
877.177	2.12
877.914	3.12
878.651	1.12
879.387	3.12
880.124	1.12
880.86	0.12
881.597	1.12
882.333	-0.88
883.069	2.12
883.806	-0.88
884.542	1.12
885.278	2.12
886.014	1.12
886.749	0.12
887.485	1.12
888.221	2.12
888.957	0.12
889.692	1.12
890.428	1.12
891.163	2.12
891.899	1.12
892.634	2.12
893.369	0.12
894.104	-0.88
894.839	-0.88
895.574	3.12
896.309	0.12
897.044	3.12
897.779	2.12
898.514	2.12
899.248	1.12
899.983	2.12
900.717	0.12
901.452	0.12
902.186	2.12
902.92	-1.88
903.654	1.12
904.389	3.12
905.123	2.12
905.857	1.12
906.59	1.12
907.324	-0.88
908.058	1.12
908.792	-0.88
909.525	1.12
910.259	1.12
910.992	1.12
911.726	2.12
912.459	-1.88
913.192	0.12
913.925	1.12
914.658	0.12
915.391	-1.88
916.124	3.12
916.857	1.12
917.59	0.12
918.323	-0.88
919.055	1.12
919.788	1.12
920.521	3.12
921.253	1.12
921.985	0.12
922.718	2.12
923.45	-2.88
924.182	-0.88
924.914	2.12
925.646	0.12
926.378	1.12
927.11	1.12
927.841	-0.88
928.573	-0.88
929.305	1.12
930.036	2.12
930.768	1.12
931.499	3.12
932.23	1.12
932.962	0.12
933.693	-0.88
934.424	-1.88
935.155	1.12
935.886	2.12
936.617	1.12
937.348	0.12
938.078	0.12
938.809	-1.88
939.54	2.12
940.27	1.12
941.001	1.12
941.731	1.12
942.461	1.12
943.191	0.12
943.922	1.12
944.652	1.12
945.382	1.12
946.112	1.12
946.841	-0.88
947.571	0.12
948.301	0.12
949.031	0.12
949.76	-1.88
950.49	0.12
951.219	-0.88
951.948	1.12
952.678	0.12
953.407	1.12
954.136	0.12
954.865	0.12
955.594	1.12
956.323	1.12
957.052	1.12
957.78	2.12
958.509	-1.88
959.238	-0.88
959.966	1.12
960.695	0.12
961.423	1.12
962.151	1.12
962.88	-0.88
963.608	-0.88
964.336	-1.88
965.064	1.12
965.792	-2.88
966.52	1.12
967.247	-1.88
967.975	1.12
968.703	1.12
969.43	-1.88
970.158	2.12
970.885	-0.88
971.613	2.12
972.34	-1.88
973.067	1.12
973.794	1.12
974.521	1.12
975.248	0.12
975.975	2.12
976.702	2.12
977.429	-1.88
978.156	0.12
978.882	0.12
979.609	0.12
980.335	-1.88
981.062	1.12
981.788	-0.88
982.514	-0.88
983.24	1.12
983.967	-0.88
984.693	1.12
985.419	0.12
986.144	1.12
986.87	1.12
987.596	0.12
988.322	1.12
989.047	0.12
989.773	0.12
990.498	1.12
991.224	2.12
991.949	0.12
992.674	1.12
993.399	4.12
994.124	-1.88
994.849	2.12
995.574	1.12
996.299	-0.88
997.024	2.12
997.749	1.12
998.473	0.12
999.198	0.12
999.922	-1.88
1000.647	-0.88
1001.371	3.12
1002.095	-2.88
1002.82	0.12
1003.544	-1.88
1004.268	3.12
1004.992	2.12
1005.716	3.12
1006.439	4.12
1007.163	5.12
1007.887	3.12
1008.611	-0.88
1009.334	2.12
1010.058	1.12
1010.781	1.12
1011.504	1.12
1012.228	2.12
1012.951	-0.88
1013.674	2.12
1014.397	1.12
1015.12	-0.88
