节点500_565_QEPB04081__234__09-54-18-735.txt的数据

Date: Thu Nov 13 09:54:18 CST 2025
User: PC
Spectrometer: QEPB0408
触发模式: 0
积分时间 (秒): 1.000000E-2
Scans to average: 1
启用暗噪声校正: true
启用非线性校正: false
滑动平均宽度: 0
X轴模式: Wavelengths
Number of Pixels in Spectrum: 1044
>>>>>Begin Spectral Data<<<<<
220.843	6.25
221.644	4.25
222.444	5.25
223.244	4.25
224.045	7.25
224.845	6.25
225.645	5.25
226.445	4.25
227.245	4.25
228.045	5.25
228.845	4.25
229.645	5.25
230.444	4.25
231.244	6.25
232.043	5.25
232.843	7.25
233.642	9.25
234.442	7.25
235.241	8.25
236.04	8.25
236.839	7.25
237.638	10.25
238.437	8.25
239.236	10.25
240.035	10.25
240.833	10.25
241.632	9.25
242.43	11.25
243.229	9.25
244.027	9.25
244.826	14.25
245.624	11.25
246.422	12.25
247.22	12.25
248.018	15.25
248.816	9.25
249.614	14.25
250.412	11.25
251.21	13.25
252.007	16.25
252.805	14.25
253.602	15.25
254.4	15.25
255.197	16.25
255.994	17.25
256.791	14.25
257.589	18.25
258.386	17.25
259.183	18.25
259.979	18.25
260.776	20.25
261.573	20.25
262.37	18.25
263.166	21.25
263.963	19.25
264.759	22.25
265.556	22.25
266.352	23.25
267.148	22.25
267.944	27.25
268.74	23.25
269.536	23.25
270.332	25.25
271.128	25.25
271.924	29.25
272.719	27.25
273.515	30.25
274.311	29.25
275.106	28.25
275.901	30.25
276.697	33.25
277.492	28.25
278.287	29.25
279.082	30.25
279.877	28.25
280.672	32.25
281.467	30.25
282.262	30.25
283.056	27.25
283.851	31.25
284.646	31.25
285.44	30.25
286.234	28.25
287.029	30.25
287.823	28.25
288.617	25.25
289.411	29.25
290.205	27.25
290.999	31.25
291.793	27.25
292.587	29.25
293.381	27.25
294.174	25.25
294.968	22.25
295.761	23.25
296.555	25.25
297.348	21.25
298.141	23.25
298.935	26.25
299.728	24.25
300.521	23.25
301.314	23.25
302.107	23.25
302.899	19.25
303.692	20.25
304.485	18.25
305.277	18.25
306.07	21.25
306.862	20.25
307.655	21.25
308.447	17.25
309.239	18.25
310.031	18.25
310.823	17.25
311.615	18.25
312.407	14.25
313.199	17.25
313.991	13.25
314.783	17.25
315.574	13.25
316.366	15.25
317.157	13.25
317.949	13.25
318.74	14.25
319.531	15.25
320.322	12.25
321.113	14.25
321.904	13.25
322.695	11.25
323.486	8.25
324.277	12.25
325.068	13.25
325.858	13.25
326.649	12.25
327.439	13.25
328.23	12.25
329.02	11.25
329.81	14.25
330.6	8.25
331.391	14.25
332.181	12.25
332.971	12.25
333.76	14.25
334.55	13.25
335.34	11.25
336.13	10.25
336.919	11.25
337.709	11.25
338.498	10.25
339.287	11.25
340.077	10.25
340.866	11.25
341.655	9.25
342.444	10.25
343.233	10.25
344.022	9.25
344.811	10.25
345.6	10.25
346.388	11.25
347.177	9.25
347.965	8.25
348.754	9.25
349.542	9.25
350.33	10.25
351.119	12.25
351.907	12.25
352.695	9.25
353.483	9.25
354.271	9.25
355.059	10.25
355.846	11.25
356.634	9.25
357.422	9.25
358.209	10.25
358.997	8.25
359.784	9.25
360.571	9.25
361.359	10.25
362.146	9.25
362.933	8.25
363.72	7.25
364.507	7.25
365.294	9.25
366.081	9.25
366.867	12.25
367.654	10.25
368.44	10.25
369.227	6.25
370.013	10.25
370.8	9.25
371.586	9.25
372.372	9.25
373.158	10.25
373.944	9.25
374.73	7.25
375.516	11.25
376.302	8.25
377.088	10.25
377.873	10.25
378.659	8.25
379.445	8.25
380.23	6.25
381.015	8.25
381.801	10.25
382.586	9.25
383.371	7.25
384.156	7.25
384.941	10.25
385.726	9.25
386.511	8.25
387.296	10.25
388.08	9.25
388.865	11.25
389.649	12.25
390.434	10.25
391.218	9.25
392.003	12.25
392.787	11.25
393.571	11.25
394.355	12.25
395.139	9.25
395.923	10.25
396.707	9.25
397.491	11.25
398.274	12.25
399.058	11.25
399.842	12.25
400.625	12.25
401.408	11.25
402.192	11.25
402.975	14.25
403.758	12.25
404.541	13.25
405.324	15.25
406.107	13.25
406.89	12.25
407.673	13.25
408.456	15.25
409.238	14.25
410.021	13.25
410.803	16.25
411.586	11.25
412.368	14.25
413.151	15.25
413.933	16.25
414.715	17.25
415.497	13.25
416.279	14.25
417.061	16.25
417.843	20.25
418.624	15.25
419.406	19.25
420.188	20.25
420.969	18.25
421.751	18.25
422.532	19.25
423.313	18.25
424.095	17.25
424.876	20.25
425.657	21.25
426.438	25.25
427.219	24.25
428	21.25
428.78	22.25
429.561	22.25
430.342	25.25
431.122	23.25
431.903	30.25
432.683	26.25
433.464	29.25
434.244	31.25
435.024	31.25
435.804	33.25
436.584	34.25
437.364	35.25
438.144	40.25
438.924	39.25
439.704	42.25
440.483	43.25
441.263	47.25
442.042	51.25
442.822	58.25
443.601	59.25
444.38	59.25
445.16	64.25
445.939	69.25
446.718	78.25
447.497	82.25
448.276	88.25
449.054	102.25
449.833	110.25
450.612	115.25
451.391	131.25
452.169	141.25
452.948	161.25
453.726	176.25
454.504	196.25
455.282	214.25
456.061	236.25
456.839	258.25
457.617	296.25
458.395	329.25
459.172	370.25
459.95	409.25
460.728	467.25
461.506	508.25
462.283	577.25
463.061	640.25
463.838	716.25
464.615	789.25
465.393	885.25
466.17	972.25
466.947	1101.25
467.724	1218.25
468.501	1361.25
469.278	1503.25
470.055	1678.25
470.831	1846.25
471.608	2053.25
472.385	2283.25
473.161	2526.25
473.938	2796.25
474.714	3068.25
475.49	3377.25
476.266	3719.25
477.043	4103.25
477.819	4513.25
478.595	4955.25
479.371	5407.25
480.146	5934.25
480.922	6494.25
481.698	7096.25
482.473	7760.25
483.249	8452.25
484.024	9221.25
484.8	10100.25
485.575	11008.25
486.35	11911.25
487.126	12985.25
487.901	14103.25
488.676	15313.25
489.451	16590.25
490.225	17980.25
491	19353.25
491.775	20842.25
492.55	22355.25
493.324	23943.25
494.099	25502.25
494.873	27138.25
495.647	28893.25
496.422	30646.25
497.196	32179.25
497.97	33795.25
498.744	35250.25
499.518	36637.25
500.292	37954.25
501.066	39174.25
501.839	40205.25
502.613	40916.25
503.387	41601.25
504.16	42053.25
504.934	42232.25
505.707	42258.25
506.48	41999.25
507.253	41627.25
508.027	40796.25
508.8	39973.25
509.573	39048.25
510.346	37936.25
511.118	36781.25
511.891	35756.25
512.664	34413.25
513.437	33138.25
514.209	31814.25
514.982	30502.25
515.754	29245.25
516.526	28039.25
517.298	26834.25
518.071	25790.25
518.843	24684.25
519.615	23723.25
520.387	22737.25
521.159	21917.25
521.93	21027.25
522.702	20127.25
523.474	19293.25
524.245	18507.25
525.017	17708.25
525.788	16905.25
526.56	16188.25
527.331	15477.25
528.102	14755.25
528.873	13995.25
529.644	13265.25
530.415	12668.25
531.186	11966.25
531.957	11392.25
532.728	10819.25
533.498	10170.25
534.269	9629.25
535.039	9095.25
535.81	8625.25
536.58	8190.25
537.351	7734.25
538.121	7303.25
538.891	6903.25
539.661	6547.25
540.431	6190.25
541.201	5895.25
541.971	5565.25
542.741	5257.25
543.51	4978.25
544.28	4730.25
545.05	4534.25
545.819	4305.25
546.588	4076.25
547.358	3912.25
548.127	3689.25
548.896	3506.25
549.665	3338.25
550.434	3162.25
551.203	2973.25
551.972	2843.25
552.741	2674.25
553.51	2524.25
554.278	2390.25
555.047	2258.25
555.815	2113.25
556.584	2012.25
557.352	1919.25
558.121	1802.25
558.889	1683.25
559.657	1593.25
560.425	1498.25
561.193	1418.25
561.961	1347.25
562.729	1278.25
563.496	1208.25
564.264	1150.25
565.032	1084.25
565.799	1019.25
566.567	969.25
567.334	934.25
568.101	868.25
568.869	815.25
569.636	768.25
570.403	724.25
571.17	691.25
571.937	647.25
572.704	619.25
573.471	586.25
574.237	546.25
575.004	513.25
575.771	488.25
576.537	465.25
577.303	432.25
578.07	409.25
578.836	388.25
579.602	364.25
580.368	347.25
581.134	331.25
581.9	313.25
582.666	294.25
583.432	283.25
584.198	270.25
584.964	261.25
585.729	240.25
586.495	225.25
587.26	217.25
588.025	204.25
588.791	202.25
589.556	182.25
590.321	171.25
591.086	165.25
591.851	156.25
592.616	149.25
593.381	142.25
594.146	133.25
594.911	135.25
595.675	122.25
596.44	120.25
597.204	117.25
597.969	109.25
598.733	108.25
599.497	102.25
600.261	97.25
601.025	90.25
601.79	89.25
602.553	84.25
603.317	81.25
604.081	77.25
604.845	75.25
605.609	70.25
606.372	69.25
607.136	62.25
607.899	62.25
608.662	62.25
609.426	60.25
610.189	55.25
610.952	57.25
611.715	51.25
612.478	51.25
613.241	51.25
614.004	49.25
614.767	47.25
615.529	45.25
616.292	44.25
617.055	42.25
617.817	41.25
618.579	35.25
619.342	39.25
620.104	37.25
620.866	35.25
621.628	35.25
622.39	36.25
623.152	30.25
623.914	29.25
624.676	30.25
625.438	29.25
626.199	27.25
626.961	29.25
627.722	28.25
628.484	26.25
629.245	24.25
630.006	22.25
630.768	23.25
631.529	20.25
632.29	22.25
633.051	19.25
633.812	21.25
634.573	19.25
635.333	20.25
636.094	18.25
636.855	17.25
637.615	19.25
638.376	18.25
639.136	17.25
639.896	16.25
640.657	17.25
641.417	14.25
642.177	15.25
642.937	15.25
643.697	14.25
644.457	15.25
645.216	14.25
645.976	16.25
646.736	14.25
647.495	15.25
648.255	13.25
649.014	13.25
649.774	16.25
650.533	13.25
651.292	14.25
652.051	11.25
652.81	13.25
653.569	10.25
654.328	12.25
655.087	8.25
655.846	11.25
656.604	12.25
657.363	9.25
658.121	9.25
658.88	11.25
659.638	11.25
660.397	12.25
661.155	9.25
661.913	9.25
662.671	9.25
663.429	10.25
664.187	9.25
664.945	6.25
665.703	9.25
666.46	7.25
667.218	9.25
667.976	10.25
668.733	8.25
669.49	8.25
670.248	8.25
671.005	11.25
671.762	9.25
672.519	10.25
673.276	6.25
674.033	9.25
674.79	9.25
675.547	8.25
676.304	7.25
677.06	5.25
677.817	9.25
678.574	9.25
679.33	7.25
680.086	7.25
680.843	7.25
681.599	8.25
682.355	6.25
683.111	10.25
683.867	8.25
684.623	8.25
685.379	7.25
686.135	6.25
686.89	6.25
687.646	7.25
688.402	8.25
689.157	8.25
689.912	6.25
690.668	6.25
691.423	7.25
692.178	5.25
692.933	7.25
693.688	7.25
694.443	9.25
695.198	5.25
695.953	7.25
696.708	6.25
697.462	7.25
698.217	7.25
698.972	4.25
699.726	8.25
700.48	8.25
701.235	6.25
701.989	5.25
702.743	5.25
703.497	7.25
704.251	9.25
705.005	6.25
705.759	8.25
706.513	7.25
707.266	6.25
708.02	8.25
708.774	7.25
709.527	7.25
710.28	9.25
711.034	10.25
711.787	6.25
712.54	7.25
713.293	8.25
714.046	7.25
714.799	7.25
715.552	7.25
716.305	8.25
717.058	6.25
717.81	11.25
718.563	7.25
719.315	7.25
720.068	9.25
720.82	6.25
721.573	7.25
722.325	7.25
723.077	5.25
723.829	7.25
724.581	6.25
725.333	9.25
726.085	5.25
726.836	9.25
727.588	7.25
728.34	10.25
729.091	7.25
729.843	8.25
730.594	8.25
731.346	7.25
732.097	10.25
732.848	8.25
733.599	7.25
734.35	9.25
735.101	8.25
735.852	5.25
736.603	7.25
737.354	9.25
738.104	7.25
738.855	8.25
739.605	10.25
740.356	9.25
741.106	8.25
741.856	9.25
742.607	9.25
743.357	8.25
744.107	9.25
744.857	9.25
745.607	6.25
746.357	9.25
747.106	9.25
747.856	10.25
748.606	7.25
749.355	11.25
750.105	10.25
750.854	12.25
751.603	9.25
752.353	9.25
753.102	14.25
753.851	10.25
754.6	10.25
755.349	10.25
756.098	8.25
756.847	12.25
757.595	10.25
758.344	12.25
759.093	10.25
759.841	10.25
760.589	12.25
761.338	10.25
762.086	13.25
762.834	10.25
763.582	11.25
764.331	10.25
765.079	13.25
765.826	11.25
766.574	12.25
767.322	15.25
768.07	9.25
768.817	12.25
769.565	11.25
770.312	12.25
771.06	14.25
771.807	12.25
772.554	14.25
773.302	13.25
774.049	14.25
774.796	11.25
775.543	14.25
776.29	13.25
777.036	13.25
777.783	13.25
778.53	14.25
779.276	16.25
780.023	12.25
780.769	14.25
781.516	13.25
782.262	14.25
783.008	12.25
783.754	13.25
784.5	12.25
785.246	12.25
785.992	16.25
786.738	14.25
787.484	14.25
788.23	15.25
788.975	14.25
789.721	12.25
790.466	13.25
791.212	13.25
791.957	14.25
792.702	14.25
793.447	17.25
794.193	13.25
794.938	11.25
795.683	12.25
796.427	14.25
797.172	14.25
797.917	12.25
798.662	10.25
799.406	11.25
800.151	11.25
800.895	10.25
801.64	12.25
802.384	11.25
803.128	13.25
803.872	9.25
804.616	9.25
805.36	11.25
806.104	9.25
806.848	11.25
807.592	10.25
808.336	8.25
809.079	10.25
809.823	8.25
810.566	9.25
811.31	11.25
812.053	9.25
812.796	10.25
813.539	8.25
814.283	9.25
815.026	7.25
815.769	9.25
816.511	7.25
817.254	11.25
817.997	8.25
818.74	8.25
819.482	9.25
820.225	7.25
820.967	4.25
821.71	5.25
822.452	6.25
823.194	5.25
823.936	8.25
824.678	6.25
825.42	8.25
826.162	8.25
826.904	7.25
827.646	7.25
828.388	5.25
829.129	7.25
829.871	5.25
830.612	5.25
831.354	5.25
832.095	7.25
832.836	4.25
833.577	3.25
834.319	6.25
835.06	4.25
835.801	5.25
836.542	5.25
837.282	7.25
838.023	7.25
838.764	4.25
839.504	7.25
840.245	5.25
840.985	4.25
841.726	5.25
842.466	5.25
843.206	6.25
843.946	5.25
844.687	6.25
845.427	6.25
846.166	5.25
846.906	7.25
847.646	5.25
848.386	3.25
849.125	3.25
849.865	3.25
850.605	5.25
851.344	6.25
852.083	6.25
852.823	5.25
853.562	6.25
854.301	1.25
855.04	5.25
855.779	4.25
856.518	3.25
857.257	3.25
857.995	4.25
858.734	2.25
859.473	3.25
860.211	5.25
860.95	1.25
861.688	2.25
862.426	4.25
863.165	3.25
863.903	5.25
864.641	1.25
865.379	2.25
866.117	1.25
866.855	4.25
867.593	4.25
868.33	2.25
869.068	2.25
869.806	4.25
870.543	3.25
871.28	2.25
872.018	2.25
872.755	2.25
873.492	1.25
874.229	5.25
874.967	3.25
875.703	2.25
876.44	2.25
877.177	2.25
877.914	3.25
878.651	2.25
879.387	1.25
880.124	3.25
880.86	2.25
881.597	3.25
882.333	1.25
883.069	0.25
883.806	2.25
884.542	2.25
885.278	1.25
886.014	3.25
886.749	2.25
887.485	3.25
888.221	4.25
888.957	1.25
889.692	1.25
890.428	0.25
891.163	2.25
891.899	1.25
892.634	1.25
893.369	2.25
894.104	1.25
894.839	4.25
895.574	1.25
896.309	2.25
897.044	1.25
897.779	2.25
898.514	2.25
899.248	2.25
899.983	2.25
900.717	1.25
901.452	1.25
902.186	1.25
902.92	1.25
903.654	1.25
904.389	2.25
905.123	3.25
905.857	3.25
906.59	-0.75
907.324	2.25
908.058	5.25
908.792	1.25
909.525	4.25
910.259	1.25
910.992	1.25
911.726	0.25
912.459	0.25
913.192	1.25
913.925	1.25
914.658	3.25
915.391	0.25
916.124	1.25
916.857	1.25
917.59	-1.75
918.323	1.25
919.055	1.25
919.788	1.25
920.521	1.25
921.253	2.25
921.985	1.25
922.718	-0.75
923.45	0.25
924.182	2.25
924.914	2.25
925.646	2.25
926.378	-1.75
927.11	1.25
927.841	0.25
928.573	2.25
929.305	1.25
930.036	2.25
930.768	-0.75
931.499	0.25
932.23	0.25
932.962	0.25
933.693	1.25
934.424	0.25
935.155	-0.75
935.886	0.25
936.617	1.25
937.348	1.25
938.078	-0.75
938.809	3.25
939.54	1.25
940.27	1.25
941.001	1.25
941.731	1.25
942.461	1.25
943.191	0.25
943.922	1.25
944.652	0.25
945.382	1.25
946.112	0.25
946.841	0.25
947.571	1.25
948.301	-1.75
949.031	-0.75
949.76	-1.75
950.49	1.25
951.219	-0.75
951.948	-0.75
952.678	1.25
953.407	0.25
954.136	4.25
954.865	3.25
955.594	0.25
956.323	-1.75
957.052	0.25
957.78	1.25
958.509	1.25
959.238	2.25
959.966	1.25
960.695	1.25
961.423	0.25
962.151	1.25
962.88	2.25
963.608	0.25
964.336	1.25
965.064	3.25
965.792	0.25
966.52	1.25
967.247	0.25
967.975	1.25
968.703	1.25
969.43	1.25
970.158	1.25
970.885	1.25
971.613	-0.75
972.34	2.25
973.067	3.25
973.794	-0.75
974.521	-1.75
975.248	2.25
975.975	1.25
976.702	1.25
977.429	3.25
978.156	1.25
978.882	0.25
979.609	-0.75
980.335	0.25
981.062	1.25
981.788	3.25
982.514	2.25
983.24	1.25
983.967	0.25
984.693	-1.75
985.419	0.25
986.144	1.25
986.87	2.25
987.596	2.25
988.322	1.25
989.047	1.25
989.773	1.25
990.498	2.25
991.224	2.25
991.949	2.25
992.674	0.25
993.399	2.25
994.124	2.25
994.849	0.25
995.574	1.25
996.299	2.25
997.024	0.25
997.749	1.25
998.473	3.25
999.198	0.25
999.922	4.25
1000.647	0.25
1001.371	4.25
1002.095	-0.75
1002.82	-0.75
1003.544	-1.75
1004.268	2.25
1004.992	6.25
1005.716	5.25
1006.439	5.25
1007.163	3.25
1007.887	3.25
1008.611	1.25
1009.334	1.25
1010.058	0.25
1010.781	-0.75
1011.504	1.25
1012.228	1.25
1012.951	-1.75
1013.674	0.25
1014.397	0.25
1015.12	0.25
