节点500_565_QEPB04081__638__10-01-01-948.txt的数据

Date: Thu Nov 13 10:01:01 CST 2025
User: PC
Spectrometer: QEPB0408
触发模式: 0
积分时间 (秒): 1.000000E-2
Scans to average: 1
启用暗噪声校正: true
启用非线性校正: false
滑动平均宽度: 0
X轴模式: Wavelengths
Number of Pixels in Spectrum: 1044
>>>>>Begin Spectral Data<<<<<
220.843	3.88
221.644	4.88
222.444	2.88
223.244	6.88
224.045	3.88
224.845	4.88
225.645	4.88
226.445	5.88
227.245	6.88
228.045	3.88
228.845	6.88
229.645	6.88
230.444	5.88
231.244	7.88
232.043	5.88
232.843	6.88
233.642	7.88
234.442	5.88
235.241	6.88
236.04	7.88
236.839	7.88
237.638	9.88
238.437	7.88
239.236	6.88
240.035	8.88
240.833	6.88
241.632	10.88
242.43	8.88
243.229	11.88
244.027	7.88
244.826	5.88
245.624	9.88
246.422	9.88
247.22	10.88
248.018	8.88
248.816	7.88
249.614	11.88
250.412	9.88
251.21	10.88
252.007	11.88
252.805	12.88
253.602	11.88
254.4	12.88
255.197	15.88
255.994	11.88
256.791	14.88
257.589	14.88
258.386	15.88
259.183	13.88
259.979	14.88
260.776	16.88
261.573	17.88
262.37	16.88
263.166	17.88
263.963	18.88
264.759	20.88
265.556	15.88
266.352	20.88
267.148	18.88
267.944	20.88
268.74	21.88
269.536	19.88
270.332	23.88
271.128	22.88
271.924	22.88
272.719	22.88
273.515	26.88
274.311	21.88
275.106	23.88
275.901	23.88
276.697	25.88
277.492	24.88
278.287	25.88
279.082	26.88
279.877	23.88
280.672	26.88
281.467	26.88
282.262	26.88
283.056	27.88
283.851	25.88
284.646	26.88
285.44	29.88
286.234	24.88
287.029	25.88
287.823	26.88
288.617	25.88
289.411	24.88
290.205	28.88
290.999	24.88
291.793	26.88
292.587	26.88
293.381	25.88
294.174	21.88
294.968	24.88
295.761	20.88
296.555	20.88
297.348	22.88
298.141	20.88
298.935	26.88
299.728	22.88
300.521	22.88
301.314	20.88
302.107	20.88
302.899	17.88
303.692	18.88
304.485	17.88
305.277	18.88
306.07	16.88
306.862	19.88
307.655	17.88
308.447	18.88
309.239	18.88
310.031	17.88
310.823	15.88
311.615	14.88
312.407	14.88
313.199	14.88
313.991	16.88
314.783	12.88
315.574	13.88
316.366	12.88
317.157	13.88
317.949	12.88
318.74	12.88
319.531	12.88
320.322	12.88
321.113	11.88
321.904	11.88
322.695	10.88
323.486	8.88
324.277	10.88
325.068	9.88
325.858	10.88
326.649	9.88
327.439	8.88
328.23	8.88
329.02	6.88
329.81	8.88
330.6	9.88
331.391	9.88
332.181	10.88
332.971	12.88
333.76	11.88
334.55	7.88
335.34	9.88
336.13	9.88
336.919	8.88
337.709	9.88
338.498	7.88
339.287	8.88
340.077	9.88
340.866	8.88
341.655	9.88
342.444	8.88
343.233	6.88
344.022	10.88
344.811	8.88
345.6	8.88
346.388	9.88
347.177	8.88
347.965	6.88
348.754	10.88
349.542	6.88
350.33	8.88
351.119	7.88
351.907	9.88
352.695	9.88
353.483	8.88
354.271	5.88
355.059	7.88
355.846	8.88
356.634	7.88
357.422	8.88
358.209	8.88
358.997	11.88
359.784	9.88
360.571	5.88
361.359	8.88
362.146	8.88
362.933	6.88
363.72	7.88
364.507	6.88
365.294	8.88
366.081	8.88
366.867	8.88
367.654	6.88
368.44	7.88
369.227	6.88
370.013	5.88
370.8	8.88
371.586	8.88
372.372	8.88
373.158	8.88
373.944	8.88
374.73	7.88
375.516	8.88
376.302	9.88
377.088	6.88
377.873	8.88
378.659	9.88
379.445	7.88
380.23	8.88
381.015	6.88
381.801	6.88
382.586	7.88
383.371	8.88
384.156	7.88
384.941	11.88
385.726	8.88
386.511	6.88
387.296	9.88
388.08	8.88
388.865	10.88
389.649	9.88
390.434	11.88
391.218	9.88
392.003	6.88
392.787	8.88
393.571	9.88
394.355	7.88
395.139	7.88
395.923	11.88
396.707	9.88
397.491	8.88
398.274	8.88
399.058	8.88
399.842	12.88
400.625	10.88
401.408	9.88
402.192	12.88
402.975	11.88
403.758	11.88
404.541	10.88
405.324	10.88
406.107	8.88
406.89	11.88
407.673	12.88
408.456	10.88
409.238	11.88
410.021	12.88
410.803	12.88
411.586	14.88
412.368	13.88
413.151	14.88
413.933	14.88
414.715	14.88
415.497	14.88
416.279	13.88
417.061	14.88
417.843	15.88
418.624	14.88
419.406	16.88
420.188	16.88
420.969	15.88
421.751	20.88
422.532	15.88
423.313	17.88
424.095	15.88
424.876	18.88
425.657	18.88
426.438	21.88
427.219	21.88
428	23.88
428.78	19.88
429.561	22.88
430.342	22.88
431.122	22.88
431.903	27.88
432.683	26.88
433.464	27.88
434.244	28.88
435.024	30.88
435.804	34.88
436.584	33.88
437.364	34.88
438.144	36.88
438.924	40.88
439.704	43.88
440.483	43.88
441.263	51.88
442.042	49.88
442.822	57.88
443.601	62.88
444.38	62.88
445.16	70.88
445.939	76.88
446.718	85.88
447.497	92.88
448.276	102.88
449.054	109.88
449.833	119.88
450.612	129.88
451.391	142.88
452.169	153.88
452.948	177.88
453.726	194.88
454.504	210.88
455.282	242.88
456.061	265.88
456.839	296.88
457.617	324.88
458.395	363.88
459.172	403.88
459.95	451.88
460.728	503.88
461.506	558.88
462.283	610.88
463.061	681.88
463.838	763.88
464.615	854.88
465.393	951.88
466.17	1027.88
466.947	1150.88
467.724	1275.88
468.501	1419.88
469.278	1556.88
470.055	1713.88
470.831	1905.88
471.608	2106.88
472.385	2280.88
473.161	2519.88
473.938	2773.88
474.714	3004.88
475.49	3283.88
476.266	3598.88
477.043	3967.88
477.819	4327.88
478.595	4692.88
479.371	5064.88
480.146	5557.88
480.922	6030.88
481.698	6558.88
482.473	7091.88
483.249	7682.88
484.024	8347.88
484.8	9010.88
485.575	9756.88
486.35	10500.88
487.126	11371.88
487.901	12298.88
488.676	13231.88
489.451	14305.88
490.225	15364.88
491	16505.88
491.775	17666.88
492.55	18937.88
493.324	20165.88
494.099	21544.88
494.873	22867.88
495.647	24318.88
496.422	25740.88
497.196	27069.88
497.97	28561.88
498.744	29865.88
499.518	31143.88
500.292	32445.88
501.066	33527.88
501.839	34701.88
502.613	35614.88
503.387	36453.88
504.16	37095.88
504.934	37577.88
505.707	38020.88
506.48	38023.88
507.253	38116.88
508.027	37829.88
508.8	37471.88
509.573	37045.88
510.346	36303.88
511.118	35388.88
511.891	34705.88
512.664	33732.88
513.437	32746.88
514.209	31626.88
514.982	30526.88
515.754	29429.88
516.526	28350.88
517.298	27266.88
518.071	26158.88
518.843	25083.88
519.615	24059.88
520.387	23192.88
521.159	22313.88
521.93	21395.88
522.702	20535.88
523.474	19678.88
524.245	18912.88
525.017	18075.88
525.788	17409.88
526.56	16693.88
527.331	15966.88
528.102	15264.88
528.873	14562.88
529.644	13855.88
530.415	13174.88
531.186	12592.88
531.957	11977.88
532.728	11432.88
533.498	10886.88
534.269	10260.88
535.039	9751.88
535.81	9215.88
536.58	8763.88
537.351	8253.88
538.121	7816.88
538.891	7409.88
539.661	7065.88
540.431	6668.88
541.201	6312.88
541.971	5963.88
542.741	5651.88
543.51	5370.88
544.28	5080.88
545.05	4863.88
545.819	4621.88
546.588	4375.88
547.358	4168.88
548.127	3955.88
548.896	3795.88
549.665	3569.88
550.434	3406.88
551.203	3250.88
551.972	3078.88
552.741	2920.88
553.51	2765.88
554.278	2603.88
555.047	2464.88
555.815	2348.88
556.584	2205.88
557.352	2098.88
558.121	1964.88
558.889	1858.88
559.657	1760.88
560.425	1660.88
561.193	1552.88
561.961	1484.88
562.729	1403.88
563.496	1334.88
564.264	1269.88
565.032	1198.88
565.799	1126.88
566.567	1066.88
567.334	1010.88
568.101	954.88
568.869	902.88
569.636	853.88
570.403	816.88
571.17	760.88
571.937	717.88
572.704	677.88
573.471	634.88
574.237	601.88
575.004	558.88
575.771	541.88
576.537	504.88
577.303	478.88
578.07	455.88
578.836	426.88
579.602	412.88
580.368	380.88
581.134	360.88
581.9	344.88
582.666	319.88
583.432	309.88
584.198	290.88
584.964	278.88
585.729	269.88
586.495	247.88
587.26	238.88
588.025	220.88
588.791	214.88
589.556	202.88
590.321	192.88
591.086	175.88
591.851	167.88
592.616	165.88
593.381	155.88
594.146	149.88
594.911	138.88
595.675	135.88
596.44	127.88
597.204	122.88
597.969	122.88
598.733	114.88
599.497	106.88
600.261	98.88
601.025	96.88
601.79	94.88
602.553	89.88
603.317	89.88
604.081	82.88
604.845	79.88
605.609	75.88
606.372	74.88
607.136	66.88
607.899	66.88
608.662	68.88
609.426	59.88
610.189	58.88
610.952	59.88
611.715	58.88
612.478	52.88
613.241	50.88
614.004	49.88
614.767	46.88
615.529	45.88
616.292	43.88
617.055	44.88
617.817	40.88
618.579	40.88
619.342	36.88
620.104	36.88
620.866	34.88
621.628	36.88
622.39	31.88
623.152	31.88
623.914	32.88
624.676	30.88
625.438	28.88
626.199	29.88
626.961	26.88
627.722	28.88
628.484	26.88
629.245	24.88
630.006	24.88
630.768	22.88
631.529	23.88
632.29	22.88
633.051	22.88
633.812	20.88
634.573	17.88
635.333	20.88
636.094	16.88
636.855	18.88
637.615	19.88
638.376	17.88
639.136	16.88
639.896	19.88
640.657	14.88
641.417	18.88
642.177	15.88
642.937	13.88
643.697	14.88
644.457	13.88
645.216	16.88
645.976	11.88
646.736	15.88
647.495	13.88
648.255	14.88
649.014	13.88
649.774	11.88
650.533	14.88
651.292	12.88
652.051	10.88
652.81	12.88
653.569	10.88
654.328	12.88
655.087	9.88
655.846	10.88
656.604	10.88
657.363	9.88
658.121	11.88
658.88	6.88
659.638	11.88
660.397	9.88
661.155	11.88
661.913	8.88
662.671	9.88
663.429	9.88
664.187	8.88
664.945	8.88
665.703	5.88
666.46	9.88
667.218	8.88
667.976	6.88
668.733	8.88
669.49	7.88
670.248	7.88
671.005	7.88
671.762	8.88
672.519	6.88
673.276	6.88
674.033	7.88
674.79	7.88
675.547	6.88
676.304	6.88
677.06	9.88
677.817	4.88
678.574	7.88
679.33	4.88
680.086	4.88
680.843	7.88
681.599	6.88
682.355	5.88
683.111	3.88
683.867	4.88
684.623	6.88
685.379	7.88
686.135	3.88
686.89	6.88
687.646	5.88
688.402	5.88
689.157	6.88
689.912	5.88
690.668	5.88
691.423	5.88
692.178	5.88
692.933	7.88
693.688	4.88
694.443	7.88
695.198	4.88
695.953	9.88
696.708	7.88
697.462	3.88
698.217	6.88
698.972	3.88
699.726	6.88
700.48	5.88
701.235	6.88
701.989	5.88
702.743	4.88
703.497	5.88
704.251	4.88
705.005	5.88
705.759	4.88
706.513	6.88
707.266	5.88
708.02	4.88
708.774	4.88
709.527	4.88
710.28	7.88
711.034	5.88
711.787	3.88
712.54	5.88
713.293	5.88
714.046	4.88
714.799	3.88
715.552	5.88
716.305	3.88
717.058	5.88
717.81	5.88
718.563	5.88
719.315	5.88
720.068	3.88
720.82	7.88
721.573	4.88
722.325	4.88
723.077	5.88
723.829	6.88
724.581	6.88
725.333	4.88
726.085	7.88
726.836	2.88
727.588	6.88
728.34	6.88
729.091	4.88
729.843	7.88
730.594	4.88
731.346	3.88
732.097	4.88
732.848	6.88
733.599	5.88
734.35	7.88
735.101	6.88
735.852	4.88
736.603	4.88
737.354	5.88
738.104	8.88
738.855	6.88
739.605	8.88
740.356	10.88
741.106	6.88
741.856	5.88
742.607	6.88
743.357	7.88
744.107	6.88
744.857	6.88
745.607	7.88
746.357	5.88
747.106	6.88
747.856	6.88
748.606	6.88
749.355	8.88
750.105	6.88
750.854	6.88
751.603	8.88
752.353	8.88
753.102	8.88
753.851	9.88
754.6	8.88
755.349	8.88
756.098	7.88
756.847	9.88
757.595	9.88
758.344	8.88
759.093	10.88
759.841	9.88
760.589	6.88
761.338	10.88
762.086	10.88
762.834	7.88
763.582	9.88
764.331	11.88
765.079	6.88
765.826	9.88
766.574	9.88
767.322	8.88
768.07	11.88
768.817	9.88
769.565	9.88
770.312	10.88
771.06	8.88
771.807	9.88
772.554	13.88
773.302	10.88
774.049	13.88
774.796	10.88
775.543	12.88
776.29	12.88
777.036	12.88
777.783	9.88
778.53	10.88
779.276	14.88
780.023	12.88
780.769	12.88
781.516	13.88
782.262	10.88
783.008	12.88
783.754	12.88
784.5	9.88
785.246	11.88
785.992	13.88
786.738	11.88
787.484	10.88
788.23	10.88
788.975	10.88
789.721	14.88
790.466	11.88
791.212	10.88
791.957	10.88
792.702	11.88
793.447	13.88
794.193	12.88
794.938	10.88
795.683	11.88
796.427	10.88
797.172	10.88
797.917	10.88
798.662	7.88
799.406	9.88
800.151	10.88
800.895	10.88
801.64	9.88
802.384	8.88
803.128	9.88
803.872	9.88
804.616	9.88
805.36	8.88
806.104	6.88
806.848	6.88
807.592	8.88
808.336	7.88
809.079	8.88
809.823	8.88
810.566	8.88
811.31	8.88
812.053	10.88
812.796	4.88
813.539	8.88
814.283	7.88
815.026	4.88
815.769	6.88
816.511	7.88
817.254	6.88
817.997	7.88
818.74	8.88
819.482	5.88
820.225	6.88
820.967	7.88
821.71	7.88
822.452	5.88
823.194	5.88
823.936	4.88
824.678	5.88
825.42	5.88
826.162	6.88
826.904	7.88
827.646	6.88
828.388	3.88
829.129	5.88
829.871	7.88
830.612	4.88
831.354	3.88
832.095	4.88
832.836	4.88
833.577	6.88
834.319	4.88
835.06	4.88
835.801	2.88
836.542	4.88
837.282	4.88
838.023	7.88
838.764	4.88
839.504	5.88
840.245	5.88
840.985	5.88
841.726	3.88
842.466	3.88
843.206	6.88
843.946	4.88
844.687	2.88
845.427	2.88
846.166	6.88
846.906	1.88
847.646	3.88
848.386	4.88
849.125	3.88
849.865	4.88
850.605	4.88
851.344	2.88
852.083	2.88
852.823	2.88
853.562	4.88
854.301	2.88
855.04	6.88
855.779	2.88
856.518	2.88
857.257	0.88
857.995	3.88
858.734	2.88
859.473	2.88
860.211	4.88
860.95	2.88
861.688	2.88
862.426	2.88
863.165	3.88
863.903	0.88
864.641	2.88
865.379	1.88
866.117	3.88
866.855	3.88
867.593	2.88
868.33	1.88
869.068	4.88
869.806	1.88
870.543	2.88
871.28	2.88
872.018	1.88
872.755	-0.12
873.492	1.88
874.229	0.88
874.967	-0.12
875.703	1.88
876.44	0.88
877.177	2.88
877.914	3.88
878.651	1.88
879.387	1.88
880.124	2.88
880.86	2.88
881.597	1.88
882.333	3.88
883.069	0.88
883.806	1.88
884.542	1.88
885.278	1.88
886.014	2.88
886.749	-0.12
887.485	2.88
888.221	2.88
888.957	1.88
889.692	1.88
890.428	0.88
891.163	-1.12
891.899	-1.12
892.634	-0.12
893.369	1.88
894.104	1.88
894.839	-0.12
895.574	0.88
896.309	2.88
897.044	-0.12
897.779	1.88
898.514	2.88
899.248	2.88
899.983	-1.12
900.717	-0.12
901.452	0.88
902.186	0.88
902.92	-0.12
903.654	-1.12
904.389	0.88
905.123	1.88
905.857	1.88
906.59	-0.12
907.324	-0.12
908.058	-0.12
908.792	-0.12
909.525	0.88
910.259	-0.12
910.992	0.88
911.726	0.88
912.459	-1.12
913.192	0.88
913.925	-1.12
914.658	-1.12
915.391	1.88
916.124	0.88
916.857	-0.12
917.59	-1.12
918.323	1.88
919.055	0.88
919.788	-1.12
920.521	1.88
921.253	-2.12
921.985	-1.12
922.718	0.88
923.45	0.88
924.182	-0.12
924.914	1.88
925.646	-0.12
926.378	-0.12
927.11	-0.12
927.841	0.88
928.573	-1.12
929.305	-0.12
930.036	0.88
930.768	0.88
931.499	-1.12
932.23	0.88
932.962	-0.12
933.693	-1.12
934.424	-1.12
935.155	0.88
935.886	0.88
936.617	-1.12
937.348	-2.12
938.078	-1.12
938.809	-0.12
939.54	-1.12
940.27	-1.12
941.001	0.88
941.731	-2.12
942.461	2.88
943.191	-1.12
943.922	2.88
944.652	-2.12
945.382	0.88
946.112	1.88
946.841	0.88
947.571	1.88
948.301	-1.12
949.031	2.88
949.76	-2.12
950.49	-1.12
951.219	-0.12
951.948	-0.12
952.678	-1.12
953.407	-1.12
954.136	0.88
954.865	2.88
955.594	1.88
956.323	0.88
957.052	2.88
957.78	-0.12
958.509	0.88
959.238	1.88
959.966	0.88
960.695	0.88
961.423	-2.12
962.151	1.88
962.88	1.88
963.608	0.88
964.336	0.88
965.064	-0.12
965.792	-2.12
966.52	-2.12
967.247	-0.12
967.975	-1.12
968.703	-0.12
969.43	1.88
970.158	-0.12
970.885	-0.12
971.613	-0.12
972.34	-0.12
973.067	-1.12
973.794	0.88
974.521	-1.12
975.248	-0.12
975.975	-0.12
976.702	-2.12
977.429	0.88
978.156	-1.12
978.882	0.88
979.609	0.88
980.335	-0.12
981.062	-0.12
981.788	0.88
982.514	-1.12
983.24	-1.12
983.967	0.88
984.693	-2.12
985.419	-0.12
986.144	0.88
986.87	-1.12
987.596	0.88
988.322	0.88
989.047	1.88
989.773	0.88
990.498	0.88
991.224	-2.12
991.949	-0.12
992.674	1.88
993.399	0.88
994.124	0.88
994.849	2.88
995.574	0.88
996.299	0.88
997.024	-0.12
997.749	1.88
998.473	1.88
999.198	-2.12
999.922	-0.12
1000.647	0.88
1001.371	3.88
1002.095	-2.12
1002.82	0.88
1003.544	-2.12
1004.268	4.88
1004.992	1.88
1005.716	2.88
1006.439	4.88
1007.163	3.88
1007.887	2.88
1008.611	0.88
1009.334	-2.12
1010.058	0.88
1010.781	-1.12
1011.504	1.88
1012.228	-0.12
1012.951	-0.12
1013.674	0.88
1014.397	0.88
1015.12	-2.12
