节点500_565_QEPB04081__458__09-58-02-231.txt的数据

Date: Thu Nov 13 09:58:02 CST 2025
User: PC
Spectrometer: QEPB0408
触发模式: 0
积分时间 (秒): 1.000000E-2
Scans to average: 1
启用暗噪声校正: true
启用非线性校正: false
滑动平均宽度: 0
X轴模式: Wavelengths
Number of Pixels in Spectrum: 1044
>>>>>Begin Spectral Data<<<<<
220.843	4.25
221.644	5.25
222.444	3.25
223.244	6.25
224.045	3.25
224.845	5.25
225.645	4.25
226.445	4.25
227.245	5.25
228.045	5.25
228.845	7.25
229.645	5.25
230.444	6.25
231.244	7.25
232.043	8.25
232.843	5.25
233.642	5.25
234.442	7.25
235.241	6.25
236.04	8.25
236.839	9.25
237.638	9.25
238.437	11.25
239.236	7.25
240.035	5.25
240.833	9.25
241.632	8.25
242.43	7.25
243.229	11.25
244.027	8.25
244.826	13.25
245.624	10.25
246.422	11.25
247.22	11.25
248.018	7.25
248.816	12.25
249.614	10.25
250.412	13.25
251.21	12.25
252.007	14.25
252.805	12.25
253.602	11.25
254.4	15.25
255.197	12.25
255.994	15.25
256.791	13.25
257.589	15.25
258.386	17.25
259.183	16.25
259.979	18.25
260.776	13.25
261.573	18.25
262.37	17.25
263.166	17.25
263.963	20.25
264.759	21.25
265.556	22.25
266.352	18.25
267.148	20.25
267.944	22.25
268.74	21.25
269.536	22.25
270.332	23.25
271.128	23.25
271.924	24.25
272.719	26.25
273.515	23.25
274.311	25.25
275.106	27.25
275.901	24.25
276.697	25.25
277.492	26.25
278.287	27.25
279.082	25.25
279.877	24.25
280.672	27.25
281.467	27.25
282.262	28.25
283.056	24.25
283.851	28.25
284.646	28.25
285.44	27.25
286.234	26.25
287.029	28.25
287.823	29.25
288.617	27.25
289.411	29.25
290.205	26.25
290.999	28.25
291.793	28.25
292.587	29.25
293.381	24.25
294.174	25.25
294.968	24.25
295.761	24.25
296.555	22.25
297.348	21.25
298.141	21.25
298.935	25.25
299.728	21.25
300.521	21.25
301.314	21.25
302.107	23.25
302.899	17.25
303.692	20.25
304.485	19.25
305.277	18.25
306.07	18.25
306.862	19.25
307.655	17.25
308.447	18.25
309.239	18.25
310.031	18.25
310.823	18.25
311.615	16.25
312.407	13.25
313.199	13.25
313.991	15.25
314.783	13.25
315.574	14.25
316.366	15.25
317.157	14.25
317.949	11.25
318.74	11.25
319.531	14.25
320.322	12.25
321.113	13.25
321.904	12.25
322.695	10.25
323.486	11.25
324.277	12.25
325.068	12.25
325.858	10.25
326.649	10.25
327.439	13.25
328.23	9.25
329.02	10.25
329.81	11.25
330.6	9.25
331.391	13.25
332.181	9.25
332.971	9.25
333.76	11.25
334.55	11.25
335.34	10.25
336.13	7.25
336.919	12.25
337.709	12.25
338.498	9.25
339.287	11.25
340.077	9.25
340.866	7.25
341.655	8.25
342.444	9.25
343.233	10.25
344.022	10.25
344.811	8.25
345.6	8.25
346.388	11.25
347.177	7.25
347.965	11.25
348.754	10.25
349.542	9.25
350.33	10.25
351.119	11.25
351.907	12.25
352.695	9.25
353.483	9.25
354.271	10.25
355.059	7.25
355.846	9.25
356.634	8.25
357.422	10.25
358.209	11.25
358.997	10.25
359.784	7.25
360.571	11.25
361.359	9.25
362.146	7.25
362.933	9.25
363.72	9.25
364.507	8.25
365.294	9.25
366.081	8.25
366.867	9.25
367.654	9.25
368.44	9.25
369.227	5.25
370.013	9.25
370.8	7.25
371.586	9.25
372.372	8.25
373.158	9.25
373.944	11.25
374.73	5.25
375.516	8.25
376.302	9.25
377.088	11.25
377.873	9.25
378.659	9.25
379.445	7.25
380.23	7.25
381.015	8.25
381.801	9.25
382.586	8.25
383.371	7.25
384.156	7.25
384.941	9.25
385.726	11.25
386.511	9.25
387.296	11.25
388.08	11.25
388.865	8.25
389.649	11.25
390.434	12.25
391.218	12.25
392.003	10.25
392.787	10.25
393.571	11.25
394.355	9.25
395.139	12.25
395.923	10.25
396.707	13.25
397.491	9.25
398.274	9.25
399.058	12.25
399.842	11.25
400.625	9.25
401.408	12.25
402.192	9.25
402.975	11.25
403.758	12.25
404.541	11.25
405.324	14.25
406.107	15.25
406.89	13.25
407.673	16.25
408.456	12.25
409.238	10.25
410.021	13.25
410.803	13.25
411.586	12.25
412.368	14.25
413.151	13.25
413.933	12.25
414.715	16.25
415.497	16.25
416.279	14.25
417.061	17.25
417.843	17.25
418.624	15.25
419.406	17.25
420.188	17.25
420.969	18.25
421.751	18.25
422.532	18.25
423.313	21.25
424.095	20.25
424.876	17.25
425.657	19.25
426.438	22.25
427.219	19.25
428	23.25
428.78	21.25
429.561	24.25
430.342	25.25
431.122	24.25
431.903	27.25
432.683	29.25
433.464	29.25
434.244	29.25
435.024	33.25
435.804	31.25
436.584	35.25
437.364	38.25
438.144	37.25
438.924	38.25
439.704	41.25
440.483	46.25
441.263	48.25
442.042	48.25
442.822	53.25
443.601	58.25
444.38	63.25
445.16	74.25
445.939	76.25
446.718	80.25
447.497	90.25
448.276	97.25
449.054	106.25
449.833	121.25
450.612	127.25
451.391	143.25
452.169	156.25
452.948	171.25
453.726	185.25
454.504	206.25
455.282	229.25
456.061	259.25
456.839	285.25
457.617	309.25
458.395	355.25
459.172	397.25
459.95	442.25
460.728	489.25
461.506	541.25
462.283	612.25
463.061	667.25
463.838	741.25
464.615	827.25
465.393	927.25
466.17	1021.25
466.947	1138.25
467.724	1261.25
468.501	1401.25
469.278	1527.25
470.055	1723.25
470.831	1878.25
471.608	2114.25
472.385	2299.25
473.161	2528.25
473.938	2808.25
474.714	3019.25
475.49	3332.25
476.266	3663.25
477.043	3999.25
477.819	4398.25
478.595	4799.25
479.371	5185.25
480.146	5684.25
480.922	6211.25
481.698	6741.25
482.473	7305.25
483.249	7898.25
484.024	8632.25
484.8	9340.25
485.575	10146.25
486.35	10999.25
487.126	11909.25
487.901	12851.25
488.676	13912.25
489.451	15017.25
490.225	16262.25
491	17426.25
491.775	18744.25
492.55	20099.25
493.324	21450.25
494.099	22820.25
494.873	24292.25
495.647	25938.25
496.422	27377.25
497.196	28824.25
497.97	30272.25
498.744	31790.25
499.518	33079.25
500.292	34316.25
501.066	35504.25
501.839	36633.25
502.613	37513.25
503.387	38282.25
504.16	38868.25
504.934	39258.25
505.707	39459.25
506.48	39486.25
507.253	39507.25
508.027	38976.25
508.8	38434.25
509.573	37817.25
510.346	36943.25
511.118	35960.25
511.891	35178.25
512.664	34090.25
513.437	32918.25
514.209	31788.25
514.982	30561.25
515.754	29364.25
516.526	28241.25
517.298	27129.25
518.071	26091.25
518.843	24980.25
519.615	23932.25
520.387	23028.25
521.159	22145.25
521.93	21286.25
522.702	20341.25
523.474	19547.25
524.245	18763.25
525.017	18029.25
525.788	17243.25
526.56	16502.25
527.331	15785.25
528.102	15113.25
528.873	14307.25
529.644	13654.25
530.415	13034.25
531.186	12394.25
531.957	11775.25
532.728	11185.25
533.498	10611.25
534.269	10022.25
535.039	9503.25
535.81	9038.25
536.58	8537.25
537.351	8057.25
538.121	7628.25
538.891	7239.25
539.661	6878.25
540.431	6487.25
541.201	6147.25
541.971	5798.25
542.741	5498.25
543.51	5216.25
544.28	4946.25
545.05	4699.25
545.819	4500.25
546.588	4267.25
547.358	4057.25
548.127	3869.25
548.896	3657.25
549.665	3530.25
550.434	3325.25
551.203	3145.25
551.972	2980.25
552.741	2822.25
553.51	2679.25
554.278	2525.25
555.047	2368.25
555.815	2239.25
556.584	2133.25
557.352	2014.25
558.121	1911.25
558.889	1789.25
559.657	1701.25
560.425	1603.25
561.193	1512.25
561.961	1434.25
562.729	1354.25
563.496	1291.25
564.264	1212.25
565.032	1146.25
565.799	1097.25
566.567	1035.25
567.334	978.25
568.101	918.25
568.869	867.25
569.636	825.25
570.403	773.25
571.17	733.25
571.937	698.25
572.704	655.25
573.471	610.25
574.237	575.25
575.004	546.25
575.771	514.25
576.537	489.25
577.303	457.25
578.07	443.25
578.836	412.25
579.602	386.25
580.368	370.25
581.134	348.25
581.9	332.25
582.666	311.25
583.432	301.25
584.198	283.25
584.964	273.25
585.729	261.25
586.495	243.25
587.26	227.25
588.025	212.25
588.791	206.25
589.556	194.25
590.321	185.25
591.086	173.25
591.851	165.25
592.616	163.25
593.381	147.25
594.146	141.25
594.911	132.25
595.675	135.25
596.44	126.25
597.204	115.25
597.969	117.25
598.733	110.25
599.497	104.25
600.261	104.25
601.025	97.25
601.79	94.25
602.553	89.25
603.317	83.25
604.081	80.25
604.845	76.25
605.609	74.25
606.372	72.25
607.136	66.25
607.899	70.25
608.662	65.25
609.426	58.25
610.189	60.25
610.952	57.25
611.715	54.25
612.478	57.25
613.241	52.25
614.004	49.25
614.767	49.25
615.529	46.25
616.292	41.25
617.055	41.25
617.817	39.25
618.579	41.25
619.342	39.25
620.104	36.25
620.866	32.25
621.628	35.25
622.39	32.25
623.152	33.25
623.914	30.25
624.676	27.25
625.438	27.25
626.199	31.25
626.961	28.25
627.722	29.25
628.484	27.25
629.245	24.25
630.006	25.25
630.768	23.25
631.529	23.25
632.29	24.25
633.051	22.25
633.812	21.25
634.573	20.25
635.333	19.25
636.094	20.25
636.855	21.25
637.615	18.25
638.376	18.25
639.136	18.25
639.896	19.25
640.657	18.25
641.417	17.25
642.177	17.25
642.937	14.25
643.697	14.25
644.457	15.25
645.216	14.25
645.976	14.25
646.736	14.25
647.495	14.25
648.255	13.25
649.014	12.25
649.774	12.25
650.533	13.25
651.292	11.25
652.051	15.25
652.81	11.25
653.569	11.25
654.328	11.25
655.087	11.25
655.846	10.25
656.604	9.25
657.363	11.25
658.121	12.25
658.88	11.25
659.638	9.25
660.397	11.25
661.155	11.25
661.913	9.25
662.671	11.25
663.429	8.25
664.187	8.25
664.945	10.25
665.703	7.25
666.46	9.25
667.218	9.25
667.976	7.25
668.733	9.25
669.49	7.25
670.248	7.25
671.005	4.25
671.762	7.25
672.519	8.25
673.276	8.25
674.033	5.25
674.79	7.25
675.547	8.25
676.304	5.25
677.06	8.25
677.817	6.25
678.574	9.25
679.33	4.25
680.086	9.25
680.843	7.25
681.599	9.25
682.355	8.25
683.111	7.25
683.867	8.25
684.623	8.25
685.379	7.25
686.135	8.25
686.89	7.25
687.646	8.25
688.402	5.25
689.157	5.25
689.912	7.25
690.668	6.25
691.423	8.25
692.178	8.25
692.933	6.25
693.688	6.25
694.443	5.25
695.198	5.25
695.953	8.25
696.708	8.25
697.462	7.25
698.217	6.25
698.972	7.25
699.726	5.25
700.48	6.25
701.235	5.25
701.989	5.25
702.743	6.25
703.497	7.25
704.251	7.25
705.005	5.25
705.759	6.25
706.513	6.25
707.266	7.25
708.02	7.25
708.774	9.25
709.527	6.25
710.28	6.25
711.034	5.25
711.787	6.25
712.54	7.25
713.293	7.25
714.046	8.25
714.799	6.25
715.552	7.25
716.305	8.25
717.058	6.25
717.81	7.25
718.563	8.25
719.315	6.25
720.068	10.25
720.82	8.25
721.573	5.25
722.325	9.25
723.077	5.25
723.829	7.25
724.581	7.25
725.333	8.25
726.085	8.25
726.836	9.25
727.588	7.25
728.34	6.25
729.091	8.25
729.843	7.25
730.594	8.25
731.346	7.25
732.097	5.25
732.848	8.25
733.599	9.25
734.35	7.25
735.101	8.25
735.852	6.25
736.603	8.25
737.354	6.25
738.104	7.25
738.855	8.25
739.605	8.25
740.356	9.25
741.106	7.25
741.856	9.25
742.607	8.25
743.357	11.25
744.107	9.25
744.857	7.25
745.607	9.25
746.357	9.25
747.106	7.25
747.856	8.25
748.606	8.25
749.355	8.25
750.105	9.25
750.854	8.25
751.603	10.25
752.353	9.25
753.102	8.25
753.851	9.25
754.6	10.25
755.349	10.25
756.098	9.25
756.847	10.25
757.595	11.25
758.344	9.25
759.093	10.25
759.841	9.25
760.589	9.25
761.338	11.25
762.086	9.25
762.834	9.25
763.582	11.25
764.331	11.25
765.079	11.25
765.826	10.25
766.574	10.25
767.322	11.25
768.07	12.25
768.817	13.25
769.565	12.25
770.312	13.25
771.06	13.25
771.807	13.25
772.554	8.25
773.302	11.25
774.049	14.25
774.796	10.25
775.543	12.25
776.29	10.25
777.036	12.25
777.783	14.25
778.53	13.25
779.276	12.25
780.023	12.25
780.769	13.25
781.516	11.25
782.262	13.25
783.008	13.25
783.754	10.25
784.5	11.25
785.246	12.25
785.992	13.25
786.738	15.25
787.484	14.25
788.23	13.25
788.975	12.25
789.721	10.25
790.466	12.25
791.212	13.25
791.957	15.25
792.702	12.25
793.447	13.25
794.193	12.25
794.938	13.25
795.683	13.25
796.427	11.25
797.172	11.25
797.917	10.25
798.662	14.25
799.406	12.25
800.151	8.25
800.895	10.25
801.64	10.25
802.384	12.25
803.128	9.25
803.872	12.25
804.616	10.25
805.36	11.25
806.104	10.25
806.848	6.25
807.592	9.25
808.336	6.25
809.079	10.25
809.823	8.25
810.566	9.25
811.31	8.25
812.053	7.25
812.796	7.25
813.539	9.25
814.283	7.25
815.026	9.25
815.769	7.25
816.511	9.25
817.254	5.25
817.997	5.25
818.74	5.25
819.482	7.25
820.225	6.25
820.967	7.25
821.71	6.25
822.452	7.25
823.194	8.25
823.936	5.25
824.678	7.25
825.42	7.25
826.162	5.25
826.904	9.25
827.646	8.25
828.388	7.25
829.129	6.25
829.871	7.25
830.612	4.25
831.354	8.25
832.095	4.25
832.836	8.25
833.577	6.25
834.319	5.25
835.06	4.25
835.801	4.25
836.542	6.25
837.282	7.25
838.023	5.25
838.764	3.25
839.504	8.25
840.245	5.25
840.985	4.25
841.726	5.25
842.466	5.25
843.206	6.25
843.946	5.25
844.687	4.25
845.427	8.25
846.166	3.25
846.906	5.25
847.646	5.25
848.386	5.25
849.125	3.25
849.865	4.25
850.605	5.25
851.344	2.25
852.083	4.25
852.823	2.25
853.562	5.25
854.301	3.25
855.04	4.25
855.779	3.25
856.518	4.25
857.257	5.25
857.995	3.25
858.734	4.25
859.473	4.25
860.211	3.25
860.95	1.25
861.688	5.25
862.426	3.25
863.165	3.25
863.903	3.25
864.641	4.25
865.379	3.25
866.117	4.25
866.855	3.25
867.593	3.25
868.33	5.25
869.068	3.25
869.806	1.25
870.543	2.25
871.28	3.25
872.018	1.25
872.755	5.25
873.492	2.25
874.229	3.25
874.967	2.25
875.703	2.25
876.44	1.25
877.177	2.25
877.914	1.25
878.651	1.25
879.387	3.25
880.124	2.25
880.86	1.25
881.597	4.25
882.333	2.25
883.069	2.25
883.806	-0.75
884.542	2.25
885.278	1.25
886.014	2.25
886.749	1.25
887.485	-0.75
888.221	1.25
888.957	0.25
889.692	-0.75
890.428	2.25
891.163	2.25
891.899	0.25
892.634	2.25
893.369	-0.75
894.104	0.25
894.839	1.25
895.574	1.25
896.309	2.25
897.044	0.25
897.779	2.25
898.514	3.25
899.248	2.25
899.983	1.25
900.717	1.25
901.452	2.25
902.186	2.25
902.92	1.25
903.654	1.25
904.389	1.25
905.123	3.25
905.857	1.25
906.59	1.25
907.324	1.25
908.058	2.25
908.792	1.25
909.525	-1.75
910.259	1.25
910.992	1.25
911.726	0.25
912.459	-0.75
913.192	-0.75
913.925	2.25
914.658	-0.75
915.391	1.25
916.124	-0.75
916.857	1.25
917.59	1.25
918.323	2.25
919.055	1.25
919.788	1.25
920.521	0.25
921.253	1.25
921.985	3.25
922.718	1.25
923.45	3.25
924.182	0.25
924.914	2.25
925.646	1.25
926.378	-1.75
927.11	1.25
927.841	0.25
928.573	2.25
929.305	0.25
930.036	1.25
930.768	-0.75
931.499	2.25
932.23	1.25
932.962	0.25
933.693	1.25
934.424	0.25
935.155	-1.75
935.886	-0.75
936.617	0.25
937.348	0.25
938.078	1.25
938.809	2.25
939.54	-0.75
940.27	1.25
941.001	-0.75
941.731	0.25
942.461	3.25
943.191	0.25
943.922	1.25
944.652	3.25
945.382	1.25
946.112	1.25
946.841	0.25
947.571	1.25
948.301	0.25
949.031	0.25
949.76	-0.75
950.49	1.25
951.219	1.25
951.948	0.25
952.678	0.25
953.407	2.25
954.136	1.25
954.865	1.25
955.594	1.25
956.323	2.25
957.052	0.25
957.78	1.25
958.509	0.25
959.238	2.25
959.966	1.25
960.695	2.25
961.423	2.25
962.151	-0.75
962.88	1.25
963.608	-0.75
964.336	-0.75
965.064	0.25
965.792	-0.75
966.52	1.25
967.247	1.25
967.975	3.25
968.703	-1.75
969.43	1.25
970.158	-1.75
970.885	0.25
971.613	2.25
972.34	1.25
973.067	1.25
973.794	0.25
974.521	1.25
975.248	0.25
975.975	1.25
976.702	-0.75
977.429	0.25
978.156	2.25
978.882	0.25
979.609	1.25
980.335	0.25
981.062	2.25
981.788	0.25
982.514	1.25
983.24	-0.75
983.967	1.25
984.693	1.25
985.419	1.25
986.144	-0.75
986.87	-1.75
987.596	0.25
988.322	1.25
989.047	1.25
989.773	1.25
990.498	0.25
991.224	-0.75
991.949	-1.75
992.674	1.25
993.399	0.25
994.124	-1.75
994.849	1.25
995.574	-0.75
996.299	2.25
997.024	2.25
997.749	2.25
998.473	1.25
999.198	-0.75
999.922	0.25
1000.647	1.25
1001.371	2.25
1002.095	0.25
1002.82	-0.75
1003.544	-0.75
1004.268	1.25
1004.992	2.25
1005.716	5.25
1006.439	3.25
1007.163	4.25
1007.887	3.25
1008.611	1.25
1009.334	-1.75
1010.058	0.25
1010.781	-1.75
1011.504	2.25
1012.228	-1.75
1012.951	-1.75
1013.674	1.25
1014.397	-1.75
1015.12	1.25
