节点500_565_QEPB04081__390__09-56-54-354.txt的数据

Date: Thu Nov 13 09:56:54 CST 2025
User: PC
Spectrometer: QEPB0408
触发模式: 0
积分时间 (秒): 1.000000E-2
Scans to average: 1
启用暗噪声校正: true
启用非线性校正: false
滑动平均宽度: 0
X轴模式: Wavelengths
Number of Pixels in Spectrum: 1044
>>>>>Begin Spectral Data<<<<<
220.843	3.25
221.644	4.25
222.444	4.25
223.244	4.25
224.045	4.25
224.845	5.25
225.645	4.25
226.445	6.25
227.245	5.25
228.045	6.25
228.845	4.25
229.645	7.25
230.444	8.25
231.244	6.25
232.043	5.25
232.843	6.25
233.642	6.25
234.442	8.25
235.241	6.25
236.04	6.25
236.839	10.25
237.638	6.25
238.437	7.25
239.236	7.25
240.035	8.25
240.833	9.25
241.632	8.25
242.43	11.25
243.229	9.25
244.027	9.25
244.826	10.25
245.624	9.25
246.422	10.25
247.22	9.25
248.018	12.25
248.816	11.25
249.614	12.25
250.412	13.25
251.21	13.25
252.007	11.25
252.805	12.25
253.602	12.25
254.4	12.25
255.197	14.25
255.994	16.25
256.791	12.25
257.589	16.25
258.386	16.25
259.183	18.25
259.979	18.25
260.776	16.25
261.573	19.25
262.37	16.25
263.166	17.25
263.963	21.25
264.759	18.25
265.556	19.25
266.352	22.25
267.148	22.25
267.944	23.25
268.74	23.25
269.536	22.25
270.332	25.25
271.128	24.25
271.924	22.25
272.719	27.25
273.515	25.25
274.311	26.25
275.106	28.25
275.901	25.25
276.697	26.25
277.492	23.25
278.287	28.25
279.082	26.25
279.877	29.25
280.672	29.25
281.467	26.25
282.262	24.25
283.056	26.25
283.851	29.25
284.646	26.25
285.44	31.25
286.234	28.25
287.029	26.25
287.823	28.25
288.617	24.25
289.411	28.25
290.205	24.25
290.999	28.25
291.793	26.25
292.587	23.25
293.381	27.25
294.174	24.25
294.968	26.25
295.761	22.25
296.555	24.25
297.348	17.25
298.141	23.25
298.935	24.25
299.728	23.25
300.521	23.25
301.314	18.25
302.107	20.25
302.899	18.25
303.692	17.25
304.485	18.25
305.277	20.25
306.07	19.25
306.862	20.25
307.655	17.25
308.447	15.25
309.239	19.25
310.031	19.25
310.823	14.25
311.615	15.25
312.407	16.25
313.199	16.25
313.991	13.25
314.783	12.25
315.574	14.25
316.366	10.25
317.157	10.25
317.949	10.25
318.74	15.25
319.531	13.25
320.322	11.25
321.113	12.25
321.904	10.25
322.695	12.25
323.486	11.25
324.277	11.25
325.068	10.25
325.858	12.25
326.649	11.25
327.439	11.25
328.23	10.25
329.02	8.25
329.81	13.25
330.6	8.25
331.391	7.25
332.181	9.25
332.971	11.25
333.76	10.25
334.55	10.25
335.34	10.25
336.13	9.25
336.919	8.25
337.709	10.25
338.498	9.25
339.287	10.25
340.077	12.25
340.866	9.25
341.655	8.25
342.444	8.25
343.233	9.25
344.022	10.25
344.811	8.25
345.6	11.25
346.388	10.25
347.177	9.25
347.965	10.25
348.754	10.25
349.542	9.25
350.33	11.25
351.119	6.25
351.907	9.25
352.695	9.25
353.483	7.25
354.271	7.25
355.059	8.25
355.846	6.25
356.634	7.25
357.422	8.25
358.209	8.25
358.997	9.25
359.784	8.25
360.571	8.25
361.359	11.25
362.146	8.25
362.933	7.25
363.72	8.25
364.507	9.25
365.294	6.25
366.081	8.25
366.867	6.25
367.654	6.25
368.44	8.25
369.227	6.25
370.013	3.25
370.8	4.25
371.586	9.25
372.372	8.25
373.158	6.25
373.944	11.25
374.73	5.25
375.516	12.25
376.302	7.25
377.088	9.25
377.873	6.25
378.659	7.25
379.445	8.25
380.23	7.25
381.015	9.25
381.801	6.25
382.586	10.25
383.371	8.25
384.156	6.25
384.941	8.25
385.726	9.25
386.511	11.25
387.296	7.25
388.08	8.25
388.865	6.25
389.649	8.25
390.434	8.25
391.218	7.25
392.003	7.25
392.787	9.25
393.571	10.25
394.355	10.25
395.139	9.25
395.923	11.25
396.707	10.25
397.491	10.25
398.274	10.25
399.058	11.25
399.842	12.25
400.625	11.25
401.408	11.25
402.192	12.25
402.975	11.25
403.758	10.25
404.541	14.25
405.324	11.25
406.107	13.25
406.89	9.25
407.673	13.25
408.456	13.25
409.238	13.25
410.021	12.25
410.803	13.25
411.586	15.25
412.368	16.25
413.151	13.25
413.933	14.25
414.715	14.25
415.497	16.25
416.279	13.25
417.061	13.25
417.843	15.25
418.624	17.25
419.406	19.25
420.188	15.25
420.969	16.25
421.751	19.25
422.532	17.25
423.313	19.25
424.095	17.25
424.876	17.25
425.657	21.25
426.438	20.25
427.219	19.25
428	20.25
428.78	18.25
429.561	22.25
430.342	22.25
431.122	23.25
431.903	23.25
432.683	26.25
433.464	30.25
434.244	32.25
435.024	33.25
435.804	28.25
436.584	31.25
437.364	35.25
438.144	37.25
438.924	40.25
439.704	40.25
440.483	43.25
441.263	45.25
442.042	51.25
442.822	56.25
443.601	58.25
444.38	60.25
445.16	67.25
445.939	76.25
446.718	79.25
447.497	83.25
448.276	94.25
449.054	106.25
449.833	112.25
450.612	119.25
451.391	138.25
452.169	153.25
452.948	169.25
453.726	182.25
454.504	196.25
455.282	228.25
456.061	245.25
456.839	274.25
457.617	308.25
458.395	345.25
459.172	381.25
459.95	422.25
460.728	470.25
461.506	536.25
462.283	590.25
463.061	660.25
463.838	732.25
464.615	816.25
465.393	908.25
466.17	1020.25
466.947	1135.25
467.724	1253.25
468.501	1387.25
469.278	1522.25
470.055	1693.25
470.831	1878.25
471.608	2072.25
472.385	2275.25
473.161	2513.25
473.938	2791.25
474.714	3036.25
475.49	3334.25
476.266	3647.25
477.043	3997.25
477.819	4386.25
478.595	4833.25
479.371	5244.25
480.146	5751.25
480.922	6243.25
481.698	6789.25
482.473	7398.25
483.249	8062.25
484.024	8797.25
484.8	9536.25
485.575	10364.25
486.35	11212.25
487.126	12144.25
487.901	13100.25
488.676	14268.25
489.451	15380.25
490.225	16638.25
491	17869.25
491.775	19232.25
492.55	20669.25
493.324	22037.25
494.099	23493.25
494.873	25001.25
495.647	26624.25
496.422	28180.25
497.196	29685.25
497.97	31225.25
498.744	32691.25
499.518	33990.25
500.292	35259.25
501.066	36406.25
501.839	37578.25
502.613	38350.25
503.387	39176.25
504.16	39856.25
504.934	40147.25
505.707	40198.25
506.48	40176.25
507.253	39896.25
508.027	39514.25
508.8	38843.25
509.573	38012.25
510.346	37125.25
511.118	36112.25
511.891	35177.25
512.664	34132.25
513.437	32916.25
514.209	31723.25
514.982	30493.25
515.754	29358.25
516.526	28123.25
517.298	26940.25
518.071	25936.25
518.843	24885.25
519.615	23856.25
520.387	22882.25
521.159	22007.25
521.93	21129.25
522.702	20176.25
523.474	19408.25
524.245	18726.25
525.017	17911.25
525.788	17108.25
526.56	16406.25
527.331	15607.25
528.102	14934.25
528.873	14218.25
529.644	13501.25
530.415	12876.25
531.186	12244.25
531.957	11627.25
532.728	11075.25
533.498	10480.25
534.269	9922.25
535.039	9367.25
535.81	8882.25
536.58	8429.25
537.351	7965.25
538.121	7505.25
538.891	7116.25
539.661	6750.25
540.431	6389.25
541.201	6070.25
541.971	5752.25
542.741	5429.25
543.51	5100.25
544.28	4876.25
545.05	4650.25
545.819	4405.25
546.588	4190.25
547.358	3997.25
548.127	3792.25
548.896	3612.25
549.665	3424.25
550.434	3245.25
551.203	3098.25
551.972	2929.25
552.741	2783.25
553.51	2620.25
554.278	2474.25
555.047	2351.25
555.815	2210.25
556.584	2101.25
557.352	1977.25
558.121	1855.25
558.889	1756.25
559.657	1655.25
560.425	1567.25
561.193	1478.25
561.961	1404.25
562.729	1343.25
563.496	1264.25
564.264	1194.25
565.032	1122.25
565.799	1097.25
566.567	1010.25
567.334	954.25
568.101	897.25
568.869	842.25
569.636	808.25
570.403	764.25
571.17	721.25
571.937	684.25
572.704	653.25
573.471	594.25
574.237	567.25
575.004	540.25
575.771	505.25
576.537	477.25
577.303	445.25
578.07	419.25
578.836	402.25
579.602	385.25
580.368	357.25
581.134	341.25
581.9	321.25
582.666	311.25
583.432	294.25
584.198	270.25
584.964	266.25
585.729	248.25
586.495	238.25
587.26	221.25
588.025	213.25
588.791	198.25
589.556	190.25
590.321	177.25
591.086	171.25
591.851	166.25
592.616	155.25
593.381	147.25
594.146	143.25
594.911	134.25
595.675	133.25
596.44	123.25
597.204	117.25
597.969	114.25
598.733	108.25
599.497	102.25
600.261	97.25
601.025	95.25
601.79	92.25
602.553	84.25
603.317	82.25
604.081	79.25
604.845	74.25
605.609	69.25
606.372	69.25
607.136	68.25
607.899	63.25
608.662	59.25
609.426	61.25
610.189	55.25
610.952	55.25
611.715	56.25
612.478	47.25
613.241	49.25
614.004	48.25
614.767	44.25
615.529	40.25
616.292	44.25
617.055	40.25
617.817	41.25
618.579	38.25
619.342	38.25
620.104	36.25
620.866	34.25
621.628	32.25
622.39	36.25
623.152	31.25
623.914	29.25
624.676	29.25
625.438	27.25
626.199	26.25
626.961	26.25
627.722	25.25
628.484	26.25
629.245	22.25
630.006	24.25
630.768	21.25
631.529	22.25
632.29	22.25
633.051	20.25
633.812	18.25
634.573	21.25
635.333	20.25
636.094	18.25
636.855	19.25
637.615	17.25
638.376	20.25
639.136	16.25
639.896	13.25
640.657	16.25
641.417	18.25
642.177	13.25
642.937	16.25
643.697	13.25
644.457	13.25
645.216	12.25
645.976	12.25
646.736	13.25
647.495	14.25
648.255	12.25
649.014	12.25
649.774	11.25
650.533	11.25
651.292	11.25
652.051	11.25
652.81	10.25
653.569	9.25
654.328	12.25
655.087	10.25
655.846	10.25
656.604	10.25
657.363	6.25
658.121	9.25
658.88	9.25
659.638	11.25
660.397	8.25
661.155	10.25
661.913	10.25
662.671	11.25
663.429	9.25
664.187	7.25
664.945	9.25
665.703	8.25
666.46	8.25
667.218	7.25
667.976	8.25
668.733	9.25
669.49	8.25
670.248	6.25
671.005	6.25
671.762	10.25
672.519	6.25
673.276	7.25
674.033	7.25
674.79	7.25
675.547	6.25
676.304	6.25
677.06	4.25
677.817	8.25
678.574	5.25
679.33	9.25
680.086	6.25
680.843	8.25
681.599	6.25
682.355	6.25
683.111	6.25
683.867	8.25
684.623	7.25
685.379	8.25
686.135	6.25
686.89	6.25
687.646	6.25
688.402	2.25
689.157	7.25
689.912	4.25
690.668	7.25
691.423	5.25
692.178	8.25
692.933	5.25
693.688	4.25
694.443	5.25
695.198	4.25
695.953	7.25
696.708	6.25
697.462	6.25
698.217	7.25
698.972	4.25
699.726	6.25
700.48	2.25
701.235	6.25
701.989	8.25
702.743	2.25
703.497	6.25
704.251	6.25
705.005	8.25
705.759	6.25
706.513	7.25
707.266	4.25
708.02	8.25
708.774	5.25
709.527	5.25
710.28	5.25
711.034	4.25
711.787	6.25
712.54	5.25
713.293	4.25
714.046	5.25
714.799	6.25
715.552	6.25
716.305	6.25
717.058	3.25
717.81	7.25
718.563	5.25
719.315	8.25
720.068	5.25
720.82	7.25
721.573	4.25
722.325	6.25
723.077	6.25
723.829	6.25
724.581	6.25
725.333	7.25
726.085	7.25
726.836	6.25
727.588	6.25
728.34	5.25
729.091	7.25
729.843	6.25
730.594	5.25
731.346	6.25
732.097	9.25
732.848	7.25
733.599	5.25
734.35	7.25
735.101	8.25
735.852	8.25
736.603	7.25
737.354	5.25
738.104	8.25
738.855	4.25
739.605	6.25
740.356	7.25
741.106	6.25
741.856	6.25
742.607	7.25
743.357	7.25
744.107	7.25
744.857	10.25
745.607	9.25
746.357	7.25
747.106	9.25
747.856	5.25
748.606	7.25
749.355	8.25
750.105	10.25
750.854	8.25
751.603	9.25
752.353	8.25
753.102	6.25
753.851	7.25
754.6	9.25
755.349	9.25
756.098	10.25
756.847	7.25
757.595	11.25
758.344	10.25
759.093	9.25
759.841	8.25
760.589	10.25
761.338	9.25
762.086	8.25
762.834	8.25
763.582	11.25
764.331	10.25
765.079	11.25
765.826	9.25
766.574	9.25
767.322	12.25
768.07	11.25
768.817	12.25
769.565	10.25
770.312	10.25
771.06	9.25
771.807	10.25
772.554	12.25
773.302	11.25
774.049	11.25
774.796	12.25
775.543	14.25
776.29	12.25
777.036	12.25
777.783	12.25
778.53	13.25
779.276	12.25
780.023	13.25
780.769	13.25
781.516	13.25
782.262	10.25
783.008	12.25
783.754	11.25
784.5	14.25
785.246	12.25
785.992	10.25
786.738	12.25
787.484	11.25
788.23	15.25
788.975	14.25
789.721	12.25
790.466	12.25
791.212	9.25
791.957	11.25
792.702	10.25
793.447	11.25
794.193	12.25
794.938	15.25
795.683	13.25
796.427	12.25
797.172	13.25
797.917	11.25
798.662	9.25
799.406	9.25
800.151	11.25
800.895	13.25
801.64	12.25
802.384	9.25
803.128	8.25
803.872	9.25
804.616	8.25
805.36	9.25
806.104	10.25
806.848	7.25
807.592	6.25
808.336	9.25
809.079	6.25
809.823	6.25
810.566	8.25
811.31	8.25
812.053	8.25
812.796	8.25
813.539	8.25
814.283	9.25
815.026	6.25
815.769	8.25
816.511	6.25
817.254	6.25
817.997	6.25
818.74	5.25
819.482	8.25
820.225	5.25
820.967	6.25
821.71	5.25
822.452	4.25
823.194	8.25
823.936	7.25
824.678	5.25
825.42	7.25
826.162	5.25
826.904	6.25
827.646	6.25
828.388	5.25
829.129	6.25
829.871	4.25
830.612	2.25
831.354	4.25
832.095	6.25
832.836	8.25
833.577	5.25
834.319	6.25
835.06	3.25
835.801	4.25
836.542	2.25
837.282	6.25
838.023	3.25
838.764	4.25
839.504	5.25
840.245	6.25
840.985	5.25
841.726	4.25
842.466	3.25
843.206	5.25
843.946	4.25
844.687	5.25
845.427	2.25
846.166	2.25
846.906	4.25
847.646	4.25
848.386	4.25
849.125	4.25
849.865	4.25
850.605	4.25
851.344	4.25
852.083	3.25
852.823	1.25
853.562	4.25
854.301	2.25
855.04	2.25
855.779	2.25
856.518	2.25
857.257	1.25
857.995	2.25
858.734	1.25
859.473	3.25
860.211	3.25
860.95	2.25
861.688	4.25
862.426	4.25
863.165	1.25
863.903	2.25
864.641	4.25
865.379	1.25
866.117	2.25
866.855	1.25
867.593	2.25
868.33	-0.75
869.068	0.25
869.806	0.25
870.543	2.25
871.28	3.25
872.018	2.25
872.755	1.25
873.492	2.25
874.229	2.25
874.967	1.25
875.703	3.25
876.44	2.25
877.177	1.25
877.914	0.25
878.651	2.25
879.387	2.25
880.124	2.25
880.86	2.25
881.597	2.25
882.333	1.25
883.069	0.25
883.806	-1.75
884.542	2.25
885.278	1.25
886.014	0.25
886.749	-1.75
887.485	1.25
888.221	1.25
888.957	2.25
889.692	1.25
890.428	-0.75
891.163	1.25
891.899	2.25
892.634	1.25
893.369	1.25
894.104	0.25
894.839	-0.75
895.574	-0.75
896.309	-1.75
897.044	1.25
897.779	1.25
898.514	1.25
899.248	-0.75
899.983	0.25
900.717	0.25
901.452	4.25
902.186	-0.75
902.92	1.25
903.654	-0.75
904.389	-1.75
905.123	1.25
905.857	0.25
906.59	1.25
907.324	1.25
908.058	0.25
908.792	0.25
909.525	0.25
910.259	2.25
910.992	0.25
911.726	1.25
912.459	-0.75
913.192	1.25
913.925	1.25
914.658	0.25
915.391	0.25
916.124	-0.75
916.857	0.25
917.59	1.25
918.323	1.25
919.055	1.25
919.788	-1.75
920.521	-0.75
921.253	-1.75
921.985	1.25
922.718	-0.75
923.45	-1.75
924.182	0.25
924.914	0.25
925.646	0.25
926.378	0.25
927.11	1.25
927.841	0.25
928.573	0.25
929.305	1.25
930.036	1.25
930.768	-0.75
931.499	0.25
932.23	-0.75
932.962	0.25
933.693	0.25
934.424	1.25
935.155	-0.75
935.886	-0.75
936.617	1.25
937.348	2.25
938.078	0.25
938.809	2.25
939.54	-1.75
940.27	0.25
941.001	-0.75
941.731	-0.75
942.461	0.25
943.191	0.25
943.922	-1.75
944.652	-0.75
945.382	-0.75
946.112	2.25
946.841	0.25
947.571	0.25
948.301	-1.75
949.031	1.25
949.76	0.25
950.49	0.25
951.219	1.25
951.948	-1.75
952.678	0.25
953.407	0.25
954.136	0.25
954.865	1.25
955.594	1.25
956.323	-0.75
957.052	0.25
957.78	0.25
958.509	-0.75
959.238	2.25
959.966	0.25
960.695	2.25
961.423	-0.75
962.151	1.25
962.88	-0.75
963.608	-0.75
964.336	1.25
965.064	0.25
965.792	1.25
966.52	2.25
967.247	-0.75
967.975	-0.75
968.703	-2.75
969.43	0.25
970.158	0.25
970.885	-0.75
971.613	-2.75
972.34	-0.75
973.067	-0.75
973.794	-2.75
974.521	-0.75
975.248	1.25
975.975	1.25
976.702	1.25
977.429	0.25
978.156	0.25
978.882	-1.75
979.609	1.25
980.335	-0.75
981.062	0.25
981.788	0.25
982.514	-0.75
983.24	-0.75
983.967	0.25
984.693	-0.75
985.419	-0.75
986.144	0.25
986.87	2.25
987.596	-1.75
988.322	1.25
989.047	0.25
989.773	0.25
990.498	-2.75
991.224	-0.75
991.949	1.25
992.674	-0.75
993.399	0.25
994.124	-0.75
994.849	0.25
995.574	-0.75
996.299	-0.75
997.024	-0.75
997.749	0.25
998.473	1.25
999.198	-0.75
999.922	2.25
1000.647	-2.75
1001.371	4.25
1002.095	-2.75
1002.82	-1.75
1003.544	0.25
1004.268	2.25
1004.992	2.25
1005.716	4.25
1006.439	2.25
1007.163	0.25
1007.887	4.25
1008.611	0.25
1009.334	-0.75
1010.058	1.25
1010.781	-0.75
1011.504	0.25
1012.228	0.25
1012.951	-0.75
1013.674	2.25
1014.397	0.25
1015.12	-1.75
