节点500_565_QEPB04081__431__09-57-35-282.txt的数据

Date: Thu Nov 13 09:57:35 CST 2025
User: PC
Spectrometer: QEPB0408
触发模式: 0
积分时间 (秒): 1.000000E-2
Scans to average: 1
启用暗噪声校正: true
启用非线性校正: false
滑动平均宽度: 0
X轴模式: Wavelengths
Number of Pixels in Spectrum: 1044
>>>>>Begin Spectral Data<<<<<
220.843	3.62
221.644	5.62
222.444	3.62
223.244	4.62
224.045	3.62
224.845	4.62
225.645	5.62
226.445	2.62
227.245	6.62
228.045	5.62
228.845	8.62
229.645	7.62
230.444	4.62
231.244	4.62
232.043	4.62
232.843	8.62
233.642	5.62
234.442	3.62
235.241	4.62
236.04	8.62
236.839	6.62
237.638	8.62
238.437	8.62
239.236	6.62
240.035	7.62
240.833	9.62
241.632	9.62
242.43	9.62
243.229	9.62
244.027	10.62
244.826	9.62
245.624	10.62
246.422	9.62
247.22	10.62
248.018	8.62
248.816	11.62
249.614	10.62
250.412	13.62
251.21	11.62
252.007	12.62
252.805	12.62
253.602	14.62
254.4	13.62
255.197	14.62
255.994	13.62
256.791	15.62
257.589	16.62
258.386	17.62
259.183	17.62
259.979	16.62
260.776	17.62
261.573	18.62
262.37	18.62
263.166	20.62
263.963	20.62
264.759	20.62
265.556	19.62
266.352	18.62
267.148	19.62
267.944	20.62
268.74	25.62
269.536	22.62
270.332	24.62
271.128	22.62
271.924	22.62
272.719	23.62
273.515	25.62
274.311	28.62
275.106	26.62
275.901	26.62
276.697	24.62
277.492	26.62
278.287	24.62
279.082	28.62
279.877	25.62
280.672	28.62
281.467	25.62
282.262	30.62
283.056	28.62
283.851	28.62
284.646	27.62
285.44	27.62
286.234	26.62
287.029	27.62
287.823	25.62
288.617	29.62
289.411	24.62
290.205	28.62
290.999	24.62
291.793	26.62
292.587	25.62
293.381	22.62
294.174	24.62
294.968	26.62
295.761	23.62
296.555	22.62
297.348	20.62
298.141	24.62
298.935	24.62
299.728	21.62
300.521	17.62
301.314	18.62
302.107	19.62
302.899	19.62
303.692	19.62
304.485	18.62
305.277	19.62
306.07	18.62
306.862	16.62
307.655	17.62
308.447	19.62
309.239	18.62
310.031	16.62
310.823	18.62
311.615	14.62
312.407	14.62
313.199	10.62
313.991	10.62
314.783	13.62
315.574	12.62
316.366	14.62
317.157	12.62
317.949	12.62
318.74	12.62
319.531	12.62
320.322	11.62
321.113	13.62
321.904	14.62
322.695	10.62
323.486	13.62
324.277	11.62
325.068	10.62
325.858	9.62
326.649	8.62
327.439	8.62
328.23	8.62
329.02	11.62
329.81	7.62
330.6	10.62
331.391	9.62
332.181	11.62
332.971	10.62
333.76	9.62
334.55	9.62
335.34	8.62
336.13	8.62
336.919	8.62
337.709	6.62
338.498	10.62
339.287	8.62
340.077	9.62
340.866	11.62
341.655	9.62
342.444	11.62
343.233	10.62
344.022	10.62
344.811	6.62
345.6	9.62
346.388	9.62
347.177	8.62
347.965	9.62
348.754	8.62
349.542	7.62
350.33	8.62
351.119	10.62
351.907	9.62
352.695	9.62
353.483	7.62
354.271	8.62
355.059	8.62
355.846	8.62
356.634	8.62
357.422	10.62
358.209	6.62
358.997	8.62
359.784	6.62
360.571	8.62
361.359	7.62
362.146	7.62
362.933	8.62
363.72	9.62
364.507	5.62
365.294	8.62
366.081	8.62
366.867	8.62
367.654	8.62
368.44	10.62
369.227	6.62
370.013	5.62
370.8	12.62
371.586	6.62
372.372	8.62
373.158	6.62
373.944	10.62
374.73	6.62
375.516	8.62
376.302	8.62
377.088	8.62
377.873	7.62
378.659	5.62
379.445	8.62
380.23	8.62
381.015	8.62
381.801	9.62
382.586	5.62
383.371	9.62
384.156	8.62
384.941	8.62
385.726	10.62
386.511	7.62
387.296	8.62
388.08	8.62
388.865	10.62
389.649	8.62
390.434	10.62
391.218	13.62
392.003	9.62
392.787	10.62
393.571	7.62
394.355	7.62
395.139	9.62
395.923	9.62
396.707	11.62
397.491	9.62
398.274	10.62
399.058	8.62
399.842	10.62
400.625	12.62
401.408	10.62
402.192	12.62
402.975	13.62
403.758	12.62
404.541	9.62
405.324	11.62
406.107	11.62
406.89	12.62
407.673	12.62
408.456	11.62
409.238	11.62
410.021	12.62
410.803	17.62
411.586	13.62
412.368	12.62
413.151	13.62
413.933	14.62
414.715	14.62
415.497	13.62
416.279	15.62
417.061	16.62
417.843	13.62
418.624	16.62
419.406	16.62
420.188	16.62
420.969	17.62
421.751	18.62
422.532	14.62
423.313	18.62
424.095	16.62
424.876	18.62
425.657	21.62
426.438	19.62
427.219	20.62
428	20.62
428.78	20.62
429.561	25.62
430.342	22.62
431.122	24.62
431.903	25.62
432.683	27.62
433.464	28.62
434.244	30.62
435.024	28.62
435.804	32.62
436.584	33.62
437.364	36.62
438.144	37.62
438.924	40.62
439.704	42.62
440.483	46.62
441.263	47.62
442.042	50.62
442.822	52.62
443.601	57.62
444.38	64.62
445.16	68.62
445.939	75.62
446.718	79.62
447.497	86.62
448.276	95.62
449.054	98.62
449.833	110.62
450.612	124.62
451.391	132.62
452.169	154.62
452.948	168.62
453.726	180.62
454.504	199.62
455.282	223.62
456.061	250.62
456.839	284.62
457.617	317.62
458.395	344.62
459.172	392.62
459.95	438.62
460.728	485.62
461.506	544.62
462.283	600.62
463.061	671.62
463.838	754.62
464.615	824.62
465.393	908.62
466.17	1011.62
466.947	1134.62
467.724	1255.62
468.501	1402.62
469.278	1551.62
470.055	1700.62
470.831	1881.62
471.608	2083.62
472.385	2276.62
473.161	2526.62
473.938	2769.62
474.714	3045.62
475.49	3333.62
476.266	3661.62
477.043	4004.62
477.819	4392.62
478.595	4793.62
479.371	5220.62
480.146	5703.62
480.922	6239.62
481.698	6747.62
482.473	7341.62
483.249	7987.62
484.024	8667.62
484.8	9394.62
485.575	10243.62
486.35	11063.62
487.126	11944.62
487.901	12974.62
488.676	14009.62
489.451	15163.62
490.225	16364.62
491	17581.62
491.775	18916.62
492.55	20212.62
493.324	21607.62
494.099	23015.62
494.873	24501.62
495.647	26104.62
496.422	27615.62
497.196	29093.62
497.97	30569.62
498.744	32014.62
499.518	33323.62
500.292	34584.62
501.066	35809.62
501.839	36874.62
502.613	37775.62
503.387	38489.62
504.16	39178.62
504.934	39568.62
505.707	39748.62
506.48	39761.62
507.253	39589.62
508.027	39145.62
508.8	38579.62
509.573	37869.62
510.346	37048.62
511.118	36096.62
511.891	35168.62
512.664	34187.62
513.437	32964.62
514.209	31723.62
514.982	30559.62
515.754	29419.62
516.526	28255.62
517.298	27068.62
518.071	26033.62
518.843	24916.62
519.615	23960.62
520.387	22988.62
521.159	22161.62
521.93	21199.62
522.702	20355.62
523.474	19539.62
524.245	18772.62
525.017	18038.62
525.788	17215.62
526.56	16461.62
527.331	15741.62
528.102	15050.62
528.873	14359.62
529.644	13630.62
530.415	12950.62
531.186	12329.62
531.957	11746.62
532.728	11150.62
533.498	10640.62
534.269	10009.62
535.039	9486.62
535.81	8944.62
536.58	8486.62
537.351	8094.62
538.121	7616.62
538.891	7227.62
539.661	6820.62
540.431	6503.62
541.201	6121.62
541.971	5800.62
542.741	5504.62
543.51	5190.62
544.28	4972.62
545.05	4694.62
545.819	4469.62
546.588	4269.62
547.358	4039.62
548.127	3852.62
548.896	3656.62
549.665	3482.62
550.434	3315.62
551.203	3133.62
551.972	2961.62
552.741	2805.62
553.51	2657.62
554.278	2520.62
555.047	2388.62
555.815	2250.62
556.584	2138.62
557.352	2013.62
558.121	1907.62
558.889	1801.62
559.657	1687.62
560.425	1595.62
561.193	1508.62
561.961	1429.62
562.729	1369.62
563.496	1275.62
564.264	1213.62
565.032	1139.62
565.799	1088.62
566.567	1026.62
567.334	952.62
568.101	932.62
568.869	859.62
569.636	809.62
570.403	772.62
571.17	728.62
571.937	683.62
572.704	646.62
573.471	613.62
574.237	583.62
575.004	551.62
575.771	520.62
576.537	480.62
577.303	460.62
578.07	429.62
578.836	402.62
579.602	384.62
580.368	367.62
581.134	351.62
581.9	326.62
582.666	310.62
583.432	291.62
584.198	279.62
584.964	272.62
585.729	258.62
586.495	238.62
587.26	228.62
588.025	213.62
588.791	200.62
589.556	193.62
590.321	182.62
591.086	173.62
591.851	165.62
592.616	156.62
593.381	147.62
594.146	144.62
594.911	136.62
595.675	127.62
596.44	124.62
597.204	120.62
597.969	112.62
598.733	112.62
599.497	104.62
600.261	99.62
601.025	90.62
601.79	89.62
602.553	87.62
603.317	82.62
604.081	80.62
604.845	77.62
605.609	74.62
606.372	73.62
607.136	71.62
607.899	63.62
608.662	62.62
609.426	58.62
610.189	55.62
610.952	56.62
611.715	52.62
612.478	56.62
613.241	50.62
614.004	49.62
614.767	46.62
615.529	44.62
616.292	42.62
617.055	41.62
617.817	41.62
618.579	38.62
619.342	36.62
620.104	34.62
620.866	36.62
621.628	34.62
622.39	32.62
623.152	30.62
623.914	29.62
624.676	36.62
625.438	27.62
626.199	28.62
626.961	24.62
627.722	25.62
628.484	26.62
629.245	25.62
630.006	22.62
630.768	22.62
631.529	22.62
632.29	20.62
633.051	19.62
633.812	20.62
634.573	22.62
635.333	18.62
636.094	19.62
636.855	17.62
637.615	21.62
638.376	15.62
639.136	18.62
639.896	16.62
640.657	16.62
641.417	15.62
642.177	13.62
642.937	16.62
643.697	17.62
644.457	12.62
645.216	13.62
645.976	14.62
646.736	12.62
647.495	11.62
648.255	12.62
649.014	12.62
649.774	12.62
650.533	13.62
651.292	11.62
652.051	12.62
652.81	10.62
653.569	9.62
654.328	10.62
655.087	10.62
655.846	8.62
656.604	11.62
657.363	8.62
658.121	10.62
658.88	7.62
659.638	8.62
660.397	8.62
661.155	10.62
661.913	8.62
662.671	11.62
663.429	8.62
664.187	8.62
664.945	8.62
665.703	10.62
666.46	8.62
667.218	7.62
667.976	8.62
668.733	8.62
669.49	7.62
670.248	6.62
671.005	7.62
671.762	6.62
672.519	8.62
673.276	6.62
674.033	7.62
674.79	6.62
675.547	8.62
676.304	6.62
677.06	8.62
677.817	7.62
678.574	7.62
679.33	8.62
680.086	7.62
680.843	6.62
681.599	7.62
682.355	7.62
683.111	6.62
683.867	6.62
684.623	9.62
685.379	7.62
686.135	4.62
686.89	9.62
687.646	6.62
688.402	4.62
689.157	5.62
689.912	4.62
690.668	3.62
691.423	8.62
692.178	5.62
692.933	8.62
693.688	5.62
694.443	4.62
695.198	6.62
695.953	6.62
696.708	4.62
697.462	6.62
698.217	4.62
698.972	6.62
699.726	4.62
700.48	5.62
701.235	4.62
701.989	7.62
702.743	7.62
703.497	4.62
704.251	7.62
705.005	5.62
705.759	5.62
706.513	3.62
707.266	7.62
708.02	6.62
708.774	4.62
709.527	6.62
710.28	3.62
711.034	6.62
711.787	6.62
712.54	6.62
713.293	5.62
714.046	6.62
714.799	9.62
715.552	8.62
716.305	6.62
717.058	5.62
717.81	7.62
718.563	8.62
719.315	5.62
720.068	6.62
720.82	4.62
721.573	8.62
722.325	5.62
723.077	5.62
723.829	6.62
724.581	4.62
725.333	7.62
726.085	3.62
726.836	4.62
727.588	5.62
728.34	7.62
729.091	7.62
729.843	8.62
730.594	5.62
731.346	5.62
732.097	8.62
732.848	6.62
733.599	6.62
734.35	4.62
735.101	7.62
735.852	6.62
736.603	8.62
737.354	7.62
738.104	5.62
738.855	9.62
739.605	6.62
740.356	8.62
741.106	7.62
741.856	7.62
742.607	7.62
743.357	5.62
744.107	8.62
744.857	8.62
745.607	9.62
746.357	8.62
747.106	9.62
747.856	5.62
748.606	5.62
749.355	9.62
750.105	8.62
750.854	10.62
751.603	8.62
752.353	7.62
753.102	7.62
753.851	8.62
754.6	8.62
755.349	8.62
756.098	8.62
756.847	9.62
757.595	10.62
758.344	7.62
759.093	7.62
759.841	10.62
760.589	8.62
761.338	9.62
762.086	9.62
762.834	9.62
763.582	9.62
764.331	11.62
765.079	9.62
765.826	8.62
766.574	9.62
767.322	9.62
768.07	13.62
768.817	12.62
769.565	8.62
770.312	14.62
771.06	13.62
771.807	10.62
772.554	12.62
773.302	11.62
774.049	11.62
774.796	11.62
775.543	11.62
776.29	11.62
777.036	12.62
777.783	10.62
778.53	14.62
779.276	11.62
780.023	11.62
780.769	11.62
781.516	11.62
782.262	13.62
783.008	13.62
783.754	14.62
784.5	12.62
785.246	12.62
785.992	14.62
786.738	11.62
787.484	12.62
788.23	12.62
788.975	13.62
789.721	11.62
790.466	12.62
791.212	14.62
791.957	11.62
792.702	10.62
793.447	10.62
794.193	10.62
794.938	11.62
795.683	11.62
796.427	10.62
797.172	10.62
797.917	13.62
798.662	11.62
799.406	10.62
800.151	10.62
800.895	7.62
801.64	10.62
802.384	10.62
803.128	10.62
803.872	7.62
804.616	8.62
805.36	9.62
806.104	7.62
806.848	10.62
807.592	9.62
808.336	8.62
809.079	9.62
809.823	8.62
810.566	8.62
811.31	6.62
812.053	8.62
812.796	8.62
813.539	5.62
814.283	5.62
815.026	7.62
815.769	7.62
816.511	8.62
817.254	7.62
817.997	7.62
818.74	6.62
819.482	5.62
820.225	6.62
820.967	6.62
821.71	7.62
822.452	5.62
823.194	4.62
823.936	6.62
824.678	4.62
825.42	5.62
826.162	5.62
826.904	4.62
827.646	6.62
828.388	5.62
829.129	4.62
829.871	6.62
830.612	5.62
831.354	3.62
832.095	8.62
832.836	6.62
833.577	5.62
834.319	4.62
835.06	5.62
835.801	5.62
836.542	5.62
837.282	6.62
838.023	5.62
838.764	4.62
839.504	6.62
840.245	3.62
840.985	3.62
841.726	2.62
842.466	5.62
843.206	3.62
843.946	4.62
844.687	1.62
845.427	4.62
846.166	5.62
846.906	3.62
847.646	4.62
848.386	4.62
849.125	4.62
849.865	4.62
850.605	5.62
851.344	2.62
852.083	2.62
852.823	3.62
853.562	2.62
854.301	2.62
855.04	3.62
855.779	1.62
856.518	4.62
857.257	2.62
857.995	2.62
858.734	3.62
859.473	4.62
860.211	1.62
860.95	0.62
861.688	2.62
862.426	2.62
863.165	3.62
863.903	1.62
864.641	1.62
865.379	4.62
866.117	3.62
866.855	3.62
867.593	0.62
868.33	1.62
869.068	1.62
869.806	3.62
870.543	1.62
871.28	-0.38
872.018	0.62
872.755	0.62
873.492	1.62
874.229	0.62
874.967	1.62
875.703	0.62
876.44	0.62
877.177	2.62
877.914	0.62
878.651	2.62
879.387	1.62
880.124	1.62
880.86	2.62
881.597	1.62
882.333	0.62
883.069	-0.38
883.806	1.62
884.542	1.62
885.278	1.62
886.014	1.62
886.749	0.62
887.485	0.62
888.221	0.62
888.957	0.62
889.692	1.62
890.428	1.62
891.163	0.62
891.899	0.62
892.634	3.62
893.369	0.62
894.104	1.62
894.839	2.62
895.574	-1.38
896.309	0.62
897.044	0.62
897.779	0.62
898.514	-0.38
899.248	0.62
899.983	0.62
900.717	0.62
901.452	-0.38
902.186	2.62
902.92	-0.38
903.654	0.62
904.389	2.62
905.123	0.62
905.857	0.62
906.59	2.62
907.324	1.62
908.058	-1.38
908.792	-1.38
909.525	0.62
910.259	-2.38
910.992	1.62
911.726	0.62
912.459	1.62
913.192	-0.38
913.925	0.62
914.658	-0.38
915.391	1.62
916.124	1.62
916.857	0.62
917.59	1.62
918.323	-0.38
919.055	-1.38
919.788	0.62
920.521	-0.38
921.253	0.62
921.985	0.62
922.718	0.62
923.45	1.62
924.182	1.62
924.914	0.62
925.646	0.62
926.378	0.62
927.11	-0.38
927.841	-0.38
928.573	2.62
929.305	-0.38
930.036	0.62
930.768	-0.38
931.499	-0.38
932.23	-0.38
932.962	1.62
933.693	0.62
934.424	3.62
935.155	0.62
935.886	-0.38
936.617	-0.38
937.348	0.62
938.078	0.62
938.809	0.62
939.54	-0.38
940.27	0.62
941.001	0.62
941.731	-0.38
942.461	0.62
943.191	1.62
943.922	-0.38
944.652	1.62
945.382	0.62
946.112	0.62
946.841	1.62
947.571	-2.38
948.301	-0.38
949.031	-1.38
949.76	0.62
950.49	1.62
951.219	0.62
951.948	-2.38
952.678	-1.38
953.407	0.62
954.136	-0.38
954.865	1.62
955.594	2.62
956.323	1.62
957.052	-0.38
957.78	0.62
958.509	-0.38
959.238	-1.38
959.966	0.62
960.695	0.62
961.423	-2.38
962.151	-0.38
962.88	0.62
963.608	1.62
964.336	0.62
965.064	0.62
965.792	1.62
966.52	-1.38
967.247	0.62
967.975	-1.38
968.703	0.62
969.43	-1.38
970.158	1.62
970.885	0.62
971.613	0.62
972.34	1.62
973.067	-0.38
973.794	0.62
974.521	-0.38
975.248	0.62
975.975	0.62
976.702	-0.38
977.429	-0.38
978.156	1.62
978.882	0.62
979.609	-0.38
980.335	2.62
981.062	0.62
981.788	-0.38
982.514	-0.38
983.24	-1.38
983.967	0.62
984.693	-0.38
985.419	1.62
986.144	0.62
986.87	2.62
987.596	0.62
988.322	-0.38
989.047	-0.38
989.773	0.62
990.498	0.62
991.224	-1.38
991.949	2.62
992.674	0.62
993.399	-1.38
994.124	1.62
994.849	-0.38
995.574	1.62
996.299	-0.38
997.024	0.62
997.749	0.62
998.473	0.62
999.198	1.62
999.922	-0.38
1000.647	-3.38
1001.371	2.62
1002.095	-2.38
1002.82	0.62
1003.544	0.62
1004.268	4.62
1004.992	2.62
1005.716	2.62
1006.439	2.62
1007.163	3.62
1007.887	5.62
1008.611	-0.38
1009.334	1.62
1010.058	-1.38
1010.781	0.62
1011.504	1.62
1012.228	-0.38
1012.951	0.62
1013.674	-0.38
1014.397	-0.38
1015.12	-1.38
