节点500_565_QEPB04081__111__09-52-16-947.txt的数据

Date: Thu Nov 13 09:52:16 CST 2025
User: PC
Spectrometer: QEPB0408
触发模式: 0
积分时间 (秒): 1.000000E-2
Scans to average: 1
启用暗噪声校正: true
启用非线性校正: false
滑动平均宽度: 0
X轴模式: Wavelengths
Number of Pixels in Spectrum: 1044
>>>>>Begin Spectral Data<<<<<
220.843	4.12
221.644	4.12
222.444	4.12
223.244	6.12
224.045	6.12
224.845	6.12
225.645	7.12
226.445	6.12
227.245	5.12
228.045	8.12
228.845	9.12
229.645	9.12
230.444	5.12
231.244	7.12
232.043	4.12
232.843	9.12
233.642	6.12
234.442	8.12
235.241	7.12
236.04	7.12
236.839	8.12
237.638	9.12
238.437	9.12
239.236	9.12
240.035	12.12
240.833	9.12
241.632	11.12
242.43	10.12
243.229	11.12
244.027	10.12
244.826	13.12
245.624	13.12
246.422	13.12
247.22	13.12
248.018	14.12
248.816	12.12
249.614	14.12
250.412	12.12
251.21	15.12
252.007	12.12
252.805	16.12
253.602	14.12
254.4	14.12
255.197	14.12
255.994	17.12
256.791	17.12
257.589	19.12
258.386	20.12
259.183	19.12
259.979	19.12
260.776	22.12
261.573	19.12
262.37	20.12
263.166	20.12
263.963	23.12
264.759	22.12
265.556	25.12
266.352	24.12
267.148	24.12
267.944	25.12
268.74	26.12
269.536	26.12
270.332	28.12
271.128	27.12
271.924	26.12
272.719	31.12
273.515	30.12
274.311	30.12
275.106	30.12
275.901	30.12
276.697	28.12
277.492	31.12
278.287	31.12
279.082	32.12
279.877	33.12
280.672	34.12
281.467	31.12
282.262	32.12
283.056	31.12
283.851	30.12
284.646	32.12
285.44	33.12
286.234	29.12
287.029	32.12
287.823	28.12
288.617	32.12
289.411	29.12
290.205	29.12
290.999	28.12
291.793	29.12
292.587	30.12
293.381	24.12
294.174	27.12
294.968	25.12
295.761	25.12
296.555	25.12
297.348	25.12
298.141	22.12
298.935	26.12
299.728	23.12
300.521	24.12
301.314	22.12
302.107	19.12
302.899	23.12
303.692	19.12
304.485	19.12
305.277	20.12
306.07	19.12
306.862	22.12
307.655	17.12
308.447	20.12
309.239	18.12
310.031	19.12
310.823	19.12
311.615	16.12
312.407	16.12
313.199	14.12
313.991	16.12
314.783	15.12
315.574	14.12
316.366	14.12
317.157	16.12
317.949	15.12
318.74	15.12
319.531	15.12
320.322	13.12
321.113	11.12
321.904	13.12
322.695	13.12
323.486	14.12
324.277	13.12
325.068	13.12
325.858	13.12
326.649	13.12
327.439	13.12
328.23	10.12
329.02	11.12
329.81	12.12
330.6	12.12
331.391	11.12
332.181	12.12
332.971	12.12
333.76	10.12
334.55	12.12
335.34	11.12
336.13	13.12
336.919	11.12
337.709	11.12
338.498	12.12
339.287	11.12
340.077	13.12
340.866	11.12
341.655	11.12
342.444	11.12
343.233	14.12
344.022	10.12
344.811	12.12
345.6	10.12
346.388	10.12
347.177	9.12
347.965	13.12
348.754	12.12
349.542	8.12
350.33	9.12
351.119	11.12
351.907	9.12
352.695	12.12
353.483	11.12
354.271	9.12
355.059	11.12
355.846	7.12
356.634	13.12
357.422	8.12
358.209	11.12
358.997	9.12
359.784	8.12
360.571	12.12
361.359	9.12
362.146	10.12
362.933	8.12
363.72	10.12
364.507	11.12
365.294	11.12
366.081	8.12
366.867	7.12
367.654	8.12
368.44	10.12
369.227	9.12
370.013	9.12
370.8	10.12
371.586	9.12
372.372	10.12
373.158	8.12
373.944	10.12
374.73	10.12
375.516	10.12
376.302	12.12
377.088	11.12
377.873	8.12
378.659	11.12
379.445	12.12
380.23	10.12
381.015	8.12
381.801	10.12
382.586	8.12
383.371	10.12
384.156	10.12
384.941	10.12
385.726	9.12
386.511	9.12
387.296	9.12
388.08	12.12
388.865	11.12
389.649	10.12
390.434	10.12
391.218	11.12
392.003	8.12
392.787	11.12
393.571	12.12
394.355	9.12
395.139	13.12
395.923	12.12
396.707	14.12
397.491	12.12
398.274	12.12
399.058	11.12
399.842	13.12
400.625	13.12
401.408	10.12
402.192	9.12
402.975	13.12
403.758	13.12
404.541	14.12
405.324	11.12
406.107	13.12
406.89	14.12
407.673	16.12
408.456	13.12
409.238	17.12
410.021	14.12
410.803	16.12
411.586	15.12
412.368	14.12
413.151	16.12
413.933	18.12
414.715	17.12
415.497	16.12
416.279	15.12
417.061	17.12
417.843	16.12
418.624	18.12
419.406	19.12
420.188	17.12
420.969	19.12
421.751	22.12
422.532	20.12
423.313	20.12
424.095	21.12
424.876	20.12
425.657	20.12
426.438	23.12
427.219	25.12
428	25.12
428.78	24.12
429.561	26.12
430.342	26.12
431.122	26.12
431.903	28.12
432.683	28.12
433.464	31.12
434.244	28.12
435.024	31.12
435.804	35.12
436.584	36.12
437.364	40.12
438.144	39.12
438.924	42.12
439.704	42.12
440.483	47.12
441.263	50.12
442.042	52.12
442.822	55.12
443.601	58.12
444.38	62.12
445.16	63.12
445.939	73.12
446.718	73.12
447.497	83.12
448.276	92.12
449.054	99.12
449.833	106.12
450.612	110.12
451.391	125.12
452.169	135.12
452.948	152.12
453.726	166.12
454.504	190.12
455.282	207.12
456.061	226.12
456.839	258.12
457.617	285.12
458.395	321.12
459.172	348.12
459.95	396.12
460.728	443.12
461.506	494.12
462.283	550.12
463.061	616.12
463.838	700.12
464.615	778.12
465.393	868.12
466.17	964.12
466.947	1076.12
467.724	1209.12
468.501	1329.12
469.278	1489.12
470.055	1654.12
470.831	1835.12
471.608	2045.12
472.385	2273.12
473.161	2523.12
473.938	2777.12
474.714	3065.12
475.49	3369.12
476.266	3736.12
477.043	4141.12
477.819	4581.12
478.595	5024.12
479.371	5500.12
480.146	6029.12
480.922	6626.12
481.698	7292.12
482.473	7955.12
483.249	8737.12
484.024	9530.12
484.8	10428.12
485.575	11394.12
486.35	12384.12
487.126	13527.12
487.901	14758.12
488.676	16051.12
489.451	17411.12
490.225	18884.12
491	20350.12
491.775	21960.12
492.55	23622.12
493.324	25265.12
494.099	26995.12
494.873	28698.12
495.647	30523.12
496.422	32386.12
497.196	34044.12
497.97	35656.12
498.744	37232.12
499.518	38517.12
500.292	39867.12
501.066	40993.12
501.839	42004.12
502.613	42766.12
503.387	43239.12
504.16	43527.12
504.934	43690.12
505.707	43413.12
506.48	43163.12
507.253	42514.12
508.027	41662.12
508.8	40674.12
509.573	39468.12
510.346	38314.12
511.118	36927.12
511.891	35925.12
512.664	34475.12
513.437	33001.12
514.209	31621.12
514.982	30344.12
515.754	29153.12
516.526	27864.12
517.298	26636.12
518.071	25548.12
518.843	24531.12
519.615	23499.12
520.387	22493.12
521.159	21717.12
521.93	20845.12
522.702	19918.12
523.474	19087.12
524.245	18354.12
525.017	17575.12
525.788	16733.12
526.56	15993.12
527.331	15232.12
528.102	14487.12
528.873	13772.12
529.644	13036.12
530.415	12380.12
531.186	11748.12
531.957	11125.12
532.728	10553.12
533.498	9946.12
534.269	9402.12
535.039	8866.12
535.81	8414.12
536.58	7977.12
537.351	7512.12
538.121	7113.12
538.891	6708.12
539.661	6339.12
540.431	6031.12
541.201	5737.12
541.971	5439.12
542.741	5126.12
543.51	4861.12
544.28	4634.12
545.05	4397.12
545.819	4204.12
546.588	3974.12
547.358	3763.12
548.127	3573.12
548.896	3396.12
549.665	3229.12
550.434	3057.12
551.203	2902.12
551.972	2752.12
552.741	2593.12
553.51	2451.12
554.278	2307.12
555.047	2173.12
555.815	2057.12
556.584	1943.12
557.352	1859.12
558.121	1723.12
558.889	1624.12
559.657	1541.12
560.425	1461.12
561.193	1383.12
561.961	1315.12
562.729	1243.12
563.496	1166.12
564.264	1111.12
565.032	1053.12
565.799	992.12
566.567	931.12
567.334	889.12
568.101	833.12
568.869	779.12
569.636	746.12
570.403	708.12
571.17	669.12
571.937	630.12
572.704	602.12
573.471	552.12
574.237	526.12
575.004	491.12
575.771	461.12
576.537	442.12
577.303	416.12
578.07	397.12
578.836	364.12
579.602	348.12
580.368	331.12
581.134	311.12
581.9	303.12
582.666	278.12
583.432	273.12
584.198	251.12
584.964	243.12
585.729	228.12
586.495	219.12
587.26	205.12
588.025	196.12
588.791	184.12
589.556	176.12
590.321	171.12
591.086	170.12
591.851	154.12
592.616	148.12
593.381	135.12
594.146	133.12
594.911	125.12
595.675	125.12
596.44	113.12
597.204	111.12
597.969	103.12
598.733	104.12
599.497	99.12
600.261	93.12
601.025	91.12
601.79	86.12
602.553	79.12
603.317	81.12
604.081	77.12
604.845	76.12
605.609	70.12
606.372	70.12
607.136	65.12
607.899	61.12
608.662	61.12
609.426	58.12
610.189	57.12
610.952	54.12
611.715	55.12
612.478	50.12
613.241	47.12
614.004	47.12
614.767	43.12
615.529	43.12
616.292	42.12
617.055	39.12
617.817	39.12
618.579	41.12
619.342	34.12
620.104	35.12
620.866	38.12
621.628	33.12
622.39	32.12
623.152	28.12
623.914	31.12
624.676	30.12
625.438	29.12
626.199	32.12
626.961	28.12
627.722	24.12
628.484	25.12
629.245	23.12
630.006	25.12
630.768	23.12
631.529	24.12
632.29	21.12
633.051	21.12
633.812	23.12
634.573	21.12
635.333	20.12
636.094	21.12
636.855	19.12
637.615	19.12
638.376	19.12
639.136	15.12
639.896	16.12
640.657	17.12
641.417	16.12
642.177	17.12
642.937	15.12
643.697	15.12
644.457	15.12
645.216	16.12
645.976	14.12
646.736	11.12
647.495	13.12
648.255	14.12
649.014	14.12
649.774	14.12
650.533	12.12
651.292	14.12
652.051	12.12
652.81	13.12
653.569	13.12
654.328	13.12
655.087	10.12
655.846	11.12
656.604	8.12
657.363	8.12
658.121	13.12
658.88	12.12
659.638	11.12
660.397	13.12
661.155	12.12
661.913	9.12
662.671	9.12
663.429	10.12
664.187	9.12
664.945	10.12
665.703	10.12
666.46	10.12
667.218	9.12
667.976	8.12
668.733	8.12
669.49	8.12
670.248	9.12
671.005	8.12
671.762	8.12
672.519	9.12
673.276	8.12
674.033	9.12
674.79	10.12
675.547	9.12
676.304	8.12
677.06	9.12
677.817	7.12
678.574	9.12
679.33	9.12
680.086	8.12
680.843	8.12
681.599	6.12
682.355	8.12
683.111	6.12
683.867	8.12
684.623	9.12
685.379	5.12
686.135	9.12
686.89	7.12
687.646	8.12
688.402	7.12
689.157	9.12
689.912	9.12
690.668	8.12
691.423	7.12
692.178	6.12
692.933	7.12
693.688	7.12
694.443	5.12
695.198	7.12
695.953	4.12
696.708	6.12
697.462	5.12
698.217	9.12
698.972	7.12
699.726	7.12
700.48	7.12
701.235	4.12
701.989	8.12
702.743	7.12
703.497	6.12
704.251	8.12
705.005	8.12
705.759	8.12
706.513	7.12
707.266	8.12
708.02	7.12
708.774	7.12
709.527	6.12
710.28	7.12
711.034	8.12
711.787	8.12
712.54	5.12
713.293	9.12
714.046	7.12
714.799	5.12
715.552	7.12
716.305	9.12
717.058	8.12
717.81	7.12
718.563	8.12
719.315	9.12
720.068	9.12
720.82	10.12
721.573	7.12
722.325	8.12
723.077	6.12
723.829	8.12
724.581	6.12
725.333	8.12
726.085	7.12
726.836	8.12
727.588	8.12
728.34	8.12
729.091	10.12
729.843	10.12
730.594	8.12
731.346	10.12
732.097	8.12
732.848	9.12
733.599	9.12
734.35	7.12
735.101	10.12
735.852	8.12
736.603	8.12
737.354	10.12
738.104	8.12
738.855	10.12
739.605	10.12
740.356	10.12
741.106	10.12
741.856	8.12
742.607	9.12
743.357	10.12
744.107	11.12
744.857	10.12
745.607	10.12
746.357	7.12
747.106	10.12
747.856	10.12
748.606	11.12
749.355	10.12
750.105	10.12
750.854	9.12
751.603	12.12
752.353	11.12
753.102	11.12
753.851	12.12
754.6	11.12
755.349	7.12
756.098	13.12
756.847	10.12
757.595	12.12
758.344	12.12
759.093	12.12
759.841	12.12
760.589	10.12
761.338	11.12
762.086	12.12
762.834	14.12
763.582	11.12
764.331	10.12
765.079	13.12
765.826	13.12
766.574	15.12
767.322	13.12
768.07	15.12
768.817	14.12
769.565	12.12
770.312	13.12
771.06	14.12
771.807	17.12
772.554	13.12
773.302	18.12
774.049	13.12
774.796	14.12
775.543	14.12
776.29	14.12
777.036	15.12
777.783	13.12
778.53	13.12
779.276	14.12
780.023	15.12
780.769	17.12
781.516	15.12
782.262	16.12
783.008	16.12
783.754	16.12
784.5	13.12
785.246	17.12
785.992	14.12
786.738	15.12
787.484	15.12
788.23	13.12
788.975	15.12
789.721	15.12
790.466	14.12
791.212	13.12
791.957	11.12
792.702	17.12
793.447	12.12
794.193	12.12
794.938	14.12
795.683	13.12
796.427	15.12
797.172	11.12
797.917	15.12
798.662	15.12
799.406	14.12
800.151	13.12
800.895	10.12
801.64	10.12
802.384	10.12
803.128	12.12
803.872	12.12
804.616	13.12
805.36	11.12
806.104	9.12
806.848	10.12
807.592	8.12
808.336	12.12
809.079	10.12
809.823	9.12
810.566	9.12
811.31	9.12
812.053	7.12
812.796	11.12
813.539	9.12
814.283	7.12
815.026	8.12
815.769	10.12
816.511	6.12
817.254	8.12
817.997	6.12
818.74	9.12
819.482	7.12
820.225	6.12
820.967	8.12
821.71	7.12
822.452	8.12
823.194	9.12
823.936	8.12
824.678	7.12
825.42	9.12
826.162	6.12
826.904	7.12
827.646	6.12
828.388	6.12
829.129	8.12
829.871	7.12
830.612	7.12
831.354	5.12
832.095	5.12
832.836	7.12
833.577	5.12
834.319	8.12
835.06	5.12
835.801	6.12
836.542	7.12
837.282	5.12
838.023	6.12
838.764	5.12
839.504	6.12
840.245	5.12
840.985	7.12
841.726	7.12
842.466	7.12
843.206	6.12
843.946	5.12
844.687	5.12
845.427	5.12
846.166	4.12
846.906	4.12
847.646	6.12
848.386	4.12
849.125	5.12
849.865	5.12
850.605	4.12
851.344	5.12
852.083	4.12
852.823	6.12
853.562	5.12
854.301	4.12
855.04	5.12
855.779	3.12
856.518	7.12
857.257	4.12
857.995	5.12
858.734	5.12
859.473	3.12
860.211	7.12
860.95	4.12
861.688	6.12
862.426	4.12
863.165	2.12
863.903	4.12
864.641	1.12
865.379	4.12
866.117	1.12
866.855	5.12
867.593	1.12
868.33	3.12
869.068	2.12
869.806	3.12
870.543	4.12
871.28	2.12
872.018	3.12
872.755	0.12
873.492	2.12
874.229	3.12
874.967	4.12
875.703	2.12
876.44	3.12
877.177	2.12
877.914	1.12
878.651	4.12
879.387	4.12
880.124	3.12
880.86	2.12
881.597	3.12
882.333	2.12
883.069	1.12
883.806	2.12
884.542	2.12
885.278	2.12
886.014	4.12
886.749	1.12
887.485	4.12
888.221	3.12
888.957	2.12
889.692	1.12
890.428	1.12
891.163	2.12
891.899	0.12
892.634	1.12
893.369	3.12
894.104	1.12
894.839	2.12
895.574	1.12
896.309	2.12
897.044	1.12
897.779	4.12
898.514	1.12
899.248	3.12
899.983	2.12
900.717	0.12
901.452	3.12
902.186	0.12
902.92	2.12
903.654	2.12
904.389	3.12
905.123	2.12
905.857	1.12
906.59	2.12
907.324	2.12
908.058	4.12
908.792	-0.88
909.525	1.12
910.259	3.12
910.992	1.12
911.726	1.12
912.459	-0.88
913.192	1.12
913.925	1.12
914.658	1.12
915.391	1.12
916.124	2.12
916.857	2.12
917.59	0.12
918.323	0.12
919.055	1.12
919.788	1.12
920.521	3.12
921.253	1.12
921.985	1.12
922.718	0.12
923.45	1.12
924.182	1.12
924.914	1.12
925.646	2.12
926.378	1.12
927.11	1.12
927.841	2.12
928.573	0.12
929.305	1.12
930.036	3.12
930.768	0.12
931.499	1.12
932.23	0.12
932.962	0.12
933.693	2.12
934.424	2.12
935.155	3.12
935.886	-0.88
936.617	1.12
937.348	0.12
938.078	2.12
938.809	1.12
939.54	1.12
940.27	0.12
941.001	0.12
941.731	2.12
942.461	2.12
943.191	-0.88
943.922	2.12
944.652	3.12
945.382	0.12
946.112	1.12
946.841	4.12
947.571	0.12
948.301	-0.88
949.031	-0.88
949.76	0.12
950.49	1.12
951.219	-1.88
951.948	3.12
952.678	1.12
953.407	1.12
954.136	1.12
954.865	2.12
955.594	0.12
956.323	2.12
957.052	1.12
957.78	2.12
958.509	1.12
959.238	1.12
959.966	1.12
960.695	2.12
961.423	1.12
962.151	0.12
962.88	3.12
963.608	2.12
964.336	1.12
965.064	0.12
965.792	2.12
966.52	0.12
967.247	1.12
967.975	2.12
968.703	0.12
969.43	1.12
970.158	-1.88
970.885	0.12
971.613	1.12
972.34	2.12
973.067	1.12
973.794	3.12
974.521	0.12
975.248	-0.88
975.975	1.12
976.702	-0.88
977.429	1.12
978.156	0.12
978.882	1.12
979.609	1.12
980.335	1.12
981.062	-1.88
981.788	1.12
982.514	1.12
983.24	1.12
983.967	2.12
984.693	1.12
985.419	0.12
986.144	2.12
986.87	1.12
987.596	2.12
988.322	2.12
989.047	4.12
989.773	3.12
990.498	2.12
991.224	1.12
991.949	-1.88
992.674	1.12
993.399	1.12
994.124	2.12
994.849	0.12
995.574	1.12
996.299	3.12
997.024	-1.88
997.749	0.12
998.473	2.12
999.198	1.12
999.922	2.12
1000.647	-0.88
1001.371	3.12
1002.095	-1.88
1002.82	1.12
1003.544	-0.88
1004.268	5.12
1004.992	1.12
1005.716	4.12
1006.439	5.12
1007.163	6.12
1007.887	4.12
1008.611	1.12
1009.334	0.12
1010.058	2.12
1010.781	1.12
1011.504	2.12
1012.228	1.12
1012.951	0.12
1013.674	0.12
1014.397	-0.88
1015.12	-0.88
