节点500_565_QEPB04081__29__09-50-56-109.txt的数据

Date: Thu Nov 13 09:50:56 CST 2025
User: PC
Spectrometer: QEPB0408
触发模式: 0
积分时间 (秒): 1.000000E-2
Scans to average: 1
启用暗噪声校正: true
启用非线性校正: false
滑动平均宽度: 0
X轴模式: Wavelengths
Number of Pixels in Spectrum: 1044
>>>>>Begin Spectral Data<<<<<
220.843	3.5
221.644	4.5
222.444	2.5
223.244	4.5
224.045	4.5
224.845	5.5
225.645	3.5
226.445	4.5
227.245	2.5
228.045	3.5
228.845	4.5
229.645	7.5
230.444	5.5
231.244	7.5
232.043	6.5
232.843	7.5
233.642	6.5
234.442	8.5
235.241	5.5
236.04	7.5
236.839	7.5
237.638	9.5
238.437	8.5
239.236	6.5
240.035	9.5
240.833	11.5
241.632	9.5
242.43	8.5
243.229	9.5
244.027	9.5
244.826	10.5
245.624	11.5
246.422	9.5
247.22	9.5
248.018	10.5
248.816	15.5
249.614	15.5
250.412	10.5
251.21	13.5
252.007	14.5
252.805	15.5
253.602	15.5
254.4	12.5
255.197	17.5
255.994	15.5
256.791	18.5
257.589	17.5
258.386	17.5
259.183	17.5
259.979	19.5
260.776	20.5
261.573	18.5
262.37	18.5
263.166	21.5
263.963	21.5
264.759	22.5
265.556	23.5
266.352	25.5
267.148	27.5
267.944	24.5
268.74	27.5
269.536	25.5
270.332	27.5
271.128	27.5
271.924	32.5
272.719	27.5
273.515	29.5
274.311	28.5
275.106	27.5
275.901	33.5
276.697	29.5
277.492	30.5
278.287	29.5
279.082	33.5
279.877	28.5
280.672	29.5
281.467	30.5
282.262	31.5
283.056	32.5
283.851	29.5
284.646	31.5
285.44	28.5
286.234	29.5
287.029	30.5
287.823	28.5
288.617	27.5
289.411	27.5
290.205	28.5
290.999	25.5
291.793	29.5
292.587	24.5
293.381	25.5
294.174	29.5
294.968	27.5
295.761	22.5
296.555	22.5
297.348	23.5
298.141	24.5
298.935	23.5
299.728	24.5
300.521	19.5
301.314	22.5
302.107	17.5
302.899	21.5
303.692	21.5
304.485	16.5
305.277	18.5
306.07	19.5
306.862	17.5
307.655	18.5
308.447	15.5
309.239	17.5
310.031	16.5
310.823	16.5
311.615	15.5
312.407	13.5
313.199	12.5
313.991	13.5
314.783	10.5
315.574	10.5
316.366	11.5
317.157	11.5
317.949	15.5
318.74	12.5
319.531	11.5
320.322	10.5
321.113	11.5
321.904	11.5
322.695	12.5
323.486	10.5
324.277	9.5
325.068	9.5
325.858	9.5
326.649	11.5
327.439	10.5
328.23	8.5
329.02	11.5
329.81	8.5
330.6	9.5
331.391	11.5
332.181	11.5
332.971	9.5
333.76	8.5
334.55	8.5
335.34	9.5
336.13	11.5
336.919	9.5
337.709	8.5
338.498	10.5
339.287	8.5
340.077	9.5
340.866	10.5
341.655	7.5
342.444	10.5
343.233	9.5
344.022	8.5
344.811	9.5
345.6	10.5
346.388	7.5
347.177	10.5
347.965	10.5
348.754	7.5
349.542	8.5
350.33	9.5
351.119	9.5
351.907	10.5
352.695	7.5
353.483	7.5
354.271	8.5
355.059	7.5
355.846	7.5
356.634	8.5
357.422	11.5
358.209	7.5
358.997	9.5
359.784	7.5
360.571	9.5
361.359	11.5
362.146	7.5
362.933	9.5
363.72	10.5
364.507	7.5
365.294	7.5
366.081	10.5
366.867	7.5
367.654	9.5
368.44	7.5
369.227	7.5
370.013	6.5
370.8	8.5
371.586	9.5
372.372	6.5
373.158	7.5
373.944	7.5
374.73	10.5
375.516	8.5
376.302	5.5
377.088	8.5
377.873	8.5
378.659	8.5
379.445	9.5
380.23	7.5
381.015	6.5
381.801	10.5
382.586	9.5
383.371	6.5
384.156	9.5
384.941	7.5
385.726	8.5
386.511	10.5
387.296	8.5
388.08	9.5
388.865	9.5
389.649	8.5
390.434	7.5
391.218	10.5
392.003	8.5
392.787	9.5
393.571	8.5
394.355	12.5
395.139	11.5
395.923	9.5
396.707	11.5
397.491	11.5
398.274	9.5
399.058	12.5
399.842	11.5
400.625	10.5
401.408	14.5
402.192	11.5
402.975	13.5
403.758	14.5
404.541	12.5
405.324	13.5
406.107	13.5
406.89	10.5
407.673	13.5
408.456	12.5
409.238	12.5
410.021	13.5
410.803	14.5
411.586	15.5
412.368	14.5
413.151	14.5
413.933	17.5
414.715	14.5
415.497	14.5
416.279	16.5
417.061	15.5
417.843	16.5
418.624	14.5
419.406	18.5
420.188	15.5
420.969	19.5
421.751	21.5
422.532	17.5
423.313	19.5
424.095	20.5
424.876	18.5
425.657	18.5
426.438	24.5
427.219	19.5
428	23.5
428.78	21.5
429.561	20.5
430.342	20.5
431.122	23.5
431.903	24.5
432.683	29.5
433.464	29.5
434.244	29.5
435.024	32.5
435.804	32.5
436.584	33.5
437.364	35.5
438.144	35.5
438.924	38.5
439.704	38.5
440.483	45.5
441.263	45.5
442.042	47.5
442.822	50.5
443.601	52.5
444.38	61.5
445.16	60.5
445.939	64.5
446.718	73.5
447.497	77.5
448.276	80.5
449.054	89.5
449.833	106.5
450.612	109.5
451.391	118.5
452.169	132.5
452.948	140.5
453.726	161.5
454.504	176.5
455.282	202.5
456.061	218.5
456.839	242.5
457.617	267.5
458.395	306.5
459.172	340.5
459.95	376.5
460.728	424.5
461.506	476.5
462.283	531.5
463.061	592.5
463.838	663.5
464.615	741.5
465.393	827.5
466.17	931.5
466.947	1048.5
467.724	1152.5
468.501	1289.5
469.278	1430.5
470.055	1603.5
470.831	1800.5
471.608	2006.5
472.385	2244.5
473.161	2497.5
473.938	2758.5
474.714	3037.5
475.49	3375.5
476.266	3761.5
477.043	4137.5
477.819	4604.5
478.595	5072.5
479.371	5584.5
480.146	6150.5
480.922	6788.5
481.698	7498.5
482.473	8209.5
483.249	9001.5
484.024	9893.5
484.8	10889.5
485.575	11916.5
486.35	12996.5
487.126	14193.5
487.901	15499.5
488.676	16887.5
489.451	18336.5
490.225	19974.5
491	21608.5
491.775	23271.5
492.55	25079.5
493.324	26874.5
494.099	28675.5
494.873	30542.5
495.647	32522.5
496.422	34398.5
497.196	36035.5
497.97	37805.5
498.744	39292.5
499.518	40629.5
500.292	41971.5
501.066	43064.5
501.839	43992.5
502.613	44547.5
503.387	45000.5
504.16	45135.5
504.934	45046.5
505.707	44635.5
506.48	44047.5
507.253	43284.5
508.027	42279.5
508.8	41131.5
509.573	39757.5
510.346	38395.5
511.118	37023.5
511.891	35727.5
512.664	34318.5
513.437	32756.5
514.209	31341.5
514.982	30062.5
515.754	28736.5
516.526	27469.5
517.298	26266.5
518.071	25175.5
518.843	24165.5
519.615	23168.5
520.387	22203.5
521.159	21359.5
521.93	20547.5
522.702	19661.5
523.474	18860.5
524.245	18082.5
525.017	17334.5
525.788	16490.5
526.56	15647.5
527.331	14876.5
528.102	14169.5
528.873	13417.5
529.644	12710.5
530.415	12076.5
531.186	11410.5
531.957	10789.5
532.728	10251.5
533.498	9699.5
534.269	9100.5
535.039	8622.5
535.81	8120.5
536.58	7697.5
537.351	7272.5
538.121	6856.5
538.891	6473.5
539.661	6163.5
540.431	5850.5
541.201	5537.5
541.971	5218.5
542.741	4950.5
543.51	4695.5
544.28	4488.5
545.05	4253.5
545.819	4034.5
546.588	3838.5
547.358	3632.5
548.127	3443.5
548.896	3268.5
549.665	3098.5
550.434	2951.5
551.203	2798.5
551.972	2629.5
552.741	2508.5
553.51	2361.5
554.278	2211.5
555.047	2080.5
555.815	1986.5
556.584	1873.5
557.352	1765.5
558.121	1648.5
558.889	1558.5
559.657	1471.5
560.425	1395.5
561.193	1310.5
561.961	1244.5
562.729	1191.5
563.496	1113.5
564.264	1060.5
565.032	998.5
565.799	945.5
566.567	906.5
567.334	856.5
568.101	795.5
568.869	759.5
569.636	726.5
570.403	669.5
571.17	638.5
571.937	606.5
572.704	565.5
573.471	532.5
574.237	493.5
575.004	472.5
575.771	443.5
576.537	414.5
577.303	403.5
578.07	371.5
578.836	346.5
579.602	337.5
580.368	314.5
581.134	302.5
581.9	279.5
582.666	266.5
583.432	253.5
584.198	240.5
584.964	228.5
585.729	216.5
586.495	212.5
587.26	195.5
588.025	187.5
588.791	177.5
589.556	169.5
590.321	156.5
591.086	155.5
591.851	139.5
592.616	140.5
593.381	137.5
594.146	124.5
594.911	115.5
595.675	114.5
596.44	111.5
597.204	102.5
597.969	101.5
598.733	94.5
599.497	91.5
600.261	86.5
601.025	85.5
601.79	81.5
602.553	75.5
603.317	74.5
604.081	67.5
604.845	68.5
605.609	63.5
606.372	63.5
607.136	60.5
607.899	59.5
608.662	55.5
609.426	54.5
610.189	49.5
610.952	50.5
611.715	47.5
612.478	50.5
613.241	42.5
614.004	44.5
614.767	39.5
615.529	40.5
616.292	38.5
617.055	36.5
617.817	35.5
618.579	33.5
619.342	35.5
620.104	33.5
620.866	30.5
621.628	33.5
622.39	29.5
623.152	28.5
623.914	28.5
624.676	25.5
625.438	27.5
626.199	26.5
626.961	27.5
627.722	22.5
628.484	22.5
629.245	23.5
630.006	20.5
630.768	20.5
631.529	19.5
632.29	22.5
633.051	21.5
633.812	21.5
634.573	19.5
635.333	19.5
636.094	14.5
636.855	18.5
637.615	15.5
638.376	13.5
639.136	17.5
639.896	13.5
640.657	15.5
641.417	14.5
642.177	14.5
642.937	12.5
643.697	12.5
644.457	14.5
645.216	12.5
645.976	12.5
646.736	11.5
647.495	12.5
648.255	13.5
649.014	11.5
649.774	11.5
650.533	11.5
651.292	10.5
652.051	10.5
652.81	8.5
653.569	11.5
654.328	10.5
655.087	10.5
655.846	8.5
656.604	7.5
657.363	10.5
658.121	9.5
658.88	9.5
659.638	7.5
660.397	10.5
661.155	9.5
661.913	7.5
662.671	9.5
663.429	8.5
664.187	8.5
664.945	7.5
665.703	8.5
666.46	8.5
667.218	9.5
667.976	8.5
668.733	6.5
669.49	8.5
670.248	8.5
671.005	9.5
671.762	7.5
672.519	6.5
673.276	7.5
674.033	7.5
674.79	7.5
675.547	6.5
676.304	5.5
677.06	9.5
677.817	5.5
678.574	6.5
679.33	6.5
680.086	8.5
680.843	7.5
681.599	6.5
682.355	8.5
683.111	5.5
683.867	4.5
684.623	7.5
685.379	6.5
686.135	5.5
686.89	7.5
687.646	5.5
688.402	9.5
689.157	5.5
689.912	6.5
690.668	6.5
691.423	3.5
692.178	5.5
692.933	6.5
693.688	5.5
694.443	5.5
695.198	3.5
695.953	6.5
696.708	4.5
697.462	5.5
698.217	4.5
698.972	3.5
699.726	6.5
700.48	6.5
701.235	6.5
701.989	4.5
702.743	5.5
703.497	7.5
704.251	5.5
705.005	4.5
705.759	5.5
706.513	7.5
707.266	5.5
708.02	7.5
708.774	6.5
709.527	5.5
710.28	5.5
711.034	3.5
711.787	3.5
712.54	6.5
713.293	5.5
714.046	5.5
714.799	6.5
715.552	4.5
716.305	4.5
717.058	6.5
717.81	5.5
718.563	4.5
719.315	6.5
720.068	9.5
720.82	5.5
721.573	7.5
722.325	4.5
723.077	5.5
723.829	8.5
724.581	5.5
725.333	7.5
726.085	8.5
726.836	6.5
727.588	7.5
728.34	6.5
729.091	5.5
729.843	8.5
730.594	7.5
731.346	6.5
732.097	8.5
732.848	6.5
733.599	5.5
734.35	8.5
735.101	7.5
735.852	5.5
736.603	7.5
737.354	7.5
738.104	7.5
738.855	10.5
739.605	8.5
740.356	8.5
741.106	6.5
741.856	9.5
742.607	9.5
743.357	8.5
744.107	8.5
744.857	8.5
745.607	8.5
746.357	8.5
747.106	8.5
747.856	7.5
748.606	9.5
749.355	9.5
750.105	9.5
750.854	9.5
751.603	11.5
752.353	10.5
753.102	9.5
753.851	8.5
754.6	8.5
755.349	12.5
756.098	9.5
756.847	12.5
757.595	11.5
758.344	8.5
759.093	12.5
759.841	11.5
760.589	11.5
761.338	9.5
762.086	12.5
762.834	12.5
763.582	11.5
764.331	10.5
765.079	8.5
765.826	13.5
766.574	11.5
767.322	12.5
768.07	13.5
768.817	12.5
769.565	15.5
770.312	11.5
771.06	15.5
771.807	12.5
772.554	14.5
773.302	13.5
774.049	15.5
774.796	12.5
775.543	11.5
776.29	13.5
777.036	13.5
777.783	15.5
778.53	15.5
779.276	15.5
780.023	15.5
780.769	11.5
781.516	15.5
782.262	14.5
783.008	12.5
783.754	17.5
784.5	13.5
785.246	16.5
785.992	11.5
786.738	13.5
787.484	14.5
788.23	14.5
788.975	14.5
789.721	13.5
790.466	14.5
791.212	12.5
791.957	14.5
792.702	12.5
793.447	11.5
794.193	12.5
794.938	11.5
795.683	14.5
796.427	10.5
797.172	9.5
797.917	12.5
798.662	11.5
799.406	14.5
800.151	7.5
800.895	11.5
801.64	8.5
802.384	11.5
803.128	9.5
803.872	9.5
804.616	8.5
805.36	9.5
806.104	10.5
806.848	8.5
807.592	10.5
808.336	7.5
809.079	7.5
809.823	9.5
810.566	6.5
811.31	5.5
812.053	8.5
812.796	8.5
813.539	6.5
814.283	7.5
815.026	9.5
815.769	4.5
816.511	9.5
817.254	4.5
817.997	4.5
818.74	7.5
819.482	5.5
820.225	7.5
820.967	5.5
821.71	5.5
822.452	5.5
823.194	7.5
823.936	2.5
824.678	6.5
825.42	6.5
826.162	5.5
826.904	5.5
827.646	4.5
828.388	5.5
829.129	5.5
829.871	3.5
830.612	7.5
831.354	5.5
832.095	5.5
832.836	3.5
833.577	5.5
834.319	4.5
835.06	4.5
835.801	7.5
836.542	3.5
837.282	5.5
838.023	2.5
838.764	4.5
839.504	3.5
840.245	5.5
840.985	2.5
841.726	5.5
842.466	3.5
843.206	3.5
843.946	5.5
844.687	3.5
845.427	3.5
846.166	1.5
846.906	3.5
847.646	1.5
848.386	2.5
849.125	3.5
849.865	5.5
850.605	1.5
851.344	5.5
852.083	3.5
852.823	4.5
853.562	2.5
854.301	3.5
855.04	1.5
855.779	0.5
856.518	1.5
857.257	0.5
857.995	1.5
858.734	0.5
859.473	5.5
860.211	1.5
860.95	3.5
861.688	3.5
862.426	2.5
863.165	1.5
863.903	2.5
864.641	3.5
865.379	3.5
866.117	3.5
866.855	3.5
867.593	1.5
868.33	1.5
869.068	1.5
869.806	3.5
870.543	0.5
871.28	2.5
872.018	3.5
872.755	-0.5
873.492	-0.5
874.229	-0.5
874.967	1.5
875.703	0.5
876.44	1.5
877.177	1.5
877.914	0.5
878.651	2.5
879.387	0.5
880.124	-0.5
880.86	0.5
881.597	1.5
882.333	-0.5
883.069	0.5
883.806	0.5
884.542	1.5
885.278	0.5
886.014	1.5
886.749	0.5
887.485	-0.5
888.221	2.5
888.957	-0.5
889.692	-0.5
890.428	0.5
891.163	-0.5
891.899	-0.5
892.634	1.5
893.369	-0.5
894.104	1.5
894.839	-0.5
895.574	0.5
896.309	0.5
897.044	3.5
897.779	-0.5
898.514	0.5
899.248	-0.5
899.983	-0.5
900.717	1.5
901.452	0.5
902.186	2.5
902.92	2.5
903.654	-0.5
904.389	-0.5
905.123	-0.5
905.857	1.5
906.59	-2.5
907.324	0.5
908.058	0.5
908.792	0.5
909.525	1.5
910.259	-0.5
910.992	-0.5
911.726	0.5
912.459	-0.5
913.192	-1.5
913.925	0.5
914.658	0.5
915.391	-0.5
916.124	1.5
916.857	0.5
917.59	0.5
918.323	-0.5
919.055	0.5
919.788	-0.5
920.521	-1.5
921.253	-1.5
921.985	-1.5
922.718	-1.5
923.45	-0.5
924.182	-0.5
924.914	-0.5
925.646	-0.5
926.378	-0.5
927.11	-0.5
927.841	0.5
928.573	0.5
929.305	0.5
930.036	1.5
930.768	0.5
931.499	0.5
932.23	-0.5
932.962	-1.5
933.693	1.5
934.424	0.5
935.155	1.5
935.886	0.5
936.617	-0.5
937.348	-0.5
938.078	-0.5
938.809	-2.5
939.54	-0.5
940.27	0.5
941.001	-1.5
941.731	0.5
942.461	0.5
943.191	0.5
943.922	0.5
944.652	-1.5
945.382	-1.5
946.112	-1.5
946.841	-1.5
947.571	-1.5
948.301	-0.5
949.031	-0.5
949.76	-0.5
950.49	-0.5
951.219	-2.5
951.948	-0.5
952.678	-1.5
953.407	-2.5
954.136	0.5
954.865	-0.5
955.594	0.5
956.323	-0.5
957.052	0.5
957.78	-2.5
958.509	0.5
959.238	-3.5
959.966	1.5
960.695	-0.5
961.423	-1.5
962.151	-3.5
962.88	-0.5
963.608	-0.5
964.336	0.5
965.064	-0.5
965.792	0.5
966.52	-0.5
967.247	0.5
967.975	-3.5
968.703	0.5
969.43	-0.5
970.158	-0.5
970.885	0.5
971.613	-0.5
972.34	0.5
973.067	0.5
973.794	1.5
974.521	-0.5
975.248	0.5
975.975	0.5
976.702	-0.5
977.429	0.5
978.156	-1.5
978.882	-0.5
979.609	-0.5
980.335	-1.5
981.062	-0.5
981.788	-1.5
982.514	0.5
983.24	0.5
983.967	-0.5
984.693	-1.5
985.419	-1.5
986.144	-0.5
986.87	0.5
987.596	-0.5
988.322	-1.5
989.047	0.5
989.773	1.5
990.498	-1.5
991.224	2.5
991.949	-0.5
992.674	-0.5
993.399	1.5
994.124	-1.5
994.849	-1.5
995.574	0.5
996.299	-0.5
997.024	-1.5
997.749	1.5
998.473	-0.5
999.198	-0.5
999.922	0.5
1000.647	-0.5
1001.371	4.5
1002.095	-1.5
1002.82	-1.5
1003.544	-0.5
1004.268	1.5
1004.992	0.5
1005.716	4.5
1006.439	2.5
1007.163	2.5
1007.887	4.5
1008.611	-1.5
1009.334	0.5
1010.058	-1.5
1010.781	-0.5
1011.504	0.5
1012.228	-0.5
1012.951	0.5
1013.674	-0.5
1014.397	0.5
1015.12	-1.5
