节点500_565_QEPB04081__429__09-57-33-279.txt的数据

Date: Thu Nov 13 09:57:33 CST 2025
User: PC
Spectrometer: QEPB0408
触发模式: 0
积分时间 (秒): 1.000000E-2
Scans to average: 1
启用暗噪声校正: true
启用非线性校正: false
滑动平均宽度: 0
X轴模式: Wavelengths
Number of Pixels in Spectrum: 1044
>>>>>Begin Spectral Data<<<<<
220.843	2.38
221.644	2.38
222.444	4.38
223.244	4.38
224.045	6.38
224.845	4.38
225.645	3.38
226.445	5.38
227.245	6.38
228.045	5.38
228.845	4.38
229.645	4.38
230.444	5.38
231.244	6.38
232.043	5.38
232.843	7.38
233.642	6.38
234.442	2.38
235.241	7.38
236.04	8.38
236.839	8.38
237.638	5.38
238.437	9.38
239.236	7.38
240.035	8.38
240.833	9.38
241.632	8.38
242.43	9.38
243.229	8.38
244.027	8.38
244.826	8.38
245.624	10.38
246.422	10.38
247.22	8.38
248.018	14.38
248.816	10.38
249.614	11.38
250.412	9.38
251.21	12.38
252.007	9.38
252.805	11.38
253.602	12.38
254.4	12.38
255.197	14.38
255.994	15.38
256.791	14.38
257.589	12.38
258.386	13.38
259.183	14.38
259.979	13.38
260.776	18.38
261.573	17.38
262.37	16.38
263.166	19.38
263.963	16.38
264.759	22.38
265.556	20.38
266.352	21.38
267.148	21.38
267.944	23.38
268.74	19.38
269.536	20.38
270.332	22.38
271.128	22.38
271.924	24.38
272.719	23.38
273.515	23.38
274.311	27.38
275.106	26.38
275.901	28.38
276.697	24.38
277.492	27.38
278.287	26.38
279.082	27.38
279.877	26.38
280.672	28.38
281.467	28.38
282.262	27.38
283.056	31.38
283.851	29.38
284.646	28.38
285.44	26.38
286.234	29.38
287.029	28.38
287.823	32.38
288.617	27.38
289.411	27.38
290.205	26.38
290.999	25.38
291.793	26.38
292.587	27.38
293.381	25.38
294.174	22.38
294.968	24.38
295.761	21.38
296.555	22.38
297.348	21.38
298.141	22.38
298.935	25.38
299.728	22.38
300.521	20.38
301.314	24.38
302.107	16.38
302.899	16.38
303.692	21.38
304.485	20.38
305.277	21.38
306.07	18.38
306.862	20.38
307.655	18.38
308.447	16.38
309.239	16.38
310.031	20.38
310.823	13.38
311.615	15.38
312.407	16.38
313.199	15.38
313.991	16.38
314.783	13.38
315.574	13.38
316.366	13.38
317.157	12.38
317.949	12.38
318.74	12.38
319.531	13.38
320.322	9.38
321.113	11.38
321.904	12.38
322.695	12.38
323.486	13.38
324.277	11.38
325.068	11.38
325.858	9.38
326.649	12.38
327.439	11.38
328.23	8.38
329.02	8.38
329.81	8.38
330.6	10.38
331.391	7.38
332.181	10.38
332.971	9.38
333.76	10.38
334.55	10.38
335.34	9.38
336.13	11.38
336.919	11.38
337.709	11.38
338.498	8.38
339.287	7.38
340.077	6.38
340.866	8.38
341.655	9.38
342.444	12.38
343.233	8.38
344.022	10.38
344.811	10.38
345.6	11.38
346.388	10.38
347.177	8.38
347.965	7.38
348.754	8.38
349.542	9.38
350.33	9.38
351.119	8.38
351.907	12.38
352.695	7.38
353.483	9.38
354.271	9.38
355.059	9.38
355.846	10.38
356.634	8.38
357.422	8.38
358.209	8.38
358.997	8.38
359.784	7.38
360.571	10.38
361.359	6.38
362.146	8.38
362.933	7.38
363.72	7.38
364.507	7.38
365.294	8.38
366.081	9.38
366.867	7.38
367.654	7.38
368.44	6.38
369.227	8.38
370.013	7.38
370.8	8.38
371.586	7.38
372.372	4.38
373.158	7.38
373.944	6.38
374.73	5.38
375.516	6.38
376.302	6.38
377.088	7.38
377.873	7.38
378.659	8.38
379.445	6.38
380.23	10.38
381.015	7.38
381.801	6.38
382.586	10.38
383.371	7.38
384.156	7.38
384.941	7.38
385.726	6.38
386.511	10.38
387.296	8.38
388.08	10.38
388.865	8.38
389.649	8.38
390.434	8.38
391.218	8.38
392.003	5.38
392.787	10.38
393.571	9.38
394.355	7.38
395.139	10.38
395.923	9.38
396.707	8.38
397.491	9.38
398.274	13.38
399.058	10.38
399.842	10.38
400.625	11.38
401.408	11.38
402.192	12.38
402.975	10.38
403.758	12.38
404.541	11.38
405.324	13.38
406.107	13.38
406.89	13.38
407.673	11.38
408.456	11.38
409.238	13.38
410.021	12.38
410.803	13.38
411.586	14.38
412.368	13.38
413.151	13.38
413.933	13.38
414.715	16.38
415.497	12.38
416.279	15.38
417.061	17.38
417.843	15.38
418.624	16.38
419.406	13.38
420.188	16.38
420.969	16.38
421.751	15.38
422.532	18.38
423.313	18.38
424.095	18.38
424.876	18.38
425.657	19.38
426.438	22.38
427.219	23.38
428	20.38
428.78	21.38
429.561	24.38
430.342	21.38
431.122	27.38
431.903	24.38
432.683	26.38
433.464	30.38
434.244	28.38
435.024	31.38
435.804	32.38
436.584	33.38
437.364	32.38
438.144	35.38
438.924	40.38
439.704	41.38
440.483	46.38
441.263	49.38
442.042	52.38
442.822	54.38
443.601	58.38
444.38	61.38
445.16	67.38
445.939	71.38
446.718	80.38
447.497	87.38
448.276	91.38
449.054	100.38
449.833	114.38
450.612	122.38
451.391	131.38
452.169	147.38
452.948	167.38
453.726	186.38
454.504	208.38
455.282	229.38
456.061	255.38
456.839	284.38
457.617	313.38
458.395	348.38
459.172	393.38
459.95	438.38
460.728	488.38
461.506	537.38
462.283	601.38
463.061	667.38
463.838	748.38
464.615	827.38
465.393	927.38
466.17	1018.38
466.947	1127.38
467.724	1263.38
468.501	1382.38
469.278	1541.38
470.055	1702.38
470.831	1895.38
471.608	2082.38
472.385	2290.38
473.161	2517.38
473.938	2766.38
474.714	3047.38
475.49	3325.38
476.266	3659.38
477.043	4020.38
477.819	4429.38
478.595	4796.38
479.371	5229.38
480.146	5690.38
480.922	6226.38
481.698	6775.38
482.473	7326.38
483.249	7991.38
484.024	8650.38
484.8	9444.38
485.575	10202.38
486.35	11053.38
487.126	11980.38
487.901	12966.38
488.676	13986.38
489.451	15181.38
490.225	16401.38
491	17585.38
491.775	18869.38
492.55	20182.38
493.324	21640.38
494.099	23076.38
494.873	24512.38
495.647	26152.38
496.422	27630.38
497.196	29104.38
497.97	30589.38
498.744	32068.38
499.518	33367.38
500.292	34612.38
501.066	35860.38
501.839	36935.38
502.613	37798.38
503.387	38495.38
504.16	39211.38
504.934	39593.38
505.707	39710.38
506.48	39875.38
507.253	39601.38
508.027	39158.38
508.8	38596.38
509.573	37878.38
510.346	37018.38
511.118	36116.38
511.891	35236.38
512.664	34066.38
513.437	32933.38
514.209	31756.38
514.982	30498.38
515.754	29448.38
516.526	28222.38
517.298	27023.38
518.071	25999.38
518.843	24949.38
519.615	23881.38
520.387	22982.38
521.159	22105.38
521.93	21210.38
522.702	20320.38
523.474	19549.38
524.245	18764.38
525.017	18030.38
525.788	17244.38
526.56	16479.38
527.331	15725.38
528.102	15082.38
528.873	14326.38
529.644	13660.38
530.415	12972.38
531.186	12327.38
531.957	11735.38
532.728	11183.38
533.498	10564.38
534.269	9976.38
535.039	9493.38
535.81	8972.38
536.58	8498.38
537.351	8026.38
538.121	7603.38
538.891	7211.38
539.661	6855.38
540.431	6466.38
541.201	6124.38
541.971	5798.38
542.741	5470.38
543.51	5196.38
544.28	4936.38
545.05	4706.38
545.819	4467.38
546.588	4260.38
547.358	4018.38
548.127	3842.38
548.896	3631.38
549.665	3486.38
550.434	3305.38
551.203	3152.38
551.972	2954.38
552.741	2811.38
553.51	2664.38
554.278	2507.38
555.047	2357.38
555.815	2252.38
556.584	2146.38
557.352	2013.38
558.121	1887.38
558.889	1790.38
559.657	1699.38
560.425	1592.38
561.193	1512.38
561.961	1423.38
562.729	1358.38
563.496	1276.38
564.264	1220.38
565.032	1139.38
565.799	1088.38
566.567	1031.38
567.334	971.38
568.101	923.38
568.869	852.38
569.636	816.38
570.403	781.38
571.17	732.38
571.937	686.38
572.704	651.38
573.471	616.38
574.237	571.38
575.004	551.38
575.771	514.38
576.537	492.38
577.303	457.38
578.07	431.38
578.836	401.38
579.602	388.38
580.368	370.38
581.134	346.38
581.9	330.38
582.666	310.38
583.432	289.38
584.198	283.38
584.964	269.38
585.729	252.38
586.495	241.38
587.26	228.38
588.025	214.38
588.791	208.38
589.556	191.38
590.321	185.38
591.086	173.38
591.851	167.38
592.616	157.38
593.381	152.38
594.146	145.38
594.911	137.38
595.675	125.38
596.44	131.38
597.204	121.38
597.969	112.38
598.733	112.38
599.497	103.38
600.261	98.38
601.025	96.38
601.79	88.38
602.553	86.38
603.317	83.38
604.081	78.38
604.845	77.38
605.609	77.38
606.372	68.38
607.136	64.38
607.899	64.38
608.662	60.38
609.426	65.38
610.189	57.38
610.952	56.38
611.715	56.38
612.478	54.38
613.241	46.38
614.004	44.38
614.767	46.38
615.529	46.38
616.292	46.38
617.055	41.38
617.817	39.38
618.579	39.38
619.342	36.38
620.104	35.38
620.866	34.38
621.628	34.38
622.39	31.38
623.152	32.38
623.914	32.38
624.676	29.38
625.438	27.38
626.199	27.38
626.961	26.38
627.722	25.38
628.484	24.38
629.245	22.38
630.006	21.38
630.768	24.38
631.529	21.38
632.29	21.38
633.051	20.38
633.812	22.38
634.573	19.38
635.333	18.38
636.094	19.38
636.855	18.38
637.615	20.38
638.376	19.38
639.136	17.38
639.896	13.38
640.657	15.38
641.417	17.38
642.177	15.38
642.937	14.38
643.697	12.38
644.457	15.38
645.216	12.38
645.976	14.38
646.736	13.38
647.495	11.38
648.255	13.38
649.014	11.38
649.774	13.38
650.533	10.38
651.292	9.38
652.051	9.38
652.81	10.38
653.569	8.38
654.328	11.38
655.087	13.38
655.846	11.38
656.604	10.38
657.363	11.38
658.121	11.38
658.88	9.38
659.638	10.38
660.397	9.38
661.155	8.38
661.913	10.38
662.671	8.38
663.429	10.38
664.187	8.38
664.945	8.38
665.703	9.38
666.46	9.38
667.218	7.38
667.976	8.38
668.733	6.38
669.49	7.38
670.248	7.38
671.005	5.38
671.762	6.38
672.519	6.38
673.276	10.38
674.033	7.38
674.79	7.38
675.547	7.38
676.304	6.38
677.06	6.38
677.817	7.38
678.574	8.38
679.33	6.38
680.086	7.38
680.843	6.38
681.599	7.38
682.355	5.38
683.111	8.38
683.867	5.38
684.623	8.38
685.379	9.38
686.135	7.38
686.89	6.38
687.646	4.38
688.402	9.38
689.157	7.38
689.912	8.38
690.668	7.38
691.423	7.38
692.178	6.38
692.933	6.38
693.688	6.38
694.443	6.38
695.198	5.38
695.953	6.38
696.708	4.38
697.462	5.38
698.217	7.38
698.972	8.38
699.726	7.38
700.48	7.38
701.235	6.38
701.989	4.38
702.743	4.38
703.497	6.38
704.251	5.38
705.005	7.38
705.759	6.38
706.513	6.38
707.266	5.38
708.02	7.38
708.774	2.38
709.527	8.38
710.28	3.38
711.034	4.38
711.787	4.38
712.54	6.38
713.293	5.38
714.046	5.38
714.799	5.38
715.552	6.38
716.305	5.38
717.058	6.38
717.81	5.38
718.563	4.38
719.315	5.38
720.068	6.38
720.82	5.38
721.573	7.38
722.325	7.38
723.077	6.38
723.829	7.38
724.581	6.38
725.333	4.38
726.085	4.38
726.836	5.38
727.588	8.38
728.34	6.38
729.091	6.38
729.843	9.38
730.594	9.38
731.346	5.38
732.097	7.38
732.848	6.38
733.599	7.38
734.35	8.38
735.101	8.38
735.852	7.38
736.603	6.38
737.354	9.38
738.104	8.38
738.855	8.38
739.605	6.38
740.356	8.38
741.106	6.38
741.856	5.38
742.607	7.38
743.357	7.38
744.107	8.38
744.857	8.38
745.607	5.38
746.357	6.38
747.106	7.38
747.856	9.38
748.606	5.38
749.355	9.38
750.105	8.38
750.854	10.38
751.603	7.38
752.353	10.38
753.102	8.38
753.851	6.38
754.6	10.38
755.349	9.38
756.098	8.38
756.847	9.38
757.595	8.38
758.344	9.38
759.093	9.38
759.841	10.38
760.589	9.38
761.338	9.38
762.086	7.38
762.834	9.38
763.582	12.38
764.331	10.38
765.079	10.38
765.826	10.38
766.574	9.38
767.322	11.38
768.07	9.38
768.817	12.38
769.565	12.38
770.312	11.38
771.06	10.38
771.807	14.38
772.554	13.38
773.302	11.38
774.049	12.38
774.796	11.38
775.543	13.38
776.29	12.38
777.036	13.38
777.783	13.38
778.53	13.38
779.276	13.38
780.023	10.38
780.769	10.38
781.516	10.38
782.262	11.38
783.008	12.38
783.754	12.38
784.5	12.38
785.246	12.38
785.992	12.38
786.738	14.38
787.484	12.38
788.23	11.38
788.975	10.38
789.721	11.38
790.466	8.38
791.212	12.38
791.957	11.38
792.702	11.38
793.447	12.38
794.193	12.38
794.938	11.38
795.683	10.38
796.427	12.38
797.172	9.38
797.917	10.38
798.662	12.38
799.406	12.38
800.151	9.38
800.895	12.38
801.64	7.38
802.384	8.38
803.128	9.38
803.872	7.38
804.616	8.38
805.36	6.38
806.104	8.38
806.848	9.38
807.592	7.38
808.336	8.38
809.079	7.38
809.823	4.38
810.566	4.38
811.31	7.38
812.053	8.38
812.796	7.38
813.539	5.38
814.283	6.38
815.026	8.38
815.769	6.38
816.511	7.38
817.254	8.38
817.997	6.38
818.74	5.38
819.482	7.38
820.225	8.38
820.967	5.38
821.71	5.38
822.452	6.38
823.194	4.38
823.936	7.38
824.678	4.38
825.42	6.38
826.162	4.38
826.904	6.38
827.646	5.38
828.388	4.38
829.129	7.38
829.871	3.38
830.612	4.38
831.354	6.38
832.095	6.38
832.836	4.38
833.577	5.38
834.319	6.38
835.06	6.38
835.801	4.38
836.542	4.38
837.282	4.38
838.023	3.38
838.764	4.38
839.504	3.38
840.245	2.38
840.985	3.38
841.726	4.38
842.466	5.38
843.206	3.38
843.946	5.38
844.687	3.38
845.427	4.38
846.166	5.38
846.906	3.38
847.646	5.38
848.386	3.38
849.125	3.38
849.865	5.38
850.605	3.38
851.344	3.38
852.083	3.38
852.823	4.38
853.562	2.38
854.301	4.38
855.04	4.38
855.779	3.38
856.518	3.38
857.257	1.38
857.995	5.38
858.734	2.38
859.473	2.38
860.211	3.38
860.95	3.38
861.688	3.38
862.426	1.38
863.165	2.38
863.903	1.38
864.641	1.38
865.379	4.38
866.117	0.38
866.855	4.38
867.593	1.38
868.33	2.38
869.068	1.38
869.806	2.38
870.543	0.38
871.28	1.38
872.018	2.38
872.755	-1.62
873.492	1.38
874.229	2.38
874.967	3.38
875.703	0.38
876.44	0.38
877.177	1.38
877.914	-1.62
878.651	1.38
879.387	2.38
880.124	2.38
880.86	0.38
881.597	1.38
882.333	1.38
883.069	0.38
883.806	1.38
884.542	1.38
885.278	-0.62
886.014	1.38
886.749	0.38
887.485	1.38
888.221	0.38
888.957	1.38
889.692	-2.62
890.428	2.38
891.163	1.38
891.899	0.38
892.634	1.38
893.369	-1.62
894.104	0.38
894.839	2.38
895.574	-0.62
896.309	-0.62
897.044	2.38
897.779	-1.62
898.514	1.38
899.248	-0.62
899.983	-0.62
900.717	0.38
901.452	0.38
902.186	2.38
902.92	3.38
903.654	1.38
904.389	-0.62
905.123	0.38
905.857	0.38
906.59	-0.62
907.324	2.38
908.058	0.38
908.792	-1.62
909.525	0.38
910.259	0.38
910.992	2.38
911.726	-1.62
912.459	1.38
913.192	-0.62
913.925	1.38
914.658	-1.62
915.391	-0.62
916.124	-0.62
916.857	0.38
917.59	2.38
918.323	-0.62
919.055	0.38
919.788	1.38
920.521	0.38
921.253	0.38
921.985	0.38
922.718	0.38
923.45	1.38
924.182	0.38
924.914	2.38
925.646	-1.62
926.378	0.38
927.11	-1.62
927.841	1.38
928.573	-1.62
929.305	-0.62
930.036	1.38
930.768	-1.62
931.499	0.38
932.23	0.38
932.962	-1.62
933.693	0.38
934.424	-0.62
935.155	0.38
935.886	1.38
936.617	0.38
937.348	0.38
938.078	-0.62
938.809	-1.62
939.54	0.38
940.27	1.38
941.001	1.38
941.731	-2.62
942.461	-0.62
943.191	0.38
943.922	-0.62
944.652	2.38
945.382	1.38
946.112	-1.62
946.841	1.38
947.571	1.38
948.301	2.38
949.031	2.38
949.76	0.38
950.49	-2.62
951.219	-1.62
951.948	-0.62
952.678	-2.62
953.407	1.38
954.136	-1.62
954.865	1.38
955.594	-0.62
956.323	-0.62
957.052	0.38
957.78	-2.62
958.509	0.38
959.238	-2.62
959.966	0.38
960.695	-0.62
961.423	0.38
962.151	2.38
962.88	-0.62
963.608	0.38
964.336	-2.62
965.064	0.38
965.792	0.38
966.52	-1.62
967.247	-0.62
967.975	-1.62
968.703	-0.62
969.43	0.38
970.158	1.38
970.885	0.38
971.613	2.38
972.34	1.38
973.067	-1.62
973.794	1.38
974.521	-2.62
975.248	1.38
975.975	-0.62
976.702	-0.62
977.429	0.38
978.156	-1.62
978.882	0.38
979.609	-1.62
980.335	-1.62
981.062	-1.62
981.788	0.38
982.514	1.38
983.24	-0.62
983.967	1.38
984.693	2.38
985.419	1.38
986.144	0.38
986.87	-0.62
987.596	-0.62
988.322	0.38
989.047	1.38
989.773	-1.62
990.498	2.38
991.224	0.38
991.949	1.38
992.674	1.38
993.399	-0.62
994.124	-0.62
994.849	-0.62
995.574	0.38
996.299	-1.62
997.024	1.38
997.749	0.38
998.473	-0.62
999.198	0.38
999.922	-0.62
1000.647	2.38
1001.371	4.38
1002.095	-2.62
1002.82	0.38
1003.544	-1.62
1004.268	3.38
1004.992	2.38
1005.716	2.38
1006.439	4.38
1007.163	6.38
1007.887	4.38
1008.611	0.38
1009.334	1.38
1010.058	0.38
1010.781	2.38
1011.504	1.38
1012.228	2.38
1012.951	1.38
1013.674	-1.62
1014.397	0.38
1015.12	-0.62
