节点500_565_QEPB04081__457__09-58-01-231.txt的数据

Date: Thu Nov 13 09:58:01 CST 2025
User: PC
Spectrometer: QEPB0408
触发模式: 0
积分时间 (秒): 1.000000E-2
Scans to average: 1
启用暗噪声校正: true
启用非线性校正: false
滑动平均宽度: 0
X轴模式: Wavelengths
Number of Pixels in Spectrum: 1044
>>>>>Begin Spectral Data<<<<<
220.843	4.62
221.644	4.62
222.444	5.62
223.244	5.62
224.045	2.62
224.845	3.62
225.645	6.62
226.445	3.62
227.245	6.62
228.045	6.62
228.845	4.62
229.645	4.62
230.444	8.62
231.244	5.62
232.043	3.62
232.843	7.62
233.642	6.62
234.442	8.62
235.241	7.62
236.04	6.62
236.839	6.62
237.638	8.62
238.437	8.62
239.236	8.62
240.035	7.62
240.833	7.62
241.632	8.62
242.43	9.62
243.229	10.62
244.027	9.62
244.826	9.62
245.624	10.62
246.422	7.62
247.22	9.62
248.018	11.62
248.816	12.62
249.614	11.62
250.412	11.62
251.21	9.62
252.007	13.62
252.805	11.62
253.602	9.62
254.4	13.62
255.197	12.62
255.994	14.62
256.791	14.62
257.589	12.62
258.386	15.62
259.183	14.62
259.979	15.62
260.776	14.62
261.573	18.62
262.37	18.62
263.166	17.62
263.963	20.62
264.759	18.62
265.556	21.62
266.352	18.62
267.148	21.62
267.944	19.62
268.74	21.62
269.536	23.62
270.332	19.62
271.128	21.62
271.924	27.62
272.719	24.62
273.515	26.62
274.311	25.62
275.106	27.62
275.901	27.62
276.697	28.62
277.492	25.62
278.287	26.62
279.082	30.62
279.877	27.62
280.672	26.62
281.467	27.62
282.262	26.62
283.056	25.62
283.851	28.62
284.646	23.62
285.44	28.62
286.234	27.62
287.029	29.62
287.823	27.62
288.617	26.62
289.411	27.62
290.205	26.62
290.999	25.62
291.793	28.62
292.587	25.62
293.381	27.62
294.174	24.62
294.968	22.62
295.761	22.62
296.555	21.62
297.348	22.62
298.141	18.62
298.935	25.62
299.728	21.62
300.521	20.62
301.314	19.62
302.107	19.62
302.899	18.62
303.692	18.62
304.485	18.62
305.277	18.62
306.07	17.62
306.862	19.62
307.655	15.62
308.447	18.62
309.239	17.62
310.031	19.62
310.823	16.62
311.615	17.62
312.407	16.62
313.199	15.62
313.991	13.62
314.783	13.62
315.574	13.62
316.366	14.62
317.157	12.62
317.949	11.62
318.74	10.62
319.531	12.62
320.322	10.62
321.113	9.62
321.904	10.62
322.695	10.62
323.486	9.62
324.277	8.62
325.068	13.62
325.858	10.62
326.649	9.62
327.439	9.62
328.23	11.62
329.02	9.62
329.81	9.62
330.6	11.62
331.391	9.62
332.181	11.62
332.971	9.62
333.76	10.62
334.55	11.62
335.34	9.62
336.13	10.62
336.919	10.62
337.709	8.62
338.498	9.62
339.287	9.62
340.077	9.62
340.866	10.62
341.655	9.62
342.444	10.62
343.233	9.62
344.022	8.62
344.811	7.62
345.6	9.62
346.388	10.62
347.177	9.62
347.965	8.62
348.754	7.62
349.542	10.62
350.33	11.62
351.119	9.62
351.907	9.62
352.695	7.62
353.483	9.62
354.271	7.62
355.059	5.62
355.846	7.62
356.634	8.62
357.422	8.62
358.209	7.62
358.997	8.62
359.784	7.62
360.571	9.62
361.359	7.62
362.146	7.62
362.933	10.62
363.72	8.62
364.507	8.62
365.294	11.62
366.081	7.62
366.867	8.62
367.654	5.62
368.44	9.62
369.227	6.62
370.013	7.62
370.8	6.62
371.586	10.62
372.372	8.62
373.158	6.62
373.944	8.62
374.73	6.62
375.516	11.62
376.302	8.62
377.088	8.62
377.873	8.62
378.659	4.62
379.445	7.62
380.23	6.62
381.015	8.62
381.801	8.62
382.586	7.62
383.371	6.62
384.156	9.62
384.941	7.62
385.726	6.62
386.511	6.62
387.296	9.62
388.08	7.62
388.865	8.62
389.649	7.62
390.434	7.62
391.218	8.62
392.003	7.62
392.787	11.62
393.571	11.62
394.355	7.62
395.139	9.62
395.923	10.62
396.707	8.62
397.491	10.62
398.274	9.62
399.058	10.62
399.842	12.62
400.625	10.62
401.408	13.62
402.192	10.62
402.975	11.62
403.758	10.62
404.541	10.62
405.324	12.62
406.107	12.62
406.89	11.62
407.673	12.62
408.456	12.62
409.238	12.62
410.021	11.62
410.803	11.62
411.586	13.62
412.368	14.62
413.151	11.62
413.933	12.62
414.715	15.62
415.497	13.62
416.279	16.62
417.061	13.62
417.843	17.62
418.624	16.62
419.406	15.62
420.188	15.62
420.969	16.62
421.751	17.62
422.532	17.62
423.313	18.62
424.095	16.62
424.876	21.62
425.657	21.62
426.438	20.62
427.219	23.62
428	22.62
428.78	22.62
429.561	22.62
430.342	24.62
431.122	23.62
431.903	28.62
432.683	26.62
433.464	29.62
434.244	30.62
435.024	33.62
435.804	33.62
436.584	32.62
437.364	37.62
438.144	37.62
438.924	38.62
439.704	44.62
440.483	45.62
441.263	48.62
442.042	50.62
442.822	53.62
443.601	58.62
444.38	61.62
445.16	69.62
445.939	74.62
446.718	79.62
447.497	85.62
448.276	96.62
449.054	105.62
449.833	111.62
450.612	129.62
451.391	139.62
452.169	152.62
452.948	164.62
453.726	178.62
454.504	211.62
455.282	227.62
456.061	254.62
456.839	276.62
457.617	314.62
458.395	354.62
459.172	392.62
459.95	436.62
460.728	492.62
461.506	548.62
462.283	603.62
463.061	672.62
463.838	750.62
464.615	836.62
465.393	918.62
466.17	1021.62
466.947	1132.62
467.724	1253.62
468.501	1384.62
469.278	1548.62
470.055	1710.62
470.831	1875.62
471.608	2076.62
472.385	2274.62
473.161	2525.62
473.938	2767.62
474.714	3052.62
475.49	3320.62
476.266	3617.62
477.043	4008.62
477.819	4387.62
478.595	4780.62
479.371	5216.62
480.146	5713.62
480.922	6193.62
481.698	6743.62
482.473	7312.62
483.249	7917.62
484.024	8624.62
484.8	9369.62
485.575	10205.62
486.35	10973.62
487.126	11922.62
487.901	12872.62
488.676	13898.62
489.451	15024.62
490.225	16222.62
491	17432.62
491.775	18716.62
492.55	20013.62
493.324	21479.62
494.099	22892.62
494.873	24277.62
495.647	25893.62
496.422	27435.62
497.196	28843.62
497.97	30359.62
498.744	31731.62
499.518	33083.62
500.292	34360.62
501.066	35540.62
501.839	36557.62
502.613	37501.62
503.387	38296.62
504.16	38933.62
504.934	39372.62
505.707	39491.62
506.48	39569.62
507.253	39470.62
508.027	38970.62
508.8	38421.62
509.573	37775.62
510.346	37028.62
511.118	35947.62
511.891	35143.62
512.664	34043.62
513.437	32928.62
514.209	31763.62
514.982	30583.62
515.754	29414.62
516.526	28286.62
517.298	27110.62
518.071	26123.62
518.843	25024.62
519.615	23883.62
520.387	23032.62
521.159	22133.62
521.93	21300.62
522.702	20383.62
523.474	19561.62
524.245	18819.62
525.017	17993.62
525.788	17237.62
526.56	16466.62
527.331	15794.62
528.102	15066.62
528.873	14363.62
529.644	13637.62
530.415	13014.62
531.186	12327.62
531.957	11806.62
532.728	11203.62
533.498	10616.62
534.269	10037.62
535.039	9490.62
535.81	9036.62
536.58	8565.62
537.351	8085.62
538.121	7628.62
538.891	7233.62
539.661	6847.62
540.431	6516.62
541.201	6155.62
541.971	5873.62
542.741	5536.62
543.51	5191.62
544.28	4968.62
545.05	4702.62
545.819	4501.62
546.588	4259.62
547.358	4060.62
548.127	3835.62
548.896	3682.62
549.665	3494.62
550.434	3299.62
551.203	3148.62
551.972	2988.62
552.741	2841.62
553.51	2664.62
554.278	2530.62
555.047	2373.62
555.815	2247.62
556.584	2144.62
557.352	2004.62
558.121	1902.62
558.889	1802.62
559.657	1698.62
560.425	1596.62
561.193	1519.62
561.961	1451.62
562.729	1366.62
563.496	1279.62
564.264	1219.62
565.032	1168.62
565.799	1101.62
566.567	1042.62
567.334	979.62
568.101	922.62
568.869	857.62
569.636	835.62
570.403	780.62
571.17	731.62
571.937	682.62
572.704	647.62
573.471	620.62
574.237	584.62
575.004	551.62
575.771	511.62
576.537	488.62
577.303	461.62
578.07	434.62
578.836	406.62
579.602	386.62
580.368	367.62
581.134	351.62
581.9	336.62
582.666	306.62
583.432	297.62
584.198	278.62
584.964	268.62
585.729	243.62
586.495	238.62
587.26	224.62
588.025	213.62
588.791	208.62
589.556	190.62
590.321	180.62
591.086	177.62
591.851	169.62
592.616	165.62
593.381	144.62
594.146	139.62
594.911	139.62
595.675	129.62
596.44	127.62
597.204	117.62
597.969	116.62
598.733	109.62
599.497	108.62
600.261	97.62
601.025	94.62
601.79	93.62
602.553	90.62
603.317	85.62
604.081	79.62
604.845	75.62
605.609	70.62
606.372	72.62
607.136	69.62
607.899	66.62
608.662	61.62
609.426	60.62
610.189	57.62
610.952	50.62
611.715	53.62
612.478	52.62
613.241	54.62
614.004	46.62
614.767	46.62
615.529	46.62
616.292	41.62
617.055	39.62
617.817	39.62
618.579	39.62
619.342	36.62
620.104	34.62
620.866	36.62
621.628	34.62
622.39	33.62
623.152	29.62
623.914	28.62
624.676	29.62
625.438	28.62
626.199	27.62
626.961	26.62
627.722	27.62
628.484	24.62
629.245	24.62
630.006	22.62
630.768	22.62
631.529	23.62
632.29	22.62
633.051	23.62
633.812	21.62
634.573	22.62
635.333	21.62
636.094	17.62
636.855	20.62
637.615	16.62
638.376	16.62
639.136	17.62
639.896	17.62
640.657	17.62
641.417	14.62
642.177	15.62
642.937	14.62
643.697	16.62
644.457	15.62
645.216	18.62
645.976	14.62
646.736	13.62
647.495	11.62
648.255	11.62
649.014	12.62
649.774	13.62
650.533	13.62
651.292	12.62
652.051	10.62
652.81	10.62
653.569	10.62
654.328	11.62
655.087	10.62
655.846	11.62
656.604	11.62
657.363	10.62
658.121	10.62
658.88	8.62
659.638	9.62
660.397	9.62
661.155	8.62
661.913	7.62
662.671	8.62
663.429	7.62
664.187	6.62
664.945	10.62
665.703	8.62
666.46	8.62
667.218	8.62
667.976	10.62
668.733	8.62
669.49	6.62
670.248	10.62
671.005	8.62
671.762	6.62
672.519	7.62
673.276	6.62
674.033	8.62
674.79	5.62
675.547	8.62
676.304	6.62
677.06	9.62
677.817	7.62
678.574	8.62
679.33	7.62
680.086	5.62
680.843	8.62
681.599	6.62
682.355	8.62
683.111	6.62
683.867	5.62
684.623	8.62
685.379	7.62
686.135	6.62
686.89	4.62
687.646	6.62
688.402	5.62
689.157	4.62
689.912	5.62
690.668	4.62
691.423	6.62
692.178	2.62
692.933	6.62
693.688	6.62
694.443	6.62
695.198	7.62
695.953	7.62
696.708	7.62
697.462	5.62
698.217	3.62
698.972	2.62
699.726	4.62
700.48	5.62
701.235	6.62
701.989	7.62
702.743	8.62
703.497	5.62
704.251	4.62
705.005	4.62
705.759	7.62
706.513	4.62
707.266	5.62
708.02	4.62
708.774	7.62
709.527	5.62
710.28	6.62
711.034	4.62
711.787	4.62
712.54	6.62
713.293	4.62
714.046	4.62
714.799	6.62
715.552	6.62
716.305	6.62
717.058	2.62
717.81	7.62
718.563	5.62
719.315	4.62
720.068	9.62
720.82	7.62
721.573	6.62
722.325	6.62
723.077	6.62
723.829	3.62
724.581	5.62
725.333	7.62
726.085	4.62
726.836	7.62
727.588	5.62
728.34	6.62
729.091	6.62
729.843	7.62
730.594	4.62
731.346	7.62
732.097	8.62
732.848	3.62
733.599	7.62
734.35	6.62
735.101	6.62
735.852	5.62
736.603	6.62
737.354	6.62
738.104	5.62
738.855	6.62
739.605	7.62
740.356	8.62
741.106	6.62
741.856	9.62
742.607	6.62
743.357	6.62
744.107	7.62
744.857	6.62
745.607	8.62
746.357	6.62
747.106	6.62
747.856	8.62
748.606	8.62
749.355	7.62
750.105	6.62
750.854	8.62
751.603	8.62
752.353	10.62
753.102	8.62
753.851	11.62
754.6	8.62
755.349	7.62
756.098	6.62
756.847	8.62
757.595	8.62
758.344	8.62
759.093	11.62
759.841	12.62
760.589	6.62
761.338	10.62
762.086	11.62
762.834	9.62
763.582	8.62
764.331	12.62
765.079	10.62
765.826	7.62
766.574	8.62
767.322	7.62
768.07	11.62
768.817	12.62
769.565	14.62
770.312	14.62
771.06	9.62
771.807	14.62
772.554	10.62
773.302	13.62
774.049	12.62
774.796	11.62
775.543	10.62
776.29	12.62
777.036	11.62
777.783	9.62
778.53	13.62
779.276	9.62
780.023	12.62
780.769	11.62
781.516	12.62
782.262	10.62
783.008	11.62
783.754	11.62
784.5	13.62
785.246	15.62
785.992	12.62
786.738	13.62
787.484	13.62
788.23	11.62
788.975	15.62
789.721	12.62
790.466	11.62
791.212	13.62
791.957	11.62
792.702	12.62
793.447	11.62
794.193	13.62
794.938	10.62
795.683	11.62
796.427	9.62
797.172	11.62
797.917	12.62
798.662	11.62
799.406	8.62
800.151	9.62
800.895	8.62
801.64	10.62
802.384	8.62
803.128	10.62
803.872	8.62
804.616	8.62
805.36	8.62
806.104	8.62
806.848	6.62
807.592	10.62
808.336	8.62
809.079	7.62
809.823	6.62
810.566	6.62
811.31	8.62
812.053	8.62
812.796	7.62
813.539	8.62
814.283	8.62
815.026	9.62
815.769	6.62
816.511	10.62
817.254	7.62
817.997	9.62
818.74	8.62
819.482	6.62
820.225	7.62
820.967	6.62
821.71	4.62
822.452	3.62
823.194	5.62
823.936	7.62
824.678	6.62
825.42	8.62
826.162	6.62
826.904	5.62
827.646	5.62
828.388	4.62
829.129	5.62
829.871	4.62
830.612	5.62
831.354	4.62
832.095	5.62
832.836	4.62
833.577	3.62
834.319	6.62
835.06	5.62
835.801	6.62
836.542	6.62
837.282	2.62
838.023	2.62
838.764	5.62
839.504	2.62
840.245	3.62
840.985	3.62
841.726	3.62
842.466	3.62
843.206	1.62
843.946	3.62
844.687	2.62
845.427	4.62
846.166	4.62
846.906	6.62
847.646	6.62
848.386	4.62
849.125	5.62
849.865	4.62
850.605	4.62
851.344	3.62
852.083	4.62
852.823	3.62
853.562	3.62
854.301	2.62
855.04	-0.38
855.779	3.62
856.518	2.62
857.257	2.62
857.995	2.62
858.734	2.62
859.473	3.62
860.211	2.62
860.95	2.62
861.688	3.62
862.426	2.62
863.165	2.62
863.903	1.62
864.641	4.62
865.379	0.62
866.117	1.62
866.855	1.62
867.593	2.62
868.33	1.62
869.068	2.62
869.806	3.62
870.543	2.62
871.28	2.62
872.018	2.62
872.755	1.62
873.492	3.62
874.229	4.62
874.967	0.62
875.703	0.62
876.44	2.62
877.177	2.62
877.914	3.62
878.651	0.62
879.387	2.62
880.124	-0.38
880.86	2.62
881.597	0.62
882.333	0.62
883.069	0.62
883.806	1.62
884.542	2.62
885.278	0.62
886.014	0.62
886.749	1.62
887.485	-0.38
888.221	-0.38
888.957	1.62
889.692	0.62
890.428	1.62
891.163	0.62
891.899	5.62
892.634	-1.38
893.369	0.62
894.104	1.62
894.839	2.62
895.574	-0.38
896.309	0.62
897.044	1.62
897.779	-0.38
898.514	1.62
899.248	-0.38
899.983	1.62
900.717	0.62
901.452	0.62
902.186	0.62
902.92	0.62
903.654	1.62
904.389	-2.38
905.123	2.62
905.857	-2.38
906.59	0.62
907.324	0.62
908.058	-1.38
908.792	-0.38
909.525	2.62
910.259	1.62
910.992	3.62
911.726	0.62
912.459	-0.38
913.192	0.62
913.925	1.62
914.658	-1.38
915.391	1.62
916.124	0.62
916.857	3.62
917.59	1.62
918.323	1.62
919.055	1.62
919.788	-0.38
920.521	-0.38
921.253	-0.38
921.985	2.62
922.718	1.62
923.45	-0.38
924.182	1.62
924.914	0.62
925.646	0.62
926.378	-0.38
927.11	2.62
927.841	0.62
928.573	1.62
929.305	0.62
930.036	1.62
930.768	2.62
931.499	-0.38
932.23	2.62
932.962	2.62
933.693	1.62
934.424	-0.38
935.155	-1.38
935.886	0.62
936.617	-1.38
937.348	0.62
938.078	0.62
938.809	0.62
939.54	0.62
940.27	1.62
941.001	0.62
941.731	-0.38
942.461	0.62
943.191	0.62
943.922	1.62
944.652	0.62
945.382	-0.38
946.112	-0.38
946.841	-1.38
947.571	1.62
948.301	-0.38
949.031	0.62
949.76	0.62
950.49	-0.38
951.219	0.62
951.948	-0.38
952.678	0.62
953.407	0.62
954.136	-0.38
954.865	-1.38
955.594	-1.38
956.323	2.62
957.052	-1.38
957.78	2.62
958.509	2.62
959.238	1.62
959.966	-0.38
960.695	-1.38
961.423	2.62
962.151	0.62
962.88	-0.38
963.608	1.62
964.336	-1.38
965.064	1.62
965.792	-1.38
966.52	-0.38
967.247	-1.38
967.975	1.62
968.703	0.62
969.43	2.62
970.158	-1.38
970.885	0.62
971.613	0.62
972.34	0.62
973.067	0.62
973.794	0.62
974.521	1.62
975.248	0.62
975.975	-1.38
976.702	1.62
977.429	0.62
978.156	-0.38
978.882	0.62
979.609	-0.38
980.335	0.62
981.062	-0.38
981.788	-1.38
982.514	0.62
983.24	1.62
983.967	0.62
984.693	1.62
985.419	-0.38
986.144	-2.38
986.87	0.62
987.596	0.62
988.322	2.62
989.047	-0.38
989.773	0.62
990.498	-0.38
991.224	0.62
991.949	0.62
992.674	0.62
993.399	0.62
994.124	-1.38
994.849	0.62
995.574	-0.38
996.299	-1.38
997.024	1.62
997.749	-0.38
998.473	0.62
999.198	0.62
999.922	0.62
1000.647	1.62
1001.371	4.62
1002.095	-1.38
1002.82	0.62
1003.544	-2.38
1004.268	3.62
1004.992	2.62
1005.716	2.62
1006.439	2.62
1007.163	3.62
1007.887	4.62
1008.611	0.62
1009.334	-1.38
1010.058	-0.38
1010.781	-0.38
1011.504	-0.38
1012.228	-0.38
1012.951	-2.38
1013.674	0.62
1014.397	0.62
1015.12	-0.38
