节点500_565_QEPB04081__599__10-00-22-972.txt的数据

Date: Thu Nov 13 10:00:22 CST 2025
User: PC
Spectrometer: QEPB0408
触发模式: 0
积分时间 (秒): 1.000000E-2
Scans to average: 1
启用暗噪声校正: true
启用非线性校正: false
滑动平均宽度: 0
X轴模式: Wavelengths
Number of Pixels in Spectrum: 1044
>>>>>Begin Spectral Data<<<<<
220.843	2.88
221.644	4.88
222.444	3.88
223.244	6.88
224.045	0.88
224.845	4.88
225.645	3.88
226.445	5.88
227.245	6.88
228.045	5.88
228.845	6.88
229.645	3.88
230.444	6.88
231.244	7.88
232.043	4.88
232.843	4.88
233.642	7.88
234.442	5.88
235.241	2.88
236.04	7.88
236.839	7.88
237.638	6.88
238.437	7.88
239.236	8.88
240.035	8.88
240.833	8.88
241.632	6.88
242.43	9.88
243.229	7.88
244.027	10.88
244.826	9.88
245.624	11.88
246.422	9.88
247.22	10.88
248.018	7.88
248.816	9.88
249.614	12.88
250.412	10.88
251.21	10.88
252.007	12.88
252.805	10.88
253.602	12.88
254.4	13.88
255.197	11.88
255.994	12.88
256.791	14.88
257.589	12.88
258.386	15.88
259.183	16.88
259.979	14.88
260.776	17.88
261.573	16.88
262.37	15.88
263.166	17.88
263.963	18.88
264.759	16.88
265.556	17.88
266.352	20.88
267.148	20.88
267.944	18.88
268.74	20.88
269.536	21.88
270.332	21.88
271.128	20.88
271.924	22.88
272.719	21.88
273.515	22.88
274.311	25.88
275.106	24.88
275.901	23.88
276.697	26.88
277.492	24.88
278.287	26.88
279.082	24.88
279.877	27.88
280.672	27.88
281.467	23.88
282.262	27.88
283.056	27.88
283.851	28.88
284.646	24.88
285.44	27.88
286.234	25.88
287.029	27.88
287.823	25.88
288.617	24.88
289.411	23.88
290.205	23.88
290.999	27.88
291.793	25.88
292.587	22.88
293.381	22.88
294.174	24.88
294.968	24.88
295.761	22.88
296.555	21.88
297.348	20.88
298.141	20.88
298.935	24.88
299.728	20.88
300.521	20.88
301.314	19.88
302.107	16.88
302.899	18.88
303.692	17.88
304.485	18.88
305.277	17.88
306.07	18.88
306.862	16.88
307.655	18.88
308.447	19.88
309.239	14.88
310.031	15.88
310.823	18.88
311.615	14.88
312.407	16.88
313.199	15.88
313.991	14.88
314.783	18.88
315.574	14.88
316.366	10.88
317.157	13.88
317.949	12.88
318.74	12.88
319.531	14.88
320.322	11.88
321.113	11.88
321.904	10.88
322.695	12.88
323.486	10.88
324.277	11.88
325.068	10.88
325.858	11.88
326.649	12.88
327.439	10.88
328.23	11.88
329.02	10.88
329.81	10.88
330.6	10.88
331.391	10.88
332.181	8.88
332.971	10.88
333.76	10.88
334.55	11.88
335.34	10.88
336.13	9.88
336.919	8.88
337.709	9.88
338.498	7.88
339.287	10.88
340.077	8.88
340.866	10.88
341.655	9.88
342.444	9.88
343.233	9.88
344.022	8.88
344.811	9.88
345.6	8.88
346.388	9.88
347.177	8.88
347.965	9.88
348.754	9.88
349.542	9.88
350.33	9.88
351.119	8.88
351.907	8.88
352.695	8.88
353.483	9.88
354.271	6.88
355.059	10.88
355.846	9.88
356.634	8.88
357.422	8.88
358.209	6.88
358.997	7.88
359.784	7.88
360.571	10.88
361.359	6.88
362.146	8.88
362.933	8.88
363.72	6.88
364.507	9.88
365.294	7.88
366.081	7.88
366.867	6.88
367.654	7.88
368.44	7.88
369.227	6.88
370.013	6.88
370.8	8.88
371.586	8.88
372.372	7.88
373.158	6.88
373.944	8.88
374.73	7.88
375.516	8.88
376.302	8.88
377.088	8.88
377.873	6.88
378.659	7.88
379.445	7.88
380.23	7.88
381.015	7.88
381.801	8.88
382.586	9.88
383.371	7.88
384.156	10.88
384.941	8.88
385.726	8.88
386.511	8.88
387.296	9.88
388.08	7.88
388.865	7.88
389.649	9.88
390.434	8.88
391.218	10.88
392.003	8.88
392.787	5.88
393.571	10.88
394.355	9.88
395.139	9.88
395.923	8.88
396.707	12.88
397.491	10.88
398.274	9.88
399.058	10.88
399.842	10.88
400.625	8.88
401.408	11.88
402.192	8.88
402.975	9.88
403.758	9.88
404.541	11.88
405.324	9.88
406.107	10.88
406.89	11.88
407.673	11.88
408.456	12.88
409.238	10.88
410.021	12.88
410.803	9.88
411.586	14.88
412.368	12.88
413.151	11.88
413.933	11.88
414.715	14.88
415.497	13.88
416.279	14.88
417.061	14.88
417.843	14.88
418.624	15.88
419.406	13.88
420.188	18.88
420.969	16.88
421.751	14.88
422.532	20.88
423.313	18.88
424.095	19.88
424.876	19.88
425.657	19.88
426.438	19.88
427.219	18.88
428	20.88
428.78	18.88
429.561	22.88
430.342	22.88
431.122	26.88
431.903	25.88
432.683	26.88
433.464	26.88
434.244	29.88
435.024	32.88
435.804	32.88
436.584	34.88
437.364	35.88
438.144	38.88
438.924	38.88
439.704	43.88
440.483	46.88
441.263	46.88
442.042	48.88
442.822	54.88
443.601	61.88
444.38	60.88
445.16	70.88
445.939	73.88
446.718	84.88
447.497	90.88
448.276	101.88
449.054	107.88
449.833	119.88
450.612	127.88
451.391	138.88
452.169	158.88
452.948	172.88
453.726	193.88
454.504	209.88
455.282	236.88
456.061	265.88
456.839	293.88
457.617	329.88
458.395	356.88
459.172	407.88
459.95	455.88
460.728	504.88
461.506	554.88
462.283	606.88
463.061	683.88
463.838	763.88
464.615	853.88
465.393	940.88
466.17	1032.88
466.947	1151.88
467.724	1274.88
468.501	1412.88
469.278	1557.88
470.055	1732.88
470.831	1890.88
471.608	2097.88
472.385	2301.88
473.161	2531.88
473.938	2764.88
474.714	3010.88
475.49	3284.88
476.266	3618.88
477.043	3923.88
477.819	4306.88
478.595	4708.88
479.371	5060.88
480.146	5540.88
480.922	6056.88
481.698	6536.88
482.473	7111.88
483.249	7682.88
484.024	8333.88
484.8	8986.88
485.575	9751.88
486.35	10558.88
487.126	11370.88
487.901	12308.88
488.676	13245.88
489.451	14247.88
490.225	15362.88
491	16467.88
491.775	17645.88
492.55	18916.88
493.324	20292.88
494.099	21537.88
494.873	22886.88
495.647	24348.88
496.422	25751.88
497.196	27117.88
497.97	28545.88
498.744	29906.88
499.518	31166.88
500.292	32443.88
501.066	33720.88
501.839	34766.88
502.613	35698.88
503.387	36484.88
504.16	37211.88
504.934	37659.88
505.707	37984.88
506.48	38224.88
507.253	38133.88
508.027	37838.88
508.8	37480.88
509.573	36965.88
510.346	36293.88
511.118	35484.88
511.891	34710.88
512.664	33786.88
513.437	32768.88
514.209	31616.88
514.982	30494.88
515.754	29444.88
516.526	28269.88
517.298	27160.88
518.071	26198.88
518.843	25078.88
519.615	24047.88
520.387	23171.88
521.159	22266.88
521.93	21306.88
522.702	20525.88
523.474	19680.88
524.245	18922.88
525.017	18157.88
525.788	17349.88
526.56	16672.88
527.331	15964.88
528.102	15271.88
528.873	14555.88
529.644	13880.88
530.415	13204.88
531.186	12561.88
531.957	11987.88
532.728	11396.88
533.498	10854.88
534.269	10255.88
535.039	9698.88
535.81	9255.88
536.58	8751.88
537.351	8251.88
538.121	7821.88
538.891	7396.88
539.661	7044.88
540.431	6635.88
541.201	6281.88
541.971	5955.88
542.741	5655.88
543.51	5362.88
544.28	5086.88
545.05	4805.88
545.819	4621.88
546.588	4388.88
547.358	4173.88
548.127	3968.88
548.896	3783.88
549.665	3577.88
550.434	3401.88
551.203	3216.88
551.972	3064.88
552.741	2892.88
553.51	2752.88
554.278	2584.88
555.047	2446.88
555.815	2309.88
556.584	2202.88
557.352	2074.88
558.121	1978.88
558.889	1863.88
559.657	1756.88
560.425	1661.88
561.193	1568.88
561.961	1489.88
562.729	1408.88
563.496	1343.88
564.264	1258.88
565.032	1186.88
565.799	1138.88
566.567	1062.88
567.334	1019.88
568.101	950.88
568.869	895.88
569.636	846.88
570.403	802.88
571.17	766.88
571.937	727.88
572.704	682.88
573.471	622.88
574.237	609.88
575.004	560.88
575.771	536.88
576.537	497.88
577.303	476.88
578.07	451.88
578.836	428.88
579.602	403.88
580.368	378.88
581.134	357.88
581.9	341.88
582.666	330.88
583.432	312.88
584.198	292.88
584.964	276.88
585.729	261.88
586.495	248.88
587.26	233.88
588.025	216.88
588.791	213.88
589.556	198.88
590.321	195.88
591.086	182.88
591.851	171.88
592.616	164.88
593.381	156.88
594.146	152.88
594.911	138.88
595.675	130.88
596.44	134.88
597.204	119.88
597.969	117.88
598.733	111.88
599.497	108.88
600.261	98.88
601.025	101.88
601.79	96.88
602.553	86.88
603.317	90.88
604.081	83.88
604.845	82.88
605.609	78.88
606.372	73.88
607.136	70.88
607.899	66.88
608.662	64.88
609.426	66.88
610.189	58.88
610.952	58.88
611.715	52.88
612.478	55.88
613.241	50.88
614.004	45.88
614.767	47.88
615.529	44.88
616.292	43.88
617.055	38.88
617.817	43.88
618.579	38.88
619.342	38.88
620.104	36.88
620.866	34.88
621.628	36.88
622.39	34.88
623.152	30.88
623.914	31.88
624.676	28.88
625.438	28.88
626.199	27.88
626.961	29.88
627.722	28.88
628.484	26.88
629.245	26.88
630.006	22.88
630.768	23.88
631.529	22.88
632.29	21.88
633.051	20.88
633.812	23.88
634.573	21.88
635.333	19.88
636.094	19.88
636.855	18.88
637.615	18.88
638.376	18.88
639.136	20.88
639.896	16.88
640.657	16.88
641.417	14.88
642.177	14.88
642.937	14.88
643.697	16.88
644.457	14.88
645.216	13.88
645.976	12.88
646.736	13.88
647.495	12.88
648.255	12.88
649.014	12.88
649.774	11.88
650.533	13.88
651.292	12.88
652.051	12.88
652.81	10.88
653.569	12.88
654.328	8.88
655.087	10.88
655.846	9.88
656.604	11.88
657.363	9.88
658.121	10.88
658.88	11.88
659.638	8.88
660.397	12.88
661.155	6.88
661.913	8.88
662.671	8.88
663.429	8.88
664.187	8.88
664.945	6.88
665.703	8.88
666.46	8.88
667.218	7.88
667.976	8.88
668.733	5.88
669.49	7.88
670.248	6.88
671.005	11.88
671.762	8.88
672.519	8.88
673.276	7.88
674.033	7.88
674.79	8.88
675.547	5.88
676.304	5.88
677.06	7.88
677.817	8.88
678.574	6.88
679.33	6.88
680.086	4.88
680.843	5.88
681.599	7.88
682.355	8.88
683.111	7.88
683.867	4.88
684.623	5.88
685.379	3.88
686.135	7.88
686.89	5.88
687.646	4.88
688.402	6.88
689.157	5.88
689.912	5.88
690.668	6.88
691.423	3.88
692.178	5.88
692.933	6.88
693.688	3.88
694.443	5.88
695.198	5.88
695.953	8.88
696.708	6.88
697.462	8.88
698.217	3.88
698.972	5.88
699.726	4.88
700.48	5.88
701.235	6.88
701.989	6.88
702.743	6.88
703.497	4.88
704.251	3.88
705.005	4.88
705.759	7.88
706.513	5.88
707.266	6.88
708.02	6.88
708.774	4.88
709.527	4.88
710.28	6.88
711.034	6.88
711.787	6.88
712.54	4.88
713.293	5.88
714.046	3.88
714.799	6.88
715.552	4.88
716.305	7.88
717.058	4.88
717.81	6.88
718.563	4.88
719.315	6.88
720.068	5.88
720.82	5.88
721.573	7.88
722.325	6.88
723.077	8.88
723.829	6.88
724.581	5.88
725.333	5.88
726.085	6.88
726.836	5.88
727.588	6.88
728.34	7.88
729.091	4.88
729.843	7.88
730.594	5.88
731.346	6.88
732.097	6.88
732.848	4.88
733.599	6.88
734.35	6.88
735.101	8.88
735.852	9.88
736.603	7.88
737.354	8.88
738.104	6.88
738.855	5.88
739.605	8.88
740.356	8.88
741.106	6.88
741.856	9.88
742.607	8.88
743.357	7.88
744.107	10.88
744.857	8.88
745.607	6.88
746.357	8.88
747.106	7.88
747.856	6.88
748.606	6.88
749.355	8.88
750.105	6.88
750.854	9.88
751.603	8.88
752.353	9.88
753.102	6.88
753.851	4.88
754.6	9.88
755.349	7.88
756.098	7.88
756.847	8.88
757.595	8.88
758.344	9.88
759.093	6.88
759.841	6.88
760.589	8.88
761.338	9.88
762.086	9.88
762.834	9.88
763.582	6.88
764.331	8.88
765.079	7.88
765.826	10.88
766.574	11.88
767.322	10.88
768.07	11.88
768.817	10.88
769.565	12.88
770.312	12.88
771.06	8.88
771.807	14.88
772.554	12.88
773.302	7.88
774.049	10.88
774.796	12.88
775.543	11.88
776.29	13.88
777.036	11.88
777.783	10.88
778.53	9.88
779.276	13.88
780.023	12.88
780.769	10.88
781.516	10.88
782.262	12.88
783.008	13.88
783.754	12.88
784.5	14.88
785.246	10.88
785.992	10.88
786.738	12.88
787.484	11.88
788.23	12.88
788.975	12.88
789.721	9.88
790.466	9.88
791.212	11.88
791.957	10.88
792.702	12.88
793.447	12.88
794.193	12.88
794.938	9.88
795.683	8.88
796.427	12.88
797.172	7.88
797.917	10.88
798.662	10.88
799.406	8.88
800.151	9.88
800.895	10.88
801.64	8.88
802.384	8.88
803.128	8.88
803.872	8.88
804.616	7.88
805.36	8.88
806.104	9.88
806.848	6.88
807.592	9.88
808.336	9.88
809.079	7.88
809.823	10.88
810.566	8.88
811.31	5.88
812.053	7.88
812.796	6.88
813.539	9.88
814.283	5.88
815.026	7.88
815.769	6.88
816.511	6.88
817.254	5.88
817.997	5.88
818.74	4.88
819.482	7.88
820.225	6.88
820.967	7.88
821.71	5.88
822.452	4.88
823.194	3.88
823.936	7.88
824.678	3.88
825.42	4.88
826.162	5.88
826.904	6.88
827.646	4.88
828.388	3.88
829.129	4.88
829.871	4.88
830.612	6.88
831.354	4.88
832.095	4.88
832.836	6.88
833.577	5.88
834.319	4.88
835.06	4.88
835.801	7.88
836.542	5.88
837.282	4.88
838.023	6.88
838.764	3.88
839.504	6.88
840.245	5.88
840.985	4.88
841.726	3.88
842.466	4.88
843.206	4.88
843.946	3.88
844.687	3.88
845.427	2.88
846.166	4.88
846.906	4.88
847.646	3.88
848.386	4.88
849.125	5.88
849.865	3.88
850.605	4.88
851.344	4.88
852.083	3.88
852.823	2.88
853.562	5.88
854.301	1.88
855.04	3.88
855.779	1.88
856.518	4.88
857.257	2.88
857.995	3.88
858.734	3.88
859.473	3.88
860.211	3.88
860.95	1.88
861.688	2.88
862.426	1.88
863.165	2.88
863.903	1.88
864.641	-0.12
865.379	2.88
866.117	1.88
866.855	3.88
867.593	0.88
868.33	2.88
869.068	1.88
869.806	3.88
870.543	1.88
871.28	0.88
872.018	2.88
872.755	4.88
873.492	2.88
874.229	0.88
874.967	2.88
875.703	3.88
876.44	2.88
877.177	4.88
877.914	0.88
878.651	1.88
879.387	1.88
880.124	1.88
880.86	1.88
881.597	2.88
882.333	2.88
883.069	1.88
883.806	1.88
884.542	1.88
885.278	2.88
886.014	0.88
886.749	0.88
887.485	1.88
888.221	-0.12
888.957	2.88
889.692	0.88
890.428	2.88
891.163	0.88
891.899	1.88
892.634	0.88
893.369	2.88
894.104	-1.12
894.839	0.88
895.574	4.88
896.309	0.88
897.044	0.88
897.779	-0.12
898.514	1.88
899.248	0.88
899.983	0.88
900.717	1.88
901.452	0.88
902.186	1.88
902.92	2.88
903.654	0.88
904.389	0.88
905.123	2.88
905.857	0.88
906.59	0.88
907.324	0.88
908.058	0.88
908.792	0.88
909.525	0.88
910.259	0.88
910.992	0.88
911.726	-0.12
912.459	0.88
913.192	1.88
913.925	0.88
914.658	1.88
915.391	-0.12
916.124	0.88
916.857	-2.12
917.59	-1.12
918.323	1.88
919.055	0.88
919.788	-0.12
920.521	-3.12
921.253	0.88
921.985	1.88
922.718	0.88
923.45	0.88
924.182	0.88
924.914	1.88
925.646	1.88
926.378	-1.12
927.11	0.88
927.841	-0.12
928.573	-1.12
929.305	0.88
930.036	0.88
930.768	-1.12
931.499	1.88
932.23	-2.12
932.962	0.88
933.693	-0.12
934.424	0.88
935.155	-0.12
935.886	-2.12
936.617	-0.12
937.348	-0.12
938.078	0.88
938.809	-0.12
939.54	1.88
940.27	-0.12
941.001	-0.12
941.731	-1.12
942.461	-2.12
943.191	1.88
943.922	0.88
944.652	0.88
945.382	0.88
946.112	-0.12
946.841	1.88
947.571	0.88
948.301	-0.12
949.031	-0.12
949.76	0.88
950.49	-0.12
951.219	0.88
951.948	1.88
952.678	-0.12
953.407	1.88
954.136	-0.12
954.865	-0.12
955.594	0.88
956.323	0.88
957.052	-0.12
957.78	1.88
958.509	-0.12
959.238	-1.12
959.966	0.88
960.695	-0.12
961.423	-0.12
962.151	-0.12
962.88	0.88
963.608	0.88
964.336	-1.12
965.064	0.88
965.792	-2.12
966.52	1.88
967.247	0.88
967.975	0.88
968.703	0.88
969.43	0.88
970.158	1.88
970.885	1.88
971.613	0.88
972.34	-0.12
973.067	-0.12
973.794	-1.12
974.521	-1.12
975.248	2.88
975.975	-0.12
976.702	-0.12
977.429	-1.12
978.156	0.88
978.882	-1.12
979.609	-1.12
980.335	-0.12
981.062	0.88
981.788	1.88
982.514	0.88
983.24	-1.12
983.967	-1.12
984.693	-0.12
985.419	-0.12
986.144	-2.12
986.87	0.88
987.596	1.88
988.322	0.88
989.047	0.88
989.773	0.88
990.498	-2.12
991.224	0.88
991.949	-1.12
992.674	-1.12
993.399	-1.12
994.124	0.88
994.849	0.88
995.574	0.88
996.299	-1.12
997.024	0.88
997.749	0.88
998.473	1.88
999.198	0.88
999.922	0.88
1000.647	-1.12
1001.371	2.88
1002.095	0.88
1002.82	-2.12
1003.544	0.88
1004.268	4.88
1004.992	2.88
1005.716	1.88
1006.439	2.88
1007.163	3.88
1007.887	3.88
1008.611	0.88
1009.334	2.88
1010.058	-2.12
1010.781	2.88
1011.504	0.88
1012.228	-0.12
1012.951	0.88
1013.674	-1.12
1014.397	-2.12
1015.12	-0.12
