节点500_565_QEPB04081__572__09-59-56-013.txt的数据

Date: Thu Nov 13 09:59:56 CST 2025
User: PC
Spectrometer: QEPB0408
触发模式: 0
积分时间 (秒): 1.000000E-2
Scans to average: 1
启用暗噪声校正: true
启用非线性校正: false
滑动平均宽度: 0
X轴模式: Wavelengths
Number of Pixels in Spectrum: 1044
>>>>>Begin Spectral Data<<<<<
220.843	6.25
221.644	4.25
222.444	4.25
223.244	6.25
224.045	5.25
224.845	2.25
225.645	3.25
226.445	5.25
227.245	4.25
228.045	5.25
228.845	6.25
229.645	4.25
230.444	8.25
231.244	7.25
232.043	5.25
232.843	6.25
233.642	7.25
234.442	6.25
235.241	7.25
236.04	9.25
236.839	10.25
237.638	11.25
238.437	7.25
239.236	8.25
240.035	8.25
240.833	6.25
241.632	10.25
242.43	11.25
243.229	10.25
244.027	10.25
244.826	10.25
245.624	9.25
246.422	8.25
247.22	11.25
248.018	9.25
248.816	13.25
249.614	12.25
250.412	14.25
251.21	10.25
252.007	11.25
252.805	15.25
253.602	12.25
254.4	14.25
255.197	13.25
255.994	15.25
256.791	13.25
257.589	16.25
258.386	17.25
259.183	14.25
259.979	17.25
260.776	19.25
261.573	15.25
262.37	18.25
263.166	19.25
263.963	17.25
264.759	17.25
265.556	19.25
266.352	20.25
267.148	23.25
267.944	21.25
268.74	21.25
269.536	21.25
270.332	21.25
271.128	22.25
271.924	22.25
272.719	23.25
273.515	27.25
274.311	24.25
275.106	23.25
275.901	23.25
276.697	26.25
277.492	27.25
278.287	29.25
279.082	29.25
279.877	27.25
280.672	28.25
281.467	27.25
282.262	25.25
283.056	25.25
283.851	29.25
284.646	27.25
285.44	29.25
286.234	24.25
287.029	25.25
287.823	27.25
288.617	27.25
289.411	25.25
290.205	24.25
290.999	25.25
291.793	25.25
292.587	25.25
293.381	28.25
294.174	25.25
294.968	23.25
295.761	24.25
296.555	22.25
297.348	21.25
298.141	23.25
298.935	28.25
299.728	20.25
300.521	22.25
301.314	23.25
302.107	20.25
302.899	19.25
303.692	19.25
304.485	19.25
305.277	22.25
306.07	21.25
306.862	18.25
307.655	20.25
308.447	18.25
309.239	20.25
310.031	17.25
310.823	14.25
311.615	19.25
312.407	16.25
313.199	13.25
313.991	14.25
314.783	13.25
315.574	16.25
316.366	12.25
317.157	11.25
317.949	15.25
318.74	12.25
319.531	14.25
320.322	15.25
321.113	13.25
321.904	12.25
322.695	14.25
323.486	13.25
324.277	12.25
325.068	11.25
325.858	10.25
326.649	12.25
327.439	9.25
328.23	10.25
329.02	11.25
329.81	11.25
330.6	11.25
331.391	7.25
332.181	9.25
332.971	11.25
333.76	12.25
334.55	11.25
335.34	11.25
336.13	9.25
336.919	10.25
337.709	11.25
338.498	9.25
339.287	12.25
340.077	10.25
340.866	9.25
341.655	8.25
342.444	9.25
343.233	12.25
344.022	7.25
344.811	10.25
345.6	8.25
346.388	9.25
347.177	6.25
347.965	10.25
348.754	12.25
349.542	10.25
350.33	11.25
351.119	8.25
351.907	10.25
352.695	9.25
353.483	7.25
354.271	10.25
355.059	7.25
355.846	8.25
356.634	8.25
357.422	12.25
358.209	8.25
358.997	9.25
359.784	8.25
360.571	9.25
361.359	8.25
362.146	10.25
362.933	8.25
363.72	8.25
364.507	7.25
365.294	9.25
366.081	8.25
366.867	9.25
367.654	9.25
368.44	7.25
369.227	6.25
370.013	5.25
370.8	8.25
371.586	9.25
372.372	7.25
373.158	4.25
373.944	7.25
374.73	10.25
375.516	7.25
376.302	8.25
377.088	8.25
377.873	11.25
378.659	8.25
379.445	8.25
380.23	10.25
381.015	9.25
381.801	10.25
382.586	7.25
383.371	8.25
384.156	9.25
384.941	9.25
385.726	9.25
386.511	8.25
387.296	10.25
388.08	10.25
388.865	14.25
389.649	7.25
390.434	11.25
391.218	10.25
392.003	9.25
392.787	11.25
393.571	9.25
394.355	9.25
395.139	10.25
395.923	10.25
396.707	13.25
397.491	12.25
398.274	10.25
399.058	11.25
399.842	11.25
400.625	8.25
401.408	13.25
402.192	11.25
402.975	11.25
403.758	14.25
404.541	10.25
405.324	10.25
406.107	13.25
406.89	12.25
407.673	13.25
408.456	15.25
409.238	14.25
410.021	13.25
410.803	13.25
411.586	11.25
412.368	13.25
413.151	14.25
413.933	13.25
414.715	17.25
415.497	15.25
416.279	15.25
417.061	17.25
417.843	16.25
418.624	16.25
419.406	17.25
420.188	16.25
420.969	17.25
421.751	16.25
422.532	19.25
423.313	20.25
424.095	19.25
424.876	21.25
425.657	21.25
426.438	21.25
427.219	21.25
428	20.25
428.78	21.25
429.561	21.25
430.342	25.25
431.122	27.25
431.903	23.25
432.683	29.25
433.464	27.25
434.244	29.25
435.024	31.25
435.804	36.25
436.584	31.25
437.364	37.25
438.144	37.25
438.924	41.25
439.704	45.25
440.483	44.25
441.263	47.25
442.042	52.25
442.822	54.25
443.601	62.25
444.38	66.25
445.16	68.25
445.939	73.25
446.718	83.25
447.497	89.25
448.276	102.25
449.054	104.25
449.833	119.25
450.612	129.25
451.391	143.25
452.169	166.25
452.948	179.25
453.726	191.25
454.504	209.25
455.282	243.25
456.061	265.25
456.839	296.25
457.617	324.25
458.395	360.25
459.172	407.25
459.95	447.25
460.728	503.25
461.506	563.25
462.283	618.25
463.061	692.25
463.838	767.25
464.615	853.25
465.393	926.25
466.17	1049.25
466.947	1161.25
467.724	1285.25
468.501	1412.25
469.278	1555.25
470.055	1727.25
470.831	1905.25
471.608	2085.25
472.385	2295.25
473.161	2529.25
473.938	2767.25
474.714	3039.25
475.49	3319.25
476.266	3615.25
477.043	3967.25
477.819	4302.25
478.595	4687.25
479.371	5132.25
480.146	5575.25
480.922	6060.25
481.698	6584.25
482.473	7126.25
483.249	7690.25
484.024	8371.25
484.8	9070.25
485.575	9808.25
486.35	10600.25
487.126	11490.25
487.901	12327.25
488.676	13313.25
489.451	14376.25
490.225	15454.25
491	16649.25
491.775	17767.25
492.55	19066.25
493.324	20335.25
494.099	21621.25
494.873	23061.25
495.647	24515.25
496.422	25986.25
497.196	27263.25
497.97	28655.25
498.744	30063.25
499.518	31449.25
500.292	32588.25
501.066	33767.25
501.839	34953.25
502.613	35796.25
503.387	36616.25
504.16	37415.25
504.934	37834.25
505.707	38085.25
506.48	38277.25
507.253	38290.25
508.027	38045.25
508.8	37512.25
509.573	37104.25
510.346	36332.25
511.118	35522.25
511.891	34706.25
512.664	33805.25
513.437	32751.25
514.209	31575.25
514.982	30522.25
515.754	29479.25
516.526	28306.25
517.298	27222.25
518.071	26106.25
518.843	25103.25
519.615	24033.25
520.387	23144.25
521.159	22241.25
521.93	21399.25
522.702	20440.25
523.474	19697.25
524.245	18863.25
525.017	18183.25
525.788	17433.25
526.56	16715.25
527.331	15921.25
528.102	15227.25
528.873	14567.25
529.644	13871.25
530.415	13189.25
531.186	12525.25
531.957	11979.25
532.728	11361.25
533.498	10805.25
534.269	10248.25
535.039	9655.25
535.81	9164.25
536.58	8735.25
537.351	8256.25
538.121	7815.25
538.891	7424.25
539.661	7018.25
540.431	6645.25
541.201	6269.25
541.971	5979.25
542.741	5638.25
543.51	5369.25
544.28	5071.25
545.05	4833.25
545.819	4589.25
546.588	4370.25
547.358	4177.25
548.127	3930.25
548.896	3762.25
549.665	3597.25
550.434	3385.25
551.203	3238.25
551.972	3060.25
552.741	2899.25
553.51	2763.25
554.278	2608.25
555.047	2440.25
555.815	2327.25
556.584	2212.25
557.352	2101.25
558.121	1976.25
558.889	1851.25
559.657	1738.25
560.425	1664.25
561.193	1558.25
561.961	1503.25
562.729	1404.25
563.496	1318.25
564.264	1250.25
565.032	1191.25
565.799	1124.25
566.567	1077.25
567.334	1002.25
568.101	950.25
568.869	902.25
569.636	848.25
570.403	797.25
571.17	763.25
571.937	718.25
572.704	677.25
573.471	634.25
574.237	607.25
575.004	567.25
575.771	533.25
576.537	504.25
577.303	478.25
578.07	445.25
578.836	421.25
579.602	399.25
580.368	379.25
581.134	357.25
581.9	339.25
582.666	322.25
583.432	310.25
584.198	292.25
584.964	282.25
585.729	266.25
586.495	250.25
587.26	230.25
588.025	222.25
588.791	210.25
589.556	199.25
590.321	188.25
591.086	184.25
591.851	170.25
592.616	162.25
593.381	152.25
594.146	150.25
594.911	137.25
595.675	132.25
596.44	128.25
597.204	122.25
597.969	122.25
598.733	112.25
599.497	112.25
600.261	102.25
601.025	97.25
601.79	93.25
602.553	91.25
603.317	86.25
604.081	84.25
604.845	76.25
605.609	76.25
606.372	75.25
607.136	71.25
607.899	70.25
608.662	67.25
609.426	61.25
610.189	62.25
610.952	57.25
611.715	53.25
612.478	52.25
613.241	49.25
614.004	50.25
614.767	47.25
615.529	47.25
616.292	42.25
617.055	44.25
617.817	39.25
618.579	39.25
619.342	41.25
620.104	37.25
620.866	37.25
621.628	34.25
622.39	36.25
623.152	35.25
623.914	33.25
624.676	33.25
625.438	27.25
626.199	30.25
626.961	28.25
627.722	27.25
628.484	28.25
629.245	26.25
630.006	24.25
630.768	22.25
631.529	23.25
632.29	21.25
633.051	24.25
633.812	20.25
634.573	22.25
635.333	20.25
636.094	22.25
636.855	18.25
637.615	18.25
638.376	19.25
639.136	15.25
639.896	17.25
640.657	16.25
641.417	14.25
642.177	14.25
642.937	16.25
643.697	14.25
644.457	14.25
645.216	14.25
645.976	14.25
646.736	15.25
647.495	13.25
648.255	13.25
649.014	14.25
649.774	14.25
650.533	12.25
651.292	12.25
652.051	13.25
652.81	14.25
653.569	11.25
654.328	12.25
655.087	8.25
655.846	11.25
656.604	9.25
657.363	10.25
658.121	12.25
658.88	9.25
659.638	12.25
660.397	10.25
661.155	11.25
661.913	10.25
662.671	9.25
663.429	6.25
664.187	8.25
664.945	10.25
665.703	8.25
666.46	9.25
667.218	7.25
667.976	11.25
668.733	7.25
669.49	7.25
670.248	10.25
671.005	8.25
671.762	9.25
672.519	6.25
673.276	7.25
674.033	7.25
674.79	5.25
675.547	10.25
676.304	6.25
677.06	9.25
677.817	9.25
678.574	7.25
679.33	7.25
680.086	7.25
680.843	8.25
681.599	7.25
682.355	7.25
683.111	8.25
683.867	10.25
684.623	7.25
685.379	8.25
686.135	7.25
686.89	7.25
687.646	5.25
688.402	5.25
689.157	7.25
689.912	8.25
690.668	5.25
691.423	7.25
692.178	7.25
692.933	5.25
693.688	9.25
694.443	7.25
695.198	7.25
695.953	7.25
696.708	7.25
697.462	7.25
698.217	8.25
698.972	7.25
699.726	5.25
700.48	7.25
701.235	5.25
701.989	4.25
702.743	4.25
703.497	7.25
704.251	4.25
705.005	6.25
705.759	7.25
706.513	8.25
707.266	7.25
708.02	6.25
708.774	7.25
709.527	7.25
710.28	5.25
711.034	5.25
711.787	7.25
712.54	5.25
713.293	8.25
714.046	8.25
714.799	5.25
715.552	6.25
716.305	7.25
717.058	5.25
717.81	6.25
718.563	7.25
719.315	6.25
720.068	7.25
720.82	7.25
721.573	7.25
722.325	7.25
723.077	8.25
723.829	6.25
724.581	6.25
725.333	5.25
726.085	5.25
726.836	7.25
727.588	8.25
728.34	6.25
729.091	6.25
729.843	7.25
730.594	6.25
731.346	9.25
732.097	6.25
732.848	7.25
733.599	9.25
734.35	8.25
735.101	8.25
735.852	7.25
736.603	7.25
737.354	5.25
738.104	8.25
738.855	7.25
739.605	6.25
740.356	8.25
741.106	6.25
741.856	9.25
742.607	7.25
743.357	7.25
744.107	6.25
744.857	9.25
745.607	8.25
746.357	7.25
747.106	8.25
747.856	10.25
748.606	11.25
749.355	9.25
750.105	10.25
750.854	11.25
751.603	8.25
752.353	9.25
753.102	9.25
753.851	11.25
754.6	10.25
755.349	8.25
756.098	9.25
756.847	7.25
757.595	9.25
758.344	9.25
759.093	9.25
759.841	9.25
760.589	7.25
761.338	8.25
762.086	7.25
762.834	10.25
763.582	9.25
764.331	11.25
765.079	14.25
765.826	12.25
766.574	11.25
767.322	13.25
768.07	10.25
768.817	13.25
769.565	13.25
770.312	12.25
771.06	11.25
771.807	10.25
772.554	12.25
773.302	13.25
774.049	10.25
774.796	12.25
775.543	11.25
776.29	13.25
777.036	10.25
777.783	13.25
778.53	11.25
779.276	13.25
780.023	13.25
780.769	12.25
781.516	13.25
782.262	13.25
783.008	12.25
783.754	12.25
784.5	13.25
785.246	13.25
785.992	9.25
786.738	11.25
787.484	9.25
788.23	15.25
788.975	11.25
789.721	11.25
790.466	11.25
791.212	11.25
791.957	13.25
792.702	9.25
793.447	11.25
794.193	13.25
794.938	11.25
795.683	11.25
796.427	11.25
797.172	11.25
797.917	12.25
798.662	11.25
799.406	9.25
800.151	10.25
800.895	10.25
801.64	9.25
802.384	12.25
803.128	10.25
803.872	10.25
804.616	11.25
805.36	10.25
806.104	8.25
806.848	12.25
807.592	9.25
808.336	8.25
809.079	8.25
809.823	7.25
810.566	9.25
811.31	5.25
812.053	8.25
812.796	5.25
813.539	6.25
814.283	9.25
815.026	5.25
815.769	5.25
816.511	6.25
817.254	8.25
817.997	8.25
818.74	7.25
819.482	8.25
820.225	7.25
820.967	6.25
821.71	7.25
822.452	8.25
823.194	8.25
823.936	7.25
824.678	6.25
825.42	7.25
826.162	8.25
826.904	5.25
827.646	7.25
828.388	7.25
829.129	4.25
829.871	5.25
830.612	6.25
831.354	5.25
832.095	4.25
832.836	6.25
833.577	4.25
834.319	6.25
835.06	6.25
835.801	5.25
836.542	6.25
837.282	5.25
838.023	6.25
838.764	5.25
839.504	6.25
840.245	5.25
840.985	4.25
841.726	8.25
842.466	7.25
843.206	6.25
843.946	4.25
844.687	6.25
845.427	6.25
846.166	3.25
846.906	5.25
847.646	4.25
848.386	6.25
849.125	6.25
849.865	3.25
850.605	5.25
851.344	3.25
852.083	3.25
852.823	3.25
853.562	2.25
854.301	3.25
855.04	3.25
855.779	3.25
856.518	2.25
857.257	4.25
857.995	2.25
858.734	4.25
859.473	3.25
860.211	4.25
860.95	6.25
861.688	5.25
862.426	4.25
863.165	1.25
863.903	3.25
864.641	4.25
865.379	4.25
866.117	1.25
866.855	0.25
867.593	1.25
868.33	4.25
869.068	3.25
869.806	4.25
870.543	3.25
871.28	3.25
872.018	3.25
872.755	4.25
873.492	-0.75
874.229	2.25
874.967	2.25
875.703	1.25
876.44	3.25
877.177	1.25
877.914	3.25
878.651	1.25
879.387	1.25
880.124	0.25
880.86	2.25
881.597	3.25
882.333	-0.75
883.069	2.25
883.806	0.25
884.542	3.25
885.278	1.25
886.014	2.25
886.749	1.25
887.485	1.25
888.221	4.25
888.957	1.25
889.692	2.25
890.428	1.25
891.163	3.25
891.899	0.25
892.634	1.25
893.369	3.25
894.104	2.25
894.839	0.25
895.574	2.25
896.309	1.25
897.044	1.25
897.779	0.25
898.514	2.25
899.248	-0.75
899.983	-0.75
900.717	-0.75
901.452	-0.75
902.186	0.25
902.92	3.25
903.654	1.25
904.389	0.25
905.123	2.25
905.857	0.25
906.59	3.25
907.324	3.25
908.058	3.25
908.792	2.25
909.525	0.25
910.259	2.25
910.992	-1.75
911.726	1.25
912.459	0.25
913.192	0.25
913.925	2.25
914.658	0.25
915.391	1.25
916.124	1.25
916.857	1.25
917.59	0.25
918.323	3.25
919.055	1.25
919.788	2.25
920.521	2.25
921.253	-1.75
921.985	1.25
922.718	1.25
923.45	1.25
924.182	0.25
924.914	1.25
925.646	-1.75
926.378	-0.75
927.11	0.25
927.841	1.25
928.573	1.25
929.305	0.25
930.036	1.25
930.768	0.25
931.499	1.25
932.23	1.25
932.962	1.25
933.693	1.25
934.424	2.25
935.155	-0.75
935.886	1.25
936.617	0.25
937.348	1.25
938.078	1.25
938.809	0.25
939.54	2.25
940.27	0.25
941.001	0.25
941.731	1.25
942.461	0.25
943.191	1.25
943.922	0.25
944.652	2.25
945.382	1.25
946.112	0.25
946.841	1.25
947.571	3.25
948.301	0.25
949.031	1.25
949.76	1.25
950.49	2.25
951.219	-0.75
951.948	-0.75
952.678	1.25
953.407	0.25
954.136	1.25
954.865	0.25
955.594	1.25
956.323	1.25
957.052	-0.75
957.78	2.25
958.509	-0.75
959.238	1.25
959.966	1.25
960.695	1.25
961.423	2.25
962.151	-0.75
962.88	2.25
963.608	-1.75
964.336	1.25
965.064	0.25
965.792	1.25
966.52	0.25
967.247	1.25
967.975	1.25
968.703	1.25
969.43	-1.75
970.158	1.25
970.885	2.25
971.613	1.25
972.34	-1.75
973.067	1.25
973.794	2.25
974.521	3.25
975.248	0.25
975.975	1.25
976.702	1.25
977.429	-1.75
978.156	1.25
978.882	-0.75
979.609	2.25
980.335	-1.75
981.062	2.25
981.788	0.25
982.514	3.25
983.24	-1.75
983.967	1.25
984.693	0.25
985.419	-0.75
986.144	-0.75
986.87	1.25
987.596	2.25
988.322	1.25
989.047	-0.75
989.773	-1.75
990.498	1.25
991.224	1.25
991.949	1.25
992.674	1.25
993.399	0.25
994.124	1.25
994.849	1.25
995.574	2.25
996.299	0.25
997.024	1.25
997.749	1.25
998.473	-0.75
999.198	2.25
999.922	1.25
1000.647	-2.75
1001.371	2.25
1002.095	-2.75
1002.82	1.25
1003.544	1.25
1004.268	4.25
1004.992	4.25
1005.716	4.25
1006.439	0.25
1007.163	6.25
1007.887	2.25
1008.611	2.25
1009.334	0.25
1010.058	-1.75
1010.781	0.25
1011.504	0.25
1012.228	3.25
1012.951	0.25
1013.674	-1.75
1014.397	1.25
1015.12	-1.75
