节点500_565_QEPB04081__612__10-00-35-963.txt的数据

Date: Thu Nov 13 10:00:35 CST 2025
User: PC
Spectrometer: QEPB0408
触发模式: 0
积分时间 (秒): 1.000000E-2
Scans to average: 1
启用暗噪声校正: true
启用非线性校正: false
滑动平均宽度: 0
X轴模式: Wavelengths
Number of Pixels in Spectrum: 1044
>>>>>Begin Spectral Data<<<<<
220.843	4.12
221.644	2.12
222.444	5.12
223.244	5.12
224.045	4.12
224.845	6.12
225.645	3.12
226.445	5.12
227.245	7.12
228.045	7.12
228.845	4.12
229.645	1.12
230.444	6.12
231.244	7.12
232.043	7.12
232.843	6.12
233.642	7.12
234.442	9.12
235.241	7.12
236.04	8.12
236.839	6.12
237.638	8.12
238.437	8.12
239.236	9.12
240.035	9.12
240.833	8.12
241.632	7.12
242.43	6.12
243.229	8.12
244.027	8.12
244.826	9.12
245.624	9.12
246.422	11.12
247.22	9.12
248.018	11.12
248.816	8.12
249.614	11.12
250.412	12.12
251.21	11.12
252.007	11.12
252.805	12.12
253.602	13.12
254.4	13.12
255.197	12.12
255.994	13.12
256.791	12.12
257.589	14.12
258.386	16.12
259.183	16.12
259.979	17.12
260.776	15.12
261.573	20.12
262.37	17.12
263.166	19.12
263.963	18.12
264.759	19.12
265.556	21.12
266.352	21.12
267.148	22.12
267.944	19.12
268.74	19.12
269.536	21.12
270.332	23.12
271.128	21.12
271.924	22.12
272.719	26.12
273.515	25.12
274.311	22.12
275.106	25.12
275.901	22.12
276.697	26.12
277.492	24.12
278.287	30.12
279.082	25.12
279.877	27.12
280.672	27.12
281.467	27.12
282.262	29.12
283.056	25.12
283.851	28.12
284.646	26.12
285.44	27.12
286.234	27.12
287.029	26.12
287.823	30.12
288.617	26.12
289.411	27.12
290.205	27.12
290.999	28.12
291.793	25.12
292.587	26.12
293.381	25.12
294.174	25.12
294.968	24.12
295.761	25.12
296.555	24.12
297.348	23.12
298.141	21.12
298.935	25.12
299.728	21.12
300.521	21.12
301.314	22.12
302.107	21.12
302.899	21.12
303.692	17.12
304.485	18.12
305.277	17.12
306.07	18.12
306.862	21.12
307.655	18.12
308.447	19.12
309.239	20.12
310.031	17.12
310.823	15.12
311.615	17.12
312.407	16.12
313.199	15.12
313.991	13.12
314.783	17.12
315.574	15.12
316.366	13.12
317.157	13.12
317.949	11.12
318.74	13.12
319.531	13.12
320.322	13.12
321.113	12.12
321.904	11.12
322.695	12.12
323.486	13.12
324.277	14.12
325.068	11.12
325.858	9.12
326.649	10.12
327.439	10.12
328.23	11.12
329.02	13.12
329.81	11.12
330.6	9.12
331.391	11.12
332.181	13.12
332.971	10.12
333.76	10.12
334.55	10.12
335.34	10.12
336.13	10.12
336.919	9.12
337.709	9.12
338.498	10.12
339.287	9.12
340.077	9.12
340.866	9.12
341.655	8.12
342.444	12.12
343.233	10.12
344.022	11.12
344.811	10.12
345.6	8.12
346.388	11.12
347.177	9.12
347.965	8.12
348.754	7.12
349.542	9.12
350.33	9.12
351.119	7.12
351.907	11.12
352.695	10.12
353.483	12.12
354.271	9.12
355.059	11.12
355.846	10.12
356.634	9.12
357.422	6.12
358.209	9.12
358.997	8.12
359.784	9.12
360.571	10.12
361.359	8.12
362.146	9.12
362.933	8.12
363.72	7.12
364.507	9.12
365.294	9.12
366.081	9.12
366.867	7.12
367.654	9.12
368.44	7.12
369.227	7.12
370.013	8.12
370.8	7.12
371.586	9.12
372.372	8.12
373.158	9.12
373.944	7.12
374.73	9.12
375.516	8.12
376.302	10.12
377.088	9.12
377.873	7.12
378.659	8.12
379.445	10.12
380.23	8.12
381.015	7.12
381.801	7.12
382.586	9.12
383.371	9.12
384.156	10.12
384.941	11.12
385.726	9.12
386.511	7.12
387.296	7.12
388.08	9.12
388.865	8.12
389.649	9.12
390.434	9.12
391.218	9.12
392.003	9.12
392.787	8.12
393.571	9.12
394.355	9.12
395.139	10.12
395.923	9.12
396.707	8.12
397.491	10.12
398.274	11.12
399.058	9.12
399.842	12.12
400.625	11.12
401.408	13.12
402.192	12.12
402.975	14.12
403.758	10.12
404.541	11.12
405.324	13.12
406.107	15.12
406.89	12.12
407.673	15.12
408.456	14.12
409.238	15.12
410.021	13.12
410.803	12.12
411.586	12.12
412.368	11.12
413.151	13.12
413.933	15.12
414.715	11.12
415.497	15.12
416.279	13.12
417.061	17.12
417.843	16.12
418.624	17.12
419.406	15.12
420.188	17.12
420.969	19.12
421.751	15.12
422.532	21.12
423.313	15.12
424.095	17.12
424.876	22.12
425.657	21.12
426.438	23.12
427.219	21.12
428	22.12
428.78	24.12
429.561	26.12
430.342	23.12
431.122	27.12
431.903	27.12
432.683	25.12
433.464	28.12
434.244	27.12
435.024	31.12
435.804	34.12
436.584	34.12
437.364	40.12
438.144	37.12
438.924	42.12
439.704	44.12
440.483	49.12
441.263	47.12
442.042	58.12
442.822	60.12
443.601	61.12
444.38	69.12
445.16	70.12
445.939	75.12
446.718	83.12
447.497	90.12
448.276	101.12
449.054	109.12
449.833	121.12
450.612	128.12
451.391	144.12
452.169	163.12
452.948	176.12
453.726	193.12
454.504	213.12
455.282	244.12
456.061	260.12
456.839	299.12
457.617	335.12
458.395	364.12
459.172	401.12
459.95	457.12
460.728	496.12
461.506	557.12
462.283	622.12
463.061	695.12
463.838	765.12
464.615	850.12
465.393	934.12
466.17	1042.12
466.947	1157.12
467.724	1280.12
468.501	1399.12
469.278	1562.12
470.055	1718.12
470.831	1898.12
471.608	2102.12
472.385	2295.12
473.161	2538.12
473.938	2782.12
474.714	3039.12
475.49	3290.12
476.266	3615.12
477.043	3920.12
477.819	4340.12
478.595	4701.12
479.371	5097.12
480.146	5547.12
480.922	6011.12
481.698	6572.12
482.473	7079.12
483.249	7673.12
484.024	8323.12
484.8	9055.12
485.575	9771.12
486.35	10535.12
487.126	11412.12
487.901	12298.12
488.676	13224.12
489.451	14238.12
490.225	15368.12
491	16476.12
491.775	17693.12
492.55	18948.12
493.324	20221.12
494.099	21546.12
494.873	22907.12
495.647	24375.12
496.422	25765.12
497.196	27115.12
497.97	28478.12
498.744	29849.12
499.518	31250.12
500.292	32462.12
501.066	33635.12
501.839	34681.12
502.613	35699.12
503.387	36437.12
504.16	37206.12
504.934	37675.12
505.707	38051.12
506.48	38202.12
507.253	38100.12
508.027	37864.12
508.8	37435.12
509.573	36971.12
510.346	36297.12
511.118	35475.12
511.891	34714.12
512.664	33744.12
513.437	32770.12
514.209	31557.12
514.982	30528.12
515.754	29440.12
516.526	28335.12
517.298	27245.12
518.071	26188.12
518.843	25127.12
519.615	24006.12
520.387	23148.12
521.159	22276.12
521.93	21373.12
522.702	20511.12
523.474	19684.12
524.245	18897.12
525.017	18138.12
525.788	17421.12
526.56	16732.12
527.331	15961.12
528.102	15291.12
528.873	14533.12
529.644	13905.12
530.415	13248.12
531.186	12581.12
531.957	11975.12
532.728	11383.12
533.498	10855.12
534.269	10280.12
535.039	9697.12
535.81	9223.12
536.58	8744.12
537.351	8288.12
538.121	7824.12
538.891	7441.12
539.661	7068.12
540.431	6685.12
541.201	6329.12
541.971	6011.12
542.741	5661.12
543.51	5372.12
544.28	5076.12
545.05	4864.12
545.819	4627.12
546.588	4409.12
547.358	4160.12
548.127	3971.12
548.896	3773.12
549.665	3598.12
550.434	3416.12
551.203	3231.12
551.972	3065.12
552.741	2910.12
553.51	2753.12
554.278	2622.12
555.047	2459.12
555.815	2337.12
556.584	2205.12
557.352	2085.12
558.121	1967.12
558.889	1857.12
559.657	1756.12
560.425	1655.12
561.193	1576.12
561.961	1501.12
562.729	1419.12
563.496	1326.12
564.264	1269.12
565.032	1213.12
565.799	1134.12
566.567	1078.12
567.334	1003.12
568.101	955.12
568.869	902.12
569.636	848.12
570.403	803.12
571.17	761.12
571.937	720.12
572.704	676.12
573.471	641.12
574.237	611.12
575.004	573.12
575.771	537.12
576.537	512.12
577.303	477.12
578.07	452.12
578.836	422.12
579.602	399.12
580.368	380.12
581.134	355.12
581.9	344.12
582.666	326.12
583.432	312.12
584.198	289.12
584.964	280.12
585.729	265.12
586.495	246.12
587.26	238.12
588.025	220.12
588.791	211.12
589.556	202.12
590.321	194.12
591.086	182.12
591.851	173.12
592.616	168.12
593.381	157.12
594.146	149.12
594.911	140.12
595.675	134.12
596.44	127.12
597.204	126.12
597.969	116.12
598.733	115.12
599.497	110.12
600.261	105.12
601.025	98.12
601.79	97.12
602.553	90.12
603.317	86.12
604.081	83.12
604.845	80.12
605.609	79.12
606.372	74.12
607.136	70.12
607.899	63.12
608.662	62.12
609.426	64.12
610.189	60.12
610.952	60.12
611.715	56.12
612.478	54.12
613.241	54.12
614.004	49.12
614.767	46.12
615.529	48.12
616.292	46.12
617.055	44.12
617.817	42.12
618.579	40.12
619.342	42.12
620.104	38.12
620.866	34.12
621.628	36.12
622.39	31.12
623.152	34.12
623.914	31.12
624.676	28.12
625.438	32.12
626.199	26.12
626.961	28.12
627.722	26.12
628.484	28.12
629.245	25.12
630.006	25.12
630.768	23.12
631.529	21.12
632.29	25.12
633.051	21.12
633.812	22.12
634.573	23.12
635.333	20.12
636.094	20.12
636.855	17.12
637.615	20.12
638.376	18.12
639.136	17.12
639.896	17.12
640.657	15.12
641.417	17.12
642.177	14.12
642.937	16.12
643.697	17.12
644.457	14.12
645.216	15.12
645.976	14.12
646.736	13.12
647.495	11.12
648.255	15.12
649.014	11.12
649.774	16.12
650.533	14.12
651.292	13.12
652.051	11.12
652.81	12.12
653.569	14.12
654.328	12.12
655.087	10.12
655.846	11.12
656.604	13.12
657.363	10.12
658.121	9.12
658.88	14.12
659.638	8.12
660.397	8.12
661.155	10.12
661.913	9.12
662.671	9.12
663.429	8.12
664.187	11.12
664.945	11.12
665.703	8.12
666.46	11.12
667.218	8.12
667.976	8.12
668.733	7.12
669.49	10.12
670.248	7.12
671.005	8.12
671.762	6.12
672.519	7.12
673.276	7.12
674.033	10.12
674.79	8.12
675.547	9.12
676.304	8.12
677.06	7.12
677.817	9.12
678.574	8.12
679.33	7.12
680.086	3.12
680.843	7.12
681.599	6.12
682.355	10.12
683.111	9.12
683.867	9.12
684.623	9.12
685.379	7.12
686.135	9.12
686.89	8.12
687.646	7.12
688.402	7.12
689.157	10.12
689.912	9.12
690.668	7.12
691.423	7.12
692.178	7.12
692.933	9.12
693.688	4.12
694.443	7.12
695.198	10.12
695.953	8.12
696.708	8.12
697.462	9.12
698.217	5.12
698.972	6.12
699.726	8.12
700.48	5.12
701.235	8.12
701.989	5.12
702.743	7.12
703.497	5.12
704.251	6.12
705.005	5.12
705.759	7.12
706.513	7.12
707.266	5.12
708.02	5.12
708.774	1.12
709.527	9.12
710.28	5.12
711.034	8.12
711.787	7.12
712.54	5.12
713.293	7.12
714.046	7.12
714.799	6.12
715.552	4.12
716.305	7.12
717.058	7.12
717.81	6.12
718.563	7.12
719.315	9.12
720.068	7.12
720.82	5.12
721.573	9.12
722.325	7.12
723.077	5.12
723.829	6.12
724.581	8.12
725.333	9.12
726.085	4.12
726.836	6.12
727.588	5.12
728.34	9.12
729.091	7.12
729.843	7.12
730.594	7.12
731.346	7.12
732.097	7.12
732.848	7.12
733.599	9.12
734.35	7.12
735.101	7.12
735.852	7.12
736.603	6.12
737.354	9.12
738.104	9.12
738.855	7.12
739.605	7.12
740.356	9.12
741.106	8.12
741.856	7.12
742.607	8.12
743.357	9.12
744.107	8.12
744.857	7.12
745.607	9.12
746.357	8.12
747.106	8.12
747.856	7.12
748.606	6.12
749.355	8.12
750.105	6.12
750.854	8.12
751.603	8.12
752.353	12.12
753.102	9.12
753.851	8.12
754.6	10.12
755.349	9.12
756.098	10.12
756.847	9.12
757.595	9.12
758.344	9.12
759.093	11.12
759.841	9.12
760.589	10.12
761.338	11.12
762.086	8.12
762.834	9.12
763.582	11.12
764.331	9.12
765.079	10.12
765.826	9.12
766.574	10.12
767.322	13.12
768.07	7.12
768.817	9.12
769.565	12.12
770.312	9.12
771.06	11.12
771.807	12.12
772.554	11.12
773.302	13.12
774.049	12.12
774.796	10.12
775.543	13.12
776.29	13.12
777.036	14.12
777.783	10.12
778.53	12.12
779.276	13.12
780.023	10.12
780.769	15.12
781.516	12.12
782.262	15.12
783.008	14.12
783.754	11.12
784.5	13.12
785.246	15.12
785.992	12.12
786.738	14.12
787.484	13.12
788.23	12.12
788.975	11.12
789.721	13.12
790.466	10.12
791.212	11.12
791.957	10.12
792.702	13.12
793.447	13.12
794.193	11.12
794.938	13.12
795.683	10.12
796.427	12.12
797.172	11.12
797.917	13.12
798.662	11.12
799.406	14.12
800.151	12.12
800.895	9.12
801.64	11.12
802.384	11.12
803.128	12.12
803.872	9.12
804.616	9.12
805.36	10.12
806.104	9.12
806.848	7.12
807.592	7.12
808.336	8.12
809.079	8.12
809.823	8.12
810.566	8.12
811.31	7.12
812.053	8.12
812.796	7.12
813.539	7.12
814.283	9.12
815.026	8.12
815.769	7.12
816.511	6.12
817.254	7.12
817.997	8.12
818.74	6.12
819.482	5.12
820.225	7.12
820.967	5.12
821.71	7.12
822.452	7.12
823.194	4.12
823.936	7.12
824.678	7.12
825.42	7.12
826.162	6.12
826.904	5.12
827.646	7.12
828.388	7.12
829.129	7.12
829.871	3.12
830.612	7.12
831.354	3.12
832.095	7.12
832.836	6.12
833.577	6.12
834.319	3.12
835.06	7.12
835.801	6.12
836.542	6.12
837.282	3.12
838.023	5.12
838.764	4.12
839.504	5.12
840.245	4.12
840.985	5.12
841.726	4.12
842.466	5.12
843.206	6.12
843.946	9.12
844.687	7.12
845.427	2.12
846.166	5.12
846.906	5.12
847.646	6.12
848.386	6.12
849.125	4.12
849.865	6.12
850.605	5.12
851.344	5.12
852.083	6.12
852.823	6.12
853.562	3.12
854.301	4.12
855.04	5.12
855.779	3.12
856.518	2.12
857.257	4.12
857.995	3.12
858.734	4.12
859.473	6.12
860.211	3.12
860.95	2.12
861.688	2.12
862.426	2.12
863.165	2.12
863.903	3.12
864.641	5.12
865.379	4.12
866.117	4.12
866.855	3.12
867.593	1.12
868.33	4.12
869.068	3.12
869.806	6.12
870.543	5.12
871.28	5.12
872.018	2.12
872.755	1.12
873.492	2.12
874.229	5.12
874.967	0.12
875.703	3.12
876.44	3.12
877.177	1.12
877.914	2.12
878.651	1.12
879.387	4.12
880.124	1.12
880.86	1.12
881.597	2.12
882.333	0.12
883.069	3.12
883.806	2.12
884.542	3.12
885.278	2.12
886.014	2.12
886.749	1.12
887.485	2.12
888.221	1.12
888.957	3.12
889.692	1.12
890.428	2.12
891.163	1.12
891.899	1.12
892.634	2.12
893.369	2.12
894.104	3.12
894.839	0.12
895.574	0.12
896.309	1.12
897.044	2.12
897.779	0.12
898.514	3.12
899.248	1.12
899.983	0.12
900.717	2.12
901.452	0.12
902.186	1.12
902.92	2.12
903.654	1.12
904.389	0.12
905.123	-0.88
905.857	-0.88
906.59	1.12
907.324	2.12
908.058	0.12
908.792	0.12
909.525	2.12
910.259	0.12
910.992	2.12
911.726	2.12
912.459	2.12
913.192	0.12
913.925	-1.88
914.658	1.12
915.391	-1.88
916.124	0.12
916.857	1.12
917.59	-1.88
918.323	-1.88
919.055	3.12
919.788	0.12
920.521	0.12
921.253	4.12
921.985	1.12
922.718	1.12
923.45	2.12
924.182	1.12
924.914	-0.88
925.646	0.12
926.378	1.12
927.11	3.12
927.841	2.12
928.573	1.12
929.305	1.12
930.036	2.12
930.768	-1.88
931.499	1.12
932.23	0.12
932.962	1.12
933.693	2.12
934.424	1.12
935.155	-1.88
935.886	0.12
936.617	3.12
937.348	-0.88
938.078	0.12
938.809	1.12
939.54	-0.88
940.27	3.12
941.001	0.12
941.731	3.12
942.461	0.12
943.191	1.12
943.922	2.12
944.652	-0.88
945.382	0.12
946.112	2.12
946.841	0.12
947.571	0.12
948.301	1.12
949.031	-1.88
949.76	1.12
950.49	0.12
951.219	2.12
951.948	1.12
952.678	0.12
953.407	0.12
954.136	-2.88
954.865	1.12
955.594	2.12
956.323	3.12
957.052	2.12
957.78	1.12
958.509	0.12
959.238	-0.88
959.966	0.12
960.695	1.12
961.423	0.12
962.151	3.12
962.88	-0.88
963.608	1.12
964.336	1.12
965.064	-0.88
965.792	0.12
966.52	0.12
967.247	3.12
967.975	0.12
968.703	-2.88
969.43	1.12
970.158	3.12
970.885	0.12
971.613	-0.88
972.34	1.12
973.067	2.12
973.794	2.12
974.521	1.12
975.248	1.12
975.975	0.12
976.702	0.12
977.429	0.12
978.156	0.12
978.882	0.12
979.609	2.12
980.335	3.12
981.062	1.12
981.788	2.12
982.514	0.12
983.24	1.12
983.967	0.12
984.693	-0.88
985.419	1.12
986.144	1.12
986.87	-0.88
987.596	1.12
988.322	-0.88
989.047	1.12
989.773	-0.88
990.498	0.12
991.224	-1.88
991.949	1.12
992.674	-0.88
993.399	3.12
994.124	2.12
994.849	0.12
995.574	2.12
996.299	-0.88
997.024	0.12
997.749	0.12
998.473	1.12
999.198	1.12
999.922	0.12
1000.647	0.12
1001.371	4.12
1002.095	0.12
1002.82	-2.88
1003.544	-0.88
1004.268	4.12
1004.992	5.12
1005.716	3.12
1006.439	3.12
1007.163	3.12
1007.887	3.12
1008.611	0.12
1009.334	0.12
1010.058	-0.88
1010.781	1.12
1011.504	2.12
1012.228	0.12
1012.951	2.12
1013.674	1.12
1014.397	-1.88
1015.12	-1.88
