节点500_565_QEPB04081__566__09-59-50-020.txt的数据

Date: Thu Nov 13 09:59:50 CST 2025
User: PC
Spectrometer: QEPB0408
触发模式: 0
积分时间 (秒): 1.000000E-2
Scans to average: 1
启用暗噪声校正: true
启用非线性校正: false
滑动平均宽度: 0
X轴模式: Wavelengths
Number of Pixels in Spectrum: 1044
>>>>>Begin Spectral Data<<<<<
220.843	2.12
221.644	3.12
222.444	6.12
223.244	4.12
224.045	5.12
224.845	4.12
225.645	4.12
226.445	5.12
227.245	7.12
228.045	5.12
228.845	6.12
229.645	6.12
230.444	5.12
231.244	8.12
232.043	6.12
232.843	8.12
233.642	8.12
234.442	9.12
235.241	6.12
236.04	7.12
236.839	7.12
237.638	7.12
238.437	9.12
239.236	10.12
240.035	9.12
240.833	9.12
241.632	8.12
242.43	9.12
243.229	10.12
244.027	9.12
244.826	10.12
245.624	9.12
246.422	12.12
247.22	9.12
248.018	9.12
248.816	9.12
249.614	10.12
250.412	9.12
251.21	14.12
252.007	14.12
252.805	12.12
253.602	15.12
254.4	13.12
255.197	14.12
255.994	13.12
256.791	15.12
257.589	15.12
258.386	16.12
259.183	14.12
259.979	16.12
260.776	17.12
261.573	15.12
262.37	18.12
263.166	19.12
263.963	17.12
264.759	18.12
265.556	19.12
266.352	20.12
267.148	20.12
267.944	22.12
268.74	21.12
269.536	20.12
270.332	23.12
271.128	21.12
271.924	21.12
272.719	26.12
273.515	24.12
274.311	25.12
275.106	25.12
275.901	25.12
276.697	26.12
277.492	26.12
278.287	26.12
279.082	27.12
279.877	26.12
280.672	26.12
281.467	26.12
282.262	28.12
283.056	29.12
283.851	25.12
284.646	29.12
285.44	25.12
286.234	28.12
287.029	25.12
287.823	29.12
288.617	24.12
289.411	26.12
290.205	25.12
290.999	26.12
291.793	27.12
292.587	27.12
293.381	22.12
294.174	26.12
294.968	26.12
295.761	24.12
296.555	23.12
297.348	22.12
298.141	24.12
298.935	25.12
299.728	20.12
300.521	20.12
301.314	24.12
302.107	16.12
302.899	19.12
303.692	19.12
304.485	19.12
305.277	18.12
306.07	21.12
306.862	17.12
307.655	16.12
308.447	19.12
309.239	19.12
310.031	17.12
310.823	17.12
311.615	17.12
312.407	17.12
313.199	14.12
313.991	16.12
314.783	13.12
315.574	14.12
316.366	16.12
317.157	14.12
317.949	12.12
318.74	10.12
319.531	12.12
320.322	12.12
321.113	13.12
321.904	13.12
322.695	10.12
323.486	11.12
324.277	11.12
325.068	14.12
325.858	10.12
326.649	9.12
327.439	12.12
328.23	10.12
329.02	11.12
329.81	11.12
330.6	9.12
331.391	8.12
332.181	12.12
332.971	10.12
333.76	10.12
334.55	9.12
335.34	11.12
336.13	12.12
336.919	9.12
337.709	9.12
338.498	12.12
339.287	9.12
340.077	9.12
340.866	13.12
341.655	10.12
342.444	8.12
343.233	10.12
344.022	8.12
344.811	9.12
345.6	10.12
346.388	8.12
347.177	9.12
347.965	12.12
348.754	12.12
349.542	7.12
350.33	9.12
351.119	10.12
351.907	9.12
352.695	10.12
353.483	9.12
354.271	10.12
355.059	10.12
355.846	8.12
356.634	9.12
357.422	8.12
358.209	8.12
358.997	9.12
359.784	12.12
360.571	7.12
361.359	6.12
362.146	7.12
362.933	5.12
363.72	11.12
364.507	8.12
365.294	9.12
366.081	7.12
366.867	8.12
367.654	9.12
368.44	9.12
369.227	7.12
370.013	8.12
370.8	11.12
371.586	7.12
372.372	9.12
373.158	9.12
373.944	9.12
374.73	10.12
375.516	9.12
376.302	6.12
377.088	9.12
377.873	7.12
378.659	5.12
379.445	7.12
380.23	8.12
381.015	10.12
381.801	9.12
382.586	6.12
383.371	10.12
384.156	10.12
384.941	9.12
385.726	7.12
386.511	8.12
387.296	9.12
388.08	10.12
388.865	10.12
389.649	9.12
390.434	11.12
391.218	9.12
392.003	8.12
392.787	10.12
393.571	10.12
394.355	9.12
395.139	10.12
395.923	13.12
396.707	11.12
397.491	12.12
398.274	10.12
399.058	10.12
399.842	14.12
400.625	10.12
401.408	12.12
402.192	11.12
402.975	11.12
403.758	12.12
404.541	10.12
405.324	13.12
406.107	13.12
406.89	12.12
407.673	10.12
408.456	12.12
409.238	13.12
410.021	12.12
410.803	11.12
411.586	14.12
412.368	15.12
413.151	11.12
413.933	15.12
414.715	14.12
415.497	14.12
416.279	15.12
417.061	15.12
417.843	14.12
418.624	16.12
419.406	19.12
420.188	19.12
420.969	18.12
421.751	18.12
422.532	20.12
423.313	21.12
424.095	18.12
424.876	16.12
425.657	21.12
426.438	22.12
427.219	19.12
428	23.12
428.78	21.12
429.561	23.12
430.342	26.12
431.122	25.12
431.903	24.12
432.683	28.12
433.464	28.12
434.244	33.12
435.024	31.12
435.804	32.12
436.584	32.12
437.364	33.12
438.144	38.12
438.924	38.12
439.704	45.12
440.483	47.12
441.263	49.12
442.042	52.12
442.822	58.12
443.601	59.12
444.38	64.12
445.16	71.12
445.939	75.12
446.718	83.12
447.497	88.12
448.276	97.12
449.054	108.12
449.833	121.12
450.612	131.12
451.391	145.12
452.169	155.12
452.948	175.12
453.726	192.12
454.504	215.12
455.282	239.12
456.061	261.12
456.839	294.12
457.617	334.12
458.395	362.12
459.172	401.12
459.95	448.12
460.728	492.12
461.506	550.12
462.283	617.12
463.061	683.12
463.838	760.12
464.615	847.12
465.393	937.12
466.17	1043.12
466.947	1150.12
467.724	1266.12
468.501	1413.12
469.278	1567.12
470.055	1723.12
470.831	1881.12
471.608	2094.12
472.385	2292.12
473.161	2503.12
473.938	2782.12
474.714	3042.12
475.49	3289.12
476.266	3619.12
477.043	3951.12
477.819	4318.12
478.595	4679.12
479.371	5108.12
480.146	5574.12
480.922	6042.12
481.698	6627.12
482.473	7098.12
483.249	7711.12
484.024	8366.12
484.8	9040.12
485.575	9816.12
486.35	10567.12
487.126	11462.12
487.901	12362.12
488.676	13324.12
489.451	14381.12
490.225	15469.12
491	16629.12
491.775	17786.12
492.55	19118.12
493.324	20402.12
494.099	21646.12
494.873	23059.12
495.647	24494.12
496.422	25919.12
497.196	27264.12
497.97	28721.12
498.744	30119.12
499.518	31353.12
500.292	32680.12
501.066	33793.12
501.839	34914.12
502.613	35863.12
503.387	36645.12
504.16	37344.12
504.934	37903.12
505.707	38190.12
506.48	38270.12
507.253	38254.12
508.027	38044.12
508.8	37604.12
509.573	37121.12
510.346	36455.12
511.118	35432.12
511.891	34743.12
512.664	33765.12
513.437	32812.12
514.209	31630.12
514.982	30477.12
515.754	29460.12
516.526	28314.12
517.298	27139.12
518.071	26132.12
518.843	25025.12
519.615	24042.12
520.387	23128.12
521.159	22193.12
521.93	21355.12
522.702	20500.12
523.474	19633.12
524.245	18903.12
525.017	18160.12
525.788	17396.12
526.56	16652.12
527.331	16010.12
528.102	15270.12
528.873	14509.12
529.644	13839.12
530.415	13130.12
531.186	12535.12
531.957	11959.12
532.728	11367.12
533.498	10807.12
534.269	10227.12
535.039	9692.12
535.81	9228.12
536.58	8697.12
537.351	8245.12
538.121	7801.12
538.891	7424.12
539.661	6996.12
540.431	6649.12
541.201	6232.12
541.971	5945.12
542.741	5650.12
543.51	5356.12
544.28	5073.12
545.05	4838.12
545.819	4598.12
546.588	4379.12
547.358	4187.12
548.127	3945.12
548.896	3755.12
549.665	3579.12
550.434	3374.12
551.203	3196.12
551.972	3056.12
552.741	2901.12
553.51	2771.12
554.278	2586.12
555.047	2449.12
555.815	2336.12
556.584	2209.12
557.352	2094.12
558.121	1971.12
558.889	1849.12
559.657	1750.12
560.425	1651.12
561.193	1567.12
561.961	1491.12
562.729	1388.12
563.496	1330.12
564.264	1265.12
565.032	1177.12
565.799	1129.12
566.567	1062.12
567.334	1007.12
568.101	952.12
568.869	893.12
569.636	859.12
570.403	801.12
571.17	760.12
571.937	720.12
572.704	671.12
573.471	631.12
574.237	601.12
575.004	571.12
575.771	537.12
576.537	501.12
577.303	476.12
578.07	454.12
578.836	422.12
579.602	399.12
580.368	375.12
581.134	360.12
581.9	347.12
582.666	324.12
583.432	311.12
584.198	295.12
584.964	282.12
585.729	263.12
586.495	247.12
587.26	230.12
588.025	217.12
588.791	219.12
589.556	196.12
590.321	190.12
591.086	183.12
591.851	169.12
592.616	162.12
593.381	157.12
594.146	148.12
594.911	143.12
595.675	139.12
596.44	130.12
597.204	119.12
597.969	121.12
598.733	109.12
599.497	106.12
600.261	105.12
601.025	101.12
601.79	96.12
602.553	92.12
603.317	89.12
604.081	80.12
604.845	82.12
605.609	77.12
606.372	75.12
607.136	73.12
607.899	65.12
608.662	66.12
609.426	61.12
610.189	64.12
610.952	57.12
611.715	54.12
612.478	55.12
613.241	52.12
614.004	51.12
614.767	49.12
615.529	47.12
616.292	42.12
617.055	42.12
617.817	44.12
618.579	42.12
619.342	39.12
620.104	38.12
620.866	38.12
621.628	37.12
622.39	31.12
623.152	36.12
623.914	33.12
624.676	33.12
625.438	29.12
626.199	30.12
626.961	29.12
627.722	28.12
628.484	29.12
629.245	26.12
630.006	24.12
630.768	25.12
631.529	25.12
632.29	22.12
633.051	21.12
633.812	18.12
634.573	23.12
635.333	19.12
636.094	18.12
636.855	23.12
637.615	19.12
638.376	17.12
639.136	20.12
639.896	15.12
640.657	16.12
641.417	11.12
642.177	16.12
642.937	17.12
643.697	14.12
644.457	16.12
645.216	18.12
645.976	15.12
646.736	13.12
647.495	12.12
648.255	11.12
649.014	13.12
649.774	12.12
650.533	13.12
651.292	13.12
652.051	13.12
652.81	12.12
653.569	11.12
654.328	14.12
655.087	12.12
655.846	14.12
656.604	11.12
657.363	10.12
658.121	13.12
658.88	9.12
659.638	9.12
660.397	8.12
661.155	9.12
661.913	7.12
662.671	10.12
663.429	8.12
664.187	10.12
664.945	10.12
665.703	7.12
666.46	9.12
667.218	10.12
667.976	9.12
668.733	7.12
669.49	7.12
670.248	9.12
671.005	7.12
671.762	9.12
672.519	8.12
673.276	7.12
674.033	7.12
674.79	7.12
675.547	9.12
676.304	5.12
677.06	9.12
677.817	9.12
678.574	7.12
679.33	8.12
680.086	7.12
680.843	10.12
681.599	7.12
682.355	8.12
683.111	7.12
683.867	7.12
684.623	6.12
685.379	7.12
686.135	5.12
686.89	5.12
687.646	5.12
688.402	10.12
689.157	7.12
689.912	7.12
690.668	7.12
691.423	8.12
692.178	7.12
692.933	5.12
693.688	6.12
694.443	9.12
695.198	7.12
695.953	6.12
696.708	6.12
697.462	5.12
698.217	6.12
698.972	5.12
699.726	8.12
700.48	5.12
701.235	6.12
701.989	4.12
702.743	6.12
703.497	9.12
704.251	7.12
705.005	7.12
705.759	7.12
706.513	7.12
707.266	7.12
708.02	6.12
708.774	6.12
709.527	5.12
710.28	5.12
711.034	7.12
711.787	7.12
712.54	6.12
713.293	5.12
714.046	5.12
714.799	6.12
715.552	7.12
716.305	5.12
717.058	7.12
717.81	8.12
718.563	5.12
719.315	6.12
720.068	5.12
720.82	7.12
721.573	6.12
722.325	7.12
723.077	5.12
723.829	5.12
724.581	6.12
725.333	10.12
726.085	7.12
726.836	8.12
727.588	9.12
728.34	8.12
729.091	5.12
729.843	5.12
730.594	5.12
731.346	9.12
732.097	5.12
732.848	7.12
733.599	7.12
734.35	7.12
735.101	10.12
735.852	6.12
736.603	7.12
737.354	7.12
738.104	7.12
738.855	7.12
739.605	9.12
740.356	9.12
741.106	9.12
741.856	9.12
742.607	8.12
743.357	9.12
744.107	7.12
744.857	7.12
745.607	8.12
746.357	8.12
747.106	9.12
747.856	6.12
748.606	6.12
749.355	7.12
750.105	10.12
750.854	8.12
751.603	8.12
752.353	10.12
753.102	9.12
753.851	7.12
754.6	8.12
755.349	10.12
756.098	10.12
756.847	11.12
757.595	8.12
758.344	8.12
759.093	12.12
759.841	10.12
760.589	10.12
761.338	9.12
762.086	10.12
762.834	13.12
763.582	11.12
764.331	10.12
765.079	9.12
765.826	13.12
766.574	12.12
767.322	12.12
768.07	10.12
768.817	9.12
769.565	12.12
770.312	11.12
771.06	13.12
771.807	11.12
772.554	14.12
773.302	10.12
774.049	10.12
774.796	13.12
775.543	9.12
776.29	12.12
777.036	10.12
777.783	10.12
778.53	13.12
779.276	13.12
780.023	14.12
780.769	9.12
781.516	12.12
782.262	14.12
783.008	13.12
783.754	13.12
784.5	11.12
785.246	14.12
785.992	15.12
786.738	14.12
787.484	11.12
788.23	13.12
788.975	12.12
789.721	9.12
790.466	10.12
791.212	12.12
791.957	12.12
792.702	12.12
793.447	11.12
794.193	11.12
794.938	12.12
795.683	11.12
796.427	12.12
797.172	15.12
797.917	11.12
798.662	11.12
799.406	10.12
800.151	10.12
800.895	12.12
801.64	11.12
802.384	10.12
803.128	12.12
803.872	11.12
804.616	9.12
805.36	10.12
806.104	11.12
806.848	10.12
807.592	7.12
808.336	9.12
809.079	10.12
809.823	7.12
810.566	9.12
811.31	10.12
812.053	9.12
812.796	9.12
813.539	7.12
814.283	8.12
815.026	9.12
815.769	8.12
816.511	5.12
817.254	6.12
817.997	8.12
818.74	7.12
819.482	5.12
820.225	8.12
820.967	7.12
821.71	6.12
822.452	6.12
823.194	7.12
823.936	5.12
824.678	9.12
825.42	7.12
826.162	5.12
826.904	5.12
827.646	7.12
828.388	8.12
829.129	5.12
829.871	7.12
830.612	5.12
831.354	4.12
832.095	6.12
832.836	7.12
833.577	5.12
834.319	5.12
835.06	5.12
835.801	5.12
836.542	7.12
837.282	5.12
838.023	6.12
838.764	6.12
839.504	7.12
840.245	6.12
840.985	3.12
841.726	7.12
842.466	7.12
843.206	6.12
843.946	6.12
844.687	5.12
845.427	4.12
846.166	3.12
846.906	4.12
847.646	4.12
848.386	3.12
849.125	5.12
849.865	4.12
850.605	4.12
851.344	5.12
852.083	6.12
852.823	3.12
853.562	3.12
854.301	5.12
855.04	3.12
855.779	4.12
856.518	5.12
857.257	5.12
857.995	1.12
858.734	3.12
859.473	5.12
860.211	5.12
860.95	3.12
861.688	3.12
862.426	5.12
863.165	2.12
863.903	3.12
864.641	2.12
865.379	3.12
866.117	2.12
866.855	2.12
867.593	3.12
868.33	2.12
869.068	2.12
869.806	3.12
870.543	3.12
871.28	5.12
872.018	3.12
872.755	2.12
873.492	2.12
874.229	3.12
874.967	2.12
875.703	2.12
876.44	4.12
877.177	2.12
877.914	1.12
878.651	0.12
879.387	1.12
880.124	3.12
880.86	1.12
881.597	0.12
882.333	3.12
883.069	2.12
883.806	2.12
884.542	0.12
885.278	2.12
886.014	1.12
886.749	3.12
887.485	1.12
888.221	4.12
888.957	2.12
889.692	1.12
890.428	1.12
891.163	2.12
891.899	2.12
892.634	-0.88
893.369	2.12
894.104	3.12
894.839	1.12
895.574	2.12
896.309	1.12
897.044	1.12
897.779	1.12
898.514	4.12
899.248	2.12
899.983	0.12
900.717	0.12
901.452	-0.88
902.186	1.12
902.92	2.12
903.654	3.12
904.389	0.12
905.123	1.12
905.857	2.12
906.59	4.12
907.324	1.12
908.058	0.12
908.792	0.12
909.525	0.12
910.259	2.12
910.992	2.12
911.726	1.12
912.459	1.12
913.192	0.12
913.925	1.12
914.658	0.12
915.391	2.12
916.124	-0.88
916.857	1.12
917.59	1.12
918.323	2.12
919.055	1.12
919.788	-0.88
920.521	1.12
921.253	2.12
921.985	0.12
922.718	0.12
923.45	1.12
924.182	1.12
924.914	-0.88
925.646	3.12
926.378	0.12
927.11	1.12
927.841	1.12
928.573	2.12
929.305	1.12
930.036	0.12
930.768	-0.88
931.499	-0.88
932.23	1.12
932.962	2.12
933.693	0.12
934.424	-0.88
935.155	0.12
935.886	1.12
936.617	1.12
937.348	0.12
938.078	1.12
938.809	0.12
939.54	0.12
940.27	2.12
941.001	3.12
941.731	-0.88
942.461	0.12
943.191	-0.88
943.922	-0.88
944.652	-0.88
945.382	0.12
946.112	1.12
946.841	1.12
947.571	3.12
948.301	1.12
949.031	2.12
949.76	2.12
950.49	1.12
951.219	0.12
951.948	-0.88
952.678	1.12
953.407	1.12
954.136	1.12
954.865	-0.88
955.594	3.12
956.323	2.12
957.052	1.12
957.78	-0.88
958.509	0.12
959.238	2.12
959.966	1.12
960.695	0.12
961.423	-0.88
962.151	1.12
962.88	-0.88
963.608	0.12
964.336	3.12
965.064	0.12
965.792	-0.88
966.52	3.12
967.247	-1.88
967.975	2.12
968.703	2.12
969.43	1.12
970.158	-1.88
970.885	0.12
971.613	-1.88
972.34	1.12
973.067	0.12
973.794	1.12
974.521	1.12
975.248	-0.88
975.975	0.12
976.702	1.12
977.429	-0.88
978.156	2.12
978.882	-0.88
979.609	2.12
980.335	0.12
981.062	0.12
981.788	-0.88
982.514	-0.88
983.24	0.12
983.967	0.12
984.693	2.12
985.419	-0.88
986.144	1.12
986.87	1.12
987.596	3.12
988.322	2.12
989.047	0.12
989.773	1.12
990.498	0.12
991.224	0.12
991.949	0.12
992.674	2.12
993.399	0.12
994.124	-1.88
994.849	1.12
995.574	-0.88
996.299	1.12
997.024	1.12
997.749	0.12
998.473	1.12
999.198	1.12
999.922	0.12
1000.647	0.12
1001.371	4.12
1002.095	0.12
1002.82	-0.88
1003.544	-1.88
1004.268	6.12
1004.992	3.12
1005.716	3.12
1006.439	5.12
1007.163	3.12
1007.887	5.12
1008.611	0.12
1009.334	-0.88
1010.058	-0.88
1010.781	2.12
1011.504	1.12
1012.228	0.12
1012.951	-0.88
1013.674	1.12
1014.397	-1.88
1015.12	0.12
