节点500_565_QEPB04081__173__09-53-17-899.txt的数据

Date: Thu Nov 13 09:53:17 CST 2025
User: PC
Spectrometer: QEPB0408
触发模式: 0
积分时间 (秒): 1.000000E-2
Scans to average: 1
启用暗噪声校正: true
启用非线性校正: false
滑动平均宽度: 0
X轴模式: Wavelengths
Number of Pixels in Spectrum: 1044
>>>>>Begin Spectral Data<<<<<
220.843	2.88
221.644	4.88
222.444	5.88
223.244	5.88
224.045	4.88
224.845	5.88
225.645	5.88
226.445	4.88
227.245	5.88
228.045	3.88
228.845	4.88
229.645	6.88
230.444	5.88
231.244	7.88
232.043	8.88
232.843	7.88
233.642	6.88
234.442	7.88
235.241	8.88
236.04	8.88
236.839	7.88
237.638	8.88
238.437	8.88
239.236	6.88
240.035	9.88
240.833	5.88
241.632	10.88
242.43	9.88
243.229	12.88
244.027	9.88
244.826	12.88
245.624	12.88
246.422	10.88
247.22	13.88
248.018	10.88
248.816	10.88
249.614	13.88
250.412	12.88
251.21	13.88
252.007	14.88
252.805	16.88
253.602	13.88
254.4	12.88
255.197	16.88
255.994	16.88
256.791	17.88
257.589	16.88
258.386	18.88
259.183	17.88
259.979	17.88
260.776	16.88
261.573	20.88
262.37	19.88
263.166	20.88
263.963	22.88
264.759	22.88
265.556	23.88
266.352	21.88
267.148	23.88
267.944	23.88
268.74	24.88
269.536	27.88
270.332	26.88
271.128	26.88
271.924	26.88
272.719	29.88
273.515	29.88
274.311	28.88
275.106	29.88
275.901	29.88
276.697	26.88
277.492	28.88
278.287	29.88
279.082	31.88
279.877	28.88
280.672	31.88
281.467	31.88
282.262	30.88
283.056	30.88
283.851	29.88
284.646	29.88
285.44	28.88
286.234	27.88
287.029	27.88
287.823	29.88
288.617	28.88
289.411	28.88
290.205	30.88
290.999	26.88
291.793	27.88
292.587	27.88
293.381	27.88
294.174	26.88
294.968	25.88
295.761	25.88
296.555	25.88
297.348	23.88
298.141	22.88
298.935	23.88
299.728	23.88
300.521	23.88
301.314	22.88
302.107	21.88
302.899	18.88
303.692	22.88
304.485	18.88
305.277	19.88
306.07	20.88
306.862	16.88
307.655	20.88
308.447	19.88
309.239	16.88
310.031	16.88
310.823	16.88
311.615	15.88
312.407	14.88
313.199	13.88
313.991	15.88
314.783	13.88
315.574	13.88
316.366	15.88
317.157	13.88
317.949	13.88
318.74	13.88
319.531	14.88
320.322	11.88
321.113	13.88
321.904	11.88
322.695	11.88
323.486	12.88
324.277	9.88
325.068	13.88
325.858	11.88
326.649	11.88
327.439	11.88
328.23	12.88
329.02	9.88
329.81	8.88
330.6	8.88
331.391	9.88
332.181	10.88
332.971	9.88
333.76	9.88
334.55	10.88
335.34	7.88
336.13	9.88
336.919	11.88
337.709	9.88
338.498	10.88
339.287	12.88
340.077	11.88
340.866	10.88
341.655	10.88
342.444	8.88
343.233	10.88
344.022	9.88
344.811	8.88
345.6	10.88
346.388	10.88
347.177	9.88
347.965	8.88
348.754	11.88
349.542	10.88
350.33	9.88
351.119	12.88
351.907	9.88
352.695	8.88
353.483	9.88
354.271	8.88
355.059	6.88
355.846	8.88
356.634	8.88
357.422	9.88
358.209	9.88
358.997	10.88
359.784	8.88
360.571	10.88
361.359	8.88
362.146	8.88
362.933	6.88
363.72	8.88
364.507	8.88
365.294	10.88
366.081	8.88
366.867	8.88
367.654	6.88
368.44	8.88
369.227	8.88
370.013	7.88
370.8	9.88
371.586	8.88
372.372	9.88
373.158	8.88
373.944	8.88
374.73	8.88
375.516	7.88
376.302	9.88
377.088	10.88
377.873	8.88
378.659	7.88
379.445	6.88
380.23	8.88
381.015	10.88
381.801	10.88
382.586	11.88
383.371	7.88
384.156	8.88
384.941	7.88
385.726	8.88
386.511	7.88
387.296	11.88
388.08	9.88
388.865	8.88
389.649	9.88
390.434	8.88
391.218	8.88
392.003	10.88
392.787	12.88
393.571	9.88
394.355	9.88
395.139	6.88
395.923	8.88
396.707	13.88
397.491	12.88
398.274	11.88
399.058	12.88
399.842	9.88
400.625	13.88
401.408	11.88
402.192	11.88
402.975	12.88
403.758	11.88
404.541	12.88
405.324	11.88
406.107	11.88
406.89	13.88
407.673	14.88
408.456	12.88
409.238	14.88
410.021	16.88
410.803	16.88
411.586	16.88
412.368	12.88
413.151	14.88
413.933	13.88
414.715	14.88
415.497	15.88
416.279	18.88
417.061	17.88
417.843	17.88
418.624	16.88
419.406	15.88
420.188	16.88
420.969	16.88
421.751	16.88
422.532	18.88
423.313	18.88
424.095	19.88
424.876	22.88
425.657	19.88
426.438	21.88
427.219	20.88
428	20.88
428.78	21.88
429.561	24.88
430.342	24.88
431.122	28.88
431.903	27.88
432.683	24.88
433.464	28.88
434.244	28.88
435.024	35.88
435.804	30.88
436.584	36.88
437.364	36.88
438.144	36.88
438.924	38.88
439.704	42.88
440.483	44.88
441.263	49.88
442.042	51.88
442.822	53.88
443.601	57.88
444.38	61.88
445.16	65.88
445.939	67.88
446.718	77.88
447.497	82.88
448.276	88.88
449.054	97.88
449.833	109.88
450.612	115.88
451.391	125.88
452.169	141.88
452.948	154.88
453.726	166.88
454.504	190.88
455.282	213.88
456.061	235.88
456.839	258.88
457.617	283.88
458.395	326.88
459.172	354.88
459.95	407.88
460.728	452.88
461.506	502.88
462.283	567.88
463.061	623.88
463.838	700.88
464.615	767.88
465.393	869.88
466.17	973.88
466.947	1078.88
467.724	1212.88
468.501	1352.88
469.278	1502.88
470.055	1657.88
470.831	1844.88
471.608	2052.88
472.385	2270.88
473.161	2504.88
473.938	2783.88
474.714	3080.88
475.49	3362.88
476.266	3738.88
477.043	4121.88
477.819	4533.88
478.595	4972.88
479.371	5448.88
480.146	5985.88
480.922	6532.88
481.698	7229.88
482.473	7862.88
483.249	8583.88
484.024	9412.88
484.8	10278.88
485.575	11208.88
486.35	12160.88
487.126	13293.88
487.901	14396.88
488.676	15701.88
489.451	17027.88
490.225	18468.88
491	19880.88
491.775	21347.88
492.55	23026.88
493.324	24616.88
494.099	26265.88
494.873	27980.88
495.647	29747.88
496.422	31506.88
497.196	33168.88
497.97	34849.88
498.744	36278.88
499.518	37648.88
500.292	38914.88
501.066	40118.88
501.839	41083.88
502.613	41832.88
503.387	42381.88
504.16	42810.88
504.934	42990.88
505.707	42845.88
506.48	42559.88
507.253	41964.88
508.027	41240.88
508.8	40367.88
509.573	39261.88
510.346	38132.88
511.118	36979.88
511.891	35818.88
512.664	34446.88
513.437	33108.88
514.209	31679.88
514.982	30399.88
515.754	29220.88
516.526	27961.88
517.298	26709.88
518.071	25623.88
518.843	24591.88
519.615	23561.88
520.387	22644.88
521.159	21783.88
521.93	20855.88
522.702	19982.88
523.474	19136.88
524.245	18393.88
525.017	17696.88
525.788	16844.88
526.56	16018.88
527.331	15308.88
528.102	14595.88
528.873	13871.88
529.644	13141.88
530.415	12494.88
531.186	11810.88
531.957	11242.88
532.728	10694.88
533.498	10084.88
534.269	9515.88
535.039	8968.88
535.81	8522.88
536.58	8057.88
537.351	7592.88
538.121	7188.88
538.891	6775.88
539.661	6464.88
540.431	6128.88
541.201	5772.88
541.971	5488.88
542.741	5172.88
543.51	4946.88
544.28	4657.88
545.05	4432.88
545.819	4231.88
546.588	4004.88
547.358	3805.88
548.127	3617.88
548.896	3432.88
549.665	3255.88
550.434	3109.88
551.203	2923.88
551.972	2773.88
552.741	2627.88
553.51	2480.88
554.278	2333.88
555.047	2210.88
555.815	2086.88
556.584	1965.88
557.352	1851.88
558.121	1762.88
558.889	1655.88
559.657	1560.88
560.425	1487.88
561.193	1401.88
561.961	1319.88
562.729	1251.88
563.496	1188.88
564.264	1128.88
565.032	1076.88
565.799	1001.88
566.567	961.88
567.334	909.88
568.101	832.88
568.869	812.88
569.636	754.88
570.403	728.88
571.17	678.88
571.937	648.88
572.704	604.88
573.471	565.88
574.237	536.88
575.004	497.88
575.771	478.88
576.537	447.88
577.303	424.88
578.07	390.88
578.836	377.88
579.602	358.88
580.368	341.88
581.134	313.88
581.9	307.88
582.666	278.88
583.432	270.88
584.198	257.88
584.964	246.88
585.729	234.88
586.495	221.88
587.26	210.88
588.025	196.88
588.791	189.88
589.556	180.88
590.321	171.88
591.086	158.88
591.851	159.88
592.616	148.88
593.381	139.88
594.146	130.88
594.911	124.88
595.675	122.88
596.44	117.88
597.204	112.88
597.969	100.88
598.733	97.88
599.497	95.88
600.261	94.88
601.025	84.88
601.79	84.88
602.553	84.88
603.317	84.88
604.081	78.88
604.845	67.88
605.609	72.88
606.372	67.88
607.136	66.88
607.899	64.88
608.662	61.88
609.426	58.88
610.189	56.88
610.952	50.88
611.715	49.88
612.478	51.88
613.241	48.88
614.004	48.88
614.767	41.88
615.529	41.88
616.292	41.88
617.055	40.88
617.817	37.88
618.579	37.88
619.342	35.88
620.104	36.88
620.866	34.88
621.628	33.88
622.39	31.88
623.152	31.88
623.914	29.88
624.676	28.88
625.438	28.88
626.199	28.88
626.961	24.88
627.722	24.88
628.484	24.88
629.245	21.88
630.006	24.88
630.768	23.88
631.529	21.88
632.29	18.88
633.051	20.88
633.812	21.88
634.573	19.88
635.333	20.88
636.094	17.88
636.855	20.88
637.615	18.88
638.376	16.88
639.136	16.88
639.896	16.88
640.657	13.88
641.417	13.88
642.177	14.88
642.937	16.88
643.697	16.88
644.457	13.88
645.216	13.88
645.976	14.88
646.736	14.88
647.495	10.88
648.255	14.88
649.014	15.88
649.774	11.88
650.533	13.88
651.292	11.88
652.051	13.88
652.81	12.88
653.569	9.88
654.328	12.88
655.087	12.88
655.846	10.88
656.604	10.88
657.363	12.88
658.121	11.88
658.88	8.88
659.638	8.88
660.397	9.88
661.155	8.88
661.913	8.88
662.671	10.88
663.429	9.88
664.187	9.88
664.945	10.88
665.703	8.88
666.46	8.88
667.218	10.88
667.976	8.88
668.733	6.88
669.49	6.88
670.248	9.88
671.005	7.88
671.762	7.88
672.519	7.88
673.276	9.88
674.033	8.88
674.79	7.88
675.547	7.88
676.304	4.88
677.06	7.88
677.817	7.88
678.574	6.88
679.33	5.88
680.086	8.88
680.843	6.88
681.599	4.88
682.355	7.88
683.111	7.88
683.867	6.88
684.623	6.88
685.379	5.88
686.135	6.88
686.89	5.88
687.646	5.88
688.402	4.88
689.157	7.88
689.912	5.88
690.668	6.88
691.423	6.88
692.178	5.88
692.933	5.88
693.688	6.88
694.443	8.88
695.198	7.88
695.953	5.88
696.708	5.88
697.462	6.88
698.217	8.88
698.972	4.88
699.726	7.88
700.48	7.88
701.235	7.88
701.989	4.88
702.743	4.88
703.497	6.88
704.251	4.88
705.005	6.88
705.759	6.88
706.513	6.88
707.266	7.88
708.02	7.88
708.774	6.88
709.527	6.88
710.28	7.88
711.034	7.88
711.787	8.88
712.54	7.88
713.293	3.88
714.046	4.88
714.799	5.88
715.552	7.88
716.305	6.88
717.058	5.88
717.81	8.88
718.563	6.88
719.315	6.88
720.068	6.88
720.82	7.88
721.573	6.88
722.325	6.88
723.077	9.88
723.829	6.88
724.581	4.88
725.333	7.88
726.085	6.88
726.836	7.88
727.588	6.88
728.34	7.88
729.091	5.88
729.843	8.88
730.594	4.88
731.346	8.88
732.097	10.88
732.848	9.88
733.599	8.88
734.35	7.88
735.101	8.88
735.852	5.88
736.603	10.88
737.354	7.88
738.104	8.88
738.855	8.88
739.605	6.88
740.356	8.88
741.106	9.88
741.856	10.88
742.607	9.88
743.357	8.88
744.107	6.88
744.857	11.88
745.607	8.88
746.357	7.88
747.106	11.88
747.856	8.88
748.606	7.88
749.355	6.88
750.105	9.88
750.854	9.88
751.603	8.88
752.353	10.88
753.102	8.88
753.851	9.88
754.6	10.88
755.349	10.88
756.098	11.88
756.847	10.88
757.595	10.88
758.344	11.88
759.093	10.88
759.841	9.88
760.589	10.88
761.338	9.88
762.086	12.88
762.834	11.88
763.582	11.88
764.331	11.88
765.079	13.88
765.826	11.88
766.574	12.88
767.322	10.88
768.07	13.88
768.817	11.88
769.565	13.88
770.312	13.88
771.06	12.88
771.807	12.88
772.554	12.88
773.302	12.88
774.049	12.88
774.796	14.88
775.543	13.88
776.29	14.88
777.036	15.88
777.783	12.88
778.53	15.88
779.276	14.88
780.023	13.88
780.769	13.88
781.516	12.88
782.262	13.88
783.008	14.88
783.754	14.88
784.5	11.88
785.246	16.88
785.992	13.88
786.738	12.88
787.484	13.88
788.23	16.88
788.975	13.88
789.721	12.88
790.466	14.88
791.212	11.88
791.957	12.88
792.702	11.88
793.447	10.88
794.193	13.88
794.938	13.88
795.683	12.88
796.427	8.88
797.172	13.88
797.917	12.88
798.662	11.88
799.406	10.88
800.151	9.88
800.895	10.88
801.64	12.88
802.384	10.88
803.128	9.88
803.872	11.88
804.616	9.88
805.36	8.88
806.104	10.88
806.848	8.88
807.592	6.88
808.336	10.88
809.079	10.88
809.823	8.88
810.566	6.88
811.31	9.88
812.053	9.88
812.796	7.88
813.539	8.88
814.283	6.88
815.026	5.88
815.769	6.88
816.511	10.88
817.254	8.88
817.997	8.88
818.74	5.88
819.482	6.88
820.225	3.88
820.967	5.88
821.71	4.88
822.452	6.88
823.194	6.88
823.936	5.88
824.678	4.88
825.42	3.88
826.162	5.88
826.904	4.88
827.646	6.88
828.388	5.88
829.129	5.88
829.871	4.88
830.612	7.88
831.354	6.88
832.095	7.88
832.836	5.88
833.577	6.88
834.319	1.88
835.06	6.88
835.801	4.88
836.542	5.88
837.282	6.88
838.023	4.88
838.764	7.88
839.504	4.88
840.245	5.88
840.985	6.88
841.726	4.88
842.466	3.88
843.206	4.88
843.946	4.88
844.687	6.88
845.427	1.88
846.166	4.88
846.906	2.88
847.646	5.88
848.386	3.88
849.125	4.88
849.865	4.88
850.605	3.88
851.344	1.88
852.083	6.88
852.823	3.88
853.562	4.88
854.301	4.88
855.04	3.88
855.779	1.88
856.518	3.88
857.257	1.88
857.995	4.88
858.734	2.88
859.473	6.88
860.211	2.88
860.95	2.88
861.688	0.88
862.426	2.88
863.165	1.88
863.903	3.88
864.641	0.88
865.379	0.88
866.117	-0.12
866.855	1.88
867.593	1.88
868.33	4.88
869.068	2.88
869.806	3.88
870.543	5.88
871.28	2.88
872.018	2.88
872.755	3.88
873.492	3.88
874.229	1.88
874.967	0.88
875.703	2.88
876.44	4.88
877.177	-0.12
877.914	0.88
878.651	4.88
879.387	0.88
880.124	2.88
880.86	0.88
881.597	-0.12
882.333	2.88
883.069	1.88
883.806	2.88
884.542	1.88
885.278	1.88
886.014	0.88
886.749	0.88
887.485	3.88
888.221	2.88
888.957	2.88
889.692	0.88
890.428	1.88
891.163	1.88
891.899	0.88
892.634	2.88
893.369	0.88
894.104	1.88
894.839	-1.12
895.574	3.88
896.309	-0.12
897.044	0.88
897.779	1.88
898.514	-0.12
899.248	1.88
899.983	2.88
900.717	0.88
901.452	1.88
902.186	0.88
902.92	0.88
903.654	1.88
904.389	0.88
905.123	-0.12
905.857	0.88
906.59	1.88
907.324	0.88
908.058	2.88
908.792	0.88
909.525	0.88
910.259	0.88
910.992	1.88
911.726	0.88
912.459	1.88
913.192	1.88
913.925	0.88
914.658	-1.12
915.391	-1.12
916.124	-0.12
916.857	-0.12
917.59	1.88
918.323	2.88
919.055	1.88
919.788	3.88
920.521	2.88
921.253	-0.12
921.985	0.88
922.718	0.88
923.45	0.88
924.182	0.88
924.914	0.88
925.646	-0.12
926.378	0.88
927.11	1.88
927.841	0.88
928.573	-1.12
929.305	0.88
930.036	2.88
930.768	0.88
931.499	0.88
932.23	-0.12
932.962	1.88
933.693	1.88
934.424	0.88
935.155	0.88
935.886	-0.12
936.617	2.88
937.348	1.88
938.078	2.88
938.809	-0.12
939.54	1.88
940.27	-0.12
941.001	-0.12
941.731	-0.12
942.461	1.88
943.191	2.88
943.922	1.88
944.652	-0.12
945.382	-0.12
946.112	-0.12
946.841	-0.12
947.571	1.88
948.301	2.88
949.031	-0.12
949.76	0.88
950.49	0.88
951.219	-2.12
951.948	1.88
952.678	0.88
953.407	-0.12
954.136	-0.12
954.865	1.88
955.594	0.88
956.323	0.88
957.052	-1.12
957.78	0.88
958.509	-0.12
959.238	2.88
959.966	0.88
960.695	0.88
961.423	0.88
962.151	0.88
962.88	1.88
963.608	0.88
964.336	-2.12
965.064	1.88
965.792	0.88
966.52	0.88
967.247	-0.12
967.975	2.88
968.703	-0.12
969.43	0.88
970.158	-0.12
970.885	0.88
971.613	-2.12
972.34	0.88
973.067	0.88
973.794	0.88
974.521	0.88
975.248	0.88
975.975	0.88
976.702	0.88
977.429	0.88
978.156	1.88
978.882	0.88
979.609	1.88
980.335	0.88
981.062	2.88
981.788	-0.12
982.514	1.88
983.24	0.88
983.967	0.88
984.693	1.88
985.419	-0.12
986.144	1.88
986.87	0.88
987.596	-0.12
988.322	-0.12
989.047	-0.12
989.773	0.88
990.498	1.88
991.224	0.88
991.949	0.88
992.674	-0.12
993.399	0.88
994.124	0.88
994.849	-1.12
995.574	2.88
996.299	-0.12
997.024	-1.12
997.749	1.88
998.473	0.88
999.198	0.88
999.922	0.88
1000.647	0.88
1001.371	3.88
1002.095	-1.12
1002.82	-0.12
1003.544	-1.12
1004.268	3.88
1004.992	4.88
1005.716	2.88
1006.439	1.88
1007.163	3.88
1007.887	4.88
1008.611	0.88
1009.334	-0.12
1010.058	2.88
1010.781	-2.12
1011.504	0.88
1012.228	-1.12
1012.951	-1.12
1013.674	-0.12
1014.397	-1.12
1015.12	0.88
