节点500_565_QEPB04081__332__09-55-56-437.txt的数据

Date: Thu Nov 13 09:55:56 CST 2025
User: PC
Spectrometer: QEPB0408
触发模式: 0
积分时间 (秒): 1.000000E-2
Scans to average: 1
启用暗噪声校正: true
启用非线性校正: false
滑动平均宽度: 0
X轴模式: Wavelengths
Number of Pixels in Spectrum: 1044
>>>>>Begin Spectral Data<<<<<
220.843	4.25
221.644	5.25
222.444	5.25
223.244	3.25
224.045	7.25
224.845	6.25
225.645	6.25
226.445	5.25
227.245	6.25
228.045	4.25
228.845	4.25
229.645	5.25
230.444	4.25
231.244	5.25
232.043	7.25
232.843	9.25
233.642	8.25
234.442	9.25
235.241	8.25
236.04	8.25
236.839	8.25
237.638	9.25
238.437	10.25
239.236	8.25
240.035	12.25
240.833	10.25
241.632	12.25
242.43	11.25
243.229	10.25
244.027	10.25
244.826	13.25
245.624	9.25
246.422	14.25
247.22	12.25
248.018	13.25
248.816	11.25
249.614	10.25
250.412	10.25
251.21	13.25
252.007	13.25
252.805	14.25
253.602	12.25
254.4	11.25
255.197	15.25
255.994	14.25
256.791	15.25
257.589	15.25
258.386	14.25
259.183	18.25
259.979	17.25
260.776	17.25
261.573	19.25
262.37	19.25
263.166	20.25
263.963	21.25
264.759	19.25
265.556	20.25
266.352	22.25
267.148	19.25
267.944	24.25
268.74	25.25
269.536	24.25
270.332	25.25
271.128	23.25
271.924	22.25
272.719	29.25
273.515	27.25
274.311	25.25
275.106	25.25
275.901	29.25
276.697	25.25
277.492	31.25
278.287	33.25
279.082	26.25
279.877	30.25
280.672	30.25
281.467	31.25
282.262	25.25
283.056	29.25
283.851	31.25
284.646	29.25
285.44	30.25
286.234	30.25
287.029	29.25
287.823	28.25
288.617	27.25
289.411	27.25
290.205	28.25
290.999	28.25
291.793	27.25
292.587	26.25
293.381	29.25
294.174	24.25
294.968	25.25
295.761	28.25
296.555	25.25
297.348	24.25
298.141	21.25
298.935	25.25
299.728	22.25
300.521	19.25
301.314	20.25
302.107	21.25
302.899	21.25
303.692	19.25
304.485	18.25
305.277	18.25
306.07	20.25
306.862	19.25
307.655	16.25
308.447	15.25
309.239	20.25
310.031	17.25
310.823	17.25
311.615	17.25
312.407	17.25
313.199	13.25
313.991	14.25
314.783	14.25
315.574	13.25
316.366	13.25
317.157	14.25
317.949	12.25
318.74	12.25
319.531	13.25
320.322	15.25
321.113	12.25
321.904	11.25
322.695	10.25
323.486	11.25
324.277	13.25
325.068	10.25
325.858	12.25
326.649	12.25
327.439	12.25
328.23	8.25
329.02	12.25
329.81	11.25
330.6	10.25
331.391	11.25
332.181	9.25
332.971	9.25
333.76	10.25
334.55	13.25
335.34	11.25
336.13	11.25
336.919	10.25
337.709	9.25
338.498	10.25
339.287	9.25
340.077	10.25
340.866	8.25
341.655	9.25
342.444	11.25
343.233	9.25
344.022	10.25
344.811	9.25
345.6	11.25
346.388	9.25
347.177	9.25
347.965	9.25
348.754	9.25
349.542	8.25
350.33	8.25
351.119	10.25
351.907	7.25
352.695	9.25
353.483	10.25
354.271	11.25
355.059	9.25
355.846	9.25
356.634	12.25
357.422	8.25
358.209	9.25
358.997	9.25
359.784	9.25
360.571	8.25
361.359	7.25
362.146	11.25
362.933	9.25
363.72	7.25
364.507	8.25
365.294	8.25
366.081	7.25
366.867	8.25
367.654	9.25
368.44	8.25
369.227	7.25
370.013	8.25
370.8	6.25
371.586	10.25
372.372	7.25
373.158	10.25
373.944	11.25
374.73	8.25
375.516	9.25
376.302	6.25
377.088	9.25
377.873	8.25
378.659	11.25
379.445	7.25
380.23	6.25
381.015	9.25
381.801	8.25
382.586	9.25
383.371	9.25
384.156	8.25
384.941	8.25
385.726	9.25
386.511	10.25
387.296	7.25
388.08	7.25
388.865	7.25
389.649	9.25
390.434	8.25
391.218	10.25
392.003	10.25
392.787	10.25
393.571	10.25
394.355	9.25
395.139	9.25
395.923	10.25
396.707	11.25
397.491	10.25
398.274	10.25
399.058	10.25
399.842	10.25
400.625	9.25
401.408	12.25
402.192	12.25
402.975	13.25
403.758	11.25
404.541	13.25
405.324	13.25
406.107	12.25
406.89	13.25
407.673	12.25
408.456	12.25
409.238	16.25
410.021	13.25
410.803	15.25
411.586	16.25
412.368	15.25
413.151	15.25
413.933	14.25
414.715	16.25
415.497	12.25
416.279	15.25
417.061	14.25
417.843	17.25
418.624	19.25
419.406	15.25
420.188	17.25
420.969	19.25
421.751	20.25
422.532	22.25
423.313	18.25
424.095	19.25
424.876	21.25
425.657	21.25
426.438	23.25
427.219	23.25
428	21.25
428.78	23.25
429.561	25.25
430.342	24.25
431.122	27.25
431.903	27.25
432.683	25.25
433.464	26.25
434.244	28.25
435.024	31.25
435.804	36.25
436.584	33.25
437.364	38.25
438.144	40.25
438.924	39.25
439.704	40.25
440.483	46.25
441.263	51.25
442.042	50.25
442.822	52.25
443.601	56.25
444.38	63.25
445.16	65.25
445.939	75.25
446.718	71.25
447.497	89.25
448.276	95.25
449.054	104.25
449.833	111.25
450.612	125.25
451.391	132.25
452.169	150.25
452.948	166.25
453.726	178.25
454.504	195.25
455.282	225.25
456.061	250.25
456.839	273.25
457.617	304.25
458.395	337.25
459.172	380.25
459.95	423.25
460.728	475.25
461.506	529.25
462.283	590.25
463.061	640.25
463.838	723.25
464.615	811.25
465.393	900.25
466.17	999.25
466.947	1116.25
467.724	1242.25
468.501	1363.25
469.278	1505.25
470.055	1695.25
470.831	1871.25
471.608	2047.25
472.385	2295.25
473.161	2506.25
473.938	2786.25
474.714	3040.25
475.49	3341.25
476.266	3687.25
477.043	4063.25
477.819	4447.25
478.595	4855.25
479.371	5313.25
480.146	5750.25
480.922	6347.25
481.698	6955.25
482.473	7515.25
483.249	8185.25
484.024	8945.25
484.8	9710.25
485.575	10569.25
486.35	11504.25
487.126	12439.25
487.901	13434.25
488.676	14599.25
489.451	15768.25
490.225	17044.25
491	18321.25
491.775	19735.25
492.55	21167.25
493.324	22613.25
494.099	24171.25
494.873	25742.25
495.647	27374.25
496.422	28935.25
497.196	30508.25
497.97	32058.25
498.744	33456.25
499.518	34775.25
500.292	36068.25
501.066	37228.25
501.839	38376.25
502.613	39169.25
503.387	39930.25
504.16	40538.25
504.934	40795.25
505.707	40795.25
506.48	40677.25
507.253	40474.25
508.027	39896.25
508.8	39239.25
509.573	38460.25
510.346	37377.25
511.118	36392.25
511.891	35465.25
512.664	34274.25
513.437	32990.25
514.209	31739.25
514.982	30515.25
515.754	29341.25
516.526	28092.25
517.298	26937.25
518.071	25883.25
518.843	24776.25
519.615	23776.25
520.387	22853.25
521.159	22020.25
521.93	21063.25
522.702	20189.25
523.474	19456.25
524.245	18576.25
525.017	17805.25
525.788	17107.25
526.56	16354.25
527.331	15561.25
528.102	14842.25
528.873	14154.25
529.644	13464.25
530.415	12764.25
531.186	12149.25
531.957	11565.25
532.728	10968.25
533.498	10399.25
534.269	9839.25
535.039	9278.25
535.81	8763.25
536.58	8329.25
537.351	7861.25
538.121	7454.25
538.891	7019.25
539.661	6700.25
540.431	6327.25
541.201	5991.25
541.971	5666.25
542.741	5383.25
543.51	5087.25
544.28	4820.25
545.05	4607.25
545.819	4361.25
546.588	4161.25
547.358	3944.25
548.127	3750.25
548.896	3577.25
549.665	3401.25
550.434	3233.25
551.203	3083.25
551.972	2900.25
552.741	2753.25
553.51	2608.25
554.278	2438.25
555.047	2291.25
555.815	2192.25
556.584	2088.25
557.352	1981.25
558.121	1845.25
558.889	1739.25
559.657	1647.25
560.425	1552.25
561.193	1472.25
561.961	1400.25
562.729	1326.25
563.496	1253.25
564.264	1187.25
565.032	1116.25
565.799	1055.25
566.567	1010.25
567.334	930.25
568.101	891.25
568.869	835.25
569.636	795.25
570.403	751.25
571.17	709.25
571.937	678.25
572.704	638.25
573.471	603.25
574.237	558.25
575.004	530.25
575.771	499.25
576.537	480.25
577.303	449.25
578.07	417.25
578.836	391.25
579.602	370.25
580.368	351.25
581.134	334.25
581.9	319.25
582.666	299.25
583.432	294.25
584.198	276.25
584.964	260.25
585.729	246.25
586.495	228.25
587.26	217.25
588.025	210.25
588.791	198.25
589.556	187.25
590.321	181.25
591.086	173.25
591.851	165.25
592.616	154.25
593.381	147.25
594.146	142.25
594.911	136.25
595.675	124.25
596.44	124.25
597.204	116.25
597.969	113.25
598.733	108.25
599.497	106.25
600.261	97.25
601.025	89.25
601.79	90.25
602.553	88.25
603.317	85.25
604.081	78.25
604.845	76.25
605.609	70.25
606.372	69.25
607.136	68.25
607.899	64.25
608.662	63.25
609.426	60.25
610.189	57.25
610.952	54.25
611.715	54.25
612.478	53.25
613.241	49.25
614.004	43.25
614.767	46.25
615.529	44.25
616.292	44.25
617.055	43.25
617.817	41.25
618.579	37.25
619.342	41.25
620.104	37.25
620.866	35.25
621.628	33.25
622.39	32.25
623.152	32.25
623.914	31.25
624.676	28.25
625.438	30.25
626.199	24.25
626.961	28.25
627.722	24.25
628.484	26.25
629.245	23.25
630.006	23.25
630.768	22.25
631.529	23.25
632.29	19.25
633.051	21.25
633.812	22.25
634.573	20.25
635.333	21.25
636.094	20.25
636.855	18.25
637.615	17.25
638.376	18.25
639.136	17.25
639.896	17.25
640.657	16.25
641.417	14.25
642.177	13.25
642.937	20.25
643.697	13.25
644.457	12.25
645.216	14.25
645.976	12.25
646.736	12.25
647.495	13.25
648.255	15.25
649.014	12.25
649.774	13.25
650.533	12.25
651.292	13.25
652.051	14.25
652.81	9.25
653.569	13.25
654.328	10.25
655.087	9.25
655.846	11.25
656.604	11.25
657.363	11.25
658.121	11.25
658.88	12.25
659.638	11.25
660.397	12.25
661.155	9.25
661.913	13.25
662.671	8.25
663.429	9.25
664.187	9.25
664.945	8.25
665.703	10.25
666.46	10.25
667.218	9.25
667.976	9.25
668.733	10.25
669.49	7.25
670.248	7.25
671.005	9.25
671.762	6.25
672.519	7.25
673.276	8.25
674.033	8.25
674.79	10.25
675.547	9.25
676.304	7.25
677.06	5.25
677.817	8.25
678.574	7.25
679.33	6.25
680.086	8.25
680.843	7.25
681.599	9.25
682.355	5.25
683.111	8.25
683.867	6.25
684.623	8.25
685.379	7.25
686.135	5.25
686.89	8.25
687.646	5.25
688.402	7.25
689.157	8.25
689.912	2.25
690.668	5.25
691.423	8.25
692.178	7.25
692.933	5.25
693.688	7.25
694.443	7.25
695.198	8.25
695.953	7.25
696.708	6.25
697.462	9.25
698.217	5.25
698.972	9.25
699.726	6.25
700.48	7.25
701.235	8.25
701.989	6.25
702.743	7.25
703.497	5.25
704.251	6.25
705.005	7.25
705.759	6.25
706.513	9.25
707.266	9.25
708.02	5.25
708.774	6.25
709.527	6.25
710.28	8.25
711.034	3.25
711.787	7.25
712.54	6.25
713.293	7.25
714.046	8.25
714.799	7.25
715.552	6.25
716.305	5.25
717.058	6.25
717.81	6.25
718.563	10.25
719.315	7.25
720.068	5.25
720.82	6.25
721.573	8.25
722.325	7.25
723.077	7.25
723.829	7.25
724.581	5.25
725.333	7.25
726.085	9.25
726.836	6.25
727.588	7.25
728.34	6.25
729.091	6.25
729.843	7.25
730.594	9.25
731.346	7.25
732.097	8.25
732.848	8.25
733.599	6.25
734.35	7.25
735.101	7.25
735.852	9.25
736.603	9.25
737.354	9.25
738.104	9.25
738.855	7.25
739.605	7.25
740.356	6.25
741.106	9.25
741.856	8.25
742.607	10.25
743.357	9.25
744.107	9.25
744.857	9.25
745.607	6.25
746.357	8.25
747.106	7.25
747.856	9.25
748.606	10.25
749.355	10.25
750.105	10.25
750.854	11.25
751.603	10.25
752.353	7.25
753.102	12.25
753.851	9.25
754.6	12.25
755.349	8.25
756.098	10.25
756.847	10.25
757.595	11.25
758.344	8.25
759.093	10.25
759.841	10.25
760.589	10.25
761.338	9.25
762.086	10.25
762.834	13.25
763.582	12.25
764.331	8.25
765.079	12.25
765.826	11.25
766.574	12.25
767.322	11.25
768.07	9.25
768.817	11.25
769.565	13.25
770.312	13.25
771.06	13.25
771.807	12.25
772.554	13.25
773.302	12.25
774.049	13.25
774.796	10.25
775.543	11.25
776.29	14.25
777.036	11.25
777.783	13.25
778.53	15.25
779.276	13.25
780.023	14.25
780.769	14.25
781.516	13.25
782.262	13.25
783.008	13.25
783.754	12.25
784.5	16.25
785.246	14.25
785.992	15.25
786.738	12.25
787.484	14.25
788.23	14.25
788.975	14.25
789.721	13.25
790.466	11.25
791.212	14.25
791.957	13.25
792.702	15.25
793.447	14.25
794.193	10.25
794.938	12.25
795.683	13.25
796.427	12.25
797.172	13.25
797.917	10.25
798.662	12.25
799.406	11.25
800.151	11.25
800.895	11.25
801.64	12.25
802.384	12.25
803.128	9.25
803.872	12.25
804.616	9.25
805.36	13.25
806.104	11.25
806.848	10.25
807.592	8.25
808.336	9.25
809.079	10.25
809.823	10.25
810.566	9.25
811.31	9.25
812.053	9.25
812.796	9.25
813.539	8.25
814.283	8.25
815.026	8.25
815.769	9.25
816.511	6.25
817.254	7.25
817.997	6.25
818.74	6.25
819.482	6.25
820.225	8.25
820.967	7.25
821.71	9.25
822.452	7.25
823.194	7.25
823.936	7.25
824.678	7.25
825.42	7.25
826.162	4.25
826.904	7.25
827.646	6.25
828.388	6.25
829.129	5.25
829.871	5.25
830.612	6.25
831.354	7.25
832.095	4.25
832.836	4.25
833.577	5.25
834.319	6.25
835.06	7.25
835.801	5.25
836.542	7.25
837.282	5.25
838.023	7.25
838.764	5.25
839.504	6.25
840.245	5.25
840.985	2.25
841.726	7.25
842.466	7.25
843.206	6.25
843.946	5.25
844.687	5.25
845.427	6.25
846.166	4.25
846.906	5.25
847.646	4.25
848.386	3.25
849.125	4.25
849.865	4.25
850.605	6.25
851.344	5.25
852.083	4.25
852.823	7.25
853.562	3.25
854.301	3.25
855.04	4.25
855.779	3.25
856.518	4.25
857.257	3.25
857.995	3.25
858.734	3.25
859.473	1.25
860.211	2.25
860.95	2.25
861.688	4.25
862.426	5.25
863.165	3.25
863.903	5.25
864.641	3.25
865.379	4.25
866.117	3.25
866.855	2.25
867.593	3.25
868.33	5.25
869.068	4.25
869.806	1.25
870.543	1.25
871.28	1.25
872.018	5.25
872.755	4.25
873.492	4.25
874.229	5.25
874.967	1.25
875.703	2.25
876.44	0.25
877.177	2.25
877.914	5.25
878.651	1.25
879.387	-0.75
880.124	2.25
880.86	1.25
881.597	2.25
882.333	3.25
883.069	2.25
883.806	1.25
884.542	1.25
885.278	-1.75
886.014	3.25
886.749	1.25
887.485	2.25
888.221	3.25
888.957	1.25
889.692	2.25
890.428	0.25
891.163	1.25
891.899	-0.75
892.634	1.25
893.369	2.25
894.104	-0.75
894.839	1.25
895.574	2.25
896.309	2.25
897.044	-0.75
897.779	2.25
898.514	0.25
899.248	1.25
899.983	2.25
900.717	1.25
901.452	1.25
902.186	-0.75
902.92	1.25
903.654	0.25
904.389	0.25
905.123	2.25
905.857	1.25
906.59	2.25
907.324	1.25
908.058	1.25
908.792	1.25
909.525	1.25
910.259	-1.75
910.992	1.25
911.726	1.25
912.459	-0.75
913.192	1.25
913.925	0.25
914.658	2.25
915.391	0.25
916.124	1.25
916.857	1.25
917.59	0.25
918.323	2.25
919.055	0.25
919.788	1.25
920.521	1.25
921.253	1.25
921.985	2.25
922.718	-0.75
923.45	4.25
924.182	0.25
924.914	2.25
925.646	4.25
926.378	3.25
927.11	1.25
927.841	0.25
928.573	1.25
929.305	2.25
930.036	1.25
930.768	3.25
931.499	2.25
932.23	0.25
932.962	-0.75
933.693	1.25
934.424	1.25
935.155	-0.75
935.886	0.25
936.617	3.25
937.348	3.25
938.078	4.25
938.809	1.25
939.54	0.25
940.27	1.25
941.001	-1.75
941.731	0.25
942.461	1.25
943.191	3.25
943.922	1.25
944.652	-0.75
945.382	1.25
946.112	0.25
946.841	-0.75
947.571	0.25
948.301	-0.75
949.031	0.25
949.76	-1.75
950.49	1.25
951.219	1.25
951.948	0.25
952.678	1.25
953.407	0.25
954.136	1.25
954.865	1.25
955.594	1.25
956.323	1.25
957.052	2.25
957.78	-1.75
958.509	1.25
959.238	-1.75
959.966	1.25
960.695	1.25
961.423	1.25
962.151	-1.75
962.88	0.25
963.608	1.25
964.336	0.25
965.064	-0.75
965.792	1.25
966.52	1.25
967.247	1.25
967.975	1.25
968.703	0.25
969.43	2.25
970.158	0.25
970.885	1.25
971.613	0.25
972.34	3.25
973.067	1.25
973.794	1.25
974.521	-0.75
975.248	0.25
975.975	1.25
976.702	-0.75
977.429	2.25
978.156	0.25
978.882	-1.75
979.609	0.25
980.335	1.25
981.062	1.25
981.788	0.25
982.514	3.25
983.24	2.25
983.967	1.25
984.693	1.25
985.419	0.25
986.144	-0.75
986.87	-0.75
987.596	1.25
988.322	0.25
989.047	1.25
989.773	2.25
990.498	1.25
991.224	2.25
991.949	1.25
992.674	0.25
993.399	1.25
994.124	1.25
994.849	-1.75
995.574	0.25
996.299	2.25
997.024	-0.75
997.749	0.25
998.473	0.25
999.198	0.25
999.922	1.25
1000.647	1.25
1001.371	3.25
1002.095	-0.75
1002.82	-0.75
1003.544	-1.75
1004.268	5.25
1004.992	4.25
1005.716	5.25
1006.439	5.25
1007.163	3.25
1007.887	6.25
1008.611	-0.75
1009.334	0.25
1010.058	1.25
1010.781	2.25
1011.504	3.25
1012.228	1.25
1012.951	0.25
1013.674	0.25
1014.397	-0.75
1015.12	0.25
