节点500_565_QEPB04081__228__09-54-12-755.txt的数据

Date: Thu Nov 13 09:54:12 CST 2025
User: PC
Spectrometer: QEPB0408
触发模式: 0
积分时间 (秒): 1.000000E-2
Scans to average: 1
启用暗噪声校正: true
启用非线性校正: false
滑动平均宽度: 0
X轴模式: Wavelengths
Number of Pixels in Spectrum: 1044
>>>>>Begin Spectral Data<<<<<
220.843	4.62
221.644	4.62
222.444	3.62
223.244	5.62
224.045	5.62
224.845	4.62
225.645	5.62
226.445	5.62
227.245	3.62
228.045	5.62
228.845	7.62
229.645	4.62
230.444	4.62
231.244	5.62
232.043	8.62
232.843	5.62
233.642	8.62
234.442	7.62
235.241	8.62
236.04	9.62
236.839	6.62
237.638	5.62
238.437	11.62
239.236	8.62
240.035	7.62
240.833	9.62
241.632	7.62
242.43	8.62
243.229	10.62
244.027	11.62
244.826	11.62
245.624	9.62
246.422	11.62
247.22	9.62
248.018	10.62
248.816	11.62
249.614	13.62
250.412	14.62
251.21	15.62
252.007	12.62
252.805	13.62
253.602	13.62
254.4	16.62
255.197	16.62
255.994	15.62
256.791	16.62
257.589	17.62
258.386	14.62
259.183	16.62
259.979	16.62
260.776	20.62
261.573	20.62
262.37	19.62
263.166	22.62
263.963	19.62
264.759	19.62
265.556	18.62
266.352	24.62
267.148	22.62
267.944	25.62
268.74	22.62
269.536	22.62
270.332	23.62
271.128	26.62
271.924	25.62
272.719	29.62
273.515	25.62
274.311	26.62
275.106	28.62
275.901	28.62
276.697	30.62
277.492	30.62
278.287	27.62
279.082	28.62
279.877	29.62
280.672	30.62
281.467	30.62
282.262	28.62
283.056	31.62
283.851	29.62
284.646	29.62
285.44	29.62
286.234	29.62
287.029	29.62
287.823	27.62
288.617	28.62
289.411	28.62
290.205	26.62
290.999	28.62
291.793	25.62
292.587	28.62
293.381	25.62
294.174	25.62
294.968	25.62
295.761	26.62
296.555	22.62
297.348	24.62
298.141	20.62
298.935	26.62
299.728	23.62
300.521	22.62
301.314	20.62
302.107	20.62
302.899	19.62
303.692	20.62
304.485	18.62
305.277	19.62
306.07	21.62
306.862	19.62
307.655	17.62
308.447	18.62
309.239	14.62
310.031	16.62
310.823	16.62
311.615	15.62
312.407	13.62
313.199	16.62
313.991	15.62
314.783	17.62
315.574	12.62
316.366	11.62
317.157	12.62
317.949	12.62
318.74	13.62
319.531	9.62
320.322	11.62
321.113	11.62
321.904	12.62
322.695	14.62
323.486	12.62
324.277	12.62
325.068	11.62
325.858	11.62
326.649	10.62
327.439	10.62
328.23	9.62
329.02	11.62
329.81	12.62
330.6	12.62
331.391	12.62
332.181	7.62
332.971	13.62
333.76	10.62
334.55	8.62
335.34	8.62
336.13	10.62
336.919	11.62
337.709	8.62
338.498	9.62
339.287	9.62
340.077	10.62
340.866	9.62
341.655	9.62
342.444	8.62
343.233	6.62
344.022	8.62
344.811	11.62
345.6	10.62
346.388	10.62
347.177	8.62
347.965	11.62
348.754	8.62
349.542	11.62
350.33	9.62
351.119	11.62
351.907	9.62
352.695	10.62
353.483	5.62
354.271	7.62
355.059	8.62
355.846	9.62
356.634	10.62
357.422	9.62
358.209	11.62
358.997	9.62
359.784	9.62
360.571	7.62
361.359	7.62
362.146	8.62
362.933	9.62
363.72	7.62
364.507	10.62
365.294	7.62
366.081	9.62
366.867	7.62
367.654	8.62
368.44	9.62
369.227	6.62
370.013	8.62
370.8	6.62
371.586	9.62
372.372	6.62
373.158	8.62
373.944	10.62
374.73	8.62
375.516	8.62
376.302	6.62
377.088	10.62
377.873	6.62
378.659	9.62
379.445	8.62
380.23	10.62
381.015	7.62
381.801	8.62
382.586	7.62
383.371	8.62
384.156	8.62
384.941	10.62
385.726	8.62
386.511	8.62
387.296	9.62
388.08	8.62
388.865	7.62
389.649	9.62
390.434	8.62
391.218	11.62
392.003	10.62
392.787	8.62
393.571	10.62
394.355	10.62
395.139	11.62
395.923	11.62
396.707	12.62
397.491	11.62
398.274	10.62
399.058	10.62
399.842	10.62
400.625	11.62
401.408	13.62
402.192	11.62
402.975	12.62
403.758	12.62
404.541	12.62
405.324	15.62
406.107	13.62
406.89	12.62
407.673	14.62
408.456	13.62
409.238	13.62
410.021	13.62
410.803	12.62
411.586	16.62
412.368	12.62
413.151	16.62
413.933	16.62
414.715	15.62
415.497	15.62
416.279	13.62
417.061	17.62
417.843	16.62
418.624	17.62
419.406	19.62
420.188	16.62
420.969	16.62
421.751	20.62
422.532	16.62
423.313	19.62
424.095	16.62
424.876	20.62
425.657	18.62
426.438	22.62
427.219	20.62
428	22.62
428.78	22.62
429.561	24.62
430.342	24.62
431.122	28.62
431.903	27.62
432.683	29.62
433.464	30.62
434.244	31.62
435.024	28.62
435.804	32.62
436.584	34.62
437.364	36.62
438.144	34.62
438.924	41.62
439.704	41.62
440.483	45.62
441.263	49.62
442.042	51.62
442.822	53.62
443.601	56.62
444.38	62.62
445.16	65.62
445.939	70.62
446.718	76.62
447.497	79.62
448.276	93.62
449.054	100.62
449.833	107.62
450.612	114.62
451.391	130.62
452.169	141.62
452.948	160.62
453.726	174.62
454.504	191.62
455.282	211.62
456.061	239.62
456.839	263.62
457.617	299.62
458.395	322.62
459.172	369.62
459.95	410.62
460.728	452.62
461.506	509.62
462.283	568.62
463.061	621.62
463.838	712.62
464.615	798.62
465.393	887.62
466.17	987.62
466.947	1103.62
467.724	1234.62
468.501	1358.62
469.278	1498.62
470.055	1675.62
470.831	1849.62
471.608	2064.62
472.385	2287.62
473.161	2535.62
473.938	2781.62
474.714	3056.62
475.49	3369.62
476.266	3739.62
477.043	4050.62
477.819	4506.62
478.595	4959.62
479.371	5432.62
480.146	5935.62
480.922	6528.62
481.698	7090.62
482.473	7759.62
483.249	8464.62
484.024	9216.62
484.8	10106.62
485.575	11007.62
486.35	11895.62
487.126	12952.62
487.901	14129.62
488.676	15336.62
489.451	16678.62
490.225	17997.62
491	19332.62
491.775	20884.62
492.55	22435.62
493.324	24011.62
494.099	25601.62
494.873	27237.62
495.647	29008.62
496.422	30650.62
497.196	32342.62
497.97	33871.62
498.744	35402.62
499.518	36688.62
500.292	38052.62
501.066	39284.62
501.839	40293.62
502.613	41014.62
503.387	41563.62
504.16	42194.62
504.934	42372.62
505.707	42238.62
506.48	42071.62
507.253	41633.62
508.027	40915.62
508.8	40064.62
509.573	39084.62
510.346	37992.62
511.118	36832.62
511.891	35774.62
512.664	34479.62
513.437	33127.62
514.209	31771.62
514.982	30505.62
515.754	29226.62
516.526	28071.62
517.298	26859.62
518.071	25822.62
518.843	24693.62
519.615	23686.62
520.387	22768.62
521.159	21840.62
521.93	20944.62
522.702	20052.62
523.474	19298.62
524.245	18499.62
525.017	17790.62
525.788	17003.62
526.56	16199.62
527.331	15406.62
528.102	14710.62
528.873	13986.62
529.644	13309.62
530.415	12581.62
531.186	11982.62
531.957	11388.62
532.728	10743.62
533.498	10223.62
534.269	9632.62
535.039	9119.62
535.81	8623.62
536.58	8161.62
537.351	7746.62
538.121	7274.62
538.891	6908.62
539.661	6552.62
540.431	6192.62
541.201	5874.62
541.971	5532.62
542.741	5244.62
543.51	4966.62
544.28	4744.62
545.05	4495.62
545.819	4288.62
546.588	4075.62
547.358	3869.62
548.127	3679.62
548.896	3495.62
549.665	3322.62
550.434	3127.62
551.203	2964.62
551.972	2809.62
552.741	2679.62
553.51	2504.62
554.278	2365.62
555.047	2235.62
555.815	2125.62
556.584	2012.62
557.352	1910.62
558.121	1794.62
558.889	1701.62
559.657	1595.62
560.425	1504.62
561.193	1427.62
561.961	1346.62
562.729	1269.62
563.496	1209.62
564.264	1152.62
565.032	1095.62
565.799	1018.62
566.567	959.62
567.334	914.62
568.101	861.62
568.869	821.62
569.636	775.62
570.403	728.62
571.17	694.62
571.937	656.62
572.704	615.62
573.471	573.62
574.237	543.62
575.004	508.62
575.771	487.62
576.537	458.62
577.303	429.62
578.07	407.62
578.836	380.62
579.602	360.62
580.368	340.62
581.134	323.62
581.9	305.62
582.666	297.62
583.432	278.62
584.198	264.62
584.964	247.62
585.729	237.62
586.495	226.62
587.26	221.62
588.025	204.62
588.791	196.62
589.556	179.62
590.321	173.62
591.086	167.62
591.851	160.62
592.616	151.62
593.381	142.62
594.146	137.62
594.911	126.62
595.675	123.62
596.44	119.62
597.204	111.62
597.969	109.62
598.733	104.62
599.497	98.62
600.261	92.62
601.025	89.62
601.79	89.62
602.553	84.62
603.317	82.62
604.081	74.62
604.845	74.62
605.609	73.62
606.372	69.62
607.136	66.62
607.899	60.62
608.662	60.62
609.426	56.62
610.189	55.62
610.952	55.62
611.715	52.62
612.478	49.62
613.241	50.62
614.004	45.62
614.767	42.62
615.529	43.62
616.292	42.62
617.055	39.62
617.817	37.62
618.579	35.62
619.342	38.62
620.104	34.62
620.866	35.62
621.628	32.62
622.39	30.62
623.152	31.62
623.914	28.62
624.676	29.62
625.438	28.62
626.199	26.62
626.961	27.62
627.722	25.62
628.484	27.62
629.245	21.62
630.006	23.62
630.768	22.62
631.529	23.62
632.29	20.62
633.051	18.62
633.812	17.62
634.573	19.62
635.333	19.62
636.094	18.62
636.855	17.62
637.615	15.62
638.376	18.62
639.136	17.62
639.896	16.62
640.657	17.62
641.417	13.62
642.177	14.62
642.937	16.62
643.697	13.62
644.457	16.62
645.216	16.62
645.976	12.62
646.736	12.62
647.495	13.62
648.255	12.62
649.014	12.62
649.774	9.62
650.533	12.62
651.292	13.62
652.051	11.62
652.81	9.62
653.569	12.62
654.328	10.62
655.087	12.62
655.846	8.62
656.604	10.62
657.363	13.62
658.121	10.62
658.88	9.62
659.638	9.62
660.397	7.62
661.155	10.62
661.913	8.62
662.671	11.62
663.429	7.62
664.187	9.62
664.945	11.62
665.703	7.62
666.46	8.62
667.218	7.62
667.976	6.62
668.733	6.62
669.49	7.62
670.248	8.62
671.005	7.62
671.762	6.62
672.519	8.62
673.276	7.62
674.033	8.62
674.79	6.62
675.547	10.62
676.304	8.62
677.06	7.62
677.817	7.62
678.574	6.62
679.33	7.62
680.086	9.62
680.843	6.62
681.599	6.62
682.355	8.62
683.111	9.62
683.867	4.62
684.623	6.62
685.379	6.62
686.135	4.62
686.89	5.62
687.646	6.62
688.402	5.62
689.157	6.62
689.912	5.62
690.668	5.62
691.423	5.62
692.178	4.62
692.933	4.62
693.688	7.62
694.443	6.62
695.198	4.62
695.953	5.62
696.708	6.62
697.462	4.62
698.217	3.62
698.972	8.62
699.726	3.62
700.48	5.62
701.235	5.62
701.989	5.62
702.743	1.62
703.497	5.62
704.251	7.62
705.005	6.62
705.759	5.62
706.513	5.62
707.266	3.62
708.02	5.62
708.774	7.62
709.527	7.62
710.28	6.62
711.034	4.62
711.787	5.62
712.54	5.62
713.293	4.62
714.046	8.62
714.799	6.62
715.552	5.62
716.305	7.62
717.058	4.62
717.81	8.62
718.563	6.62
719.315	4.62
720.068	6.62
720.82	6.62
721.573	5.62
722.325	5.62
723.077	7.62
723.829	4.62
724.581	8.62
725.333	6.62
726.085	6.62
726.836	8.62
727.588	4.62
728.34	6.62
729.091	5.62
729.843	7.62
730.594	6.62
731.346	7.62
732.097	6.62
732.848	7.62
733.599	4.62
734.35	8.62
735.101	6.62
735.852	3.62
736.603	7.62
737.354	5.62
738.104	6.62
738.855	7.62
739.605	9.62
740.356	6.62
741.106	8.62
741.856	7.62
742.607	7.62
743.357	9.62
744.107	10.62
744.857	7.62
745.607	10.62
746.357	6.62
747.106	6.62
747.856	7.62
748.606	6.62
749.355	10.62
750.105	9.62
750.854	9.62
751.603	9.62
752.353	11.62
753.102	9.62
753.851	7.62
754.6	9.62
755.349	7.62
756.098	9.62
756.847	9.62
757.595	10.62
758.344	11.62
759.093	9.62
759.841	12.62
760.589	8.62
761.338	9.62
762.086	9.62
762.834	11.62
763.582	13.62
764.331	12.62
765.079	11.62
765.826	12.62
766.574	8.62
767.322	11.62
768.07	11.62
768.817	12.62
769.565	11.62
770.312	12.62
771.06	11.62
771.807	11.62
772.554	13.62
773.302	14.62
774.049	13.62
774.796	12.62
775.543	12.62
776.29	10.62
777.036	13.62
777.783	11.62
778.53	10.62
779.276	15.62
780.023	13.62
780.769	13.62
781.516	12.62
782.262	16.62
783.008	12.62
783.754	14.62
784.5	15.62
785.246	15.62
785.992	16.62
786.738	13.62
787.484	11.62
788.23	13.62
788.975	14.62
789.721	12.62
790.466	13.62
791.212	11.62
791.957	14.62
792.702	10.62
793.447	12.62
794.193	13.62
794.938	11.62
795.683	10.62
796.427	14.62
797.172	11.62
797.917	12.62
798.662	9.62
799.406	10.62
800.151	10.62
800.895	9.62
801.64	12.62
802.384	9.62
803.128	13.62
803.872	9.62
804.616	8.62
805.36	8.62
806.104	8.62
806.848	9.62
807.592	8.62
808.336	7.62
809.079	7.62
809.823	8.62
810.566	9.62
811.31	6.62
812.053	9.62
812.796	7.62
813.539	8.62
814.283	8.62
815.026	8.62
815.769	7.62
816.511	6.62
817.254	7.62
817.997	8.62
818.74	8.62
819.482	6.62
820.225	6.62
820.967	6.62
821.71	8.62
822.452	6.62
823.194	4.62
823.936	5.62
824.678	5.62
825.42	8.62
826.162	4.62
826.904	7.62
827.646	4.62
828.388	5.62
829.129	7.62
829.871	3.62
830.612	7.62
831.354	4.62
832.095	6.62
832.836	5.62
833.577	7.62
834.319	6.62
835.06	5.62
835.801	5.62
836.542	6.62
837.282	5.62
838.023	5.62
838.764	3.62
839.504	5.62
840.245	6.62
840.985	5.62
841.726	3.62
842.466	2.62
843.206	4.62
843.946	6.62
844.687	4.62
845.427	5.62
846.166	4.62
846.906	5.62
847.646	4.62
848.386	4.62
849.125	1.62
849.865	4.62
850.605	5.62
851.344	3.62
852.083	4.62
852.823	4.62
853.562	4.62
854.301	3.62
855.04	2.62
855.779	4.62
856.518	4.62
857.257	2.62
857.995	1.62
858.734	1.62
859.473	1.62
860.211	4.62
860.95	1.62
861.688	3.62
862.426	2.62
863.165	1.62
863.903	4.62
864.641	3.62
865.379	3.62
866.117	3.62
866.855	2.62
867.593	3.62
868.33	2.62
869.068	0.62
869.806	0.62
870.543	2.62
871.28	3.62
872.018	0.62
872.755	1.62
873.492	2.62
874.229	3.62
874.967	3.62
875.703	2.62
876.44	0.62
877.177	3.62
877.914	0.62
878.651	2.62
879.387	1.62
880.124	0.62
880.86	0.62
881.597	1.62
882.333	0.62
883.069	0.62
883.806	0.62
884.542	0.62
885.278	1.62
886.014	3.62
886.749	-0.38
887.485	0.62
888.221	1.62
888.957	2.62
889.692	0.62
890.428	0.62
891.163	2.62
891.899	0.62
892.634	4.62
893.369	0.62
894.104	2.62
894.839	1.62
895.574	-2.38
896.309	2.62
897.044	1.62
897.779	-0.38
898.514	0.62
899.248	-1.38
899.983	1.62
900.717	0.62
901.452	2.62
902.186	-1.38
902.92	0.62
903.654	0.62
904.389	0.62
905.123	0.62
905.857	-0.38
906.59	-1.38
907.324	-1.38
908.058	0.62
908.792	0.62
909.525	0.62
910.259	2.62
910.992	-1.38
911.726	-0.38
912.459	-1.38
913.192	-0.38
913.925	-0.38
914.658	1.62
915.391	-1.38
916.124	0.62
916.857	0.62
917.59	-0.38
918.323	2.62
919.055	0.62
919.788	-0.38
920.521	1.62
921.253	-0.38
921.985	0.62
922.718	0.62
923.45	0.62
924.182	-1.38
924.914	0.62
925.646	0.62
926.378	-0.38
927.11	0.62
927.841	-1.38
928.573	0.62
929.305	1.62
930.036	1.62
930.768	0.62
931.499	-1.38
932.23	-0.38
932.962	-0.38
933.693	-1.38
934.424	0.62
935.155	0.62
935.886	1.62
936.617	-1.38
937.348	-0.38
938.078	0.62
938.809	-0.38
939.54	-0.38
940.27	0.62
941.001	1.62
941.731	0.62
942.461	1.62
943.191	0.62
943.922	0.62
944.652	0.62
945.382	1.62
946.112	0.62
946.841	0.62
947.571	0.62
948.301	-0.38
949.031	2.62
949.76	0.62
950.49	0.62
951.219	0.62
951.948	-0.38
952.678	0.62
953.407	0.62
954.136	-0.38
954.865	-2.38
955.594	1.62
956.323	-1.38
957.052	-0.38
957.78	1.62
958.509	0.62
959.238	1.62
959.966	0.62
960.695	0.62
961.423	2.62
962.151	-0.38
962.88	0.62
963.608	-0.38
964.336	0.62
965.064	-0.38
965.792	-1.38
966.52	-0.38
967.247	-0.38
967.975	0.62
968.703	0.62
969.43	1.62
970.158	-0.38
970.885	0.62
971.613	-0.38
972.34	-0.38
973.067	0.62
973.794	0.62
974.521	1.62
975.248	0.62
975.975	-0.38
976.702	2.62
977.429	-0.38
978.156	-0.38
978.882	0.62
979.609	1.62
980.335	-0.38
981.062	1.62
981.788	0.62
982.514	0.62
983.24	0.62
983.967	0.62
984.693	0.62
985.419	-0.38
986.144	1.62
986.87	-1.38
987.596	0.62
988.322	1.62
989.047	0.62
989.773	1.62
990.498	1.62
991.224	-0.38
991.949	-0.38
992.674	0.62
993.399	0.62
994.124	0.62
994.849	1.62
995.574	-0.38
996.299	1.62
997.024	-0.38
997.749	-0.38
998.473	-0.38
999.198	-2.38
999.922	1.62
1000.647	0.62
1001.371	3.62
1002.095	-1.38
1002.82	0.62
1003.544	-1.38
1004.268	3.62
1004.992	2.62
1005.716	2.62
1006.439	4.62
1007.163	2.62
1007.887	2.62
1008.611	-1.38
1009.334	1.62
1010.058	0.62
1010.781	-0.38
1011.504	0.62
1012.228	1.62
1012.951	-1.38
1013.674	0.62
1014.397	-0.38
1015.12	-0.38
