节点500_565_QEPB04081__30__09-50-57-101.txt的数据

Date: Thu Nov 13 09:50:57 CST 2025
User: PC
Spectrometer: QEPB0408
触发模式: 0
积分时间 (秒): 1.000000E-2
Scans to average: 1
启用暗噪声校正: true
启用非线性校正: false
滑动平均宽度: 0
X轴模式: Wavelengths
Number of Pixels in Spectrum: 1044
>>>>>Begin Spectral Data<<<<<
220.843	1.62
221.644	4.62
222.444	4.62
223.244	3.62
224.045	4.62
224.845	5.62
225.645	4.62
226.445	6.62
227.245	7.62
228.045	7.62
228.845	8.62
229.645	7.62
230.444	7.62
231.244	4.62
232.043	6.62
232.843	7.62
233.642	9.62
234.442	6.62
235.241	7.62
236.04	8.62
236.839	7.62
237.638	11.62
238.437	10.62
239.236	9.62
240.035	9.62
240.833	9.62
241.632	8.62
242.43	10.62
243.229	9.62
244.027	10.62
244.826	12.62
245.624	9.62
246.422	13.62
247.22	9.62
248.018	13.62
248.816	12.62
249.614	13.62
250.412	16.62
251.21	11.62
252.007	16.62
252.805	13.62
253.602	18.62
254.4	17.62
255.197	15.62
255.994	18.62
256.791	15.62
257.589	14.62
258.386	19.62
259.183	16.62
259.979	19.62
260.776	21.62
261.573	21.62
262.37	21.62
263.166	24.62
263.963	23.62
264.759	27.62
265.556	24.62
266.352	25.62
267.148	26.62
267.944	24.62
268.74	27.62
269.536	25.62
270.332	28.62
271.128	26.62
271.924	30.62
272.719	29.62
273.515	27.62
274.311	29.62
275.106	29.62
275.901	33.62
276.697	29.62
277.492	31.62
278.287	30.62
279.082	33.62
279.877	33.62
280.672	28.62
281.467	32.62
282.262	35.62
283.056	33.62
283.851	33.62
284.646	32.62
285.44	30.62
286.234	29.62
287.029	30.62
287.823	32.62
288.617	32.62
289.411	26.62
290.205	32.62
290.999	25.62
291.793	29.62
292.587	25.62
293.381	29.62
294.174	24.62
294.968	23.62
295.761	23.62
296.555	25.62
297.348	21.62
298.141	24.62
298.935	23.62
299.728	23.62
300.521	20.62
301.314	22.62
302.107	20.62
302.899	22.62
303.692	19.62
304.485	18.62
305.277	21.62
306.07	22.62
306.862	17.62
307.655	19.62
308.447	14.62
309.239	16.62
310.031	16.62
310.823	16.62
311.615	15.62
312.407	14.62
313.199	13.62
313.991	12.62
314.783	14.62
315.574	16.62
316.366	13.62
317.157	10.62
317.949	15.62
318.74	15.62
319.531	12.62
320.322	13.62
321.113	12.62
321.904	13.62
322.695	13.62
323.486	11.62
324.277	12.62
325.068	11.62
325.858	9.62
326.649	10.62
327.439	11.62
328.23	10.62
329.02	9.62
329.81	9.62
330.6	8.62
331.391	11.62
332.181	6.62
332.971	10.62
333.76	12.62
334.55	10.62
335.34	11.62
336.13	11.62
336.919	10.62
337.709	9.62
338.498	12.62
339.287	9.62
340.077	8.62
340.866	11.62
341.655	9.62
342.444	10.62
343.233	10.62
344.022	11.62
344.811	12.62
345.6	10.62
346.388	7.62
347.177	10.62
347.965	8.62
348.754	9.62
349.542	12.62
350.33	13.62
351.119	10.62
351.907	8.62
352.695	9.62
353.483	9.62
354.271	7.62
355.059	9.62
355.846	6.62
356.634	8.62
357.422	10.62
358.209	7.62
358.997	7.62
359.784	11.62
360.571	7.62
361.359	7.62
362.146	6.62
362.933	9.62
363.72	8.62
364.507	9.62
365.294	7.62
366.081	8.62
366.867	10.62
367.654	7.62
368.44	8.62
369.227	8.62
370.013	8.62
370.8	6.62
371.586	9.62
372.372	7.62
373.158	10.62
373.944	8.62
374.73	7.62
375.516	7.62
376.302	8.62
377.088	8.62
377.873	8.62
378.659	8.62
379.445	10.62
380.23	9.62
381.015	8.62
381.801	6.62
382.586	9.62
383.371	10.62
384.156	10.62
384.941	9.62
385.726	8.62
386.511	9.62
387.296	8.62
388.08	9.62
388.865	11.62
389.649	12.62
390.434	11.62
391.218	9.62
392.003	9.62
392.787	11.62
393.571	12.62
394.355	9.62
395.139	11.62
395.923	9.62
396.707	11.62
397.491	12.62
398.274	10.62
399.058	11.62
399.842	11.62
400.625	12.62
401.408	12.62
402.192	12.62
402.975	12.62
403.758	13.62
404.541	14.62
405.324	13.62
406.107	13.62
406.89	13.62
407.673	12.62
408.456	15.62
409.238	14.62
410.021	15.62
410.803	16.62
411.586	18.62
412.368	15.62
413.151	16.62
413.933	17.62
414.715	14.62
415.497	16.62
416.279	16.62
417.061	15.62
417.843	18.62
418.624	17.62
419.406	17.62
420.188	18.62
420.969	20.62
421.751	20.62
422.532	19.62
423.313	20.62
424.095	18.62
424.876	20.62
425.657	19.62
426.438	21.62
427.219	22.62
428	21.62
428.78	25.62
429.561	24.62
430.342	26.62
431.122	25.62
431.903	24.62
432.683	30.62
433.464	29.62
434.244	27.62
435.024	30.62
435.804	34.62
436.584	32.62
437.364	36.62
438.144	36.62
438.924	39.62
439.704	41.62
440.483	42.62
441.263	47.62
442.042	48.62
442.822	50.62
443.601	55.62
444.38	59.62
445.16	65.62
445.939	66.62
446.718	72.62
447.497	81.62
448.276	80.62
449.054	92.62
449.833	99.62
450.612	113.62
451.391	121.62
452.169	129.62
452.948	141.62
453.726	163.62
454.504	183.62
455.282	200.62
456.061	221.62
456.839	248.62
457.617	271.62
458.395	299.62
459.172	335.62
459.95	381.62
460.728	422.62
461.506	473.62
462.283	527.62
463.061	595.62
463.838	652.62
464.615	750.62
465.393	837.62
466.17	925.62
466.947	1036.62
467.724	1156.62
468.501	1296.62
469.278	1445.62
470.055	1603.62
470.831	1796.62
471.608	2011.62
472.385	2226.62
473.161	2487.62
473.938	2752.62
474.714	3049.62
475.49	3372.62
476.266	3740.62
477.043	4145.62
477.819	4597.62
478.595	5067.62
479.371	5541.62
480.146	6157.62
480.922	6795.62
481.698	7464.62
482.473	8211.62
483.249	8986.62
484.024	9902.62
484.8	10810.62
485.575	11888.62
486.35	12972.62
487.126	14212.62
487.901	15477.62
488.676	16911.62
489.451	18313.62
490.225	19951.62
491	21542.62
491.775	23274.62
492.55	25014.62
493.324	26797.62
494.099	28620.62
494.873	30523.62
495.647	32455.62
496.422	34451.62
497.196	36073.62
497.97	37780.62
498.744	39289.62
499.518	40610.62
500.292	41842.62
501.066	43086.62
501.839	43958.62
502.613	44654.62
503.387	45002.62
504.16	45265.62
504.934	44954.62
505.707	44700.62
506.48	44050.62
507.253	43317.62
508.027	42273.62
508.8	41110.62
509.573	39757.62
510.346	38456.62
511.118	37027.62
511.891	35727.62
512.664	34363.62
513.437	32734.62
514.209	31269.62
514.982	29984.62
515.754	28784.62
516.526	27488.62
517.298	26247.62
518.071	25218.62
518.843	24162.62
519.615	23106.62
520.387	22236.62
521.159	21388.62
521.93	20487.62
522.702	19666.62
523.474	18847.62
524.245	18047.62
525.017	17340.62
525.788	16467.62
526.56	15640.62
527.331	14923.62
528.102	14210.62
528.873	13398.62
529.644	12744.62
530.415	12078.62
531.186	11388.62
531.957	10769.62
532.728	10221.62
533.498	9703.62
534.269	9111.62
535.039	8597.62
535.81	8136.62
536.58	7692.62
537.351	7287.62
538.121	6846.62
538.891	6515.62
539.661	6167.62
540.431	5833.62
541.201	5535.62
541.971	5228.62
542.741	4958.62
543.51	4689.62
544.28	4486.62
545.05	4240.62
545.819	4037.62
546.588	3831.62
547.358	3633.62
548.127	3436.62
548.896	3264.62
549.665	3114.62
550.434	2948.62
551.203	2789.62
551.972	2652.62
552.741	2509.62
553.51	2363.62
554.278	2232.62
555.047	2091.62
555.815	1981.62
556.584	1869.62
557.352	1767.62
558.121	1663.62
558.889	1565.62
559.657	1479.62
560.425	1397.62
561.193	1328.62
561.961	1255.62
562.729	1181.62
563.496	1118.62
564.264	1063.62
565.032	1000.62
565.799	940.62
566.567	893.62
567.334	847.62
568.101	802.62
568.869	749.62
569.636	722.62
570.403	670.62
571.17	647.62
571.937	612.62
572.704	557.62
573.471	540.62
574.237	504.62
575.004	473.62
575.771	442.62
576.537	431.62
577.303	399.62
578.07	376.62
578.836	362.62
579.602	336.62
580.368	314.62
581.134	303.62
581.9	290.62
582.666	271.62
583.432	255.62
584.198	247.62
584.964	236.62
585.729	221.62
586.495	207.62
587.26	198.62
588.025	193.62
588.791	179.62
589.556	168.62
590.321	167.62
591.086	154.62
591.851	147.62
592.616	138.62
593.381	136.62
594.146	125.62
594.911	121.62
595.675	117.62
596.44	111.62
597.204	111.62
597.969	103.62
598.733	96.62
599.497	91.62
600.261	89.62
601.025	83.62
601.79	80.62
602.553	81.62
603.317	75.62
604.081	72.62
604.845	71.62
605.609	66.62
606.372	62.62
607.136	61.62
607.899	57.62
608.662	55.62
609.426	53.62
610.189	51.62
610.952	51.62
611.715	45.62
612.478	47.62
613.241	44.62
614.004	43.62
614.767	43.62
615.529	41.62
616.292	40.62
617.055	37.62
617.817	36.62
618.579	33.62
619.342	37.62
620.104	35.62
620.866	32.62
621.628	35.62
622.39	34.62
623.152	27.62
623.914	27.62
624.676	26.62
625.438	28.62
626.199	27.62
626.961	25.62
627.722	24.62
628.484	21.62
629.245	24.62
630.006	21.62
630.768	20.62
631.529	21.62
632.29	21.62
633.051	21.62
633.812	20.62
634.573	17.62
635.333	19.62
636.094	16.62
636.855	15.62
637.615	18.62
638.376	18.62
639.136	17.62
639.896	17.62
640.657	13.62
641.417	17.62
642.177	13.62
642.937	13.62
643.697	16.62
644.457	14.62
645.216	15.62
645.976	17.62
646.736	15.62
647.495	14.62
648.255	11.62
649.014	12.62
649.774	10.62
650.533	13.62
651.292	10.62
652.051	12.62
652.81	9.62
653.569	11.62
654.328	11.62
655.087	12.62
655.846	12.62
656.604	9.62
657.363	11.62
658.121	9.62
658.88	10.62
659.638	10.62
660.397	10.62
661.155	9.62
661.913	8.62
662.671	10.62
663.429	8.62
664.187	7.62
664.945	7.62
665.703	9.62
666.46	8.62
667.218	9.62
667.976	10.62
668.733	6.62
669.49	9.62
670.248	8.62
671.005	8.62
671.762	9.62
672.519	6.62
673.276	10.62
674.033	8.62
674.79	6.62
675.547	4.62
676.304	6.62
677.06	6.62
677.817	6.62
678.574	7.62
679.33	7.62
680.086	7.62
680.843	7.62
681.599	5.62
682.355	6.62
683.111	8.62
683.867	7.62
684.623	6.62
685.379	6.62
686.135	4.62
686.89	7.62
687.646	7.62
688.402	6.62
689.157	6.62
689.912	7.62
690.668	7.62
691.423	7.62
692.178	6.62
692.933	7.62
693.688	4.62
694.443	7.62
695.198	6.62
695.953	5.62
696.708	8.62
697.462	6.62
698.217	6.62
698.972	6.62
699.726	8.62
700.48	7.62
701.235	6.62
701.989	8.62
702.743	6.62
703.497	7.62
704.251	5.62
705.005	6.62
705.759	4.62
706.513	5.62
707.266	6.62
708.02	7.62
708.774	4.62
709.527	7.62
710.28	8.62
711.034	6.62
711.787	7.62
712.54	4.62
713.293	5.62
714.046	8.62
714.799	6.62
715.552	7.62
716.305	6.62
717.058	7.62
717.81	6.62
718.563	7.62
719.315	5.62
720.068	7.62
720.82	8.62
721.573	7.62
722.325	7.62
723.077	8.62
723.829	7.62
724.581	6.62
725.333	8.62
726.085	7.62
726.836	6.62
727.588	6.62
728.34	9.62
729.091	7.62
729.843	6.62
730.594	8.62
731.346	9.62
732.097	8.62
732.848	7.62
733.599	7.62
734.35	7.62
735.101	9.62
735.852	6.62
736.603	10.62
737.354	9.62
738.104	8.62
738.855	9.62
739.605	8.62
740.356	8.62
741.106	10.62
741.856	7.62
742.607	8.62
743.357	10.62
744.107	10.62
744.857	9.62
745.607	10.62
746.357	6.62
747.106	8.62
747.856	10.62
748.606	9.62
749.355	9.62
750.105	10.62
750.854	9.62
751.603	9.62
752.353	13.62
753.102	11.62
753.851	13.62
754.6	10.62
755.349	10.62
756.098	10.62
756.847	12.62
757.595	11.62
758.344	13.62
759.093	12.62
759.841	10.62
760.589	12.62
761.338	11.62
762.086	10.62
762.834	11.62
763.582	13.62
764.331	9.62
765.079	10.62
765.826	12.62
766.574	13.62
767.322	13.62
768.07	15.62
768.817	12.62
769.565	18.62
770.312	13.62
771.06	16.62
771.807	15.62
772.554	12.62
773.302	12.62
774.049	16.62
774.796	14.62
775.543	17.62
776.29	12.62
777.036	15.62
777.783	12.62
778.53	17.62
779.276	14.62
780.023	15.62
780.769	15.62
781.516	12.62
782.262	15.62
783.008	14.62
783.754	14.62
784.5	14.62
785.246	15.62
785.992	14.62
786.738	13.62
787.484	14.62
788.23	12.62
788.975	13.62
789.721	14.62
790.466	12.62
791.212	14.62
791.957	13.62
792.702	15.62
793.447	10.62
794.193	13.62
794.938	14.62
795.683	13.62
796.427	12.62
797.172	13.62
797.917	13.62
798.662	12.62
799.406	12.62
800.151	11.62
800.895	9.62
801.64	13.62
802.384	8.62
803.128	9.62
803.872	11.62
804.616	8.62
805.36	9.62
806.104	10.62
806.848	11.62
807.592	9.62
808.336	9.62
809.079	10.62
809.823	8.62
810.566	8.62
811.31	9.62
812.053	9.62
812.796	8.62
813.539	7.62
814.283	7.62
815.026	6.62
815.769	9.62
816.511	6.62
817.254	8.62
817.997	9.62
818.74	5.62
819.482	5.62
820.225	5.62
820.967	8.62
821.71	6.62
822.452	6.62
823.194	6.62
823.936	7.62
824.678	3.62
825.42	9.62
826.162	4.62
826.904	6.62
827.646	9.62
828.388	3.62
829.129	6.62
829.871	4.62
830.612	2.62
831.354	3.62
832.095	7.62
832.836	4.62
833.577	3.62
834.319	4.62
835.06	5.62
835.801	6.62
836.542	5.62
837.282	5.62
838.023	5.62
838.764	5.62
839.504	6.62
840.245	2.62
840.985	6.62
841.726	3.62
842.466	5.62
843.206	4.62
843.946	3.62
844.687	5.62
845.427	5.62
846.166	5.62
846.906	5.62
847.646	3.62
848.386	3.62
849.125	4.62
849.865	6.62
850.605	4.62
851.344	5.62
852.083	3.62
852.823	4.62
853.562	4.62
854.301	4.62
855.04	3.62
855.779	4.62
856.518	6.62
857.257	4.62
857.995	4.62
858.734	2.62
859.473	3.62
860.211	6.62
860.95	3.62
861.688	2.62
862.426	1.62
863.165	6.62
863.903	2.62
864.641	3.62
865.379	1.62
866.117	0.62
866.855	5.62
867.593	4.62
868.33	2.62
869.068	3.62
869.806	3.62
870.543	4.62
871.28	2.62
872.018	2.62
872.755	1.62
873.492	3.62
874.229	2.62
874.967	2.62
875.703	1.62
876.44	2.62
877.177	2.62
877.914	3.62
878.651	1.62
879.387	1.62
880.124	0.62
880.86	1.62
881.597	0.62
882.333	1.62
883.069	2.62
883.806	1.62
884.542	0.62
885.278	1.62
886.014	1.62
886.749	1.62
887.485	1.62
888.221	0.62
888.957	0.62
889.692	0.62
890.428	0.62
891.163	1.62
891.899	-0.38
892.634	2.62
893.369	-0.38
894.104	3.62
894.839	1.62
895.574	2.62
896.309	1.62
897.044	-1.38
897.779	1.62
898.514	0.62
899.248	1.62
899.983	1.62
900.717	0.62
901.452	1.62
902.186	-1.38
902.92	3.62
903.654	1.62
904.389	2.62
905.123	0.62
905.857	2.62
906.59	0.62
907.324	0.62
908.058	3.62
908.792	-1.38
909.525	1.62
910.259	1.62
910.992	2.62
911.726	1.62
912.459	1.62
913.192	2.62
913.925	1.62
914.658	-0.38
915.391	0.62
916.124	3.62
916.857	2.62
917.59	1.62
918.323	2.62
919.055	-0.38
919.788	1.62
920.521	-1.38
921.253	0.62
921.985	1.62
922.718	0.62
923.45	2.62
924.182	-1.38
924.914	0.62
925.646	-0.38
926.378	-0.38
927.11	2.62
927.841	0.62
928.573	-0.38
929.305	0.62
930.036	1.62
930.768	0.62
931.499	2.62
932.23	-0.38
932.962	1.62
933.693	-0.38
934.424	0.62
935.155	-0.38
935.886	-0.38
936.617	2.62
937.348	0.62
938.078	0.62
938.809	0.62
939.54	-0.38
940.27	1.62
941.001	1.62
941.731	1.62
942.461	-0.38
943.191	-0.38
943.922	1.62
944.652	0.62
945.382	1.62
946.112	1.62
946.841	-0.38
947.571	-1.38
948.301	-1.38
949.031	-0.38
949.76	0.62
950.49	0.62
951.219	0.62
951.948	-2.38
952.678	1.62
953.407	-0.38
954.136	0.62
954.865	-0.38
955.594	0.62
956.323	0.62
957.052	1.62
957.78	1.62
958.509	3.62
959.238	1.62
959.966	0.62
960.695	-0.38
961.423	2.62
962.151	2.62
962.88	1.62
963.608	0.62
964.336	1.62
965.064	0.62
965.792	0.62
966.52	0.62
967.247	1.62
967.975	-0.38
968.703	2.62
969.43	-0.38
970.158	-2.38
970.885	2.62
971.613	0.62
972.34	-0.38
973.067	-1.38
973.794	-0.38
974.521	1.62
975.248	0.62
975.975	0.62
976.702	0.62
977.429	0.62
978.156	0.62
978.882	1.62
979.609	3.62
980.335	2.62
981.062	0.62
981.788	-1.38
982.514	1.62
983.24	2.62
983.967	1.62
984.693	-0.38
985.419	0.62
986.144	2.62
986.87	-1.38
987.596	2.62
988.322	2.62
989.047	-0.38
989.773	0.62
990.498	1.62
991.224	1.62
991.949	0.62
992.674	0.62
993.399	0.62
994.124	-1.38
994.849	1.62
995.574	0.62
996.299	1.62
997.024	-1.38
997.749	1.62
998.473	-1.38
999.198	1.62
999.922	-1.38
1000.647	-0.38
1001.371	4.62
1002.095	0.62
1002.82	-1.38
1003.544	-1.38
1004.268	0.62
1004.992	4.62
1005.716	5.62
1006.439	3.62
1007.163	2.62
1007.887	8.62
1008.611	1.62
1009.334	1.62
1010.058	0.62
1010.781	2.62
1011.504	2.62
1012.228	1.62
1012.951	-1.38
1013.674	-0.38
1014.397	-0.38
1015.12	-0.38
