节点500_565_QEPB04081__347__09-56-11-410.txt的数据

Date: Thu Nov 13 09:56:11 CST 2025
User: PC
Spectrometer: QEPB0408
触发模式: 0
积分时间 (秒): 1.000000E-2
Scans to average: 1
启用暗噪声校正: true
启用非线性校正: false
滑动平均宽度: 0
X轴模式: Wavelengths
Number of Pixels in Spectrum: 1044
>>>>>Begin Spectral Data<<<<<
220.843	2.38
221.644	3.38
222.444	3.38
223.244	4.38
224.045	6.38
224.845	4.38
225.645	4.38
226.445	3.38
227.245	6.38
228.045	4.38
228.845	6.38
229.645	7.38
230.444	5.38
231.244	6.38
232.043	4.38
232.843	8.38
233.642	6.38
234.442	6.38
235.241	8.38
236.04	8.38
236.839	9.38
237.638	8.38
238.437	7.38
239.236	8.38
240.035	9.38
240.833	8.38
241.632	11.38
242.43	9.38
243.229	7.38
244.027	11.38
244.826	8.38
245.624	9.38
246.422	9.38
247.22	9.38
248.018	10.38
248.816	11.38
249.614	8.38
250.412	10.38
251.21	16.38
252.007	13.38
252.805	13.38
253.602	12.38
254.4	13.38
255.197	14.38
255.994	17.38
256.791	17.38
257.589	12.38
258.386	15.38
259.183	18.38
259.979	16.38
260.776	15.38
261.573	17.38
262.37	14.38
263.166	18.38
263.963	21.38
264.759	20.38
265.556	20.38
266.352	19.38
267.148	21.38
267.944	22.38
268.74	21.38
269.536	22.38
270.332	22.38
271.128	24.38
271.924	26.38
272.719	25.38
273.515	25.38
274.311	25.38
275.106	25.38
275.901	30.38
276.697	28.38
277.492	31.38
278.287	26.38
279.082	28.38
279.877	27.38
280.672	27.38
281.467	31.38
282.262	26.38
283.056	27.38
283.851	28.38
284.646	29.38
285.44	29.38
286.234	28.38
287.029	28.38
287.823	26.38
288.617	23.38
289.411	25.38
290.205	28.38
290.999	26.38
291.793	26.38
292.587	27.38
293.381	27.38
294.174	28.38
294.968	24.38
295.761	24.38
296.555	22.38
297.348	20.38
298.141	23.38
298.935	24.38
299.728	21.38
300.521	21.38
301.314	21.38
302.107	21.38
302.899	22.38
303.692	20.38
304.485	18.38
305.277	19.38
306.07	17.38
306.862	19.38
307.655	17.38
308.447	19.38
309.239	17.38
310.031	14.38
310.823	14.38
311.615	17.38
312.407	15.38
313.199	14.38
313.991	16.38
314.783	14.38
315.574	12.38
316.366	14.38
317.157	13.38
317.949	12.38
318.74	11.38
319.531	9.38
320.322	10.38
321.113	10.38
321.904	9.38
322.695	11.38
323.486	11.38
324.277	11.38
325.068	13.38
325.858	12.38
326.649	12.38
327.439	11.38
328.23	8.38
329.02	11.38
329.81	10.38
330.6	10.38
331.391	11.38
332.181	8.38
332.971	11.38
333.76	9.38
334.55	11.38
335.34	8.38
336.13	8.38
336.919	9.38
337.709	9.38
338.498	10.38
339.287	8.38
340.077	9.38
340.866	11.38
341.655	10.38
342.444	10.38
343.233	9.38
344.022	10.38
344.811	8.38
345.6	9.38
346.388	9.38
347.177	8.38
347.965	8.38
348.754	10.38
349.542	10.38
350.33	11.38
351.119	7.38
351.907	6.38
352.695	10.38
353.483	8.38
354.271	9.38
355.059	9.38
355.846	9.38
356.634	7.38
357.422	6.38
358.209	8.38
358.997	6.38
359.784	8.38
360.571	8.38
361.359	8.38
362.146	9.38
362.933	8.38
363.72	10.38
364.507	8.38
365.294	7.38
366.081	6.38
366.867	10.38
367.654	9.38
368.44	7.38
369.227	9.38
370.013	5.38
370.8	8.38
371.586	4.38
372.372	8.38
373.158	8.38
373.944	6.38
374.73	8.38
375.516	9.38
376.302	7.38
377.088	7.38
377.873	9.38
378.659	6.38
379.445	9.38
380.23	8.38
381.015	8.38
381.801	10.38
382.586	8.38
383.371	8.38
384.156	9.38
384.941	8.38
385.726	8.38
386.511	7.38
387.296	10.38
388.08	6.38
388.865	9.38
389.649	9.38
390.434	9.38
391.218	10.38
392.003	11.38
392.787	10.38
393.571	7.38
394.355	11.38
395.139	9.38
395.923	9.38
396.707	12.38
397.491	12.38
398.274	10.38
399.058	12.38
399.842	8.38
400.625	12.38
401.408	12.38
402.192	10.38
402.975	13.38
403.758	12.38
404.541	9.38
405.324	12.38
406.107	13.38
406.89	12.38
407.673	11.38
408.456	13.38
409.238	13.38
410.021	10.38
410.803	13.38
411.586	12.38
412.368	13.38
413.151	15.38
413.933	15.38
414.715	15.38
415.497	16.38
416.279	12.38
417.061	15.38
417.843	14.38
418.624	16.38
419.406	16.38
420.188	19.38
420.969	13.38
421.751	17.38
422.532	19.38
423.313	16.38
424.095	20.38
424.876	17.38
425.657	20.38
426.438	21.38
427.219	21.38
428	19.38
428.78	24.38
429.561	20.38
430.342	25.38
431.122	24.38
431.903	24.38
432.683	26.38
433.464	28.38
434.244	29.38
435.024	29.38
435.804	32.38
436.584	34.38
437.364	36.38
438.144	36.38
438.924	41.38
439.704	43.38
440.483	42.38
441.263	45.38
442.042	53.38
442.822	53.38
443.601	58.38
444.38	60.38
445.16	67.38
445.939	72.38
446.718	81.38
447.497	83.38
448.276	91.38
449.054	103.38
449.833	114.38
450.612	126.38
451.391	134.38
452.169	149.38
452.948	163.38
453.726	179.38
454.504	199.38
455.282	227.38
456.061	245.38
456.839	275.38
457.617	315.38
458.395	343.38
459.172	375.38
459.95	424.38
460.728	473.38
461.506	530.38
462.283	590.38
463.061	656.38
463.838	728.38
464.615	827.38
465.393	909.38
466.17	1009.38
466.947	1116.38
467.724	1242.38
468.501	1386.38
469.278	1515.38
470.055	1688.38
470.831	1891.38
471.608	2086.38
472.385	2287.38
473.161	2517.38
473.938	2783.38
474.714	3038.38
475.49	3338.38
476.266	3688.38
477.043	4033.38
477.819	4453.38
478.595	4853.38
479.371	5289.38
480.146	5785.38
480.922	6310.38
481.698	6886.38
482.473	7504.38
483.249	8129.38
484.024	8882.38
484.8	9689.38
485.575	10489.38
486.35	11369.38
487.126	12318.38
487.901	13408.38
488.676	14487.38
489.451	15666.38
490.225	16908.38
491	18243.38
491.775	19535.38
492.55	21019.38
493.324	22506.38
494.099	23879.38
494.873	25508.38
495.647	27132.38
496.422	28710.38
497.196	30275.38
497.97	31818.38
498.744	33231.38
499.518	34583.38
500.292	35868.38
501.066	37030.38
501.839	38198.38
502.613	38964.38
503.387	39654.38
504.16	40340.38
504.934	40590.38
505.707	40639.38
506.48	40648.38
507.253	40415.38
508.027	39970.38
508.8	39195.38
509.573	38362.38
510.346	37462.38
511.118	36465.38
511.891	35504.38
512.664	34270.38
513.437	33149.38
514.209	31828.38
514.982	30551.38
515.754	29442.38
516.526	28201.38
517.298	26964.38
518.071	25936.38
518.843	24953.38
519.615	23949.38
520.387	22898.38
521.159	22103.38
521.93	21139.38
522.702	20286.38
523.474	19473.38
524.245	18684.38
525.017	17960.38
525.788	17164.38
526.56	16403.38
527.331	15656.38
528.102	14936.38
528.873	14204.38
529.644	13548.38
530.415	12870.38
531.186	12220.38
531.957	11627.38
532.728	11021.38
533.498	10482.38
534.269	9863.38
535.039	9350.38
535.81	8847.38
536.58	8422.38
537.351	7938.38
538.121	7528.38
538.891	7072.38
539.661	6740.38
540.431	6346.38
541.201	6060.38
541.971	5713.38
542.741	5423.38
543.51	5112.38
544.28	4891.38
545.05	4633.38
545.819	4436.38
546.588	4178.38
547.358	3985.38
548.127	3793.38
548.896	3588.38
549.665	3422.38
550.434	3237.38
551.203	3098.38
551.972	2928.38
552.741	2761.38
553.51	2617.38
554.278	2481.38
555.047	2327.38
555.815	2201.38
556.584	2076.38
557.352	1978.38
558.121	1860.38
558.889	1760.38
559.657	1654.38
560.425	1562.38
561.193	1472.38
561.961	1404.38
562.729	1319.38
563.496	1266.38
564.264	1184.38
565.032	1122.38
565.799	1074.38
566.567	1016.38
567.334	950.38
568.101	903.38
568.869	846.38
569.636	804.38
570.403	759.38
571.17	709.38
571.937	674.38
572.704	646.38
573.471	607.38
574.237	559.38
575.004	536.38
575.771	508.38
576.537	481.38
577.303	456.38
578.07	424.38
578.836	397.38
579.602	379.38
580.368	353.38
581.134	333.38
581.9	326.38
582.666	309.38
583.432	288.38
584.198	276.38
584.964	264.38
585.729	247.38
586.495	229.38
587.26	222.38
588.025	210.38
588.791	195.38
589.556	190.38
590.321	180.38
591.086	172.38
591.851	165.38
592.616	155.38
593.381	144.38
594.146	137.38
594.911	132.38
595.675	126.38
596.44	124.38
597.204	112.38
597.969	114.38
598.733	108.38
599.497	100.38
600.261	97.38
601.025	95.38
601.79	88.38
602.553	84.38
603.317	87.38
604.081	78.38
604.845	76.38
605.609	70.38
606.372	69.38
607.136	67.38
607.899	64.38
608.662	62.38
609.426	61.38
610.189	55.38
610.952	57.38
611.715	55.38
612.478	54.38
613.241	50.38
614.004	48.38
614.767	47.38
615.529	39.38
616.292	38.38
617.055	40.38
617.817	38.38
618.579	36.38
619.342	37.38
620.104	38.38
620.866	32.38
621.628	32.38
622.39	34.38
623.152	29.38
623.914	32.38
624.676	31.38
625.438	27.38
626.199	29.38
626.961	26.38
627.722	25.38
628.484	25.38
629.245	22.38
630.006	22.38
630.768	21.38
631.529	24.38
632.29	20.38
633.051	19.38
633.812	23.38
634.573	22.38
635.333	17.38
636.094	18.38
636.855	17.38
637.615	17.38
638.376	15.38
639.136	16.38
639.896	17.38
640.657	16.38
641.417	15.38
642.177	13.38
642.937	16.38
643.697	13.38
644.457	14.38
645.216	15.38
645.976	16.38
646.736	11.38
647.495	10.38
648.255	12.38
649.014	11.38
649.774	13.38
650.533	11.38
651.292	12.38
652.051	10.38
652.81	13.38
653.569	12.38
654.328	10.38
655.087	10.38
655.846	9.38
656.604	9.38
657.363	11.38
658.121	7.38
658.88	8.38
659.638	9.38
660.397	10.38
661.155	8.38
661.913	8.38
662.671	9.38
663.429	5.38
664.187	8.38
664.945	7.38
665.703	10.38
666.46	6.38
667.218	9.38
667.976	6.38
668.733	8.38
669.49	7.38
670.248	7.38
671.005	9.38
671.762	7.38
672.519	7.38
673.276	6.38
674.033	9.38
674.79	8.38
675.547	7.38
676.304	8.38
677.06	8.38
677.817	6.38
678.574	8.38
679.33	5.38
680.086	7.38
680.843	8.38
681.599	7.38
682.355	7.38
683.111	9.38
683.867	6.38
684.623	6.38
685.379	5.38
686.135	5.38
686.89	5.38
687.646	5.38
688.402	5.38
689.157	6.38
689.912	4.38
690.668	7.38
691.423	5.38
692.178	5.38
692.933	5.38
693.688	6.38
694.443	5.38
695.198	4.38
695.953	3.38
696.708	7.38
697.462	5.38
698.217	5.38
698.972	10.38
699.726	6.38
700.48	8.38
701.235	3.38
701.989	8.38
702.743	6.38
703.497	6.38
704.251	7.38
705.005	6.38
705.759	4.38
706.513	6.38
707.266	6.38
708.02	7.38
708.774	6.38
709.527	6.38
710.28	5.38
711.034	5.38
711.787	7.38
712.54	8.38
713.293	5.38
714.046	5.38
714.799	6.38
715.552	5.38
716.305	6.38
717.058	6.38
717.81	6.38
718.563	7.38
719.315	6.38
720.068	6.38
720.82	8.38
721.573	8.38
722.325	6.38
723.077	8.38
723.829	6.38
724.581	4.38
725.333	7.38
726.085	4.38
726.836	7.38
727.588	8.38
728.34	6.38
729.091	7.38
729.843	6.38
730.594	6.38
731.346	5.38
732.097	7.38
732.848	6.38
733.599	9.38
734.35	6.38
735.101	6.38
735.852	6.38
736.603	8.38
737.354	6.38
738.104	7.38
738.855	8.38
739.605	6.38
740.356	6.38
741.106	8.38
741.856	8.38
742.607	8.38
743.357	7.38
744.107	8.38
744.857	7.38
745.607	8.38
746.357	6.38
747.106	8.38
747.856	4.38
748.606	9.38
749.355	8.38
750.105	8.38
750.854	9.38
751.603	9.38
752.353	8.38
753.102	8.38
753.851	8.38
754.6	10.38
755.349	6.38
756.098	9.38
756.847	9.38
757.595	10.38
758.344	8.38
759.093	12.38
759.841	7.38
760.589	11.38
761.338	9.38
762.086	8.38
762.834	12.38
763.582	12.38
764.331	10.38
765.079	9.38
765.826	11.38
766.574	11.38
767.322	8.38
768.07	11.38
768.817	11.38
769.565	12.38
770.312	13.38
771.06	12.38
771.807	12.38
772.554	13.38
773.302	12.38
774.049	9.38
774.796	11.38
775.543	12.38
776.29	11.38
777.036	13.38
777.783	12.38
778.53	12.38
779.276	12.38
780.023	12.38
780.769	14.38
781.516	10.38
782.262	14.38
783.008	16.38
783.754	16.38
784.5	13.38
785.246	13.38
785.992	14.38
786.738	11.38
787.484	9.38
788.23	12.38
788.975	15.38
789.721	14.38
790.466	12.38
791.212	14.38
791.957	11.38
792.702	13.38
793.447	9.38
794.193	10.38
794.938	11.38
795.683	12.38
796.427	11.38
797.172	9.38
797.917	11.38
798.662	7.38
799.406	12.38
800.151	11.38
800.895	11.38
801.64	10.38
802.384	9.38
803.128	11.38
803.872	9.38
804.616	8.38
805.36	9.38
806.104	9.38
806.848	9.38
807.592	9.38
808.336	7.38
809.079	8.38
809.823	8.38
810.566	8.38
811.31	9.38
812.053	7.38
812.796	8.38
813.539	6.38
814.283	4.38
815.026	8.38
815.769	8.38
816.511	5.38
817.254	4.38
817.997	8.38
818.74	8.38
819.482	6.38
820.225	6.38
820.967	5.38
821.71	5.38
822.452	7.38
823.194	4.38
823.936	6.38
824.678	4.38
825.42	4.38
826.162	6.38
826.904	2.38
827.646	4.38
828.388	6.38
829.129	3.38
829.871	5.38
830.612	4.38
831.354	4.38
832.095	2.38
832.836	6.38
833.577	4.38
834.319	3.38
835.06	6.38
835.801	6.38
836.542	6.38
837.282	4.38
838.023	4.38
838.764	4.38
839.504	6.38
840.245	6.38
840.985	4.38
841.726	3.38
842.466	5.38
843.206	3.38
843.946	3.38
844.687	3.38
845.427	3.38
846.166	4.38
846.906	3.38
847.646	2.38
848.386	2.38
849.125	4.38
849.865	6.38
850.605	3.38
851.344	3.38
852.083	3.38
852.823	5.38
853.562	4.38
854.301	2.38
855.04	2.38
855.779	4.38
856.518	2.38
857.257	4.38
857.995	2.38
858.734	4.38
859.473	4.38
860.211	3.38
860.95	2.38
861.688	2.38
862.426	1.38
863.165	4.38
863.903	2.38
864.641	4.38
865.379	3.38
866.117	1.38
866.855	-0.62
867.593	1.38
868.33	3.38
869.068	3.38
869.806	1.38
870.543	3.38
871.28	2.38
872.018	3.38
872.755	-0.62
873.492	4.38
874.229	1.38
874.967	3.38
875.703	1.38
876.44	2.38
877.177	1.38
877.914	1.38
878.651	0.38
879.387	1.38
880.124	3.38
880.86	0.38
881.597	2.38
882.333	1.38
883.069	-0.62
883.806	1.38
884.542	0.38
885.278	2.38
886.014	1.38
886.749	2.38
887.485	1.38
888.221	0.38
888.957	0.38
889.692	-1.62
890.428	1.38
891.163	2.38
891.899	0.38
892.634	-1.62
893.369	0.38
894.104	0.38
894.839	-2.62
895.574	1.38
896.309	0.38
897.044	0.38
897.779	0.38
898.514	3.38
899.248	-0.62
899.983	0.38
900.717	0.38
901.452	0.38
902.186	2.38
902.92	0.38
903.654	-1.62
904.389	-1.62
905.123	-1.62
905.857	0.38
906.59	3.38
907.324	1.38
908.058	0.38
908.792	-0.62
909.525	1.38
910.259	0.38
910.992	1.38
911.726	0.38
912.459	0.38
913.192	2.38
913.925	0.38
914.658	0.38
915.391	-1.62
916.124	0.38
916.857	0.38
917.59	2.38
918.323	-0.62
919.055	-0.62
919.788	0.38
920.521	1.38
921.253	0.38
921.985	1.38
922.718	-0.62
923.45	1.38
924.182	-1.62
924.914	0.38
925.646	-0.62
926.378	2.38
927.11	-1.62
927.841	2.38
928.573	2.38
929.305	1.38
930.036	-1.62
930.768	0.38
931.499	0.38
932.23	0.38
932.962	0.38
933.693	-1.62
934.424	1.38
935.155	0.38
935.886	-1.62
936.617	4.38
937.348	-1.62
938.078	2.38
938.809	-0.62
939.54	0.38
940.27	-1.62
941.001	1.38
941.731	0.38
942.461	0.38
943.191	1.38
943.922	-0.62
944.652	-0.62
945.382	0.38
946.112	-0.62
946.841	1.38
947.571	0.38
948.301	1.38
949.031	-0.62
949.76	0.38
950.49	0.38
951.219	-1.62
951.948	0.38
952.678	-0.62
953.407	1.38
954.136	-0.62
954.865	0.38
955.594	-0.62
956.323	-2.62
957.052	0.38
957.78	-1.62
958.509	0.38
959.238	-0.62
959.966	1.38
960.695	1.38
961.423	0.38
962.151	-0.62
962.88	0.38
963.608	0.38
964.336	-2.62
965.064	0.38
965.792	-0.62
966.52	-0.62
967.247	-1.62
967.975	0.38
968.703	0.38
969.43	-0.62
970.158	0.38
970.885	-2.62
971.613	0.38
972.34	1.38
973.067	0.38
973.794	-0.62
974.521	-1.62
975.248	-0.62
975.975	0.38
976.702	0.38
977.429	0.38
978.156	1.38
978.882	-0.62
979.609	-0.62
980.335	0.38
981.062	-0.62
981.788	0.38
982.514	0.38
983.24	-0.62
983.967	1.38
984.693	-0.62
985.419	-2.62
986.144	-0.62
986.87	-0.62
987.596	-2.62
988.322	-1.62
989.047	0.38
989.773	-0.62
990.498	1.38
991.224	1.38
991.949	0.38
992.674	0.38
993.399	0.38
994.124	0.38
994.849	-1.62
995.574	-0.62
996.299	0.38
997.024	0.38
997.749	-0.62
998.473	1.38
999.198	-1.62
999.922	-1.62
1000.647	0.38
1001.371	3.38
1002.095	-1.62
1002.82	-0.62
1003.544	-1.62
1004.268	3.38
1004.992	2.38
1005.716	1.38
1006.439	3.38
1007.163	3.38
1007.887	3.38
1008.611	0.38
1009.334	-0.62
1010.058	0.38
1010.781	0.38
1011.504	0.38
1012.228	0.38
1012.951	-0.62
1013.674	-1.62
1014.397	1.38
1015.12	1.38
