节点500_565_QEPB04081__324__09-55-48-468.txt的数据

Date: Thu Nov 13 09:55:48 CST 2025
User: PC
Spectrometer: QEPB0408
触发模式: 0
积分时间 (秒): 1.000000E-2
Scans to average: 1
启用暗噪声校正: true
启用非线性校正: false
滑动平均宽度: 0
X轴模式: Wavelengths
Number of Pixels in Spectrum: 1044
>>>>>Begin Spectral Data<<<<<
220.843	6.62
221.644	4.62
222.444	4.62
223.244	6.62
224.045	4.62
224.845	7.62
225.645	6.62
226.445	5.62
227.245	4.62
228.045	6.62
228.845	7.62
229.645	6.62
230.444	11.62
231.244	7.62
232.043	6.62
232.843	8.62
233.642	6.62
234.442	10.62
235.241	9.62
236.04	8.62
236.839	7.62
237.638	8.62
238.437	9.62
239.236	9.62
240.035	10.62
240.833	9.62
241.632	14.62
242.43	9.62
243.229	9.62
244.027	10.62
244.826	9.62
245.624	9.62
246.422	11.62
247.22	12.62
248.018	12.62
248.816	12.62
249.614	14.62
250.412	12.62
251.21	14.62
252.007	14.62
252.805	14.62
253.602	12.62
254.4	17.62
255.197	14.62
255.994	13.62
256.791	16.62
257.589	15.62
258.386	16.62
259.183	16.62
259.979	19.62
260.776	18.62
261.573	18.62
262.37	20.62
263.166	19.62
263.963	20.62
264.759	20.62
265.556	23.62
266.352	23.62
267.148	21.62
267.944	23.62
268.74	22.62
269.536	23.62
270.332	25.62
271.128	25.62
271.924	25.62
272.719	29.62
273.515	26.62
274.311	27.62
275.106	29.62
275.901	26.62
276.697	26.62
277.492	27.62
278.287	26.62
279.082	30.62
279.877	30.62
280.672	29.62
281.467	27.62
282.262	27.62
283.056	27.62
283.851	29.62
284.646	29.62
285.44	29.62
286.234	30.62
287.029	29.62
287.823	29.62
288.617	29.62
289.411	26.62
290.205	27.62
290.999	26.62
291.793	28.62
292.587	26.62
293.381	25.62
294.174	27.62
294.968	26.62
295.761	23.62
296.555	23.62
297.348	24.62
298.141	21.62
298.935	27.62
299.728	20.62
300.521	23.62
301.314	19.62
302.107	20.62
302.899	20.62
303.692	19.62
304.485	19.62
305.277	18.62
306.07	17.62
306.862	19.62
307.655	19.62
308.447	17.62
309.239	18.62
310.031	19.62
310.823	14.62
311.615	16.62
312.407	16.62
313.199	18.62
313.991	12.62
314.783	12.62
315.574	14.62
316.366	13.62
317.157	13.62
317.949	14.62
318.74	13.62
319.531	13.62
320.322	13.62
321.113	14.62
321.904	14.62
322.695	10.62
323.486	9.62
324.277	10.62
325.068	13.62
325.858	11.62
326.649	11.62
327.439	13.62
328.23	11.62
329.02	11.62
329.81	9.62
330.6	11.62
331.391	11.62
332.181	10.62
332.971	10.62
333.76	13.62
334.55	10.62
335.34	14.62
336.13	10.62
336.919	9.62
337.709	10.62
338.498	9.62
339.287	12.62
340.077	10.62
340.866	9.62
341.655	11.62
342.444	12.62
343.233	11.62
344.022	9.62
344.811	11.62
345.6	10.62
346.388	8.62
347.177	8.62
347.965	9.62
348.754	10.62
349.542	9.62
350.33	11.62
351.119	9.62
351.907	10.62
352.695	10.62
353.483	9.62
354.271	10.62
355.059	8.62
355.846	9.62
356.634	9.62
357.422	9.62
358.209	8.62
358.997	8.62
359.784	11.62
360.571	10.62
361.359	7.62
362.146	9.62
362.933	7.62
363.72	9.62
364.507	10.62
365.294	9.62
366.081	8.62
366.867	7.62
367.654	10.62
368.44	7.62
369.227	8.62
370.013	7.62
370.8	9.62
371.586	7.62
372.372	10.62
373.158	9.62
373.944	9.62
374.73	10.62
375.516	8.62
376.302	7.62
377.088	9.62
377.873	10.62
378.659	9.62
379.445	8.62
380.23	9.62
381.015	7.62
381.801	10.62
382.586	10.62
383.371	11.62
384.156	7.62
384.941	7.62
385.726	10.62
386.511	11.62
387.296	10.62
388.08	11.62
388.865	10.62
389.649	7.62
390.434	11.62
391.218	12.62
392.003	11.62
392.787	12.62
393.571	10.62
394.355	12.62
395.139	12.62
395.923	11.62
396.707	11.62
397.491	13.62
398.274	12.62
399.058	12.62
399.842	11.62
400.625	10.62
401.408	11.62
402.192	15.62
402.975	12.62
403.758	12.62
404.541	12.62
405.324	14.62
406.107	13.62
406.89	13.62
407.673	13.62
408.456	15.62
409.238	14.62
410.021	12.62
410.803	14.62
411.586	13.62
412.368	13.62
413.151	11.62
413.933	15.62
414.715	15.62
415.497	16.62
416.279	15.62
417.061	14.62
417.843	17.62
418.624	18.62
419.406	16.62
420.188	16.62
420.969	17.62
421.751	17.62
422.532	19.62
423.313	21.62
424.095	20.62
424.876	18.62
425.657	21.62
426.438	17.62
427.219	23.62
428	22.62
428.78	26.62
429.561	24.62
430.342	27.62
431.122	25.62
431.903	26.62
432.683	32.62
433.464	26.62
434.244	30.62
435.024	30.62
435.804	36.62
436.584	35.62
437.364	36.62
438.144	41.62
438.924	37.62
439.704	47.62
440.483	46.62
441.263	47.62
442.042	50.62
442.822	58.62
443.601	58.62
444.38	61.62
445.16	67.62
445.939	71.62
446.718	77.62
447.497	89.62
448.276	92.62
449.054	102.62
449.833	113.62
450.612	125.62
451.391	137.62
452.169	149.62
452.948	158.62
453.726	179.62
454.504	202.62
455.282	216.62
456.061	245.62
456.839	278.62
457.617	307.62
458.395	331.62
459.172	380.62
459.95	421.62
460.728	459.62
461.506	529.62
462.283	588.62
463.061	652.62
463.838	722.62
464.615	804.62
465.393	909.62
466.17	1006.62
466.947	1109.62
467.724	1245.62
468.501	1368.62
469.278	1516.62
470.055	1691.62
470.831	1857.62
471.608	2060.62
472.385	2282.62
473.161	2519.62
473.938	2797.62
474.714	3041.62
475.49	3306.62
476.266	3682.62
477.043	4051.62
477.819	4438.62
478.595	4846.62
479.371	5267.62
480.146	5792.62
480.922	6345.62
481.698	6920.62
482.473	7543.62
483.249	8188.62
484.024	8950.62
484.8	9732.62
485.575	10559.62
486.35	11420.62
487.126	12445.62
487.901	13466.62
488.676	14583.62
489.451	15891.62
490.225	17118.62
491	18410.62
491.775	19801.62
492.55	21243.62
493.324	22708.62
494.099	24287.62
494.873	25732.62
495.647	27391.62
496.422	29101.62
497.196	30635.62
497.97	32229.62
498.744	33603.62
499.518	35001.62
500.292	36260.62
501.066	37486.62
501.839	38477.62
502.613	39334.62
503.387	39986.62
504.16	40643.62
504.934	40894.62
505.707	40949.62
506.48	40791.62
507.253	40552.62
508.027	39890.62
508.8	39188.62
509.573	38421.62
510.346	37425.62
511.118	36428.62
511.891	35389.62
512.664	34220.62
513.437	32947.62
514.209	31670.62
514.982	30491.62
515.754	29313.62
516.526	28067.62
517.298	26841.62
518.071	25770.62
518.843	24742.62
519.615	23736.62
520.387	22830.62
521.159	21977.62
521.93	21068.62
522.702	20142.62
523.474	19375.62
524.245	18550.62
525.017	17881.62
525.788	17065.62
526.56	16301.62
527.331	15520.62
528.102	14858.62
528.873	14129.62
529.644	13380.62
530.415	12749.62
531.186	12071.62
531.957	11510.62
532.728	10955.62
533.498	10367.62
534.269	9781.62
535.039	9214.62
535.81	8745.62
536.58	8281.62
537.351	7890.62
538.121	7390.62
538.891	7005.62
539.661	6662.62
540.431	6276.62
541.201	5934.62
541.971	5662.62
542.741	5351.62
543.51	5064.62
544.28	4801.62
545.05	4577.62
545.819	4360.62
546.588	4156.62
547.358	3954.62
548.127	3761.62
548.896	3556.62
549.665	3376.62
550.434	3225.62
551.203	3076.62
551.972	2881.62
552.741	2746.62
553.51	2574.62
554.278	2449.62
555.047	2285.62
555.815	2185.62
556.584	2069.62
557.352	1937.62
558.121	1827.62
558.889	1728.62
559.657	1607.62
560.425	1541.62
561.193	1452.62
561.961	1389.62
562.729	1311.62
563.496	1236.62
564.264	1185.62
565.032	1119.62
565.799	1056.62
566.567	1003.62
567.334	946.62
568.101	891.62
568.869	838.62
569.636	804.62
570.403	750.62
571.17	708.62
571.937	666.62
572.704	638.62
573.471	598.62
574.237	554.62
575.004	532.62
575.771	490.62
576.537	471.62
577.303	446.62
578.07	419.62
578.836	389.62
579.602	371.62
580.368	357.62
581.134	339.62
581.9	318.62
582.666	308.62
583.432	283.62
584.198	277.62
584.964	252.62
585.729	242.62
586.495	231.62
587.26	225.62
588.025	212.62
588.791	200.62
589.556	187.62
590.321	180.62
591.086	170.62
591.851	158.62
592.616	154.62
593.381	143.62
594.146	138.62
594.911	133.62
595.675	126.62
596.44	122.62
597.204	118.62
597.969	111.62
598.733	109.62
599.497	103.62
600.261	95.62
601.025	89.62
601.79	89.62
602.553	85.62
603.317	81.62
604.081	78.62
604.845	77.62
605.609	73.62
606.372	70.62
607.136	67.62
607.899	64.62
608.662	64.62
609.426	59.62
610.189	54.62
610.952	54.62
611.715	50.62
612.478	50.62
613.241	51.62
614.004	45.62
614.767	46.62
615.529	46.62
616.292	45.62
617.055	42.62
617.817	41.62
618.579	38.62
619.342	38.62
620.104	35.62
620.866	35.62
621.628	33.62
622.39	34.62
623.152	34.62
623.914	31.62
624.676	30.62
625.438	29.62
626.199	27.62
626.961	26.62
627.722	25.62
628.484	25.62
629.245	24.62
630.006	25.62
630.768	21.62
631.529	24.62
632.29	23.62
633.051	19.62
633.812	25.62
634.573	21.62
635.333	20.62
636.094	18.62
636.855	21.62
637.615	19.62
638.376	17.62
639.136	18.62
639.896	16.62
640.657	18.62
641.417	17.62
642.177	19.62
642.937	13.62
643.697	15.62
644.457	13.62
645.216	14.62
645.976	15.62
646.736	14.62
647.495	15.62
648.255	13.62
649.014	14.62
649.774	14.62
650.533	13.62
651.292	12.62
652.051	10.62
652.81	13.62
653.569	12.62
654.328	11.62
655.087	10.62
655.846	10.62
656.604	11.62
657.363	12.62
658.121	10.62
658.88	9.62
659.638	12.62
660.397	12.62
661.155	10.62
661.913	9.62
662.671	9.62
663.429	10.62
664.187	8.62
664.945	11.62
665.703	8.62
666.46	8.62
667.218	10.62
667.976	10.62
668.733	9.62
669.49	8.62
670.248	8.62
671.005	10.62
671.762	6.62
672.519	11.62
673.276	8.62
674.033	10.62
674.79	6.62
675.547	10.62
676.304	9.62
677.06	7.62
677.817	9.62
678.574	7.62
679.33	10.62
680.086	9.62
680.843	5.62
681.599	8.62
682.355	8.62
683.111	7.62
683.867	8.62
684.623	9.62
685.379	7.62
686.135	6.62
686.89	8.62
687.646	8.62
688.402	7.62
689.157	7.62
689.912	7.62
690.668	5.62
691.423	7.62
692.178	7.62
692.933	7.62
693.688	8.62
694.443	9.62
695.198	7.62
695.953	6.62
696.708	5.62
697.462	6.62
698.217	7.62
698.972	5.62
699.726	5.62
700.48	3.62
701.235	6.62
701.989	7.62
702.743	9.62
703.497	5.62
704.251	7.62
705.005	7.62
705.759	8.62
706.513	7.62
707.266	9.62
708.02	6.62
708.774	4.62
709.527	4.62
710.28	8.62
711.034	7.62
711.787	6.62
712.54	8.62
713.293	5.62
714.046	6.62
714.799	6.62
715.552	8.62
716.305	6.62
717.058	7.62
717.81	7.62
718.563	7.62
719.315	8.62
720.068	5.62
720.82	6.62
721.573	9.62
722.325	6.62
723.077	7.62
723.829	7.62
724.581	9.62
725.333	8.62
726.085	5.62
726.836	9.62
727.588	8.62
728.34	10.62
729.091	7.62
729.843	7.62
730.594	9.62
731.346	6.62
732.097	7.62
732.848	7.62
733.599	7.62
734.35	7.62
735.101	8.62
735.852	8.62
736.603	6.62
737.354	9.62
738.104	8.62
738.855	8.62
739.605	9.62
740.356	10.62
741.106	9.62
741.856	7.62
742.607	10.62
743.357	5.62
744.107	7.62
744.857	10.62
745.607	9.62
746.357	8.62
747.106	10.62
747.856	9.62
748.606	8.62
749.355	10.62
750.105	11.62
750.854	12.62
751.603	8.62
752.353	8.62
753.102	8.62
753.851	9.62
754.6	10.62
755.349	10.62
756.098	11.62
756.847	10.62
757.595	10.62
758.344	10.62
759.093	11.62
759.841	10.62
760.589	9.62
761.338	13.62
762.086	10.62
762.834	8.62
763.582	12.62
764.331	13.62
765.079	10.62
765.826	10.62
766.574	11.62
767.322	12.62
768.07	13.62
768.817	12.62
769.565	11.62
770.312	11.62
771.06	13.62
771.807	13.62
772.554	13.62
773.302	11.62
774.049	15.62
774.796	12.62
775.543	17.62
776.29	15.62
777.036	12.62
777.783	14.62
778.53	13.62
779.276	15.62
780.023	14.62
780.769	17.62
781.516	12.62
782.262	15.62
783.008	12.62
783.754	13.62
784.5	12.62
785.246	15.62
785.992	13.62
786.738	15.62
787.484	13.62
788.23	13.62
788.975	14.62
789.721	16.62
790.466	13.62
791.212	12.62
791.957	13.62
792.702	14.62
793.447	12.62
794.193	15.62
794.938	12.62
795.683	12.62
796.427	14.62
797.172	11.62
797.917	13.62
798.662	12.62
799.406	10.62
800.151	11.62
800.895	9.62
801.64	11.62
802.384	10.62
803.128	11.62
803.872	10.62
804.616	12.62
805.36	9.62
806.104	9.62
806.848	10.62
807.592	8.62
808.336	7.62
809.079	8.62
809.823	8.62
810.566	10.62
811.31	9.62
812.053	9.62
812.796	6.62
813.539	6.62
814.283	6.62
815.026	8.62
815.769	8.62
816.511	11.62
817.254	10.62
817.997	9.62
818.74	9.62
819.482	6.62
820.225	6.62
820.967	8.62
821.71	6.62
822.452	7.62
823.194	7.62
823.936	6.62
824.678	4.62
825.42	8.62
826.162	5.62
826.904	7.62
827.646	9.62
828.388	6.62
829.129	7.62
829.871	7.62
830.612	7.62
831.354	5.62
832.095	8.62
832.836	5.62
833.577	6.62
834.319	8.62
835.06	6.62
835.801	10.62
836.542	6.62
837.282	6.62
838.023	6.62
838.764	5.62
839.504	7.62
840.245	4.62
840.985	5.62
841.726	6.62
842.466	4.62
843.206	4.62
843.946	5.62
844.687	5.62
845.427	4.62
846.166	6.62
846.906	3.62
847.646	5.62
848.386	3.62
849.125	5.62
849.865	3.62
850.605	5.62
851.344	5.62
852.083	5.62
852.823	6.62
853.562	3.62
854.301	5.62
855.04	5.62
855.779	3.62
856.518	4.62
857.257	4.62
857.995	4.62
858.734	2.62
859.473	4.62
860.211	2.62
860.95	5.62
861.688	3.62
862.426	2.62
863.165	5.62
863.903	4.62
864.641	3.62
865.379	2.62
866.117	3.62
866.855	2.62
867.593	3.62
868.33	2.62
869.068	5.62
869.806	3.62
870.543	1.62
871.28	0.62
872.018	2.62
872.755	1.62
873.492	4.62
874.229	2.62
874.967	5.62
875.703	4.62
876.44	4.62
877.177	4.62
877.914	2.62
878.651	2.62
879.387	2.62
880.124	3.62
880.86	0.62
881.597	3.62
882.333	1.62
883.069	3.62
883.806	1.62
884.542	0.62
885.278	3.62
886.014	2.62
886.749	3.62
887.485	-0.38
888.221	1.62
888.957	1.62
889.692	2.62
890.428	3.62
891.163	0.62
891.899	1.62
892.634	1.62
893.369	1.62
894.104	1.62
894.839	1.62
895.574	3.62
896.309	3.62
897.044	1.62
897.779	2.62
898.514	0.62
899.248	-0.38
899.983	1.62
900.717	2.62
901.452	-0.38
902.186	0.62
902.92	-0.38
903.654	1.62
904.389	3.62
905.123	1.62
905.857	-0.38
906.59	0.62
907.324	2.62
908.058	-0.38
908.792	2.62
909.525	4.62
910.259	2.62
910.992	3.62
911.726	1.62
912.459	1.62
913.192	2.62
913.925	1.62
914.658	0.62
915.391	0.62
916.124	1.62
916.857	-1.38
917.59	2.62
918.323	1.62
919.055	0.62
919.788	1.62
920.521	0.62
921.253	2.62
921.985	-0.38
922.718	0.62
923.45	0.62
924.182	3.62
924.914	-1.38
925.646	3.62
926.378	2.62
927.11	-0.38
927.841	3.62
928.573	2.62
929.305	0.62
930.036	1.62
930.768	-0.38
931.499	0.62
932.23	-0.38
932.962	1.62
933.693	2.62
934.424	1.62
935.155	-1.38
935.886	0.62
936.617	1.62
937.348	1.62
938.078	1.62
938.809	1.62
939.54	0.62
940.27	0.62
941.001	1.62
941.731	1.62
942.461	0.62
943.191	2.62
943.922	-1.38
944.652	0.62
945.382	1.62
946.112	1.62
946.841	0.62
947.571	1.62
948.301	0.62
949.031	2.62
949.76	0.62
950.49	0.62
951.219	2.62
951.948	0.62
952.678	0.62
953.407	2.62
954.136	1.62
954.865	0.62
955.594	3.62
956.323	1.62
957.052	1.62
957.78	2.62
958.509	1.62
959.238	1.62
959.966	1.62
960.695	-0.38
961.423	0.62
962.151	-1.38
962.88	1.62
963.608	1.62
964.336	0.62
965.064	0.62
965.792	1.62
966.52	2.62
967.247	-0.38
967.975	-0.38
968.703	2.62
969.43	1.62
970.158	-0.38
970.885	1.62
971.613	2.62
972.34	0.62
973.067	0.62
973.794	1.62
974.521	0.62
975.248	1.62
975.975	-0.38
976.702	1.62
977.429	0.62
978.156	0.62
978.882	0.62
979.609	0.62
980.335	3.62
981.062	1.62
981.788	-0.38
982.514	1.62
983.24	1.62
983.967	2.62
984.693	-1.38
985.419	-1.38
986.144	1.62
986.87	1.62
987.596	-0.38
988.322	-0.38
989.047	0.62
989.773	1.62
990.498	1.62
991.224	2.62
991.949	0.62
992.674	2.62
993.399	1.62
994.124	1.62
994.849	1.62
995.574	1.62
996.299	1.62
997.024	1.62
997.749	1.62
998.473	1.62
999.198	2.62
999.922	2.62
1000.647	1.62
1001.371	3.62
1002.095	0.62
1002.82	-2.38
1003.544	-1.38
1004.268	4.62
1004.992	4.62
1005.716	4.62
1006.439	3.62
1007.163	5.62
1007.887	4.62
1008.611	0.62
1009.334	1.62
1010.058	5.62
1010.781	-1.38
1011.504	1.62
1012.228	-1.38
1012.951	0.62
1013.674	-1.38
1014.397	0.62
1015.12	-0.38
