节点500_565_QEPB04081__122__09-52-27-930.txt的数据

Date: Thu Nov 13 09:52:27 CST 2025
User: PC
Spectrometer: QEPB0408
触发模式: 0
积分时间 (秒): 1.000000E-2
Scans to average: 1
启用暗噪声校正: true
启用非线性校正: false
滑动平均宽度: 0
X轴模式: Wavelengths
Number of Pixels in Spectrum: 1044
>>>>>Begin Spectral Data<<<<<
220.843	4.75
221.644	3.75
222.444	6.75
223.244	5.75
224.045	3.75
224.845	6.75
225.645	5.75
226.445	6.75
227.245	3.75
228.045	6.75
228.845	5.75
229.645	6.75
230.444	8.75
231.244	6.75
232.043	4.75
232.843	7.75
233.642	7.75
234.442	5.75
235.241	8.75
236.04	6.75
236.839	6.75
237.638	8.75
238.437	8.75
239.236	9.75
240.035	7.75
240.833	8.75
241.632	8.75
242.43	8.75
243.229	11.75
244.027	11.75
244.826	11.75
245.624	12.75
246.422	9.75
247.22	11.75
248.018	11.75
248.816	10.75
249.614	14.75
250.412	12.75
251.21	13.75
252.007	12.75
252.805	12.75
253.602	14.75
254.4	13.75
255.197	14.75
255.994	16.75
256.791	18.75
257.589	17.75
258.386	18.75
259.183	18.75
259.979	19.75
260.776	20.75
261.573	21.75
262.37	24.75
263.166	20.75
263.963	21.75
264.759	21.75
265.556	26.75
266.352	26.75
267.148	24.75
267.944	23.75
268.74	25.75
269.536	27.75
270.332	26.75
271.128	25.75
271.924	25.75
272.719	28.75
273.515	28.75
274.311	26.75
275.106	26.75
275.901	27.75
276.697	28.75
277.492	29.75
278.287	32.75
279.082	29.75
279.877	32.75
280.672	31.75
281.467	32.75
282.262	29.75
283.056	26.75
283.851	32.75
284.646	31.75
285.44	30.75
286.234	30.75
287.029	29.75
287.823	31.75
288.617	28.75
289.411	28.75
290.205	25.75
290.999	26.75
291.793	28.75
292.587	29.75
293.381	30.75
294.174	28.75
294.968	26.75
295.761	25.75
296.555	22.75
297.348	23.75
298.141	21.75
298.935	28.75
299.728	22.75
300.521	20.75
301.314	22.75
302.107	21.75
302.899	21.75
303.692	21.75
304.485	16.75
305.277	16.75
306.07	17.75
306.862	20.75
307.655	18.75
308.447	19.75
309.239	17.75
310.031	17.75
310.823	19.75
311.615	16.75
312.407	14.75
313.199	15.75
313.991	14.75
314.783	13.75
315.574	13.75
316.366	13.75
317.157	11.75
317.949	15.75
318.74	12.75
319.531	15.75
320.322	13.75
321.113	12.75
321.904	12.75
322.695	13.75
323.486	10.75
324.277	12.75
325.068	12.75
325.858	9.75
326.649	11.75
327.439	12.75
328.23	10.75
329.02	11.75
329.81	9.75
330.6	10.75
331.391	11.75
332.181	8.75
332.971	10.75
333.76	11.75
334.55	9.75
335.34	11.75
336.13	13.75
336.919	11.75
337.709	11.75
338.498	11.75
339.287	8.75
340.077	12.75
340.866	8.75
341.655	10.75
342.444	12.75
343.233	9.75
344.022	10.75
344.811	10.75
345.6	11.75
346.388	12.75
347.177	9.75
347.965	10.75
348.754	11.75
349.542	12.75
350.33	8.75
351.119	9.75
351.907	10.75
352.695	9.75
353.483	9.75
354.271	9.75
355.059	6.75
355.846	8.75
356.634	11.75
357.422	8.75
358.209	9.75
358.997	10.75
359.784	9.75
360.571	8.75
361.359	7.75
362.146	10.75
362.933	7.75
363.72	8.75
364.507	6.75
365.294	8.75
366.081	6.75
366.867	9.75
367.654	9.75
368.44	9.75
369.227	7.75
370.013	9.75
370.8	6.75
371.586	8.75
372.372	7.75
373.158	8.75
373.944	8.75
374.73	9.75
375.516	10.75
376.302	10.75
377.088	8.75
377.873	10.75
378.659	11.75
379.445	9.75
380.23	8.75
381.015	10.75
381.801	9.75
382.586	6.75
383.371	9.75
384.156	9.75
384.941	6.75
385.726	9.75
386.511	10.75
387.296	9.75
388.08	10.75
388.865	10.75
389.649	11.75
390.434	10.75
391.218	11.75
392.003	10.75
392.787	10.75
393.571	11.75
394.355	9.75
395.139	8.75
395.923	11.75
396.707	10.75
397.491	9.75
398.274	12.75
399.058	12.75
399.842	13.75
400.625	13.75
401.408	12.75
402.192	9.75
402.975	12.75
403.758	12.75
404.541	12.75
405.324	11.75
406.107	13.75
406.89	13.75
407.673	13.75
408.456	13.75
409.238	15.75
410.021	14.75
410.803	15.75
411.586	13.75
412.368	14.75
413.151	13.75
413.933	14.75
414.715	17.75
415.497	17.75
416.279	16.75
417.061	16.75
417.843	14.75
418.624	20.75
419.406	18.75
420.188	16.75
420.969	20.75
421.751	17.75
422.532	19.75
423.313	17.75
424.095	21.75
424.876	19.75
425.657	22.75
426.438	21.75
427.219	22.75
428	24.75
428.78	23.75
429.561	27.75
430.342	24.75
431.122	25.75
431.903	24.75
432.683	26.75
433.464	26.75
434.244	32.75
435.024	31.75
435.804	36.75
436.584	36.75
437.364	34.75
438.144	37.75
438.924	40.75
439.704	39.75
440.483	44.75
441.263	47.75
442.042	49.75
442.822	50.75
443.601	56.75
444.38	55.75
445.16	61.75
445.939	71.75
446.718	71.75
447.497	83.75
448.276	85.75
449.054	89.75
449.833	102.75
450.612	114.75
451.391	121.75
452.169	139.75
452.948	153.75
453.726	168.75
454.504	187.75
455.282	207.75
456.061	225.75
456.839	254.75
457.617	289.75
458.395	324.75
459.172	359.75
459.95	393.75
460.728	447.75
461.506	492.75
462.283	556.75
463.061	623.75
463.838	692.75
464.615	765.75
465.393	868.75
466.17	972.75
466.947	1072.75
467.724	1191.75
468.501	1346.75
469.278	1482.75
470.055	1650.75
470.831	1838.75
471.608	2047.75
472.385	2269.75
473.161	2520.75
473.938	2794.75
474.714	3047.75
475.49	3394.75
476.266	3720.75
477.043	4123.75
477.819	4550.75
478.595	5016.75
479.371	5459.75
480.146	6030.75
480.922	6628.75
481.698	7257.75
482.473	7958.75
483.249	8675.75
484.024	9516.75
484.8	10406.75
485.575	11372.75
486.35	12406.75
487.126	13436.75
487.901	14632.75
488.676	15967.75
489.451	17330.75
490.225	18830.75
491	20214.75
491.775	21809.75
492.55	23474.75
493.324	25100.75
494.099	26785.75
494.873	28506.75
495.647	30410.75
496.422	32138.75
497.196	33878.75
497.97	35460.75
498.744	36939.75
499.518	38288.75
500.292	39598.75
501.066	40833.75
501.839	41787.75
502.613	42478.75
503.387	43090.75
504.16	43450.75
504.934	43502.75
505.707	43315.75
506.48	42946.75
507.253	42387.75
508.027	41525.75
508.8	40602.75
509.573	39443.75
510.346	38168.75
511.118	37029.75
511.891	35826.75
512.664	34492.75
513.437	33125.75
514.209	31650.75
514.982	30380.75
515.754	29072.75
516.526	27935.75
517.298	26529.75
518.071	25556.75
518.843	24590.75
519.615	23585.75
520.387	22542.75
521.159	21728.75
521.93	20795.75
522.702	19957.75
523.474	19046.75
524.245	18348.75
525.017	17602.75
525.788	16775.75
526.56	15935.75
527.331	15220.75
528.102	14501.75
528.873	13768.75
529.644	13113.75
530.415	12404.75
531.186	11693.75
531.957	11156.75
532.728	10559.75
533.498	9985.75
534.269	9454.75
535.039	8905.75
535.81	8449.75
536.58	8017.75
537.351	7531.75
538.121	7131.75
538.891	6749.75
539.661	6401.75
540.431	6057.75
541.201	5715.75
541.971	5438.75
542.741	5162.75
543.51	4854.75
544.28	4600.75
545.05	4409.75
545.819	4174.75
546.588	3965.75
547.358	3784.75
548.127	3595.75
548.896	3410.75
549.665	3239.75
550.434	3089.75
551.203	2895.75
551.972	2744.75
552.741	2583.75
553.51	2463.75
554.278	2311.75
555.047	2177.75
555.815	2058.75
556.584	1958.75
557.352	1856.75
558.121	1750.75
558.889	1649.75
559.657	1545.75
560.425	1449.75
561.193	1389.75
561.961	1298.75
562.729	1231.75
563.496	1165.75
564.264	1116.75
565.032	1056.75
565.799	994.75
566.567	939.75
567.334	896.75
568.101	840.75
568.869	794.75
569.636	755.75
570.403	707.75
571.17	668.75
571.937	635.75
572.704	594.75
573.471	554.75
574.237	530.75
575.004	499.75
575.771	474.75
576.537	448.75
577.303	417.75
578.07	394.75
578.836	367.75
579.602	354.75
580.368	335.75
581.134	315.75
581.9	295.75
582.666	288.75
583.432	268.75
584.198	257.75
584.964	245.75
585.729	228.75
586.495	220.75
587.26	213.75
588.025	197.75
588.791	184.75
589.556	179.75
590.321	164.75
591.086	161.75
591.851	151.75
592.616	146.75
593.381	136.75
594.146	137.75
594.911	128.75
595.675	121.75
596.44	113.75
597.204	110.75
597.969	108.75
598.733	100.75
599.497	96.75
600.261	96.75
601.025	89.75
601.79	90.75
602.553	84.75
603.317	80.75
604.081	72.75
604.845	72.75
605.609	70.75
606.372	67.75
607.136	63.75
607.899	59.75
608.662	59.75
609.426	58.75
610.189	52.75
610.952	54.75
611.715	52.75
612.478	46.75
613.241	48.75
614.004	49.75
614.767	46.75
615.529	38.75
616.292	38.75
617.055	40.75
617.817	39.75
618.579	39.75
619.342	36.75
620.104	34.75
620.866	34.75
621.628	32.75
622.39	33.75
623.152	29.75
623.914	26.75
624.676	28.75
625.438	29.75
626.199	26.75
626.961	25.75
627.722	26.75
628.484	25.75
629.245	25.75
630.006	25.75
630.768	22.75
631.529	22.75
632.29	18.75
633.051	21.75
633.812	20.75
634.573	17.75
635.333	16.75
636.094	18.75
636.855	18.75
637.615	17.75
638.376	19.75
639.136	15.75
639.896	18.75
640.657	15.75
641.417	12.75
642.177	15.75
642.937	16.75
643.697	15.75
644.457	14.75
645.216	9.75
645.976	12.75
646.736	12.75
647.495	14.75
648.255	13.75
649.014	10.75
649.774	13.75
650.533	13.75
651.292	10.75
652.051	11.75
652.81	10.75
653.569	12.75
654.328	10.75
655.087	11.75
655.846	9.75
656.604	10.75
657.363	10.75
658.121	10.75
658.88	8.75
659.638	10.75
660.397	9.75
661.155	11.75
661.913	11.75
662.671	10.75
663.429	11.75
664.187	7.75
664.945	7.75
665.703	10.75
666.46	7.75
667.218	8.75
667.976	10.75
668.733	10.75
669.49	8.75
670.248	9.75
671.005	8.75
671.762	6.75
672.519	8.75
673.276	5.75
674.033	8.75
674.79	7.75
675.547	8.75
676.304	9.75
677.06	5.75
677.817	8.75
678.574	7.75
679.33	8.75
680.086	5.75
680.843	6.75
681.599	9.75
682.355	7.75
683.111	5.75
683.867	5.75
684.623	8.75
685.379	7.75
686.135	8.75
686.89	6.75
687.646	6.75
688.402	5.75
689.157	7.75
689.912	6.75
690.668	4.75
691.423	8.75
692.178	7.75
692.933	7.75
693.688	8.75
694.443	7.75
695.198	7.75
695.953	7.75
696.708	6.75
697.462	6.75
698.217	5.75
698.972	4.75
699.726	5.75
700.48	7.75
701.235	5.75
701.989	9.75
702.743	7.75
703.497	5.75
704.251	8.75
705.005	6.75
705.759	8.75
706.513	8.75
707.266	6.75
708.02	5.75
708.774	5.75
709.527	8.75
710.28	4.75
711.034	6.75
711.787	7.75
712.54	4.75
713.293	7.75
714.046	7.75
714.799	6.75
715.552	6.75
716.305	9.75
717.058	8.75
717.81	6.75
718.563	4.75
719.315	5.75
720.068	7.75
720.82	8.75
721.573	7.75
722.325	6.75
723.077	7.75
723.829	7.75
724.581	5.75
725.333	7.75
726.085	6.75
726.836	7.75
727.588	8.75
728.34	7.75
729.091	5.75
729.843	6.75
730.594	9.75
731.346	6.75
732.097	8.75
732.848	8.75
733.599	8.75
734.35	7.75
735.101	9.75
735.852	5.75
736.603	6.75
737.354	7.75
738.104	6.75
738.855	9.75
739.605	8.75
740.356	9.75
741.106	8.75
741.856	6.75
742.607	9.75
743.357	9.75
744.107	8.75
744.857	8.75
745.607	8.75
746.357	8.75
747.106	8.75
747.856	9.75
748.606	8.75
749.355	10.75
750.105	10.75
750.854	7.75
751.603	12.75
752.353	9.75
753.102	8.75
753.851	10.75
754.6	10.75
755.349	13.75
756.098	11.75
756.847	11.75
757.595	11.75
758.344	11.75
759.093	9.75
759.841	12.75
760.589	7.75
761.338	11.75
762.086	9.75
762.834	12.75
763.582	10.75
764.331	11.75
765.079	12.75
765.826	13.75
766.574	13.75
767.322	13.75
768.07	12.75
768.817	11.75
769.565	10.75
770.312	12.75
771.06	12.75
771.807	12.75
772.554	12.75
773.302	16.75
774.049	12.75
774.796	15.75
775.543	14.75
776.29	14.75
777.036	14.75
777.783	12.75
778.53	14.75
779.276	14.75
780.023	12.75
780.769	12.75
781.516	11.75
782.262	13.75
783.008	14.75
783.754	13.75
784.5	15.75
785.246	13.75
785.992	14.75
786.738	12.75
787.484	12.75
788.23	14.75
788.975	16.75
789.721	12.75
790.466	12.75
791.212	13.75
791.957	11.75
792.702	14.75
793.447	14.75
794.193	11.75
794.938	12.75
795.683	13.75
796.427	12.75
797.172	13.75
797.917	11.75
798.662	9.75
799.406	10.75
800.151	13.75
800.895	12.75
801.64	12.75
802.384	10.75
803.128	9.75
803.872	10.75
804.616	7.75
805.36	8.75
806.104	11.75
806.848	9.75
807.592	8.75
808.336	8.75
809.079	8.75
809.823	8.75
810.566	8.75
811.31	5.75
812.053	7.75
812.796	8.75
813.539	8.75
814.283	7.75
815.026	8.75
815.769	6.75
816.511	8.75
817.254	9.75
817.997	5.75
818.74	6.75
819.482	5.75
820.225	6.75
820.967	7.75
821.71	4.75
822.452	9.75
823.194	5.75
823.936	7.75
824.678	5.75
825.42	6.75
826.162	7.75
826.904	6.75
827.646	6.75
828.388	6.75
829.129	7.75
829.871	3.75
830.612	6.75
831.354	4.75
832.095	4.75
832.836	5.75
833.577	4.75
834.319	6.75
835.06	6.75
835.801	4.75
836.542	4.75
837.282	4.75
838.023	5.75
838.764	5.75
839.504	6.75
840.245	4.75
840.985	4.75
841.726	3.75
842.466	4.75
843.206	6.75
843.946	4.75
844.687	4.75
845.427	3.75
846.166	5.75
846.906	4.75
847.646	6.75
848.386	3.75
849.125	4.75
849.865	3.75
850.605	1.75
851.344	2.75
852.083	3.75
852.823	4.75
853.562	4.75
854.301	2.75
855.04	4.75
855.779	4.75
856.518	4.75
857.257	3.75
857.995	3.75
858.734	2.75
859.473	2.75
860.211	2.75
860.95	4.75
861.688	2.75
862.426	2.75
863.165	3.75
863.903	3.75
864.641	2.75
865.379	1.75
866.117	2.75
866.855	4.75
867.593	1.75
868.33	2.75
869.068	4.75
869.806	2.75
870.543	1.75
871.28	2.75
872.018	4.75
872.755	0.75
873.492	4.75
874.229	3.75
874.967	2.75
875.703	3.75
876.44	3.75
877.177	0.75
877.914	2.75
878.651	2.75
879.387	2.75
880.124	-1.25
880.86	1.75
881.597	1.75
882.333	2.75
883.069	2.75
883.806	1.75
884.542	0.75
885.278	0.75
886.014	1.75
886.749	1.75
887.485	1.75
888.221	0.75
888.957	1.75
889.692	2.75
890.428	-1.25
891.163	0.75
891.899	1.75
892.634	2.75
893.369	1.75
894.104	0.75
894.839	2.75
895.574	0.75
896.309	3.75
897.044	1.75
897.779	0.75
898.514	3.75
899.248	2.75
899.983	2.75
900.717	0.75
901.452	2.75
902.186	1.75
902.92	1.75
903.654	2.75
904.389	0.75
905.123	1.75
905.857	0.75
906.59	1.75
907.324	1.75
908.058	2.75
908.792	-0.25
909.525	2.75
910.259	1.75
910.992	0.75
911.726	1.75
912.459	0.75
913.192	0.75
913.925	0.75
914.658	-1.25
915.391	-0.25
916.124	1.75
916.857	2.75
917.59	1.75
918.323	0.75
919.055	0.75
919.788	-1.25
920.521	0.75
921.253	1.75
921.985	3.75
922.718	0.75
923.45	-0.25
924.182	0.75
924.914	0.75
925.646	1.75
926.378	-1.25
927.11	2.75
927.841	1.75
928.573	1.75
929.305	0.75
930.036	-0.25
930.768	1.75
931.499	1.75
932.23	1.75
932.962	-0.25
933.693	-1.25
934.424	0.75
935.155	3.75
935.886	1.75
936.617	1.75
937.348	-1.25
938.078	-0.25
938.809	0.75
939.54	0.75
940.27	1.75
941.001	0.75
941.731	-1.25
942.461	0.75
943.191	0.75
943.922	0.75
944.652	2.75
945.382	0.75
946.112	0.75
946.841	0.75
947.571	3.75
948.301	-1.25
949.031	1.75
949.76	-0.25
950.49	0.75
951.219	-0.25
951.948	-1.25
952.678	-0.25
953.407	0.75
954.136	-0.25
954.865	1.75
955.594	-0.25
956.323	-0.25
957.052	0.75
957.78	1.75
958.509	-0.25
959.238	2.75
959.966	-0.25
960.695	-0.25
961.423	2.75
962.151	1.75
962.88	2.75
963.608	-1.25
964.336	0.75
965.064	-0.25
965.792	-1.25
966.52	1.75
967.247	0.75
967.975	0.75
968.703	-0.25
969.43	1.75
970.158	0.75
970.885	1.75
971.613	0.75
972.34	-1.25
973.067	0.75
973.794	2.75
974.521	-0.25
975.248	-1.25
975.975	2.75
976.702	2.75
977.429	1.75
978.156	1.75
978.882	-0.25
979.609	1.75
980.335	-1.25
981.062	0.75
981.788	1.75
982.514	-0.25
983.24	-1.25
983.967	0.75
984.693	2.75
985.419	-0.25
986.144	2.75
986.87	1.75
987.596	-0.25
988.322	0.75
989.047	0.75
989.773	1.75
990.498	0.75
991.224	-0.25
991.949	0.75
992.674	-0.25
993.399	0.75
994.124	0.75
994.849	1.75
995.574	-0.25
996.299	1.75
997.024	0.75
997.749	0.75
998.473	-0.25
999.198	1.75
999.922	0.75
1000.647	-0.25
1001.371	3.75
1002.095	-0.25
1002.82	0.75
1003.544	-2.25
1004.268	4.75
1004.992	3.75
1005.716	4.75
1006.439	2.75
1007.163	6.75
1007.887	5.75
1008.611	1.75
1009.334	1.75
1010.058	0.75
1010.781	-1.25
1011.504	0.75
1012.228	-0.25
1012.951	-0.25
1013.674	-2.25
1014.397	0.75
1015.12	-0.25
