节点500_565_QEPB04081__379__09-56-43-353.txt的数据

Date: Thu Nov 13 09:56:43 CST 2025
User: PC
Spectrometer: QEPB0408
触发模式: 0
积分时间 (秒): 1.000000E-2
Scans to average: 1
启用暗噪声校正: true
启用非线性校正: false
滑动平均宽度: 0
X轴模式: Wavelengths
Number of Pixels in Spectrum: 1044
>>>>>Begin Spectral Data<<<<<
220.843	3.12
221.644	6.12
222.444	3.12
223.244	5.12
224.045	5.12
224.845	7.12
225.645	4.12
226.445	5.12
227.245	6.12
228.045	6.12
228.845	6.12
229.645	6.12
230.444	8.12
231.244	8.12
232.043	8.12
232.843	9.12
233.642	4.12
234.442	8.12
235.241	7.12
236.04	9.12
236.839	10.12
237.638	11.12
238.437	9.12
239.236	7.12
240.035	10.12
240.833	10.12
241.632	10.12
242.43	10.12
243.229	6.12
244.027	11.12
244.826	11.12
245.624	12.12
246.422	11.12
247.22	12.12
248.018	13.12
248.816	11.12
249.614	11.12
250.412	11.12
251.21	15.12
252.007	16.12
252.805	14.12
253.602	15.12
254.4	14.12
255.197	14.12
255.994	15.12
256.791	17.12
257.589	16.12
258.386	19.12
259.183	20.12
259.979	17.12
260.776	17.12
261.573	17.12
262.37	18.12
263.166	19.12
263.963	21.12
264.759	21.12
265.556	22.12
266.352	18.12
267.148	23.12
267.944	23.12
268.74	25.12
269.536	24.12
270.332	24.12
271.128	22.12
271.924	26.12
272.719	26.12
273.515	26.12
274.311	26.12
275.106	26.12
275.901	25.12
276.697	29.12
277.492	30.12
278.287	26.12
279.082	28.12
279.877	27.12
280.672	28.12
281.467	28.12
282.262	28.12
283.056	29.12
283.851	27.12
284.646	33.12
285.44	27.12
286.234	29.12
287.029	31.12
287.823	28.12
288.617	28.12
289.411	28.12
290.205	30.12
290.999	27.12
291.793	28.12
292.587	26.12
293.381	29.12
294.174	24.12
294.968	23.12
295.761	24.12
296.555	23.12
297.348	25.12
298.141	23.12
298.935	25.12
299.728	23.12
300.521	21.12
301.314	22.12
302.107	22.12
302.899	22.12
303.692	21.12
304.485	19.12
305.277	21.12
306.07	18.12
306.862	19.12
307.655	19.12
308.447	21.12
309.239	19.12
310.031	16.12
310.823	17.12
311.615	14.12
312.407	13.12
313.199	17.12
313.991	15.12
314.783	12.12
315.574	12.12
316.366	16.12
317.157	13.12
317.949	13.12
318.74	9.12
319.531	13.12
320.322	12.12
321.113	13.12
321.904	13.12
322.695	13.12
323.486	11.12
324.277	10.12
325.068	13.12
325.858	13.12
326.649	12.12
327.439	11.12
328.23	10.12
329.02	10.12
329.81	11.12
330.6	11.12
331.391	11.12
332.181	11.12
332.971	13.12
333.76	10.12
334.55	10.12
335.34	9.12
336.13	10.12
336.919	12.12
337.709	12.12
338.498	11.12
339.287	11.12
340.077	10.12
340.866	9.12
341.655	10.12
342.444	10.12
343.233	10.12
344.022	11.12
344.811	9.12
345.6	11.12
346.388	9.12
347.177	12.12
347.965	8.12
348.754	12.12
349.542	10.12
350.33	10.12
351.119	8.12
351.907	7.12
352.695	10.12
353.483	9.12
354.271	9.12
355.059	9.12
355.846	7.12
356.634	11.12
357.422	9.12
358.209	11.12
358.997	7.12
359.784	10.12
360.571	9.12
361.359	11.12
362.146	8.12
362.933	7.12
363.72	9.12
364.507	9.12
365.294	10.12
366.081	9.12
366.867	8.12
367.654	8.12
368.44	8.12
369.227	7.12
370.013	6.12
370.8	9.12
371.586	9.12
372.372	10.12
373.158	9.12
373.944	9.12
374.73	9.12
375.516	9.12
376.302	8.12
377.088	9.12
377.873	9.12
378.659	6.12
379.445	7.12
380.23	8.12
381.015	10.12
381.801	8.12
382.586	9.12
383.371	10.12
384.156	9.12
384.941	11.12
385.726	9.12
386.511	7.12
387.296	9.12
388.08	10.12
388.865	9.12
389.649	9.12
390.434	10.12
391.218	12.12
392.003	10.12
392.787	12.12
393.571	10.12
394.355	11.12
395.139	11.12
395.923	11.12
396.707	11.12
397.491	10.12
398.274	11.12
399.058	11.12
399.842	13.12
400.625	11.12
401.408	13.12
402.192	13.12
402.975	13.12
403.758	10.12
404.541	13.12
405.324	15.12
406.107	12.12
406.89	11.12
407.673	11.12
408.456	13.12
409.238	18.12
410.021	14.12
410.803	13.12
411.586	14.12
412.368	14.12
413.151	16.12
413.933	13.12
414.715	15.12
415.497	16.12
416.279	15.12
417.061	20.12
417.843	15.12
418.624	14.12
419.406	17.12
420.188	19.12
420.969	18.12
421.751	19.12
422.532	19.12
423.313	19.12
424.095	21.12
424.876	21.12
425.657	21.12
426.438	19.12
427.219	23.12
428	22.12
428.78	21.12
429.561	24.12
430.342	24.12
431.122	25.12
431.903	27.12
432.683	31.12
433.464	30.12
434.244	27.12
435.024	30.12
435.804	32.12
436.584	35.12
437.364	36.12
438.144	39.12
438.924	43.12
439.704	45.12
440.483	46.12
441.263	47.12
442.042	52.12
442.822	54.12
443.601	57.12
444.38	62.12
445.16	67.12
445.939	80.12
446.718	77.12
447.497	87.12
448.276	91.12
449.054	105.12
449.833	110.12
450.612	125.12
451.391	137.12
452.169	146.12
452.948	169.12
453.726	181.12
454.504	206.12
455.282	225.12
456.061	255.12
456.839	277.12
457.617	306.12
458.395	342.12
459.172	387.12
459.95	426.12
460.728	476.12
461.506	535.12
462.283	598.12
463.061	661.12
463.838	734.12
464.615	819.12
465.393	906.12
466.17	1009.12
466.947	1123.12
467.724	1251.12
468.501	1376.12
469.278	1530.12
470.055	1697.12
470.831	1884.12
471.608	2077.12
472.385	2287.12
473.161	2517.12
473.938	2778.12
474.714	3050.12
475.49	3342.12
476.266	3679.12
477.043	4031.12
477.819	4440.12
478.595	4823.12
479.371	5234.12
480.146	5771.12
480.922	6288.12
481.698	6840.12
482.473	7453.12
483.249	8114.12
484.024	8803.12
484.8	9605.12
485.575	10372.12
486.35	11243.12
487.126	12207.12
487.901	13227.12
488.676	14334.12
489.451	15484.12
490.225	16673.12
491	17982.12
491.775	19339.12
492.55	20761.12
493.324	22121.12
494.099	23647.12
494.873	25221.12
495.647	26717.12
496.422	28291.12
497.196	29821.12
497.97	31314.12
498.744	32791.12
499.518	34144.12
500.292	35365.12
501.066	36625.12
501.839	37717.12
502.613	38563.12
503.387	39201.12
504.16	39921.12
504.934	40245.12
505.707	40293.12
506.48	40343.12
507.253	40040.12
508.027	39640.12
508.8	38954.12
509.573	38203.12
510.346	37223.12
511.118	36337.12
511.891	35360.12
512.664	34276.12
513.437	32981.12
514.209	31729.12
514.982	30540.12
515.754	29449.12
516.526	28225.12
517.298	26962.12
518.071	25959.12
518.843	24944.12
519.615	23864.12
520.387	22918.12
521.159	22129.12
521.93	21227.12
522.702	20272.12
523.474	19521.12
524.245	18713.12
525.017	17908.12
525.788	17165.12
526.56	16393.12
527.331	15612.12
528.102	14974.12
528.873	14239.12
529.644	13538.12
530.415	12873.12
531.186	12228.12
531.957	11673.12
532.728	11069.12
533.498	10476.12
534.269	9930.12
535.039	9389.12
535.81	8882.12
536.58	8377.12
537.351	7961.12
538.121	7517.12
538.891	7148.12
539.661	6749.12
540.431	6396.12
541.201	6065.12
541.971	5739.12
542.741	5437.12
543.51	5146.12
544.28	4886.12
545.05	4662.12
545.819	4428.12
546.588	4237.12
547.358	3983.12
548.127	3812.12
548.896	3635.12
549.665	3489.12
550.434	3241.12
551.203	3073.12
551.972	2931.12
552.741	2796.12
553.51	2613.12
554.278	2483.12
555.047	2323.12
555.815	2225.12
556.584	2101.12
557.352	1985.12
558.121	1860.12
558.889	1773.12
559.657	1668.12
560.425	1581.12
561.193	1482.12
561.961	1418.12
562.729	1347.12
563.496	1269.12
564.264	1198.12
565.032	1132.12
565.799	1067.12
566.567	1013.12
567.334	951.12
568.101	907.12
568.869	858.12
569.636	807.12
570.403	779.12
571.17	721.12
571.937	689.12
572.704	639.12
573.471	609.12
574.237	576.12
575.004	531.12
575.771	499.12
576.537	474.12
577.303	447.12
578.07	433.12
578.836	399.12
579.602	383.12
580.368	355.12
581.134	340.12
581.9	329.12
582.666	307.12
583.432	289.12
584.198	278.12
584.964	263.12
585.729	249.12
586.495	233.12
587.26	228.12
588.025	210.12
588.791	201.12
589.556	189.12
590.321	182.12
591.086	174.12
591.851	165.12
592.616	159.12
593.381	153.12
594.146	138.12
594.911	136.12
595.675	129.12
596.44	120.12
597.204	117.12
597.969	115.12
598.733	109.12
599.497	104.12
600.261	99.12
601.025	96.12
601.79	93.12
602.553	84.12
603.317	86.12
604.081	81.12
604.845	77.12
605.609	75.12
606.372	71.12
607.136	70.12
607.899	62.12
608.662	60.12
609.426	61.12
610.189	58.12
610.952	60.12
611.715	53.12
612.478	53.12
613.241	51.12
614.004	51.12
614.767	45.12
615.529	45.12
616.292	41.12
617.055	41.12
617.817	42.12
618.579	40.12
619.342	42.12
620.104	37.12
620.866	35.12
621.628	34.12
622.39	32.12
623.152	32.12
623.914	29.12
624.676	32.12
625.438	30.12
626.199	29.12
626.961	28.12
627.722	25.12
628.484	25.12
629.245	26.12
630.006	23.12
630.768	24.12
631.529	26.12
632.29	24.12
633.051	21.12
633.812	20.12
634.573	20.12
635.333	20.12
636.094	19.12
636.855	21.12
637.615	19.12
638.376	19.12
639.136	19.12
639.896	15.12
640.657	15.12
641.417	17.12
642.177	16.12
642.937	14.12
643.697	15.12
644.457	16.12
645.216	13.12
645.976	15.12
646.736	15.12
647.495	13.12
648.255	13.12
649.014	13.12
649.774	12.12
650.533	14.12
651.292	14.12
652.051	14.12
652.81	13.12
653.569	13.12
654.328	10.12
655.087	12.12
655.846	10.12
656.604	12.12
657.363	11.12
658.121	12.12
658.88	11.12
659.638	10.12
660.397	10.12
661.155	9.12
661.913	10.12
662.671	11.12
663.429	11.12
664.187	12.12
664.945	8.12
665.703	11.12
666.46	10.12
667.218	10.12
667.976	9.12
668.733	5.12
669.49	11.12
670.248	10.12
671.005	11.12
671.762	8.12
672.519	6.12
673.276	8.12
674.033	9.12
674.79	7.12
675.547	9.12
676.304	7.12
677.06	7.12
677.817	10.12
678.574	7.12
679.33	8.12
680.086	9.12
680.843	7.12
681.599	8.12
682.355	8.12
683.111	9.12
683.867	8.12
684.623	7.12
685.379	8.12
686.135	5.12
686.89	8.12
687.646	6.12
688.402	6.12
689.157	5.12
689.912	6.12
690.668	7.12
691.423	8.12
692.178	7.12
692.933	6.12
693.688	9.12
694.443	6.12
695.198	7.12
695.953	6.12
696.708	6.12
697.462	6.12
698.217	6.12
698.972	7.12
699.726	5.12
700.48	7.12
701.235	6.12
701.989	7.12
702.743	4.12
703.497	9.12
704.251	9.12
705.005	5.12
705.759	8.12
706.513	3.12
707.266	7.12
708.02	6.12
708.774	5.12
709.527	7.12
710.28	7.12
711.034	7.12
711.787	5.12
712.54	7.12
713.293	8.12
714.046	8.12
714.799	5.12
715.552	8.12
716.305	7.12
717.058	5.12
717.81	8.12
718.563	6.12
719.315	7.12
720.068	6.12
720.82	5.12
721.573	7.12
722.325	5.12
723.077	8.12
723.829	6.12
724.581	6.12
725.333	5.12
726.085	8.12
726.836	5.12
727.588	9.12
728.34	5.12
729.091	7.12
729.843	9.12
730.594	7.12
731.346	7.12
732.097	7.12
732.848	7.12
733.599	9.12
734.35	8.12
735.101	7.12
735.852	7.12
736.603	8.12
737.354	9.12
738.104	7.12
738.855	10.12
739.605	5.12
740.356	8.12
741.106	9.12
741.856	10.12
742.607	10.12
743.357	10.12
744.107	7.12
744.857	6.12
745.607	7.12
746.357	11.12
747.106	10.12
747.856	7.12
748.606	8.12
749.355	13.12
750.105	9.12
750.854	7.12
751.603	8.12
752.353	9.12
753.102	8.12
753.851	9.12
754.6	11.12
755.349	8.12
756.098	11.12
756.847	11.12
757.595	11.12
758.344	7.12
759.093	9.12
759.841	9.12
760.589	11.12
761.338	11.12
762.086	10.12
762.834	11.12
763.582	10.12
764.331	11.12
765.079	9.12
765.826	12.12
766.574	9.12
767.322	11.12
768.07	13.12
768.817	13.12
769.565	13.12
770.312	13.12
771.06	10.12
771.807	14.12
772.554	13.12
773.302	12.12
774.049	12.12
774.796	14.12
775.543	12.12
776.29	13.12
777.036	15.12
777.783	13.12
778.53	14.12
779.276	14.12
780.023	13.12
780.769	14.12
781.516	12.12
782.262	14.12
783.008	14.12
783.754	11.12
784.5	13.12
785.246	17.12
785.992	13.12
786.738	13.12
787.484	13.12
788.23	13.12
788.975	12.12
789.721	13.12
790.466	13.12
791.212	13.12
791.957	12.12
792.702	11.12
793.447	12.12
794.193	14.12
794.938	12.12
795.683	11.12
796.427	11.12
797.172	11.12
797.917	11.12
798.662	11.12
799.406	13.12
800.151	13.12
800.895	10.12
801.64	10.12
802.384	11.12
803.128	10.12
803.872	9.12
804.616	9.12
805.36	10.12
806.104	10.12
806.848	9.12
807.592	8.12
808.336	10.12
809.079	8.12
809.823	10.12
810.566	6.12
811.31	7.12
812.053	7.12
812.796	9.12
813.539	9.12
814.283	9.12
815.026	9.12
815.769	9.12
816.511	9.12
817.254	9.12
817.997	6.12
818.74	7.12
819.482	7.12
820.225	8.12
820.967	7.12
821.71	7.12
822.452	7.12
823.194	7.12
823.936	5.12
824.678	5.12
825.42	7.12
826.162	7.12
826.904	5.12
827.646	6.12
828.388	6.12
829.129	8.12
829.871	6.12
830.612	6.12
831.354	6.12
832.095	6.12
832.836	6.12
833.577	5.12
834.319	6.12
835.06	5.12
835.801	5.12
836.542	6.12
837.282	7.12
838.023	3.12
838.764	5.12
839.504	7.12
840.245	6.12
840.985	5.12
841.726	5.12
842.466	7.12
843.206	5.12
843.946	7.12
844.687	7.12
845.427	4.12
846.166	5.12
846.906	5.12
847.646	4.12
848.386	4.12
849.125	5.12
849.865	4.12
850.605	5.12
851.344	2.12
852.083	4.12
852.823	4.12
853.562	4.12
854.301	5.12
855.04	4.12
855.779	5.12
856.518	2.12
857.257	4.12
857.995	3.12
858.734	2.12
859.473	5.12
860.211	4.12
860.95	5.12
861.688	4.12
862.426	2.12
863.165	3.12
863.903	2.12
864.641	3.12
865.379	3.12
866.117	3.12
866.855	3.12
867.593	1.12
868.33	1.12
869.068	3.12
869.806	5.12
870.543	1.12
871.28	2.12
872.018	4.12
872.755	2.12
873.492	2.12
874.229	3.12
874.967	4.12
875.703	1.12
876.44	5.12
877.177	2.12
877.914	2.12
878.651	1.12
879.387	2.12
880.124	3.12
880.86	1.12
881.597	3.12
882.333	1.12
883.069	2.12
883.806	4.12
884.542	2.12
885.278	3.12
886.014	3.12
886.749	1.12
887.485	1.12
888.221	2.12
888.957	2.12
889.692	1.12
890.428	0.12
891.163	0.12
891.899	4.12
892.634	2.12
893.369	3.12
894.104	1.12
894.839	1.12
895.574	-0.88
896.309	2.12
897.044	3.12
897.779	2.12
898.514	4.12
899.248	1.12
899.983	1.12
900.717	1.12
901.452	0.12
902.186	3.12
902.92	-1.88
903.654	2.12
904.389	1.12
905.123	2.12
905.857	2.12
906.59	0.12
907.324	2.12
908.058	1.12
908.792	1.12
909.525	2.12
910.259	0.12
910.992	0.12
911.726	0.12
912.459	2.12
913.192	0.12
913.925	2.12
914.658	1.12
915.391	1.12
916.124	0.12
916.857	1.12
917.59	2.12
918.323	3.12
919.055	2.12
919.788	2.12
920.521	1.12
921.253	1.12
921.985	-1.88
922.718	4.12
923.45	-0.88
924.182	2.12
924.914	1.12
925.646	1.12
926.378	2.12
927.11	0.12
927.841	1.12
928.573	0.12
929.305	2.12
930.036	1.12
930.768	1.12
931.499	0.12
932.23	2.12
932.962	1.12
933.693	1.12
934.424	2.12
935.155	-1.88
935.886	1.12
936.617	2.12
937.348	-0.88
938.078	0.12
938.809	-0.88
939.54	0.12
940.27	-0.88
941.001	1.12
941.731	1.12
942.461	-0.88
943.191	1.12
943.922	-1.88
944.652	1.12
945.382	1.12
946.112	1.12
946.841	1.12
947.571	1.12
948.301	2.12
949.031	0.12
949.76	2.12
950.49	1.12
951.219	-0.88
951.948	1.12
952.678	5.12
953.407	2.12
954.136	0.12
954.865	2.12
955.594	1.12
956.323	1.12
957.052	1.12
957.78	2.12
958.509	1.12
959.238	-1.88
959.966	2.12
960.695	0.12
961.423	-1.88
962.151	1.12
962.88	-1.88
963.608	1.12
964.336	1.12
965.064	3.12
965.792	0.12
966.52	0.12
967.247	1.12
967.975	0.12
968.703	1.12
969.43	0.12
970.158	-0.88
970.885	-1.88
971.613	3.12
972.34	0.12
973.067	-0.88
973.794	2.12
974.521	3.12
975.248	-1.88
975.975	1.12
976.702	1.12
977.429	0.12
978.156	1.12
978.882	1.12
979.609	0.12
980.335	1.12
981.062	1.12
981.788	1.12
982.514	-0.88
983.24	0.12
983.967	2.12
984.693	3.12
985.419	-0.88
986.144	1.12
986.87	0.12
987.596	0.12
988.322	2.12
989.047	1.12
989.773	1.12
990.498	1.12
991.224	1.12
991.949	0.12
992.674	1.12
993.399	1.12
994.124	2.12
994.849	1.12
995.574	0.12
996.299	1.12
997.024	2.12
997.749	2.12
998.473	1.12
999.198	2.12
999.922	0.12
1000.647	0.12
1001.371	3.12
1002.095	-0.88
1002.82	-2.88
1003.544	1.12
1004.268	4.12
1004.992	2.12
1005.716	3.12
1006.439	7.12
1007.163	4.12
1007.887	4.12
1008.611	1.12
1009.334	2.12
1010.058	-1.88
1010.781	-0.88
1011.504	2.12
1012.228	1.12
1012.951	0.12
1013.674	1.12
1014.397	-0.88
1015.12	-0.88
