节点500_565_QEPB04081__299__09-55-23-526.txt的数据

Date: Thu Nov 13 09:55:23 CST 2025
User: PC
Spectrometer: QEPB0408
触发模式: 0
积分时间 (秒): 1.000000E-2
Scans to average: 1
启用暗噪声校正: true
启用非线性校正: false
滑动平均宽度: 0
X轴模式: Wavelengths
Number of Pixels in Spectrum: 1044
>>>>>Begin Spectral Data<<<<<
220.843	3.38
221.644	5.38
222.444	4.38
223.244	5.38
224.045	6.38
224.845	6.38
225.645	4.38
226.445	5.38
227.245	4.38
228.045	6.38
228.845	7.38
229.645	7.38
230.444	8.38
231.244	8.38
232.043	4.38
232.843	6.38
233.642	7.38
234.442	8.38
235.241	9.38
236.04	11.38
236.839	8.38
237.638	8.38
238.437	7.38
239.236	8.38
240.035	9.38
240.833	8.38
241.632	10.38
242.43	8.38
243.229	9.38
244.027	9.38
244.826	13.38
245.624	12.38
246.422	10.38
247.22	12.38
248.018	9.38
248.816	9.38
249.614	12.38
250.412	13.38
251.21	13.38
252.007	13.38
252.805	14.38
253.602	14.38
254.4	14.38
255.197	14.38
255.994	17.38
256.791	18.38
257.589	15.38
258.386	19.38
259.183	18.38
259.979	19.38
260.776	20.38
261.573	19.38
262.37	19.38
263.166	21.38
263.963	21.38
264.759	18.38
265.556	20.38
266.352	23.38
267.148	23.38
267.944	25.38
268.74	21.38
269.536	22.38
270.332	23.38
271.128	27.38
271.924	26.38
272.719	26.38
273.515	25.38
274.311	28.38
275.106	30.38
275.901	26.38
276.697	29.38
277.492	29.38
278.287	30.38
279.082	30.38
279.877	27.38
280.672	28.38
281.467	32.38
282.262	31.38
283.056	29.38
283.851	29.38
284.646	32.38
285.44	30.38
286.234	29.38
287.029	29.38
287.823	32.38
288.617	25.38
289.411	29.38
290.205	29.38
290.999	25.38
291.793	27.38
292.587	25.38
293.381	27.38
294.174	26.38
294.968	26.38
295.761	23.38
296.555	26.38
297.348	23.38
298.141	22.38
298.935	24.38
299.728	25.38
300.521	20.38
301.314	23.38
302.107	17.38
302.899	20.38
303.692	20.38
304.485	20.38
305.277	19.38
306.07	20.38
306.862	18.38
307.655	18.38
308.447	18.38
309.239	15.38
310.031	17.38
310.823	17.38
311.615	16.38
312.407	16.38
313.199	13.38
313.991	14.38
314.783	14.38
315.574	16.38
316.366	15.38
317.157	14.38
317.949	13.38
318.74	11.38
319.531	10.38
320.322	14.38
321.113	14.38
321.904	14.38
322.695	11.38
323.486	11.38
324.277	13.38
325.068	12.38
325.858	11.38
326.649	11.38
327.439	10.38
328.23	13.38
329.02	9.38
329.81	11.38
330.6	9.38
331.391	8.38
332.181	13.38
332.971	12.38
333.76	12.38
334.55	11.38
335.34	7.38
336.13	11.38
336.919	11.38
337.709	14.38
338.498	10.38
339.287	10.38
340.077	11.38
340.866	9.38
341.655	12.38
342.444	11.38
343.233	7.38
344.022	9.38
344.811	10.38
345.6	9.38
346.388	9.38
347.177	9.38
347.965	9.38
348.754	11.38
349.542	10.38
350.33	8.38
351.119	8.38
351.907	9.38
352.695	7.38
353.483	9.38
354.271	10.38
355.059	8.38
355.846	9.38
356.634	9.38
357.422	11.38
358.209	10.38
358.997	8.38
359.784	9.38
360.571	8.38
361.359	10.38
362.146	9.38
362.933	10.38
363.72	10.38
364.507	8.38
365.294	6.38
366.081	7.38
366.867	8.38
367.654	11.38
368.44	6.38
369.227	11.38
370.013	7.38
370.8	9.38
371.586	5.38
372.372	10.38
373.158	9.38
373.944	9.38
374.73	9.38
375.516	8.38
376.302	8.38
377.088	8.38
377.873	10.38
378.659	8.38
379.445	10.38
380.23	9.38
381.015	7.38
381.801	7.38
382.586	9.38
383.371	12.38
384.156	8.38
384.941	11.38
385.726	10.38
386.511	7.38
387.296	9.38
388.08	8.38
388.865	10.38
389.649	12.38
390.434	12.38
391.218	9.38
392.003	8.38
392.787	10.38
393.571	10.38
394.355	9.38
395.139	10.38
395.923	10.38
396.707	9.38
397.491	11.38
398.274	11.38
399.058	12.38
399.842	12.38
400.625	11.38
401.408	10.38
402.192	12.38
402.975	13.38
403.758	14.38
404.541	13.38
405.324	13.38
406.107	14.38
406.89	14.38
407.673	14.38
408.456	11.38
409.238	13.38
410.021	12.38
410.803	17.38
411.586	13.38
412.368	14.38
413.151	15.38
413.933	14.38
414.715	16.38
415.497	16.38
416.279	17.38
417.061	14.38
417.843	19.38
418.624	16.38
419.406	20.38
420.188	16.38
420.969	16.38
421.751	19.38
422.532	17.38
423.313	19.38
424.095	25.38
424.876	19.38
425.657	21.38
426.438	19.38
427.219	21.38
428	21.38
428.78	25.38
429.561	25.38
430.342	29.38
431.122	27.38
431.903	29.38
432.683	25.38
433.464	26.38
434.244	31.38
435.024	29.38
435.804	31.38
436.584	34.38
437.364	37.38
438.144	36.38
438.924	40.38
439.704	42.38
440.483	47.38
441.263	47.38
442.042	48.38
442.822	55.38
443.601	60.38
444.38	63.38
445.16	67.38
445.939	76.38
446.718	79.38
447.497	82.38
448.276	93.38
449.054	98.38
449.833	107.38
450.612	120.38
451.391	135.38
452.169	154.38
452.948	163.38
453.726	179.38
454.504	199.38
455.282	223.38
456.061	243.38
456.839	275.38
457.617	300.38
458.395	344.38
459.172	385.38
459.95	421.38
460.728	461.38
461.506	524.38
462.283	583.38
463.061	647.38
463.838	730.38
464.615	799.38
465.393	893.38
466.17	999.38
466.947	1113.38
467.724	1248.38
468.501	1375.38
469.278	1529.38
470.055	1668.38
470.831	1858.38
471.608	2085.38
472.385	2283.38
473.161	2543.38
473.938	2791.38
474.714	3047.38
475.49	3352.38
476.266	3687.38
477.043	4047.38
477.819	4478.38
478.595	4904.38
479.371	5329.38
480.146	5814.38
480.922	6377.38
481.698	6963.38
482.473	7571.38
483.249	8269.38
484.024	9009.38
484.8	9821.38
485.575	10689.38
486.35	11544.38
487.126	12581.38
487.901	13621.38
488.676	14807.38
489.451	16055.38
490.225	17321.38
491	18666.38
491.775	20094.38
492.55	21558.38
493.324	23058.38
494.099	24549.38
494.873	26153.38
495.647	27897.38
496.422	29459.38
497.196	31047.38
497.97	32632.38
498.744	34088.38
499.518	35431.38
500.292	36741.38
501.066	37894.38
501.839	39017.38
502.613	39846.38
503.387	40517.38
504.16	41109.38
504.934	41370.38
505.707	41339.38
506.48	41279.38
507.253	40949.38
508.027	40220.38
508.8	39541.38
509.573	38696.38
510.346	37661.38
511.118	36606.38
511.891	35610.38
512.664	34339.38
513.437	33123.38
514.209	31751.38
514.982	30593.38
515.754	29375.38
516.526	28152.38
517.298	26972.38
518.071	25850.38
518.843	24866.38
519.615	23810.38
520.387	22859.38
521.159	21962.38
521.93	21157.38
522.702	20229.38
523.474	19359.38
524.245	18621.38
525.017	17894.38
525.788	17078.38
526.56	16265.38
527.331	15562.38
528.102	14885.38
528.873	14129.38
529.644	13417.38
530.415	12751.38
531.186	12125.38
531.957	11537.38
532.728	10934.38
533.498	10354.38
534.269	9785.38
535.039	9204.38
535.81	8762.38
536.58	8319.38
537.351	7851.38
538.121	7431.38
538.891	6993.38
539.661	6622.38
540.431	6308.38
541.201	5950.38
541.971	5630.38
542.741	5343.38
543.51	5056.38
544.28	4842.38
545.05	4605.38
545.819	4353.38
546.588	4160.38
547.358	3946.38
548.127	3735.38
548.896	3558.38
549.665	3386.38
550.434	3199.38
551.203	3058.38
551.972	2870.38
552.741	2717.38
553.51	2579.38
554.278	2439.38
555.047	2285.38
555.815	2176.38
556.584	2047.38
557.352	1960.38
558.121	1838.38
558.889	1729.38
559.657	1620.38
560.425	1558.38
561.193	1452.38
561.961	1380.38
562.729	1313.38
563.496	1231.38
564.264	1173.38
565.032	1113.38
565.799	1051.38
566.567	991.38
567.334	931.38
568.101	892.38
568.869	832.38
569.636	794.38
570.403	750.38
571.17	704.38
571.937	662.38
572.704	624.38
573.471	593.38
574.237	562.38
575.004	528.38
575.771	500.38
576.537	470.38
577.303	439.38
578.07	421.38
578.836	385.38
579.602	360.38
580.368	357.38
581.134	336.38
581.9	315.38
582.666	302.38
583.432	286.38
584.198	268.38
584.964	257.38
585.729	248.38
586.495	229.38
587.26	221.38
588.025	207.38
588.791	195.38
589.556	190.38
590.321	181.38
591.086	167.38
591.851	159.38
592.616	154.38
593.381	145.38
594.146	138.38
594.911	134.38
595.675	130.38
596.44	124.38
597.204	117.38
597.969	112.38
598.733	103.38
599.497	97.38
600.261	97.38
601.025	96.38
601.79	93.38
602.553	84.38
603.317	85.38
604.081	76.38
604.845	76.38
605.609	74.38
606.372	68.38
607.136	64.38
607.899	64.38
608.662	60.38
609.426	58.38
610.189	59.38
610.952	55.38
611.715	52.38
612.478	51.38
613.241	48.38
614.004	46.38
614.767	46.38
615.529	44.38
616.292	42.38
617.055	38.38
617.817	40.38
618.579	37.38
619.342	35.38
620.104	36.38
620.866	35.38
621.628	37.38
622.39	33.38
623.152	31.38
623.914	30.38
624.676	29.38
625.438	29.38
626.199	28.38
626.961	27.38
627.722	29.38
628.484	27.38
629.245	23.38
630.006	24.38
630.768	23.38
631.529	23.38
632.29	25.38
633.051	21.38
633.812	20.38
634.573	23.38
635.333	21.38
636.094	21.38
636.855	16.38
637.615	17.38
638.376	18.38
639.136	19.38
639.896	17.38
640.657	18.38
641.417	17.38
642.177	15.38
642.937	17.38
643.697	13.38
644.457	19.38
645.216	14.38
645.976	17.38
646.736	13.38
647.495	13.38
648.255	15.38
649.014	15.38
649.774	13.38
650.533	12.38
651.292	15.38
652.051	11.38
652.81	13.38
653.569	12.38
654.328	11.38
655.087	9.38
655.846	11.38
656.604	13.38
657.363	11.38
658.121	9.38
658.88	12.38
659.638	10.38
660.397	9.38
661.155	11.38
661.913	7.38
662.671	11.38
663.429	10.38
664.187	13.38
664.945	8.38
665.703	7.38
666.46	9.38
667.218	11.38
667.976	8.38
668.733	8.38
669.49	9.38
670.248	7.38
671.005	9.38
671.762	9.38
672.519	8.38
673.276	9.38
674.033	8.38
674.79	8.38
675.547	9.38
676.304	5.38
677.06	9.38
677.817	8.38
678.574	8.38
679.33	8.38
680.086	5.38
680.843	7.38
681.599	9.38
682.355	8.38
683.111	8.38
683.867	8.38
684.623	7.38
685.379	8.38
686.135	7.38
686.89	8.38
687.646	5.38
688.402	8.38
689.157	5.38
689.912	9.38
690.668	7.38
691.423	6.38
692.178	8.38
692.933	5.38
693.688	7.38
694.443	6.38
695.198	8.38
695.953	7.38
696.708	9.38
697.462	5.38
698.217	7.38
698.972	7.38
699.726	6.38
700.48	5.38
701.235	6.38
701.989	8.38
702.743	7.38
703.497	9.38
704.251	6.38
705.005	4.38
705.759	7.38
706.513	5.38
707.266	6.38
708.02	9.38
708.774	6.38
709.527	7.38
710.28	7.38
711.034	6.38
711.787	7.38
712.54	6.38
713.293	5.38
714.046	9.38
714.799	10.38
715.552	7.38
716.305	6.38
717.058	6.38
717.81	9.38
718.563	7.38
719.315	5.38
720.068	6.38
720.82	6.38
721.573	6.38
722.325	8.38
723.077	9.38
723.829	7.38
724.581	9.38
725.333	6.38
726.085	7.38
726.836	7.38
727.588	7.38
728.34	6.38
729.091	7.38
729.843	7.38
730.594	8.38
731.346	5.38
732.097	7.38
732.848	7.38
733.599	9.38
734.35	7.38
735.101	7.38
735.852	9.38
736.603	8.38
737.354	7.38
738.104	6.38
738.855	8.38
739.605	8.38
740.356	7.38
741.106	9.38
741.856	7.38
742.607	11.38
743.357	8.38
744.107	9.38
744.857	8.38
745.607	10.38
746.357	7.38
747.106	8.38
747.856	9.38
748.606	9.38
749.355	9.38
750.105	9.38
750.854	9.38
751.603	10.38
752.353	10.38
753.102	12.38
753.851	9.38
754.6	8.38
755.349	9.38
756.098	12.38
756.847	9.38
757.595	13.38
758.344	10.38
759.093	8.38
759.841	13.38
760.589	12.38
761.338	13.38
762.086	10.38
762.834	12.38
763.582	11.38
764.331	11.38
765.079	13.38
765.826	13.38
766.574	10.38
767.322	12.38
768.07	11.38
768.817	12.38
769.565	13.38
770.312	13.38
771.06	13.38
771.807	15.38
772.554	12.38
773.302	13.38
774.049	12.38
774.796	14.38
775.543	15.38
776.29	14.38
777.036	11.38
777.783	14.38
778.53	13.38
779.276	13.38
780.023	13.38
780.769	15.38
781.516	12.38
782.262	15.38
783.008	12.38
783.754	14.38
784.5	13.38
785.246	14.38
785.992	15.38
786.738	15.38
787.484	13.38
788.23	12.38
788.975	14.38
789.721	12.38
790.466	12.38
791.212	14.38
791.957	13.38
792.702	12.38
793.447	11.38
794.193	10.38
794.938	15.38
795.683	13.38
796.427	14.38
797.172	11.38
797.917	11.38
798.662	12.38
799.406	13.38
800.151	14.38
800.895	7.38
801.64	11.38
802.384	10.38
803.128	13.38
803.872	12.38
804.616	10.38
805.36	9.38
806.104	11.38
806.848	10.38
807.592	9.38
808.336	9.38
809.079	7.38
809.823	11.38
810.566	8.38
811.31	8.38
812.053	7.38
812.796	8.38
813.539	7.38
814.283	7.38
815.026	8.38
815.769	8.38
816.511	7.38
817.254	7.38
817.997	8.38
818.74	8.38
819.482	5.38
820.225	7.38
820.967	6.38
821.71	7.38
822.452	7.38
823.194	8.38
823.936	7.38
824.678	7.38
825.42	7.38
826.162	7.38
826.904	6.38
827.646	7.38
828.388	8.38
829.129	6.38
829.871	5.38
830.612	9.38
831.354	7.38
832.095	5.38
832.836	6.38
833.577	5.38
834.319	5.38
835.06	4.38
835.801	7.38
836.542	6.38
837.282	8.38
838.023	5.38
838.764	7.38
839.504	5.38
840.245	6.38
840.985	6.38
841.726	5.38
842.466	7.38
843.206	5.38
843.946	5.38
844.687	3.38
845.427	5.38
846.166	5.38
846.906	3.38
847.646	5.38
848.386	6.38
849.125	4.38
849.865	6.38
850.605	3.38
851.344	6.38
852.083	5.38
852.823	5.38
853.562	5.38
854.301	3.38
855.04	5.38
855.779	2.38
856.518	4.38
857.257	4.38
857.995	6.38
858.734	3.38
859.473	2.38
860.211	3.38
860.95	2.38
861.688	3.38
862.426	2.38
863.165	2.38
863.903	4.38
864.641	3.38
865.379	4.38
866.117	2.38
866.855	3.38
867.593	3.38
868.33	0.38
869.068	1.38
869.806	1.38
870.543	1.38
871.28	1.38
872.018	1.38
872.755	3.38
873.492	1.38
874.229	2.38
874.967	1.38
875.703	3.38
876.44	1.38
877.177	1.38
877.914	1.38
878.651	1.38
879.387	1.38
880.124	3.38
880.86	1.38
881.597	4.38
882.333	1.38
883.069	1.38
883.806	3.38
884.542	3.38
885.278	3.38
886.014	1.38
886.749	2.38
887.485	3.38
888.221	2.38
888.957	1.38
889.692	0.38
890.428	2.38
891.163	1.38
891.899	-0.62
892.634	-0.62
893.369	2.38
894.104	1.38
894.839	0.38
895.574	2.38
896.309	2.38
897.044	0.38
897.779	0.38
898.514	0.38
899.248	3.38
899.983	0.38
900.717	0.38
901.452	1.38
902.186	4.38
902.92	0.38
903.654	1.38
904.389	1.38
905.123	2.38
905.857	3.38
906.59	0.38
907.324	0.38
908.058	3.38
908.792	1.38
909.525	1.38
910.259	2.38
910.992	1.38
911.726	3.38
912.459	0.38
913.192	3.38
913.925	2.38
914.658	0.38
915.391	2.38
916.124	0.38
916.857	0.38
917.59	1.38
918.323	0.38
919.055	1.38
919.788	3.38
920.521	-0.62
921.253	0.38
921.985	1.38
922.718	-0.62
923.45	2.38
924.182	-1.62
924.914	1.38
925.646	0.38
926.378	2.38
927.11	-0.62
927.841	1.38
928.573	0.38
929.305	-1.62
930.036	1.38
930.768	2.38
931.499	0.38
932.23	1.38
932.962	-0.62
933.693	0.38
934.424	-0.62
935.155	2.38
935.886	-0.62
936.617	2.38
937.348	1.38
938.078	1.38
938.809	3.38
939.54	1.38
940.27	2.38
941.001	0.38
941.731	1.38
942.461	2.38
943.191	1.38
943.922	2.38
944.652	1.38
945.382	1.38
946.112	1.38
946.841	1.38
947.571	1.38
948.301	0.38
949.031	1.38
949.76	0.38
950.49	1.38
951.219	-0.62
951.948	0.38
952.678	2.38
953.407	-1.62
954.136	1.38
954.865	1.38
955.594	1.38
956.323	-0.62
957.052	2.38
957.78	0.38
958.509	0.38
959.238	-0.62
959.966	1.38
960.695	-0.62
961.423	0.38
962.151	0.38
962.88	-0.62
963.608	0.38
964.336	1.38
965.064	-0.62
965.792	1.38
966.52	0.38
967.247	-0.62
967.975	0.38
968.703	-1.62
969.43	0.38
970.158	-0.62
970.885	1.38
971.613	0.38
972.34	0.38
973.067	1.38
973.794	0.38
974.521	1.38
975.248	3.38
975.975	-0.62
976.702	0.38
977.429	1.38
978.156	0.38
978.882	1.38
979.609	1.38
980.335	-0.62
981.062	1.38
981.788	-0.62
982.514	2.38
983.24	0.38
983.967	0.38
984.693	0.38
985.419	-1.62
986.144	1.38
986.87	-0.62
987.596	2.38
988.322	-0.62
989.047	2.38
989.773	1.38
990.498	1.38
991.224	0.38
991.949	2.38
992.674	2.38
993.399	1.38
994.124	0.38
994.849	0.38
995.574	0.38
996.299	0.38
997.024	0.38
997.749	1.38
998.473	2.38
999.198	0.38
999.922	1.38
1000.647	0.38
1001.371	4.38
1002.095	-2.62
1002.82	-1.62
1003.544	-0.62
1004.268	6.38
1004.992	1.38
1005.716	4.38
1006.439	3.38
1007.163	4.38
1007.887	5.38
1008.611	1.38
1009.334	0.38
1010.058	2.38
1010.781	0.38
1011.504	1.38
1012.228	1.38
1012.951	-1.62
1013.674	-0.62
1014.397	0.38
1015.12	2.38
