节点500_565_QEPB04081__241__09-54-25-698.txt的数据

Date: Thu Nov 13 09:54:25 CST 2025
User: PC
Spectrometer: QEPB0408
触发模式: 0
积分时间 (秒): 1.000000E-2
Scans to average: 1
启用暗噪声校正: true
启用非线性校正: false
滑动平均宽度: 0
X轴模式: Wavelengths
Number of Pixels in Spectrum: 1044
>>>>>Begin Spectral Data<<<<<
220.843	3.12
221.644	4.12
222.444	2.12
223.244	4.12
224.045	4.12
224.845	6.12
225.645	5.12
226.445	5.12
227.245	4.12
228.045	4.12
228.845	5.12
229.645	4.12
230.444	6.12
231.244	6.12
232.043	4.12
232.843	8.12
233.642	6.12
234.442	10.12
235.241	8.12
236.04	8.12
236.839	8.12
237.638	9.12
238.437	9.12
239.236	8.12
240.035	9.12
240.833	8.12
241.632	10.12
242.43	9.12
243.229	8.12
244.027	8.12
244.826	8.12
245.624	12.12
246.422	11.12
247.22	11.12
248.018	13.12
248.816	10.12
249.614	12.12
250.412	11.12
251.21	12.12
252.007	14.12
252.805	13.12
253.602	14.12
254.4	13.12
255.197	13.12
255.994	16.12
256.791	13.12
257.589	16.12
258.386	17.12
259.183	17.12
259.979	22.12
260.776	18.12
261.573	19.12
262.37	19.12
263.166	20.12
263.963	21.12
264.759	20.12
265.556	22.12
266.352	22.12
267.148	20.12
267.944	20.12
268.74	24.12
269.536	24.12
270.332	24.12
271.128	26.12
271.924	24.12
272.719	25.12
273.515	25.12
274.311	28.12
275.106	26.12
275.901	27.12
276.697	28.12
277.492	29.12
278.287	29.12
279.082	27.12
279.877	31.12
280.672	28.12
281.467	27.12
282.262	28.12
283.056	28.12
283.851	28.12
284.646	30.12
285.44	29.12
286.234	28.12
287.029	28.12
287.823	29.12
288.617	30.12
289.411	28.12
290.205	28.12
290.999	29.12
291.793	26.12
292.587	24.12
293.381	26.12
294.174	25.12
294.968	27.12
295.761	22.12
296.555	23.12
297.348	22.12
298.141	22.12
298.935	26.12
299.728	23.12
300.521	20.12
301.314	22.12
302.107	20.12
302.899	20.12
303.692	18.12
304.485	16.12
305.277	20.12
306.07	17.12
306.862	18.12
307.655	19.12
308.447	17.12
309.239	17.12
310.031	16.12
310.823	14.12
311.615	16.12
312.407	15.12
313.199	13.12
313.991	15.12
314.783	15.12
315.574	15.12
316.366	14.12
317.157	14.12
317.949	13.12
318.74	13.12
319.531	9.12
320.322	11.12
321.113	12.12
321.904	13.12
322.695	9.12
323.486	14.12
324.277	12.12
325.068	10.12
325.858	12.12
326.649	12.12
327.439	11.12
328.23	11.12
329.02	12.12
329.81	10.12
330.6	10.12
331.391	10.12
332.181	9.12
332.971	9.12
333.76	13.12
334.55	9.12
335.34	11.12
336.13	8.12
336.919	8.12
337.709	9.12
338.498	9.12
339.287	10.12
340.077	9.12
340.866	13.12
341.655	9.12
342.444	8.12
343.233	11.12
344.022	10.12
344.811	10.12
345.6	9.12
346.388	10.12
347.177	9.12
347.965	7.12
348.754	11.12
349.542	9.12
350.33	9.12
351.119	10.12
351.907	7.12
352.695	10.12
353.483	9.12
354.271	9.12
355.059	8.12
355.846	11.12
356.634	7.12
357.422	9.12
358.209	11.12
358.997	6.12
359.784	9.12
360.571	7.12
361.359	7.12
362.146	8.12
362.933	8.12
363.72	8.12
364.507	9.12
365.294	10.12
366.081	6.12
366.867	7.12
367.654	7.12
368.44	7.12
369.227	6.12
370.013	6.12
370.8	6.12
371.586	7.12
372.372	8.12
373.158	9.12
373.944	9.12
374.73	8.12
375.516	8.12
376.302	9.12
377.088	7.12
377.873	8.12
378.659	8.12
379.445	6.12
380.23	9.12
381.015	6.12
381.801	7.12
382.586	8.12
383.371	9.12
384.156	11.12
384.941	10.12
385.726	8.12
386.511	11.12
387.296	9.12
388.08	10.12
388.865	9.12
389.649	9.12
390.434	7.12
391.218	9.12
392.003	8.12
392.787	11.12
393.571	10.12
394.355	8.12
395.139	11.12
395.923	12.12
396.707	10.12
397.491	12.12
398.274	10.12
399.058	10.12
399.842	11.12
400.625	12.12
401.408	13.12
402.192	11.12
402.975	12.12
403.758	11.12
404.541	10.12
405.324	12.12
406.107	11.12
406.89	11.12
407.673	12.12
408.456	12.12
409.238	13.12
410.021	16.12
410.803	15.12
411.586	13.12
412.368	15.12
413.151	12.12
413.933	15.12
414.715	16.12
415.497	14.12
416.279	16.12
417.061	15.12
417.843	15.12
418.624	17.12
419.406	17.12
420.188	18.12
420.969	16.12
421.751	16.12
422.532	17.12
423.313	19.12
424.095	21.12
424.876	18.12
425.657	20.12
426.438	21.12
427.219	19.12
428	19.12
428.78	23.12
429.561	24.12
430.342	24.12
431.122	23.12
431.903	26.12
432.683	28.12
433.464	27.12
434.244	26.12
435.024	28.12
435.804	33.12
436.584	34.12
437.364	35.12
438.144	40.12
438.924	39.12
439.704	43.12
440.483	44.12
441.263	45.12
442.042	49.12
442.822	56.12
443.601	56.12
444.38	62.12
445.16	66.12
445.939	69.12
446.718	72.12
447.497	83.12
448.276	89.12
449.054	98.12
449.833	104.12
450.612	121.12
451.391	131.12
452.169	145.12
452.948	158.12
453.726	172.12
454.504	194.12
455.282	214.12
456.061	233.12
456.839	266.12
457.617	292.12
458.395	327.12
459.172	368.12
459.95	412.12
460.728	459.12
461.506	523.12
462.283	577.12
463.061	643.12
463.838	708.12
464.615	799.12
465.393	888.12
466.17	988.12
466.947	1100.12
467.724	1232.12
468.501	1371.12
469.278	1515.12
470.055	1686.12
470.831	1868.12
471.608	2056.12
472.385	2282.12
473.161	2513.12
473.938	2790.12
474.714	3061.12
475.49	3372.12
476.266	3697.12
477.043	4116.12
477.819	4477.12
478.595	4922.12
479.371	5401.12
480.146	5906.12
480.922	6476.12
481.698	7105.12
482.473	7730.12
483.249	8446.12
484.024	9199.12
484.8	10069.12
485.575	10962.12
486.35	11845.12
487.126	12902.12
487.901	14014.12
488.676	15232.12
489.451	16544.12
490.225	17890.12
491	19246.12
491.775	20740.12
492.55	22307.12
493.324	23844.12
494.099	25461.12
494.873	27074.12
495.647	28788.12
496.422	30508.12
497.196	32117.12
497.97	33665.12
498.744	35194.12
499.518	36516.12
500.292	37894.12
501.066	39067.12
501.839	40059.12
502.613	40943.12
503.387	41464.12
504.16	41978.12
504.934	42169.12
505.707	42146.12
506.48	41972.12
507.253	41539.12
508.027	40747.12
508.8	39931.12
509.573	39040.12
510.346	37944.12
511.118	36772.12
511.891	35728.12
512.664	34448.12
513.437	33114.12
514.209	31795.12
514.982	30560.12
515.754	29324.12
516.526	28070.12
517.298	26904.12
518.071	25790.12
518.843	24744.12
519.615	23702.12
520.387	22824.12
521.159	21900.12
521.93	20976.12
522.702	20098.12
523.474	19291.12
524.245	18520.12
525.017	17761.12
525.788	16992.12
526.56	16203.12
527.331	15430.12
528.102	14741.12
528.873	14054.12
529.644	13296.12
530.415	12662.12
531.186	11984.12
531.957	11371.12
532.728	10767.12
533.498	10241.12
534.269	9645.12
535.039	9115.12
535.81	8675.12
536.58	8210.12
537.351	7699.12
538.121	7292.12
538.891	6924.12
539.661	6566.12
540.431	6220.12
541.201	5862.12
541.971	5585.12
542.741	5278.12
543.51	4978.12
544.28	4739.12
545.05	4508.12
545.819	4284.12
546.588	4084.12
547.358	3852.12
548.127	3692.12
548.896	3486.12
549.665	3333.12
550.434	3141.12
551.203	2986.12
551.972	2855.12
552.741	2703.12
553.51	2529.12
554.278	2385.12
555.047	2261.12
555.815	2138.12
556.584	2046.12
557.352	1901.12
558.121	1786.12
558.889	1684.12
559.657	1604.12
560.425	1511.12
561.193	1428.12
561.961	1351.12
562.729	1270.12
563.496	1209.12
564.264	1148.12
565.032	1089.12
565.799	1036.12
566.567	963.12
567.334	919.12
568.101	860.12
568.869	814.12
569.636	771.12
570.403	732.12
571.17	688.12
571.937	653.12
572.704	617.12
573.471	576.12
574.237	540.12
575.004	512.12
575.771	486.12
576.537	458.12
577.303	431.12
578.07	408.12
578.836	386.12
579.602	362.12
580.368	347.12
581.134	326.12
581.9	310.12
582.666	301.12
583.432	278.12
584.198	269.12
584.964	256.12
585.729	240.12
586.495	231.12
587.26	214.12
588.025	200.12
588.791	194.12
589.556	184.12
590.321	171.12
591.086	171.12
591.851	156.12
592.616	144.12
593.381	146.12
594.146	139.12
594.911	128.12
595.675	122.12
596.44	117.12
597.204	114.12
597.969	108.12
598.733	100.12
599.497	100.12
600.261	95.12
601.025	93.12
601.79	88.12
602.553	81.12
603.317	84.12
604.081	78.12
604.845	75.12
605.609	69.12
606.372	70.12
607.136	58.12
607.899	61.12
608.662	63.12
609.426	57.12
610.189	57.12
610.952	52.12
611.715	50.12
612.478	48.12
613.241	46.12
614.004	45.12
614.767	44.12
615.529	42.12
616.292	40.12
617.055	43.12
617.817	36.12
618.579	35.12
619.342	35.12
620.104	35.12
620.866	35.12
621.628	31.12
622.39	33.12
623.152	27.12
623.914	34.12
624.676	27.12
625.438	25.12
626.199	26.12
626.961	23.12
627.722	26.12
628.484	24.12
629.245	24.12
630.006	24.12
630.768	24.12
631.529	21.12
632.29	19.12
633.051	21.12
633.812	20.12
634.573	19.12
635.333	17.12
636.094	20.12
636.855	15.12
637.615	17.12
638.376	16.12
639.136	16.12
639.896	18.12
640.657	16.12
641.417	14.12
642.177	14.12
642.937	14.12
643.697	15.12
644.457	14.12
645.216	14.12
645.976	13.12
646.736	14.12
647.495	11.12
648.255	13.12
649.014	13.12
649.774	13.12
650.533	15.12
651.292	10.12
652.051	13.12
652.81	12.12
653.569	10.12
654.328	11.12
655.087	10.12
655.846	11.12
656.604	10.12
657.363	10.12
658.121	10.12
658.88	10.12
659.638	11.12
660.397	9.12
661.155	7.12
661.913	12.12
662.671	11.12
663.429	10.12
664.187	10.12
664.945	9.12
665.703	9.12
666.46	6.12
667.218	4.12
667.976	8.12
668.733	8.12
669.49	7.12
670.248	8.12
671.005	7.12
671.762	7.12
672.519	5.12
673.276	6.12
674.033	7.12
674.79	5.12
675.547	6.12
676.304	7.12
677.06	8.12
677.817	7.12
678.574	7.12
679.33	7.12
680.086	8.12
680.843	6.12
681.599	7.12
682.355	7.12
683.111	8.12
683.867	6.12
684.623	6.12
685.379	6.12
686.135	7.12
686.89	6.12
687.646	7.12
688.402	6.12
689.157	6.12
689.912	6.12
690.668	7.12
691.423	7.12
692.178	6.12
692.933	7.12
693.688	5.12
694.443	6.12
695.198	4.12
695.953	6.12
696.708	8.12
697.462	5.12
698.217	7.12
698.972	5.12
699.726	5.12
700.48	5.12
701.235	7.12
701.989	6.12
702.743	4.12
703.497	8.12
704.251	4.12
705.005	7.12
705.759	7.12
706.513	6.12
707.266	4.12
708.02	5.12
708.774	5.12
709.527	5.12
710.28	6.12
711.034	5.12
711.787	9.12
712.54	6.12
713.293	6.12
714.046	6.12
714.799	4.12
715.552	4.12
716.305	8.12
717.058	7.12
717.81	5.12
718.563	4.12
719.315	6.12
720.068	6.12
720.82	8.12
721.573	7.12
722.325	8.12
723.077	6.12
723.829	6.12
724.581	7.12
725.333	6.12
726.085	9.12
726.836	8.12
727.588	7.12
728.34	6.12
729.091	7.12
729.843	8.12
730.594	5.12
731.346	6.12
732.097	7.12
732.848	8.12
733.599	6.12
734.35	7.12
735.101	7.12
735.852	7.12
736.603	8.12
737.354	6.12
738.104	6.12
738.855	7.12
739.605	8.12
740.356	7.12
741.106	8.12
741.856	10.12
742.607	8.12
743.357	7.12
744.107	6.12
744.857	7.12
745.607	11.12
746.357	8.12
747.106	11.12
747.856	8.12
748.606	9.12
749.355	7.12
750.105	8.12
750.854	8.12
751.603	8.12
752.353	12.12
753.102	7.12
753.851	11.12
754.6	12.12
755.349	11.12
756.098	8.12
756.847	9.12
757.595	8.12
758.344	8.12
759.093	11.12
759.841	9.12
760.589	10.12
761.338	11.12
762.086	10.12
762.834	12.12
763.582	9.12
764.331	10.12
765.079	10.12
765.826	10.12
766.574	13.12
767.322	11.12
768.07	9.12
768.817	11.12
769.565	10.12
770.312	11.12
771.06	12.12
771.807	11.12
772.554	12.12
773.302	15.12
774.049	12.12
774.796	13.12
775.543	14.12
776.29	11.12
777.036	12.12
777.783	13.12
778.53	12.12
779.276	11.12
780.023	15.12
780.769	13.12
781.516	12.12
782.262	12.12
783.008	14.12
783.754	12.12
784.5	10.12
785.246	10.12
785.992	13.12
786.738	13.12
787.484	13.12
788.23	14.12
788.975	12.12
789.721	12.12
790.466	13.12
791.212	14.12
791.957	17.12
792.702	12.12
793.447	13.12
794.193	11.12
794.938	9.12
795.683	11.12
796.427	11.12
797.172	12.12
797.917	12.12
798.662	11.12
799.406	12.12
800.151	13.12
800.895	12.12
801.64	10.12
802.384	10.12
803.128	12.12
803.872	7.12
804.616	11.12
805.36	6.12
806.104	10.12
806.848	9.12
807.592	9.12
808.336	8.12
809.079	8.12
809.823	7.12
810.566	8.12
811.31	7.12
812.053	6.12
812.796	7.12
813.539	5.12
814.283	5.12
815.026	4.12
815.769	4.12
816.511	7.12
817.254	5.12
817.997	6.12
818.74	5.12
819.482	7.12
820.225	5.12
820.967	6.12
821.71	8.12
822.452	6.12
823.194	8.12
823.936	5.12
824.678	6.12
825.42	6.12
826.162	5.12
826.904	6.12
827.646	4.12
828.388	5.12
829.129	6.12
829.871	4.12
830.612	5.12
831.354	6.12
832.095	3.12
832.836	4.12
833.577	5.12
834.319	4.12
835.06	5.12
835.801	4.12
836.542	4.12
837.282	4.12
838.023	5.12
838.764	5.12
839.504	3.12
840.245	4.12
840.985	5.12
841.726	3.12
842.466	5.12
843.206	4.12
843.946	5.12
844.687	4.12
845.427	2.12
846.166	6.12
846.906	2.12
847.646	5.12
848.386	3.12
849.125	3.12
849.865	3.12
850.605	4.12
851.344	5.12
852.083	5.12
852.823	4.12
853.562	3.12
854.301	3.12
855.04	5.12
855.779	3.12
856.518	2.12
857.257	5.12
857.995	2.12
858.734	2.12
859.473	3.12
860.211	2.12
860.95	2.12
861.688	1.12
862.426	3.12
863.165	5.12
863.903	2.12
864.641	2.12
865.379	2.12
866.117	1.12
866.855	1.12
867.593	3.12
868.33	5.12
869.068	3.12
869.806	2.12
870.543	2.12
871.28	0.12
872.018	1.12
872.755	-0.88
873.492	2.12
874.229	1.12
874.967	1.12
875.703	1.12
876.44	0.12
877.177	2.12
877.914	3.12
878.651	1.12
879.387	1.12
880.124	1.12
880.86	2.12
881.597	1.12
882.333	0.12
883.069	-0.88
883.806	1.12
884.542	3.12
885.278	1.12
886.014	1.12
886.749	0.12
887.485	-0.88
888.221	2.12
888.957	0.12
889.692	0.12
890.428	0.12
891.163	1.12
891.899	2.12
892.634	2.12
893.369	0.12
894.104	1.12
894.839	0.12
895.574	1.12
896.309	1.12
897.044	0.12
897.779	0.12
898.514	0.12
899.248	1.12
899.983	-1.88
900.717	2.12
901.452	0.12
902.186	1.12
902.92	1.12
903.654	-0.88
904.389	0.12
905.123	0.12
905.857	1.12
906.59	0.12
907.324	0.12
908.058	0.12
908.792	1.12
909.525	0.12
910.259	0.12
910.992	2.12
911.726	-0.88
912.459	1.12
913.192	0.12
913.925	2.12
914.658	0.12
915.391	1.12
916.124	1.12
916.857	1.12
917.59	-0.88
918.323	0.12
919.055	1.12
919.788	0.12
920.521	2.12
921.253	2.12
921.985	-0.88
922.718	0.12
923.45	-0.88
924.182	2.12
924.914	0.12
925.646	-2.88
926.378	2.12
927.11	-0.88
927.841	4.12
928.573	0.12
929.305	0.12
930.036	0.12
930.768	0.12
931.499	0.12
932.23	1.12
932.962	2.12
933.693	0.12
934.424	-0.88
935.155	1.12
935.886	-1.88
936.617	-0.88
937.348	-2.88
938.078	-0.88
938.809	0.12
939.54	0.12
940.27	0.12
941.001	0.12
941.731	0.12
942.461	0.12
943.191	1.12
943.922	-1.88
944.652	0.12
945.382	0.12
946.112	-2.88
946.841	0.12
947.571	2.12
948.301	1.12
949.031	-1.88
949.76	-0.88
950.49	2.12
951.219	-1.88
951.948	-1.88
952.678	0.12
953.407	1.12
954.136	0.12
954.865	-0.88
955.594	0.12
956.323	-2.88
957.052	1.12
957.78	-0.88
958.509	-1.88
959.238	-0.88
959.966	0.12
960.695	0.12
961.423	0.12
962.151	0.12
962.88	-2.88
963.608	-0.88
964.336	1.12
965.064	0.12
965.792	0.12
966.52	-0.88
967.247	0.12
967.975	0.12
968.703	0.12
969.43	-1.88
970.158	1.12
970.885	0.12
971.613	-0.88
972.34	-0.88
973.067	-1.88
973.794	-1.88
974.521	-1.88
975.248	0.12
975.975	0.12
976.702	-0.88
977.429	0.12
978.156	-1.88
978.882	-0.88
979.609	-3.88
980.335	-0.88
981.062	0.12
981.788	2.12
982.514	1.12
983.24	0.12
983.967	-0.88
984.693	-0.88
985.419	-0.88
986.144	-0.88
986.87	0.12
987.596	1.12
988.322	-1.88
989.047	0.12
989.773	0.12
990.498	0.12
991.224	0.12
991.949	0.12
992.674	1.12
993.399	0.12
994.124	-0.88
994.849	0.12
995.574	1.12
996.299	0.12
997.024	0.12
997.749	1.12
998.473	-0.88
999.198	-0.88
999.922	0.12
1000.647	0.12
1001.371	3.12
1002.095	-0.88
1002.82	-0.88
1003.544	-2.88
1004.268	3.12
1004.992	4.12
1005.716	2.12
1006.439	4.12
1007.163	4.12
1007.887	3.12
1008.611	1.12
1009.334	0.12
1010.058	2.12
1010.781	-1.88
1011.504	-0.88
1012.228	-2.88
1012.951	-0.88
1013.674	1.12
1014.397	1.12
1015.12	0.12
