节点500_565_QEPB04081__248__09-54-32-674.txt的数据

Date: Thu Nov 13 09:54:32 CST 2025
User: PC
Spectrometer: QEPB0408
触发模式: 0
积分时间 (秒): 1.000000E-2
Scans to average: 1
启用暗噪声校正: true
启用非线性校正: false
滑动平均宽度: 0
X轴模式: Wavelengths
Number of Pixels in Spectrum: 1044
>>>>>Begin Spectral Data<<<<<
220.843	2.5
221.644	4.5
222.444	5.5
223.244	6.5
224.045	4.5
224.845	4.5
225.645	5.5
226.445	3.5
227.245	5.5
228.045	4.5
228.845	9.5
229.645	4.5
230.444	4.5
231.244	6.5
232.043	9.5
232.843	7.5
233.642	8.5
234.442	9.5
235.241	8.5
236.04	8.5
236.839	7.5
237.638	10.5
238.437	6.5
239.236	8.5
240.035	9.5
240.833	8.5
241.632	9.5
242.43	8.5
243.229	9.5
244.027	7.5
244.826	12.5
245.624	9.5
246.422	10.5
247.22	10.5
248.018	10.5
248.816	12.5
249.614	12.5
250.412	10.5
251.21	12.5
252.007	8.5
252.805	13.5
253.602	16.5
254.4	14.5
255.197	14.5
255.994	16.5
256.791	15.5
257.589	16.5
258.386	18.5
259.183	16.5
259.979	17.5
260.776	18.5
261.573	19.5
262.37	19.5
263.166	22.5
263.963	20.5
264.759	21.5
265.556	22.5
266.352	22.5
267.148	22.5
267.944	23.5
268.74	22.5
269.536	27.5
270.332	28.5
271.128	24.5
271.924	26.5
272.719	24.5
273.515	28.5
274.311	27.5
275.106	29.5
275.901	25.5
276.697	28.5
277.492	29.5
278.287	28.5
279.082	30.5
279.877	28.5
280.672	29.5
281.467	29.5
282.262	30.5
283.056	30.5
283.851	29.5
284.646	33.5
285.44	31.5
286.234	29.5
287.029	29.5
287.823	28.5
288.617	28.5
289.411	28.5
290.205	30.5
290.999	24.5
291.793	29.5
292.587	23.5
293.381	25.5
294.174	27.5
294.968	25.5
295.761	25.5
296.555	23.5
297.348	21.5
298.141	21.5
298.935	27.5
299.728	25.5
300.521	18.5
301.314	22.5
302.107	16.5
302.899	19.5
303.692	20.5
304.485	18.5
305.277	20.5
306.07	20.5
306.862	16.5
307.655	17.5
308.447	19.5
309.239	17.5
310.031	17.5
310.823	14.5
311.615	14.5
312.407	15.5
313.199	12.5
313.991	13.5
314.783	15.5
315.574	14.5
316.366	13.5
317.157	13.5
317.949	13.5
318.74	11.5
319.531	12.5
320.322	12.5
321.113	13.5
321.904	11.5
322.695	12.5
323.486	9.5
324.277	11.5
325.068	10.5
325.858	12.5
326.649	10.5
327.439	9.5
328.23	12.5
329.02	7.5
329.81	9.5
330.6	10.5
331.391	9.5
332.181	12.5
332.971	10.5
333.76	10.5
334.55	11.5
335.34	10.5
336.13	12.5
336.919	10.5
337.709	10.5
338.498	8.5
339.287	11.5
340.077	10.5
340.866	7.5
341.655	12.5
342.444	10.5
343.233	7.5
344.022	8.5
344.811	12.5
345.6	10.5
346.388	11.5
347.177	7.5
347.965	8.5
348.754	8.5
349.542	10.5
350.33	8.5
351.119	10.5
351.907	8.5
352.695	10.5
353.483	7.5
354.271	10.5
355.059	9.5
355.846	10.5
356.634	6.5
357.422	8.5
358.209	6.5
358.997	7.5
359.784	8.5
360.571	7.5
361.359	10.5
362.146	11.5
362.933	6.5
363.72	6.5
364.507	7.5
365.294	8.5
366.081	10.5
366.867	7.5
367.654	3.5
368.44	8.5
369.227	8.5
370.013	8.5
370.8	7.5
371.586	7.5
372.372	9.5
373.158	7.5
373.944	7.5
374.73	7.5
375.516	7.5
376.302	9.5
377.088	8.5
377.873	10.5
378.659	10.5
379.445	7.5
380.23	9.5
381.015	7.5
381.801	7.5
382.586	8.5
383.371	9.5
384.156	9.5
384.941	8.5
385.726	7.5
386.511	8.5
387.296	9.5
388.08	8.5
388.865	9.5
389.649	9.5
390.434	8.5
391.218	11.5
392.003	11.5
392.787	8.5
393.571	9.5
394.355	8.5
395.139	8.5
395.923	11.5
396.707	9.5
397.491	10.5
398.274	11.5
399.058	9.5
399.842	14.5
400.625	10.5
401.408	9.5
402.192	11.5
402.975	9.5
403.758	13.5
404.541	12.5
405.324	14.5
406.107	11.5
406.89	14.5
407.673	12.5
408.456	8.5
409.238	13.5
410.021	12.5
410.803	14.5
411.586	13.5
412.368	12.5
413.151	14.5
413.933	15.5
414.715	13.5
415.497	15.5
416.279	14.5
417.061	17.5
417.843	20.5
418.624	18.5
419.406	16.5
420.188	15.5
420.969	17.5
421.751	21.5
422.532	19.5
423.313	20.5
424.095	18.5
424.876	21.5
425.657	21.5
426.438	20.5
427.219	23.5
428	23.5
428.78	22.5
429.561	22.5
430.342	27.5
431.122	28.5
431.903	23.5
432.683	28.5
433.464	28.5
434.244	29.5
435.024	32.5
435.804	31.5
436.584	32.5
437.364	36.5
438.144	41.5
438.924	39.5
439.704	40.5
440.483	44.5
441.263	48.5
442.042	50.5
442.822	53.5
443.601	60.5
444.38	63.5
445.16	65.5
445.939	71.5
446.718	75.5
447.497	85.5
448.276	89.5
449.054	100.5
449.833	110.5
450.612	120.5
451.391	133.5
452.169	142.5
452.948	160.5
453.726	173.5
454.504	188.5
455.282	216.5
456.061	240.5
456.839	267.5
457.617	292.5
458.395	327.5
459.172	375.5
459.95	409.5
460.728	466.5
461.506	509.5
462.283	578.5
463.061	648.5
463.838	729.5
464.615	794.5
465.393	889.5
466.17	1002.5
466.947	1109.5
467.724	1228.5
468.501	1364.5
469.278	1524.5
470.055	1681.5
470.831	1873.5
471.608	2066.5
472.385	2306.5
473.161	2531.5
473.938	2802.5
474.714	3064.5
475.49	3350.5
476.266	3720.5
477.043	4095.5
477.819	4513.5
478.595	4974.5
479.371	5403.5
480.146	5922.5
480.922	6469.5
481.698	7098.5
482.473	7724.5
483.249	8436.5
484.024	9230.5
484.8	10034.5
485.575	10965.5
486.35	11892.5
487.126	12890.5
487.901	14022.5
488.676	15220.5
489.451	16533.5
490.225	17807.5
491	19235.5
491.775	20708.5
492.55	22303.5
493.324	23790.5
494.099	25418.5
494.873	27037.5
495.647	28731.5
496.422	30454.5
497.196	32017.5
497.97	33656.5
498.744	34994.5
499.518	36483.5
500.292	37785.5
501.066	38969.5
501.839	40000.5
502.613	40791.5
503.387	41416.5
504.16	41930.5
504.934	42042.5
505.707	42060.5
506.48	41955.5
507.253	41407.5
508.027	40778.5
508.8	39966.5
509.573	38959.5
510.346	37934.5
511.118	36742.5
511.891	35715.5
512.664	34430.5
513.437	33185.5
514.209	31798.5
514.982	30584.5
515.754	29340.5
516.526	28060.5
517.298	26890.5
518.071	25812.5
518.843	24765.5
519.615	23746.5
520.387	22805.5
521.159	21863.5
521.93	20994.5
522.702	20160.5
523.474	19345.5
524.245	18556.5
525.017	17822.5
525.788	16948.5
526.56	16166.5
527.331	15473.5
528.102	14804.5
528.873	14036.5
529.644	13317.5
530.415	12692.5
531.186	11965.5
531.957	11440.5
532.728	10809.5
533.498	10232.5
534.269	9688.5
535.039	9094.5
535.81	8624.5
536.58	8166.5
537.351	7768.5
538.121	7323.5
538.891	6942.5
539.661	6556.5
540.431	6230.5
541.201	5838.5
541.971	5589.5
542.741	5264.5
543.51	5006.5
544.28	4746.5
545.05	4525.5
545.819	4279.5
546.588	4098.5
547.358	3912.5
548.127	3701.5
548.896	3523.5
549.665	3342.5
550.434	3157.5
551.203	2992.5
551.972	2854.5
552.741	2691.5
553.51	2535.5
554.278	2389.5
555.047	2248.5
555.815	2124.5
556.584	2029.5
557.352	1930.5
558.121	1794.5
558.889	1708.5
559.657	1602.5
560.425	1522.5
561.193	1430.5
561.961	1352.5
562.729	1280.5
563.496	1201.5
564.264	1152.5
565.032	1085.5
565.799	1030.5
566.567	967.5
567.334	922.5
568.101	876.5
568.869	825.5
569.636	770.5
570.403	729.5
571.17	698.5
571.937	659.5
572.704	615.5
573.471	592.5
574.237	548.5
575.004	516.5
575.771	484.5
576.537	458.5
577.303	432.5
578.07	412.5
578.836	383.5
579.602	367.5
580.368	339.5
581.134	325.5
581.9	313.5
582.666	297.5
583.432	273.5
584.198	265.5
584.964	256.5
585.729	241.5
586.495	220.5
587.26	218.5
588.025	207.5
588.791	192.5
589.556	187.5
590.321	172.5
591.086	167.5
591.851	157.5
592.616	150.5
593.381	143.5
594.146	135.5
594.911	131.5
595.675	122.5
596.44	119.5
597.204	118.5
597.969	108.5
598.733	105.5
599.497	100.5
600.261	94.5
601.025	88.5
601.79	86.5
602.553	82.5
603.317	79.5
604.081	74.5
604.845	73.5
605.609	72.5
606.372	73.5
607.136	64.5
607.899	63.5
608.662	56.5
609.426	59.5
610.189	54.5
610.952	56.5
611.715	52.5
612.478	48.5
613.241	47.5
614.004	44.5
614.767	46.5
615.529	45.5
616.292	41.5
617.055	43.5
617.817	36.5
618.579	39.5
619.342	36.5
620.104	33.5
620.866	36.5
621.628	30.5
622.39	30.5
623.152	31.5
623.914	29.5
624.676	29.5
625.438	29.5
626.199	24.5
626.961	29.5
627.722	23.5
628.484	24.5
629.245	25.5
630.006	24.5
630.768	20.5
631.529	21.5
632.29	23.5
633.051	21.5
633.812	19.5
634.573	21.5
635.333	16.5
636.094	19.5
636.855	17.5
637.615	19.5
638.376	16.5
639.136	18.5
639.896	16.5
640.657	13.5
641.417	16.5
642.177	14.5
642.937	18.5
643.697	16.5
644.457	12.5
645.216	13.5
645.976	14.5
646.736	14.5
647.495	13.5
648.255	14.5
649.014	11.5
649.774	12.5
650.533	12.5
651.292	12.5
652.051	11.5
652.81	9.5
653.569	11.5
654.328	12.5
655.087	11.5
655.846	12.5
656.604	10.5
657.363	11.5
658.121	8.5
658.88	10.5
659.638	10.5
660.397	12.5
661.155	8.5
661.913	8.5
662.671	10.5
663.429	9.5
664.187	8.5
664.945	9.5
665.703	7.5
666.46	12.5
667.218	9.5
667.976	9.5
668.733	6.5
669.49	8.5
670.248	6.5
671.005	9.5
671.762	9.5
672.519	9.5
673.276	9.5
674.033	8.5
674.79	9.5
675.547	6.5
676.304	9.5
677.06	7.5
677.817	6.5
678.574	7.5
679.33	7.5
680.086	7.5
680.843	6.5
681.599	8.5
682.355	7.5
683.111	9.5
683.867	5.5
684.623	5.5
685.379	6.5
686.135	5.5
686.89	6.5
687.646	6.5
688.402	5.5
689.157	8.5
689.912	8.5
690.668	6.5
691.423	6.5
692.178	4.5
692.933	4.5
693.688	6.5
694.443	4.5
695.198	8.5
695.953	7.5
696.708	7.5
697.462	6.5
698.217	6.5
698.972	6.5
699.726	6.5
700.48	6.5
701.235	7.5
701.989	6.5
702.743	5.5
703.497	5.5
704.251	5.5
705.005	5.5
705.759	6.5
706.513	6.5
707.266	5.5
708.02	6.5
708.774	6.5
709.527	4.5
710.28	9.5
711.034	5.5
711.787	6.5
712.54	6.5
713.293	3.5
714.046	6.5
714.799	6.5
715.552	5.5
716.305	6.5
717.058	6.5
717.81	6.5
718.563	7.5
719.315	8.5
720.068	5.5
720.82	4.5
721.573	7.5
722.325	6.5
723.077	4.5
723.829	5.5
724.581	7.5
725.333	7.5
726.085	8.5
726.836	5.5
727.588	6.5
728.34	6.5
729.091	5.5
729.843	8.5
730.594	6.5
731.346	6.5
732.097	7.5
732.848	6.5
733.599	6.5
734.35	6.5
735.101	7.5
735.852	6.5
736.603	7.5
737.354	8.5
738.104	7.5
738.855	11.5
739.605	7.5
740.356	6.5
741.106	9.5
741.856	9.5
742.607	8.5
743.357	7.5
744.107	8.5
744.857	8.5
745.607	8.5
746.357	9.5
747.106	8.5
747.856	8.5
748.606	7.5
749.355	8.5
750.105	10.5
750.854	10.5
751.603	10.5
752.353	10.5
753.102	9.5
753.851	9.5
754.6	9.5
755.349	9.5
756.098	7.5
756.847	11.5
757.595	11.5
758.344	8.5
759.093	11.5
759.841	8.5
760.589	11.5
761.338	8.5
762.086	12.5
762.834	9.5
763.582	10.5
764.331	8.5
765.079	12.5
765.826	9.5
766.574	12.5
767.322	11.5
768.07	12.5
768.817	11.5
769.565	13.5
770.312	12.5
771.06	13.5
771.807	10.5
772.554	12.5
773.302	10.5
774.049	8.5
774.796	11.5
775.543	12.5
776.29	14.5
777.036	13.5
777.783	12.5
778.53	11.5
779.276	12.5
780.023	13.5
780.769	12.5
781.516	11.5
782.262	14.5
783.008	13.5
783.754	14.5
784.5	11.5
785.246	13.5
785.992	14.5
786.738	14.5
787.484	12.5
788.23	13.5
788.975	12.5
789.721	11.5
790.466	12.5
791.212	10.5
791.957	12.5
792.702	12.5
793.447	13.5
794.193	12.5
794.938	11.5
795.683	13.5
796.427	12.5
797.172	12.5
797.917	12.5
798.662	11.5
799.406	11.5
800.151	10.5
800.895	10.5
801.64	10.5
802.384	11.5
803.128	10.5
803.872	12.5
804.616	8.5
805.36	8.5
806.104	8.5
806.848	10.5
807.592	8.5
808.336	8.5
809.079	7.5
809.823	10.5
810.566	10.5
811.31	7.5
812.053	8.5
812.796	7.5
813.539	8.5
814.283	8.5
815.026	6.5
815.769	6.5
816.511	9.5
817.254	6.5
817.997	8.5
818.74	6.5
819.482	7.5
820.225	7.5
820.967	7.5
821.71	6.5
822.452	6.5
823.194	6.5
823.936	6.5
824.678	6.5
825.42	6.5
826.162	6.5
826.904	4.5
827.646	5.5
828.388	7.5
829.129	5.5
829.871	6.5
830.612	6.5
831.354	4.5
832.095	8.5
832.836	5.5
833.577	5.5
834.319	6.5
835.06	3.5
835.801	4.5
836.542	4.5
837.282	6.5
838.023	5.5
838.764	3.5
839.504	4.5
840.245	5.5
840.985	6.5
841.726	4.5
842.466	4.5
843.206	4.5
843.946	3.5
844.687	3.5
845.427	2.5
846.166	4.5
846.906	3.5
847.646	1.5
848.386	3.5
849.125	3.5
849.865	1.5
850.605	3.5
851.344	4.5
852.083	4.5
852.823	4.5
853.562	3.5
854.301	3.5
855.04	3.5
855.779	4.5
856.518	2.5
857.257	2.5
857.995	3.5
858.734	1.5
859.473	4.5
860.211	1.5
860.95	3.5
861.688	3.5
862.426	2.5
863.165	-0.5
863.903	3.5
864.641	-0.5
865.379	2.5
866.117	2.5
866.855	1.5
867.593	4.5
868.33	3.5
869.068	1.5
869.806	3.5
870.543	1.5
871.28	0.5
872.018	2.5
872.755	0.5
873.492	3.5
874.229	0.5
874.967	3.5
875.703	-0.5
876.44	2.5
877.177	2.5
877.914	1.5
878.651	0.5
879.387	-1.5
880.124	0.5
880.86	1.5
881.597	1.5
882.333	2.5
883.069	1.5
883.806	0.5
884.542	2.5
885.278	-0.5
886.014	1.5
886.749	2.5
887.485	1.5
888.221	1.5
888.957	1.5
889.692	1.5
890.428	2.5
891.163	1.5
891.899	1.5
892.634	-0.5
893.369	2.5
894.104	-2.5
894.839	-0.5
895.574	1.5
896.309	0.5
897.044	2.5
897.779	1.5
898.514	0.5
899.248	-0.5
899.983	0.5
900.717	1.5
901.452	1.5
902.186	0.5
902.92	0.5
903.654	2.5
904.389	0.5
905.123	-0.5
905.857	-0.5
906.59	-1.5
907.324	1.5
908.058	0.5
908.792	0.5
909.525	-0.5
910.259	0.5
910.992	2.5
911.726	-0.5
912.459	0.5
913.192	2.5
913.925	2.5
914.658	1.5
915.391	0.5
916.124	0.5
916.857	-0.5
917.59	0.5
918.323	-0.5
919.055	0.5
919.788	0.5
920.521	0.5
921.253	1.5
921.985	1.5
922.718	-0.5
923.45	-2.5
924.182	1.5
924.914	0.5
925.646	0.5
926.378	0.5
927.11	0.5
927.841	1.5
928.573	0.5
929.305	0.5
930.036	-0.5
930.768	-0.5
931.499	-0.5
932.23	-0.5
932.962	1.5
933.693	0.5
934.424	1.5
935.155	-2.5
935.886	-0.5
936.617	1.5
937.348	0.5
938.078	0.5
938.809	-0.5
939.54	0.5
940.27	-0.5
941.001	0.5
941.731	0.5
942.461	-0.5
943.191	-0.5
943.922	-1.5
944.652	1.5
945.382	0.5
946.112	0.5
946.841	0.5
947.571	-0.5
948.301	0.5
949.031	-1.5
949.76	1.5
950.49	0.5
951.219	0.5
951.948	1.5
952.678	0.5
953.407	1.5
954.136	-1.5
954.865	1.5
955.594	0.5
956.323	0.5
957.052	0.5
957.78	0.5
958.509	-0.5
959.238	-1.5
959.966	-0.5
960.695	-0.5
961.423	-0.5
962.151	0.5
962.88	1.5
963.608	0.5
964.336	-0.5
965.064	-0.5
965.792	-0.5
966.52	1.5
967.247	-1.5
967.975	0.5
968.703	1.5
969.43	-1.5
970.158	-0.5
970.885	0.5
971.613	1.5
972.34	1.5
973.067	0.5
973.794	0.5
974.521	-1.5
975.248	0.5
975.975	-0.5
976.702	-0.5
977.429	1.5
978.156	1.5
978.882	1.5
979.609	-0.5
980.335	-2.5
981.062	0.5
981.788	-1.5
982.514	0.5
983.24	-0.5
983.967	-2.5
984.693	1.5
985.419	2.5
986.144	-0.5
986.87	1.5
987.596	0.5
988.322	0.5
989.047	2.5
989.773	-0.5
990.498	2.5
991.224	0.5
991.949	-2.5
992.674	0.5
993.399	2.5
994.124	0.5
994.849	0.5
995.574	-0.5
996.299	-1.5
997.024	0.5
997.749	-0.5
998.473	2.5
999.198	0.5
999.922	0.5
1000.647	1.5
1001.371	3.5
1002.095	-0.5
1002.82	0.5
1003.544	-0.5
1004.268	2.5
1004.992	3.5
1005.716	3.5
1006.439	3.5
1007.163	2.5
1007.887	4.5
1008.611	-1.5
1009.334	0.5
1010.058	0.5
1010.781	2.5
1011.504	1.5
1012.228	-0.5
1012.951	1.5
1013.674	-2.5
1014.397	-0.5
1015.12	-1.5
