节点500_565_QEPB04081__564__09-59-48-022.txt的数据

Date: Thu Nov 13 09:59:48 CST 2025
User: PC
Spectrometer: QEPB0408
触发模式: 0
积分时间 (秒): 1.000000E-2
Scans to average: 1
启用暗噪声校正: true
启用非线性校正: false
滑动平均宽度: 0
X轴模式: Wavelengths
Number of Pixels in Spectrum: 1044
>>>>>Begin Spectral Data<<<<<
220.843	5.5
221.644	4.5
222.444	2.5
223.244	5.5
224.045	6.5
224.845	5.5
225.645	5.5
226.445	6.5
227.245	4.5
228.045	8.5
228.845	5.5
229.645	5.5
230.444	5.5
231.244	3.5
232.043	5.5
232.843	8.5
233.642	5.5
234.442	7.5
235.241	5.5
236.04	9.5
236.839	7.5
237.638	7.5
238.437	8.5
239.236	7.5
240.035	8.5
240.833	11.5
241.632	11.5
242.43	7.5
243.229	10.5
244.027	11.5
244.826	9.5
245.624	10.5
246.422	12.5
247.22	9.5
248.018	11.5
248.816	10.5
249.614	12.5
250.412	13.5
251.21	12.5
252.007	13.5
252.805	15.5
253.602	12.5
254.4	12.5
255.197	14.5
255.994	13.5
256.791	13.5
257.589	15.5
258.386	17.5
259.183	13.5
259.979	18.5
260.776	16.5
261.573	17.5
262.37	18.5
263.166	16.5
263.963	18.5
264.759	18.5
265.556	19.5
266.352	21.5
267.148	22.5
267.944	20.5
268.74	23.5
269.536	23.5
270.332	23.5
271.128	21.5
271.924	23.5
272.719	24.5
273.515	24.5
274.311	25.5
275.106	25.5
275.901	27.5
276.697	27.5
277.492	24.5
278.287	29.5
279.082	25.5
279.877	24.5
280.672	29.5
281.467	24.5
282.262	29.5
283.056	27.5
283.851	25.5
284.646	26.5
285.44	25.5
286.234	23.5
287.029	30.5
287.823	26.5
288.617	25.5
289.411	23.5
290.205	28.5
290.999	26.5
291.793	25.5
292.587	28.5
293.381	25.5
294.174	25.5
294.968	24.5
295.761	25.5
296.555	25.5
297.348	20.5
298.141	21.5
298.935	23.5
299.728	21.5
300.521	19.5
301.314	23.5
302.107	21.5
302.899	19.5
303.692	19.5
304.485	18.5
305.277	18.5
306.07	19.5
306.862	19.5
307.655	18.5
308.447	17.5
309.239	19.5
310.031	16.5
310.823	16.5
311.615	17.5
312.407	15.5
313.199	15.5
313.991	13.5
314.783	14.5
315.574	13.5
316.366	15.5
317.157	14.5
317.949	13.5
318.74	13.5
319.531	11.5
320.322	11.5
321.113	13.5
321.904	11.5
322.695	11.5
323.486	13.5
324.277	11.5
325.068	9.5
325.858	11.5
326.649	8.5
327.439	14.5
328.23	11.5
329.02	7.5
329.81	10.5
330.6	11.5
331.391	11.5
332.181	10.5
332.971	9.5
333.76	10.5
334.55	12.5
335.34	11.5
336.13	9.5
336.919	11.5
337.709	10.5
338.498	9.5
339.287	11.5
340.077	10.5
340.866	9.5
341.655	9.5
342.444	9.5
343.233	9.5
344.022	10.5
344.811	9.5
345.6	9.5
346.388	10.5
347.177	9.5
347.965	11.5
348.754	8.5
349.542	11.5
350.33	11.5
351.119	9.5
351.907	8.5
352.695	8.5
353.483	13.5
354.271	10.5
355.059	8.5
355.846	8.5
356.634	8.5
357.422	9.5
358.209	9.5
358.997	8.5
359.784	9.5
360.571	10.5
361.359	8.5
362.146	10.5
362.933	10.5
363.72	9.5
364.507	7.5
365.294	7.5
366.081	10.5
366.867	7.5
367.654	7.5
368.44	7.5
369.227	6.5
370.013	9.5
370.8	8.5
371.586	7.5
372.372	10.5
373.158	9.5
373.944	7.5
374.73	8.5
375.516	5.5
376.302	7.5
377.088	8.5
377.873	7.5
378.659	9.5
379.445	10.5
380.23	5.5
381.015	7.5
381.801	6.5
382.586	9.5
383.371	8.5
384.156	9.5
384.941	9.5
385.726	8.5
386.511	9.5
387.296	9.5
388.08	7.5
388.865	8.5
389.649	9.5
390.434	8.5
391.218	9.5
392.003	9.5
392.787	11.5
393.571	9.5
394.355	11.5
395.139	9.5
395.923	10.5
396.707	11.5
397.491	12.5
398.274	9.5
399.058	10.5
399.842	9.5
400.625	11.5
401.408	13.5
402.192	12.5
402.975	9.5
403.758	11.5
404.541	13.5
405.324	11.5
406.107	12.5
406.89	13.5
407.673	10.5
408.456	13.5
409.238	9.5
410.021	13.5
410.803	13.5
411.586	16.5
412.368	13.5
413.151	15.5
413.933	17.5
414.715	14.5
415.497	15.5
416.279	12.5
417.061	15.5
417.843	13.5
418.624	14.5
419.406	18.5
420.188	16.5
420.969	14.5
421.751	14.5
422.532	19.5
423.313	19.5
424.095	17.5
424.876	19.5
425.657	21.5
426.438	18.5
427.219	20.5
428	22.5
428.78	25.5
429.561	24.5
430.342	24.5
431.122	24.5
431.903	26.5
432.683	24.5
433.464	29.5
434.244	31.5
435.024	29.5
435.804	32.5
436.584	33.5
437.364	37.5
438.144	39.5
438.924	40.5
439.704	41.5
440.483	45.5
441.263	48.5
442.042	51.5
442.822	53.5
443.601	61.5
444.38	68.5
445.16	71.5
445.939	73.5
446.718	81.5
447.497	89.5
448.276	100.5
449.054	105.5
449.833	121.5
450.612	131.5
451.391	139.5
452.169	157.5
452.948	170.5
453.726	188.5
454.504	212.5
455.282	241.5
456.061	264.5
456.839	291.5
457.617	322.5
458.395	361.5
459.172	403.5
459.95	452.5
460.728	507.5
461.506	553.5
462.283	622.5
463.061	682.5
463.838	764.5
464.615	855.5
465.393	927.5
466.17	1034.5
466.947	1151.5
467.724	1277.5
468.501	1411.5
469.278	1558.5
470.055	1709.5
470.831	1906.5
471.608	2092.5
472.385	2293.5
473.161	2511.5
473.938	2762.5
474.714	3028.5
475.49	3301.5
476.266	3608.5
477.043	3954.5
477.819	4325.5
478.595	4704.5
479.371	5110.5
480.146	5583.5
480.922	6046.5
481.698	6603.5
482.473	7122.5
483.249	7716.5
484.024	8360.5
484.8	9067.5
485.575	9800.5
486.35	10595.5
487.126	11446.5
487.901	12369.5
488.676	13347.5
489.451	14329.5
490.225	15496.5
491	16600.5
491.775	17808.5
492.55	19047.5
493.324	20406.5
494.099	21632.5
494.873	23088.5
495.647	24487.5
496.422	26004.5
497.196	27316.5
497.97	28753.5
498.744	30150.5
499.518	31531.5
500.292	32677.5
501.066	33823.5
501.839	34969.5
502.613	35935.5
503.387	36702.5
504.16	37339.5
504.934	37866.5
505.707	38186.5
506.48	38296.5
507.253	38283.5
508.027	38012.5
508.8	37590.5
509.573	37115.5
510.346	36357.5
511.118	35547.5
511.891	34787.5
512.664	33825.5
513.437	32783.5
514.209	31675.5
514.982	30538.5
515.754	29466.5
516.526	28266.5
517.298	27135.5
518.071	26080.5
518.843	25036.5
519.615	24034.5
520.387	23105.5
521.159	22265.5
521.93	21327.5
522.702	20425.5
523.474	19682.5
524.245	18854.5
525.017	18153.5
525.788	17400.5
526.56	16644.5
527.331	15932.5
528.102	15267.5
528.873	14519.5
529.644	13864.5
530.415	13200.5
531.186	12567.5
531.957	11905.5
532.728	11386.5
533.498	10810.5
534.269	10235.5
535.039	9654.5
535.81	9174.5
536.58	8705.5
537.351	8245.5
538.121	7813.5
538.891	7379.5
539.661	7027.5
540.431	6650.5
541.201	6290.5
541.971	5936.5
542.741	5609.5
543.51	5321.5
544.28	5067.5
545.05	4832.5
545.819	4617.5
546.588	4362.5
547.358	4159.5
548.127	3956.5
548.896	3767.5
549.665	3577.5
550.434	3384.5
551.203	3201.5
551.972	3065.5
552.741	2897.5
553.51	2756.5
554.278	2587.5
555.047	2465.5
555.815	2328.5
556.584	2216.5
557.352	2085.5
558.121	1957.5
558.889	1849.5
559.657	1733.5
560.425	1658.5
561.193	1565.5
561.961	1490.5
562.729	1394.5
563.496	1327.5
564.264	1248.5
565.032	1208.5
565.799	1117.5
566.567	1072.5
567.334	1002.5
568.101	943.5
568.869	898.5
569.636	839.5
570.403	800.5
571.17	769.5
571.937	716.5
572.704	674.5
573.471	638.5
574.237	601.5
575.004	566.5
575.771	536.5
576.537	511.5
577.303	473.5
578.07	449.5
578.836	413.5
579.602	397.5
580.368	380.5
581.134	361.5
581.9	340.5
582.666	319.5
583.432	310.5
584.198	293.5
584.964	277.5
585.729	262.5
586.495	249.5
587.26	234.5
588.025	220.5
588.791	217.5
589.556	201.5
590.321	189.5
591.086	177.5
591.851	166.5
592.616	160.5
593.381	152.5
594.146	150.5
594.911	138.5
595.675	133.5
596.44	131.5
597.204	128.5
597.969	118.5
598.733	111.5
599.497	109.5
600.261	102.5
601.025	97.5
601.79	92.5
602.553	91.5
603.317	84.5
604.081	84.5
604.845	81.5
605.609	73.5
606.372	72.5
607.136	67.5
607.899	67.5
608.662	65.5
609.426	63.5
610.189	59.5
610.952	61.5
611.715	53.5
612.478	52.5
613.241	50.5
614.004	46.5
614.767	50.5
615.529	46.5
616.292	45.5
617.055	44.5
617.817	44.5
618.579	39.5
619.342	39.5
620.104	36.5
620.866	37.5
621.628	34.5
622.39	36.5
623.152	33.5
623.914	33.5
624.676	33.5
625.438	29.5
626.199	26.5
626.961	30.5
627.722	25.5
628.484	26.5
629.245	24.5
630.006	21.5
630.768	26.5
631.529	22.5
632.29	23.5
633.051	23.5
633.812	21.5
634.573	20.5
635.333	19.5
636.094	23.5
636.855	18.5
637.615	17.5
638.376	19.5
639.136	18.5
639.896	17.5
640.657	17.5
641.417	17.5
642.177	16.5
642.937	17.5
643.697	14.5
644.457	15.5
645.216	15.5
645.976	13.5
646.736	13.5
647.495	13.5
648.255	11.5
649.014	13.5
649.774	14.5
650.533	9.5
651.292	14.5
652.051	13.5
652.81	9.5
653.569	14.5
654.328	11.5
655.087	10.5
655.846	11.5
656.604	8.5
657.363	10.5
658.121	12.5
658.88	10.5
659.638	10.5
660.397	10.5
661.155	11.5
661.913	9.5
662.671	10.5
663.429	8.5
664.187	9.5
664.945	7.5
665.703	9.5
666.46	10.5
667.218	5.5
667.976	8.5
668.733	6.5
669.49	6.5
670.248	6.5
671.005	10.5
671.762	8.5
672.519	6.5
673.276	8.5
674.033	7.5
674.79	7.5
675.547	7.5
676.304	9.5
677.06	6.5
677.817	9.5
678.574	8.5
679.33	9.5
680.086	7.5
680.843	7.5
681.599	6.5
682.355	8.5
683.111	7.5
683.867	8.5
684.623	6.5
685.379	7.5
686.135	4.5
686.89	7.5
687.646	7.5
688.402	8.5
689.157	3.5
689.912	5.5
690.668	5.5
691.423	4.5
692.178	4.5
692.933	6.5
693.688	7.5
694.443	7.5
695.198	7.5
695.953	5.5
696.708	4.5
697.462	7.5
698.217	6.5
698.972	6.5
699.726	6.5
700.48	6.5
701.235	5.5
701.989	4.5
702.743	8.5
703.497	5.5
704.251	6.5
705.005	5.5
705.759	4.5
706.513	7.5
707.266	5.5
708.02	6.5
708.774	7.5
709.527	6.5
710.28	7.5
711.034	4.5
711.787	5.5
712.54	7.5
713.293	7.5
714.046	5.5
714.799	6.5
715.552	9.5
716.305	6.5
717.058	5.5
717.81	6.5
718.563	7.5
719.315	7.5
720.068	7.5
720.82	7.5
721.573	7.5
722.325	7.5
723.077	8.5
723.829	7.5
724.581	7.5
725.333	5.5
726.085	4.5
726.836	9.5
727.588	7.5
728.34	7.5
729.091	10.5
729.843	7.5
730.594	7.5
731.346	9.5
732.097	7.5
732.848	8.5
733.599	9.5
734.35	8.5
735.101	11.5
735.852	8.5
736.603	6.5
737.354	10.5
738.104	7.5
738.855	7.5
739.605	8.5
740.356	5.5
741.106	8.5
741.856	9.5
742.607	7.5
743.357	6.5
744.107	8.5
744.857	7.5
745.607	6.5
746.357	7.5
747.106	7.5
747.856	9.5
748.606	7.5
749.355	7.5
750.105	9.5
750.854	6.5
751.603	8.5
752.353	8.5
753.102	7.5
753.851	10.5
754.6	8.5
755.349	9.5
756.098	7.5
756.847	10.5
757.595	8.5
758.344	9.5
759.093	9.5
759.841	10.5
760.589	9.5
761.338	9.5
762.086	10.5
762.834	9.5
763.582	8.5
764.331	10.5
765.079	8.5
765.826	10.5
766.574	9.5
767.322	11.5
768.07	12.5
768.817	10.5
769.565	11.5
770.312	10.5
771.06	12.5
771.807	13.5
772.554	11.5
773.302	11.5
774.049	11.5
774.796	10.5
775.543	11.5
776.29	10.5
777.036	11.5
777.783	12.5
778.53	11.5
779.276	11.5
780.023	12.5
780.769	11.5
781.516	12.5
782.262	9.5
783.008	12.5
783.754	10.5
784.5	13.5
785.246	11.5
785.992	13.5
786.738	13.5
787.484	13.5
788.23	10.5
788.975	13.5
789.721	10.5
790.466	14.5
791.212	10.5
791.957	13.5
792.702	13.5
793.447	9.5
794.193	12.5
794.938	11.5
795.683	12.5
796.427	11.5
797.172	10.5
797.917	12.5
798.662	10.5
799.406	10.5
800.151	9.5
800.895	8.5
801.64	12.5
802.384	10.5
803.128	9.5
803.872	10.5
804.616	8.5
805.36	9.5
806.104	9.5
806.848	9.5
807.592	9.5
808.336	9.5
809.079	8.5
809.823	7.5
810.566	9.5
811.31	9.5
812.053	8.5
812.796	9.5
813.539	8.5
814.283	8.5
815.026	6.5
815.769	8.5
816.511	5.5
817.254	6.5
817.997	7.5
818.74	6.5
819.482	7.5
820.225	8.5
820.967	9.5
821.71	8.5
822.452	7.5
823.194	6.5
823.936	7.5
824.678	8.5
825.42	7.5
826.162	6.5
826.904	7.5
827.646	8.5
828.388	5.5
829.129	5.5
829.871	6.5
830.612	4.5
831.354	6.5
832.095	6.5
832.836	7.5
833.577	3.5
834.319	7.5
835.06	7.5
835.801	4.5
836.542	5.5
837.282	3.5
838.023	4.5
838.764	4.5
839.504	4.5
840.245	5.5
840.985	7.5
841.726	3.5
842.466	6.5
843.206	6.5
843.946	3.5
844.687	3.5
845.427	5.5
846.166	5.5
846.906	6.5
847.646	2.5
848.386	5.5
849.125	5.5
849.865	7.5
850.605	2.5
851.344	5.5
852.083	3.5
852.823	2.5
853.562	5.5
854.301	2.5
855.04	4.5
855.779	4.5
856.518	3.5
857.257	2.5
857.995	1.5
858.734	2.5
859.473	2.5
860.211	4.5
860.95	3.5
861.688	2.5
862.426	5.5
863.165	2.5
863.903	3.5
864.641	4.5
865.379	3.5
866.117	0.5
866.855	3.5
867.593	2.5
868.33	1.5
869.068	2.5
869.806	3.5
870.543	2.5
871.28	2.5
872.018	0.5
872.755	1.5
873.492	2.5
874.229	4.5
874.967	1.5
875.703	4.5
876.44	1.5
877.177	3.5
877.914	1.5
878.651	2.5
879.387	4.5
880.124	2.5
880.86	1.5
881.597	0.5
882.333	3.5
883.069	1.5
883.806	1.5
884.542	3.5
885.278	3.5
886.014	0.5
886.749	1.5
887.485	4.5
888.221	-0.5
888.957	3.5
889.692	2.5
890.428	1.5
891.163	1.5
891.899	0.5
892.634	0.5
893.369	0.5
894.104	1.5
894.839	0.5
895.574	2.5
896.309	2.5
897.044	0.5
897.779	0.5
898.514	-1.5
899.248	1.5
899.983	1.5
900.717	1.5
901.452	2.5
902.186	-0.5
902.92	3.5
903.654	1.5
904.389	0.5
905.123	-0.5
905.857	1.5
906.59	0.5
907.324	0.5
908.058	2.5
908.792	0.5
909.525	3.5
910.259	2.5
910.992	1.5
911.726	1.5
912.459	1.5
913.192	0.5
913.925	-1.5
914.658	-0.5
915.391	0.5
916.124	-0.5
916.857	1.5
917.59	-1.5
918.323	2.5
919.055	0.5
919.788	2.5
920.521	0.5
921.253	1.5
921.985	1.5
922.718	2.5
923.45	-0.5
924.182	-1.5
924.914	2.5
925.646	0.5
926.378	4.5
927.11	0.5
927.841	0.5
928.573	-0.5
929.305	1.5
930.036	-0.5
930.768	1.5
931.499	-0.5
932.23	1.5
932.962	3.5
933.693	2.5
934.424	1.5
935.155	-1.5
935.886	0.5
936.617	0.5
937.348	-0.5
938.078	1.5
938.809	0.5
939.54	-0.5
940.27	-0.5
941.001	-0.5
941.731	0.5
942.461	-2.5
943.191	2.5
943.922	0.5
944.652	0.5
945.382	1.5
946.112	1.5
946.841	0.5
947.571	-1.5
948.301	1.5
949.031	0.5
949.76	-0.5
950.49	1.5
951.219	2.5
951.948	0.5
952.678	0.5
953.407	1.5
954.136	2.5
954.865	-1.5
955.594	1.5
956.323	-0.5
957.052	-0.5
957.78	0.5
958.509	0.5
959.238	0.5
959.966	2.5
960.695	0.5
961.423	2.5
962.151	1.5
962.88	-1.5
963.608	1.5
964.336	0.5
965.064	0.5
965.792	0.5
966.52	-0.5
967.247	1.5
967.975	1.5
968.703	1.5
969.43	-0.5
970.158	1.5
970.885	-1.5
971.613	1.5
972.34	2.5
973.067	-0.5
973.794	-0.5
974.521	1.5
975.248	0.5
975.975	1.5
976.702	2.5
977.429	1.5
978.156	-1.5
978.882	2.5
979.609	1.5
980.335	1.5
981.062	-1.5
981.788	0.5
982.514	1.5
983.24	2.5
983.967	2.5
984.693	-0.5
985.419	-1.5
986.144	-1.5
986.87	1.5
987.596	0.5
988.322	2.5
989.047	1.5
989.773	1.5
990.498	2.5
991.224	-0.5
991.949	0.5
992.674	1.5
993.399	1.5
994.124	1.5
994.849	0.5
995.574	2.5
996.299	-0.5
997.024	-0.5
997.749	0.5
998.473	1.5
999.198	-1.5
999.922	3.5
1000.647	0.5
1001.371	2.5
1002.095	-0.5
1002.82	-2.5
1003.544	-1.5
1004.268	4.5
1004.992	3.5
1005.716	4.5
1006.439	2.5
1007.163	5.5
1007.887	3.5
1008.611	0.5
1009.334	2.5
1010.058	-0.5
1010.781	0.5
1011.504	-0.5
1012.228	-0.5
1012.951	1.5
1013.674	0.5
1014.397	-1.5
1015.12	1.5
