节点500_565_QEPB04081__205__09-53-49-855.txt的数据

Date: Thu Nov 13 09:53:49 CST 2025
User: PC
Spectrometer: QEPB0408
触发模式: 0
积分时间 (秒): 1.000000E-2
Scans to average: 1
启用暗噪声校正: true
启用非线性校正: false
滑动平均宽度: 0
X轴模式: Wavelengths
Number of Pixels in Spectrum: 1044
>>>>>Begin Spectral Data<<<<<
220.843	4.12
221.644	5.12
222.444	2.12
223.244	4.12
224.045	4.12
224.845	2.12
225.645	5.12
226.445	4.12
227.245	6.12
228.045	6.12
228.845	7.12
229.645	5.12
230.444	6.12
231.244	8.12
232.043	4.12
232.843	8.12
233.642	4.12
234.442	4.12
235.241	6.12
236.04	9.12
236.839	8.12
237.638	8.12
238.437	9.12
239.236	8.12
240.035	5.12
240.833	7.12
241.632	13.12
242.43	8.12
243.229	9.12
244.027	11.12
244.826	9.12
245.624	10.12
246.422	10.12
247.22	10.12
248.018	10.12
248.816	12.12
249.614	12.12
250.412	13.12
251.21	13.12
252.007	13.12
252.805	13.12
253.602	17.12
254.4	13.12
255.197	15.12
255.994	18.12
256.791	14.12
257.589	15.12
258.386	18.12
259.183	18.12
259.979	20.12
260.776	21.12
261.573	18.12
262.37	17.12
263.166	20.12
263.963	22.12
264.759	21.12
265.556	23.12
266.352	25.12
267.148	21.12
267.944	25.12
268.74	23.12
269.536	23.12
270.332	21.12
271.128	28.12
271.924	27.12
272.719	28.12
273.515	29.12
274.311	27.12
275.106	29.12
275.901	27.12
276.697	29.12
277.492	27.12
278.287	30.12
279.082	27.12
279.877	30.12
280.672	31.12
281.467	29.12
282.262	29.12
283.056	29.12
283.851	30.12
284.646	31.12
285.44	28.12
286.234	29.12
287.029	29.12
287.823	29.12
288.617	29.12
289.411	29.12
290.205	30.12
290.999	27.12
291.793	27.12
292.587	25.12
293.381	24.12
294.174	25.12
294.968	26.12
295.761	22.12
296.555	21.12
297.348	23.12
298.141	23.12
298.935	25.12
299.728	22.12
300.521	24.12
301.314	21.12
302.107	19.12
302.899	18.12
303.692	17.12
304.485	20.12
305.277	16.12
306.07	21.12
306.862	20.12
307.655	19.12
308.447	19.12
309.239	15.12
310.031	18.12
310.823	15.12
311.615	16.12
312.407	13.12
313.199	13.12
313.991	14.12
314.783	13.12
315.574	14.12
316.366	10.12
317.157	12.12
317.949	12.12
318.74	13.12
319.531	14.12
320.322	11.12
321.113	12.12
321.904	12.12
322.695	9.12
323.486	11.12
324.277	9.12
325.068	11.12
325.858	10.12
326.649	10.12
327.439	10.12
328.23	10.12
329.02	10.12
329.81	11.12
330.6	11.12
331.391	9.12
332.181	11.12
332.971	9.12
333.76	10.12
334.55	10.12
335.34	8.12
336.13	10.12
336.919	12.12
337.709	10.12
338.498	10.12
339.287	10.12
340.077	9.12
340.866	10.12
341.655	9.12
342.444	9.12
343.233	9.12
344.022	8.12
344.811	8.12
345.6	9.12
346.388	10.12
347.177	9.12
347.965	11.12
348.754	8.12
349.542	8.12
350.33	10.12
351.119	9.12
351.907	6.12
352.695	10.12
353.483	7.12
354.271	8.12
355.059	9.12
355.846	10.12
356.634	8.12
357.422	5.12
358.209	10.12
358.997	10.12
359.784	10.12
360.571	8.12
361.359	9.12
362.146	7.12
362.933	6.12
363.72	8.12
364.507	6.12
365.294	7.12
366.081	8.12
366.867	7.12
367.654	6.12
368.44	9.12
369.227	6.12
370.013	7.12
370.8	7.12
371.586	7.12
372.372	9.12
373.158	10.12
373.944	6.12
374.73	4.12
375.516	6.12
376.302	7.12
377.088	9.12
377.873	6.12
378.659	5.12
379.445	8.12
380.23	9.12
381.015	7.12
381.801	8.12
382.586	10.12
383.371	7.12
384.156	5.12
384.941	8.12
385.726	7.12
386.511	9.12
387.296	9.12
388.08	8.12
388.865	9.12
389.649	10.12
390.434	7.12
391.218	9.12
392.003	10.12
392.787	9.12
393.571	10.12
394.355	8.12
395.139	9.12
395.923	9.12
396.707	11.12
397.491	8.12
398.274	12.12
399.058	13.12
399.842	10.12
400.625	12.12
401.408	12.12
402.192	10.12
402.975	13.12
403.758	13.12
404.541	14.12
405.324	11.12
406.107	12.12
406.89	12.12
407.673	12.12
408.456	12.12
409.238	13.12
410.021	14.12
410.803	14.12
411.586	14.12
412.368	13.12
413.151	12.12
413.933	16.12
414.715	16.12
415.497	11.12
416.279	15.12
417.061	18.12
417.843	15.12
418.624	16.12
419.406	18.12
420.188	17.12
420.969	16.12
421.751	17.12
422.532	19.12
423.313	18.12
424.095	20.12
424.876	16.12
425.657	21.12
426.438	20.12
427.219	21.12
428	24.12
428.78	23.12
429.561	24.12
430.342	23.12
431.122	24.12
431.903	26.12
432.683	29.12
433.464	30.12
434.244	30.12
435.024	30.12
435.804	32.12
436.584	34.12
437.364	35.12
438.144	40.12
438.924	39.12
439.704	39.12
440.483	45.12
441.263	46.12
442.042	52.12
442.822	52.12
443.601	61.12
444.38	60.12
445.16	64.12
445.939	71.12
446.718	76.12
447.497	84.12
448.276	89.12
449.054	97.12
449.833	114.12
450.612	113.12
451.391	131.12
452.169	143.12
452.948	154.12
453.726	172.12
454.504	188.12
455.282	213.12
456.061	235.12
456.839	257.12
457.617	298.12
458.395	324.12
459.172	364.12
459.95	404.12
460.728	457.12
461.506	509.12
462.283	577.12
463.061	629.12
463.838	712.12
464.615	789.12
465.393	879.12
466.17	983.12
466.947	1096.12
467.724	1212.12
468.501	1352.12
469.278	1493.12
470.055	1671.12
470.831	1846.12
471.608	2056.12
472.385	2286.12
473.161	2514.12
473.938	2781.12
474.714	3061.12
475.49	3344.12
476.266	3704.12
477.043	4086.12
477.819	4504.12
478.595	4951.12
479.371	5444.12
480.146	5940.12
480.922	6542.12
481.698	7131.12
482.473	7792.12
483.249	8475.12
484.024	9281.12
484.8	10162.12
485.575	11080.12
486.35	12045.12
487.126	13095.12
487.901	14228.12
488.676	15447.12
489.451	16779.12
490.225	18166.12
491	19585.12
491.775	21146.12
492.55	22674.12
493.324	24279.12
494.099	25804.12
494.873	27506.12
495.647	29242.12
496.422	30960.12
497.196	32610.12
497.97	34237.12
498.744	35765.12
499.518	37077.12
500.292	38387.12
501.066	39603.12
501.839	40621.12
502.613	41424.12
503.387	42041.12
504.16	42397.12
504.934	42533.12
505.707	42465.12
506.48	42187.12
507.253	41818.12
508.027	41126.12
508.8	40218.12
509.573	39161.12
510.346	38083.12
511.118	36847.12
511.891	35758.12
512.664	34436.12
513.437	33111.12
514.209	31761.12
514.982	30483.12
515.754	29191.12
516.526	28012.12
517.298	26725.12
518.071	25722.12
518.843	24617.12
519.615	23595.12
520.387	22667.12
521.159	21900.12
521.93	20890.12
522.702	20008.12
523.474	19248.12
524.245	18446.12
525.017	17723.12
525.788	16867.12
526.56	16095.12
527.331	15383.12
528.102	14654.12
528.873	13929.12
529.644	13247.12
530.415	12511.12
531.186	11902.12
531.957	11317.12
532.728	10714.12
533.498	10141.12
534.269	9570.12
535.039	9054.12
535.81	8567.12
536.58	8131.12
537.351	7658.12
538.121	7232.12
538.891	6875.12
539.661	6477.12
540.431	6166.12
541.201	5844.12
541.971	5517.12
542.741	5222.12
543.51	4912.12
544.28	4708.12
545.05	4467.12
545.819	4268.12
546.588	4047.12
547.358	3853.12
548.127	3667.12
548.896	3486.12
549.665	3290.12
550.434	3112.12
551.203	2940.12
551.972	2805.12
552.741	2649.12
553.51	2500.12
554.278	2369.12
555.047	2218.12
555.815	2098.12
556.584	1990.12
557.352	1876.12
558.121	1776.12
558.889	1668.12
559.657	1564.12
560.425	1479.12
561.193	1410.12
561.961	1336.12
562.729	1245.12
563.496	1196.12
564.264	1122.12
565.032	1074.12
565.799	1027.12
566.567	975.12
567.334	919.12
568.101	850.12
568.869	815.12
569.636	762.12
570.403	716.12
571.17	680.12
571.937	637.12
572.704	606.12
573.471	570.12
574.237	536.12
575.004	504.12
575.771	476.12
576.537	457.12
577.303	427.12
578.07	408.12
578.836	379.12
579.602	357.12
580.368	338.12
581.134	322.12
581.9	308.12
582.666	293.12
583.432	274.12
584.198	259.12
584.964	249.12
585.729	235.12
586.495	231.12
587.26	214.12
588.025	201.12
588.791	188.12
589.556	179.12
590.321	173.12
591.086	161.12
591.851	153.12
592.616	149.12
593.381	146.12
594.146	132.12
594.911	132.12
595.675	122.12
596.44	118.12
597.204	106.12
597.969	106.12
598.733	101.12
599.497	96.12
600.261	99.12
601.025	87.12
601.79	85.12
602.553	79.12
603.317	80.12
604.081	74.12
604.845	71.12
605.609	69.12
606.372	71.12
607.136	64.12
607.899	61.12
608.662	56.12
609.426	59.12
610.189	54.12
610.952	55.12
611.715	53.12
612.478	50.12
613.241	46.12
614.004	46.12
614.767	42.12
615.529	42.12
616.292	40.12
617.055	38.12
617.817	39.12
618.579	38.12
619.342	36.12
620.104	36.12
620.866	35.12
621.628	33.12
622.39	31.12
623.152	28.12
623.914	32.12
624.676	29.12
625.438	30.12
626.199	25.12
626.961	28.12
627.722	24.12
628.484	24.12
629.245	24.12
630.006	23.12
630.768	25.12
631.529	22.12
632.29	21.12
633.051	22.12
633.812	18.12
634.573	20.12
635.333	21.12
636.094	16.12
636.855	15.12
637.615	17.12
638.376	16.12
639.136	17.12
639.896	18.12
640.657	15.12
641.417	18.12
642.177	15.12
642.937	14.12
643.697	16.12
644.457	14.12
645.216	15.12
645.976	13.12
646.736	13.12
647.495	12.12
648.255	14.12
649.014	13.12
649.774	13.12
650.533	11.12
651.292	10.12
652.051	13.12
652.81	10.12
653.569	9.12
654.328	11.12
655.087	11.12
655.846	10.12
656.604	12.12
657.363	11.12
658.121	11.12
658.88	9.12
659.638	9.12
660.397	8.12
661.155	8.12
661.913	7.12
662.671	12.12
663.429	9.12
664.187	9.12
664.945	7.12
665.703	7.12
666.46	9.12
667.218	8.12
667.976	8.12
668.733	8.12
669.49	8.12
670.248	8.12
671.005	6.12
671.762	9.12
672.519	5.12
673.276	7.12
674.033	6.12
674.79	8.12
675.547	8.12
676.304	10.12
677.06	6.12
677.817	7.12
678.574	9.12
679.33	6.12
680.086	8.12
680.843	4.12
681.599	6.12
682.355	7.12
683.111	5.12
683.867	6.12
684.623	6.12
685.379	5.12
686.135	4.12
686.89	5.12
687.646	4.12
688.402	4.12
689.157	6.12
689.912	5.12
690.668	6.12
691.423	8.12
692.178	4.12
692.933	5.12
693.688	7.12
694.443	7.12
695.198	8.12
695.953	8.12
696.708	7.12
697.462	6.12
698.217	6.12
698.972	5.12
699.726	6.12
700.48	7.12
701.235	6.12
701.989	6.12
702.743	6.12
703.497	4.12
704.251	4.12
705.005	5.12
705.759	4.12
706.513	6.12
707.266	5.12
708.02	6.12
708.774	9.12
709.527	8.12
710.28	7.12
711.034	6.12
711.787	5.12
712.54	5.12
713.293	6.12
714.046	6.12
714.799	6.12
715.552	6.12
716.305	6.12
717.058	8.12
717.81	6.12
718.563	6.12
719.315	6.12
720.068	6.12
720.82	7.12
721.573	6.12
722.325	8.12
723.077	7.12
723.829	4.12
724.581	8.12
725.333	5.12
726.085	7.12
726.836	5.12
727.588	8.12
728.34	5.12
729.091	6.12
729.843	7.12
730.594	3.12
731.346	7.12
732.097	7.12
732.848	7.12
733.599	7.12
734.35	5.12
735.101	7.12
735.852	6.12
736.603	8.12
737.354	6.12
738.104	8.12
738.855	6.12
739.605	8.12
740.356	7.12
741.106	6.12
741.856	6.12
742.607	7.12
743.357	8.12
744.107	7.12
744.857	9.12
745.607	7.12
746.357	7.12
747.106	9.12
747.856	7.12
748.606	6.12
749.355	8.12
750.105	11.12
750.854	7.12
751.603	10.12
752.353	9.12
753.102	9.12
753.851	9.12
754.6	10.12
755.349	12.12
756.098	9.12
756.847	9.12
757.595	11.12
758.344	10.12
759.093	12.12
759.841	11.12
760.589	8.12
761.338	12.12
762.086	11.12
762.834	12.12
763.582	10.12
764.331	12.12
765.079	12.12
765.826	11.12
766.574	12.12
767.322	14.12
768.07	13.12
768.817	12.12
769.565	11.12
770.312	11.12
771.06	13.12
771.807	13.12
772.554	12.12
773.302	13.12
774.049	11.12
774.796	15.12
775.543	13.12
776.29	16.12
777.036	14.12
777.783	13.12
778.53	14.12
779.276	12.12
780.023	12.12
780.769	15.12
781.516	14.12
782.262	14.12
783.008	14.12
783.754	13.12
784.5	14.12
785.246	14.12
785.992	12.12
786.738	14.12
787.484	13.12
788.23	11.12
788.975	13.12
789.721	12.12
790.466	13.12
791.212	11.12
791.957	12.12
792.702	11.12
793.447	12.12
794.193	14.12
794.938	11.12
795.683	14.12
796.427	10.12
797.172	12.12
797.917	12.12
798.662	10.12
799.406	12.12
800.151	8.12
800.895	15.12
801.64	7.12
802.384	12.12
803.128	9.12
803.872	8.12
804.616	9.12
805.36	11.12
806.104	9.12
806.848	9.12
807.592	10.12
808.336	7.12
809.079	9.12
809.823	10.12
810.566	8.12
811.31	8.12
812.053	7.12
812.796	6.12
813.539	8.12
814.283	6.12
815.026	8.12
815.769	9.12
816.511	7.12
817.254	8.12
817.997	8.12
818.74	4.12
819.482	8.12
820.225	5.12
820.967	4.12
821.71	7.12
822.452	6.12
823.194	7.12
823.936	6.12
824.678	4.12
825.42	6.12
826.162	8.12
826.904	6.12
827.646	5.12
828.388	6.12
829.129	5.12
829.871	4.12
830.612	4.12
831.354	4.12
832.095	5.12
832.836	3.12
833.577	6.12
834.319	5.12
835.06	4.12
835.801	4.12
836.542	5.12
837.282	6.12
838.023	3.12
838.764	4.12
839.504	4.12
840.245	6.12
840.985	3.12
841.726	4.12
842.466	6.12
843.206	2.12
843.946	4.12
844.687	6.12
845.427	6.12
846.166	3.12
846.906	6.12
847.646	3.12
848.386	2.12
849.125	4.12
849.865	5.12
850.605	5.12
851.344	3.12
852.083	2.12
852.823	5.12
853.562	3.12
854.301	5.12
855.04	1.12
855.779	3.12
856.518	1.12
857.257	2.12
857.995	2.12
858.734	4.12
859.473	2.12
860.211	4.12
860.95	2.12
861.688	1.12
862.426	2.12
863.165	3.12
863.903	0.12
864.641	4.12
865.379	3.12
866.117	3.12
866.855	4.12
867.593	2.12
868.33	1.12
869.068	2.12
869.806	0.12
870.543	-1.88
871.28	3.12
872.018	1.12
872.755	2.12
873.492	1.12
874.229	-0.88
874.967	1.12
875.703	0.12
876.44	4.12
877.177	0.12
877.914	1.12
878.651	1.12
879.387	3.12
880.124	2.12
880.86	0.12
881.597	3.12
882.333	0.12
883.069	2.12
883.806	2.12
884.542	1.12
885.278	0.12
886.014	1.12
886.749	3.12
887.485	1.12
888.221	1.12
888.957	0.12
889.692	0.12
890.428	0.12
891.163	0.12
891.899	1.12
892.634	0.12
893.369	2.12
894.104	-1.88
894.839	0.12
895.574	0.12
896.309	-0.88
897.044	2.12
897.779	1.12
898.514	2.12
899.248	1.12
899.983	0.12
900.717	0.12
901.452	0.12
902.186	0.12
902.92	0.12
903.654	1.12
904.389	0.12
905.123	0.12
905.857	-1.88
906.59	0.12
907.324	0.12
908.058	0.12
908.792	1.12
909.525	-0.88
910.259	-0.88
910.992	1.12
911.726	0.12
912.459	2.12
913.192	0.12
913.925	-0.88
914.658	0.12
915.391	0.12
916.124	1.12
916.857	0.12
917.59	2.12
918.323	-1.88
919.055	2.12
919.788	-0.88
920.521	-0.88
921.253	0.12
921.985	0.12
922.718	0.12
923.45	0.12
924.182	1.12
924.914	-0.88
925.646	0.12
926.378	2.12
927.11	0.12
927.841	2.12
928.573	-0.88
929.305	0.12
930.036	1.12
930.768	1.12
931.499	1.12
932.23	0.12
932.962	-0.88
933.693	0.12
934.424	0.12
935.155	-0.88
935.886	0.12
936.617	-0.88
937.348	-0.88
938.078	-0.88
938.809	-0.88
939.54	0.12
940.27	0.12
941.001	1.12
941.731	0.12
942.461	0.12
943.191	1.12
943.922	2.12
944.652	4.12
945.382	1.12
946.112	0.12
946.841	-0.88
947.571	-2.88
948.301	0.12
949.031	-3.88
949.76	2.12
950.49	-2.88
951.219	-0.88
951.948	0.12
952.678	-1.88
953.407	0.12
954.136	-1.88
954.865	-1.88
955.594	1.12
956.323	0.12
957.052	0.12
957.78	-1.88
958.509	3.12
959.238	-1.88
959.966	1.12
960.695	3.12
961.423	0.12
962.151	-0.88
962.88	1.12
963.608	1.12
964.336	-0.88
965.064	1.12
965.792	0.12
966.52	-2.88
967.247	0.12
967.975	0.12
968.703	-0.88
969.43	-1.88
970.158	1.12
970.885	-2.88
971.613	-1.88
972.34	-2.88
973.067	-0.88
973.794	0.12
974.521	1.12
975.248	-0.88
975.975	1.12
976.702	-0.88
977.429	2.12
978.156	-1.88
978.882	-0.88
979.609	1.12
980.335	-0.88
981.062	0.12
981.788	0.12
982.514	0.12
983.24	-0.88
983.967	-2.88
984.693	-0.88
985.419	-0.88
986.144	-0.88
986.87	1.12
987.596	1.12
988.322	-0.88
989.047	1.12
989.773	-2.88
990.498	-1.88
991.224	-0.88
991.949	1.12
992.674	1.12
993.399	-0.88
994.124	0.12
994.849	-0.88
995.574	1.12
996.299	1.12
997.024	-1.88
997.749	-0.88
998.473	1.12
999.198	-0.88
999.922	1.12
1000.647	0.12
1001.371	2.12
1002.095	-0.88
1002.82	-2.88
1003.544	0.12
1004.268	3.12
1004.992	0.12
1005.716	2.12
1006.439	3.12
1007.163	4.12
1007.887	5.12
1008.611	0.12
1009.334	-0.88
1010.058	-1.88
1010.781	-0.88
1011.504	0.12
1012.228	-0.88
1012.951	0.12
1013.674	0.12
1014.397	0.12
1015.12	1.12
