节点500_565_QEPB04081__414__09-57-18-329.txt的数据

Date: Thu Nov 13 09:57:18 CST 2025
User: PC
Spectrometer: QEPB0408
触发模式: 0
积分时间 (秒): 1.000000E-2
Scans to average: 1
启用暗噪声校正: true
启用非线性校正: false
滑动平均宽度: 0
X轴模式: Wavelengths
Number of Pixels in Spectrum: 1044
>>>>>Begin Spectral Data<<<<<
220.843	4.88
221.644	2.88
222.444	3.88
223.244	7.88
224.045	2.88
224.845	4.88
225.645	4.88
226.445	2.88
227.245	4.88
228.045	4.88
228.845	6.88
229.645	6.88
230.444	5.88
231.244	6.88
232.043	5.88
232.843	6.88
233.642	7.88
234.442	6.88
235.241	9.88
236.04	6.88
236.839	7.88
237.638	7.88
238.437	7.88
239.236	7.88
240.035	8.88
240.833	7.88
241.632	9.88
242.43	8.88
243.229	7.88
244.027	10.88
244.826	10.88
245.624	12.88
246.422	10.88
247.22	12.88
248.018	8.88
248.816	14.88
249.614	8.88
250.412	11.88
251.21	10.88
252.007	15.88
252.805	12.88
253.602	14.88
254.4	14.88
255.197	10.88
255.994	14.88
256.791	14.88
257.589	16.88
258.386	16.88
259.183	16.88
259.979	15.88
260.776	18.88
261.573	18.88
262.37	16.88
263.166	20.88
263.963	19.88
264.759	18.88
265.556	21.88
266.352	21.88
267.148	18.88
267.944	22.88
268.74	21.88
269.536	23.88
270.332	21.88
271.128	24.88
271.924	24.88
272.719	26.88
273.515	23.88
274.311	26.88
275.106	22.88
275.901	24.88
276.697	27.88
277.492	28.88
278.287	27.88
279.082	26.88
279.877	25.88
280.672	28.88
281.467	27.88
282.262	24.88
283.056	28.88
283.851	29.88
284.646	28.88
285.44	29.88
286.234	26.88
287.029	27.88
287.823	28.88
288.617	24.88
289.411	26.88
290.205	28.88
290.999	25.88
291.793	27.88
292.587	27.88
293.381	25.88
294.174	25.88
294.968	25.88
295.761	20.88
296.555	23.88
297.348	21.88
298.141	20.88
298.935	25.88
299.728	21.88
300.521	20.88
301.314	20.88
302.107	22.88
302.899	18.88
303.692	18.88
304.485	18.88
305.277	18.88
306.07	17.88
306.862	17.88
307.655	18.88
308.447	15.88
309.239	18.88
310.031	18.88
310.823	16.88
311.615	15.88
312.407	15.88
313.199	15.88
313.991	14.88
314.783	14.88
315.574	12.88
316.366	14.88
317.157	13.88
317.949	14.88
318.74	14.88
319.531	12.88
320.322	12.88
321.113	11.88
321.904	8.88
322.695	10.88
323.486	10.88
324.277	11.88
325.068	11.88
325.858	8.88
326.649	8.88
327.439	10.88
328.23	12.88
329.02	6.88
329.81	11.88
330.6	9.88
331.391	9.88
332.181	9.88
332.971	11.88
333.76	10.88
334.55	6.88
335.34	9.88
336.13	11.88
336.919	11.88
337.709	9.88
338.498	10.88
339.287	9.88
340.077	8.88
340.866	11.88
341.655	7.88
342.444	9.88
343.233	10.88
344.022	7.88
344.811	9.88
345.6	7.88
346.388	9.88
347.177	8.88
347.965	8.88
348.754	10.88
349.542	9.88
350.33	8.88
351.119	8.88
351.907	8.88
352.695	8.88
353.483	12.88
354.271	7.88
355.059	9.88
355.846	6.88
356.634	9.88
357.422	8.88
358.209	6.88
358.997	8.88
359.784	7.88
360.571	6.88
361.359	8.88
362.146	9.88
362.933	8.88
363.72	6.88
364.507	8.88
365.294	9.88
366.081	6.88
366.867	7.88
367.654	6.88
368.44	7.88
369.227	8.88
370.013	8.88
370.8	7.88
371.586	6.88
372.372	8.88
373.158	6.88
373.944	7.88
374.73	8.88
375.516	9.88
376.302	10.88
377.088	6.88
377.873	6.88
378.659	8.88
379.445	9.88
380.23	7.88
381.015	7.88
381.801	6.88
382.586	8.88
383.371	6.88
384.156	9.88
384.941	7.88
385.726	7.88
386.511	9.88
387.296	8.88
388.08	10.88
388.865	11.88
389.649	10.88
390.434	8.88
391.218	9.88
392.003	10.88
392.787	9.88
393.571	9.88
394.355	9.88
395.139	9.88
395.923	9.88
396.707	6.88
397.491	10.88
398.274	11.88
399.058	9.88
399.842	8.88
400.625	9.88
401.408	11.88
402.192	12.88
402.975	8.88
403.758	9.88
404.541	11.88
405.324	13.88
406.107	10.88
406.89	13.88
407.673	11.88
408.456	14.88
409.238	11.88
410.021	16.88
410.803	14.88
411.586	11.88
412.368	14.88
413.151	11.88
413.933	12.88
414.715	16.88
415.497	13.88
416.279	14.88
417.061	14.88
417.843	14.88
418.624	13.88
419.406	18.88
420.188	17.88
420.969	16.88
421.751	17.88
422.532	20.88
423.313	18.88
424.095	18.88
424.876	20.88
425.657	20.88
426.438	22.88
427.219	22.88
428	19.88
428.78	21.88
429.561	22.88
430.342	26.88
431.122	23.88
431.903	24.88
432.683	27.88
433.464	28.88
434.244	30.88
435.024	29.88
435.804	32.88
436.584	34.88
437.364	35.88
438.144	40.88
438.924	39.88
439.704	41.88
440.483	40.88
441.263	48.88
442.042	51.88
442.822	59.88
443.601	58.88
444.38	63.88
445.16	68.88
445.939	72.88
446.718	82.88
447.497	84.88
448.276	94.88
449.054	104.88
449.833	116.88
450.612	125.88
451.391	136.88
452.169	152.88
452.948	168.88
453.726	188.88
454.504	204.88
455.282	226.88
456.061	253.88
456.839	276.88
457.617	315.88
458.395	346.88
459.172	388.88
459.95	432.88
460.728	482.88
461.506	532.88
462.283	592.88
463.061	669.88
463.838	745.88
464.615	819.88
465.393	915.88
466.17	1030.88
466.947	1132.88
467.724	1251.88
468.501	1396.88
469.278	1539.88
470.055	1691.88
470.831	1877.88
471.608	2076.88
472.385	2292.88
473.161	2526.88
473.938	2784.88
474.714	3058.88
475.49	3332.88
476.266	3653.88
477.043	4020.88
477.819	4408.88
478.595	4795.88
479.371	5252.88
480.146	5725.88
480.922	6263.88
481.698	6816.88
482.473	7374.88
483.249	8031.88
484.024	8731.88
484.8	9460.88
485.575	10285.88
486.35	11076.88
487.126	12081.88
487.901	13033.88
488.676	14127.88
489.451	15231.88
490.225	16484.88
491	17664.88
491.775	18966.88
492.55	20417.88
493.324	21785.88
494.099	23236.88
494.873	24712.88
495.647	26250.88
496.422	27874.88
497.196	29298.88
497.97	30815.88
498.744	32285.88
499.518	33546.88
500.292	34947.88
501.066	36084.88
501.839	37188.88
502.613	37987.88
503.387	38777.88
504.16	39396.88
504.934	39754.88
505.707	39936.88
506.48	39973.88
507.253	39869.88
508.027	39302.88
508.8	38713.88
509.573	38039.88
510.346	37105.88
511.118	36063.88
511.891	35237.88
512.664	34100.88
513.437	32964.88
514.209	31722.88
514.982	30507.88
515.754	29408.88
516.526	28181.88
517.298	27060.88
518.071	26008.88
518.843	24922.88
519.615	23921.88
520.387	23012.88
521.159	22106.88
521.93	21219.88
522.702	20344.88
523.474	19516.88
524.245	18702.88
525.017	18021.88
525.788	17186.88
526.56	16455.88
527.331	15730.88
528.102	15000.88
528.873	14310.88
529.644	13616.88
530.415	12939.88
531.186	12292.88
531.957	11701.88
532.728	11143.88
533.498	10565.88
534.269	9964.88
535.039	9432.88
535.81	8962.88
536.58	8453.88
537.351	8055.88
538.121	7551.88
538.891	7182.88
539.661	6807.88
540.431	6464.88
541.201	6070.88
541.971	5766.88
542.741	5471.88
543.51	5159.88
544.28	4916.88
545.05	4668.88
545.819	4473.88
546.588	4228.88
547.358	4014.88
548.127	3821.88
548.896	3648.88
549.665	3470.88
550.434	3273.88
551.203	3114.88
551.972	2953.88
552.741	2820.88
553.51	2641.88
554.278	2493.88
555.047	2353.88
555.815	2238.88
556.584	2119.88
557.352	1994.88
558.121	1889.88
558.889	1771.88
559.657	1678.88
560.425	1591.88
561.193	1505.88
561.961	1427.88
562.729	1323.88
563.496	1286.88
564.264	1196.88
565.032	1139.88
565.799	1097.88
566.567	1022.88
567.334	963.88
568.101	911.88
568.869	854.88
569.636	819.88
570.403	773.88
571.17	726.88
571.937	698.88
572.704	633.88
573.471	605.88
574.237	572.88
575.004	544.88
575.771	504.88
576.537	477.88
577.303	446.88
578.07	428.88
578.836	402.88
579.602	386.88
580.368	362.88
581.134	342.88
581.9	329.88
582.666	302.88
583.432	293.88
584.198	284.88
584.964	269.88
585.729	250.88
586.495	240.88
587.26	226.88
588.025	210.88
588.791	203.88
589.556	190.88
590.321	176.88
591.086	169.88
591.851	166.88
592.616	157.88
593.381	148.88
594.146	143.88
594.911	135.88
595.675	128.88
596.44	126.88
597.204	119.88
597.969	111.88
598.733	111.88
599.497	106.88
600.261	97.88
601.025	91.88
601.79	92.88
602.553	90.88
603.317	85.88
604.081	87.88
604.845	76.88
605.609	69.88
606.372	70.88
607.136	67.88
607.899	66.88
608.662	61.88
609.426	59.88
610.189	54.88
610.952	54.88
611.715	54.88
612.478	54.88
613.241	50.88
614.004	50.88
614.767	45.88
615.529	49.88
616.292	44.88
617.055	41.88
617.817	41.88
618.579	37.88
619.342	37.88
620.104	36.88
620.866	34.88
621.628	34.88
622.39	33.88
623.152	31.88
623.914	32.88
624.676	29.88
625.438	27.88
626.199	28.88
626.961	24.88
627.722	24.88
628.484	25.88
629.245	22.88
630.006	24.88
630.768	23.88
631.529	25.88
632.29	20.88
633.051	20.88
633.812	20.88
634.573	21.88
635.333	21.88
636.094	19.88
636.855	17.88
637.615	18.88
638.376	16.88
639.136	18.88
639.896	16.88
640.657	14.88
641.417	16.88
642.177	15.88
642.937	14.88
643.697	15.88
644.457	13.88
645.216	13.88
645.976	13.88
646.736	11.88
647.495	14.88
648.255	12.88
649.014	10.88
649.774	9.88
650.533	12.88
651.292	11.88
652.051	11.88
652.81	12.88
653.569	12.88
654.328	10.88
655.087	10.88
655.846	8.88
656.604	9.88
657.363	12.88
658.121	8.88
658.88	10.88
659.638	8.88
660.397	10.88
661.155	11.88
661.913	8.88
662.671	9.88
663.429	9.88
664.187	8.88
664.945	8.88
665.703	6.88
666.46	8.88
667.218	6.88
667.976	8.88
668.733	7.88
669.49	6.88
670.248	11.88
671.005	7.88
671.762	7.88
672.519	7.88
673.276	8.88
674.033	9.88
674.79	7.88
675.547	5.88
676.304	6.88
677.06	7.88
677.817	6.88
678.574	3.88
679.33	4.88
680.086	6.88
680.843	7.88
681.599	6.88
682.355	7.88
683.111	6.88
683.867	8.88
684.623	6.88
685.379	5.88
686.135	3.88
686.89	7.88
687.646	6.88
688.402	6.88
689.157	6.88
689.912	6.88
690.668	7.88
691.423	5.88
692.178	3.88
692.933	5.88
693.688	4.88
694.443	5.88
695.198	3.88
695.953	4.88
696.708	6.88
697.462	6.88
698.217	7.88
698.972	2.88
699.726	5.88
700.48	4.88
701.235	5.88
701.989	6.88
702.743	7.88
703.497	6.88
704.251	7.88
705.005	6.88
705.759	5.88
706.513	5.88
707.266	6.88
708.02	4.88
708.774	5.88
709.527	5.88
710.28	7.88
711.034	4.88
711.787	6.88
712.54	7.88
713.293	7.88
714.046	7.88
714.799	6.88
715.552	5.88
716.305	4.88
717.058	6.88
717.81	5.88
718.563	1.88
719.315	8.88
720.068	4.88
720.82	7.88
721.573	6.88
722.325	7.88
723.077	5.88
723.829	6.88
724.581	7.88
725.333	2.88
726.085	4.88
726.836	4.88
727.588	8.88
728.34	3.88
729.091	9.88
729.843	6.88
730.594	6.88
731.346	8.88
732.097	8.88
732.848	6.88
733.599	6.88
734.35	7.88
735.101	3.88
735.852	8.88
736.603	8.88
737.354	8.88
738.104	7.88
738.855	7.88
739.605	6.88
740.356	9.88
741.106	6.88
741.856	8.88
742.607	6.88
743.357	9.88
744.107	7.88
744.857	7.88
745.607	7.88
746.357	8.88
747.106	11.88
747.856	7.88
748.606	7.88
749.355	8.88
750.105	7.88
750.854	7.88
751.603	7.88
752.353	8.88
753.102	8.88
753.851	6.88
754.6	10.88
755.349	9.88
756.098	9.88
756.847	9.88
757.595	11.88
758.344	8.88
759.093	8.88
759.841	10.88
760.589	8.88
761.338	9.88
762.086	9.88
762.834	8.88
763.582	10.88
764.331	10.88
765.079	9.88
765.826	13.88
766.574	9.88
767.322	10.88
768.07	12.88
768.817	10.88
769.565	13.88
770.312	10.88
771.06	13.88
771.807	7.88
772.554	11.88
773.302	11.88
774.049	9.88
774.796	14.88
775.543	11.88
776.29	11.88
777.036	12.88
777.783	12.88
778.53	10.88
779.276	13.88
780.023	13.88
780.769	12.88
781.516	14.88
782.262	12.88
783.008	14.88
783.754	12.88
784.5	13.88
785.246	13.88
785.992	11.88
786.738	12.88
787.484	10.88
788.23	12.88
788.975	12.88
789.721	11.88
790.466	10.88
791.212	12.88
791.957	14.88
792.702	12.88
793.447	11.88
794.193	11.88
794.938	11.88
795.683	10.88
796.427	9.88
797.172	10.88
797.917	12.88
798.662	11.88
799.406	11.88
800.151	11.88
800.895	10.88
801.64	7.88
802.384	12.88
803.128	10.88
803.872	8.88
804.616	8.88
805.36	10.88
806.104	8.88
806.848	9.88
807.592	7.88
808.336	9.88
809.079	6.88
809.823	5.88
810.566	7.88
811.31	7.88
812.053	10.88
812.796	8.88
813.539	6.88
814.283	8.88
815.026	8.88
815.769	7.88
816.511	4.88
817.254	8.88
817.997	7.88
818.74	4.88
819.482	6.88
820.225	6.88
820.967	6.88
821.71	6.88
822.452	7.88
823.194	5.88
823.936	4.88
824.678	6.88
825.42	6.88
826.162	3.88
826.904	5.88
827.646	4.88
828.388	3.88
829.129	4.88
829.871	4.88
830.612	6.88
831.354	3.88
832.095	6.88
832.836	2.88
833.577	6.88
834.319	5.88
835.06	5.88
835.801	5.88
836.542	6.88
837.282	5.88
838.023	4.88
838.764	6.88
839.504	4.88
840.245	5.88
840.985	3.88
841.726	4.88
842.466	4.88
843.206	4.88
843.946	6.88
844.687	4.88
845.427	5.88
846.166	5.88
846.906	5.88
847.646	3.88
848.386	3.88
849.125	4.88
849.865	4.88
850.605	4.88
851.344	3.88
852.083	2.88
852.823	4.88
853.562	2.88
854.301	1.88
855.04	2.88
855.779	3.88
856.518	2.88
857.257	4.88
857.995	3.88
858.734	2.88
859.473	4.88
860.211	0.88
860.95	2.88
861.688	2.88
862.426	1.88
863.165	2.88
863.903	2.88
864.641	2.88
865.379	0.88
866.117	2.88
866.855	1.88
867.593	1.88
868.33	0.88
869.068	2.88
869.806	3.88
870.543	0.88
871.28	0.88
872.018	1.88
872.755	1.88
873.492	3.88
874.229	0.88
874.967	0.88
875.703	2.88
876.44	3.88
877.177	2.88
877.914	0.88
878.651	1.88
879.387	1.88
880.124	-1.12
880.86	0.88
881.597	3.88
882.333	0.88
883.069	1.88
883.806	0.88
884.542	2.88
885.278	1.88
886.014	0.88
886.749	2.88
887.485	0.88
888.221	2.88
888.957	0.88
889.692	1.88
890.428	-1.12
891.163	1.88
891.899	1.88
892.634	-0.12
893.369	1.88
894.104	-0.12
894.839	1.88
895.574	0.88
896.309	0.88
897.044	1.88
897.779	-0.12
898.514	-0.12
899.248	-0.12
899.983	0.88
900.717	1.88
901.452	0.88
902.186	-0.12
902.92	2.88
903.654	2.88
904.389	-2.12
905.123	1.88
905.857	0.88
906.59	1.88
907.324	2.88
908.058	0.88
908.792	1.88
909.525	0.88
910.259	1.88
910.992	0.88
911.726	1.88
912.459	1.88
913.192	-0.12
913.925	-1.12
914.658	0.88
915.391	-0.12
916.124	0.88
916.857	-0.12
917.59	0.88
918.323	0.88
919.055	2.88
919.788	-2.12
920.521	1.88
921.253	-1.12
921.985	0.88
922.718	1.88
923.45	-0.12
924.182	1.88
924.914	0.88
925.646	-1.12
926.378	0.88
927.11	0.88
927.841	0.88
928.573	-0.12
929.305	-0.12
930.036	-0.12
930.768	0.88
931.499	-0.12
932.23	0.88
932.962	0.88
933.693	0.88
934.424	1.88
935.155	1.88
935.886	-0.12
936.617	0.88
937.348	0.88
938.078	0.88
938.809	1.88
939.54	-0.12
940.27	-2.12
941.001	0.88
941.731	-1.12
942.461	0.88
943.191	-0.12
943.922	-2.12
944.652	2.88
945.382	-0.12
946.112	-1.12
946.841	-0.12
947.571	-0.12
948.301	0.88
949.031	-0.12
949.76	-0.12
950.49	0.88
951.219	1.88
951.948	-0.12
952.678	1.88
953.407	-1.12
954.136	-1.12
954.865	-0.12
955.594	-0.12
956.323	0.88
957.052	-1.12
957.78	-0.12
958.509	-1.12
959.238	-0.12
959.966	-2.12
960.695	-1.12
961.423	-0.12
962.151	-1.12
962.88	0.88
963.608	-1.12
964.336	4.88
965.064	1.88
965.792	0.88
966.52	-2.12
967.247	-1.12
967.975	1.88
968.703	-0.12
969.43	0.88
970.158	-1.12
970.885	-2.12
971.613	-0.12
972.34	-0.12
973.067	0.88
973.794	-1.12
974.521	0.88
975.248	-0.12
975.975	0.88
976.702	-1.12
977.429	-2.12
978.156	0.88
978.882	1.88
979.609	1.88
980.335	-0.12
981.062	0.88
981.788	1.88
982.514	-1.12
983.24	0.88
983.967	-1.12
984.693	1.88
985.419	-0.12
986.144	-1.12
986.87	1.88
987.596	-2.12
988.322	0.88
989.047	-0.12
989.773	-1.12
990.498	0.88
991.224	0.88
991.949	0.88
992.674	-0.12
993.399	-1.12
994.124	-2.12
994.849	0.88
995.574	1.88
996.299	-0.12
997.024	0.88
997.749	-1.12
998.473	-0.12
999.198	0.88
999.922	0.88
1000.647	1.88
1001.371	2.88
1002.095	-0.12
1002.82	-2.12
1003.544	-0.12
1004.268	4.88
1004.992	4.88
1005.716	2.88
1006.439	3.88
1007.163	2.88
1007.887	5.88
1008.611	-0.12
1009.334	1.88
1010.058	-1.12
1010.781	-0.12
1011.504	-2.12
1012.228	0.88
1012.951	-1.12
1013.674	0.88
1014.397	-0.12
1015.12	-0.12
