节点500_565_QEPB04081__329__09-55-53-447.txt的数据

Date: Thu Nov 13 09:55:53 CST 2025
User: PC
Spectrometer: QEPB0408
触发模式: 0
积分时间 (秒): 1.000000E-2
Scans to average: 1
启用暗噪声校正: true
启用非线性校正: false
滑动平均宽度: 0
X轴模式: Wavelengths
Number of Pixels in Spectrum: 1044
>>>>>Begin Spectral Data<<<<<
220.843	3.88
221.644	3.88
222.444	4.88
223.244	4.88
224.045	5.88
224.845	6.88
225.645	3.88
226.445	8.88
227.245	3.88
228.045	3.88
228.845	5.88
229.645	3.88
230.444	3.88
231.244	6.88
232.043	5.88
232.843	4.88
233.642	6.88
234.442	7.88
235.241	10.88
236.04	7.88
236.839	6.88
237.638	7.88
238.437	8.88
239.236	6.88
240.035	9.88
240.833	9.88
241.632	7.88
242.43	9.88
243.229	9.88
244.027	8.88
244.826	8.88
245.624	10.88
246.422	8.88
247.22	11.88
248.018	9.88
248.816	14.88
249.614	12.88
250.412	12.88
251.21	14.88
252.007	14.88
252.805	13.88
253.602	12.88
254.4	14.88
255.197	15.88
255.994	15.88
256.791	15.88
257.589	17.88
258.386	15.88
259.183	14.88
259.979	16.88
260.776	17.88
261.573	16.88
262.37	18.88
263.166	17.88
263.963	20.88
264.759	19.88
265.556	19.88
266.352	22.88
267.148	22.88
267.944	20.88
268.74	22.88
269.536	23.88
270.332	24.88
271.128	25.88
271.924	24.88
272.719	27.88
273.515	22.88
274.311	26.88
275.106	25.88
275.901	25.88
276.697	28.88
277.492	27.88
278.287	27.88
279.082	30.88
279.877	27.88
280.672	29.88
281.467	27.88
282.262	28.88
283.056	27.88
283.851	29.88
284.646	28.88
285.44	29.88
286.234	29.88
287.029	30.88
287.823	27.88
288.617	28.88
289.411	26.88
290.205	27.88
290.999	25.88
291.793	27.88
292.587	26.88
293.381	29.88
294.174	22.88
294.968	26.88
295.761	24.88
296.555	22.88
297.348	22.88
298.141	22.88
298.935	25.88
299.728	23.88
300.521	19.88
301.314	20.88
302.107	18.88
302.899	21.88
303.692	19.88
304.485	17.88
305.277	17.88
306.07	17.88
306.862	18.88
307.655	18.88
308.447	17.88
309.239	16.88
310.031	19.88
310.823	14.88
311.615	16.88
312.407	12.88
313.199	13.88
313.991	13.88
314.783	12.88
315.574	13.88
316.366	14.88
317.157	12.88
317.949	10.88
318.74	13.88
319.531	13.88
320.322	12.88
321.113	9.88
321.904	9.88
322.695	11.88
323.486	10.88
324.277	10.88
325.068	10.88
325.858	12.88
326.649	10.88
327.439	9.88
328.23	11.88
329.02	8.88
329.81	10.88
330.6	8.88
331.391	9.88
332.181	9.88
332.971	12.88
333.76	11.88
334.55	10.88
335.34	11.88
336.13	10.88
336.919	8.88
337.709	9.88
338.498	11.88
339.287	9.88
340.077	9.88
340.866	9.88
341.655	9.88
342.444	11.88
343.233	8.88
344.022	10.88
344.811	8.88
345.6	9.88
346.388	12.88
347.177	7.88
347.965	10.88
348.754	7.88
349.542	9.88
350.33	10.88
351.119	9.88
351.907	6.88
352.695	6.88
353.483	10.88
354.271	10.88
355.059	11.88
355.846	12.88
356.634	7.88
357.422	7.88
358.209	8.88
358.997	6.88
359.784	8.88
360.571	6.88
361.359	8.88
362.146	8.88
362.933	8.88
363.72	5.88
364.507	8.88
365.294	8.88
366.081	6.88
366.867	6.88
367.654	7.88
368.44	6.88
369.227	7.88
370.013	6.88
370.8	9.88
371.586	6.88
372.372	6.88
373.158	7.88
373.944	9.88
374.73	6.88
375.516	6.88
376.302	7.88
377.088	10.88
377.873	8.88
378.659	6.88
379.445	9.88
380.23	8.88
381.015	8.88
381.801	6.88
382.586	8.88
383.371	9.88
384.156	6.88
384.941	8.88
385.726	8.88
386.511	8.88
387.296	6.88
388.08	11.88
388.865	7.88
389.649	8.88
390.434	11.88
391.218	7.88
392.003	10.88
392.787	8.88
393.571	11.88
394.355	10.88
395.139	10.88
395.923	10.88
396.707	10.88
397.491	12.88
398.274	9.88
399.058	11.88
399.842	11.88
400.625	13.88
401.408	10.88
402.192	11.88
402.975	9.88
403.758	10.88
404.541	12.88
405.324	12.88
406.107	12.88
406.89	11.88
407.673	11.88
408.456	15.88
409.238	11.88
410.021	12.88
410.803	12.88
411.586	13.88
412.368	13.88
413.151	14.88
413.933	14.88
414.715	14.88
415.497	12.88
416.279	14.88
417.061	14.88
417.843	13.88
418.624	16.88
419.406	17.88
420.188	15.88
420.969	18.88
421.751	16.88
422.532	18.88
423.313	19.88
424.095	18.88
424.876	21.88
425.657	19.88
426.438	19.88
427.219	21.88
428	22.88
428.78	21.88
429.561	20.88
430.342	25.88
431.122	26.88
431.903	25.88
432.683	25.88
433.464	29.88
434.244	29.88
435.024	32.88
435.804	32.88
436.584	34.88
437.364	38.88
438.144	33.88
438.924	37.88
439.704	42.88
440.483	48.88
441.263	49.88
442.042	52.88
442.822	53.88
443.601	58.88
444.38	64.88
445.16	69.88
445.939	70.88
446.718	82.88
447.497	88.88
448.276	92.88
449.054	101.88
449.833	108.88
450.612	118.88
451.391	136.88
452.169	146.88
452.948	164.88
453.726	178.88
454.504	203.88
455.282	218.88
456.061	248.88
456.839	276.88
457.617	303.88
458.395	342.88
459.172	384.88
459.95	415.88
460.728	464.88
461.506	517.88
462.283	587.88
463.061	642.88
463.838	722.88
464.615	804.88
465.393	905.88
466.17	1005.88
466.947	1120.88
467.724	1241.88
468.501	1361.88
469.278	1515.88
470.055	1690.88
470.831	1861.88
471.608	2057.88
472.385	2267.88
473.161	2513.88
473.938	2775.88
474.714	3049.88
475.49	3357.88
476.266	3685.88
477.043	4046.88
477.819	4445.88
478.595	4839.88
479.371	5294.88
480.146	5808.88
480.922	6323.88
481.698	6909.88
482.473	7501.88
483.249	8203.88
484.024	8890.88
484.8	9674.88
485.575	10584.88
486.35	11458.88
487.126	12441.88
487.901	13457.88
488.676	14598.88
489.451	15829.88
490.225	17046.88
491	18409.88
491.775	19746.88
492.55	21173.88
493.324	22686.88
494.099	24160.88
494.873	25756.88
495.647	27412.88
496.422	29066.88
497.196	30610.88
497.97	32126.88
498.744	33542.88
499.518	34896.88
500.292	36247.88
501.066	37428.88
501.839	38428.88
502.613	39263.88
503.387	39985.88
504.16	40605.88
504.934	40870.88
505.707	40887.88
506.48	40795.88
507.253	40540.88
508.027	39969.88
508.8	39232.88
509.573	38340.88
510.346	37479.88
511.118	36310.88
511.891	35443.88
512.664	34230.88
513.437	33004.88
514.209	31670.88
514.982	30436.88
515.754	29331.88
516.526	28086.88
517.298	26916.88
518.071	25848.88
518.843	24794.88
519.615	23761.88
520.387	22811.88
521.159	21942.88
521.93	21031.88
522.702	20208.88
523.474	19352.88
524.245	18626.88
525.017	17893.88
525.788	17056.88
526.56	16254.88
527.331	15629.88
528.102	14831.88
528.873	14188.88
529.644	13417.88
530.415	12771.88
531.186	12120.88
531.957	11548.88
532.728	10976.88
533.498	10345.88
534.269	9794.88
535.039	9247.88
535.81	8818.88
536.58	8376.88
537.351	7905.88
538.121	7456.88
538.891	7031.88
539.661	6682.88
540.431	6309.88
541.201	5957.88
541.971	5657.88
542.741	5359.88
543.51	5108.88
544.28	4815.88
545.05	4578.88
545.819	4374.88
546.588	4154.88
547.358	3947.88
548.127	3749.88
548.896	3579.88
549.665	3394.88
550.434	3212.88
551.203	3030.88
551.972	2880.88
552.741	2761.88
553.51	2594.88
554.278	2445.88
555.047	2310.88
555.815	2180.88
556.584	2067.88
557.352	1958.88
558.121	1851.88
558.889	1741.88
559.657	1622.88
560.425	1541.88
561.193	1456.88
561.961	1380.88
562.729	1318.88
563.496	1246.88
564.264	1169.88
565.032	1119.88
565.799	1064.88
566.567	998.88
567.334	933.88
568.101	875.88
568.869	828.88
569.636	795.88
570.403	746.88
571.17	716.88
571.937	665.88
572.704	640.88
573.471	590.88
574.237	556.88
575.004	532.88
575.771	496.88
576.537	468.88
577.303	444.88
578.07	422.88
578.836	392.88
579.602	374.88
580.368	352.88
581.134	340.88
581.9	314.88
582.666	298.88
583.432	284.88
584.198	270.88
584.964	262.88
585.729	246.88
586.495	226.88
587.26	220.88
588.025	208.88
588.791	200.88
589.556	188.88
590.321	176.88
591.086	167.88
591.851	161.88
592.616	154.88
593.381	144.88
594.146	140.88
594.911	128.88
595.675	124.88
596.44	119.88
597.204	119.88
597.969	110.88
598.733	109.88
599.497	102.88
600.261	96.88
601.025	97.88
601.79	85.88
602.553	87.88
603.317	81.88
604.081	75.88
604.845	78.88
605.609	69.88
606.372	69.88
607.136	62.88
607.899	66.88
608.662	62.88
609.426	56.88
610.189	57.88
610.952	55.88
611.715	50.88
612.478	52.88
613.241	46.88
614.004	48.88
614.767	48.88
615.529	43.88
616.292	41.88
617.055	43.88
617.817	38.88
618.579	38.88
619.342	38.88
620.104	38.88
620.866	34.88
621.628	31.88
622.39	31.88
623.152	28.88
623.914	30.88
624.676	29.88
625.438	26.88
626.199	27.88
626.961	26.88
627.722	26.88
628.484	23.88
629.245	27.88
630.006	24.88
630.768	20.88
631.529	21.88
632.29	19.88
633.051	20.88
633.812	20.88
634.573	24.88
635.333	20.88
636.094	19.88
636.855	18.88
637.615	16.88
638.376	17.88
639.136	15.88
639.896	16.88
640.657	15.88
641.417	15.88
642.177	15.88
642.937	11.88
643.697	12.88
644.457	12.88
645.216	15.88
645.976	15.88
646.736	13.88
647.495	13.88
648.255	12.88
649.014	9.88
649.774	11.88
650.533	13.88
651.292	11.88
652.051	13.88
652.81	12.88
653.569	11.88
654.328	11.88
655.087	11.88
655.846	11.88
656.604	12.88
657.363	8.88
658.121	13.88
658.88	10.88
659.638	11.88
660.397	8.88
661.155	10.88
661.913	7.88
662.671	9.88
663.429	8.88
664.187	7.88
664.945	9.88
665.703	8.88
666.46	9.88
667.218	4.88
667.976	7.88
668.733	6.88
669.49	8.88
670.248	7.88
671.005	8.88
671.762	8.88
672.519	6.88
673.276	6.88
674.033	6.88
674.79	6.88
675.547	7.88
676.304	7.88
677.06	8.88
677.817	4.88
678.574	4.88
679.33	6.88
680.086	6.88
680.843	7.88
681.599	6.88
682.355	6.88
683.111	6.88
683.867	6.88
684.623	6.88
685.379	7.88
686.135	5.88
686.89	6.88
687.646	6.88
688.402	5.88
689.157	8.88
689.912	5.88
690.668	7.88
691.423	5.88
692.178	4.88
692.933	4.88
693.688	4.88
694.443	7.88
695.198	6.88
695.953	4.88
696.708	5.88
697.462	7.88
698.217	4.88
698.972	6.88
699.726	5.88
700.48	6.88
701.235	5.88
701.989	5.88
702.743	6.88
703.497	7.88
704.251	6.88
705.005	6.88
705.759	5.88
706.513	6.88
707.266	3.88
708.02	5.88
708.774	3.88
709.527	4.88
710.28	5.88
711.034	3.88
711.787	6.88
712.54	6.88
713.293	7.88
714.046	6.88
714.799	3.88
715.552	6.88
716.305	7.88
717.058	5.88
717.81	7.88
718.563	5.88
719.315	6.88
720.068	7.88
720.82	5.88
721.573	5.88
722.325	8.88
723.077	5.88
723.829	5.88
724.581	4.88
725.333	4.88
726.085	4.88
726.836	6.88
727.588	4.88
728.34	7.88
729.091	8.88
729.843	6.88
730.594	8.88
731.346	10.88
732.097	4.88
732.848	7.88
733.599	7.88
734.35	9.88
735.101	5.88
735.852	6.88
736.603	6.88
737.354	7.88
738.104	10.88
738.855	6.88
739.605	9.88
740.356	7.88
741.106	6.88
741.856	8.88
742.607	8.88
743.357	9.88
744.107	9.88
744.857	10.88
745.607	8.88
746.357	8.88
747.106	8.88
747.856	8.88
748.606	7.88
749.355	4.88
750.105	7.88
750.854	8.88
751.603	8.88
752.353	8.88
753.102	9.88
753.851	8.88
754.6	11.88
755.349	7.88
756.098	11.88
756.847	10.88
757.595	9.88
758.344	9.88
759.093	9.88
759.841	10.88
760.589	11.88
761.338	8.88
762.086	11.88
762.834	8.88
763.582	10.88
764.331	12.88
765.079	9.88
765.826	11.88
766.574	8.88
767.322	12.88
768.07	12.88
768.817	10.88
769.565	12.88
770.312	10.88
771.06	9.88
771.807	12.88
772.554	13.88
773.302	13.88
774.049	10.88
774.796	12.88
775.543	11.88
776.29	12.88
777.036	10.88
777.783	17.88
778.53	12.88
779.276	10.88
780.023	14.88
780.769	15.88
781.516	13.88
782.262	11.88
783.008	11.88
783.754	12.88
784.5	11.88
785.246	14.88
785.992	10.88
786.738	11.88
787.484	10.88
788.23	14.88
788.975	12.88
789.721	14.88
790.466	12.88
791.212	14.88
791.957	14.88
792.702	9.88
793.447	11.88
794.193	12.88
794.938	11.88
795.683	9.88
796.427	10.88
797.172	10.88
797.917	11.88
798.662	11.88
799.406	12.88
800.151	9.88
800.895	13.88
801.64	10.88
802.384	9.88
803.128	7.88
803.872	10.88
804.616	6.88
805.36	8.88
806.104	6.88
806.848	9.88
807.592	10.88
808.336	9.88
809.079	10.88
809.823	9.88
810.566	9.88
811.31	5.88
812.053	8.88
812.796	8.88
813.539	6.88
814.283	7.88
815.026	8.88
815.769	8.88
816.511	7.88
817.254	6.88
817.997	8.88
818.74	6.88
819.482	7.88
820.225	6.88
820.967	6.88
821.71	6.88
822.452	3.88
823.194	6.88
823.936	6.88
824.678	4.88
825.42	7.88
826.162	6.88
826.904	4.88
827.646	3.88
828.388	6.88
829.129	6.88
829.871	5.88
830.612	5.88
831.354	6.88
832.095	6.88
832.836	3.88
833.577	4.88
834.319	5.88
835.06	3.88
835.801	3.88
836.542	5.88
837.282	4.88
838.023	5.88
838.764	5.88
839.504	4.88
840.245	5.88
840.985	4.88
841.726	6.88
842.466	4.88
843.206	6.88
843.946	4.88
844.687	2.88
845.427	6.88
846.166	3.88
846.906	5.88
847.646	2.88
848.386	3.88
849.125	4.88
849.865	3.88
850.605	3.88
851.344	4.88
852.083	4.88
852.823	2.88
853.562	2.88
854.301	4.88
855.04	3.88
855.779	2.88
856.518	2.88
857.257	1.88
857.995	3.88
858.734	4.88
859.473	4.88
860.211	1.88
860.95	1.88
861.688	3.88
862.426	2.88
863.165	1.88
863.903	4.88
864.641	4.88
865.379	0.88
866.117	1.88
866.855	2.88
867.593	2.88
868.33	0.88
869.068	2.88
869.806	2.88
870.543	1.88
871.28	2.88
872.018	2.88
872.755	2.88
873.492	3.88
874.229	2.88
874.967	2.88
875.703	3.88
876.44	2.88
877.177	0.88
877.914	1.88
878.651	0.88
879.387	0.88
880.124	-2.12
880.86	2.88
881.597	1.88
882.333	1.88
883.069	2.88
883.806	0.88
884.542	1.88
885.278	1.88
886.014	1.88
886.749	0.88
887.485	1.88
888.221	0.88
888.957	0.88
889.692	0.88
890.428	1.88
891.163	0.88
891.899	1.88
892.634	0.88
893.369	-0.12
894.104	0.88
894.839	0.88
895.574	0.88
896.309	0.88
897.044	1.88
897.779	2.88
898.514	0.88
899.248	1.88
899.983	1.88
900.717	0.88
901.452	-0.12
902.186	0.88
902.92	2.88
903.654	2.88
904.389	1.88
905.123	3.88
905.857	0.88
906.59	1.88
907.324	0.88
908.058	0.88
908.792	1.88
909.525	0.88
910.259	1.88
910.992	-0.12
911.726	0.88
912.459	0.88
913.192	1.88
913.925	-2.12
914.658	-1.12
915.391	0.88
916.124	-1.12
916.857	0.88
917.59	0.88
918.323	-0.12
919.055	0.88
919.788	-0.12
920.521	0.88
921.253	1.88
921.985	2.88
922.718	-1.12
923.45	0.88
924.182	2.88
924.914	0.88
925.646	0.88
926.378	-0.12
927.11	0.88
927.841	1.88
928.573	-0.12
929.305	1.88
930.036	-0.12
930.768	-0.12
931.499	-0.12
932.23	-1.12
932.962	0.88
933.693	0.88
934.424	0.88
935.155	2.88
935.886	-0.12
936.617	-2.12
937.348	-0.12
938.078	0.88
938.809	0.88
939.54	1.88
940.27	1.88
941.001	0.88
941.731	0.88
942.461	1.88
943.191	0.88
943.922	1.88
944.652	0.88
945.382	-0.12
946.112	-1.12
946.841	-0.12
947.571	0.88
948.301	-1.12
949.031	-0.12
949.76	1.88
950.49	-0.12
951.219	0.88
951.948	-0.12
952.678	0.88
953.407	-0.12
954.136	0.88
954.865	0.88
955.594	-0.12
956.323	0.88
957.052	-1.12
957.78	1.88
958.509	-0.12
959.238	1.88
959.966	0.88
960.695	0.88
961.423	-0.12
962.151	-0.12
962.88	-2.12
963.608	1.88
964.336	-0.12
965.064	0.88
965.792	1.88
966.52	-0.12
967.247	-0.12
967.975	2.88
968.703	-2.12
969.43	-1.12
970.158	0.88
970.885	-0.12
971.613	0.88
972.34	-1.12
973.067	-0.12
973.794	-2.12
974.521	1.88
975.248	0.88
975.975	0.88
976.702	0.88
977.429	-1.12
978.156	-1.12
978.882	-0.12
979.609	1.88
980.335	2.88
981.062	1.88
981.788	0.88
982.514	0.88
983.24	-2.12
983.967	1.88
984.693	0.88
985.419	-0.12
986.144	-1.12
986.87	0.88
987.596	-0.12
988.322	0.88
989.047	-0.12
989.773	-0.12
990.498	0.88
991.224	1.88
991.949	-1.12
992.674	0.88
993.399	-0.12
994.124	0.88
994.849	1.88
995.574	-0.12
996.299	-0.12
997.024	0.88
997.749	0.88
998.473	0.88
999.198	0.88
999.922	0.88
1000.647	-1.12
1001.371	2.88
1002.095	-0.12
1002.82	-2.12
1003.544	-1.12
1004.268	4.88
1004.992	2.88
1005.716	3.88
1006.439	1.88
1007.163	2.88
1007.887	5.88
1008.611	0.88
1009.334	0.88
1010.058	0.88
1010.781	-0.12
1011.504	-0.12
1012.228	0.88
1012.951	-1.12
1013.674	-1.12
1014.397	1.88
1015.12	0.88
