节点500_565_QEPB04081__326__09-55-50-455.txt的数据

Date: Thu Nov 13 09:55:50 CST 2025
User: PC
Spectrometer: QEPB0408
触发模式: 0
积分时间 (秒): 1.000000E-2
Scans to average: 1
启用暗噪声校正: true
启用非线性校正: false
滑动平均宽度: 0
X轴模式: Wavelengths
Number of Pixels in Spectrum: 1044
>>>>>Begin Spectral Data<<<<<
220.843	3.12
221.644	3.12
222.444	4.12
223.244	5.12
224.045	4.12
224.845	5.12
225.645	6.12
226.445	6.12
227.245	6.12
228.045	4.12
228.845	7.12
229.645	7.12
230.444	5.12
231.244	5.12
232.043	7.12
232.843	8.12
233.642	8.12
234.442	5.12
235.241	7.12
236.04	7.12
236.839	9.12
237.638	6.12
238.437	9.12
239.236	6.12
240.035	8.12
240.833	11.12
241.632	6.12
242.43	11.12
243.229	11.12
244.027	8.12
244.826	9.12
245.624	10.12
246.422	10.12
247.22	10.12
248.018	11.12
248.816	11.12
249.614	13.12
250.412	13.12
251.21	11.12
252.007	13.12
252.805	11.12
253.602	12.12
254.4	13.12
255.197	17.12
255.994	17.12
256.791	16.12
257.589	17.12
258.386	19.12
259.183	17.12
259.979	18.12
260.776	18.12
261.573	20.12
262.37	19.12
263.166	19.12
263.963	23.12
264.759	20.12
265.556	23.12
266.352	24.12
267.148	22.12
267.944	26.12
268.74	22.12
269.536	22.12
270.332	25.12
271.128	24.12
271.924	26.12
272.719	26.12
273.515	24.12
274.311	27.12
275.106	26.12
275.901	26.12
276.697	27.12
277.492	30.12
278.287	25.12
279.082	30.12
279.877	28.12
280.672	27.12
281.467	28.12
282.262	28.12
283.056	29.12
283.851	27.12
284.646	27.12
285.44	25.12
286.234	30.12
287.029	29.12
287.823	29.12
288.617	29.12
289.411	26.12
290.205	29.12
290.999	24.12
291.793	28.12
292.587	26.12
293.381	24.12
294.174	25.12
294.968	23.12
295.761	21.12
296.555	21.12
297.348	22.12
298.141	22.12
298.935	23.12
299.728	23.12
300.521	19.12
301.314	23.12
302.107	18.12
302.899	19.12
303.692	20.12
304.485	21.12
305.277	19.12
306.07	17.12
306.862	19.12
307.655	19.12
308.447	18.12
309.239	20.12
310.031	16.12
310.823	16.12
311.615	14.12
312.407	15.12
313.199	14.12
313.991	14.12
314.783	14.12
315.574	14.12
316.366	15.12
317.157	14.12
317.949	15.12
318.74	14.12
319.531	14.12
320.322	13.12
321.113	14.12
321.904	11.12
322.695	12.12
323.486	13.12
324.277	12.12
325.068	11.12
325.858	12.12
326.649	12.12
327.439	9.12
328.23	9.12
329.02	11.12
329.81	8.12
330.6	11.12
331.391	11.12
332.181	9.12
332.971	11.12
333.76	10.12
334.55	13.12
335.34	12.12
336.13	9.12
336.919	10.12
337.709	13.12
338.498	11.12
339.287	10.12
340.077	11.12
340.866	9.12
341.655	10.12
342.444	10.12
343.233	10.12
344.022	10.12
344.811	8.12
345.6	11.12
346.388	10.12
347.177	9.12
347.965	10.12
348.754	10.12
349.542	11.12
350.33	9.12
351.119	11.12
351.907	10.12
352.695	9.12
353.483	9.12
354.271	10.12
355.059	8.12
355.846	8.12
356.634	10.12
357.422	7.12
358.209	11.12
358.997	10.12
359.784	11.12
360.571	7.12
361.359	6.12
362.146	9.12
362.933	8.12
363.72	9.12
364.507	7.12
365.294	9.12
366.081	9.12
366.867	8.12
367.654	8.12
368.44	8.12
369.227	10.12
370.013	11.12
370.8	7.12
371.586	8.12
372.372	8.12
373.158	8.12
373.944	7.12
374.73	9.12
375.516	8.12
376.302	8.12
377.088	7.12
377.873	9.12
378.659	10.12
379.445	7.12
380.23	7.12
381.015	9.12
381.801	9.12
382.586	9.12
383.371	9.12
384.156	10.12
384.941	9.12
385.726	11.12
386.511	8.12
387.296	10.12
388.08	9.12
388.865	9.12
389.649	10.12
390.434	10.12
391.218	9.12
392.003	9.12
392.787	9.12
393.571	11.12
394.355	10.12
395.139	10.12
395.923	8.12
396.707	13.12
397.491	10.12
398.274	11.12
399.058	9.12
399.842	11.12
400.625	13.12
401.408	11.12
402.192	14.12
402.975	14.12
403.758	14.12
404.541	14.12
405.324	13.12
406.107	12.12
406.89	15.12
407.673	15.12
408.456	12.12
409.238	16.12
410.021	16.12
410.803	14.12
411.586	14.12
412.368	11.12
413.151	15.12
413.933	15.12
414.715	12.12
415.497	15.12
416.279	17.12
417.061	14.12
417.843	17.12
418.624	15.12
419.406	16.12
420.188	13.12
420.969	17.12
421.751	18.12
422.532	18.12
423.313	17.12
424.095	17.12
424.876	22.12
425.657	17.12
426.438	21.12
427.219	23.12
428	23.12
428.78	22.12
429.561	23.12
430.342	21.12
431.122	24.12
431.903	29.12
432.683	26.12
433.464	28.12
434.244	32.12
435.024	31.12
435.804	31.12
436.584	35.12
437.364	37.12
438.144	36.12
438.924	41.12
439.704	40.12
440.483	46.12
441.263	51.12
442.042	49.12
442.822	55.12
443.601	57.12
444.38	60.12
445.16	67.12
445.939	75.12
446.718	79.12
447.497	87.12
448.276	92.12
449.054	102.12
449.833	111.12
450.612	120.12
451.391	134.12
452.169	145.12
452.948	161.12
453.726	185.12
454.504	201.12
455.282	223.12
456.061	247.12
456.839	272.12
457.617	301.12
458.395	336.12
459.172	377.12
459.95	421.12
460.728	469.12
461.506	519.12
462.283	580.12
463.061	642.12
463.838	745.12
464.615	794.12
465.393	895.12
466.17	994.12
466.947	1104.12
467.724	1234.12
468.501	1379.12
469.278	1510.12
470.055	1677.12
470.831	1875.12
471.608	2069.12
472.385	2289.12
473.161	2515.12
473.938	2788.12
474.714	3047.12
475.49	3351.12
476.266	3672.12
477.043	4043.12
477.819	4417.12
478.595	4839.12
479.371	5275.12
480.146	5802.12
480.922	6341.12
481.698	6928.12
482.473	7535.12
483.249	8197.12
484.024	8920.12
484.8	9710.12
485.575	10577.12
486.35	11439.12
487.126	12460.12
487.901	13473.12
488.676	14597.12
489.451	15842.12
490.225	17089.12
491	18443.12
491.775	19777.12
492.55	21300.12
493.324	22726.12
494.099	24239.12
494.873	25777.12
495.647	27452.12
496.422	29054.12
497.196	30625.12
497.97	32124.12
498.744	33546.12
499.518	34874.12
500.292	36148.12
501.066	37445.12
501.839	38554.12
502.613	39360.12
503.387	40024.12
504.16	40671.12
504.934	40813.12
505.707	40940.12
506.48	40823.12
507.253	40589.12
508.027	39938.12
508.8	39194.12
509.573	38417.12
510.346	37440.12
511.118	36398.12
511.891	35415.12
512.664	34197.12
513.437	32979.12
514.209	31732.12
514.982	30455.12
515.754	29261.12
516.526	28081.12
517.298	26877.12
518.071	25843.12
518.843	24793.12
519.615	23717.12
520.387	22803.12
521.159	21968.12
521.93	21071.12
522.702	20157.12
523.474	19341.12
524.245	18549.12
525.017	17883.12
525.788	17044.12
526.56	16285.12
527.331	15488.12
528.102	14866.12
528.873	14112.12
529.644	13410.12
530.415	12709.12
531.186	12079.12
531.957	11475.12
532.728	10955.12
533.498	10377.12
534.269	9767.12
535.039	9246.12
535.81	8812.12
536.58	8329.12
537.351	7860.12
538.121	7448.12
538.891	7021.12
539.661	6668.12
540.431	6332.12
541.201	5959.12
541.971	5658.12
542.741	5329.12
543.51	5067.12
544.28	4838.12
545.05	4576.12
545.819	4376.12
546.588	4128.12
547.358	3926.12
548.127	3745.12
548.896	3577.12
549.665	3421.12
550.434	3210.12
551.203	3056.12
551.972	2905.12
552.741	2731.12
553.51	2589.12
554.278	2429.12
555.047	2313.12
555.815	2192.12
556.584	2067.12
557.352	1951.12
558.121	1845.12
558.889	1746.12
559.657	1628.12
560.425	1542.12
561.193	1464.12
561.961	1383.12
562.729	1313.12
563.496	1232.12
564.264	1176.12
565.032	1110.12
565.799	1059.12
566.567	996.12
567.334	939.12
568.101	887.12
568.869	836.12
569.636	784.12
570.403	747.12
571.17	704.12
571.937	662.12
572.704	639.12
573.471	590.12
574.237	555.12
575.004	527.12
575.771	495.12
576.537	464.12
577.303	453.12
578.07	410.12
578.836	391.12
579.602	374.12
580.368	349.12
581.134	334.12
581.9	323.12
582.666	309.12
583.432	289.12
584.198	276.12
584.964	263.12
585.729	248.12
586.495	233.12
587.26	225.12
588.025	209.12
588.791	201.12
589.556	184.12
590.321	174.12
591.086	170.12
591.851	159.12
592.616	153.12
593.381	147.12
594.146	140.12
594.911	134.12
595.675	126.12
596.44	124.12
597.204	113.12
597.969	113.12
598.733	106.12
599.497	93.12
600.261	93.12
601.025	90.12
601.79	90.12
602.553	85.12
603.317	82.12
604.081	77.12
604.845	74.12
605.609	75.12
606.372	64.12
607.136	64.12
607.899	64.12
608.662	60.12
609.426	60.12
610.189	58.12
610.952	56.12
611.715	50.12
612.478	52.12
613.241	48.12
614.004	47.12
614.767	44.12
615.529	44.12
616.292	43.12
617.055	41.12
617.817	43.12
618.579	39.12
619.342	36.12
620.104	34.12
620.866	35.12
621.628	33.12
622.39	29.12
623.152	34.12
623.914	29.12
624.676	29.12
625.438	31.12
626.199	27.12
626.961	28.12
627.722	27.12
628.484	27.12
629.245	26.12
630.006	22.12
630.768	24.12
631.529	24.12
632.29	25.12
633.051	19.12
633.812	22.12
634.573	21.12
635.333	17.12
636.094	17.12
636.855	17.12
637.615	20.12
638.376	16.12
639.136	16.12
639.896	18.12
640.657	16.12
641.417	18.12
642.177	13.12
642.937	14.12
643.697	14.12
644.457	17.12
645.216	14.12
645.976	14.12
646.736	13.12
647.495	10.12
648.255	15.12
649.014	11.12
649.774	13.12
650.533	13.12
651.292	12.12
652.051	11.12
652.81	9.12
653.569	11.12
654.328	12.12
655.087	12.12
655.846	10.12
656.604	11.12
657.363	11.12
658.121	11.12
658.88	9.12
659.638	9.12
660.397	10.12
661.155	9.12
661.913	10.12
662.671	13.12
663.429	9.12
664.187	10.12
664.945	9.12
665.703	7.12
666.46	6.12
667.218	9.12
667.976	8.12
668.733	8.12
669.49	7.12
670.248	8.12
671.005	9.12
671.762	7.12
672.519	8.12
673.276	8.12
674.033	6.12
674.79	8.12
675.547	7.12
676.304	7.12
677.06	7.12
677.817	6.12
678.574	7.12
679.33	9.12
680.086	7.12
680.843	9.12
681.599	8.12
682.355	6.12
683.111	9.12
683.867	6.12
684.623	9.12
685.379	8.12
686.135	5.12
686.89	6.12
687.646	4.12
688.402	8.12
689.157	8.12
689.912	8.12
690.668	8.12
691.423	8.12
692.178	6.12
692.933	7.12
693.688	7.12
694.443	7.12
695.198	7.12
695.953	7.12
696.708	6.12
697.462	6.12
698.217	8.12
698.972	5.12
699.726	6.12
700.48	7.12
701.235	5.12
701.989	6.12
702.743	5.12
703.497	5.12
704.251	5.12
705.005	6.12
705.759	9.12
706.513	5.12
707.266	7.12
708.02	5.12
708.774	3.12
709.527	7.12
710.28	5.12
711.034	8.12
711.787	8.12
712.54	8.12
713.293	7.12
714.046	7.12
714.799	7.12
715.552	5.12
716.305	5.12
717.058	8.12
717.81	6.12
718.563	8.12
719.315	7.12
720.068	8.12
720.82	8.12
721.573	7.12
722.325	5.12
723.077	8.12
723.829	5.12
724.581	6.12
725.333	8.12
726.085	7.12
726.836	8.12
727.588	4.12
728.34	6.12
729.091	6.12
729.843	8.12
730.594	7.12
731.346	6.12
732.097	6.12
732.848	9.12
733.599	8.12
734.35	7.12
735.101	7.12
735.852	8.12
736.603	6.12
737.354	10.12
738.104	7.12
738.855	9.12
739.605	6.12
740.356	5.12
741.106	9.12
741.856	7.12
742.607	8.12
743.357	7.12
744.107	8.12
744.857	9.12
745.607	8.12
746.357	10.12
747.106	9.12
747.856	9.12
748.606	8.12
749.355	9.12
750.105	9.12
750.854	8.12
751.603	9.12
752.353	9.12
753.102	10.12
753.851	9.12
754.6	10.12
755.349	9.12
756.098	8.12
756.847	10.12
757.595	11.12
758.344	11.12
759.093	9.12
759.841	11.12
760.589	11.12
761.338	9.12
762.086	10.12
762.834	11.12
763.582	12.12
764.331	9.12
765.079	10.12
765.826	10.12
766.574	12.12
767.322	11.12
768.07	13.12
768.817	13.12
769.565	12.12
770.312	13.12
771.06	10.12
771.807	13.12
772.554	13.12
773.302	15.12
774.049	11.12
774.796	11.12
775.543	15.12
776.29	13.12
777.036	12.12
777.783	11.12
778.53	11.12
779.276	15.12
780.023	13.12
780.769	15.12
781.516	12.12
782.262	13.12
783.008	14.12
783.754	17.12
784.5	13.12
785.246	13.12
785.992	15.12
786.738	13.12
787.484	15.12
788.23	15.12
788.975	11.12
789.721	16.12
790.466	9.12
791.212	13.12
791.957	11.12
792.702	14.12
793.447	13.12
794.193	10.12
794.938	12.12
795.683	12.12
796.427	12.12
797.172	11.12
797.917	12.12
798.662	11.12
799.406	9.12
800.151	11.12
800.895	9.12
801.64	12.12
802.384	9.12
803.128	11.12
803.872	10.12
804.616	12.12
805.36	10.12
806.104	8.12
806.848	7.12
807.592	9.12
808.336	8.12
809.079	10.12
809.823	9.12
810.566	8.12
811.31	7.12
812.053	10.12
812.796	6.12
813.539	6.12
814.283	7.12
815.026	5.12
815.769	7.12
816.511	6.12
817.254	7.12
817.997	5.12
818.74	9.12
819.482	7.12
820.225	7.12
820.967	3.12
821.71	7.12
822.452	7.12
823.194	4.12
823.936	5.12
824.678	4.12
825.42	8.12
826.162	9.12
826.904	5.12
827.646	8.12
828.388	5.12
829.129	6.12
829.871	5.12
830.612	4.12
831.354	3.12
832.095	5.12
832.836	4.12
833.577	5.12
834.319	7.12
835.06	5.12
835.801	7.12
836.542	2.12
837.282	7.12
838.023	6.12
838.764	4.12
839.504	5.12
840.245	7.12
840.985	7.12
841.726	6.12
842.466	5.12
843.206	6.12
843.946	5.12
844.687	8.12
845.427	3.12
846.166	5.12
846.906	1.12
847.646	2.12
848.386	5.12
849.125	3.12
849.865	4.12
850.605	6.12
851.344	5.12
852.083	3.12
852.823	4.12
853.562	2.12
854.301	3.12
855.04	4.12
855.779	3.12
856.518	3.12
857.257	3.12
857.995	5.12
858.734	4.12
859.473	4.12
860.211	3.12
860.95	3.12
861.688	5.12
862.426	3.12
863.165	5.12
863.903	3.12
864.641	3.12
865.379	5.12
866.117	2.12
866.855	4.12
867.593	0.12
868.33	3.12
869.068	1.12
869.806	3.12
870.543	3.12
871.28	2.12
872.018	5.12
872.755	2.12
873.492	2.12
874.229	1.12
874.967	4.12
875.703	4.12
876.44	1.12
877.177	2.12
877.914	-0.88
878.651	3.12
879.387	2.12
880.124	1.12
880.86	1.12
881.597	-1.88
882.333	1.12
883.069	1.12
883.806	2.12
884.542	1.12
885.278	1.12
886.014	1.12
886.749	-0.88
887.485	1.12
888.221	2.12
888.957	1.12
889.692	0.12
890.428	2.12
891.163	2.12
891.899	1.12
892.634	3.12
893.369	0.12
894.104	1.12
894.839	0.12
895.574	2.12
896.309	0.12
897.044	2.12
897.779	2.12
898.514	2.12
899.248	2.12
899.983	0.12
900.717	1.12
901.452	1.12
902.186	-0.88
902.92	-1.88
903.654	-0.88
904.389	2.12
905.123	1.12
905.857	0.12
906.59	0.12
907.324	1.12
908.058	2.12
908.792	1.12
909.525	1.12
910.259	1.12
910.992	1.12
911.726	-0.88
912.459	-1.88
913.192	1.12
913.925	0.12
914.658	0.12
915.391	-0.88
916.124	1.12
916.857	2.12
917.59	1.12
918.323	1.12
919.055	-0.88
919.788	1.12
920.521	-0.88
921.253	1.12
921.985	-1.88
922.718	2.12
923.45	2.12
924.182	1.12
924.914	2.12
925.646	0.12
926.378	1.12
927.11	4.12
927.841	1.12
928.573	3.12
929.305	0.12
930.036	2.12
930.768	0.12
931.499	0.12
932.23	3.12
932.962	-0.88
933.693	0.12
934.424	1.12
935.155	0.12
935.886	0.12
936.617	-0.88
937.348	-0.88
938.078	0.12
938.809	0.12
939.54	0.12
940.27	0.12
941.001	-0.88
941.731	0.12
942.461	1.12
943.191	1.12
943.922	0.12
944.652	0.12
945.382	-1.88
946.112	0.12
946.841	-0.88
947.571	0.12
948.301	1.12
949.031	-0.88
949.76	1.12
950.49	0.12
951.219	-2.88
951.948	1.12
952.678	0.12
953.407	2.12
954.136	2.12
954.865	-0.88
955.594	1.12
956.323	0.12
957.052	0.12
957.78	-1.88
958.509	1.12
959.238	0.12
959.966	0.12
960.695	1.12
961.423	-1.88
962.151	2.12
962.88	1.12
963.608	1.12
964.336	0.12
965.064	2.12
965.792	1.12
966.52	1.12
967.247	1.12
967.975	1.12
968.703	2.12
969.43	-0.88
970.158	2.12
970.885	-0.88
971.613	-1.88
972.34	2.12
973.067	-0.88
973.794	-0.88
974.521	0.12
975.248	0.12
975.975	1.12
976.702	1.12
977.429	1.12
978.156	1.12
978.882	3.12
979.609	0.12
980.335	0.12
981.062	0.12
981.788	4.12
982.514	-1.88
983.24	-0.88
983.967	1.12
984.693	-0.88
985.419	0.12
986.144	1.12
986.87	-1.88
987.596	0.12
988.322	0.12
989.047	2.12
989.773	-0.88
990.498	0.12
991.224	0.12
991.949	0.12
992.674	-1.88
993.399	-0.88
994.124	0.12
994.849	1.12
995.574	1.12
996.299	0.12
997.024	0.12
997.749	0.12
998.473	0.12
999.198	-0.88
999.922	1.12
1000.647	0.12
1001.371	2.12
1002.095	-1.88
1002.82	-0.88
1003.544	0.12
1004.268	3.12
1004.992	3.12
1005.716	5.12
1006.439	3.12
1007.163	3.12
1007.887	4.12
1008.611	0.12
1009.334	2.12
1010.058	1.12
1010.781	1.12
1011.504	3.12
1012.228	0.12
1012.951	0.12
1013.674	1.12
1014.397	1.12
1015.12	-1.88
