节点500_565_QEPB04081__571__09-59-55-001.txt的数据

Date: Thu Nov 13 09:59:55 CST 2025
User: PC
Spectrometer: QEPB0408
触发模式: 0
积分时间 (秒): 1.000000E-2
Scans to average: 1
启用暗噪声校正: true
启用非线性校正: false
滑动平均宽度: 0
X轴模式: Wavelengths
Number of Pixels in Spectrum: 1044
>>>>>Begin Spectral Data<<<<<
220.843	6.88
221.644	3.88
222.444	1.88
223.244	4.88
224.045	2.88
224.845	8.88
225.645	3.88
226.445	4.88
227.245	5.88
228.045	6.88
228.845	3.88
229.645	5.88
230.444	6.88
231.244	5.88
232.043	8.88
232.843	5.88
233.642	6.88
234.442	6.88
235.241	7.88
236.04	6.88
236.839	6.88
237.638	5.88
238.437	6.88
239.236	6.88
240.035	8.88
240.833	8.88
241.632	7.88
242.43	9.88
243.229	7.88
244.027	9.88
244.826	10.88
245.624	8.88
246.422	8.88
247.22	7.88
248.018	8.88
248.816	11.88
249.614	9.88
250.412	12.88
251.21	12.88
252.007	14.88
252.805	13.88
253.602	12.88
254.4	11.88
255.197	14.88
255.994	13.88
256.791	11.88
257.589	13.88
258.386	15.88
259.183	16.88
259.979	16.88
260.776	19.88
261.573	18.88
262.37	14.88
263.166	19.88
263.963	18.88
264.759	17.88
265.556	19.88
266.352	19.88
267.148	21.88
267.944	20.88
268.74	22.88
269.536	20.88
270.332	22.88
271.128	22.88
271.924	22.88
272.719	24.88
273.515	22.88
274.311	23.88
275.106	24.88
275.901	22.88
276.697	22.88
277.492	26.88
278.287	23.88
279.082	31.88
279.877	25.88
280.672	22.88
281.467	26.88
282.262	26.88
283.056	26.88
283.851	27.88
284.646	25.88
285.44	25.88
286.234	26.88
287.029	25.88
287.823	26.88
288.617	24.88
289.411	26.88
290.205	24.88
290.999	27.88
291.793	24.88
292.587	22.88
293.381	23.88
294.174	22.88
294.968	26.88
295.761	22.88
296.555	20.88
297.348	21.88
298.141	23.88
298.935	24.88
299.728	20.88
300.521	20.88
301.314	20.88
302.107	21.88
302.899	20.88
303.692	20.88
304.485	19.88
305.277	17.88
306.07	18.88
306.862	18.88
307.655	17.88
308.447	18.88
309.239	18.88
310.031	16.88
310.823	14.88
311.615	15.88
312.407	12.88
313.199	15.88
313.991	12.88
314.783	14.88
315.574	16.88
316.366	13.88
317.157	14.88
317.949	13.88
318.74	13.88
319.531	11.88
320.322	12.88
321.113	12.88
321.904	13.88
322.695	13.88
323.486	10.88
324.277	12.88
325.068	11.88
325.858	10.88
326.649	10.88
327.439	11.88
328.23	9.88
329.02	8.88
329.81	10.88
330.6	9.88
331.391	12.88
332.181	8.88
332.971	11.88
333.76	11.88
334.55	11.88
335.34	9.88
336.13	6.88
336.919	10.88
337.709	9.88
338.498	9.88
339.287	9.88
340.077	8.88
340.866	9.88
341.655	9.88
342.444	9.88
343.233	8.88
344.022	9.88
344.811	6.88
345.6	6.88
346.388	10.88
347.177	9.88
347.965	9.88
348.754	8.88
349.542	10.88
350.33	6.88
351.119	8.88
351.907	9.88
352.695	8.88
353.483	11.88
354.271	9.88
355.059	8.88
355.846	8.88
356.634	6.88
357.422	8.88
358.209	9.88
358.997	7.88
359.784	7.88
360.571	10.88
361.359	6.88
362.146	7.88
362.933	9.88
363.72	5.88
364.507	10.88
365.294	7.88
366.081	7.88
366.867	6.88
367.654	7.88
368.44	8.88
369.227	9.88
370.013	6.88
370.8	6.88
371.586	7.88
372.372	7.88
373.158	6.88
373.944	7.88
374.73	7.88
375.516	6.88
376.302	8.88
377.088	8.88
377.873	6.88
378.659	5.88
379.445	7.88
380.23	8.88
381.015	8.88
381.801	7.88
382.586	6.88
383.371	7.88
384.156	7.88
384.941	9.88
385.726	8.88
386.511	8.88
387.296	6.88
388.08	10.88
388.865	8.88
389.649	9.88
390.434	9.88
391.218	9.88
392.003	9.88
392.787	6.88
393.571	9.88
394.355	9.88
395.139	12.88
395.923	9.88
396.707	10.88
397.491	8.88
398.274	6.88
399.058	11.88
399.842	9.88
400.625	10.88
401.408	8.88
402.192	13.88
402.975	11.88
403.758	9.88
404.541	9.88
405.324	11.88
406.107	15.88
406.89	9.88
407.673	10.88
408.456	12.88
409.238	12.88
410.021	11.88
410.803	11.88
411.586	10.88
412.368	12.88
413.151	11.88
413.933	14.88
414.715	16.88
415.497	14.88
416.279	14.88
417.061	12.88
417.843	14.88
418.624	14.88
419.406	16.88
420.188	15.88
420.969	14.88
421.751	18.88
422.532	16.88
423.313	18.88
424.095	20.88
424.876	20.88
425.657	18.88
426.438	20.88
427.219	19.88
428	24.88
428.78	22.88
429.561	22.88
430.342	25.88
431.122	24.88
431.903	25.88
432.683	27.88
433.464	27.88
434.244	29.88
435.024	31.88
435.804	34.88
436.584	35.88
437.364	34.88
438.144	34.88
438.924	44.88
439.704	43.88
440.483	46.88
441.263	44.88
442.042	54.88
442.822	56.88
443.601	59.88
444.38	67.88
445.16	69.88
445.939	73.88
446.718	83.88
447.497	90.88
448.276	97.88
449.054	108.88
449.833	118.88
450.612	128.88
451.391	139.88
452.169	153.88
452.948	174.88
453.726	192.88
454.504	212.88
455.282	238.88
456.061	263.88
456.839	298.88
457.617	329.88
458.395	364.88
459.172	404.88
459.95	450.88
460.728	498.88
461.506	553.88
462.283	612.88
463.061	684.88
463.838	777.88
464.615	850.88
465.393	931.88
466.17	1046.88
466.947	1143.88
467.724	1281.88
468.501	1409.88
469.278	1556.88
470.055	1736.88
470.831	1896.88
471.608	2076.88
472.385	2298.88
473.161	2510.88
473.938	2784.88
474.714	3028.88
475.49	3297.88
476.266	3606.88
477.043	3933.88
477.819	4326.88
478.595	4701.88
479.371	5134.88
480.146	5591.88
480.922	6060.88
481.698	6540.88
482.473	7134.88
483.249	7647.88
484.024	8361.88
484.8	9101.88
485.575	9786.88
486.35	10577.88
487.126	11460.88
487.901	12343.88
488.676	13301.88
489.451	14362.88
490.225	15412.88
491	16574.88
491.775	17748.88
492.55	19039.88
493.324	20338.88
494.099	21673.88
494.873	23105.88
495.647	24502.88
496.422	25932.88
497.196	27232.88
497.97	28662.88
498.744	30092.88
499.518	31379.88
500.292	32647.88
501.066	33758.88
501.839	34905.88
502.613	35820.88
503.387	36538.88
504.16	37361.88
504.934	37911.88
505.707	38118.88
506.48	38289.88
507.253	38202.88
508.027	37906.88
508.8	37532.88
509.573	36981.88
510.346	36332.88
511.118	35475.88
511.891	34679.88
512.664	33772.88
513.437	32772.88
514.209	31534.88
514.982	30488.88
515.754	29420.88
516.526	28365.88
517.298	27078.88
518.071	26105.88
518.843	25041.88
519.615	24040.88
520.387	23103.88
521.159	22262.88
521.93	21334.88
522.702	20528.88
523.474	19708.88
524.245	18868.88
525.017	18141.88
525.788	17386.88
526.56	16643.88
527.331	15916.88
528.102	15282.88
528.873	14541.88
529.644	13803.88
530.415	13152.88
531.186	12531.88
531.957	11971.88
532.728	11399.88
533.498	10804.88
534.269	10223.88
535.039	9667.88
535.81	9176.88
536.58	8720.88
537.351	8275.88
538.121	7782.88
538.891	7379.88
539.661	7014.88
540.431	6655.88
541.201	6305.88
541.971	5912.88
542.741	5629.88
543.51	5323.88
544.28	5048.88
545.05	4836.88
545.819	4620.88
546.588	4357.88
547.358	4148.88
548.127	3937.88
548.896	3786.88
549.665	3570.88
550.434	3370.88
551.203	3223.88
551.972	3074.88
552.741	2901.88
553.51	2742.88
554.278	2580.88
555.047	2440.88
555.815	2314.88
556.584	2211.88
557.352	2085.88
558.121	1934.88
558.889	1868.88
559.657	1756.88
560.425	1655.88
561.193	1562.88
561.961	1489.88
562.729	1387.88
563.496	1327.88
564.264	1257.88
565.032	1185.88
565.799	1129.88
566.567	1057.88
567.334	1004.88
568.101	956.88
568.869	898.88
569.636	843.88
570.403	796.88
571.17	763.88
571.937	707.88
572.704	674.88
573.471	628.88
574.237	599.88
575.004	565.88
575.771	522.88
576.537	498.88
577.303	474.88
578.07	438.88
578.836	425.88
579.602	401.88
580.368	377.88
581.134	357.88
581.9	349.88
582.666	318.88
583.432	307.88
584.198	292.88
584.964	280.88
585.729	261.88
586.495	248.88
587.26	233.88
588.025	224.88
588.791	211.88
589.556	200.88
590.321	195.88
591.086	180.88
591.851	166.88
592.616	163.88
593.381	153.88
594.146	149.88
594.911	135.88
595.675	129.88
596.44	129.88
597.204	125.88
597.969	115.88
598.733	114.88
599.497	105.88
600.261	99.88
601.025	97.88
601.79	99.88
602.553	92.88
603.317	86.88
604.081	81.88
604.845	80.88
605.609	77.88
606.372	75.88
607.136	70.88
607.899	66.88
608.662	65.88
609.426	64.88
610.189	58.88
610.952	60.88
611.715	54.88
612.478	55.88
613.241	51.88
614.004	50.88
614.767	44.88
615.529	45.88
616.292	43.88
617.055	39.88
617.817	42.88
618.579	39.88
619.342	38.88
620.104	36.88
620.866	38.88
621.628	34.88
622.39	34.88
623.152	34.88
623.914	31.88
624.676	27.88
625.438	27.88
626.199	27.88
626.961	26.88
627.722	27.88
628.484	23.88
629.245	22.88
630.006	24.88
630.768	23.88
631.529	20.88
632.29	23.88
633.051	20.88
633.812	22.88
634.573	19.88
635.333	17.88
636.094	20.88
636.855	16.88
637.615	19.88
638.376	18.88
639.136	13.88
639.896	14.88
640.657	14.88
641.417	16.88
642.177	16.88
642.937	15.88
643.697	14.88
644.457	15.88
645.216	11.88
645.976	14.88
646.736	12.88
647.495	11.88
648.255	13.88
649.014	12.88
649.774	11.88
650.533	9.88
651.292	12.88
652.051	12.88
652.81	10.88
653.569	9.88
654.328	8.88
655.087	11.88
655.846	9.88
656.604	8.88
657.363	11.88
658.121	8.88
658.88	7.88
659.638	10.88
660.397	9.88
661.155	9.88
661.913	8.88
662.671	7.88
663.429	7.88
664.187	9.88
664.945	7.88
665.703	8.88
666.46	10.88
667.218	8.88
667.976	8.88
668.733	6.88
669.49	8.88
670.248	8.88
671.005	8.88
671.762	8.88
672.519	6.88
673.276	6.88
674.033	6.88
674.79	6.88
675.547	4.88
676.304	8.88
677.06	8.88
677.817	6.88
678.574	8.88
679.33	7.88
680.086	7.88
680.843	8.88
681.599	4.88
682.355	5.88
683.111	7.88
683.867	4.88
684.623	4.88
685.379	6.88
686.135	6.88
686.89	5.88
687.646	5.88
688.402	6.88
689.157	5.88
689.912	4.88
690.668	4.88
691.423	7.88
692.178	6.88
692.933	5.88
693.688	6.88
694.443	6.88
695.198	4.88
695.953	6.88
696.708	4.88
697.462	4.88
698.217	5.88
698.972	8.88
699.726	7.88
700.48	5.88
701.235	6.88
701.989	8.88
702.743	7.88
703.497	8.88
704.251	8.88
705.005	5.88
705.759	4.88
706.513	5.88
707.266	6.88
708.02	6.88
708.774	5.88
709.527	5.88
710.28	5.88
711.034	6.88
711.787	6.88
712.54	7.88
713.293	6.88
714.046	4.88
714.799	4.88
715.552	7.88
716.305	3.88
717.058	5.88
717.81	3.88
718.563	4.88
719.315	5.88
720.068	5.88
720.82	6.88
721.573	5.88
722.325	3.88
723.077	4.88
723.829	8.88
724.581	4.88
725.333	5.88
726.085	6.88
726.836	5.88
727.588	5.88
728.34	8.88
729.091	9.88
729.843	4.88
730.594	7.88
731.346	6.88
732.097	5.88
732.848	7.88
733.599	6.88
734.35	6.88
735.101	8.88
735.852	8.88
736.603	6.88
737.354	4.88
738.104	7.88
738.855	6.88
739.605	9.88
740.356	4.88
741.106	7.88
741.856	8.88
742.607	8.88
743.357	7.88
744.107	5.88
744.857	8.88
745.607	6.88
746.357	8.88
747.106	8.88
747.856	8.88
748.606	7.88
749.355	6.88
750.105	7.88
750.854	8.88
751.603	9.88
752.353	8.88
753.102	8.88
753.851	8.88
754.6	8.88
755.349	7.88
756.098	8.88
756.847	7.88
757.595	7.88
758.344	8.88
759.093	6.88
759.841	6.88
760.589	9.88
761.338	8.88
762.086	10.88
762.834	8.88
763.582	13.88
764.331	10.88
765.079	10.88
765.826	9.88
766.574	10.88
767.322	10.88
768.07	11.88
768.817	12.88
769.565	10.88
770.312	9.88
771.06	10.88
771.807	9.88
772.554	11.88
773.302	8.88
774.049	12.88
774.796	12.88
775.543	12.88
776.29	10.88
777.036	11.88
777.783	13.88
778.53	11.88
779.276	10.88
780.023	11.88
780.769	12.88
781.516	13.88
782.262	12.88
783.008	12.88
783.754	12.88
784.5	11.88
785.246	12.88
785.992	11.88
786.738	11.88
787.484	12.88
788.23	12.88
788.975	10.88
789.721	12.88
790.466	10.88
791.212	12.88
791.957	11.88
792.702	11.88
793.447	14.88
794.193	11.88
794.938	12.88
795.683	11.88
796.427	16.88
797.172	11.88
797.917	7.88
798.662	9.88
799.406	9.88
800.151	10.88
800.895	8.88
801.64	10.88
802.384	10.88
803.128	11.88
803.872	9.88
804.616	9.88
805.36	7.88
806.104	8.88
806.848	10.88
807.592	9.88
808.336	8.88
809.079	6.88
809.823	7.88
810.566	9.88
811.31	7.88
812.053	5.88
812.796	7.88
813.539	5.88
814.283	6.88
815.026	5.88
815.769	6.88
816.511	5.88
817.254	7.88
817.997	9.88
818.74	4.88
819.482	5.88
820.225	5.88
820.967	5.88
821.71	6.88
822.452	5.88
823.194	5.88
823.936	7.88
824.678	5.88
825.42	6.88
826.162	7.88
826.904	6.88
827.646	6.88
828.388	5.88
829.129	5.88
829.871	6.88
830.612	5.88
831.354	6.88
832.095	3.88
832.836	5.88
833.577	6.88
834.319	5.88
835.06	4.88
835.801	5.88
836.542	7.88
837.282	4.88
838.023	7.88
838.764	5.88
839.504	5.88
840.245	5.88
840.985	1.88
841.726	4.88
842.466	2.88
843.206	3.88
843.946	3.88
844.687	3.88
845.427	5.88
846.166	3.88
846.906	6.88
847.646	1.88
848.386	3.88
849.125	4.88
849.865	5.88
850.605	5.88
851.344	4.88
852.083	5.88
852.823	3.88
853.562	5.88
854.301	1.88
855.04	4.88
855.779	4.88
856.518	3.88
857.257	2.88
857.995	2.88
858.734	2.88
859.473	3.88
860.211	4.88
860.95	0.88
861.688	2.88
862.426	3.88
863.165	3.88
863.903	3.88
864.641	1.88
865.379	4.88
866.117	3.88
866.855	2.88
867.593	1.88
868.33	3.88
869.068	2.88
869.806	2.88
870.543	1.88
871.28	3.88
872.018	1.88
872.755	0.88
873.492	1.88
874.229	1.88
874.967	0.88
875.703	3.88
876.44	1.88
877.177	0.88
877.914	3.88
878.651	2.88
879.387	1.88
880.124	1.88
880.86	-0.12
881.597	0.88
882.333	1.88
883.069	0.88
883.806	1.88
884.542	0.88
885.278	-0.12
886.014	0.88
886.749	0.88
887.485	2.88
888.221	0.88
888.957	1.88
889.692	0.88
890.428	0.88
891.163	0.88
891.899	3.88
892.634	2.88
893.369	0.88
894.104	1.88
894.839	1.88
895.574	1.88
896.309	0.88
897.044	0.88
897.779	0.88
898.514	0.88
899.248	2.88
899.983	-1.12
900.717	-0.12
901.452	2.88
902.186	-0.12
902.92	4.88
903.654	0.88
904.389	0.88
905.123	0.88
905.857	0.88
906.59	-1.12
907.324	1.88
908.058	1.88
908.792	-0.12
909.525	0.88
910.259	-0.12
910.992	0.88
911.726	-0.12
912.459	0.88
913.192	-0.12
913.925	0.88
914.658	-0.12
915.391	-1.12
916.124	1.88
916.857	0.88
917.59	-0.12
918.323	-0.12
919.055	0.88
919.788	2.88
920.521	-1.12
921.253	1.88
921.985	1.88
922.718	-0.12
923.45	-0.12
924.182	-1.12
924.914	-0.12
925.646	0.88
926.378	0.88
927.11	-1.12
927.841	3.88
928.573	-0.12
929.305	0.88
930.036	1.88
930.768	-0.12
931.499	1.88
932.23	0.88
932.962	1.88
933.693	0.88
934.424	-2.12
935.155	0.88
935.886	0.88
936.617	2.88
937.348	-0.12
938.078	-0.12
938.809	1.88
939.54	0.88
940.27	0.88
941.001	0.88
941.731	1.88
942.461	0.88
943.191	1.88
943.922	-1.12
944.652	0.88
945.382	-0.12
946.112	1.88
946.841	1.88
947.571	1.88
948.301	-0.12
949.031	0.88
949.76	0.88
950.49	0.88
951.219	-2.12
951.948	0.88
952.678	-0.12
953.407	1.88
954.136	1.88
954.865	-1.12
955.594	1.88
956.323	0.88
957.052	0.88
957.78	-2.12
958.509	-1.12
959.238	0.88
959.966	-1.12
960.695	-1.12
961.423	-0.12
962.151	0.88
962.88	-0.12
963.608	1.88
964.336	0.88
965.064	0.88
965.792	-0.12
966.52	-1.12
967.247	0.88
967.975	-1.12
968.703	-0.12
969.43	1.88
970.158	2.88
970.885	0.88
971.613	0.88
972.34	-2.12
973.067	-1.12
973.794	-1.12
974.521	0.88
975.248	0.88
975.975	0.88
976.702	0.88
977.429	0.88
978.156	1.88
978.882	-0.12
979.609	0.88
980.335	2.88
981.062	1.88
981.788	0.88
982.514	1.88
983.24	-0.12
983.967	0.88
984.693	-1.12
985.419	-1.12
986.144	-1.12
986.87	-0.12
987.596	0.88
988.322	-0.12
989.047	0.88
989.773	-2.12
990.498	0.88
991.224	1.88
991.949	0.88
992.674	0.88
993.399	0.88
994.124	0.88
994.849	-1.12
995.574	0.88
996.299	1.88
997.024	-1.12
997.749	1.88
998.473	-0.12
999.198	-0.12
999.922	0.88
1000.647	-1.12
1001.371	1.88
1002.095	-0.12
1002.82	-1.12
1003.544	0.88
1004.268	0.88
1004.992	-0.12
1005.716	3.88
1006.439	3.88
1007.163	3.88
1007.887	4.88
1008.611	-1.12
1009.334	0.88
1010.058	-0.12
1010.781	0.88
1011.504	-1.12
1012.228	-1.12
1012.951	-0.12
1013.674	-2.12
1014.397	0.88
1015.12	-0.12
