节点500_565_QEPB04081__256__09-54-40-640.txt的数据

Date: Thu Nov 13 09:54:40 CST 2025
User: PC
Spectrometer: QEPB0408
触发模式: 0
积分时间 (秒): 1.000000E-2
Scans to average: 1
启用暗噪声校正: true
启用非线性校正: false
滑动平均宽度: 0
X轴模式: Wavelengths
Number of Pixels in Spectrum: 1044
>>>>>Begin Spectral Data<<<<<
220.843	4.25
221.644	5.25
222.444	6.25
223.244	2.25
224.045	8.25
224.845	2.25
225.645	5.25
226.445	6.25
227.245	5.25
228.045	6.25
228.845	4.25
229.645	7.25
230.444	5.25
231.244	8.25
232.043	6.25
232.843	5.25
233.642	4.25
234.442	5.25
235.241	8.25
236.04	9.25
236.839	9.25
237.638	8.25
238.437	9.25
239.236	8.25
240.035	9.25
240.833	9.25
241.632	8.25
242.43	12.25
243.229	11.25
244.027	10.25
244.826	13.25
245.624	10.25
246.422	12.25
247.22	12.25
248.018	11.25
248.816	12.25
249.614	13.25
250.412	11.25
251.21	15.25
252.007	13.25
252.805	16.25
253.602	13.25
254.4	12.25
255.197	13.25
255.994	15.25
256.791	15.25
257.589	17.25
258.386	16.25
259.183	16.25
259.979	18.25
260.776	18.25
261.573	18.25
262.37	20.25
263.166	20.25
263.963	19.25
264.759	24.25
265.556	20.25
266.352	24.25
267.148	25.25
267.944	23.25
268.74	23.25
269.536	26.25
270.332	25.25
271.128	26.25
271.924	28.25
272.719	26.25
273.515	26.25
274.311	25.25
275.106	28.25
275.901	29.25
276.697	28.25
277.492	26.25
278.287	28.25
279.082	31.25
279.877	28.25
280.672	27.25
281.467	28.25
282.262	30.25
283.056	29.25
283.851	28.25
284.646	29.25
285.44	26.25
286.234	29.25
287.029	27.25
287.823	27.25
288.617	27.25
289.411	32.25
290.205	29.25
290.999	28.25
291.793	29.25
292.587	29.25
293.381	26.25
294.174	26.25
294.968	26.25
295.761	24.25
296.555	23.25
297.348	21.25
298.141	23.25
298.935	25.25
299.728	21.25
300.521	23.25
301.314	22.25
302.107	20.25
302.899	20.25
303.692	20.25
304.485	20.25
305.277	22.25
306.07	17.25
306.862	18.25
307.655	18.25
308.447	16.25
309.239	14.25
310.031	14.25
310.823	13.25
311.615	12.25
312.407	15.25
313.199	13.25
313.991	15.25
314.783	15.25
315.574	11.25
316.366	13.25
317.157	13.25
317.949	13.25
318.74	13.25
319.531	11.25
320.322	11.25
321.113	10.25
321.904	11.25
322.695	9.25
323.486	12.25
324.277	12.25
325.068	12.25
325.858	13.25
326.649	9.25
327.439	7.25
328.23	7.25
329.02	8.25
329.81	10.25
330.6	10.25
331.391	10.25
332.181	9.25
332.971	9.25
333.76	10.25
334.55	8.25
335.34	7.25
336.13	9.25
336.919	8.25
337.709	12.25
338.498	8.25
339.287	12.25
340.077	10.25
340.866	10.25
341.655	10.25
342.444	10.25
343.233	8.25
344.022	10.25
344.811	8.25
345.6	12.25
346.388	7.25
347.177	9.25
347.965	8.25
348.754	9.25
349.542	7.25
350.33	8.25
351.119	10.25
351.907	12.25
352.695	9.25
353.483	9.25
354.271	7.25
355.059	9.25
355.846	6.25
356.634	8.25
357.422	8.25
358.209	8.25
358.997	9.25
359.784	8.25
360.571	9.25
361.359	8.25
362.146	8.25
362.933	6.25
363.72	10.25
364.507	8.25
365.294	9.25
366.081	9.25
366.867	10.25
367.654	8.25
368.44	9.25
369.227	8.25
370.013	10.25
370.8	7.25
371.586	6.25
372.372	8.25
373.158	8.25
373.944	7.25
374.73	6.25
375.516	8.25
376.302	8.25
377.088	8.25
377.873	7.25
378.659	10.25
379.445	6.25
380.23	10.25
381.015	8.25
381.801	7.25
382.586	9.25
383.371	6.25
384.156	8.25
384.941	7.25
385.726	8.25
386.511	9.25
387.296	12.25
388.08	8.25
388.865	7.25
389.649	8.25
390.434	9.25
391.218	10.25
392.003	10.25
392.787	11.25
393.571	10.25
394.355	11.25
395.139	9.25
395.923	12.25
396.707	9.25
397.491	9.25
398.274	11.25
399.058	10.25
399.842	13.25
400.625	12.25
401.408	10.25
402.192	13.25
402.975	11.25
403.758	12.25
404.541	12.25
405.324	14.25
406.107	14.25
406.89	11.25
407.673	13.25
408.456	12.25
409.238	13.25
410.021	15.25
410.803	13.25
411.586	13.25
412.368	13.25
413.151	14.25
413.933	14.25
414.715	17.25
415.497	16.25
416.279	13.25
417.061	13.25
417.843	16.25
418.624	20.25
419.406	16.25
420.188	19.25
420.969	14.25
421.751	17.25
422.532	17.25
423.313	18.25
424.095	18.25
424.876	19.25
425.657	20.25
426.438	23.25
427.219	23.25
428	22.25
428.78	24.25
429.561	23.25
430.342	24.25
431.122	27.25
431.903	25.25
432.683	27.25
433.464	25.25
434.244	29.25
435.024	34.25
435.804	32.25
436.584	33.25
437.364	36.25
438.144	34.25
438.924	41.25
439.704	40.25
440.483	45.25
441.263	44.25
442.042	50.25
442.822	53.25
443.601	57.25
444.38	59.25
445.16	68.25
445.939	70.25
446.718	78.25
447.497	84.25
448.276	92.25
449.054	103.25
449.833	107.25
450.612	116.25
451.391	133.25
452.169	146.25
452.948	155.25
453.726	173.25
454.504	198.25
455.282	219.25
456.061	236.25
456.839	268.25
457.617	302.25
458.395	328.25
459.172	375.25
459.95	409.25
460.728	461.25
461.506	514.25
462.283	578.25
463.061	641.25
463.838	720.25
464.615	795.25
465.393	895.25
466.17	986.25
466.947	1103.25
467.724	1226.25
468.501	1360.25
469.278	1513.25
470.055	1684.25
470.831	1857.25
471.608	2068.25
472.385	2289.25
473.161	2535.25
473.938	2770.25
474.714	3068.25
475.49	3372.25
476.266	3704.25
477.043	4082.25
477.819	4490.25
478.595	4928.25
479.371	5379.25
480.146	5892.25
480.922	6466.25
481.698	7077.25
482.473	7704.25
483.249	8364.25
484.024	9182.25
484.8	10019.25
485.575	10934.25
486.35	11841.25
487.126	12897.25
487.901	14015.25
488.676	15145.25
489.451	16454.25
490.225	17824.25
491	19172.25
491.775	20639.25
492.55	22166.25
493.324	23705.25
494.099	25313.25
494.873	26950.25
495.647	28691.25
496.422	30349.25
497.196	32029.25
497.97	33599.25
498.744	34971.25
499.518	36343.25
500.292	37665.25
501.066	38877.25
501.839	39909.25
502.613	40690.25
503.387	41314.25
504.16	41882.25
504.934	42143.25
505.707	42040.25
506.48	41834.25
507.253	41400.25
508.027	40753.25
508.8	39925.25
509.573	38987.25
510.346	37970.25
511.118	36755.25
511.891	35703.25
512.664	34435.25
513.437	33116.25
514.209	31776.25
514.982	30611.25
515.754	29357.25
516.526	28047.25
517.298	26887.25
518.071	25765.25
518.843	24728.25
519.615	23786.25
520.387	22842.25
521.159	21956.25
521.93	21038.25
522.702	20122.25
523.474	19302.25
524.245	18557.25
525.017	17836.25
525.788	17013.25
526.56	16224.25
527.331	15486.25
528.102	14761.25
528.873	14033.25
529.644	13306.25
530.415	12713.25
531.186	12030.25
531.957	11453.25
532.728	10811.25
533.498	10263.25
534.269	9717.25
535.039	9168.25
535.81	8669.25
536.58	8198.25
537.351	7784.25
538.121	7357.25
538.891	6920.25
539.661	6577.25
540.431	6264.25
541.201	5879.25
541.971	5596.25
542.741	5258.25
543.51	5002.25
544.28	4753.25
545.05	4534.25
545.819	4318.25
546.588	4094.25
547.358	3901.25
548.127	3706.25
548.896	3491.25
549.665	3346.25
550.434	3165.25
551.203	2988.25
551.972	2854.25
552.741	2677.25
553.51	2530.25
554.278	2390.25
555.047	2260.25
555.815	2125.25
556.584	2034.25
557.352	1926.25
558.121	1801.25
558.889	1724.25
559.657	1597.25
560.425	1510.25
561.193	1438.25
561.961	1352.25
562.729	1288.25
563.496	1223.25
564.264	1150.25
565.032	1096.25
565.799	1027.25
566.567	974.25
567.334	928.25
568.101	868.25
568.869	815.25
569.636	776.25
570.403	738.25
571.17	689.25
571.937	662.25
572.704	616.25
573.471	585.25
574.237	541.25
575.004	520.25
575.771	484.25
576.537	457.25
577.303	433.25
578.07	397.25
578.836	376.25
579.602	364.25
580.368	346.25
581.134	327.25
581.9	317.25
582.666	296.25
583.432	288.25
584.198	270.25
584.964	253.25
585.729	234.25
586.495	229.25
587.26	211.25
588.025	201.25
588.791	192.25
589.556	184.25
590.321	173.25
591.086	163.25
591.851	158.25
592.616	148.25
593.381	144.25
594.146	139.25
594.911	130.25
595.675	125.25
596.44	115.25
597.204	116.25
597.969	111.25
598.733	105.25
599.497	100.25
600.261	93.25
601.025	93.25
601.79	90.25
602.553	83.25
603.317	78.25
604.081	79.25
604.845	76.25
605.609	72.25
606.372	66.25
607.136	66.25
607.899	62.25
608.662	60.25
609.426	58.25
610.189	56.25
610.952	51.25
611.715	52.25
612.478	48.25
613.241	46.25
614.004	49.25
614.767	46.25
615.529	43.25
616.292	41.25
617.055	41.25
617.817	37.25
618.579	34.25
619.342	32.25
620.104	34.25
620.866	34.25
621.628	30.25
622.39	32.25
623.152	29.25
623.914	33.25
624.676	27.25
625.438	27.25
626.199	28.25
626.961	26.25
627.722	27.25
628.484	25.25
629.245	23.25
630.006	22.25
630.768	20.25
631.529	22.25
632.29	22.25
633.051	24.25
633.812	21.25
634.573	19.25
635.333	17.25
636.094	19.25
636.855	18.25
637.615	16.25
638.376	16.25
639.136	15.25
639.896	17.25
640.657	17.25
641.417	14.25
642.177	16.25
642.937	15.25
643.697	17.25
644.457	17.25
645.216	16.25
645.976	14.25
646.736	12.25
647.495	13.25
648.255	13.25
649.014	14.25
649.774	12.25
650.533	13.25
651.292	9.25
652.051	12.25
652.81	10.25
653.569	9.25
654.328	11.25
655.087	9.25
655.846	12.25
656.604	9.25
657.363	10.25
658.121	10.25
658.88	9.25
659.638	12.25
660.397	11.25
661.155	10.25
661.913	9.25
662.671	8.25
663.429	11.25
664.187	8.25
664.945	10.25
665.703	8.25
666.46	9.25
667.218	8.25
667.976	12.25
668.733	10.25
669.49	9.25
670.248	10.25
671.005	8.25
671.762	7.25
672.519	8.25
673.276	8.25
674.033	7.25
674.79	6.25
675.547	8.25
676.304	7.25
677.06	8.25
677.817	7.25
678.574	8.25
679.33	6.25
680.086	5.25
680.843	9.25
681.599	5.25
682.355	7.25
683.111	6.25
683.867	8.25
684.623	6.25
685.379	5.25
686.135	6.25
686.89	8.25
687.646	6.25
688.402	8.25
689.157	5.25
689.912	5.25
690.668	6.25
691.423	7.25
692.178	5.25
692.933	8.25
693.688	5.25
694.443	7.25
695.198	9.25
695.953	6.25
696.708	5.25
697.462	7.25
698.217	5.25
698.972	4.25
699.726	5.25
700.48	6.25
701.235	6.25
701.989	6.25
702.743	4.25
703.497	5.25
704.251	5.25
705.005	5.25
705.759	7.25
706.513	8.25
707.266	7.25
708.02	8.25
708.774	5.25
709.527	6.25
710.28	7.25
711.034	3.25
711.787	7.25
712.54	6.25
713.293	5.25
714.046	6.25
714.799	6.25
715.552	6.25
716.305	4.25
717.058	5.25
717.81	6.25
718.563	3.25
719.315	8.25
720.068	3.25
720.82	5.25
721.573	5.25
722.325	5.25
723.077	7.25
723.829	5.25
724.581	6.25
725.333	4.25
726.085	8.25
726.836	8.25
727.588	7.25
728.34	6.25
729.091	5.25
729.843	8.25
730.594	6.25
731.346	6.25
732.097	7.25
732.848	7.25
733.599	8.25
734.35	7.25
735.101	8.25
735.852	8.25
736.603	7.25
737.354	8.25
738.104	9.25
738.855	10.25
739.605	6.25
740.356	7.25
741.106	5.25
741.856	9.25
742.607	8.25
743.357	10.25
744.107	8.25
744.857	8.25
745.607	8.25
746.357	9.25
747.106	8.25
747.856	7.25
748.606	11.25
749.355	9.25
750.105	6.25
750.854	10.25
751.603	9.25
752.353	10.25
753.102	9.25
753.851	10.25
754.6	9.25
755.349	11.25
756.098	11.25
756.847	8.25
757.595	8.25
758.344	8.25
759.093	9.25
759.841	10.25
760.589	11.25
761.338	8.25
762.086	9.25
762.834	11.25
763.582	8.25
764.331	11.25
765.079	12.25
765.826	12.25
766.574	12.25
767.322	13.25
768.07	11.25
768.817	9.25
769.565	13.25
770.312	12.25
771.06	11.25
771.807	13.25
772.554	12.25
773.302	14.25
774.049	11.25
774.796	11.25
775.543	12.25
776.29	13.25
777.036	14.25
777.783	12.25
778.53	15.25
779.276	15.25
780.023	14.25
780.769	13.25
781.516	13.25
782.262	15.25
783.008	11.25
783.754	13.25
784.5	14.25
785.246	12.25
785.992	12.25
786.738	13.25
787.484	12.25
788.23	10.25
788.975	14.25
789.721	10.25
790.466	14.25
791.212	13.25
791.957	14.25
792.702	12.25
793.447	10.25
794.193	13.25
794.938	12.25
795.683	13.25
796.427	14.25
797.172	11.25
797.917	11.25
798.662	12.25
799.406	11.25
800.151	9.25
800.895	11.25
801.64	8.25
802.384	9.25
803.128	11.25
803.872	10.25
804.616	12.25
805.36	10.25
806.104	10.25
806.848	8.25
807.592	10.25
808.336	8.25
809.079	9.25
809.823	8.25
810.566	8.25
811.31	9.25
812.053	8.25
812.796	10.25
813.539	7.25
814.283	7.25
815.026	9.25
815.769	9.25
816.511	8.25
817.254	6.25
817.997	4.25
818.74	9.25
819.482	7.25
820.225	6.25
820.967	6.25
821.71	6.25
822.452	4.25
823.194	6.25
823.936	8.25
824.678	4.25
825.42	8.25
826.162	1.25
826.904	5.25
827.646	6.25
828.388	6.25
829.129	6.25
829.871	4.25
830.612	5.25
831.354	4.25
832.095	4.25
832.836	5.25
833.577	5.25
834.319	3.25
835.06	5.25
835.801	5.25
836.542	4.25
837.282	4.25
838.023	5.25
838.764	5.25
839.504	2.25
840.245	4.25
840.985	5.25
841.726	2.25
842.466	5.25
843.206	4.25
843.946	6.25
844.687	3.25
845.427	0.25
846.166	5.25
846.906	5.25
847.646	5.25
848.386	6.25
849.125	5.25
849.865	4.25
850.605	4.25
851.344	4.25
852.083	3.25
852.823	6.25
853.562	3.25
854.301	5.25
855.04	1.25
855.779	1.25
856.518	2.25
857.257	-0.75
857.995	1.25
858.734	3.25
859.473	5.25
860.211	4.25
860.95	2.25
861.688	2.25
862.426	2.25
863.165	4.25
863.903	0.25
864.641	2.25
865.379	4.25
866.117	3.25
866.855	1.25
867.593	0.25
868.33	-0.75
869.068	1.25
869.806	1.25
870.543	1.25
871.28	1.25
872.018	2.25
872.755	0.25
873.492	3.25
874.229	2.25
874.967	0.25
875.703	2.25
876.44	0.25
877.177	3.25
877.914	0.25
878.651	1.25
879.387	0.25
880.124	2.25
880.86	1.25
881.597	0.25
882.333	2.25
883.069	4.25
883.806	2.25
884.542	1.25
885.278	2.25
886.014	-0.75
886.749	2.25
887.485	1.25
888.221	0.25
888.957	4.25
889.692	0.25
890.428	2.25
891.163	3.25
891.899	0.25
892.634	1.25
893.369	0.25
894.104	1.25
894.839	2.25
895.574	1.25
896.309	0.25
897.044	1.25
897.779	2.25
898.514	1.25
899.248	-1.75
899.983	-0.75
900.717	1.25
901.452	-0.75
902.186	0.25
902.92	1.25
903.654	-1.75
904.389	0.25
905.123	-0.75
905.857	-0.75
906.59	0.25
907.324	0.25
908.058	1.25
908.792	0.25
909.525	0.25
910.259	-1.75
910.992	2.25
911.726	0.25
912.459	2.25
913.192	-0.75
913.925	-0.75
914.658	0.25
915.391	-1.75
916.124	-0.75
916.857	-1.75
917.59	0.25
918.323	3.25
919.055	-0.75
919.788	2.25
920.521	-0.75
921.253	0.25
921.985	-1.75
922.718	1.25
923.45	0.25
924.182	1.25
924.914	0.25
925.646	-2.75
926.378	-1.75
927.11	1.25
927.841	1.25
928.573	1.25
929.305	0.25
930.036	2.25
930.768	-2.75
931.499	2.25
932.23	0.25
932.962	0.25
933.693	-0.75
934.424	0.25
935.155	-1.75
935.886	-0.75
936.617	1.25
937.348	-0.75
938.078	0.25
938.809	0.25
939.54	-0.75
940.27	1.25
941.001	2.25
941.731	2.25
942.461	-0.75
943.191	0.25
943.922	2.25
944.652	1.25
945.382	0.25
946.112	0.25
946.841	2.25
947.571	-0.75
948.301	1.25
949.031	0.25
949.76	-0.75
950.49	0.25
951.219	-1.75
951.948	-0.75
952.678	-0.75
953.407	1.25
954.136	1.25
954.865	-1.75
955.594	-1.75
956.323	0.25
957.052	1.25
957.78	1.25
958.509	-0.75
959.238	-1.75
959.966	0.25
960.695	0.25
961.423	0.25
962.151	0.25
962.88	-0.75
963.608	2.25
964.336	-1.75
965.064	1.25
965.792	1.25
966.52	1.25
967.247	1.25
967.975	0.25
968.703	0.25
969.43	1.25
970.158	-1.75
970.885	-1.75
971.613	0.25
972.34	1.25
973.067	-0.75
973.794	0.25
974.521	0.25
975.248	0.25
975.975	1.25
976.702	0.25
977.429	-0.75
978.156	-1.75
978.882	2.25
979.609	2.25
980.335	1.25
981.062	2.25
981.788	-1.75
982.514	0.25
983.24	-0.75
983.967	0.25
984.693	-0.75
985.419	-0.75
986.144	2.25
986.87	1.25
987.596	-1.75
988.322	0.25
989.047	3.25
989.773	-0.75
990.498	2.25
991.224	2.25
991.949	0.25
992.674	0.25
993.399	0.25
994.124	1.25
994.849	0.25
995.574	0.25
996.299	-1.75
997.024	-0.75
997.749	-0.75
998.473	-1.75
999.198	-1.75
999.922	0.25
1000.647	1.25
1001.371	2.25
1002.095	-1.75
1002.82	-0.75
1003.544	-0.75
1004.268	5.25
1004.992	3.25
1005.716	2.25
1006.439	2.25
1007.163	5.25
1007.887	4.25
1008.611	-0.75
1009.334	1.25
1010.058	0.25
1010.781	-1.75
1011.504	0.25
1012.228	-1.75
1012.951	0.25
1013.674	-0.75
1014.397	-0.75
1015.12	2.25
