节点500_565_QEPB04081__598__10-00-21-954.txt的数据

Date: Thu Nov 13 10:00:21 CST 2025
User: PC
Spectrometer: QEPB0408
触发模式: 0
积分时间 (秒): 1.000000E-2
Scans to average: 1
启用暗噪声校正: true
启用非线性校正: false
滑动平均宽度: 0
X轴模式: Wavelengths
Number of Pixels in Spectrum: 1044
>>>>>Begin Spectral Data<<<<<
220.843	2.12
221.644	4.12
222.444	3.12
223.244	3.12
224.045	4.12
224.845	4.12
225.645	7.12
226.445	6.12
227.245	7.12
228.045	4.12
228.845	5.12
229.645	5.12
230.444	5.12
231.244	5.12
232.043	7.12
232.843	7.12
233.642	9.12
234.442	5.12
235.241	7.12
236.04	7.12
236.839	8.12
237.638	8.12
238.437	10.12
239.236	9.12
240.035	9.12
240.833	8.12
241.632	9.12
242.43	8.12
243.229	10.12
244.027	9.12
244.826	7.12
245.624	12.12
246.422	10.12
247.22	11.12
248.018	9.12
248.816	10.12
249.614	11.12
250.412	12.12
251.21	10.12
252.007	12.12
252.805	12.12
253.602	14.12
254.4	13.12
255.197	13.12
255.994	14.12
256.791	15.12
257.589	14.12
258.386	15.12
259.183	14.12
259.979	16.12
260.776	17.12
261.573	16.12
262.37	18.12
263.166	17.12
263.963	15.12
264.759	19.12
265.556	19.12
266.352	19.12
267.148	18.12
267.944	21.12
268.74	21.12
269.536	22.12
270.332	23.12
271.128	24.12
271.924	22.12
272.719	20.12
273.515	27.12
274.311	23.12
275.106	24.12
275.901	23.12
276.697	27.12
277.492	24.12
278.287	28.12
279.082	25.12
279.877	29.12
280.672	29.12
281.467	25.12
282.262	27.12
283.056	28.12
283.851	30.12
284.646	26.12
285.44	25.12
286.234	31.12
287.029	26.12
287.823	25.12
288.617	26.12
289.411	26.12
290.205	26.12
290.999	24.12
291.793	25.12
292.587	26.12
293.381	23.12
294.174	22.12
294.968	26.12
295.761	22.12
296.555	25.12
297.348	23.12
298.141	21.12
298.935	25.12
299.728	22.12
300.521	21.12
301.314	21.12
302.107	20.12
302.899	18.12
303.692	19.12
304.485	19.12
305.277	19.12
306.07	21.12
306.862	19.12
307.655	17.12
308.447	19.12
309.239	17.12
310.031	19.12
310.823	16.12
311.615	15.12
312.407	17.12
313.199	16.12
313.991	15.12
314.783	16.12
315.574	14.12
316.366	12.12
317.157	14.12
317.949	13.12
318.74	14.12
319.531	12.12
320.322	12.12
321.113	15.12
321.904	11.12
322.695	12.12
323.486	13.12
324.277	11.12
325.068	12.12
325.858	9.12
326.649	11.12
327.439	9.12
328.23	13.12
329.02	12.12
329.81	9.12
330.6	12.12
331.391	9.12
332.181	10.12
332.971	9.12
333.76	11.12
334.55	10.12
335.34	10.12
336.13	12.12
336.919	11.12
337.709	11.12
338.498	12.12
339.287	8.12
340.077	12.12
340.866	10.12
341.655	10.12
342.444	8.12
343.233	12.12
344.022	11.12
344.811	9.12
345.6	9.12
346.388	9.12
347.177	10.12
347.965	7.12
348.754	11.12
349.542	12.12
350.33	11.12
351.119	8.12
351.907	9.12
352.695	9.12
353.483	8.12
354.271	9.12
355.059	8.12
355.846	9.12
356.634	9.12
357.422	9.12
358.209	9.12
358.997	11.12
359.784	7.12
360.571	9.12
361.359	11.12
362.146	8.12
362.933	12.12
363.72	6.12
364.507	8.12
365.294	5.12
366.081	9.12
366.867	8.12
367.654	8.12
368.44	9.12
369.227	6.12
370.013	10.12
370.8	8.12
371.586	7.12
372.372	10.12
373.158	9.12
373.944	8.12
374.73	9.12
375.516	7.12
376.302	9.12
377.088	9.12
377.873	7.12
378.659	6.12
379.445	9.12
380.23	6.12
381.015	7.12
381.801	9.12
382.586	9.12
383.371	9.12
384.156	8.12
384.941	9.12
385.726	9.12
386.511	9.12
387.296	9.12
388.08	10.12
388.865	9.12
389.649	9.12
390.434	10.12
391.218	7.12
392.003	12.12
392.787	11.12
393.571	12.12
394.355	11.12
395.139	9.12
395.923	10.12
396.707	10.12
397.491	11.12
398.274	13.12
399.058	13.12
399.842	13.12
400.625	12.12
401.408	12.12
402.192	12.12
402.975	14.12
403.758	13.12
404.541	11.12
405.324	13.12
406.107	12.12
406.89	14.12
407.673	13.12
408.456	13.12
409.238	11.12
410.021	15.12
410.803	15.12
411.586	12.12
412.368	12.12
413.151	13.12
413.933	15.12
414.715	14.12
415.497	17.12
416.279	14.12
417.061	16.12
417.843	14.12
418.624	15.12
419.406	17.12
420.188	17.12
420.969	19.12
421.751	17.12
422.532	16.12
423.313	21.12
424.095	18.12
424.876	21.12
425.657	21.12
426.438	20.12
427.219	22.12
428	24.12
428.78	23.12
429.561	21.12
430.342	28.12
431.122	23.12
431.903	26.12
432.683	29.12
433.464	29.12
434.244	30.12
435.024	33.12
435.804	33.12
436.584	32.12
437.364	37.12
438.144	37.12
438.924	43.12
439.704	45.12
440.483	47.12
441.263	50.12
442.042	53.12
442.822	60.12
443.601	62.12
444.38	68.12
445.16	69.12
445.939	79.12
446.718	82.12
447.497	89.12
448.276	97.12
449.054	110.12
449.833	115.12
450.612	130.12
451.391	145.12
452.169	158.12
452.948	178.12
453.726	187.12
454.504	214.12
455.282	239.12
456.061	259.12
456.839	295.12
457.617	331.12
458.395	369.12
459.172	398.12
459.95	455.12
460.728	504.12
461.506	565.12
462.283	624.12
463.061	693.12
463.838	772.12
464.615	848.12
465.393	945.12
466.17	1043.12
466.947	1146.12
467.724	1283.12
468.501	1410.12
469.278	1563.12
470.055	1723.12
470.831	1899.12
471.608	2075.12
472.385	2309.12
473.161	2526.12
473.938	2777.12
474.714	3029.12
475.49	3337.12
476.266	3599.12
477.043	3964.12
477.819	4314.12
478.595	4702.12
479.371	5111.12
480.146	5546.12
480.922	6036.12
481.698	6569.12
482.473	7105.12
483.249	7675.12
484.024	8294.12
484.8	9039.12
485.575	9786.12
486.35	10555.12
487.126	11386.12
487.901	12269.12
488.676	13299.12
489.451	14321.12
490.225	15418.12
491	16553.12
491.775	17675.12
492.55	18929.12
493.324	20233.12
494.099	21605.12
494.873	22975.12
495.647	24385.12
496.422	25783.12
497.196	27143.12
497.97	28560.12
498.744	29979.12
499.518	31244.12
500.292	32513.12
501.066	33673.12
501.839	34789.12
502.613	35703.12
503.387	36519.12
504.16	37198.12
504.934	37703.12
505.707	38001.12
506.48	38172.12
507.253	38195.12
508.027	37866.12
508.8	37534.12
509.573	36982.12
510.346	36336.12
511.118	35572.12
511.891	34781.12
512.664	33820.12
513.437	32714.12
514.209	31611.12
514.982	30492.12
515.754	29466.12
516.526	28351.12
517.298	27214.12
518.071	26151.12
518.843	25115.12
519.615	24108.12
520.387	23111.12
521.159	22254.12
521.93	21383.12
522.702	20548.12
523.474	19710.12
524.245	18894.12
525.017	18140.12
525.788	17427.12
526.56	16688.12
527.331	15979.12
528.102	15259.12
528.873	14607.12
529.644	13883.12
530.415	13262.12
531.186	12592.12
531.957	11973.12
532.728	11397.12
533.498	10849.12
534.269	10247.12
535.039	9715.12
535.81	9257.12
536.58	8750.12
537.351	8272.12
538.121	7831.12
538.891	7430.12
539.661	7039.12
540.431	6660.12
541.201	6267.12
541.971	6011.12
542.741	5670.12
543.51	5347.12
544.28	5085.12
545.05	4833.12
545.819	4596.12
546.588	4363.12
547.358	4152.12
548.127	3953.12
548.896	3793.12
549.665	3598.12
550.434	3387.12
551.203	3233.12
551.972	3073.12
552.741	2908.12
553.51	2754.12
554.278	2601.12
555.047	2441.12
555.815	2325.12
556.584	2223.12
557.352	2089.12
558.121	1959.12
558.889	1846.12
559.657	1751.12
560.425	1653.12
561.193	1574.12
561.961	1490.12
562.729	1414.12
563.496	1326.12
564.264	1263.12
565.032	1201.12
565.799	1126.12
566.567	1084.12
567.334	1000.12
568.101	955.12
568.869	895.12
569.636	847.12
570.403	800.12
571.17	758.12
571.937	723.12
572.704	678.12
573.471	638.12
574.237	602.12
575.004	572.12
575.771	536.12
576.537	504.12
577.303	480.12
578.07	453.12
578.836	424.12
579.602	404.12
580.368	371.12
581.134	351.12
581.9	352.12
582.666	327.12
583.432	306.12
584.198	295.12
584.964	277.12
585.729	275.12
586.495	252.12
587.26	236.12
588.025	229.12
588.791	211.12
589.556	202.12
590.321	195.12
591.086	190.12
591.851	169.12
592.616	171.12
593.381	156.12
594.146	148.12
594.911	138.12
595.675	133.12
596.44	130.12
597.204	120.12
597.969	116.12
598.733	113.12
599.497	113.12
600.261	107.12
601.025	99.12
601.79	99.12
602.553	89.12
603.317	88.12
604.081	86.12
604.845	82.12
605.609	75.12
606.372	73.12
607.136	71.12
607.899	67.12
608.662	66.12
609.426	63.12
610.189	61.12
610.952	56.12
611.715	59.12
612.478	53.12
613.241	50.12
614.004	50.12
614.767	47.12
615.529	47.12
616.292	46.12
617.055	46.12
617.817	45.12
618.579	41.12
619.342	40.12
620.104	38.12
620.866	35.12
621.628	35.12
622.39	35.12
623.152	33.12
623.914	32.12
624.676	31.12
625.438	31.12
626.199	29.12
626.961	25.12
627.722	27.12
628.484	23.12
629.245	27.12
630.006	25.12
630.768	24.12
631.529	23.12
632.29	24.12
633.051	21.12
633.812	19.12
634.573	22.12
635.333	21.12
636.094	21.12
636.855	20.12
637.615	14.12
638.376	17.12
639.136	18.12
639.896	17.12
640.657	17.12
641.417	19.12
642.177	15.12
642.937	19.12
643.697	16.12
644.457	15.12
645.216	18.12
645.976	17.12
646.736	15.12
647.495	15.12
648.255	15.12
649.014	11.12
649.774	11.12
650.533	12.12
651.292	12.12
652.051	12.12
652.81	11.12
653.569	9.12
654.328	10.12
655.087	10.12
655.846	12.12
656.604	10.12
657.363	14.12
658.121	11.12
658.88	11.12
659.638	7.12
660.397	8.12
661.155	10.12
661.913	8.12
662.671	10.12
663.429	10.12
664.187	7.12
664.945	12.12
665.703	8.12
666.46	9.12
667.218	10.12
667.976	8.12
668.733	9.12
669.49	8.12
670.248	8.12
671.005	9.12
671.762	8.12
672.519	7.12
673.276	9.12
674.033	6.12
674.79	8.12
675.547	9.12
676.304	8.12
677.06	9.12
677.817	8.12
678.574	7.12
679.33	9.12
680.086	7.12
680.843	7.12
681.599	7.12
682.355	9.12
683.111	7.12
683.867	5.12
684.623	5.12
685.379	5.12
686.135	9.12
686.89	5.12
687.646	7.12
688.402	6.12
689.157	8.12
689.912	6.12
690.668	5.12
691.423	7.12
692.178	9.12
692.933	7.12
693.688	5.12
694.443	9.12
695.198	8.12
695.953	8.12
696.708	6.12
697.462	8.12
698.217	6.12
698.972	5.12
699.726	7.12
700.48	7.12
701.235	8.12
701.989	6.12
702.743	6.12
703.497	6.12
704.251	8.12
705.005	7.12
705.759	5.12
706.513	7.12
707.266	7.12
708.02	5.12
708.774	8.12
709.527	5.12
710.28	7.12
711.034	6.12
711.787	8.12
712.54	6.12
713.293	7.12
714.046	10.12
714.799	5.12
715.552	7.12
716.305	6.12
717.058	6.12
717.81	10.12
718.563	7.12
719.315	7.12
720.068	5.12
720.82	6.12
721.573	6.12
722.325	8.12
723.077	4.12
723.829	7.12
724.581	7.12
725.333	5.12
726.085	8.12
726.836	4.12
727.588	5.12
728.34	8.12
729.091	7.12
729.843	8.12
730.594	9.12
731.346	8.12
732.097	5.12
732.848	9.12
733.599	7.12
734.35	8.12
735.101	6.12
735.852	9.12
736.603	7.12
737.354	6.12
738.104	9.12
738.855	9.12
739.605	7.12
740.356	7.12
741.106	8.12
741.856	7.12
742.607	9.12
743.357	12.12
744.107	8.12
744.857	11.12
745.607	9.12
746.357	8.12
747.106	5.12
747.856	9.12
748.606	6.12
749.355	8.12
750.105	7.12
750.854	9.12
751.603	9.12
752.353	10.12
753.102	7.12
753.851	10.12
754.6	10.12
755.349	9.12
756.098	9.12
756.847	7.12
757.595	10.12
758.344	10.12
759.093	11.12
759.841	10.12
760.589	9.12
761.338	8.12
762.086	9.12
762.834	11.12
763.582	9.12
764.331	12.12
765.079	9.12
765.826	11.12
766.574	9.12
767.322	14.12
768.07	11.12
768.817	11.12
769.565	13.12
770.312	13.12
771.06	11.12
771.807	13.12
772.554	11.12
773.302	11.12
774.049	12.12
774.796	10.12
775.543	12.12
776.29	14.12
777.036	14.12
777.783	12.12
778.53	12.12
779.276	13.12
780.023	12.12
780.769	12.12
781.516	13.12
782.262	12.12
783.008	12.12
783.754	13.12
784.5	13.12
785.246	12.12
785.992	12.12
786.738	13.12
787.484	11.12
788.23	14.12
788.975	14.12
789.721	12.12
790.466	13.12
791.212	12.12
791.957	12.12
792.702	12.12
793.447	13.12
794.193	13.12
794.938	13.12
795.683	9.12
796.427	13.12
797.172	10.12
797.917	12.12
798.662	10.12
799.406	11.12
800.151	14.12
800.895	10.12
801.64	10.12
802.384	11.12
803.128	10.12
803.872	9.12
804.616	7.12
805.36	10.12
806.104	10.12
806.848	6.12
807.592	8.12
808.336	8.12
809.079	9.12
809.823	8.12
810.566	7.12
811.31	8.12
812.053	7.12
812.796	4.12
813.539	8.12
814.283	7.12
815.026	8.12
815.769	9.12
816.511	7.12
817.254	6.12
817.997	9.12
818.74	10.12
819.482	6.12
820.225	10.12
820.967	5.12
821.71	8.12
822.452	5.12
823.194	6.12
823.936	7.12
824.678	7.12
825.42	5.12
826.162	7.12
826.904	6.12
827.646	7.12
828.388	7.12
829.129	6.12
829.871	6.12
830.612	4.12
831.354	7.12
832.095	5.12
832.836	8.12
833.577	6.12
834.319	4.12
835.06	5.12
835.801	4.12
836.542	5.12
837.282	5.12
838.023	6.12
838.764	6.12
839.504	4.12
840.245	5.12
840.985	4.12
841.726	7.12
842.466	6.12
843.206	6.12
843.946	5.12
844.687	5.12
845.427	5.12
846.166	5.12
846.906	6.12
847.646	2.12
848.386	4.12
849.125	4.12
849.865	5.12
850.605	5.12
851.344	6.12
852.083	3.12
852.823	4.12
853.562	5.12
854.301	4.12
855.04	3.12
855.779	7.12
856.518	4.12
857.257	5.12
857.995	3.12
858.734	6.12
859.473	4.12
860.211	4.12
860.95	3.12
861.688	3.12
862.426	4.12
863.165	6.12
863.903	3.12
864.641	3.12
865.379	5.12
866.117	6.12
866.855	3.12
867.593	3.12
868.33	3.12
869.068	3.12
869.806	2.12
870.543	2.12
871.28	2.12
872.018	1.12
872.755	3.12
873.492	2.12
874.229	2.12
874.967	1.12
875.703	1.12
876.44	3.12
877.177	3.12
877.914	3.12
878.651	3.12
879.387	1.12
880.124	3.12
880.86	3.12
881.597	1.12
882.333	3.12
883.069	4.12
883.806	1.12
884.542	2.12
885.278	3.12
886.014	3.12
886.749	3.12
887.485	3.12
888.221	2.12
888.957	1.12
889.692	1.12
890.428	1.12
891.163	3.12
891.899	1.12
892.634	2.12
893.369	2.12
894.104	1.12
894.839	0.12
895.574	3.12
896.309	3.12
897.044	2.12
897.779	5.12
898.514	1.12
899.248	1.12
899.983	2.12
900.717	0.12
901.452	-0.88
902.186	0.12
902.92	2.12
903.654	3.12
904.389	2.12
905.123	2.12
905.857	3.12
906.59	2.12
907.324	0.12
908.058	3.12
908.792	2.12
909.525	1.12
910.259	1.12
910.992	0.12
911.726	0.12
912.459	1.12
913.192	0.12
913.925	3.12
914.658	1.12
915.391	0.12
916.124	-0.88
916.857	3.12
917.59	-0.88
918.323	1.12
919.055	1.12
919.788	2.12
920.521	1.12
921.253	-0.88
921.985	-0.88
922.718	0.12
923.45	-1.88
924.182	0.12
924.914	2.12
925.646	-0.88
926.378	1.12
927.11	0.12
927.841	1.12
928.573	2.12
929.305	-1.88
930.036	0.12
930.768	1.12
931.499	1.12
932.23	-0.88
932.962	2.12
933.693	1.12
934.424	0.12
935.155	1.12
935.886	0.12
936.617	1.12
937.348	1.12
938.078	1.12
938.809	2.12
939.54	-0.88
940.27	3.12
941.001	1.12
941.731	0.12
942.461	-1.88
943.191	0.12
943.922	3.12
944.652	-0.88
945.382	1.12
946.112	1.12
946.841	3.12
947.571	2.12
948.301	0.12
949.031	2.12
949.76	0.12
950.49	0.12
951.219	-1.88
951.948	1.12
952.678	0.12
953.407	-0.88
954.136	0.12
954.865	0.12
955.594	0.12
956.323	-0.88
957.052	1.12
957.78	-0.88
958.509	-0.88
959.238	1.12
959.966	-0.88
960.695	1.12
961.423	1.12
962.151	-0.88
962.88	0.12
963.608	2.12
964.336	1.12
965.064	2.12
965.792	-0.88
966.52	0.12
967.247	2.12
967.975	1.12
968.703	0.12
969.43	-0.88
970.158	-1.88
970.885	3.12
971.613	-0.88
972.34	1.12
973.067	-1.88
973.794	1.12
974.521	1.12
975.248	0.12
975.975	1.12
976.702	0.12
977.429	0.12
978.156	-0.88
978.882	0.12
979.609	2.12
980.335	1.12
981.062	0.12
981.788	1.12
982.514	1.12
983.24	1.12
983.967	1.12
984.693	-0.88
985.419	2.12
986.144	1.12
986.87	-1.88
987.596	-0.88
988.322	0.12
989.047	1.12
989.773	0.12
990.498	0.12
991.224	2.12
991.949	-1.88
992.674	3.12
993.399	1.12
994.124	0.12
994.849	1.12
995.574	1.12
996.299	-0.88
997.024	3.12
997.749	0.12
998.473	2.12
999.198	2.12
999.922	0.12
1000.647	-1.88
1001.371	1.12
1002.095	0.12
1002.82	0.12
1003.544	-1.88
1004.268	3.12
1004.992	4.12
1005.716	2.12
1006.439	3.12
1007.163	5.12
1007.887	3.12
1008.611	2.12
1009.334	1.12
1010.058	1.12
1010.781	1.12
1011.504	2.12
1012.228	3.12
1012.951	-0.88
1013.674	0.12
1014.397	-0.88
1015.12	2.12
