节点500_565_QEPB04081__289__09-55-13-558.txt的数据

Date: Thu Nov 13 09:55:13 CST 2025
User: PC
Spectrometer: QEPB0408
触发模式: 0
积分时间 (秒): 1.000000E-2
Scans to average: 1
启用暗噪声校正: true
启用非线性校正: false
滑动平均宽度: 0
X轴模式: Wavelengths
Number of Pixels in Spectrum: 1044
>>>>>Begin Spectral Data<<<<<
220.843	4.88
221.644	3.88
222.444	3.88
223.244	4.88
224.045	2.88
224.845	3.88
225.645	3.88
226.445	4.88
227.245	6.88
228.045	6.88
228.845	8.88
229.645	4.88
230.444	5.88
231.244	6.88
232.043	8.88
232.843	7.88
233.642	7.88
234.442	8.88
235.241	6.88
236.04	7.88
236.839	6.88
237.638	8.88
238.437	8.88
239.236	8.88
240.035	11.88
240.833	9.88
241.632	9.88
242.43	9.88
243.229	11.88
244.027	9.88
244.826	10.88
245.624	9.88
246.422	8.88
247.22	13.88
248.018	10.88
248.816	11.88
249.614	9.88
250.412	12.88
251.21	13.88
252.007	13.88
252.805	14.88
253.602	13.88
254.4	17.88
255.197	16.88
255.994	16.88
256.791	15.88
257.589	15.88
258.386	17.88
259.183	16.88
259.979	18.88
260.776	19.88
261.573	15.88
262.37	18.88
263.166	16.88
263.963	19.88
264.759	19.88
265.556	22.88
266.352	24.88
267.148	22.88
267.944	19.88
268.74	24.88
269.536	22.88
270.332	25.88
271.128	27.88
271.924	26.88
272.719	24.88
273.515	29.88
274.311	29.88
275.106	27.88
275.901	24.88
276.697	27.88
277.492	27.88
278.287	28.88
279.082	29.88
279.877	25.88
280.672	29.88
281.467	28.88
282.262	29.88
283.056	28.88
283.851	32.88
284.646	27.88
285.44	29.88
286.234	27.88
287.029	29.88
287.823	29.88
288.617	24.88
289.411	27.88
290.205	27.88
290.999	27.88
291.793	27.88
292.587	26.88
293.381	26.88
294.174	23.88
294.968	23.88
295.761	22.88
296.555	23.88
297.348	21.88
298.141	22.88
298.935	27.88
299.728	21.88
300.521	21.88
301.314	19.88
302.107	21.88
302.899	19.88
303.692	16.88
304.485	17.88
305.277	16.88
306.07	20.88
306.862	18.88
307.655	18.88
308.447	16.88
309.239	16.88
310.031	19.88
310.823	13.88
311.615	16.88
312.407	16.88
313.199	14.88
313.991	15.88
314.783	14.88
315.574	14.88
316.366	14.88
317.157	15.88
317.949	12.88
318.74	11.88
319.531	12.88
320.322	11.88
321.113	13.88
321.904	12.88
322.695	10.88
323.486	11.88
324.277	11.88
325.068	12.88
325.858	9.88
326.649	7.88
327.439	9.88
328.23	12.88
329.02	11.88
329.81	10.88
330.6	11.88
331.391	12.88
332.181	8.88
332.971	10.88
333.76	9.88
334.55	7.88
335.34	11.88
336.13	13.88
336.919	10.88
337.709	7.88
338.498	9.88
339.287	12.88
340.077	9.88
340.866	8.88
341.655	8.88
342.444	8.88
343.233	10.88
344.022	10.88
344.811	10.88
345.6	6.88
346.388	10.88
347.177	8.88
347.965	8.88
348.754	9.88
349.542	8.88
350.33	7.88
351.119	10.88
351.907	9.88
352.695	10.88
353.483	8.88
354.271	8.88
355.059	9.88
355.846	8.88
356.634	9.88
357.422	8.88
358.209	8.88
358.997	6.88
359.784	9.88
360.571	8.88
361.359	10.88
362.146	9.88
362.933	8.88
363.72	7.88
364.507	7.88
365.294	8.88
366.081	8.88
366.867	8.88
367.654	6.88
368.44	5.88
369.227	7.88
370.013	7.88
370.8	8.88
371.586	8.88
372.372	9.88
373.158	7.88
373.944	6.88
374.73	5.88
375.516	7.88
376.302	10.88
377.088	8.88
377.873	7.88
378.659	9.88
379.445	6.88
380.23	9.88
381.015	12.88
381.801	6.88
382.586	7.88
383.371	11.88
384.156	6.88
384.941	10.88
385.726	9.88
386.511	7.88
387.296	9.88
388.08	9.88
388.865	11.88
389.649	7.88
390.434	8.88
391.218	11.88
392.003	9.88
392.787	9.88
393.571	11.88
394.355	9.88
395.139	9.88
395.923	12.88
396.707	10.88
397.491	8.88
398.274	11.88
399.058	11.88
399.842	13.88
400.625	11.88
401.408	11.88
402.192	11.88
402.975	13.88
403.758	11.88
404.541	11.88
405.324	12.88
406.107	14.88
406.89	14.88
407.673	12.88
408.456	12.88
409.238	14.88
410.021	11.88
410.803	12.88
411.586	14.88
412.368	13.88
413.151	13.88
413.933	12.88
414.715	14.88
415.497	14.88
416.279	15.88
417.061	16.88
417.843	15.88
418.624	17.88
419.406	15.88
420.188	16.88
420.969	17.88
421.751	19.88
422.532	16.88
423.313	16.88
424.095	20.88
424.876	21.88
425.657	20.88
426.438	20.88
427.219	22.88
428	20.88
428.78	23.88
429.561	24.88
430.342	23.88
431.122	25.88
431.903	25.88
432.683	27.88
433.464	27.88
434.244	30.88
435.024	29.88
435.804	31.88
436.584	33.88
437.364	36.88
438.144	38.88
438.924	38.88
439.704	44.88
440.483	46.88
441.263	51.88
442.042	48.88
442.822	56.88
443.601	54.88
444.38	64.88
445.16	68.88
445.939	69.88
446.718	76.88
447.497	83.88
448.276	92.88
449.054	101.88
449.833	109.88
450.612	123.88
451.391	128.88
452.169	144.88
452.948	157.88
453.726	177.88
454.504	192.88
455.282	217.88
456.061	247.88
456.839	276.88
457.617	306.88
458.395	332.88
459.172	376.88
459.95	415.88
460.728	467.88
461.506	526.88
462.283	583.88
463.061	646.88
463.838	715.88
464.615	804.88
465.393	904.88
466.17	994.88
466.947	1113.88
467.724	1239.88
468.501	1367.88
469.278	1532.88
470.055	1688.88
470.831	1874.88
471.608	2073.88
472.385	2265.88
473.161	2523.88
473.938	2791.88
474.714	3056.88
475.49	3371.88
476.266	3722.88
477.043	4069.88
477.819	4465.88
478.595	4897.88
479.371	5346.88
480.146	5833.88
480.922	6432.88
481.698	6995.88
482.473	7640.88
483.249	8262.88
484.024	9025.88
484.8	9869.88
485.575	10756.88
486.35	11618.88
487.126	12634.88
487.901	13756.88
488.676	14868.88
489.451	16132.88
490.225	17429.88
491	18823.88
491.775	20157.88
492.55	21658.88
493.324	23162.88
494.099	24715.88
494.873	26361.88
495.647	28000.88
496.422	29687.88
497.196	31202.88
497.97	32769.88
498.744	34200.88
499.518	35514.88
500.292	36880.88
501.066	38095.88
501.839	39195.88
502.613	39977.88
503.387	40632.88
504.16	41181.88
504.934	41475.88
505.707	41438.88
506.48	41362.88
507.253	40978.88
508.027	40295.88
508.8	39581.88
509.573	38663.88
510.346	37706.88
511.118	36683.88
511.891	35591.88
512.664	34324.88
513.437	33061.88
514.209	31734.88
514.982	30570.88
515.754	29355.88
516.526	28160.88
517.298	26931.88
518.071	25851.88
518.843	24781.88
519.615	23792.88
520.387	22792.88
521.159	21964.88
521.93	21044.88
522.702	20154.88
523.474	19330.88
524.245	18591.88
525.017	17866.88
525.788	17024.88
526.56	16272.88
527.331	15548.88
528.102	14840.88
528.873	14116.88
529.644	13408.88
530.415	12725.88
531.186	12100.88
531.957	11494.88
532.728	10895.88
533.498	10341.88
534.269	9749.88
535.039	9220.88
535.81	8735.88
536.58	8296.88
537.351	7814.88
538.121	7420.88
538.891	6983.88
539.661	6657.88
540.431	6282.88
541.201	5927.88
541.971	5622.88
542.741	5340.88
543.51	5055.88
544.28	4799.88
545.05	4570.88
545.819	4360.88
546.588	4137.88
547.358	3944.88
548.127	3730.88
548.896	3550.88
549.665	3362.88
550.434	3211.88
551.203	3041.88
551.972	2866.88
552.741	2708.88
553.51	2557.88
554.278	2429.88
555.047	2277.88
555.815	2160.88
556.584	2060.88
557.352	1931.88
558.121	1832.88
558.889	1721.88
559.657	1622.88
560.425	1538.88
561.193	1444.88
561.961	1392.88
562.729	1303.88
563.496	1220.88
564.264	1164.88
565.032	1103.88
565.799	1038.88
566.567	984.88
567.334	930.88
568.101	886.88
568.869	826.88
569.636	787.88
570.403	742.88
571.17	708.88
571.937	666.88
572.704	624.88
573.471	595.88
574.237	561.88
575.004	520.88
575.771	492.88
576.537	463.88
577.303	440.88
578.07	415.88
578.836	388.88
579.602	356.88
580.368	347.88
581.134	333.88
581.9	313.88
582.666	306.88
583.432	279.88
584.198	272.88
584.964	252.88
585.729	237.88
586.495	233.88
587.26	219.88
588.025	205.88
588.791	192.88
589.556	192.88
590.321	172.88
591.086	164.88
591.851	157.88
592.616	152.88
593.381	148.88
594.146	138.88
594.911	128.88
595.675	120.88
596.44	120.88
597.204	114.88
597.969	113.88
598.733	105.88
599.497	103.88
600.261	101.88
601.025	93.88
601.79	89.88
602.553	85.88
603.317	80.88
604.081	76.88
604.845	73.88
605.609	71.88
606.372	71.88
607.136	64.88
607.899	63.88
608.662	58.88
609.426	57.88
610.189	54.88
610.952	53.88
611.715	53.88
612.478	52.88
613.241	48.88
614.004	49.88
614.767	45.88
615.529	41.88
616.292	42.88
617.055	37.88
617.817	39.88
618.579	38.88
619.342	38.88
620.104	34.88
620.866	38.88
621.628	35.88
622.39	31.88
623.152	30.88
623.914	28.88
624.676	29.88
625.438	28.88
626.199	28.88
626.961	26.88
627.722	25.88
628.484	24.88
629.245	22.88
630.006	25.88
630.768	25.88
631.529	22.88
632.29	22.88
633.051	19.88
633.812	18.88
634.573	22.88
635.333	18.88
636.094	17.88
636.855	17.88
637.615	19.88
638.376	16.88
639.136	18.88
639.896	16.88
640.657	16.88
641.417	15.88
642.177	14.88
642.937	15.88
643.697	14.88
644.457	17.88
645.216	15.88
645.976	14.88
646.736	14.88
647.495	13.88
648.255	10.88
649.014	11.88
649.774	12.88
650.533	12.88
651.292	12.88
652.051	11.88
652.81	10.88
653.569	11.88
654.328	10.88
655.087	10.88
655.846	9.88
656.604	10.88
657.363	10.88
658.121	12.88
658.88	10.88
659.638	8.88
660.397	10.88
661.155	7.88
661.913	10.88
662.671	10.88
663.429	8.88
664.187	10.88
664.945	7.88
665.703	7.88
666.46	9.88
667.218	7.88
667.976	8.88
668.733	8.88
669.49	8.88
670.248	7.88
671.005	10.88
671.762	5.88
672.519	10.88
673.276	7.88
674.033	5.88
674.79	6.88
675.547	7.88
676.304	8.88
677.06	6.88
677.817	8.88
678.574	7.88
679.33	6.88
680.086	9.88
680.843	8.88
681.599	8.88
682.355	4.88
683.111	8.88
683.867	6.88
684.623	9.88
685.379	5.88
686.135	7.88
686.89	6.88
687.646	6.88
688.402	6.88
689.157	7.88
689.912	6.88
690.668	6.88
691.423	7.88
692.178	4.88
692.933	5.88
693.688	5.88
694.443	5.88
695.198	7.88
695.953	5.88
696.708	5.88
697.462	7.88
698.217	4.88
698.972	7.88
699.726	6.88
700.48	4.88
701.235	9.88
701.989	5.88
702.743	9.88
703.497	4.88
704.251	4.88
705.005	5.88
705.759	6.88
706.513	6.88
707.266	6.88
708.02	7.88
708.774	5.88
709.527	4.88
710.28	9.88
711.034	5.88
711.787	8.88
712.54	6.88
713.293	5.88
714.046	4.88
714.799	5.88
715.552	4.88
716.305	7.88
717.058	8.88
717.81	10.88
718.563	8.88
719.315	5.88
720.068	6.88
720.82	6.88
721.573	6.88
722.325	5.88
723.077	8.88
723.829	7.88
724.581	5.88
725.333	8.88
726.085	7.88
726.836	7.88
727.588	6.88
728.34	7.88
729.091	6.88
729.843	5.88
730.594	7.88
731.346	6.88
732.097	8.88
732.848	6.88
733.599	4.88
734.35	7.88
735.101	6.88
735.852	7.88
736.603	4.88
737.354	9.88
738.104	6.88
738.855	8.88
739.605	8.88
740.356	8.88
741.106	10.88
741.856	6.88
742.607	7.88
743.357	8.88
744.107	8.88
744.857	7.88
745.607	6.88
746.357	9.88
747.106	7.88
747.856	9.88
748.606	7.88
749.355	8.88
750.105	8.88
750.854	10.88
751.603	8.88
752.353	9.88
753.102	9.88
753.851	11.88
754.6	10.88
755.349	12.88
756.098	8.88
756.847	9.88
757.595	9.88
758.344	10.88
759.093	9.88
759.841	10.88
760.589	11.88
761.338	10.88
762.086	8.88
762.834	10.88
763.582	11.88
764.331	9.88
765.079	9.88
765.826	12.88
766.574	11.88
767.322	12.88
768.07	9.88
768.817	10.88
769.565	12.88
770.312	14.88
771.06	11.88
771.807	11.88
772.554	12.88
773.302	12.88
774.049	13.88
774.796	13.88
775.543	12.88
776.29	12.88
777.036	12.88
777.783	14.88
778.53	12.88
779.276	12.88
780.023	14.88
780.769	17.88
781.516	12.88
782.262	11.88
783.008	11.88
783.754	11.88
784.5	14.88
785.246	10.88
785.992	12.88
786.738	14.88
787.484	13.88
788.23	11.88
788.975	12.88
789.721	12.88
790.466	12.88
791.212	12.88
791.957	12.88
792.702	11.88
793.447	11.88
794.193	13.88
794.938	13.88
795.683	11.88
796.427	11.88
797.172	11.88
797.917	10.88
798.662	13.88
799.406	10.88
800.151	10.88
800.895	9.88
801.64	13.88
802.384	10.88
803.128	10.88
803.872	12.88
804.616	9.88
805.36	7.88
806.104	8.88
806.848	8.88
807.592	8.88
808.336	9.88
809.079	8.88
809.823	9.88
810.566	8.88
811.31	7.88
812.053	10.88
812.796	6.88
813.539	6.88
814.283	7.88
815.026	6.88
815.769	8.88
816.511	8.88
817.254	8.88
817.997	5.88
818.74	8.88
819.482	8.88
820.225	6.88
820.967	7.88
821.71	4.88
822.452	6.88
823.194	7.88
823.936	4.88
824.678	5.88
825.42	6.88
826.162	7.88
826.904	6.88
827.646	6.88
828.388	3.88
829.129	5.88
829.871	6.88
830.612	8.88
831.354	5.88
832.095	4.88
832.836	8.88
833.577	5.88
834.319	6.88
835.06	5.88
835.801	2.88
836.542	7.88
837.282	5.88
838.023	5.88
838.764	3.88
839.504	6.88
840.245	5.88
840.985	1.88
841.726	4.88
842.466	4.88
843.206	5.88
843.946	4.88
844.687	6.88
845.427	4.88
846.166	5.88
846.906	6.88
847.646	4.88
848.386	5.88
849.125	6.88
849.865	2.88
850.605	3.88
851.344	4.88
852.083	6.88
852.823	1.88
853.562	5.88
854.301	3.88
855.04	4.88
855.779	0.88
856.518	4.88
857.257	5.88
857.995	4.88
858.734	5.88
859.473	2.88
860.211	1.88
860.95	0.88
861.688	4.88
862.426	1.88
863.165	2.88
863.903	1.88
864.641	3.88
865.379	4.88
866.117	2.88
866.855	2.88
867.593	4.88
868.33	3.88
869.068	2.88
869.806	1.88
870.543	2.88
871.28	2.88
872.018	1.88
872.755	2.88
873.492	0.88
874.229	3.88
874.967	0.88
875.703	2.88
876.44	2.88
877.177	0.88
877.914	1.88
878.651	2.88
879.387	2.88
880.124	-0.12
880.86	1.88
881.597	0.88
882.333	-0.12
883.069	2.88
883.806	3.88
884.542	2.88
885.278	0.88
886.014	1.88
886.749	2.88
887.485	1.88
888.221	2.88
888.957	0.88
889.692	2.88
890.428	0.88
891.163	1.88
891.899	-0.12
892.634	2.88
893.369	2.88
894.104	2.88
894.839	1.88
895.574	-0.12
896.309	2.88
897.044	2.88
897.779	1.88
898.514	1.88
899.248	-0.12
899.983	1.88
900.717	0.88
901.452	0.88
902.186	-3.12
902.92	1.88
903.654	0.88
904.389	1.88
905.123	1.88
905.857	0.88
906.59	1.88
907.324	0.88
908.058	1.88
908.792	0.88
909.525	1.88
910.259	1.88
910.992	0.88
911.726	0.88
912.459	0.88
913.192	1.88
913.925	0.88
914.658	1.88
915.391	1.88
916.124	0.88
916.857	-0.12
917.59	1.88
918.323	-0.12
919.055	0.88
919.788	1.88
920.521	1.88
921.253	2.88
921.985	2.88
922.718	0.88
923.45	0.88
924.182	1.88
924.914	-1.12
925.646	1.88
926.378	-0.12
927.11	0.88
927.841	-0.12
928.573	0.88
929.305	0.88
930.036	-0.12
930.768	-1.12
931.499	0.88
932.23	3.88
932.962	-2.12
933.693	0.88
934.424	1.88
935.155	0.88
935.886	-1.12
936.617	-0.12
937.348	1.88
938.078	-3.12
938.809	3.88
939.54	-1.12
940.27	-0.12
941.001	0.88
941.731	2.88
942.461	0.88
943.191	-1.12
943.922	2.88
944.652	0.88
945.382	1.88
946.112	-1.12
946.841	-0.12
947.571	3.88
948.301	-0.12
949.031	1.88
949.76	0.88
950.49	0.88
951.219	1.88
951.948	-0.12
952.678	1.88
953.407	0.88
954.136	0.88
954.865	0.88
955.594	2.88
956.323	-0.12
957.052	0.88
957.78	0.88
958.509	0.88
959.238	0.88
959.966	-1.12
960.695	0.88
961.423	0.88
962.151	-0.12
962.88	-0.12
963.608	-0.12
964.336	0.88
965.064	-1.12
965.792	1.88
966.52	0.88
967.247	2.88
967.975	2.88
968.703	0.88
969.43	-2.12
970.158	1.88
970.885	1.88
971.613	0.88
972.34	0.88
973.067	0.88
973.794	0.88
974.521	-0.12
975.248	0.88
975.975	-0.12
976.702	-1.12
977.429	0.88
978.156	0.88
978.882	-0.12
979.609	2.88
980.335	0.88
981.062	0.88
981.788	0.88
982.514	0.88
983.24	0.88
983.967	0.88
984.693	0.88
985.419	-0.12
986.144	0.88
986.87	0.88
987.596	0.88
988.322	-0.12
989.047	-0.12
989.773	0.88
990.498	1.88
991.224	0.88
991.949	-0.12
992.674	1.88
993.399	1.88
994.124	-0.12
994.849	0.88
995.574	-0.12
996.299	-0.12
997.024	0.88
997.749	0.88
998.473	0.88
999.198	-2.12
999.922	1.88
1000.647	-1.12
1001.371	3.88
1002.095	-1.12
1002.82	-1.12
1003.544	-2.12
1004.268	6.88
1004.992	4.88
1005.716	3.88
1006.439	6.88
1007.163	2.88
1007.887	4.88
1008.611	-0.12
1009.334	0.88
1010.058	1.88
1010.781	0.88
1011.504	0.88
1012.228	1.88
1012.951	-0.12
1013.674	0.88
1014.397	-1.12
1015.12	0.88
