节点500_565_QEPB04081__161__09-53-05-950.txt的数据

Date: Thu Nov 13 09:53:05 CST 2025
User: PC
Spectrometer: QEPB0408
触发模式: 0
积分时间 (秒): 1.000000E-2
Scans to average: 1
启用暗噪声校正: true
启用非线性校正: false
滑动平均宽度: 0
X轴模式: Wavelengths
Number of Pixels in Spectrum: 1044
>>>>>Begin Spectral Data<<<<<
220.843	2.88
221.644	4.88
222.444	3.88
223.244	3.88
224.045	6.88
224.845	4.88
225.645	4.88
226.445	3.88
227.245	4.88
228.045	6.88
228.845	5.88
229.645	5.88
230.444	7.88
231.244	7.88
232.043	7.88
232.843	7.88
233.642	5.88
234.442	7.88
235.241	7.88
236.04	10.88
236.839	7.88
237.638	8.88
238.437	9.88
239.236	11.88
240.035	10.88
240.833	9.88
241.632	9.88
242.43	12.88
243.229	8.88
244.027	10.88
244.826	9.88
245.624	10.88
246.422	13.88
247.22	14.88
248.018	13.88
248.816	12.88
249.614	13.88
250.412	13.88
251.21	13.88
252.007	14.88
252.805	15.88
253.602	16.88
254.4	13.88
255.197	14.88
255.994	15.88
256.791	17.88
257.589	15.88
258.386	18.88
259.183	15.88
259.979	17.88
260.776	18.88
261.573	20.88
262.37	20.88
263.166	18.88
263.963	19.88
264.759	23.88
265.556	19.88
266.352	22.88
267.148	23.88
267.944	25.88
268.74	23.88
269.536	25.88
270.332	27.88
271.128	29.88
271.924	28.88
272.719	24.88
273.515	29.88
274.311	29.88
275.106	31.88
275.901	28.88
276.697	31.88
277.492	32.88
278.287	30.88
279.082	31.88
279.877	30.88
280.672	31.88
281.467	31.88
282.262	30.88
283.056	29.88
283.851	30.88
284.646	29.88
285.44	27.88
286.234	28.88
287.029	29.88
287.823	27.88
288.617	30.88
289.411	24.88
290.205	25.88
290.999	27.88
291.793	26.88
292.587	26.88
293.381	25.88
294.174	26.88
294.968	23.88
295.761	23.88
296.555	26.88
297.348	23.88
298.141	22.88
298.935	23.88
299.728	22.88
300.521	21.88
301.314	22.88
302.107	17.88
302.899	20.88
303.692	21.88
304.485	19.88
305.277	16.88
306.07	22.88
306.862	18.88
307.655	17.88
308.447	17.88
309.239	17.88
310.031	18.88
310.823	14.88
311.615	15.88
312.407	16.88
313.199	13.88
313.991	14.88
314.783	12.88
315.574	14.88
316.366	14.88
317.157	13.88
317.949	12.88
318.74	13.88
319.531	11.88
320.322	12.88
321.113	13.88
321.904	12.88
322.695	9.88
323.486	12.88
324.277	9.88
325.068	9.88
325.858	10.88
326.649	11.88
327.439	11.88
328.23	9.88
329.02	9.88
329.81	11.88
330.6	11.88
331.391	11.88
332.181	8.88
332.971	8.88
333.76	11.88
334.55	9.88
335.34	10.88
336.13	9.88
336.919	10.88
337.709	11.88
338.498	11.88
339.287	9.88
340.077	10.88
340.866	8.88
341.655	8.88
342.444	11.88
343.233	10.88
344.022	11.88
344.811	8.88
345.6	9.88
346.388	10.88
347.177	9.88
347.965	9.88
348.754	8.88
349.542	10.88
350.33	7.88
351.119	10.88
351.907	9.88
352.695	7.88
353.483	8.88
354.271	9.88
355.059	8.88
355.846	11.88
356.634	10.88
357.422	8.88
358.209	7.88
358.997	8.88
359.784	8.88
360.571	9.88
361.359	8.88
362.146	6.88
362.933	9.88
363.72	10.88
364.507	9.88
365.294	9.88
366.081	6.88
366.867	9.88
367.654	8.88
368.44	9.88
369.227	9.88
370.013	8.88
370.8	7.88
371.586	8.88
372.372	6.88
373.158	7.88
373.944	10.88
374.73	6.88
375.516	10.88
376.302	9.88
377.088	10.88
377.873	8.88
378.659	9.88
379.445	7.88
380.23	9.88
381.015	8.88
381.801	9.88
382.586	8.88
383.371	10.88
384.156	8.88
384.941	9.88
385.726	8.88
386.511	10.88
387.296	7.88
388.08	7.88
388.865	9.88
389.649	11.88
390.434	11.88
391.218	12.88
392.003	9.88
392.787	8.88
393.571	11.88
394.355	12.88
395.139	12.88
395.923	10.88
396.707	12.88
397.491	12.88
398.274	10.88
399.058	11.88
399.842	11.88
400.625	12.88
401.408	11.88
402.192	12.88
402.975	13.88
403.758	12.88
404.541	12.88
405.324	13.88
406.107	13.88
406.89	13.88
407.673	11.88
408.456	13.88
409.238	12.88
410.021	13.88
410.803	14.88
411.586	14.88
412.368	14.88
413.151	15.88
413.933	16.88
414.715	12.88
415.497	17.88
416.279	13.88
417.061	19.88
417.843	14.88
418.624	17.88
419.406	17.88
420.188	18.88
420.969	17.88
421.751	17.88
422.532	17.88
423.313	20.88
424.095	20.88
424.876	21.88
425.657	20.88
426.438	22.88
427.219	21.88
428	22.88
428.78	22.88
429.561	26.88
430.342	26.88
431.122	24.88
431.903	27.88
432.683	28.88
433.464	28.88
434.244	28.88
435.024	32.88
435.804	35.88
436.584	33.88
437.364	34.88
438.144	38.88
438.924	40.88
439.704	40.88
440.483	45.88
441.263	45.88
442.042	51.88
442.822	55.88
443.601	57.88
444.38	60.88
445.16	62.88
445.939	72.88
446.718	69.88
447.497	79.88
448.276	93.88
449.054	94.88
449.833	105.88
450.612	118.88
451.391	129.88
452.169	141.88
452.948	151.88
453.726	167.88
454.504	184.88
455.282	205.88
456.061	228.88
456.839	256.88
457.617	289.88
458.395	324.88
459.172	351.88
459.95	398.88
460.728	436.88
461.506	497.88
462.283	556.88
463.061	623.88
463.838	706.88
464.615	777.88
465.393	855.88
466.17	966.88
466.947	1071.88
467.724	1201.88
468.501	1336.88
469.278	1489.88
470.055	1655.88
470.831	1850.88
471.608	2036.88
472.385	2266.88
473.161	2524.88
473.938	2784.88
474.714	3053.88
475.49	3359.88
476.266	3709.88
477.043	4095.88
477.819	4529.88
478.595	4960.88
479.371	5471.88
480.146	5979.88
480.922	6574.88
481.698	7202.88
482.473	7865.88
483.249	8623.88
484.024	9381.88
484.8	10304.88
485.575	11240.88
486.35	12227.88
487.126	13286.88
487.901	14492.88
488.676	15734.88
489.451	17150.88
490.225	18546.88
491	19963.88
491.775	21579.88
492.55	23089.88
493.324	24740.88
494.099	26451.88
494.873	28107.88
495.647	29999.88
496.422	31671.88
497.196	33395.88
497.97	34976.88
498.744	36445.88
499.518	37916.88
500.292	39176.88
501.066	40290.88
501.839	41314.88
502.613	42084.88
503.387	42724.88
504.16	43023.88
504.934	43187.88
505.707	43009.88
506.48	42630.88
507.253	42120.88
508.027	41276.88
508.8	40422.88
509.573	39287.88
510.346	38148.88
511.118	36903.88
511.891	35744.88
512.664	34337.88
513.437	33036.88
514.209	31642.88
514.982	30364.88
515.754	29113.88
516.526	27877.88
517.298	26589.88
518.071	25499.88
518.843	24544.88
519.615	23448.88
520.387	22577.88
521.159	21724.88
521.93	20766.88
522.702	19924.88
523.474	19149.88
524.245	18332.88
525.017	17618.88
525.788	16810.88
526.56	15991.88
527.331	15251.88
528.102	14582.88
528.873	13798.88
529.644	13071.88
530.415	12416.88
531.186	11746.88
531.957	11204.88
532.728	10628.88
533.498	10040.88
534.269	9463.88
535.039	8927.88
535.81	8445.88
536.58	8008.88
537.351	7554.88
538.121	7133.88
538.891	6732.88
539.661	6383.88
540.431	6081.88
541.201	5741.88
541.971	5441.88
542.741	5147.88
543.51	4874.88
544.28	4632.88
545.05	4435.88
545.819	4208.88
546.588	3992.88
547.358	3786.88
548.127	3585.88
548.896	3417.88
549.665	3262.88
550.434	3087.88
551.203	2919.88
551.972	2778.88
552.741	2620.88
553.51	2463.88
554.278	2313.88
555.047	2198.88
555.815	2076.88
556.584	1964.88
557.352	1876.88
558.121	1746.88
558.889	1652.88
559.657	1543.88
560.425	1474.88
561.193	1377.88
561.961	1320.88
562.729	1244.88
563.496	1179.88
564.264	1119.88
565.032	1060.88
565.799	1004.88
566.567	940.88
567.334	906.88
568.101	833.88
568.869	789.88
569.636	756.88
570.403	712.88
571.17	673.88
571.937	635.88
572.704	602.88
573.471	556.88
574.237	533.88
575.004	492.88
575.771	473.88
576.537	445.88
577.303	416.88
578.07	393.88
578.836	375.88
579.602	354.88
580.368	335.88
581.134	317.88
581.9	299.88
582.666	288.88
583.432	275.88
584.198	261.88
584.964	254.88
585.729	231.88
586.495	218.88
587.26	206.88
588.025	198.88
588.791	185.88
589.556	178.88
590.321	167.88
591.086	161.88
591.851	153.88
592.616	146.88
593.381	140.88
594.146	129.88
594.911	126.88
595.675	121.88
596.44	114.88
597.204	107.88
597.969	107.88
598.733	103.88
599.497	101.88
600.261	94.88
601.025	88.88
601.79	86.88
602.553	84.88
603.317	77.88
604.081	74.88
604.845	70.88
605.609	64.88
606.372	65.88
607.136	64.88
607.899	59.88
608.662	60.88
609.426	54.88
610.189	56.88
610.952	51.88
611.715	49.88
612.478	51.88
613.241	47.88
614.004	49.88
614.767	45.88
615.529	46.88
616.292	37.88
617.055	38.88
617.817	39.88
618.579	36.88
619.342	38.88
620.104	35.88
620.866	32.88
621.628	33.88
622.39	32.88
623.152	27.88
623.914	29.88
624.676	26.88
625.438	27.88
626.199	27.88
626.961	26.88
627.722	24.88
628.484	22.88
629.245	25.88
630.006	23.88
630.768	23.88
631.529	20.88
632.29	22.88
633.051	21.88
633.812	18.88
634.573	18.88
635.333	19.88
636.094	17.88
636.855	18.88
637.615	19.88
638.376	19.88
639.136	16.88
639.896	16.88
640.657	19.88
641.417	14.88
642.177	13.88
642.937	14.88
643.697	15.88
644.457	12.88
645.216	11.88
645.976	12.88
646.736	9.88
647.495	13.88
648.255	13.88
649.014	13.88
649.774	12.88
650.533	8.88
651.292	12.88
652.051	11.88
652.81	13.88
653.569	10.88
654.328	10.88
655.087	11.88
655.846	10.88
656.604	11.88
657.363	7.88
658.121	12.88
658.88	9.88
659.638	10.88
660.397	9.88
661.155	9.88
661.913	11.88
662.671	8.88
663.429	10.88
664.187	9.88
664.945	7.88
665.703	7.88
666.46	7.88
667.218	8.88
667.976	8.88
668.733	6.88
669.49	10.88
670.248	9.88
671.005	8.88
671.762	8.88
672.519	10.88
673.276	7.88
674.033	8.88
674.79	7.88
675.547	7.88
676.304	6.88
677.06	8.88
677.817	6.88
678.574	6.88
679.33	9.88
680.086	7.88
680.843	6.88
681.599	7.88
682.355	7.88
683.111	8.88
683.867	4.88
684.623	5.88
685.379	6.88
686.135	7.88
686.89	6.88
687.646	4.88
688.402	8.88
689.157	8.88
689.912	7.88
690.668	6.88
691.423	7.88
692.178	4.88
692.933	5.88
693.688	6.88
694.443	5.88
695.198	6.88
695.953	5.88
696.708	5.88
697.462	6.88
698.217	5.88
698.972	6.88
699.726	5.88
700.48	7.88
701.235	4.88
701.989	6.88
702.743	6.88
703.497	4.88
704.251	6.88
705.005	5.88
705.759	7.88
706.513	6.88
707.266	4.88
708.02	7.88
708.774	4.88
709.527	7.88
710.28	4.88
711.034	6.88
711.787	4.88
712.54	6.88
713.293	7.88
714.046	3.88
714.799	5.88
715.552	4.88
716.305	6.88
717.058	4.88
717.81	7.88
718.563	6.88
719.315	7.88
720.068	5.88
720.82	8.88
721.573	4.88
722.325	5.88
723.077	5.88
723.829	5.88
724.581	6.88
725.333	4.88
726.085	5.88
726.836	5.88
727.588	8.88
728.34	6.88
729.091	6.88
729.843	7.88
730.594	9.88
731.346	8.88
732.097	8.88
732.848	6.88
733.599	7.88
734.35	6.88
735.101	8.88
735.852	8.88
736.603	8.88
737.354	7.88
738.104	8.88
738.855	9.88
739.605	7.88
740.356	8.88
741.106	9.88
741.856	7.88
742.607	9.88
743.357	8.88
744.107	9.88
744.857	9.88
745.607	8.88
746.357	10.88
747.106	10.88
747.856	12.88
748.606	8.88
749.355	10.88
750.105	8.88
750.854	8.88
751.603	10.88
752.353	10.88
753.102	10.88
753.851	9.88
754.6	9.88
755.349	9.88
756.098	11.88
756.847	12.88
757.595	9.88
758.344	9.88
759.093	8.88
759.841	11.88
760.589	9.88
761.338	11.88
762.086	12.88
762.834	9.88
763.582	12.88
764.331	10.88
765.079	12.88
765.826	12.88
766.574	12.88
767.322	13.88
768.07	11.88
768.817	11.88
769.565	10.88
770.312	13.88
771.06	13.88
771.807	13.88
772.554	14.88
773.302	16.88
774.049	14.88
774.796	13.88
775.543	15.88
776.29	13.88
777.036	16.88
777.783	14.88
778.53	14.88
779.276	14.88
780.023	11.88
780.769	14.88
781.516	15.88
782.262	13.88
783.008	13.88
783.754	11.88
784.5	13.88
785.246	13.88
785.992	13.88
786.738	15.88
787.484	14.88
788.23	15.88
788.975	15.88
789.721	11.88
790.466	12.88
791.212	12.88
791.957	14.88
792.702	10.88
793.447	13.88
794.193	11.88
794.938	12.88
795.683	11.88
796.427	13.88
797.172	11.88
797.917	11.88
798.662	11.88
799.406	12.88
800.151	10.88
800.895	9.88
801.64	8.88
802.384	10.88
803.128	12.88
803.872	8.88
804.616	11.88
805.36	12.88
806.104	8.88
806.848	9.88
807.592	5.88
808.336	10.88
809.079	6.88
809.823	8.88
810.566	9.88
811.31	8.88
812.053	8.88
812.796	6.88
813.539	7.88
814.283	8.88
815.026	7.88
815.769	9.88
816.511	8.88
817.254	9.88
817.997	4.88
818.74	5.88
819.482	7.88
820.225	8.88
820.967	5.88
821.71	4.88
822.452	7.88
823.194	4.88
823.936	9.88
824.678	2.88
825.42	8.88
826.162	5.88
826.904	5.88
827.646	6.88
828.388	7.88
829.129	4.88
829.871	5.88
830.612	3.88
831.354	4.88
832.095	5.88
832.836	5.88
833.577	6.88
834.319	5.88
835.06	6.88
835.801	6.88
836.542	6.88
837.282	5.88
838.023	5.88
838.764	3.88
839.504	5.88
840.245	5.88
840.985	5.88
841.726	6.88
842.466	5.88
843.206	3.88
843.946	4.88
844.687	4.88
845.427	3.88
846.166	4.88
846.906	3.88
847.646	4.88
848.386	4.88
849.125	4.88
849.865	3.88
850.605	3.88
851.344	4.88
852.083	4.88
852.823	4.88
853.562	2.88
854.301	1.88
855.04	5.88
855.779	3.88
856.518	2.88
857.257	3.88
857.995	4.88
858.734	3.88
859.473	2.88
860.211	3.88
860.95	3.88
861.688	2.88
862.426	5.88
863.165	0.88
863.903	0.88
864.641	1.88
865.379	2.88
866.117	1.88
866.855	2.88
867.593	0.88
868.33	1.88
869.068	2.88
869.806	2.88
870.543	5.88
871.28	0.88
872.018	1.88
872.755	1.88
873.492	0.88
874.229	3.88
874.967	2.88
875.703	2.88
876.44	0.88
877.177	4.88
877.914	0.88
878.651	1.88
879.387	1.88
880.124	0.88
880.86	4.88
881.597	2.88
882.333	1.88
883.069	0.88
883.806	2.88
884.542	3.88
885.278	-1.12
886.014	0.88
886.749	0.88
887.485	1.88
888.221	1.88
888.957	1.88
889.692	1.88
890.428	1.88
891.163	0.88
891.899	0.88
892.634	0.88
893.369	1.88
894.104	1.88
894.839	2.88
895.574	-0.12
896.309	1.88
897.044	1.88
897.779	3.88
898.514	1.88
899.248	0.88
899.983	0.88
900.717	1.88
901.452	2.88
902.186	1.88
902.92	-1.12
903.654	2.88
904.389	1.88
905.123	2.88
905.857	0.88
906.59	1.88
907.324	0.88
908.058	1.88
908.792	0.88
909.525	0.88
910.259	2.88
910.992	-0.12
911.726	2.88
912.459	1.88
913.192	1.88
913.925	0.88
914.658	2.88
915.391	1.88
916.124	-0.12
916.857	0.88
917.59	0.88
918.323	0.88
919.055	2.88
919.788	-0.12
920.521	-1.12
921.253	-0.12
921.985	0.88
922.718	0.88
923.45	-0.12
924.182	1.88
924.914	1.88
925.646	0.88
926.378	1.88
927.11	1.88
927.841	0.88
928.573	1.88
929.305	0.88
930.036	-0.12
930.768	0.88
931.499	-0.12
932.23	0.88
932.962	0.88
933.693	-0.12
934.424	3.88
935.155	0.88
935.886	0.88
936.617	0.88
937.348	1.88
938.078	-1.12
938.809	0.88
939.54	0.88
940.27	-1.12
941.001	2.88
941.731	-1.12
942.461	-0.12
943.191	0.88
943.922	0.88
944.652	-1.12
945.382	0.88
946.112	0.88
946.841	1.88
947.571	1.88
948.301	-1.12
949.031	2.88
949.76	0.88
950.49	2.88
951.219	1.88
951.948	-0.12
952.678	-0.12
953.407	-1.12
954.136	2.88
954.865	0.88
955.594	-1.12
956.323	0.88
957.052	1.88
957.78	0.88
958.509	1.88
959.238	1.88
959.966	-1.12
960.695	0.88
961.423	-0.12
962.151	0.88
962.88	0.88
963.608	0.88
964.336	2.88
965.064	-2.12
965.792	2.88
966.52	0.88
967.247	1.88
967.975	-0.12
968.703	0.88
969.43	1.88
970.158	1.88
970.885	-0.12
971.613	0.88
972.34	-1.12
973.067	-0.12
973.794	1.88
974.521	-0.12
975.248	-1.12
975.975	0.88
976.702	-1.12
977.429	0.88
978.156	0.88
978.882	-0.12
979.609	0.88
980.335	3.88
981.062	0.88
981.788	0.88
982.514	0.88
983.24	0.88
983.967	1.88
984.693	0.88
985.419	0.88
986.144	-2.12
986.87	0.88
987.596	1.88
988.322	1.88
989.047	-2.12
989.773	0.88
990.498	-0.12
991.224	0.88
991.949	-0.12
992.674	-2.12
993.399	0.88
994.124	0.88
994.849	-0.12
995.574	1.88
996.299	-1.12
997.024	0.88
997.749	1.88
998.473	2.88
999.198	-0.12
999.922	0.88
1000.647	-0.12
1001.371	0.88
1002.095	-2.12
1002.82	-0.12
1003.544	-1.12
1004.268	2.88
1004.992	1.88
1005.716	2.88
1006.439	6.88
1007.163	2.88
1007.887	4.88
1008.611	-2.12
1009.334	1.88
1010.058	2.88
1010.781	0.88
1011.504	0.88
1012.228	1.88
1012.951	-1.12
1013.674	1.88
1014.397	0.88
1015.12	0.88
