节点500_565_QEPB04081__543__09-59-27-099.txt的数据

Date: Thu Nov 13 09:59:27 CST 2025
User: PC
Spectrometer: QEPB0408
触发模式: 0
积分时间 (秒): 1.000000E-2
Scans to average: 1
启用暗噪声校正: true
启用非线性校正: false
滑动平均宽度: 0
X轴模式: Wavelengths
Number of Pixels in Spectrum: 1044
>>>>>Begin Spectral Data<<<<<
220.843	6.12
221.644	3.12
222.444	2.12
223.244	6.12
224.045	5.12
224.845	5.12
225.645	5.12
226.445	3.12
227.245	5.12
228.045	5.12
228.845	4.12
229.645	6.12
230.444	6.12
231.244	7.12
232.043	6.12
232.843	8.12
233.642	8.12
234.442	10.12
235.241	6.12
236.04	7.12
236.839	8.12
237.638	8.12
238.437	10.12
239.236	8.12
240.035	6.12
240.833	7.12
241.632	9.12
242.43	9.12
243.229	8.12
244.027	8.12
244.826	10.12
245.624	8.12
246.422	12.12
247.22	12.12
248.018	10.12
248.816	11.12
249.614	13.12
250.412	10.12
251.21	12.12
252.007	11.12
252.805	11.12
253.602	12.12
254.4	16.12
255.197	13.12
255.994	14.12
256.791	17.12
257.589	14.12
258.386	15.12
259.183	18.12
259.979	18.12
260.776	15.12
261.573	17.12
262.37	18.12
263.166	17.12
263.963	16.12
264.759	19.12
265.556	22.12
266.352	21.12
267.148	18.12
267.944	20.12
268.74	19.12
269.536	21.12
270.332	25.12
271.128	24.12
271.924	22.12
272.719	23.12
273.515	25.12
274.311	23.12
275.106	25.12
275.901	23.12
276.697	23.12
277.492	23.12
278.287	27.12
279.082	28.12
279.877	25.12
280.672	27.12
281.467	27.12
282.262	26.12
283.056	25.12
283.851	27.12
284.646	27.12
285.44	27.12
286.234	26.12
287.029	27.12
287.823	30.12
288.617	25.12
289.411	29.12
290.205	25.12
290.999	23.12
291.793	25.12
292.587	25.12
293.381	28.12
294.174	23.12
294.968	25.12
295.761	21.12
296.555	24.12
297.348	24.12
298.141	21.12
298.935	24.12
299.728	22.12
300.521	21.12
301.314	23.12
302.107	23.12
302.899	18.12
303.692	17.12
304.485	16.12
305.277	19.12
306.07	20.12
306.862	19.12
307.655	18.12
308.447	20.12
309.239	17.12
310.031	17.12
310.823	17.12
311.615	17.12
312.407	16.12
313.199	12.12
313.991	16.12
314.783	14.12
315.574	14.12
316.366	13.12
317.157	15.12
317.949	12.12
318.74	14.12
319.531	14.12
320.322	13.12
321.113	13.12
321.904	12.12
322.695	10.12
323.486	12.12
324.277	12.12
325.068	12.12
325.858	12.12
326.649	11.12
327.439	9.12
328.23	10.12
329.02	13.12
329.81	7.12
330.6	9.12
331.391	13.12
332.181	11.12
332.971	8.12
333.76	10.12
334.55	11.12
335.34	13.12
336.13	11.12
336.919	10.12
337.709	10.12
338.498	12.12
339.287	12.12
340.077	11.12
340.866	10.12
341.655	10.12
342.444	12.12
343.233	7.12
344.022	9.12
344.811	8.12
345.6	8.12
346.388	12.12
347.177	8.12
347.965	10.12
348.754	10.12
349.542	6.12
350.33	11.12
351.119	10.12
351.907	9.12
352.695	9.12
353.483	7.12
354.271	11.12
355.059	8.12
355.846	11.12
356.634	7.12
357.422	10.12
358.209	7.12
358.997	9.12
359.784	8.12
360.571	9.12
361.359	9.12
362.146	7.12
362.933	8.12
363.72	6.12
364.507	8.12
365.294	7.12
366.081	8.12
366.867	7.12
367.654	7.12
368.44	6.12
369.227	8.12
370.013	9.12
370.8	5.12
371.586	9.12
372.372	8.12
373.158	9.12
373.944	7.12
374.73	7.12
375.516	6.12
376.302	7.12
377.088	10.12
377.873	7.12
378.659	9.12
379.445	6.12
380.23	7.12
381.015	10.12
381.801	8.12
382.586	11.12
383.371	9.12
384.156	7.12
384.941	8.12
385.726	8.12
386.511	12.12
387.296	6.12
388.08	9.12
388.865	10.12
389.649	11.12
390.434	9.12
391.218	8.12
392.003	7.12
392.787	10.12
393.571	8.12
394.355	9.12
395.139	6.12
395.923	10.12
396.707	10.12
397.491	10.12
398.274	10.12
399.058	11.12
399.842	8.12
400.625	10.12
401.408	11.12
402.192	12.12
402.975	13.12
403.758	11.12
404.541	9.12
405.324	12.12
406.107	13.12
406.89	10.12
407.673	11.12
408.456	13.12
409.238	11.12
410.021	13.12
410.803	13.12
411.586	14.12
412.368	14.12
413.151	13.12
413.933	14.12
414.715	13.12
415.497	15.12
416.279	13.12
417.061	17.12
417.843	15.12
418.624	18.12
419.406	17.12
420.188	13.12
420.969	17.12
421.751	14.12
422.532	18.12
423.313	19.12
424.095	18.12
424.876	20.12
425.657	18.12
426.438	19.12
427.219	20.12
428	21.12
428.78	21.12
429.561	22.12
430.342	24.12
431.122	26.12
431.903	25.12
432.683	26.12
433.464	28.12
434.244	29.12
435.024	32.12
435.804	35.12
436.584	37.12
437.364	35.12
438.144	39.12
438.924	41.12
439.704	44.12
440.483	47.12
441.263	49.12
442.042	50.12
442.822	59.12
443.601	59.12
444.38	64.12
445.16	73.12
445.939	75.12
446.718	83.12
447.497	88.12
448.276	102.12
449.054	108.12
449.833	119.12
450.612	131.12
451.391	146.12
452.169	158.12
452.948	170.12
453.726	190.12
454.504	207.12
455.282	237.12
456.061	262.12
456.839	292.12
457.617	321.12
458.395	357.12
459.172	403.12
459.95	447.12
460.728	499.12
461.506	551.12
462.283	617.12
463.061	685.12
463.838	755.12
464.615	846.12
465.393	939.12
466.17	1035.12
466.947	1142.12
467.724	1273.12
468.501	1418.12
469.278	1559.12
470.055	1717.12
470.831	1882.12
471.608	2082.12
472.385	2274.12
473.161	2517.12
473.938	2777.12
474.714	3023.12
475.49	3290.12
476.266	3595.12
477.043	3962.12
477.819	4345.12
478.595	4673.12
479.371	5153.12
480.146	5597.12
480.922	6094.12
481.698	6586.12
482.473	7135.12
483.249	7723.12
484.024	8377.12
484.8	9115.12
485.575	9877.12
486.35	10623.12
487.126	11506.12
487.901	12446.12
488.676	13422.12
489.451	14464.12
490.225	15557.12
491	16693.12
491.775	17916.12
492.55	19175.12
493.324	20495.12
494.099	21869.12
494.873	23220.12
495.647	24691.12
496.422	26142.12
497.196	27489.12
497.97	28916.12
498.744	30340.12
499.518	31561.12
500.292	32937.12
501.066	34095.12
501.839	35139.12
502.613	36124.12
503.387	36893.12
504.16	37566.12
504.934	38043.12
505.707	38350.12
506.48	38478.12
507.253	38390.12
508.027	38034.12
508.8	37666.12
509.573	37112.12
510.346	36422.12
511.118	35493.12
511.891	34797.12
512.664	33828.12
513.437	32729.12
514.209	31550.12
514.982	30507.12
515.754	29427.12
516.526	28308.12
517.298	27080.12
518.071	26034.12
518.843	25126.12
519.615	23989.12
520.387	23111.12
521.159	22188.12
521.93	21337.12
522.702	20475.12
523.474	19651.12
524.245	18824.12
525.017	18098.12
525.788	17296.12
526.56	16564.12
527.331	15907.12
528.102	15167.12
528.873	14498.12
529.644	13822.12
530.415	13153.12
531.186	12535.12
531.957	11923.12
532.728	11373.12
533.498	10807.12
534.269	10174.12
535.039	9640.12
535.81	9170.12
536.58	8699.12
537.351	8232.12
538.121	7748.12
538.891	7362.12
539.661	6970.12
540.431	6606.12
541.201	6255.12
541.971	5937.12
542.741	5613.12
543.51	5310.12
544.28	5046.12
545.05	4812.12
545.819	4572.12
546.588	4359.12
547.358	4099.12
548.127	3943.12
548.896	3762.12
549.665	3540.12
550.434	3370.12
551.203	3201.12
551.972	3038.12
552.741	2900.12
553.51	2737.12
554.278	2574.12
555.047	2434.12
555.815	2310.12
556.584	2193.12
557.352	2080.12
558.121	1948.12
558.889	1823.12
559.657	1722.12
560.425	1648.12
561.193	1549.12
561.961	1483.12
562.729	1387.12
563.496	1328.12
564.264	1250.12
565.032	1190.12
565.799	1123.12
566.567	1056.12
567.334	996.12
568.101	937.12
568.869	886.12
569.636	840.12
570.403	805.12
571.17	751.12
571.937	703.12
572.704	665.12
573.471	629.12
574.237	591.12
575.004	565.12
575.771	530.12
576.537	502.12
577.303	476.12
578.07	445.12
578.836	423.12
579.602	398.12
580.368	380.12
581.134	356.12
581.9	336.12
582.666	319.12
583.432	302.12
584.198	286.12
584.964	272.12
585.729	263.12
586.495	244.12
587.26	235.12
588.025	225.12
588.791	214.12
589.556	201.12
590.321	190.12
591.086	179.12
591.851	173.12
592.616	156.12
593.381	153.12
594.146	146.12
594.911	141.12
595.675	138.12
596.44	130.12
597.204	121.12
597.969	119.12
598.733	114.12
599.497	106.12
600.261	108.12
601.025	102.12
601.79	90.12
602.553	95.12
603.317	89.12
604.081	84.12
604.845	78.12
605.609	76.12
606.372	73.12
607.136	68.12
607.899	65.12
608.662	64.12
609.426	61.12
610.189	62.12
610.952	56.12
611.715	58.12
612.478	54.12
613.241	50.12
614.004	48.12
614.767	50.12
615.529	47.12
616.292	44.12
617.055	44.12
617.817	42.12
618.579	39.12
619.342	36.12
620.104	41.12
620.866	37.12
621.628	35.12
622.39	35.12
623.152	30.12
623.914	33.12
624.676	33.12
625.438	30.12
626.199	30.12
626.961	28.12
627.722	25.12
628.484	27.12
629.245	27.12
630.006	23.12
630.768	23.12
631.529	21.12
632.29	20.12
633.051	21.12
633.812	22.12
634.573	21.12
635.333	19.12
636.094	21.12
636.855	18.12
637.615	20.12
638.376	19.12
639.136	18.12
639.896	18.12
640.657	13.12
641.417	19.12
642.177	16.12
642.937	16.12
643.697	17.12
644.457	14.12
645.216	13.12
645.976	11.12
646.736	11.12
647.495	13.12
648.255	17.12
649.014	14.12
649.774	10.12
650.533	12.12
651.292	10.12
652.051	10.12
652.81	12.12
653.569	13.12
654.328	11.12
655.087	10.12
655.846	12.12
656.604	11.12
657.363	11.12
658.121	10.12
658.88	9.12
659.638	11.12
660.397	12.12
661.155	10.12
661.913	9.12
662.671	8.12
663.429	7.12
664.187	8.12
664.945	9.12
665.703	10.12
666.46	10.12
667.218	8.12
667.976	8.12
668.733	9.12
669.49	10.12
670.248	9.12
671.005	9.12
671.762	9.12
672.519	8.12
673.276	8.12
674.033	5.12
674.79	6.12
675.547	5.12
676.304	6.12
677.06	7.12
677.817	8.12
678.574	6.12
679.33	7.12
680.086	6.12
680.843	7.12
681.599	7.12
682.355	6.12
683.111	7.12
683.867	7.12
684.623	7.12
685.379	7.12
686.135	4.12
686.89	8.12
687.646	8.12
688.402	5.12
689.157	5.12
689.912	9.12
690.668	7.12
691.423	5.12
692.178	6.12
692.933	6.12
693.688	6.12
694.443	9.12
695.198	5.12
695.953	9.12
696.708	6.12
697.462	7.12
698.217	7.12
698.972	8.12
699.726	6.12
700.48	3.12
701.235	7.12
701.989	5.12
702.743	6.12
703.497	5.12
704.251	8.12
705.005	6.12
705.759	5.12
706.513	10.12
707.266	7.12
708.02	5.12
708.774	7.12
709.527	5.12
710.28	6.12
711.034	4.12
711.787	6.12
712.54	6.12
713.293	7.12
714.046	6.12
714.799	6.12
715.552	5.12
716.305	7.12
717.058	5.12
717.81	5.12
718.563	8.12
719.315	6.12
720.068	6.12
720.82	7.12
721.573	3.12
722.325	5.12
723.077	5.12
723.829	8.12
724.581	8.12
725.333	6.12
726.085	7.12
726.836	9.12
727.588	7.12
728.34	6.12
729.091	5.12
729.843	5.12
730.594	8.12
731.346	6.12
732.097	8.12
732.848	7.12
733.599	6.12
734.35	8.12
735.101	6.12
735.852	9.12
736.603	9.12
737.354	5.12
738.104	8.12
738.855	5.12
739.605	10.12
740.356	6.12
741.106	9.12
741.856	7.12
742.607	8.12
743.357	9.12
744.107	6.12
744.857	9.12
745.607	10.12
746.357	8.12
747.106	7.12
747.856	9.12
748.606	5.12
749.355	6.12
750.105	9.12
750.854	6.12
751.603	9.12
752.353	9.12
753.102	8.12
753.851	8.12
754.6	8.12
755.349	11.12
756.098	6.12
756.847	10.12
757.595	10.12
758.344	9.12
759.093	8.12
759.841	7.12
760.589	9.12
761.338	8.12
762.086	10.12
762.834	9.12
763.582	10.12
764.331	12.12
765.079	8.12
765.826	12.12
766.574	13.12
767.322	12.12
768.07	11.12
768.817	11.12
769.565	10.12
770.312	12.12
771.06	12.12
771.807	9.12
772.554	12.12
773.302	12.12
774.049	14.12
774.796	12.12
775.543	14.12
776.29	12.12
777.036	11.12
777.783	13.12
778.53	13.12
779.276	12.12
780.023	13.12
780.769	11.12
781.516	12.12
782.262	11.12
783.008	13.12
783.754	12.12
784.5	15.12
785.246	12.12
785.992	12.12
786.738	12.12
787.484	12.12
788.23	14.12
788.975	11.12
789.721	11.12
790.466	13.12
791.212	13.12
791.957	12.12
792.702	10.12
793.447	14.12
794.193	13.12
794.938	14.12
795.683	11.12
796.427	10.12
797.172	11.12
797.917	13.12
798.662	12.12
799.406	8.12
800.151	11.12
800.895	9.12
801.64	8.12
802.384	10.12
803.128	8.12
803.872	10.12
804.616	10.12
805.36	12.12
806.104	10.12
806.848	10.12
807.592	9.12
808.336	9.12
809.079	9.12
809.823	6.12
810.566	10.12
811.31	10.12
812.053	8.12
812.796	7.12
813.539	9.12
814.283	7.12
815.026	8.12
815.769	7.12
816.511	7.12
817.254	7.12
817.997	6.12
818.74	6.12
819.482	7.12
820.225	8.12
820.967	7.12
821.71	6.12
822.452	8.12
823.194	6.12
823.936	6.12
824.678	8.12
825.42	7.12
826.162	7.12
826.904	4.12
827.646	8.12
828.388	5.12
829.129	5.12
829.871	7.12
830.612	8.12
831.354	6.12
832.095	5.12
832.836	7.12
833.577	4.12
834.319	7.12
835.06	4.12
835.801	5.12
836.542	5.12
837.282	4.12
838.023	6.12
838.764	7.12
839.504	6.12
840.245	4.12
840.985	5.12
841.726	3.12
842.466	6.12
843.206	5.12
843.946	4.12
844.687	5.12
845.427	5.12
846.166	5.12
846.906	4.12
847.646	6.12
848.386	5.12
849.125	4.12
849.865	5.12
850.605	3.12
851.344	2.12
852.083	5.12
852.823	5.12
853.562	3.12
854.301	3.12
855.04	1.12
855.779	6.12
856.518	2.12
857.257	5.12
857.995	3.12
858.734	4.12
859.473	3.12
860.211	5.12
860.95	1.12
861.688	5.12
862.426	4.12
863.165	6.12
863.903	3.12
864.641	2.12
865.379	2.12
866.117	2.12
866.855	3.12
867.593	3.12
868.33	3.12
869.068	4.12
869.806	2.12
870.543	5.12
871.28	1.12
872.018	4.12
872.755	1.12
873.492	3.12
874.229	3.12
874.967	3.12
875.703	3.12
876.44	2.12
877.177	1.12
877.914	4.12
878.651	2.12
879.387	1.12
880.124	3.12
880.86	2.12
881.597	1.12
882.333	3.12
883.069	2.12
883.806	0.12
884.542	2.12
885.278	1.12
886.014	1.12
886.749	1.12
887.485	5.12
888.221	1.12
888.957	1.12
889.692	1.12
890.428	3.12
891.163	1.12
891.899	2.12
892.634	3.12
893.369	0.12
894.104	3.12
894.839	4.12
895.574	-0.88
896.309	2.12
897.044	2.12
897.779	1.12
898.514	3.12
899.248	3.12
899.983	1.12
900.717	0.12
901.452	0.12
902.186	0.12
902.92	-0.88
903.654	0.12
904.389	2.12
905.123	3.12
905.857	0.12
906.59	3.12
907.324	2.12
908.058	0.12
908.792	3.12
909.525	1.12
910.259	3.12
910.992	0.12
911.726	2.12
912.459	-1.88
913.192	2.12
913.925	1.12
914.658	2.12
915.391	0.12
916.124	1.12
916.857	0.12
917.59	0.12
918.323	1.12
919.055	2.12
919.788	0.12
920.521	1.12
921.253	-1.88
921.985	1.12
922.718	1.12
923.45	0.12
924.182	3.12
924.914	1.12
925.646	1.12
926.378	0.12
927.11	1.12
927.841	2.12
928.573	2.12
929.305	0.12
930.036	0.12
930.768	0.12
931.499	1.12
932.23	2.12
932.962	2.12
933.693	0.12
934.424	-0.88
935.155	-0.88
935.886	-1.88
936.617	-1.88
937.348	0.12
938.078	2.12
938.809	-1.88
939.54	0.12
940.27	-0.88
941.001	1.12
941.731	-0.88
942.461	1.12
943.191	0.12
943.922	1.12
944.652	1.12
945.382	1.12
946.112	1.12
946.841	1.12
947.571	-0.88
948.301	0.12
949.031	1.12
949.76	0.12
950.49	1.12
951.219	0.12
951.948	-1.88
952.678	0.12
953.407	0.12
954.136	1.12
954.865	0.12
955.594	3.12
956.323	-0.88
957.052	-0.88
957.78	0.12
958.509	1.12
959.238	0.12
959.966	0.12
960.695	-1.88
961.423	0.12
962.151	-0.88
962.88	0.12
963.608	1.12
964.336	2.12
965.064	0.12
965.792	3.12
966.52	1.12
967.247	1.12
967.975	-0.88
968.703	2.12
969.43	0.12
970.158	2.12
970.885	-1.88
971.613	-0.88
972.34	-1.88
973.067	0.12
973.794	1.12
974.521	-0.88
975.248	3.12
975.975	2.12
976.702	1.12
977.429	1.12
978.156	1.12
978.882	0.12
979.609	1.12
980.335	0.12
981.062	1.12
981.788	-1.88
982.514	0.12
983.24	1.12
983.967	2.12
984.693	1.12
985.419	1.12
986.144	2.12
986.87	1.12
987.596	-1.88
988.322	1.12
989.047	0.12
989.773	-0.88
990.498	2.12
991.224	1.12
991.949	-0.88
992.674	0.12
993.399	-1.88
994.124	-0.88
994.849	-0.88
995.574	2.12
996.299	-0.88
997.024	0.12
997.749	1.12
998.473	1.12
999.198	0.12
999.922	1.12
1000.647	-0.88
1001.371	3.12
1002.095	0.12
1002.82	1.12
1003.544	0.12
1004.268	5.12
1004.992	3.12
1005.716	5.12
1006.439	3.12
1007.163	5.12
1007.887	1.12
1008.611	1.12
1009.334	1.12
1010.058	1.12
1010.781	-0.88
1011.504	-0.88
1012.228	-0.88
1012.951	-1.88
1013.674	-0.88
1014.397	-1.88
1015.12	0.12
