节点500_565_QEPB04081__395__09-56-59-330.txt的数据

Date: Thu Nov 13 09:56:59 CST 2025
User: PC
Spectrometer: QEPB0408
触发模式: 0
积分时间 (秒): 1.000000E-2
Scans to average: 1
启用暗噪声校正: true
启用非线性校正: false
滑动平均宽度: 0
X轴模式: Wavelengths
Number of Pixels in Spectrum: 1044
>>>>>Begin Spectral Data<<<<<
220.843	2.5
221.644	4.5
222.444	3.5
223.244	3.5
224.045	3.5
224.845	3.5
225.645	4.5
226.445	5.5
227.245	4.5
228.045	6.5
228.845	6.5
229.645	4.5
230.444	6.5
231.244	5.5
232.043	7.5
232.843	7.5
233.642	6.5
234.442	8.5
235.241	6.5
236.04	6.5
236.839	7.5
237.638	8.5
238.437	8.5
239.236	6.5
240.035	8.5
240.833	9.5
241.632	10.5
242.43	7.5
243.229	11.5
244.027	10.5
244.826	9.5
245.624	8.5
246.422	8.5
247.22	11.5
248.018	11.5
248.816	13.5
249.614	13.5
250.412	9.5
251.21	12.5
252.007	11.5
252.805	11.5
253.602	12.5
254.4	14.5
255.197	14.5
255.994	15.5
256.791	15.5
257.589	16.5
258.386	16.5
259.183	16.5
259.979	16.5
260.776	16.5
261.573	17.5
262.37	15.5
263.166	19.5
263.963	19.5
264.759	18.5
265.556	19.5
266.352	23.5
267.148	21.5
267.944	21.5
268.74	20.5
269.536	21.5
270.332	21.5
271.128	25.5
271.924	25.5
272.719	26.5
273.515	24.5
274.311	30.5
275.106	27.5
275.901	26.5
276.697	27.5
277.492	29.5
278.287	26.5
279.082	26.5
279.877	27.5
280.672	28.5
281.467	26.5
282.262	29.5
283.056	24.5
283.851	28.5
284.646	27.5
285.44	25.5
286.234	28.5
287.029	28.5
287.823	28.5
288.617	26.5
289.411	27.5
290.205	26.5
290.999	24.5
291.793	25.5
292.587	28.5
293.381	27.5
294.174	22.5
294.968	24.5
295.761	23.5
296.555	23.5
297.348	20.5
298.141	20.5
298.935	25.5
299.728	17.5
300.521	22.5
301.314	22.5
302.107	19.5
302.899	22.5
303.692	18.5
304.485	16.5
305.277	20.5
306.07	21.5
306.862	20.5
307.655	18.5
308.447	16.5
309.239	16.5
310.031	16.5
310.823	16.5
311.615	17.5
312.407	13.5
313.199	16.5
313.991	11.5
314.783	12.5
315.574	11.5
316.366	14.5
317.157	11.5
317.949	14.5
318.74	11.5
319.531	12.5
320.322	13.5
321.113	10.5
321.904	10.5
322.695	11.5
323.486	9.5
324.277	9.5
325.068	8.5
325.858	10.5
326.649	9.5
327.439	9.5
328.23	10.5
329.02	10.5
329.81	10.5
330.6	10.5
331.391	9.5
332.181	11.5
332.971	8.5
333.76	7.5
334.55	10.5
335.34	11.5
336.13	9.5
336.919	6.5
337.709	10.5
338.498	9.5
339.287	9.5
340.077	8.5
340.866	9.5
341.655	9.5
342.444	9.5
343.233	10.5
344.022	8.5
344.811	7.5
345.6	9.5
346.388	9.5
347.177	9.5
347.965	10.5
348.754	8.5
349.542	7.5
350.33	8.5
351.119	6.5
351.907	9.5
352.695	8.5
353.483	8.5
354.271	9.5
355.059	8.5
355.846	8.5
356.634	10.5
357.422	6.5
358.209	7.5
358.997	6.5
359.784	11.5
360.571	8.5
361.359	9.5
362.146	10.5
362.933	7.5
363.72	8.5
364.507	10.5
365.294	7.5
366.081	6.5
366.867	7.5
367.654	9.5
368.44	8.5
369.227	9.5
370.013	8.5
370.8	7.5
371.586	8.5
372.372	6.5
373.158	7.5
373.944	8.5
374.73	7.5
375.516	8.5
376.302	8.5
377.088	7.5
377.873	9.5
378.659	7.5
379.445	6.5
380.23	7.5
381.015	7.5
381.801	5.5
382.586	10.5
383.371	6.5
384.156	9.5
384.941	10.5
385.726	7.5
386.511	8.5
387.296	7.5
388.08	7.5
388.865	7.5
389.649	6.5
390.434	10.5
391.218	9.5
392.003	10.5
392.787	6.5
393.571	11.5
394.355	11.5
395.139	11.5
395.923	9.5
396.707	8.5
397.491	11.5
398.274	9.5
399.058	9.5
399.842	11.5
400.625	12.5
401.408	10.5
402.192	9.5
402.975	11.5
403.758	13.5
404.541	13.5
405.324	11.5
406.107	13.5
406.89	12.5
407.673	11.5
408.456	11.5
409.238	12.5
410.021	13.5
410.803	13.5
411.586	10.5
412.368	13.5
413.151	16.5
413.933	17.5
414.715	13.5
415.497	13.5
416.279	17.5
417.061	11.5
417.843	16.5
418.624	14.5
419.406	15.5
420.188	19.5
420.969	17.5
421.751	18.5
422.532	18.5
423.313	19.5
424.095	17.5
424.876	19.5
425.657	18.5
426.438	21.5
427.219	21.5
428	20.5
428.78	23.5
429.561	20.5
430.342	22.5
431.122	25.5
431.903	25.5
432.683	27.5
433.464	28.5
434.244	28.5
435.024	31.5
435.804	33.5
436.584	34.5
437.364	34.5
438.144	37.5
438.924	37.5
439.704	43.5
440.483	44.5
441.263	46.5
442.042	48.5
442.822	55.5
443.601	56.5
444.38	63.5
445.16	68.5
445.939	72.5
446.718	77.5
447.497	86.5
448.276	94.5
449.054	103.5
449.833	111.5
450.612	123.5
451.391	135.5
452.169	150.5
452.948	167.5
453.726	183.5
454.504	200.5
455.282	219.5
456.061	248.5
456.839	269.5
457.617	306.5
458.395	339.5
459.172	391.5
459.95	421.5
460.728	481.5
461.506	533.5
462.283	597.5
463.061	658.5
463.838	740.5
464.615	815.5
465.393	913.5
466.17	1012.5
466.947	1123.5
467.724	1266.5
468.501	1379.5
469.278	1529.5
470.055	1679.5
470.831	1874.5
471.608	2076.5
472.385	2271.5
473.161	2522.5
473.938	2761.5
474.714	3034.5
475.49	3307.5
476.266	3676.5
477.043	4016.5
477.819	4401.5
478.595	4810.5
479.371	5231.5
480.146	5739.5
480.922	6264.5
481.698	6840.5
482.473	7428.5
483.249	8035.5
484.024	8747.5
484.8	9461.5
485.575	10327.5
486.35	11182.5
487.126	12104.5
487.901	13120.5
488.676	14209.5
489.451	15403.5
490.225	16573.5
491	17846.5
491.775	19193.5
492.55	20596.5
493.324	22016.5
494.099	23443.5
494.873	24991.5
495.647	26546.5
496.422	28084.5
497.196	29613.5
497.97	31132.5
498.744	32556.5
499.518	33810.5
500.292	35235.5
501.066	36361.5
501.839	37410.5
502.613	38232.5
503.387	39037.5
504.16	39648.5
504.934	39974.5
505.707	40138.5
506.48	40051.5
507.253	39919.5
508.027	39342.5
508.8	38760.5
509.573	38059.5
510.346	37144.5
511.118	36188.5
511.891	35098.5
512.664	34084.5
513.437	32920.5
514.209	31670.5
514.982	30425.5
515.754	29356.5
516.526	28052.5
517.298	26999.5
518.071	25876.5
518.843	24803.5
519.615	23792.5
520.387	22836.5
521.159	21980.5
521.93	21162.5
522.702	20156.5
523.474	19429.5
524.245	18632.5
525.017	17910.5
525.788	17086.5
526.56	16366.5
527.331	15636.5
528.102	14956.5
528.873	14220.5
529.644	13509.5
530.415	12845.5
531.186	12221.5
531.957	11611.5
532.728	11023.5
533.498	10482.5
534.269	9900.5
535.039	9369.5
535.81	8879.5
536.58	8415.5
537.351	7956.5
538.121	7488.5
538.891	7099.5
539.661	6763.5
540.431	6405.5
541.201	6056.5
541.971	5737.5
542.741	5400.5
543.51	5142.5
544.28	4893.5
545.05	4656.5
545.819	4425.5
546.588	4202.5
547.358	4016.5
548.127	3826.5
548.896	3604.5
549.665	3449.5
550.434	3265.5
551.203	3073.5
551.972	2933.5
552.741	2774.5
553.51	2607.5
554.278	2482.5
555.047	2338.5
555.815	2225.5
556.584	2094.5
557.352	1978.5
558.121	1869.5
558.889	1755.5
559.657	1656.5
560.425	1568.5
561.193	1487.5
561.961	1419.5
562.729	1348.5
563.496	1273.5
564.264	1187.5
565.032	1135.5
565.799	1062.5
566.567	1016.5
567.334	960.5
568.101	899.5
568.869	849.5
569.636	807.5
570.403	765.5
571.17	717.5
571.937	678.5
572.704	637.5
573.471	594.5
574.237	556.5
575.004	541.5
575.771	505.5
576.537	475.5
577.303	453.5
578.07	427.5
578.836	391.5
579.602	378.5
580.368	362.5
581.134	344.5
581.9	324.5
582.666	305.5
583.432	290.5
584.198	278.5
584.964	259.5
585.729	249.5
586.495	231.5
587.26	229.5
588.025	212.5
588.791	199.5
589.556	193.5
590.321	180.5
591.086	169.5
591.851	164.5
592.616	158.5
593.381	147.5
594.146	138.5
594.911	134.5
595.675	125.5
596.44	127.5
597.204	118.5
597.969	109.5
598.733	108.5
599.497	105.5
600.261	97.5
601.025	91.5
601.79	92.5
602.553	85.5
603.317	79.5
604.081	80.5
604.845	76.5
605.609	74.5
606.372	68.5
607.136	70.5
607.899	67.5
608.662	64.5
609.426	58.5
610.189	59.5
610.952	59.5
611.715	54.5
612.478	52.5
613.241	48.5
614.004	49.5
614.767	43.5
615.529	44.5
616.292	42.5
617.055	41.5
617.817	40.5
618.579	39.5
619.342	37.5
620.104	34.5
620.866	39.5
621.628	34.5
622.39	30.5
623.152	30.5
623.914	28.5
624.676	29.5
625.438	24.5
626.199	27.5
626.961	24.5
627.722	26.5
628.484	25.5
629.245	21.5
630.006	25.5
630.768	23.5
631.529	24.5
632.29	20.5
633.051	23.5
633.812	19.5
634.573	22.5
635.333	22.5
636.094	13.5
636.855	20.5
637.615	16.5
638.376	14.5
639.136	17.5
639.896	17.5
640.657	13.5
641.417	16.5
642.177	15.5
642.937	15.5
643.697	17.5
644.457	13.5
645.216	12.5
645.976	11.5
646.736	12.5
647.495	13.5
648.255	11.5
649.014	10.5
649.774	13.5
650.533	13.5
651.292	11.5
652.051	11.5
652.81	12.5
653.569	7.5
654.328	13.5
655.087	11.5
655.846	10.5
656.604	12.5
657.363	10.5
658.121	7.5
658.88	11.5
659.638	8.5
660.397	10.5
661.155	10.5
661.913	9.5
662.671	10.5
663.429	10.5
664.187	8.5
664.945	8.5
665.703	8.5
666.46	8.5
667.218	8.5
667.976	8.5
668.733	7.5
669.49	9.5
670.248	10.5
671.005	8.5
671.762	7.5
672.519	7.5
673.276	7.5
674.033	5.5
674.79	5.5
675.547	6.5
676.304	5.5
677.06	7.5
677.817	8.5
678.574	7.5
679.33	6.5
680.086	4.5
680.843	7.5
681.599	3.5
682.355	7.5
683.111	7.5
683.867	7.5
684.623	8.5
685.379	6.5
686.135	6.5
686.89	5.5
687.646	6.5
688.402	7.5
689.157	4.5
689.912	6.5
690.668	8.5
691.423	6.5
692.178	4.5
692.933	8.5
693.688	4.5
694.443	6.5
695.198	6.5
695.953	8.5
696.708	9.5
697.462	6.5
698.217	5.5
698.972	5.5
699.726	6.5
700.48	5.5
701.235	7.5
701.989	6.5
702.743	3.5
703.497	7.5
704.251	8.5
705.005	5.5
705.759	6.5
706.513	4.5
707.266	8.5
708.02	8.5
708.774	6.5
709.527	4.5
710.28	7.5
711.034	5.5
711.787	2.5
712.54	5.5
713.293	4.5
714.046	5.5
714.799	5.5
715.552	5.5
716.305	5.5
717.058	5.5
717.81	4.5
718.563	5.5
719.315	8.5
720.068	4.5
720.82	6.5
721.573	5.5
722.325	7.5
723.077	8.5
723.829	6.5
724.581	5.5
725.333	3.5
726.085	6.5
726.836	4.5
727.588	8.5
728.34	7.5
729.091	7.5
729.843	5.5
730.594	6.5
731.346	9.5
732.097	8.5
732.848	5.5
733.599	6.5
734.35	8.5
735.101	8.5
735.852	8.5
736.603	6.5
737.354	7.5
738.104	7.5
738.855	8.5
739.605	4.5
740.356	8.5
741.106	8.5
741.856	7.5
742.607	7.5
743.357	9.5
744.107	8.5
744.857	8.5
745.607	9.5
746.357	6.5
747.106	7.5
747.856	8.5
748.606	7.5
749.355	9.5
750.105	7.5
750.854	7.5
751.603	7.5
752.353	5.5
753.102	6.5
753.851	9.5
754.6	8.5
755.349	6.5
756.098	8.5
756.847	7.5
757.595	10.5
758.344	10.5
759.093	13.5
759.841	9.5
760.589	9.5
761.338	9.5
762.086	7.5
762.834	12.5
763.582	11.5
764.331	12.5
765.079	11.5
765.826	10.5
766.574	10.5
767.322	9.5
768.07	14.5
768.817	11.5
769.565	12.5
770.312	12.5
771.06	10.5
771.807	12.5
772.554	12.5
773.302	12.5
774.049	13.5
774.796	11.5
775.543	13.5
776.29	10.5
777.036	12.5
777.783	10.5
778.53	11.5
779.276	9.5
780.023	12.5
780.769	15.5
781.516	13.5
782.262	12.5
783.008	16.5
783.754	12.5
784.5	13.5
785.246	14.5
785.992	12.5
786.738	12.5
787.484	11.5
788.23	12.5
788.975	13.5
789.721	10.5
790.466	12.5
791.212	12.5
791.957	13.5
792.702	11.5
793.447	12.5
794.193	10.5
794.938	10.5
795.683	12.5
796.427	11.5
797.172	11.5
797.917	11.5
798.662	11.5
799.406	11.5
800.151	10.5
800.895	8.5
801.64	10.5
802.384	11.5
803.128	10.5
803.872	7.5
804.616	8.5
805.36	8.5
806.104	10.5
806.848	8.5
807.592	9.5
808.336	7.5
809.079	8.5
809.823	8.5
810.566	8.5
811.31	7.5
812.053	8.5
812.796	7.5
813.539	7.5
814.283	8.5
815.026	10.5
815.769	9.5
816.511	5.5
817.254	7.5
817.997	7.5
818.74	7.5
819.482	7.5
820.225	4.5
820.967	7.5
821.71	6.5
822.452	5.5
823.194	8.5
823.936	6.5
824.678	4.5
825.42	9.5
826.162	4.5
826.904	6.5
827.646	5.5
828.388	5.5
829.129	3.5
829.871	5.5
830.612	5.5
831.354	4.5
832.095	6.5
832.836	5.5
833.577	4.5
834.319	4.5
835.06	5.5
835.801	4.5
836.542	4.5
837.282	4.5
838.023	2.5
838.764	4.5
839.504	6.5
840.245	6.5
840.985	3.5
841.726	2.5
842.466	5.5
843.206	3.5
843.946	6.5
844.687	3.5
845.427	4.5
846.166	3.5
846.906	4.5
847.646	5.5
848.386	4.5
849.125	5.5
849.865	5.5
850.605	4.5
851.344	2.5
852.083	4.5
852.823	5.5
853.562	2.5
854.301	3.5
855.04	0.5
855.779	3.5
856.518	2.5
857.257	3.5
857.995	4.5
858.734	3.5
859.473	2.5
860.211	4.5
860.95	4.5
861.688	3.5
862.426	3.5
863.165	1.5
863.903	1.5
864.641	0.5
865.379	2.5
866.117	4.5
866.855	2.5
867.593	3.5
868.33	2.5
869.068	2.5
869.806	1.5
870.543	0.5
871.28	2.5
872.018	0.5
872.755	1.5
873.492	2.5
874.229	2.5
874.967	2.5
875.703	1.5
876.44	3.5
877.177	1.5
877.914	0.5
878.651	1.5
879.387	1.5
880.124	1.5
880.86	2.5
881.597	-0.5
882.333	-0.5
883.069	1.5
883.806	2.5
884.542	0.5
885.278	1.5
886.014	1.5
886.749	1.5
887.485	-0.5
888.221	2.5
888.957	1.5
889.692	-0.5
890.428	1.5
891.163	0.5
891.899	-0.5
892.634	1.5
893.369	1.5
894.104	0.5
894.839	-0.5
895.574	1.5
896.309	1.5
897.044	0.5
897.779	1.5
898.514	1.5
899.248	1.5
899.983	2.5
900.717	1.5
901.452	0.5
902.186	2.5
902.92	-1.5
903.654	2.5
904.389	-1.5
905.123	-1.5
905.857	0.5
906.59	-0.5
907.324	1.5
908.058	-0.5
908.792	2.5
909.525	0.5
910.259	1.5
910.992	0.5
911.726	1.5
912.459	0.5
913.192	0.5
913.925	1.5
914.658	1.5
915.391	1.5
916.124	0.5
916.857	2.5
917.59	-2.5
918.323	0.5
919.055	0.5
919.788	2.5
920.521	0.5
921.253	0.5
921.985	0.5
922.718	1.5
923.45	-2.5
924.182	1.5
924.914	-1.5
925.646	0.5
926.378	-0.5
927.11	1.5
927.841	0.5
928.573	-0.5
929.305	0.5
930.036	1.5
930.768	0.5
931.499	-0.5
932.23	-0.5
932.962	-0.5
933.693	1.5
934.424	0.5
935.155	0.5
935.886	0.5
936.617	1.5
937.348	1.5
938.078	0.5
938.809	1.5
939.54	-0.5
940.27	1.5
941.001	1.5
941.731	0.5
942.461	-0.5
943.191	-0.5
943.922	0.5
944.652	1.5
945.382	-2.5
946.112	0.5
946.841	-0.5
947.571	-0.5
948.301	0.5
949.031	1.5
949.76	-0.5
950.49	-0.5
951.219	0.5
951.948	-0.5
952.678	1.5
953.407	-0.5
954.136	0.5
954.865	2.5
955.594	1.5
956.323	2.5
957.052	0.5
957.78	-0.5
958.509	-0.5
959.238	1.5
959.966	-0.5
960.695	1.5
961.423	-1.5
962.151	-0.5
962.88	1.5
963.608	-0.5
964.336	0.5
965.064	-1.5
965.792	-3.5
966.52	-0.5
967.247	-0.5
967.975	1.5
968.703	0.5
969.43	-2.5
970.158	1.5
970.885	-2.5
971.613	2.5
972.34	-0.5
973.067	1.5
973.794	-0.5
974.521	0.5
975.248	-0.5
975.975	1.5
976.702	0.5
977.429	-0.5
978.156	3.5
978.882	3.5
979.609	-0.5
980.335	0.5
981.062	-0.5
981.788	-1.5
982.514	1.5
983.24	-0.5
983.967	-0.5
984.693	2.5
985.419	0.5
986.144	0.5
986.87	1.5
987.596	-1.5
988.322	0.5
989.047	2.5
989.773	1.5
990.498	1.5
991.224	0.5
991.949	1.5
992.674	-0.5
993.399	1.5
994.124	-1.5
994.849	-0.5
995.574	0.5
996.299	-0.5
997.024	-0.5
997.749	0.5
998.473	0.5
999.198	-1.5
999.922	-0.5
1000.647	-0.5
1001.371	4.5
1002.095	-2.5
1002.82	-2.5
1003.544	0.5
1004.268	2.5
1004.992	2.5
1005.716	2.5
1006.439	2.5
1007.163	2.5
1007.887	2.5
1008.611	1.5
1009.334	-1.5
1010.058	3.5
1010.781	2.5
1011.504	0.5
1012.228	0.5
1012.951	-0.5
1013.674	0.5
1014.397	2.5
1015.12	-2.5
