节点500_565_QEPB04081__432__09-57-36-291.txt的数据

Date: Thu Nov 13 09:57:36 CST 2025
User: PC
Spectrometer: QEPB0408
触发模式: 0
积分时间 (秒): 1.000000E-2
Scans to average: 1
启用暗噪声校正: true
启用非线性校正: false
滑动平均宽度: 0
X轴模式: Wavelengths
Number of Pixels in Spectrum: 1044
>>>>>Begin Spectral Data<<<<<
220.843	3.88
221.644	3.88
222.444	3.88
223.244	3.88
224.045	4.88
224.845	3.88
225.645	3.88
226.445	3.88
227.245	3.88
228.045	5.88
228.845	3.88
229.645	4.88
230.444	4.88
231.244	4.88
232.043	4.88
232.843	7.88
233.642	5.88
234.442	4.88
235.241	7.88
236.04	5.88
236.839	4.88
237.638	5.88
238.437	7.88
239.236	5.88
240.035	6.88
240.833	5.88
241.632	5.88
242.43	7.88
243.229	7.88
244.027	8.88
244.826	10.88
245.624	8.88
246.422	11.88
247.22	8.88
248.018	11.88
248.816	11.88
249.614	9.88
250.412	10.88
251.21	8.88
252.007	11.88
252.805	9.88
253.602	12.88
254.4	11.88
255.197	13.88
255.994	14.88
256.791	12.88
257.589	14.88
258.386	15.88
259.183	16.88
259.979	14.88
260.776	16.88
261.573	21.88
262.37	16.88
263.166	17.88
263.963	16.88
264.759	20.88
265.556	18.88
266.352	21.88
267.148	17.88
267.944	17.88
268.74	20.88
269.536	20.88
270.332	24.88
271.128	21.88
271.924	22.88
272.719	23.88
273.515	22.88
274.311	21.88
275.106	23.88
275.901	25.88
276.697	25.88
277.492	27.88
278.287	29.88
279.082	26.88
279.877	25.88
280.672	24.88
281.467	26.88
282.262	23.88
283.056	29.88
283.851	25.88
284.646	26.88
285.44	27.88
286.234	25.88
287.029	28.88
287.823	25.88
288.617	23.88
289.411	27.88
290.205	24.88
290.999	25.88
291.793	24.88
292.587	27.88
293.381	23.88
294.174	25.88
294.968	24.88
295.761	25.88
296.555	23.88
297.348	21.88
298.141	21.88
298.935	23.88
299.728	18.88
300.521	18.88
301.314	18.88
302.107	20.88
302.899	19.88
303.692	16.88
304.485	15.88
305.277	19.88
306.07	14.88
306.862	15.88
307.655	17.88
308.447	15.88
309.239	18.88
310.031	17.88
310.823	18.88
311.615	12.88
312.407	14.88
313.199	11.88
313.991	14.88
314.783	11.88
315.574	12.88
316.366	12.88
317.157	13.88
317.949	11.88
318.74	11.88
319.531	12.88
320.322	10.88
321.113	10.88
321.904	11.88
322.695	7.88
323.486	10.88
324.277	9.88
325.068	7.88
325.858	8.88
326.649	10.88
327.439	7.88
328.23	10.88
329.02	9.88
329.81	10.88
330.6	8.88
331.391	9.88
332.181	8.88
332.971	9.88
333.76	10.88
334.55	9.88
335.34	8.88
336.13	8.88
336.919	6.88
337.709	9.88
338.498	8.88
339.287	7.88
340.077	7.88
340.866	8.88
341.655	9.88
342.444	8.88
343.233	7.88
344.022	8.88
344.811	8.88
345.6	8.88
346.388	8.88
347.177	7.88
347.965	9.88
348.754	9.88
349.542	9.88
350.33	7.88
351.119	10.88
351.907	5.88
352.695	8.88
353.483	7.88
354.271	8.88
355.059	8.88
355.846	6.88
356.634	6.88
357.422	4.88
358.209	7.88
358.997	6.88
359.784	7.88
360.571	7.88
361.359	7.88
362.146	9.88
362.933	7.88
363.72	8.88
364.507	7.88
365.294	6.88
366.081	6.88
366.867	7.88
367.654	6.88
368.44	5.88
369.227	7.88
370.013	6.88
370.8	6.88
371.586	7.88
372.372	6.88
373.158	7.88
373.944	4.88
374.73	6.88
375.516	5.88
376.302	5.88
377.088	3.88
377.873	3.88
378.659	7.88
379.445	4.88
380.23	9.88
381.015	7.88
381.801	8.88
382.586	7.88
383.371	7.88
384.156	6.88
384.941	6.88
385.726	10.88
386.511	6.88
387.296	8.88
388.08	7.88
388.865	8.88
389.649	7.88
390.434	7.88
391.218	7.88
392.003	7.88
392.787	10.88
393.571	7.88
394.355	6.88
395.139	9.88
395.923	5.88
396.707	7.88
397.491	6.88
398.274	8.88
399.058	8.88
399.842	8.88
400.625	9.88
401.408	9.88
402.192	10.88
402.975	9.88
403.758	10.88
404.541	9.88
405.324	10.88
406.107	12.88
406.89	11.88
407.673	12.88
408.456	8.88
409.238	13.88
410.021	11.88
410.803	12.88
411.586	10.88
412.368	11.88
413.151	11.88
413.933	14.88
414.715	14.88
415.497	11.88
416.279	13.88
417.061	15.88
417.843	15.88
418.624	18.88
419.406	12.88
420.188	15.88
420.969	15.88
421.751	18.88
422.532	14.88
423.313	17.88
424.095	19.88
424.876	18.88
425.657	19.88
426.438	19.88
427.219	19.88
428	20.88
428.78	19.88
429.561	22.88
430.342	21.88
431.122	21.88
431.903	23.88
432.683	25.88
433.464	28.88
434.244	31.88
435.024	27.88
435.804	28.88
436.584	34.88
437.364	34.88
438.144	35.88
438.924	40.88
439.704	44.88
440.483	40.88
441.263	44.88
442.042	49.88
442.822	54.88
443.601	59.88
444.38	63.88
445.16	69.88
445.939	68.88
446.718	77.88
447.497	83.88
448.276	92.88
449.054	103.88
449.833	115.88
450.612	122.88
451.391	139.88
452.169	149.88
452.948	165.88
453.726	184.88
454.504	204.88
455.282	226.88
456.061	247.88
456.839	277.88
457.617	315.88
458.395	352.88
459.172	392.88
459.95	429.88
460.728	482.88
461.506	530.88
462.283	605.88
463.061	662.88
463.838	747.88
464.615	822.88
465.393	921.88
466.17	1017.88
466.947	1139.88
467.724	1255.88
468.501	1383.88
469.278	1549.88
470.055	1697.88
470.831	1867.88
471.608	2066.88
472.385	2294.88
473.161	2523.88
473.938	2777.88
474.714	3029.88
475.49	3340.88
476.266	3648.88
477.043	4009.88
477.819	4372.88
478.595	4795.88
479.371	5224.88
480.146	5662.88
480.922	6199.88
481.698	6775.88
482.473	7343.88
483.249	7942.88
484.024	8640.88
484.8	9423.88
485.575	10228.88
486.35	11036.88
487.126	11972.88
487.901	12900.88
488.676	14003.88
489.451	15131.88
490.225	16357.88
491	17533.88
491.775	18800.88
492.55	20193.88
493.324	21597.88
494.099	22977.88
494.873	24501.88
495.647	26035.88
496.422	27595.88
497.196	29033.88
497.97	30610.88
498.744	31971.88
499.518	33283.88
500.292	34592.88
501.066	35838.88
501.839	36835.88
502.613	37805.88
503.387	38421.88
504.16	39115.88
504.934	39503.88
505.707	39641.88
506.48	39700.88
507.253	39589.88
508.027	39094.88
508.8	38531.88
509.573	37852.88
510.346	36971.88
511.118	36051.88
511.891	35259.88
512.664	33993.88
513.437	32904.88
514.209	31694.88
514.982	30539.88
515.754	29420.88
516.526	28161.88
517.298	27131.88
518.071	26030.88
518.843	24925.88
519.615	23938.88
520.387	23002.88
521.159	22115.88
521.93	21200.88
522.702	20348.88
523.474	19535.88
524.245	18731.88
525.017	18007.88
525.788	17215.88
526.56	16465.88
527.331	15770.88
528.102	15082.88
528.873	14346.88
529.644	13650.88
530.415	12975.88
531.186	12355.88
531.957	11730.88
532.728	11159.88
533.498	10569.88
534.269	9999.88
535.039	9433.88
535.81	9007.88
536.58	8532.88
537.351	8041.88
538.121	7602.88
538.891	7174.88
539.661	6839.88
540.431	6465.88
541.201	6111.88
541.971	5789.88
542.741	5485.88
543.51	5201.88
544.28	4926.88
545.05	4721.88
545.819	4471.88
546.588	4269.88
547.358	4036.88
548.127	3811.88
548.896	3646.88
549.665	3480.88
550.434	3289.88
551.203	3138.88
551.972	2953.88
552.741	2811.88
553.51	2671.88
554.278	2505.88
555.047	2360.88
555.815	2252.88
556.584	2154.88
557.352	2015.88
558.121	1900.88
558.889	1788.88
559.657	1678.88
560.425	1606.88
561.193	1508.88
561.961	1441.88
562.729	1362.88
563.496	1269.88
564.264	1214.88
565.032	1167.88
565.799	1088.88
566.567	1025.88
567.334	966.88
568.101	907.88
568.869	859.88
569.636	817.88
570.403	776.88
571.17	732.88
571.937	683.88
572.704	647.88
573.471	607.88
574.237	569.88
575.004	546.88
575.771	517.88
576.537	487.88
577.303	459.88
578.07	428.88
578.836	406.88
579.602	385.88
580.368	362.88
581.134	352.88
581.9	329.88
582.666	306.88
583.432	293.88
584.198	275.88
584.964	268.88
585.729	256.88
586.495	236.88
587.26	223.88
588.025	211.88
588.791	202.88
589.556	193.88
590.321	184.88
591.086	174.88
591.851	165.88
592.616	158.88
593.381	147.88
594.146	139.88
594.911	137.88
595.675	129.88
596.44	124.88
597.204	123.88
597.969	111.88
598.733	111.88
599.497	98.88
600.261	101.88
601.025	94.88
601.79	90.88
602.553	87.88
603.317	82.88
604.081	78.88
604.845	74.88
605.609	74.88
606.372	71.88
607.136	66.88
607.899	62.88
608.662	63.88
609.426	57.88
610.189	53.88
610.952	58.88
611.715	53.88
612.478	48.88
613.241	51.88
614.004	48.88
614.767	43.88
615.529	40.88
616.292	40.88
617.055	39.88
617.817	39.88
618.579	36.88
619.342	39.88
620.104	33.88
620.866	33.88
621.628	31.88
622.39	33.88
623.152	29.88
623.914	26.88
624.676	30.88
625.438	29.88
626.199	24.88
626.961	24.88
627.722	25.88
628.484	25.88
629.245	23.88
630.006	20.88
630.768	25.88
631.529	20.88
632.29	22.88
633.051	19.88
633.812	19.88
634.573	19.88
635.333	16.88
636.094	19.88
636.855	16.88
637.615	16.88
638.376	17.88
639.136	17.88
639.896	14.88
640.657	15.88
641.417	15.88
642.177	14.88
642.937	16.88
643.697	13.88
644.457	11.88
645.216	12.88
645.976	15.88
646.736	15.88
647.495	11.88
648.255	13.88
649.014	11.88
649.774	11.88
650.533	10.88
651.292	11.88
652.051	11.88
652.81	9.88
653.569	9.88
654.328	10.88
655.087	6.88
655.846	7.88
656.604	8.88
657.363	13.88
658.121	9.88
658.88	9.88
659.638	7.88
660.397	10.88
661.155	8.88
661.913	7.88
662.671	7.88
663.429	8.88
664.187	7.88
664.945	5.88
665.703	7.88
666.46	5.88
667.218	8.88
667.976	6.88
668.733	6.88
669.49	6.88
670.248	5.88
671.005	7.88
671.762	5.88
672.519	7.88
673.276	8.88
674.033	4.88
674.79	5.88
675.547	6.88
676.304	5.88
677.06	8.88
677.817	7.88
678.574	2.88
679.33	7.88
680.086	8.88
680.843	6.88
681.599	4.88
682.355	5.88
683.111	7.88
683.867	6.88
684.623	6.88
685.379	4.88
686.135	4.88
686.89	4.88
687.646	3.88
688.402	4.88
689.157	7.88
689.912	5.88
690.668	4.88
691.423	4.88
692.178	4.88
692.933	5.88
693.688	5.88
694.443	5.88
695.198	3.88
695.953	6.88
696.708	4.88
697.462	5.88
698.217	3.88
698.972	5.88
699.726	4.88
700.48	4.88
701.235	2.88
701.989	4.88
702.743	4.88
703.497	1.88
704.251	6.88
705.005	2.88
705.759	5.88
706.513	5.88
707.266	5.88
708.02	4.88
708.774	4.88
709.527	5.88
710.28	3.88
711.034	2.88
711.787	4.88
712.54	1.88
713.293	2.88
714.046	6.88
714.799	4.88
715.552	3.88
716.305	6.88
717.058	2.88
717.81	3.88
718.563	3.88
719.315	5.88
720.068	4.88
720.82	5.88
721.573	8.88
722.325	3.88
723.077	5.88
723.829	3.88
724.581	5.88
725.333	3.88
726.085	5.88
726.836	6.88
727.588	4.88
728.34	4.88
729.091	6.88
729.843	4.88
730.594	5.88
731.346	4.88
732.097	4.88
732.848	8.88
733.599	6.88
734.35	4.88
735.101	5.88
735.852	7.88
736.603	4.88
737.354	7.88
738.104	6.88
738.855	6.88
739.605	4.88
740.356	8.88
741.106	7.88
741.856	4.88
742.607	8.88
743.357	7.88
744.107	9.88
744.857	7.88
745.607	5.88
746.357	6.88
747.106	6.88
747.856	6.88
748.606	7.88
749.355	7.88
750.105	10.88
750.854	5.88
751.603	5.88
752.353	5.88
753.102	9.88
753.851	7.88
754.6	7.88
755.349	7.88
756.098	5.88
756.847	4.88
757.595	6.88
758.344	10.88
759.093	5.88
759.841	7.88
760.589	8.88
761.338	10.88
762.086	7.88
762.834	8.88
763.582	8.88
764.331	9.88
765.079	7.88
765.826	8.88
766.574	9.88
767.322	11.88
768.07	9.88
768.817	12.88
769.565	8.88
770.312	11.88
771.06	9.88
771.807	10.88
772.554	11.88
773.302	8.88
774.049	12.88
774.796	11.88
775.543	8.88
776.29	10.88
777.036	9.88
777.783	11.88
778.53	11.88
779.276	12.88
780.023	11.88
780.769	11.88
781.516	11.88
782.262	9.88
783.008	9.88
783.754	10.88
784.5	12.88
785.246	12.88
785.992	11.88
786.738	12.88
787.484	11.88
788.23	11.88
788.975	11.88
789.721	15.88
790.466	11.88
791.212	13.88
791.957	10.88
792.702	10.88
793.447	10.88
794.193	11.88
794.938	9.88
795.683	9.88
796.427	10.88
797.172	11.88
797.917	10.88
798.662	9.88
799.406	11.88
800.151	11.88
800.895	7.88
801.64	11.88
802.384	8.88
803.128	9.88
803.872	4.88
804.616	9.88
805.36	8.88
806.104	7.88
806.848	8.88
807.592	5.88
808.336	8.88
809.079	9.88
809.823	5.88
810.566	7.88
811.31	5.88
812.053	6.88
812.796	4.88
813.539	8.88
814.283	5.88
815.026	6.88
815.769	6.88
816.511	5.88
817.254	7.88
817.997	3.88
818.74	7.88
819.482	5.88
820.225	5.88
820.967	4.88
821.71	4.88
822.452	4.88
823.194	3.88
823.936	5.88
824.678	4.88
825.42	5.88
826.162	3.88
826.904	5.88
827.646	6.88
828.388	3.88
829.129	3.88
829.871	2.88
830.612	5.88
831.354	3.88
832.095	3.88
832.836	5.88
833.577	2.88
834.319	5.88
835.06	0.88
835.801	2.88
836.542	4.88
837.282	3.88
838.023	4.88
838.764	3.88
839.504	4.88
840.245	5.88
840.985	3.88
841.726	3.88
842.466	2.88
843.206	4.88
843.946	2.88
844.687	4.88
845.427	4.88
846.166	0.88
846.906	1.88
847.646	3.88
848.386	2.88
849.125	3.88
849.865	1.88
850.605	4.88
851.344	2.88
852.083	4.88
852.823	2.88
853.562	3.88
854.301	5.88
855.04	1.88
855.779	2.88
856.518	3.88
857.257	2.88
857.995	2.88
858.734	4.88
859.473	3.88
860.211	-0.12
860.95	0.88
861.688	3.88
862.426	2.88
863.165	2.88
863.903	2.88
864.641	-0.12
865.379	2.88
866.117	0.88
866.855	-0.12
867.593	1.88
868.33	-0.12
869.068	-0.12
869.806	1.88
870.543	1.88
871.28	0.88
872.018	-0.12
872.755	3.88
873.492	0.88
874.229	0.88
874.967	2.88
875.703	-0.12
876.44	-0.12
877.177	0.88
877.914	-0.12
878.651	0.88
879.387	-0.12
880.124	-2.12
880.86	3.88
881.597	-2.12
882.333	-1.12
883.069	-1.12
883.806	-0.12
884.542	-0.12
885.278	0.88
886.014	-1.12
886.749	-0.12
887.485	1.88
888.221	2.88
888.957	-1.12
889.692	-1.12
890.428	-1.12
891.163	0.88
891.899	0.88
892.634	-0.12
893.369	-0.12
894.104	0.88
894.839	1.88
895.574	-2.12
896.309	-0.12
897.044	-0.12
897.779	-1.12
898.514	0.88
899.248	0.88
899.983	0.88
900.717	0.88
901.452	-1.12
902.186	-3.12
902.92	1.88
903.654	-0.12
904.389	0.88
905.123	-1.12
905.857	-0.12
906.59	0.88
907.324	0.88
908.058	1.88
908.792	-1.12
909.525	1.88
910.259	-0.12
910.992	-1.12
911.726	-0.12
912.459	1.88
913.192	-0.12
913.925	-0.12
914.658	-1.12
915.391	-1.12
916.124	-1.12
916.857	0.88
917.59	0.88
918.323	0.88
919.055	-1.12
919.788	-0.12
920.521	-1.12
921.253	-0.12
921.985	-0.12
922.718	0.88
923.45	0.88
924.182	-1.12
924.914	-1.12
925.646	-0.12
926.378	-0.12
927.11	0.88
927.841	-1.12
928.573	0.88
929.305	-3.12
930.036	-0.12
930.768	-1.12
931.499	-1.12
932.23	0.88
932.962	-0.12
933.693	-1.12
934.424	-1.12
935.155	-1.12
935.886	-0.12
936.617	1.88
937.348	-2.12
938.078	-0.12
938.809	-2.12
939.54	-1.12
940.27	-0.12
941.001	-0.12
941.731	1.88
942.461	-0.12
943.191	0.88
943.922	-0.12
944.652	-0.12
945.382	-2.12
946.112	-0.12
946.841	-2.12
947.571	-2.12
948.301	-0.12
949.031	-0.12
949.76	-2.12
950.49	-0.12
951.219	-1.12
951.948	1.88
952.678	-0.12
953.407	-1.12
954.136	0.88
954.865	-0.12
955.594	0.88
956.323	-1.12
957.052	0.88
957.78	-0.12
958.509	-1.12
959.238	-1.12
959.966	-0.12
960.695	-0.12
961.423	-0.12
962.151	-0.12
962.88	-3.12
963.608	-0.12
964.336	-0.12
965.064	-1.12
965.792	-0.12
966.52	-1.12
967.247	-0.12
967.975	-0.12
968.703	-2.12
969.43	0.88
970.158	-1.12
970.885	1.88
971.613	-2.12
972.34	-2.12
973.067	-0.12
973.794	1.88
974.521	-0.12
975.248	-1.12
975.975	-2.12
976.702	-1.12
977.429	-0.12
978.156	-1.12
978.882	0.88
979.609	-0.12
980.335	-2.12
981.062	-0.12
981.788	-0.12
982.514	1.88
983.24	-2.12
983.967	-0.12
984.693	0.88
985.419	1.88
986.144	-1.12
986.87	-0.12
987.596	0.88
988.322	-0.12
989.047	1.88
989.773	-3.12
990.498	-0.12
991.224	-2.12
991.949	-0.12
992.674	-1.12
993.399	0.88
994.124	-0.12
994.849	-1.12
995.574	-1.12
996.299	-1.12
997.024	-2.12
997.749	-1.12
998.473	-1.12
999.198	-2.12
999.922	-0.12
1000.647	-0.12
1001.371	3.88
1002.095	-3.12
1002.82	0.88
1003.544	-1.12
1004.268	1.88
1004.992	3.88
1005.716	2.88
1006.439	1.88
1007.163	0.88
1007.887	2.88
1008.611	0.88
1009.334	-1.12
1010.058	-0.12
1010.781	-0.12
1011.504	-0.12
1012.228	-1.12
1012.951	-0.12
1013.674	-0.12
1014.397	-0.12
1015.12	-0.12
