节点500_565_QEPB04081__607__10-00-30-981.txt的数据

Date: Thu Nov 13 10:00:30 CST 2025
User: PC
Spectrometer: QEPB0408
触发模式: 0
积分时间 (秒): 1.000000E-2
Scans to average: 1
启用暗噪声校正: true
启用非线性校正: false
滑动平均宽度: 0
X轴模式: Wavelengths
Number of Pixels in Spectrum: 1044
>>>>>Begin Spectral Data<<<<<
220.843	3.88
221.644	2.88
222.444	3.88
223.244	4.88
224.045	5.88
224.845	4.88
225.645	5.88
226.445	3.88
227.245	5.88
228.045	3.88
228.845	6.88
229.645	5.88
230.444	4.88
231.244	5.88
232.043	7.88
232.843	6.88
233.642	3.88
234.442	8.88
235.241	6.88
236.04	6.88
236.839	8.88
237.638	3.88
238.437	8.88
239.236	7.88
240.035	8.88
240.833	9.88
241.632	9.88
242.43	10.88
243.229	6.88
244.027	8.88
244.826	9.88
245.624	8.88
246.422	9.88
247.22	8.88
248.018	9.88
248.816	11.88
249.614	11.88
250.412	10.88
251.21	11.88
252.007	11.88
252.805	13.88
253.602	13.88
254.4	12.88
255.197	12.88
255.994	12.88
256.791	14.88
257.589	15.88
258.386	15.88
259.183	15.88
259.979	14.88
260.776	13.88
261.573	16.88
262.37	17.88
263.166	16.88
263.963	16.88
264.759	16.88
265.556	15.88
266.352	16.88
267.148	18.88
267.944	21.88
268.74	19.88
269.536	22.88
270.332	22.88
271.128	20.88
271.924	24.88
272.719	21.88
273.515	21.88
274.311	24.88
275.106	26.88
275.901	23.88
276.697	24.88
277.492	24.88
278.287	23.88
279.082	24.88
279.877	24.88
280.672	23.88
281.467	27.88
282.262	24.88
283.056	28.88
283.851	28.88
284.646	24.88
285.44	24.88
286.234	27.88
287.029	25.88
287.823	25.88
288.617	24.88
289.411	26.88
290.205	23.88
290.999	22.88
291.793	23.88
292.587	24.88
293.381	25.88
294.174	26.88
294.968	24.88
295.761	22.88
296.555	20.88
297.348	22.88
298.141	18.88
298.935	21.88
299.728	23.88
300.521	21.88
301.314	20.88
302.107	18.88
302.899	19.88
303.692	18.88
304.485	18.88
305.277	16.88
306.07	16.88
306.862	19.88
307.655	12.88
308.447	20.88
309.239	18.88
310.031	15.88
310.823	16.88
311.615	14.88
312.407	14.88
313.199	12.88
313.991	15.88
314.783	14.88
315.574	14.88
316.366	11.88
317.157	12.88
317.949	10.88
318.74	10.88
319.531	14.88
320.322	11.88
321.113	12.88
321.904	9.88
322.695	9.88
323.486	11.88
324.277	11.88
325.068	9.88
325.858	8.88
326.649	11.88
327.439	12.88
328.23	12.88
329.02	10.88
329.81	6.88
330.6	10.88
331.391	10.88
332.181	10.88
332.971	9.88
333.76	11.88
334.55	10.88
335.34	9.88
336.13	8.88
336.919	10.88
337.709	9.88
338.498	8.88
339.287	10.88
340.077	8.88
340.866	7.88
341.655	9.88
342.444	9.88
343.233	11.88
344.022	9.88
344.811	9.88
345.6	8.88
346.388	6.88
347.177	11.88
347.965	8.88
348.754	9.88
349.542	8.88
350.33	7.88
351.119	6.88
351.907	7.88
352.695	9.88
353.483	7.88
354.271	8.88
355.059	7.88
355.846	7.88
356.634	8.88
357.422	9.88
358.209	8.88
358.997	7.88
359.784	8.88
360.571	6.88
361.359	7.88
362.146	8.88
362.933	7.88
363.72	6.88
364.507	7.88
365.294	8.88
366.081	6.88
366.867	8.88
367.654	6.88
368.44	8.88
369.227	8.88
370.013	6.88
370.8	8.88
371.586	7.88
372.372	7.88
373.158	7.88
373.944	6.88
374.73	4.88
375.516	8.88
376.302	8.88
377.088	6.88
377.873	8.88
378.659	6.88
379.445	9.88
380.23	9.88
381.015	8.88
381.801	10.88
382.586	6.88
383.371	5.88
384.156	10.88
384.941	8.88
385.726	10.88
386.511	6.88
387.296	6.88
388.08	10.88
388.865	8.88
389.649	8.88
390.434	10.88
391.218	8.88
392.003	7.88
392.787	6.88
393.571	12.88
394.355	8.88
395.139	11.88
395.923	10.88
396.707	7.88
397.491	7.88
398.274	9.88
399.058	8.88
399.842	12.88
400.625	9.88
401.408	12.88
402.192	12.88
402.975	10.88
403.758	12.88
404.541	9.88
405.324	13.88
406.107	10.88
406.89	13.88
407.673	12.88
408.456	12.88
409.238	12.88
410.021	11.88
410.803	13.88
411.586	12.88
412.368	16.88
413.151	12.88
413.933	13.88
414.715	13.88
415.497	14.88
416.279	14.88
417.061	12.88
417.843	16.88
418.624	15.88
419.406	14.88
420.188	15.88
420.969	15.88
421.751	14.88
422.532	16.88
423.313	17.88
424.095	17.88
424.876	20.88
425.657	19.88
426.438	20.88
427.219	21.88
428	22.88
428.78	21.88
429.561	22.88
430.342	23.88
431.122	24.88
431.903	25.88
432.683	25.88
433.464	28.88
434.244	29.88
435.024	28.88
435.804	32.88
436.584	32.88
437.364	36.88
438.144	41.88
438.924	39.88
439.704	42.88
440.483	43.88
441.263	48.88
442.042	51.88
442.822	56.88
443.601	60.88
444.38	66.88
445.16	71.88
445.939	76.88
446.718	83.88
447.497	89.88
448.276	102.88
449.054	107.88
449.833	116.88
450.612	129.88
451.391	148.88
452.169	160.88
452.948	174.88
453.726	194.88
454.504	211.88
455.282	236.88
456.061	265.88
456.839	286.88
457.617	331.88
458.395	367.88
459.172	412.88
459.95	451.88
460.728	500.88
461.506	563.88
462.283	625.88
463.061	688.88
463.838	762.88
464.615	858.88
465.393	934.88
466.17	1041.88
466.947	1154.88
467.724	1280.88
468.501	1397.88
469.278	1565.88
470.055	1715.88
470.831	1891.88
471.608	2070.88
472.385	2288.88
473.161	2510.88
473.938	2775.88
474.714	3030.88
475.49	3294.88
476.266	3607.88
477.043	3963.88
477.819	4336.88
478.595	4690.88
479.371	5104.88
480.146	5562.88
480.922	6027.88
481.698	6564.88
482.473	7106.88
483.249	7706.88
484.024	8315.88
484.8	9004.88
485.575	9799.88
486.35	10469.88
487.126	11420.88
487.901	12251.88
488.676	13250.88
489.451	14296.88
490.225	15371.88
491	16508.88
491.775	17701.88
492.55	18898.88
493.324	20216.88
494.099	21549.88
494.873	22940.88
495.647	24311.88
496.422	25696.88
497.196	27078.88
497.97	28578.88
498.744	29908.88
499.518	31281.88
500.292	32435.88
501.066	33632.88
501.839	34732.88
502.613	35685.88
503.387	36464.88
504.16	37104.88
504.934	37699.88
505.707	37965.88
506.48	38097.88
507.253	38104.88
508.027	37797.88
508.8	37518.88
509.573	37000.88
510.346	36312.88
511.118	35496.88
511.891	34629.88
512.664	33709.88
513.437	32716.88
514.209	31597.88
514.982	30564.88
515.754	29456.88
516.526	28282.88
517.298	27156.88
518.071	26169.88
518.843	25078.88
519.615	24063.88
520.387	23155.88
521.159	22259.88
521.93	21316.88
522.702	20462.88
523.474	19696.88
524.245	18856.88
525.017	18132.88
525.788	17416.88
526.56	16676.88
527.331	15946.88
528.102	15261.88
528.873	14583.88
529.644	13837.88
530.415	13196.88
531.186	12555.88
531.957	11957.88
532.728	11420.88
533.498	10826.88
534.269	10205.88
535.039	9706.88
535.81	9224.88
536.58	8744.88
537.351	8227.88
538.121	7814.88
538.891	7423.88
539.661	7040.88
540.431	6633.88
541.201	6275.88
541.971	5998.88
542.741	5677.88
543.51	5340.88
544.28	5116.88
545.05	4856.88
545.819	4614.88
546.588	4407.88
547.358	4178.88
548.127	3957.88
548.896	3772.88
549.665	3595.88
550.434	3400.88
551.203	3226.88
551.972	3072.88
552.741	2923.88
553.51	2759.88
554.278	2608.88
555.047	2474.88
555.815	2320.88
556.584	2210.88
557.352	2111.88
558.121	1980.88
558.889	1866.88
559.657	1753.88
560.425	1669.88
561.193	1561.88
561.961	1487.88
562.729	1409.88
563.496	1329.88
564.264	1249.88
565.032	1202.88
565.799	1131.88
566.567	1068.88
567.334	1013.88
568.101	938.88
568.869	894.88
569.636	859.88
570.403	800.88
571.17	757.88
571.937	722.88
572.704	681.88
573.471	641.88
574.237	603.88
575.004	570.88
575.771	532.88
576.537	504.88
577.303	476.88
578.07	441.88
578.836	420.88
579.602	395.88
580.368	380.88
581.134	358.88
581.9	339.88
582.666	323.88
583.432	305.88
584.198	297.88
584.964	279.88
585.729	270.88
586.495	244.88
587.26	235.88
588.025	220.88
588.791	212.88
589.556	202.88
590.321	191.88
591.086	184.88
591.851	176.88
592.616	164.88
593.381	162.88
594.146	151.88
594.911	139.88
595.675	137.88
596.44	127.88
597.204	123.88
597.969	120.88
598.733	117.88
599.497	112.88
600.261	101.88
601.025	98.88
601.79	92.88
602.553	90.88
603.317	85.88
604.081	85.88
604.845	83.88
605.609	75.88
606.372	70.88
607.136	71.88
607.899	69.88
608.662	65.88
609.426	63.88
610.189	59.88
610.952	56.88
611.715	54.88
612.478	51.88
613.241	51.88
614.004	51.88
614.767	48.88
615.529	44.88
616.292	44.88
617.055	45.88
617.817	44.88
618.579	38.88
619.342	40.88
620.104	36.88
620.866	39.88
621.628	35.88
622.39	34.88
623.152	30.88
623.914	31.88
624.676	27.88
625.438	28.88
626.199	28.88
626.961	28.88
627.722	25.88
628.484	24.88
629.245	22.88
630.006	23.88
630.768	21.88
631.529	23.88
632.29	21.88
633.051	23.88
633.812	17.88
634.573	19.88
635.333	20.88
636.094	20.88
636.855	18.88
637.615	16.88
638.376	17.88
639.136	19.88
639.896	16.88
640.657	16.88
641.417	18.88
642.177	13.88
642.937	14.88
643.697	15.88
644.457	14.88
645.216	13.88
645.976	13.88
646.736	13.88
647.495	13.88
648.255	11.88
649.014	13.88
649.774	14.88
650.533	12.88
651.292	11.88
652.051	11.88
652.81	10.88
653.569	11.88
654.328	11.88
655.087	9.88
655.846	13.88
656.604	10.88
657.363	8.88
658.121	10.88
658.88	10.88
659.638	10.88
660.397	8.88
661.155	9.88
661.913	9.88
662.671	9.88
663.429	9.88
664.187	8.88
664.945	8.88
665.703	6.88
666.46	7.88
667.218	7.88
667.976	8.88
668.733	6.88
669.49	6.88
670.248	7.88
671.005	8.88
671.762	6.88
672.519	6.88
673.276	9.88
674.033	6.88
674.79	6.88
675.547	7.88
676.304	6.88
677.06	6.88
677.817	7.88
678.574	9.88
679.33	7.88
680.086	4.88
680.843	8.88
681.599	4.88
682.355	5.88
683.111	6.88
683.867	6.88
684.623	5.88
685.379	6.88
686.135	8.88
686.89	6.88
687.646	5.88
688.402	6.88
689.157	8.88
689.912	4.88
690.668	6.88
691.423	5.88
692.178	5.88
692.933	4.88
693.688	4.88
694.443	6.88
695.198	6.88
695.953	5.88
696.708	4.88
697.462	5.88
698.217	5.88
698.972	3.88
699.726	6.88
700.48	6.88
701.235	4.88
701.989	6.88
702.743	5.88
703.497	6.88
704.251	6.88
705.005	5.88
705.759	6.88
706.513	4.88
707.266	6.88
708.02	4.88
708.774	5.88
709.527	4.88
710.28	7.88
711.034	4.88
711.787	8.88
712.54	5.88
713.293	5.88
714.046	5.88
714.799	6.88
715.552	3.88
716.305	3.88
717.058	6.88
717.81	7.88
718.563	5.88
719.315	5.88
720.068	6.88
720.82	4.88
721.573	5.88
722.325	5.88
723.077	4.88
723.829	9.88
724.581	5.88
725.333	7.88
726.085	6.88
726.836	4.88
727.588	6.88
728.34	5.88
729.091	5.88
729.843	7.88
730.594	7.88
731.346	7.88
732.097	8.88
732.848	7.88
733.599	6.88
734.35	7.88
735.101	5.88
735.852	8.88
736.603	5.88
737.354	7.88
738.104	9.88
738.855	6.88
739.605	8.88
740.356	6.88
741.106	6.88
741.856	7.88
742.607	6.88
743.357	8.88
744.107	8.88
744.857	9.88
745.607	5.88
746.357	6.88
747.106	7.88
747.856	7.88
748.606	7.88
749.355	8.88
750.105	7.88
750.854	8.88
751.603	7.88
752.353	7.88
753.102	6.88
753.851	11.88
754.6	7.88
755.349	10.88
756.098	7.88
756.847	7.88
757.595	8.88
758.344	11.88
759.093	7.88
759.841	6.88
760.589	8.88
761.338	8.88
762.086	10.88
762.834	7.88
763.582	9.88
764.331	10.88
765.079	10.88
765.826	8.88
766.574	7.88
767.322	8.88
768.07	10.88
768.817	9.88
769.565	10.88
770.312	10.88
771.06	7.88
771.807	12.88
772.554	12.88
773.302	10.88
774.049	9.88
774.796	12.88
775.543	9.88
776.29	13.88
777.036	9.88
777.783	13.88
778.53	13.88
779.276	13.88
780.023	12.88
780.769	12.88
781.516	10.88
782.262	9.88
783.008	11.88
783.754	14.88
784.5	10.88
785.246	11.88
785.992	12.88
786.738	15.88
787.484	12.88
788.23	13.88
788.975	8.88
789.721	13.88
790.466	12.88
791.212	9.88
791.957	10.88
792.702	11.88
793.447	10.88
794.193	10.88
794.938	9.88
795.683	14.88
796.427	13.88
797.172	8.88
797.917	11.88
798.662	9.88
799.406	10.88
800.151	9.88
800.895	10.88
801.64	10.88
802.384	10.88
803.128	9.88
803.872	9.88
804.616	8.88
805.36	6.88
806.104	6.88
806.848	6.88
807.592	8.88
808.336	7.88
809.079	6.88
809.823	6.88
810.566	7.88
811.31	6.88
812.053	8.88
812.796	7.88
813.539	5.88
814.283	5.88
815.026	8.88
815.769	6.88
816.511	6.88
817.254	7.88
817.997	5.88
818.74	6.88
819.482	7.88
820.225	5.88
820.967	5.88
821.71	4.88
822.452	8.88
823.194	7.88
823.936	4.88
824.678	4.88
825.42	6.88
826.162	4.88
826.904	6.88
827.646	4.88
828.388	6.88
829.129	3.88
829.871	6.88
830.612	6.88
831.354	5.88
832.095	5.88
832.836	5.88
833.577	6.88
834.319	3.88
835.06	6.88
835.801	2.88
836.542	6.88
837.282	2.88
838.023	3.88
838.764	5.88
839.504	6.88
840.245	4.88
840.985	3.88
841.726	5.88
842.466	4.88
843.206	2.88
843.946	4.88
844.687	4.88
845.427	4.88
846.166	2.88
846.906	4.88
847.646	2.88
848.386	4.88
849.125	3.88
849.865	1.88
850.605	4.88
851.344	3.88
852.083	3.88
852.823	0.88
853.562	4.88
854.301	5.88
855.04	4.88
855.779	3.88
856.518	1.88
857.257	1.88
857.995	1.88
858.734	6.88
859.473	4.88
860.211	2.88
860.95	4.88
861.688	0.88
862.426	0.88
863.165	-0.12
863.903	3.88
864.641	1.88
865.379	3.88
866.117	1.88
866.855	0.88
867.593	4.88
868.33	1.88
869.068	2.88
869.806	2.88
870.543	2.88
871.28	5.88
872.018	2.88
872.755	2.88
873.492	2.88
874.229	0.88
874.967	2.88
875.703	2.88
876.44	0.88
877.177	-0.12
877.914	2.88
878.651	0.88
879.387	1.88
880.124	0.88
880.86	0.88
881.597	2.88
882.333	1.88
883.069	2.88
883.806	1.88
884.542	2.88
885.278	0.88
886.014	1.88
886.749	0.88
887.485	2.88
888.221	0.88
888.957	0.88
889.692	2.88
890.428	1.88
891.163	0.88
891.899	1.88
892.634	-0.12
893.369	0.88
894.104	1.88
894.839	1.88
895.574	-1.12
896.309	3.88
897.044	-1.12
897.779	-0.12
898.514	1.88
899.248	2.88
899.983	0.88
900.717	0.88
901.452	1.88
902.186	0.88
902.92	2.88
903.654	0.88
904.389	0.88
905.123	3.88
905.857	0.88
906.59	4.88
907.324	0.88
908.058	0.88
908.792	0.88
909.525	-0.12
910.259	-0.12
910.992	0.88
911.726	1.88
912.459	0.88
913.192	1.88
913.925	0.88
914.658	0.88
915.391	0.88
916.124	-2.12
916.857	0.88
917.59	-0.12
918.323	-1.12
919.055	-0.12
919.788	-0.12
920.521	1.88
921.253	0.88
921.985	-1.12
922.718	0.88
923.45	0.88
924.182	0.88
924.914	1.88
925.646	-0.12
926.378	-0.12
927.11	0.88
927.841	-0.12
928.573	-0.12
929.305	-0.12
930.036	0.88
930.768	0.88
931.499	0.88
932.23	0.88
932.962	-0.12
933.693	0.88
934.424	-0.12
935.155	0.88
935.886	2.88
936.617	-2.12
937.348	0.88
938.078	-1.12
938.809	2.88
939.54	-1.12
940.27	-0.12
941.001	0.88
941.731	-2.12
942.461	0.88
943.191	0.88
943.922	-0.12
944.652	-0.12
945.382	1.88
946.112	1.88
946.841	0.88
947.571	-0.12
948.301	1.88
949.031	0.88
949.76	0.88
950.49	-0.12
951.219	-1.12
951.948	-0.12
952.678	-0.12
953.407	-2.12
954.136	1.88
954.865	-0.12
955.594	-2.12
956.323	0.88
957.052	0.88
957.78	-0.12
958.509	0.88
959.238	0.88
959.966	-2.12
960.695	0.88
961.423	0.88
962.151	-1.12
962.88	-0.12
963.608	-1.12
964.336	-1.12
965.064	-1.12
965.792	0.88
966.52	-0.12
967.247	0.88
967.975	1.88
968.703	0.88
969.43	1.88
970.158	0.88
970.885	0.88
971.613	-0.12
972.34	1.88
973.067	0.88
973.794	0.88
974.521	-1.12
975.248	3.88
975.975	-0.12
976.702	-0.12
977.429	1.88
978.156	0.88
978.882	0.88
979.609	-0.12
980.335	-0.12
981.062	-0.12
981.788	-2.12
982.514	-0.12
983.24	0.88
983.967	0.88
984.693	-0.12
985.419	-0.12
986.144	0.88
986.87	-0.12
987.596	0.88
988.322	-1.12
989.047	-2.12
989.773	0.88
990.498	-0.12
991.224	-1.12
991.949	1.88
992.674	1.88
993.399	0.88
994.124	-3.12
994.849	1.88
995.574	0.88
996.299	1.88
997.024	-1.12
997.749	-0.12
998.473	0.88
999.198	-2.12
999.922	0.88
1000.647	-1.12
1001.371	4.88
1002.095	-2.12
1002.82	-0.12
1003.544	-1.12
1004.268	1.88
1004.992	1.88
1005.716	2.88
1006.439	4.88
1007.163	4.88
1007.887	3.88
1008.611	-0.12
1009.334	0.88
1010.058	0.88
1010.781	-0.12
1011.504	0.88
1012.228	-0.12
1012.951	0.88
1013.674	-2.12
1014.397	-1.12
1015.12	0.88
