节点500_565_QEPB04081__622__10-00-45-947.txt的数据

Date: Thu Nov 13 10:00:45 CST 2025
User: PC
Spectrometer: QEPB0408
触发模式: 0
积分时间 (秒): 1.000000E-2
Scans to average: 1
启用暗噪声校正: true
启用非线性校正: false
滑动平均宽度: 0
X轴模式: Wavelengths
Number of Pixels in Spectrum: 1044
>>>>>Begin Spectral Data<<<<<
220.843	2.25
221.644	3.25
222.444	2.25
223.244	5.25
224.045	2.25
224.845	6.25
225.645	6.25
226.445	4.25
227.245	3.25
228.045	5.25
228.845	5.25
229.645	5.25
230.444	4.25
231.244	7.25
232.043	5.25
232.843	4.25
233.642	6.25
234.442	5.25
235.241	6.25
236.04	4.25
236.839	7.25
237.638	6.25
238.437	7.25
239.236	8.25
240.035	6.25
240.833	7.25
241.632	9.25
242.43	8.25
243.229	8.25
244.027	9.25
244.826	9.25
245.624	11.25
246.422	10.25
247.22	10.25
248.018	10.25
248.816	11.25
249.614	8.25
250.412	11.25
251.21	12.25
252.007	11.25
252.805	11.25
253.602	9.25
254.4	13.25
255.197	11.25
255.994	13.25
256.791	12.25
257.589	13.25
258.386	16.25
259.183	15.25
259.979	15.25
260.776	11.25
261.573	18.25
262.37	17.25
263.166	16.25
263.963	18.25
264.759	18.25
265.556	22.25
266.352	17.25
267.148	18.25
267.944	19.25
268.74	18.25
269.536	21.25
270.332	22.25
271.128	19.25
271.924	22.25
272.719	22.25
273.515	22.25
274.311	22.25
275.106	26.25
275.901	24.25
276.697	23.25
277.492	27.25
278.287	22.25
279.082	25.25
279.877	22.25
280.672	27.25
281.467	28.25
282.262	24.25
283.056	22.25
283.851	26.25
284.646	23.25
285.44	28.25
286.234	22.25
287.029	26.25
287.823	24.25
288.617	26.25
289.411	27.25
290.205	26.25
290.999	26.25
291.793	23.25
292.587	22.25
293.381	27.25
294.174	25.25
294.968	22.25
295.761	23.25
296.555	24.25
297.348	21.25
298.141	20.25
298.935	23.25
299.728	23.25
300.521	19.25
301.314	16.25
302.107	18.25
302.899	16.25
303.692	16.25
304.485	18.25
305.277	13.25
306.07	18.25
306.862	19.25
307.655	16.25
308.447	18.25
309.239	16.25
310.031	19.25
310.823	14.25
311.615	15.25
312.407	12.25
313.199	13.25
313.991	13.25
314.783	12.25
315.574	14.25
316.366	13.25
317.157	13.25
317.949	13.25
318.74	12.25
319.531	10.25
320.322	9.25
321.113	13.25
321.904	10.25
322.695	11.25
323.486	9.25
324.277	11.25
325.068	13.25
325.858	10.25
326.649	9.25
327.439	9.25
328.23	11.25
329.02	10.25
329.81	10.25
330.6	8.25
331.391	12.25
332.181	7.25
332.971	8.25
333.76	10.25
334.55	8.25
335.34	8.25
336.13	10.25
336.919	8.25
337.709	9.25
338.498	8.25
339.287	9.25
340.077	9.25
340.866	6.25
341.655	8.25
342.444	11.25
343.233	10.25
344.022	6.25
344.811	7.25
345.6	9.25
346.388	12.25
347.177	8.25
347.965	9.25
348.754	11.25
349.542	8.25
350.33	10.25
351.119	7.25
351.907	12.25
352.695	9.25
353.483	6.25
354.271	8.25
355.059	8.25
355.846	8.25
356.634	8.25
357.422	7.25
358.209	8.25
358.997	7.25
359.784	7.25
360.571	6.25
361.359	7.25
362.146	7.25
362.933	6.25
363.72	5.25
364.507	6.25
365.294	7.25
366.081	6.25
366.867	7.25
367.654	6.25
368.44	7.25
369.227	7.25
370.013	5.25
370.8	6.25
371.586	6.25
372.372	7.25
373.158	7.25
373.944	6.25
374.73	6.25
375.516	8.25
376.302	8.25
377.088	9.25
377.873	7.25
378.659	6.25
379.445	9.25
380.23	7.25
381.015	6.25
381.801	8.25
382.586	9.25
383.371	8.25
384.156	6.25
384.941	10.25
385.726	8.25
386.511	8.25
387.296	8.25
388.08	6.25
388.865	8.25
389.649	9.25
390.434	7.25
391.218	8.25
392.003	9.25
392.787	10.25
393.571	8.25
394.355	10.25
395.139	8.25
395.923	9.25
396.707	8.25
397.491	8.25
398.274	7.25
399.058	10.25
399.842	8.25
400.625	11.25
401.408	9.25
402.192	11.25
402.975	12.25
403.758	11.25
404.541	11.25
405.324	11.25
406.107	10.25
406.89	11.25
407.673	11.25
408.456	11.25
409.238	10.25
410.021	12.25
410.803	12.25
411.586	11.25
412.368	13.25
413.151	10.25
413.933	12.25
414.715	13.25
415.497	14.25
416.279	16.25
417.061	14.25
417.843	14.25
418.624	17.25
419.406	17.25
420.188	15.25
420.969	18.25
421.751	18.25
422.532	18.25
423.313	16.25
424.095	16.25
424.876	19.25
425.657	18.25
426.438	18.25
427.219	22.25
428	20.25
428.78	22.25
429.561	23.25
430.342	21.25
431.122	24.25
431.903	25.25
432.683	28.25
433.464	28.25
434.244	28.25
435.024	29.25
435.804	29.25
436.584	34.25
437.364	36.25
438.144	38.25
438.924	42.25
439.704	43.25
440.483	41.25
441.263	47.25
442.042	48.25
442.822	55.25
443.601	58.25
444.38	68.25
445.16	69.25
445.939	79.25
446.718	84.25
447.497	84.25
448.276	97.25
449.054	111.25
449.833	114.25
450.612	134.25
451.391	144.25
452.169	163.25
452.948	172.25
453.726	197.25
454.504	213.25
455.282	238.25
456.061	266.25
456.839	297.25
457.617	325.25
458.395	370.25
459.172	398.25
459.95	447.25
460.728	504.25
461.506	555.25
462.283	620.25
463.061	688.25
463.838	768.25
464.615	845.25
465.393	941.25
466.17	1036.25
466.947	1138.25
467.724	1297.25
468.501	1408.25
469.278	1562.25
470.055	1715.25
470.831	1900.25
471.608	2092.25
472.385	2286.25
473.161	2519.25
473.938	2764.25
474.714	3035.25
475.49	3300.25
476.266	3610.25
477.043	3988.25
477.819	4316.25
478.595	4690.25
479.371	5087.25
480.146	5558.25
480.922	6028.25
481.698	6592.25
482.473	7093.25
483.249	7658.25
484.024	8354.25
484.8	9026.25
485.575	9764.25
486.35	10539.25
487.126	11377.25
487.901	12283.25
488.676	13227.25
489.451	14313.25
490.225	15383.25
491	16513.25
491.775	17665.25
492.55	18951.25
493.324	20224.25
494.099	21527.25
494.873	22874.25
495.647	24363.25
496.422	25777.25
497.196	27173.25
497.97	28540.25
498.744	29920.25
499.518	31189.25
500.292	32441.25
501.066	33605.25
501.839	34706.25
502.613	35702.25
503.387	36449.25
504.16	37153.25
504.934	37687.25
505.707	38063.25
506.48	38186.25
507.253	38116.25
508.027	37836.25
508.8	37417.25
509.573	37000.25
510.346	36297.25
511.118	35442.25
511.891	34743.25
512.664	33827.25
513.437	32745.25
514.209	31586.25
514.982	30549.25
515.754	29449.25
516.526	28311.25
517.298	27202.25
518.071	26177.25
518.843	25073.25
519.615	24051.25
520.387	23203.25
521.159	22287.25
521.93	21406.25
522.702	20488.25
523.474	19724.25
524.245	18913.25
525.017	18200.25
525.788	17409.25
526.56	16741.25
527.331	15964.25
528.102	15314.25
528.873	14547.25
529.644	13903.25
530.415	13229.25
531.186	12665.25
531.957	11985.25
532.728	11406.25
533.498	10855.25
534.269	10242.25
535.039	9720.25
535.81	9218.25
536.58	8729.25
537.351	8298.25
538.121	7825.25
538.891	7462.25
539.661	7054.25
540.431	6680.25
541.201	6302.25
541.971	5981.25
542.741	5657.25
543.51	5348.25
544.28	5100.25
545.05	4840.25
545.819	4631.25
546.588	4372.25
547.358	4188.25
548.127	3965.25
548.896	3788.25
549.665	3596.25
550.434	3410.25
551.203	3234.25
551.972	3075.25
552.741	2930.25
553.51	2772.25
554.278	2578.25
555.047	2447.25
555.815	2330.25
556.584	2212.25
557.352	2093.25
558.121	1985.25
558.889	1858.25
559.657	1752.25
560.425	1658.25
561.193	1584.25
561.961	1478.25
562.729	1423.25
563.496	1348.25
564.264	1253.25
565.032	1189.25
565.799	1120.25
566.567	1069.25
567.334	1021.25
568.101	953.25
568.869	906.25
569.636	848.25
570.403	806.25
571.17	770.25
571.937	720.25
572.704	668.25
573.471	639.25
574.237	597.25
575.004	561.25
575.771	548.25
576.537	507.25
577.303	481.25
578.07	451.25
578.836	432.25
579.602	393.25
580.368	388.25
581.134	366.25
581.9	344.25
582.666	317.25
583.432	308.25
584.198	296.25
584.964	275.25
585.729	265.25
586.495	248.25
587.26	237.25
588.025	225.25
588.791	208.25
589.556	205.25
590.321	193.25
591.086	180.25
591.851	170.25
592.616	162.25
593.381	157.25
594.146	145.25
594.911	142.25
595.675	136.25
596.44	131.25
597.204	121.25
597.969	115.25
598.733	111.25
599.497	112.25
600.261	102.25
601.025	98.25
601.79	92.25
602.553	90.25
603.317	87.25
604.081	79.25
604.845	81.25
605.609	75.25
606.372	74.25
607.136	69.25
607.899	69.25
608.662	64.25
609.426	65.25
610.189	59.25
610.952	55.25
611.715	57.25
612.478	51.25
613.241	54.25
614.004	49.25
614.767	47.25
615.529	43.25
616.292	43.25
617.055	44.25
617.817	38.25
618.579	39.25
619.342	34.25
620.104	37.25
620.866	38.25
621.628	32.25
622.39	34.25
623.152	32.25
623.914	32.25
624.676	31.25
625.438	31.25
626.199	27.25
626.961	28.25
627.722	24.25
628.484	24.25
629.245	26.25
630.006	24.25
630.768	22.25
631.529	24.25
632.29	19.25
633.051	22.25
633.812	21.25
634.573	21.25
635.333	20.25
636.094	18.25
636.855	18.25
637.615	18.25
638.376	18.25
639.136	18.25
639.896	16.25
640.657	14.25
641.417	14.25
642.177	13.25
642.937	14.25
643.697	16.25
644.457	13.25
645.216	13.25
645.976	12.25
646.736	14.25
647.495	11.25
648.255	10.25
649.014	11.25
649.774	12.25
650.533	12.25
651.292	10.25
652.051	11.25
652.81	11.25
653.569	10.25
654.328	11.25
655.087	9.25
655.846	10.25
656.604	11.25
657.363	10.25
658.121	9.25
658.88	12.25
659.638	8.25
660.397	9.25
661.155	8.25
661.913	6.25
662.671	8.25
663.429	8.25
664.187	10.25
664.945	6.25
665.703	8.25
666.46	9.25
667.218	4.25
667.976	9.25
668.733	7.25
669.49	6.25
670.248	6.25
671.005	8.25
671.762	10.25
672.519	10.25
673.276	6.25
674.033	4.25
674.79	9.25
675.547	5.25
676.304	7.25
677.06	6.25
677.817	6.25
678.574	6.25
679.33	5.25
680.086	7.25
680.843	8.25
681.599	7.25
682.355	7.25
683.111	5.25
683.867	6.25
684.623	4.25
685.379	6.25
686.135	5.25
686.89	8.25
687.646	7.25
688.402	6.25
689.157	6.25
689.912	6.25
690.668	5.25
691.423	5.25
692.178	5.25
692.933	8.25
693.688	4.25
694.443	6.25
695.198	5.25
695.953	7.25
696.708	3.25
697.462	5.25
698.217	5.25
698.972	8.25
699.726	8.25
700.48	6.25
701.235	4.25
701.989	4.25
702.743	5.25
703.497	3.25
704.251	7.25
705.005	4.25
705.759	5.25
706.513	4.25
707.266	4.25
708.02	5.25
708.774	4.25
709.527	5.25
710.28	6.25
711.034	5.25
711.787	6.25
712.54	6.25
713.293	6.25
714.046	3.25
714.799	6.25
715.552	6.25
716.305	6.25
717.058	4.25
717.81	4.25
718.563	6.25
719.315	5.25
720.068	6.25
720.82	6.25
721.573	5.25
722.325	3.25
723.077	6.25
723.829	4.25
724.581	4.25
725.333	7.25
726.085	8.25
726.836	6.25
727.588	4.25
728.34	6.25
729.091	5.25
729.843	4.25
730.594	7.25
731.346	4.25
732.097	6.25
732.848	5.25
733.599	5.25
734.35	6.25
735.101	3.25
735.852	7.25
736.603	7.25
737.354	8.25
738.104	7.25
738.855	5.25
739.605	7.25
740.356	4.25
741.106	5.25
741.856	7.25
742.607	6.25
743.357	7.25
744.107	8.25
744.857	6.25
745.607	8.25
746.357	8.25
747.106	6.25
747.856	4.25
748.606	6.25
749.355	7.25
750.105	7.25
750.854	7.25
751.603	7.25
752.353	6.25
753.102	10.25
753.851	7.25
754.6	8.25
755.349	7.25
756.098	8.25
756.847	5.25
757.595	10.25
758.344	10.25
759.093	9.25
759.841	8.25
760.589	9.25
761.338	10.25
762.086	11.25
762.834	9.25
763.582	8.25
764.331	9.25
765.079	6.25
765.826	8.25
766.574	12.25
767.322	10.25
768.07	7.25
768.817	10.25
769.565	9.25
770.312	12.25
771.06	10.25
771.807	8.25
772.554	9.25
773.302	8.25
774.049	10.25
774.796	11.25
775.543	11.25
776.29	11.25
777.036	12.25
777.783	9.25
778.53	13.25
779.276	12.25
780.023	11.25
780.769	11.25
781.516	12.25
782.262	12.25
783.008	9.25
783.754	11.25
784.5	9.25
785.246	10.25
785.992	15.25
786.738	8.25
787.484	14.25
788.23	9.25
788.975	11.25
789.721	10.25
790.466	10.25
791.212	11.25
791.957	12.25
792.702	12.25
793.447	12.25
794.193	11.25
794.938	10.25
795.683	10.25
796.427	11.25
797.172	9.25
797.917	11.25
798.662	8.25
799.406	10.25
800.151	10.25
800.895	10.25
801.64	9.25
802.384	9.25
803.128	9.25
803.872	10.25
804.616	9.25
805.36	8.25
806.104	8.25
806.848	9.25
807.592	7.25
808.336	6.25
809.079	7.25
809.823	8.25
810.566	7.25
811.31	5.25
812.053	7.25
812.796	6.25
813.539	9.25
814.283	6.25
815.026	7.25
815.769	6.25
816.511	6.25
817.254	7.25
817.997	4.25
818.74	6.25
819.482	6.25
820.225	6.25
820.967	6.25
821.71	5.25
822.452	6.25
823.194	4.25
823.936	6.25
824.678	6.25
825.42	6.25
826.162	5.25
826.904	5.25
827.646	7.25
828.388	4.25
829.129	4.25
829.871	2.25
830.612	5.25
831.354	3.25
832.095	5.25
832.836	3.25
833.577	6.25
834.319	5.25
835.06	3.25
835.801	7.25
836.542	3.25
837.282	4.25
838.023	6.25
838.764	2.25
839.504	5.25
840.245	1.25
840.985	5.25
841.726	3.25
842.466	4.25
843.206	4.25
843.946	4.25
844.687	4.25
845.427	4.25
846.166	5.25
846.906	4.25
847.646	5.25
848.386	5.25
849.125	3.25
849.865	5.25
850.605	3.25
851.344	6.25
852.083	4.25
852.823	5.25
853.562	3.25
854.301	3.25
855.04	3.25
855.779	2.25
856.518	2.25
857.257	0.25
857.995	2.25
858.734	5.25
859.473	2.25
860.211	3.25
860.95	3.25
861.688	1.25
862.426	3.25
863.165	4.25
863.903	3.25
864.641	3.25
865.379	1.25
866.117	3.25
866.855	1.25
867.593	1.25
868.33	2.25
869.068	3.25
869.806	4.25
870.543	1.25
871.28	1.25
872.018	1.25
872.755	1.25
873.492	3.25
874.229	0.25
874.967	1.25
875.703	2.25
876.44	2.25
877.177	0.25
877.914	-1.75
878.651	1.25
879.387	0.25
880.124	1.25
880.86	0.25
881.597	1.25
882.333	0.25
883.069	1.25
883.806	0.25
884.542	0.25
885.278	1.25
886.014	2.25
886.749	-1.75
887.485	0.25
888.221	2.25
888.957	1.25
889.692	1.25
890.428	1.25
891.163	-1.75
891.899	-0.75
892.634	0.25
893.369	-1.75
894.104	1.25
894.839	0.25
895.574	0.25
896.309	0.25
897.044	2.25
897.779	0.25
898.514	1.25
899.248	0.25
899.983	1.25
900.717	1.25
901.452	1.25
902.186	-0.75
902.92	0.25
903.654	-0.75
904.389	-2.75
905.123	0.25
905.857	1.25
906.59	1.25
907.324	-1.75
908.058	0.25
908.792	1.25
909.525	1.25
910.259	0.25
910.992	1.25
911.726	-2.75
912.459	1.25
913.192	1.25
913.925	-0.75
914.658	-0.75
915.391	0.25
916.124	1.25
916.857	-0.75
917.59	-1.75
918.323	0.25
919.055	1.25
919.788	-0.75
920.521	0.25
921.253	0.25
921.985	-0.75
922.718	-1.75
923.45	0.25
924.182	0.25
924.914	0.25
925.646	-2.75
926.378	1.25
927.11	-2.75
927.841	-1.75
928.573	-0.75
929.305	0.25
930.036	0.25
930.768	0.25
931.499	0.25
932.23	1.25
932.962	0.25
933.693	2.25
934.424	-0.75
935.155	-0.75
935.886	0.25
936.617	1.25
937.348	-1.75
938.078	0.25
938.809	0.25
939.54	-0.75
940.27	0.25
941.001	0.25
941.731	-0.75
942.461	-1.75
943.191	3.25
943.922	0.25
944.652	-0.75
945.382	-0.75
946.112	0.25
946.841	1.25
947.571	-3.75
948.301	0.25
949.031	0.25
949.76	1.25
950.49	0.25
951.219	-2.75
951.948	-3.75
952.678	-2.75
953.407	3.25
954.136	0.25
954.865	0.25
955.594	2.25
956.323	-0.75
957.052	0.25
957.78	-2.75
958.509	-0.75
959.238	0.25
959.966	0.25
960.695	-1.75
961.423	-1.75
962.151	-1.75
962.88	1.25
963.608	0.25
964.336	-0.75
965.064	-0.75
965.792	0.25
966.52	-0.75
967.247	1.25
967.975	0.25
968.703	-0.75
969.43	1.25
970.158	-1.75
970.885	-1.75
971.613	-0.75
972.34	-0.75
973.067	-1.75
973.794	-1.75
974.521	0.25
975.248	0.25
975.975	1.25
976.702	0.25
977.429	-1.75
978.156	0.25
978.882	1.25
979.609	-1.75
980.335	2.25
981.062	0.25
981.788	1.25
982.514	-0.75
983.24	0.25
983.967	2.25
984.693	-2.75
985.419	-1.75
986.144	-0.75
986.87	-2.75
987.596	-2.75
988.322	0.25
989.047	-0.75
989.773	-0.75
990.498	0.25
991.224	1.25
991.949	-0.75
992.674	0.25
993.399	0.25
994.124	-4.75
994.849	-0.75
995.574	0.25
996.299	-0.75
997.024	1.25
997.749	-1.75
998.473	2.25
999.198	0.25
999.922	-0.75
1000.647	0.25
1001.371	3.25
1002.095	-1.75
1002.82	-0.75
1003.544	-0.75
1004.268	2.25
1004.992	1.25
1005.716	4.25
1006.439	1.25
1007.163	3.25
1007.887	1.25
1008.611	2.25
1009.334	0.25
1010.058	0.25
1010.781	-0.75
1011.504	-0.75
1012.228	-0.75
1012.951	0.25
1013.674	-0.75
1014.397	1.25
1015.12	-0.75
