节点500_565_QEPB04081__137__09-52-42-927.txt的数据

Date: Thu Nov 13 09:52:42 CST 2025
User: PC
Spectrometer: QEPB0408
触发模式: 0
积分时间 (秒): 1.000000E-2
Scans to average: 1
启用暗噪声校正: true
启用非线性校正: false
滑动平均宽度: 0
X轴模式: Wavelengths
Number of Pixels in Spectrum: 1044
>>>>>Begin Spectral Data<<<<<
220.843	5.25
221.644	4.25
222.444	2.25
223.244	5.25
224.045	5.25
224.845	5.25
225.645	5.25
226.445	3.25
227.245	7.25
228.045	7.25
228.845	6.25
229.645	7.25
230.444	7.25
231.244	5.25
232.043	7.25
232.843	8.25
233.642	7.25
234.442	6.25
235.241	10.25
236.04	9.25
236.839	9.25
237.638	8.25
238.437	9.25
239.236	8.25
240.035	11.25
240.833	10.25
241.632	11.25
242.43	13.25
243.229	10.25
244.027	14.25
244.826	13.25
245.624	12.25
246.422	11.25
247.22	13.25
248.018	14.25
248.816	10.25
249.614	11.25
250.412	13.25
251.21	13.25
252.007	16.25
252.805	13.25
253.602	16.25
254.4	14.25
255.197	17.25
255.994	15.25
256.791	19.25
257.589	18.25
258.386	18.25
259.183	19.25
259.979	19.25
260.776	19.25
261.573	21.25
262.37	23.25
263.166	21.25
263.963	19.25
264.759	25.25
265.556	19.25
266.352	25.25
267.148	23.25
267.944	26.25
268.74	25.25
269.536	24.25
270.332	27.25
271.128	25.25
271.924	27.25
272.719	28.25
273.515	28.25
274.311	26.25
275.106	33.25
275.901	30.25
276.697	28.25
277.492	27.25
278.287	29.25
279.082	31.25
279.877	30.25
280.672	34.25
281.467	30.25
282.262	29.25
283.056	34.25
283.851	31.25
284.646	29.25
285.44	29.25
286.234	31.25
287.029	28.25
287.823	32.25
288.617	29.25
289.411	27.25
290.205	29.25
290.999	28.25
291.793	30.25
292.587	27.25
293.381	27.25
294.174	25.25
294.968	24.25
295.761	24.25
296.555	23.25
297.348	22.25
298.141	24.25
298.935	26.25
299.728	23.25
300.521	23.25
301.314	23.25
302.107	19.25
302.899	19.25
303.692	20.25
304.485	21.25
305.277	19.25
306.07	17.25
306.862	21.25
307.655	20.25
308.447	20.25
309.239	21.25
310.031	19.25
310.823	16.25
311.615	14.25
312.407	18.25
313.199	15.25
313.991	15.25
314.783	15.25
315.574	15.25
316.366	14.25
317.157	14.25
317.949	15.25
318.74	14.25
319.531	13.25
320.322	14.25
321.113	12.25
321.904	13.25
322.695	13.25
323.486	15.25
324.277	13.25
325.068	14.25
325.858	12.25
326.649	11.25
327.439	11.25
328.23	12.25
329.02	13.25
329.81	9.25
330.6	12.25
331.391	9.25
332.181	11.25
332.971	11.25
333.76	11.25
334.55	13.25
335.34	10.25
336.13	12.25
336.919	12.25
337.709	9.25
338.498	11.25
339.287	11.25
340.077	8.25
340.866	11.25
341.655	11.25
342.444	10.25
343.233	11.25
344.022	9.25
344.811	12.25
345.6	9.25
346.388	9.25
347.177	11.25
347.965	10.25
348.754	11.25
349.542	10.25
350.33	10.25
351.119	9.25
351.907	11.25
352.695	10.25
353.483	10.25
354.271	9.25
355.059	9.25
355.846	9.25
356.634	8.25
357.422	11.25
358.209	11.25
358.997	9.25
359.784	11.25
360.571	10.25
361.359	6.25
362.146	9.25
362.933	10.25
363.72	9.25
364.507	5.25
365.294	9.25
366.081	8.25
366.867	7.25
367.654	11.25
368.44	7.25
369.227	9.25
370.013	8.25
370.8	8.25
371.586	10.25
372.372	11.25
373.158	9.25
373.944	7.25
374.73	9.25
375.516	12.25
376.302	8.25
377.088	7.25
377.873	8.25
378.659	10.25
379.445	9.25
380.23	8.25
381.015	6.25
381.801	10.25
382.586	10.25
383.371	10.25
384.156	9.25
384.941	9.25
385.726	8.25
386.511	8.25
387.296	11.25
388.08	13.25
388.865	11.25
389.649	10.25
390.434	11.25
391.218	10.25
392.003	13.25
392.787	11.25
393.571	10.25
394.355	12.25
395.139	10.25
395.923	12.25
396.707	10.25
397.491	12.25
398.274	12.25
399.058	11.25
399.842	13.25
400.625	14.25
401.408	13.25
402.192	16.25
402.975	12.25
403.758	13.25
404.541	13.25
405.324	13.25
406.107	14.25
406.89	13.25
407.673	14.25
408.456	14.25
409.238	14.25
410.021	15.25
410.803	16.25
411.586	17.25
412.368	14.25
413.151	15.25
413.933	15.25
414.715	16.25
415.497	14.25
416.279	14.25
417.061	17.25
417.843	17.25
418.624	18.25
419.406	17.25
420.188	20.25
420.969	18.25
421.751	18.25
422.532	18.25
423.313	20.25
424.095	22.25
424.876	23.25
425.657	21.25
426.438	24.25
427.219	22.25
428	26.25
428.78	22.25
429.561	26.25
430.342	25.25
431.122	24.25
431.903	28.25
432.683	28.25
433.464	30.25
434.244	31.25
435.024	32.25
435.804	37.25
436.584	34.25
437.364	36.25
438.144	37.25
438.924	41.25
439.704	39.25
440.483	44.25
441.263	46.25
442.042	49.25
442.822	51.25
443.601	56.25
444.38	61.25
445.16	69.25
445.939	73.25
446.718	79.25
447.497	80.25
448.276	88.25
449.054	99.25
449.833	106.25
450.612	114.25
451.391	125.25
452.169	138.25
452.948	158.25
453.726	176.25
454.504	186.25
455.282	211.25
456.061	229.25
456.839	260.25
457.617	285.25
458.395	319.25
459.172	357.25
459.95	397.25
460.728	452.25
461.506	499.25
462.283	562.25
463.061	615.25
463.838	695.25
464.615	782.25
465.393	856.25
466.17	965.25
466.947	1081.25
467.724	1206.25
468.501	1351.25
469.278	1486.25
470.055	1640.25
470.831	1842.25
471.608	2044.25
472.385	2252.25
473.161	2512.25
473.938	2778.25
474.714	3052.25
475.49	3374.25
476.266	3721.25
477.043	4124.25
477.819	4541.25
478.595	4993.25
479.371	5486.25
480.146	6003.25
480.922	6608.25
481.698	7239.25
482.473	7928.25
483.249	8614.25
484.024	9419.25
484.8	10368.25
485.575	11322.25
486.35	12273.25
487.126	13416.25
487.901	14634.25
488.676	15877.25
489.451	17272.25
490.225	18698.25
491	20123.25
491.775	21736.25
492.55	23289.25
493.324	24946.25
494.099	26625.25
494.873	28364.25
495.647	30203.25
496.422	31962.25
497.196	33624.25
497.97	35314.25
498.744	36816.25
499.518	38218.25
500.292	39362.25
501.066	40637.25
501.839	41645.25
502.613	42393.25
503.387	42841.25
504.16	43363.25
504.934	43318.25
505.707	43237.25
506.48	42904.25
507.253	42412.25
508.027	41510.25
508.8	40497.25
509.573	39419.25
510.346	38240.25
511.118	37052.25
511.891	35806.25
512.664	34514.25
513.437	33132.25
514.209	31681.25
514.982	30429.25
515.754	29195.25
516.526	27962.25
517.298	26693.25
518.071	25630.25
518.843	24604.25
519.615	23498.25
520.387	22677.25
521.159	21786.25
521.93	20902.25
522.702	19972.25
523.474	19161.25
524.245	18375.25
525.017	17626.25
525.788	16800.25
526.56	15985.25
527.331	15293.25
528.102	14509.25
528.873	13803.25
529.644	13122.25
530.415	12444.25
531.186	11757.25
531.957	11154.25
532.728	10617.25
533.498	10038.25
534.269	9479.25
535.039	8879.25
535.81	8460.25
536.58	8010.25
537.351	7589.25
538.121	7158.25
538.891	6747.25
539.661	6409.25
540.431	6062.25
541.201	5726.25
541.971	5436.25
542.741	5139.25
543.51	4889.25
544.28	4647.25
545.05	4423.25
545.819	4185.25
546.588	4017.25
547.358	3789.25
548.127	3596.25
548.896	3417.25
549.665	3265.25
550.434	3089.25
551.203	2921.25
551.972	2763.25
552.741	2615.25
553.51	2461.25
554.278	2328.25
555.047	2192.25
555.815	2077.25
556.584	1962.25
557.352	1858.25
558.121	1742.25
558.889	1638.25
559.657	1563.25
560.425	1473.25
561.193	1371.25
561.961	1301.25
562.729	1247.25
563.496	1180.25
564.264	1108.25
565.032	1048.25
565.799	1005.25
566.567	935.25
567.334	898.25
568.101	846.25
568.869	797.25
569.636	747.25
570.403	717.25
571.17	679.25
571.937	636.25
572.704	607.25
573.471	560.25
574.237	533.25
575.004	505.25
575.771	486.25
576.537	449.25
577.303	421.25
578.07	391.25
578.836	381.25
579.602	355.25
580.368	334.25
581.134	321.25
581.9	305.25
582.666	281.25
583.432	271.25
584.198	257.25
584.964	251.25
585.729	233.25
586.495	217.25
587.26	209.25
588.025	200.25
588.791	189.25
589.556	180.25
590.321	165.25
591.086	163.25
591.851	153.25
592.616	144.25
593.381	141.25
594.146	131.25
594.911	130.25
595.675	123.25
596.44	119.25
597.204	113.25
597.969	107.25
598.733	101.25
599.497	100.25
600.261	87.25
601.025	87.25
601.79	85.25
602.553	82.25
603.317	77.25
604.081	77.25
604.845	73.25
605.609	70.25
606.372	67.25
607.136	64.25
607.899	63.25
608.662	62.25
609.426	56.25
610.189	55.25
610.952	52.25
611.715	49.25
612.478	50.25
613.241	47.25
614.004	45.25
614.767	43.25
615.529	47.25
616.292	43.25
617.055	42.25
617.817	37.25
618.579	35.25
619.342	36.25
620.104	34.25
620.866	36.25
621.628	33.25
622.39	30.25
623.152	33.25
623.914	31.25
624.676	33.25
625.438	29.25
626.199	29.25
626.961	26.25
627.722	28.25
628.484	24.25
629.245	24.25
630.006	25.25
630.768	22.25
631.529	22.25
632.29	21.25
633.051	18.25
633.812	20.25
634.573	20.25
635.333	21.25
636.094	18.25
636.855	21.25
637.615	20.25
638.376	21.25
639.136	14.25
639.896	17.25
640.657	17.25
641.417	14.25
642.177	18.25
642.937	15.25
643.697	17.25
644.457	15.25
645.216	14.25
645.976	16.25
646.736	15.25
647.495	14.25
648.255	11.25
649.014	14.25
649.774	13.25
650.533	13.25
651.292	13.25
652.051	11.25
652.81	11.25
653.569	12.25
654.328	10.25
655.087	13.25
655.846	13.25
656.604	13.25
657.363	11.25
658.121	10.25
658.88	9.25
659.638	9.25
660.397	9.25
661.155	7.25
661.913	9.25
662.671	8.25
663.429	11.25
664.187	10.25
664.945	10.25
665.703	8.25
666.46	9.25
667.218	8.25
667.976	8.25
668.733	10.25
669.49	7.25
670.248	10.25
671.005	11.25
671.762	9.25
672.519	11.25
673.276	8.25
674.033	7.25
674.79	6.25
675.547	9.25
676.304	7.25
677.06	7.25
677.817	8.25
678.574	10.25
679.33	7.25
680.086	5.25
680.843	7.25
681.599	9.25
682.355	7.25
683.111	6.25
683.867	7.25
684.623	8.25
685.379	4.25
686.135	6.25
686.89	5.25
687.646	7.25
688.402	7.25
689.157	5.25
689.912	7.25
690.668	7.25
691.423	7.25
692.178	7.25
692.933	6.25
693.688	8.25
694.443	6.25
695.198	9.25
695.953	4.25
696.708	8.25
697.462	6.25
698.217	6.25
698.972	7.25
699.726	5.25
700.48	7.25
701.235	5.25
701.989	6.25
702.743	5.25
703.497	7.25
704.251	7.25
705.005	8.25
705.759	9.25
706.513	8.25
707.266	7.25
708.02	6.25
708.774	7.25
709.527	5.25
710.28	9.25
711.034	9.25
711.787	8.25
712.54	8.25
713.293	8.25
714.046	7.25
714.799	4.25
715.552	7.25
716.305	8.25
717.058	6.25
717.81	7.25
718.563	5.25
719.315	7.25
720.068	9.25
720.82	7.25
721.573	8.25
722.325	6.25
723.077	6.25
723.829	5.25
724.581	7.25
725.333	5.25
726.085	7.25
726.836	8.25
727.588	7.25
728.34	7.25
729.091	8.25
729.843	8.25
730.594	6.25
731.346	6.25
732.097	9.25
732.848	9.25
733.599	9.25
734.35	7.25
735.101	8.25
735.852	7.25
736.603	8.25
737.354	8.25
738.104	7.25
738.855	9.25
739.605	10.25
740.356	9.25
741.106	10.25
741.856	8.25
742.607	12.25
743.357	10.25
744.107	12.25
744.857	11.25
745.607	9.25
746.357	9.25
747.106	9.25
747.856	8.25
748.606	10.25
749.355	9.25
750.105	11.25
750.854	13.25
751.603	10.25
752.353	9.25
753.102	10.25
753.851	9.25
754.6	10.25
755.349	8.25
756.098	8.25
756.847	13.25
757.595	12.25
758.344	9.25
759.093	11.25
759.841	11.25
760.589	13.25
761.338	10.25
762.086	12.25
762.834	12.25
763.582	11.25
764.331	12.25
765.079	13.25
765.826	13.25
766.574	13.25
767.322	13.25
768.07	11.25
768.817	12.25
769.565	15.25
770.312	14.25
771.06	12.25
771.807	14.25
772.554	12.25
773.302	13.25
774.049	13.25
774.796	13.25
775.543	14.25
776.29	14.25
777.036	14.25
777.783	15.25
778.53	16.25
779.276	11.25
780.023	15.25
780.769	14.25
781.516	15.25
782.262	17.25
783.008	14.25
783.754	15.25
784.5	13.25
785.246	14.25
785.992	15.25
786.738	14.25
787.484	16.25
788.23	15.25
788.975	16.25
789.721	12.25
790.466	13.25
791.212	13.25
791.957	15.25
792.702	15.25
793.447	13.25
794.193	13.25
794.938	13.25
795.683	12.25
796.427	11.25
797.172	9.25
797.917	9.25
798.662	11.25
799.406	12.25
800.151	13.25
800.895	11.25
801.64	13.25
802.384	13.25
803.128	12.25
803.872	10.25
804.616	8.25
805.36	9.25
806.104	11.25
806.848	7.25
807.592	8.25
808.336	11.25
809.079	7.25
809.823	7.25
810.566	10.25
811.31	10.25
812.053	6.25
812.796	8.25
813.539	8.25
814.283	8.25
815.026	7.25
815.769	7.25
816.511	8.25
817.254	6.25
817.997	7.25
818.74	7.25
819.482	5.25
820.225	9.25
820.967	9.25
821.71	6.25
822.452	7.25
823.194	4.25
823.936	9.25
824.678	9.25
825.42	9.25
826.162	8.25
826.904	6.25
827.646	5.25
828.388	6.25
829.129	6.25
829.871	9.25
830.612	3.25
831.354	6.25
832.095	4.25
832.836	7.25
833.577	6.25
834.319	6.25
835.06	5.25
835.801	7.25
836.542	5.25
837.282	7.25
838.023	5.25
838.764	5.25
839.504	5.25
840.245	4.25
840.985	4.25
841.726	6.25
842.466	4.25
843.206	7.25
843.946	5.25
844.687	7.25
845.427	7.25
846.166	5.25
846.906	5.25
847.646	3.25
848.386	4.25
849.125	6.25
849.865	6.25
850.605	6.25
851.344	5.25
852.083	5.25
852.823	5.25
853.562	5.25
854.301	4.25
855.04	5.25
855.779	2.25
856.518	5.25
857.257	5.25
857.995	4.25
858.734	5.25
859.473	4.25
860.211	2.25
860.95	5.25
861.688	4.25
862.426	5.25
863.165	1.25
863.903	2.25
864.641	2.25
865.379	2.25
866.117	3.25
866.855	4.25
867.593	3.25
868.33	2.25
869.068	1.25
869.806	2.25
870.543	2.25
871.28	3.25
872.018	3.25
872.755	2.25
873.492	3.25
874.229	3.25
874.967	2.25
875.703	4.25
876.44	4.25
877.177	2.25
877.914	4.25
878.651	2.25
879.387	0.25
880.124	4.25
880.86	3.25
881.597	1.25
882.333	3.25
883.069	1.25
883.806	2.25
884.542	2.25
885.278	0.25
886.014	2.25
886.749	1.25
887.485	3.25
888.221	1.25
888.957	3.25
889.692	3.25
890.428	0.25
891.163	2.25
891.899	0.25
892.634	3.25
893.369	2.25
894.104	1.25
894.839	0.25
895.574	1.25
896.309	1.25
897.044	2.25
897.779	1.25
898.514	0.25
899.248	3.25
899.983	0.25
900.717	0.25
901.452	1.25
902.186	1.25
902.92	1.25
903.654	1.25
904.389	1.25
905.123	1.25
905.857	2.25
906.59	0.25
907.324	2.25
908.058	4.25
908.792	1.25
909.525	1.25
910.259	-0.75
910.992	1.25
911.726	0.25
912.459	0.25
913.192	2.25
913.925	2.25
914.658	2.25
915.391	2.25
916.124	3.25
916.857	0.25
917.59	2.25
918.323	1.25
919.055	2.25
919.788	2.25
920.521	1.25
921.253	0.25
921.985	3.25
922.718	1.25
923.45	-0.75
924.182	1.25
924.914	0.25
925.646	1.25
926.378	3.25
927.11	2.25
927.841	2.25
928.573	-0.75
929.305	-0.75
930.036	1.25
930.768	3.25
931.499	0.25
932.23	-1.75
932.962	2.25
933.693	1.25
934.424	-1.75
935.155	1.25
935.886	2.25
936.617	2.25
937.348	0.25
938.078	1.25
938.809	1.25
939.54	-0.75
940.27	2.25
941.001	0.25
941.731	-0.75
942.461	0.25
943.191	0.25
943.922	2.25
944.652	-0.75
945.382	1.25
946.112	2.25
946.841	1.25
947.571	0.25
948.301	0.25
949.031	0.25
949.76	-1.75
950.49	-0.75
951.219	1.25
951.948	1.25
952.678	0.25
953.407	1.25
954.136	1.25
954.865	1.25
955.594	1.25
956.323	1.25
957.052	2.25
957.78	2.25
958.509	1.25
959.238	0.25
959.966	0.25
960.695	-0.75
961.423	1.25
962.151	1.25
962.88	1.25
963.608	3.25
964.336	1.25
965.064	0.25
965.792	1.25
966.52	0.25
967.247	1.25
967.975	2.25
968.703	1.25
969.43	0.25
970.158	1.25
970.885	-0.75
971.613	2.25
972.34	1.25
973.067	0.25
973.794	1.25
974.521	1.25
975.248	1.25
975.975	1.25
976.702	1.25
977.429	4.25
978.156	2.25
978.882	5.25
979.609	3.25
980.335	1.25
981.062	-0.75
981.788	3.25
982.514	1.25
983.24	1.25
983.967	2.25
984.693	0.25
985.419	0.25
986.144	0.25
986.87	1.25
987.596	-0.75
988.322	0.25
989.047	0.25
989.773	1.25
990.498	2.25
991.224	2.25
991.949	0.25
992.674	3.25
993.399	1.25
994.124	1.25
994.849	1.25
995.574	1.25
996.299	-0.75
997.024	1.25
997.749	2.25
998.473	-0.75
999.198	-0.75
999.922	1.25
1000.647	1.25
1001.371	3.25
1002.095	-2.75
1002.82	-0.75
1003.544	-0.75
1004.268	5.25
1004.992	4.25
1005.716	4.25
1006.439	5.25
1007.163	6.25
1007.887	5.25
1008.611	-0.75
1009.334	1.25
1010.058	1.25
1010.781	0.25
1011.504	2.25
1012.228	1.25
1012.951	3.25
1013.674	-3.75
1014.397	1.25
1015.12	0.25
