节点500_565_QEPB04081__617__10-00-40-983.txt的数据

Date: Thu Nov 13 10:00:40 CST 2025
User: PC
Spectrometer: QEPB0408
触发模式: 0
积分时间 (秒): 1.000000E-2
Scans to average: 1
启用暗噪声校正: true
启用非线性校正: false
滑动平均宽度: 0
X轴模式: Wavelengths
Number of Pixels in Spectrum: 1044
>>>>>Begin Spectral Data<<<<<
220.843	5
221.644	7
222.444	4
223.244	8
224.045	5
224.845	6
225.645	5
226.445	3
227.245	6
228.045	5
228.845	6
229.645	7
230.444	7
231.244	6
232.043	4
232.843	10
233.642	7
234.442	7
235.241	6
236.04	7
236.839	10
237.638	9
238.437	6
239.236	7
240.035	9
240.833	5
241.632	7
242.43	9
243.229	10
244.027	9
244.826	11
245.624	10
246.422	8
247.22	12
248.018	10
248.816	12
249.614	11
250.412	11
251.21	12
252.007	9
252.805	12
253.602	14
254.4	14
255.197	14
255.994	12
256.791	15
257.589	14
258.386	16
259.183	13
259.979	17
260.776	14
261.573	15
262.37	17
263.166	17
263.963	18
264.759	18
265.556	17
266.352	20
267.148	23
267.944	20
268.74	19
269.536	20
270.332	23
271.128	25
271.924	25
272.719	24
273.515	26
274.311	22
275.106	23
275.901	27
276.697	25
277.492	25
278.287	23
279.082	25
279.877	26
280.672	28
281.467	26
282.262	29
283.056	29
283.851	26
284.646	24
285.44	26
286.234	28
287.029	25
287.823	29
288.617	26
289.411	26
290.205	24
290.999	25
291.793	27
292.587	23
293.381	24
294.174	26
294.968	22
295.761	24
296.555	19
297.348	23
298.141	20
298.935	26
299.728	20
300.521	23
301.314	21
302.107	18
302.899	20
303.692	18
304.485	21
305.277	22
306.07	20
306.862	16
307.655	18
308.447	21
309.239	15
310.031	19
310.823	16
311.615	15
312.407	17
313.199	13
313.991	13
314.783	13
315.574	12
316.366	16
317.157	12
317.949	12
318.74	13
319.531	12
320.322	12
321.113	13
321.904	9
322.695	13
323.486	14
324.277	15
325.068	11
325.858	10
326.649	11
327.439	10
328.23	10
329.02	10
329.81	11
330.6	12
331.391	9
332.181	12
332.971	11
333.76	11
334.55	11
335.34	10
336.13	10
336.919	9
337.709	7
338.498	10
339.287	11
340.077	11
340.866	9
341.655	11
342.444	9
343.233	13
344.022	8
344.811	8
345.6	12
346.388	12
347.177	9
347.965	9
348.754	11
349.542	8
350.33	9
351.119	9
351.907	9
352.695	10
353.483	9
354.271	9
355.059	8
355.846	11
356.634	9
357.422	9
358.209	10
358.997	8
359.784	7
360.571	8
361.359	9
362.146	8
362.933	9
363.72	10
364.507	8
365.294	10
366.081	10
366.867	8
367.654	11
368.44	8
369.227	9
370.013	9
370.8	10
371.586	7
372.372	9
373.158	8
373.944	7
374.73	7
375.516	5
376.302	8
377.088	7
377.873	8
378.659	9
379.445	8
380.23	9
381.015	7
381.801	8
382.586	7
383.371	8
384.156	7
384.941	10
385.726	9
386.511	7
387.296	7
388.08	6
388.865	10
389.649	8
390.434	10
391.218	9
392.003	8
392.787	11
393.571	9
394.355	8
395.139	9
395.923	12
396.707	9
397.491	10
398.274	11
399.058	10
399.842	14
400.625	11
401.408	11
402.192	11
402.975	8
403.758	11
404.541	11
405.324	11
406.107	14
406.89	12
407.673	13
408.456	13
409.238	13
410.021	13
410.803	14
411.586	13
412.368	13
413.151	14
413.933	14
414.715	17
415.497	15
416.279	13
417.061	14
417.843	14
418.624	14
419.406	18
420.188	16
420.969	17
421.751	17
422.532	15
423.313	19
424.095	18
424.876	19
425.657	20
426.438	21
427.219	17
428	23
428.78	24
429.561	22
430.342	24
431.122	27
431.903	27
432.683	28
433.464	31
434.244	31
435.024	33
435.804	35
436.584	36
437.364	36
438.144	39
438.924	43
439.704	43
440.483	44
441.263	50
442.042	51
442.822	53
443.601	61
444.38	66
445.16	69
445.939	74
446.718	86
447.497	87
448.276	99
449.054	108
449.833	117
450.612	135
451.391	143
452.169	158
452.948	178
453.726	194
454.504	216
455.282	238
456.061	266
456.839	294
457.617	324
458.395	366
459.172	405
459.95	453
460.728	505
461.506	569
462.283	615
463.061	694
463.838	761
464.615	855
465.393	937
466.17	1045
466.947	1168
467.724	1283
468.501	1415
469.278	1551
470.055	1730
470.831	1892
471.608	2085
472.385	2296
473.161	2517
473.938	2767
474.714	3033
475.49	3316
476.266	3623
477.043	3981
477.819	4306
478.595	4690
479.371	5109
480.146	5577
480.922	6051
481.698	6534
482.473	7095
483.249	7682
484.024	8287
484.8	9019
485.575	9786
486.35	10536
487.126	11407
487.901	12307
488.676	13209
489.451	14318
490.225	15437
491	16481
491.775	17677
492.55	18901
493.324	20238
494.099	21532
494.873	22938
495.647	24355
496.422	25767
497.196	27167
497.97	28528
498.744	29987
499.518	31245
500.292	32439
501.066	33747
501.839	34717
502.613	35698
503.387	36449
504.16	37149
504.934	37668
505.707	38054
506.48	38205
507.253	38177
508.027	37948
508.8	37410
509.573	36956
510.346	36336
511.118	35524
511.891	34739
512.664	33779
513.437	32752
514.209	31615
514.982	30582
515.754	29471
516.526	28353
517.298	27204
518.071	26189
518.843	25066
519.615	24116
520.387	23167
521.159	22249
521.93	21429
522.702	20534
523.474	19692
524.245	18885
525.017	18156
525.788	17447
526.56	16689
527.331	16007
528.102	15308
528.873	14589
529.644	13877
530.415	13230
531.186	12582
531.957	11998
532.728	11376
533.498	10822
534.269	10254
535.039	9705
535.81	9232
536.58	8734
537.351	8271
538.121	7843
538.891	7442
539.661	7073
540.431	6670
541.201	6290
541.971	5995
542.741	5674
543.51	5354
544.28	5099
545.05	4842
545.819	4600
546.588	4395
547.358	4177
548.127	3981
548.896	3790
549.665	3613
550.434	3420
551.203	3244
551.972	3073
552.741	2917
553.51	2760
554.278	2612
555.047	2449
555.815	2339
556.584	2211
557.352	2088
558.121	1977
558.889	1866
559.657	1747
560.425	1662
561.193	1596
561.961	1499
562.729	1414
563.496	1325
564.264	1265
565.032	1204
565.799	1134
566.567	1061
567.334	1014
568.101	955
568.869	903
569.636	851
570.403	810
571.17	759
571.937	727
572.704	685
573.471	638
574.237	595
575.004	578
575.771	539
576.537	504
577.303	483
578.07	450
578.836	426
579.602	397
580.368	389
581.134	361
581.9	347
582.666	326
583.432	308
584.198	297
584.964	281
585.729	259
586.495	256
587.26	237
588.025	228
588.791	213
589.556	198
590.321	190
591.086	184
591.851	176
592.616	156
593.381	154
594.146	149
594.911	140
595.675	136
596.44	129
597.204	124
597.969	122
598.733	111
599.497	114
600.261	101
601.025	97
601.79	93
602.553	89
603.317	86
604.081	84
604.845	82
605.609	80
606.372	69
607.136	68
607.899	71
608.662	64
609.426	60
610.189	63
610.952	57
611.715	58
612.478	52
613.241	53
614.004	48
614.767	46
615.529	49
616.292	44
617.055	45
617.817	41
618.579	42
619.342	37
620.104	39
620.866	36
621.628	36
622.39	35
623.152	33
623.914	32
624.676	31
625.438	31
626.199	27
626.961	28
627.722	27
628.484	26
629.245	27
630.006	26
630.768	21
631.529	25
632.29	22
633.051	25
633.812	21
634.573	21
635.333	20
636.094	19
636.855	18
637.615	17
638.376	18
639.136	18
639.896	16
640.657	17
641.417	17
642.177	16
642.937	17
643.697	16
644.457	16
645.216	16
645.976	11
646.736	15
647.495	12
648.255	13
649.014	13
649.774	13
650.533	13
651.292	11
652.051	12
652.81	11
653.569	11
654.328	14
655.087	11
655.846	10
656.604	9
657.363	10
658.121	12
658.88	9
659.638	8
660.397	11
661.155	11
661.913	11
662.671	9
663.429	8
664.187	9
664.945	8
665.703	9
666.46	11
667.218	8
667.976	10
668.733	7
669.49	8
670.248	8
671.005	9
671.762	5
672.519	9
673.276	7
674.033	8
674.79	9
675.547	9
676.304	5
677.06	9
677.817	6
678.574	5
679.33	7
680.086	8
680.843	7
681.599	6
682.355	7
683.111	5
683.867	7
684.623	6
685.379	8
686.135	5
686.89	7
687.646	7
688.402	7
689.157	6
689.912	6
690.668	7
691.423	4
692.178	6
692.933	6
693.688	7
694.443	6
695.198	6
695.953	9
696.708	7
697.462	8
698.217	6
698.972	5
699.726	4
700.48	6
701.235	5
701.989	5
702.743	6
703.497	8
704.251	6
705.005	7
705.759	7
706.513	6
707.266	6
708.02	6
708.774	5
709.527	8
710.28	2
711.034	7
711.787	6
712.54	5
713.293	4
714.046	7
714.799	6
715.552	7
716.305	5
717.058	9
717.81	5
718.563	7
719.315	6
720.068	6
720.82	7
721.573	5
722.325	7
723.077	5
723.829	7
724.581	8
725.333	5
726.085	4
726.836	7
727.588	7
728.34	6
729.091	6
729.843	7
730.594	7
731.346	7
732.097	6
732.848	7
733.599	6
734.35	7
735.101	7
735.852	6
736.603	8
737.354	6
738.104	8
738.855	7
739.605	6
740.356	7
741.106	7
741.856	8
742.607	8
743.357	8
744.107	8
744.857	8
745.607	7
746.357	7
747.106	7
747.856	7
748.606	9
749.355	9
750.105	9
750.854	8
751.603	8
752.353	9
753.102	9
753.851	10
754.6	7
755.349	12
756.098	9
756.847	9
757.595	11
758.344	8
759.093	7
759.841	9
760.589	11
761.338	8
762.086	8
762.834	11
763.582	10
764.331	11
765.079	9
765.826	10
766.574	12
767.322	11
768.07	8
768.817	12
769.565	12
770.312	9
771.06	11
771.807	12
772.554	12
773.302	10
774.049	11
774.796	12
775.543	14
776.29	11
777.036	11
777.783	12
778.53	13
779.276	16
780.023	10
780.769	10
781.516	12
782.262	10
783.008	14
783.754	13
784.5	13
785.246	11
785.992	13
786.738	10
787.484	12
788.23	13
788.975	11
789.721	12
790.466	12
791.212	15
791.957	15
792.702	13
793.447	12
794.193	10
794.938	11
795.683	10
796.427	10
797.172	12
797.917	11
798.662	9
799.406	11
800.151	12
800.895	12
801.64	10
802.384	9
803.128	10
803.872	11
804.616	8
805.36	11
806.104	10
806.848	10
807.592	11
808.336	9
809.079	5
809.823	7
810.566	8
811.31	7
812.053	11
812.796	7
813.539	9
814.283	7
815.026	8
815.769	7
816.511	7
817.254	4
817.997	8
818.74	8
819.482	6
820.225	8
820.967	9
821.71	7
822.452	8
823.194	6
823.936	8
824.678	6
825.42	5
826.162	6
826.904	4
827.646	7
828.388	5
829.129	7
829.871	3
830.612	6
831.354	5
832.095	7
832.836	5
833.577	6
834.319	6
835.06	7
835.801	7
836.542	5
837.282	6
838.023	6
838.764	6
839.504	3
840.245	7
840.985	3
841.726	2
842.466	4
843.206	5
843.946	2
844.687	5
845.427	5
846.166	3
846.906	5
847.646	6
848.386	4
849.125	4
849.865	3
850.605	5
851.344	3
852.083	4
852.823	1
853.562	3
854.301	5
855.04	4
855.779	5
856.518	6
857.257	4
857.995	2
858.734	4
859.473	1
860.211	1
860.95	2
861.688	4
862.426	4
863.165	3
863.903	2
864.641	1
865.379	5
866.117	3
866.855	3
867.593	2
868.33	3
869.068	2
869.806	3
870.543	5
871.28	2
872.018	4
872.755	2
873.492	2
874.229	3
874.967	1
875.703	1
876.44	1
877.177	1
877.914	1
878.651	2
879.387	1
880.124	1
880.86	2
881.597	1
882.333	2
883.069	2
883.806	2
884.542	0
885.278	2
886.014	4
886.749	-1
887.485	5
888.221	-2
888.957	2
889.692	1
890.428	2
891.163	1
891.899	2
892.634	1
893.369	0
894.104	3
894.839	0
895.574	2
896.309	2
897.044	1
897.779	3
898.514	2
899.248	2
899.983	1
900.717	1
901.452	1
902.186	1
902.92	2
903.654	-1
904.389	0
905.123	2
905.857	1
906.59	3
907.324	1
908.058	1
908.792	0
909.525	2
910.259	0
910.992	0
911.726	0
912.459	1
913.192	2
913.925	1
914.658	0
915.391	1
916.124	-2
916.857	1
917.59	2
918.323	2
919.055	0
919.788	1
920.521	1
921.253	2
921.985	2
922.718	1
923.45	0
924.182	-1
924.914	0
925.646	1
926.378	-2
927.11	2
927.841	1
928.573	0
929.305	1
930.036	1
930.768	1
931.499	1
932.23	1
932.962	1
933.693	2
934.424	0
935.155	1
935.886	-1
936.617	0
937.348	0
938.078	1
938.809	1
939.54	-2
940.27	2
941.001	-1
941.731	1
942.461	1
943.191	1
943.922	2
944.652	1
945.382	0
946.112	-1
946.841	1
947.571	0
948.301	1
949.031	-3
949.76	1
950.49	0
951.219	1
951.948	-1
952.678	1
953.407	-1
954.136	-2
954.865	1
955.594	2
956.323	1
957.052	1
957.78	1
958.509	2
959.238	0
959.966	1
960.695	-1
961.423	-1
962.151	1
962.88	-1
963.608	1
964.336	2
965.064	0
965.792	0
966.52	0
967.247	1
967.975	-1
968.703	0
969.43	2
970.158	3
970.885	-1
971.613	1
972.34	-1
973.067	-1
973.794	0
974.521	0
975.248	1
975.975	1
976.702	0
977.429	2
978.156	0
978.882	0
979.609	-1
980.335	1
981.062	1
981.788	0
982.514	1
983.24	-2
983.967	0
984.693	-1
985.419	2
986.144	0
986.87	0
987.596	2
988.322	-1
989.047	3
989.773	-3
990.498	-1
991.224	2
991.949	0
992.674	1
993.399	-1
994.124	0
994.849	-2
995.574	2
996.299	1
997.024	-1
997.749	-1
998.473	-2
999.198	0
999.922	-1
1000.647	0
1001.371	3
1002.095	0
1002.82	-1
1003.544	-2
1004.268	3
1004.992	1
1005.716	4
1006.439	4
1007.163	3
1007.887	1
1008.611	3
1009.334	0
1010.058	1
1010.781	1
1011.504	2
1012.228	1
1012.951	-1
1013.674	1
1014.397	-1
1015.12	1
