节点500_565_QEPB04081__380__09-56-44-362.txt的数据

Date: Thu Nov 13 09:56:44 CST 2025
User: PC
Spectrometer: QEPB0408
触发模式: 0
积分时间 (秒): 1.000000E-2
Scans to average: 1
启用暗噪声校正: true
启用非线性校正: false
滑动平均宽度: 0
X轴模式: Wavelengths
Number of Pixels in Spectrum: 1044
>>>>>Begin Spectral Data<<<<<
220.843	2.62
221.644	5.62
222.444	3.62
223.244	4.62
224.045	2.62
224.845	3.62
225.645	2.62
226.445	4.62
227.245	6.62
228.045	4.62
228.845	6.62
229.645	5.62
230.444	4.62
231.244	4.62
232.043	7.62
232.843	6.62
233.642	6.62
234.442	7.62
235.241	8.62
236.04	8.62
236.839	8.62
237.638	8.62
238.437	6.62
239.236	11.62
240.035	7.62
240.833	9.62
241.632	9.62
242.43	10.62
243.229	8.62
244.027	9.62
244.826	7.62
245.624	9.62
246.422	8.62
247.22	12.62
248.018	7.62
248.816	8.62
249.614	13.62
250.412	13.62
251.21	14.62
252.007	11.62
252.805	10.62
253.602	13.62
254.4	13.62
255.197	15.62
255.994	16.62
256.791	13.62
257.589	13.62
258.386	15.62
259.183	14.62
259.979	15.62
260.776	18.62
261.573	15.62
262.37	19.62
263.166	19.62
263.963	18.62
264.759	18.62
265.556	18.62
266.352	23.62
267.148	20.62
267.944	21.62
268.74	24.62
269.536	24.62
270.332	23.62
271.128	23.62
271.924	22.62
272.719	26.62
273.515	23.62
274.311	24.62
275.106	26.62
275.901	26.62
276.697	30.62
277.492	24.62
278.287	26.62
279.082	28.62
279.877	28.62
280.672	28.62
281.467	27.62
282.262	28.62
283.056	28.62
283.851	28.62
284.646	24.62
285.44	28.62
286.234	27.62
287.029	25.62
287.823	32.62
288.617	30.62
289.411	28.62
290.205	30.62
290.999	26.62
291.793	25.62
292.587	25.62
293.381	25.62
294.174	26.62
294.968	25.62
295.761	23.62
296.555	22.62
297.348	21.62
298.141	21.62
298.935	25.62
299.728	20.62
300.521	19.62
301.314	19.62
302.107	19.62
302.899	16.62
303.692	17.62
304.485	20.62
305.277	19.62
306.07	18.62
306.862	19.62
307.655	16.62
308.447	18.62
309.239	16.62
310.031	16.62
310.823	16.62
311.615	16.62
312.407	13.62
313.199	12.62
313.991	14.62
314.783	14.62
315.574	12.62
316.366	11.62
317.157	12.62
317.949	9.62
318.74	10.62
319.531	12.62
320.322	12.62
321.113	12.62
321.904	12.62
322.695	13.62
323.486	11.62
324.277	13.62
325.068	11.62
325.858	9.62
326.649	12.62
327.439	9.62
328.23	12.62
329.02	12.62
329.81	10.62
330.6	12.62
331.391	9.62
332.181	9.62
332.971	7.62
333.76	9.62
334.55	9.62
335.34	10.62
336.13	10.62
336.919	9.62
337.709	8.62
338.498	6.62
339.287	11.62
340.077	9.62
340.866	8.62
341.655	11.62
342.444	7.62
343.233	7.62
344.022	8.62
344.811	9.62
345.6	11.62
346.388	13.62
347.177	9.62
347.965	8.62
348.754	10.62
349.542	8.62
350.33	10.62
351.119	9.62
351.907	9.62
352.695	8.62
353.483	7.62
354.271	9.62
355.059	9.62
355.846	10.62
356.634	6.62
357.422	8.62
358.209	9.62
358.997	7.62
359.784	9.62
360.571	8.62
361.359	8.62
362.146	6.62
362.933	8.62
363.72	8.62
364.507	7.62
365.294	7.62
366.081	6.62
366.867	8.62
367.654	9.62
368.44	8.62
369.227	7.62
370.013	6.62
370.8	10.62
371.586	8.62
372.372	8.62
373.158	8.62
373.944	8.62
374.73	9.62
375.516	9.62
376.302	8.62
377.088	8.62
377.873	10.62
378.659	7.62
379.445	8.62
380.23	9.62
381.015	9.62
381.801	8.62
382.586	10.62
383.371	7.62
384.156	8.62
384.941	6.62
385.726	10.62
386.511	7.62
387.296	10.62
388.08	8.62
388.865	9.62
389.649	6.62
390.434	11.62
391.218	8.62
392.003	10.62
392.787	11.62
393.571	9.62
394.355	9.62
395.139	10.62
395.923	12.62
396.707	9.62
397.491	9.62
398.274	12.62
399.058	12.62
399.842	10.62
400.625	14.62
401.408	13.62
402.192	13.62
402.975	8.62
403.758	11.62
404.541	10.62
405.324	11.62
406.107	12.62
406.89	12.62
407.673	12.62
408.456	11.62
409.238	13.62
410.021	13.62
410.803	12.62
411.586	15.62
412.368	14.62
413.151	15.62
413.933	12.62
414.715	15.62
415.497	16.62
416.279	16.62
417.061	17.62
417.843	19.62
418.624	16.62
419.406	12.62
420.188	16.62
420.969	16.62
421.751	19.62
422.532	18.62
423.313	18.62
424.095	18.62
424.876	21.62
425.657	19.62
426.438	19.62
427.219	22.62
428	20.62
428.78	24.62
429.561	21.62
430.342	24.62
431.122	25.62
431.903	22.62
432.683	25.62
433.464	28.62
434.244	29.62
435.024	29.62
435.804	30.62
436.584	33.62
437.364	36.62
438.144	36.62
438.924	39.62
439.704	43.62
440.483	44.62
441.263	48.62
442.042	50.62
442.822	53.62
443.601	63.62
444.38	61.62
445.16	69.62
445.939	75.62
446.718	79.62
447.497	81.62
448.276	94.62
449.054	103.62
449.833	112.62
450.612	124.62
451.391	134.62
452.169	150.62
452.948	166.62
453.726	180.62
454.504	204.62
455.282	224.62
456.061	252.62
456.839	276.62
457.617	308.62
458.395	342.62
459.172	380.62
459.95	427.62
460.728	474.62
461.506	528.62
462.283	585.62
463.061	671.62
463.838	732.62
464.615	823.62
465.393	902.62
466.17	1007.62
466.947	1128.62
467.724	1256.62
468.501	1374.62
469.278	1536.62
470.055	1695.62
470.831	1873.62
471.608	2082.62
472.385	2288.62
473.161	2511.62
473.938	2793.62
474.714	3025.62
475.49	3348.62
476.266	3660.62
477.043	4054.62
477.819	4427.62
478.595	4828.62
479.371	5269.62
480.146	5753.62
480.922	6262.62
481.698	6822.62
482.473	7421.62
483.249	8064.62
484.024	8776.62
484.8	9556.62
485.575	10419.62
486.35	11228.62
487.126	12216.62
487.901	13260.62
488.676	14338.62
489.451	15478.62
490.225	16733.62
491	17970.62
491.775	19253.62
492.55	20742.62
493.324	22172.62
494.099	23614.62
494.873	25200.62
495.647	26718.62
496.422	28366.62
497.196	29839.62
497.97	31408.62
498.744	32778.62
499.518	34172.62
500.292	35364.62
501.066	36626.62
501.839	37738.62
502.613	38539.62
503.387	39222.62
504.16	39892.62
504.934	40261.62
505.707	40342.62
506.48	40346.62
507.253	40100.62
508.027	39656.62
508.8	38976.62
509.573	38170.62
510.346	37286.62
511.118	36385.62
511.891	35351.62
512.664	34276.62
513.437	33050.62
514.209	31722.62
514.982	30618.62
515.754	29447.62
516.526	28226.62
517.298	27050.62
518.071	25935.62
518.843	24890.62
519.615	23897.62
520.387	22930.62
521.159	22118.62
521.93	21191.62
522.702	20301.62
523.474	19475.62
524.245	18720.62
525.017	17951.62
525.788	17165.62
526.56	16388.62
527.331	15643.62
528.102	15026.62
528.873	14259.62
529.644	13533.62
530.415	12907.62
531.186	12254.62
531.957	11657.62
532.728	11099.62
533.498	10524.62
534.269	9936.62
535.039	9357.62
535.81	8901.62
536.58	8441.62
537.351	7987.62
538.121	7563.62
538.891	7151.62
539.661	6806.62
540.431	6432.62
541.201	6037.62
541.971	5732.62
542.741	5437.62
543.51	5164.62
544.28	4886.62
545.05	4670.62
545.819	4431.62
546.588	4207.62
547.358	3998.62
548.127	3805.62
548.896	3606.62
549.665	3445.62
550.434	3272.62
551.203	3094.62
551.972	2954.62
552.741	2773.62
553.51	2624.62
554.278	2466.62
555.047	2342.62
555.815	2217.62
556.584	2099.62
557.352	1992.62
558.121	1878.62
558.889	1759.62
559.657	1660.62
560.425	1594.62
561.193	1496.62
561.961	1412.62
562.729	1330.62
563.496	1255.62
564.264	1192.62
565.032	1122.62
565.799	1064.62
566.567	1015.62
567.334	966.62
568.101	906.62
568.869	862.62
569.636	810.62
570.403	752.62
571.17	714.62
571.937	675.62
572.704	645.62
573.471	600.62
574.237	562.62
575.004	543.62
575.771	512.62
576.537	467.62
577.303	446.62
578.07	426.62
578.836	399.62
579.602	370.62
580.368	359.62
581.134	344.62
581.9	323.62
582.666	304.62
583.432	293.62
584.198	276.62
584.964	262.62
585.729	251.62
586.495	236.62
587.26	224.62
588.025	208.62
588.791	191.62
589.556	187.62
590.321	178.62
591.086	170.62
591.851	164.62
592.616	152.62
593.381	149.62
594.146	141.62
594.911	132.62
595.675	127.62
596.44	121.62
597.204	117.62
597.969	112.62
598.733	107.62
599.497	98.62
600.261	102.62
601.025	91.62
601.79	92.62
602.553	88.62
603.317	82.62
604.081	80.62
604.845	75.62
605.609	75.62
606.372	67.62
607.136	65.62
607.899	59.62
608.662	57.62
609.426	62.62
610.189	58.62
610.952	53.62
611.715	51.62
612.478	53.62
613.241	49.62
614.004	48.62
614.767	48.62
615.529	43.62
616.292	41.62
617.055	39.62
617.817	44.62
618.579	40.62
619.342	38.62
620.104	34.62
620.866	36.62
621.628	32.62
622.39	34.62
623.152	31.62
623.914	28.62
624.676	28.62
625.438	28.62
626.199	27.62
626.961	27.62
627.722	25.62
628.484	28.62
629.245	27.62
630.006	23.62
630.768	20.62
631.529	24.62
632.29	20.62
633.051	22.62
633.812	19.62
634.573	20.62
635.333	17.62
636.094	19.62
636.855	19.62
637.615	20.62
638.376	20.62
639.136	19.62
639.896	14.62
640.657	16.62
641.417	15.62
642.177	15.62
642.937	14.62
643.697	13.62
644.457	13.62
645.216	11.62
645.976	12.62
646.736	13.62
647.495	13.62
648.255	12.62
649.014	12.62
649.774	12.62
650.533	11.62
651.292	11.62
652.051	11.62
652.81	12.62
653.569	8.62
654.328	9.62
655.087	10.62
655.846	9.62
656.604	11.62
657.363	10.62
658.121	9.62
658.88	8.62
659.638	8.62
660.397	9.62
661.155	8.62
661.913	7.62
662.671	9.62
663.429	9.62
664.187	7.62
664.945	8.62
665.703	10.62
666.46	8.62
667.218	7.62
667.976	9.62
668.733	7.62
669.49	6.62
670.248	8.62
671.005	9.62
671.762	6.62
672.519	11.62
673.276	6.62
674.033	7.62
674.79	6.62
675.547	7.62
676.304	7.62
677.06	8.62
677.817	7.62
678.574	8.62
679.33	8.62
680.086	6.62
680.843	8.62
681.599	6.62
682.355	7.62
683.111	7.62
683.867	8.62
684.623	4.62
685.379	8.62
686.135	6.62
686.89	8.62
687.646	5.62
688.402	6.62
689.157	7.62
689.912	6.62
690.668	6.62
691.423	7.62
692.178	4.62
692.933	4.62
693.688	6.62
694.443	8.62
695.198	7.62
695.953	8.62
696.708	6.62
697.462	4.62
698.217	5.62
698.972	5.62
699.726	5.62
700.48	2.62
701.235	6.62
701.989	9.62
702.743	5.62
703.497	7.62
704.251	6.62
705.005	5.62
705.759	7.62
706.513	6.62
707.266	6.62
708.02	5.62
708.774	9.62
709.527	4.62
710.28	4.62
711.034	5.62
711.787	5.62
712.54	7.62
713.293	4.62
714.046	5.62
714.799	5.62
715.552	6.62
716.305	6.62
717.058	6.62
717.81	7.62
718.563	6.62
719.315	6.62
720.068	7.62
720.82	7.62
721.573	9.62
722.325	5.62
723.077	5.62
723.829	5.62
724.581	9.62
725.333	6.62
726.085	4.62
726.836	6.62
727.588	6.62
728.34	7.62
729.091	7.62
729.843	9.62
730.594	6.62
731.346	5.62
732.097	6.62
732.848	6.62
733.599	7.62
734.35	6.62
735.101	11.62
735.852	7.62
736.603	8.62
737.354	6.62
738.104	8.62
738.855	8.62
739.605	5.62
740.356	7.62
741.106	7.62
741.856	7.62
742.607	6.62
743.357	8.62
744.107	6.62
744.857	7.62
745.607	9.62
746.357	9.62
747.106	8.62
747.856	8.62
748.606	7.62
749.355	10.62
750.105	7.62
750.854	8.62
751.603	6.62
752.353	9.62
753.102	8.62
753.851	9.62
754.6	9.62
755.349	10.62
756.098	12.62
756.847	9.62
757.595	7.62
758.344	12.62
759.093	10.62
759.841	8.62
760.589	8.62
761.338	9.62
762.086	9.62
762.834	14.62
763.582	8.62
764.331	11.62
765.079	10.62
765.826	10.62
766.574	8.62
767.322	13.62
768.07	11.62
768.817	11.62
769.565	8.62
770.312	12.62
771.06	9.62
771.807	8.62
772.554	11.62
773.302	12.62
774.049	12.62
774.796	13.62
775.543	12.62
776.29	12.62
777.036	16.62
777.783	11.62
778.53	11.62
779.276	9.62
780.023	13.62
780.769	13.62
781.516	12.62
782.262	13.62
783.008	12.62
783.754	14.62
784.5	12.62
785.246	13.62
785.992	11.62
786.738	12.62
787.484	12.62
788.23	12.62
788.975	12.62
789.721	11.62
790.466	9.62
791.212	11.62
791.957	12.62
792.702	13.62
793.447	11.62
794.193	14.62
794.938	11.62
795.683	13.62
796.427	10.62
797.172	11.62
797.917	13.62
798.662	10.62
799.406	10.62
800.151	9.62
800.895	11.62
801.64	12.62
802.384	9.62
803.128	12.62
803.872	11.62
804.616	10.62
805.36	9.62
806.104	10.62
806.848	8.62
807.592	8.62
808.336	6.62
809.079	10.62
809.823	8.62
810.566	6.62
811.31	8.62
812.053	7.62
812.796	9.62
813.539	6.62
814.283	7.62
815.026	8.62
815.769	6.62
816.511	7.62
817.254	6.62
817.997	6.62
818.74	7.62
819.482	6.62
820.225	5.62
820.967	3.62
821.71	6.62
822.452	8.62
823.194	4.62
823.936	7.62
824.678	5.62
825.42	6.62
826.162	3.62
826.904	5.62
827.646	5.62
828.388	3.62
829.129	4.62
829.871	7.62
830.612	5.62
831.354	4.62
832.095	6.62
832.836	5.62
833.577	5.62
834.319	3.62
835.06	4.62
835.801	6.62
836.542	4.62
837.282	5.62
838.023	4.62
838.764	5.62
839.504	4.62
840.245	2.62
840.985	5.62
841.726	4.62
842.466	7.62
843.206	4.62
843.946	4.62
844.687	5.62
845.427	4.62
846.166	3.62
846.906	3.62
847.646	4.62
848.386	4.62
849.125	3.62
849.865	2.62
850.605	5.62
851.344	6.62
852.083	6.62
852.823	4.62
853.562	2.62
854.301	3.62
855.04	5.62
855.779	4.62
856.518	1.62
857.257	3.62
857.995	1.62
858.734	2.62
859.473	4.62
860.211	0.62
860.95	4.62
861.688	1.62
862.426	4.62
863.165	3.62
863.903	2.62
864.641	1.62
865.379	2.62
866.117	2.62
866.855	2.62
867.593	2.62
868.33	2.62
869.068	1.62
869.806	2.62
870.543	2.62
871.28	2.62
872.018	2.62
872.755	2.62
873.492	3.62
874.229	3.62
874.967	2.62
875.703	-0.38
876.44	0.62
877.177	1.62
877.914	0.62
878.651	2.62
879.387	0.62
880.124	2.62
880.86	2.62
881.597	0.62
882.333	-0.38
883.069	2.62
883.806	2.62
884.542	-0.38
885.278	1.62
886.014	0.62
886.749	1.62
887.485	4.62
888.221	1.62
888.957	-0.38
889.692	-0.38
890.428	0.62
891.163	1.62
891.899	1.62
892.634	2.62
893.369	1.62
894.104	0.62
894.839	2.62
895.574	1.62
896.309	-0.38
897.044	0.62
897.779	0.62
898.514	1.62
899.248	0.62
899.983	1.62
900.717	0.62
901.452	-0.38
902.186	2.62
902.92	2.62
903.654	1.62
904.389	0.62
905.123	-1.38
905.857	-0.38
906.59	1.62
907.324	1.62
908.058	0.62
908.792	2.62
909.525	2.62
910.259	-0.38
910.992	-0.38
911.726	0.62
912.459	0.62
913.192	-1.38
913.925	0.62
914.658	0.62
915.391	0.62
916.124	-0.38
916.857	-0.38
917.59	-2.38
918.323	1.62
919.055	-0.38
919.788	0.62
920.521	1.62
921.253	0.62
921.985	1.62
922.718	0.62
923.45	-1.38
924.182	0.62
924.914	0.62
925.646	0.62
926.378	-0.38
927.11	2.62
927.841	-0.38
928.573	0.62
929.305	0.62
930.036	-1.38
930.768	-0.38
931.499	-1.38
932.23	1.62
932.962	-0.38
933.693	-0.38
934.424	0.62
935.155	-1.38
935.886	0.62
936.617	0.62
937.348	0.62
938.078	1.62
938.809	0.62
939.54	-0.38
940.27	1.62
941.001	-0.38
941.731	-0.38
942.461	-0.38
943.191	0.62
943.922	-0.38
944.652	-0.38
945.382	0.62
946.112	-1.38
946.841	1.62
947.571	0.62
948.301	-0.38
949.031	0.62
949.76	0.62
950.49	-1.38
951.219	1.62
951.948	-1.38
952.678	0.62
953.407	-1.38
954.136	-1.38
954.865	0.62
955.594	-0.38
956.323	1.62
957.052	-0.38
957.78	1.62
958.509	1.62
959.238	1.62
959.966	-0.38
960.695	1.62
961.423	1.62
962.151	-0.38
962.88	0.62
963.608	0.62
964.336	-2.38
965.064	0.62
965.792	0.62
966.52	2.62
967.247	-0.38
967.975	0.62
968.703	0.62
969.43	1.62
970.158	1.62
970.885	1.62
971.613	1.62
972.34	-0.38
973.067	-0.38
973.794	2.62
974.521	0.62
975.248	-0.38
975.975	0.62
976.702	2.62
977.429	-0.38
978.156	1.62
978.882	0.62
979.609	-0.38
980.335	-0.38
981.062	0.62
981.788	-0.38
982.514	0.62
983.24	-0.38
983.967	-0.38
984.693	-0.38
985.419	-0.38
986.144	-0.38
986.87	1.62
987.596	-1.38
988.322	1.62
989.047	0.62
989.773	-0.38
990.498	-1.38
991.224	-1.38
991.949	3.62
992.674	0.62
993.399	-0.38
994.124	0.62
994.849	0.62
995.574	-0.38
996.299	-0.38
997.024	-1.38
997.749	1.62
998.473	-0.38
999.198	0.62
999.922	0.62
1000.647	0.62
1001.371	1.62
1002.095	-0.38
1002.82	-1.38
1003.544	-2.38
1004.268	4.62
1004.992	3.62
1005.716	2.62
1006.439	1.62
1007.163	6.62
1007.887	4.62
1008.611	0.62
1009.334	0.62
1010.058	-2.38
1010.781	0.62
1011.504	-2.38
1012.228	0.62
1012.951	1.62
1013.674	-2.38
1014.397	1.62
1015.12	1.62
