节点500_565_QEPB04081__413__09-57-17-331.txt的数据

Date: Thu Nov 13 09:57:17 CST 2025
User: PC
Spectrometer: QEPB0408
触发模式: 0
积分时间 (秒): 1.000000E-2
Scans to average: 1
启用暗噪声校正: true
启用非线性校正: false
滑动平均宽度: 0
X轴模式: Wavelengths
Number of Pixels in Spectrum: 1044
>>>>>Begin Spectral Data<<<<<
220.843	3.38
221.644	5.38
222.444	3.38
223.244	4.38
224.045	5.38
224.845	4.38
225.645	6.38
226.445	3.38
227.245	5.38
228.045	3.38
228.845	5.38
229.645	5.38
230.444	5.38
231.244	7.38
232.043	4.38
232.843	4.38
233.642	7.38
234.442	8.38
235.241	6.38
236.04	5.38
236.839	7.38
237.638	7.38
238.437	8.38
239.236	8.38
240.035	8.38
240.833	9.38
241.632	10.38
242.43	6.38
243.229	8.38
244.027	8.38
244.826	11.38
245.624	10.38
246.422	8.38
247.22	10.38
248.018	11.38
248.816	12.38
249.614	11.38
250.412	14.38
251.21	10.38
252.007	12.38
252.805	12.38
253.602	11.38
254.4	14.38
255.197	14.38
255.994	12.38
256.791	16.38
257.589	18.38
258.386	14.38
259.183	16.38
259.979	13.38
260.776	15.38
261.573	17.38
262.37	18.38
263.166	20.38
263.963	17.38
264.759	18.38
265.556	18.38
266.352	18.38
267.148	18.38
267.944	21.38
268.74	20.38
269.536	22.38
270.332	25.38
271.128	25.38
271.924	24.38
272.719	24.38
273.515	23.38
274.311	25.38
275.106	24.38
275.901	25.38
276.697	27.38
277.492	27.38
278.287	27.38
279.082	27.38
279.877	28.38
280.672	25.38
281.467	30.38
282.262	30.38
283.056	28.38
283.851	29.38
284.646	26.38
285.44	26.38
286.234	26.38
287.029	26.38
287.823	30.38
288.617	25.38
289.411	24.38
290.205	27.38
290.999	26.38
291.793	26.38
292.587	23.38
293.381	24.38
294.174	23.38
294.968	27.38
295.761	23.38
296.555	22.38
297.348	21.38
298.141	20.38
298.935	20.38
299.728	25.38
300.521	23.38
301.314	23.38
302.107	20.38
302.899	18.38
303.692	20.38
304.485	17.38
305.277	18.38
306.07	18.38
306.862	17.38
307.655	17.38
308.447	18.38
309.239	20.38
310.031	18.38
310.823	18.38
311.615	14.38
312.407	14.38
313.199	15.38
313.991	12.38
314.783	14.38
315.574	14.38
316.366	16.38
317.157	13.38
317.949	12.38
318.74	12.38
319.531	12.38
320.322	12.38
321.113	10.38
321.904	13.38
322.695	11.38
323.486	9.38
324.277	13.38
325.068	8.38
325.858	11.38
326.649	10.38
327.439	10.38
328.23	12.38
329.02	9.38
329.81	9.38
330.6	7.38
331.391	9.38
332.181	7.38
332.971	7.38
333.76	9.38
334.55	9.38
335.34	9.38
336.13	12.38
336.919	8.38
337.709	8.38
338.498	10.38
339.287	9.38
340.077	10.38
340.866	6.38
341.655	10.38
342.444	9.38
343.233	9.38
344.022	9.38
344.811	8.38
345.6	7.38
346.388	11.38
347.177	10.38
347.965	10.38
348.754	8.38
349.542	8.38
350.33	10.38
351.119	9.38
351.907	11.38
352.695	7.38
353.483	10.38
354.271	9.38
355.059	10.38
355.846	8.38
356.634	7.38
357.422	7.38
358.209	8.38
358.997	10.38
359.784	8.38
360.571	9.38
361.359	6.38
362.146	6.38
362.933	9.38
363.72	7.38
364.507	6.38
365.294	7.38
366.081	8.38
366.867	7.38
367.654	8.38
368.44	5.38
369.227	7.38
370.013	8.38
370.8	6.38
371.586	8.38
372.372	7.38
373.158	6.38
373.944	5.38
374.73	6.38
375.516	6.38
376.302	10.38
377.088	7.38
377.873	8.38
378.659	8.38
379.445	6.38
380.23	9.38
381.015	7.38
381.801	9.38
382.586	8.38
383.371	9.38
384.156	9.38
384.941	8.38
385.726	6.38
386.511	8.38
387.296	9.38
388.08	9.38
388.865	9.38
389.649	10.38
390.434	10.38
391.218	10.38
392.003	10.38
392.787	10.38
393.571	8.38
394.355	8.38
395.139	11.38
395.923	8.38
396.707	12.38
397.491	8.38
398.274	12.38
399.058	12.38
399.842	9.38
400.625	9.38
401.408	9.38
402.192	12.38
402.975	10.38
403.758	12.38
404.541	12.38
405.324	12.38
406.107	13.38
406.89	14.38
407.673	11.38
408.456	13.38
409.238	12.38
410.021	11.38
410.803	12.38
411.586	14.38
412.368	13.38
413.151	14.38
413.933	14.38
414.715	10.38
415.497	14.38
416.279	15.38
417.061	16.38
417.843	14.38
418.624	14.38
419.406	18.38
420.188	14.38
420.969	17.38
421.751	15.38
422.532	16.38
423.313	17.38
424.095	18.38
424.876	19.38
425.657	18.38
426.438	19.38
427.219	20.38
428	24.38
428.78	19.38
429.561	23.38
430.342	24.38
431.122	25.38
431.903	26.38
432.683	27.38
433.464	26.38
434.244	28.38
435.024	31.38
435.804	31.38
436.584	32.38
437.364	35.38
438.144	36.38
438.924	42.38
439.704	39.38
440.483	46.38
441.263	46.38
442.042	50.38
442.822	52.38
443.601	58.38
444.38	61.38
445.16	66.38
445.939	75.38
446.718	78.38
447.497	89.38
448.276	95.38
449.054	106.38
449.833	111.38
450.612	125.38
451.391	136.38
452.169	148.38
452.948	165.38
453.726	181.38
454.504	198.38
455.282	222.38
456.061	252.38
456.839	275.38
457.617	307.38
458.395	340.38
459.172	391.38
459.95	432.38
460.728	482.38
461.506	537.38
462.283	593.38
463.061	663.38
463.838	737.38
464.615	830.38
465.393	919.38
466.17	1025.38
466.947	1132.38
467.724	1266.38
468.501	1395.38
469.278	1545.38
470.055	1708.38
470.831	1876.38
471.608	2079.38
472.385	2286.38
473.161	2521.38
473.938	2794.38
474.714	3032.38
475.49	3343.38
476.266	3642.38
477.043	4014.38
477.819	4403.38
478.595	4822.38
479.371	5246.38
480.146	5766.38
480.922	6246.38
481.698	6794.38
482.473	7381.38
483.249	7997.38
484.024	8687.38
484.8	9495.38
485.575	10291.38
486.35	11141.38
487.126	12054.38
487.901	13025.38
488.676	14139.38
489.451	15256.38
490.225	16494.38
491	17671.38
491.775	19061.38
492.55	20429.38
493.324	21820.38
494.099	23216.38
494.873	24665.38
495.647	26338.38
496.422	27903.38
497.196	29346.38
497.97	30891.38
498.744	32232.38
499.518	33640.38
500.292	34824.38
501.066	36069.38
501.839	37140.38
502.613	38016.38
503.387	38747.38
504.16	39414.38
504.934	39782.38
505.707	39833.38
506.48	39862.38
507.253	39769.38
508.027	39295.38
508.8	38671.38
509.573	37952.38
510.346	37192.38
511.118	36164.38
511.891	35252.38
512.664	34088.38
513.437	33031.38
514.209	31699.38
514.982	30584.38
515.754	29400.38
516.526	28210.38
517.298	27047.38
518.071	26023.38
518.843	24943.38
519.615	23945.38
520.387	22966.38
521.159	22098.38
521.93	21217.38
522.702	20331.38
523.474	19517.38
524.245	18728.38
525.017	17997.38
525.788	17195.38
526.56	16424.38
527.331	15716.38
528.102	15039.38
528.873	14330.38
529.644	13590.38
530.415	12950.38
531.186	12269.38
531.957	11711.38
532.728	11169.38
533.498	10536.38
534.269	9974.38
535.039	9410.38
535.81	8950.38
536.58	8478.38
537.351	7997.38
538.121	7572.38
538.891	7182.38
539.661	6751.38
540.431	6460.38
541.201	6085.38
541.971	5760.38
542.741	5452.38
543.51	5175.38
544.28	4924.38
545.05	4680.38
545.819	4445.38
546.588	4236.38
547.358	4051.38
548.127	3834.38
548.896	3658.38
549.665	3452.38
550.434	3266.38
551.203	3129.38
551.972	2949.38
552.741	2788.38
553.51	2648.38
554.278	2491.38
555.047	2368.38
555.815	2208.38
556.584	2127.38
557.352	2022.38
558.121	1900.38
558.889	1764.38
559.657	1686.38
560.425	1568.38
561.193	1510.38
561.961	1431.38
562.729	1335.38
563.496	1275.38
564.264	1212.38
565.032	1154.38
565.799	1077.38
566.567	1014.38
567.334	976.38
568.101	906.38
568.869	857.38
569.636	794.38
570.403	767.38
571.17	727.38
571.937	680.38
572.704	650.38
573.471	612.38
574.237	575.38
575.004	541.38
575.771	508.38
576.537	487.38
577.303	457.38
578.07	431.38
578.836	402.38
579.602	388.38
580.368	357.38
581.134	345.38
581.9	327.38
582.666	314.38
583.432	295.38
584.198	280.38
584.964	265.38
585.729	253.38
586.495	236.38
587.26	220.38
588.025	208.38
588.791	203.38
589.556	189.38
590.321	184.38
591.086	171.38
591.851	165.38
592.616	155.38
593.381	147.38
594.146	139.38
594.911	133.38
595.675	126.38
596.44	125.38
597.204	120.38
597.969	108.38
598.733	107.38
599.497	104.38
600.261	95.38
601.025	95.38
601.79	90.38
602.553	90.38
603.317	80.38
604.081	81.38
604.845	75.38
605.609	73.38
606.372	72.38
607.136	69.38
607.899	67.38
608.662	62.38
609.426	65.38
610.189	57.38
610.952	57.38
611.715	53.38
612.478	51.38
613.241	48.38
614.004	46.38
614.767	44.38
615.529	46.38
616.292	40.38
617.055	42.38
617.817	41.38
618.579	37.38
619.342	39.38
620.104	38.38
620.866	35.38
621.628	37.38
622.39	30.38
623.152	32.38
623.914	30.38
624.676	29.38
625.438	28.38
626.199	26.38
626.961	24.38
627.722	24.38
628.484	26.38
629.245	23.38
630.006	22.38
630.768	19.38
631.529	20.38
632.29	23.38
633.051	22.38
633.812	22.38
634.573	20.38
635.333	20.38
636.094	22.38
636.855	19.38
637.615	17.38
638.376	17.38
639.136	18.38
639.896	16.38
640.657	14.38
641.417	16.38
642.177	13.38
642.937	16.38
643.697	15.38
644.457	15.38
645.216	14.38
645.976	12.38
646.736	13.38
647.495	13.38
648.255	14.38
649.014	14.38
649.774	10.38
650.533	14.38
651.292	14.38
652.051	9.38
652.81	12.38
653.569	11.38
654.328	10.38
655.087	12.38
655.846	11.38
656.604	10.38
657.363	7.38
658.121	6.38
658.88	11.38
659.638	11.38
660.397	9.38
661.155	8.38
661.913	9.38
662.671	8.38
663.429	8.38
664.187	8.38
664.945	8.38
665.703	9.38
666.46	8.38
667.218	7.38
667.976	6.38
668.733	7.38
669.49	9.38
670.248	10.38
671.005	8.38
671.762	7.38
672.519	4.38
673.276	8.38
674.033	7.38
674.79	7.38
675.547	8.38
676.304	5.38
677.06	5.38
677.817	6.38
678.574	6.38
679.33	6.38
680.086	8.38
680.843	7.38
681.599	6.38
682.355	5.38
683.111	5.38
683.867	6.38
684.623	6.38
685.379	7.38
686.135	5.38
686.89	7.38
687.646	8.38
688.402	6.38
689.157	5.38
689.912	6.38
690.668	4.38
691.423	4.38
692.178	5.38
692.933	6.38
693.688	5.38
694.443	4.38
695.198	5.38
695.953	7.38
696.708	6.38
697.462	6.38
698.217	6.38
698.972	6.38
699.726	4.38
700.48	4.38
701.235	4.38
701.989	6.38
702.743	8.38
703.497	8.38
704.251	6.38
705.005	7.38
705.759	6.38
706.513	5.38
707.266	4.38
708.02	6.38
708.774	7.38
709.527	4.38
710.28	4.38
711.034	4.38
711.787	7.38
712.54	7.38
713.293	6.38
714.046	4.38
714.799	5.38
715.552	6.38
716.305	5.38
717.058	6.38
717.81	6.38
718.563	6.38
719.315	4.38
720.068	3.38
720.82	7.38
721.573	6.38
722.325	5.38
723.077	5.38
723.829	8.38
724.581	6.38
725.333	4.38
726.085	6.38
726.836	3.38
727.588	4.38
728.34	2.38
729.091	7.38
729.843	6.38
730.594	8.38
731.346	5.38
732.097	7.38
732.848	7.38
733.599	7.38
734.35	7.38
735.101	5.38
735.852	7.38
736.603	8.38
737.354	5.38
738.104	6.38
738.855	4.38
739.605	8.38
740.356	8.38
741.106	9.38
741.856	5.38
742.607	8.38
743.357	7.38
744.107	7.38
744.857	8.38
745.607	7.38
746.357	7.38
747.106	7.38
747.856	3.38
748.606	6.38
749.355	7.38
750.105	7.38
750.854	6.38
751.603	6.38
752.353	8.38
753.102	8.38
753.851	9.38
754.6	6.38
755.349	8.38
756.098	9.38
756.847	5.38
757.595	7.38
758.344	10.38
759.093	8.38
759.841	8.38
760.589	9.38
761.338	7.38
762.086	8.38
762.834	8.38
763.582	12.38
764.331	11.38
765.079	9.38
765.826	9.38
766.574	12.38
767.322	12.38
768.07	11.38
768.817	10.38
769.565	10.38
770.312	12.38
771.06	11.38
771.807	10.38
772.554	13.38
773.302	11.38
774.049	12.38
774.796	11.38
775.543	10.38
776.29	12.38
777.036	13.38
777.783	12.38
778.53	16.38
779.276	14.38
780.023	12.38
780.769	12.38
781.516	10.38
782.262	10.38
783.008	13.38
783.754	12.38
784.5	16.38
785.246	13.38
785.992	12.38
786.738	14.38
787.484	11.38
788.23	16.38
788.975	10.38
789.721	13.38
790.466	11.38
791.212	10.38
791.957	10.38
792.702	9.38
793.447	11.38
794.193	11.38
794.938	12.38
795.683	10.38
796.427	9.38
797.172	10.38
797.917	11.38
798.662	9.38
799.406	8.38
800.151	10.38
800.895	9.38
801.64	11.38
802.384	8.38
803.128	9.38
803.872	7.38
804.616	9.38
805.36	8.38
806.104	9.38
806.848	8.38
807.592	9.38
808.336	7.38
809.079	8.38
809.823	8.38
810.566	8.38
811.31	7.38
812.053	10.38
812.796	6.38
813.539	8.38
814.283	6.38
815.026	4.38
815.769	9.38
816.511	5.38
817.254	7.38
817.997	7.38
818.74	7.38
819.482	5.38
820.225	7.38
820.967	8.38
821.71	6.38
822.452	6.38
823.194	3.38
823.936	6.38
824.678	7.38
825.42	7.38
826.162	6.38
826.904	2.38
827.646	5.38
828.388	4.38
829.129	6.38
829.871	6.38
830.612	3.38
831.354	4.38
832.095	5.38
832.836	3.38
833.577	6.38
834.319	6.38
835.06	5.38
835.801	5.38
836.542	6.38
837.282	4.38
838.023	5.38
838.764	4.38
839.504	4.38
840.245	4.38
840.985	4.38
841.726	5.38
842.466	5.38
843.206	4.38
843.946	4.38
844.687	3.38
845.427	3.38
846.166	3.38
846.906	4.38
847.646	4.38
848.386	5.38
849.125	4.38
849.865	4.38
850.605	3.38
851.344	3.38
852.083	3.38
852.823	2.38
853.562	4.38
854.301	3.38
855.04	4.38
855.779	1.38
856.518	2.38
857.257	2.38
857.995	4.38
858.734	4.38
859.473	2.38
860.211	2.38
860.95	5.38
861.688	1.38
862.426	2.38
863.165	3.38
863.903	2.38
864.641	1.38
865.379	3.38
866.117	2.38
866.855	3.38
867.593	1.38
868.33	1.38
869.068	0.38
869.806	1.38
870.543	2.38
871.28	2.38
872.018	3.38
872.755	-1.62
873.492	0.38
874.229	1.38
874.967	0.38
875.703	0.38
876.44	2.38
877.177	3.38
877.914	4.38
878.651	0.38
879.387	1.38
880.124	-1.62
880.86	1.38
881.597	1.38
882.333	0.38
883.069	0.38
883.806	2.38
884.542	1.38
885.278	0.38
886.014	0.38
886.749	1.38
887.485	2.38
888.221	1.38
888.957	1.38
889.692	0.38
890.428	0.38
891.163	2.38
891.899	0.38
892.634	0.38
893.369	1.38
894.104	2.38
894.839	1.38
895.574	-0.62
896.309	0.38
897.044	1.38
897.779	0.38
898.514	-1.62
899.248	0.38
899.983	0.38
900.717	0.38
901.452	0.38
902.186	0.38
902.92	1.38
903.654	-0.62
904.389	0.38
905.123	-0.62
905.857	0.38
906.59	-1.62
907.324	-0.62
908.058	1.38
908.792	-0.62
909.525	2.38
910.259	2.38
910.992	0.38
911.726	1.38
912.459	-0.62
913.192	0.38
913.925	0.38
914.658	0.38
915.391	1.38
916.124	1.38
916.857	2.38
917.59	-0.62
918.323	2.38
919.055	-0.62
919.788	0.38
920.521	1.38
921.253	0.38
921.985	-0.62
922.718	-0.62
923.45	0.38
924.182	1.38
924.914	2.38
925.646	-0.62
926.378	-1.62
927.11	0.38
927.841	0.38
928.573	-2.62
929.305	-1.62
930.036	0.38
930.768	0.38
931.499	0.38
932.23	-0.62
932.962	0.38
933.693	1.38
934.424	-0.62
935.155	2.38
935.886	0.38
936.617	-0.62
937.348	-0.62
938.078	1.38
938.809	-0.62
939.54	0.38
940.27	0.38
941.001	1.38
941.731	-1.62
942.461	-2.62
943.191	-0.62
943.922	0.38
944.652	0.38
945.382	-0.62
946.112	0.38
946.841	0.38
947.571	2.38
948.301	-1.62
949.031	-0.62
949.76	-2.62
950.49	0.38
951.219	1.38
951.948	0.38
952.678	1.38
953.407	1.38
954.136	0.38
954.865	1.38
955.594	1.38
956.323	-2.62
957.052	0.38
957.78	-0.62
958.509	-1.62
959.238	-1.62
959.966	1.38
960.695	-1.62
961.423	-2.62
962.151	0.38
962.88	-0.62
963.608	2.38
964.336	-1.62
965.064	-0.62
965.792	1.38
966.52	0.38
967.247	-0.62
967.975	-0.62
968.703	0.38
969.43	-1.62
970.158	0.38
970.885	0.38
971.613	-1.62
972.34	1.38
973.067	0.38
973.794	-0.62
974.521	-1.62
975.248	-1.62
975.975	-0.62
976.702	-1.62
977.429	2.38
978.156	0.38
978.882	0.38
979.609	-1.62
980.335	-0.62
981.062	-0.62
981.788	-0.62
982.514	2.38
983.24	-2.62
983.967	-0.62
984.693	1.38
985.419	0.38
986.144	-0.62
986.87	-2.62
987.596	0.38
988.322	0.38
989.047	0.38
989.773	-0.62
990.498	1.38
991.224	2.38
991.949	1.38
992.674	0.38
993.399	-0.62
994.124	1.38
994.849	-0.62
995.574	0.38
996.299	1.38
997.024	-1.62
997.749	0.38
998.473	0.38
999.198	1.38
999.922	-0.62
1000.647	1.38
1001.371	3.38
1002.095	-1.62
1002.82	-2.62
1003.544	-1.62
1004.268	1.38
1004.992	5.38
1005.716	4.38
1006.439	1.38
1007.163	4.38
1007.887	2.38
1008.611	0.38
1009.334	-0.62
1010.058	-0.62
1010.781	0.38
1011.504	-0.62
1012.228	-1.62
1012.951	1.38
1013.674	0.38
1014.397	0.38
1015.12	0.38
