节点500_565_QEPB04081__214__09-53-58-798.txt的数据

Date: Thu Nov 13 09:53:58 CST 2025
User: PC
Spectrometer: QEPB0408
触发模式: 0
积分时间 (秒): 1.000000E-2
Scans to average: 1
启用暗噪声校正: true
启用非线性校正: false
滑动平均宽度: 0
X轴模式: Wavelengths
Number of Pixels in Spectrum: 1044
>>>>>Begin Spectral Data<<<<<
220.843	4.5
221.644	4.5
222.444	1.5
223.244	2.5
224.045	7.5
224.845	4.5
225.645	4.5
226.445	4.5
227.245	4.5
228.045	7.5
228.845	5.5
229.645	5.5
230.444	3.5
231.244	5.5
232.043	6.5
232.843	5.5
233.642	6.5
234.442	4.5
235.241	5.5
236.04	9.5
236.839	10.5
237.638	7.5
238.437	9.5
239.236	10.5
240.035	8.5
240.833	10.5
241.632	8.5
242.43	7.5
243.229	10.5
244.027	9.5
244.826	11.5
245.624	11.5
246.422	9.5
247.22	12.5
248.018	14.5
248.816	12.5
249.614	10.5
250.412	12.5
251.21	13.5
252.007	15.5
252.805	12.5
253.602	14.5
254.4	13.5
255.197	14.5
255.994	13.5
256.791	16.5
257.589	19.5
258.386	18.5
259.183	17.5
259.979	17.5
260.776	18.5
261.573	16.5
262.37	19.5
263.166	23.5
263.963	19.5
264.759	19.5
265.556	24.5
266.352	22.5
267.148	22.5
267.944	22.5
268.74	27.5
269.536	22.5
270.332	27.5
271.128	28.5
271.924	27.5
272.719	24.5
273.515	27.5
274.311	29.5
275.106	26.5
275.901	27.5
276.697	26.5
277.492	28.5
278.287	30.5
279.082	29.5
279.877	28.5
280.672	26.5
281.467	31.5
282.262	26.5
283.056	30.5
283.851	30.5
284.646	30.5
285.44	27.5
286.234	28.5
287.029	29.5
287.823	31.5
288.617	24.5
289.411	26.5
290.205	27.5
290.999	29.5
291.793	26.5
292.587	27.5
293.381	28.5
294.174	22.5
294.968	23.5
295.761	23.5
296.555	23.5
297.348	23.5
298.141	25.5
298.935	24.5
299.728	20.5
300.521	21.5
301.314	22.5
302.107	20.5
302.899	19.5
303.692	19.5
304.485	18.5
305.277	21.5
306.07	17.5
306.862	18.5
307.655	20.5
308.447	18.5
309.239	17.5
310.031	17.5
310.823	14.5
311.615	15.5
312.407	13.5
313.199	16.5
313.991	14.5
314.783	13.5
315.574	14.5
316.366	14.5
317.157	13.5
317.949	14.5
318.74	13.5
319.531	13.5
320.322	14.5
321.113	10.5
321.904	11.5
322.695	11.5
323.486	11.5
324.277	11.5
325.068	11.5
325.858	11.5
326.649	12.5
327.439	10.5
328.23	10.5
329.02	7.5
329.81	9.5
330.6	9.5
331.391	12.5
332.181	10.5
332.971	9.5
333.76	10.5
334.55	10.5
335.34	10.5
336.13	8.5
336.919	10.5
337.709	12.5
338.498	12.5
339.287	12.5
340.077	11.5
340.866	11.5
341.655	8.5
342.444	11.5
343.233	11.5
344.022	10.5
344.811	7.5
345.6	9.5
346.388	9.5
347.177	8.5
347.965	7.5
348.754	8.5
349.542	11.5
350.33	7.5
351.119	9.5
351.907	10.5
352.695	10.5
353.483	8.5
354.271	9.5
355.059	7.5
355.846	9.5
356.634	7.5
357.422	10.5
358.209	9.5
358.997	9.5
359.784	8.5
360.571	7.5
361.359	9.5
362.146	7.5
362.933	9.5
363.72	10.5
364.507	11.5
365.294	7.5
366.081	9.5
366.867	7.5
367.654	9.5
368.44	9.5
369.227	6.5
370.013	8.5
370.8	6.5
371.586	9.5
372.372	8.5
373.158	7.5
373.944	8.5
374.73	7.5
375.516	8.5
376.302	7.5
377.088	9.5
377.873	8.5
378.659	9.5
379.445	8.5
380.23	9.5
381.015	10.5
381.801	8.5
382.586	7.5
383.371	10.5
384.156	7.5
384.941	10.5
385.726	8.5
386.511	9.5
387.296	11.5
388.08	13.5
388.865	8.5
389.649	8.5
390.434	8.5
391.218	10.5
392.003	10.5
392.787	12.5
393.571	8.5
394.355	12.5
395.139	10.5
395.923	12.5
396.707	9.5
397.491	11.5
398.274	9.5
399.058	11.5
399.842	7.5
400.625	11.5
401.408	11.5
402.192	12.5
402.975	11.5
403.758	11.5
404.541	15.5
405.324	12.5
406.107	13.5
406.89	13.5
407.673	12.5
408.456	14.5
409.238	10.5
410.021	13.5
410.803	11.5
411.586	13.5
412.368	16.5
413.151	14.5
413.933	14.5
414.715	15.5
415.497	18.5
416.279	16.5
417.061	15.5
417.843	15.5
418.624	15.5
419.406	16.5
420.188	17.5
420.969	14.5
421.751	19.5
422.532	20.5
423.313	18.5
424.095	22.5
424.876	19.5
425.657	19.5
426.438	21.5
427.219	22.5
428	24.5
428.78	21.5
429.561	23.5
430.342	23.5
431.122	23.5
431.903	26.5
432.683	28.5
433.464	29.5
434.244	30.5
435.024	29.5
435.804	34.5
436.584	32.5
437.364	36.5
438.144	35.5
438.924	39.5
439.704	43.5
440.483	45.5
441.263	49.5
442.042	49.5
442.822	52.5
443.601	56.5
444.38	63.5
445.16	63.5
445.939	68.5
446.718	74.5
447.497	80.5
448.276	88.5
449.054	98.5
449.833	105.5
450.612	121.5
451.391	129.5
452.169	142.5
452.948	149.5
453.726	168.5
454.504	191.5
455.282	211.5
456.061	235.5
456.839	263.5
457.617	295.5
458.395	324.5
459.172	362.5
459.95	412.5
460.728	465.5
461.506	503.5
462.283	570.5
463.061	629.5
463.838	703.5
464.615	788.5
465.393	890.5
466.17	990.5
466.947	1110.5
467.724	1225.5
468.501	1351.5
469.278	1500.5
470.055	1664.5
470.831	1835.5
471.608	2059.5
472.385	2282.5
473.161	2529.5
473.938	2784.5
474.714	3061.5
475.49	3375.5
476.266	3712.5
477.043	4108.5
477.819	4528.5
478.595	4984.5
479.371	5462.5
480.146	5944.5
480.922	6550.5
481.698	7110.5
482.473	7828.5
483.249	8526.5
484.024	9281.5
484.8	10147.5
485.575	11058.5
486.35	12016.5
487.126	13127.5
487.901	14248.5
488.676	15439.5
489.451	16778.5
490.225	18089.5
491	19562.5
491.775	20979.5
492.55	22628.5
493.324	24176.5
494.099	25883.5
494.873	27522.5
495.647	29240.5
496.422	30969.5
497.196	32576.5
497.97	34163.5
498.744	35684.5
499.518	37083.5
500.292	38292.5
501.066	39523.5
501.839	40554.5
502.613	41384.5
503.387	41918.5
504.16	42416.5
504.934	42472.5
505.707	42488.5
506.48	42256.5
507.253	41791.5
508.027	41029.5
508.8	40158.5
509.573	39136.5
510.346	38104.5
511.118	36863.5
511.891	35813.5
512.664	34507.5
513.437	33214.5
514.209	31749.5
514.982	30502.5
515.754	29288.5
516.526	28039.5
517.298	26877.5
518.071	25755.5
518.843	24665.5
519.615	23685.5
520.387	22703.5
521.159	21817.5
521.93	20924.5
522.702	20028.5
523.474	19253.5
524.245	18446.5
525.017	17731.5
525.788	16944.5
526.56	16118.5
527.331	15348.5
528.102	14698.5
528.873	13971.5
529.644	13257.5
530.415	12554.5
531.186	11952.5
531.957	11313.5
532.728	10747.5
533.498	10177.5
534.269	9602.5
535.039	9053.5
535.81	8617.5
536.58	8136.5
537.351	7690.5
538.121	7257.5
538.891	6867.5
539.661	6520.5
540.431	6154.5
541.201	5834.5
541.971	5552.5
542.741	5244.5
543.51	4946.5
544.28	4727.5
545.05	4489.5
545.819	4256.5
546.588	4054.5
547.358	3863.5
548.127	3665.5
548.896	3483.5
549.665	3294.5
550.434	3119.5
551.203	2970.5
551.972	2807.5
552.741	2660.5
553.51	2523.5
554.278	2372.5
555.047	2233.5
555.815	2097.5
556.584	1999.5
557.352	1902.5
558.121	1770.5
558.889	1693.5
559.657	1593.5
560.425	1500.5
561.193	1417.5
561.961	1351.5
562.729	1267.5
563.496	1193.5
564.264	1144.5
565.032	1078.5
565.799	1020.5
566.567	970.5
567.334	909.5
568.101	860.5
568.869	809.5
569.636	772.5
570.403	732.5
571.17	674.5
571.937	653.5
572.704	616.5
573.471	570.5
574.237	539.5
575.004	508.5
575.771	483.5
576.537	452.5
577.303	429.5
578.07	408.5
578.836	386.5
579.602	356.5
580.368	341.5
581.134	323.5
581.9	307.5
582.666	300.5
583.432	278.5
584.198	260.5
584.964	248.5
585.729	235.5
586.495	229.5
587.26	213.5
588.025	200.5
588.791	191.5
589.556	183.5
590.321	177.5
591.086	166.5
591.851	162.5
592.616	144.5
593.381	143.5
594.146	138.5
594.911	129.5
595.675	120.5
596.44	120.5
597.204	110.5
597.969	110.5
598.733	106.5
599.497	100.5
600.261	97.5
601.025	88.5
601.79	84.5
602.553	85.5
603.317	81.5
604.081	78.5
604.845	74.5
605.609	71.5
606.372	65.5
607.136	64.5
607.899	62.5
608.662	62.5
609.426	58.5
610.189	57.5
610.952	51.5
611.715	50.5
612.478	51.5
613.241	44.5
614.004	48.5
614.767	45.5
615.529	43.5
616.292	41.5
617.055	43.5
617.817	37.5
618.579	35.5
619.342	35.5
620.104	36.5
620.866	32.5
621.628	30.5
622.39	32.5
623.152	30.5
623.914	31.5
624.676	33.5
625.438	30.5
626.199	30.5
626.961	28.5
627.722	26.5
628.484	25.5
629.245	22.5
630.006	22.5
630.768	24.5
631.529	22.5
632.29	21.5
633.051	20.5
633.812	22.5
634.573	19.5
635.333	18.5
636.094	15.5
636.855	18.5
637.615	20.5
638.376	19.5
639.136	17.5
639.896	17.5
640.657	18.5
641.417	16.5
642.177	16.5
642.937	15.5
643.697	13.5
644.457	14.5
645.216	14.5
645.976	15.5
646.736	11.5
647.495	14.5
648.255	12.5
649.014	12.5
649.774	12.5
650.533	12.5
651.292	13.5
652.051	10.5
652.81	10.5
653.569	13.5
654.328	9.5
655.087	11.5
655.846	13.5
656.604	12.5
657.363	10.5
658.121	13.5
658.88	9.5
659.638	10.5
660.397	10.5
661.155	11.5
661.913	6.5
662.671	8.5
663.429	6.5
664.187	6.5
664.945	10.5
665.703	7.5
666.46	7.5
667.218	7.5
667.976	6.5
668.733	9.5
669.49	7.5
670.248	6.5
671.005	7.5
671.762	8.5
672.519	6.5
673.276	6.5
674.033	8.5
674.79	9.5
675.547	9.5
676.304	7.5
677.06	8.5
677.817	8.5
678.574	4.5
679.33	7.5
680.086	7.5
680.843	7.5
681.599	6.5
682.355	6.5
683.111	8.5
683.867	4.5
684.623	10.5
685.379	6.5
686.135	8.5
686.89	4.5
687.646	7.5
688.402	2.5
689.157	6.5
689.912	8.5
690.668	4.5
691.423	6.5
692.178	6.5
692.933	8.5
693.688	5.5
694.443	6.5
695.198	7.5
695.953	5.5
696.708	8.5
697.462	4.5
698.217	3.5
698.972	4.5
699.726	4.5
700.48	6.5
701.235	4.5
701.989	5.5
702.743	6.5
703.497	7.5
704.251	7.5
705.005	6.5
705.759	8.5
706.513	6.5
707.266	9.5
708.02	4.5
708.774	4.5
709.527	5.5
710.28	3.5
711.034	8.5
711.787	7.5
712.54	6.5
713.293	6.5
714.046	4.5
714.799	4.5
715.552	6.5
716.305	8.5
717.058	5.5
717.81	7.5
718.563	6.5
719.315	6.5
720.068	8.5
720.82	7.5
721.573	6.5
722.325	7.5
723.077	7.5
723.829	7.5
724.581	8.5
725.333	6.5
726.085	6.5
726.836	8.5
727.588	6.5
728.34	6.5
729.091	7.5
729.843	4.5
730.594	7.5
731.346	8.5
732.097	9.5
732.848	6.5
733.599	9.5
734.35	6.5
735.101	8.5
735.852	6.5
736.603	8.5
737.354	8.5
738.104	6.5
738.855	8.5
739.605	7.5
740.356	11.5
741.106	6.5
741.856	8.5
742.607	7.5
743.357	8.5
744.107	10.5
744.857	8.5
745.607	6.5
746.357	7.5
747.106	8.5
747.856	10.5
748.606	8.5
749.355	9.5
750.105	8.5
750.854	7.5
751.603	11.5
752.353	12.5
753.102	11.5
753.851	10.5
754.6	9.5
755.349	8.5
756.098	9.5
756.847	9.5
757.595	10.5
758.344	8.5
759.093	10.5
759.841	12.5
760.589	11.5
761.338	11.5
762.086	8.5
762.834	12.5
763.582	12.5
764.331	11.5
765.079	10.5
765.826	9.5
766.574	10.5
767.322	13.5
768.07	12.5
768.817	12.5
769.565	13.5
770.312	11.5
771.06	13.5
771.807	11.5
772.554	13.5
773.302	11.5
774.049	13.5
774.796	11.5
775.543	13.5
776.29	13.5
777.036	12.5
777.783	9.5
778.53	12.5
779.276	11.5
780.023	12.5
780.769	12.5
781.516	16.5
782.262	14.5
783.008	14.5
783.754	13.5
784.5	13.5
785.246	12.5
785.992	14.5
786.738	12.5
787.484	11.5
788.23	12.5
788.975	16.5
789.721	14.5
790.466	13.5
791.212	13.5
791.957	12.5
792.702	12.5
793.447	10.5
794.193	13.5
794.938	10.5
795.683	12.5
796.427	12.5
797.172	12.5
797.917	10.5
798.662	10.5
799.406	11.5
800.151	10.5
800.895	12.5
801.64	10.5
802.384	8.5
803.128	10.5
803.872	11.5
804.616	12.5
805.36	9.5
806.104	9.5
806.848	8.5
807.592	9.5
808.336	10.5
809.079	8.5
809.823	7.5
810.566	8.5
811.31	9.5
812.053	8.5
812.796	8.5
813.539	8.5
814.283	6.5
815.026	8.5
815.769	7.5
816.511	8.5
817.254	4.5
817.997	6.5
818.74	7.5
819.482	5.5
820.225	6.5
820.967	6.5
821.71	8.5
822.452	8.5
823.194	5.5
823.936	5.5
824.678	5.5
825.42	5.5
826.162	4.5
826.904	4.5
827.646	6.5
828.388	4.5
829.129	6.5
829.871	3.5
830.612	4.5
831.354	5.5
832.095	5.5
832.836	4.5
833.577	5.5
834.319	6.5
835.06	3.5
835.801	5.5
836.542	5.5
837.282	5.5
838.023	4.5
838.764	5.5
839.504	4.5
840.245	3.5
840.985	2.5
841.726	4.5
842.466	3.5
843.206	5.5
843.946	2.5
844.687	6.5
845.427	4.5
846.166	4.5
846.906	3.5
847.646	4.5
848.386	6.5
849.125	1.5
849.865	5.5
850.605	3.5
851.344	1.5
852.083	3.5
852.823	4.5
853.562	4.5
854.301	3.5
855.04	2.5
855.779	3.5
856.518	4.5
857.257	3.5
857.995	2.5
858.734	3.5
859.473	2.5
860.211	2.5
860.95	1.5
861.688	2.5
862.426	1.5
863.165	4.5
863.903	2.5
864.641	1.5
865.379	1.5
866.117	0.5
866.855	2.5
867.593	2.5
868.33	1.5
869.068	4.5
869.806	0.5
870.543	2.5
871.28	0.5
872.018	1.5
872.755	2.5
873.492	1.5
874.229	2.5
874.967	-0.5
875.703	2.5
876.44	1.5
877.177	1.5
877.914	2.5
878.651	4.5
879.387	2.5
880.124	1.5
880.86	2.5
881.597	1.5
882.333	2.5
883.069	1.5
883.806	3.5
884.542	0.5
885.278	0.5
886.014	4.5
886.749	0.5
887.485	0.5
888.221	0.5
888.957	1.5
889.692	-0.5
890.428	0.5
891.163	2.5
891.899	0.5
892.634	1.5
893.369	-2.5
894.104	0.5
894.839	1.5
895.574	2.5
896.309	1.5
897.044	0.5
897.779	1.5
898.514	0.5
899.248	-0.5
899.983	1.5
900.717	-1.5
901.452	-0.5
902.186	0.5
902.92	0.5
903.654	-1.5
904.389	5.5
905.123	1.5
905.857	3.5
906.59	2.5
907.324	2.5
908.058	1.5
908.792	0.5
909.525	2.5
910.259	0.5
910.992	-0.5
911.726	1.5
912.459	1.5
913.192	1.5
913.925	0.5
914.658	-0.5
915.391	-0.5
916.124	1.5
916.857	0.5
917.59	-0.5
918.323	1.5
919.055	1.5
919.788	1.5
920.521	-2.5
921.253	0.5
921.985	4.5
922.718	-0.5
923.45	-0.5
924.182	-0.5
924.914	-1.5
925.646	-0.5
926.378	-0.5
927.11	1.5
927.841	0.5
928.573	0.5
929.305	1.5
930.036	2.5
930.768	1.5
931.499	-1.5
932.23	0.5
932.962	0.5
933.693	-0.5
934.424	-2.5
935.155	1.5
935.886	1.5
936.617	-0.5
937.348	-0.5
938.078	0.5
938.809	0.5
939.54	-1.5
940.27	1.5
941.001	0.5
941.731	0.5
942.461	-0.5
943.191	-1.5
943.922	0.5
944.652	0.5
945.382	-0.5
946.112	-1.5
946.841	0.5
947.571	0.5
948.301	-1.5
949.031	-1.5
949.76	-2.5
950.49	-0.5
951.219	-1.5
951.948	-0.5
952.678	-0.5
953.407	-0.5
954.136	0.5
954.865	1.5
955.594	0.5
956.323	0.5
957.052	1.5
957.78	0.5
958.509	-1.5
959.238	0.5
959.966	-1.5
960.695	0.5
961.423	2.5
962.151	2.5
962.88	0.5
963.608	1.5
964.336	-0.5
965.064	-0.5
965.792	-0.5
966.52	2.5
967.247	1.5
967.975	0.5
968.703	2.5
969.43	0.5
970.158	-0.5
970.885	2.5
971.613	0.5
972.34	-1.5
973.067	1.5
973.794	0.5
974.521	-0.5
975.248	-2.5
975.975	-0.5
976.702	0.5
977.429	1.5
978.156	0.5
978.882	0.5
979.609	0.5
980.335	3.5
981.062	0.5
981.788	0.5
982.514	-0.5
983.24	-1.5
983.967	0.5
984.693	0.5
985.419	-0.5
986.144	0.5
986.87	-0.5
987.596	-0.5
988.322	0.5
989.047	0.5
989.773	1.5
990.498	-1.5
991.224	-0.5
991.949	2.5
992.674	1.5
993.399	-1.5
994.124	-0.5
994.849	0.5
995.574	0.5
996.299	-0.5
997.024	0.5
997.749	2.5
998.473	0.5
999.198	2.5
999.922	0.5
1000.647	0.5
1001.371	1.5
1002.095	0.5
1002.82	-2.5
1003.544	0.5
1004.268	3.5
1004.992	4.5
1005.716	2.5
1006.439	3.5
1007.163	5.5
1007.887	2.5
1008.611	0.5
1009.334	0.5
1010.058	-0.5
1010.781	-1.5
1011.504	0.5
1012.228	0.5
1012.951	0.5
1013.674	0.5
1014.397	0.5
1015.12	-1.5
