节点500_565_QEPB04081__348__09-56-12-402.txt的数据

Date: Thu Nov 13 09:56:12 CST 2025
User: PC
Spectrometer: QEPB0408
触发模式: 0
积分时间 (秒): 1.000000E-2
Scans to average: 1
启用暗噪声校正: true
启用非线性校正: false
滑动平均宽度: 0
X轴模式: Wavelengths
Number of Pixels in Spectrum: 1044
>>>>>Begin Spectral Data<<<<<
220.843	5
221.644	2
222.444	7
223.244	4
224.045	5
224.845	5
225.645	7
226.445	4
227.245	5
228.045	5
228.845	8
229.645	7
230.444	6
231.244	8
232.043	7
232.843	6
233.642	7
234.442	9
235.241	9
236.04	7
236.839	8
237.638	8
238.437	10
239.236	11
240.035	10
240.833	9
241.632	10
242.43	11
243.229	13
244.027	11
244.826	11
245.624	11
246.422	11
247.22	9
248.018	14
248.816	13
249.614	14
250.412	12
251.21	11
252.007	13
252.805	15
253.602	13
254.4	15
255.197	14
255.994	17
256.791	15
257.589	17
258.386	13
259.183	16
259.979	17
260.776	18
261.573	17
262.37	17
263.166	21
263.963	21
264.759	19
265.556	21
266.352	18
267.148	22
267.944	21
268.74	27
269.536	23
270.332	26
271.128	23
271.924	27
272.719	24
273.515	26
274.311	26
275.106	29
275.901	29
276.697	26
277.492	30
278.287	30
279.082	29
279.877	29
280.672	30
281.467	28
282.262	28
283.056	27
283.851	31
284.646	27
285.44	28
286.234	26
287.029	28
287.823	29
288.617	25
289.411	29
290.205	28
290.999	29
291.793	28
292.587	27
293.381	25
294.174	25
294.968	24
295.761	23
296.555	23
297.348	25
298.141	23
298.935	23
299.728	20
300.521	23
301.314	19
302.107	19
302.899	18
303.692	20
304.485	16
305.277	19
306.07	20
306.862	17
307.655	20
308.447	16
309.239	17
310.031	17
310.823	19
311.615	15
312.407	16
313.199	16
313.991	14
314.783	12
315.574	13
316.366	16
317.157	14
317.949	14
318.74	13
319.531	13
320.322	15
321.113	11
321.904	12
322.695	13
323.486	13
324.277	13
325.068	11
325.858	11
326.649	12
327.439	10
328.23	10
329.02	11
329.81	12
330.6	11
331.391	10
332.181	9
332.971	11
333.76	11
334.55	10
335.34	10
336.13	13
336.919	10
337.709	12
338.498	9
339.287	7
340.077	9
340.866	9
341.655	11
342.444	9
343.233	9
344.022	10
344.811	10
345.6	7
346.388	10
347.177	11
347.965	11
348.754	9
349.542	11
350.33	8
351.119	9
351.907	12
352.695	7
353.483	9
354.271	9
355.059	9
355.846	9
356.634	12
357.422	9
358.209	10
358.997	9
359.784	8
360.571	12
361.359	8
362.146	11
362.933	11
363.72	6
364.507	9
365.294	8
366.081	10
366.867	9
367.654	8
368.44	11
369.227	7
370.013	7
370.8	9
371.586	7
372.372	9
373.158	10
373.944	7
374.73	7
375.516	8
376.302	7
377.088	8
377.873	8
378.659	10
379.445	11
380.23	8
381.015	8
381.801	10
382.586	9
383.371	7
384.156	9
384.941	10
385.726	9
386.511	10
387.296	9
388.08	11
388.865	9
389.649	12
390.434	9
391.218	11
392.003	9
392.787	9
393.571	11
394.355	7
395.139	10
395.923	9
396.707	10
397.491	9
398.274	11
399.058	11
399.842	9
400.625	10
401.408	12
402.192	11
402.975	14
403.758	12
404.541	13
405.324	11
406.107	11
406.89	12
407.673	15
408.456	12
409.238	15
410.021	13
410.803	13
411.586	17
412.368	15
413.151	15
413.933	13
414.715	17
415.497	15
416.279	13
417.061	16
417.843	17
418.624	17
419.406	17
420.188	19
420.969	18
421.751	19
422.532	17
423.313	17
424.095	20
424.876	21
425.657	22
426.438	21
427.219	20
428	21
428.78	23
429.561	24
430.342	23
431.122	29
431.903	25
432.683	30
433.464	29
434.244	29
435.024	29
435.804	35
436.584	37
437.364	36
438.144	35
438.924	43
439.704	42
440.483	47
441.263	47
442.042	52
442.822	52
443.601	59
444.38	62
445.16	63
445.939	68
446.718	78
447.497	85
448.276	89
449.054	103
449.833	108
450.612	124
451.391	135
452.169	148
452.948	166
453.726	186
454.504	202
455.282	226
456.061	248
456.839	279
457.617	309
458.395	343
459.172	386
459.95	416
460.728	471
461.506	519
462.283	591
463.061	662
463.838	737
464.615	817
465.393	907
466.17	1011
466.947	1123
467.724	1249
468.501	1375
469.278	1507
470.055	1710
470.831	1873
471.608	2061
472.385	2300
473.161	2501
473.938	2809
474.714	3055
475.49	3349
476.266	3676
477.043	4034
477.819	4439
478.595	4822
479.371	5296
480.146	5769
480.922	6329
481.698	6860
482.473	7481
483.249	8142
484.024	8857
484.8	9674
485.575	10443
486.35	11337
487.126	12365
487.901	13328
488.676	14498
489.451	15686
490.225	16875
491	18166
491.775	19544
492.55	20933
493.324	22412
494.099	23862
494.873	25469
495.647	27101
496.422	28685
497.196	30147
497.97	31714
498.744	33167
499.518	34459
500.292	35711
501.066	36956
501.839	38088
502.613	38861
503.387	39592
504.16	40317
504.934	40526
505.707	40615
506.48	40595
507.253	40365
508.027	39795
508.8	39037
509.573	38320
510.346	37326
511.118	36279
511.891	35469
512.664	34222
513.437	32984
514.209	31735
514.982	30557
515.754	29315
516.526	28135
517.298	26954
518.071	25915
518.843	24831
519.615	23799
520.387	22869
521.159	21969
521.93	21137
522.702	20290
523.474	19416
524.245	18639
525.017	17922
525.788	17110
526.56	16319
527.331	15636
528.102	14926
528.873	14185
529.644	13486
530.415	12853
531.186	12217
531.957	11604
532.728	10964
533.498	10438
534.269	9833
535.039	9335
535.81	8850
536.58	8371
537.351	7926
538.121	7486
538.891	7079
539.661	6735
540.431	6349
541.201	6003
541.971	5719
542.741	5385
543.51	5103
544.28	4883
545.05	4639
545.819	4391
546.588	4209
547.358	3996
548.127	3774
548.896	3596
549.665	3407
550.434	3239
551.203	3079
551.972	2918
552.741	2770
553.51	2602
554.278	2455
555.047	2317
555.815	2192
556.584	2082
557.352	1963
558.121	1854
558.889	1762
559.657	1667
560.425	1570
561.193	1469
561.961	1404
562.729	1324
563.496	1253
564.264	1191
565.032	1121
565.799	1059
566.567	1004
567.334	947
568.101	899
568.869	847
569.636	791
570.403	771
571.17	713
571.937	671
572.704	648
573.471	594
574.237	569
575.004	533
575.771	511
576.537	475
577.303	454
578.07	425
578.836	401
579.602	377
580.368	354
581.134	338
581.9	316
582.666	302
583.432	291
584.198	277
584.964	261
585.729	243
586.495	241
587.26	221
588.025	210
588.791	197
589.556	191
590.321	180
591.086	171
591.851	161
592.616	155
593.381	143
594.146	140
594.911	137
595.675	125
596.44	119
597.204	115
597.969	110
598.733	106
599.497	107
600.261	97
601.025	93
601.79	90
602.553	85
603.317	84
604.081	83
604.845	75
605.609	70
606.372	69
607.136	66
607.899	65
608.662	64
609.426	58
610.189	56
610.952	56
611.715	54
612.478	55
613.241	50
614.004	47
614.767	49
615.529	45
616.292	48
617.055	41
617.817	39
618.579	38
619.342	36
620.104	34
620.866	35
621.628	33
622.39	33
623.152	32
623.914	31
624.676	30
625.438	29
626.199	28
626.961	28
627.722	26
628.484	24
629.245	28
630.006	24
630.768	23
631.529	25
632.29	22
633.051	24
633.812	20
634.573	24
635.333	20
636.094	18
636.855	17
637.615	19
638.376	16
639.136	18
639.896	17
640.657	17
641.417	12
642.177	16
642.937	19
643.697	15
644.457	13
645.216	15
645.976	14
646.736	14
647.495	10
648.255	14
649.014	13
649.774	14
650.533	13
651.292	11
652.051	12
652.81	11
653.569	12
654.328	12
655.087	12
655.846	11
656.604	9
657.363	8
658.121	13
658.88	14
659.638	9
660.397	10
661.155	9
661.913	9
662.671	10
663.429	8
664.187	10
664.945	11
665.703	9
666.46	9
667.218	9
667.976	8
668.733	6
669.49	10
670.248	8
671.005	8
671.762	10
672.519	9
673.276	10
674.033	7
674.79	8
675.547	10
676.304	8
677.06	8
677.817	5
678.574	7
679.33	8
680.086	7
680.843	5
681.599	7
682.355	7
683.111	8
683.867	7
684.623	7
685.379	9
686.135	7
686.89	9
687.646	9
688.402	7
689.157	7
689.912	7
690.668	9
691.423	5
692.178	7
692.933	9
693.688	8
694.443	6
695.198	9
695.953	7
696.708	7
697.462	7
698.217	6
698.972	6
699.726	8
700.48	5
701.235	7
701.989	6
702.743	4
703.497	7
704.251	6
705.005	7
705.759	5
706.513	8
707.266	7
708.02	7
708.774	6
709.527	6
710.28	6
711.034	5
711.787	8
712.54	5
713.293	7
714.046	6
714.799	7
715.552	6
716.305	9
717.058	7
717.81	8
718.563	7
719.315	5
720.068	8
720.82	7
721.573	9
722.325	7
723.077	7
723.829	6
724.581	5
725.333	8
726.085	7
726.836	7
727.588	9
728.34	6
729.091	7
729.843	9
730.594	9
731.346	7
732.097	8
732.848	8
733.599	6
734.35	9
735.101	9
735.852	9
736.603	7
737.354	8
738.104	8
738.855	7
739.605	9
740.356	8
741.106	6
741.856	9
742.607	6
743.357	10
744.107	7
744.857	9
745.607	7
746.357	8
747.106	10
747.856	9
748.606	9
749.355	7
750.105	12
750.854	10
751.603	8
752.353	8
753.102	9
753.851	8
754.6	9
755.349	8
756.098	8
756.847	10
757.595	9
758.344	8
759.093	8
759.841	9
760.589	13
761.338	8
762.086	10
762.834	9
763.582	12
764.331	11
765.079	12
765.826	13
766.574	14
767.322	11
768.07	10
768.817	14
769.565	12
770.312	12
771.06	14
771.807	10
772.554	10
773.302	12
774.049	11
774.796	11
775.543	13
776.29	14
777.036	11
777.783	13
778.53	11
779.276	14
780.023	13
780.769	14
781.516	14
782.262	14
783.008	12
783.754	13
784.5	14
785.246	18
785.992	13
786.738	11
787.484	14
788.23	15
788.975	15
789.721	13
790.466	14
791.212	13
791.957	14
792.702	14
793.447	11
794.193	15
794.938	13
795.683	13
796.427	14
797.172	13
797.917	13
798.662	12
799.406	12
800.151	11
800.895	10
801.64	12
802.384	10
803.128	10
803.872	11
804.616	8
805.36	8
806.104	9
806.848	10
807.592	11
808.336	11
809.079	9
809.823	10
810.566	10
811.31	7
812.053	9
812.796	8
813.539	6
814.283	5
815.026	8
815.769	7
816.511	9
817.254	7
817.997	8
818.74	9
819.482	5
820.225	7
820.967	9
821.71	3
822.452	7
823.194	6
823.936	5
824.678	5
825.42	6
826.162	6
826.904	7
827.646	6
828.388	7
829.129	4
829.871	4
830.612	5
831.354	6
832.095	5
832.836	5
833.577	5
834.319	6
835.06	6
835.801	7
836.542	4
837.282	6
838.023	7
838.764	7
839.504	4
840.245	5
840.985	5
841.726	4
842.466	4
843.206	5
843.946	5
844.687	6
845.427	3
846.166	5
846.906	7
847.646	4
848.386	6
849.125	3
849.865	5
850.605	2
851.344	4
852.083	7
852.823	3
853.562	3
854.301	4
855.04	6
855.779	4
856.518	3
857.257	4
857.995	2
858.734	3
859.473	2
860.211	5
860.95	1
861.688	3
862.426	3
863.165	2
863.903	4
864.641	3
865.379	3
866.117	1
866.855	3
867.593	-1
868.33	3
869.068	2
869.806	5
870.543	1
871.28	4
872.018	3
872.755	3
873.492	3
874.229	5
874.967	3
875.703	2
876.44	2
877.177	2
877.914	1
878.651	2
879.387	3
880.124	1
880.86	0
881.597	1
882.333	2
883.069	1
883.806	2
884.542	4
885.278	3
886.014	3
886.749	1
887.485	4
888.221	1
888.957	3
889.692	-1
890.428	4
891.163	3
891.899	1
892.634	1
893.369	2
894.104	4
894.839	3
895.574	3
896.309	2
897.044	-1
897.779	2
898.514	1
899.248	2
899.983	1
900.717	2
901.452	2
902.186	-1
902.92	3
903.654	1
904.389	2
905.123	0
905.857	3
906.59	0
907.324	1
908.058	2
908.792	-1
909.525	1
910.259	1
910.992	0
911.726	2
912.459	2
913.192	1
913.925	-1
914.658	2
915.391	1
916.124	1
916.857	-1
917.59	1
918.323	1
919.055	1
919.788	1
920.521	2
921.253	1
921.985	1
922.718	-1
923.45	0
924.182	2
924.914	1
925.646	-1
926.378	1
927.11	0
927.841	1
928.573	1
929.305	1
930.036	2
930.768	0
931.499	2
932.23	1
932.962	2
933.693	1
934.424	1
935.155	2
935.886	0
936.617	0
937.348	0
938.078	2
938.809	2
939.54	0
940.27	2
941.001	1
941.731	2
942.461	-1
943.191	1
943.922	2
944.652	-1
945.382	1
946.112	0
946.841	2
947.571	1
948.301	1
949.031	0
949.76	-1
950.49	2
951.219	-2
951.948	0
952.678	0
953.407	1
954.136	0
954.865	2
955.594	1
956.323	0
957.052	1
957.78	2
958.509	2
959.238	2
959.966	0
960.695	1
961.423	1
962.151	0
962.88	1
963.608	1
964.336	-1
965.064	0
965.792	1
966.52	-1
967.247	-1
967.975	1
968.703	2
969.43	0
970.158	0
970.885	0
971.613	-1
972.34	2
973.067	0
973.794	1
974.521	1
975.248	-1
975.975	-1
976.702	1
977.429	1
978.156	0
978.882	3
979.609	0
980.335	-2
981.062	2
981.788	0
982.514	2
983.24	-1
983.967	0
984.693	0
985.419	1
986.144	0
986.87	1
987.596	1
988.322	-2
989.047	1
989.773	3
990.498	0
991.224	1
991.949	0
992.674	1
993.399	0
994.124	1
994.849	1
995.574	0
996.299	1
997.024	0
997.749	0
998.473	-3
999.198	-1
999.922	1
1000.647	1
1001.371	5
1002.095	0
1002.82	-2
1003.544	-3
1004.268	3
1004.992	0
1005.716	2
1006.439	5
1007.163	4
1007.887	5
1008.611	2
1009.334	-1
1010.058	2
1010.781	3
1011.504	3
1012.228	-2
1012.951	0
1013.674	1
1014.397	0
1015.12	-1
