节点500_565_QEPB04081__630__10-00-53-967.txt的数据

Date: Thu Nov 13 10:00:53 CST 2025
User: PC
Spectrometer: QEPB0408
触发模式: 0
积分时间 (秒): 1.000000E-2
Scans to average: 1
启用暗噪声校正: true
启用非线性校正: false
滑动平均宽度: 0
X轴模式: Wavelengths
Number of Pixels in Spectrum: 1044
>>>>>Begin Spectral Data<<<<<
220.843	5
221.644	5
222.444	3
223.244	2
224.045	6
224.845	6
225.645	4
226.445	5
227.245	7
228.045	5
228.845	7
229.645	3
230.444	7
231.244	7
232.043	9
232.843	7
233.642	5
234.442	6
235.241	6
236.04	6
236.839	7
237.638	8
238.437	8
239.236	8
240.035	9
240.833	8
241.632	9
242.43	9
243.229	8
244.027	9
244.826	9
245.624	9
246.422	9
247.22	12
248.018	11
248.816	11
249.614	13
250.412	11
251.21	13
252.007	14
252.805	11
253.602	13
254.4	14
255.197	12
255.994	12
256.791	16
257.589	16
258.386	14
259.183	15
259.979	16
260.776	19
261.573	17
262.37	14
263.166	18
263.963	17
264.759	21
265.556	20
266.352	18
267.148	22
267.944	21
268.74	21
269.536	20
270.332	23
271.128	23
271.924	23
272.719	23
273.515	24
274.311	26
275.106	27
275.901	25
276.697	27
277.492	25
278.287	29
279.082	23
279.877	25
280.672	25
281.467	27
282.262	27
283.056	27
283.851	24
284.646	26
285.44	26
286.234	26
287.029	27
287.823	23
288.617	28
289.411	29
290.205	23
290.999	27
291.793	24
292.587	25
293.381	24
294.174	23
294.968	24
295.761	21
296.555	23
297.348	24
298.141	19
298.935	24
299.728	19
300.521	19
301.314	21
302.107	22
302.899	18
303.692	19
304.485	19
305.277	19
306.07	17
306.862	18
307.655	18
308.447	19
309.239	19
310.031	19
310.823	17
311.615	12
312.407	15
313.199	16
313.991	12
314.783	15
315.574	13
316.366	12
317.157	14
317.949	13
318.74	14
319.531	11
320.322	12
321.113	8
321.904	11
322.695	11
323.486	9
324.277	12
325.068	10
325.858	13
326.649	11
327.439	10
328.23	13
329.02	11
329.81	11
330.6	9
331.391	12
332.181	9
332.971	11
333.76	11
334.55	11
335.34	12
336.13	11
336.919	10
337.709	13
338.498	11
339.287	9
340.077	9
340.866	10
341.655	11
342.444	11
343.233	9
344.022	9
344.811	8
345.6	9
346.388	10
347.177	11
347.965	8
348.754	7
349.542	9
350.33	10
351.119	9
351.907	9
352.695	10
353.483	10
354.271	7
355.059	9
355.846	10
356.634	9
357.422	9
358.209	10
358.997	9
359.784	9
360.571	7
361.359	8
362.146	9
362.933	8
363.72	9
364.507	9
365.294	5
366.081	10
366.867	8
367.654	8
368.44	8
369.227	7
370.013	7
370.8	9
371.586	7
372.372	6
373.158	8
373.944	9
374.73	6
375.516	8
376.302	7
377.088	8
377.873	7
378.659	10
379.445	7
380.23	7
381.015	9
381.801	8
382.586	7
383.371	7
384.156	9
384.941	7
385.726	8
386.511	9
387.296	9
388.08	7
388.865	10
389.649	9
390.434	12
391.218	7
392.003	7
392.787	9
393.571	11
394.355	9
395.139	10
395.923	9
396.707	9
397.491	9
398.274	10
399.058	12
399.842	12
400.625	11
401.408	11
402.192	11
402.975	13
403.758	9
404.541	11
405.324	11
406.107	10
406.89	12
407.673	10
408.456	12
409.238	14
410.021	14
410.803	13
411.586	14
412.368	14
413.151	11
413.933	14
414.715	15
415.497	16
416.279	15
417.061	17
417.843	15
418.624	16
419.406	15
420.188	14
420.969	18
421.751	17
422.532	18
423.313	17
424.095	19
424.876	21
425.657	21
426.438	21
427.219	20
428	21
428.78	24
429.561	21
430.342	25
431.122	25
431.903	27
432.683	26
433.464	26
434.244	31
435.024	31
435.804	32
436.584	34
437.364	37
438.144	38
438.924	38
439.704	46
440.483	45
441.263	51
442.042	52
442.822	57
443.601	59
444.38	64
445.16	72
445.939	76
446.718	81
447.497	89
448.276	97
449.054	107
449.833	122
450.612	127
451.391	141
452.169	157
452.948	179
453.726	192
454.504	211
455.282	240
456.061	264
456.839	299
457.617	325
458.395	366
459.172	407
459.95	449
460.728	502
461.506	564
462.283	623
463.061	689
463.838	756
464.615	833
465.393	932
466.17	1038
466.947	1150
467.724	1290
468.501	1419
469.278	1567
470.055	1740
470.831	1907
471.608	2090
472.385	2273
473.161	2540
473.938	2756
474.714	2996
475.49	3281
476.266	3604
477.043	3957
477.819	4320
478.595	4684
479.371	5090
480.146	5554
480.922	6040
481.698	6531
482.473	7089
483.249	7674
484.024	8330
484.8	9011
485.575	9823
486.35	10498
487.126	11365
487.901	12234
488.676	13241
489.451	14265
490.225	15365
491	16474
491.775	17631
492.55	18888
493.324	20244
494.099	21528
494.873	22842
495.647	24314
496.422	25695
497.196	27071
497.97	28488
498.744	29863
499.518	31175
500.292	32451
501.066	33528
501.839	34738
502.613	35605
503.387	36429
504.16	37191
504.934	37705
505.707	37923
506.48	38133
507.253	38144
508.027	37826
508.8	37475
509.573	36980
510.346	36309
511.118	35499
511.891	34700
512.664	33779
513.437	32737
514.209	31587
514.982	30509
515.754	29505
516.526	28283
517.298	27201
518.071	26229
518.843	25068
519.615	24120
520.387	23090
521.159	22226
521.93	21378
522.702	20526
523.474	19754
524.245	18967
525.017	18160
525.788	17429
526.56	16718
527.331	15995
528.102	15289
528.873	14585
529.644	13861
530.415	13171
531.186	12554
531.957	11982
532.728	11426
533.498	10838
534.269	10286
535.039	9730
535.81	9235
536.58	8746
537.351	8292
538.121	7841
538.891	7455
539.661	7047
540.431	6699
541.201	6322
541.971	5977
542.741	5680
543.51	5366
544.28	5086
545.05	4833
545.819	4627
546.588	4385
547.358	4200
548.127	3957
548.896	3780
549.665	3600
550.434	3431
551.203	3239
551.972	3097
552.741	2925
553.51	2759
554.278	2604
555.047	2456
555.815	2324
556.584	2211
557.352	2087
558.121	1970
558.889	1861
559.657	1758
560.425	1657
561.193	1586
561.961	1504
562.729	1418
563.496	1333
564.264	1250
565.032	1203
565.799	1142
566.567	1063
567.334	1005
568.101	945
568.869	892
569.636	850
570.403	799
571.17	760
571.937	724
572.704	682
573.471	638
574.237	609
575.004	586
575.771	531
576.537	502
577.303	487
578.07	451
578.836	428
579.602	398
580.368	380
581.134	357
581.9	337
582.666	328
583.432	313
584.198	296
584.964	277
585.729	259
586.495	245
587.26	235
588.025	223
588.791	217
589.556	200
590.321	189
591.086	185
591.851	175
592.616	165
593.381	157
594.146	152
594.911	139
595.675	136
596.44	127
597.204	125
597.969	117
598.733	111
599.497	106
600.261	103
601.025	97
601.79	95
602.553	87
603.317	85
604.081	83
604.845	82
605.609	75
606.372	73
607.136	72
607.899	72
608.662	65
609.426	63
610.189	61
610.952	58
611.715	55
612.478	53
613.241	51
614.004	50
614.767	47
615.529	47
616.292	43
617.055	41
617.817	41
618.579	38
619.342	37
620.104	39
620.866	37
621.628	37
622.39	37
623.152	33
623.914	35
624.676	31
625.438	29
626.199	28
626.961	28
627.722	28
628.484	27
629.245	27
630.006	24
630.768	22
631.529	23
632.29	24
633.051	19
633.812	22
634.573	22
635.333	19
636.094	19
636.855	17
637.615	20
638.376	19
639.136	21
639.896	19
640.657	18
641.417	18
642.177	15
642.937	17
643.697	15
644.457	14
645.216	13
645.976	14
646.736	14
647.495	12
648.255	13
649.014	15
649.774	15
650.533	13
651.292	10
652.051	12
652.81	12
653.569	12
654.328	10
655.087	11
655.846	10
656.604	12
657.363	8
658.121	11
658.88	11
659.638	8
660.397	12
661.155	9
661.913	9
662.671	9
663.429	8
664.187	10
664.945	9
665.703	9
666.46	7
667.218	9
667.976	10
668.733	7
669.49	10
670.248	4
671.005	8
671.762	8
672.519	7
673.276	9
674.033	7
674.79	10
675.547	5
676.304	9
677.06	8
677.817	8
678.574	6
679.33	7
680.086	5
680.843	9
681.599	7
682.355	6
683.111	6
683.867	4
684.623	7
685.379	9
686.135	7
686.89	6
687.646	5
688.402	7
689.157	6
689.912	7
690.668	9
691.423	6
692.178	6
692.933	7
693.688	7
694.443	7
695.198	8
695.953	6
696.708	6
697.462	3
698.217	8
698.972	7
699.726	5
700.48	5
701.235	5
701.989	7
702.743	7
703.497	7
704.251	7
705.005	5
705.759	6
706.513	7
707.266	7
708.02	6
708.774	4
709.527	7
710.28	2
711.034	7
711.787	6
712.54	5
713.293	5
714.046	7
714.799	7
715.552	6
716.305	4
717.058	7
717.81	7
718.563	5
719.315	5
720.068	7
720.82	8
721.573	5
722.325	7
723.077	7
723.829	7
724.581	7
725.333	6
726.085	6
726.836	7
727.588	6
728.34	5
729.091	9
729.843	7
730.594	7
731.346	7
732.097	8
732.848	8
733.599	9
734.35	7
735.101	8
735.852	8
736.603	5
737.354	8
738.104	9
738.855	5
739.605	7
740.356	9
741.106	7
741.856	6
742.607	8
743.357	7
744.107	10
744.857	9
745.607	7
746.357	9
747.106	5
747.856	5
748.606	9
749.355	8
750.105	7
750.854	9
751.603	9
752.353	6
753.102	10
753.851	10
754.6	9
755.349	8
756.098	7
756.847	8
757.595	10
758.344	13
759.093	8
759.841	9
760.589	8
761.338	10
762.086	11
762.834	10
763.582	11
764.331	10
765.079	10
765.826	12
766.574	10
767.322	10
768.07	10
768.817	11
769.565	12
770.312	12
771.06	11
771.807	9
772.554	13
773.302	10
774.049	12
774.796	12
775.543	12
776.29	12
777.036	12
777.783	12
778.53	12
779.276	10
780.023	13
780.769	12
781.516	12
782.262	11
783.008	11
783.754	11
784.5	12
785.246	12
785.992	11
786.738	12
787.484	13
788.23	12
788.975	10
789.721	16
790.466	12
791.212	15
791.957	13
792.702	12
793.447	11
794.193	11
794.938	12
795.683	9
796.427	13
797.172	9
797.917	11
798.662	12
799.406	8
800.151	11
800.895	9
801.64	9
802.384	10
803.128	11
803.872	11
804.616	9
805.36	9
806.104	10
806.848	10
807.592	9
808.336	9
809.079	7
809.823	7
810.566	8
811.31	9
812.053	8
812.796	7
813.539	7
814.283	10
815.026	9
815.769	8
816.511	5
817.254	7
817.997	9
818.74	9
819.482	7
820.225	6
820.967	9
821.71	5
822.452	6
823.194	7
823.936	6
824.678	6
825.42	8
826.162	7
826.904	10
827.646	11
828.388	5
829.129	4
829.871	6
830.612	5
831.354	7
832.095	5
832.836	4
833.577	5
834.319	5
835.06	5
835.801	8
836.542	4
837.282	4
838.023	7
838.764	3
839.504	6
840.245	5
840.985	5
841.726	5
842.466	3
843.206	5
843.946	6
844.687	4
845.427	4
846.166	6
846.906	3
847.646	5
848.386	5
849.125	5
849.865	4
850.605	2
851.344	3
852.083	5
852.823	5
853.562	2
854.301	4
855.04	3
855.779	3
856.518	6
857.257	1
857.995	4
858.734	4
859.473	5
860.211	5
860.95	4
861.688	5
862.426	3
863.165	3
863.903	3
864.641	5
865.379	3
866.117	2
866.855	5
867.593	5
868.33	2
869.068	3
869.806	1
870.543	3
871.28	2
872.018	3
872.755	2
873.492	5
874.229	5
874.967	4
875.703	2
876.44	3
877.177	2
877.914	3
878.651	2
879.387	3
880.124	3
880.86	0
881.597	2
882.333	3
883.069	0
883.806	2
884.542	0
885.278	4
886.014	1
886.749	2
887.485	2
888.221	1
888.957	0
889.692	0
890.428	1
891.163	-2
891.899	1
892.634	1
893.369	1
894.104	2
894.839	1
895.574	2
896.309	1
897.044	1
897.779	-1
898.514	2
899.248	3
899.983	0
900.717	0
901.452	2
902.186	0
902.92	0
903.654	-3
904.389	1
905.123	-1
905.857	0
906.59	-1
907.324	2
908.058	1
908.792	0
909.525	1
910.259	-2
910.992	1
911.726	-2
912.459	1
913.192	1
913.925	-1
914.658	0
915.391	1
916.124	2
916.857	1
917.59	2
918.323	2
919.055	-2
919.788	1
920.521	0
921.253	1
921.985	0
922.718	1
923.45	0
924.182	0
924.914	1
925.646	-1
926.378	1
927.11	0
927.841	3
928.573	-2
929.305	1
930.036	1
930.768	1
931.499	1
932.23	0
932.962	0
933.693	0
934.424	0
935.155	2
935.886	-1
936.617	1
937.348	0
938.078	2
938.809	0
939.54	-1
940.27	0
941.001	-2
941.731	-1
942.461	0
943.191	1
943.922	1
944.652	2
945.382	-1
946.112	1
946.841	0
947.571	-3
948.301	0
949.031	0
949.76	0
950.49	0
951.219	-1
951.948	0
952.678	0
953.407	-1
954.136	1
954.865	1
955.594	-2
956.323	0
957.052	0
957.78	0
958.509	1
959.238	0
959.966	1
960.695	3
961.423	0
962.151	0
962.88	1
963.608	3
964.336	0
965.064	1
965.792	1
966.52	-1
967.247	-2
967.975	-1
968.703	0
969.43	1
970.158	-1
970.885	0
971.613	1
972.34	1
973.067	-1
973.794	0
974.521	-1
975.248	0
975.975	-1
976.702	1
977.429	1
978.156	0
978.882	-2
979.609	-1
980.335	0
981.062	0
981.788	0
982.514	0
983.24	1
983.967	-1
984.693	2
985.419	3
986.144	-3
986.87	2
987.596	1
988.322	0
989.047	0
989.773	-1
990.498	-1
991.224	0
991.949	1
992.674	0
993.399	-2
994.124	1
994.849	-1
995.574	2
996.299	-2
997.024	1
997.749	0
998.473	2
999.198	-1
999.922	1
1000.647	0
1001.371	3
1002.095	-2
1002.82	-1
1003.544	-1
1004.268	2
1004.992	0
1005.716	3
1006.439	3
1007.163	5
1007.887	5
1008.611	1
1009.334	0
1010.058	0
1010.781	0
1011.504	2
1012.228	0
1012.951	1
1013.674	0
1014.397	0
1015.12	0
