节点500_565_QEPB04081__495__09-58-39-130.txt的数据

Date: Thu Nov 13 09:58:39 CST 2025
User: PC
Spectrometer: QEPB0408
触发模式: 0
积分时间 (秒): 1.000000E-2
Scans to average: 1
启用暗噪声校正: true
启用非线性校正: false
滑动平均宽度: 0
X轴模式: Wavelengths
Number of Pixels in Spectrum: 1044
>>>>>Begin Spectral Data<<<<<
220.843	4.5
221.644	2.5
222.444	6.5
223.244	4.5
224.045	6.5
224.845	3.5
225.645	3.5
226.445	5.5
227.245	3.5
228.045	5.5
228.845	4.5
229.645	5.5
230.444	5.5
231.244	7.5
232.043	6.5
232.843	4.5
233.642	7.5
234.442	8.5
235.241	6.5
236.04	7.5
236.839	7.5
237.638	6.5
238.437	9.5
239.236	5.5
240.035	8.5
240.833	9.5
241.632	6.5
242.43	8.5
243.229	10.5
244.027	8.5
244.826	8.5
245.624	11.5
246.422	9.5
247.22	10.5
248.018	8.5
248.816	10.5
249.614	9.5
250.412	8.5
251.21	11.5
252.007	12.5
252.805	11.5
253.602	13.5
254.4	12.5
255.197	13.5
255.994	14.5
256.791	13.5
257.589	15.5
258.386	14.5
259.183	16.5
259.979	14.5
260.776	16.5
261.573	18.5
262.37	14.5
263.166	20.5
263.963	20.5
264.759	19.5
265.556	19.5
266.352	19.5
267.148	19.5
267.944	19.5
268.74	21.5
269.536	20.5
270.332	23.5
271.128	23.5
271.924	24.5
272.719	21.5
273.515	27.5
274.311	23.5
275.106	22.5
275.901	25.5
276.697	24.5
277.492	28.5
278.287	24.5
279.082	28.5
279.877	23.5
280.672	23.5
281.467	28.5
282.262	24.5
283.056	26.5
283.851	26.5
284.646	26.5
285.44	26.5
286.234	25.5
287.029	29.5
287.823	25.5
288.617	28.5
289.411	26.5
290.205	24.5
290.999	23.5
291.793	25.5
292.587	27.5
293.381	24.5
294.174	24.5
294.968	22.5
295.761	23.5
296.555	23.5
297.348	21.5
298.141	21.5
298.935	24.5
299.728	22.5
300.521	22.5
301.314	21.5
302.107	19.5
302.899	15.5
303.692	18.5
304.485	17.5
305.277	22.5
306.07	16.5
306.862	15.5
307.655	17.5
308.447	16.5
309.239	15.5
310.031	17.5
310.823	17.5
311.615	16.5
312.407	15.5
313.199	15.5
313.991	12.5
314.783	14.5
315.574	13.5
316.366	12.5
317.157	11.5
317.949	10.5
318.74	12.5
319.531	10.5
320.322	12.5
321.113	13.5
321.904	12.5
322.695	11.5
323.486	9.5
324.277	12.5
325.068	13.5
325.858	10.5
326.649	10.5
327.439	12.5
328.23	12.5
329.02	10.5
329.81	12.5
330.6	8.5
331.391	10.5
332.181	8.5
332.971	12.5
333.76	10.5
334.55	9.5
335.34	10.5
336.13	10.5
336.919	8.5
337.709	8.5
338.498	7.5
339.287	9.5
340.077	8.5
340.866	10.5
341.655	6.5
342.444	10.5
343.233	6.5
344.022	8.5
344.811	6.5
345.6	9.5
346.388	10.5
347.177	8.5
347.965	9.5
348.754	10.5
349.542	9.5
350.33	8.5
351.119	9.5
351.907	10.5
352.695	10.5
353.483	8.5
354.271	8.5
355.059	7.5
355.846	8.5
356.634	8.5
357.422	8.5
358.209	7.5
358.997	9.5
359.784	6.5
360.571	10.5
361.359	10.5
362.146	9.5
362.933	8.5
363.72	6.5
364.507	9.5
365.294	5.5
366.081	9.5
366.867	6.5
367.654	6.5
368.44	4.5
369.227	8.5
370.013	9.5
370.8	5.5
371.586	7.5
372.372	6.5
373.158	8.5
373.944	6.5
374.73	5.5
375.516	8.5
376.302	7.5
377.088	8.5
377.873	8.5
378.659	7.5
379.445	4.5
380.23	8.5
381.015	9.5
381.801	6.5
382.586	6.5
383.371	8.5
384.156	7.5
384.941	10.5
385.726	8.5
386.511	8.5
387.296	7.5
388.08	8.5
388.865	8.5
389.649	9.5
390.434	6.5
391.218	9.5
392.003	8.5
392.787	9.5
393.571	10.5
394.355	12.5
395.139	9.5
395.923	9.5
396.707	6.5
397.491	9.5
398.274	12.5
399.058	10.5
399.842	7.5
400.625	11.5
401.408	10.5
402.192	9.5
402.975	11.5
403.758	10.5
404.541	12.5
405.324	9.5
406.107	14.5
406.89	10.5
407.673	14.5
408.456	12.5
409.238	12.5
410.021	13.5
410.803	12.5
411.586	14.5
412.368	12.5
413.151	17.5
413.933	13.5
414.715	12.5
415.497	14.5
416.279	13.5
417.061	14.5
417.843	15.5
418.624	16.5
419.406	18.5
420.188	15.5
420.969	13.5
421.751	14.5
422.532	18.5
423.313	15.5
424.095	16.5
424.876	19.5
425.657	18.5
426.438	19.5
427.219	20.5
428	20.5
428.78	23.5
429.561	24.5
430.342	24.5
431.122	26.5
431.903	24.5
432.683	22.5
433.464	29.5
434.244	31.5
435.024	32.5
435.804	33.5
436.584	33.5
437.364	38.5
438.144	37.5
438.924	43.5
439.704	41.5
440.483	46.5
441.263	44.5
442.042	50.5
442.822	55.5
443.601	56.5
444.38	64.5
445.16	65.5
445.939	74.5
446.718	85.5
447.497	90.5
448.276	93.5
449.054	100.5
449.833	118.5
450.612	128.5
451.391	137.5
452.169	153.5
452.948	165.5
453.726	186.5
454.504	213.5
455.282	233.5
456.061	261.5
456.839	288.5
457.617	325.5
458.395	356.5
459.172	404.5
459.95	449.5
460.728	491.5
461.506	545.5
462.283	609.5
463.061	676.5
463.838	746.5
464.615	837.5
465.393	932.5
466.17	1035.5
466.947	1135.5
467.724	1274.5
468.501	1413.5
469.278	1552.5
470.055	1713.5
470.831	1901.5
471.608	2098.5
472.385	2296.5
473.161	2532.5
473.938	2766.5
474.714	3042.5
475.49	3322.5
476.266	3616.5
477.043	4006.5
477.819	4384.5
478.595	4776.5
479.371	5199.5
480.146	5614.5
480.922	6163.5
481.698	6671.5
482.473	7209.5
483.249	7843.5
484.024	8513.5
484.8	9240.5
485.575	10044.5
486.35	10810.5
487.126	11698.5
487.901	12681.5
488.676	13668.5
489.451	14781.5
490.225	15907.5
491	17139.5
491.775	18336.5
492.55	19698.5
493.324	21057.5
494.099	22446.5
494.873	23839.5
495.647	25324.5
496.422	26794.5
497.196	28224.5
497.97	29684.5
498.744	31109.5
499.518	32399.5
500.292	33733.5
501.066	34894.5
501.839	35884.5
502.613	36928.5
503.387	37658.5
504.16	38393.5
504.934	38725.5
505.707	38971.5
506.48	39098.5
507.253	38987.5
508.027	38608.5
508.8	38132.5
509.573	37536.5
510.346	36708.5
511.118	35822.5
511.891	35053.5
512.664	34002.5
513.437	32875.5
514.209	31788.5
514.982	30552.5
515.754	29440.5
516.526	28310.5
517.298	27163.5
518.071	26051.5
518.843	25091.5
519.615	24001.5
520.387	23065.5
521.159	22176.5
521.93	21344.5
522.702	20418.5
523.474	19642.5
524.245	18812.5
525.017	18095.5
525.788	17316.5
526.56	16599.5
527.331	15836.5
528.102	15138.5
528.873	14441.5
529.644	13757.5
530.415	13101.5
531.186	12439.5
531.957	11858.5
532.728	11277.5
533.498	10670.5
534.269	10083.5
535.039	9593.5
535.81	9087.5
536.58	8599.5
537.351	8175.5
538.121	7679.5
538.891	7304.5
539.661	6936.5
540.431	6550.5
541.201	6198.5
541.971	5873.5
542.741	5591.5
543.51	5262.5
544.28	4989.5
545.05	4781.5
545.819	4536.5
546.588	4330.5
547.358	4123.5
548.127	3920.5
548.896	3721.5
549.665	3540.5
550.434	3344.5
551.203	3170.5
551.972	2998.5
552.741	2842.5
553.51	2702.5
554.278	2569.5
555.047	2406.5
555.815	2275.5
556.584	2156.5
557.352	2059.5
558.121	1922.5
558.889	1819.5
559.657	1714.5
560.425	1615.5
561.193	1525.5
561.961	1460.5
562.729	1375.5
563.496	1310.5
564.264	1231.5
565.032	1169.5
565.799	1114.5
566.567	1041.5
567.334	988.5
568.101	937.5
568.869	886.5
569.636	832.5
570.403	775.5
571.17	749.5
571.937	700.5
572.704	660.5
573.471	613.5
574.237	587.5
575.004	545.5
575.771	531.5
576.537	495.5
577.303	465.5
578.07	444.5
578.836	410.5
579.602	391.5
580.368	370.5
581.134	356.5
581.9	340.5
582.666	315.5
583.432	302.5
584.198	283.5
584.964	273.5
585.729	249.5
586.495	245.5
587.26	228.5
588.025	219.5
588.791	202.5
589.556	198.5
590.321	187.5
591.086	172.5
591.851	169.5
592.616	160.5
593.381	153.5
594.146	146.5
594.911	138.5
595.675	131.5
596.44	130.5
597.204	126.5
597.969	114.5
598.733	109.5
599.497	108.5
600.261	105.5
601.025	96.5
601.79	92.5
602.553	88.5
603.317	86.5
604.081	79.5
604.845	77.5
605.609	78.5
606.372	73.5
607.136	68.5
607.899	65.5
608.662	61.5
609.426	62.5
610.189	58.5
610.952	58.5
611.715	56.5
612.478	53.5
613.241	52.5
614.004	50.5
614.767	46.5
615.529	40.5
616.292	43.5
617.055	42.5
617.817	39.5
618.579	41.5
619.342	36.5
620.104	37.5
620.866	36.5
621.628	34.5
622.39	34.5
623.152	34.5
623.914	32.5
624.676	29.5
625.438	28.5
626.199	27.5
626.961	25.5
627.722	24.5
628.484	27.5
629.245	23.5
630.006	22.5
630.768	22.5
631.529	22.5
632.29	24.5
633.051	22.5
633.812	20.5
634.573	20.5
635.333	16.5
636.094	19.5
636.855	20.5
637.615	18.5
638.376	16.5
639.136	17.5
639.896	15.5
640.657	16.5
641.417	16.5
642.177	14.5
642.937	17.5
643.697	11.5
644.457	15.5
645.216	13.5
645.976	11.5
646.736	13.5
647.495	13.5
648.255	13.5
649.014	11.5
649.774	13.5
650.533	14.5
651.292	10.5
652.051	13.5
652.81	10.5
653.569	9.5
654.328	11.5
655.087	10.5
655.846	10.5
656.604	8.5
657.363	9.5
658.121	9.5
658.88	9.5
659.638	9.5
660.397	11.5
661.155	10.5
661.913	8.5
662.671	8.5
663.429	8.5
664.187	6.5
664.945	7.5
665.703	9.5
666.46	6.5
667.218	7.5
667.976	8.5
668.733	7.5
669.49	8.5
670.248	7.5
671.005	9.5
671.762	11.5
672.519	9.5
673.276	8.5
674.033	5.5
674.79	7.5
675.547	5.5
676.304	7.5
677.06	6.5
677.817	7.5
678.574	6.5
679.33	5.5
680.086	7.5
680.843	8.5
681.599	8.5
682.355	7.5
683.111	7.5
683.867	6.5
684.623	6.5
685.379	9.5
686.135	4.5
686.89	6.5
687.646	4.5
688.402	7.5
689.157	6.5
689.912	6.5
690.668	6.5
691.423	7.5
692.178	6.5
692.933	2.5
693.688	7.5
694.443	5.5
695.198	5.5
695.953	5.5
696.708	5.5
697.462	5.5
698.217	6.5
698.972	7.5
699.726	5.5
700.48	5.5
701.235	6.5
701.989	5.5
702.743	4.5
703.497	6.5
704.251	6.5
705.005	6.5
705.759	4.5
706.513	5.5
707.266	6.5
708.02	6.5
708.774	3.5
709.527	7.5
710.28	3.5
711.034	8.5
711.787	4.5
712.54	2.5
713.293	4.5
714.046	6.5
714.799	6.5
715.552	6.5
716.305	6.5
717.058	4.5
717.81	6.5
718.563	6.5
719.315	8.5
720.068	9.5
720.82	5.5
721.573	5.5
722.325	5.5
723.077	6.5
723.829	4.5
724.581	4.5
725.333	6.5
726.085	6.5
726.836	6.5
727.588	5.5
728.34	5.5
729.091	6.5
729.843	8.5
730.594	7.5
731.346	4.5
732.097	9.5
732.848	5.5
733.599	7.5
734.35	6.5
735.101	6.5
735.852	6.5
736.603	7.5
737.354	6.5
738.104	7.5
738.855	5.5
739.605	7.5
740.356	7.5
741.106	7.5
741.856	7.5
742.607	8.5
743.357	4.5
744.107	6.5
744.857	9.5
745.607	6.5
746.357	7.5
747.106	6.5
747.856	8.5
748.606	7.5
749.355	8.5
750.105	6.5
750.854	7.5
751.603	7.5
752.353	5.5
753.102	8.5
753.851	12.5
754.6	9.5
755.349	8.5
756.098	9.5
756.847	6.5
757.595	9.5
758.344	6.5
759.093	8.5
759.841	10.5
760.589	10.5
761.338	9.5
762.086	11.5
762.834	6.5
763.582	10.5
764.331	8.5
765.079	10.5
765.826	10.5
766.574	8.5
767.322	11.5
768.07	11.5
768.817	10.5
769.565	10.5
770.312	12.5
771.06	8.5
771.807	11.5
772.554	12.5
773.302	10.5
774.049	12.5
774.796	10.5
775.543	10.5
776.29	11.5
777.036	12.5
777.783	11.5
778.53	12.5
779.276	12.5
780.023	12.5
780.769	14.5
781.516	13.5
782.262	12.5
783.008	13.5
783.754	11.5
784.5	12.5
785.246	14.5
785.992	12.5
786.738	14.5
787.484	13.5
788.23	11.5
788.975	13.5
789.721	12.5
790.466	11.5
791.212	14.5
791.957	10.5
792.702	11.5
793.447	11.5
794.193	9.5
794.938	13.5
795.683	9.5
796.427	11.5
797.172	12.5
797.917	12.5
798.662	10.5
799.406	8.5
800.151	9.5
800.895	8.5
801.64	8.5
802.384	9.5
803.128	8.5
803.872	9.5
804.616	10.5
805.36	10.5
806.104	7.5
806.848	10.5
807.592	9.5
808.336	10.5
809.079	9.5
809.823	8.5
810.566	6.5
811.31	5.5
812.053	6.5
812.796	8.5
813.539	7.5
814.283	8.5
815.026	5.5
815.769	9.5
816.511	7.5
817.254	7.5
817.997	5.5
818.74	6.5
819.482	4.5
820.225	3.5
820.967	7.5
821.71	5.5
822.452	5.5
823.194	2.5
823.936	7.5
824.678	4.5
825.42	4.5
826.162	4.5
826.904	6.5
827.646	4.5
828.388	5.5
829.129	5.5
829.871	3.5
830.612	5.5
831.354	3.5
832.095	5.5
832.836	4.5
833.577	6.5
834.319	5.5
835.06	6.5
835.801	5.5
836.542	6.5
837.282	6.5
838.023	6.5
838.764	6.5
839.504	6.5
840.245	4.5
840.985	2.5
841.726	5.5
842.466	3.5
843.206	4.5
843.946	4.5
844.687	6.5
845.427	4.5
846.166	3.5
846.906	5.5
847.646	3.5
848.386	3.5
849.125	4.5
849.865	4.5
850.605	2.5
851.344	4.5
852.083	4.5
852.823	3.5
853.562	2.5
854.301	5.5
855.04	4.5
855.779	4.5
856.518	5.5
857.257	4.5
857.995	1.5
858.734	2.5
859.473	4.5
860.211	4.5
860.95	2.5
861.688	4.5
862.426	1.5
863.165	2.5
863.903	2.5
864.641	2.5
865.379	2.5
866.117	1.5
866.855	2.5
867.593	2.5
868.33	2.5
869.068	2.5
869.806	1.5
870.543	-0.5
871.28	0.5
872.018	3.5
872.755	0.5
873.492	2.5
874.229	5.5
874.967	2.5
875.703	2.5
876.44	0.5
877.177	0.5
877.914	1.5
878.651	1.5
879.387	-0.5
880.124	3.5
880.86	1.5
881.597	1.5
882.333	2.5
883.069	0.5
883.806	3.5
884.542	-0.5
885.278	2.5
886.014	1.5
886.749	2.5
887.485	1.5
888.221	0.5
888.957	2.5
889.692	2.5
890.428	3.5
891.163	0.5
891.899	0.5
892.634	1.5
893.369	-0.5
894.104	2.5
894.839	0.5
895.574	1.5
896.309	0.5
897.044	1.5
897.779	0.5
898.514	1.5
899.248	2.5
899.983	0.5
900.717	-0.5
901.452	-0.5
902.186	-0.5
902.92	-0.5
903.654	1.5
904.389	1.5
905.123	-1.5
905.857	0.5
906.59	-0.5
907.324	-0.5
908.058	2.5
908.792	0.5
909.525	0.5
910.259	1.5
910.992	-0.5
911.726	0.5
912.459	0.5
913.192	0.5
913.925	-0.5
914.658	0.5
915.391	1.5
916.124	-0.5
916.857	-2.5
917.59	2.5
918.323	-0.5
919.055	0.5
919.788	0.5
920.521	-2.5
921.253	2.5
921.985	-0.5
922.718	-0.5
923.45	1.5
924.182	0.5
924.914	0.5
925.646	-1.5
926.378	-0.5
927.11	-0.5
927.841	-1.5
928.573	-1.5
929.305	0.5
930.036	-0.5
930.768	-0.5
931.499	1.5
932.23	0.5
932.962	0.5
933.693	3.5
934.424	0.5
935.155	-2.5
935.886	-1.5
936.617	-1.5
937.348	-0.5
938.078	1.5
938.809	-0.5
939.54	1.5
940.27	0.5
941.001	1.5
941.731	-0.5
942.461	0.5
943.191	2.5
943.922	-1.5
944.652	-2.5
945.382	-1.5
946.112	-0.5
946.841	0.5
947.571	0.5
948.301	0.5
949.031	-0.5
949.76	-0.5
950.49	0.5
951.219	0.5
951.948	0.5
952.678	0.5
953.407	0.5
954.136	0.5
954.865	-0.5
955.594	0.5
956.323	0.5
957.052	-0.5
957.78	0.5
958.509	1.5
959.238	-0.5
959.966	-0.5
960.695	0.5
961.423	0.5
962.151	-1.5
962.88	-1.5
963.608	2.5
964.336	-3.5
965.064	-0.5
965.792	-0.5
966.52	0.5
967.247	0.5
967.975	-0.5
968.703	0.5
969.43	-2.5
970.158	1.5
970.885	0.5
971.613	1.5
972.34	0.5
973.067	-1.5
973.794	-1.5
974.521	-1.5
975.248	0.5
975.975	0.5
976.702	-0.5
977.429	-0.5
978.156	0.5
978.882	1.5
979.609	-2.5
980.335	1.5
981.062	0.5
981.788	1.5
982.514	-0.5
983.24	-1.5
983.967	0.5
984.693	-0.5
985.419	-1.5
986.144	0.5
986.87	-1.5
987.596	0.5
988.322	-1.5
989.047	-0.5
989.773	0.5
990.498	-1.5
991.224	-1.5
991.949	-0.5
992.674	0.5
993.399	-1.5
994.124	-0.5
994.849	-0.5
995.574	1.5
996.299	0.5
997.024	0.5
997.749	1.5
998.473	0.5
999.198	0.5
999.922	0.5
1000.647	0.5
1001.371	2.5
1002.095	-0.5
1002.82	-1.5
1003.544	-1.5
1004.268	0.5
1004.992	2.5
1005.716	2.5
1006.439	3.5
1007.163	5.5
1007.887	4.5
1008.611	0.5
1009.334	-1.5
1010.058	-0.5
1010.781	0.5
1011.504	1.5
1012.228	-0.5
1012.951	0.5
1013.674	0.5
1014.397	0.5
1015.12	-0.5
