节点500_565_QEPB04081__264__09-54-48-604.txt的数据

Date: Thu Nov 13 09:54:48 CST 2025
User: PC
Spectrometer: QEPB0408
触发模式: 0
积分时间 (秒): 1.000000E-2
Scans to average: 1
启用暗噪声校正: true
启用非线性校正: false
滑动平均宽度: 0
X轴模式: Wavelengths
Number of Pixels in Spectrum: 1044
>>>>>Begin Spectral Data<<<<<
220.843	5.88
221.644	3.88
222.444	3.88
223.244	2.88
224.045	4.88
224.845	4.88
225.645	8.88
226.445	8.88
227.245	8.88
228.045	6.88
228.845	6.88
229.645	5.88
230.444	5.88
231.244	5.88
232.043	6.88
232.843	7.88
233.642	8.88
234.442	5.88
235.241	7.88
236.04	9.88
236.839	7.88
237.638	9.88
238.437	7.88
239.236	8.88
240.035	8.88
240.833	12.88
241.632	10.88
242.43	9.88
243.229	11.88
244.027	8.88
244.826	10.88
245.624	8.88
246.422	14.88
247.22	9.88
248.018	9.88
248.816	11.88
249.614	10.88
250.412	9.88
251.21	12.88
252.007	12.88
252.805	11.88
253.602	14.88
254.4	15.88
255.197	15.88
255.994	16.88
256.791	14.88
257.589	16.88
258.386	15.88
259.183	18.88
259.979	16.88
260.776	18.88
261.573	20.88
262.37	20.88
263.166	20.88
263.963	19.88
264.759	22.88
265.556	20.88
266.352	23.88
267.148	25.88
267.944	23.88
268.74	24.88
269.536	26.88
270.332	24.88
271.128	24.88
271.924	28.88
272.719	28.88
273.515	26.88
274.311	25.88
275.106	25.88
275.901	30.88
276.697	29.88
277.492	28.88
278.287	28.88
279.082	28.88
279.877	28.88
280.672	30.88
281.467	29.88
282.262	28.88
283.056	29.88
283.851	28.88
284.646	30.88
285.44	29.88
286.234	28.88
287.029	30.88
287.823	28.88
288.617	27.88
289.411	32.88
290.205	25.88
290.999	27.88
291.793	30.88
292.587	26.88
293.381	24.88
294.174	25.88
294.968	20.88
295.761	25.88
296.555	24.88
297.348	22.88
298.141	21.88
298.935	25.88
299.728	22.88
300.521	21.88
301.314	23.88
302.107	17.88
302.899	20.88
303.692	18.88
304.485	18.88
305.277	18.88
306.07	18.88
306.862	20.88
307.655	18.88
308.447	16.88
309.239	18.88
310.031	17.88
310.823	14.88
311.615	16.88
312.407	13.88
313.199	13.88
313.991	14.88
314.783	12.88
315.574	12.88
316.366	12.88
317.157	13.88
317.949	11.88
318.74	9.88
319.531	12.88
320.322	14.88
321.113	10.88
321.904	13.88
322.695	11.88
323.486	8.88
324.277	13.88
325.068	9.88
325.858	11.88
326.649	11.88
327.439	11.88
328.23	12.88
329.02	8.88
329.81	10.88
330.6	12.88
331.391	12.88
332.181	8.88
332.971	10.88
333.76	11.88
334.55	8.88
335.34	11.88
336.13	7.88
336.919	9.88
337.709	10.88
338.498	10.88
339.287	8.88
340.077	9.88
340.866	8.88
341.655	10.88
342.444	10.88
343.233	9.88
344.022	11.88
344.811	8.88
345.6	9.88
346.388	11.88
347.177	8.88
347.965	12.88
348.754	9.88
349.542	7.88
350.33	7.88
351.119	9.88
351.907	9.88
352.695	6.88
353.483	5.88
354.271	9.88
355.059	8.88
355.846	9.88
356.634	8.88
357.422	8.88
358.209	10.88
358.997	9.88
359.784	11.88
360.571	7.88
361.359	7.88
362.146	11.88
362.933	7.88
363.72	8.88
364.507	9.88
365.294	8.88
366.081	10.88
366.867	10.88
367.654	6.88
368.44	6.88
369.227	8.88
370.013	6.88
370.8	8.88
371.586	7.88
372.372	6.88
373.158	8.88
373.944	7.88
374.73	4.88
375.516	4.88
376.302	10.88
377.088	6.88
377.873	7.88
378.659	9.88
379.445	8.88
380.23	7.88
381.015	9.88
381.801	8.88
382.586	9.88
383.371	6.88
384.156	7.88
384.941	11.88
385.726	9.88
386.511	10.88
387.296	8.88
388.08	10.88
388.865	10.88
389.649	7.88
390.434	7.88
391.218	8.88
392.003	8.88
392.787	7.88
393.571	12.88
394.355	8.88
395.139	8.88
395.923	10.88
396.707	9.88
397.491	11.88
398.274	10.88
399.058	11.88
399.842	12.88
400.625	9.88
401.408	10.88
402.192	11.88
402.975	11.88
403.758	10.88
404.541	11.88
405.324	13.88
406.107	13.88
406.89	11.88
407.673	13.88
408.456	13.88
409.238	11.88
410.021	14.88
410.803	13.88
411.586	13.88
412.368	13.88
413.151	13.88
413.933	16.88
414.715	14.88
415.497	15.88
416.279	13.88
417.061	15.88
417.843	15.88
418.624	16.88
419.406	17.88
420.188	16.88
420.969	16.88
421.751	20.88
422.532	16.88
423.313	18.88
424.095	17.88
424.876	22.88
425.657	20.88
426.438	21.88
427.219	22.88
428	22.88
428.78	23.88
429.561	22.88
430.342	22.88
431.122	25.88
431.903	27.88
432.683	30.88
433.464	28.88
434.244	28.88
435.024	31.88
435.804	33.88
436.584	31.88
437.364	36.88
438.144	37.88
438.924	40.88
439.704	43.88
440.483	42.88
441.263	48.88
442.042	46.88
442.822	53.88
443.601	59.88
444.38	59.88
445.16	67.88
445.939	65.88
446.718	72.88
447.497	82.88
448.276	91.88
449.054	96.88
449.833	108.88
450.612	118.88
451.391	127.88
452.169	142.88
452.948	156.88
453.726	175.88
454.504	188.88
455.282	212.88
456.061	239.88
456.839	264.88
457.617	295.88
458.395	326.88
459.172	367.88
459.95	402.88
460.728	459.88
461.506	504.88
462.283	562.88
463.061	621.88
463.838	706.88
464.615	782.88
465.393	870.88
466.17	982.88
466.947	1084.88
467.724	1210.88
468.501	1336.88
469.278	1489.88
470.055	1659.88
470.831	1818.88
471.608	2021.88
472.385	2253.88
473.161	2478.88
473.938	2730.88
474.714	3010.88
475.49	3306.88
476.266	3628.88
477.043	4023.88
477.819	4432.88
478.595	4819.88
479.371	5299.88
480.146	5797.88
480.922	6325.88
481.698	6964.88
482.473	7579.88
483.249	8251.88
484.024	9032.88
484.8	9836.88
485.575	10688.88
486.35	11551.88
487.126	12593.88
487.901	13655.88
488.676	14846.88
489.451	16128.88
490.225	17407.88
491	18782.88
491.775	20188.88
492.55	21723.88
493.324	23142.88
494.099	24691.88
494.873	26361.88
495.647	28118.88
496.422	29677.88
497.196	31316.88
497.97	32817.88
498.744	34294.88
499.518	35613.88
500.292	36905.88
501.066	38121.88
501.839	39070.88
502.613	39859.88
503.387	40509.88
504.16	40995.88
504.934	41252.88
505.707	41151.88
506.48	41136.88
507.253	40659.88
508.027	40007.88
508.8	39129.88
509.573	38207.88
510.346	37192.88
511.118	36130.88
511.891	35078.88
512.664	33853.88
513.437	32521.88
514.209	31279.88
514.982	30037.88
515.754	28824.88
516.526	27587.88
517.298	26410.88
518.071	25400.88
518.843	24373.88
519.615	23412.88
520.387	22411.88
521.159	21570.88
521.93	20617.88
522.702	19781.88
523.474	18978.88
524.245	18214.88
525.017	17522.88
525.788	16716.88
526.56	15961.88
527.331	15282.88
528.102	14460.88
528.873	13828.88
529.644	13105.88
530.415	12442.88
531.186	11810.88
531.957	11214.88
532.728	10694.88
533.498	10111.88
534.269	9552.88
535.039	8944.88
535.81	8546.88
536.58	8082.88
537.351	7629.88
538.121	7210.88
538.891	6817.88
539.661	6456.88
540.431	6130.88
541.201	5810.88
541.971	5490.88
542.741	5225.88
543.51	4920.88
544.28	4688.88
545.05	4450.88
545.819	4225.88
546.588	4028.88
547.358	3820.88
548.127	3622.88
548.896	3450.88
549.665	3311.88
550.434	3124.88
551.203	2939.88
551.972	2779.88
552.741	2660.88
553.51	2514.88
554.278	2366.88
555.047	2221.88
555.815	2134.88
556.584	2000.88
557.352	1897.88
558.121	1771.88
558.889	1661.88
559.657	1572.88
560.425	1490.88
561.193	1400.88
561.961	1332.88
562.729	1262.88
563.496	1193.88
564.264	1128.88
565.032	1079.88
565.799	1016.88
566.567	950.88
567.334	918.88
568.101	846.88
568.869	805.88
569.636	771.88
570.403	726.88
571.17	689.88
571.937	634.88
572.704	601.88
573.471	571.88
574.237	543.88
575.004	511.88
575.771	480.88
576.537	457.88
577.303	430.88
578.07	404.88
578.836	378.88
579.602	362.88
580.368	337.88
581.134	323.88
581.9	308.88
582.666	287.88
583.432	275.88
584.198	269.88
584.964	245.88
585.729	230.88
586.495	226.88
587.26	213.88
588.025	201.88
588.791	187.88
589.556	175.88
590.321	167.88
591.086	164.88
591.851	156.88
592.616	150.88
593.381	144.88
594.146	133.88
594.911	124.88
595.675	122.88
596.44	118.88
597.204	116.88
597.969	107.88
598.733	101.88
599.497	99.88
600.261	92.88
601.025	89.88
601.79	88.88
602.553	78.88
603.317	81.88
604.081	75.88
604.845	75.88
605.609	69.88
606.372	69.88
607.136	68.88
607.899	61.88
608.662	62.88
609.426	57.88
610.189	51.88
610.952	52.88
611.715	50.88
612.478	50.88
613.241	48.88
614.004	47.88
614.767	46.88
615.529	44.88
616.292	41.88
617.055	39.88
617.817	38.88
618.579	34.88
619.342	34.88
620.104	32.88
620.866	33.88
621.628	33.88
622.39	32.88
623.152	29.88
623.914	27.88
624.676	29.88
625.438	29.88
626.199	27.88
626.961	27.88
627.722	25.88
628.484	22.88
629.245	22.88
630.006	20.88
630.768	20.88
631.529	21.88
632.29	21.88
633.051	20.88
633.812	19.88
634.573	19.88
635.333	18.88
636.094	18.88
636.855	21.88
637.615	19.88
638.376	15.88
639.136	15.88
639.896	15.88
640.657	17.88
641.417	13.88
642.177	17.88
642.937	14.88
643.697	13.88
644.457	15.88
645.216	12.88
645.976	13.88
646.736	12.88
647.495	12.88
648.255	12.88
649.014	12.88
649.774	11.88
650.533	10.88
651.292	11.88
652.051	12.88
652.81	13.88
653.569	12.88
654.328	8.88
655.087	10.88
655.846	10.88
656.604	11.88
657.363	10.88
658.121	10.88
658.88	8.88
659.638	10.88
660.397	10.88
661.155	7.88
661.913	12.88
662.671	10.88
663.429	8.88
664.187	9.88
664.945	9.88
665.703	8.88
666.46	9.88
667.218	9.88
667.976	8.88
668.733	8.88
669.49	6.88
670.248	8.88
671.005	5.88
671.762	6.88
672.519	7.88
673.276	8.88
674.033	6.88
674.79	6.88
675.547	10.88
676.304	5.88
677.06	6.88
677.817	6.88
678.574	6.88
679.33	8.88
680.086	7.88
680.843	7.88
681.599	7.88
682.355	7.88
683.111	5.88
683.867	7.88
684.623	6.88
685.379	6.88
686.135	7.88
686.89	5.88
687.646	4.88
688.402	6.88
689.157	3.88
689.912	7.88
690.668	6.88
691.423	6.88
692.178	6.88
692.933	8.88
693.688	6.88
694.443	7.88
695.198	6.88
695.953	6.88
696.708	6.88
697.462	6.88
698.217	4.88
698.972	5.88
699.726	1.88
700.48	6.88
701.235	6.88
701.989	6.88
702.743	6.88
703.497	4.88
704.251	6.88
705.005	5.88
705.759	3.88
706.513	6.88
707.266	7.88
708.02	5.88
708.774	8.88
709.527	4.88
710.28	6.88
711.034	5.88
711.787	6.88
712.54	6.88
713.293	4.88
714.046	7.88
714.799	8.88
715.552	5.88
716.305	5.88
717.058	5.88
717.81	8.88
718.563	4.88
719.315	6.88
720.068	5.88
720.82	5.88
721.573	4.88
722.325	6.88
723.077	9.88
723.829	3.88
724.581	7.88
725.333	5.88
726.085	6.88
726.836	6.88
727.588	7.88
728.34	8.88
729.091	6.88
729.843	9.88
730.594	5.88
731.346	7.88
732.097	6.88
732.848	5.88
733.599	8.88
734.35	9.88
735.101	10.88
735.852	9.88
736.603	9.88
737.354	7.88
738.104	7.88
738.855	8.88
739.605	7.88
740.356	7.88
741.106	9.88
741.856	6.88
742.607	8.88
743.357	10.88
744.107	10.88
744.857	9.88
745.607	8.88
746.357	7.88
747.106	8.88
747.856	10.88
748.606	7.88
749.355	9.88
750.105	8.88
750.854	10.88
751.603	9.88
752.353	10.88
753.102	8.88
753.851	8.88
754.6	9.88
755.349	7.88
756.098	7.88
756.847	9.88
757.595	8.88
758.344	11.88
759.093	9.88
759.841	9.88
760.589	9.88
761.338	13.88
762.086	9.88
762.834	10.88
763.582	11.88
764.331	9.88
765.079	11.88
765.826	11.88
766.574	11.88
767.322	11.88
768.07	12.88
768.817	12.88
769.565	11.88
770.312	13.88
771.06	10.88
771.807	13.88
772.554	12.88
773.302	13.88
774.049	11.88
774.796	13.88
775.543	10.88
776.29	12.88
777.036	13.88
777.783	11.88
778.53	13.88
779.276	12.88
780.023	12.88
780.769	13.88
781.516	14.88
782.262	13.88
783.008	12.88
783.754	10.88
784.5	15.88
785.246	11.88
785.992	15.88
786.738	13.88
787.484	13.88
788.23	11.88
788.975	12.88
789.721	15.88
790.466	13.88
791.212	12.88
791.957	12.88
792.702	10.88
793.447	12.88
794.193	13.88
794.938	11.88
795.683	12.88
796.427	9.88
797.172	12.88
797.917	9.88
798.662	11.88
799.406	12.88
800.151	11.88
800.895	10.88
801.64	9.88
802.384	9.88
803.128	10.88
803.872	7.88
804.616	10.88
805.36	10.88
806.104	6.88
806.848	7.88
807.592	8.88
808.336	7.88
809.079	7.88
809.823	8.88
810.566	8.88
811.31	9.88
812.053	8.88
812.796	6.88
813.539	9.88
814.283	4.88
815.026	8.88
815.769	6.88
816.511	10.88
817.254	6.88
817.997	8.88
818.74	9.88
819.482	5.88
820.225	6.88
820.967	8.88
821.71	5.88
822.452	6.88
823.194	5.88
823.936	5.88
824.678	6.88
825.42	8.88
826.162	6.88
826.904	6.88
827.646	6.88
828.388	6.88
829.129	4.88
829.871	4.88
830.612	5.88
831.354	4.88
832.095	5.88
832.836	5.88
833.577	3.88
834.319	7.88
835.06	4.88
835.801	5.88
836.542	5.88
837.282	5.88
838.023	5.88
838.764	4.88
839.504	6.88
840.245	5.88
840.985	4.88
841.726	2.88
842.466	3.88
843.206	4.88
843.946	6.88
844.687	3.88
845.427	2.88
846.166	2.88
846.906	1.88
847.646	4.88
848.386	4.88
849.125	4.88
849.865	6.88
850.605	3.88
851.344	4.88
852.083	2.88
852.823	4.88
853.562	1.88
854.301	4.88
855.04	4.88
855.779	0.88
856.518	2.88
857.257	1.88
857.995	3.88
858.734	3.88
859.473	4.88
860.211	3.88
860.95	3.88
861.688	2.88
862.426	3.88
863.165	2.88
863.903	4.88
864.641	4.88
865.379	2.88
866.117	1.88
866.855	1.88
867.593	1.88
868.33	4.88
869.068	1.88
869.806	2.88
870.543	2.88
871.28	2.88
872.018	0.88
872.755	1.88
873.492	4.88
874.229	2.88
874.967	1.88
875.703	2.88
876.44	0.88
877.177	3.88
877.914	2.88
878.651	3.88
879.387	-0.12
880.124	3.88
880.86	-1.12
881.597	-0.12
882.333	0.88
883.069	0.88
883.806	2.88
884.542	0.88
885.278	1.88
886.014	2.88
886.749	0.88
887.485	1.88
888.221	-2.12
888.957	1.88
889.692	0.88
890.428	1.88
891.163	2.88
891.899	-0.12
892.634	-0.12
893.369	0.88
894.104	0.88
894.839	2.88
895.574	1.88
896.309	2.88
897.044	1.88
897.779	4.88
898.514	-0.12
899.248	1.88
899.983	1.88
900.717	3.88
901.452	0.88
902.186	0.88
902.92	1.88
903.654	0.88
904.389	1.88
905.123	0.88
905.857	0.88
906.59	3.88
907.324	1.88
908.058	-0.12
908.792	-0.12
909.525	4.88
910.259	0.88
910.992	2.88
911.726	3.88
912.459	0.88
913.192	0.88
913.925	1.88
914.658	0.88
915.391	2.88
916.124	0.88
916.857	1.88
917.59	1.88
918.323	1.88
919.055	0.88
919.788	2.88
920.521	-1.12
921.253	2.88
921.985	0.88
922.718	0.88
923.45	1.88
924.182	0.88
924.914	-1.12
925.646	-1.12
926.378	0.88
927.11	1.88
927.841	1.88
928.573	-0.12
929.305	0.88
930.036	1.88
930.768	-2.12
931.499	0.88
932.23	0.88
932.962	1.88
933.693	2.88
934.424	0.88
935.155	0.88
935.886	1.88
936.617	0.88
937.348	-1.12
938.078	-0.12
938.809	1.88
939.54	2.88
940.27	2.88
941.001	0.88
941.731	0.88
942.461	0.88
943.191	1.88
943.922	0.88
944.652	0.88
945.382	0.88
946.112	0.88
946.841	0.88
947.571	0.88
948.301	1.88
949.031	1.88
949.76	-1.12
950.49	3.88
951.219	0.88
951.948	-0.12
952.678	1.88
953.407	1.88
954.136	1.88
954.865	1.88
955.594	-0.12
956.323	-1.12
957.052	0.88
957.78	-0.12
958.509	3.88
959.238	0.88
959.966	-0.12
960.695	1.88
961.423	0.88
962.151	1.88
962.88	0.88
963.608	0.88
964.336	-2.12
965.064	0.88
965.792	0.88
966.52	0.88
967.247	0.88
967.975	0.88
968.703	2.88
969.43	-1.12
970.158	-0.12
970.885	0.88
971.613	-0.12
972.34	0.88
973.067	-1.12
973.794	2.88
974.521	1.88
975.248	2.88
975.975	0.88
976.702	0.88
977.429	1.88
978.156	0.88
978.882	0.88
979.609	0.88
980.335	-0.12
981.062	-0.12
981.788	0.88
982.514	1.88
983.24	-0.12
983.967	0.88
984.693	2.88
985.419	0.88
986.144	1.88
986.87	-0.12
987.596	-0.12
988.322	0.88
989.047	2.88
989.773	-1.12
990.498	3.88
991.224	1.88
991.949	-0.12
992.674	0.88
993.399	-0.12
994.124	-1.12
994.849	1.88
995.574	0.88
996.299	2.88
997.024	0.88
997.749	-0.12
998.473	-0.12
999.198	1.88
999.922	1.88
1000.647	0.88
1001.371	2.88
1002.095	-1.12
1002.82	-1.12
1003.544	-2.12
1004.268	3.88
1004.992	1.88
1005.716	2.88
1006.439	2.88
1007.163	4.88
1007.887	1.88
1008.611	1.88
1009.334	-0.12
1010.058	2.88
1010.781	0.88
1011.504	-0.12
1012.228	0.88
1012.951	0.88
1013.674	-0.12
1014.397	0.88
1015.12	-0.12
