节点500_565_QEPB04081__134__09-52-39-897.txt的数据

Date: Thu Nov 13 09:52:39 CST 2025
User: PC
Spectrometer: QEPB0408
触发模式: 0
积分时间 (秒): 1.000000E-2
Scans to average: 1
启用暗噪声校正: true
启用非线性校正: false
滑动平均宽度: 0
X轴模式: Wavelengths
Number of Pixels in Spectrum: 1044
>>>>>Begin Spectral Data<<<<<
220.843	4.38
221.644	4.38
222.444	3.38
223.244	7.38
224.045	6.38
224.845	4.38
225.645	6.38
226.445	8.38
227.245	5.38
228.045	6.38
228.845	3.38
229.645	5.38
230.444	7.38
231.244	8.38
232.043	8.38
232.843	6.38
233.642	8.38
234.442	8.38
235.241	6.38
236.04	8.38
236.839	8.38
237.638	8.38
238.437	9.38
239.236	7.38
240.035	8.38
240.833	9.38
241.632	9.38
242.43	11.38
243.229	12.38
244.027	9.38
244.826	11.38
245.624	13.38
246.422	10.38
247.22	13.38
248.018	8.38
248.816	9.38
249.614	12.38
250.412	12.38
251.21	13.38
252.007	12.38
252.805	15.38
253.602	13.38
254.4	15.38
255.197	16.38
255.994	16.38
256.791	16.38
257.589	17.38
258.386	15.38
259.183	16.38
259.979	19.38
260.776	18.38
261.573	20.38
262.37	20.38
263.166	17.38
263.963	20.38
264.759	22.38
265.556	24.38
266.352	21.38
267.148	24.38
267.944	24.38
268.74	26.38
269.536	25.38
270.332	24.38
271.128	28.38
271.924	25.38
272.719	26.38
273.515	27.38
274.311	28.38
275.106	30.38
275.901	27.38
276.697	28.38
277.492	27.38
278.287	30.38
279.082	28.38
279.877	30.38
280.672	29.38
281.467	29.38
282.262	29.38
283.056	33.38
283.851	31.38
284.646	30.38
285.44	28.38
286.234	30.38
287.029	31.38
287.823	29.38
288.617	25.38
289.411	28.38
290.205	25.38
290.999	28.38
291.793	31.38
292.587	27.38
293.381	25.38
294.174	28.38
294.968	25.38
295.761	22.38
296.555	22.38
297.348	23.38
298.141	21.38
298.935	22.38
299.728	25.38
300.521	20.38
301.314	24.38
302.107	18.38
302.899	21.38
303.692	16.38
304.485	17.38
305.277	19.38
306.07	17.38
306.862	19.38
307.655	20.38
308.447	17.38
309.239	15.38
310.031	17.38
310.823	13.38
311.615	18.38
312.407	14.38
313.199	12.38
313.991	17.38
314.783	12.38
315.574	15.38
316.366	13.38
317.157	17.38
317.949	12.38
318.74	11.38
319.531	13.38
320.322	12.38
321.113	13.38
321.904	12.38
322.695	11.38
323.486	10.38
324.277	10.38
325.068	13.38
325.858	10.38
326.649	12.38
327.439	11.38
328.23	12.38
329.02	10.38
329.81	10.38
330.6	9.38
331.391	11.38
332.181	11.38
332.971	11.38
333.76	10.38
334.55	11.38
335.34	8.38
336.13	9.38
336.919	11.38
337.709	12.38
338.498	8.38
339.287	9.38
340.077	10.38
340.866	11.38
341.655	10.38
342.444	10.38
343.233	12.38
344.022	8.38
344.811	11.38
345.6	8.38
346.388	10.38
347.177	8.38
347.965	8.38
348.754	9.38
349.542	9.38
350.33	10.38
351.119	12.38
351.907	7.38
352.695	11.38
353.483	5.38
354.271	9.38
355.059	9.38
355.846	7.38
356.634	10.38
357.422	9.38
358.209	7.38
358.997	9.38
359.784	8.38
360.571	8.38
361.359	8.38
362.146	11.38
362.933	7.38
363.72	8.38
364.507	7.38
365.294	7.38
366.081	8.38
366.867	10.38
367.654	8.38
368.44	9.38
369.227	8.38
370.013	8.38
370.8	9.38
371.586	8.38
372.372	9.38
373.158	10.38
373.944	8.38
374.73	8.38
375.516	8.38
376.302	8.38
377.088	7.38
377.873	10.38
378.659	6.38
379.445	9.38
380.23	9.38
381.015	8.38
381.801	8.38
382.586	9.38
383.371	8.38
384.156	11.38
384.941	8.38
385.726	9.38
386.511	10.38
387.296	11.38
388.08	8.38
388.865	7.38
389.649	10.38
390.434	8.38
391.218	7.38
392.003	10.38
392.787	10.38
393.571	9.38
394.355	8.38
395.139	14.38
395.923	10.38
396.707	14.38
397.491	11.38
398.274	8.38
399.058	13.38
399.842	12.38
400.625	11.38
401.408	10.38
402.192	13.38
402.975	12.38
403.758	13.38
404.541	13.38
405.324	12.38
406.107	10.38
406.89	15.38
407.673	13.38
408.456	12.38
409.238	14.38
410.021	13.38
410.803	12.38
411.586	13.38
412.368	15.38
413.151	16.38
413.933	13.38
414.715	15.38
415.497	15.38
416.279	17.38
417.061	16.38
417.843	15.38
418.624	16.38
419.406	16.38
420.188	17.38
420.969	16.38
421.751	18.38
422.532	19.38
423.313	17.38
424.095	18.38
424.876	20.38
425.657	20.38
426.438	22.38
427.219	21.38
428	22.38
428.78	21.38
429.561	24.38
430.342	24.38
431.122	26.38
431.903	26.38
432.683	31.38
433.464	30.38
434.244	32.38
435.024	29.38
435.804	32.38
436.584	31.38
437.364	36.38
438.144	36.38
438.924	40.38
439.704	44.38
440.483	44.38
441.263	45.38
442.042	53.38
442.822	45.38
443.601	54.38
444.38	56.38
445.16	64.38
445.939	70.38
446.718	72.38
447.497	82.38
448.276	86.38
449.054	100.38
449.833	102.38
450.612	116.38
451.391	129.38
452.169	137.38
452.948	151.38
453.726	164.38
454.504	187.38
455.282	203.38
456.061	228.38
456.839	252.38
457.617	287.38
458.395	319.38
459.172	350.38
459.95	400.38
460.728	442.38
461.506	508.38
462.283	562.38
463.061	614.38
463.838	704.38
464.615	770.38
465.393	856.38
466.17	961.38
466.947	1092.38
467.724	1189.38
468.501	1328.38
469.278	1488.38
470.055	1679.38
470.831	1842.38
471.608	2047.38
472.385	2271.38
473.161	2517.38
473.938	2796.38
474.714	3084.38
475.49	3365.38
476.266	3741.38
477.043	4112.38
477.819	4558.38
478.595	5010.38
479.371	5479.38
480.146	6011.38
480.922	6600.38
481.698	7273.38
482.473	7908.38
483.249	8643.38
484.024	9476.38
484.8	10348.38
485.575	11297.38
486.35	12299.38
487.126	13382.38
487.901	14630.38
488.676	15935.38
489.451	17284.38
490.225	18712.38
491	20148.38
491.775	21698.38
492.55	23335.38
493.324	25029.38
494.099	26693.38
494.873	28372.38
495.647	30274.38
496.422	32023.38
497.196	33694.38
497.97	35369.38
498.744	36784.38
499.518	38180.38
500.292	39463.38
501.066	40706.38
501.839	41731.38
502.613	42290.38
503.387	42878.38
504.16	43322.38
504.934	43446.38
505.707	43229.38
506.48	42874.38
507.253	42338.38
508.027	41510.38
508.8	40613.38
509.573	39416.38
510.346	38301.38
511.118	36984.38
511.891	35777.38
512.664	34526.38
513.437	33032.38
514.209	31726.38
514.982	30370.38
515.754	29241.38
516.526	27857.38
517.298	26722.38
518.071	25557.38
518.843	24511.38
519.615	23566.38
520.387	22618.38
521.159	21675.38
521.93	20812.38
522.702	19958.38
523.474	19111.38
524.245	18313.38
525.017	17621.38
525.788	16822.38
526.56	15973.38
527.331	15260.38
528.102	14540.38
528.873	13816.38
529.644	13093.38
530.415	12407.38
531.186	11725.38
531.957	11139.38
532.728	10553.38
533.498	10034.38
534.269	9432.38
535.039	8916.38
535.81	8495.38
536.58	7993.38
537.351	7570.38
538.121	7142.38
538.891	6751.38
539.661	6422.38
540.431	6070.38
541.201	5742.38
541.971	5467.38
542.741	5136.38
543.51	4895.38
544.28	4630.38
545.05	4422.38
545.819	4202.38
546.588	3975.38
547.358	3792.38
548.127	3603.38
548.896	3410.38
549.665	3254.38
550.434	3084.38
551.203	2903.38
551.972	2761.38
552.741	2610.38
553.51	2473.38
554.278	2311.38
555.047	2178.38
555.815	2055.38
556.584	1968.38
557.352	1859.38
558.121	1736.38
558.889	1653.38
559.657	1553.38
560.425	1468.38
561.193	1380.38
561.961	1307.38
562.729	1246.38
563.496	1172.38
564.264	1110.38
565.032	1050.38
565.799	1004.38
566.567	940.38
567.334	880.38
568.101	844.38
568.869	790.38
569.636	743.38
570.403	715.38
571.17	677.38
571.937	633.38
572.704	591.38
573.471	563.38
574.237	530.38
575.004	494.38
575.771	472.38
576.537	440.38
577.303	417.38
578.07	395.38
578.836	376.38
579.602	355.38
580.368	329.38
581.134	314.38
581.9	299.38
582.666	280.38
583.432	267.38
584.198	259.38
584.964	248.38
585.729	228.38
586.495	218.38
587.26	210.38
588.025	194.38
588.791	184.38
589.556	179.38
590.321	170.38
591.086	159.38
591.851	157.38
592.616	144.38
593.381	139.38
594.146	130.38
594.911	125.38
595.675	120.38
596.44	116.38
597.204	113.38
597.969	105.38
598.733	99.38
599.497	96.38
600.261	92.38
601.025	91.38
601.79	83.38
602.553	79.38
603.317	81.38
604.081	74.38
604.845	72.38
605.609	71.38
606.372	64.38
607.136	64.38
607.899	61.38
608.662	60.38
609.426	56.38
610.189	54.38
610.952	53.38
611.715	52.38
612.478	45.38
613.241	44.38
614.004	44.38
614.767	44.38
615.529	42.38
616.292	38.38
617.055	37.38
617.817	37.38
618.579	34.38
619.342	38.38
620.104	33.38
620.866	34.38
621.628	33.38
622.39	33.38
623.152	30.38
623.914	28.38
624.676	29.38
625.438	29.38
626.199	27.38
626.961	24.38
627.722	22.38
628.484	22.38
629.245	24.38
630.006	23.38
630.768	25.38
631.529	21.38
632.29	22.38
633.051	20.38
633.812	17.38
634.573	19.38
635.333	19.38
636.094	20.38
636.855	17.38
637.615	17.38
638.376	14.38
639.136	17.38
639.896	17.38
640.657	16.38
641.417	17.38
642.177	14.38
642.937	16.38
643.697	12.38
644.457	14.38
645.216	16.38
645.976	12.38
646.736	16.38
647.495	12.38
648.255	14.38
649.014	14.38
649.774	12.38
650.533	11.38
651.292	13.38
652.051	11.38
652.81	12.38
653.569	10.38
654.328	11.38
655.087	9.38
655.846	11.38
656.604	8.38
657.363	12.38
658.121	9.38
658.88	9.38
659.638	9.38
660.397	10.38
661.155	9.38
661.913	11.38
662.671	11.38
663.429	7.38
664.187	8.38
664.945	9.38
665.703	9.38
666.46	8.38
667.218	7.38
667.976	6.38
668.733	8.38
669.49	9.38
670.248	6.38
671.005	8.38
671.762	10.38
672.519	8.38
673.276	6.38
674.033	5.38
674.79	7.38
675.547	9.38
676.304	4.38
677.06	9.38
677.817	6.38
678.574	8.38
679.33	8.38
680.086	7.38
680.843	7.38
681.599	7.38
682.355	5.38
683.111	8.38
683.867	6.38
684.623	7.38
685.379	7.38
686.135	7.38
686.89	5.38
687.646	6.38
688.402	6.38
689.157	8.38
689.912	6.38
690.668	6.38
691.423	9.38
692.178	6.38
692.933	5.38
693.688	8.38
694.443	7.38
695.198	6.38
695.953	8.38
696.708	6.38
697.462	6.38
698.217	6.38
698.972	5.38
699.726	5.38
700.48	8.38
701.235	8.38
701.989	5.38
702.743	6.38
703.497	6.38
704.251	6.38
705.005	7.38
705.759	8.38
706.513	6.38
707.266	5.38
708.02	7.38
708.774	6.38
709.527	3.38
710.28	7.38
711.034	6.38
711.787	6.38
712.54	6.38
713.293	7.38
714.046	9.38
714.799	2.38
715.552	6.38
716.305	8.38
717.058	5.38
717.81	7.38
718.563	5.38
719.315	6.38
720.068	6.38
720.82	8.38
721.573	5.38
722.325	6.38
723.077	8.38
723.829	6.38
724.581	6.38
725.333	6.38
726.085	4.38
726.836	5.38
727.588	6.38
728.34	6.38
729.091	8.38
729.843	7.38
730.594	6.38
731.346	10.38
732.097	8.38
732.848	9.38
733.599	10.38
734.35	8.38
735.101	7.38
735.852	6.38
736.603	8.38
737.354	8.38
738.104	7.38
738.855	6.38
739.605	8.38
740.356	7.38
741.106	6.38
741.856	7.38
742.607	9.38
743.357	8.38
744.107	7.38
744.857	11.38
745.607	5.38
746.357	10.38
747.106	8.38
747.856	8.38
748.606	9.38
749.355	7.38
750.105	8.38
750.854	7.38
751.603	8.38
752.353	7.38
753.102	9.38
753.851	10.38
754.6	9.38
755.349	10.38
756.098	13.38
756.847	8.38
757.595	10.38
758.344	12.38
759.093	12.38
759.841	10.38
760.589	11.38
761.338	8.38
762.086	11.38
762.834	14.38
763.582	9.38
764.331	12.38
765.079	10.38
765.826	13.38
766.574	11.38
767.322	11.38
768.07	12.38
768.817	12.38
769.565	11.38
770.312	12.38
771.06	12.38
771.807	13.38
772.554	12.38
773.302	12.38
774.049	13.38
774.796	12.38
775.543	13.38
776.29	12.38
777.036	14.38
777.783	14.38
778.53	13.38
779.276	13.38
780.023	13.38
780.769	16.38
781.516	12.38
782.262	13.38
783.008	14.38
783.754	13.38
784.5	12.38
785.246	14.38
785.992	12.38
786.738	14.38
787.484	16.38
788.23	16.38
788.975	15.38
789.721	11.38
790.466	16.38
791.212	13.38
791.957	11.38
792.702	12.38
793.447	12.38
794.193	9.38
794.938	8.38
795.683	12.38
796.427	13.38
797.172	10.38
797.917	10.38
798.662	11.38
799.406	9.38
800.151	12.38
800.895	12.38
801.64	9.38
802.384	13.38
803.128	10.38
803.872	10.38
804.616	12.38
805.36	9.38
806.104	12.38
806.848	9.38
807.592	9.38
808.336	10.38
809.079	8.38
809.823	8.38
810.566	9.38
811.31	8.38
812.053	7.38
812.796	10.38
813.539	7.38
814.283	8.38
815.026	6.38
815.769	5.38
816.511	8.38
817.254	7.38
817.997	6.38
818.74	8.38
819.482	6.38
820.225	8.38
820.967	7.38
821.71	7.38
822.452	6.38
823.194	7.38
823.936	6.38
824.678	7.38
825.42	6.38
826.162	6.38
826.904	6.38
827.646	8.38
828.388	7.38
829.129	7.38
829.871	5.38
830.612	3.38
831.354	7.38
832.095	6.38
832.836	4.38
833.577	5.38
834.319	4.38
835.06	5.38
835.801	7.38
836.542	4.38
837.282	5.38
838.023	4.38
838.764	5.38
839.504	4.38
840.245	7.38
840.985	4.38
841.726	5.38
842.466	5.38
843.206	3.38
843.946	4.38
844.687	4.38
845.427	4.38
846.166	4.38
846.906	5.38
847.646	5.38
848.386	4.38
849.125	5.38
849.865	4.38
850.605	3.38
851.344	4.38
852.083	5.38
852.823	4.38
853.562	4.38
854.301	3.38
855.04	4.38
855.779	4.38
856.518	4.38
857.257	4.38
857.995	3.38
858.734	4.38
859.473	3.38
860.211	3.38
860.95	5.38
861.688	4.38
862.426	1.38
863.165	3.38
863.903	4.38
864.641	5.38
865.379	1.38
866.117	2.38
866.855	1.38
867.593	2.38
868.33	4.38
869.068	3.38
869.806	3.38
870.543	2.38
871.28	3.38
872.018	1.38
872.755	4.38
873.492	1.38
874.229	3.38
874.967	3.38
875.703	0.38
876.44	2.38
877.177	1.38
877.914	3.38
878.651	2.38
879.387	-1.62
880.124	1.38
880.86	0.38
881.597	2.38
882.333	2.38
883.069	0.38
883.806	-1.62
884.542	3.38
885.278	-2.62
886.014	2.38
886.749	0.38
887.485	0.38
888.221	-0.62
888.957	0.38
889.692	0.38
890.428	0.38
891.163	2.38
891.899	1.38
892.634	1.38
893.369	2.38
894.104	-0.62
894.839	1.38
895.574	1.38
896.309	2.38
897.044	1.38
897.779	2.38
898.514	2.38
899.248	2.38
899.983	0.38
900.717	0.38
901.452	-0.62
902.186	0.38
902.92	1.38
903.654	2.38
904.389	1.38
905.123	2.38
905.857	2.38
906.59	0.38
907.324	0.38
908.058	-0.62
908.792	0.38
909.525	0.38
910.259	1.38
910.992	0.38
911.726	1.38
912.459	0.38
913.192	1.38
913.925	1.38
914.658	2.38
915.391	0.38
916.124	1.38
916.857	0.38
917.59	1.38
918.323	-0.62
919.055	-1.62
919.788	0.38
920.521	0.38
921.253	0.38
921.985	-2.62
922.718	3.38
923.45	-0.62
924.182	1.38
924.914	1.38
925.646	1.38
926.378	-0.62
927.11	1.38
927.841	0.38
928.573	0.38
929.305	0.38
930.036	1.38
930.768	0.38
931.499	-0.62
932.23	-1.62
932.962	1.38
933.693	-0.62
934.424	1.38
935.155	1.38
935.886	0.38
936.617	-0.62
937.348	0.38
938.078	1.38
938.809	-1.62
939.54	0.38
940.27	-0.62
941.001	-0.62
941.731	0.38
942.461	1.38
943.191	3.38
943.922	2.38
944.652	1.38
945.382	2.38
946.112	-1.62
946.841	0.38
947.571	-0.62
948.301	0.38
949.031	-1.62
949.76	1.38
950.49	0.38
951.219	-1.62
951.948	0.38
952.678	0.38
953.407	1.38
954.136	1.38
954.865	0.38
955.594	-1.62
956.323	0.38
957.052	1.38
957.78	1.38
958.509	-1.62
959.238	-0.62
959.966	0.38
960.695	1.38
961.423	0.38
962.151	0.38
962.88	0.38
963.608	0.38
964.336	0.38
965.064	0.38
965.792	-0.62
966.52	1.38
967.247	1.38
967.975	0.38
968.703	-0.62
969.43	0.38
970.158	-0.62
970.885	-0.62
971.613	0.38
972.34	1.38
973.067	0.38
973.794	0.38
974.521	1.38
975.248	0.38
975.975	-1.62
976.702	2.38
977.429	1.38
978.156	-0.62
978.882	1.38
979.609	-1.62
980.335	0.38
981.062	1.38
981.788	0.38
982.514	0.38
983.24	-0.62
983.967	-0.62
984.693	0.38
985.419	-0.62
986.144	-0.62
986.87	0.38
987.596	-1.62
988.322	0.38
989.047	0.38
989.773	-1.62
990.498	-0.62
991.224	0.38
991.949	0.38
992.674	1.38
993.399	-0.62
994.124	0.38
994.849	0.38
995.574	-0.62
996.299	0.38
997.024	2.38
997.749	0.38
998.473	0.38
999.198	1.38
999.922	-1.62
1000.647	0.38
1001.371	3.38
1002.095	-1.62
1002.82	-0.62
1003.544	-1.62
1004.268	5.38
1004.992	2.38
1005.716	4.38
1006.439	3.38
1007.163	1.38
1007.887	2.38
1008.611	0.38
1009.334	-1.62
1010.058	-0.62
1010.781	0.38
1011.504	1.38
1012.228	0.38
1012.951	-0.62
1013.674	-0.62
1014.397	0.38
1015.12	1.38
