节点500_565_QEPB04081__121__09-52-26-942.txt的数据

Date: Thu Nov 13 09:52:26 CST 2025
User: PC
Spectrometer: QEPB0408
触发模式: 0
积分时间 (秒): 1.000000E-2
Scans to average: 1
启用暗噪声校正: true
启用非线性校正: false
滑动平均宽度: 0
X轴模式: Wavelengths
Number of Pixels in Spectrum: 1044
>>>>>Begin Spectral Data<<<<<
220.843	2.88
221.644	4.88
222.444	4.88
223.244	5.88
224.045	4.88
224.845	4.88
225.645	6.88
226.445	4.88
227.245	6.88
228.045	7.88
228.845	5.88
229.645	6.88
230.444	5.88
231.244	7.88
232.043	6.88
232.843	7.88
233.642	9.88
234.442	6.88
235.241	9.88
236.04	8.88
236.839	5.88
237.638	7.88
238.437	7.88
239.236	6.88
240.035	8.88
240.833	9.88
241.632	8.88
242.43	8.88
243.229	9.88
244.027	11.88
244.826	11.88
245.624	10.88
246.422	10.88
247.22	11.88
248.018	12.88
248.816	11.88
249.614	12.88
250.412	14.88
251.21	12.88
252.007	13.88
252.805	15.88
253.602	13.88
254.4	13.88
255.197	16.88
255.994	15.88
256.791	20.88
257.589	17.88
258.386	18.88
259.183	16.88
259.979	19.88
260.776	20.88
261.573	20.88
262.37	22.88
263.166	21.88
263.963	23.88
264.759	21.88
265.556	24.88
266.352	22.88
267.148	25.88
267.944	24.88
268.74	25.88
269.536	28.88
270.332	28.88
271.128	25.88
271.924	27.88
272.719	29.88
273.515	30.88
274.311	26.88
275.106	31.88
275.901	29.88
276.697	28.88
277.492	27.88
278.287	29.88
279.082	29.88
279.877	29.88
280.672	29.88
281.467	31.88
282.262	30.88
283.056	31.88
283.851	31.88
284.646	29.88
285.44	30.88
286.234	30.88
287.029	31.88
287.823	27.88
288.617	28.88
289.411	28.88
290.205	29.88
290.999	25.88
291.793	27.88
292.587	27.88
293.381	24.88
294.174	26.88
294.968	26.88
295.761	24.88
296.555	23.88
297.348	24.88
298.141	22.88
298.935	24.88
299.728	20.88
300.521	20.88
301.314	25.88
302.107	20.88
302.899	20.88
303.692	18.88
304.485	19.88
305.277	20.88
306.07	16.88
306.862	18.88
307.655	17.88
308.447	18.88
309.239	18.88
310.031	15.88
310.823	16.88
311.615	18.88
312.407	15.88
313.199	15.88
313.991	14.88
314.783	13.88
315.574	12.88
316.366	13.88
317.157	15.88
317.949	16.88
318.74	10.88
319.531	10.88
320.322	14.88
321.113	13.88
321.904	12.88
322.695	10.88
323.486	11.88
324.277	11.88
325.068	10.88
325.858	13.88
326.649	8.88
327.439	12.88
328.23	11.88
329.02	12.88
329.81	12.88
330.6	10.88
331.391	12.88
332.181	8.88
332.971	10.88
333.76	9.88
334.55	10.88
335.34	9.88
336.13	9.88
336.919	8.88
337.709	9.88
338.498	11.88
339.287	9.88
340.077	10.88
340.866	7.88
341.655	9.88
342.444	9.88
343.233	10.88
344.022	9.88
344.811	10.88
345.6	10.88
346.388	8.88
347.177	8.88
347.965	12.88
348.754	9.88
349.542	8.88
350.33	7.88
351.119	8.88
351.907	10.88
352.695	9.88
353.483	8.88
354.271	10.88
355.059	11.88
355.846	8.88
356.634	8.88
357.422	9.88
358.209	10.88
358.997	9.88
359.784	9.88
360.571	10.88
361.359	9.88
362.146	7.88
362.933	8.88
363.72	8.88
364.507	9.88
365.294	7.88
366.081	10.88
366.867	6.88
367.654	9.88
368.44	8.88
369.227	8.88
370.013	7.88
370.8	6.88
371.586	10.88
372.372	7.88
373.158	9.88
373.944	8.88
374.73	7.88
375.516	9.88
376.302	7.88
377.088	9.88
377.873	8.88
378.659	8.88
379.445	10.88
380.23	8.88
381.015	9.88
381.801	10.88
382.586	7.88
383.371	8.88
384.156	8.88
384.941	10.88
385.726	9.88
386.511	8.88
387.296	7.88
388.08	13.88
388.865	8.88
389.649	11.88
390.434	10.88
391.218	10.88
392.003	10.88
392.787	10.88
393.571	7.88
394.355	11.88
395.139	11.88
395.923	10.88
396.707	13.88
397.491	10.88
398.274	10.88
399.058	11.88
399.842	9.88
400.625	12.88
401.408	11.88
402.192	11.88
402.975	12.88
403.758	11.88
404.541	13.88
405.324	12.88
406.107	11.88
406.89	11.88
407.673	13.88
408.456	13.88
409.238	12.88
410.021	13.88
410.803	16.88
411.586	12.88
412.368	15.88
413.151	15.88
413.933	12.88
414.715	14.88
415.497	16.88
416.279	14.88
417.061	16.88
417.843	15.88
418.624	18.88
419.406	20.88
420.188	16.88
420.969	22.88
421.751	15.88
422.532	18.88
423.313	19.88
424.095	20.88
424.876	20.88
425.657	21.88
426.438	20.88
427.219	20.88
428	21.88
428.78	22.88
429.561	26.88
430.342	23.88
431.122	25.88
431.903	24.88
432.683	26.88
433.464	29.88
434.244	31.88
435.024	31.88
435.804	34.88
436.584	34.88
437.364	37.88
438.144	36.88
438.924	43.88
439.704	40.88
440.483	42.88
441.263	46.88
442.042	47.88
442.822	56.88
443.601	58.88
444.38	61.88
445.16	63.88
445.939	72.88
446.718	75.88
447.497	84.88
448.276	91.88
449.054	91.88
449.833	105.88
450.612	117.88
451.391	127.88
452.169	137.88
452.948	155.88
453.726	172.88
454.504	188.88
455.282	209.88
456.061	230.88
456.839	246.88
457.617	280.88
458.395	315.88
459.172	349.88
459.95	396.88
460.728	442.88
461.506	489.88
462.283	554.88
463.061	621.88
463.838	693.88
464.615	779.88
465.393	862.88
466.17	963.88
466.947	1070.88
467.724	1198.88
468.501	1325.88
469.278	1488.88
470.055	1645.88
470.831	1853.88
471.608	2045.88
472.385	2253.88
473.161	2505.88
473.938	2784.88
474.714	3072.88
475.49	3364.88
476.266	3716.88
477.043	4139.88
477.819	4564.88
478.595	5008.88
479.371	5478.88
480.146	6035.88
480.922	6667.88
481.698	7265.88
482.473	7947.88
483.249	8652.88
484.024	9491.88
484.8	10402.88
485.575	11331.88
486.35	12389.88
487.126	13492.88
487.901	14680.88
488.676	16011.88
489.451	17320.88
490.225	18734.88
491	20258.88
491.775	21852.88
492.55	23551.88
493.324	25126.88
494.099	26839.88
494.873	28556.88
495.647	30399.88
496.422	32255.88
497.196	33862.88
497.97	35470.88
498.744	36971.88
499.518	38381.88
500.292	39634.88
501.066	40804.88
501.839	41867.88
502.613	42593.88
503.387	43055.88
504.16	43528.88
504.934	43471.88
505.707	43320.88
506.48	42986.88
507.253	42424.88
508.027	41566.88
508.8	40567.88
509.573	39487.88
510.346	38278.88
511.118	37013.88
511.891	35811.88
512.664	34520.88
513.437	33064.88
514.209	31686.88
514.982	30375.88
515.754	29115.88
516.526	27863.88
517.298	26635.88
518.071	25547.88
518.843	24562.88
519.615	23536.88
520.387	22545.88
521.159	21742.88
521.93	20776.88
522.702	19910.88
523.474	19125.88
524.245	18313.88
525.017	17585.88
525.788	16805.88
526.56	15978.88
527.331	15254.88
528.102	14541.88
528.873	13799.88
529.644	13080.88
530.415	12409.88
531.186	11770.88
531.957	11152.88
532.728	10577.88
533.498	9988.88
534.269	9419.88
535.039	8911.88
535.81	8434.88
536.58	7977.88
537.351	7543.88
538.121	7117.88
538.891	6750.88
539.661	6401.88
540.431	6044.88
541.201	5727.88
541.971	5433.88
542.741	5115.88
543.51	4878.88
544.28	4614.88
545.05	4417.88
545.819	4178.88
546.588	3971.88
547.358	3762.88
548.127	3595.88
548.896	3417.88
549.665	3248.88
550.434	3065.88
551.203	2919.88
551.972	2746.88
552.741	2601.88
553.51	2474.88
554.278	2298.88
555.047	2197.88
555.815	2055.88
556.584	1951.88
557.352	1842.88
558.121	1724.88
558.889	1642.88
559.657	1535.88
560.425	1458.88
561.193	1393.88
561.961	1307.88
562.729	1233.88
563.496	1171.88
564.264	1122.88
565.032	1047.88
565.799	999.88
566.567	939.88
567.334	892.88
568.101	859.88
568.869	794.88
569.636	749.88
570.403	708.88
571.17	665.88
571.937	638.88
572.704	590.88
573.471	558.88
574.237	521.88
575.004	501.88
575.771	461.88
576.537	452.88
577.303	421.88
578.07	394.88
578.836	372.88
579.602	351.88
580.368	330.88
581.134	317.88
581.9	300.88
582.666	285.88
583.432	269.88
584.198	255.88
584.964	241.88
585.729	236.88
586.495	221.88
587.26	207.88
588.025	198.88
588.791	188.88
589.556	179.88
590.321	173.88
591.086	153.88
591.851	149.88
592.616	142.88
593.381	139.88
594.146	129.88
594.911	122.88
595.675	117.88
596.44	123.88
597.204	109.88
597.969	108.88
598.733	95.88
599.497	98.88
600.261	94.88
601.025	90.88
601.79	85.88
602.553	82.88
603.317	77.88
604.081	72.88
604.845	72.88
605.609	71.88
606.372	67.88
607.136	64.88
607.899	64.88
608.662	58.88
609.426	58.88
610.189	58.88
610.952	51.88
611.715	51.88
612.478	45.88
613.241	49.88
614.004	46.88
614.767	41.88
615.529	44.88
616.292	39.88
617.055	38.88
617.817	37.88
618.579	38.88
619.342	37.88
620.104	33.88
620.866	33.88
621.628	32.88
622.39	32.88
623.152	30.88
623.914	29.88
624.676	29.88
625.438	29.88
626.199	26.88
626.961	26.88
627.722	27.88
628.484	25.88
629.245	23.88
630.006	27.88
630.768	22.88
631.529	22.88
632.29	17.88
633.051	23.88
633.812	21.88
634.573	18.88
635.333	18.88
636.094	17.88
636.855	22.88
637.615	16.88
638.376	19.88
639.136	16.88
639.896	14.88
640.657	15.88
641.417	16.88
642.177	16.88
642.937	15.88
643.697	12.88
644.457	14.88
645.216	12.88
645.976	13.88
646.736	11.88
647.495	13.88
648.255	12.88
649.014	13.88
649.774	12.88
650.533	10.88
651.292	9.88
652.051	12.88
652.81	11.88
653.569	12.88
654.328	10.88
655.087	12.88
655.846	9.88
656.604	10.88
657.363	11.88
658.121	11.88
658.88	9.88
659.638	9.88
660.397	9.88
661.155	8.88
661.913	8.88
662.671	8.88
663.429	8.88
664.187	8.88
664.945	8.88
665.703	10.88
666.46	6.88
667.218	8.88
667.976	6.88
668.733	7.88
669.49	8.88
670.248	10.88
671.005	6.88
671.762	5.88
672.519	9.88
673.276	7.88
674.033	7.88
674.79	3.88
675.547	7.88
676.304	6.88
677.06	9.88
677.817	5.88
678.574	8.88
679.33	9.88
680.086	6.88
680.843	6.88
681.599	7.88
682.355	5.88
683.111	7.88
683.867	6.88
684.623	7.88
685.379	7.88
686.135	8.88
686.89	5.88
687.646	9.88
688.402	7.88
689.157	5.88
689.912	7.88
690.668	6.88
691.423	6.88
692.178	7.88
692.933	4.88
693.688	8.88
694.443	6.88
695.198	5.88
695.953	5.88
696.708	5.88
697.462	6.88
698.217	7.88
698.972	4.88
699.726	5.88
700.48	8.88
701.235	7.88
701.989	6.88
702.743	6.88
703.497	5.88
704.251	5.88
705.005	4.88
705.759	7.88
706.513	7.88
707.266	7.88
708.02	5.88
708.774	5.88
709.527	6.88
710.28	6.88
711.034	5.88
711.787	6.88
712.54	6.88
713.293	6.88
714.046	5.88
714.799	8.88
715.552	4.88
716.305	6.88
717.058	7.88
717.81	6.88
718.563	4.88
719.315	5.88
720.068	6.88
720.82	7.88
721.573	9.88
722.325	6.88
723.077	8.88
723.829	7.88
724.581	7.88
725.333	4.88
726.085	7.88
726.836	6.88
727.588	7.88
728.34	8.88
729.091	5.88
729.843	7.88
730.594	7.88
731.346	5.88
732.097	6.88
732.848	7.88
733.599	9.88
734.35	7.88
735.101	8.88
735.852	9.88
736.603	6.88
737.354	9.88
738.104	6.88
738.855	10.88
739.605	8.88
740.356	9.88
741.106	9.88
741.856	7.88
742.607	9.88
743.357	7.88
744.107	10.88
744.857	8.88
745.607	9.88
746.357	9.88
747.106	7.88
747.856	10.88
748.606	8.88
749.355	8.88
750.105	10.88
750.854	11.88
751.603	8.88
752.353	8.88
753.102	10.88
753.851	8.88
754.6	10.88
755.349	9.88
756.098	9.88
756.847	11.88
757.595	12.88
758.344	11.88
759.093	9.88
759.841	12.88
760.589	12.88
761.338	11.88
762.086	12.88
762.834	10.88
763.582	13.88
764.331	12.88
765.079	11.88
765.826	11.88
766.574	9.88
767.322	12.88
768.07	12.88
768.817	12.88
769.565	13.88
770.312	15.88
771.06	11.88
771.807	12.88
772.554	13.88
773.302	11.88
774.049	13.88
774.796	12.88
775.543	13.88
776.29	11.88
777.036	15.88
777.783	14.88
778.53	15.88
779.276	15.88
780.023	13.88
780.769	12.88
781.516	12.88
782.262	17.88
783.008	13.88
783.754	16.88
784.5	16.88
785.246	13.88
785.992	12.88
786.738	12.88
787.484	13.88
788.23	12.88
788.975	15.88
789.721	13.88
790.466	14.88
791.212	15.88
791.957	13.88
792.702	13.88
793.447	14.88
794.193	14.88
794.938	10.88
795.683	10.88
796.427	12.88
797.172	12.88
797.917	12.88
798.662	10.88
799.406	10.88
800.151	11.88
800.895	10.88
801.64	11.88
802.384	11.88
803.128	11.88
803.872	12.88
804.616	8.88
805.36	12.88
806.104	9.88
806.848	8.88
807.592	7.88
808.336	10.88
809.079	8.88
809.823	9.88
810.566	9.88
811.31	9.88
812.053	12.88
812.796	8.88
813.539	8.88
814.283	8.88
815.026	9.88
815.769	6.88
816.511	8.88
817.254	7.88
817.997	5.88
818.74	8.88
819.482	7.88
820.225	8.88
820.967	4.88
821.71	6.88
822.452	5.88
823.194	6.88
823.936	7.88
824.678	6.88
825.42	5.88
826.162	7.88
826.904	7.88
827.646	4.88
828.388	5.88
829.129	8.88
829.871	6.88
830.612	5.88
831.354	5.88
832.095	4.88
832.836	8.88
833.577	5.88
834.319	4.88
835.06	3.88
835.801	4.88
836.542	6.88
837.282	3.88
838.023	6.88
838.764	5.88
839.504	4.88
840.245	6.88
840.985	6.88
841.726	5.88
842.466	3.88
843.206	6.88
843.946	2.88
844.687	6.88
845.427	4.88
846.166	4.88
846.906	5.88
847.646	4.88
848.386	4.88
849.125	4.88
849.865	2.88
850.605	2.88
851.344	4.88
852.083	2.88
852.823	3.88
853.562	2.88
854.301	1.88
855.04	4.88
855.779	0.88
856.518	3.88
857.257	3.88
857.995	4.88
858.734	1.88
859.473	2.88
860.211	-0.12
860.95	0.88
861.688	2.88
862.426	2.88
863.165	3.88
863.903	4.88
864.641	4.88
865.379	5.88
866.117	4.88
866.855	3.88
867.593	3.88
868.33	1.88
869.068	2.88
869.806	1.88
870.543	1.88
871.28	1.88
872.018	4.88
872.755	3.88
873.492	0.88
874.229	3.88
874.967	2.88
875.703	2.88
876.44	1.88
877.177	2.88
877.914	2.88
878.651	0.88
879.387	1.88
880.124	1.88
880.86	1.88
881.597	2.88
882.333	3.88
883.069	1.88
883.806	0.88
884.542	1.88
885.278	2.88
886.014	-0.12
886.749	0.88
887.485	2.88
888.221	3.88
888.957	2.88
889.692	1.88
890.428	0.88
891.163	1.88
891.899	-0.12
892.634	1.88
893.369	1.88
894.104	0.88
894.839	1.88
895.574	2.88
896.309	-0.12
897.044	0.88
897.779	2.88
898.514	0.88
899.248	0.88
899.983	0.88
900.717	0.88
901.452	2.88
902.186	0.88
902.92	0.88
903.654	-0.12
904.389	-1.12
905.123	-0.12
905.857	0.88
906.59	0.88
907.324	0.88
908.058	2.88
908.792	1.88
909.525	0.88
910.259	0.88
910.992	1.88
911.726	1.88
912.459	-2.12
913.192	-0.12
913.925	-1.12
914.658	1.88
915.391	0.88
916.124	1.88
916.857	1.88
917.59	-2.12
918.323	0.88
919.055	0.88
919.788	1.88
920.521	1.88
921.253	-0.12
921.985	-0.12
922.718	-0.12
923.45	0.88
924.182	0.88
924.914	1.88
925.646	0.88
926.378	2.88
927.11	-0.12
927.841	0.88
928.573	1.88
929.305	-1.12
930.036	0.88
930.768	-0.12
931.499	0.88
932.23	1.88
932.962	3.88
933.693	0.88
934.424	2.88
935.155	2.88
935.886	0.88
936.617	-0.12
937.348	0.88
938.078	1.88
938.809	0.88
939.54	0.88
940.27	0.88
941.001	0.88
941.731	0.88
942.461	2.88
943.191	1.88
943.922	-0.12
944.652	1.88
945.382	-2.12
946.112	0.88
946.841	-1.12
947.571	1.88
948.301	-1.12
949.031	0.88
949.76	1.88
950.49	0.88
951.219	-1.12
951.948	-0.12
952.678	1.88
953.407	-0.12
954.136	-0.12
954.865	0.88
955.594	-1.12
956.323	2.88
957.052	-1.12
957.78	-0.12
958.509	0.88
959.238	1.88
959.966	0.88
960.695	-0.12
961.423	1.88
962.151	0.88
962.88	0.88
963.608	0.88
964.336	0.88
965.064	-0.12
965.792	-1.12
966.52	-0.12
967.247	0.88
967.975	0.88
968.703	-0.12
969.43	-0.12
970.158	0.88
970.885	1.88
971.613	0.88
972.34	1.88
973.067	1.88
973.794	-1.12
974.521	0.88
975.248	0.88
975.975	0.88
976.702	-1.12
977.429	0.88
978.156	-1.12
978.882	-0.12
979.609	0.88
980.335	-0.12
981.062	-1.12
981.788	0.88
982.514	0.88
983.24	-0.12
983.967	1.88
984.693	1.88
985.419	0.88
986.144	1.88
986.87	-0.12
987.596	1.88
988.322	0.88
989.047	0.88
989.773	-0.12
990.498	1.88
991.224	2.88
991.949	-1.12
992.674	-1.12
993.399	1.88
994.124	0.88
994.849	0.88
995.574	1.88
996.299	0.88
997.024	-1.12
997.749	0.88
998.473	0.88
999.198	-1.12
999.922	-0.12
1000.647	0.88
1001.371	2.88
1002.095	-1.12
1002.82	-2.12
1003.544	-0.12
1004.268	4.88
1004.992	5.88
1005.716	2.88
1006.439	4.88
1007.163	2.88
1007.887	6.88
1008.611	-2.12
1009.334	0.88
1010.058	-1.12
1010.781	-0.12
1011.504	0.88
1012.228	1.88
1012.951	0.88
1013.674	0.88
1014.397	-0.12
1015.12	-1.12
