节点500_565_QEPB04081__486__09-58-30-162.txt的数据

Date: Thu Nov 13 09:58:30 CST 2025
User: PC
Spectrometer: QEPB0408
触发模式: 0
积分时间 (秒): 1.000000E-2
Scans to average: 1
启用暗噪声校正: true
启用非线性校正: false
滑动平均宽度: 0
X轴模式: Wavelengths
Number of Pixels in Spectrum: 1044
>>>>>Begin Spectral Data<<<<<
220.843	3.62
221.644	3.62
222.444	3.62
223.244	5.62
224.045	4.62
224.845	5.62
225.645	7.62
226.445	7.62
227.245	7.62
228.045	9.62
228.845	5.62
229.645	4.62
230.444	7.62
231.244	6.62
232.043	9.62
232.843	6.62
233.642	8.62
234.442	8.62
235.241	11.62
236.04	7.62
236.839	6.62
237.638	7.62
238.437	8.62
239.236	9.62
240.035	8.62
240.833	10.62
241.632	9.62
242.43	10.62
243.229	9.62
244.027	9.62
244.826	10.62
245.624	10.62
246.422	12.62
247.22	7.62
248.018	12.62
248.816	12.62
249.614	13.62
250.412	12.62
251.21	10.62
252.007	12.62
252.805	12.62
253.602	15.62
254.4	13.62
255.197	14.62
255.994	13.62
256.791	12.62
257.589	14.62
258.386	16.62
259.183	15.62
259.979	16.62
260.776	15.62
261.573	17.62
262.37	19.62
263.166	15.62
263.963	19.62
264.759	21.62
265.556	19.62
266.352	22.62
267.148	21.62
267.944	20.62
268.74	23.62
269.536	22.62
270.332	22.62
271.128	19.62
271.924	25.62
272.719	25.62
273.515	24.62
274.311	25.62
275.106	25.62
275.901	26.62
276.697	27.62
277.492	27.62
278.287	27.62
279.082	27.62
279.877	29.62
280.672	25.62
281.467	28.62
282.262	26.62
283.056	29.62
283.851	29.62
284.646	29.62
285.44	30.62
286.234	27.62
287.029	27.62
287.823	27.62
288.617	27.62
289.411	25.62
290.205	26.62
290.999	27.62
291.793	27.62
292.587	23.62
293.381	25.62
294.174	24.62
294.968	27.62
295.761	23.62
296.555	24.62
297.348	21.62
298.141	24.62
298.935	23.62
299.728	21.62
300.521	22.62
301.314	22.62
302.107	20.62
302.899	19.62
303.692	19.62
304.485	18.62
305.277	19.62
306.07	19.62
306.862	17.62
307.655	19.62
308.447	20.62
309.239	17.62
310.031	16.62
310.823	16.62
311.615	15.62
312.407	17.62
313.199	14.62
313.991	12.62
314.783	13.62
315.574	12.62
316.366	14.62
317.157	13.62
317.949	14.62
318.74	14.62
319.531	13.62
320.322	12.62
321.113	11.62
321.904	13.62
322.695	11.62
323.486	13.62
324.277	11.62
325.068	11.62
325.858	12.62
326.649	11.62
327.439	10.62
328.23	8.62
329.02	12.62
329.81	10.62
330.6	13.62
331.391	14.62
332.181	9.62
332.971	10.62
333.76	8.62
334.55	11.62
335.34	11.62
336.13	12.62
336.919	12.62
337.709	10.62
338.498	9.62
339.287	9.62
340.077	11.62
340.866	10.62
341.655	10.62
342.444	8.62
343.233	10.62
344.022	10.62
344.811	6.62
345.6	11.62
346.388	9.62
347.177	10.62
347.965	11.62
348.754	7.62
349.542	9.62
350.33	10.62
351.119	8.62
351.907	7.62
352.695	10.62
353.483	9.62
354.271	6.62
355.059	8.62
355.846	6.62
356.634	9.62
357.422	7.62
358.209	9.62
358.997	13.62
359.784	8.62
360.571	9.62
361.359	8.62
362.146	7.62
362.933	7.62
363.72	8.62
364.507	9.62
365.294	7.62
366.081	7.62
366.867	7.62
367.654	9.62
368.44	8.62
369.227	8.62
370.013	7.62
370.8	7.62
371.586	9.62
372.372	7.62
373.158	8.62
373.944	8.62
374.73	9.62
375.516	7.62
376.302	9.62
377.088	7.62
377.873	9.62
378.659	8.62
379.445	5.62
380.23	7.62
381.015	7.62
381.801	8.62
382.586	8.62
383.371	9.62
384.156	9.62
384.941	8.62
385.726	9.62
386.511	7.62
387.296	7.62
388.08	8.62
388.865	10.62
389.649	10.62
390.434	9.62
391.218	9.62
392.003	8.62
392.787	10.62
393.571	10.62
394.355	9.62
395.139	11.62
395.923	10.62
396.707	12.62
397.491	10.62
398.274	11.62
399.058	11.62
399.842	10.62
400.625	12.62
401.408	9.62
402.192	13.62
402.975	12.62
403.758	11.62
404.541	13.62
405.324	12.62
406.107	10.62
406.89	12.62
407.673	12.62
408.456	12.62
409.238	13.62
410.021	11.62
410.803	11.62
411.586	15.62
412.368	11.62
413.151	14.62
413.933	14.62
414.715	14.62
415.497	15.62
416.279	14.62
417.061	13.62
417.843	17.62
418.624	13.62
419.406	14.62
420.188	17.62
420.969	17.62
421.751	18.62
422.532	18.62
423.313	19.62
424.095	20.62
424.876	20.62
425.657	19.62
426.438	21.62
427.219	25.62
428	23.62
428.78	23.62
429.561	22.62
430.342	23.62
431.122	25.62
431.903	25.62
432.683	29.62
433.464	29.62
434.244	29.62
435.024	30.62
435.804	33.62
436.584	35.62
437.364	38.62
438.144	39.62
438.924	38.62
439.704	45.62
440.483	45.62
441.263	48.62
442.042	52.62
442.822	53.62
443.601	58.62
444.38	67.62
445.16	68.62
445.939	74.62
446.718	82.62
447.497	87.62
448.276	98.62
449.054	107.62
449.833	116.62
450.612	126.62
451.391	137.62
452.169	153.62
452.948	169.62
453.726	185.62
454.504	209.62
455.282	231.62
456.061	256.62
456.839	290.62
457.617	321.62
458.395	357.62
459.172	395.62
459.95	443.62
460.728	489.62
461.506	547.62
462.283	605.62
463.061	683.62
463.838	755.62
464.615	840.62
465.393	926.62
466.17	1029.62
466.947	1152.62
467.724	1271.62
468.501	1391.62
469.278	1550.62
470.055	1712.62
470.831	1891.62
471.608	2072.62
472.385	2293.62
473.161	2519.62
473.938	2781.62
474.714	3042.62
475.49	3312.62
476.266	3658.62
477.043	3979.62
477.819	4338.62
478.595	4772.62
479.371	5172.62
480.146	5636.62
480.922	6168.62
481.698	6667.62
482.473	7278.62
483.249	7833.62
484.024	8544.62
484.8	9267.62
485.575	10020.62
486.35	10820.62
487.126	11765.62
487.901	12647.62
488.676	13696.62
489.451	14813.62
490.225	15974.62
491	17150.62
491.775	18375.62
492.55	19683.62
493.324	21083.62
494.099	22438.62
494.873	23923.62
495.647	25443.62
496.422	26909.62
497.196	28339.62
497.97	29758.62
498.744	31218.62
499.518	32480.62
500.292	33762.62
501.066	34932.62
501.839	35993.62
502.613	36869.62
503.387	37733.62
504.16	38434.62
504.934	38791.62
505.707	39000.62
506.48	39210.62
507.253	39095.62
508.027	38627.62
508.8	38168.62
509.573	37578.62
510.346	36765.62
511.118	35863.62
511.891	34965.62
512.664	33988.62
513.437	32873.62
514.209	31747.62
514.982	30613.62
515.754	29449.62
516.526	28222.62
517.298	27149.62
518.071	26049.62
518.843	25042.62
519.615	24024.62
520.387	23017.62
521.159	22198.62
521.93	21313.62
522.702	20374.62
523.474	19587.62
524.245	18823.62
525.017	18056.62
525.788	17290.62
526.56	16594.62
527.331	15812.62
528.102	15157.62
528.873	14445.62
529.644	13719.62
530.415	13073.62
531.186	12414.62
531.957	11852.62
532.728	11272.62
533.498	10678.62
534.269	10146.62
535.039	9526.62
535.81	9113.62
536.58	8548.62
537.351	8123.62
538.121	7678.62
538.891	7307.62
539.661	6895.62
540.431	6558.62
541.201	6169.62
541.971	5878.62
542.741	5555.62
543.51	5250.62
544.28	5000.62
545.05	4744.62
545.819	4543.62
546.588	4297.62
547.358	4082.62
548.127	3902.62
548.896	3697.62
549.665	3505.62
550.434	3345.62
551.203	3169.62
551.972	3015.62
552.741	2839.62
553.51	2687.62
554.278	2528.62
555.047	2429.62
555.815	2286.62
556.584	2167.62
557.352	2035.62
558.121	1920.62
558.889	1817.62
559.657	1713.62
560.425	1619.62
561.193	1519.62
561.961	1449.62
562.729	1381.62
563.496	1297.62
564.264	1235.62
565.032	1165.62
565.799	1102.62
566.567	1045.62
567.334	975.62
568.101	930.62
568.869	876.62
569.636	834.62
570.403	784.62
571.17	749.62
571.937	701.62
572.704	667.62
573.471	616.62
574.237	588.62
575.004	546.62
575.771	530.62
576.537	490.62
577.303	463.62
578.07	441.62
578.836	415.62
579.602	385.62
580.368	364.62
581.134	348.62
581.9	337.62
582.666	317.62
583.432	300.62
584.198	287.62
584.964	270.62
585.729	261.62
586.495	241.62
587.26	231.62
588.025	217.62
588.791	205.62
589.556	200.62
590.321	185.62
591.086	178.62
591.851	165.62
592.616	161.62
593.381	154.62
594.146	145.62
594.911	145.62
595.675	130.62
596.44	125.62
597.204	117.62
597.969	115.62
598.733	112.62
599.497	105.62
600.261	107.62
601.025	91.62
601.79	97.62
602.553	91.62
603.317	83.62
604.081	83.62
604.845	75.62
605.609	73.62
606.372	71.62
607.136	71.62
607.899	68.62
608.662	67.62
609.426	61.62
610.189	63.62
610.952	56.62
611.715	53.62
612.478	52.62
613.241	52.62
614.004	49.62
614.767	46.62
615.529	45.62
616.292	45.62
617.055	40.62
617.817	40.62
618.579	42.62
619.342	38.62
620.104	37.62
620.866	36.62
621.628	36.62
622.39	34.62
623.152	31.62
623.914	33.62
624.676	30.62
625.438	29.62
626.199	30.62
626.961	29.62
627.722	25.62
628.484	26.62
629.245	25.62
630.006	26.62
630.768	23.62
631.529	22.62
632.29	23.62
633.051	19.62
633.812	22.62
634.573	20.62
635.333	21.62
636.094	20.62
636.855	20.62
637.615	18.62
638.376	16.62
639.136	19.62
639.896	14.62
640.657	18.62
641.417	13.62
642.177	17.62
642.937	14.62
643.697	12.62
644.457	13.62
645.216	11.62
645.976	14.62
646.736	14.62
647.495	13.62
648.255	13.62
649.014	15.62
649.774	12.62
650.533	13.62
651.292	13.62
652.051	12.62
652.81	11.62
653.569	12.62
654.328	11.62
655.087	12.62
655.846	14.62
656.604	11.62
657.363	9.62
658.121	11.62
658.88	10.62
659.638	10.62
660.397	9.62
661.155	12.62
661.913	9.62
662.671	11.62
663.429	10.62
664.187	8.62
664.945	10.62
665.703	10.62
666.46	9.62
667.218	9.62
667.976	10.62
668.733	9.62
669.49	9.62
670.248	7.62
671.005	9.62
671.762	9.62
672.519	9.62
673.276	10.62
674.033	7.62
674.79	10.62
675.547	8.62
676.304	8.62
677.06	7.62
677.817	7.62
678.574	8.62
679.33	9.62
680.086	6.62
680.843	8.62
681.599	8.62
682.355	5.62
683.111	8.62
683.867	7.62
684.623	5.62
685.379	8.62
686.135	7.62
686.89	6.62
687.646	8.62
688.402	7.62
689.157	6.62
689.912	6.62
690.668	6.62
691.423	6.62
692.178	7.62
692.933	7.62
693.688	7.62
694.443	7.62
695.198	9.62
695.953	6.62
696.708	7.62
697.462	7.62
698.217	7.62
698.972	7.62
699.726	3.62
700.48	6.62
701.235	7.62
701.989	7.62
702.743	7.62
703.497	5.62
704.251	6.62
705.005	7.62
705.759	10.62
706.513	8.62
707.266	5.62
708.02	6.62
708.774	6.62
709.527	5.62
710.28	4.62
711.034	5.62
711.787	6.62
712.54	5.62
713.293	6.62
714.046	4.62
714.799	7.62
715.552	8.62
716.305	6.62
717.058	9.62
717.81	7.62
718.563	6.62
719.315	5.62
720.068	7.62
720.82	5.62
721.573	6.62
722.325	7.62
723.077	8.62
723.829	6.62
724.581	5.62
725.333	6.62
726.085	4.62
726.836	8.62
727.588	5.62
728.34	8.62
729.091	9.62
729.843	7.62
730.594	8.62
731.346	7.62
732.097	8.62
732.848	7.62
733.599	9.62
734.35	8.62
735.101	7.62
735.852	9.62
736.603	5.62
737.354	9.62
738.104	5.62
738.855	6.62
739.605	8.62
740.356	8.62
741.106	8.62
741.856	8.62
742.607	10.62
743.357	8.62
744.107	10.62
744.857	9.62
745.607	9.62
746.357	7.62
747.106	7.62
747.856	7.62
748.606	8.62
749.355	9.62
750.105	9.62
750.854	11.62
751.603	9.62
752.353	8.62
753.102	9.62
753.851	11.62
754.6	11.62
755.349	12.62
756.098	9.62
756.847	8.62
757.595	10.62
758.344	7.62
759.093	11.62
759.841	12.62
760.589	11.62
761.338	10.62
762.086	9.62
762.834	10.62
763.582	13.62
764.331	10.62
765.079	12.62
765.826	12.62
766.574	14.62
767.322	11.62
768.07	11.62
768.817	11.62
769.565	9.62
770.312	13.62
771.06	13.62
771.807	11.62
772.554	14.62
773.302	12.62
774.049	11.62
774.796	12.62
775.543	10.62
776.29	8.62
777.036	12.62
777.783	11.62
778.53	13.62
779.276	14.62
780.023	11.62
780.769	13.62
781.516	11.62
782.262	14.62
783.008	13.62
783.754	13.62
784.5	12.62
785.246	11.62
785.992	15.62
786.738	12.62
787.484	13.62
788.23	11.62
788.975	14.62
789.721	13.62
790.466	11.62
791.212	11.62
791.957	11.62
792.702	13.62
793.447	11.62
794.193	12.62
794.938	11.62
795.683	13.62
796.427	11.62
797.172	12.62
797.917	11.62
798.662	10.62
799.406	13.62
800.151	8.62
800.895	11.62
801.64	9.62
802.384	8.62
803.128	9.62
803.872	9.62
804.616	9.62
805.36	8.62
806.104	9.62
806.848	8.62
807.592	8.62
808.336	9.62
809.079	7.62
809.823	10.62
810.566	9.62
811.31	11.62
812.053	10.62
812.796	6.62
813.539	9.62
814.283	7.62
815.026	7.62
815.769	8.62
816.511	8.62
817.254	6.62
817.997	9.62
818.74	8.62
819.482	5.62
820.225	7.62
820.967	5.62
821.71	7.62
822.452	6.62
823.194	8.62
823.936	7.62
824.678	6.62
825.42	6.62
826.162	7.62
826.904	7.62
827.646	6.62
828.388	5.62
829.129	8.62
829.871	5.62
830.612	7.62
831.354	5.62
832.095	4.62
832.836	6.62
833.577	6.62
834.319	5.62
835.06	5.62
835.801	7.62
836.542	6.62
837.282	4.62
838.023	6.62
838.764	5.62
839.504	6.62
840.245	5.62
840.985	5.62
841.726	4.62
842.466	7.62
843.206	7.62
843.946	5.62
844.687	3.62
845.427	3.62
846.166	5.62
846.906	4.62
847.646	6.62
848.386	3.62
849.125	3.62
849.865	5.62
850.605	4.62
851.344	5.62
852.083	4.62
852.823	4.62
853.562	3.62
854.301	5.62
855.04	2.62
855.779	4.62
856.518	3.62
857.257	4.62
857.995	5.62
858.734	3.62
859.473	5.62
860.211	2.62
860.95	2.62
861.688	5.62
862.426	4.62
863.165	6.62
863.903	1.62
864.641	3.62
865.379	3.62
866.117	3.62
866.855	2.62
867.593	4.62
868.33	4.62
869.068	2.62
869.806	1.62
870.543	3.62
871.28	2.62
872.018	2.62
872.755	1.62
873.492	1.62
874.229	3.62
874.967	2.62
875.703	0.62
876.44	2.62
877.177	2.62
877.914	3.62
878.651	1.62
879.387	1.62
880.124	2.62
880.86	1.62
881.597	1.62
882.333	1.62
883.069	1.62
883.806	0.62
884.542	1.62
885.278	3.62
886.014	0.62
886.749	1.62
887.485	1.62
888.221	0.62
888.957	3.62
889.692	2.62
890.428	0.62
891.163	1.62
891.899	2.62
892.634	3.62
893.369	1.62
894.104	3.62
894.839	1.62
895.574	-0.38
896.309	1.62
897.044	0.62
897.779	2.62
898.514	0.62
899.248	1.62
899.983	-0.38
900.717	1.62
901.452	-0.38
902.186	1.62
902.92	2.62
903.654	1.62
904.389	1.62
905.123	-0.38
905.857	-1.38
906.59	1.62
907.324	1.62
908.058	2.62
908.792	0.62
909.525	2.62
910.259	1.62
910.992	1.62
911.726	0.62
912.459	2.62
913.192	2.62
913.925	1.62
914.658	2.62
915.391	1.62
916.124	1.62
916.857	-1.38
917.59	3.62
918.323	1.62
919.055	2.62
919.788	0.62
920.521	1.62
921.253	0.62
921.985	1.62
922.718	0.62
923.45	-1.38
924.182	1.62
924.914	0.62
925.646	-1.38
926.378	3.62
927.11	1.62
927.841	1.62
928.573	-1.38
929.305	1.62
930.036	-1.38
930.768	0.62
931.499	0.62
932.23	-1.38
932.962	2.62
933.693	0.62
934.424	2.62
935.155	1.62
935.886	1.62
936.617	1.62
937.348	1.62
938.078	3.62
938.809	0.62
939.54	0.62
940.27	-1.38
941.001	0.62
941.731	1.62
942.461	0.62
943.191	0.62
943.922	1.62
944.652	-1.38
945.382	0.62
946.112	0.62
946.841	-0.38
947.571	0.62
948.301	0.62
949.031	-1.38
949.76	2.62
950.49	1.62
951.219	1.62
951.948	1.62
952.678	-0.38
953.407	3.62
954.136	0.62
954.865	1.62
955.594	-0.38
956.323	-0.38
957.052	0.62
957.78	0.62
958.509	0.62
959.238	0.62
959.966	1.62
960.695	3.62
961.423	0.62
962.151	-0.38
962.88	1.62
963.608	0.62
964.336	1.62
965.064	2.62
965.792	0.62
966.52	-1.38
967.247	3.62
967.975	1.62
968.703	-0.38
969.43	-0.38
970.158	0.62
970.885	0.62
971.613	0.62
972.34	1.62
973.067	1.62
973.794	1.62
974.521	1.62
975.248	5.62
975.975	2.62
976.702	1.62
977.429	2.62
978.156	-0.38
978.882	2.62
979.609	-0.38
980.335	1.62
981.062	1.62
981.788	0.62
982.514	-0.38
983.24	1.62
983.967	-0.38
984.693	1.62
985.419	1.62
986.144	-0.38
986.87	2.62
987.596	0.62
988.322	0.62
989.047	0.62
989.773	-0.38
990.498	1.62
991.224	0.62
991.949	1.62
992.674	-1.38
993.399	1.62
994.124	2.62
994.849	-1.38
995.574	2.62
996.299	1.62
997.024	0.62
997.749	0.62
998.473	0.62
999.198	1.62
999.922	0.62
1000.647	1.62
1001.371	3.62
1002.095	-0.38
1002.82	-1.38
1003.544	-2.38
1004.268	3.62
1004.992	3.62
1005.716	2.62
1006.439	6.62
1007.163	5.62
1007.887	5.62
1008.611	0.62
1009.334	1.62
1010.058	0.62
1010.781	2.62
1011.504	2.62
1012.228	0.62
1012.951	0.62
1013.674	-2.38
1014.397	2.62
1015.12	-0.38
