节点500_565_QEPB04081__358__09-56-22-392.txt的数据

Date: Thu Nov 13 09:56:22 CST 2025
User: PC
Spectrometer: QEPB0408
触发模式: 0
积分时间 (秒): 1.000000E-2
Scans to average: 1
启用暗噪声校正: true
启用非线性校正: false
滑动平均宽度: 0
X轴模式: Wavelengths
Number of Pixels in Spectrum: 1044
>>>>>Begin Spectral Data<<<<<
220.843	4.25
221.644	5.25
222.444	6.25
223.244	3.25
224.045	6.25
224.845	6.25
225.645	5.25
226.445	5.25
227.245	7.25
228.045	6.25
228.845	6.25
229.645	6.25
230.444	8.25
231.244	9.25
232.043	8.25
232.843	6.25
233.642	5.25
234.442	6.25
235.241	9.25
236.04	9.25
236.839	11.25
237.638	11.25
238.437	9.25
239.236	8.25
240.035	8.25
240.833	8.25
241.632	5.25
242.43	9.25
243.229	11.25
244.027	9.25
244.826	10.25
245.624	7.25
246.422	10.25
247.22	11.25
248.018	12.25
248.816	14.25
249.614	12.25
250.412	12.25
251.21	13.25
252.007	10.25
252.805	11.25
253.602	15.25
254.4	14.25
255.197	16.25
255.994	14.25
256.791	15.25
257.589	18.25
258.386	16.25
259.183	16.25
259.979	17.25
260.776	21.25
261.573	21.25
262.37	18.25
263.166	21.25
263.963	19.25
264.759	20.25
265.556	19.25
266.352	23.25
267.148	22.25
267.944	20.25
268.74	24.25
269.536	25.25
270.332	24.25
271.128	24.25
271.924	26.25
272.719	23.25
273.515	25.25
274.311	25.25
275.106	25.25
275.901	24.25
276.697	27.25
277.492	26.25
278.287	26.25
279.082	27.25
279.877	29.25
280.672	28.25
281.467	27.25
282.262	27.25
283.056	28.25
283.851	26.25
284.646	28.25
285.44	28.25
286.234	27.25
287.029	27.25
287.823	27.25
288.617	28.25
289.411	26.25
290.205	33.25
290.999	25.25
291.793	27.25
292.587	27.25
293.381	24.25
294.174	26.25
294.968	26.25
295.761	23.25
296.555	23.25
297.348	25.25
298.141	21.25
298.935	26.25
299.728	22.25
300.521	23.25
301.314	23.25
302.107	19.25
302.899	21.25
303.692	23.25
304.485	17.25
305.277	19.25
306.07	16.25
306.862	21.25
307.655	19.25
308.447	20.25
309.239	19.25
310.031	16.25
310.823	17.25
311.615	12.25
312.407	15.25
313.199	17.25
313.991	12.25
314.783	14.25
315.574	13.25
316.366	14.25
317.157	14.25
317.949	13.25
318.74	13.25
319.531	14.25
320.322	14.25
321.113	12.25
321.904	12.25
322.695	10.25
323.486	12.25
324.277	12.25
325.068	10.25
325.858	14.25
326.649	13.25
327.439	13.25
328.23	12.25
329.02	10.25
329.81	11.25
330.6	11.25
331.391	9.25
332.181	10.25
332.971	10.25
333.76	9.25
334.55	12.25
335.34	11.25
336.13	10.25
336.919	11.25
337.709	12.25
338.498	9.25
339.287	12.25
340.077	12.25
340.866	11.25
341.655	13.25
342.444	10.25
343.233	10.25
344.022	9.25
344.811	11.25
345.6	11.25
346.388	10.25
347.177	11.25
347.965	10.25
348.754	10.25
349.542	10.25
350.33	8.25
351.119	9.25
351.907	10.25
352.695	9.25
353.483	9.25
354.271	11.25
355.059	9.25
355.846	9.25
356.634	9.25
357.422	9.25
358.209	9.25
358.997	12.25
359.784	10.25
360.571	9.25
361.359	10.25
362.146	10.25
362.933	7.25
363.72	8.25
364.507	9.25
365.294	8.25
366.081	8.25
366.867	9.25
367.654	4.25
368.44	7.25
369.227	8.25
370.013	8.25
370.8	10.25
371.586	7.25
372.372	10.25
373.158	7.25
373.944	9.25
374.73	9.25
375.516	10.25
376.302	9.25
377.088	9.25
377.873	9.25
378.659	9.25
379.445	8.25
380.23	7.25
381.015	9.25
381.801	8.25
382.586	10.25
383.371	10.25
384.156	12.25
384.941	7.25
385.726	11.25
386.511	8.25
387.296	11.25
388.08	9.25
388.865	11.25
389.649	9.25
390.434	10.25
391.218	11.25
392.003	11.25
392.787	10.25
393.571	10.25
394.355	9.25
395.139	8.25
395.923	10.25
396.707	11.25
397.491	11.25
398.274	11.25
399.058	10.25
399.842	11.25
400.625	12.25
401.408	11.25
402.192	12.25
402.975	9.25
403.758	12.25
404.541	13.25
405.324	13.25
406.107	11.25
406.89	14.25
407.673	13.25
408.456	14.25
409.238	13.25
410.021	13.25
410.803	14.25
411.586	14.25
412.368	13.25
413.151	14.25
413.933	13.25
414.715	16.25
415.497	13.25
416.279	17.25
417.061	16.25
417.843	16.25
418.624	17.25
419.406	15.25
420.188	18.25
420.969	17.25
421.751	19.25
422.532	18.25
423.313	19.25
424.095	18.25
424.876	21.25
425.657	21.25
426.438	23.25
427.219	23.25
428	22.25
428.78	23.25
429.561	22.25
430.342	23.25
431.122	25.25
431.903	25.25
432.683	28.25
433.464	30.25
434.244	30.25
435.024	34.25
435.804	33.25
436.584	36.25
437.364	39.25
438.144	37.25
438.924	39.25
439.704	44.25
440.483	47.25
441.263	47.25
442.042	46.25
442.822	59.25
443.601	61.25
444.38	63.25
445.16	67.25
445.939	74.25
446.718	77.25
447.497	86.25
448.276	95.25
449.054	104.25
449.833	112.25
450.612	118.25
451.391	137.25
452.169	147.25
452.948	162.25
453.726	180.25
454.504	201.25
455.282	224.25
456.061	247.25
456.839	277.25
457.617	313.25
458.395	345.25
459.172	381.25
459.95	427.25
460.728	481.25
461.506	529.25
462.283	595.25
463.061	666.25
463.838	729.25
464.615	811.25
465.393	914.25
466.17	988.25
466.947	1119.25
467.724	1245.25
468.501	1356.25
469.278	1535.25
470.055	1684.25
470.831	1864.25
471.608	2080.25
472.385	2293.25
473.161	2510.25
473.938	2769.25
474.714	3056.25
475.49	3346.25
476.266	3684.25
477.043	4042.25
477.819	4441.25
478.595	4823.25
479.371	5279.25
480.146	5807.25
480.922	6291.25
481.698	6840.25
482.473	7449.25
483.249	8088.25
484.024	8837.25
484.8	9619.25
485.575	10433.25
486.35	11287.25
487.126	12265.25
487.901	13283.25
488.676	14327.25
489.451	15559.25
490.225	16833.25
491	18144.25
491.775	19455.25
492.55	20903.25
493.324	22320.25
494.099	23790.25
494.873	25344.25
495.647	26951.25
496.422	28499.25
497.196	30104.25
497.97	31618.25
498.744	33010.25
499.518	34411.25
500.292	35654.25
501.066	36866.25
501.839	37902.25
502.613	38737.25
503.387	39474.25
504.16	40053.25
504.934	40434.25
505.707	40480.25
506.48	40449.25
507.253	40237.25
508.027	39753.25
508.8	39041.25
509.573	38215.25
510.346	37379.25
511.118	36291.25
511.891	35435.25
512.664	34256.25
513.437	33036.25
514.209	31799.25
514.982	30524.25
515.754	29366.25
516.526	28111.25
517.298	26955.25
518.071	25911.25
518.843	24879.25
519.615	23864.25
520.387	22900.25
521.159	22039.25
521.93	21103.25
522.702	20258.25
523.474	19396.25
524.245	18662.25
525.017	17917.25
525.788	17146.25
526.56	16379.25
527.331	15641.25
528.102	14934.25
528.873	14186.25
529.644	13509.25
530.415	12833.25
531.186	12171.25
531.957	11591.25
532.728	11029.25
533.498	10485.25
534.269	9888.25
535.039	9309.25
535.81	8857.25
536.58	8391.25
537.351	7961.25
538.121	7501.25
538.891	7092.25
539.661	6733.25
540.431	6385.25
541.201	6039.25
541.971	5722.25
542.741	5403.25
543.51	5124.25
544.28	4856.25
545.05	4630.25
545.819	4406.25
546.588	4205.25
547.358	3991.25
548.127	3787.25
548.896	3582.25
549.665	3422.25
550.434	3254.25
551.203	3077.25
551.972	2931.25
552.741	2765.25
553.51	2613.25
554.278	2470.25
555.047	2322.25
555.815	2207.25
556.584	2086.25
557.352	1983.25
558.121	1862.25
558.889	1746.25
559.657	1652.25
560.425	1566.25
561.193	1486.25
561.961	1418.25
562.729	1331.25
563.496	1258.25
564.264	1191.25
565.032	1136.25
565.799	1071.25
566.567	1006.25
567.334	947.25
568.101	890.25
568.869	855.25
569.636	808.25
570.403	761.25
571.17	724.25
571.937	673.25
572.704	639.25
573.471	608.25
574.237	563.25
575.004	541.25
575.771	504.25
576.537	482.25
577.303	458.25
578.07	427.25
578.836	395.25
579.602	376.25
580.368	359.25
581.134	339.25
581.9	331.25
582.666	301.25
583.432	291.25
584.198	278.25
584.964	261.25
585.729	250.25
586.495	237.25
587.26	221.25
588.025	203.25
588.791	198.25
589.556	192.25
590.321	180.25
591.086	169.25
591.851	164.25
592.616	153.25
593.381	151.25
594.146	141.25
594.911	137.25
595.675	130.25
596.44	127.25
597.204	113.25
597.969	113.25
598.733	112.25
599.497	97.25
600.261	97.25
601.025	92.25
601.79	90.25
602.553	90.25
603.317	84.25
604.081	79.25
604.845	76.25
605.609	72.25
606.372	72.25
607.136	66.25
607.899	63.25
608.662	61.25
609.426	61.25
610.189	58.25
610.952	56.25
611.715	54.25
612.478	49.25
613.241	50.25
614.004	48.25
614.767	47.25
615.529	44.25
616.292	43.25
617.055	42.25
617.817	39.25
618.579	38.25
619.342	36.25
620.104	35.25
620.866	35.25
621.628	38.25
622.39	31.25
623.152	32.25
623.914	30.25
624.676	30.25
625.438	30.25
626.199	27.25
626.961	30.25
627.722	28.25
628.484	29.25
629.245	27.25
630.006	22.25
630.768	22.25
631.529	22.25
632.29	20.25
633.051	22.25
633.812	22.25
634.573	22.25
635.333	19.25
636.094	18.25
636.855	19.25
637.615	20.25
638.376	15.25
639.136	20.25
639.896	14.25
640.657	14.25
641.417	15.25
642.177	16.25
642.937	16.25
643.697	15.25
644.457	15.25
645.216	15.25
645.976	17.25
646.736	14.25
647.495	13.25
648.255	13.25
649.014	13.25
649.774	12.25
650.533	15.25
651.292	13.25
652.051	11.25
652.81	13.25
653.569	11.25
654.328	14.25
655.087	11.25
655.846	10.25
656.604	10.25
657.363	12.25
658.121	13.25
658.88	12.25
659.638	8.25
660.397	10.25
661.155	10.25
661.913	11.25
662.671	7.25
663.429	8.25
664.187	10.25
664.945	8.25
665.703	9.25
666.46	9.25
667.218	9.25
667.976	8.25
668.733	8.25
669.49	9.25
670.248	10.25
671.005	9.25
671.762	8.25
672.519	9.25
673.276	5.25
674.033	10.25
674.79	7.25
675.547	9.25
676.304	5.25
677.06	5.25
677.817	8.25
678.574	7.25
679.33	9.25
680.086	6.25
680.843	8.25
681.599	8.25
682.355	5.25
683.111	11.25
683.867	7.25
684.623	8.25
685.379	7.25
686.135	6.25
686.89	8.25
687.646	7.25
688.402	6.25
689.157	8.25
689.912	7.25
690.668	9.25
691.423	8.25
692.178	7.25
692.933	4.25
693.688	8.25
694.443	5.25
695.198	6.25
695.953	7.25
696.708	5.25
697.462	7.25
698.217	7.25
698.972	6.25
699.726	7.25
700.48	9.25
701.235	8.25
701.989	7.25
702.743	7.25
703.497	7.25
704.251	7.25
705.005	6.25
705.759	5.25
706.513	8.25
707.266	4.25
708.02	7.25
708.774	5.25
709.527	7.25
710.28	6.25
711.034	7.25
711.787	4.25
712.54	7.25
713.293	7.25
714.046	5.25
714.799	4.25
715.552	6.25
716.305	8.25
717.058	7.25
717.81	9.25
718.563	7.25
719.315	9.25
720.068	9.25
720.82	6.25
721.573	6.25
722.325	6.25
723.077	8.25
723.829	5.25
724.581	7.25
725.333	6.25
726.085	8.25
726.836	6.25
727.588	7.25
728.34	7.25
729.091	8.25
729.843	8.25
730.594	10.25
731.346	5.25
732.097	10.25
732.848	7.25
733.599	5.25
734.35	8.25
735.101	7.25
735.852	9.25
736.603	9.25
737.354	9.25
738.104	5.25
738.855	8.25
739.605	10.25
740.356	7.25
741.106	7.25
741.856	10.25
742.607	10.25
743.357	8.25
744.107	9.25
744.857	10.25
745.607	9.25
746.357	7.25
747.106	10.25
747.856	11.25
748.606	7.25
749.355	10.25
750.105	7.25
750.854	8.25
751.603	9.25
752.353	10.25
753.102	10.25
753.851	11.25
754.6	10.25
755.349	12.25
756.098	8.25
756.847	10.25
757.595	8.25
758.344	9.25
759.093	11.25
759.841	10.25
760.589	10.25
761.338	12.25
762.086	10.25
762.834	8.25
763.582	10.25
764.331	9.25
765.079	15.25
765.826	13.25
766.574	13.25
767.322	14.25
768.07	10.25
768.817	13.25
769.565	13.25
770.312	13.25
771.06	13.25
771.807	14.25
772.554	13.25
773.302	11.25
774.049	11.25
774.796	14.25
775.543	12.25
776.29	13.25
777.036	12.25
777.783	13.25
778.53	10.25
779.276	14.25
780.023	13.25
780.769	13.25
781.516	13.25
782.262	16.25
783.008	14.25
783.754	13.25
784.5	14.25
785.246	14.25
785.992	11.25
786.738	13.25
787.484	11.25
788.23	15.25
788.975	11.25
789.721	13.25
790.466	11.25
791.212	14.25
791.957	10.25
792.702	15.25
793.447	13.25
794.193	13.25
794.938	12.25
795.683	12.25
796.427	12.25
797.172	13.25
797.917	12.25
798.662	13.25
799.406	13.25
800.151	13.25
800.895	10.25
801.64	10.25
802.384	11.25
803.128	12.25
803.872	9.25
804.616	12.25
805.36	13.25
806.104	10.25
806.848	10.25
807.592	10.25
808.336	9.25
809.079	8.25
809.823	7.25
810.566	8.25
811.31	8.25
812.053	11.25
812.796	8.25
813.539	9.25
814.283	6.25
815.026	6.25
815.769	8.25
816.511	9.25
817.254	6.25
817.997	6.25
818.74	7.25
819.482	8.25
820.225	5.25
820.967	7.25
821.71	6.25
822.452	8.25
823.194	6.25
823.936	7.25
824.678	7.25
825.42	7.25
826.162	7.25
826.904	5.25
827.646	5.25
828.388	4.25
829.129	5.25
829.871	6.25
830.612	6.25
831.354	7.25
832.095	5.25
832.836	7.25
833.577	7.25
834.319	4.25
835.06	4.25
835.801	5.25
836.542	5.25
837.282	6.25
838.023	7.25
838.764	7.25
839.504	4.25
840.245	4.25
840.985	3.25
841.726	7.25
842.466	6.25
843.206	3.25
843.946	4.25
844.687	5.25
845.427	3.25
846.166	4.25
846.906	6.25
847.646	7.25
848.386	6.25
849.125	5.25
849.865	4.25
850.605	3.25
851.344	5.25
852.083	4.25
852.823	5.25
853.562	5.25
854.301	2.25
855.04	3.25
855.779	4.25
856.518	3.25
857.257	4.25
857.995	4.25
858.734	3.25
859.473	2.25
860.211	2.25
860.95	2.25
861.688	4.25
862.426	2.25
863.165	4.25
863.903	4.25
864.641	4.25
865.379	3.25
866.117	1.25
866.855	0.25
867.593	1.25
868.33	4.25
869.068	2.25
869.806	3.25
870.543	2.25
871.28	3.25
872.018	1.25
872.755	5.25
873.492	1.25
874.229	4.25
874.967	2.25
875.703	1.25
876.44	1.25
877.177	2.25
877.914	1.25
878.651	5.25
879.387	1.25
880.124	3.25
880.86	3.25
881.597	0.25
882.333	3.25
883.069	-1.75
883.806	4.25
884.542	0.25
885.278	1.25
886.014	2.25
886.749	3.25
887.485	1.25
888.221	3.25
888.957	2.25
889.692	2.25
890.428	0.25
891.163	2.25
891.899	3.25
892.634	3.25
893.369	0.25
894.104	1.25
894.839	0.25
895.574	2.25
896.309	2.25
897.044	3.25
897.779	0.25
898.514	0.25
899.248	3.25
899.983	1.25
900.717	1.25
901.452	1.25
902.186	0.25
902.92	1.25
903.654	0.25
904.389	0.25
905.123	-0.75
905.857	1.25
906.59	0.25
907.324	1.25
908.058	2.25
908.792	2.25
909.525	1.25
910.259	2.25
910.992	-0.75
911.726	2.25
912.459	1.25
913.192	-0.75
913.925	0.25
914.658	2.25
915.391	0.25
916.124	2.25
916.857	3.25
917.59	2.25
918.323	2.25
919.055	-1.75
919.788	0.25
920.521	1.25
921.253	3.25
921.985	0.25
922.718	1.25
923.45	-0.75
924.182	3.25
924.914	1.25
925.646	-1.75
926.378	3.25
927.11	0.25
927.841	0.25
928.573	0.25
929.305	1.25
930.036	1.25
930.768	1.25
931.499	2.25
932.23	2.25
932.962	3.25
933.693	-2.75
934.424	1.25
935.155	1.25
935.886	0.25
936.617	0.25
937.348	2.25
938.078	-2.75
938.809	0.25
939.54	1.25
940.27	1.25
941.001	2.25
941.731	-1.75
942.461	0.25
943.191	-0.75
943.922	1.25
944.652	-0.75
945.382	2.25
946.112	2.25
946.841	1.25
947.571	1.25
948.301	-0.75
949.031	0.25
949.76	1.25
950.49	1.25
951.219	0.25
951.948	-0.75
952.678	-1.75
953.407	1.25
954.136	0.25
954.865	1.25
955.594	1.25
956.323	0.25
957.052	2.25
957.78	0.25
958.509	1.25
959.238	0.25
959.966	0.25
960.695	0.25
961.423	1.25
962.151	1.25
962.88	1.25
963.608	1.25
964.336	0.25
965.064	0.25
965.792	0.25
966.52	-0.75
967.247	0.25
967.975	0.25
968.703	1.25
969.43	1.25
970.158	1.25
970.885	1.25
971.613	0.25
972.34	3.25
973.067	1.25
973.794	0.25
974.521	1.25
975.248	1.25
975.975	2.25
976.702	2.25
977.429	3.25
978.156	-1.75
978.882	2.25
979.609	-0.75
980.335	1.25
981.062	1.25
981.788	1.25
982.514	1.25
983.24	2.25
983.967	0.25
984.693	1.25
985.419	2.25
986.144	1.25
986.87	1.25
987.596	-0.75
988.322	2.25
989.047	2.25
989.773	1.25
990.498	-0.75
991.224	-0.75
991.949	0.25
992.674	-0.75
993.399	2.25
994.124	1.25
994.849	-1.75
995.574	1.25
996.299	0.25
997.024	1.25
997.749	0.25
998.473	0.25
999.198	1.25
999.922	2.25
1000.647	1.25
1001.371	4.25
1002.095	-1.75
1002.82	-0.75
1003.544	-2.75
1004.268	2.25
1004.992	4.25
1005.716	4.25
1006.439	6.25
1007.163	4.25
1007.887	5.25
1008.611	1.25
1009.334	3.25
1010.058	-0.75
1010.781	-0.75
1011.504	2.25
1012.228	2.25
1012.951	1.25
1013.674	-0.75
1014.397	2.25
1015.12	-1.75
