节点500_565_QEPB04081__136__09-52-41-928.txt的数据

Date: Thu Nov 13 09:52:41 CST 2025
User: PC
Spectrometer: QEPB0408
触发模式: 0
积分时间 (秒): 1.000000E-2
Scans to average: 1
启用暗噪声校正: true
启用非线性校正: false
滑动平均宽度: 0
X轴模式: Wavelengths
Number of Pixels in Spectrum: 1044
>>>>>Begin Spectral Data<<<<<
220.843	4.5
221.644	4.5
222.444	4.5
223.244	5.5
224.045	5.5
224.845	4.5
225.645	5.5
226.445	4.5
227.245	6.5
228.045	6.5
228.845	4.5
229.645	8.5
230.444	8.5
231.244	7.5
232.043	8.5
232.843	3.5
233.642	9.5
234.442	6.5
235.241	6.5
236.04	9.5
236.839	10.5
237.638	11.5
238.437	5.5
239.236	9.5
240.035	7.5
240.833	10.5
241.632	10.5
242.43	11.5
243.229	12.5
244.027	10.5
244.826	10.5
245.624	12.5
246.422	12.5
247.22	9.5
248.018	11.5
248.816	14.5
249.614	12.5
250.412	14.5
251.21	12.5
252.007	16.5
252.805	14.5
253.602	12.5
254.4	15.5
255.197	16.5
255.994	17.5
256.791	18.5
257.589	20.5
258.386	19.5
259.183	18.5
259.979	20.5
260.776	18.5
261.573	19.5
262.37	18.5
263.166	20.5
263.963	21.5
264.759	23.5
265.556	22.5
266.352	23.5
267.148	23.5
267.944	26.5
268.74	25.5
269.536	25.5
270.332	26.5
271.128	27.5
271.924	26.5
272.719	27.5
273.515	28.5
274.311	30.5
275.106	29.5
275.901	28.5
276.697	29.5
277.492	27.5
278.287	31.5
279.082	30.5
279.877	31.5
280.672	28.5
281.467	31.5
282.262	31.5
283.056	31.5
283.851	31.5
284.646	29.5
285.44	26.5
286.234	30.5
287.029	32.5
287.823	27.5
288.617	25.5
289.411	30.5
290.205	28.5
290.999	28.5
291.793	27.5
292.587	27.5
293.381	26.5
294.174	27.5
294.968	25.5
295.761	21.5
296.555	23.5
297.348	22.5
298.141	24.5
298.935	29.5
299.728	20.5
300.521	21.5
301.314	20.5
302.107	23.5
302.899	21.5
303.692	20.5
304.485	18.5
305.277	22.5
306.07	21.5
306.862	18.5
307.655	17.5
308.447	18.5
309.239	17.5
310.031	17.5
310.823	17.5
311.615	18.5
312.407	15.5
313.199	15.5
313.991	17.5
314.783	14.5
315.574	14.5
316.366	13.5
317.157	14.5
317.949	13.5
318.74	14.5
319.531	12.5
320.322	13.5
321.113	13.5
321.904	12.5
322.695	13.5
323.486	11.5
324.277	10.5
325.068	9.5
325.858	11.5
326.649	10.5
327.439	12.5
328.23	10.5
329.02	7.5
329.81	11.5
330.6	9.5
331.391	10.5
332.181	7.5
332.971	7.5
333.76	8.5
334.55	10.5
335.34	9.5
336.13	12.5
336.919	10.5
337.709	10.5
338.498	11.5
339.287	10.5
340.077	8.5
340.866	9.5
341.655	8.5
342.444	10.5
343.233	9.5
344.022	10.5
344.811	11.5
345.6	7.5
346.388	10.5
347.177	11.5
347.965	13.5
348.754	9.5
349.542	7.5
350.33	9.5
351.119	7.5
351.907	9.5
352.695	9.5
353.483	8.5
354.271	7.5
355.059	7.5
355.846	10.5
356.634	7.5
357.422	13.5
358.209	9.5
358.997	10.5
359.784	10.5
360.571	9.5
361.359	10.5
362.146	9.5
362.933	8.5
363.72	8.5
364.507	9.5
365.294	9.5
366.081	9.5
366.867	7.5
367.654	6.5
368.44	6.5
369.227	7.5
370.013	6.5
370.8	11.5
371.586	8.5
372.372	8.5
373.158	10.5
373.944	8.5
374.73	8.5
375.516	10.5
376.302	9.5
377.088	6.5
377.873	9.5
378.659	8.5
379.445	9.5
380.23	6.5
381.015	11.5
381.801	8.5
382.586	8.5
383.371	8.5
384.156	7.5
384.941	10.5
385.726	9.5
386.511	9.5
387.296	9.5
388.08	9.5
388.865	9.5
389.649	8.5
390.434	10.5
391.218	9.5
392.003	9.5
392.787	12.5
393.571	9.5
394.355	11.5
395.139	9.5
395.923	10.5
396.707	12.5
397.491	9.5
398.274	12.5
399.058	12.5
399.842	12.5
400.625	12.5
401.408	10.5
402.192	13.5
402.975	9.5
403.758	13.5
404.541	14.5
405.324	13.5
406.107	12.5
406.89	15.5
407.673	11.5
408.456	13.5
409.238	13.5
410.021	14.5
410.803	15.5
411.586	14.5
412.368	16.5
413.151	13.5
413.933	15.5
414.715	16.5
415.497	15.5
416.279	15.5
417.061	13.5
417.843	17.5
418.624	14.5
419.406	17.5
420.188	16.5
420.969	16.5
421.751	18.5
422.532	18.5
423.313	19.5
424.095	20.5
424.876	21.5
425.657	19.5
426.438	20.5
427.219	20.5
428	22.5
428.78	22.5
429.561	23.5
430.342	27.5
431.122	25.5
431.903	29.5
432.683	25.5
433.464	27.5
434.244	29.5
435.024	30.5
435.804	34.5
436.584	33.5
437.364	38.5
438.144	38.5
438.924	41.5
439.704	40.5
440.483	43.5
441.263	48.5
442.042	51.5
442.822	52.5
443.601	59.5
444.38	60.5
445.16	64.5
445.939	67.5
446.718	78.5
447.497	80.5
448.276	91.5
449.054	99.5
449.833	108.5
450.612	113.5
451.391	122.5
452.169	139.5
452.948	151.5
453.726	165.5
454.504	187.5
455.282	210.5
456.061	236.5
456.839	260.5
457.617	288.5
458.395	314.5
459.172	356.5
459.95	399.5
460.728	447.5
461.506	495.5
462.283	550.5
463.061	614.5
463.838	689.5
464.615	777.5
465.393	867.5
466.17	961.5
466.947	1074.5
467.724	1192.5
468.501	1329.5
469.278	1488.5
470.055	1661.5
470.831	1844.5
471.608	2040.5
472.385	2273.5
473.161	2516.5
473.938	2778.5
474.714	3055.5
475.49	3352.5
476.266	3722.5
477.043	4112.5
477.819	4518.5
478.595	4974.5
479.371	5487.5
480.146	6027.5
480.922	6622.5
481.698	7258.5
482.473	7897.5
483.249	8623.5
484.024	9438.5
484.8	10366.5
485.575	11318.5
486.35	12300.5
487.126	13383.5
487.901	14640.5
488.676	15859.5
489.451	17241.5
490.225	18647.5
491	20094.5
491.775	21700.5
492.55	23417.5
493.324	24990.5
494.099	26646.5
494.873	28393.5
495.647	30209.5
496.422	31988.5
497.196	33640.5
497.97	35224.5
498.744	36764.5
499.518	38197.5
500.292	39382.5
501.066	40622.5
501.839	41653.5
502.613	42353.5
503.387	42942.5
504.16	43369.5
504.934	43344.5
505.707	43230.5
506.48	42876.5
507.253	42321.5
508.027	41529.5
508.8	40514.5
509.573	39493.5
510.346	38162.5
511.118	36994.5
511.891	35753.5
512.664	34511.5
513.437	33074.5
514.209	31642.5
514.982	30338.5
515.754	29241.5
516.526	27900.5
517.298	26693.5
518.071	25581.5
518.843	24581.5
519.615	23566.5
520.387	22612.5
521.159	21765.5
521.93	20803.5
522.702	19944.5
523.474	19169.5
524.245	18330.5
525.017	17617.5
525.788	16785.5
526.56	16013.5
527.331	15294.5
528.102	14536.5
528.873	13779.5
529.644	13069.5
530.415	12424.5
531.186	11752.5
531.957	11203.5
532.728	10574.5
533.498	10037.5
534.269	9481.5
535.039	8910.5
535.81	8439.5
536.58	8020.5
537.351	7553.5
538.121	7179.5
538.891	6745.5
539.661	6426.5
540.431	6055.5
541.201	5732.5
541.971	5453.5
542.741	5145.5
543.51	4913.5
544.28	4619.5
545.05	4431.5
545.819	4208.5
546.588	3969.5
547.358	3798.5
548.127	3608.5
548.896	3418.5
549.665	3240.5
550.434	3083.5
551.203	2906.5
551.972	2750.5
552.741	2619.5
553.51	2458.5
554.278	2327.5
555.047	2165.5
555.815	2070.5
556.584	1968.5
557.352	1847.5
558.121	1742.5
558.889	1658.5
559.657	1525.5
560.425	1461.5
561.193	1389.5
561.961	1305.5
562.729	1235.5
563.496	1177.5
564.264	1109.5
565.032	1064.5
565.799	1002.5
566.567	948.5
567.334	891.5
568.101	836.5
568.869	796.5
569.636	748.5
570.403	716.5
571.17	669.5
571.937	635.5
572.704	594.5
573.471	558.5
574.237	518.5
575.004	504.5
575.771	474.5
576.537	437.5
577.303	429.5
578.07	386.5
578.836	373.5
579.602	352.5
580.368	330.5
581.134	315.5
581.9	300.5
582.666	284.5
583.432	272.5
584.198	259.5
584.964	248.5
585.729	232.5
586.495	214.5
587.26	206.5
588.025	201.5
588.791	186.5
589.556	178.5
590.321	169.5
591.086	161.5
591.851	156.5
592.616	145.5
593.381	143.5
594.146	131.5
594.911	131.5
595.675	117.5
596.44	117.5
597.204	112.5
597.969	105.5
598.733	100.5
599.497	96.5
600.261	96.5
601.025	82.5
601.79	85.5
602.553	82.5
603.317	76.5
604.081	77.5
604.845	70.5
605.609	68.5
606.372	67.5
607.136	67.5
607.899	62.5
608.662	59.5
609.426	56.5
610.189	53.5
610.952	52.5
611.715	50.5
612.478	49.5
613.241	49.5
614.004	42.5
614.767	43.5
615.529	42.5
616.292	39.5
617.055	40.5
617.817	41.5
618.579	36.5
619.342	34.5
620.104	36.5
620.866	33.5
621.628	35.5
622.39	29.5
623.152	30.5
623.914	27.5
624.676	29.5
625.438	29.5
626.199	27.5
626.961	24.5
627.722	23.5
628.484	24.5
629.245	24.5
630.006	23.5
630.768	24.5
631.529	23.5
632.29	24.5
633.051	20.5
633.812	20.5
634.573	17.5
635.333	18.5
636.094	17.5
636.855	19.5
637.615	20.5
638.376	18.5
639.136	16.5
639.896	17.5
640.657	17.5
641.417	17.5
642.177	14.5
642.937	17.5
643.697	16.5
644.457	13.5
645.216	16.5
645.976	12.5
646.736	13.5
647.495	12.5
648.255	12.5
649.014	14.5
649.774	12.5
650.533	11.5
651.292	10.5
652.051	12.5
652.81	12.5
653.569	14.5
654.328	10.5
655.087	11.5
655.846	10.5
656.604	8.5
657.363	10.5
658.121	11.5
658.88	9.5
659.638	6.5
660.397	9.5
661.155	9.5
661.913	8.5
662.671	9.5
663.429	8.5
664.187	7.5
664.945	6.5
665.703	8.5
666.46	9.5
667.218	9.5
667.976	9.5
668.733	7.5
669.49	10.5
670.248	9.5
671.005	6.5
671.762	4.5
672.519	8.5
673.276	6.5
674.033	8.5
674.79	10.5
675.547	7.5
676.304	8.5
677.06	8.5
677.817	7.5
678.574	8.5
679.33	5.5
680.086	10.5
680.843	6.5
681.599	7.5
682.355	5.5
683.111	7.5
683.867	6.5
684.623	4.5
685.379	6.5
686.135	9.5
686.89	10.5
687.646	6.5
688.402	8.5
689.157	6.5
689.912	7.5
690.668	7.5
691.423	6.5
692.178	9.5
692.933	6.5
693.688	5.5
694.443	6.5
695.198	8.5
695.953	4.5
696.708	5.5
697.462	5.5
698.217	4.5
698.972	7.5
699.726	6.5
700.48	5.5
701.235	6.5
701.989	6.5
702.743	6.5
703.497	6.5
704.251	6.5
705.005	7.5
705.759	5.5
706.513	8.5
707.266	7.5
708.02	7.5
708.774	5.5
709.527	6.5
710.28	5.5
711.034	5.5
711.787	6.5
712.54	5.5
713.293	7.5
714.046	5.5
714.799	8.5
715.552	5.5
716.305	6.5
717.058	6.5
717.81	5.5
718.563	8.5
719.315	6.5
720.068	6.5
720.82	5.5
721.573	2.5
722.325	7.5
723.077	7.5
723.829	7.5
724.581	6.5
725.333	9.5
726.085	6.5
726.836	8.5
727.588	5.5
728.34	8.5
729.091	4.5
729.843	5.5
730.594	8.5
731.346	9.5
732.097	7.5
732.848	7.5
733.599	9.5
734.35	6.5
735.101	7.5
735.852	7.5
736.603	8.5
737.354	5.5
738.104	9.5
738.855	8.5
739.605	8.5
740.356	11.5
741.106	8.5
741.856	9.5
742.607	10.5
743.357	8.5
744.107	7.5
744.857	9.5
745.607	9.5
746.357	10.5
747.106	8.5
747.856	10.5
748.606	6.5
749.355	8.5
750.105	9.5
750.854	8.5
751.603	7.5
752.353	7.5
753.102	10.5
753.851	13.5
754.6	11.5
755.349	11.5
756.098	10.5
756.847	11.5
757.595	13.5
758.344	10.5
759.093	9.5
759.841	10.5
760.589	10.5
761.338	11.5
762.086	11.5
762.834	13.5
763.582	10.5
764.331	12.5
765.079	12.5
765.826	12.5
766.574	11.5
767.322	14.5
768.07	12.5
768.817	10.5
769.565	14.5
770.312	13.5
771.06	12.5
771.807	11.5
772.554	15.5
773.302	12.5
774.049	12.5
774.796	13.5
775.543	12.5
776.29	12.5
777.036	14.5
777.783	12.5
778.53	12.5
779.276	10.5
780.023	15.5
780.769	14.5
781.516	10.5
782.262	16.5
783.008	16.5
783.754	17.5
784.5	14.5
785.246	14.5
785.992	15.5
786.738	14.5
787.484	14.5
788.23	13.5
788.975	13.5
789.721	12.5
790.466	14.5
791.212	12.5
791.957	14.5
792.702	12.5
793.447	12.5
794.193	12.5
794.938	12.5
795.683	13.5
796.427	10.5
797.172	12.5
797.917	11.5
798.662	12.5
799.406	13.5
800.151	11.5
800.895	10.5
801.64	12.5
802.384	11.5
803.128	10.5
803.872	8.5
804.616	11.5
805.36	9.5
806.104	8.5
806.848	10.5
807.592	8.5
808.336	7.5
809.079	9.5
809.823	7.5
810.566	6.5
811.31	10.5
812.053	7.5
812.796	8.5
813.539	6.5
814.283	8.5
815.026	4.5
815.769	7.5
816.511	8.5
817.254	9.5
817.997	9.5
818.74	7.5
819.482	8.5
820.225	8.5
820.967	8.5
821.71	4.5
822.452	8.5
823.194	8.5
823.936	6.5
824.678	4.5
825.42	6.5
826.162	4.5
826.904	8.5
827.646	3.5
828.388	6.5
829.129	6.5
829.871	7.5
830.612	4.5
831.354	5.5
832.095	6.5
832.836	4.5
833.577	6.5
834.319	4.5
835.06	6.5
835.801	5.5
836.542	5.5
837.282	6.5
838.023	6.5
838.764	6.5
839.504	4.5
840.245	6.5
840.985	4.5
841.726	5.5
842.466	6.5
843.206	1.5
843.946	5.5
844.687	5.5
845.427	5.5
846.166	4.5
846.906	4.5
847.646	6.5
848.386	3.5
849.125	5.5
849.865	2.5
850.605	5.5
851.344	3.5
852.083	4.5
852.823	4.5
853.562	4.5
854.301	2.5
855.04	1.5
855.779	3.5
856.518	3.5
857.257	3.5
857.995	5.5
858.734	2.5
859.473	4.5
860.211	2.5
860.95	4.5
861.688	3.5
862.426	6.5
863.165	2.5
863.903	2.5
864.641	2.5
865.379	3.5
866.117	1.5
866.855	0.5
867.593	2.5
868.33	2.5
869.068	2.5
869.806	1.5
870.543	2.5
871.28	3.5
872.018	0.5
872.755	2.5
873.492	3.5
874.229	3.5
874.967	1.5
875.703	0.5
876.44	1.5
877.177	-0.5
877.914	1.5
878.651	2.5
879.387	0.5
880.124	1.5
880.86	0.5
881.597	0.5
882.333	1.5
883.069	2.5
883.806	2.5
884.542	0.5
885.278	-0.5
886.014	0.5
886.749	3.5
887.485	1.5
888.221	1.5
888.957	1.5
889.692	1.5
890.428	2.5
891.163	-0.5
891.899	0.5
892.634	0.5
893.369	3.5
894.104	0.5
894.839	1.5
895.574	0.5
896.309	4.5
897.044	0.5
897.779	1.5
898.514	1.5
899.248	-1.5
899.983	0.5
900.717	0.5
901.452	0.5
902.186	2.5
902.92	1.5
903.654	1.5
904.389	-0.5
905.123	1.5
905.857	1.5
906.59	0.5
907.324	0.5
908.058	1.5
908.792	-0.5
909.525	0.5
910.259	1.5
910.992	0.5
911.726	-0.5
912.459	-0.5
913.192	-0.5
913.925	2.5
914.658	0.5
915.391	0.5
916.124	2.5
916.857	0.5
917.59	0.5
918.323	1.5
919.055	2.5
919.788	1.5
920.521	2.5
921.253	0.5
921.985	0.5
922.718	2.5
923.45	-0.5
924.182	2.5
924.914	0.5
925.646	-0.5
926.378	0.5
927.11	1.5
927.841	1.5
928.573	0.5
929.305	-1.5
930.036	0.5
930.768	0.5
931.499	-0.5
932.23	0.5
932.962	-0.5
933.693	-1.5
934.424	1.5
935.155	0.5
935.886	1.5
936.617	-0.5
937.348	-0.5
938.078	0.5
938.809	-2.5
939.54	2.5
940.27	1.5
941.001	1.5
941.731	0.5
942.461	-0.5
943.191	1.5
943.922	0.5
944.652	0.5
945.382	2.5
946.112	2.5
946.841	2.5
947.571	-0.5
948.301	2.5
949.031	0.5
949.76	-1.5
950.49	-1.5
951.219	0.5
951.948	2.5
952.678	0.5
953.407	1.5
954.136	-1.5
954.865	0.5
955.594	0.5
956.323	0.5
957.052	-0.5
957.78	1.5
958.509	0.5
959.238	-0.5
959.966	1.5
960.695	0.5
961.423	-0.5
962.151	-0.5
962.88	0.5
963.608	0.5
964.336	0.5
965.064	0.5
965.792	-2.5
966.52	-0.5
967.247	-0.5
967.975	1.5
968.703	0.5
969.43	1.5
970.158	1.5
970.885	1.5
971.613	2.5
972.34	1.5
973.067	-1.5
973.794	0.5
974.521	0.5
975.248	1.5
975.975	-1.5
976.702	1.5
977.429	1.5
978.156	0.5
978.882	0.5
979.609	0.5
980.335	2.5
981.062	1.5
981.788	0.5
982.514	1.5
983.24	-0.5
983.967	1.5
984.693	0.5
985.419	0.5
986.144	1.5
986.87	2.5
987.596	0.5
988.322	-0.5
989.047	0.5
989.773	-1.5
990.498	-1.5
991.224	-1.5
991.949	2.5
992.674	-0.5
993.399	1.5
994.124	0.5
994.849	1.5
995.574	0.5
996.299	0.5
997.024	0.5
997.749	0.5
998.473	0.5
999.198	0.5
999.922	-0.5
1000.647	3.5
1001.371	3.5
1002.095	-0.5
1002.82	-2.5
1003.544	-1.5
1004.268	4.5
1004.992	2.5
1005.716	2.5
1006.439	4.5
1007.163	3.5
1007.887	4.5
1008.611	1.5
1009.334	1.5
1010.058	0.5
1010.781	1.5
1011.504	0.5
1012.228	-0.5
1012.951	0.5
1013.674	-0.5
1014.397	0.5
1015.12	0.5
