节点500_565_QEPB04081__221__09-54-05-779.txt的数据

Date: Thu Nov 13 09:54:05 CST 2025
User: PC
Spectrometer: QEPB0408
触发模式: 0
积分时间 (秒): 1.000000E-2
Scans to average: 1
启用暗噪声校正: true
启用非线性校正: false
滑动平均宽度: 0
X轴模式: Wavelengths
Number of Pixels in Spectrum: 1044
>>>>>Begin Spectral Data<<<<<
220.843	4.75
221.644	4.75
222.444	3.75
223.244	6.75
224.045	4.75
224.845	3.75
225.645	5.75
226.445	4.75
227.245	4.75
228.045	6.75
228.845	5.75
229.645	6.75
230.444	8.75
231.244	3.75
232.043	6.75
232.843	5.75
233.642	5.75
234.442	4.75
235.241	9.75
236.04	10.75
236.839	7.75
237.638	9.75
238.437	6.75
239.236	9.75
240.035	11.75
240.833	8.75
241.632	10.75
242.43	8.75
243.229	9.75
244.027	8.75
244.826	9.75
245.624	11.75
246.422	9.75
247.22	11.75
248.018	13.75
248.816	10.75
249.614	14.75
250.412	12.75
251.21	13.75
252.007	12.75
252.805	16.75
253.602	15.75
254.4	16.75
255.197	16.75
255.994	12.75
256.791	16.75
257.589	16.75
258.386	16.75
259.183	18.75
259.979	18.75
260.776	18.75
261.573	18.75
262.37	18.75
263.166	19.75
263.963	20.75
264.759	23.75
265.556	22.75
266.352	23.75
267.148	27.75
267.944	24.75
268.74	24.75
269.536	22.75
270.332	25.75
271.128	26.75
271.924	28.75
272.719	27.75
273.515	31.75
274.311	26.75
275.106	27.75
275.901	27.75
276.697	27.75
277.492	29.75
278.287	28.75
279.082	30.75
279.877	25.75
280.672	30.75
281.467	28.75
282.262	28.75
283.056	31.75
283.851	29.75
284.646	26.75
285.44	28.75
286.234	30.75
287.029	28.75
287.823	31.75
288.617	32.75
289.411	30.75
290.205	26.75
290.999	27.75
291.793	30.75
292.587	27.75
293.381	25.75
294.174	29.75
294.968	22.75
295.761	23.75
296.555	23.75
297.348	23.75
298.141	24.75
298.935	24.75
299.728	19.75
300.521	23.75
301.314	21.75
302.107	19.75
302.899	21.75
303.692	16.75
304.485	20.75
305.277	20.75
306.07	18.75
306.862	22.75
307.655	16.75
308.447	18.75
309.239	16.75
310.031	15.75
310.823	14.75
311.615	13.75
312.407	14.75
313.199	16.75
313.991	16.75
314.783	14.75
315.574	13.75
316.366	13.75
317.157	12.75
317.949	15.75
318.74	14.75
319.531	13.75
320.322	14.75
321.113	11.75
321.904	12.75
322.695	9.75
323.486	11.75
324.277	9.75
325.068	10.75
325.858	10.75
326.649	13.75
327.439	12.75
328.23	9.75
329.02	8.75
329.81	10.75
330.6	10.75
331.391	7.75
332.181	7.75
332.971	11.75
333.76	11.75
334.55	11.75
335.34	12.75
336.13	7.75
336.919	10.75
337.709	10.75
338.498	9.75
339.287	11.75
340.077	11.75
340.866	7.75
341.655	10.75
342.444	10.75
343.233	11.75
344.022	9.75
344.811	12.75
345.6	9.75
346.388	7.75
347.177	10.75
347.965	13.75
348.754	9.75
349.542	8.75
350.33	10.75
351.119	9.75
351.907	7.75
352.695	9.75
353.483	9.75
354.271	9.75
355.059	8.75
355.846	8.75
356.634	9.75
357.422	8.75
358.209	10.75
358.997	8.75
359.784	6.75
360.571	10.75
361.359	9.75
362.146	10.75
362.933	8.75
363.72	9.75
364.507	6.75
365.294	6.75
366.081	10.75
366.867	6.75
367.654	7.75
368.44	8.75
369.227	8.75
370.013	9.75
370.8	8.75
371.586	9.75
372.372	8.75
373.158	7.75
373.944	7.75
374.73	8.75
375.516	8.75
376.302	8.75
377.088	9.75
377.873	8.75
378.659	8.75
379.445	7.75
380.23	6.75
381.015	9.75
381.801	8.75
382.586	7.75
383.371	10.75
384.156	9.75
384.941	7.75
385.726	8.75
386.511	9.75
387.296	6.75
388.08	7.75
388.865	11.75
389.649	9.75
390.434	9.75
391.218	11.75
392.003	8.75
392.787	8.75
393.571	9.75
394.355	8.75
395.139	11.75
395.923	9.75
396.707	13.75
397.491	9.75
398.274	13.75
399.058	12.75
399.842	12.75
400.625	12.75
401.408	10.75
402.192	9.75
402.975	9.75
403.758	13.75
404.541	11.75
405.324	11.75
406.107	12.75
406.89	13.75
407.673	12.75
408.456	13.75
409.238	13.75
410.021	13.75
410.803	12.75
411.586	12.75
412.368	13.75
413.151	15.75
413.933	15.75
414.715	13.75
415.497	14.75
416.279	15.75
417.061	14.75
417.843	14.75
418.624	14.75
419.406	16.75
420.188	16.75
420.969	15.75
421.751	19.75
422.532	20.75
423.313	17.75
424.095	18.75
424.876	19.75
425.657	21.75
426.438	23.75
427.219	23.75
428	21.75
428.78	22.75
429.561	25.75
430.342	24.75
431.122	26.75
431.903	27.75
432.683	26.75
433.464	27.75
434.244	31.75
435.024	31.75
435.804	37.75
436.584	33.75
437.364	37.75
438.144	36.75
438.924	40.75
439.704	44.75
440.483	43.75
441.263	45.75
442.042	51.75
442.822	53.75
443.601	56.75
444.38	60.75
445.16	66.75
445.939	70.75
446.718	75.75
447.497	82.75
448.276	90.75
449.054	102.75
449.833	111.75
450.612	122.75
451.391	128.75
452.169	141.75
452.948	154.75
453.726	176.75
454.504	192.75
455.282	216.75
456.061	238.75
456.839	252.75
457.617	296.75
458.395	332.75
459.172	366.75
459.95	415.75
460.728	459.75
461.506	508.75
462.283	574.75
463.061	637.75
463.838	706.75
464.615	781.75
465.393	875.75
466.17	977.75
466.947	1090.75
467.724	1225.75
468.501	1357.75
469.278	1497.75
470.055	1671.75
470.831	1858.75
471.608	2064.75
472.385	2274.75
473.161	2540.75
473.938	2788.75
474.714	3091.75
475.49	3369.75
476.266	3726.75
477.043	4086.75
477.819	4518.75
478.595	4957.75
479.371	5444.75
480.146	5968.75
480.922	6492.75
481.698	7138.75
482.473	7776.75
483.249	8480.75
484.024	9304.75
484.8	10086.75
485.575	11083.75
486.35	12006.75
487.126	13021.75
487.901	14187.75
488.676	15407.75
489.451	16746.75
490.225	18121.75
491	19527.75
491.775	21007.75
492.55	22544.75
493.324	24064.75
494.099	25670.75
494.873	27401.75
495.647	29157.75
496.422	30803.75
497.196	32490.75
497.97	34045.75
498.744	35534.75
499.518	36976.75
500.292	38162.75
501.066	39368.75
501.839	40473.75
502.613	41174.75
503.387	41877.75
504.16	42277.75
504.934	42373.75
505.707	42358.75
506.48	42246.75
507.253	41714.75
508.027	41000.75
508.8	40162.75
509.573	39142.75
510.346	38048.75
511.118	36856.75
511.891	35729.75
512.664	34451.75
513.437	33132.75
514.209	31803.75
514.982	30417.75
515.754	29307.75
516.526	28068.75
517.298	26805.75
518.071	25734.75
518.843	24666.75
519.615	23703.75
520.387	22819.75
521.159	21908.75
521.93	21035.75
522.702	20087.75
523.474	19255.75
524.245	18487.75
525.017	17763.75
525.788	16894.75
526.56	16114.75
527.331	15383.75
528.102	14691.75
528.873	13992.75
529.644	13283.75
530.415	12568.75
531.186	11939.75
531.957	11342.75
532.728	10754.75
533.498	10152.75
534.269	9626.75
535.039	9056.75
535.81	8599.75
536.58	8121.75
537.351	7724.75
538.121	7276.75
538.891	6878.75
539.661	6509.75
540.431	6186.75
541.201	5810.75
541.971	5565.75
542.741	5268.75
543.51	4990.75
544.28	4719.75
545.05	4481.75
545.819	4287.75
546.588	4064.75
547.358	3883.75
548.127	3661.75
548.896	3490.75
549.665	3288.75
550.434	3143.75
551.203	2959.75
551.972	2800.75
552.741	2653.75
553.51	2506.75
554.278	2378.75
555.047	2242.75
555.815	2096.75
556.584	2004.75
557.352	1891.75
558.121	1784.75
558.889	1695.75
559.657	1588.75
560.425	1495.75
561.193	1412.75
561.961	1344.75
562.729	1271.75
563.496	1204.75
564.264	1132.75
565.032	1074.75
565.799	1017.75
566.567	963.75
567.334	920.75
568.101	859.75
568.869	814.75
569.636	769.75
570.403	720.75
571.17	681.75
571.937	650.75
572.704	612.75
573.471	569.75
574.237	542.75
575.004	510.75
575.771	480.75
576.537	444.75
577.303	429.75
578.07	398.75
578.836	383.75
579.602	364.75
580.368	340.75
581.134	318.75
581.9	309.75
582.666	294.75
583.432	279.75
584.198	262.75
584.964	249.75
585.729	239.75
586.495	226.75
587.26	215.75
588.025	205.75
588.791	191.75
589.556	181.75
590.321	173.75
591.086	172.75
591.851	157.75
592.616	150.75
593.381	141.75
594.146	133.75
594.911	124.75
595.675	123.75
596.44	118.75
597.204	113.75
597.969	107.75
598.733	105.75
599.497	97.75
600.261	90.75
601.025	86.75
601.79	86.75
602.553	83.75
603.317	82.75
604.081	79.75
604.845	71.75
605.609	70.75
606.372	68.75
607.136	62.75
607.899	63.75
608.662	61.75
609.426	59.75
610.189	50.75
610.952	52.75
611.715	52.75
612.478	49.75
613.241	49.75
614.004	45.75
614.767	44.75
615.529	41.75
616.292	39.75
617.055	38.75
617.817	36.75
618.579	38.75
619.342	34.75
620.104	36.75
620.866	34.75
621.628	32.75
622.39	33.75
623.152	33.75
623.914	28.75
624.676	26.75
625.438	26.75
626.199	28.75
626.961	26.75
627.722	26.75
628.484	25.75
629.245	22.75
630.006	22.75
630.768	22.75
631.529	19.75
632.29	22.75
633.051	20.75
633.812	19.75
634.573	18.75
635.333	19.75
636.094	14.75
636.855	18.75
637.615	17.75
638.376	17.75
639.136	13.75
639.896	15.75
640.657	13.75
641.417	15.75
642.177	15.75
642.937	13.75
643.697	15.75
644.457	13.75
645.216	15.75
645.976	13.75
646.736	15.75
647.495	12.75
648.255	13.75
649.014	12.75
649.774	11.75
650.533	13.75
651.292	11.75
652.051	10.75
652.81	14.75
653.569	10.75
654.328	10.75
655.087	11.75
655.846	12.75
656.604	11.75
657.363	11.75
658.121	13.75
658.88	9.75
659.638	9.75
660.397	10.75
661.155	9.75
661.913	10.75
662.671	9.75
663.429	12.75
664.187	8.75
664.945	7.75
665.703	10.75
666.46	7.75
667.218	8.75
667.976	4.75
668.733	7.75
669.49	6.75
670.248	7.75
671.005	8.75
671.762	8.75
672.519	9.75
673.276	8.75
674.033	7.75
674.79	8.75
675.547	7.75
676.304	9.75
677.06	6.75
677.817	8.75
678.574	6.75
679.33	6.75
680.086	5.75
680.843	6.75
681.599	5.75
682.355	4.75
683.111	8.75
683.867	7.75
684.623	6.75
685.379	6.75
686.135	8.75
686.89	6.75
687.646	6.75
688.402	6.75
689.157	6.75
689.912	7.75
690.668	5.75
691.423	8.75
692.178	6.75
692.933	5.75
693.688	6.75
694.443	5.75
695.198	9.75
695.953	7.75
696.708	8.75
697.462	6.75
698.217	6.75
698.972	5.75
699.726	6.75
700.48	5.75
701.235	6.75
701.989	6.75
702.743	4.75
703.497	7.75
704.251	6.75
705.005	4.75
705.759	6.75
706.513	8.75
707.266	8.75
708.02	4.75
708.774	7.75
709.527	5.75
710.28	5.75
711.034	6.75
711.787	5.75
712.54	6.75
713.293	4.75
714.046	7.75
714.799	7.75
715.552	7.75
716.305	9.75
717.058	6.75
717.81	5.75
718.563	4.75
719.315	6.75
720.068	5.75
720.82	8.75
721.573	6.75
722.325	9.75
723.077	6.75
723.829	6.75
724.581	5.75
725.333	5.75
726.085	6.75
726.836	8.75
727.588	4.75
728.34	6.75
729.091	9.75
729.843	8.75
730.594	8.75
731.346	7.75
732.097	6.75
732.848	6.75
733.599	7.75
734.35	9.75
735.101	9.75
735.852	7.75
736.603	6.75
737.354	9.75
738.104	8.75
738.855	9.75
739.605	5.75
740.356	8.75
741.106	7.75
741.856	8.75
742.607	8.75
743.357	9.75
744.107	8.75
744.857	8.75
745.607	10.75
746.357	7.75
747.106	8.75
747.856	5.75
748.606	8.75
749.355	10.75
750.105	8.75
750.854	9.75
751.603	7.75
752.353	8.75
753.102	10.75
753.851	8.75
754.6	9.75
755.349	8.75
756.098	7.75
756.847	9.75
757.595	8.75
758.344	8.75
759.093	10.75
759.841	9.75
760.589	9.75
761.338	11.75
762.086	10.75
762.834	10.75
763.582	11.75
764.331	13.75
765.079	10.75
765.826	13.75
766.574	10.75
767.322	10.75
768.07	13.75
768.817	10.75
769.565	11.75
770.312	13.75
771.06	9.75
771.807	11.75
772.554	10.75
773.302	15.75
774.049	11.75
774.796	13.75
775.543	13.75
776.29	15.75
777.036	12.75
777.783	12.75
778.53	15.75
779.276	16.75
780.023	10.75
780.769	12.75
781.516	13.75
782.262	12.75
783.008	15.75
783.754	13.75
784.5	11.75
785.246	13.75
785.992	13.75
786.738	11.75
787.484	15.75
788.23	12.75
788.975	13.75
789.721	13.75
790.466	14.75
791.212	14.75
791.957	13.75
792.702	14.75
793.447	12.75
794.193	13.75
794.938	15.75
795.683	12.75
796.427	12.75
797.172	14.75
797.917	11.75
798.662	11.75
799.406	13.75
800.151	10.75
800.895	11.75
801.64	8.75
802.384	11.75
803.128	9.75
803.872	10.75
804.616	10.75
805.36	8.75
806.104	8.75
806.848	8.75
807.592	10.75
808.336	9.75
809.079	10.75
809.823	6.75
810.566	8.75
811.31	7.75
812.053	8.75
812.796	5.75
813.539	8.75
814.283	8.75
815.026	9.75
815.769	7.75
816.511	7.75
817.254	5.75
817.997	7.75
818.74	6.75
819.482	6.75
820.225	5.75
820.967	6.75
821.71	7.75
822.452	6.75
823.194	4.75
823.936	6.75
824.678	6.75
825.42	5.75
826.162	8.75
826.904	6.75
827.646	6.75
828.388	5.75
829.129	4.75
829.871	5.75
830.612	7.75
831.354	5.75
832.095	6.75
832.836	4.75
833.577	5.75
834.319	5.75
835.06	5.75
835.801	4.75
836.542	4.75
837.282	4.75
838.023	5.75
838.764	3.75
839.504	2.75
840.245	6.75
840.985	5.75
841.726	4.75
842.466	4.75
843.206	5.75
843.946	0.75
844.687	3.75
845.427	4.75
846.166	3.75
846.906	4.75
847.646	4.75
848.386	3.75
849.125	3.75
849.865	2.75
850.605	4.75
851.344	3.75
852.083	4.75
852.823	4.75
853.562	2.75
854.301	5.75
855.04	3.75
855.779	3.75
856.518	0.75
857.257	4.75
857.995	3.75
858.734	4.75
859.473	4.75
860.211	2.75
860.95	3.75
861.688	2.75
862.426	3.75
863.165	3.75
863.903	1.75
864.641	2.75
865.379	4.75
866.117	3.75
866.855	1.75
867.593	2.75
868.33	4.75
869.068	4.75
869.806	1.75
870.543	4.75
871.28	2.75
872.018	1.75
872.755	0.75
873.492	4.75
874.229	2.75
874.967	2.75
875.703	1.75
876.44	2.75
877.177	1.75
877.914	2.75
878.651	-0.25
879.387	0.75
880.124	2.75
880.86	1.75
881.597	1.75
882.333	1.75
883.069	3.75
883.806	1.75
884.542	1.75
885.278	1.75
886.014	1.75
886.749	0.75
887.485	3.75
888.221	0.75
888.957	1.75
889.692	0.75
890.428	-0.25
891.163	0.75
891.899	0.75
892.634	1.75
893.369	0.75
894.104	0.75
894.839	2.75
895.574	1.75
896.309	-0.25
897.044	0.75
897.779	1.75
898.514	0.75
899.248	2.75
899.983	-0.25
900.717	2.75
901.452	-0.25
902.186	1.75
902.92	1.75
903.654	-1.25
904.389	0.75
905.123	1.75
905.857	0.75
906.59	0.75
907.324	2.75
908.058	1.75
908.792	0.75
909.525	0.75
910.259	-0.25
910.992	1.75
911.726	-1.25
912.459	2.75
913.192	1.75
913.925	1.75
914.658	0.75
915.391	0.75
916.124	0.75
916.857	1.75
917.59	1.75
918.323	-0.25
919.055	-0.25
919.788	0.75
920.521	-0.25
921.253	0.75
921.985	0.75
922.718	1.75
923.45	1.75
924.182	0.75
924.914	0.75
925.646	0.75
926.378	0.75
927.11	0.75
927.841	0.75
928.573	-2.25
929.305	1.75
930.036	0.75
930.768	-0.25
931.499	2.75
932.23	0.75
932.962	0.75
933.693	-1.25
934.424	0.75
935.155	-0.25
935.886	-1.25
936.617	1.75
937.348	2.75
938.078	0.75
938.809	0.75
939.54	-0.25
940.27	-0.25
941.001	0.75
941.731	2.75
942.461	0.75
943.191	-0.25
943.922	-1.25
944.652	-2.25
945.382	1.75
946.112	-2.25
946.841	-1.25
947.571	0.75
948.301	0.75
949.031	1.75
949.76	-3.25
950.49	1.75
951.219	1.75
951.948	-0.25
952.678	1.75
953.407	1.75
954.136	1.75
954.865	-1.25
955.594	1.75
956.323	-0.25
957.052	1.75
957.78	-1.25
958.509	0.75
959.238	0.75
959.966	-0.25
960.695	0.75
961.423	-2.25
962.151	0.75
962.88	0.75
963.608	1.75
964.336	-0.25
965.064	0.75
965.792	0.75
966.52	-0.25
967.247	0.75
967.975	1.75
968.703	1.75
969.43	-0.25
970.158	-3.25
970.885	0.75
971.613	-1.25
972.34	1.75
973.067	-1.25
973.794	0.75
974.521	1.75
975.248	0.75
975.975	-0.25
976.702	-0.25
977.429	1.75
978.156	0.75
978.882	-1.25
979.609	0.75
980.335	0.75
981.062	-0.25
981.788	-1.25
982.514	0.75
983.24	-1.25
983.967	-0.25
984.693	1.75
985.419	0.75
986.144	1.75
986.87	-0.25
987.596	-0.25
988.322	-0.25
989.047	0.75
989.773	0.75
990.498	2.75
991.224	0.75
991.949	-0.25
992.674	0.75
993.399	-1.25
994.124	0.75
994.849	0.75
995.574	1.75
996.299	1.75
997.024	3.75
997.749	1.75
998.473	-3.25
999.198	-0.25
999.922	0.75
1000.647	2.75
1001.371	3.75
1002.095	-2.25
1002.82	-0.25
1003.544	-2.25
1004.268	6.75
1004.992	3.75
1005.716	4.75
1006.439	3.75
1007.163	6.75
1007.887	4.75
1008.611	0.75
1009.334	1.75
1010.058	1.75
1010.781	0.75
1011.504	0.75
1012.228	1.75
1012.951	0.75
1013.674	-0.25
1014.397	0.75
1015.12	-0.25
