节点500_565_QEPB04081__159__09-53-03-954.txt的数据

Date: Thu Nov 13 09:53:03 CST 2025
User: PC
Spectrometer: QEPB0408
触发模式: 0
积分时间 (秒): 1.000000E-2
Scans to average: 1
启用暗噪声校正: true
启用非线性校正: false
滑动平均宽度: 0
X轴模式: Wavelengths
Number of Pixels in Spectrum: 1044
>>>>>Begin Spectral Data<<<<<
220.843	4.25
221.644	3.25
222.444	4.25
223.244	6.25
224.045	4.25
224.845	5.25
225.645	4.25
226.445	5.25
227.245	6.25
228.045	4.25
228.845	6.25
229.645	4.25
230.444	5.25
231.244	6.25
232.043	5.25
232.843	7.25
233.642	8.25
234.442	6.25
235.241	6.25
236.04	8.25
236.839	8.25
237.638	11.25
238.437	9.25
239.236	10.25
240.035	9.25
240.833	9.25
241.632	10.25
242.43	8.25
243.229	11.25
244.027	9.25
244.826	12.25
245.624	11.25
246.422	12.25
247.22	11.25
248.018	9.25
248.816	15.25
249.614	11.25
250.412	11.25
251.21	13.25
252.007	13.25
252.805	14.25
253.602	12.25
254.4	13.25
255.197	13.25
255.994	18.25
256.791	18.25
257.589	17.25
258.386	20.25
259.183	19.25
259.979	19.25
260.776	20.25
261.573	17.25
262.37	18.25
263.166	23.25
263.963	24.25
264.759	22.25
265.556	22.25
266.352	25.25
267.148	24.25
267.944	25.25
268.74	25.25
269.536	28.25
270.332	26.25
271.128	25.25
271.924	28.25
272.719	27.25
273.515	28.25
274.311	29.25
275.106	29.25
275.901	26.25
276.697	30.25
277.492	30.25
278.287	29.25
279.082	29.25
279.877	30.25
280.672	31.25
281.467	31.25
282.262	28.25
283.056	30.25
283.851	32.25
284.646	27.25
285.44	33.25
286.234	30.25
287.029	29.25
287.823	28.25
288.617	30.25
289.411	28.25
290.205	27.25
290.999	30.25
291.793	27.25
292.587	26.25
293.381	26.25
294.174	25.25
294.968	24.25
295.761	27.25
296.555	24.25
297.348	22.25
298.141	24.25
298.935	26.25
299.728	20.25
300.521	22.25
301.314	23.25
302.107	24.25
302.899	17.25
303.692	17.25
304.485	18.25
305.277	19.25
306.07	17.25
306.862	17.25
307.655	19.25
308.447	20.25
309.239	17.25
310.031	16.25
310.823	13.25
311.615	16.25
312.407	12.25
313.199	14.25
313.991	12.25
314.783	14.25
315.574	14.25
316.366	10.25
317.157	13.25
317.949	14.25
318.74	13.25
319.531	12.25
320.322	13.25
321.113	13.25
321.904	13.25
322.695	11.25
323.486	11.25
324.277	11.25
325.068	12.25
325.858	11.25
326.649	13.25
327.439	9.25
328.23	12.25
329.02	9.25
329.81	14.25
330.6	9.25
331.391	11.25
332.181	11.25
332.971	7.25
333.76	10.25
334.55	10.25
335.34	10.25
336.13	11.25
336.919	8.25
337.709	10.25
338.498	8.25
339.287	6.25
340.077	10.25
340.866	10.25
341.655	10.25
342.444	12.25
343.233	11.25
344.022	9.25
344.811	10.25
345.6	9.25
346.388	9.25
347.177	10.25
347.965	8.25
348.754	10.25
349.542	10.25
350.33	12.25
351.119	8.25
351.907	10.25
352.695	9.25
353.483	10.25
354.271	9.25
355.059	10.25
355.846	10.25
356.634	9.25
357.422	8.25
358.209	8.25
358.997	9.25
359.784	9.25
360.571	9.25
361.359	11.25
362.146	8.25
362.933	9.25
363.72	8.25
364.507	9.25
365.294	8.25
366.081	6.25
366.867	7.25
367.654	7.25
368.44	11.25
369.227	7.25
370.013	9.25
370.8	9.25
371.586	8.25
372.372	10.25
373.158	9.25
373.944	10.25
374.73	9.25
375.516	7.25
376.302	8.25
377.088	10.25
377.873	8.25
378.659	7.25
379.445	9.25
380.23	9.25
381.015	9.25
381.801	7.25
382.586	7.25
383.371	7.25
384.156	8.25
384.941	10.25
385.726	10.25
386.511	8.25
387.296	8.25
388.08	8.25
388.865	12.25
389.649	8.25
390.434	11.25
391.218	10.25
392.003	7.25
392.787	9.25
393.571	9.25
394.355	9.25
395.139	10.25
395.923	12.25
396.707	9.25
397.491	12.25
398.274	14.25
399.058	11.25
399.842	12.25
400.625	11.25
401.408	14.25
402.192	13.25
402.975	9.25
403.758	10.25
404.541	12.25
405.324	14.25
406.107	13.25
406.89	14.25
407.673	13.25
408.456	12.25
409.238	12.25
410.021	12.25
410.803	16.25
411.586	12.25
412.368	13.25
413.151	13.25
413.933	14.25
414.715	16.25
415.497	14.25
416.279	16.25
417.061	16.25
417.843	14.25
418.624	15.25
419.406	16.25
420.188	16.25
420.969	17.25
421.751	18.25
422.532	17.25
423.313	18.25
424.095	19.25
424.876	18.25
425.657	19.25
426.438	20.25
427.219	24.25
428	22.25
428.78	22.25
429.561	24.25
430.342	26.25
431.122	25.25
431.903	26.25
432.683	27.25
433.464	29.25
434.244	32.25
435.024	32.25
435.804	32.25
436.584	34.25
437.364	34.25
438.144	37.25
438.924	36.25
439.704	40.25
440.483	42.25
441.263	46.25
442.042	50.25
442.822	57.25
443.601	57.25
444.38	57.25
445.16	59.25
445.939	71.25
446.718	75.25
447.497	80.25
448.276	86.25
449.054	95.25
449.833	101.25
450.612	113.25
451.391	128.25
452.169	137.25
452.948	159.25
453.726	164.25
454.504	192.25
455.282	209.25
456.061	228.25
456.839	258.25
457.617	285.25
458.395	324.25
459.172	349.25
459.95	401.25
460.728	438.25
461.506	496.25
462.283	556.25
463.061	622.25
463.838	698.25
464.615	786.25
465.393	876.25
466.17	971.25
466.947	1082.25
467.724	1199.25
468.501	1332.25
469.278	1487.25
470.055	1655.25
470.831	1832.25
471.608	2055.25
472.385	2277.25
473.161	2507.25
473.938	2771.25
474.714	3059.25
475.49	3367.25
476.266	3713.25
477.043	4108.25
477.819	4499.25
478.595	4966.25
479.371	5459.25
480.146	5983.25
480.922	6568.25
481.698	7199.25
482.473	7906.25
483.249	8573.25
484.024	9437.25
484.8	10333.25
485.575	11212.25
486.35	12242.25
487.126	13335.25
487.901	14495.25
488.676	15769.25
489.451	17190.25
490.225	18566.25
491	19994.25
491.775	21522.25
492.55	23276.25
493.324	24814.25
494.099	26435.25
494.873	28202.25
495.647	29990.25
496.422	31729.25
497.196	33387.25
497.97	35111.25
498.744	36528.25
499.518	37903.25
500.292	39158.25
501.066	40331.25
501.839	41394.25
502.613	42198.25
503.387	42739.25
504.16	43177.25
504.934	43154.25
505.707	43057.25
506.48	42765.25
507.253	42178.25
508.027	41295.25
508.8	40459.25
509.573	39302.25
510.346	38167.25
511.118	36884.25
511.891	35725.25
512.664	34424.25
513.437	33055.25
514.209	31613.25
514.982	30355.25
515.754	29131.25
516.526	27870.25
517.298	26651.25
518.071	25545.25
518.843	24547.25
519.615	23585.25
520.387	22537.25
521.159	21681.25
521.93	20807.25
522.702	19933.25
523.474	19168.25
524.245	18311.25
525.017	17640.25
525.788	16822.25
526.56	15976.25
527.331	15284.25
528.102	14576.25
528.873	13820.25
529.644	13072.25
530.415	12412.25
531.186	11786.25
531.957	11135.25
532.728	10566.25
533.498	10046.25
534.269	9471.25
535.039	8908.25
535.81	8475.25
536.58	8025.25
537.351	7557.25
538.121	7150.25
538.891	6793.25
539.661	6429.25
540.431	6062.25
541.201	5740.25
541.971	5436.25
542.741	5166.25
543.51	4879.25
544.28	4647.25
545.05	4436.25
545.819	4224.25
546.588	3964.25
547.358	3816.25
548.127	3618.25
548.896	3413.25
549.665	3243.25
550.434	3082.25
551.203	2908.25
551.972	2771.25
552.741	2612.25
553.51	2453.25
554.278	2326.25
555.047	2177.25
555.815	2066.25
556.584	1974.25
557.352	1842.25
558.121	1745.25
558.889	1650.25
559.657	1554.25
560.425	1471.25
561.193	1398.25
561.961	1316.25
562.729	1234.25
563.496	1166.25
564.264	1110.25
565.032	1068.25
565.799	990.25
566.567	943.25
567.334	890.25
568.101	836.25
568.869	799.25
569.636	743.25
570.403	716.25
571.17	670.25
571.937	646.25
572.704	604.25
573.471	563.25
574.237	526.25
575.004	503.25
575.771	484.25
576.537	449.25
577.303	418.25
578.07	392.25
578.836	372.25
579.602	342.25
580.368	335.25
581.134	316.25
581.9	296.25
582.666	286.25
583.432	272.25
584.198	264.25
584.964	245.25
585.729	234.25
586.495	214.25
587.26	207.25
588.025	197.25
588.791	194.25
589.556	181.25
590.321	167.25
591.086	164.25
591.851	158.25
592.616	144.25
593.381	137.25
594.146	130.25
594.911	129.25
595.675	120.25
596.44	117.25
597.204	113.25
597.969	106.25
598.733	99.25
599.497	90.25
600.261	92.25
601.025	86.25
601.79	84.25
602.553	78.25
603.317	79.25
604.081	77.25
604.845	74.25
605.609	66.25
606.372	64.25
607.136	66.25
607.899	60.25
608.662	58.25
609.426	57.25
610.189	54.25
610.952	52.25
611.715	49.25
612.478	49.25
613.241	48.25
614.004	43.25
614.767	44.25
615.529	41.25
616.292	39.25
617.055	41.25
617.817	41.25
618.579	37.25
619.342	36.25
620.104	35.25
620.866	36.25
621.628	36.25
622.39	29.25
623.152	30.25
623.914	28.25
624.676	29.25
625.438	27.25
626.199	24.25
626.961	25.25
627.722	25.25
628.484	28.25
629.245	22.25
630.006	24.25
630.768	23.25
631.529	22.25
632.29	20.25
633.051	23.25
633.812	19.25
634.573	19.25
635.333	19.25
636.094	20.25
636.855	16.25
637.615	20.25
638.376	15.25
639.136	17.25
639.896	15.25
640.657	17.25
641.417	17.25
642.177	13.25
642.937	16.25
643.697	14.25
644.457	12.25
645.216	14.25
645.976	13.25
646.736	13.25
647.495	13.25
648.255	17.25
649.014	13.25
649.774	12.25
650.533	13.25
651.292	11.25
652.051	11.25
652.81	10.25
653.569	10.25
654.328	10.25
655.087	13.25
655.846	12.25
656.604	10.25
657.363	9.25
658.121	11.25
658.88	9.25
659.638	11.25
660.397	8.25
661.155	10.25
661.913	10.25
662.671	7.25
663.429	7.25
664.187	9.25
664.945	8.25
665.703	9.25
666.46	9.25
667.218	7.25
667.976	9.25
668.733	6.25
669.49	11.25
670.248	6.25
671.005	9.25
671.762	7.25
672.519	8.25
673.276	6.25
674.033	7.25
674.79	7.25
675.547	8.25
676.304	8.25
677.06	7.25
677.817	7.25
678.574	8.25
679.33	4.25
680.086	8.25
680.843	6.25
681.599	8.25
682.355	6.25
683.111	5.25
683.867	7.25
684.623	4.25
685.379	7.25
686.135	7.25
686.89	9.25
687.646	6.25
688.402	3.25
689.157	8.25
689.912	6.25
690.668	6.25
691.423	7.25
692.178	3.25
692.933	7.25
693.688	6.25
694.443	6.25
695.198	5.25
695.953	6.25
696.708	7.25
697.462	7.25
698.217	4.25
698.972	4.25
699.726	8.25
700.48	8.25
701.235	4.25
701.989	4.25
702.743	5.25
703.497	5.25
704.251	2.25
705.005	6.25
705.759	3.25
706.513	6.25
707.266	4.25
708.02	5.25
708.774	6.25
709.527	6.25
710.28	6.25
711.034	4.25
711.787	6.25
712.54	8.25
713.293	6.25
714.046	4.25
714.799	5.25
715.552	8.25
716.305	4.25
717.058	7.25
717.81	7.25
718.563	5.25
719.315	6.25
720.068	5.25
720.82	9.25
721.573	6.25
722.325	5.25
723.077	6.25
723.829	5.25
724.581	7.25
725.333	6.25
726.085	7.25
726.836	6.25
727.588	7.25
728.34	7.25
729.091	7.25
729.843	9.25
730.594	7.25
731.346	8.25
732.097	6.25
732.848	7.25
733.599	8.25
734.35	8.25
735.101	8.25
735.852	6.25
736.603	8.25
737.354	8.25
738.104	10.25
738.855	6.25
739.605	6.25
740.356	8.25
741.106	8.25
741.856	9.25
742.607	10.25
743.357	8.25
744.107	7.25
744.857	5.25
745.607	10.25
746.357	8.25
747.106	9.25
747.856	10.25
748.606	6.25
749.355	8.25
750.105	11.25
750.854	7.25
751.603	10.25
752.353	10.25
753.102	8.25
753.851	7.25
754.6	9.25
755.349	10.25
756.098	9.25
756.847	11.25
757.595	8.25
758.344	9.25
759.093	10.25
759.841	9.25
760.589	10.25
761.338	11.25
762.086	11.25
762.834	9.25
763.582	13.25
764.331	14.25
765.079	8.25
765.826	13.25
766.574	9.25
767.322	11.25
768.07	10.25
768.817	12.25
769.565	12.25
770.312	12.25
771.06	13.25
771.807	14.25
772.554	10.25
773.302	12.25
774.049	11.25
774.796	13.25
775.543	13.25
776.29	14.25
777.036	13.25
777.783	13.25
778.53	13.25
779.276	12.25
780.023	13.25
780.769	12.25
781.516	15.25
782.262	15.25
783.008	14.25
783.754	11.25
784.5	16.25
785.246	11.25
785.992	16.25
786.738	12.25
787.484	13.25
788.23	16.25
788.975	14.25
789.721	13.25
790.466	14.25
791.212	13.25
791.957	11.25
792.702	13.25
793.447	13.25
794.193	11.25
794.938	10.25
795.683	15.25
796.427	13.25
797.172	14.25
797.917	10.25
798.662	12.25
799.406	14.25
800.151	13.25
800.895	10.25
801.64	10.25
802.384	9.25
803.128	8.25
803.872	9.25
804.616	9.25
805.36	8.25
806.104	9.25
806.848	7.25
807.592	10.25
808.336	10.25
809.079	11.25
809.823	8.25
810.566	8.25
811.31	9.25
812.053	7.25
812.796	8.25
813.539	12.25
814.283	6.25
815.026	8.25
815.769	5.25
816.511	9.25
817.254	6.25
817.997	6.25
818.74	7.25
819.482	7.25
820.225	6.25
820.967	6.25
821.71	4.25
822.452	5.25
823.194	4.25
823.936	5.25
824.678	8.25
825.42	5.25
826.162	5.25
826.904	9.25
827.646	7.25
828.388	6.25
829.129	5.25
829.871	5.25
830.612	4.25
831.354	6.25
832.095	6.25
832.836	6.25
833.577	6.25
834.319	5.25
835.06	6.25
835.801	5.25
836.542	3.25
837.282	5.25
838.023	6.25
838.764	5.25
839.504	4.25
840.245	8.25
840.985	7.25
841.726	7.25
842.466	4.25
843.206	3.25
843.946	3.25
844.687	3.25
845.427	4.25
846.166	8.25
846.906	6.25
847.646	5.25
848.386	0.25
849.125	2.25
849.865	1.25
850.605	4.25
851.344	4.25
852.083	6.25
852.823	4.25
853.562	3.25
854.301	4.25
855.04	3.25
855.779	3.25
856.518	4.25
857.257	3.25
857.995	3.25
858.734	4.25
859.473	3.25
860.211	2.25
860.95	3.25
861.688	4.25
862.426	2.25
863.165	1.25
863.903	3.25
864.641	3.25
865.379	3.25
866.117	0.25
866.855	4.25
867.593	3.25
868.33	2.25
869.068	4.25
869.806	2.25
870.543	1.25
871.28	1.25
872.018	0.25
872.755	0.25
873.492	-0.75
874.229	0.25
874.967	1.25
875.703	0.25
876.44	4.25
877.177	1.25
877.914	0.25
878.651	0.25
879.387	0.25
880.124	2.25
880.86	0.25
881.597	3.25
882.333	0.25
883.069	0.25
883.806	0.25
884.542	0.25
885.278	0.25
886.014	2.25
886.749	0.25
887.485	2.25
888.221	1.25
888.957	0.25
889.692	2.25
890.428	2.25
891.163	-1.75
891.899	-0.75
892.634	0.25
893.369	1.25
894.104	1.25
894.839	2.25
895.574	0.25
896.309	1.25
897.044	1.25
897.779	1.25
898.514	1.25
899.248	-0.75
899.983	0.25
900.717	-0.75
901.452	-0.75
902.186	1.25
902.92	0.25
903.654	3.25
904.389	0.25
905.123	0.25
905.857	1.25
906.59	-0.75
907.324	-0.75
908.058	0.25
908.792	-0.75
909.525	1.25
910.259	1.25
910.992	1.25
911.726	0.25
912.459	1.25
913.192	2.25
913.925	-0.75
914.658	0.25
915.391	1.25
916.124	-1.75
916.857	0.25
917.59	1.25
918.323	0.25
919.055	1.25
919.788	-0.75
920.521	1.25
921.253	0.25
921.985	0.25
922.718	-2.75
923.45	1.25
924.182	3.25
924.914	0.25
925.646	0.25
926.378	0.25
927.11	0.25
927.841	-0.75
928.573	1.25
929.305	-0.75
930.036	0.25
930.768	-0.75
931.499	0.25
932.23	0.25
932.962	-0.75
933.693	-1.75
934.424	0.25
935.155	-0.75
935.886	2.25
936.617	0.25
937.348	1.25
938.078	-0.75
938.809	-0.75
939.54	0.25
940.27	-2.75
941.001	0.25
941.731	-0.75
942.461	0.25
943.191	0.25
943.922	1.25
944.652	1.25
945.382	0.25
946.112	1.25
946.841	-0.75
947.571	-0.75
948.301	0.25
949.031	-0.75
949.76	0.25
950.49	0.25
951.219	0.25
951.948	2.25
952.678	0.25
953.407	0.25
954.136	-0.75
954.865	1.25
955.594	-0.75
956.323	2.25
957.052	1.25
957.78	-1.75
958.509	1.25
959.238	0.25
959.966	-0.75
960.695	-1.75
961.423	-0.75
962.151	-1.75
962.88	0.25
963.608	-0.75
964.336	-0.75
965.064	1.25
965.792	1.25
966.52	-2.75
967.247	-0.75
967.975	1.25
968.703	1.25
969.43	-0.75
970.158	0.25
970.885	-0.75
971.613	1.25
972.34	1.25
973.067	-1.75
973.794	1.25
974.521	-1.75
975.248	0.25
975.975	0.25
976.702	0.25
977.429	-0.75
978.156	2.25
978.882	0.25
979.609	-1.75
980.335	2.25
981.062	-1.75
981.788	-0.75
982.514	1.25
983.24	-0.75
983.967	-0.75
984.693	2.25
985.419	2.25
986.144	1.25
986.87	2.25
987.596	-1.75
988.322	2.25
989.047	1.25
989.773	-3.75
990.498	-2.75
991.224	-2.75
991.949	0.25
992.674	-0.75
993.399	0.25
994.124	1.25
994.849	0.25
995.574	1.25
996.299	0.25
997.024	1.25
997.749	1.25
998.473	3.25
999.198	-2.75
999.922	0.25
1000.647	1.25
1001.371	1.25
1002.095	-0.75
1002.82	0.25
1003.544	-0.75
1004.268	5.25
1004.992	5.25
1005.716	2.25
1006.439	5.25
1007.163	4.25
1007.887	2.25
1008.611	0.25
1009.334	-0.75
1010.058	-0.75
1010.781	1.25
1011.504	0.25
1012.228	-2.75
1012.951	-0.75
1013.674	-1.75
1014.397	1.25
1015.12	1.25
