节点500_565_QEPB04081__79__09-51-45-050.txt的数据

Date: Thu Nov 13 09:51:45 CST 2025
User: PC
Spectrometer: QEPB0408
触发模式: 0
积分时间 (秒): 1.000000E-2
Scans to average: 1
启用暗噪声校正: true
启用非线性校正: false
滑动平均宽度: 0
X轴模式: Wavelengths
Number of Pixels in Spectrum: 1044
>>>>>Begin Spectral Data<<<<<
220.843	4.62
221.644	3.62
222.444	4.62
223.244	5.62
224.045	5.62
224.845	4.62
225.645	4.62
226.445	6.62
227.245	6.62
228.045	5.62
228.845	5.62
229.645	5.62
230.444	4.62
231.244	8.62
232.043	7.62
232.843	8.62
233.642	7.62
234.442	7.62
235.241	11.62
236.04	9.62
236.839	8.62
237.638	8.62
238.437	9.62
239.236	7.62
240.035	11.62
240.833	9.62
241.632	11.62
242.43	13.62
243.229	10.62
244.027	12.62
244.826	11.62
245.624	11.62
246.422	14.62
247.22	9.62
248.018	13.62
248.816	9.62
249.614	13.62
250.412	12.62
251.21	15.62
252.007	12.62
252.805	14.62
253.602	16.62
254.4	14.62
255.197	16.62
255.994	16.62
256.791	17.62
257.589	17.62
258.386	17.62
259.183	20.62
259.979	22.62
260.776	21.62
261.573	22.62
262.37	21.62
263.166	21.62
263.963	21.62
264.759	22.62
265.556	23.62
266.352	26.62
267.148	28.62
267.944	25.62
268.74	26.62
269.536	28.62
270.332	25.62
271.128	26.62
271.924	28.62
272.719	28.62
273.515	26.62
274.311	31.62
275.106	30.62
275.901	34.62
276.697	28.62
277.492	32.62
278.287	27.62
279.082	29.62
279.877	31.62
280.672	29.62
281.467	31.62
282.262	28.62
283.056	31.62
283.851	32.62
284.646	29.62
285.44	31.62
286.234	30.62
287.029	30.62
287.823	29.62
288.617	32.62
289.411	29.62
290.205	26.62
290.999	27.62
291.793	27.62
292.587	28.62
293.381	26.62
294.174	31.62
294.968	26.62
295.761	24.62
296.555	20.62
297.348	21.62
298.141	22.62
298.935	24.62
299.728	21.62
300.521	23.62
301.314	20.62
302.107	20.62
302.899	20.62
303.692	20.62
304.485	20.62
305.277	19.62
306.07	18.62
306.862	16.62
307.655	18.62
308.447	18.62
309.239	17.62
310.031	16.62
310.823	18.62
311.615	16.62
312.407	16.62
313.199	15.62
313.991	15.62
314.783	13.62
315.574	15.62
316.366	14.62
317.157	15.62
317.949	13.62
318.74	12.62
319.531	11.62
320.322	10.62
321.113	13.62
321.904	12.62
322.695	13.62
323.486	10.62
324.277	11.62
325.068	11.62
325.858	15.62
326.649	11.62
327.439	11.62
328.23	10.62
329.02	10.62
329.81	12.62
330.6	9.62
331.391	11.62
332.181	7.62
332.971	9.62
333.76	10.62
334.55	10.62
335.34	11.62
336.13	12.62
336.919	11.62
337.709	7.62
338.498	12.62
339.287	10.62
340.077	11.62
340.866	11.62
341.655	9.62
342.444	13.62
343.233	7.62
344.022	10.62
344.811	9.62
345.6	8.62
346.388	11.62
347.177	9.62
347.965	11.62
348.754	8.62
349.542	11.62
350.33	9.62
351.119	8.62
351.907	9.62
352.695	7.62
353.483	10.62
354.271	9.62
355.059	8.62
355.846	9.62
356.634	9.62
357.422	9.62
358.209	6.62
358.997	11.62
359.784	9.62
360.571	8.62
361.359	7.62
362.146	8.62
362.933	10.62
363.72	9.62
364.507	9.62
365.294	8.62
366.081	8.62
366.867	11.62
367.654	8.62
368.44	8.62
369.227	6.62
370.013	10.62
370.8	9.62
371.586	9.62
372.372	9.62
373.158	6.62
373.944	8.62
374.73	7.62
375.516	8.62
376.302	9.62
377.088	9.62
377.873	6.62
378.659	8.62
379.445	10.62
380.23	9.62
381.015	11.62
381.801	9.62
382.586	11.62
383.371	8.62
384.156	9.62
384.941	10.62
385.726	7.62
386.511	9.62
387.296	11.62
388.08	9.62
388.865	8.62
389.649	9.62
390.434	10.62
391.218	10.62
392.003	9.62
392.787	12.62
393.571	10.62
394.355	11.62
395.139	9.62
395.923	12.62
396.707	10.62
397.491	11.62
398.274	13.62
399.058	12.62
399.842	13.62
400.625	11.62
401.408	13.62
402.192	13.62
402.975	16.62
403.758	12.62
404.541	11.62
405.324	13.62
406.107	15.62
406.89	15.62
407.673	12.62
408.456	12.62
409.238	16.62
410.021	12.62
410.803	16.62
411.586	13.62
412.368	13.62
413.151	14.62
413.933	16.62
414.715	13.62
415.497	15.62
416.279	17.62
417.061	14.62
417.843	16.62
418.624	18.62
419.406	18.62
420.188	18.62
420.969	19.62
421.751	19.62
422.532	20.62
423.313	20.62
424.095	16.62
424.876	24.62
425.657	21.62
426.438	21.62
427.219	23.62
428	21.62
428.78	24.62
429.561	26.62
430.342	26.62
431.122	27.62
431.903	25.62
432.683	26.62
433.464	30.62
434.244	33.62
435.024	34.62
435.804	37.62
436.584	31.62
437.364	39.62
438.144	38.62
438.924	37.62
439.704	43.62
440.483	43.62
441.263	46.62
442.042	48.62
442.822	55.62
443.601	56.62
444.38	58.62
445.16	64.62
445.939	67.62
446.718	77.62
447.497	80.62
448.276	89.62
449.054	94.62
449.833	101.62
450.612	114.62
451.391	122.62
452.169	134.62
452.948	149.62
453.726	161.62
454.504	180.62
455.282	206.62
456.061	230.62
456.839	251.62
457.617	279.62
458.395	315.62
459.172	344.62
459.95	389.62
460.728	434.62
461.506	489.62
462.283	546.62
463.061	612.62
463.838	699.62
464.615	776.62
465.393	845.62
466.17	948.62
466.947	1072.62
467.724	1179.62
468.501	1328.62
469.278	1466.62
470.055	1643.62
470.831	1827.62
471.608	2029.62
472.385	2250.62
473.161	2502.62
473.938	2777.62
474.714	3059.62
475.49	3400.62
476.266	3738.62
477.043	4149.62
477.819	4557.62
478.595	5033.62
479.371	5524.62
480.146	6080.62
480.922	6729.62
481.698	7347.62
482.473	8041.62
483.249	8774.62
484.024	9685.62
484.8	10545.62
485.575	11598.62
486.35	12576.62
487.126	13798.62
487.901	15005.62
488.676	16348.62
489.451	17707.62
490.225	19191.62
491	20816.62
491.775	22461.62
492.55	24123.62
493.324	25815.62
494.099	27511.62
494.873	29424.62
495.647	31174.62
496.422	33039.62
497.196	34822.62
497.97	36431.62
498.744	37946.62
499.518	39236.62
500.292	40595.62
501.066	41754.62
501.839	42755.62
502.613	43502.62
503.387	43910.62
504.16	44234.62
504.934	44188.62
505.707	43938.62
506.48	43450.62
507.253	42834.62
508.027	41974.62
508.8	40853.62
509.573	39660.62
510.346	38343.62
511.118	37080.62
511.891	35776.62
512.664	34447.62
513.437	32996.62
514.209	31509.62
514.982	30267.62
515.754	28932.62
516.526	27747.62
517.298	26432.62
518.071	25436.62
518.843	24425.62
519.615	23456.62
520.387	22481.62
521.159	21611.62
521.93	20709.62
522.702	19829.62
523.474	19001.62
524.245	18229.62
525.017	17522.62
525.788	16662.62
526.56	15850.62
527.331	15136.62
528.102	14356.62
528.873	13629.62
529.644	12947.62
530.415	12265.62
531.186	11595.62
531.957	10994.62
532.728	10442.62
533.498	9856.62
534.269	9296.62
535.039	8790.62
535.81	8304.62
536.58	7891.62
537.351	7449.62
538.121	7021.62
538.891	6626.62
539.661	6281.62
540.431	5958.62
541.201	5641.62
541.971	5330.62
542.741	5042.62
543.51	4797.62
544.28	4554.62
545.05	4356.62
545.819	4110.62
546.588	3906.62
547.358	3720.62
548.127	3544.62
548.896	3347.62
549.665	3188.62
550.434	3016.62
551.203	2873.62
551.972	2721.62
552.741	2558.62
553.51	2428.62
554.278	2289.62
555.047	2131.62
555.815	2024.62
556.584	1926.62
557.352	1811.62
558.121	1711.62
558.889	1610.62
559.657	1515.62
560.425	1426.62
561.193	1355.62
561.961	1283.62
562.729	1220.62
563.496	1147.62
564.264	1087.62
565.032	1025.62
565.799	980.62
566.567	914.62
567.334	870.62
568.101	815.62
568.869	766.62
569.636	738.62
570.403	695.62
571.17	656.62
571.937	620.62
572.704	587.62
573.471	557.62
574.237	517.62
575.004	490.62
575.771	451.62
576.537	431.62
577.303	409.62
578.07	384.62
578.836	367.62
579.602	346.62
580.368	321.62
581.134	305.62
581.9	292.62
582.666	273.62
583.432	267.62
584.198	258.62
584.964	237.62
585.729	226.62
586.495	216.62
587.26	204.62
588.025	192.62
588.791	179.62
589.556	172.62
590.321	166.62
591.086	157.62
591.851	146.62
592.616	144.62
593.381	136.62
594.146	130.62
594.911	124.62
595.675	119.62
596.44	113.62
597.204	114.62
597.969	105.62
598.733	99.62
599.497	93.62
600.261	94.62
601.025	85.62
601.79	80.62
602.553	78.62
603.317	78.62
604.081	73.62
604.845	71.62
605.609	66.62
606.372	67.62
607.136	65.62
607.899	58.62
608.662	60.62
609.426	57.62
610.189	53.62
610.952	50.62
611.715	49.62
612.478	48.62
613.241	45.62
614.004	42.62
614.767	46.62
615.529	41.62
616.292	37.62
617.055	37.62
617.817	41.62
618.579	34.62
619.342	36.62
620.104	34.62
620.866	32.62
621.628	35.62
622.39	31.62
623.152	32.62
623.914	28.62
624.676	28.62
625.438	29.62
626.199	25.62
626.961	27.62
627.722	24.62
628.484	27.62
629.245	25.62
630.006	23.62
630.768	22.62
631.529	20.62
632.29	21.62
633.051	18.62
633.812	19.62
634.573	19.62
635.333	18.62
636.094	18.62
636.855	20.62
637.615	17.62
638.376	16.62
639.136	15.62
639.896	15.62
640.657	16.62
641.417	15.62
642.177	15.62
642.937	12.62
643.697	16.62
644.457	16.62
645.216	17.62
645.976	13.62
646.736	14.62
647.495	14.62
648.255	12.62
649.014	12.62
649.774	13.62
650.533	11.62
651.292	11.62
652.051	13.62
652.81	11.62
653.569	12.62
654.328	7.62
655.087	11.62
655.846	10.62
656.604	10.62
657.363	10.62
658.121	11.62
658.88	7.62
659.638	9.62
660.397	10.62
661.155	7.62
661.913	9.62
662.671	10.62
663.429	9.62
664.187	8.62
664.945	9.62
665.703	10.62
666.46	8.62
667.218	12.62
667.976	9.62
668.733	7.62
669.49	11.62
670.248	4.62
671.005	9.62
671.762	6.62
672.519	9.62
673.276	7.62
674.033	6.62
674.79	8.62
675.547	8.62
676.304	8.62
677.06	8.62
677.817	8.62
678.574	7.62
679.33	8.62
680.086	6.62
680.843	5.62
681.599	7.62
682.355	7.62
683.111	9.62
683.867	7.62
684.623	8.62
685.379	7.62
686.135	5.62
686.89	8.62
687.646	6.62
688.402	9.62
689.157	5.62
689.912	4.62
690.668	6.62
691.423	8.62
692.178	7.62
692.933	6.62
693.688	6.62
694.443	3.62
695.198	6.62
695.953	6.62
696.708	5.62
697.462	7.62
698.217	5.62
698.972	5.62
699.726	6.62
700.48	7.62
701.235	6.62
701.989	6.62
702.743	5.62
703.497	3.62
704.251	6.62
705.005	6.62
705.759	8.62
706.513	9.62
707.266	6.62
708.02	7.62
708.774	6.62
709.527	6.62
710.28	5.62
711.034	6.62
711.787	7.62
712.54	5.62
713.293	7.62
714.046	4.62
714.799	7.62
715.552	8.62
716.305	5.62
717.058	6.62
717.81	4.62
718.563	9.62
719.315	8.62
720.068	8.62
720.82	4.62
721.573	5.62
722.325	5.62
723.077	6.62
723.829	10.62
724.581	6.62
725.333	5.62
726.085	6.62
726.836	5.62
727.588	7.62
728.34	8.62
729.091	8.62
729.843	7.62
730.594	9.62
731.346	5.62
732.097	9.62
732.848	6.62
733.599	8.62
734.35	8.62
735.101	8.62
735.852	9.62
736.603	8.62
737.354	10.62
738.104	9.62
738.855	8.62
739.605	9.62
740.356	7.62
741.106	10.62
741.856	9.62
742.607	9.62
743.357	9.62
744.107	9.62
744.857	10.62
745.607	9.62
746.357	9.62
747.106	8.62
747.856	12.62
748.606	6.62
749.355	10.62
750.105	9.62
750.854	8.62
751.603	9.62
752.353	11.62
753.102	10.62
753.851	11.62
754.6	11.62
755.349	11.62
756.098	12.62
756.847	12.62
757.595	10.62
758.344	13.62
759.093	9.62
759.841	10.62
760.589	10.62
761.338	11.62
762.086	10.62
762.834	12.62
763.582	10.62
764.331	13.62
765.079	10.62
765.826	12.62
766.574	9.62
767.322	14.62
768.07	14.62
768.817	14.62
769.565	12.62
770.312	16.62
771.06	11.62
771.807	10.62
772.554	10.62
773.302	12.62
774.049	17.62
774.796	16.62
775.543	12.62
776.29	13.62
777.036	14.62
777.783	15.62
778.53	15.62
779.276	15.62
780.023	14.62
780.769	13.62
781.516	14.62
782.262	14.62
783.008	13.62
783.754	12.62
784.5	14.62
785.246	13.62
785.992	11.62
786.738	14.62
787.484	13.62
788.23	12.62
788.975	14.62
789.721	15.62
790.466	13.62
791.212	14.62
791.957	15.62
792.702	9.62
793.447	12.62
794.193	13.62
794.938	13.62
795.683	11.62
796.427	14.62
797.172	13.62
797.917	12.62
798.662	12.62
799.406	13.62
800.151	11.62
800.895	10.62
801.64	11.62
802.384	9.62
803.128	11.62
803.872	10.62
804.616	9.62
805.36	10.62
806.104	7.62
806.848	11.62
807.592	8.62
808.336	8.62
809.079	9.62
809.823	7.62
810.566	8.62
811.31	9.62
812.053	8.62
812.796	7.62
813.539	7.62
814.283	9.62
815.026	6.62
815.769	7.62
816.511	7.62
817.254	7.62
817.997	6.62
818.74	5.62
819.482	7.62
820.225	5.62
820.967	6.62
821.71	7.62
822.452	7.62
823.194	5.62
823.936	5.62
824.678	6.62
825.42	7.62
826.162	4.62
826.904	5.62
827.646	7.62
828.388	5.62
829.129	6.62
829.871	6.62
830.612	6.62
831.354	6.62
832.095	5.62
832.836	5.62
833.577	2.62
834.319	5.62
835.06	6.62
835.801	4.62
836.542	4.62
837.282	5.62
838.023	5.62
838.764	6.62
839.504	7.62
840.245	5.62
840.985	8.62
841.726	6.62
842.466	1.62
843.206	2.62
843.946	6.62
844.687	3.62
845.427	5.62
846.166	5.62
846.906	5.62
847.646	2.62
848.386	4.62
849.125	4.62
849.865	4.62
850.605	2.62
851.344	2.62
852.083	3.62
852.823	1.62
853.562	4.62
854.301	1.62
855.04	2.62
855.779	3.62
856.518	2.62
857.257	3.62
857.995	2.62
858.734	4.62
859.473	3.62
860.211	1.62
860.95	3.62
861.688	0.62
862.426	2.62
863.165	2.62
863.903	4.62
864.641	1.62
865.379	2.62
866.117	3.62
866.855	1.62
867.593	3.62
868.33	4.62
869.068	2.62
869.806	0.62
870.543	2.62
871.28	2.62
872.018	1.62
872.755	3.62
873.492	1.62
874.229	2.62
874.967	1.62
875.703	3.62
876.44	1.62
877.177	2.62
877.914	0.62
878.651	1.62
879.387	0.62
880.124	1.62
880.86	1.62
881.597	-1.38
882.333	1.62
883.069	1.62
883.806	-0.38
884.542	0.62
885.278	0.62
886.014	1.62
886.749	0.62
887.485	1.62
888.221	2.62
888.957	2.62
889.692	3.62
890.428	0.62
891.163	1.62
891.899	0.62
892.634	-2.38
893.369	-0.38
894.104	-0.38
894.839	1.62
895.574	0.62
896.309	1.62
897.044	2.62
897.779	0.62
898.514	3.62
899.248	-0.38
899.983	0.62
900.717	1.62
901.452	-0.38
902.186	-1.38
902.92	1.62
903.654	1.62
904.389	2.62
905.123	2.62
905.857	2.62
906.59	0.62
907.324	4.62
908.058	-0.38
908.792	1.62
909.525	0.62
910.259	0.62
910.992	2.62
911.726	1.62
912.459	1.62
913.192	0.62
913.925	3.62
914.658	1.62
915.391	1.62
916.124	0.62
916.857	-0.38
917.59	0.62
918.323	-0.38
919.055	-1.38
919.788	1.62
920.521	1.62
921.253	-1.38
921.985	1.62
922.718	-0.38
923.45	0.62
924.182	1.62
924.914	0.62
925.646	1.62
926.378	0.62
927.11	0.62
927.841	0.62
928.573	0.62
929.305	0.62
930.036	-0.38
930.768	-0.38
931.499	0.62
932.23	1.62
932.962	0.62
933.693	0.62
934.424	0.62
935.155	-1.38
935.886	-0.38
936.617	-0.38
937.348	0.62
938.078	-0.38
938.809	0.62
939.54	0.62
940.27	2.62
941.001	-0.38
941.731	-0.38
942.461	-0.38
943.191	1.62
943.922	-0.38
944.652	0.62
945.382	-0.38
946.112	0.62
946.841	-0.38
947.571	1.62
948.301	-0.38
949.031	0.62
949.76	1.62
950.49	-1.38
951.219	3.62
951.948	0.62
952.678	-0.38
953.407	2.62
954.136	0.62
954.865	1.62
955.594	-1.38
956.323	0.62
957.052	-0.38
957.78	-0.38
958.509	1.62
959.238	-0.38
959.966	1.62
960.695	0.62
961.423	-0.38
962.151	-1.38
962.88	0.62
963.608	0.62
964.336	1.62
965.064	0.62
965.792	0.62
966.52	1.62
967.247	1.62
967.975	1.62
968.703	1.62
969.43	-0.38
970.158	-0.38
970.885	0.62
971.613	2.62
972.34	1.62
973.067	-0.38
973.794	1.62
974.521	-1.38
975.248	0.62
975.975	0.62
976.702	2.62
977.429	0.62
978.156	-0.38
978.882	1.62
979.609	0.62
980.335	0.62
981.062	0.62
981.788	0.62
982.514	0.62
983.24	1.62
983.967	-0.38
984.693	0.62
985.419	1.62
986.144	0.62
986.87	0.62
987.596	0.62
988.322	4.62
989.047	0.62
989.773	2.62
990.498	-0.38
991.224	0.62
991.949	2.62
992.674	0.62
993.399	2.62
994.124	-1.38
994.849	-0.38
995.574	1.62
996.299	0.62
997.024	1.62
997.749	-0.38
998.473	3.62
999.198	-0.38
999.922	0.62
1000.647	0.62
1001.371	5.62
1002.095	-0.38
1002.82	-0.38
1003.544	-2.38
1004.268	6.62
1004.992	2.62
1005.716	6.62
1006.439	3.62
1007.163	5.62
1007.887	4.62
1008.611	1.62
1009.334	0.62
1010.058	-2.38
1010.781	0.62
1011.504	1.62
1012.228	0.62
1012.951	-0.38
1013.674	-0.38
1014.397	-0.38
1015.12	-1.38
