节点500_565_QEPB04081__220__09-54-04-792.txt的数据

Date: Thu Nov 13 09:54:04 CST 2025
User: PC
Spectrometer: QEPB0408
触发模式: 0
积分时间 (秒): 1.000000E-2
Scans to average: 1
启用暗噪声校正: true
启用非线性校正: false
滑动平均宽度: 0
X轴模式: Wavelengths
Number of Pixels in Spectrum: 1044
>>>>>Begin Spectral Data<<<<<
220.843	4.62
221.644	4.62
222.444	3.62
223.244	4.62
224.045	5.62
224.845	6.62
225.645	6.62
226.445	7.62
227.245	4.62
228.045	7.62
228.845	6.62
229.645	8.62
230.444	7.62
231.244	6.62
232.043	9.62
232.843	5.62
233.642	7.62
234.442	9.62
235.241	10.62
236.04	9.62
236.839	9.62
237.638	7.62
238.437	8.62
239.236	12.62
240.035	7.62
240.833	12.62
241.632	10.62
242.43	8.62
243.229	11.62
244.027	8.62
244.826	11.62
245.624	11.62
246.422	13.62
247.22	12.62
248.018	11.62
248.816	15.62
249.614	13.62
250.412	13.62
251.21	14.62
252.007	15.62
252.805	16.62
253.602	15.62
254.4	16.62
255.197	17.62
255.994	16.62
256.791	15.62
257.589	18.62
258.386	18.62
259.183	18.62
259.979	21.62
260.776	19.62
261.573	20.62
262.37	19.62
263.166	22.62
263.963	24.62
264.759	20.62
265.556	26.62
266.352	23.62
267.148	27.62
267.944	23.62
268.74	25.62
269.536	25.62
270.332	26.62
271.128	27.62
271.924	24.62
272.719	29.62
273.515	28.62
274.311	28.62
275.106	30.62
275.901	29.62
276.697	33.62
277.492	29.62
278.287	27.62
279.082	31.62
279.877	29.62
280.672	29.62
281.467	29.62
282.262	31.62
283.056	30.62
283.851	30.62
284.646	30.62
285.44	31.62
286.234	27.62
287.029	32.62
287.823	31.62
288.617	26.62
289.411	26.62
290.205	26.62
290.999	30.62
291.793	29.62
292.587	25.62
293.381	26.62
294.174	27.62
294.968	24.62
295.761	27.62
296.555	26.62
297.348	23.62
298.141	25.62
298.935	27.62
299.728	23.62
300.521	24.62
301.314	24.62
302.107	20.62
302.899	19.62
303.692	18.62
304.485	21.62
305.277	19.62
306.07	19.62
306.862	21.62
307.655	21.62
308.447	19.62
309.239	17.62
310.031	18.62
310.823	17.62
311.615	16.62
312.407	15.62
313.199	14.62
313.991	17.62
314.783	14.62
315.574	16.62
316.366	15.62
317.157	14.62
317.949	13.62
318.74	14.62
319.531	16.62
320.322	11.62
321.113	12.62
321.904	13.62
322.695	13.62
323.486	12.62
324.277	14.62
325.068	12.62
325.858	11.62
326.649	11.62
327.439	10.62
328.23	12.62
329.02	12.62
329.81	10.62
330.6	10.62
331.391	10.62
332.181	11.62
332.971	13.62
333.76	12.62
334.55	10.62
335.34	12.62
336.13	8.62
336.919	9.62
337.709	10.62
338.498	8.62
339.287	14.62
340.077	11.62
340.866	13.62
341.655	13.62
342.444	9.62
343.233	9.62
344.022	9.62
344.811	11.62
345.6	10.62
346.388	11.62
347.177	7.62
347.965	10.62
348.754	8.62
349.542	12.62
350.33	12.62
351.119	8.62
351.907	11.62
352.695	10.62
353.483	12.62
354.271	9.62
355.059	8.62
355.846	11.62
356.634	5.62
357.422	9.62
358.209	10.62
358.997	10.62
359.784	12.62
360.571	7.62
361.359	8.62
362.146	11.62
362.933	8.62
363.72	10.62
364.507	9.62
365.294	11.62
366.081	7.62
366.867	8.62
367.654	8.62
368.44	11.62
369.227	8.62
370.013	10.62
370.8	9.62
371.586	7.62
372.372	7.62
373.158	9.62
373.944	11.62
374.73	8.62
375.516	9.62
376.302	9.62
377.088	9.62
377.873	8.62
378.659	10.62
379.445	11.62
380.23	9.62
381.015	10.62
381.801	10.62
382.586	9.62
383.371	8.62
384.156	11.62
384.941	11.62
385.726	7.62
386.511	10.62
387.296	9.62
388.08	8.62
388.865	10.62
389.649	11.62
390.434	11.62
391.218	9.62
392.003	11.62
392.787	13.62
393.571	12.62
394.355	12.62
395.139	11.62
395.923	10.62
396.707	13.62
397.491	13.62
398.274	10.62
399.058	12.62
399.842	15.62
400.625	13.62
401.408	11.62
402.192	16.62
402.975	13.62
403.758	14.62
404.541	13.62
405.324	15.62
406.107	14.62
406.89	16.62
407.673	11.62
408.456	14.62
409.238	16.62
410.021	13.62
410.803	13.62
411.586	15.62
412.368	15.62
413.151	13.62
413.933	15.62
414.715	12.62
415.497	18.62
416.279	16.62
417.061	17.62
417.843	16.62
418.624	18.62
419.406	20.62
420.188	18.62
420.969	18.62
421.751	22.62
422.532	20.62
423.313	22.62
424.095	21.62
424.876	22.62
425.657	23.62
426.438	24.62
427.219	25.62
428	23.62
428.78	24.62
429.561	24.62
430.342	25.62
431.122	26.62
431.903	27.62
432.683	29.62
433.464	29.62
434.244	32.62
435.024	28.62
435.804	37.62
436.584	34.62
437.364	40.62
438.144	39.62
438.924	40.62
439.704	42.62
440.483	46.62
441.263	46.62
442.042	51.62
442.822	52.62
443.601	57.62
444.38	60.62
445.16	68.62
445.939	71.62
446.718	77.62
447.497	82.62
448.276	93.62
449.054	99.62
449.833	108.62
450.612	119.62
451.391	129.62
452.169	145.62
452.948	158.62
453.726	177.62
454.504	198.62
455.282	219.62
456.061	237.62
456.839	263.62
457.617	301.62
458.395	335.62
459.172	373.62
459.95	416.62
460.728	462.62
461.506	510.62
462.283	562.62
463.061	638.62
463.838	704.62
464.615	792.62
465.393	881.62
466.17	989.62
466.947	1096.62
467.724	1225.62
468.501	1369.62
469.278	1494.62
470.055	1681.62
470.831	1852.62
471.608	2052.62
472.385	2285.62
473.161	2509.62
473.938	2782.62
474.714	3056.62
475.49	3378.62
476.266	3717.62
477.043	4128.62
477.819	4540.62
478.595	4945.62
479.371	5414.62
480.146	5951.62
480.922	6513.62
481.698	7110.62
482.473	7779.62
483.249	8479.62
484.024	9259.62
484.8	10160.62
485.575	11064.62
486.35	11995.62
487.126	13026.62
487.901	14157.62
488.676	15378.62
489.451	16720.62
490.225	18114.62
491	19465.62
491.775	20934.62
492.55	22505.62
493.324	24172.62
494.099	25738.62
494.873	27345.62
495.647	29126.62
496.422	30858.62
497.196	32440.62
497.97	34125.62
498.744	35672.62
499.518	37006.62
500.292	38267.62
501.066	39501.62
501.839	40490.62
502.613	41198.62
503.387	41827.62
504.16	42312.62
504.934	42472.62
505.707	42432.62
506.48	42182.62
507.253	41806.62
508.027	41045.62
508.8	40105.62
509.573	39149.62
510.346	38072.62
511.118	36855.62
511.891	35756.62
512.664	34435.62
513.437	33137.62
514.209	31734.62
514.982	30487.62
515.754	29215.62
516.526	28057.62
517.298	26849.62
518.071	25722.62
518.843	24699.62
519.615	23692.62
520.387	22793.62
521.159	21858.62
521.93	21033.62
522.702	20061.62
523.474	19261.62
524.245	18444.62
525.017	17746.62
525.788	16914.62
526.56	16150.62
527.331	15394.62
528.102	14698.62
528.873	13934.62
529.644	13302.62
530.415	12593.62
531.186	11955.62
531.957	11344.62
532.728	10748.62
533.498	10205.62
534.269	9603.62
535.039	9087.62
535.81	8622.62
536.58	8164.62
537.351	7739.62
538.121	7265.62
538.891	6859.62
539.661	6529.62
540.431	6216.62
541.201	5823.62
541.971	5537.62
542.741	5227.62
543.51	4957.62
544.28	4721.62
545.05	4489.62
545.819	4282.62
546.588	4052.62
547.358	3856.62
548.127	3681.62
548.896	3494.62
549.665	3295.62
550.434	3127.62
551.203	2960.62
551.972	2802.62
552.741	2664.62
553.51	2520.62
554.278	2380.62
555.047	2235.62
555.815	2118.62
556.584	2010.62
557.352	1885.62
558.121	1785.62
558.889	1686.62
559.657	1598.62
560.425	1497.62
561.193	1427.62
561.961	1341.62
562.729	1265.62
563.496	1205.62
564.264	1149.62
565.032	1081.62
565.799	1016.62
566.567	970.62
567.334	912.62
568.101	860.62
568.869	801.62
569.636	775.62
570.403	730.62
571.17	684.62
571.937	654.62
572.704	607.62
573.471	580.62
574.237	546.62
575.004	518.62
575.771	485.62
576.537	460.62
577.303	431.62
578.07	409.62
578.836	381.62
579.602	357.62
580.368	338.62
581.134	321.62
581.9	304.62
582.666	294.62
583.432	277.62
584.198	257.62
584.964	249.62
585.729	237.62
586.495	229.62
587.26	212.62
588.025	205.62
588.791	194.62
589.556	181.62
590.321	178.62
591.086	163.62
591.851	157.62
592.616	152.62
593.381	145.62
594.146	135.62
594.911	127.62
595.675	122.62
596.44	121.62
597.204	111.62
597.969	110.62
598.733	104.62
599.497	102.62
600.261	93.62
601.025	94.62
601.79	88.62
602.553	85.62
603.317	80.62
604.081	80.62
604.845	71.62
605.609	69.62
606.372	69.62
607.136	65.62
607.899	65.62
608.662	61.62
609.426	59.62
610.189	55.62
610.952	51.62
611.715	49.62
612.478	50.62
613.241	48.62
614.004	46.62
614.767	47.62
615.529	45.62
616.292	43.62
617.055	42.62
617.817	37.62
618.579	38.62
619.342	37.62
620.104	37.62
620.866	34.62
621.628	35.62
622.39	30.62
623.152	30.62
623.914	30.62
624.676	29.62
625.438	28.62
626.199	30.62
626.961	27.62
627.722	27.62
628.484	23.62
629.245	24.62
630.006	24.62
630.768	20.62
631.529	24.62
632.29	23.62
633.051	20.62
633.812	21.62
634.573	24.62
635.333	20.62
636.094	19.62
636.855	18.62
637.615	17.62
638.376	20.62
639.136	16.62
639.896	17.62
640.657	17.62
641.417	16.62
642.177	16.62
642.937	16.62
643.697	14.62
644.457	15.62
645.216	16.62
645.976	15.62
646.736	9.62
647.495	17.62
648.255	16.62
649.014	14.62
649.774	15.62
650.533	16.62
651.292	16.62
652.051	13.62
652.81	10.62
653.569	11.62
654.328	12.62
655.087	14.62
655.846	12.62
656.604	9.62
657.363	11.62
658.121	11.62
658.88	13.62
659.638	10.62
660.397	11.62
661.155	9.62
661.913	11.62
662.671	8.62
663.429	11.62
664.187	11.62
664.945	9.62
665.703	10.62
666.46	9.62
667.218	8.62
667.976	10.62
668.733	9.62
669.49	10.62
670.248	9.62
671.005	7.62
671.762	10.62
672.519	7.62
673.276	10.62
674.033	7.62
674.79	7.62
675.547	7.62
676.304	9.62
677.06	11.62
677.817	7.62
678.574	7.62
679.33	10.62
680.086	8.62
680.843	6.62
681.599	7.62
682.355	9.62
683.111	8.62
683.867	10.62
684.623	5.62
685.379	8.62
686.135	8.62
686.89	8.62
687.646	6.62
688.402	7.62
689.157	9.62
689.912	7.62
690.668	6.62
691.423	7.62
692.178	8.62
692.933	7.62
693.688	6.62
694.443	7.62
695.198	5.62
695.953	6.62
696.708	6.62
697.462	7.62
698.217	7.62
698.972	8.62
699.726	6.62
700.48	6.62
701.235	7.62
701.989	7.62
702.743	9.62
703.497	7.62
704.251	7.62
705.005	6.62
705.759	7.62
706.513	7.62
707.266	4.62
708.02	7.62
708.774	8.62
709.527	7.62
710.28	7.62
711.034	9.62
711.787	8.62
712.54	9.62
713.293	7.62
714.046	7.62
714.799	9.62
715.552	6.62
716.305	5.62
717.058	7.62
717.81	7.62
718.563	7.62
719.315	7.62
720.068	8.62
720.82	6.62
721.573	8.62
722.325	8.62
723.077	7.62
723.829	8.62
724.581	5.62
725.333	9.62
726.085	7.62
726.836	8.62
727.588	7.62
728.34	9.62
729.091	7.62
729.843	7.62
730.594	9.62
731.346	10.62
732.097	7.62
732.848	11.62
733.599	8.62
734.35	8.62
735.101	8.62
735.852	9.62
736.603	9.62
737.354	8.62
738.104	10.62
738.855	8.62
739.605	9.62
740.356	9.62
741.106	8.62
741.856	10.62
742.607	8.62
743.357	10.62
744.107	10.62
744.857	11.62
745.607	9.62
746.357	11.62
747.106	9.62
747.856	9.62
748.606	12.62
749.355	10.62
750.105	10.62
750.854	9.62
751.603	9.62
752.353	11.62
753.102	8.62
753.851	9.62
754.6	12.62
755.349	9.62
756.098	8.62
756.847	13.62
757.595	10.62
758.344	11.62
759.093	12.62
759.841	9.62
760.589	11.62
761.338	13.62
762.086	11.62
762.834	10.62
763.582	12.62
764.331	10.62
765.079	13.62
765.826	13.62
766.574	9.62
767.322	11.62
768.07	13.62
768.817	10.62
769.565	11.62
770.312	11.62
771.06	12.62
771.807	12.62
772.554	14.62
773.302	12.62
774.049	13.62
774.796	13.62
775.543	13.62
776.29	15.62
777.036	13.62
777.783	14.62
778.53	14.62
779.276	14.62
780.023	15.62
780.769	15.62
781.516	14.62
782.262	15.62
783.008	13.62
783.754	14.62
784.5	16.62
785.246	16.62
785.992	16.62
786.738	14.62
787.484	14.62
788.23	17.62
788.975	14.62
789.721	14.62
790.466	16.62
791.212	15.62
791.957	15.62
792.702	14.62
793.447	15.62
794.193	10.62
794.938	13.62
795.683	13.62
796.427	12.62
797.172	14.62
797.917	13.62
798.662	13.62
799.406	12.62
800.151	13.62
800.895	10.62
801.64	12.62
802.384	9.62
803.128	10.62
803.872	11.62
804.616	9.62
805.36	9.62
806.104	9.62
806.848	9.62
807.592	9.62
808.336	8.62
809.079	9.62
809.823	10.62
810.566	10.62
811.31	9.62
812.053	10.62
812.796	7.62
813.539	8.62
814.283	9.62
815.026	7.62
815.769	6.62
816.511	9.62
817.254	8.62
817.997	8.62
818.74	10.62
819.482	8.62
820.225	8.62
820.967	8.62
821.71	7.62
822.452	10.62
823.194	6.62
823.936	7.62
824.678	4.62
825.42	8.62
826.162	6.62
826.904	8.62
827.646	7.62
828.388	7.62
829.129	8.62
829.871	6.62
830.612	4.62
831.354	7.62
832.095	5.62
832.836	5.62
833.577	3.62
834.319	3.62
835.06	5.62
835.801	5.62
836.542	6.62
837.282	8.62
838.023	5.62
838.764	6.62
839.504	6.62
840.245	7.62
840.985	5.62
841.726	8.62
842.466	5.62
843.206	5.62
843.946	5.62
844.687	6.62
845.427	5.62
846.166	3.62
846.906	7.62
847.646	5.62
848.386	6.62
849.125	3.62
849.865	7.62
850.605	4.62
851.344	5.62
852.083	7.62
852.823	5.62
853.562	3.62
854.301	4.62
855.04	5.62
855.779	3.62
856.518	5.62
857.257	3.62
857.995	4.62
858.734	3.62
859.473	5.62
860.211	4.62
860.95	3.62
861.688	3.62
862.426	4.62
863.165	3.62
863.903	5.62
864.641	3.62
865.379	4.62
866.117	4.62
866.855	3.62
867.593	3.62
868.33	2.62
869.068	1.62
869.806	5.62
870.543	2.62
871.28	3.62
872.018	3.62
872.755	4.62
873.492	4.62
874.229	2.62
874.967	1.62
875.703	2.62
876.44	3.62
877.177	1.62
877.914	1.62
878.651	3.62
879.387	2.62
880.124	3.62
880.86	2.62
881.597	-0.38
882.333	1.62
883.069	3.62
883.806	2.62
884.542	3.62
885.278	2.62
886.014	2.62
886.749	0.62
887.485	-0.38
888.221	1.62
888.957	1.62
889.692	3.62
890.428	3.62
891.163	2.62
891.899	3.62
892.634	1.62
893.369	3.62
894.104	1.62
894.839	3.62
895.574	1.62
896.309	2.62
897.044	-0.38
897.779	1.62
898.514	1.62
899.248	2.62
899.983	0.62
900.717	1.62
901.452	1.62
902.186	0.62
902.92	0.62
903.654	1.62
904.389	-1.38
905.123	3.62
905.857	1.62
906.59	1.62
907.324	2.62
908.058	3.62
908.792	1.62
909.525	2.62
910.259	1.62
910.992	1.62
911.726	2.62
912.459	1.62
913.192	1.62
913.925	4.62
914.658	0.62
915.391	1.62
916.124	3.62
916.857	0.62
917.59	3.62
918.323	3.62
919.055	1.62
919.788	1.62
920.521	1.62
921.253	1.62
921.985	0.62
922.718	2.62
923.45	1.62
924.182	3.62
924.914	-0.38
925.646	1.62
926.378	1.62
927.11	-0.38
927.841	3.62
928.573	1.62
929.305	1.62
930.036	1.62
930.768	-1.38
931.499	1.62
932.23	-0.38
932.962	0.62
933.693	0.62
934.424	0.62
935.155	-1.38
935.886	1.62
936.617	2.62
937.348	1.62
938.078	2.62
938.809	2.62
939.54	1.62
940.27	1.62
941.001	4.62
941.731	0.62
942.461	1.62
943.191	2.62
943.922	-0.38
944.652	2.62
945.382	0.62
946.112	2.62
946.841	1.62
947.571	2.62
948.301	0.62
949.031	1.62
949.76	1.62
950.49	0.62
951.219	3.62
951.948	1.62
952.678	-0.38
953.407	1.62
954.136	1.62
954.865	1.62
955.594	-1.38
956.323	2.62
957.052	-0.38
957.78	3.62
958.509	0.62
959.238	3.62
959.966	1.62
960.695	1.62
961.423	1.62
962.151	1.62
962.88	2.62
963.608	2.62
964.336	0.62
965.064	1.62
965.792	0.62
966.52	1.62
967.247	0.62
967.975	3.62
968.703	-0.38
969.43	3.62
970.158	2.62
970.885	1.62
971.613	0.62
972.34	2.62
973.067	2.62
973.794	2.62
974.521	3.62
975.248	1.62
975.975	0.62
976.702	2.62
977.429	1.62
978.156	1.62
978.882	-1.38
979.609	3.62
980.335	0.62
981.062	0.62
981.788	3.62
982.514	0.62
983.24	2.62
983.967	1.62
984.693	2.62
985.419	2.62
986.144	2.62
986.87	1.62
987.596	1.62
988.322	0.62
989.047	2.62
989.773	-1.38
990.498	1.62
991.224	1.62
991.949	0.62
992.674	1.62
993.399	2.62
994.124	0.62
994.849	1.62
995.574	1.62
996.299	-0.38
997.024	1.62
997.749	-0.38
998.473	1.62
999.198	1.62
999.922	2.62
1000.647	1.62
1001.371	2.62
1002.095	-1.38
1002.82	0.62
1003.544	-1.38
1004.268	5.62
1004.992	7.62
1005.716	2.62
1006.439	2.62
1007.163	7.62
1007.887	6.62
1008.611	-0.38
1009.334	2.62
1010.058	0.62
1010.781	1.62
1011.504	1.62
1012.228	1.62
1012.951	1.62
1013.674	-1.38
1014.397	0.62
1015.12	-1.38
