节点500_565_QEPB04081__207__09-53-51-850.txt的数据

Date: Thu Nov 13 09:53:51 CST 2025
User: PC
Spectrometer: QEPB0408
触发模式: 0
积分时间 (秒): 1.000000E-2
Scans to average: 1
启用暗噪声校正: true
启用非线性校正: false
滑动平均宽度: 0
X轴模式: Wavelengths
Number of Pixels in Spectrum: 1044
>>>>>Begin Spectral Data<<<<<
220.843	3.12
221.644	6.12
222.444	3.12
223.244	3.12
224.045	4.12
224.845	5.12
225.645	6.12
226.445	6.12
227.245	7.12
228.045	4.12
228.845	7.12
229.645	5.12
230.444	7.12
231.244	7.12
232.043	6.12
232.843	7.12
233.642	6.12
234.442	7.12
235.241	7.12
236.04	8.12
236.839	10.12
237.638	9.12
238.437	6.12
239.236	8.12
240.035	11.12
240.833	8.12
241.632	9.12
242.43	11.12
243.229	8.12
244.027	13.12
244.826	9.12
245.624	10.12
246.422	13.12
247.22	12.12
248.018	12.12
248.816	12.12
249.614	12.12
250.412	13.12
251.21	11.12
252.007	12.12
252.805	15.12
253.602	16.12
254.4	17.12
255.197	14.12
255.994	17.12
256.791	17.12
257.589	17.12
258.386	15.12
259.183	17.12
259.979	19.12
260.776	18.12
261.573	18.12
262.37	21.12
263.166	20.12
263.963	23.12
264.759	24.12
265.556	21.12
266.352	22.12
267.148	24.12
267.944	23.12
268.74	22.12
269.536	24.12
270.332	25.12
271.128	26.12
271.924	24.12
272.719	27.12
273.515	29.12
274.311	27.12
275.106	30.12
275.901	28.12
276.697	29.12
277.492	30.12
278.287	27.12
279.082	28.12
279.877	27.12
280.672	34.12
281.467	29.12
282.262	27.12
283.056	30.12
283.851	27.12
284.646	32.12
285.44	29.12
286.234	28.12
287.029	30.12
287.823	28.12
288.617	27.12
289.411	27.12
290.205	29.12
290.999	26.12
291.793	29.12
292.587	27.12
293.381	28.12
294.174	25.12
294.968	25.12
295.761	23.12
296.555	21.12
297.348	23.12
298.141	20.12
298.935	25.12
299.728	23.12
300.521	21.12
301.314	22.12
302.107	19.12
302.899	21.12
303.692	20.12
304.485	18.12
305.277	20.12
306.07	16.12
306.862	19.12
307.655	19.12
308.447	16.12
309.239	17.12
310.031	19.12
310.823	16.12
311.615	15.12
312.407	14.12
313.199	14.12
313.991	16.12
314.783	16.12
315.574	13.12
316.366	12.12
317.157	13.12
317.949	13.12
318.74	10.12
319.531	15.12
320.322	11.12
321.113	11.12
321.904	12.12
322.695	14.12
323.486	12.12
324.277	12.12
325.068	12.12
325.858	13.12
326.649	12.12
327.439	11.12
328.23	12.12
329.02	12.12
329.81	9.12
330.6	12.12
331.391	9.12
332.181	11.12
332.971	13.12
333.76	8.12
334.55	11.12
335.34	10.12
336.13	11.12
336.919	6.12
337.709	9.12
338.498	9.12
339.287	9.12
340.077	11.12
340.866	9.12
341.655	11.12
342.444	12.12
343.233	11.12
344.022	11.12
344.811	10.12
345.6	10.12
346.388	7.12
347.177	10.12
347.965	10.12
348.754	10.12
349.542	9.12
350.33	8.12
351.119	9.12
351.907	10.12
352.695	11.12
353.483	9.12
354.271	8.12
355.059	11.12
355.846	10.12
356.634	7.12
357.422	10.12
358.209	10.12
358.997	10.12
359.784	10.12
360.571	10.12
361.359	9.12
362.146	10.12
362.933	9.12
363.72	11.12
364.507	8.12
365.294	8.12
366.081	7.12
366.867	10.12
367.654	9.12
368.44	8.12
369.227	9.12
370.013	9.12
370.8	11.12
371.586	8.12
372.372	7.12
373.158	7.12
373.944	7.12
374.73	7.12
375.516	10.12
376.302	8.12
377.088	6.12
377.873	9.12
378.659	6.12
379.445	10.12
380.23	10.12
381.015	8.12
381.801	10.12
382.586	7.12
383.371	9.12
384.156	9.12
384.941	7.12
385.726	11.12
386.511	9.12
387.296	9.12
388.08	10.12
388.865	7.12
389.649	12.12
390.434	8.12
391.218	9.12
392.003	8.12
392.787	10.12
393.571	10.12
394.355	10.12
395.139	9.12
395.923	9.12
396.707	8.12
397.491	10.12
398.274	11.12
399.058	10.12
399.842	7.12
400.625	9.12
401.408	11.12
402.192	10.12
402.975	11.12
403.758	14.12
404.541	11.12
405.324	10.12
406.107	13.12
406.89	13.12
407.673	13.12
408.456	13.12
409.238	13.12
410.021	12.12
410.803	16.12
411.586	15.12
412.368	15.12
413.151	16.12
413.933	14.12
414.715	14.12
415.497	15.12
416.279	17.12
417.061	15.12
417.843	17.12
418.624	17.12
419.406	15.12
420.188	19.12
420.969	16.12
421.751	17.12
422.532	21.12
423.313	17.12
424.095	21.12
424.876	21.12
425.657	21.12
426.438	18.12
427.219	23.12
428	21.12
428.78	24.12
429.561	22.12
430.342	23.12
431.122	27.12
431.903	25.12
432.683	26.12
433.464	29.12
434.244	29.12
435.024	30.12
435.804	33.12
436.584	36.12
437.364	35.12
438.144	37.12
438.924	39.12
439.704	41.12
440.483	42.12
441.263	45.12
442.042	51.12
442.822	53.12
443.601	57.12
444.38	59.12
445.16	65.12
445.939	69.12
446.718	71.12
447.497	79.12
448.276	85.12
449.054	93.12
449.833	104.12
450.612	116.12
451.391	129.12
452.169	130.12
452.948	151.12
453.726	166.12
454.504	180.12
455.282	209.12
456.061	231.12
456.839	251.12
457.617	282.12
458.395	307.12
459.172	338.12
459.95	395.12
460.728	441.12
461.506	484.12
462.283	541.12
463.061	617.12
463.838	678.12
464.615	763.12
465.393	843.12
466.17	942.12
466.947	1051.12
467.724	1164.12
468.501	1311.12
469.278	1444.12
470.055	1612.12
470.831	1799.12
471.608	1970.12
472.385	2193.12
473.161	2431.12
473.938	2664.12
474.714	2944.12
475.49	3260.12
476.266	3591.12
477.043	3947.12
477.819	4361.12
478.595	4789.12
479.371	5240.12
480.146	5726.12
480.922	6290.12
481.698	6871.12
482.473	7488.12
483.249	8178.12
484.024	8894.12
484.8	9782.12
485.575	10615.12
486.35	11580.12
487.126	12573.12
487.901	13640.12
488.676	14872.12
489.451	16122.12
490.225	17500.12
491	18891.12
491.775	20278.12
492.55	21784.12
493.324	23298.12
494.099	24837.12
494.873	26440.12
495.647	28167.12
496.422	29857.12
497.196	31345.12
497.97	32952.12
498.744	34396.12
499.518	35703.12
500.292	37000.12
501.066	38100.12
501.839	39125.12
502.613	39776.12
503.387	40294.12
504.16	40828.12
504.934	40998.12
505.707	40899.12
506.48	40709.12
507.253	40268.12
508.027	39504.12
508.8	38644.12
509.573	37740.12
510.346	36605.12
511.118	35469.12
511.891	34376.12
512.664	33158.12
513.437	31919.12
514.209	30552.12
514.982	29274.12
515.754	28154.12
516.526	26940.12
517.298	25753.12
518.071	24809.12
518.843	23679.12
519.615	22753.12
520.387	21860.12
521.159	21063.12
521.93	20085.12
522.702	19316.12
523.474	18492.12
524.245	17730.12
525.017	17039.12
525.788	16272.12
526.56	15513.12
527.331	14818.12
528.102	14092.12
528.873	13395.12
529.644	12777.12
530.415	12071.12
531.186	11430.12
531.957	10897.12
532.728	10331.12
533.498	9778.12
534.269	9203.12
535.039	8681.12
535.81	8283.12
536.58	7823.12
537.351	7386.12
538.121	6948.12
538.891	6579.12
539.661	6254.12
540.431	5900.12
541.201	5607.12
541.971	5311.12
542.741	5023.12
543.51	4773.12
544.28	4537.12
545.05	4319.12
545.819	4082.12
546.588	3905.12
547.358	3719.12
548.127	3521.12
548.896	3353.12
549.665	3156.12
550.434	3015.12
551.203	2861.12
551.972	2697.12
552.741	2553.12
553.51	2412.12
554.278	2268.12
555.047	2149.12
555.815	2032.12
556.584	1920.12
557.352	1807.12
558.121	1725.12
558.889	1610.12
559.657	1524.12
560.425	1438.12
561.193	1362.12
561.961	1296.12
562.729	1225.12
563.496	1149.12
564.264	1094.12
565.032	1036.12
565.799	989.12
566.567	934.12
567.334	871.12
568.101	825.12
568.869	777.12
569.636	730.12
570.403	688.12
571.17	655.12
571.937	615.12
572.704	591.12
573.471	555.12
574.237	519.12
575.004	493.12
575.771	468.12
576.537	435.12
577.303	411.12
578.07	387.12
578.836	366.12
579.602	343.12
580.368	322.12
581.134	305.12
581.9	296.12
582.666	285.12
583.432	264.12
584.198	252.12
584.964	244.12
585.729	227.12
586.495	218.12
587.26	204.12
588.025	193.12
588.791	184.12
589.556	170.12
590.321	168.12
591.086	159.12
591.851	148.12
592.616	144.12
593.381	136.12
594.146	130.12
594.911	128.12
595.675	119.12
596.44	115.12
597.204	110.12
597.969	105.12
598.733	96.12
599.497	100.12
600.261	90.12
601.025	85.12
601.79	85.12
602.553	78.12
603.317	75.12
604.081	74.12
604.845	73.12
605.609	67.12
606.372	62.12
607.136	61.12
607.899	56.12
608.662	57.12
609.426	54.12
610.189	56.12
610.952	51.12
611.715	51.12
612.478	44.12
613.241	47.12
614.004	44.12
614.767	43.12
615.529	41.12
616.292	39.12
617.055	36.12
617.817	39.12
618.579	37.12
619.342	35.12
620.104	33.12
620.866	30.12
621.628	33.12
622.39	34.12
623.152	27.12
623.914	31.12
624.676	28.12
625.438	27.12
626.199	27.12
626.961	23.12
627.722	24.12
628.484	24.12
629.245	22.12
630.006	22.12
630.768	23.12
631.529	19.12
632.29	21.12
633.051	21.12
633.812	21.12
634.573	20.12
635.333	19.12
636.094	18.12
636.855	18.12
637.615	18.12
638.376	15.12
639.136	17.12
639.896	17.12
640.657	14.12
641.417	16.12
642.177	15.12
642.937	13.12
643.697	15.12
644.457	14.12
645.216	13.12
645.976	11.12
646.736	13.12
647.495	11.12
648.255	11.12
649.014	12.12
649.774	10.12
650.533	13.12
651.292	13.12
652.051	12.12
652.81	10.12
653.569	11.12
654.328	10.12
655.087	8.12
655.846	11.12
656.604	10.12
657.363	8.12
658.121	11.12
658.88	10.12
659.638	9.12
660.397	7.12
661.155	11.12
661.913	9.12
662.671	9.12
663.429	9.12
664.187	7.12
664.945	9.12
665.703	9.12
666.46	8.12
667.218	9.12
667.976	8.12
668.733	8.12
669.49	8.12
670.248	9.12
671.005	9.12
671.762	8.12
672.519	7.12
673.276	7.12
674.033	7.12
674.79	8.12
675.547	7.12
676.304	6.12
677.06	6.12
677.817	7.12
678.574	8.12
679.33	7.12
680.086	8.12
680.843	7.12
681.599	7.12
682.355	9.12
683.111	7.12
683.867	6.12
684.623	8.12
685.379	8.12
686.135	4.12
686.89	7.12
687.646	7.12
688.402	5.12
689.157	9.12
689.912	7.12
690.668	10.12
691.423	4.12
692.178	6.12
692.933	8.12
693.688	7.12
694.443	7.12
695.198	7.12
695.953	7.12
696.708	8.12
697.462	6.12
698.217	6.12
698.972	3.12
699.726	8.12
700.48	7.12
701.235	7.12
701.989	6.12
702.743	6.12
703.497	6.12
704.251	6.12
705.005	8.12
705.759	8.12
706.513	6.12
707.266	5.12
708.02	7.12
708.774	6.12
709.527	7.12
710.28	9.12
711.034	6.12
711.787	7.12
712.54	8.12
713.293	6.12
714.046	7.12
714.799	10.12
715.552	7.12
716.305	7.12
717.058	6.12
717.81	6.12
718.563	5.12
719.315	9.12
720.068	7.12
720.82	7.12
721.573	7.12
722.325	8.12
723.077	7.12
723.829	8.12
724.581	7.12
725.333	8.12
726.085	8.12
726.836	7.12
727.588	7.12
728.34	9.12
729.091	7.12
729.843	9.12
730.594	10.12
731.346	9.12
732.097	6.12
732.848	7.12
733.599	8.12
734.35	9.12
735.101	11.12
735.852	8.12
736.603	6.12
737.354	9.12
738.104	6.12
738.855	8.12
739.605	8.12
740.356	8.12
741.106	7.12
741.856	6.12
742.607	10.12
743.357	8.12
744.107	9.12
744.857	8.12
745.607	11.12
746.357	9.12
747.106	10.12
747.856	6.12
748.606	8.12
749.355	12.12
750.105	10.12
750.854	11.12
751.603	8.12
752.353	9.12
753.102	11.12
753.851	8.12
754.6	12.12
755.349	9.12
756.098	11.12
756.847	9.12
757.595	9.12
758.344	11.12
759.093	12.12
759.841	8.12
760.589	12.12
761.338	10.12
762.086	11.12
762.834	9.12
763.582	10.12
764.331	14.12
765.079	11.12
765.826	11.12
766.574	13.12
767.322	13.12
768.07	13.12
768.817	12.12
769.565	13.12
770.312	13.12
771.06	11.12
771.807	13.12
772.554	13.12
773.302	15.12
774.049	13.12
774.796	11.12
775.543	12.12
776.29	16.12
777.036	12.12
777.783	13.12
778.53	14.12
779.276	14.12
780.023	15.12
780.769	12.12
781.516	15.12
782.262	14.12
783.008	15.12
783.754	13.12
784.5	13.12
785.246	13.12
785.992	13.12
786.738	16.12
787.484	12.12
788.23	13.12
788.975	14.12
789.721	13.12
790.466	13.12
791.212	13.12
791.957	14.12
792.702	13.12
793.447	13.12
794.193	11.12
794.938	10.12
795.683	10.12
796.427	14.12
797.172	13.12
797.917	12.12
798.662	13.12
799.406	13.12
800.151	11.12
800.895	12.12
801.64	12.12
802.384	12.12
803.128	13.12
803.872	13.12
804.616	11.12
805.36	11.12
806.104	10.12
806.848	9.12
807.592	11.12
808.336	9.12
809.079	11.12
809.823	9.12
810.566	8.12
811.31	9.12
812.053	6.12
812.796	7.12
813.539	6.12
814.283	8.12
815.026	7.12
815.769	8.12
816.511	8.12
817.254	7.12
817.997	8.12
818.74	6.12
819.482	9.12
820.225	7.12
820.967	6.12
821.71	6.12
822.452	8.12
823.194	7.12
823.936	5.12
824.678	8.12
825.42	5.12
826.162	4.12
826.904	6.12
827.646	7.12
828.388	6.12
829.129	5.12
829.871	7.12
830.612	6.12
831.354	3.12
832.095	4.12
832.836	6.12
833.577	5.12
834.319	2.12
835.06	5.12
835.801	6.12
836.542	5.12
837.282	6.12
838.023	4.12
838.764	5.12
839.504	6.12
840.245	7.12
840.985	7.12
841.726	6.12
842.466	5.12
843.206	5.12
843.946	4.12
844.687	7.12
845.427	4.12
846.166	3.12
846.906	6.12
847.646	4.12
848.386	3.12
849.125	5.12
849.865	3.12
850.605	5.12
851.344	4.12
852.083	4.12
852.823	5.12
853.562	6.12
854.301	2.12
855.04	5.12
855.779	3.12
856.518	3.12
857.257	5.12
857.995	3.12
858.734	5.12
859.473	3.12
860.211	4.12
860.95	4.12
861.688	6.12
862.426	5.12
863.165	5.12
863.903	3.12
864.641	3.12
865.379	1.12
866.117	3.12
866.855	2.12
867.593	2.12
868.33	1.12
869.068	3.12
869.806	1.12
870.543	5.12
871.28	2.12
872.018	1.12
872.755	1.12
873.492	3.12
874.229	2.12
874.967	2.12
875.703	3.12
876.44	4.12
877.177	1.12
877.914	2.12
878.651	3.12
879.387	2.12
880.124	5.12
880.86	1.12
881.597	2.12
882.333	1.12
883.069	-0.88
883.806	-0.88
884.542	2.12
885.278	2.12
886.014	-0.88
886.749	3.12
887.485	0.12
888.221	2.12
888.957	3.12
889.692	2.12
890.428	1.12
891.163	2.12
891.899	2.12
892.634	1.12
893.369	0.12
894.104	0.12
894.839	1.12
895.574	1.12
896.309	1.12
897.044	4.12
897.779	1.12
898.514	2.12
899.248	2.12
899.983	0.12
900.717	1.12
901.452	1.12
902.186	2.12
902.92	0.12
903.654	2.12
904.389	1.12
905.123	2.12
905.857	0.12
906.59	-1.88
907.324	1.12
908.058	1.12
908.792	3.12
909.525	0.12
910.259	2.12
910.992	2.12
911.726	0.12
912.459	1.12
913.192	1.12
913.925	3.12
914.658	0.12
915.391	1.12
916.124	0.12
916.857	2.12
917.59	1.12
918.323	1.12
919.055	0.12
919.788	1.12
920.521	1.12
921.253	2.12
921.985	-0.88
922.718	0.12
923.45	-1.88
924.182	2.12
924.914	1.12
925.646	1.12
926.378	3.12
927.11	0.12
927.841	0.12
928.573	1.12
929.305	2.12
930.036	0.12
930.768	-2.88
931.499	3.12
932.23	2.12
932.962	2.12
933.693	-0.88
934.424	2.12
935.155	3.12
935.886	0.12
936.617	0.12
937.348	1.12
938.078	1.12
938.809	0.12
939.54	2.12
940.27	1.12
941.001	2.12
941.731	1.12
942.461	0.12
943.191	1.12
943.922	1.12
944.652	0.12
945.382	0.12
946.112	0.12
946.841	2.12
947.571	-0.88
948.301	0.12
949.031	1.12
949.76	3.12
950.49	2.12
951.219	1.12
951.948	1.12
952.678	2.12
953.407	1.12
954.136	-0.88
954.865	2.12
955.594	1.12
956.323	0.12
957.052	-0.88
957.78	1.12
958.509	2.12
959.238	1.12
959.966	1.12
960.695	-0.88
961.423	1.12
962.151	0.12
962.88	0.12
963.608	2.12
964.336	-1.88
965.064	0.12
965.792	2.12
966.52	1.12
967.247	1.12
967.975	1.12
968.703	1.12
969.43	0.12
970.158	2.12
970.885	-1.88
971.613	2.12
972.34	2.12
973.067	1.12
973.794	0.12
974.521	1.12
975.248	1.12
975.975	-1.88
976.702	1.12
977.429	-0.88
978.156	3.12
978.882	0.12
979.609	0.12
980.335	3.12
981.062	1.12
981.788	2.12
982.514	1.12
983.24	-1.88
983.967	1.12
984.693	-1.88
985.419	-1.88
986.144	1.12
986.87	1.12
987.596	2.12
988.322	0.12
989.047	1.12
989.773	1.12
990.498	3.12
991.224	2.12
991.949	1.12
992.674	1.12
993.399	0.12
994.124	-1.88
994.849	1.12
995.574	2.12
996.299	-0.88
997.024	2.12
997.749	1.12
998.473	1.12
999.198	0.12
999.922	1.12
1000.647	0.12
1001.371	2.12
1002.095	0.12
1002.82	-1.88
1003.544	-1.88
1004.268	4.12
1004.992	3.12
1005.716	3.12
1006.439	5.12
1007.163	2.12
1007.887	3.12
1008.611	-0.88
1009.334	0.12
1010.058	1.12
1010.781	2.12
1011.504	1.12
1012.228	2.12
1012.951	-1.88
1013.674	0.12
1014.397	2.12
1015.12	1.12
