节点500_565_QEPB04081__88__09-51-54-006.txt的数据

Date: Thu Nov 13 09:51:54 CST 2025
User: PC
Spectrometer: QEPB0408
触发模式: 0
积分时间 (秒): 1.000000E-2
Scans to average: 1
启用暗噪声校正: true
启用非线性校正: false
滑动平均宽度: 0
X轴模式: Wavelengths
Number of Pixels in Spectrum: 1044
>>>>>Begin Spectral Data<<<<<
220.843	2.12
221.644	5.12
222.444	4.12
223.244	6.12
224.045	5.12
224.845	7.12
225.645	6.12
226.445	4.12
227.245	6.12
228.045	7.12
228.845	6.12
229.645	10.12
230.444	6.12
231.244	7.12
232.043	6.12
232.843	8.12
233.642	7.12
234.442	10.12
235.241	9.12
236.04	9.12
236.839	10.12
237.638	9.12
238.437	10.12
239.236	9.12
240.035	9.12
240.833	10.12
241.632	10.12
242.43	12.12
243.229	10.12
244.027	13.12
244.826	12.12
245.624	11.12
246.422	13.12
247.22	13.12
248.018	13.12
248.816	11.12
249.614	14.12
250.412	10.12
251.21	16.12
252.007	11.12
252.805	13.12
253.602	18.12
254.4	15.12
255.197	17.12
255.994	19.12
256.791	19.12
257.589	18.12
258.386	21.12
259.183	18.12
259.979	20.12
260.776	20.12
261.573	22.12
262.37	22.12
263.166	23.12
263.963	24.12
264.759	21.12
265.556	25.12
266.352	25.12
267.148	26.12
267.944	24.12
268.74	30.12
269.536	26.12
270.332	27.12
271.128	28.12
271.924	29.12
272.719	29.12
273.515	29.12
274.311	29.12
275.106	31.12
275.901	32.12
276.697	28.12
277.492	28.12
278.287	31.12
279.082	34.12
279.877	31.12
280.672	33.12
281.467	33.12
282.262	33.12
283.056	33.12
283.851	30.12
284.646	32.12
285.44	30.12
286.234	28.12
287.029	30.12
287.823	31.12
288.617	32.12
289.411	32.12
290.205	31.12
290.999	30.12
291.793	29.12
292.587	30.12
293.381	27.12
294.174	27.12
294.968	26.12
295.761	26.12
296.555	20.12
297.348	25.12
298.141	25.12
298.935	25.12
299.728	22.12
300.521	22.12
301.314	22.12
302.107	20.12
302.899	19.12
303.692	17.12
304.485	21.12
305.277	21.12
306.07	18.12
306.862	20.12
307.655	20.12
308.447	18.12
309.239	20.12
310.031	18.12
310.823	16.12
311.615	17.12
312.407	19.12
313.199	14.12
313.991	15.12
314.783	15.12
315.574	14.12
316.366	14.12
317.157	14.12
317.949	14.12
318.74	13.12
319.531	13.12
320.322	15.12
321.113	12.12
321.904	13.12
322.695	13.12
323.486	12.12
324.277	9.12
325.068	14.12
325.858	14.12
326.649	12.12
327.439	11.12
328.23	12.12
329.02	14.12
329.81	11.12
330.6	12.12
331.391	11.12
332.181	12.12
332.971	11.12
333.76	11.12
334.55	15.12
335.34	9.12
336.13	14.12
336.919	11.12
337.709	13.12
338.498	11.12
339.287	9.12
340.077	12.12
340.866	9.12
341.655	11.12
342.444	10.12
343.233	12.12
344.022	7.12
344.811	9.12
345.6	9.12
346.388	9.12
347.177	14.12
347.965	11.12
348.754	9.12
349.542	12.12
350.33	10.12
351.119	12.12
351.907	11.12
352.695	11.12
353.483	10.12
354.271	8.12
355.059	10.12
355.846	9.12
356.634	10.12
357.422	8.12
358.209	11.12
358.997	9.12
359.784	10.12
360.571	7.12
361.359	10.12
362.146	9.12
362.933	9.12
363.72	8.12
364.507	8.12
365.294	9.12
366.081	8.12
366.867	8.12
367.654	11.12
368.44	7.12
369.227	9.12
370.013	8.12
370.8	10.12
371.586	10.12
372.372	8.12
373.158	8.12
373.944	7.12
374.73	7.12
375.516	11.12
376.302	9.12
377.088	9.12
377.873	9.12
378.659	13.12
379.445	7.12
380.23	11.12
381.015	10.12
381.801	11.12
382.586	9.12
383.371	8.12
384.156	11.12
384.941	9.12
385.726	11.12
386.511	8.12
387.296	10.12
388.08	11.12
388.865	10.12
389.649	9.12
390.434	12.12
391.218	9.12
392.003	12.12
392.787	11.12
393.571	10.12
394.355	10.12
395.139	10.12
395.923	13.12
396.707	11.12
397.491	11.12
398.274	12.12
399.058	12.12
399.842	13.12
400.625	14.12
401.408	11.12
402.192	13.12
402.975	14.12
403.758	13.12
404.541	10.12
405.324	14.12
406.107	15.12
406.89	13.12
407.673	15.12
408.456	15.12
409.238	14.12
410.021	15.12
410.803	13.12
411.586	15.12
412.368	14.12
413.151	17.12
413.933	17.12
414.715	14.12
415.497	17.12
416.279	14.12
417.061	17.12
417.843	18.12
418.624	16.12
419.406	20.12
420.188	19.12
420.969	20.12
421.751	18.12
422.532	19.12
423.313	23.12
424.095	21.12
424.876	23.12
425.657	21.12
426.438	24.12
427.219	25.12
428	22.12
428.78	23.12
429.561	22.12
430.342	25.12
431.122	28.12
431.903	27.12
432.683	27.12
433.464	30.12
434.244	33.12
435.024	33.12
435.804	33.12
436.584	34.12
437.364	36.12
438.144	38.12
438.924	42.12
439.704	42.12
440.483	47.12
441.263	46.12
442.042	48.12
442.822	52.12
443.601	59.12
444.38	61.12
445.16	62.12
445.939	73.12
446.718	77.12
447.497	84.12
448.276	86.12
449.054	95.12
449.833	101.12
450.612	115.12
451.391	129.12
452.169	135.12
452.948	152.12
453.726	160.12
454.504	187.12
455.282	202.12
456.061	233.12
456.839	252.12
457.617	286.12
458.395	312.12
459.172	348.12
459.95	389.12
460.728	439.12
461.506	489.12
462.283	552.12
463.061	610.12
463.838	687.12
464.615	771.12
465.393	862.12
466.17	942.12
466.947	1069.12
467.724	1187.12
468.501	1325.12
469.278	1487.12
470.055	1649.12
470.831	1824.12
471.608	2046.12
472.385	2278.12
473.161	2515.12
473.938	2775.12
474.714	3064.12
475.49	3384.12
476.266	3730.12
477.043	4136.12
477.819	4563.12
478.595	5003.12
479.371	5507.12
480.146	6056.12
480.922	6697.12
481.698	7360.12
482.473	8041.12
483.249	8739.12
484.024	9600.12
484.8	10575.12
485.575	11538.12
486.35	12607.12
487.126	13700.12
487.901	14937.12
488.676	16263.12
489.451	17638.12
490.225	19120.12
491	20687.12
491.775	22248.12
492.55	23998.12
493.324	25643.12
494.099	27393.12
494.873	29157.12
495.647	31086.12
496.422	32923.12
497.196	34577.12
497.97	36202.12
498.744	37661.12
499.518	39081.12
500.292	40395.12
501.066	41581.12
501.839	42511.12
502.613	43242.12
503.387	43727.12
504.16	44087.12
504.934	44108.12
505.707	43793.12
506.48	43362.12
507.253	42738.12
508.027	41842.12
508.8	40771.12
509.573	39582.12
510.346	38395.12
511.118	37032.12
511.891	35840.12
512.664	34533.12
513.437	33033.12
514.209	31570.12
514.982	30277.12
515.754	29082.12
516.526	27824.12
517.298	26513.12
518.071	25491.12
518.843	24488.12
519.615	23397.12
520.387	22504.12
521.159	21643.12
521.93	20733.12
522.702	19899.12
523.474	19052.12
524.245	18276.12
525.017	17549.12
525.788	16732.12
526.56	15909.12
527.331	15114.12
528.102	14456.12
528.873	13681.12
529.644	13036.12
530.415	12300.12
531.186	11672.12
531.957	11048.12
532.728	10450.12
533.498	9902.12
534.269	9335.12
535.039	8780.12
535.81	8377.12
536.58	7902.12
537.351	7476.12
538.121	7048.12
538.891	6669.12
539.661	6333.12
540.431	5994.12
541.201	5649.12
541.971	5379.12
542.741	5085.12
543.51	4787.12
544.28	4576.12
545.05	4360.12
545.819	4146.12
546.588	3914.12
547.358	3734.12
548.127	3553.12
548.896	3355.12
549.665	3194.12
550.434	3034.12
551.203	2870.12
551.972	2718.12
552.741	2569.12
553.51	2424.12
554.278	2293.12
555.047	2138.12
555.815	2046.12
556.584	1927.12
557.352	1826.12
558.121	1721.12
558.889	1630.12
559.657	1527.12
560.425	1454.12
561.193	1369.12
561.961	1281.12
562.729	1217.12
563.496	1167.12
564.264	1090.12
565.032	1032.12
565.799	983.12
566.567	927.12
567.334	885.12
568.101	823.12
568.869	777.12
569.636	748.12
570.403	698.12
571.17	663.12
571.937	625.12
572.704	590.12
573.471	556.12
574.237	522.12
575.004	496.12
575.771	466.12
576.537	444.12
577.303	416.12
578.07	390.12
578.836	368.12
579.602	348.12
580.368	327.12
581.134	301.12
581.9	299.12
582.666	282.12
583.432	270.12
584.198	251.12
584.964	243.12
585.729	233.12
586.495	217.12
587.26	202.12
588.025	198.12
588.791	187.12
589.556	175.12
590.321	163.12
591.086	159.12
591.851	151.12
592.616	143.12
593.381	134.12
594.146	137.12
594.911	123.12
595.675	119.12
596.44	111.12
597.204	110.12
597.969	104.12
598.733	97.12
599.497	97.12
600.261	88.12
601.025	89.12
601.79	84.12
602.553	82.12
603.317	81.12
604.081	77.12
604.845	72.12
605.609	70.12
606.372	68.12
607.136	62.12
607.899	61.12
608.662	59.12
609.426	55.12
610.189	56.12
610.952	56.12
611.715	50.12
612.478	50.12
613.241	48.12
614.004	47.12
614.767	44.12
615.529	41.12
616.292	43.12
617.055	39.12
617.817	39.12
618.579	37.12
619.342	35.12
620.104	33.12
620.866	33.12
621.628	32.12
622.39	32.12
623.152	31.12
623.914	31.12
624.676	30.12
625.438	28.12
626.199	25.12
626.961	26.12
627.722	25.12
628.484	25.12
629.245	22.12
630.006	21.12
630.768	22.12
631.529	20.12
632.29	21.12
633.051	23.12
633.812	17.12
634.573	19.12
635.333	20.12
636.094	22.12
636.855	19.12
637.615	17.12
638.376	17.12
639.136	18.12
639.896	16.12
640.657	16.12
641.417	14.12
642.177	16.12
642.937	16.12
643.697	15.12
644.457	15.12
645.216	14.12
645.976	14.12
646.736	13.12
647.495	12.12
648.255	11.12
649.014	15.12
649.774	15.12
650.533	11.12
651.292	17.12
652.051	12.12
652.81	10.12
653.569	12.12
654.328	11.12
655.087	10.12
655.846	10.12
656.604	12.12
657.363	11.12
658.121	12.12
658.88	11.12
659.638	10.12
660.397	7.12
661.155	11.12
661.913	9.12
662.671	10.12
663.429	13.12
664.187	6.12
664.945	11.12
665.703	9.12
666.46	11.12
667.218	11.12
667.976	8.12
668.733	9.12
669.49	10.12
670.248	9.12
671.005	8.12
671.762	9.12
672.519	9.12
673.276	9.12
674.033	10.12
674.79	8.12
675.547	9.12
676.304	9.12
677.06	8.12
677.817	9.12
678.574	9.12
679.33	9.12
680.086	9.12
680.843	9.12
681.599	11.12
682.355	9.12
683.111	8.12
683.867	6.12
684.623	9.12
685.379	4.12
686.135	8.12
686.89	6.12
687.646	10.12
688.402	9.12
689.157	7.12
689.912	7.12
690.668	7.12
691.423	8.12
692.178	6.12
692.933	9.12
693.688	6.12
694.443	7.12
695.198	5.12
695.953	8.12
696.708	9.12
697.462	7.12
698.217	9.12
698.972	7.12
699.726	8.12
700.48	6.12
701.235	6.12
701.989	8.12
702.743	7.12
703.497	5.12
704.251	7.12
705.005	7.12
705.759	7.12
706.513	8.12
707.266	7.12
708.02	6.12
708.774	9.12
709.527	6.12
710.28	7.12
711.034	9.12
711.787	7.12
712.54	7.12
713.293	7.12
714.046	7.12
714.799	7.12
715.552	4.12
716.305	7.12
717.058	6.12
717.81	8.12
718.563	8.12
719.315	9.12
720.068	7.12
720.82	7.12
721.573	8.12
722.325	7.12
723.077	7.12
723.829	8.12
724.581	8.12
725.333	8.12
726.085	8.12
726.836	9.12
727.588	7.12
728.34	5.12
729.091	7.12
729.843	11.12
730.594	9.12
731.346	8.12
732.097	9.12
732.848	8.12
733.599	10.12
734.35	10.12
735.101	9.12
735.852	9.12
736.603	9.12
737.354	8.12
738.104	7.12
738.855	11.12
739.605	7.12
740.356	11.12
741.106	11.12
741.856	9.12
742.607	10.12
743.357	8.12
744.107	12.12
744.857	10.12
745.607	9.12
746.357	9.12
747.106	9.12
747.856	9.12
748.606	11.12
749.355	11.12
750.105	11.12
750.854	9.12
751.603	11.12
752.353	12.12
753.102	12.12
753.851	8.12
754.6	8.12
755.349	12.12
756.098	12.12
756.847	12.12
757.595	10.12
758.344	13.12
759.093	13.12
759.841	13.12
760.589	11.12
761.338	10.12
762.086	12.12
762.834	14.12
763.582	10.12
764.331	14.12
765.079	11.12
765.826	14.12
766.574	11.12
767.322	12.12
768.07	12.12
768.817	14.12
769.565	13.12
770.312	15.12
771.06	16.12
771.807	17.12
772.554	14.12
773.302	14.12
774.049	12.12
774.796	15.12
775.543	15.12
776.29	14.12
777.036	18.12
777.783	16.12
778.53	13.12
779.276	14.12
780.023	15.12
780.769	14.12
781.516	14.12
782.262	14.12
783.008	17.12
783.754	14.12
784.5	13.12
785.246	13.12
785.992	14.12
786.738	14.12
787.484	15.12
788.23	11.12
788.975	14.12
789.721	17.12
790.466	13.12
791.212	12.12
791.957	14.12
792.702	16.12
793.447	14.12
794.193	13.12
794.938	13.12
795.683	13.12
796.427	12.12
797.172	9.12
797.917	14.12
798.662	12.12
799.406	12.12
800.151	14.12
800.895	11.12
801.64	12.12
802.384	9.12
803.128	12.12
803.872	10.12
804.616	8.12
805.36	11.12
806.104	10.12
806.848	10.12
807.592	9.12
808.336	10.12
809.079	10.12
809.823	9.12
810.566	10.12
811.31	9.12
812.053	9.12
812.796	9.12
813.539	8.12
814.283	9.12
815.026	10.12
815.769	8.12
816.511	13.12
817.254	9.12
817.997	10.12
818.74	8.12
819.482	6.12
820.225	5.12
820.967	7.12
821.71	6.12
822.452	10.12
823.194	5.12
823.936	9.12
824.678	7.12
825.42	5.12
826.162	9.12
826.904	5.12
827.646	8.12
828.388	7.12
829.129	8.12
829.871	7.12
830.612	7.12
831.354	6.12
832.095	6.12
832.836	9.12
833.577	3.12
834.319	6.12
835.06	4.12
835.801	6.12
836.542	7.12
837.282	7.12
838.023	6.12
838.764	4.12
839.504	7.12
840.245	5.12
840.985	4.12
841.726	5.12
842.466	5.12
843.206	6.12
843.946	2.12
844.687	5.12
845.427	5.12
846.166	4.12
846.906	5.12
847.646	5.12
848.386	6.12
849.125	8.12
849.865	3.12
850.605	4.12
851.344	3.12
852.083	7.12
852.823	6.12
853.562	5.12
854.301	4.12
855.04	4.12
855.779	3.12
856.518	4.12
857.257	2.12
857.995	3.12
858.734	6.12
859.473	3.12
860.211	6.12
860.95	3.12
861.688	4.12
862.426	4.12
863.165	4.12
863.903	1.12
864.641	0.12
865.379	2.12
866.117	3.12
866.855	1.12
867.593	1.12
868.33	1.12
869.068	5.12
869.806	2.12
870.543	2.12
871.28	3.12
872.018	1.12
872.755	3.12
873.492	4.12
874.229	3.12
874.967	3.12
875.703	3.12
876.44	4.12
877.177	2.12
877.914	1.12
878.651	3.12
879.387	1.12
880.124	1.12
880.86	3.12
881.597	1.12
882.333	4.12
883.069	1.12
883.806	1.12
884.542	4.12
885.278	1.12
886.014	4.12
886.749	4.12
887.485	4.12
888.221	3.12
888.957	1.12
889.692	1.12
890.428	2.12
891.163	2.12
891.899	-1.88
892.634	1.12
893.369	3.12
894.104	2.12
894.839	2.12
895.574	1.12
896.309	2.12
897.044	1.12
897.779	2.12
898.514	2.12
899.248	0.12
899.983	4.12
900.717	1.12
901.452	2.12
902.186	0.12
902.92	4.12
903.654	1.12
904.389	2.12
905.123	2.12
905.857	0.12
906.59	4.12
907.324	2.12
908.058	4.12
908.792	0.12
909.525	2.12
910.259	1.12
910.992	1.12
911.726	1.12
912.459	-1.88
913.192	3.12
913.925	2.12
914.658	3.12
915.391	0.12
916.124	1.12
916.857	2.12
917.59	2.12
918.323	2.12
919.055	1.12
919.788	1.12
920.521	0.12
921.253	1.12
921.985	1.12
922.718	1.12
923.45	0.12
924.182	2.12
924.914	-1.88
925.646	2.12
926.378	0.12
927.11	2.12
927.841	0.12
928.573	3.12
929.305	2.12
930.036	1.12
930.768	2.12
931.499	1.12
932.23	1.12
932.962	1.12
933.693	-0.88
934.424	1.12
935.155	3.12
935.886	0.12
936.617	1.12
937.348	0.12
938.078	0.12
938.809	1.12
939.54	1.12
940.27	1.12
941.001	1.12
941.731	0.12
942.461	1.12
943.191	0.12
943.922	3.12
944.652	3.12
945.382	2.12
946.112	0.12
946.841	1.12
947.571	4.12
948.301	1.12
949.031	0.12
949.76	-0.88
950.49	1.12
951.219	-0.88
951.948	1.12
952.678	0.12
953.407	0.12
954.136	1.12
954.865	1.12
955.594	1.12
956.323	2.12
957.052	0.12
957.78	2.12
958.509	1.12
959.238	1.12
959.966	-0.88
960.695	0.12
961.423	2.12
962.151	-0.88
962.88	2.12
963.608	2.12
964.336	-0.88
965.064	1.12
965.792	1.12
966.52	1.12
967.247	-0.88
967.975	0.12
968.703	0.12
969.43	0.12
970.158	2.12
970.885	2.12
971.613	1.12
972.34	1.12
973.067	0.12
973.794	0.12
974.521	1.12
975.248	0.12
975.975	1.12
976.702	1.12
977.429	2.12
978.156	-0.88
978.882	-1.88
979.609	2.12
980.335	0.12
981.062	1.12
981.788	2.12
982.514	1.12
983.24	1.12
983.967	1.12
984.693	2.12
985.419	1.12
986.144	3.12
986.87	3.12
987.596	2.12
988.322	1.12
989.047	2.12
989.773	1.12
990.498	2.12
991.224	2.12
991.949	2.12
992.674	1.12
993.399	1.12
994.124	-0.88
994.849	0.12
995.574	0.12
996.299	3.12
997.024	2.12
997.749	1.12
998.473	1.12
999.198	0.12
999.922	2.12
1000.647	0.12
1001.371	3.12
1002.095	0.12
1002.82	-0.88
1003.544	-1.88
1004.268	4.12
1004.992	2.12
1005.716	6.12
1006.439	3.12
1007.163	3.12
1007.887	7.12
1008.611	2.12
1009.334	0.12
1010.058	2.12
1010.781	0.12
1011.504	2.12
1012.228	1.12
1012.951	-0.88
1013.674	0.12
1014.397	1.12
1015.12	-0.88
