节点500_565_QEPB04081__308__09-55-32-498.txt的数据

Date: Thu Nov 13 09:55:32 CST 2025
User: PC
Spectrometer: QEPB0408
触发模式: 0
积分时间 (秒): 1.000000E-2
Scans to average: 1
启用暗噪声校正: true
启用非线性校正: false
滑动平均宽度: 0
X轴模式: Wavelengths
Number of Pixels in Spectrum: 1044
>>>>>Begin Spectral Data<<<<<
220.843	6.25
221.644	5.25
222.444	5.25
223.244	5.25
224.045	5.25
224.845	6.25
225.645	6.25
226.445	7.25
227.245	5.25
228.045	7.25
228.845	7.25
229.645	6.25
230.444	10.25
231.244	8.25
232.043	5.25
232.843	9.25
233.642	8.25
234.442	6.25
235.241	7.25
236.04	7.25
236.839	7.25
237.638	10.25
238.437	8.25
239.236	8.25
240.035	9.25
240.833	8.25
241.632	11.25
242.43	9.25
243.229	9.25
244.027	11.25
244.826	12.25
245.624	9.25
246.422	10.25
247.22	10.25
248.018	12.25
248.816	12.25
249.614	11.25
250.412	12.25
251.21	13.25
252.007	13.25
252.805	17.25
253.602	15.25
254.4	15.25
255.197	17.25
255.994	16.25
256.791	13.25
257.589	17.25
258.386	18.25
259.183	17.25
259.979	17.25
260.776	18.25
261.573	17.25
262.37	19.25
263.166	21.25
263.963	20.25
264.759	19.25
265.556	22.25
266.352	21.25
267.148	21.25
267.944	23.25
268.74	23.25
269.536	26.25
270.332	25.25
271.128	27.25
271.924	26.25
272.719	23.25
273.515	29.25
274.311	26.25
275.106	31.25
275.901	29.25
276.697	31.25
277.492	30.25
278.287	27.25
279.082	31.25
279.877	25.25
280.672	29.25
281.467	29.25
282.262	31.25
283.056	32.25
283.851	26.25
284.646	28.25
285.44	28.25
286.234	28.25
287.029	28.25
287.823	29.25
288.617	28.25
289.411	29.25
290.205	27.25
290.999	27.25
291.793	28.25
292.587	27.25
293.381	27.25
294.174	27.25
294.968	25.25
295.761	25.25
296.555	23.25
297.348	23.25
298.141	22.25
298.935	24.25
299.728	24.25
300.521	23.25
301.314	21.25
302.107	21.25
302.899	22.25
303.692	19.25
304.485	19.25
305.277	20.25
306.07	22.25
306.862	21.25
307.655	21.25
308.447	20.25
309.239	19.25
310.031	21.25
310.823	15.25
311.615	17.25
312.407	15.25
313.199	15.25
313.991	17.25
314.783	12.25
315.574	17.25
316.366	17.25
317.157	12.25
317.949	13.25
318.74	12.25
319.531	15.25
320.322	13.25
321.113	14.25
321.904	13.25
322.695	13.25
323.486	13.25
324.277	12.25
325.068	15.25
325.858	11.25
326.649	11.25
327.439	11.25
328.23	12.25
329.02	11.25
329.81	11.25
330.6	12.25
331.391	10.25
332.181	10.25
332.971	10.25
333.76	13.25
334.55	13.25
335.34	11.25
336.13	12.25
336.919	9.25
337.709	12.25
338.498	10.25
339.287	9.25
340.077	9.25
340.866	10.25
341.655	11.25
342.444	11.25
343.233	9.25
344.022	11.25
344.811	9.25
345.6	9.25
346.388	9.25
347.177	12.25
347.965	9.25
348.754	12.25
349.542	10.25
350.33	13.25
351.119	9.25
351.907	9.25
352.695	10.25
353.483	7.25
354.271	9.25
355.059	7.25
355.846	11.25
356.634	9.25
357.422	11.25
358.209	10.25
358.997	10.25
359.784	9.25
360.571	10.25
361.359	10.25
362.146	9.25
362.933	10.25
363.72	10.25
364.507	9.25
365.294	9.25
366.081	12.25
366.867	9.25
367.654	8.25
368.44	10.25
369.227	8.25
370.013	7.25
370.8	8.25
371.586	7.25
372.372	7.25
373.158	8.25
373.944	10.25
374.73	7.25
375.516	9.25
376.302	10.25
377.088	7.25
377.873	8.25
378.659	6.25
379.445	9.25
380.23	7.25
381.015	9.25
381.801	7.25
382.586	9.25
383.371	9.25
384.156	10.25
384.941	9.25
385.726	8.25
386.511	10.25
387.296	10.25
388.08	10.25
388.865	9.25
389.649	9.25
390.434	11.25
391.218	9.25
392.003	12.25
392.787	10.25
393.571	11.25
394.355	10.25
395.139	9.25
395.923	11.25
396.707	9.25
397.491	11.25
398.274	12.25
399.058	12.25
399.842	11.25
400.625	9.25
401.408	13.25
402.192	13.25
402.975	11.25
403.758	14.25
404.541	12.25
405.324	12.25
406.107	12.25
406.89	14.25
407.673	11.25
408.456	13.25
409.238	13.25
410.021	14.25
410.803	13.25
411.586	12.25
412.368	18.25
413.151	14.25
413.933	18.25
414.715	13.25
415.497	18.25
416.279	16.25
417.061	17.25
417.843	17.25
418.624	16.25
419.406	15.25
420.188	17.25
420.969	17.25
421.751	19.25
422.532	18.25
423.313	18.25
424.095	19.25
424.876	19.25
425.657	20.25
426.438	22.25
427.219	21.25
428	23.25
428.78	23.25
429.561	23.25
430.342	26.25
431.122	26.25
431.903	26.25
432.683	30.25
433.464	29.25
434.244	30.25
435.024	32.25
435.804	30.25
436.584	32.25
437.364	37.25
438.144	38.25
438.924	39.25
439.704	38.25
440.483	49.25
441.263	50.25
442.042	50.25
442.822	57.25
443.601	60.25
444.38	62.25
445.16	67.25
445.939	72.25
446.718	80.25
447.497	86.25
448.276	94.25
449.054	105.25
449.833	114.25
450.612	122.25
451.391	138.25
452.169	147.25
452.948	159.25
453.726	177.25
454.504	198.25
455.282	224.25
456.061	251.25
456.839	266.25
457.617	301.25
458.395	337.25
459.172	374.25
459.95	424.25
460.728	474.25
461.506	519.25
462.283	583.25
463.061	649.25
463.838	721.25
464.615	812.25
465.393	891.25
466.17	1011.25
466.947	1105.25
467.724	1249.25
468.501	1374.25
469.278	1527.25
470.055	1685.25
470.831	1873.25
471.608	2081.25
472.385	2293.25
473.161	2531.25
473.938	2797.25
474.714	3050.25
475.49	3358.25
476.266	3686.25
477.043	4064.25
477.819	4466.25
478.595	4870.25
479.371	5304.25
480.146	5813.25
480.922	6355.25
481.698	6958.25
482.473	7611.25
483.249	8249.25
484.024	9028.25
484.8	9810.25
485.575	10681.25
486.35	11578.25
487.126	12575.25
487.901	13624.25
488.676	14772.25
489.451	16002.25
490.225	17267.25
491	18599.25
491.775	20018.25
492.55	21461.25
493.324	22935.25
494.099	24494.25
494.873	26102.25
495.647	27711.25
496.422	29429.25
497.196	30988.25
497.97	32550.25
498.744	33904.25
499.518	35236.25
500.292	36580.25
501.066	37785.25
501.839	38850.25
502.613	39680.25
503.387	40353.25
504.16	40931.25
504.934	41211.25
505.707	41189.25
506.48	41095.25
507.253	40827.25
508.027	40146.25
508.8	39508.25
509.573	38558.25
510.346	37671.25
511.118	36517.25
511.891	35543.25
512.664	34323.25
513.437	33068.25
514.209	31768.25
514.982	30619.25
515.754	29395.25
516.526	28194.25
517.298	26975.25
518.071	25886.25
518.843	24860.25
519.615	23800.25
520.387	22936.25
521.159	22046.25
521.93	21155.25
522.702	20222.25
523.474	19427.25
524.245	18604.25
525.017	17895.25
525.788	17052.25
526.56	16281.25
527.331	15540.25
528.102	14919.25
528.873	14133.25
529.644	13447.25
530.415	12760.25
531.186	12099.25
531.957	11533.25
532.728	10961.25
533.498	10372.25
534.269	9793.25
535.039	9237.25
535.81	8794.25
536.58	8318.25
537.351	7856.25
538.121	7393.25
538.891	7054.25
539.661	6662.25
540.431	6317.25
541.201	5956.25
541.971	5670.25
542.741	5358.25
543.51	5061.25
544.28	4830.25
545.05	4602.25
545.819	4364.25
546.588	4154.25
547.358	3928.25
548.127	3735.25
548.896	3590.25
549.665	3373.25
550.434	3199.25
551.203	3040.25
551.972	2879.25
552.741	2729.25
553.51	2582.25
554.278	2444.25
555.047	2298.25
555.815	2194.25
556.584	2055.25
557.352	1966.25
558.121	1847.25
558.889	1737.25
559.657	1633.25
560.425	1555.25
561.193	1459.25
561.961	1387.25
562.729	1316.25
563.496	1246.25
564.264	1166.25
565.032	1108.25
565.799	1041.25
566.567	995.25
567.334	935.25
568.101	880.25
568.869	839.25
569.636	794.25
570.403	753.25
571.17	701.25
571.937	653.25
572.704	625.25
573.471	592.25
574.237	555.25
575.004	530.25
575.771	497.25
576.537	471.25
577.303	448.25
578.07	417.25
578.836	395.25
579.602	374.25
580.368	345.25
581.134	335.25
581.9	321.25
582.666	297.25
583.432	290.25
584.198	269.25
584.964	262.25
585.729	244.25
586.495	227.25
587.26	217.25
588.025	211.25
588.791	197.25
589.556	192.25
590.321	182.25
591.086	173.25
591.851	157.25
592.616	156.25
593.381	142.25
594.146	137.25
594.911	135.25
595.675	127.25
596.44	124.25
597.204	111.25
597.969	113.25
598.733	109.25
599.497	99.25
600.261	96.25
601.025	93.25
601.79	90.25
602.553	81.25
603.317	80.25
604.081	76.25
604.845	78.25
605.609	74.25
606.372	72.25
607.136	71.25
607.899	67.25
608.662	62.25
609.426	61.25
610.189	55.25
610.952	51.25
611.715	52.25
612.478	51.25
613.241	49.25
614.004	49.25
614.767	46.25
615.529	43.25
616.292	41.25
617.055	42.25
617.817	41.25
618.579	38.25
619.342	38.25
620.104	39.25
620.866	37.25
621.628	36.25
622.39	32.25
623.152	32.25
623.914	31.25
624.676	32.25
625.438	30.25
626.199	30.25
626.961	25.25
627.722	26.25
628.484	25.25
629.245	23.25
630.006	22.25
630.768	24.25
631.529	25.25
632.29	22.25
633.051	20.25
633.812	23.25
634.573	21.25
635.333	19.25
636.094	18.25
636.855	16.25
637.615	16.25
638.376	17.25
639.136	20.25
639.896	17.25
640.657	17.25
641.417	17.25
642.177	15.25
642.937	16.25
643.697	15.25
644.457	17.25
645.216	12.25
645.976	14.25
646.736	12.25
647.495	14.25
648.255	11.25
649.014	15.25
649.774	11.25
650.533	12.25
651.292	10.25
652.051	10.25
652.81	12.25
653.569	12.25
654.328	12.25
655.087	11.25
655.846	13.25
656.604	13.25
657.363	12.25
658.121	12.25
658.88	7.25
659.638	9.25
660.397	9.25
661.155	10.25
661.913	11.25
662.671	10.25
663.429	10.25
664.187	10.25
664.945	8.25
665.703	9.25
666.46	7.25
667.218	6.25
667.976	8.25
668.733	9.25
669.49	9.25
670.248	10.25
671.005	7.25
671.762	8.25
672.519	9.25
673.276	5.25
674.033	8.25
674.79	7.25
675.547	8.25
676.304	8.25
677.06	8.25
677.817	7.25
678.574	8.25
679.33	9.25
680.086	6.25
680.843	6.25
681.599	10.25
682.355	9.25
683.111	9.25
683.867	7.25
684.623	7.25
685.379	7.25
686.135	9.25
686.89	5.25
687.646	7.25
688.402	7.25
689.157	7.25
689.912	7.25
690.668	6.25
691.423	6.25
692.178	9.25
692.933	5.25
693.688	9.25
694.443	8.25
695.198	7.25
695.953	5.25
696.708	7.25
697.462	7.25
698.217	8.25
698.972	7.25
699.726	8.25
700.48	5.25
701.235	7.25
701.989	6.25
702.743	3.25
703.497	5.25
704.251	6.25
705.005	8.25
705.759	8.25
706.513	5.25
707.266	7.25
708.02	7.25
708.774	6.25
709.527	7.25
710.28	8.25
711.034	6.25
711.787	7.25
712.54	7.25
713.293	5.25
714.046	7.25
714.799	7.25
715.552	5.25
716.305	6.25
717.058	5.25
717.81	9.25
718.563	7.25
719.315	8.25
720.068	5.25
720.82	8.25
721.573	6.25
722.325	5.25
723.077	4.25
723.829	6.25
724.581	6.25
725.333	7.25
726.085	7.25
726.836	4.25
727.588	5.25
728.34	7.25
729.091	7.25
729.843	8.25
730.594	7.25
731.346	7.25
732.097	9.25
732.848	9.25
733.599	9.25
734.35	7.25
735.101	9.25
735.852	8.25
736.603	8.25
737.354	9.25
738.104	7.25
738.855	11.25
739.605	9.25
740.356	7.25
741.106	7.25
741.856	11.25
742.607	7.25
743.357	10.25
744.107	7.25
744.857	9.25
745.607	9.25
746.357	6.25
747.106	11.25
747.856	7.25
748.606	8.25
749.355	10.25
750.105	9.25
750.854	9.25
751.603	10.25
752.353	7.25
753.102	13.25
753.851	11.25
754.6	9.25
755.349	9.25
756.098	10.25
756.847	11.25
757.595	9.25
758.344	10.25
759.093	12.25
759.841	15.25
760.589	11.25
761.338	11.25
762.086	9.25
762.834	11.25
763.582	10.25
764.331	12.25
765.079	12.25
765.826	11.25
766.574	10.25
767.322	11.25
768.07	10.25
768.817	11.25
769.565	12.25
770.312	13.25
771.06	12.25
771.807	15.25
772.554	10.25
773.302	14.25
774.049	12.25
774.796	15.25
775.543	13.25
776.29	13.25
777.036	15.25
777.783	13.25
778.53	16.25
779.276	13.25
780.023	12.25
780.769	13.25
781.516	13.25
782.262	15.25
783.008	14.25
783.754	16.25
784.5	13.25
785.246	14.25
785.992	13.25
786.738	13.25
787.484	16.25
788.23	13.25
788.975	13.25
789.721	14.25
790.466	13.25
791.212	14.25
791.957	12.25
792.702	15.25
793.447	14.25
794.193	11.25
794.938	13.25
795.683	15.25
796.427	14.25
797.172	11.25
797.917	12.25
798.662	11.25
799.406	13.25
800.151	12.25
800.895	11.25
801.64	13.25
802.384	12.25
803.128	10.25
803.872	9.25
804.616	9.25
805.36	8.25
806.104	10.25
806.848	10.25
807.592	9.25
808.336	9.25
809.079	10.25
809.823	9.25
810.566	7.25
811.31	10.25
812.053	9.25
812.796	8.25
813.539	8.25
814.283	6.25
815.026	8.25
815.769	6.25
816.511	9.25
817.254	7.25
817.997	5.25
818.74	7.25
819.482	5.25
820.225	7.25
820.967	7.25
821.71	7.25
822.452	7.25
823.194	6.25
823.936	6.25
824.678	7.25
825.42	4.25
826.162	8.25
826.904	7.25
827.646	5.25
828.388	6.25
829.129	6.25
829.871	5.25
830.612	5.25
831.354	8.25
832.095	4.25
832.836	6.25
833.577	4.25
834.319	7.25
835.06	4.25
835.801	7.25
836.542	5.25
837.282	7.25
838.023	4.25
838.764	7.25
839.504	8.25
840.245	7.25
840.985	4.25
841.726	5.25
842.466	4.25
843.206	5.25
843.946	4.25
844.687	4.25
845.427	6.25
846.166	5.25
846.906	3.25
847.646	4.25
848.386	2.25
849.125	6.25
849.865	4.25
850.605	6.25
851.344	2.25
852.083	7.25
852.823	5.25
853.562	4.25
854.301	4.25
855.04	4.25
855.779	6.25
856.518	4.25
857.257	3.25
857.995	3.25
858.734	2.25
859.473	3.25
860.211	4.25
860.95	4.25
861.688	2.25
862.426	4.25
863.165	3.25
863.903	1.25
864.641	3.25
865.379	3.25
866.117	2.25
866.855	5.25
867.593	2.25
868.33	4.25
869.068	2.25
869.806	3.25
870.543	0.25
871.28	5.25
872.018	4.25
872.755	2.25
873.492	3.25
874.229	3.25
874.967	2.25
875.703	4.25
876.44	4.25
877.177	2.25
877.914	1.25
878.651	1.25
879.387	1.25
880.124	2.25
880.86	4.25
881.597	2.25
882.333	1.25
883.069	0.25
883.806	1.25
884.542	1.25
885.278	1.25
886.014	3.25
886.749	3.25
887.485	3.25
888.221	1.25
888.957	1.25
889.692	2.25
890.428	0.25
891.163	1.25
891.899	3.25
892.634	1.25
893.369	1.25
894.104	3.25
894.839	2.25
895.574	2.25
896.309	1.25
897.044	3.25
897.779	2.25
898.514	3.25
899.248	3.25
899.983	0.25
900.717	2.25
901.452	-1.75
902.186	1.25
902.92	1.25
903.654	0.25
904.389	2.25
905.123	2.25
905.857	1.25
906.59	3.25
907.324	2.25
908.058	1.25
908.792	2.25
909.525	2.25
910.259	1.25
910.992	2.25
911.726	0.25
912.459	1.25
913.192	1.25
913.925	0.25
914.658	1.25
915.391	0.25
916.124	1.25
916.857	0.25
917.59	3.25
918.323	0.25
919.055	1.25
919.788	1.25
920.521	1.25
921.253	2.25
921.985	1.25
922.718	2.25
923.45	2.25
924.182	2.25
924.914	3.25
925.646	-0.75
926.378	2.25
927.11	-0.75
927.841	2.25
928.573	-0.75
929.305	2.25
930.036	1.25
930.768	1.25
931.499	2.25
932.23	1.25
932.962	1.25
933.693	0.25
934.424	1.25
935.155	1.25
935.886	1.25
936.617	-0.75
937.348	-0.75
938.078	2.25
938.809	1.25
939.54	1.25
940.27	0.25
941.001	0.25
941.731	0.25
942.461	0.25
943.191	1.25
943.922	0.25
944.652	3.25
945.382	4.25
946.112	0.25
946.841	2.25
947.571	1.25
948.301	2.25
949.031	1.25
949.76	1.25
950.49	-0.75
951.219	0.25
951.948	1.25
952.678	1.25
953.407	2.25
954.136	-0.75
954.865	2.25
955.594	-1.75
956.323	1.25
957.052	1.25
957.78	1.25
958.509	2.25
959.238	1.25
959.966	1.25
960.695	2.25
961.423	2.25
962.151	2.25
962.88	1.25
963.608	-0.75
964.336	0.25
965.064	3.25
965.792	0.25
966.52	3.25
967.247	2.25
967.975	1.25
968.703	3.25
969.43	2.25
970.158	1.25
970.885	1.25
971.613	0.25
972.34	-1.75
973.067	-1.75
973.794	2.25
974.521	-1.75
975.248	1.25
975.975	0.25
976.702	0.25
977.429	1.25
978.156	-0.75
978.882	2.25
979.609	1.25
980.335	0.25
981.062	-0.75
981.788	1.25
982.514	1.25
983.24	3.25
983.967	1.25
984.693	-0.75
985.419	2.25
986.144	0.25
986.87	2.25
987.596	1.25
988.322	1.25
989.047	1.25
989.773	-0.75
990.498	2.25
991.224	1.25
991.949	1.25
992.674	0.25
993.399	1.25
994.124	1.25
994.849	-0.75
995.574	1.25
996.299	1.25
997.024	0.25
997.749	2.25
998.473	2.25
999.198	1.25
999.922	-0.75
1000.647	1.25
1001.371	2.25
1002.095	1.25
1002.82	-1.75
1003.544	-1.75
1004.268	5.25
1004.992	1.25
1005.716	4.25
1006.439	3.25
1007.163	5.25
1007.887	3.25
1008.611	1.25
1009.334	2.25
1010.058	0.25
1010.781	1.25
1011.504	3.25
1012.228	1.25
1012.951	2.25
1013.674	0.25
1014.397	0.25
1015.12	-2.75
