节点500_565_QEPB04081__625__10-00-48-936.txt的数据

Date: Thu Nov 13 10:00:48 CST 2025
User: PC
Spectrometer: QEPB0408
触发模式: 0
积分时间 (秒): 1.000000E-2
Scans to average: 1
启用暗噪声校正: true
启用非线性校正: false
滑动平均宽度: 0
X轴模式: Wavelengths
Number of Pixels in Spectrum: 1044
>>>>>Begin Spectral Data<<<<<
220.843	3.38
221.644	5.38
222.444	5.38
223.244	5.38
224.045	3.38
224.845	6.38
225.645	8.38
226.445	4.38
227.245	5.38
228.045	5.38
228.845	7.38
229.645	5.38
230.444	7.38
231.244	6.38
232.043	7.38
232.843	7.38
233.642	7.38
234.442	8.38
235.241	6.38
236.04	7.38
236.839	8.38
237.638	7.38
238.437	7.38
239.236	6.38
240.035	9.38
240.833	7.38
241.632	11.38
242.43	7.38
243.229	8.38
244.027	7.38
244.826	10.38
245.624	13.38
246.422	12.38
247.22	11.38
248.018	9.38
248.816	10.38
249.614	10.38
250.412	11.38
251.21	13.38
252.007	9.38
252.805	10.38
253.602	12.38
254.4	13.38
255.197	13.38
255.994	14.38
256.791	15.38
257.589	15.38
258.386	14.38
259.183	14.38
259.979	16.38
260.776	14.38
261.573	17.38
262.37	18.38
263.166	16.38
263.963	18.38
264.759	19.38
265.556	17.38
266.352	23.38
267.148	19.38
267.944	22.38
268.74	19.38
269.536	20.38
270.332	20.38
271.128	24.38
271.924	24.38
272.719	23.38
273.515	23.38
274.311	23.38
275.106	23.38
275.901	25.38
276.697	27.38
277.492	25.38
278.287	27.38
279.082	27.38
279.877	27.38
280.672	27.38
281.467	27.38
282.262	27.38
283.056	25.38
283.851	30.38
284.646	30.38
285.44	27.38
286.234	29.38
287.029	25.38
287.823	26.38
288.617	26.38
289.411	24.38
290.205	24.38
290.999	25.38
291.793	27.38
292.587	26.38
293.381	25.38
294.174	23.38
294.968	25.38
295.761	22.38
296.555	24.38
297.348	22.38
298.141	23.38
298.935	26.38
299.728	22.38
300.521	20.38
301.314	21.38
302.107	19.38
302.899	19.38
303.692	20.38
304.485	21.38
305.277	18.38
306.07	18.38
306.862	19.38
307.655	18.38
308.447	19.38
309.239	16.38
310.031	18.38
310.823	16.38
311.615	17.38
312.407	14.38
313.199	15.38
313.991	14.38
314.783	14.38
315.574	13.38
316.366	16.38
317.157	14.38
317.949	13.38
318.74	13.38
319.531	15.38
320.322	11.38
321.113	12.38
321.904	13.38
322.695	12.38
323.486	11.38
324.277	10.38
325.068	11.38
325.858	10.38
326.649	9.38
327.439	13.38
328.23	12.38
329.02	12.38
329.81	12.38
330.6	10.38
331.391	10.38
332.181	12.38
332.971	8.38
333.76	11.38
334.55	10.38
335.34	10.38
336.13	12.38
336.919	9.38
337.709	10.38
338.498	10.38
339.287	12.38
340.077	10.38
340.866	11.38
341.655	11.38
342.444	9.38
343.233	9.38
344.022	7.38
344.811	10.38
345.6	10.38
346.388	10.38
347.177	8.38
347.965	7.38
348.754	12.38
349.542	7.38
350.33	7.38
351.119	10.38
351.907	9.38
352.695	11.38
353.483	6.38
354.271	8.38
355.059	8.38
355.846	11.38
356.634	9.38
357.422	7.38
358.209	9.38
358.997	8.38
359.784	11.38
360.571	6.38
361.359	10.38
362.146	7.38
362.933	8.38
363.72	9.38
364.507	7.38
365.294	9.38
366.081	6.38
366.867	9.38
367.654	8.38
368.44	7.38
369.227	8.38
370.013	8.38
370.8	9.38
371.586	9.38
372.372	9.38
373.158	7.38
373.944	10.38
374.73	9.38
375.516	8.38
376.302	5.38
377.088	7.38
377.873	8.38
378.659	8.38
379.445	7.38
380.23	7.38
381.015	7.38
381.801	10.38
382.586	8.38
383.371	9.38
384.156	9.38
384.941	9.38
385.726	10.38
386.511	9.38
387.296	7.38
388.08	7.38
388.865	10.38
389.649	10.38
390.434	9.38
391.218	11.38
392.003	11.38
392.787	9.38
393.571	9.38
394.355	10.38
395.139	9.38
395.923	6.38
396.707	9.38
397.491	12.38
398.274	9.38
399.058	8.38
399.842	13.38
400.625	11.38
401.408	13.38
402.192	10.38
402.975	10.38
403.758	11.38
404.541	12.38
405.324	13.38
406.107	13.38
406.89	11.38
407.673	14.38
408.456	13.38
409.238	12.38
410.021	13.38
410.803	13.38
411.586	14.38
412.368	16.38
413.151	14.38
413.933	14.38
414.715	15.38
415.497	15.38
416.279	14.38
417.061	15.38
417.843	17.38
418.624	15.38
419.406	17.38
420.188	17.38
420.969	16.38
421.751	15.38
422.532	17.38
423.313	17.38
424.095	18.38
424.876	22.38
425.657	20.38
426.438	24.38
427.219	16.38
428	17.38
428.78	24.38
429.561	23.38
430.342	23.38
431.122	26.38
431.903	25.38
432.683	30.38
433.464	29.38
434.244	33.38
435.024	30.38
435.804	34.38
436.584	37.38
437.364	37.38
438.144	37.38
438.924	42.38
439.704	43.38
440.483	48.38
441.263	52.38
442.042	51.38
442.822	54.38
443.601	59.38
444.38	65.38
445.16	68.38
445.939	76.38
446.718	81.38
447.497	92.38
448.276	101.38
449.054	109.38
449.833	119.38
450.612	133.38
451.391	144.38
452.169	161.38
452.948	178.38
453.726	191.38
454.504	216.38
455.282	238.38
456.061	266.38
456.839	296.38
457.617	329.38
458.395	366.38
459.172	410.38
459.95	452.38
460.728	507.38
461.506	557.38
462.283	618.38
463.061	693.38
463.838	774.38
464.615	854.38
465.393	935.38
466.17	1048.38
466.947	1149.38
467.724	1276.38
468.501	1416.38
469.278	1566.38
470.055	1723.38
470.831	1919.38
471.608	2076.38
472.385	2295.38
473.161	2563.38
473.938	2787.38
474.714	3037.38
475.49	3318.38
476.266	3633.38
477.043	3947.38
477.819	4326.38
478.595	4703.38
479.371	5117.38
480.146	5568.38
480.922	6046.38
481.698	6577.38
482.473	7120.38
483.249	7703.38
484.024	8320.38
484.8	9033.38
485.575	9790.38
486.35	10535.38
487.126	11389.38
487.901	12265.38
488.676	13267.38
489.451	14307.38
490.225	15395.38
491	16550.38
491.775	17678.38
492.55	18953.38
493.324	20248.38
494.099	21572.38
494.873	22928.38
495.647	24339.38
496.422	25791.38
497.196	27114.38
497.97	28612.38
498.744	29976.38
499.518	31299.38
500.292	32498.38
501.066	33649.38
501.839	34784.38
502.613	35715.38
503.387	36572.38
504.16	37233.38
504.934	37729.38
505.707	38038.38
506.48	38160.38
507.253	38133.38
508.027	37872.38
508.8	37560.38
509.573	37073.38
510.346	36297.38
511.118	35497.38
511.891	34808.38
512.664	33844.38
513.437	32724.38
514.209	31693.38
514.982	30663.38
515.754	29566.38
516.526	28362.38
517.298	27309.38
518.071	26210.38
518.843	25157.38
519.615	24159.38
520.387	23195.38
521.159	22258.38
521.93	21374.38
522.702	20503.38
523.474	19692.38
524.245	18947.38
525.017	18191.38
525.788	17406.38
526.56	16733.38
527.331	15988.38
528.102	15319.38
528.873	14589.38
529.644	13925.38
530.415	13213.38
531.186	12651.38
531.957	12021.38
532.728	11512.38
533.498	10872.38
534.269	10293.38
535.039	9761.38
535.81	9234.38
536.58	8800.38
537.351	8326.38
538.121	7865.38
538.891	7437.38
539.661	7048.38
540.431	6710.38
541.201	6329.38
541.971	6001.38
542.741	5680.38
543.51	5357.38
544.28	5130.38
545.05	4864.38
545.819	4648.38
546.588	4382.38
547.358	4193.38
548.127	3966.38
548.896	3770.38
549.665	3602.38
550.434	3407.38
551.203	3237.38
551.972	3082.38
552.741	2917.38
553.51	2770.38
554.278	2639.38
555.047	2466.38
555.815	2337.38
556.584	2216.38
557.352	2098.38
558.121	1984.38
558.889	1864.38
559.657	1756.38
560.425	1654.38
561.193	1570.38
561.961	1501.38
562.729	1410.38
563.496	1335.38
564.264	1261.38
565.032	1196.38
565.799	1124.38
566.567	1070.38
567.334	1000.38
568.101	957.38
568.869	897.38
569.636	860.38
570.403	806.38
571.17	761.38
571.937	725.38
572.704	678.38
573.471	641.38
574.237	607.38
575.004	571.38
575.771	534.38
576.537	509.38
577.303	481.38
578.07	457.38
578.836	426.38
579.602	400.38
580.368	383.38
581.134	363.38
581.9	352.38
582.666	329.38
583.432	307.38
584.198	293.38
584.964	275.38
585.729	267.38
586.495	249.38
587.26	237.38
588.025	229.38
588.791	214.38
589.556	205.38
590.321	198.38
591.086	180.38
591.851	173.38
592.616	162.38
593.381	160.38
594.146	151.38
594.911	140.38
595.675	137.38
596.44	133.38
597.204	126.38
597.969	119.38
598.733	111.38
599.497	110.38
600.261	106.38
601.025	96.38
601.79	93.38
602.553	90.38
603.317	83.38
604.081	86.38
604.845	82.38
605.609	75.38
606.372	72.38
607.136	74.38
607.899	72.38
608.662	69.38
609.426	60.38
610.189	63.38
610.952	58.38
611.715	54.38
612.478	54.38
613.241	53.38
614.004	50.38
614.767	47.38
615.529	46.38
616.292	45.38
617.055	45.38
617.817	42.38
618.579	36.38
619.342	41.38
620.104	38.38
620.866	42.38
621.628	35.38
622.39	33.38
623.152	33.38
623.914	31.38
624.676	30.38
625.438	30.38
626.199	32.38
626.961	28.38
627.722	24.38
628.484	23.38
629.245	25.38
630.006	24.38
630.768	26.38
631.529	26.38
632.29	22.38
633.051	21.38
633.812	20.38
634.573	22.38
635.333	17.38
636.094	18.38
636.855	19.38
637.615	19.38
638.376	17.38
639.136	18.38
639.896	19.38
640.657	16.38
641.417	16.38
642.177	12.38
642.937	16.38
643.697	16.38
644.457	16.38
645.216	14.38
645.976	18.38
646.736	13.38
647.495	14.38
648.255	13.38
649.014	13.38
649.774	12.38
650.533	11.38
651.292	13.38
652.051	12.38
652.81	13.38
653.569	12.38
654.328	12.38
655.087	9.38
655.846	11.38
656.604	9.38
657.363	11.38
658.121	8.38
658.88	10.38
659.638	10.38
660.397	9.38
661.155	9.38
661.913	11.38
662.671	11.38
663.429	7.38
664.187	8.38
664.945	8.38
665.703	10.38
666.46	9.38
667.218	8.38
667.976	9.38
668.733	9.38
669.49	9.38
670.248	9.38
671.005	6.38
671.762	7.38
672.519	8.38
673.276	9.38
674.033	6.38
674.79	9.38
675.547	9.38
676.304	7.38
677.06	8.38
677.817	5.38
678.574	10.38
679.33	7.38
680.086	10.38
680.843	6.38
681.599	8.38
682.355	7.38
683.111	7.38
683.867	7.38
684.623	6.38
685.379	10.38
686.135	6.38
686.89	6.38
687.646	6.38
688.402	7.38
689.157	6.38
689.912	3.38
690.668	9.38
691.423	7.38
692.178	9.38
692.933	9.38
693.688	7.38
694.443	6.38
695.198	7.38
695.953	8.38
696.708	6.38
697.462	7.38
698.217	7.38
698.972	6.38
699.726	8.38
700.48	5.38
701.235	5.38
701.989	8.38
702.743	6.38
703.497	5.38
704.251	7.38
705.005	7.38
705.759	5.38
706.513	7.38
707.266	7.38
708.02	5.38
708.774	7.38
709.527	4.38
710.28	7.38
711.034	4.38
711.787	7.38
712.54	6.38
713.293	6.38
714.046	5.38
714.799	6.38
715.552	6.38
716.305	4.38
717.058	7.38
717.81	7.38
718.563	6.38
719.315	6.38
720.068	7.38
720.82	5.38
721.573	5.38
722.325	7.38
723.077	5.38
723.829	6.38
724.581	7.38
725.333	5.38
726.085	7.38
726.836	5.38
727.588	6.38
728.34	6.38
729.091	7.38
729.843	9.38
730.594	5.38
731.346	6.38
732.097	7.38
732.848	7.38
733.599	6.38
734.35	9.38
735.101	7.38
735.852	6.38
736.603	8.38
737.354	5.38
738.104	8.38
738.855	5.38
739.605	9.38
740.356	8.38
741.106	6.38
741.856	9.38
742.607	4.38
743.357	6.38
744.107	7.38
744.857	9.38
745.607	9.38
746.357	8.38
747.106	6.38
747.856	8.38
748.606	9.38
749.355	7.38
750.105	9.38
750.854	8.38
751.603	9.38
752.353	8.38
753.102	10.38
753.851	9.38
754.6	7.38
755.349	7.38
756.098	9.38
756.847	8.38
757.595	10.38
758.344	8.38
759.093	11.38
759.841	9.38
760.589	10.38
761.338	7.38
762.086	11.38
762.834	9.38
763.582	10.38
764.331	11.38
765.079	9.38
765.826	11.38
766.574	10.38
767.322	13.38
768.07	10.38
768.817	11.38
769.565	10.38
770.312	9.38
771.06	13.38
771.807	9.38
772.554	11.38
773.302	11.38
774.049	10.38
774.796	15.38
775.543	12.38
776.29	12.38
777.036	12.38
777.783	12.38
778.53	12.38
779.276	13.38
780.023	11.38
780.769	14.38
781.516	15.38
782.262	11.38
783.008	14.38
783.754	12.38
784.5	13.38
785.246	13.38
785.992	14.38
786.738	13.38
787.484	12.38
788.23	13.38
788.975	11.38
789.721	12.38
790.466	13.38
791.212	12.38
791.957	14.38
792.702	11.38
793.447	13.38
794.193	13.38
794.938	12.38
795.683	13.38
796.427	11.38
797.172	13.38
797.917	10.38
798.662	11.38
799.406	10.38
800.151	11.38
800.895	9.38
801.64	8.38
802.384	11.38
803.128	9.38
803.872	10.38
804.616	10.38
805.36	8.38
806.104	10.38
806.848	10.38
807.592	11.38
808.336	9.38
809.079	8.38
809.823	7.38
810.566	8.38
811.31	10.38
812.053	5.38
812.796	8.38
813.539	9.38
814.283	8.38
815.026	6.38
815.769	7.38
816.511	6.38
817.254	8.38
817.997	7.38
818.74	9.38
819.482	8.38
820.225	5.38
820.967	6.38
821.71	6.38
822.452	5.38
823.194	5.38
823.936	9.38
824.678	7.38
825.42	4.38
826.162	9.38
826.904	7.38
827.646	5.38
828.388	8.38
829.129	7.38
829.871	8.38
830.612	6.38
831.354	3.38
832.095	5.38
832.836	6.38
833.577	6.38
834.319	5.38
835.06	6.38
835.801	6.38
836.542	5.38
837.282	5.38
838.023	5.38
838.764	6.38
839.504	5.38
840.245	5.38
840.985	5.38
841.726	4.38
842.466	4.38
843.206	5.38
843.946	4.38
844.687	4.38
845.427	5.38
846.166	4.38
846.906	5.38
847.646	2.38
848.386	5.38
849.125	5.38
849.865	5.38
850.605	6.38
851.344	4.38
852.083	4.38
852.823	5.38
853.562	6.38
854.301	4.38
855.04	4.38
855.779	4.38
856.518	1.38
857.257	1.38
857.995	3.38
858.734	6.38
859.473	3.38
860.211	3.38
860.95	3.38
861.688	3.38
862.426	3.38
863.165	3.38
863.903	1.38
864.641	2.38
865.379	5.38
866.117	3.38
866.855	3.38
867.593	1.38
868.33	0.38
869.068	2.38
869.806	3.38
870.543	3.38
871.28	1.38
872.018	3.38
872.755	1.38
873.492	1.38
874.229	6.38
874.967	2.38
875.703	2.38
876.44	3.38
877.177	5.38
877.914	2.38
878.651	1.38
879.387	1.38
880.124	3.38
880.86	2.38
881.597	2.38
882.333	3.38
883.069	3.38
883.806	1.38
884.542	1.38
885.278	1.38
886.014	2.38
886.749	2.38
887.485	3.38
888.221	5.38
888.957	2.38
889.692	1.38
890.428	3.38
891.163	2.38
891.899	-0.62
892.634	0.38
893.369	1.38
894.104	2.38
894.839	2.38
895.574	1.38
896.309	1.38
897.044	-0.62
897.779	3.38
898.514	0.38
899.248	-0.62
899.983	3.38
900.717	-1.62
901.452	1.38
902.186	0.38
902.92	-1.62
903.654	0.38
904.389	1.38
905.123	1.38
905.857	2.38
906.59	2.38
907.324	1.38
908.058	2.38
908.792	1.38
909.525	1.38
910.259	2.38
910.992	0.38
911.726	2.38
912.459	1.38
913.192	1.38
913.925	2.38
914.658	2.38
915.391	0.38
916.124	0.38
916.857	1.38
917.59	0.38
918.323	1.38
919.055	0.38
919.788	2.38
920.521	0.38
921.253	1.38
921.985	3.38
922.718	2.38
923.45	1.38
924.182	1.38
924.914	-0.62
925.646	-0.62
926.378	1.38
927.11	2.38
927.841	1.38
928.573	1.38
929.305	1.38
930.036	2.38
930.768	0.38
931.499	0.38
932.23	-0.62
932.962	-1.62
933.693	2.38
934.424	-0.62
935.155	1.38
935.886	0.38
936.617	1.38
937.348	1.38
938.078	0.38
938.809	2.38
939.54	0.38
940.27	1.38
941.001	0.38
941.731	2.38
942.461	0.38
943.191	1.38
943.922	2.38
944.652	-0.62
945.382	0.38
946.112	-1.62
946.841	0.38
947.571	1.38
948.301	0.38
949.031	0.38
949.76	0.38
950.49	-0.62
951.219	0.38
951.948	2.38
952.678	0.38
953.407	1.38
954.136	1.38
954.865	0.38
955.594	1.38
956.323	-0.62
957.052	1.38
957.78	2.38
958.509	0.38
959.238	2.38
959.966	-0.62
960.695	-0.62
961.423	-1.62
962.151	-0.62
962.88	1.38
963.608	0.38
964.336	1.38
965.064	-1.62
965.792	2.38
966.52	1.38
967.247	2.38
967.975	-1.62
968.703	-1.62
969.43	0.38
970.158	0.38
970.885	-1.62
971.613	-0.62
972.34	4.38
973.067	1.38
973.794	0.38
974.521	0.38
975.248	-1.62
975.975	1.38
976.702	-1.62
977.429	-0.62
978.156	0.38
978.882	0.38
979.609	1.38
980.335	2.38
981.062	1.38
981.788	1.38
982.514	1.38
983.24	-0.62
983.967	2.38
984.693	0.38
985.419	1.38
986.144	0.38
986.87	-1.62
987.596	0.38
988.322	-0.62
989.047	0.38
989.773	0.38
990.498	1.38
991.224	2.38
991.949	1.38
992.674	0.38
993.399	0.38
994.124	1.38
994.849	-0.62
995.574	0.38
996.299	1.38
997.024	0.38
997.749	-0.62
998.473	-0.62
999.198	2.38
999.922	0.38
1000.647	1.38
1001.371	4.38
1002.095	-2.62
1002.82	-1.62
1003.544	-0.62
1004.268	5.38
1004.992	3.38
1005.716	1.38
1006.439	2.38
1007.163	4.38
1007.887	3.38
1008.611	1.38
1009.334	1.38
1010.058	1.38
1010.781	-1.62
1011.504	3.38
1012.228	-0.62
1012.951	-0.62
1013.674	-1.62
1014.397	1.38
1015.12	1.38
