节点500_565_QEPB04081__367__09-56-31-354.txt的数据

Date: Thu Nov 13 09:56:31 CST 2025
User: PC
Spectrometer: QEPB0408
触发模式: 0
积分时间 (秒): 1.000000E-2
Scans to average: 1
启用暗噪声校正: true
启用非线性校正: false
滑动平均宽度: 0
X轴模式: Wavelengths
Number of Pixels in Spectrum: 1044
>>>>>Begin Spectral Data<<<<<
220.843	3.75
221.644	2.75
222.444	5.75
223.244	3.75
224.045	3.75
224.845	8.75
225.645	3.75
226.445	4.75
227.245	6.75
228.045	4.75
228.845	8.75
229.645	5.75
230.444	8.75
231.244	7.75
232.043	4.75
232.843	5.75
233.642	7.75
234.442	7.75
235.241	7.75
236.04	8.75
236.839	7.75
237.638	6.75
238.437	7.75
239.236	7.75
240.035	8.75
240.833	8.75
241.632	8.75
242.43	6.75
243.229	9.75
244.027	9.75
244.826	10.75
245.624	12.75
246.422	9.75
247.22	13.75
248.018	12.75
248.816	12.75
249.614	12.75
250.412	10.75
251.21	12.75
252.007	9.75
252.805	12.75
253.602	12.75
254.4	13.75
255.197	15.75
255.994	13.75
256.791	15.75
257.589	14.75
258.386	14.75
259.183	17.75
259.979	14.75
260.776	17.75
261.573	16.75
262.37	19.75
263.166	20.75
263.963	21.75
264.759	19.75
265.556	20.75
266.352	23.75
267.148	21.75
267.944	20.75
268.74	22.75
269.536	23.75
270.332	24.75
271.128	25.75
271.924	27.75
272.719	26.75
273.515	24.75
274.311	26.75
275.106	28.75
275.901	26.75
276.697	25.75
277.492	26.75
278.287	28.75
279.082	28.75
279.877	29.75
280.672	28.75
281.467	28.75
282.262	27.75
283.056	30.75
283.851	27.75
284.646	31.75
285.44	29.75
286.234	27.75
287.029	26.75
287.823	26.75
288.617	27.75
289.411	27.75
290.205	25.75
290.999	25.75
291.793	26.75
292.587	27.75
293.381	25.75
294.174	25.75
294.968	24.75
295.761	25.75
296.555	21.75
297.348	21.75
298.141	24.75
298.935	21.75
299.728	24.75
300.521	21.75
301.314	17.75
302.107	18.75
302.899	19.75
303.692	18.75
304.485	21.75
305.277	17.75
306.07	19.75
306.862	20.75
307.655	19.75
308.447	19.75
309.239	14.75
310.031	21.75
310.823	15.75
311.615	14.75
312.407	15.75
313.199	14.75
313.991	14.75
314.783	14.75
315.574	16.75
316.366	13.75
317.157	12.75
317.949	9.75
318.74	13.75
319.531	12.75
320.322	12.75
321.113	12.75
321.904	12.75
322.695	11.75
323.486	11.75
324.277	10.75
325.068	10.75
325.858	10.75
326.649	11.75
327.439	11.75
328.23	11.75
329.02	7.75
329.81	10.75
330.6	10.75
331.391	9.75
332.181	9.75
332.971	8.75
333.76	9.75
334.55	8.75
335.34	11.75
336.13	9.75
336.919	9.75
337.709	10.75
338.498	11.75
339.287	8.75
340.077	9.75
340.866	7.75
341.655	8.75
342.444	9.75
343.233	11.75
344.022	9.75
344.811	8.75
345.6	10.75
346.388	9.75
347.177	10.75
347.965	11.75
348.754	10.75
349.542	9.75
350.33	10.75
351.119	7.75
351.907	8.75
352.695	9.75
353.483	7.75
354.271	10.75
355.059	10.75
355.846	8.75
356.634	7.75
357.422	7.75
358.209	8.75
358.997	8.75
359.784	8.75
360.571	8.75
361.359	8.75
362.146	8.75
362.933	8.75
363.72	8.75
364.507	8.75
365.294	7.75
366.081	8.75
366.867	7.75
367.654	6.75
368.44	9.75
369.227	8.75
370.013	8.75
370.8	9.75
371.586	8.75
372.372	8.75
373.158	9.75
373.944	6.75
374.73	6.75
375.516	7.75
376.302	9.75
377.088	7.75
377.873	9.75
378.659	8.75
379.445	8.75
380.23	9.75
381.015	9.75
381.801	8.75
382.586	6.75
383.371	8.75
384.156	10.75
384.941	7.75
385.726	10.75
386.511	7.75
387.296	10.75
388.08	8.75
388.865	8.75
389.649	8.75
390.434	9.75
391.218	8.75
392.003	11.75
392.787	12.75
393.571	8.75
394.355	8.75
395.139	10.75
395.923	8.75
396.707	12.75
397.491	11.75
398.274	10.75
399.058	12.75
399.842	11.75
400.625	10.75
401.408	12.75
402.192	10.75
402.975	13.75
403.758	6.75
404.541	11.75
405.324	11.75
406.107	10.75
406.89	11.75
407.673	12.75
408.456	13.75
409.238	12.75
410.021	12.75
410.803	12.75
411.586	13.75
412.368	13.75
413.151	13.75
413.933	14.75
414.715	11.75
415.497	15.75
416.279	14.75
417.061	13.75
417.843	14.75
418.624	15.75
419.406	18.75
420.188	16.75
420.969	16.75
421.751	19.75
422.532	13.75
423.313	19.75
424.095	20.75
424.876	18.75
425.657	16.75
426.438	18.75
427.219	21.75
428	22.75
428.78	24.75
429.561	23.75
430.342	24.75
431.122	22.75
431.903	26.75
432.683	26.75
433.464	28.75
434.244	30.75
435.024	28.75
435.804	30.75
436.584	34.75
437.364	36.75
438.144	37.75
438.924	38.75
439.704	41.75
440.483	44.75
441.263	46.75
442.042	53.75
442.822	53.75
443.601	59.75
444.38	60.75
445.16	69.75
445.939	70.75
446.718	80.75
447.497	79.75
448.276	94.75
449.054	100.75
449.833	110.75
450.612	120.75
451.391	135.75
452.169	149.75
452.948	162.75
453.726	180.75
454.504	203.75
455.282	228.75
456.061	242.75
456.839	274.75
457.617	308.75
458.395	342.75
459.172	382.75
459.95	425.75
460.728	478.75
461.506	535.75
462.283	601.75
463.061	662.75
463.838	726.75
464.615	817.75
465.393	904.75
466.17	1012.75
466.947	1123.75
467.724	1250.75
468.501	1362.75
469.278	1521.75
470.055	1713.75
470.831	1880.75
471.608	2070.75
472.385	2284.75
473.161	2540.75
473.938	2785.75
474.714	3042.75
475.49	3336.75
476.266	3671.75
477.043	4020.75
477.819	4410.75
478.595	4814.75
479.371	5287.75
480.146	5768.75
480.922	6264.75
481.698	6858.75
482.473	7447.75
483.249	8083.75
484.024	8858.75
484.8	9585.75
485.575	10416.75
486.35	11298.75
487.126	12256.75
487.901	13251.75
488.676	14383.75
489.451	15533.75
490.225	16800.75
491	18073.75
491.775	19384.75
492.55	20797.75
493.324	22327.75
494.099	23652.75
494.873	25238.75
495.647	26872.75
496.422	28455.75
497.196	29970.75
497.97	31456.75
498.744	32935.75
499.518	34190.75
500.292	35556.75
501.066	36734.75
501.839	37787.75
502.613	38642.75
503.387	39393.75
504.16	40026.75
504.934	40285.75
505.707	40452.75
506.48	40423.75
507.253	40163.75
508.027	39588.75
508.8	38976.75
509.573	38232.75
510.346	37393.75
511.118	36315.75
511.891	35327.75
512.664	34191.75
513.437	32996.75
514.209	31666.75
514.982	30550.75
515.754	29355.75
516.526	28191.75
517.298	26977.75
518.071	25947.75
518.843	24843.75
519.615	23808.75
520.387	22926.75
521.159	22049.75
521.93	21213.75
522.702	20240.75
523.474	19478.75
524.245	18675.75
525.017	17924.75
525.788	17140.75
526.56	16388.75
527.331	15709.75
528.102	14968.75
528.873	14284.75
529.644	13556.75
530.415	12844.75
531.186	12209.75
531.957	11646.75
532.728	11024.75
533.498	10461.75
534.269	9890.75
535.039	9367.75
535.81	8878.75
536.58	8414.75
537.351	7930.75
538.121	7503.75
538.891	7094.75
539.661	6740.75
540.431	6368.75
541.201	6063.75
541.971	5734.75
542.741	5411.75
543.51	5137.75
544.28	4894.75
545.05	4633.75
545.819	4415.75
546.588	4201.75
547.358	3977.75
548.127	3796.75
548.896	3619.75
549.665	3434.75
550.434	3246.75
551.203	3094.75
551.972	2889.75
552.741	2774.75
553.51	2620.75
554.278	2467.75
555.047	2320.75
555.815	2207.75
556.584	2108.75
557.352	1978.75
558.121	1884.75
558.889	1759.75
559.657	1677.75
560.425	1559.75
561.193	1470.75
561.961	1400.75
562.729	1321.75
563.496	1257.75
564.264	1191.75
565.032	1124.75
565.799	1074.75
566.567	1036.75
567.334	956.75
568.101	897.75
568.869	857.75
569.636	814.75
570.403	757.75
571.17	724.75
571.937	682.75
572.704	635.75
573.471	600.75
574.237	560.75
575.004	538.75
575.771	497.75
576.537	485.75
577.303	449.75
578.07	421.75
578.836	397.75
579.602	379.75
580.368	353.75
581.134	340.75
581.9	319.75
582.666	306.75
583.432	289.75
584.198	269.75
584.964	259.75
585.729	247.75
586.495	230.75
587.26	226.75
588.025	214.75
588.791	199.75
589.556	189.75
590.321	178.75
591.086	177.75
591.851	160.75
592.616	156.75
593.381	146.75
594.146	141.75
594.911	130.75
595.675	124.75
596.44	125.75
597.204	113.75
597.969	110.75
598.733	105.75
599.497	101.75
600.261	96.75
601.025	93.75
601.79	90.75
602.553	85.75
603.317	82.75
604.081	75.75
604.845	75.75
605.609	71.75
606.372	69.75
607.136	66.75
607.899	63.75
608.662	60.75
609.426	59.75
610.189	58.75
610.952	56.75
611.715	54.75
612.478	49.75
613.241	49.75
614.004	46.75
614.767	44.75
615.529	43.75
616.292	48.75
617.055	38.75
617.817	42.75
618.579	36.75
619.342	39.75
620.104	37.75
620.866	34.75
621.628	32.75
622.39	35.75
623.152	32.75
623.914	28.75
624.676	29.75
625.438	26.75
626.199	25.75
626.961	24.75
627.722	29.75
628.484	22.75
629.245	25.75
630.006	25.75
630.768	22.75
631.529	22.75
632.29	21.75
633.051	22.75
633.812	19.75
634.573	17.75
635.333	20.75
636.094	20.75
636.855	19.75
637.615	19.75
638.376	15.75
639.136	19.75
639.896	16.75
640.657	14.75
641.417	14.75
642.177	15.75
642.937	14.75
643.697	13.75
644.457	13.75
645.216	14.75
645.976	13.75
646.736	10.75
647.495	10.75
648.255	12.75
649.014	12.75
649.774	11.75
650.533	10.75
651.292	11.75
652.051	11.75
652.81	13.75
653.569	13.75
654.328	10.75
655.087	8.75
655.846	10.75
656.604	10.75
657.363	10.75
658.121	12.75
658.88	10.75
659.638	10.75
660.397	8.75
661.155	8.75
661.913	7.75
662.671	8.75
663.429	9.75
664.187	10.75
664.945	6.75
665.703	8.75
666.46	8.75
667.218	6.75
667.976	5.75
668.733	10.75
669.49	8.75
670.248	7.75
671.005	8.75
671.762	5.75
672.519	7.75
673.276	7.75
674.033	5.75
674.79	6.75
675.547	6.75
676.304	7.75
677.06	7.75
677.817	7.75
678.574	7.75
679.33	7.75
680.086	6.75
680.843	9.75
681.599	4.75
682.355	7.75
683.111	6.75
683.867	7.75
684.623	6.75
685.379	7.75
686.135	6.75
686.89	6.75
687.646	6.75
688.402	6.75
689.157	2.75
689.912	6.75
690.668	5.75
691.423	7.75
692.178	5.75
692.933	7.75
693.688	8.75
694.443	3.75
695.198	7.75
695.953	4.75
696.708	6.75
697.462	6.75
698.217	5.75
698.972	6.75
699.726	4.75
700.48	6.75
701.235	6.75
701.989	6.75
702.743	4.75
703.497	7.75
704.251	8.75
705.005	5.75
705.759	6.75
706.513	4.75
707.266	6.75
708.02	4.75
708.774	6.75
709.527	7.75
710.28	5.75
711.034	5.75
711.787	4.75
712.54	4.75
713.293	5.75
714.046	7.75
714.799	5.75
715.552	6.75
716.305	8.75
717.058	7.75
717.81	4.75
718.563	3.75
719.315	8.75
720.068	7.75
720.82	7.75
721.573	6.75
722.325	7.75
723.077	6.75
723.829	5.75
724.581	8.75
725.333	7.75
726.085	8.75
726.836	7.75
727.588	7.75
728.34	8.75
729.091	5.75
729.843	6.75
730.594	8.75
731.346	8.75
732.097	6.75
732.848	7.75
733.599	6.75
734.35	3.75
735.101	7.75
735.852	9.75
736.603	6.75
737.354	7.75
738.104	5.75
738.855	8.75
739.605	7.75
740.356	10.75
741.106	8.75
741.856	11.75
742.607	6.75
743.357	8.75
744.107	7.75
744.857	6.75
745.607	8.75
746.357	7.75
747.106	8.75
747.856	9.75
748.606	7.75
749.355	11.75
750.105	9.75
750.854	8.75
751.603	7.75
752.353	8.75
753.102	8.75
753.851	7.75
754.6	9.75
755.349	8.75
756.098	9.75
756.847	11.75
757.595	8.75
758.344	9.75
759.093	9.75
759.841	9.75
760.589	10.75
761.338	9.75
762.086	9.75
762.834	10.75
763.582	8.75
764.331	8.75
765.079	9.75
765.826	10.75
766.574	11.75
767.322	11.75
768.07	14.75
768.817	8.75
769.565	10.75
770.312	13.75
771.06	14.75
771.807	12.75
772.554	10.75
773.302	13.75
774.049	11.75
774.796	10.75
775.543	12.75
776.29	12.75
777.036	14.75
777.783	12.75
778.53	13.75
779.276	12.75
780.023	11.75
780.769	13.75
781.516	14.75
782.262	11.75
783.008	11.75
783.754	12.75
784.5	14.75
785.246	14.75
785.992	14.75
786.738	14.75
787.484	12.75
788.23	13.75
788.975	12.75
789.721	10.75
790.466	13.75
791.212	10.75
791.957	13.75
792.702	10.75
793.447	11.75
794.193	12.75
794.938	10.75
795.683	11.75
796.427	11.75
797.172	12.75
797.917	9.75
798.662	10.75
799.406	9.75
800.151	10.75
800.895	12.75
801.64	11.75
802.384	11.75
803.128	9.75
803.872	10.75
804.616	9.75
805.36	9.75
806.104	9.75
806.848	6.75
807.592	8.75
808.336	8.75
809.079	9.75
809.823	7.75
810.566	6.75
811.31	8.75
812.053	8.75
812.796	8.75
813.539	9.75
814.283	9.75
815.026	8.75
815.769	5.75
816.511	6.75
817.254	7.75
817.997	8.75
818.74	6.75
819.482	8.75
820.225	8.75
820.967	6.75
821.71	7.75
822.452	6.75
823.194	6.75
823.936	6.75
824.678	4.75
825.42	6.75
826.162	3.75
826.904	4.75
827.646	5.75
828.388	5.75
829.129	8.75
829.871	4.75
830.612	4.75
831.354	5.75
832.095	5.75
832.836	4.75
833.577	4.75
834.319	4.75
835.06	6.75
835.801	6.75
836.542	4.75
837.282	6.75
838.023	4.75
838.764	5.75
839.504	4.75
840.245	5.75
840.985	4.75
841.726	7.75
842.466	4.75
843.206	3.75
843.946	2.75
844.687	5.75
845.427	4.75
846.166	4.75
846.906	2.75
847.646	4.75
848.386	2.75
849.125	4.75
849.865	3.75
850.605	6.75
851.344	3.75
852.083	4.75
852.823	4.75
853.562	4.75
854.301	4.75
855.04	4.75
855.779	4.75
856.518	5.75
857.257	2.75
857.995	3.75
858.734	3.75
859.473	5.75
860.211	2.75
860.95	6.75
861.688	2.75
862.426	3.75
863.165	2.75
863.903	2.75
864.641	2.75
865.379	4.75
866.117	2.75
866.855	3.75
867.593	0.75
868.33	1.75
869.068	-0.25
869.806	3.75
870.543	2.75
871.28	2.75
872.018	1.75
872.755	-0.25
873.492	3.75
874.229	1.75
874.967	1.75
875.703	1.75
876.44	2.75
877.177	0.75
877.914	1.75
878.651	1.75
879.387	0.75
880.124	0.75
880.86	0.75
881.597	0.75
882.333	1.75
883.069	1.75
883.806	1.75
884.542	0.75
885.278	2.75
886.014	2.75
886.749	1.75
887.485	1.75
888.221	0.75
888.957	0.75
889.692	-1.25
890.428	2.75
891.163	1.75
891.899	3.75
892.634	1.75
893.369	-0.25
894.104	2.75
894.839	3.75
895.574	-2.25
896.309	2.75
897.044	1.75
897.779	-0.25
898.514	0.75
899.248	1.75
899.983	0.75
900.717	0.75
901.452	0.75
902.186	1.75
902.92	-1.25
903.654	0.75
904.389	0.75
905.123	0.75
905.857	1.75
906.59	0.75
907.324	-0.25
908.058	2.75
908.792	1.75
909.525	0.75
910.259	0.75
910.992	-1.25
911.726	0.75
912.459	0.75
913.192	-2.25
913.925	-0.25
914.658	1.75
915.391	0.75
916.124	0.75
916.857	0.75
917.59	0.75
918.323	0.75
919.055	1.75
919.788	0.75
920.521	1.75
921.253	1.75
921.985	1.75
922.718	1.75
923.45	-0.25
924.182	0.75
924.914	-1.25
925.646	1.75
926.378	0.75
927.11	-0.25
927.841	2.75
928.573	-0.25
929.305	1.75
930.036	0.75
930.768	0.75
931.499	0.75
932.23	0.75
932.962	1.75
933.693	2.75
934.424	0.75
935.155	-1.25
935.886	-0.25
936.617	0.75
937.348	0.75
938.078	2.75
938.809	0.75
939.54	-1.25
940.27	-1.25
941.001	0.75
941.731	2.75
942.461	0.75
943.191	0.75
943.922	1.75
944.652	2.75
945.382	0.75
946.112	1.75
946.841	1.75
947.571	0.75
948.301	-1.25
949.031	-2.25
949.76	0.75
950.49	0.75
951.219	0.75
951.948	1.75
952.678	-1.25
953.407	-0.25
954.136	-3.25
954.865	2.75
955.594	-1.25
956.323	0.75
957.052	-0.25
957.78	0.75
958.509	-0.25
959.238	0.75
959.966	2.75
960.695	-1.25
961.423	-0.25
962.151	0.75
962.88	-1.25
963.608	1.75
964.336	0.75
965.064	-0.25
965.792	0.75
966.52	-0.25
967.247	-1.25
967.975	0.75
968.703	-2.25
969.43	1.75
970.158	0.75
970.885	0.75
971.613	1.75
972.34	0.75
973.067	-1.25
973.794	0.75
974.521	0.75
975.248	0.75
975.975	-2.25
976.702	0.75
977.429	0.75
978.156	0.75
978.882	0.75
979.609	0.75
980.335	1.75
981.062	0.75
981.788	0.75
982.514	0.75
983.24	-0.25
983.967	2.75
984.693	-0.25
985.419	0.75
986.144	-2.25
986.87	1.75
987.596	-0.25
988.322	-0.25
989.047	0.75
989.773	-0.25
990.498	-0.25
991.224	0.75
991.949	0.75
992.674	0.75
993.399	1.75
994.124	0.75
994.849	0.75
995.574	-0.25
996.299	-1.25
997.024	0.75
997.749	1.75
998.473	1.75
999.198	-1.25
999.922	-0.25
1000.647	-0.25
1001.371	4.75
1002.095	-0.25
1002.82	-1.25
1003.544	-1.25
1004.268	3.75
1004.992	2.75
1005.716	3.75
1006.439	4.75
1007.163	3.75
1007.887	3.75
1008.611	-0.25
1009.334	0.75
1010.058	-1.25
1010.781	0.75
1011.504	-0.25
1012.228	0.75
1012.951	-1.25
1013.674	0.75
1014.397	0.75
1015.12	-2.25
