节点500_565_QEPB04081__556__09-59-40-040.txt的数据

Date: Thu Nov 13 09:59:40 CST 2025
User: PC
Spectrometer: QEPB0408
触发模式: 0
积分时间 (秒): 1.000000E-2
Scans to average: 1
启用暗噪声校正: true
启用非线性校正: false
滑动平均宽度: 0
X轴模式: Wavelengths
Number of Pixels in Spectrum: 1044
>>>>>Begin Spectral Data<<<<<
220.843	1.12
221.644	1.12
222.444	5.12
223.244	3.12
224.045	5.12
224.845	6.12
225.645	4.12
226.445	3.12
227.245	3.12
228.045	4.12
228.845	3.12
229.645	6.12
230.444	4.12
231.244	7.12
232.043	3.12
232.843	6.12
233.642	6.12
234.442	5.12
235.241	7.12
236.04	5.12
236.839	8.12
237.638	9.12
238.437	5.12
239.236	8.12
240.035	8.12
240.833	6.12
241.632	8.12
242.43	9.12
243.229	9.12
244.027	10.12
244.826	9.12
245.624	8.12
246.422	10.12
247.22	8.12
248.018	10.12
248.816	9.12
249.614	11.12
250.412	11.12
251.21	9.12
252.007	10.12
252.805	12.12
253.602	11.12
254.4	10.12
255.197	13.12
255.994	15.12
256.791	13.12
257.589	13.12
258.386	14.12
259.183	16.12
259.979	17.12
260.776	16.12
261.573	15.12
262.37	17.12
263.166	17.12
263.963	19.12
264.759	20.12
265.556	18.12
266.352	18.12
267.148	18.12
267.944	18.12
268.74	21.12
269.536	20.12
270.332	20.12
271.128	23.12
271.924	22.12
272.719	21.12
273.515	25.12
274.311	22.12
275.106	24.12
275.901	24.12
276.697	23.12
277.492	25.12
278.287	25.12
279.082	28.12
279.877	25.12
280.672	26.12
281.467	27.12
282.262	24.12
283.056	25.12
283.851	27.12
284.646	23.12
285.44	27.12
286.234	24.12
287.029	26.12
287.823	27.12
288.617	22.12
289.411	26.12
290.205	29.12
290.999	26.12
291.793	24.12
292.587	23.12
293.381	25.12
294.174	21.12
294.968	18.12
295.761	22.12
296.555	20.12
297.348	20.12
298.141	20.12
298.935	21.12
299.728	21.12
300.521	20.12
301.314	22.12
302.107	18.12
302.899	19.12
303.692	19.12
304.485	16.12
305.277	18.12
306.07	15.12
306.862	18.12
307.655	19.12
308.447	15.12
309.239	18.12
310.031	16.12
310.823	13.12
311.615	18.12
312.407	16.12
313.199	13.12
313.991	13.12
314.783	14.12
315.574	11.12
316.366	13.12
317.157	12.12
317.949	12.12
318.74	10.12
319.531	12.12
320.322	10.12
321.113	11.12
321.904	12.12
322.695	10.12
323.486	12.12
324.277	13.12
325.068	11.12
325.858	11.12
326.649	9.12
327.439	10.12
328.23	7.12
329.02	11.12
329.81	10.12
330.6	10.12
331.391	7.12
332.181	10.12
332.971	10.12
333.76	8.12
334.55	11.12
335.34	8.12
336.13	7.12
336.919	9.12
337.709	10.12
338.498	12.12
339.287	8.12
340.077	10.12
340.866	9.12
341.655	7.12
342.444	10.12
343.233	7.12
344.022	8.12
344.811	9.12
345.6	11.12
346.388	8.12
347.177	10.12
347.965	9.12
348.754	9.12
349.542	10.12
350.33	6.12
351.119	7.12
351.907	8.12
352.695	7.12
353.483	8.12
354.271	8.12
355.059	8.12
355.846	8.12
356.634	11.12
357.422	6.12
358.209	7.12
358.997	8.12
359.784	7.12
360.571	8.12
361.359	8.12
362.146	8.12
362.933	8.12
363.72	9.12
364.507	7.12
365.294	5.12
366.081	8.12
366.867	7.12
367.654	7.12
368.44	8.12
369.227	8.12
370.013	9.12
370.8	8.12
371.586	8.12
372.372	7.12
373.158	8.12
373.944	8.12
374.73	6.12
375.516	8.12
376.302	7.12
377.088	5.12
377.873	5.12
378.659	8.12
379.445	8.12
380.23	8.12
381.015	7.12
381.801	7.12
382.586	8.12
383.371	6.12
384.156	8.12
384.941	8.12
385.726	6.12
386.511	9.12
387.296	7.12
388.08	6.12
388.865	8.12
389.649	6.12
390.434	10.12
391.218	6.12
392.003	8.12
392.787	9.12
393.571	10.12
394.355	12.12
395.139	10.12
395.923	8.12
396.707	9.12
397.491	9.12
398.274	7.12
399.058	10.12
399.842	10.12
400.625	10.12
401.408	12.12
402.192	10.12
402.975	10.12
403.758	11.12
404.541	12.12
405.324	11.12
406.107	10.12
406.89	11.12
407.673	12.12
408.456	9.12
409.238	13.12
410.021	14.12
410.803	14.12
411.586	13.12
412.368	11.12
413.151	13.12
413.933	16.12
414.715	15.12
415.497	12.12
416.279	12.12
417.061	16.12
417.843	13.12
418.624	15.12
419.406	16.12
420.188	15.12
420.969	14.12
421.751	19.12
422.532	18.12
423.313	17.12
424.095	18.12
424.876	19.12
425.657	20.12
426.438	22.12
427.219	19.12
428	20.12
428.78	21.12
429.561	20.12
430.342	23.12
431.122	26.12
431.903	27.12
432.683	28.12
433.464	26.12
434.244	28.12
435.024	28.12
435.804	30.12
436.584	31.12
437.364	35.12
438.144	36.12
438.924	39.12
439.704	42.12
440.483	47.12
441.263	46.12
442.042	49.12
442.822	57.12
443.601	55.12
444.38	64.12
445.16	68.12
445.939	79.12
446.718	78.12
447.497	85.12
448.276	99.12
449.054	108.12
449.833	116.12
450.612	125.12
451.391	141.12
452.169	153.12
452.948	172.12
453.726	184.12
454.504	202.12
455.282	235.12
456.061	255.12
456.839	295.12
457.617	324.12
458.395	364.12
459.172	396.12
459.95	450.12
460.728	501.12
461.506	561.12
462.283	614.12
463.061	683.12
463.838	757.12
464.615	837.12
465.393	927.12
466.17	1052.12
466.947	1162.12
467.724	1275.12
468.501	1406.12
469.278	1562.12
470.055	1710.12
470.831	1875.12
471.608	2082.12
472.385	2314.12
473.161	2517.12
473.938	2759.12
474.714	3022.12
475.49	3304.12
476.266	3635.12
477.043	3977.12
477.819	4347.12
478.595	4701.12
479.371	5110.12
480.146	5560.12
480.922	6084.12
481.698	6583.12
482.473	7102.12
483.249	7713.12
484.024	8369.12
484.8	9045.12
485.575	9866.12
486.35	10589.12
487.126	11474.12
487.901	12370.12
488.676	13325.12
489.451	14430.12
490.225	15508.12
491	16577.12
491.775	17805.12
492.55	19123.12
493.324	20432.12
494.099	21706.12
494.873	23184.12
495.647	24562.12
496.422	26010.12
497.196	27383.12
497.97	28786.12
498.744	30222.12
499.518	31488.12
500.292	32730.12
501.066	33882.12
501.839	35001.12
502.613	35906.12
503.387	36716.12
504.16	37398.12
504.934	37918.12
505.707	38215.12
506.48	38333.12
507.253	38284.12
508.027	37962.12
508.8	37542.12
509.573	37037.12
510.346	36286.12
511.118	35399.12
511.891	34792.12
512.664	33765.12
513.437	32743.12
514.209	31657.12
514.982	30492.12
515.754	29362.12
516.526	28209.12
517.298	27166.12
518.071	26098.12
518.843	25018.12
519.615	24018.12
520.387	23122.12
521.159	22187.12
521.93	21306.12
522.702	20413.12
523.474	19600.12
524.245	18884.12
525.017	18108.12
525.788	17369.12
526.56	16662.12
527.331	15894.12
528.102	15204.12
528.873	14479.12
529.644	13823.12
530.415	13144.12
531.186	12523.12
531.957	11950.12
532.728	11323.12
533.498	10762.12
534.269	10242.12
535.039	9648.12
535.81	9202.12
536.58	8679.12
537.351	8256.12
538.121	7791.12
538.891	7390.12
539.661	7015.12
540.431	6618.12
541.201	6273.12
541.971	5941.12
542.741	5625.12
543.51	5336.12
544.28	5066.12
545.05	4812.12
545.819	4591.12
546.588	4353.12
547.358	4137.12
548.127	3934.12
548.896	3758.12
549.665	3577.12
550.434	3364.12
551.203	3190.12
551.972	3065.12
552.741	2880.12
553.51	2747.12
554.278	2594.12
555.047	2425.12
555.815	2326.12
556.584	2208.12
557.352	2076.12
558.121	1950.12
558.889	1847.12
559.657	1743.12
560.425	1647.12
561.193	1568.12
561.961	1484.12
562.729	1403.12
563.496	1324.12
564.264	1258.12
565.032	1194.12
565.799	1118.12
566.567	1061.12
567.334	1008.12
568.101	944.12
568.869	891.12
569.636	849.12
570.403	797.12
571.17	752.12
571.937	712.12
572.704	666.12
573.471	625.12
574.237	598.12
575.004	562.12
575.771	533.12
576.537	496.12
577.303	468.12
578.07	441.12
578.836	413.12
579.602	394.12
580.368	380.12
581.134	358.12
581.9	343.12
582.666	319.12
583.432	305.12
584.198	287.12
584.964	272.12
585.729	268.12
586.495	245.12
587.26	228.12
588.025	219.12
588.791	204.12
589.556	198.12
590.321	194.12
591.086	179.12
591.851	170.12
592.616	165.12
593.381	153.12
594.146	142.12
594.911	141.12
595.675	132.12
596.44	128.12
597.204	120.12
597.969	118.12
598.733	114.12
599.497	100.12
600.261	101.12
601.025	98.12
601.79	98.12
602.553	88.12
603.317	84.12
604.081	82.12
604.845	77.12
605.609	76.12
606.372	72.12
607.136	69.12
607.899	69.12
608.662	62.12
609.426	65.12
610.189	60.12
610.952	61.12
611.715	57.12
612.478	51.12
613.241	50.12
614.004	48.12
614.767	45.12
615.529	44.12
616.292	43.12
617.055	44.12
617.817	40.12
618.579	38.12
619.342	37.12
620.104	39.12
620.866	35.12
621.628	35.12
622.39	30.12
623.152	30.12
623.914	31.12
624.676	30.12
625.438	30.12
626.199	26.12
626.961	26.12
627.722	26.12
628.484	28.12
629.245	25.12
630.006	18.12
630.768	25.12
631.529	25.12
632.29	20.12
633.051	19.12
633.812	22.12
634.573	18.12
635.333	19.12
636.094	21.12
636.855	19.12
637.615	18.12
638.376	19.12
639.136	18.12
639.896	17.12
640.657	16.12
641.417	14.12
642.177	13.12
642.937	13.12
643.697	12.12
644.457	14.12
645.216	12.12
645.976	14.12
646.736	12.12
647.495	14.12
648.255	10.12
649.014	11.12
649.774	14.12
650.533	11.12
651.292	11.12
652.051	11.12
652.81	10.12
653.569	11.12
654.328	10.12
655.087	11.12
655.846	9.12
656.604	10.12
657.363	11.12
658.121	10.12
658.88	9.12
659.638	9.12
660.397	12.12
661.155	9.12
661.913	10.12
662.671	6.12
663.429	7.12
664.187	9.12
664.945	6.12
665.703	8.12
666.46	8.12
667.218	10.12
667.976	7.12
668.733	7.12
669.49	6.12
670.248	6.12
671.005	7.12
671.762	6.12
672.519	6.12
673.276	6.12
674.033	7.12
674.79	7.12
675.547	6.12
676.304	7.12
677.06	6.12
677.817	7.12
678.574	6.12
679.33	7.12
680.086	6.12
680.843	4.12
681.599	6.12
682.355	5.12
683.111	8.12
683.867	5.12
684.623	6.12
685.379	6.12
686.135	6.12
686.89	6.12
687.646	6.12
688.402	5.12
689.157	4.12
689.912	6.12
690.668	7.12
691.423	6.12
692.178	5.12
692.933	6.12
693.688	5.12
694.443	4.12
695.198	4.12
695.953	6.12
696.708	4.12
697.462	4.12
698.217	3.12
698.972	5.12
699.726	1.12
700.48	5.12
701.235	4.12
701.989	4.12
702.743	4.12
703.497	6.12
704.251	8.12
705.005	4.12
705.759	8.12
706.513	4.12
707.266	4.12
708.02	5.12
708.774	4.12
709.527	7.12
710.28	5.12
711.034	5.12
711.787	6.12
712.54	3.12
713.293	5.12
714.046	4.12
714.799	7.12
715.552	7.12
716.305	6.12
717.058	7.12
717.81	6.12
718.563	3.12
719.315	6.12
720.068	6.12
720.82	5.12
721.573	6.12
722.325	6.12
723.077	5.12
723.829	4.12
724.581	5.12
725.333	8.12
726.085	6.12
726.836	6.12
727.588	5.12
728.34	4.12
729.091	9.12
729.843	4.12
730.594	6.12
731.346	7.12
732.097	5.12
732.848	8.12
733.599	7.12
734.35	5.12
735.101	5.12
735.852	7.12
736.603	5.12
737.354	8.12
738.104	5.12
738.855	6.12
739.605	6.12
740.356	7.12
741.106	9.12
741.856	8.12
742.607	4.12
743.357	7.12
744.107	10.12
744.857	7.12
745.607	7.12
746.357	6.12
747.106	9.12
747.856	8.12
748.606	8.12
749.355	8.12
750.105	7.12
750.854	5.12
751.603	10.12
752.353	6.12
753.102	6.12
753.851	7.12
754.6	7.12
755.349	8.12
756.098	8.12
756.847	6.12
757.595	7.12
758.344	12.12
759.093	8.12
759.841	9.12
760.589	9.12
761.338	8.12
762.086	9.12
762.834	7.12
763.582	11.12
764.331	11.12
765.079	12.12
765.826	10.12
766.574	11.12
767.322	8.12
768.07	13.12
768.817	10.12
769.565	11.12
770.312	11.12
771.06	9.12
771.807	12.12
772.554	9.12
773.302	10.12
774.049	11.12
774.796	10.12
775.543	10.12
776.29	13.12
777.036	10.12
777.783	11.12
778.53	12.12
779.276	13.12
780.023	12.12
780.769	11.12
781.516	12.12
782.262	11.12
783.008	13.12
783.754	10.12
784.5	13.12
785.246	11.12
785.992	14.12
786.738	10.12
787.484	11.12
788.23	12.12
788.975	13.12
789.721	10.12
790.466	11.12
791.212	11.12
791.957	10.12
792.702	10.12
793.447	11.12
794.193	9.12
794.938	11.12
795.683	8.12
796.427	11.12
797.172	11.12
797.917	12.12
798.662	9.12
799.406	8.12
800.151	7.12
800.895	11.12
801.64	10.12
802.384	9.12
803.128	11.12
803.872	10.12
804.616	6.12
805.36	8.12
806.104	9.12
806.848	7.12
807.592	9.12
808.336	7.12
809.079	6.12
809.823	9.12
810.566	5.12
811.31	9.12
812.053	8.12
812.796	7.12
813.539	6.12
814.283	6.12
815.026	6.12
815.769	7.12
816.511	8.12
817.254	7.12
817.997	6.12
818.74	6.12
819.482	5.12
820.225	8.12
820.967	6.12
821.71	6.12
822.452	5.12
823.194	5.12
823.936	5.12
824.678	6.12
825.42	6.12
826.162	6.12
826.904	4.12
827.646	4.12
828.388	3.12
829.129	6.12
829.871	6.12
830.612	6.12
831.354	4.12
832.095	6.12
832.836	7.12
833.577	6.12
834.319	5.12
835.06	5.12
835.801	4.12
836.542	4.12
837.282	4.12
838.023	2.12
838.764	5.12
839.504	5.12
840.245	3.12
840.985	4.12
841.726	1.12
842.466	5.12
843.206	3.12
843.946	4.12
844.687	4.12
845.427	6.12
846.166	4.12
846.906	4.12
847.646	6.12
848.386	4.12
849.125	3.12
849.865	4.12
850.605	4.12
851.344	6.12
852.083	3.12
852.823	2.12
853.562	4.12
854.301	2.12
855.04	2.12
855.779	2.12
856.518	3.12
857.257	2.12
857.995	3.12
858.734	1.12
859.473	2.12
860.211	1.12
860.95	2.12
861.688	1.12
862.426	1.12
863.165	4.12
863.903	-2.88
864.641	1.12
865.379	3.12
866.117	0.12
866.855	2.12
867.593	0.12
868.33	1.12
869.068	1.12
869.806	2.12
870.543	3.12
871.28	0.12
872.018	3.12
872.755	2.12
873.492	0.12
874.229	0.12
874.967	1.12
875.703	2.12
876.44	1.12
877.177	1.12
877.914	0.12
878.651	2.12
879.387	1.12
880.124	1.12
880.86	1.12
881.597	1.12
882.333	2.12
883.069	1.12
883.806	3.12
884.542	1.12
885.278	2.12
886.014	0.12
886.749	2.12
887.485	3.12
888.221	0.12
888.957	0.12
889.692	1.12
890.428	1.12
891.163	1.12
891.899	1.12
892.634	2.12
893.369	-0.88
894.104	0.12
894.839	0.12
895.574	0.12
896.309	0.12
897.044	0.12
897.779	0.12
898.514	1.12
899.248	-0.88
899.983	0.12
900.717	3.12
901.452	1.12
902.186	0.12
902.92	0.12
903.654	-3.88
904.389	-0.88
905.123	0.12
905.857	0.12
906.59	-0.88
907.324	1.12
908.058	0.12
908.792	0.12
909.525	0.12
910.259	-1.88
910.992	-0.88
911.726	-0.88
912.459	1.12
913.192	0.12
913.925	0.12
914.658	0.12
915.391	-0.88
916.124	0.12
916.857	0.12
917.59	0.12
918.323	-0.88
919.055	-0.88
919.788	0.12
920.521	0.12
921.253	-1.88
921.985	1.12
922.718	0.12
923.45	0.12
924.182	-2.88
924.914	0.12
925.646	0.12
926.378	-0.88
927.11	-1.88
927.841	-0.88
928.573	0.12
929.305	1.12
930.036	0.12
930.768	-1.88
931.499	1.12
932.23	-2.88
932.962	1.12
933.693	0.12
934.424	-2.88
935.155	0.12
935.886	0.12
936.617	-1.88
937.348	-0.88
938.078	2.12
938.809	0.12
939.54	0.12
940.27	-1.88
941.001	0.12
941.731	0.12
942.461	-2.88
943.191	-2.88
943.922	-2.88
944.652	0.12
945.382	-1.88
946.112	0.12
946.841	-1.88
947.571	0.12
948.301	-0.88
949.031	-0.88
949.76	0.12
950.49	1.12
951.219	-0.88
951.948	0.12
952.678	-0.88
953.407	0.12
954.136	0.12
954.865	0.12
955.594	-0.88
956.323	-0.88
957.052	0.12
957.78	-1.88
958.509	1.12
959.238	1.12
959.966	-0.88
960.695	0.12
961.423	0.12
962.151	2.12
962.88	-0.88
963.608	0.12
964.336	-1.88
965.064	1.12
965.792	1.12
966.52	0.12
967.247	-1.88
967.975	-2.88
968.703	-1.88
969.43	-1.88
970.158	-1.88
970.885	1.12
971.613	0.12
972.34	-0.88
973.067	-2.88
973.794	1.12
974.521	0.12
975.248	-0.88
975.975	0.12
976.702	-0.88
977.429	-0.88
978.156	0.12
978.882	-0.88
979.609	-1.88
980.335	0.12
981.062	-2.88
981.788	0.12
982.514	0.12
983.24	-1.88
983.967	1.12
984.693	0.12
985.419	-1.88
986.144	0.12
986.87	-0.88
987.596	-0.88
988.322	-0.88
989.047	0.12
989.773	0.12
990.498	0.12
991.224	0.12
991.949	0.12
992.674	-0.88
993.399	0.12
994.124	-0.88
994.849	0.12
995.574	0.12
996.299	0.12
997.024	0.12
997.749	1.12
998.473	-1.88
999.198	1.12
999.922	-1.88
1000.647	0.12
1001.371	2.12
1002.095	-2.88
1002.82	0.12
1003.544	-1.88
1004.268	2.12
1004.992	2.12
1005.716	2.12
1006.439	4.12
1007.163	2.12
1007.887	3.12
1008.611	-1.88
1009.334	-1.88
1010.058	-0.88
1010.781	1.12
1011.504	-0.88
1012.228	-0.88
1012.951	2.12
1013.674	0.12
1014.397	0.12
1015.12	0.12
