节点500_565_QEPB04081__5__09-50-33-123.txt的数据

Date: Thu Nov 13 09:50:33 CST 2025
User: PC
Spectrometer: QEPB0408
触发模式: 0
积分时间 (秒): 1.000000E-2
Scans to average: 1
启用暗噪声校正: true
启用非线性校正: false
滑动平均宽度: 0
X轴模式: Wavelengths
Number of Pixels in Spectrum: 1044
>>>>>Begin Spectral Data<<<<<
220.843	6.38
221.644	4.38
222.444	5.38
223.244	4.38
224.045	2.38
224.845	4.38
225.645	4.38
226.445	4.38
227.245	8.38
228.045	6.38
228.845	7.38
229.645	7.38
230.444	7.38
231.244	8.38
232.043	7.38
232.843	8.38
233.642	7.38
234.442	9.38
235.241	10.38
236.04	10.38
236.839	8.38
237.638	9.38
238.437	10.38
239.236	9.38
240.035	8.38
240.833	10.38
241.632	11.38
242.43	11.38
243.229	9.38
244.027	9.38
244.826	12.38
245.624	11.38
246.422	13.38
247.22	13.38
248.018	12.38
248.816	14.38
249.614	15.38
250.412	16.38
251.21	16.38
252.007	12.38
252.805	17.38
253.602	15.38
254.4	17.38
255.197	16.38
255.994	16.38
256.791	18.38
257.589	19.38
258.386	21.38
259.183	19.38
259.979	20.38
260.776	22.38
261.573	20.38
262.37	20.38
263.166	24.38
263.963	28.38
264.759	25.38
265.556	22.38
266.352	26.38
267.148	24.38
267.944	26.38
268.74	25.38
269.536	31.38
270.332	30.38
271.128	29.38
271.924	30.38
272.719	29.38
273.515	31.38
274.311	30.38
275.106	32.38
275.901	29.38
276.697	30.38
277.492	31.38
278.287	31.38
279.082	33.38
279.877	29.38
280.672	31.38
281.467	32.38
282.262	32.38
283.056	36.38
283.851	31.38
284.646	32.38
285.44	30.38
286.234	32.38
287.029	31.38
287.823	34.38
288.617	29.38
289.411	27.38
290.205	28.38
290.999	26.38
291.793	32.38
292.587	28.38
293.381	27.38
294.174	29.38
294.968	25.38
295.761	24.38
296.555	23.38
297.348	26.38
298.141	25.38
298.935	24.38
299.728	22.38
300.521	21.38
301.314	24.38
302.107	19.38
302.899	23.38
303.692	22.38
304.485	18.38
305.277	18.38
306.07	22.38
306.862	17.38
307.655	18.38
308.447	19.38
309.239	17.38
310.031	20.38
310.823	18.38
311.615	16.38
312.407	14.38
313.199	15.38
313.991	17.38
314.783	16.38
315.574	13.38
316.366	14.38
317.157	13.38
317.949	14.38
318.74	10.38
319.531	14.38
320.322	14.38
321.113	12.38
321.904	11.38
322.695	10.38
323.486	13.38
324.277	10.38
325.068	12.38
325.858	10.38
326.649	10.38
327.439	11.38
328.23	10.38
329.02	11.38
329.81	10.38
330.6	10.38
331.391	11.38
332.181	10.38
332.971	11.38
333.76	12.38
334.55	9.38
335.34	10.38
336.13	10.38
336.919	11.38
337.709	13.38
338.498	13.38
339.287	11.38
340.077	11.38
340.866	9.38
341.655	9.38
342.444	9.38
343.233	10.38
344.022	8.38
344.811	9.38
345.6	11.38
346.388	11.38
347.177	9.38
347.965	8.38
348.754	11.38
349.542	8.38
350.33	10.38
351.119	12.38
351.907	9.38
352.695	8.38
353.483	8.38
354.271	8.38
355.059	10.38
355.846	6.38
356.634	9.38
357.422	8.38
358.209	10.38
358.997	11.38
359.784	9.38
360.571	11.38
361.359	8.38
362.146	11.38
362.933	8.38
363.72	8.38
364.507	11.38
365.294	8.38
366.081	8.38
366.867	9.38
367.654	9.38
368.44	7.38
369.227	9.38
370.013	9.38
370.8	7.38
371.586	9.38
372.372	9.38
373.158	9.38
373.944	8.38
374.73	10.38
375.516	9.38
376.302	9.38
377.088	11.38
377.873	6.38
378.659	8.38
379.445	8.38
380.23	9.38
381.015	10.38
381.801	8.38
382.586	10.38
383.371	11.38
384.156	11.38
384.941	10.38
385.726	10.38
386.511	10.38
387.296	9.38
388.08	9.38
388.865	8.38
389.649	12.38
390.434	9.38
391.218	10.38
392.003	12.38
392.787	12.38
393.571	10.38
394.355	9.38
395.139	12.38
395.923	13.38
396.707	11.38
397.491	9.38
398.274	9.38
399.058	11.38
399.842	13.38
400.625	8.38
401.408	11.38
402.192	13.38
402.975	13.38
403.758	12.38
404.541	14.38
405.324	12.38
406.107	17.38
406.89	13.38
407.673	14.38
408.456	15.38
409.238	14.38
410.021	16.38
410.803	16.38
411.586	15.38
412.368	16.38
413.151	16.38
413.933	17.38
414.715	15.38
415.497	19.38
416.279	18.38
417.061	14.38
417.843	18.38
418.624	16.38
419.406	16.38
420.188	18.38
420.969	18.38
421.751	20.38
422.532	23.38
423.313	20.38
424.095	20.38
424.876	21.38
425.657	18.38
426.438	23.38
427.219	20.38
428	23.38
428.78	24.38
429.561	24.38
430.342	26.38
431.122	27.38
431.903	27.38
432.683	33.38
433.464	30.38
434.244	31.38
435.024	32.38
435.804	32.38
436.584	38.38
437.364	37.38
438.144	36.38
438.924	38.38
439.704	43.38
440.483	46.38
441.263	48.38
442.042	51.38
442.822	51.38
443.601	55.38
444.38	62.38
445.16	64.38
445.939	65.38
446.718	73.38
447.497	77.38
448.276	85.38
449.054	97.38
449.833	104.38
450.612	112.38
451.391	120.38
452.169	132.38
452.948	146.38
453.726	157.38
454.504	177.38
455.282	196.38
456.061	220.38
456.839	244.38
457.617	274.38
458.395	300.38
459.172	337.38
459.95	375.38
460.728	424.38
461.506	477.38
462.283	524.38
463.061	591.38
463.838	663.38
464.615	746.38
465.393	839.38
466.17	918.38
466.947	1039.38
467.724	1179.38
468.501	1300.38
469.278	1463.38
470.055	1629.38
470.831	1812.38
471.608	2003.38
472.385	2240.38
473.161	2485.38
473.938	2773.38
474.714	3081.38
475.49	3387.38
476.266	3795.38
477.043	4171.38
477.819	4639.38
478.595	5108.38
479.371	5654.38
480.146	6230.38
480.922	6874.38
481.698	7565.38
482.473	8301.38
483.249	9117.38
484.024	10033.38
484.8	11018.38
485.575	12088.38
486.35	13190.38
487.126	14436.38
487.901	15791.38
488.676	17116.38
489.451	18642.38
490.225	20226.38
491	21931.38
491.775	23624.38
492.55	25499.38
493.324	27314.38
494.099	29136.38
494.873	31050.38
495.647	33083.38
496.422	34944.38
497.196	36783.38
497.97	38395.38
498.744	39916.38
499.518	41291.38
500.292	42574.38
501.066	43611.38
501.839	44533.38
502.613	45232.38
503.387	45567.38
504.16	45739.38
504.934	45479.38
505.707	45165.38
506.48	44672.38
507.253	43804.38
508.027	42738.38
508.8	41464.38
509.573	40183.38
510.346	38811.38
511.118	37312.38
511.891	36045.38
512.664	34550.38
513.437	32963.38
514.209	31447.38
514.982	30262.38
515.754	29009.38
516.526	27638.38
517.298	26407.38
518.071	25402.38
518.843	24323.38
519.615	23255.38
520.387	22379.38
521.159	21501.38
521.93	20649.38
522.702	19794.38
523.474	18978.38
524.245	18170.38
525.017	17389.38
525.788	16573.38
526.56	15729.38
527.331	14983.38
528.102	14239.38
528.873	13484.38
529.644	12774.38
530.415	12113.38
531.186	11483.38
531.957	10859.38
532.728	10310.38
533.498	9672.38
534.269	9141.38
535.039	8604.38
535.81	8179.38
536.58	7758.38
537.351	7276.38
538.121	6904.38
538.891	6514.38
539.661	6161.38
540.431	5895.38
541.201	5536.38
541.971	5248.38
542.741	4964.38
543.51	4668.38
544.28	4477.38
545.05	4274.38
545.819	4060.38
546.588	3873.38
547.358	3634.38
548.127	3470.38
548.896	3289.38
549.665	3118.38
550.434	2940.38
551.203	2803.38
551.972	2658.38
552.741	2497.38
553.51	2367.38
554.278	2228.38
555.047	2101.38
555.815	1984.38
556.584	1877.38
557.352	1761.38
558.121	1672.38
558.889	1586.38
559.657	1474.38
560.425	1410.38
561.193	1328.38
561.961	1256.38
562.729	1187.38
563.496	1125.38
564.264	1069.38
565.032	1016.38
565.799	955.38
566.567	903.38
567.334	849.38
568.101	802.38
568.869	761.38
569.636	717.38
570.403	685.38
571.17	644.38
571.937	605.38
572.704	568.38
573.471	527.38
574.237	502.38
575.004	479.38
575.771	446.38
576.537	422.38
577.303	395.38
578.07	377.38
578.836	345.38
579.602	332.38
580.368	317.38
581.134	298.38
581.9	287.38
582.666	267.38
583.432	256.38
584.198	249.38
584.964	237.38
585.729	219.38
586.495	209.38
587.26	192.38
588.025	188.38
588.791	180.38
589.556	172.38
590.321	162.38
591.086	153.38
591.851	148.38
592.616	142.38
593.381	134.38
594.146	127.38
594.911	120.38
595.675	113.38
596.44	110.38
597.204	105.38
597.969	100.38
598.733	96.38
599.497	91.38
600.261	89.38
601.025	84.38
601.79	82.38
602.553	78.38
603.317	75.38
604.081	72.38
604.845	71.38
605.609	67.38
606.372	64.38
607.136	61.38
607.899	60.38
608.662	56.38
609.426	56.38
610.189	52.38
610.952	50.38
611.715	51.38
612.478	48.38
613.241	47.38
614.004	41.38
614.767	42.38
615.529	46.38
616.292	41.38
617.055	38.38
617.817	35.38
618.579	37.38
619.342	34.38
620.104	36.38
620.866	30.38
621.628	33.38
622.39	30.38
623.152	29.38
623.914	26.38
624.676	29.38
625.438	27.38
626.199	26.38
626.961	28.38
627.722	25.38
628.484	25.38
629.245	23.38
630.006	22.38
630.768	24.38
631.529	20.38
632.29	21.38
633.051	23.38
633.812	20.38
634.573	18.38
635.333	16.38
636.094	19.38
636.855	17.38
637.615	18.38
638.376	15.38
639.136	16.38
639.896	15.38
640.657	16.38
641.417	16.38
642.177	18.38
642.937	16.38
643.697	15.38
644.457	12.38
645.216	12.38
645.976	15.38
646.736	12.38
647.495	11.38
648.255	15.38
649.014	12.38
649.774	11.38
650.533	13.38
651.292	12.38
652.051	13.38
652.81	14.38
653.569	11.38
654.328	12.38
655.087	11.38
655.846	10.38
656.604	11.38
657.363	10.38
658.121	9.38
658.88	11.38
659.638	10.38
660.397	11.38
661.155	11.38
661.913	7.38
662.671	9.38
663.429	10.38
664.187	8.38
664.945	8.38
665.703	7.38
666.46	8.38
667.218	8.38
667.976	8.38
668.733	9.38
669.49	9.38
670.248	9.38
671.005	9.38
671.762	8.38
672.519	8.38
673.276	9.38
674.033	9.38
674.79	7.38
675.547	7.38
676.304	7.38
677.06	8.38
677.817	6.38
678.574	7.38
679.33	5.38
680.086	6.38
680.843	8.38
681.599	6.38
682.355	4.38
683.111	7.38
683.867	10.38
684.623	8.38
685.379	7.38
686.135	5.38
686.89	7.38
687.646	7.38
688.402	7.38
689.157	8.38
689.912	5.38
690.668	7.38
691.423	6.38
692.178	6.38
692.933	5.38
693.688	8.38
694.443	6.38
695.198	4.38
695.953	8.38
696.708	8.38
697.462	5.38
698.217	8.38
698.972	5.38
699.726	8.38
700.48	5.38
701.235	8.38
701.989	4.38
702.743	5.38
703.497	6.38
704.251	7.38
705.005	7.38
705.759	8.38
706.513	7.38
707.266	6.38
708.02	4.38
708.774	6.38
709.527	5.38
710.28	7.38
711.034	4.38
711.787	7.38
712.54	5.38
713.293	6.38
714.046	7.38
714.799	8.38
715.552	7.38
716.305	5.38
717.058	8.38
717.81	8.38
718.563	6.38
719.315	10.38
720.068	6.38
720.82	7.38
721.573	8.38
722.325	9.38
723.077	7.38
723.829	7.38
724.581	8.38
725.333	6.38
726.085	9.38
726.836	8.38
727.588	7.38
728.34	7.38
729.091	7.38
729.843	9.38
730.594	6.38
731.346	9.38
732.097	6.38
732.848	7.38
733.599	9.38
734.35	8.38
735.101	9.38
735.852	7.38
736.603	9.38
737.354	9.38
738.104	8.38
738.855	13.38
739.605	8.38
740.356	9.38
741.106	8.38
741.856	10.38
742.607	8.38
743.357	9.38
744.107	10.38
744.857	11.38
745.607	9.38
746.357	10.38
747.106	11.38
747.856	10.38
748.606	8.38
749.355	10.38
750.105	12.38
750.854	11.38
751.603	8.38
752.353	14.38
753.102	9.38
753.851	11.38
754.6	11.38
755.349	9.38
756.098	10.38
756.847	12.38
757.595	9.38
758.344	12.38
759.093	8.38
759.841	10.38
760.589	9.38
761.338	12.38
762.086	11.38
762.834	11.38
763.582	11.38
764.331	12.38
765.079	11.38
765.826	12.38
766.574	12.38
767.322	13.38
768.07	16.38
768.817	13.38
769.565	13.38
770.312	12.38
771.06	14.38
771.807	16.38
772.554	13.38
773.302	17.38
774.049	12.38
774.796	12.38
775.543	15.38
776.29	13.38
777.036	13.38
777.783	16.38
778.53	17.38
779.276	16.38
780.023	16.38
780.769	18.38
781.516	15.38
782.262	16.38
783.008	12.38
783.754	16.38
784.5	13.38
785.246	13.38
785.992	14.38
786.738	14.38
787.484	12.38
788.23	15.38
788.975	12.38
789.721	13.38
790.466	13.38
791.212	12.38
791.957	13.38
792.702	12.38
793.447	14.38
794.193	13.38
794.938	12.38
795.683	15.38
796.427	14.38
797.172	12.38
797.917	12.38
798.662	10.38
799.406	12.38
800.151	13.38
800.895	11.38
801.64	12.38
802.384	12.38
803.128	10.38
803.872	9.38
804.616	8.38
805.36	10.38
806.104	10.38
806.848	8.38
807.592	8.38
808.336	11.38
809.079	12.38
809.823	9.38
810.566	10.38
811.31	8.38
812.053	8.38
812.796	7.38
813.539	10.38
814.283	9.38
815.026	8.38
815.769	8.38
816.511	8.38
817.254	9.38
817.997	7.38
818.74	8.38
819.482	6.38
820.225	8.38
820.967	8.38
821.71	5.38
822.452	6.38
823.194	6.38
823.936	6.38
824.678	5.38
825.42	7.38
826.162	5.38
826.904	6.38
827.646	5.38
828.388	3.38
829.129	6.38
829.871	5.38
830.612	3.38
831.354	6.38
832.095	4.38
832.836	5.38
833.577	5.38
834.319	5.38
835.06	4.38
835.801	6.38
836.542	6.38
837.282	5.38
838.023	4.38
838.764	6.38
839.504	5.38
840.245	6.38
840.985	6.38
841.726	6.38
842.466	5.38
843.206	3.38
843.946	3.38
844.687	7.38
845.427	5.38
846.166	3.38
846.906	5.38
847.646	4.38
848.386	5.38
849.125	3.38
849.865	4.38
850.605	1.38
851.344	5.38
852.083	4.38
852.823	4.38
853.562	2.38
854.301	4.38
855.04	4.38
855.779	2.38
856.518	2.38
857.257	3.38
857.995	3.38
858.734	4.38
859.473	1.38
860.211	4.38
860.95	1.38
861.688	4.38
862.426	2.38
863.165	3.38
863.903	5.38
864.641	4.38
865.379	3.38
866.117	4.38
866.855	3.38
867.593	3.38
868.33	2.38
869.068	1.38
869.806	0.38
870.543	2.38
871.28	0.38
872.018	2.38
872.755	1.38
873.492	0.38
874.229	2.38
874.967	0.38
875.703	2.38
876.44	1.38
877.177	2.38
877.914	1.38
878.651	4.38
879.387	3.38
880.124	0.38
880.86	2.38
881.597	1.38
882.333	2.38
883.069	2.38
883.806	1.38
884.542	1.38
885.278	1.38
886.014	2.38
886.749	3.38
887.485	3.38
888.221	0.38
888.957	-0.62
889.692	1.38
890.428	-1.62
891.163	1.38
891.899	0.38
892.634	2.38
893.369	1.38
894.104	3.38
894.839	3.38
895.574	-2.62
896.309	1.38
897.044	2.38
897.779	3.38
898.514	0.38
899.248	4.38
899.983	1.38
900.717	1.38
901.452	1.38
902.186	0.38
902.92	0.38
903.654	0.38
904.389	0.38
905.123	0.38
905.857	-0.62
906.59	3.38
907.324	4.38
908.058	1.38
908.792	2.38
909.525	1.38
910.259	0.38
910.992	1.38
911.726	1.38
912.459	3.38
913.192	2.38
913.925	0.38
914.658	-0.62
915.391	1.38
916.124	-0.62
916.857	2.38
917.59	1.38
918.323	2.38
919.055	1.38
919.788	0.38
920.521	0.38
921.253	-0.62
921.985	1.38
922.718	1.38
923.45	2.38
924.182	-0.62
924.914	0.38
925.646	0.38
926.378	0.38
927.11	0.38
927.841	1.38
928.573	3.38
929.305	1.38
930.036	0.38
930.768	0.38
931.499	-0.62
932.23	1.38
932.962	2.38
933.693	2.38
934.424	0.38
935.155	1.38
935.886	2.38
936.617	-1.62
937.348	1.38
938.078	1.38
938.809	1.38
939.54	0.38
940.27	0.38
941.001	1.38
941.731	-0.62
942.461	1.38
943.191	0.38
943.922	0.38
944.652	3.38
945.382	-2.62
946.112	0.38
946.841	0.38
947.571	-0.62
948.301	1.38
949.031	-0.62
949.76	1.38
950.49	0.38
951.219	0.38
951.948	0.38
952.678	0.38
953.407	1.38
954.136	1.38
954.865	0.38
955.594	-0.62
956.323	4.38
957.052	0.38
957.78	3.38
958.509	-0.62
959.238	0.38
959.966	3.38
960.695	-2.62
961.423	0.38
962.151	-0.62
962.88	1.38
963.608	-0.62
964.336	0.38
965.064	1.38
965.792	1.38
966.52	0.38
967.247	-1.62
967.975	1.38
968.703	0.38
969.43	2.38
970.158	3.38
970.885	3.38
971.613	1.38
972.34	1.38
973.067	-0.62
973.794	1.38
974.521	0.38
975.248	1.38
975.975	-2.62
976.702	1.38
977.429	-0.62
978.156	0.38
978.882	0.38
979.609	1.38
980.335	2.38
981.062	0.38
981.788	2.38
982.514	1.38
983.24	2.38
983.967	0.38
984.693	2.38
985.419	0.38
986.144	0.38
986.87	2.38
987.596	1.38
988.322	1.38
989.047	0.38
989.773	0.38
990.498	1.38
991.224	0.38
991.949	1.38
992.674	-0.62
993.399	0.38
994.124	1.38
994.849	1.38
995.574	2.38
996.299	0.38
997.024	1.38
997.749	-0.62
998.473	0.38
999.198	1.38
999.922	1.38
1000.647	2.38
1001.371	1.38
1002.095	-1.62
1002.82	2.38
1003.544	-1.62
1004.268	3.38
1004.992	4.38
1005.716	5.38
1006.439	1.38
1007.163	3.38
1007.887	5.38
1008.611	1.38
1009.334	1.38
1010.058	0.38
1010.781	0.38
1011.504	1.38
1012.228	3.38
1012.951	0.38
1013.674	-1.62
1014.397	1.38
1015.12	-0.62
