节点500_565_QEPB04081__160__09-53-04-950.txt的数据

Date: Thu Nov 13 09:53:04 CST 2025
User: PC
Spectrometer: QEPB0408
触发模式: 0
积分时间 (秒): 1.000000E-2
Scans to average: 1
启用暗噪声校正: true
启用非线性校正: false
滑动平均宽度: 0
X轴模式: Wavelengths
Number of Pixels in Spectrum: 1044
>>>>>Begin Spectral Data<<<<<
220.843	3.62
221.644	6.62
222.444	3.62
223.244	4.62
224.045	3.62
224.845	5.62
225.645	3.62
226.445	5.62
227.245	6.62
228.045	5.62
228.845	7.62
229.645	7.62
230.444	3.62
231.244	6.62
232.043	9.62
232.843	6.62
233.642	7.62
234.442	9.62
235.241	5.62
236.04	8.62
236.839	9.62
237.638	8.62
238.437	8.62
239.236	7.62
240.035	9.62
240.833	10.62
241.632	11.62
242.43	11.62
243.229	11.62
244.027	10.62
244.826	11.62
245.624	12.62
246.422	14.62
247.22	13.62
248.018	14.62
248.816	14.62
249.614	11.62
250.412	10.62
251.21	13.62
252.007	13.62
252.805	14.62
253.602	15.62
254.4	16.62
255.197	15.62
255.994	15.62
256.791	15.62
257.589	18.62
258.386	17.62
259.183	16.62
259.979	18.62
260.776	17.62
261.573	17.62
262.37	21.62
263.166	24.62
263.963	21.62
264.759	18.62
265.556	20.62
266.352	20.62
267.148	24.62
267.944	28.62
268.74	25.62
269.536	27.62
270.332	27.62
271.128	28.62
271.924	23.62
272.719	26.62
273.515	28.62
274.311	28.62
275.106	32.62
275.901	28.62
276.697	31.62
277.492	27.62
278.287	28.62
279.082	29.62
279.877	25.62
280.672	31.62
281.467	30.62
282.262	30.62
283.056	29.62
283.851	31.62
284.646	31.62
285.44	28.62
286.234	32.62
287.029	30.62
287.823	28.62
288.617	30.62
289.411	28.62
290.205	28.62
290.999	28.62
291.793	28.62
292.587	25.62
293.381	26.62
294.174	26.62
294.968	24.62
295.761	26.62
296.555	25.62
297.348	24.62
298.141	22.62
298.935	25.62
299.728	21.62
300.521	21.62
301.314	22.62
302.107	18.62
302.899	22.62
303.692	20.62
304.485	20.62
305.277	16.62
306.07	19.62
306.862	21.62
307.655	18.62
308.447	17.62
309.239	15.62
310.031	17.62
310.823	16.62
311.615	15.62
312.407	14.62
313.199	15.62
313.991	14.62
314.783	13.62
315.574	13.62
316.366	13.62
317.157	12.62
317.949	10.62
318.74	10.62
319.531	12.62
320.322	12.62
321.113	12.62
321.904	10.62
322.695	10.62
323.486	11.62
324.277	9.62
325.068	12.62
325.858	10.62
326.649	9.62
327.439	12.62
328.23	9.62
329.02	11.62
329.81	9.62
330.6	11.62
331.391	8.62
332.181	10.62
332.971	12.62
333.76	10.62
334.55	12.62
335.34	9.62
336.13	12.62
336.919	7.62
337.709	9.62
338.498	9.62
339.287	8.62
340.077	12.62
340.866	9.62
341.655	11.62
342.444	9.62
343.233	9.62
344.022	10.62
344.811	10.62
345.6	9.62
346.388	8.62
347.177	10.62
347.965	9.62
348.754	10.62
349.542	8.62
350.33	10.62
351.119	11.62
351.907	8.62
352.695	10.62
353.483	10.62
354.271	9.62
355.059	9.62
355.846	8.62
356.634	6.62
357.422	7.62
358.209	9.62
358.997	8.62
359.784	8.62
360.571	10.62
361.359	8.62
362.146	9.62
362.933	9.62
363.72	9.62
364.507	9.62
365.294	9.62
366.081	7.62
366.867	7.62
367.654	10.62
368.44	9.62
369.227	8.62
370.013	7.62
370.8	7.62
371.586	8.62
372.372	8.62
373.158	6.62
373.944	8.62
374.73	7.62
375.516	7.62
376.302	8.62
377.088	8.62
377.873	8.62
378.659	8.62
379.445	10.62
380.23	11.62
381.015	6.62
381.801	8.62
382.586	7.62
383.371	6.62
384.156	9.62
384.941	8.62
385.726	12.62
386.511	10.62
387.296	7.62
388.08	5.62
388.865	8.62
389.649	8.62
390.434	10.62
391.218	9.62
392.003	9.62
392.787	10.62
393.571	10.62
394.355	11.62
395.139	10.62
395.923	10.62
396.707	13.62
397.491	12.62
398.274	12.62
399.058	11.62
399.842	11.62
400.625	10.62
401.408	12.62
402.192	11.62
402.975	13.62
403.758	12.62
404.541	11.62
405.324	11.62
406.107	11.62
406.89	13.62
407.673	13.62
408.456	14.62
409.238	14.62
410.021	16.62
410.803	15.62
411.586	14.62
412.368	14.62
413.151	15.62
413.933	15.62
414.715	13.62
415.497	12.62
416.279	16.62
417.061	16.62
417.843	15.62
418.624	17.62
419.406	13.62
420.188	18.62
420.969	17.62
421.751	18.62
422.532	18.62
423.313	18.62
424.095	20.62
424.876	17.62
425.657	20.62
426.438	21.62
427.219	25.62
428	24.62
428.78	22.62
429.561	27.62
430.342	27.62
431.122	28.62
431.903	26.62
432.683	26.62
433.464	30.62
434.244	28.62
435.024	30.62
435.804	31.62
436.584	34.62
437.364	36.62
438.144	36.62
438.924	39.62
439.704	42.62
440.483	46.62
441.263	42.62
442.042	50.62
442.822	52.62
443.601	53.62
444.38	57.62
445.16	61.62
445.939	71.62
446.718	74.62
447.497	83.62
448.276	90.62
449.054	99.62
449.833	102.62
450.612	115.62
451.391	126.62
452.169	138.62
452.948	150.62
453.726	168.62
454.504	184.62
455.282	206.62
456.061	225.62
456.839	264.62
457.617	285.62
458.395	317.62
459.172	359.62
459.95	395.62
460.728	446.62
461.506	502.62
462.283	550.62
463.061	617.62
463.838	698.62
464.615	779.62
465.393	869.62
466.17	968.62
466.947	1088.62
467.724	1209.62
468.501	1345.62
469.278	1483.62
470.055	1653.62
470.831	1830.62
471.608	2038.62
472.385	2278.62
473.161	2512.62
473.938	2760.62
474.714	3066.62
475.49	3375.62
476.266	3730.62
477.043	4138.62
477.819	4522.62
478.595	4961.62
479.371	5429.62
480.146	6010.62
480.922	6575.62
481.698	7219.62
482.473	7875.62
483.249	8596.62
484.024	9394.62
484.8	10298.62
485.575	11239.62
486.35	12227.62
487.126	13349.62
487.901	14489.62
488.676	15783.62
489.451	17156.62
490.225	18488.62
491	20023.62
491.775	21575.62
492.55	23213.62
493.324	24742.62
494.099	26388.62
494.873	28189.62
495.647	29956.62
496.422	31714.62
497.196	33418.62
497.97	34981.62
498.744	36481.62
499.518	37917.62
500.292	39187.62
501.066	40279.62
501.839	41410.62
502.613	42127.62
503.387	42680.62
504.16	43022.62
504.934	43135.62
505.707	42878.62
506.48	42754.62
507.253	42186.62
508.027	41332.62
508.8	40372.62
509.573	39354.62
510.346	38082.62
511.118	36912.62
511.891	35735.62
512.664	34388.62
513.437	33094.62
514.209	31702.62
514.982	30430.62
515.754	29125.62
516.526	27858.62
517.298	26664.62
518.071	25614.62
518.843	24497.62
519.615	23555.62
520.387	22484.62
521.159	21721.62
521.93	20867.62
522.702	19937.62
523.474	19142.62
524.245	18366.62
525.017	17635.62
525.788	16836.62
526.56	16006.62
527.331	15240.62
528.102	14527.62
528.873	13805.62
529.644	13109.62
530.415	12421.62
531.186	11756.62
531.957	11136.62
532.728	10588.62
533.498	10035.62
534.269	9431.62
535.039	8921.62
535.81	8472.62
536.58	8028.62
537.351	7557.62
538.121	7121.62
538.891	6751.62
539.661	6460.62
540.431	6071.62
541.201	5721.62
541.971	5451.62
542.741	5158.62
543.51	4868.62
544.28	4628.62
545.05	4420.62
545.819	4211.62
546.588	3991.62
547.358	3784.62
548.127	3613.62
548.896	3404.62
549.665	3243.62
550.434	3073.62
551.203	2925.62
551.972	2780.62
552.741	2615.62
553.51	2468.62
554.278	2334.62
555.047	2191.62
555.815	2080.62
556.584	1968.62
557.352	1848.62
558.121	1734.62
558.889	1633.62
559.657	1555.62
560.425	1470.62
561.193	1392.62
561.961	1304.62
562.729	1252.62
563.496	1169.62
564.264	1119.62
565.032	1066.62
565.799	997.62
566.567	949.62
567.334	897.62
568.101	844.62
568.869	789.62
569.636	756.62
570.403	710.62
571.17	666.62
571.937	635.62
572.704	592.62
573.471	562.62
574.237	535.62
575.004	495.62
575.771	468.62
576.537	445.62
577.303	417.62
578.07	395.62
578.836	372.62
579.602	348.62
580.368	329.62
581.134	321.62
581.9	309.62
582.666	289.62
583.432	274.62
584.198	265.62
584.964	250.62
585.729	232.62
586.495	222.62
587.26	208.62
588.025	199.62
588.791	189.62
589.556	174.62
590.321	171.62
591.086	160.62
591.851	152.62
592.616	140.62
593.381	141.62
594.146	135.62
594.911	122.62
595.675	120.62
596.44	109.62
597.204	110.62
597.969	104.62
598.733	103.62
599.497	100.62
600.261	93.62
601.025	89.62
601.79	86.62
602.553	85.62
603.317	77.62
604.081	74.62
604.845	72.62
605.609	68.62
606.372	64.62
607.136	64.62
607.899	64.62
608.662	58.62
609.426	57.62
610.189	53.62
610.952	52.62
611.715	48.62
612.478	45.62
613.241	46.62
614.004	47.62
614.767	40.62
615.529	44.62
616.292	39.62
617.055	37.62
617.817	34.62
618.579	38.62
619.342	33.62
620.104	34.62
620.866	35.62
621.628	31.62
622.39	30.62
623.152	31.62
623.914	29.62
624.676	29.62
625.438	27.62
626.199	27.62
626.961	23.62
627.722	27.62
628.484	23.62
629.245	22.62
630.006	23.62
630.768	22.62
631.529	23.62
632.29	18.62
633.051	22.62
633.812	19.62
634.573	22.62
635.333	18.62
636.094	16.62
636.855	22.62
637.615	17.62
638.376	18.62
639.136	16.62
639.896	16.62
640.657	15.62
641.417	16.62
642.177	13.62
642.937	14.62
643.697	14.62
644.457	17.62
645.216	12.62
645.976	13.62
646.736	13.62
647.495	13.62
648.255	11.62
649.014	12.62
649.774	12.62
650.533	12.62
651.292	9.62
652.051	9.62
652.81	7.62
653.569	10.62
654.328	11.62
655.087	13.62
655.846	9.62
656.604	12.62
657.363	10.62
658.121	9.62
658.88	8.62
659.638	11.62
660.397	10.62
661.155	11.62
661.913	8.62
662.671	8.62
663.429	8.62
664.187	7.62
664.945	10.62
665.703	8.62
666.46	9.62
667.218	8.62
667.976	9.62
668.733	7.62
669.49	5.62
670.248	8.62
671.005	7.62
671.762	6.62
672.519	5.62
673.276	7.62
674.033	7.62
674.79	6.62
675.547	8.62
676.304	7.62
677.06	6.62
677.817	8.62
678.574	8.62
679.33	4.62
680.086	8.62
680.843	6.62
681.599	6.62
682.355	9.62
683.111	8.62
683.867	6.62
684.623	7.62
685.379	6.62
686.135	8.62
686.89	8.62
687.646	3.62
688.402	8.62
689.157	7.62
689.912	6.62
690.668	7.62
691.423	6.62
692.178	5.62
692.933	7.62
693.688	6.62
694.443	4.62
695.198	5.62
695.953	3.62
696.708	7.62
697.462	6.62
698.217	5.62
698.972	5.62
699.726	6.62
700.48	7.62
701.235	6.62
701.989	4.62
702.743	7.62
703.497	5.62
704.251	6.62
705.005	6.62
705.759	6.62
706.513	5.62
707.266	6.62
708.02	6.62
708.774	8.62
709.527	6.62
710.28	7.62
711.034	6.62
711.787	5.62
712.54	6.62
713.293	7.62
714.046	6.62
714.799	6.62
715.552	5.62
716.305	5.62
717.058	6.62
717.81	7.62
718.563	5.62
719.315	7.62
720.068	6.62
720.82	8.62
721.573	8.62
722.325	8.62
723.077	7.62
723.829	8.62
724.581	6.62
725.333	5.62
726.085	8.62
726.836	6.62
727.588	5.62
728.34	6.62
729.091	5.62
729.843	9.62
730.594	6.62
731.346	5.62
732.097	6.62
732.848	6.62
733.599	6.62
734.35	6.62
735.101	7.62
735.852	8.62
736.603	8.62
737.354	6.62
738.104	10.62
738.855	9.62
739.605	8.62
740.356	8.62
741.106	8.62
741.856	10.62
742.607	11.62
743.357	8.62
744.107	10.62
744.857	7.62
745.607	8.62
746.357	6.62
747.106	9.62
747.856	9.62
748.606	8.62
749.355	9.62
750.105	9.62
750.854	9.62
751.603	9.62
752.353	9.62
753.102	10.62
753.851	9.62
754.6	12.62
755.349	8.62
756.098	9.62
756.847	9.62
757.595	12.62
758.344	11.62
759.093	10.62
759.841	11.62
760.589	11.62
761.338	11.62
762.086	9.62
762.834	11.62
763.582	11.62
764.331	13.62
765.079	10.62
765.826	10.62
766.574	13.62
767.322	8.62
768.07	12.62
768.817	10.62
769.565	14.62
770.312	12.62
771.06	11.62
771.807	12.62
772.554	13.62
773.302	14.62
774.049	12.62
774.796	12.62
775.543	12.62
776.29	12.62
777.036	16.62
777.783	13.62
778.53	13.62
779.276	14.62
780.023	13.62
780.769	16.62
781.516	13.62
782.262	15.62
783.008	13.62
783.754	11.62
784.5	15.62
785.246	12.62
785.992	15.62
786.738	14.62
787.484	14.62
788.23	14.62
788.975	14.62
789.721	15.62
790.466	12.62
791.212	14.62
791.957	13.62
792.702	14.62
793.447	14.62
794.193	14.62
794.938	12.62
795.683	11.62
796.427	10.62
797.172	9.62
797.917	12.62
798.662	11.62
799.406	12.62
800.151	10.62
800.895	12.62
801.64	9.62
802.384	8.62
803.128	8.62
803.872	8.62
804.616	10.62
805.36	10.62
806.104	9.62
806.848	8.62
807.592	10.62
808.336	6.62
809.079	8.62
809.823	10.62
810.566	7.62
811.31	8.62
812.053	8.62
812.796	9.62
813.539	7.62
814.283	7.62
815.026	8.62
815.769	6.62
816.511	7.62
817.254	6.62
817.997	8.62
818.74	7.62
819.482	8.62
820.225	8.62
820.967	4.62
821.71	5.62
822.452	6.62
823.194	6.62
823.936	6.62
824.678	6.62
825.42	6.62
826.162	8.62
826.904	4.62
827.646	6.62
828.388	4.62
829.129	4.62
829.871	6.62
830.612	8.62
831.354	5.62
832.095	6.62
832.836	7.62
833.577	4.62
834.319	6.62
835.06	4.62
835.801	8.62
836.542	7.62
837.282	4.62
838.023	2.62
838.764	5.62
839.504	7.62
840.245	4.62
840.985	6.62
841.726	5.62
842.466	3.62
843.206	4.62
843.946	4.62
844.687	4.62
845.427	4.62
846.166	4.62
846.906	5.62
847.646	4.62
848.386	5.62
849.125	2.62
849.865	6.62
850.605	2.62
851.344	5.62
852.083	3.62
852.823	5.62
853.562	4.62
854.301	3.62
855.04	3.62
855.779	2.62
856.518	1.62
857.257	3.62
857.995	5.62
858.734	2.62
859.473	3.62
860.211	0.62
860.95	0.62
861.688	2.62
862.426	2.62
863.165	1.62
863.903	2.62
864.641	4.62
865.379	4.62
866.117	3.62
866.855	2.62
867.593	0.62
868.33	2.62
869.068	1.62
869.806	1.62
870.543	3.62
871.28	1.62
872.018	0.62
872.755	1.62
873.492	4.62
874.229	1.62
874.967	1.62
875.703	1.62
876.44	2.62
877.177	3.62
877.914	2.62
878.651	1.62
879.387	1.62
880.124	2.62
880.86	1.62
881.597	1.62
882.333	1.62
883.069	1.62
883.806	4.62
884.542	0.62
885.278	1.62
886.014	1.62
886.749	1.62
887.485	3.62
888.221	0.62
888.957	0.62
889.692	1.62
890.428	2.62
891.163	1.62
891.899	1.62
892.634	2.62
893.369	-0.38
894.104	3.62
894.839	1.62
895.574	-0.38
896.309	0.62
897.044	-0.38
897.779	2.62
898.514	1.62
899.248	0.62
899.983	-0.38
900.717	1.62
901.452	1.62
902.186	2.62
902.92	-0.38
903.654	0.62
904.389	-0.38
905.123	1.62
905.857	1.62
906.59	0.62
907.324	1.62
908.058	2.62
908.792	0.62
909.525	2.62
910.259	2.62
910.992	1.62
911.726	-0.38
912.459	-2.38
913.192	0.62
913.925	1.62
914.658	1.62
915.391	1.62
916.124	-0.38
916.857	-0.38
917.59	2.62
918.323	-0.38
919.055	1.62
919.788	0.62
920.521	0.62
921.253	3.62
921.985	-2.38
922.718	0.62
923.45	1.62
924.182	-0.38
924.914	1.62
925.646	-0.38
926.378	-0.38
927.11	0.62
927.841	-0.38
928.573	1.62
929.305	-2.38
930.036	-0.38
930.768	0.62
931.499	0.62
932.23	2.62
932.962	1.62
933.693	2.62
934.424	1.62
935.155	1.62
935.886	0.62
936.617	0.62
937.348	3.62
938.078	0.62
938.809	-0.38
939.54	-0.38
940.27	2.62
941.001	-0.38
941.731	0.62
942.461	3.62
943.191	-1.38
943.922	0.62
944.652	0.62
945.382	1.62
946.112	-0.38
946.841	0.62
947.571	0.62
948.301	0.62
949.031	1.62
949.76	0.62
950.49	1.62
951.219	-1.38
951.948	0.62
952.678	1.62
953.407	-0.38
954.136	-0.38
954.865	-1.38
955.594	-0.38
956.323	0.62
957.052	2.62
957.78	1.62
958.509	1.62
959.238	1.62
959.966	-1.38
960.695	0.62
961.423	-0.38
962.151	-0.38
962.88	2.62
963.608	-1.38
964.336	0.62
965.064	0.62
965.792	1.62
966.52	-0.38
967.247	1.62
967.975	0.62
968.703	2.62
969.43	1.62
970.158	-2.38
970.885	1.62
971.613	-1.38
972.34	0.62
973.067	-0.38
973.794	0.62
974.521	0.62
975.248	1.62
975.975	1.62
976.702	-1.38
977.429	2.62
978.156	-1.38
978.882	-1.38
979.609	-1.38
980.335	0.62
981.062	1.62
981.788	1.62
982.514	-0.38
983.24	1.62
983.967	0.62
984.693	-0.38
985.419	-1.38
986.144	1.62
986.87	-1.38
987.596	1.62
988.322	0.62
989.047	2.62
989.773	0.62
990.498	-0.38
991.224	0.62
991.949	1.62
992.674	1.62
993.399	1.62
994.124	-0.38
994.849	-1.38
995.574	-1.38
996.299	0.62
997.024	-0.38
997.749	-0.38
998.473	1.62
999.198	0.62
999.922	0.62
1000.647	1.62
1001.371	2.62
1002.095	0.62
1002.82	-2.38
1003.544	-1.38
1004.268	4.62
1004.992	1.62
1005.716	2.62
1006.439	4.62
1007.163	3.62
1007.887	5.62
1008.611	0.62
1009.334	-2.38
1010.058	-0.38
1010.781	0.62
1011.504	0.62
1012.228	0.62
1012.951	-1.38
1013.674	2.62
1014.397	-0.38
1015.12	-0.38
