节点500_565_QEPB04081__245__09-54-29-688.txt的数据

Date: Thu Nov 13 09:54:29 CST 2025
User: PC
Spectrometer: QEPB0408
触发模式: 0
积分时间 (秒): 1.000000E-2
Scans to average: 1
启用暗噪声校正: true
启用非线性校正: false
滑动平均宽度: 0
X轴模式: Wavelengths
Number of Pixels in Spectrum: 1044
>>>>>Begin Spectral Data<<<<<
220.843	2.75
221.644	4.75
222.444	3.75
223.244	5.75
224.045	3.75
224.845	5.75
225.645	3.75
226.445	5.75
227.245	5.75
228.045	5.75
228.845	5.75
229.645	3.75
230.444	5.75
231.244	6.75
232.043	6.75
232.843	8.75
233.642	6.75
234.442	8.75
235.241	6.75
236.04	9.75
236.839	9.75
237.638	9.75
238.437	8.75
239.236	10.75
240.035	7.75
240.833	6.75
241.632	9.75
242.43	9.75
243.229	8.75
244.027	10.75
244.826	11.75
245.624	9.75
246.422	10.75
247.22	12.75
248.018	10.75
248.816	13.75
249.614	12.75
250.412	9.75
251.21	14.75
252.007	14.75
252.805	12.75
253.602	15.75
254.4	14.75
255.197	13.75
255.994	14.75
256.791	15.75
257.589	15.75
258.386	15.75
259.183	16.75
259.979	18.75
260.776	18.75
261.573	18.75
262.37	17.75
263.166	20.75
263.963	21.75
264.759	20.75
265.556	22.75
266.352	20.75
267.148	23.75
267.944	24.75
268.74	23.75
269.536	24.75
270.332	28.75
271.128	27.75
271.924	28.75
272.719	24.75
273.515	23.75
274.311	26.75
275.106	26.75
275.901	29.75
276.697	29.75
277.492	28.75
278.287	29.75
279.082	29.75
279.877	26.75
280.672	32.75
281.467	29.75
282.262	32.75
283.056	28.75
283.851	28.75
284.646	25.75
285.44	26.75
286.234	32.75
287.029	25.75
287.823	29.75
288.617	28.75
289.411	29.75
290.205	29.75
290.999	28.75
291.793	30.75
292.587	28.75
293.381	28.75
294.174	27.75
294.968	23.75
295.761	24.75
296.555	22.75
297.348	22.75
298.141	21.75
298.935	25.75
299.728	22.75
300.521	22.75
301.314	21.75
302.107	21.75
302.899	18.75
303.692	18.75
304.485	17.75
305.277	19.75
306.07	17.75
306.862	19.75
307.655	17.75
308.447	18.75
309.239	18.75
310.031	20.75
310.823	15.75
311.615	15.75
312.407	15.75
313.199	12.75
313.991	16.75
314.783	12.75
315.574	11.75
316.366	12.75
317.157	12.75
317.949	11.75
318.74	11.75
319.531	12.75
320.322	12.75
321.113	12.75
321.904	10.75
322.695	11.75
323.486	12.75
324.277	13.75
325.068	12.75
325.858	9.75
326.649	8.75
327.439	12.75
328.23	11.75
329.02	9.75
329.81	10.75
330.6	9.75
331.391	8.75
332.181	7.75
332.971	11.75
333.76	10.75
334.55	10.75
335.34	9.75
336.13	12.75
336.919	11.75
337.709	11.75
338.498	10.75
339.287	9.75
340.077	10.75
340.866	9.75
341.655	11.75
342.444	9.75
343.233	10.75
344.022	10.75
344.811	8.75
345.6	9.75
346.388	7.75
347.177	10.75
347.965	6.75
348.754	10.75
349.542	8.75
350.33	7.75
351.119	8.75
351.907	7.75
352.695	11.75
353.483	8.75
354.271	9.75
355.059	8.75
355.846	5.75
356.634	7.75
357.422	9.75
358.209	7.75
358.997	7.75
359.784	9.75
360.571	4.75
361.359	8.75
362.146	8.75
362.933	9.75
363.72	9.75
364.507	10.75
365.294	7.75
366.081	7.75
366.867	7.75
367.654	8.75
368.44	7.75
369.227	7.75
370.013	8.75
370.8	8.75
371.586	8.75
372.372	7.75
373.158	10.75
373.944	7.75
374.73	5.75
375.516	8.75
376.302	8.75
377.088	8.75
377.873	8.75
378.659	9.75
379.445	6.75
380.23	10.75
381.015	10.75
381.801	10.75
382.586	7.75
383.371	9.75
384.156	8.75
384.941	8.75
385.726	8.75
386.511	10.75
387.296	8.75
388.08	9.75
388.865	9.75
389.649	9.75
390.434	10.75
391.218	10.75
392.003	11.75
392.787	9.75
393.571	11.75
394.355	7.75
395.139	11.75
395.923	10.75
396.707	10.75
397.491	10.75
398.274	9.75
399.058	10.75
399.842	13.75
400.625	13.75
401.408	12.75
402.192	12.75
402.975	12.75
403.758	12.75
404.541	10.75
405.324	13.75
406.107	14.75
406.89	13.75
407.673	13.75
408.456	12.75
409.238	15.75
410.021	13.75
410.803	15.75
411.586	14.75
412.368	15.75
413.151	16.75
413.933	11.75
414.715	15.75
415.497	15.75
416.279	17.75
417.061	16.75
417.843	14.75
418.624	15.75
419.406	18.75
420.188	15.75
420.969	20.75
421.751	17.75
422.532	17.75
423.313	15.75
424.095	18.75
424.876	20.75
425.657	20.75
426.438	22.75
427.219	20.75
428	25.75
428.78	20.75
429.561	21.75
430.342	24.75
431.122	26.75
431.903	24.75
432.683	27.75
433.464	28.75
434.244	25.75
435.024	29.75
435.804	31.75
436.584	33.75
437.364	38.75
438.144	36.75
438.924	39.75
439.704	40.75
440.483	45.75
441.263	47.75
442.042	50.75
442.822	55.75
443.601	58.75
444.38	62.75
445.16	68.75
445.939	72.75
446.718	76.75
447.497	88.75
448.276	91.75
449.054	96.75
449.833	106.75
450.612	115.75
451.391	128.75
452.169	141.75
452.948	160.75
453.726	173.75
454.504	192.75
455.282	218.75
456.061	237.75
456.839	262.75
457.617	301.75
458.395	334.75
459.172	364.75
459.95	414.75
460.728	459.75
461.506	508.75
462.283	569.75
463.061	640.75
463.838	725.75
464.615	801.75
465.393	877.75
466.17	991.75
466.947	1098.75
467.724	1219.75
468.501	1369.75
469.278	1520.75
470.055	1667.75
470.831	1872.75
471.608	2064.75
472.385	2290.75
473.161	2508.75
473.938	2790.75
474.714	3079.75
475.49	3376.75
476.266	3698.75
477.043	4104.75
477.819	4505.75
478.595	4949.75
479.371	5425.75
480.146	5916.75
480.922	6453.75
481.698	7095.75
482.473	7760.75
483.249	8413.75
484.024	9191.75
484.8	10065.75
485.575	10985.75
486.35	11900.75
487.126	12904.75
487.901	14019.75
488.676	15208.75
489.451	16584.75
490.225	17867.75
491	19220.75
491.775	20704.75
492.55	22272.75
493.324	23877.75
494.099	25383.75
494.873	27108.75
495.647	28730.75
496.422	30541.75
497.196	32073.75
497.97	33660.75
498.744	35137.75
499.518	36540.75
500.292	37895.75
501.066	38995.75
501.839	40025.75
502.613	40854.75
503.387	41529.75
504.16	41930.75
504.934	42226.75
505.707	42140.75
506.48	41857.75
507.253	41551.75
508.027	40764.75
508.8	40019.75
509.573	39034.75
510.346	38016.75
511.118	36856.75
511.891	35743.75
512.664	34545.75
513.437	33206.75
514.209	31797.75
514.982	30522.75
515.754	29326.75
516.526	28123.75
517.298	26908.75
518.071	25802.75
518.843	24787.75
519.615	23740.75
520.387	22800.75
521.159	21941.75
521.93	21077.75
522.702	20085.75
523.474	19366.75
524.245	18584.75
525.017	17789.75
525.788	16951.75
526.56	16198.75
527.331	15430.75
528.102	14745.75
528.873	14039.75
529.644	13308.75
530.415	12668.75
531.186	11946.75
531.957	11404.75
532.728	10780.75
533.498	10260.75
534.269	9685.75
535.039	9078.75
535.81	8674.75
536.58	8219.75
537.351	7751.75
538.121	7329.75
538.891	6914.75
539.661	6567.75
540.431	6226.75
541.201	5866.75
541.971	5571.75
542.741	5267.75
543.51	4984.75
544.28	4732.75
545.05	4535.75
545.819	4301.75
546.588	4085.75
547.358	3893.75
548.127	3689.75
548.896	3485.75
549.665	3333.75
550.434	3169.75
551.203	2994.75
551.972	2863.75
552.741	2677.75
553.51	2545.75
554.278	2394.75
555.047	2230.75
555.815	2131.75
556.584	2016.75
557.352	1919.75
558.121	1799.75
558.889	1696.75
559.657	1593.75
560.425	1531.75
561.193	1440.75
561.961	1345.75
562.729	1284.75
563.496	1209.75
564.264	1152.75
565.032	1084.75
565.799	1032.75
566.567	980.75
567.334	929.75
568.101	869.75
568.869	819.75
569.636	777.75
570.403	736.75
571.17	695.75
571.937	651.75
572.704	614.75
573.471	577.75
574.237	546.75
575.004	513.75
575.771	484.75
576.537	457.75
577.303	435.75
578.07	405.75
578.836	376.75
579.602	368.75
580.368	343.75
581.134	324.75
581.9	310.75
582.666	296.75
583.432	285.75
584.198	261.75
584.964	259.75
585.729	238.75
586.495	223.75
587.26	214.75
588.025	205.75
588.791	193.75
589.556	184.75
590.321	178.75
591.086	167.75
591.851	160.75
592.616	148.75
593.381	139.75
594.146	133.75
594.911	128.75
595.675	126.75
596.44	118.75
597.204	115.75
597.969	109.75
598.733	99.75
599.497	98.75
600.261	99.75
601.025	90.75
601.79	89.75
602.553	80.75
603.317	80.75
604.081	77.75
604.845	74.75
605.609	71.75
606.372	72.75
607.136	63.75
607.899	61.75
608.662	61.75
609.426	58.75
610.189	59.75
610.952	52.75
611.715	52.75
612.478	49.75
613.241	51.75
614.004	45.75
614.767	46.75
615.529	43.75
616.292	41.75
617.055	38.75
617.817	40.75
618.579	41.75
619.342	40.75
620.104	36.75
620.866	32.75
621.628	32.75
622.39	32.75
623.152	29.75
623.914	33.75
624.676	29.75
625.438	28.75
626.199	28.75
626.961	28.75
627.722	24.75
628.484	20.75
629.245	24.75
630.006	22.75
630.768	20.75
631.529	22.75
632.29	23.75
633.051	19.75
633.812	18.75
634.573	19.75
635.333	20.75
636.094	21.75
636.855	17.75
637.615	15.75
638.376	18.75
639.136	14.75
639.896	15.75
640.657	15.75
641.417	16.75
642.177	14.75
642.937	12.75
643.697	13.75
644.457	14.75
645.216	16.75
645.976	13.75
646.736	16.75
647.495	14.75
648.255	10.75
649.014	11.75
649.774	11.75
650.533	12.75
651.292	11.75
652.051	14.75
652.81	9.75
653.569	12.75
654.328	10.75
655.087	11.75
655.846	11.75
656.604	12.75
657.363	9.75
658.121	13.75
658.88	10.75
659.638	9.75
660.397	9.75
661.155	9.75
661.913	7.75
662.671	10.75
663.429	8.75
664.187	8.75
664.945	7.75
665.703	9.75
666.46	9.75
667.218	9.75
667.976	6.75
668.733	6.75
669.49	8.75
670.248	7.75
671.005	9.75
671.762	8.75
672.519	5.75
673.276	6.75
674.033	8.75
674.79	8.75
675.547	7.75
676.304	6.75
677.06	8.75
677.817	6.75
678.574	10.75
679.33	6.75
680.086	8.75
680.843	6.75
681.599	7.75
682.355	7.75
683.111	6.75
683.867	7.75
684.623	8.75
685.379	6.75
686.135	7.75
686.89	8.75
687.646	6.75
688.402	5.75
689.157	10.75
689.912	6.75
690.668	8.75
691.423	8.75
692.178	5.75
692.933	7.75
693.688	5.75
694.443	7.75
695.198	6.75
695.953	5.75
696.708	5.75
697.462	6.75
698.217	4.75
698.972	4.75
699.726	6.75
700.48	8.75
701.235	7.75
701.989	6.75
702.743	6.75
703.497	4.75
704.251	5.75
705.005	8.75
705.759	7.75
706.513	4.75
707.266	4.75
708.02	5.75
708.774	5.75
709.527	5.75
710.28	6.75
711.034	5.75
711.787	5.75
712.54	8.75
713.293	6.75
714.046	4.75
714.799	4.75
715.552	8.75
716.305	6.75
717.058	3.75
717.81	4.75
718.563	8.75
719.315	4.75
720.068	7.75
720.82	6.75
721.573	8.75
722.325	7.75
723.077	8.75
723.829	5.75
724.581	7.75
725.333	4.75
726.085	6.75
726.836	7.75
727.588	6.75
728.34	5.75
729.091	7.75
729.843	6.75
730.594	4.75
731.346	8.75
732.097	5.75
732.848	6.75
733.599	5.75
734.35	8.75
735.101	7.75
735.852	9.75
736.603	7.75
737.354	6.75
738.104	6.75
738.855	7.75
739.605	8.75
740.356	9.75
741.106	6.75
741.856	6.75
742.607	7.75
743.357	7.75
744.107	6.75
744.857	7.75
745.607	8.75
746.357	9.75
747.106	11.75
747.856	9.75
748.606	9.75
749.355	8.75
750.105	8.75
750.854	11.75
751.603	8.75
752.353	6.75
753.102	10.75
753.851	8.75
754.6	9.75
755.349	12.75
756.098	10.75
756.847	8.75
757.595	12.75
758.344	7.75
759.093	13.75
759.841	9.75
760.589	10.75
761.338	10.75
762.086	10.75
762.834	8.75
763.582	8.75
764.331	12.75
765.079	12.75
765.826	12.75
766.574	11.75
767.322	12.75
768.07	13.75
768.817	13.75
769.565	13.75
770.312	13.75
771.06	12.75
771.807	11.75
772.554	13.75
773.302	12.75
774.049	11.75
774.796	13.75
775.543	13.75
776.29	10.75
777.036	14.75
777.783	13.75
778.53	14.75
779.276	11.75
780.023	11.75
780.769	13.75
781.516	16.75
782.262	13.75
783.008	12.75
783.754	17.75
784.5	12.75
785.246	14.75
785.992	12.75
786.738	13.75
787.484	12.75
788.23	13.75
788.975	12.75
789.721	12.75
790.466	13.75
791.212	11.75
791.957	10.75
792.702	10.75
793.447	11.75
794.193	11.75
794.938	10.75
795.683	14.75
796.427	12.75
797.172	11.75
797.917	12.75
798.662	11.75
799.406	9.75
800.151	9.75
800.895	7.75
801.64	11.75
802.384	10.75
803.128	10.75
803.872	11.75
804.616	10.75
805.36	9.75
806.104	11.75
806.848	7.75
807.592	10.75
808.336	7.75
809.079	10.75
809.823	10.75
810.566	7.75
811.31	7.75
812.053	7.75
812.796	9.75
813.539	8.75
814.283	6.75
815.026	9.75
815.769	6.75
816.511	6.75
817.254	6.75
817.997	8.75
818.74	4.75
819.482	4.75
820.225	4.75
820.967	5.75
821.71	5.75
822.452	4.75
823.194	7.75
823.936	5.75
824.678	6.75
825.42	4.75
826.162	6.75
826.904	6.75
827.646	4.75
828.388	6.75
829.129	3.75
829.871	5.75
830.612	4.75
831.354	4.75
832.095	9.75
832.836	3.75
833.577	6.75
834.319	5.75
835.06	7.75
835.801	3.75
836.542	3.75
837.282	5.75
838.023	6.75
838.764	4.75
839.504	5.75
840.245	4.75
840.985	2.75
841.726	4.75
842.466	5.75
843.206	4.75
843.946	5.75
844.687	5.75
845.427	4.75
846.166	4.75
846.906	4.75
847.646	5.75
848.386	3.75
849.125	3.75
849.865	3.75
850.605	5.75
851.344	4.75
852.083	3.75
852.823	3.75
853.562	2.75
854.301	5.75
855.04	0.75
855.779	3.75
856.518	2.75
857.257	4.75
857.995	3.75
858.734	2.75
859.473	3.75
860.211	2.75
860.95	3.75
861.688	1.75
862.426	2.75
863.165	4.75
863.903	3.75
864.641	2.75
865.379	1.75
866.117	1.75
866.855	1.75
867.593	1.75
868.33	1.75
869.068	-0.25
869.806	1.75
870.543	5.75
871.28	1.75
872.018	3.75
872.755	-0.25
873.492	2.75
874.229	-0.25
874.967	1.75
875.703	0.75
876.44	2.75
877.177	3.75
877.914	-0.25
878.651	1.75
879.387	2.75
880.124	5.75
880.86	-1.25
881.597	0.75
882.333	1.75
883.069	1.75
883.806	-0.25
884.542	1.75
885.278	1.75
886.014	2.75
886.749	1.75
887.485	0.75
888.221	2.75
888.957	1.75
889.692	-1.25
890.428	1.75
891.163	-0.25
891.899	1.75
892.634	1.75
893.369	1.75
894.104	1.75
894.839	1.75
895.574	1.75
896.309	-0.25
897.044	-0.25
897.779	1.75
898.514	1.75
899.248	1.75
899.983	0.75
900.717	4.75
901.452	0.75
902.186	0.75
902.92	1.75
903.654	0.75
904.389	0.75
905.123	-0.25
905.857	0.75
906.59	0.75
907.324	3.75
908.058	0.75
908.792	1.75
909.525	1.75
910.259	0.75
910.992	0.75
911.726	-0.25
912.459	1.75
913.192	-0.25
913.925	2.75
914.658	-0.25
915.391	0.75
916.124	1.75
916.857	-0.25
917.59	-0.25
918.323	1.75
919.055	1.75
919.788	-2.25
920.521	1.75
921.253	0.75
921.985	0.75
922.718	1.75
923.45	1.75
924.182	1.75
924.914	1.75
925.646	0.75
926.378	1.75
927.11	0.75
927.841	2.75
928.573	0.75
929.305	-1.25
930.036	0.75
930.768	0.75
931.499	0.75
932.23	0.75
932.962	-0.25
933.693	-0.25
934.424	-2.25
935.155	-0.25
935.886	0.75
936.617	3.75
937.348	0.75
938.078	1.75
938.809	1.75
939.54	0.75
940.27	-1.25
941.001	-0.25
941.731	0.75
942.461	0.75
943.191	-0.25
943.922	0.75
944.652	0.75
945.382	-2.25
946.112	0.75
946.841	1.75
947.571	0.75
948.301	0.75
949.031	0.75
949.76	-2.25
950.49	1.75
951.219	1.75
951.948	1.75
952.678	-2.25
953.407	1.75
954.136	1.75
954.865	0.75
955.594	2.75
956.323	1.75
957.052	0.75
957.78	-0.25
958.509	0.75
959.238	-0.25
959.966	0.75
960.695	-0.25
961.423	1.75
962.151	1.75
962.88	-1.25
963.608	-0.25
964.336	0.75
965.064	1.75
965.792	1.75
966.52	-0.25
967.247	1.75
967.975	-1.25
968.703	0.75
969.43	2.75
970.158	-1.25
970.885	0.75
971.613	-0.25
972.34	2.75
973.067	0.75
973.794	-0.25
974.521	-0.25
975.248	1.75
975.975	2.75
976.702	-0.25
977.429	1.75
978.156	-1.25
978.882	-0.25
979.609	-0.25
980.335	3.75
981.062	-0.25
981.788	0.75
982.514	1.75
983.24	-2.25
983.967	0.75
984.693	0.75
985.419	1.75
986.144	-0.25
986.87	-1.25
987.596	0.75
988.322	1.75
989.047	-0.25
989.773	0.75
990.498	-0.25
991.224	-0.25
991.949	1.75
992.674	-0.25
993.399	-0.25
994.124	-0.25
994.849	0.75
995.574	0.75
996.299	-0.25
997.024	2.75
997.749	1.75
998.473	-1.25
999.198	0.75
999.922	0.75
1000.647	0.75
1001.371	2.75
1002.095	0.75
1002.82	-1.25
1003.544	-1.25
1004.268	3.75
1004.992	2.75
1005.716	2.75
1006.439	4.75
1007.163	2.75
1007.887	1.75
1008.611	0.75
1009.334	3.75
1010.058	-0.25
1010.781	1.75
1011.504	-0.25
1012.228	0.75
1012.951	0.75
1013.674	-3.25
1014.397	-0.25
1015.12	1.75
