节点500_565_QEPB04081__416__09-57-20-316.txt的数据

Date: Thu Nov 13 09:57:20 CST 2025
User: PC
Spectrometer: QEPB0408
触发模式: 0
积分时间 (秒): 1.000000E-2
Scans to average: 1
启用暗噪声校正: true
启用非线性校正: false
滑动平均宽度: 0
X轴模式: Wavelengths
Number of Pixels in Spectrum: 1044
>>>>>Begin Spectral Data<<<<<
220.843	2.75
221.644	4.75
222.444	5.75
223.244	4.75
224.045	3.75
224.845	5.75
225.645	4.75
226.445	3.75
227.245	5.75
228.045	4.75
228.845	5.75
229.645	5.75
230.444	6.75
231.244	3.75
232.043	4.75
232.843	6.75
233.642	7.75
234.442	8.75
235.241	6.75
236.04	6.75
236.839	8.75
237.638	9.75
238.437	6.75
239.236	9.75
240.035	9.75
240.833	8.75
241.632	10.75
242.43	9.75
243.229	10.75
244.027	7.75
244.826	9.75
245.624	8.75
246.422	8.75
247.22	12.75
248.018	10.75
248.816	10.75
249.614	9.75
250.412	13.75
251.21	10.75
252.007	12.75
252.805	10.75
253.602	12.75
254.4	16.75
255.197	16.75
255.994	15.75
256.791	13.75
257.589	11.75
258.386	15.75
259.183	17.75
259.979	15.75
260.776	14.75
261.573	16.75
262.37	15.75
263.166	21.75
263.963	20.75
264.759	19.75
265.556	16.75
266.352	22.75
267.148	24.75
267.944	18.75
268.74	24.75
269.536	26.75
270.332	23.75
271.128	18.75
271.924	21.75
272.719	27.75
273.515	26.75
274.311	25.75
275.106	27.75
275.901	28.75
276.697	29.75
277.492	26.75
278.287	26.75
279.082	27.75
279.877	28.75
280.672	24.75
281.467	28.75
282.262	26.75
283.056	27.75
283.851	28.75
284.646	30.75
285.44	32.75
286.234	27.75
287.029	29.75
287.823	28.75
288.617	27.75
289.411	26.75
290.205	22.75
290.999	26.75
291.793	24.75
292.587	28.75
293.381	23.75
294.174	24.75
294.968	24.75
295.761	22.75
296.555	24.75
297.348	24.75
298.141	19.75
298.935	24.75
299.728	21.75
300.521	23.75
301.314	18.75
302.107	16.75
302.899	19.75
303.692	18.75
304.485	20.75
305.277	20.75
306.07	18.75
306.862	21.75
307.655	18.75
308.447	16.75
309.239	17.75
310.031	15.75
310.823	16.75
311.615	16.75
312.407	13.75
313.199	14.75
313.991	15.75
314.783	14.75
315.574	12.75
316.366	12.75
317.157	12.75
317.949	12.75
318.74	13.75
319.531	11.75
320.322	11.75
321.113	10.75
321.904	11.75
322.695	11.75
323.486	8.75
324.277	13.75
325.068	12.75
325.858	12.75
326.649	9.75
327.439	11.75
328.23	11.75
329.02	10.75
329.81	10.75
330.6	9.75
331.391	11.75
332.181	9.75
332.971	8.75
333.76	10.75
334.55	11.75
335.34	8.75
336.13	8.75
336.919	10.75
337.709	9.75
338.498	10.75
339.287	10.75
340.077	10.75
340.866	7.75
341.655	9.75
342.444	10.75
343.233	6.75
344.022	10.75
344.811	12.75
345.6	9.75
346.388	9.75
347.177	9.75
347.965	8.75
348.754	9.75
349.542	11.75
350.33	8.75
351.119	8.75
351.907	8.75
352.695	8.75
353.483	6.75
354.271	8.75
355.059	9.75
355.846	8.75
356.634	7.75
357.422	10.75
358.209	7.75
358.997	8.75
359.784	10.75
360.571	8.75
361.359	8.75
362.146	8.75
362.933	8.75
363.72	9.75
364.507	6.75
365.294	8.75
366.081	9.75
366.867	5.75
367.654	8.75
368.44	9.75
369.227	6.75
370.013	8.75
370.8	6.75
371.586	8.75
372.372	7.75
373.158	10.75
373.944	7.75
374.73	6.75
375.516	10.75
376.302	8.75
377.088	9.75
377.873	6.75
378.659	6.75
379.445	7.75
380.23	7.75
381.015	8.75
381.801	9.75
382.586	9.75
383.371	4.75
384.156	8.75
384.941	7.75
385.726	10.75
386.511	6.75
387.296	8.75
388.08	9.75
388.865	8.75
389.649	9.75
390.434	8.75
391.218	9.75
392.003	10.75
392.787	9.75
393.571	9.75
394.355	8.75
395.139	10.75
395.923	11.75
396.707	10.75
397.491	10.75
398.274	9.75
399.058	11.75
399.842	11.75
400.625	13.75
401.408	9.75
402.192	9.75
402.975	12.75
403.758	10.75
404.541	12.75
405.324	12.75
406.107	12.75
406.89	11.75
407.673	13.75
408.456	15.75
409.238	13.75
410.021	14.75
410.803	12.75
411.586	15.75
412.368	12.75
413.151	13.75
413.933	15.75
414.715	12.75
415.497	13.75
416.279	15.75
417.061	18.75
417.843	14.75
418.624	14.75
419.406	16.75
420.188	15.75
420.969	19.75
421.751	17.75
422.532	19.75
423.313	17.75
424.095	18.75
424.876	20.75
425.657	18.75
426.438	21.75
427.219	20.75
428	20.75
428.78	22.75
429.561	23.75
430.342	22.75
431.122	25.75
431.903	25.75
432.683	24.75
433.464	29.75
434.244	28.75
435.024	29.75
435.804	34.75
436.584	37.75
437.364	33.75
438.144	38.75
438.924	40.75
439.704	43.75
440.483	48.75
441.263	49.75
442.042	52.75
442.822	53.75
443.601	58.75
444.38	64.75
445.16	70.75
445.939	71.75
446.718	82.75
447.497	87.75
448.276	96.75
449.054	105.75
449.833	108.75
450.612	123.75
451.391	138.75
452.169	156.75
452.948	164.75
453.726	189.75
454.504	202.75
455.282	227.75
456.061	252.75
456.839	276.75
457.617	315.75
458.395	346.75
459.172	384.75
459.95	426.75
460.728	490.75
461.506	539.75
462.283	595.75
463.061	663.75
463.838	734.75
464.615	826.75
465.393	917.75
466.17	1020.75
466.947	1132.75
467.724	1251.75
468.501	1390.75
469.278	1533.75
470.055	1710.75
470.831	1872.75
471.608	2082.75
472.385	2303.75
473.161	2526.75
473.938	2779.75
474.714	3032.75
475.49	3339.75
476.266	3681.75
477.043	4008.75
477.819	4423.75
478.595	4803.75
479.371	5219.75
480.146	5700.75
480.922	6237.75
481.698	6799.75
482.473	7356.75
483.249	7995.75
484.024	8675.75
484.8	9466.75
485.575	10253.75
486.35	11082.75
487.126	12019.75
487.901	13034.75
488.676	14059.75
489.451	15264.75
490.225	16493.75
491	17717.75
491.775	19030.75
492.55	20314.75
493.324	21768.75
494.099	23148.75
494.873	24684.75
495.647	26270.75
496.422	27868.75
497.196	29284.75
497.97	30815.75
498.744	32248.75
499.518	33504.75
500.292	34814.75
501.066	36044.75
501.839	37099.75
502.613	37976.75
503.387	38747.75
504.16	39369.75
504.934	39795.75
505.707	39894.75
506.48	39850.75
507.253	39760.75
508.027	39275.75
508.8	38658.75
509.573	37973.75
510.346	37138.75
511.118	36132.75
511.891	35256.75
512.664	34173.75
513.437	32926.75
514.209	31728.75
514.982	30558.75
515.754	29405.75
516.526	28260.75
517.298	27029.75
518.071	25984.75
518.843	24943.75
519.615	23942.75
520.387	22944.75
521.159	22095.75
521.93	21247.75
522.702	20301.75
523.474	19537.75
524.245	18756.75
525.017	17974.75
525.788	17217.75
526.56	16441.75
527.331	15771.75
528.102	15044.75
528.873	14318.75
529.644	13596.75
530.415	12967.75
531.186	12304.75
531.957	11699.75
532.728	11143.75
533.498	10588.75
534.269	9970.75
535.039	9427.75
535.81	8962.75
536.58	8452.75
537.351	8057.75
538.121	7596.75
538.891	7187.75
539.661	6806.75
540.431	6416.75
541.201	6092.75
541.971	5747.75
542.741	5492.75
543.51	5142.75
544.28	4939.75
545.05	4718.75
545.819	4468.75
546.588	4224.75
547.358	4043.75
548.127	3841.75
548.896	3642.75
549.665	3471.75
550.434	3283.75
551.203	3124.75
551.972	2968.75
552.741	2793.75
553.51	2632.75
554.278	2498.75
555.047	2350.75
555.815	2217.75
556.584	2122.75
557.352	1993.75
558.121	1875.75
558.889	1779.75
559.657	1688.75
560.425	1595.75
561.193	1497.75
561.961	1432.75
562.729	1352.75
563.496	1266.75
564.264	1205.75
565.032	1136.75
565.799	1085.75
566.567	1013.75
567.334	964.75
568.101	915.75
568.869	867.75
569.636	811.75
570.403	776.75
571.17	728.75
571.937	682.75
572.704	646.75
573.471	616.75
574.237	574.75
575.004	547.75
575.771	521.75
576.537	481.75
577.303	449.75
578.07	427.75
578.836	402.75
579.602	380.75
580.368	365.75
581.134	350.75
581.9	320.75
582.666	316.75
583.432	298.75
584.198	280.75
584.964	262.75
585.729	252.75
586.495	241.75
587.26	220.75
588.025	218.75
588.791	206.75
589.556	196.75
590.321	180.75
591.086	175.75
591.851	164.75
592.616	154.75
593.381	147.75
594.146	140.75
594.911	136.75
595.675	127.75
596.44	120.75
597.204	123.75
597.969	113.75
598.733	114.75
599.497	104.75
600.261	96.75
601.025	93.75
601.79	90.75
602.553	88.75
603.317	83.75
604.081	78.75
604.845	78.75
605.609	72.75
606.372	71.75
607.136	63.75
607.899	71.75
608.662	61.75
609.426	60.75
610.189	62.75
610.952	57.75
611.715	56.75
612.478	51.75
613.241	54.75
614.004	50.75
614.767	47.75
615.529	46.75
616.292	40.75
617.055	38.75
617.817	38.75
618.579	38.75
619.342	37.75
620.104	37.75
620.866	36.75
621.628	34.75
622.39	30.75
623.152	29.75
623.914	29.75
624.676	29.75
625.438	30.75
626.199	25.75
626.961	28.75
627.722	28.75
628.484	24.75
629.245	25.75
630.006	22.75
630.768	24.75
631.529	22.75
632.29	20.75
633.051	22.75
633.812	22.75
634.573	22.75
635.333	19.75
636.094	21.75
636.855	17.75
637.615	18.75
638.376	15.75
639.136	16.75
639.896	19.75
640.657	13.75
641.417	15.75
642.177	16.75
642.937	16.75
643.697	15.75
644.457	16.75
645.216	13.75
645.976	12.75
646.736	16.75
647.495	14.75
648.255	12.75
649.014	13.75
649.774	12.75
650.533	10.75
651.292	9.75
652.051	13.75
652.81	9.75
653.569	11.75
654.328	9.75
655.087	12.75
655.846	13.75
656.604	8.75
657.363	9.75
658.121	9.75
658.88	9.75
659.638	7.75
660.397	8.75
661.155	10.75
661.913	10.75
662.671	9.75
663.429	8.75
664.187	8.75
664.945	7.75
665.703	8.75
666.46	6.75
667.218	9.75
667.976	9.75
668.733	6.75
669.49	8.75
670.248	9.75
671.005	7.75
671.762	9.75
672.519	9.75
673.276	6.75
674.033	5.75
674.79	6.75
675.547	7.75
676.304	8.75
677.06	7.75
677.817	3.75
678.574	7.75
679.33	7.75
680.086	5.75
680.843	7.75
681.599	8.75
682.355	3.75
683.111	7.75
683.867	9.75
684.623	6.75
685.379	5.75
686.135	6.75
686.89	7.75
687.646	7.75
688.402	8.75
689.157	7.75
689.912	4.75
690.668	8.75
691.423	4.75
692.178	8.75
692.933	6.75
693.688	7.75
694.443	6.75
695.198	2.75
695.953	7.75
696.708	6.75
697.462	6.75
698.217	6.75
698.972	5.75
699.726	6.75
700.48	8.75
701.235	5.75
701.989	5.75
702.743	6.75
703.497	8.75
704.251	4.75
705.005	5.75
705.759	4.75
706.513	5.75
707.266	7.75
708.02	4.75
708.774	5.75
709.527	7.75
710.28	6.75
711.034	6.75
711.787	7.75
712.54	6.75
713.293	6.75
714.046	4.75
714.799	6.75
715.552	6.75
716.305	3.75
717.058	7.75
717.81	6.75
718.563	5.75
719.315	5.75
720.068	4.75
720.82	8.75
721.573	5.75
722.325	6.75
723.077	4.75
723.829	8.75
724.581	8.75
725.333	6.75
726.085	6.75
726.836	5.75
727.588	7.75
728.34	6.75
729.091	8.75
729.843	4.75
730.594	4.75
731.346	7.75
732.097	5.75
732.848	6.75
733.599	5.75
734.35	7.75
735.101	6.75
735.852	8.75
736.603	7.75
737.354	8.75
738.104	8.75
738.855	7.75
739.605	6.75
740.356	8.75
741.106	8.75
741.856	5.75
742.607	5.75
743.357	6.75
744.107	7.75
744.857	7.75
745.607	6.75
746.357	9.75
747.106	9.75
747.856	6.75
748.606	4.75
749.355	7.75
750.105	6.75
750.854	5.75
751.603	9.75
752.353	9.75
753.102	7.75
753.851	10.75
754.6	7.75
755.349	8.75
756.098	8.75
756.847	10.75
757.595	8.75
758.344	9.75
759.093	11.75
759.841	11.75
760.589	11.75
761.338	7.75
762.086	9.75
762.834	8.75
763.582	8.75
764.331	10.75
765.079	10.75
765.826	9.75
766.574	11.75
767.322	9.75
768.07	11.75
768.817	11.75
769.565	12.75
770.312	12.75
771.06	11.75
771.807	8.75
772.554	11.75
773.302	13.75
774.049	12.75
774.796	12.75
775.543	10.75
776.29	11.75
777.036	10.75
777.783	12.75
778.53	13.75
779.276	11.75
780.023	15.75
780.769	11.75
781.516	9.75
782.262	11.75
783.008	14.75
783.754	12.75
784.5	12.75
785.246	12.75
785.992	11.75
786.738	15.75
787.484	11.75
788.23	13.75
788.975	11.75
789.721	12.75
790.466	12.75
791.212	12.75
791.957	13.75
792.702	11.75
793.447	13.75
794.193	13.75
794.938	11.75
795.683	10.75
796.427	12.75
797.172	12.75
797.917	10.75
798.662	11.75
799.406	11.75
800.151	10.75
800.895	12.75
801.64	13.75
802.384	10.75
803.128	10.75
803.872	9.75
804.616	8.75
805.36	11.75
806.104	9.75
806.848	7.75
807.592	9.75
808.336	7.75
809.079	9.75
809.823	8.75
810.566	8.75
811.31	6.75
812.053	8.75
812.796	6.75
813.539	5.75
814.283	5.75
815.026	4.75
815.769	7.75
816.511	7.75
817.254	8.75
817.997	7.75
818.74	6.75
819.482	4.75
820.225	4.75
820.967	5.75
821.71	4.75
822.452	5.75
823.194	6.75
823.936	7.75
824.678	6.75
825.42	6.75
826.162	6.75
826.904	6.75
827.646	4.75
828.388	4.75
829.129	4.75
829.871	4.75
830.612	6.75
831.354	4.75
832.095	4.75
832.836	4.75
833.577	4.75
834.319	3.75
835.06	4.75
835.801	5.75
836.542	3.75
837.282	4.75
838.023	4.75
838.764	4.75
839.504	4.75
840.245	4.75
840.985	3.75
841.726	5.75
842.466	5.75
843.206	3.75
843.946	3.75
844.687	3.75
845.427	5.75
846.166	4.75
846.906	4.75
847.646	5.75
848.386	2.75
849.125	4.75
849.865	3.75
850.605	4.75
851.344	3.75
852.083	3.75
852.823	4.75
853.562	4.75
854.301	3.75
855.04	4.75
855.779	3.75
856.518	3.75
857.257	2.75
857.995	1.75
858.734	4.75
859.473	1.75
860.211	5.75
860.95	2.75
861.688	2.75
862.426	1.75
863.165	3.75
863.903	3.75
864.641	3.75
865.379	1.75
866.117	1.75
866.855	2.75
867.593	3.75
868.33	3.75
869.068	1.75
869.806	2.75
870.543	0.75
871.28	1.75
872.018	2.75
872.755	2.75
873.492	1.75
874.229	-0.25
874.967	-0.25
875.703	1.75
876.44	2.75
877.177	2.75
877.914	-0.25
878.651	-0.25
879.387	2.75
880.124	0.75
880.86	1.75
881.597	2.75
882.333	1.75
883.069	2.75
883.806	1.75
884.542	-0.25
885.278	2.75
886.014	1.75
886.749	0.75
887.485	1.75
888.221	0.75
888.957	4.75
889.692	1.75
890.428	0.75
891.163	1.75
891.899	2.75
892.634	1.75
893.369	0.75
894.104	1.75
894.839	2.75
895.574	-1.25
896.309	0.75
897.044	-0.25
897.779	1.75
898.514	2.75
899.248	-0.25
899.983	1.75
900.717	2.75
901.452	0.75
902.186	-0.25
902.92	1.75
903.654	-0.25
904.389	0.75
905.123	1.75
905.857	0.75
906.59	1.75
907.324	0.75
908.058	1.75
908.792	-0.25
909.525	1.75
910.259	0.75
910.992	-0.25
911.726	0.75
912.459	0.75
913.192	0.75
913.925	-0.25
914.658	1.75
915.391	-1.25
916.124	-0.25
916.857	2.75
917.59	-2.25
918.323	0.75
919.055	-0.25
919.788	0.75
920.521	2.75
921.253	-1.25
921.985	-2.25
922.718	-0.25
923.45	0.75
924.182	-0.25
924.914	1.75
925.646	-2.25
926.378	0.75
927.11	1.75
927.841	0.75
928.573	1.75
929.305	1.75
930.036	2.75
930.768	0.75
931.499	2.75
932.23	1.75
932.962	-0.25
933.693	1.75
934.424	-0.25
935.155	-0.25
935.886	0.75
936.617	0.75
937.348	-1.25
938.078	-1.25
938.809	0.75
939.54	-1.25
940.27	0.75
941.001	0.75
941.731	-0.25
942.461	-1.25
943.191	-0.25
943.922	1.75
944.652	-0.25
945.382	-0.25
946.112	0.75
946.841	1.75
947.571	1.75
948.301	-1.25
949.031	0.75
949.76	1.75
950.49	-0.25
951.219	-2.25
951.948	0.75
952.678	-1.25
953.407	0.75
954.136	-1.25
954.865	-0.25
955.594	2.75
956.323	0.75
957.052	3.75
957.78	1.75
958.509	0.75
959.238	0.75
959.966	0.75
960.695	-0.25
961.423	-1.25
962.151	2.75
962.88	1.75
963.608	2.75
964.336	0.75
965.064	-2.25
965.792	0.75
966.52	0.75
967.247	2.75
967.975	1.75
968.703	-1.25
969.43	-0.25
970.158	-2.25
970.885	-1.25
971.613	-0.25
972.34	1.75
973.067	2.75
973.794	0.75
974.521	0.75
975.248	1.75
975.975	-2.25
976.702	-2.25
977.429	1.75
978.156	-1.25
978.882	0.75
979.609	1.75
980.335	0.75
981.062	-0.25
981.788	-0.25
982.514	0.75
983.24	-2.25
983.967	-0.25
984.693	-0.25
985.419	0.75
986.144	-2.25
986.87	0.75
987.596	0.75
988.322	-3.25
989.047	0.75
989.773	-0.25
990.498	-1.25
991.224	1.75
991.949	1.75
992.674	1.75
993.399	-0.25
994.124	-0.25
994.849	-0.25
995.574	1.75
996.299	-1.25
997.024	0.75
997.749	-0.25
998.473	-1.25
999.198	1.75
999.922	0.75
1000.647	-1.25
1001.371	4.75
1002.095	-1.25
1002.82	-1.25
1003.544	-1.25
1004.268	1.75
1004.992	3.75
1005.716	3.75
1006.439	2.75
1007.163	4.75
1007.887	2.75
1008.611	0.75
1009.334	1.75
1010.058	0.75
1010.781	-1.25
1011.504	1.75
1012.228	-0.25
1012.951	-2.25
1013.674	-0.25
1014.397	0.75
1015.12	0.75
