节点500_565_QEPB04081__318__09-55-42-483.txt的数据

Date: Thu Nov 13 09:55:42 CST 2025
User: PC
Spectrometer: QEPB0408
触发模式: 0
积分时间 (秒): 1.000000E-2
Scans to average: 1
启用暗噪声校正: true
启用非线性校正: false
滑动平均宽度: 0
X轴模式: Wavelengths
Number of Pixels in Spectrum: 1044
>>>>>Begin Spectral Data<<<<<
220.843	2.62
221.644	4.62
222.444	3.62
223.244	3.62
224.045	2.62
224.845	4.62
225.645	3.62
226.445	5.62
227.245	5.62
228.045	1.62
228.845	4.62
229.645	8.62
230.444	6.62
231.244	5.62
232.043	4.62
232.843	7.62
233.642	5.62
234.442	7.62
235.241	6.62
236.04	6.62
236.839	6.62
237.638	8.62
238.437	8.62
239.236	7.62
240.035	7.62
240.833	6.62
241.632	7.62
242.43	11.62
243.229	9.62
244.027	9.62
244.826	8.62
245.624	8.62
246.422	7.62
247.22	10.62
248.018	11.62
248.816	8.62
249.614	11.62
250.412	11.62
251.21	12.62
252.007	12.62
252.805	8.62
253.602	11.62
254.4	13.62
255.197	13.62
255.994	11.62
256.791	14.62
257.589	14.62
258.386	13.62
259.183	15.62
259.979	16.62
260.776	14.62
261.573	13.62
262.37	18.62
263.166	15.62
263.963	19.62
264.759	18.62
265.556	19.62
266.352	19.62
267.148	20.62
267.944	19.62
268.74	20.62
269.536	20.62
270.332	18.62
271.128	22.62
271.924	24.62
272.719	22.62
273.515	25.62
274.311	24.62
275.106	22.62
275.901	21.62
276.697	24.62
277.492	22.62
278.287	25.62
279.082	22.62
279.877	24.62
280.672	28.62
281.467	25.62
282.262	25.62
283.056	24.62
283.851	24.62
284.646	25.62
285.44	26.62
286.234	26.62
287.029	25.62
287.823	23.62
288.617	26.62
289.411	24.62
290.205	27.62
290.999	24.62
291.793	25.62
292.587	24.62
293.381	28.62
294.174	22.62
294.968	21.62
295.761	21.62
296.555	18.62
297.348	24.62
298.141	19.62
298.935	23.62
299.728	20.62
300.521	20.62
301.314	20.62
302.107	15.62
302.899	17.62
303.692	16.62
304.485	17.62
305.277	15.62
306.07	16.62
306.862	15.62
307.655	13.62
308.447	18.62
309.239	15.62
310.031	16.62
310.823	17.62
311.615	13.62
312.407	13.62
313.199	12.62
313.991	14.62
314.783	12.62
315.574	12.62
316.366	11.62
317.157	12.62
317.949	11.62
318.74	10.62
319.531	9.62
320.322	9.62
321.113	11.62
321.904	10.62
322.695	10.62
323.486	11.62
324.277	11.62
325.068	9.62
325.858	9.62
326.649	8.62
327.439	7.62
328.23	8.62
329.02	10.62
329.81	8.62
330.6	8.62
331.391	10.62
332.181	8.62
332.971	8.62
333.76	9.62
334.55	6.62
335.34	9.62
336.13	10.62
336.919	9.62
337.709	8.62
338.498	10.62
339.287	8.62
340.077	8.62
340.866	8.62
341.655	8.62
342.444	8.62
343.233	7.62
344.022	7.62
344.811	6.62
345.6	9.62
346.388	9.62
347.177	8.62
347.965	9.62
348.754	6.62
349.542	8.62
350.33	6.62
351.119	10.62
351.907	11.62
352.695	7.62
353.483	8.62
354.271	8.62
355.059	6.62
355.846	6.62
356.634	7.62
357.422	8.62
358.209	7.62
358.997	6.62
359.784	7.62
360.571	6.62
361.359	9.62
362.146	8.62
362.933	6.62
363.72	5.62
364.507	8.62
365.294	8.62
366.081	7.62
366.867	7.62
367.654	7.62
368.44	7.62
369.227	6.62
370.013	5.62
370.8	7.62
371.586	6.62
372.372	5.62
373.158	7.62
373.944	6.62
374.73	9.62
375.516	6.62
376.302	7.62
377.088	6.62
377.873	8.62
378.659	6.62
379.445	6.62
380.23	8.62
381.015	7.62
381.801	8.62
382.586	8.62
383.371	8.62
384.156	8.62
384.941	7.62
385.726	6.62
386.511	7.62
387.296	8.62
388.08	9.62
388.865	6.62
389.649	7.62
390.434	6.62
391.218	9.62
392.003	7.62
392.787	9.62
393.571	7.62
394.355	12.62
395.139	8.62
395.923	8.62
396.707	10.62
397.491	12.62
398.274	10.62
399.058	9.62
399.842	9.62
400.625	9.62
401.408	9.62
402.192	11.62
402.975	10.62
403.758	10.62
404.541	10.62
405.324	13.62
406.107	9.62
406.89	12.62
407.673	10.62
408.456	9.62
409.238	9.62
410.021	11.62
410.803	9.62
411.586	13.62
412.368	12.62
413.151	12.62
413.933	15.62
414.715	13.62
415.497	12.62
416.279	13.62
417.061	14.62
417.843	15.62
418.624	16.62
419.406	15.62
420.188	16.62
420.969	13.62
421.751	15.62
422.532	17.62
423.313	17.62
424.095	14.62
424.876	18.62
425.657	17.62
426.438	18.62
427.219	18.62
428	20.62
428.78	19.62
429.561	21.62
430.342	22.62
431.122	24.62
431.903	22.62
432.683	26.62
433.464	27.62
434.244	26.62
435.024	26.62
435.804	30.62
436.584	31.62
437.364	34.62
438.144	30.62
438.924	34.62
439.704	38.62
440.483	38.62
441.263	44.62
442.042	45.62
442.822	45.62
443.601	52.62
444.38	56.62
445.16	59.62
445.939	64.62
446.718	69.62
447.497	78.62
448.276	83.62
449.054	88.62
449.833	93.62
450.612	112.62
451.391	121.62
452.169	133.62
452.948	149.62
453.726	162.62
454.504	180.62
455.282	200.62
456.061	221.62
456.839	243.62
457.617	276.62
458.395	308.62
459.172	342.62
459.95	380.62
460.728	428.62
461.506	469.62
462.283	530.62
463.061	599.62
463.838	665.62
464.615	740.62
465.393	817.62
466.17	898.62
466.947	1020.62
467.724	1117.62
468.501	1244.62
469.278	1408.62
470.055	1541.62
470.831	1704.62
471.608	1880.62
472.385	2083.62
473.161	2284.62
473.938	2523.62
474.714	2771.62
475.49	3061.62
476.266	3351.62
477.043	3693.62
477.819	4050.62
478.595	4424.62
479.371	4829.62
480.146	5277.62
480.922	5753.62
481.698	6292.62
482.473	6827.62
483.249	7450.62
484.024	8116.62
484.8	8865.62
485.575	9669.62
486.35	10441.62
487.126	11330.62
487.901	12318.62
488.676	13341.62
489.451	14458.62
490.225	15599.62
491	16767.62
491.775	18098.62
492.55	19406.62
493.324	20737.62
494.099	22115.62
494.873	23545.62
495.647	25055.62
496.422	26565.62
497.196	27978.62
497.97	29343.62
498.744	30633.62
499.518	31882.62
500.292	33095.62
501.066	34250.62
501.839	35176.62
502.613	35907.62
503.387	36587.62
504.16	37072.62
504.934	37349.62
505.707	37267.62
506.48	37248.62
507.253	36908.62
508.027	36418.62
508.8	35685.62
509.573	34981.62
510.346	34152.62
511.118	33130.62
511.891	32231.62
512.664	31144.62
513.437	30007.62
514.209	28806.62
514.982	27748.62
515.754	26695.62
516.526	25531.62
517.298	24471.62
518.071	23507.62
518.843	22566.62
519.615	21590.62
520.387	20780.62
521.159	19965.62
521.93	19174.62
522.702	18312.62
523.474	17604.62
524.245	16913.62
525.017	16230.62
525.788	15493.62
526.56	14796.62
527.331	14178.62
528.102	13471.62
528.873	12824.62
529.644	12172.62
530.415	11626.62
531.186	11014.62
531.957	10469.62
532.728	9904.62
533.498	9418.62
534.269	8903.62
535.039	8381.62
535.81	7971.62
536.58	7533.62
537.351	7136.62
538.121	6741.62
538.891	6364.62
539.661	6024.62
540.431	5741.62
541.201	5440.62
541.971	5138.62
542.741	4833.62
543.51	4597.62
544.28	4354.62
545.05	4174.62
545.819	3969.62
546.588	3759.62
547.358	3585.62
548.127	3403.62
548.896	3248.62
549.665	3072.62
550.434	2917.62
551.203	2775.62
551.972	2621.62
552.741	2486.62
553.51	2350.62
554.278	2220.62
555.047	2099.62
555.815	1968.62
556.584	1867.62
557.352	1772.62
558.121	1649.62
558.889	1585.62
559.657	1478.62
560.425	1398.62
561.193	1328.62
561.961	1242.62
562.729	1190.62
563.496	1122.62
564.264	1071.62
565.032	1000.62
565.799	950.62
566.567	902.62
567.334	846.62
568.101	802.62
568.869	764.62
569.636	720.62
570.403	676.62
571.17	648.62
571.937	602.62
572.704	572.62
573.471	542.62
574.237	509.62
575.004	480.62
575.771	449.62
576.537	428.62
577.303	408.62
578.07	374.62
578.836	354.62
579.602	336.62
580.368	319.62
581.134	301.62
581.9	295.62
582.666	274.62
583.432	260.62
584.198	244.62
584.964	237.62
585.729	218.62
586.495	209.62
587.26	206.62
588.025	181.62
588.791	175.62
589.556	170.62
590.321	164.62
591.086	154.62
591.851	145.62
592.616	136.62
593.381	129.62
594.146	129.62
594.911	122.62
595.675	117.62
596.44	110.62
597.204	105.62
597.969	100.62
598.733	98.62
599.497	93.62
600.261	86.62
601.025	83.62
601.79	80.62
602.553	77.62
603.317	74.62
604.081	67.62
604.845	68.62
605.609	64.62
606.372	60.62
607.136	62.62
607.899	54.62
608.662	53.62
609.426	54.62
610.189	53.62
610.952	49.62
611.715	48.62
612.478	44.62
613.241	45.62
614.004	39.62
614.767	42.62
615.529	40.62
616.292	38.62
617.055	36.62
617.817	37.62
618.579	35.62
619.342	34.62
620.104	31.62
620.866	32.62
621.628	31.62
622.39	28.62
623.152	28.62
623.914	26.62
624.676	30.62
625.438	24.62
626.199	25.62
626.961	25.62
627.722	24.62
628.484	23.62
629.245	24.62
630.006	22.62
630.768	21.62
631.529	20.62
632.29	20.62
633.051	18.62
633.812	18.62
634.573	17.62
635.333	20.62
636.094	12.62
636.855	14.62
637.615	16.62
638.376	16.62
639.136	16.62
639.896	14.62
640.657	13.62
641.417	13.62
642.177	15.62
642.937	15.62
643.697	12.62
644.457	15.62
645.216	12.62
645.976	14.62
646.736	10.62
647.495	12.62
648.255	10.62
649.014	10.62
649.774	9.62
650.533	11.62
651.292	8.62
652.051	11.62
652.81	9.62
653.569	9.62
654.328	10.62
655.087	8.62
655.846	8.62
656.604	9.62
657.363	8.62
658.121	7.62
658.88	8.62
659.638	7.62
660.397	8.62
661.155	8.62
661.913	8.62
662.671	6.62
663.429	9.62
664.187	6.62
664.945	6.62
665.703	5.62
666.46	8.62
667.218	5.62
667.976	6.62
668.733	8.62
669.49	7.62
670.248	7.62
671.005	6.62
671.762	6.62
672.519	5.62
673.276	7.62
674.033	5.62
674.79	8.62
675.547	8.62
676.304	6.62
677.06	7.62
677.817	6.62
678.574	5.62
679.33	6.62
680.086	4.62
680.843	6.62
681.599	6.62
682.355	7.62
683.111	8.62
683.867	7.62
684.623	5.62
685.379	6.62
686.135	4.62
686.89	7.62
687.646	4.62
688.402	6.62
689.157	6.62
689.912	5.62
690.668	6.62
691.423	4.62
692.178	4.62
692.933	4.62
693.688	5.62
694.443	2.62
695.198	5.62
695.953	5.62
696.708	6.62
697.462	5.62
698.217	3.62
698.972	6.62
699.726	5.62
700.48	7.62
701.235	2.62
701.989	5.62
702.743	5.62
703.497	3.62
704.251	5.62
705.005	4.62
705.759	5.62
706.513	5.62
707.266	7.62
708.02	5.62
708.774	5.62
709.527	4.62
710.28	4.62
711.034	4.62
711.787	6.62
712.54	7.62
713.293	4.62
714.046	4.62
714.799	6.62
715.552	6.62
716.305	7.62
717.058	6.62
717.81	4.62
718.563	4.62
719.315	4.62
720.068	5.62
720.82	5.62
721.573	5.62
722.325	4.62
723.077	6.62
723.829	4.62
724.581	4.62
725.333	6.62
726.085	4.62
726.836	6.62
727.588	6.62
728.34	5.62
729.091	6.62
729.843	4.62
730.594	7.62
731.346	6.62
732.097	8.62
732.848	5.62
733.599	6.62
734.35	4.62
735.101	7.62
735.852	7.62
736.603	6.62
737.354	7.62
738.104	5.62
738.855	5.62
739.605	5.62
740.356	8.62
741.106	6.62
741.856	8.62
742.607	6.62
743.357	5.62
744.107	7.62
744.857	9.62
745.607	5.62
746.357	6.62
747.106	7.62
747.856	6.62
748.606	6.62
749.355	8.62
750.105	7.62
750.854	5.62
751.603	7.62
752.353	7.62
753.102	3.62
753.851	8.62
754.6	8.62
755.349	9.62
756.098	9.62
756.847	8.62
757.595	9.62
758.344	8.62
759.093	9.62
759.841	7.62
760.589	10.62
761.338	10.62
762.086	9.62
762.834	8.62
763.582	9.62
764.331	9.62
765.079	9.62
765.826	8.62
766.574	12.62
767.322	9.62
768.07	12.62
768.817	11.62
769.565	12.62
770.312	11.62
771.06	11.62
771.807	11.62
772.554	10.62
773.302	10.62
774.049	11.62
774.796	9.62
775.543	12.62
776.29	8.62
777.036	12.62
777.783	11.62
778.53	12.62
779.276	12.62
780.023	11.62
780.769	12.62
781.516	10.62
782.262	12.62
783.008	11.62
783.754	12.62
784.5	11.62
785.246	10.62
785.992	14.62
786.738	10.62
787.484	12.62
788.23	13.62
788.975	12.62
789.721	10.62
790.466	10.62
791.212	10.62
791.957	11.62
792.702	12.62
793.447	9.62
794.193	13.62
794.938	10.62
795.683	9.62
796.427	10.62
797.172	12.62
797.917	9.62
798.662	6.62
799.406	12.62
800.151	10.62
800.895	9.62
801.64	10.62
802.384	7.62
803.128	9.62
803.872	8.62
804.616	11.62
805.36	9.62
806.104	6.62
806.848	10.62
807.592	7.62
808.336	6.62
809.079	6.62
809.823	8.62
810.566	8.62
811.31	8.62
812.053	5.62
812.796	8.62
813.539	5.62
814.283	6.62
815.026	5.62
815.769	7.62
816.511	5.62
817.254	6.62
817.997	6.62
818.74	5.62
819.482	5.62
820.225	6.62
820.967	4.62
821.71	5.62
822.452	4.62
823.194	6.62
823.936	5.62
824.678	6.62
825.42	6.62
826.162	4.62
826.904	6.62
827.646	6.62
828.388	4.62
829.129	4.62
829.871	4.62
830.612	5.62
831.354	2.62
832.095	5.62
832.836	6.62
833.577	4.62
834.319	4.62
835.06	4.62
835.801	4.62
836.542	4.62
837.282	6.62
838.023	3.62
838.764	5.62
839.504	4.62
840.245	4.62
840.985	5.62
841.726	2.62
842.466	4.62
843.206	3.62
843.946	3.62
844.687	6.62
845.427	4.62
846.166	3.62
846.906	2.62
847.646	4.62
848.386	4.62
849.125	4.62
849.865	4.62
850.605	1.62
851.344	4.62
852.083	1.62
852.823	0.62
853.562	2.62
854.301	3.62
855.04	1.62
855.779	2.62
856.518	2.62
857.257	1.62
857.995	2.62
858.734	2.62
859.473	1.62
860.211	2.62
860.95	0.62
861.688	4.62
862.426	1.62
863.165	1.62
863.903	2.62
864.641	3.62
865.379	0.62
866.117	2.62
866.855	2.62
867.593	0.62
868.33	4.62
869.068	0.62
869.806	3.62
870.543	0.62
871.28	0.62
872.018	3.62
872.755	0.62
873.492	1.62
874.229	2.62
874.967	2.62
875.703	1.62
876.44	3.62
877.177	0.62
877.914	2.62
878.651	0.62
879.387	1.62
880.124	2.62
880.86	2.62
881.597	0.62
882.333	1.62
883.069	0.62
883.806	-0.38
884.542	-2.38
885.278	2.62
886.014	1.62
886.749	0.62
887.485	2.62
888.221	0.62
888.957	0.62
889.692	2.62
890.428	3.62
891.163	1.62
891.899	2.62
892.634	1.62
893.369	0.62
894.104	0.62
894.839	1.62
895.574	0.62
896.309	1.62
897.044	0.62
897.779	1.62
898.514	-0.38
899.248	-0.38
899.983	0.62
900.717	2.62
901.452	1.62
902.186	0.62
902.92	0.62
903.654	-0.38
904.389	0.62
905.123	1.62
905.857	-0.38
906.59	-0.38
907.324	-0.38
908.058	2.62
908.792	0.62
909.525	1.62
910.259	0.62
910.992	0.62
911.726	0.62
912.459	1.62
913.192	0.62
913.925	2.62
914.658	-0.38
915.391	-2.38
916.124	-1.38
916.857	-1.38
917.59	1.62
918.323	0.62
919.055	-0.38
919.788	0.62
920.521	1.62
921.253	0.62
921.985	-1.38
922.718	-0.38
923.45	-0.38
924.182	-2.38
924.914	0.62
925.646	0.62
926.378	-1.38
927.11	2.62
927.841	0.62
928.573	0.62
929.305	1.62
930.036	-0.38
930.768	1.62
931.499	1.62
932.23	-1.38
932.962	0.62
933.693	0.62
934.424	3.62
935.155	-0.38
935.886	0.62
936.617	0.62
937.348	-1.38
938.078	2.62
938.809	-0.38
939.54	1.62
940.27	0.62
941.001	0.62
941.731	-0.38
942.461	-1.38
943.191	0.62
943.922	-3.38
944.652	0.62
945.382	-0.38
946.112	-1.38
946.841	-1.38
947.571	0.62
948.301	0.62
949.031	-2.38
949.76	0.62
950.49	1.62
951.219	1.62
951.948	-0.38
952.678	-0.38
953.407	-0.38
954.136	-0.38
954.865	0.62
955.594	-1.38
956.323	0.62
957.052	0.62
957.78	0.62
958.509	0.62
959.238	-2.38
959.966	0.62
960.695	-2.38
961.423	-1.38
962.151	-0.38
962.88	0.62
963.608	-1.38
964.336	-1.38
965.064	-0.38
965.792	1.62
966.52	0.62
967.247	1.62
967.975	0.62
968.703	1.62
969.43	-0.38
970.158	-1.38
970.885	0.62
971.613	0.62
972.34	0.62
973.067	0.62
973.794	-0.38
974.521	-1.38
975.248	0.62
975.975	0.62
976.702	0.62
977.429	-0.38
978.156	-1.38
978.882	1.62
979.609	-1.38
980.335	1.62
981.062	-1.38
981.788	3.62
982.514	0.62
983.24	0.62
983.967	-1.38
984.693	-0.38
985.419	0.62
986.144	-1.38
986.87	-0.38
987.596	0.62
988.322	-1.38
989.047	1.62
989.773	-0.38
990.498	0.62
991.224	-0.38
991.949	1.62
992.674	-0.38
993.399	-1.38
994.124	-0.38
994.849	-0.38
995.574	0.62
996.299	-1.38
997.024	0.62
997.749	0.62
998.473	-0.38
999.198	2.62
999.922	-0.38
1000.647	-0.38
1001.371	4.62
1002.095	-2.38
1002.82	-0.38
1003.544	-1.38
1004.268	4.62
1004.992	3.62
1005.716	0.62
1006.439	4.62
1007.163	2.62
1007.887	2.62
1008.611	-0.38
1009.334	-1.38
1010.058	-1.38
1010.781	1.62
1011.504	1.62
1012.228	-0.38
1012.951	1.62
1013.674	-2.38
1014.397	-0.38
1015.12	0.62
