节点500_565_QEPB04081__188__09-53-32-907.txt的数据

Date: Thu Nov 13 09:53:32 CST 2025
User: PC
Spectrometer: QEPB0408
触发模式: 0
积分时间 (秒): 1.000000E-2
Scans to average: 1
启用暗噪声校正: true
启用非线性校正: false
滑动平均宽度: 0
X轴模式: Wavelengths
Number of Pixels in Spectrum: 1044
>>>>>Begin Spectral Data<<<<<
220.843	6.25
221.644	5.25
222.444	3.25
223.244	5.25
224.045	4.25
224.845	4.25
225.645	6.25
226.445	6.25
227.245	7.25
228.045	5.25
228.845	6.25
229.645	3.25
230.444	6.25
231.244	4.25
232.043	4.25
232.843	7.25
233.642	6.25
234.442	6.25
235.241	5.25
236.04	8.25
236.839	4.25
237.638	8.25
238.437	7.25
239.236	10.25
240.035	7.25
240.833	7.25
241.632	12.25
242.43	8.25
243.229	10.25
244.027	10.25
244.826	9.25
245.624	11.25
246.422	10.25
247.22	12.25
248.018	13.25
248.816	13.25
249.614	13.25
250.412	14.25
251.21	11.25
252.007	12.25
252.805	14.25
253.602	12.25
254.4	13.25
255.197	17.25
255.994	13.25
256.791	15.25
257.589	16.25
258.386	16.25
259.183	18.25
259.979	18.25
260.776	18.25
261.573	20.25
262.37	21.25
263.166	21.25
263.963	19.25
264.759	20.25
265.556	24.25
266.352	24.25
267.148	24.25
267.944	24.25
268.74	25.25
269.536	23.25
270.332	25.25
271.128	28.25
271.924	25.25
272.719	26.25
273.515	27.25
274.311	30.25
275.106	27.25
275.901	28.25
276.697	29.25
277.492	29.25
278.287	28.25
279.082	30.25
279.877	29.25
280.672	31.25
281.467	27.25
282.262	32.25
283.056	31.25
283.851	31.25
284.646	32.25
285.44	33.25
286.234	31.25
287.029	30.25
287.823	28.25
288.617	29.25
289.411	27.25
290.205	28.25
290.999	30.25
291.793	31.25
292.587	26.25
293.381	25.25
294.174	25.25
294.968	26.25
295.761	22.25
296.555	24.25
297.348	24.25
298.141	22.25
298.935	25.25
299.728	22.25
300.521	20.25
301.314	18.25
302.107	20.25
302.899	21.25
303.692	17.25
304.485	18.25
305.277	18.25
306.07	19.25
306.862	18.25
307.655	17.25
308.447	16.25
309.239	21.25
310.031	19.25
310.823	12.25
311.615	16.25
312.407	13.25
313.199	14.25
313.991	14.25
314.783	15.25
315.574	15.25
316.366	10.25
317.157	11.25
317.949	12.25
318.74	11.25
319.531	13.25
320.322	9.25
321.113	12.25
321.904	11.25
322.695	12.25
323.486	12.25
324.277	12.25
325.068	11.25
325.858	9.25
326.649	9.25
327.439	11.25
328.23	10.25
329.02	9.25
329.81	10.25
330.6	11.25
331.391	10.25
332.181	9.25
332.971	8.25
333.76	12.25
334.55	9.25
335.34	9.25
336.13	9.25
336.919	9.25
337.709	9.25
338.498	10.25
339.287	10.25
340.077	9.25
340.866	10.25
341.655	8.25
342.444	8.25
343.233	11.25
344.022	10.25
344.811	8.25
345.6	10.25
346.388	8.25
347.177	13.25
347.965	8.25
348.754	9.25
349.542	9.25
350.33	12.25
351.119	9.25
351.907	7.25
352.695	8.25
353.483	7.25
354.271	10.25
355.059	9.25
355.846	11.25
356.634	10.25
357.422	8.25
358.209	8.25
358.997	8.25
359.784	8.25
360.571	8.25
361.359	8.25
362.146	8.25
362.933	8.25
363.72	9.25
364.507	7.25
365.294	7.25
366.081	7.25
366.867	10.25
367.654	7.25
368.44	8.25
369.227	8.25
370.013	5.25
370.8	8.25
371.586	8.25
372.372	7.25
373.158	9.25
373.944	10.25
374.73	8.25
375.516	8.25
376.302	7.25
377.088	8.25
377.873	9.25
378.659	8.25
379.445	7.25
380.23	8.25
381.015	8.25
381.801	9.25
382.586	7.25
383.371	9.25
384.156	9.25
384.941	7.25
385.726	7.25
386.511	7.25
387.296	8.25
388.08	9.25
388.865	8.25
389.649	10.25
390.434	9.25
391.218	9.25
392.003	7.25
392.787	12.25
393.571	12.25
394.355	10.25
395.139	13.25
395.923	11.25
396.707	9.25
397.491	10.25
398.274	11.25
399.058	12.25
399.842	13.25
400.625	12.25
401.408	12.25
402.192	8.25
402.975	9.25
403.758	14.25
404.541	11.25
405.324	11.25
406.107	12.25
406.89	15.25
407.673	13.25
408.456	12.25
409.238	12.25
410.021	15.25
410.803	12.25
411.586	14.25
412.368	14.25
413.151	17.25
413.933	13.25
414.715	16.25
415.497	12.25
416.279	17.25
417.061	16.25
417.843	18.25
418.624	15.25
419.406	17.25
420.188	18.25
420.969	19.25
421.751	19.25
422.532	17.25
423.313	19.25
424.095	20.25
424.876	20.25
425.657	19.25
426.438	19.25
427.219	23.25
428	25.25
428.78	22.25
429.561	24.25
430.342	24.25
431.122	26.25
431.903	24.25
432.683	28.25
433.464	26.25
434.244	32.25
435.024	32.25
435.804	34.25
436.584	36.25
437.364	36.25
438.144	38.25
438.924	42.25
439.704	41.25
440.483	43.25
441.263	47.25
442.042	51.25
442.822	53.25
443.601	54.25
444.38	59.25
445.16	66.25
445.939	70.25
446.718	78.25
447.497	79.25
448.276	89.25
449.054	95.25
449.833	112.25
450.612	116.25
451.391	124.25
452.169	142.25
452.948	156.25
453.726	171.25
454.504	187.25
455.282	212.25
456.061	235.25
456.839	258.25
457.617	294.25
458.395	325.25
459.172	354.25
459.95	407.25
460.728	449.25
461.506	508.25
462.283	563.25
463.061	631.25
463.838	703.25
464.615	786.25
465.393	868.25
466.17	972.25
466.947	1082.25
467.724	1197.25
468.501	1338.25
469.278	1493.25
470.055	1660.25
470.831	1837.25
471.608	2049.25
472.385	2274.25
473.161	2507.25
473.938	2770.25
474.714	3058.25
475.49	3374.25
476.266	3743.25
477.043	4102.25
477.819	4510.25
478.595	4970.25
479.371	5432.25
480.146	5947.25
480.922	6560.25
481.698	7167.25
482.473	7849.25
483.249	8553.25
484.024	9318.25
484.8	10222.25
485.575	11137.25
486.35	12099.25
487.126	13166.25
487.901	14348.25
488.676	15570.25
489.451	16878.25
490.225	18240.25
491	19656.25
491.775	21191.25
492.55	22782.25
493.324	24382.25
494.099	25993.25
494.873	27714.25
495.647	29549.25
496.422	31266.25
497.196	32869.25
497.97	34540.25
498.744	36016.25
499.518	37391.25
500.292	38574.25
501.066	39782.25
501.839	40851.25
502.613	41592.25
503.387	42084.25
504.16	42627.25
504.934	42751.25
505.707	42609.25
506.48	42430.25
507.253	41882.25
508.027	41179.25
508.8	40237.25
509.573	39211.25
510.346	38090.25
511.118	36855.25
511.891	35825.25
512.664	34427.25
513.437	33008.25
514.209	31724.25
514.982	30411.25
515.754	29253.25
516.526	27993.25
517.298	26755.25
518.071	25676.25
518.843	24675.25
519.615	23630.25
520.387	22664.25
521.159	21825.25
521.93	20875.25
522.702	20031.25
523.474	19184.25
524.245	18434.25
525.017	17628.25
525.788	16887.25
526.56	16040.25
527.331	15313.25
528.102	14592.25
528.873	13848.25
529.644	13188.25
530.415	12534.25
531.186	11863.25
531.957	11249.25
532.728	10669.25
533.498	10112.25
534.269	9561.25
535.039	8987.25
535.81	8530.25
536.58	8095.25
537.351	7649.25
538.121	7198.25
538.891	6808.25
539.661	6502.25
540.431	6142.25
541.201	5795.25
541.971	5503.25
542.741	5195.25
543.51	4905.25
544.28	4700.25
545.05	4462.25
545.819	4243.25
546.588	4040.25
547.358	3823.25
548.127	3641.25
548.896	3438.25
549.665	3274.25
550.434	3104.25
551.203	2951.25
551.972	2804.25
552.741	2640.25
553.51	2494.25
554.278	2336.25
555.047	2214.25
555.815	2108.25
556.584	2004.25
557.352	1881.25
558.121	1771.25
558.889	1678.25
559.657	1565.25
560.425	1483.25
561.193	1400.25
561.961	1333.25
562.729	1255.25
563.496	1196.25
564.264	1122.25
565.032	1070.25
565.799	1017.25
566.567	961.25
567.334	897.25
568.101	859.25
568.869	807.25
569.636	758.25
570.403	726.25
571.17	679.25
571.937	647.25
572.704	603.25
573.471	569.25
574.237	526.25
575.004	507.25
575.771	478.25
576.537	456.25
577.303	426.25
578.07	396.25
578.836	379.25
579.602	355.25
580.368	345.25
581.134	317.25
581.9	299.25
582.666	294.25
583.432	278.25
584.198	259.25
584.964	248.25
585.729	233.25
586.495	223.25
587.26	208.25
588.025	202.25
588.791	183.25
589.556	182.25
590.321	167.25
591.086	165.25
591.851	156.25
592.616	149.25
593.381	141.25
594.146	132.25
594.911	127.25
595.675	117.25
596.44	116.25
597.204	110.25
597.969	104.25
598.733	107.25
599.497	96.25
600.261	93.25
601.025	88.25
601.79	83.25
602.553	86.25
603.317	73.25
604.081	78.25
604.845	73.25
605.609	69.25
606.372	69.25
607.136	68.25
607.899	64.25
608.662	60.25
609.426	56.25
610.189	55.25
610.952	53.25
611.715	48.25
612.478	48.25
613.241	46.25
614.004	46.25
614.767	46.25
615.529	42.25
616.292	40.25
617.055	38.25
617.817	38.25
618.579	38.25
619.342	35.25
620.104	37.25
620.866	36.25
621.628	33.25
622.39	34.25
623.152	30.25
623.914	29.25
624.676	30.25
625.438	30.25
626.199	25.25
626.961	24.25
627.722	26.25
628.484	22.25
629.245	22.25
630.006	22.25
630.768	20.25
631.529	19.25
632.29	21.25
633.051	21.25
633.812	19.25
634.573	18.25
635.333	18.25
636.094	19.25
636.855	19.25
637.615	17.25
638.376	17.25
639.136	17.25
639.896	12.25
640.657	16.25
641.417	16.25
642.177	15.25
642.937	14.25
643.697	12.25
644.457	14.25
645.216	13.25
645.976	16.25
646.736	11.25
647.495	14.25
648.255	14.25
649.014	14.25
649.774	10.25
650.533	11.25
651.292	11.25
652.051	12.25
652.81	11.25
653.569	10.25
654.328	12.25
655.087	7.25
655.846	6.25
656.604	8.25
657.363	11.25
658.121	10.25
658.88	9.25
659.638	9.25
660.397	10.25
661.155	8.25
661.913	8.25
662.671	10.25
663.429	10.25
664.187	9.25
664.945	7.25
665.703	8.25
666.46	9.25
667.218	7.25
667.976	8.25
668.733	7.25
669.49	9.25
670.248	8.25
671.005	8.25
671.762	6.25
672.519	8.25
673.276	9.25
674.033	5.25
674.79	6.25
675.547	6.25
676.304	6.25
677.06	4.25
677.817	5.25
678.574	7.25
679.33	5.25
680.086	6.25
680.843	6.25
681.599	8.25
682.355	6.25
683.111	4.25
683.867	7.25
684.623	8.25
685.379	7.25
686.135	6.25
686.89	7.25
687.646	4.25
688.402	8.25
689.157	6.25
689.912	8.25
690.668	7.25
691.423	7.25
692.178	5.25
692.933	5.25
693.688	4.25
694.443	6.25
695.198	5.25
695.953	5.25
696.708	6.25
697.462	6.25
698.217	4.25
698.972	4.25
699.726	5.25
700.48	5.25
701.235	6.25
701.989	8.25
702.743	6.25
703.497	4.25
704.251	3.25
705.005	6.25
705.759	4.25
706.513	6.25
707.266	4.25
708.02	6.25
708.774	8.25
709.527	6.25
710.28	6.25
711.034	4.25
711.787	8.25
712.54	7.25
713.293	6.25
714.046	7.25
714.799	4.25
715.552	8.25
716.305	4.25
717.058	7.25
717.81	5.25
718.563	5.25
719.315	6.25
720.068	7.25
720.82	6.25
721.573	7.25
722.325	7.25
723.077	8.25
723.829	6.25
724.581	8.25
725.333	5.25
726.085	6.25
726.836	7.25
727.588	5.25
728.34	7.25
729.091	8.25
729.843	7.25
730.594	6.25
731.346	5.25
732.097	4.25
732.848	7.25
733.599	6.25
734.35	8.25
735.101	8.25
735.852	7.25
736.603	8.25
737.354	8.25
738.104	9.25
738.855	6.25
739.605	7.25
740.356	11.25
741.106	8.25
741.856	7.25
742.607	6.25
743.357	8.25
744.107	7.25
744.857	9.25
745.607	5.25
746.357	8.25
747.106	9.25
747.856	5.25
748.606	8.25
749.355	8.25
750.105	9.25
750.854	11.25
751.603	7.25
752.353	9.25
753.102	9.25
753.851	10.25
754.6	9.25
755.349	11.25
756.098	9.25
756.847	11.25
757.595	8.25
758.344	12.25
759.093	12.25
759.841	8.25
760.589	11.25
761.338	8.25
762.086	9.25
762.834	13.25
763.582	9.25
764.331	12.25
765.079	11.25
765.826	10.25
766.574	10.25
767.322	9.25
768.07	11.25
768.817	12.25
769.565	14.25
770.312	10.25
771.06	13.25
771.807	13.25
772.554	12.25
773.302	14.25
774.049	15.25
774.796	10.25
775.543	13.25
776.29	13.25
777.036	11.25
777.783	10.25
778.53	14.25
779.276	11.25
780.023	16.25
780.769	14.25
781.516	15.25
782.262	11.25
783.008	14.25
783.754	13.25
784.5	12.25
785.246	15.25
785.992	12.25
786.738	13.25
787.484	14.25
788.23	13.25
788.975	14.25
789.721	13.25
790.466	12.25
791.212	12.25
791.957	15.25
792.702	10.25
793.447	12.25
794.193	12.25
794.938	12.25
795.683	12.25
796.427	10.25
797.172	12.25
797.917	11.25
798.662	11.25
799.406	11.25
800.151	9.25
800.895	11.25
801.64	8.25
802.384	10.25
803.128	10.25
803.872	10.25
804.616	10.25
805.36	11.25
806.104	10.25
806.848	9.25
807.592	9.25
808.336	6.25
809.079	9.25
809.823	10.25
810.566	7.25
811.31	9.25
812.053	8.25
812.796	7.25
813.539	8.25
814.283	7.25
815.026	6.25
815.769	7.25
816.511	7.25
817.254	6.25
817.997	4.25
818.74	5.25
819.482	6.25
820.225	9.25
820.967	7.25
821.71	6.25
822.452	6.25
823.194	7.25
823.936	4.25
824.678	7.25
825.42	4.25
826.162	6.25
826.904	7.25
827.646	6.25
828.388	4.25
829.129	5.25
829.871	5.25
830.612	4.25
831.354	8.25
832.095	6.25
832.836	4.25
833.577	5.25
834.319	3.25
835.06	5.25
835.801	5.25
836.542	7.25
837.282	7.25
838.023	4.25
838.764	3.25
839.504	5.25
840.245	3.25
840.985	4.25
841.726	5.25
842.466	4.25
843.206	5.25
843.946	4.25
844.687	4.25
845.427	4.25
846.166	4.25
846.906	4.25
847.646	3.25
848.386	3.25
849.125	3.25
849.865	3.25
850.605	6.25
851.344	2.25
852.083	2.25
852.823	3.25
853.562	4.25
854.301	2.25
855.04	2.25
855.779	2.25
856.518	2.25
857.257	4.25
857.995	2.25
858.734	4.25
859.473	4.25
860.211	1.25
860.95	4.25
861.688	1.25
862.426	2.25
863.165	3.25
863.903	3.25
864.641	3.25
865.379	1.25
866.117	3.25
866.855	0.25
867.593	3.25
868.33	2.25
869.068	5.25
869.806	2.25
870.543	0.25
871.28	1.25
872.018	2.25
872.755	2.25
873.492	2.25
874.229	0.25
874.967	2.25
875.703	3.25
876.44	2.25
877.177	-1.75
877.914	1.25
878.651	0.25
879.387	2.25
880.124	2.25
880.86	1.25
881.597	3.25
882.333	2.25
883.069	4.25
883.806	4.25
884.542	1.25
885.278	1.25
886.014	1.25
886.749	3.25
887.485	0.25
888.221	-2.75
888.957	2.25
889.692	0.25
890.428	-0.75
891.163	0.25
891.899	0.25
892.634	-0.75
893.369	-0.75
894.104	1.25
894.839	0.25
895.574	0.25
896.309	2.25
897.044	2.25
897.779	1.25
898.514	2.25
899.248	1.25
899.983	0.25
900.717	-2.75
901.452	-0.75
902.186	1.25
902.92	1.25
903.654	2.25
904.389	0.25
905.123	0.25
905.857	1.25
906.59	1.25
907.324	2.25
908.058	-1.75
908.792	1.25
909.525	0.25
910.259	2.25
910.992	0.25
911.726	0.25
912.459	-0.75
913.192	2.25
913.925	1.25
914.658	1.25
915.391	2.25
916.124	2.25
916.857	-0.75
917.59	-0.75
918.323	0.25
919.055	0.25
919.788	-0.75
920.521	0.25
921.253	1.25
921.985	1.25
922.718	-0.75
923.45	1.25
924.182	1.25
924.914	-1.75
925.646	1.25
926.378	-0.75
927.11	1.25
927.841	-0.75
928.573	0.25
929.305	1.25
930.036	0.25
930.768	-0.75
931.499	2.25
932.23	1.25
932.962	0.25
933.693	-2.75
934.424	0.25
935.155	0.25
935.886	0.25
936.617	-0.75
937.348	0.25
938.078	-0.75
938.809	-1.75
939.54	1.25
940.27	-1.75
941.001	1.25
941.731	-0.75
942.461	-0.75
943.191	-0.75
943.922	-0.75
944.652	0.25
945.382	0.25
946.112	-0.75
946.841	-1.75
947.571	0.25
948.301	0.25
949.031	0.25
949.76	0.25
950.49	1.25
951.219	0.25
951.948	-1.75
952.678	-0.75
953.407	2.25
954.136	0.25
954.865	1.25
955.594	0.25
956.323	-1.75
957.052	0.25
957.78	-0.75
958.509	-1.75
959.238	-0.75
959.966	2.25
960.695	-2.75
961.423	-0.75
962.151	0.25
962.88	0.25
963.608	-0.75
964.336	0.25
965.064	0.25
965.792	-2.75
966.52	2.25
967.247	-0.75
967.975	-1.75
968.703	1.25
969.43	0.25
970.158	0.25
970.885	-0.75
971.613	0.25
972.34	2.25
973.067	1.25
973.794	1.25
974.521	0.25
975.248	1.25
975.975	0.25
976.702	-0.75
977.429	-1.75
978.156	0.25
978.882	1.25
979.609	-1.75
980.335	1.25
981.062	-1.75
981.788	0.25
982.514	-0.75
983.24	0.25
983.967	2.25
984.693	0.25
985.419	1.25
986.144	0.25
986.87	0.25
987.596	0.25
988.322	0.25
989.047	-0.75
989.773	-1.75
990.498	0.25
991.224	-0.75
991.949	1.25
992.674	0.25
993.399	0.25
994.124	1.25
994.849	1.25
995.574	1.25
996.299	-1.75
997.024	0.25
997.749	-1.75
998.473	0.25
999.198	2.25
999.922	-0.75
1000.647	-2.75
1001.371	1.25
1002.095	0.25
1002.82	-1.75
1003.544	-1.75
1004.268	3.25
1004.992	4.25
1005.716	2.25
1006.439	4.25
1007.163	3.25
1007.887	4.25
1008.611	0.25
1009.334	-0.75
1010.058	0.25
1010.781	0.25
1011.504	0.25
1012.228	1.25
1012.951	1.25
1013.674	0.25
1014.397	0.25
1015.12	0.25
