节点500_565_QEPB04081__468__09-58-12-221.txt的数据

Date: Thu Nov 13 09:58:12 CST 2025
User: PC
Spectrometer: QEPB0408
触发模式: 0
积分时间 (秒): 1.000000E-2
Scans to average: 1
启用暗噪声校正: true
启用非线性校正: false
滑动平均宽度: 0
X轴模式: Wavelengths
Number of Pixels in Spectrum: 1044
>>>>>Begin Spectral Data<<<<<
220.843	2.38
221.644	3.38
222.444	4.38
223.244	1.38
224.045	4.38
224.845	4.38
225.645	6.38
226.445	3.38
227.245	2.38
228.045	7.38
228.845	4.38
229.645	6.38
230.444	4.38
231.244	6.38
232.043	6.38
232.843	5.38
233.642	5.38
234.442	8.38
235.241	6.38
236.04	7.38
236.839	7.38
237.638	8.38
238.437	6.38
239.236	8.38
240.035	7.38
240.833	7.38
241.632	7.38
242.43	7.38
243.229	10.38
244.027	7.38
244.826	11.38
245.624	10.38
246.422	10.38
247.22	12.38
248.018	10.38
248.816	13.38
249.614	10.38
250.412	12.38
251.21	11.38
252.007	10.38
252.805	11.38
253.602	13.38
254.4	14.38
255.197	12.38
255.994	13.38
256.791	11.38
257.589	15.38
258.386	14.38
259.183	16.38
259.979	17.38
260.776	14.38
261.573	17.38
262.37	20.38
263.166	18.38
263.963	16.38
264.759	17.38
265.556	20.38
266.352	18.38
267.148	20.38
267.944	23.38
268.74	21.38
269.536	22.38
270.332	22.38
271.128	24.38
271.924	23.38
272.719	25.38
273.515	26.38
274.311	23.38
275.106	26.38
275.901	26.38
276.697	26.38
277.492	29.38
278.287	25.38
279.082	27.38
279.877	26.38
280.672	27.38
281.467	24.38
282.262	29.38
283.056	26.38
283.851	28.38
284.646	29.38
285.44	29.38
286.234	28.38
287.029	26.38
287.823	26.38
288.617	30.38
289.411	27.38
290.205	24.38
290.999	28.38
291.793	26.38
292.587	27.38
293.381	25.38
294.174	25.38
294.968	25.38
295.761	25.38
296.555	22.38
297.348	22.38
298.141	22.38
298.935	24.38
299.728	22.38
300.521	21.38
301.314	18.38
302.107	18.38
302.899	20.38
303.692	17.38
304.485	16.38
305.277	20.38
306.07	17.38
306.862	18.38
307.655	20.38
308.447	19.38
309.239	18.38
310.031	14.38
310.823	16.38
311.615	15.38
312.407	13.38
313.199	15.38
313.991	14.38
314.783	12.38
315.574	13.38
316.366	12.38
317.157	11.38
317.949	10.38
318.74	12.38
319.531	11.38
320.322	14.38
321.113	11.38
321.904	11.38
322.695	9.38
323.486	11.38
324.277	10.38
325.068	10.38
325.858	10.38
326.649	11.38
327.439	12.38
328.23	11.38
329.02	11.38
329.81	10.38
330.6	8.38
331.391	11.38
332.181	10.38
332.971	10.38
333.76	12.38
334.55	10.38
335.34	10.38
336.13	10.38
336.919	10.38
337.709	8.38
338.498	9.38
339.287	9.38
340.077	8.38
340.866	11.38
341.655	10.38
342.444	9.38
343.233	9.38
344.022	10.38
344.811	8.38
345.6	9.38
346.388	6.38
347.177	10.38
347.965	10.38
348.754	7.38
349.542	7.38
350.33	8.38
351.119	8.38
351.907	8.38
352.695	9.38
353.483	10.38
354.271	13.38
355.059	7.38
355.846	8.38
356.634	7.38
357.422	6.38
358.209	8.38
358.997	8.38
359.784	8.38
360.571	9.38
361.359	7.38
362.146	10.38
362.933	7.38
363.72	7.38
364.507	7.38
365.294	8.38
366.081	6.38
366.867	7.38
367.654	8.38
368.44	7.38
369.227	8.38
370.013	7.38
370.8	8.38
371.586	7.38
372.372	7.38
373.158	9.38
373.944	11.38
374.73	9.38
375.516	8.38
376.302	6.38
377.088	9.38
377.873	6.38
378.659	6.38
379.445	6.38
380.23	9.38
381.015	6.38
381.801	7.38
382.586	7.38
383.371	6.38
384.156	8.38
384.941	6.38
385.726	10.38
386.511	8.38
387.296	8.38
388.08	9.38
388.865	8.38
389.649	10.38
390.434	8.38
391.218	8.38
392.003	8.38
392.787	9.38
393.571	9.38
394.355	9.38
395.139	10.38
395.923	7.38
396.707	8.38
397.491	8.38
398.274	11.38
399.058	10.38
399.842	9.38
400.625	11.38
401.408	10.38
402.192	12.38
402.975	10.38
403.758	11.38
404.541	9.38
405.324	11.38
406.107	14.38
406.89	11.38
407.673	11.38
408.456	10.38
409.238	12.38
410.021	14.38
410.803	13.38
411.586	13.38
412.368	14.38
413.151	14.38
413.933	12.38
414.715	13.38
415.497	13.38
416.279	14.38
417.061	16.38
417.843	15.38
418.624	18.38
419.406	18.38
420.188	17.38
420.969	16.38
421.751	16.38
422.532	16.38
423.313	18.38
424.095	19.38
424.876	19.38
425.657	20.38
426.438	20.38
427.219	22.38
428	21.38
428.78	21.38
429.561	25.38
430.342	22.38
431.122	23.38
431.903	26.38
432.683	23.38
433.464	29.38
434.244	30.38
435.024	27.38
435.804	31.38
436.584	33.38
437.364	33.38
438.144	41.38
438.924	38.38
439.704	41.38
440.483	46.38
441.263	45.38
442.042	52.38
442.822	58.38
443.601	59.38
444.38	64.38
445.16	65.38
445.939	75.38
446.718	76.38
447.497	88.38
448.276	94.38
449.054	103.38
449.833	113.38
450.612	128.38
451.391	140.38
452.169	152.38
452.948	173.38
453.726	189.38
454.504	212.38
455.282	228.38
456.061	255.38
456.839	287.38
457.617	313.38
458.395	353.38
459.172	397.38
459.95	438.38
460.728	494.38
461.506	543.38
462.283	598.38
463.061	668.38
463.838	749.38
464.615	829.38
465.393	913.38
466.17	1030.38
466.947	1136.38
467.724	1249.38
468.501	1395.38
469.278	1548.38
470.055	1716.38
470.831	1877.38
471.608	2076.38
472.385	2300.38
473.161	2522.38
473.938	2787.38
474.714	3038.38
475.49	3329.38
476.266	3645.38
477.043	3976.38
477.819	4350.38
478.595	4772.38
479.371	5194.38
480.146	5656.38
480.922	6169.38
481.698	6728.38
482.473	7282.38
483.249	7924.38
484.024	8556.38
484.8	9307.38
485.575	10109.38
486.35	10923.38
487.126	11860.38
487.901	12803.38
488.676	13805.38
489.451	14986.38
490.225	16081.38
491	17317.38
491.775	18556.38
492.55	19890.38
493.324	21239.38
494.099	22670.38
494.873	24116.38
495.647	25689.38
496.422	27131.38
497.196	28610.38
497.97	30080.38
498.744	31542.38
499.518	32784.38
500.292	34104.38
501.066	35325.38
501.839	36338.38
502.613	37294.38
503.387	37946.38
504.16	38701.38
504.934	39125.38
505.707	39384.38
506.48	39355.38
507.253	39336.38
508.027	38927.38
508.8	38374.38
509.573	37687.38
510.346	36883.38
511.118	35956.38
511.891	35066.38
512.664	34035.38
513.437	32903.38
514.209	31737.38
514.982	30631.38
515.754	29475.38
516.526	28270.38
517.298	27130.38
518.071	26085.38
518.843	25041.38
519.615	23944.38
520.387	23036.38
521.159	22175.38
521.93	21288.38
522.702	20416.38
523.474	19591.38
524.245	18858.38
525.017	18063.38
525.788	17301.38
526.56	16518.38
527.331	15794.38
528.102	15116.38
528.873	14381.38
529.644	13726.38
530.415	13032.38
531.186	12412.38
531.957	11817.38
532.728	11227.38
533.498	10661.38
534.269	10102.38
535.039	9517.38
535.81	9049.38
536.58	8575.38
537.351	8103.38
538.121	7680.38
538.891	7271.38
539.661	6883.38
540.431	6521.38
541.201	6193.38
541.971	5853.38
542.741	5509.38
543.51	5242.38
544.28	4976.38
545.05	4734.38
545.819	4509.38
546.588	4278.38
547.358	4093.38
548.127	3894.38
548.896	3687.38
549.665	3513.38
550.434	3327.38
551.203	3156.38
551.972	2981.38
552.741	2824.38
553.51	2672.38
554.278	2534.38
555.047	2374.38
555.815	2264.38
556.584	2151.38
557.352	2038.38
558.121	1919.38
558.889	1804.38
559.657	1693.38
560.425	1615.38
561.193	1542.38
561.961	1443.38
562.729	1374.38
563.496	1297.38
564.264	1230.38
565.032	1164.38
565.799	1096.38
566.567	1032.38
567.334	988.38
568.101	924.38
568.869	869.38
569.636	833.38
570.403	777.38
571.17	738.38
571.937	708.38
572.704	652.38
573.471	629.38
574.237	577.38
575.004	555.38
575.771	521.38
576.537	491.38
577.303	466.38
578.07	427.38
578.836	405.38
579.602	393.38
580.368	367.38
581.134	350.38
581.9	333.38
582.666	322.38
583.432	299.38
584.198	282.38
584.964	265.38
585.729	258.38
586.495	233.38
587.26	226.38
588.025	220.38
588.791	207.38
589.556	192.38
590.321	189.38
591.086	171.38
591.851	164.38
592.616	159.38
593.381	150.38
594.146	150.38
594.911	145.38
595.675	132.38
596.44	128.38
597.204	117.38
597.969	112.38
598.733	107.38
599.497	105.38
600.261	101.38
601.025	100.38
601.79	93.38
602.553	88.38
603.317	83.38
604.081	81.38
604.845	79.38
605.609	76.38
606.372	70.38
607.136	72.38
607.899	64.38
608.662	64.38
609.426	61.38
610.189	62.38
610.952	59.38
611.715	56.38
612.478	56.38
613.241	52.38
614.004	48.38
614.767	47.38
615.529	44.38
616.292	43.38
617.055	43.38
617.817	41.38
618.579	39.38
619.342	37.38
620.104	37.38
620.866	38.38
621.628	36.38
622.39	32.38
623.152	30.38
623.914	31.38
624.676	28.38
625.438	30.38
626.199	28.38
626.961	25.38
627.722	26.38
628.484	26.38
629.245	26.38
630.006	21.38
630.768	22.38
631.529	23.38
632.29	22.38
633.051	21.38
633.812	20.38
634.573	19.38
635.333	18.38
636.094	18.38
636.855	18.38
637.615	18.38
638.376	16.38
639.136	15.38
639.896	15.38
640.657	16.38
641.417	16.38
642.177	15.38
642.937	16.38
643.697	16.38
644.457	18.38
645.216	16.38
645.976	12.38
646.736	14.38
647.495	15.38
648.255	13.38
649.014	12.38
649.774	13.38
650.533	9.38
651.292	13.38
652.051	10.38
652.81	11.38
653.569	12.38
654.328	10.38
655.087	10.38
655.846	11.38
656.604	8.38
657.363	8.38
658.121	10.38
658.88	10.38
659.638	8.38
660.397	10.38
661.155	9.38
661.913	8.38
662.671	9.38
663.429	9.38
664.187	9.38
664.945	8.38
665.703	7.38
666.46	9.38
667.218	7.38
667.976	8.38
668.733	8.38
669.49	6.38
670.248	7.38
671.005	8.38
671.762	4.38
672.519	6.38
673.276	8.38
674.033	8.38
674.79	7.38
675.547	4.38
676.304	5.38
677.06	6.38
677.817	7.38
678.574	6.38
679.33	4.38
680.086	4.38
680.843	8.38
681.599	5.38
682.355	6.38
683.111	7.38
683.867	8.38
684.623	4.38
685.379	6.38
686.135	7.38
686.89	6.38
687.646	5.38
688.402	6.38
689.157	7.38
689.912	8.38
690.668	3.38
691.423	7.38
692.178	4.38
692.933	4.38
693.688	7.38
694.443	7.38
695.198	7.38
695.953	6.38
696.708	5.38
697.462	6.38
698.217	4.38
698.972	5.38
699.726	7.38
700.48	6.38
701.235	4.38
701.989	5.38
702.743	7.38
703.497	4.38
704.251	4.38
705.005	6.38
705.759	6.38
706.513	6.38
707.266	5.38
708.02	7.38
708.774	6.38
709.527	4.38
710.28	6.38
711.034	5.38
711.787	6.38
712.54	5.38
713.293	5.38
714.046	7.38
714.799	5.38
715.552	6.38
716.305	5.38
717.058	7.38
717.81	7.38
718.563	6.38
719.315	6.38
720.068	7.38
720.82	5.38
721.573	6.38
722.325	10.38
723.077	5.38
723.829	6.38
724.581	5.38
725.333	9.38
726.085	6.38
726.836	5.38
727.588	5.38
728.34	4.38
729.091	8.38
729.843	6.38
730.594	7.38
731.346	8.38
732.097	7.38
732.848	4.38
733.599	8.38
734.35	6.38
735.101	5.38
735.852	6.38
736.603	9.38
737.354	6.38
738.104	7.38
738.855	8.38
739.605	6.38
740.356	7.38
741.106	6.38
741.856	8.38
742.607	7.38
743.357	7.38
744.107	6.38
744.857	5.38
745.607	8.38
746.357	7.38
747.106	4.38
747.856	11.38
748.606	8.38
749.355	10.38
750.105	10.38
750.854	8.38
751.603	8.38
752.353	7.38
753.102	8.38
753.851	8.38
754.6	9.38
755.349	7.38
756.098	9.38
756.847	9.38
757.595	8.38
758.344	8.38
759.093	8.38
759.841	9.38
760.589	9.38
761.338	9.38
762.086	10.38
762.834	11.38
763.582	9.38
764.331	9.38
765.079	7.38
765.826	10.38
766.574	11.38
767.322	10.38
768.07	10.38
768.817	12.38
769.565	10.38
770.312	12.38
771.06	12.38
771.807	12.38
772.554	12.38
773.302	13.38
774.049	11.38
774.796	9.38
775.543	11.38
776.29	12.38
777.036	12.38
777.783	10.38
778.53	10.38
779.276	14.38
780.023	11.38
780.769	12.38
781.516	11.38
782.262	11.38
783.008	11.38
783.754	12.38
784.5	14.38
785.246	11.38
785.992	12.38
786.738	13.38
787.484	10.38
788.23	12.38
788.975	11.38
789.721	12.38
790.466	9.38
791.212	11.38
791.957	11.38
792.702	12.38
793.447	11.38
794.193	9.38
794.938	12.38
795.683	10.38
796.427	10.38
797.172	12.38
797.917	10.38
798.662	10.38
799.406	11.38
800.151	11.38
800.895	12.38
801.64	10.38
802.384	9.38
803.128	8.38
803.872	11.38
804.616	8.38
805.36	10.38
806.104	8.38
806.848	8.38
807.592	9.38
808.336	10.38
809.079	11.38
809.823	7.38
810.566	8.38
811.31	6.38
812.053	6.38
812.796	5.38
813.539	8.38
814.283	6.38
815.026	7.38
815.769	8.38
816.511	6.38
817.254	7.38
817.997	7.38
818.74	8.38
819.482	7.38
820.225	6.38
820.967	6.38
821.71	5.38
822.452	8.38
823.194	4.38
823.936	5.38
824.678	8.38
825.42	7.38
826.162	5.38
826.904	4.38
827.646	5.38
828.388	4.38
829.129	5.38
829.871	3.38
830.612	5.38
831.354	7.38
832.095	5.38
832.836	6.38
833.577	3.38
834.319	6.38
835.06	5.38
835.801	5.38
836.542	5.38
837.282	6.38
838.023	4.38
838.764	4.38
839.504	2.38
840.245	4.38
840.985	5.38
841.726	5.38
842.466	3.38
843.206	3.38
843.946	4.38
844.687	6.38
845.427	4.38
846.166	4.38
846.906	4.38
847.646	3.38
848.386	3.38
849.125	3.38
849.865	4.38
850.605	5.38
851.344	4.38
852.083	2.38
852.823	2.38
853.562	4.38
854.301	1.38
855.04	2.38
855.779	4.38
856.518	4.38
857.257	4.38
857.995	3.38
858.734	3.38
859.473	4.38
860.211	2.38
860.95	1.38
861.688	5.38
862.426	5.38
863.165	5.38
863.903	4.38
864.641	2.38
865.379	4.38
866.117	1.38
866.855	2.38
867.593	-0.62
868.33	0.38
869.068	-0.62
869.806	0.38
870.543	1.38
871.28	2.38
872.018	3.38
872.755	3.38
873.492	2.38
874.229	1.38
874.967	2.38
875.703	1.38
876.44	0.38
877.177	1.38
877.914	-1.62
878.651	0.38
879.387	1.38
880.124	-0.62
880.86	2.38
881.597	2.38
882.333	1.38
883.069	1.38
883.806	2.38
884.542	1.38
885.278	0.38
886.014	1.38
886.749	0.38
887.485	-0.62
888.221	0.38
888.957	3.38
889.692	-0.62
890.428	1.38
891.163	1.38
891.899	0.38
892.634	1.38
893.369	1.38
894.104	0.38
894.839	-1.62
895.574	2.38
896.309	-0.62
897.044	-1.62
897.779	-0.62
898.514	2.38
899.248	0.38
899.983	0.38
900.717	1.38
901.452	0.38
902.186	2.38
902.92	0.38
903.654	-1.62
904.389	-0.62
905.123	-0.62
905.857	2.38
906.59	0.38
907.324	0.38
908.058	1.38
908.792	0.38
909.525	2.38
910.259	-0.62
910.992	2.38
911.726	1.38
912.459	-0.62
913.192	2.38
913.925	0.38
914.658	0.38
915.391	2.38
916.124	0.38
916.857	-0.62
917.59	-0.62
918.323	-0.62
919.055	-0.62
919.788	0.38
920.521	-2.62
921.253	1.38
921.985	1.38
922.718	0.38
923.45	0.38
924.182	0.38
924.914	0.38
925.646	-1.62
926.378	-1.62
927.11	2.38
927.841	0.38
928.573	-0.62
929.305	-1.62
930.036	1.38
930.768	-1.62
931.499	2.38
932.23	0.38
932.962	-0.62
933.693	0.38
934.424	-0.62
935.155	-0.62
935.886	0.38
936.617	0.38
937.348	-0.62
938.078	2.38
938.809	0.38
939.54	0.38
940.27	1.38
941.001	-1.62
941.731	0.38
942.461	-0.62
943.191	1.38
943.922	0.38
944.652	0.38
945.382	0.38
946.112	-1.62
946.841	-0.62
947.571	-1.62
948.301	1.38
949.031	-0.62
949.76	-0.62
950.49	1.38
951.219	0.38
951.948	2.38
952.678	-1.62
953.407	-1.62
954.136	0.38
954.865	0.38
955.594	-2.62
956.323	0.38
957.052	0.38
957.78	-2.62
958.509	1.38
959.238	0.38
959.966	0.38
960.695	-2.62
961.423	-0.62
962.151	0.38
962.88	1.38
963.608	1.38
964.336	-0.62
965.064	0.38
965.792	0.38
966.52	2.38
967.247	0.38
967.975	0.38
968.703	2.38
969.43	-1.62
970.158	-0.62
970.885	0.38
971.613	1.38
972.34	-0.62
973.067	2.38
973.794	0.38
974.521	0.38
975.248	0.38
975.975	-0.62
976.702	-1.62
977.429	-0.62
978.156	-2.62
978.882	-0.62
979.609	0.38
980.335	1.38
981.062	-0.62
981.788	0.38
982.514	0.38
983.24	0.38
983.967	1.38
984.693	-1.62
985.419	-0.62
986.144	-0.62
986.87	-1.62
987.596	4.38
988.322	-0.62
989.047	0.38
989.773	0.38
990.498	-0.62
991.224	-1.62
991.949	-1.62
992.674	0.38
993.399	0.38
994.124	1.38
994.849	-2.62
995.574	0.38
996.299	-1.62
997.024	1.38
997.749	-0.62
998.473	-1.62
999.198	0.38
999.922	-0.62
1000.647	0.38
1001.371	4.38
1002.095	0.38
1002.82	-1.62
1003.544	-2.62
1004.268	3.38
1004.992	4.38
1005.716	2.38
1006.439	0.38
1007.163	1.38
1007.887	2.38
1008.611	0.38
1009.334	0.38
1010.058	-1.62
1010.781	0.38
1011.504	0.38
1012.228	-1.62
1012.951	-0.62
1013.674	-0.62
1014.397	-0.62
1015.12	1.38
