节点500_565_QEPB04081__402__09-57-06-337.txt的数据

Date: Thu Nov 13 09:57:06 CST 2025
User: PC
Spectrometer: QEPB0408
触发模式: 0
积分时间 (秒): 1.000000E-2
Scans to average: 1
启用暗噪声校正: true
启用非线性校正: false
滑动平均宽度: 0
X轴模式: Wavelengths
Number of Pixels in Spectrum: 1044
>>>>>Begin Spectral Data<<<<<
220.843	5.62
221.644	5.62
222.444	5.62
223.244	4.62
224.045	3.62
224.845	4.62
225.645	5.62
226.445	5.62
227.245	6.62
228.045	5.62
228.845	5.62
229.645	5.62
230.444	6.62
231.244	6.62
232.043	7.62
232.843	5.62
233.642	6.62
234.442	7.62
235.241	7.62
236.04	6.62
236.839	7.62
237.638	8.62
238.437	8.62
239.236	8.62
240.035	7.62
240.833	10.62
241.632	8.62
242.43	9.62
243.229	8.62
244.027	9.62
244.826	9.62
245.624	8.62
246.422	10.62
247.22	10.62
248.018	11.62
248.816	10.62
249.614	11.62
250.412	12.62
251.21	13.62
252.007	13.62
252.805	12.62
253.602	14.62
254.4	12.62
255.197	14.62
255.994	14.62
256.791	16.62
257.589	14.62
258.386	14.62
259.183	17.62
259.979	17.62
260.776	16.62
261.573	14.62
262.37	19.62
263.166	20.62
263.963	20.62
264.759	20.62
265.556	18.62
266.352	23.62
267.148	20.62
267.944	23.62
268.74	21.62
269.536	18.62
270.332	22.62
271.128	26.62
271.924	22.62
272.719	24.62
273.515	24.62
274.311	24.62
275.106	23.62
275.901	25.62
276.697	26.62
277.492	30.62
278.287	26.62
279.082	26.62
279.877	25.62
280.672	24.62
281.467	26.62
282.262	24.62
283.056	29.62
283.851	27.62
284.646	29.62
285.44	28.62
286.234	29.62
287.029	28.62
287.823	28.62
288.617	28.62
289.411	26.62
290.205	26.62
290.999	26.62
291.793	26.62
292.587	26.62
293.381	24.62
294.174	25.62
294.968	22.62
295.761	25.62
296.555	22.62
297.348	20.62
298.141	22.62
298.935	23.62
299.728	20.62
300.521	20.62
301.314	19.62
302.107	20.62
302.899	22.62
303.692	19.62
304.485	16.62
305.277	19.62
306.07	17.62
306.862	20.62
307.655	16.62
308.447	18.62
309.239	18.62
310.031	13.62
310.823	14.62
311.615	15.62
312.407	12.62
313.199	13.62
313.991	15.62
314.783	16.62
315.574	12.62
316.366	12.62
317.157	13.62
317.949	14.62
318.74	14.62
319.531	11.62
320.322	10.62
321.113	12.62
321.904	11.62
322.695	10.62
323.486	10.62
324.277	9.62
325.068	14.62
325.858	10.62
326.649	11.62
327.439	8.62
328.23	9.62
329.02	9.62
329.81	9.62
330.6	11.62
331.391	11.62
332.181	8.62
332.971	11.62
333.76	11.62
334.55	10.62
335.34	9.62
336.13	12.62
336.919	9.62
337.709	7.62
338.498	10.62
339.287	8.62
340.077	9.62
340.866	8.62
341.655	11.62
342.444	10.62
343.233	8.62
344.022	9.62
344.811	11.62
345.6	5.62
346.388	10.62
347.177	8.62
347.965	9.62
348.754	7.62
349.542	10.62
350.33	8.62
351.119	11.62
351.907	8.62
352.695	9.62
353.483	8.62
354.271	8.62
355.059	8.62
355.846	8.62
356.634	6.62
357.422	9.62
358.209	6.62
358.997	9.62
359.784	11.62
360.571	9.62
361.359	7.62
362.146	9.62
362.933	8.62
363.72	8.62
364.507	8.62
365.294	7.62
366.081	7.62
366.867	7.62
367.654	7.62
368.44	7.62
369.227	9.62
370.013	7.62
370.8	9.62
371.586	10.62
372.372	8.62
373.158	8.62
373.944	7.62
374.73	7.62
375.516	8.62
376.302	5.62
377.088	8.62
377.873	8.62
378.659	8.62
379.445	6.62
380.23	9.62
381.015	8.62
381.801	6.62
382.586	8.62
383.371	7.62
384.156	9.62
384.941	8.62
385.726	10.62
386.511	8.62
387.296	10.62
388.08	11.62
388.865	8.62
389.649	10.62
390.434	7.62
391.218	7.62
392.003	7.62
392.787	11.62
393.571	9.62
394.355	14.62
395.139	8.62
395.923	10.62
396.707	11.62
397.491	8.62
398.274	8.62
399.058	10.62
399.842	11.62
400.625	12.62
401.408	8.62
402.192	10.62
402.975	10.62
403.758	10.62
404.541	12.62
405.324	12.62
406.107	12.62
406.89	10.62
407.673	13.62
408.456	10.62
409.238	11.62
410.021	12.62
410.803	13.62
411.586	12.62
412.368	11.62
413.151	15.62
413.933	13.62
414.715	14.62
415.497	13.62
416.279	15.62
417.061	14.62
417.843	11.62
418.624	15.62
419.406	17.62
420.188	15.62
420.969	18.62
421.751	17.62
422.532	17.62
423.313	18.62
424.095	19.62
424.876	17.62
425.657	20.62
426.438	20.62
427.219	22.62
428	20.62
428.78	21.62
429.561	22.62
430.342	25.62
431.122	25.62
431.903	27.62
432.683	26.62
433.464	28.62
434.244	29.62
435.024	29.62
435.804	29.62
436.584	34.62
437.364	34.62
438.144	37.62
438.924	38.62
439.704	41.62
440.483	43.62
441.263	49.62
442.042	47.62
442.822	52.62
443.601	59.62
444.38	62.62
445.16	67.62
445.939	74.62
446.718	77.62
447.497	88.62
448.276	91.62
449.054	104.62
449.833	112.62
450.612	124.62
451.391	139.62
452.169	149.62
452.948	159.62
453.726	183.62
454.504	201.62
455.282	231.62
456.061	253.62
456.839	278.62
457.617	311.62
458.395	349.62
459.172	376.62
459.95	423.62
460.728	478.62
461.506	536.62
462.283	590.62
463.061	664.62
463.838	745.62
464.615	821.62
465.393	921.62
466.17	1007.62
466.947	1128.62
467.724	1253.62
468.501	1391.62
469.278	1533.62
470.055	1701.62
470.831	1906.62
471.608	2080.62
472.385	2290.62
473.161	2512.62
473.938	2782.62
474.714	3025.62
475.49	3330.62
476.266	3647.62
477.043	4004.62
477.819	4391.62
478.595	4795.62
479.371	5260.62
480.146	5742.62
480.922	6252.62
481.698	6813.62
482.473	7364.62
483.249	8005.62
484.024	8702.62
484.8	9498.62
485.575	10314.62
486.35	11180.62
487.126	12097.62
487.901	13080.62
488.676	14148.62
489.451	15355.62
490.225	16583.62
491	17809.62
491.775	19102.62
492.55	20512.62
493.324	21965.62
494.099	23379.62
494.873	24841.62
495.647	26466.62
496.422	27975.62
497.196	29509.62
497.97	31033.62
498.744	32471.62
499.518	33777.62
500.292	35064.62
501.066	36306.62
501.839	37336.62
502.613	38215.62
503.387	38934.62
504.16	39548.62
504.934	39944.62
505.707	40117.62
506.48	40130.62
507.253	39832.62
508.027	39426.62
508.8	38684.62
509.573	38030.62
510.346	37123.62
511.118	36182.62
511.891	35210.62
512.664	34139.62
513.437	32985.62
514.209	31677.62
514.982	30481.62
515.754	29357.62
516.526	28182.62
517.298	27015.62
518.071	25979.62
518.843	24858.62
519.615	23874.62
520.387	22884.62
521.159	22070.62
521.93	21176.62
522.702	20264.62
523.474	19485.62
524.245	18649.62
525.017	17967.62
525.788	17141.62
526.56	16404.62
527.331	15652.62
528.102	14943.62
528.873	14211.62
529.644	13575.62
530.415	12901.62
531.186	12267.62
531.957	11695.62
532.728	11090.62
533.498	10488.62
534.269	9932.62
535.039	9385.62
535.81	8897.62
536.58	8441.62
537.351	7981.62
538.121	7549.62
538.891	7132.62
539.661	6789.62
540.431	6437.62
541.201	6067.62
541.971	5729.62
542.741	5426.62
543.51	5139.62
544.28	4932.62
545.05	4673.62
545.819	4455.62
546.588	4196.62
547.358	4023.62
548.127	3808.62
548.896	3641.62
549.665	3449.62
550.434	3274.62
551.203	3105.62
551.972	2929.62
552.741	2797.62
553.51	2614.62
554.278	2497.62
555.047	2350.62
555.815	2231.62
556.584	2116.62
557.352	1982.62
558.121	1863.62
558.889	1765.62
559.657	1671.62
560.425	1578.62
561.193	1500.62
561.961	1425.62
562.729	1324.62
563.496	1257.62
564.264	1194.62
565.032	1147.62
565.799	1064.62
566.567	1025.62
567.334	961.62
568.101	903.62
568.869	864.62
569.636	807.62
570.403	774.62
571.17	726.62
571.937	683.62
572.704	651.62
573.471	603.62
574.237	571.62
575.004	533.62
575.771	513.62
576.537	480.62
577.303	454.62
578.07	428.62
578.836	408.62
579.602	378.62
580.368	363.62
581.134	346.62
581.9	324.62
582.666	304.62
583.432	293.62
584.198	284.62
584.964	260.62
585.729	249.62
586.495	237.62
587.26	226.62
588.025	214.62
588.791	202.62
589.556	191.62
590.321	185.62
591.086	167.62
591.851	162.62
592.616	160.62
593.381	151.62
594.146	140.62
594.911	133.62
595.675	128.62
596.44	122.62
597.204	121.62
597.969	113.62
598.733	106.62
599.497	102.62
600.261	92.62
601.025	95.62
601.79	89.62
602.553	88.62
603.317	85.62
604.081	83.62
604.845	76.62
605.609	72.62
606.372	68.62
607.136	64.62
607.899	64.62
608.662	63.62
609.426	57.62
610.189	57.62
610.952	54.62
611.715	52.62
612.478	52.62
613.241	46.62
614.004	52.62
614.767	45.62
615.529	43.62
616.292	43.62
617.055	41.62
617.817	41.62
618.579	36.62
619.342	38.62
620.104	34.62
620.866	35.62
621.628	34.62
622.39	33.62
623.152	33.62
623.914	32.62
624.676	27.62
625.438	29.62
626.199	26.62
626.961	27.62
627.722	26.62
628.484	26.62
629.245	23.62
630.006	21.62
630.768	20.62
631.529	23.62
632.29	22.62
633.051	20.62
633.812	23.62
634.573	20.62
635.333	20.62
636.094	19.62
636.855	15.62
637.615	19.62
638.376	16.62
639.136	18.62
639.896	15.62
640.657	15.62
641.417	15.62
642.177	13.62
642.937	15.62
643.697	14.62
644.457	13.62
645.216	12.62
645.976	13.62
646.736	16.62
647.495	15.62
648.255	15.62
649.014	12.62
649.774	11.62
650.533	9.62
651.292	12.62
652.051	12.62
652.81	12.62
653.569	11.62
654.328	9.62
655.087	11.62
655.846	9.62
656.604	10.62
657.363	10.62
658.121	9.62
658.88	11.62
659.638	8.62
660.397	9.62
661.155	11.62
661.913	8.62
662.671	5.62
663.429	8.62
664.187	10.62
664.945	9.62
665.703	9.62
666.46	8.62
667.218	9.62
667.976	6.62
668.733	6.62
669.49	8.62
670.248	7.62
671.005	6.62
671.762	7.62
672.519	9.62
673.276	7.62
674.033	8.62
674.79	6.62
675.547	5.62
676.304	6.62
677.06	7.62
677.817	8.62
678.574	8.62
679.33	7.62
680.086	7.62
680.843	8.62
681.599	7.62
682.355	7.62
683.111	8.62
683.867	6.62
684.623	6.62
685.379	7.62
686.135	5.62
686.89	8.62
687.646	6.62
688.402	7.62
689.157	6.62
689.912	7.62
690.668	6.62
691.423	6.62
692.178	7.62
692.933	8.62
693.688	6.62
694.443	4.62
695.198	6.62
695.953	6.62
696.708	6.62
697.462	5.62
698.217	6.62
698.972	6.62
699.726	4.62
700.48	7.62
701.235	6.62
701.989	6.62
702.743	4.62
703.497	5.62
704.251	8.62
705.005	6.62
705.759	5.62
706.513	6.62
707.266	5.62
708.02	6.62
708.774	6.62
709.527	4.62
710.28	4.62
711.034	6.62
711.787	4.62
712.54	5.62
713.293	6.62
714.046	7.62
714.799	3.62
715.552	6.62
716.305	7.62
717.058	7.62
717.81	5.62
718.563	5.62
719.315	7.62
720.068	7.62
720.82	3.62
721.573	4.62
722.325	4.62
723.077	2.62
723.829	7.62
724.581	5.62
725.333	4.62
726.085	5.62
726.836	6.62
727.588	6.62
728.34	5.62
729.091	4.62
729.843	9.62
730.594	7.62
731.346	5.62
732.097	8.62
732.848	5.62
733.599	6.62
734.35	9.62
735.101	6.62
735.852	5.62
736.603	7.62
737.354	6.62
738.104	7.62
738.855	6.62
739.605	8.62
740.356	5.62
741.106	7.62
741.856	8.62
742.607	8.62
743.357	7.62
744.107	8.62
744.857	8.62
745.607	9.62
746.357	9.62
747.106	4.62
747.856	10.62
748.606	8.62
749.355	7.62
750.105	9.62
750.854	8.62
751.603	9.62
752.353	7.62
753.102	8.62
753.851	11.62
754.6	8.62
755.349	10.62
756.098	13.62
756.847	8.62
757.595	8.62
758.344	9.62
759.093	10.62
759.841	10.62
760.589	11.62
761.338	9.62
762.086	8.62
762.834	11.62
763.582	12.62
764.331	11.62
765.079	9.62
765.826	9.62
766.574	10.62
767.322	11.62
768.07	8.62
768.817	10.62
769.565	12.62
770.312	11.62
771.06	10.62
771.807	12.62
772.554	10.62
773.302	13.62
774.049	10.62
774.796	11.62
775.543	11.62
776.29	11.62
777.036	13.62
777.783	10.62
778.53	12.62
779.276	11.62
780.023	13.62
780.769	10.62
781.516	12.62
782.262	15.62
783.008	13.62
783.754	13.62
784.5	13.62
785.246	10.62
785.992	13.62
786.738	10.62
787.484	12.62
788.23	10.62
788.975	12.62
789.721	12.62
790.466	13.62
791.212	13.62
791.957	11.62
792.702	7.62
793.447	12.62
794.193	12.62
794.938	14.62
795.683	10.62
796.427	11.62
797.172	8.62
797.917	10.62
798.662	10.62
799.406	10.62
800.151	10.62
800.895	10.62
801.64	11.62
802.384	8.62
803.128	11.62
803.872	8.62
804.616	10.62
805.36	10.62
806.104	8.62
806.848	8.62
807.592	9.62
808.336	10.62
809.079	8.62
809.823	8.62
810.566	7.62
811.31	7.62
812.053	8.62
812.796	5.62
813.539	8.62
814.283	8.62
815.026	9.62
815.769	6.62
816.511	4.62
817.254	7.62
817.997	6.62
818.74	4.62
819.482	5.62
820.225	6.62
820.967	6.62
821.71	7.62
822.452	6.62
823.194	7.62
823.936	5.62
824.678	4.62
825.42	5.62
826.162	5.62
826.904	3.62
827.646	5.62
828.388	6.62
829.129	6.62
829.871	5.62
830.612	6.62
831.354	6.62
832.095	5.62
832.836	4.62
833.577	2.62
834.319	7.62
835.06	5.62
835.801	5.62
836.542	4.62
837.282	6.62
838.023	6.62
838.764	7.62
839.504	6.62
840.245	2.62
840.985	3.62
841.726	4.62
842.466	4.62
843.206	5.62
843.946	0.62
844.687	4.62
845.427	3.62
846.166	5.62
846.906	1.62
847.646	3.62
848.386	2.62
849.125	3.62
849.865	3.62
850.605	4.62
851.344	4.62
852.083	3.62
852.823	3.62
853.562	2.62
854.301	4.62
855.04	4.62
855.779	0.62
856.518	3.62
857.257	4.62
857.995	3.62
858.734	3.62
859.473	4.62
860.211	3.62
860.95	2.62
861.688	2.62
862.426	3.62
863.165	2.62
863.903	3.62
864.641	1.62
865.379	1.62
866.117	2.62
866.855	1.62
867.593	0.62
868.33	4.62
869.068	2.62
869.806	5.62
870.543	2.62
871.28	2.62
872.018	3.62
872.755	2.62
873.492	2.62
874.229	3.62
874.967	1.62
875.703	0.62
876.44	0.62
877.177	0.62
877.914	-0.38
878.651	3.62
879.387	0.62
880.124	1.62
880.86	2.62
881.597	-0.38
882.333	1.62
883.069	1.62
883.806	3.62
884.542	0.62
885.278	1.62
886.014	1.62
886.749	2.62
887.485	0.62
888.221	0.62
888.957	1.62
889.692	2.62
890.428	0.62
891.163	1.62
891.899	1.62
892.634	1.62
893.369	2.62
894.104	0.62
894.839	0.62
895.574	1.62
896.309	1.62
897.044	1.62
897.779	1.62
898.514	0.62
899.248	1.62
899.983	1.62
900.717	-0.38
901.452	1.62
902.186	-0.38
902.92	-1.38
903.654	0.62
904.389	0.62
905.123	0.62
905.857	0.62
906.59	-0.38
907.324	1.62
908.058	2.62
908.792	0.62
909.525	1.62
910.259	0.62
910.992	1.62
911.726	1.62
912.459	1.62
913.192	0.62
913.925	-0.38
914.658	2.62
915.391	0.62
916.124	1.62
916.857	0.62
917.59	-2.38
918.323	1.62
919.055	0.62
919.788	-2.38
920.521	1.62
921.253	0.62
921.985	-1.38
922.718	1.62
923.45	-0.38
924.182	-1.38
924.914	1.62
925.646	2.62
926.378	1.62
927.11	-0.38
927.841	0.62
928.573	1.62
929.305	0.62
930.036	0.62
930.768	0.62
931.499	0.62
932.23	-0.38
932.962	0.62
933.693	-1.38
934.424	0.62
935.155	1.62
935.886	2.62
936.617	0.62
937.348	-1.38
938.078	-0.38
938.809	1.62
939.54	2.62
940.27	0.62
941.001	-0.38
941.731	-0.38
942.461	-0.38
943.191	0.62
943.922	0.62
944.652	1.62
945.382	0.62
946.112	0.62
946.841	0.62
947.571	0.62
948.301	-0.38
949.031	-1.38
949.76	1.62
950.49	-0.38
951.219	1.62
951.948	0.62
952.678	0.62
953.407	0.62
954.136	-1.38
954.865	-0.38
955.594	-0.38
956.323	-0.38
957.052	-0.38
957.78	0.62
958.509	-1.38
959.238	-1.38
959.966	0.62
960.695	0.62
961.423	-0.38
962.151	3.62
962.88	-1.38
963.608	-0.38
964.336	0.62
965.064	0.62
965.792	0.62
966.52	1.62
967.247	-1.38
967.975	0.62
968.703	1.62
969.43	1.62
970.158	1.62
970.885	-0.38
971.613	-2.38
972.34	0.62
973.067	0.62
973.794	1.62
974.521	-1.38
975.248	2.62
975.975	-0.38
976.702	0.62
977.429	-0.38
978.156	-2.38
978.882	0.62
979.609	-1.38
980.335	-0.38
981.062	-0.38
981.788	1.62
982.514	-1.38
983.24	0.62
983.967	0.62
984.693	1.62
985.419	0.62
986.144	-2.38
986.87	0.62
987.596	-1.38
988.322	-2.38
989.047	-2.38
989.773	-2.38
990.498	0.62
991.224	1.62
991.949	3.62
992.674	-0.38
993.399	0.62
994.124	-0.38
994.849	0.62
995.574	0.62
996.299	0.62
997.024	1.62
997.749	1.62
998.473	0.62
999.198	0.62
999.922	-0.38
1000.647	2.62
1001.371	3.62
1002.095	-0.38
1002.82	-1.38
1003.544	-2.38
1004.268	2.62
1004.992	4.62
1005.716	0.62
1006.439	3.62
1007.163	3.62
1007.887	3.62
1008.611	0.62
1009.334	-0.38
1010.058	0.62
1010.781	-0.38
1011.504	-0.38
1012.228	-0.38
1012.951	-0.38
1013.674	0.62
1014.397	-0.38
1015.12	0.62
