节点500_565_QEPB04081__489__09-58-33-152.txt的数据

Date: Thu Nov 13 09:58:33 CST 2025
User: PC
Spectrometer: QEPB0408
触发模式: 0
积分时间 (秒): 1.000000E-2
Scans to average: 1
启用暗噪声校正: true
启用非线性校正: false
滑动平均宽度: 0
X轴模式: Wavelengths
Number of Pixels in Spectrum: 1044
>>>>>Begin Spectral Data<<<<<
220.843	4.25
221.644	6.25
222.444	5.25
223.244	3.25
224.045	4.25
224.845	5.25
225.645	5.25
226.445	5.25
227.245	4.25
228.045	5.25
228.845	7.25
229.645	4.25
230.444	6.25
231.244	7.25
232.043	6.25
232.843	8.25
233.642	5.25
234.442	8.25
235.241	7.25
236.04	8.25
236.839	8.25
237.638	9.25
238.437	7.25
239.236	8.25
240.035	8.25
240.833	9.25
241.632	11.25
242.43	12.25
243.229	12.25
244.027	9.25
244.826	12.25
245.624	10.25
246.422	12.25
247.22	11.25
248.018	9.25
248.816	13.25
249.614	9.25
250.412	11.25
251.21	13.25
252.007	11.25
252.805	11.25
253.602	12.25
254.4	15.25
255.197	12.25
255.994	15.25
256.791	14.25
257.589	15.25
258.386	15.25
259.183	13.25
259.979	16.25
260.776	17.25
261.573	18.25
262.37	20.25
263.166	20.25
263.963	18.25
264.759	18.25
265.556	20.25
266.352	19.25
267.148	18.25
267.944	23.25
268.74	20.25
269.536	22.25
270.332	21.25
271.128	23.25
271.924	24.25
272.719	24.25
273.515	23.25
274.311	24.25
275.106	27.25
275.901	25.25
276.697	28.25
277.492	26.25
278.287	25.25
279.082	25.25
279.877	25.25
280.672	27.25
281.467	26.25
282.262	29.25
283.056	28.25
283.851	28.25
284.646	29.25
285.44	29.25
286.234	26.25
287.029	25.25
287.823	25.25
288.617	25.25
289.411	26.25
290.205	28.25
290.999	25.25
291.793	25.25
292.587	25.25
293.381	25.25
294.174	24.25
294.968	24.25
295.761	23.25
296.555	22.25
297.348	21.25
298.141	21.25
298.935	25.25
299.728	20.25
300.521	21.25
301.314	23.25
302.107	20.25
302.899	21.25
303.692	19.25
304.485	19.25
305.277	21.25
306.07	21.25
306.862	15.25
307.655	19.25
308.447	19.25
309.239	16.25
310.031	17.25
310.823	15.25
311.615	17.25
312.407	16.25
313.199	15.25
313.991	14.25
314.783	14.25
315.574	16.25
316.366	17.25
317.157	14.25
317.949	12.25
318.74	13.25
319.531	11.25
320.322	13.25
321.113	13.25
321.904	12.25
322.695	11.25
323.486	12.25
324.277	11.25
325.068	11.25
325.858	11.25
326.649	11.25
327.439	9.25
328.23	9.25
329.02	11.25
329.81	11.25
330.6	11.25
331.391	12.25
332.181	9.25
332.971	11.25
333.76	9.25
334.55	9.25
335.34	11.25
336.13	13.25
336.919	11.25
337.709	11.25
338.498	10.25
339.287	11.25
340.077	8.25
340.866	12.25
341.655	10.25
342.444	10.25
343.233	10.25
344.022	11.25
344.811	8.25
345.6	9.25
346.388	8.25
347.177	11.25
347.965	11.25
348.754	9.25
349.542	11.25
350.33	9.25
351.119	8.25
351.907	9.25
352.695	11.25
353.483	9.25
354.271	7.25
355.059	6.25
355.846	11.25
356.634	9.25
357.422	10.25
358.209	8.25
358.997	9.25
359.784	5.25
360.571	9.25
361.359	10.25
362.146	6.25
362.933	11.25
363.72	12.25
364.507	8.25
365.294	8.25
366.081	10.25
366.867	8.25
367.654	7.25
368.44	9.25
369.227	7.25
370.013	8.25
370.8	8.25
371.586	9.25
372.372	7.25
373.158	7.25
373.944	7.25
374.73	8.25
375.516	9.25
376.302	7.25
377.088	7.25
377.873	7.25
378.659	9.25
379.445	7.25
380.23	9.25
381.015	9.25
381.801	8.25
382.586	11.25
383.371	8.25
384.156	9.25
384.941	9.25
385.726	7.25
386.511	11.25
387.296	8.25
388.08	8.25
388.865	8.25
389.649	7.25
390.434	11.25
391.218	9.25
392.003	7.25
392.787	10.25
393.571	11.25
394.355	10.25
395.139	9.25
395.923	10.25
396.707	11.25
397.491	11.25
398.274	9.25
399.058	10.25
399.842	10.25
400.625	11.25
401.408	10.25
402.192	16.25
402.975	11.25
403.758	12.25
404.541	13.25
405.324	12.25
406.107	12.25
406.89	12.25
407.673	13.25
408.456	13.25
409.238	14.25
410.021	15.25
410.803	13.25
411.586	13.25
412.368	15.25
413.151	13.25
413.933	17.25
414.715	13.25
415.497	14.25
416.279	12.25
417.061	18.25
417.843	15.25
418.624	14.25
419.406	15.25
420.188	17.25
420.969	17.25
421.751	18.25
422.532	19.25
423.313	19.25
424.095	17.25
424.876	18.25
425.657	20.25
426.438	20.25
427.219	22.25
428	24.25
428.78	22.25
429.561	19.25
430.342	25.25
431.122	26.25
431.903	26.25
432.683	25.25
433.464	30.25
434.244	28.25
435.024	31.25
435.804	34.25
436.584	32.25
437.364	37.25
438.144	41.25
438.924	36.25
439.704	42.25
440.483	42.25
441.263	50.25
442.042	54.25
442.822	54.25
443.601	62.25
444.38	64.25
445.16	68.25
445.939	76.25
446.718	82.25
447.497	87.25
448.276	95.25
449.054	106.25
449.833	115.25
450.612	126.25
451.391	144.25
452.169	160.25
452.948	176.25
453.726	190.25
454.504	212.25
455.282	233.25
456.061	264.25
456.839	290.25
457.617	319.25
458.395	358.25
459.172	396.25
459.95	439.25
460.728	499.25
461.506	549.25
462.283	612.25
463.061	676.25
463.838	758.25
464.615	832.25
465.393	937.25
466.17	1032.25
466.947	1119.25
467.724	1251.25
468.501	1399.25
469.278	1546.25
470.055	1716.25
470.831	1905.25
471.608	2080.25
472.385	2301.25
473.161	2520.25
473.938	2779.25
474.714	3033.25
475.49	3335.25
476.266	3656.25
477.043	3989.25
477.819	4346.25
478.595	4786.25
479.371	5189.25
480.146	5634.25
480.922	6164.25
481.698	6715.25
482.473	7246.25
483.249	7866.25
484.024	8494.25
484.8	9237.25
485.575	10047.25
486.35	10791.25
487.126	11729.25
487.901	12673.25
488.676	13714.25
489.451	14771.25
490.225	15969.25
491	17131.25
491.775	18317.25
492.55	19688.25
493.324	21011.25
494.099	22420.25
494.873	23852.25
495.647	25373.25
496.422	26846.25
497.196	28225.25
497.97	29793.25
498.744	31109.25
499.518	32445.25
500.292	33710.25
501.066	34865.25
501.839	36061.25
502.613	36877.25
503.387	37737.25
504.16	38415.25
504.934	38811.25
505.707	39046.25
506.48	39094.25
507.253	38990.25
508.027	38649.25
508.8	38119.25
509.573	37571.25
510.346	36716.25
511.118	35870.25
511.891	35033.25
512.664	33974.25
513.437	32865.25
514.209	31676.25
514.982	30556.25
515.754	29466.25
516.526	28236.25
517.298	27187.25
518.071	26020.25
518.843	25002.25
519.615	23967.25
520.387	23056.25
521.159	22229.25
521.93	21287.25
522.702	20466.25
523.474	19608.25
524.245	18823.25
525.017	18078.25
525.788	17276.25
526.56	16569.25
527.331	15865.25
528.102	15138.25
528.873	14455.25
529.644	13747.25
530.415	13070.25
531.186	12421.25
531.957	11846.25
532.728	11292.25
533.498	10672.25
534.269	10095.25
535.039	9505.25
535.81	9103.25
536.58	8616.25
537.351	8149.25
538.121	7690.25
538.891	7285.25
539.661	6926.25
540.431	6558.25
541.201	6202.25
541.971	5867.25
542.741	5530.25
543.51	5273.25
544.28	5012.25
545.05	4775.25
545.819	4555.25
546.588	4323.25
547.358	4106.25
548.127	3903.25
548.896	3716.25
549.665	3529.25
550.434	3328.25
551.203	3144.25
551.972	3016.25
552.741	2853.25
553.51	2683.25
554.278	2543.25
555.047	2409.25
555.815	2273.25
556.584	2168.25
557.352	2041.25
558.121	1907.25
558.889	1810.25
559.657	1705.25
560.425	1626.25
561.193	1527.25
561.961	1451.25
562.729	1373.25
563.496	1306.25
564.264	1227.25
565.032	1166.25
565.799	1105.25
566.567	1048.25
567.334	989.25
568.101	939.25
568.869	872.25
569.636	823.25
570.403	785.25
571.17	743.25
571.937	703.25
572.704	662.25
573.471	613.25
574.237	583.25
575.004	553.25
575.771	517.25
576.537	500.25
577.303	469.25
578.07	436.25
578.836	408.25
579.602	397.25
580.368	371.25
581.134	357.25
581.9	344.25
582.666	311.25
583.432	297.25
584.198	289.25
584.964	272.25
585.729	258.25
586.495	249.25
587.26	232.25
588.025	222.25
588.791	204.25
589.556	194.25
590.321	183.25
591.086	176.25
591.851	170.25
592.616	162.25
593.381	158.25
594.146	151.25
594.911	133.25
595.675	134.25
596.44	128.25
597.204	124.25
597.969	115.25
598.733	113.25
599.497	108.25
600.261	103.25
601.025	95.25
601.79	93.25
602.553	91.25
603.317	84.25
604.081	80.25
604.845	80.25
605.609	78.25
606.372	71.25
607.136	68.25
607.899	64.25
608.662	63.25
609.426	63.25
610.189	59.25
610.952	59.25
611.715	55.25
612.478	50.25
613.241	49.25
614.004	49.25
614.767	48.25
615.529	48.25
616.292	47.25
617.055	43.25
617.817	43.25
618.579	38.25
619.342	37.25
620.104	36.25
620.866	36.25
621.628	38.25
622.39	33.25
623.152	33.25
623.914	35.25
624.676	29.25
625.438	28.25
626.199	30.25
626.961	26.25
627.722	26.25
628.484	24.25
629.245	26.25
630.006	24.25
630.768	23.25
631.529	23.25
632.29	23.25
633.051	23.25
633.812	20.25
634.573	20.25
635.333	19.25
636.094	22.25
636.855	17.25
637.615	19.25
638.376	18.25
639.136	13.25
639.896	18.25
640.657	17.25
641.417	16.25
642.177	18.25
642.937	17.25
643.697	15.25
644.457	16.25
645.216	15.25
645.976	16.25
646.736	16.25
647.495	13.25
648.255	15.25
649.014	15.25
649.774	15.25
650.533	11.25
651.292	12.25
652.051	12.25
652.81	11.25
653.569	10.25
654.328	9.25
655.087	10.25
655.846	12.25
656.604	11.25
657.363	10.25
658.121	9.25
658.88	10.25
659.638	10.25
660.397	10.25
661.155	9.25
661.913	8.25
662.671	10.25
663.429	9.25
664.187	11.25
664.945	9.25
665.703	10.25
666.46	9.25
667.218	9.25
667.976	9.25
668.733	9.25
669.49	9.25
670.248	9.25
671.005	8.25
671.762	9.25
672.519	7.25
673.276	8.25
674.033	8.25
674.79	10.25
675.547	7.25
676.304	7.25
677.06	6.25
677.817	7.25
678.574	6.25
679.33	7.25
680.086	7.25
680.843	9.25
681.599	9.25
682.355	7.25
683.111	8.25
683.867	5.25
684.623	6.25
685.379	9.25
686.135	6.25
686.89	9.25
687.646	5.25
688.402	5.25
689.157	6.25
689.912	7.25
690.668	9.25
691.423	8.25
692.178	8.25
692.933	6.25
693.688	8.25
694.443	9.25
695.198	5.25
695.953	7.25
696.708	7.25
697.462	7.25
698.217	6.25
698.972	5.25
699.726	7.25
700.48	7.25
701.235	5.25
701.989	4.25
702.743	7.25
703.497	5.25
704.251	9.25
705.005	2.25
705.759	7.25
706.513	5.25
707.266	5.25
708.02	6.25
708.774	5.25
709.527	7.25
710.28	7.25
711.034	5.25
711.787	7.25
712.54	5.25
713.293	6.25
714.046	5.25
714.799	6.25
715.552	7.25
716.305	5.25
717.058	6.25
717.81	6.25
718.563	6.25
719.315	8.25
720.068	6.25
720.82	6.25
721.573	7.25
722.325	5.25
723.077	9.25
723.829	7.25
724.581	6.25
725.333	6.25
726.085	8.25
726.836	7.25
727.588	6.25
728.34	5.25
729.091	6.25
729.843	7.25
730.594	8.25
731.346	5.25
732.097	6.25
732.848	7.25
733.599	7.25
734.35	7.25
735.101	6.25
735.852	7.25
736.603	9.25
737.354	5.25
738.104	9.25
738.855	7.25
739.605	5.25
740.356	7.25
741.106	8.25
741.856	5.25
742.607	8.25
743.357	7.25
744.107	9.25
744.857	8.25
745.607	7.25
746.357	8.25
747.106	9.25
747.856	8.25
748.606	10.25
749.355	6.25
750.105	10.25
750.854	9.25
751.603	9.25
752.353	7.25
753.102	9.25
753.851	11.25
754.6	8.25
755.349	8.25
756.098	9.25
756.847	10.25
757.595	9.25
758.344	10.25
759.093	9.25
759.841	12.25
760.589	9.25
761.338	8.25
762.086	10.25
762.834	11.25
763.582	12.25
764.331	9.25
765.079	12.25
765.826	10.25
766.574	11.25
767.322	11.25
768.07	10.25
768.817	12.25
769.565	10.25
770.312	10.25
771.06	11.25
771.807	11.25
772.554	14.25
773.302	10.25
774.049	11.25
774.796	13.25
775.543	13.25
776.29	11.25
777.036	14.25
777.783	11.25
778.53	14.25
779.276	13.25
780.023	14.25
780.769	12.25
781.516	14.25
782.262	14.25
783.008	15.25
783.754	13.25
784.5	13.25
785.246	12.25
785.992	11.25
786.738	13.25
787.484	13.25
788.23	11.25
788.975	12.25
789.721	11.25
790.466	9.25
791.212	14.25
791.957	12.25
792.702	12.25
793.447	15.25
794.193	10.25
794.938	14.25
795.683	10.25
796.427	13.25
797.172	12.25
797.917	12.25
798.662	9.25
799.406	12.25
800.151	12.25
800.895	10.25
801.64	11.25
802.384	9.25
803.128	11.25
803.872	12.25
804.616	10.25
805.36	9.25
806.104	11.25
806.848	9.25
807.592	9.25
808.336	8.25
809.079	8.25
809.823	8.25
810.566	9.25
811.31	8.25
812.053	9.25
812.796	6.25
813.539	6.25
814.283	8.25
815.026	6.25
815.769	7.25
816.511	7.25
817.254	7.25
817.997	6.25
818.74	8.25
819.482	7.25
820.225	5.25
820.967	6.25
821.71	5.25
822.452	6.25
823.194	6.25
823.936	9.25
824.678	6.25
825.42	5.25
826.162	7.25
826.904	7.25
827.646	6.25
828.388	6.25
829.129	6.25
829.871	5.25
830.612	4.25
831.354	7.25
832.095	4.25
832.836	6.25
833.577	8.25
834.319	5.25
835.06	4.25
835.801	6.25
836.542	6.25
837.282	4.25
838.023	5.25
838.764	3.25
839.504	3.25
840.245	5.25
840.985	6.25
841.726	4.25
842.466	2.25
843.206	2.25
843.946	3.25
844.687	5.25
845.427	3.25
846.166	6.25
846.906	3.25
847.646	3.25
848.386	5.25
849.125	5.25
849.865	5.25
850.605	2.25
851.344	3.25
852.083	5.25
852.823	3.25
853.562	3.25
854.301	3.25
855.04	5.25
855.779	3.25
856.518	4.25
857.257	2.25
857.995	3.25
858.734	4.25
859.473	5.25
860.211	2.25
860.95	2.25
861.688	2.25
862.426	3.25
863.165	4.25
863.903	1.25
864.641	5.25
865.379	1.25
866.117	3.25
866.855	2.25
867.593	4.25
868.33	4.25
869.068	1.25
869.806	0.25
870.543	2.25
871.28	1.25
872.018	5.25
872.755	2.25
873.492	3.25
874.229	4.25
874.967	1.25
875.703	1.25
876.44	2.25
877.177	3.25
877.914	2.25
878.651	2.25
879.387	3.25
880.124	1.25
880.86	3.25
881.597	2.25
882.333	1.25
883.069	1.25
883.806	1.25
884.542	0.25
885.278	1.25
886.014	2.25
886.749	1.25
887.485	3.25
888.221	1.25
888.957	1.25
889.692	1.25
890.428	2.25
891.163	0.25
891.899	1.25
892.634	1.25
893.369	0.25
894.104	2.25
894.839	2.25
895.574	1.25
896.309	2.25
897.044	1.25
897.779	3.25
898.514	0.25
899.248	0.25
899.983	1.25
900.717	2.25
901.452	2.25
902.186	1.25
902.92	1.25
903.654	-0.75
904.389	1.25
905.123	1.25
905.857	1.25
906.59	2.25
907.324	2.25
908.058	1.25
908.792	2.25
909.525	1.25
910.259	0.25
910.992	3.25
911.726	0.25
912.459	1.25
913.192	-1.75
913.925	-1.75
914.658	-0.75
915.391	1.25
916.124	1.25
916.857	1.25
917.59	1.25
918.323	1.25
919.055	-0.75
919.788	1.25
920.521	-0.75
921.253	0.25
921.985	0.25
922.718	0.25
923.45	1.25
924.182	0.25
924.914	1.25
925.646	0.25
926.378	2.25
927.11	1.25
927.841	-1.75
928.573	2.25
929.305	0.25
930.036	2.25
930.768	1.25
931.499	2.25
932.23	0.25
932.962	1.25
933.693	0.25
934.424	1.25
935.155	1.25
935.886	1.25
936.617	-0.75
937.348	2.25
938.078	0.25
938.809	0.25
939.54	1.25
940.27	-0.75
941.001	-1.75
941.731	-0.75
942.461	-0.75
943.191	0.25
943.922	2.25
944.652	2.25
945.382	-0.75
946.112	1.25
946.841	3.25
947.571	0.25
948.301	0.25
949.031	1.25
949.76	-1.75
950.49	0.25
951.219	1.25
951.948	2.25
952.678	2.25
953.407	1.25
954.136	1.25
954.865	1.25
955.594	-0.75
956.323	0.25
957.052	5.25
957.78	1.25
958.509	0.25
959.238	-0.75
959.966	1.25
960.695	-0.75
961.423	-0.75
962.151	2.25
962.88	1.25
963.608	1.25
964.336	0.25
965.064	1.25
965.792	0.25
966.52	-0.75
967.247	1.25
967.975	1.25
968.703	2.25
969.43	1.25
970.158	2.25
970.885	1.25
971.613	0.25
972.34	1.25
973.067	-0.75
973.794	0.25
974.521	1.25
975.248	0.25
975.975	1.25
976.702	1.25
977.429	2.25
978.156	1.25
978.882	0.25
979.609	-1.75
980.335	1.25
981.062	1.25
981.788	0.25
982.514	4.25
983.24	0.25
983.967	3.25
984.693	1.25
985.419	1.25
986.144	0.25
986.87	1.25
987.596	3.25
988.322	-1.75
989.047	0.25
989.773	2.25
990.498	3.25
991.224	2.25
991.949	2.25
992.674	1.25
993.399	-1.75
994.124	0.25
994.849	1.25
995.574	2.25
996.299	2.25
997.024	0.25
997.749	-0.75
998.473	-0.75
999.198	1.25
999.922	-1.75
1000.647	-0.75
1001.371	2.25
1002.095	-0.75
1002.82	-2.75
1003.544	-0.75
1004.268	5.25
1004.992	5.25
1005.716	6.25
1006.439	4.25
1007.163	2.25
1007.887	4.25
1008.611	0.25
1009.334	-0.75
1010.058	1.25
1010.781	1.25
1011.504	5.25
1012.228	1.25
1012.951	1.25
1013.674	1.25
1014.397	0.25
1015.12	-0.75
