节点500_565_QEPB04081__611__10-00-34-971.txt的数据

Date: Thu Nov 13 10:00:34 CST 2025
User: PC
Spectrometer: QEPB0408
触发模式: 0
积分时间 (秒): 1.000000E-2
Scans to average: 1
启用暗噪声校正: true
启用非线性校正: false
滑动平均宽度: 0
X轴模式: Wavelengths
Number of Pixels in Spectrum: 1044
>>>>>Begin Spectral Data<<<<<
220.843	2.62
221.644	0.62
222.444	3.62
223.244	5.62
224.045	6.62
224.845	3.62
225.645	4.62
226.445	3.62
227.245	5.62
228.045	3.62
228.845	4.62
229.645	7.62
230.444	4.62
231.244	6.62
232.043	4.62
232.843	8.62
233.642	5.62
234.442	6.62
235.241	9.62
236.04	7.62
236.839	6.62
237.638	6.62
238.437	7.62
239.236	8.62
240.035	8.62
240.833	9.62
241.632	8.62
242.43	7.62
243.229	8.62
244.027	7.62
244.826	10.62
245.624	9.62
246.422	12.62
247.22	8.62
248.018	10.62
248.816	10.62
249.614	13.62
250.412	12.62
251.21	12.62
252.007	9.62
252.805	12.62
253.602	9.62
254.4	12.62
255.197	12.62
255.994	11.62
256.791	12.62
257.589	15.62
258.386	13.62
259.183	14.62
259.979	16.62
260.776	16.62
261.573	17.62
262.37	14.62
263.166	15.62
263.963	17.62
264.759	19.62
265.556	16.62
266.352	20.62
267.148	20.62
267.944	19.62
268.74	21.62
269.536	18.62
270.332	20.62
271.128	23.62
271.924	23.62
272.719	25.62
273.515	20.62
274.311	20.62
275.106	21.62
275.901	25.62
276.697	24.62
277.492	27.62
278.287	24.62
279.082	26.62
279.877	26.62
280.672	23.62
281.467	24.62
282.262	24.62
283.056	25.62
283.851	27.62
284.646	27.62
285.44	30.62
286.234	26.62
287.029	28.62
287.823	25.62
288.617	27.62
289.411	25.62
290.205	26.62
290.999	24.62
291.793	24.62
292.587	26.62
293.381	23.62
294.174	28.62
294.968	24.62
295.761	22.62
296.555	18.62
297.348	24.62
298.141	20.62
298.935	22.62
299.728	20.62
300.521	22.62
301.314	18.62
302.107	19.62
302.899	19.62
303.692	18.62
304.485	18.62
305.277	20.62
306.07	17.62
306.862	17.62
307.655	17.62
308.447	18.62
309.239	18.62
310.031	18.62
310.823	16.62
311.615	16.62
312.407	14.62
313.199	16.62
313.991	15.62
314.783	15.62
315.574	12.62
316.366	11.62
317.157	11.62
317.949	13.62
318.74	12.62
319.531	12.62
320.322	12.62
321.113	11.62
321.904	8.62
322.695	9.62
323.486	10.62
324.277	8.62
325.068	12.62
325.858	9.62
326.649	12.62
327.439	12.62
328.23	9.62
329.02	10.62
329.81	10.62
330.6	9.62
331.391	10.62
332.181	9.62
332.971	9.62
333.76	8.62
334.55	6.62
335.34	8.62
336.13	11.62
336.919	8.62
337.709	9.62
338.498	8.62
339.287	11.62
340.077	8.62
340.866	10.62
341.655	11.62
342.444	9.62
343.233	10.62
344.022	8.62
344.811	6.62
345.6	8.62
346.388	6.62
347.177	9.62
347.965	8.62
348.754	10.62
349.542	9.62
350.33	8.62
351.119	9.62
351.907	7.62
352.695	7.62
353.483	8.62
354.271	8.62
355.059	9.62
355.846	5.62
356.634	10.62
357.422	9.62
358.209	9.62
358.997	6.62
359.784	7.62
360.571	8.62
361.359	8.62
362.146	6.62
362.933	6.62
363.72	7.62
364.507	6.62
365.294	6.62
366.081	6.62
366.867	9.62
367.654	8.62
368.44	8.62
369.227	8.62
370.013	6.62
370.8	4.62
371.586	5.62
372.372	6.62
373.158	8.62
373.944	6.62
374.73	8.62
375.516	6.62
376.302	8.62
377.088	7.62
377.873	6.62
378.659	7.62
379.445	6.62
380.23	9.62
381.015	6.62
381.801	9.62
382.586	7.62
383.371	7.62
384.156	9.62
384.941	7.62
385.726	8.62
386.511	6.62
387.296	9.62
388.08	8.62
388.865	7.62
389.649	9.62
390.434	6.62
391.218	9.62
392.003	8.62
392.787	10.62
393.571	7.62
394.355	10.62
395.139	9.62
395.923	8.62
396.707	11.62
397.491	9.62
398.274	11.62
399.058	9.62
399.842	9.62
400.625	11.62
401.408	9.62
402.192	10.62
402.975	10.62
403.758	9.62
404.541	8.62
405.324	11.62
406.107	8.62
406.89	10.62
407.673	10.62
408.456	12.62
409.238	13.62
410.021	10.62
410.803	12.62
411.586	10.62
412.368	12.62
413.151	10.62
413.933	14.62
414.715	12.62
415.497	13.62
416.279	13.62
417.061	13.62
417.843	13.62
418.624	15.62
419.406	14.62
420.188	14.62
420.969	13.62
421.751	18.62
422.532	18.62
423.313	17.62
424.095	17.62
424.876	18.62
425.657	20.62
426.438	18.62
427.219	16.62
428	22.62
428.78	18.62
429.561	21.62
430.342	21.62
431.122	27.62
431.903	23.62
432.683	26.62
433.464	28.62
434.244	28.62
435.024	28.62
435.804	35.62
436.584	33.62
437.364	33.62
438.144	38.62
438.924	39.62
439.704	42.62
440.483	44.62
441.263	51.62
442.042	52.62
442.822	57.62
443.601	63.62
444.38	65.62
445.16	70.62
445.939	73.62
446.718	80.62
447.497	85.62
448.276	94.62
449.054	111.62
449.833	114.62
450.612	128.62
451.391	141.62
452.169	159.62
452.948	174.62
453.726	187.62
454.504	212.62
455.282	239.62
456.061	260.62
456.839	291.62
457.617	330.62
458.395	369.62
459.172	411.62
459.95	461.62
460.728	516.62
461.506	560.62
462.283	620.62
463.061	692.62
463.838	766.62
464.615	850.62
465.393	946.62
466.17	1045.62
466.947	1171.62
467.724	1276.62
468.501	1401.62
469.278	1569.62
470.055	1730.62
470.831	1906.62
471.608	2091.62
472.385	2290.62
473.161	2516.62
473.938	2802.62
474.714	3039.62
475.49	3302.62
476.266	3606.62
477.043	3948.62
477.819	4332.62
478.595	4703.62
479.371	5095.62
480.146	5547.62
480.922	6066.62
481.698	6572.62
482.473	7110.62
483.249	7670.62
484.024	8336.62
484.8	9010.62
485.575	9799.62
486.35	10544.62
487.126	11401.62
487.901	12293.62
488.676	13207.62
489.451	14277.62
490.225	15423.62
491	16520.62
491.775	17612.62
492.55	18904.62
493.324	20222.62
494.099	21524.62
494.873	22972.62
495.647	24378.62
496.422	25835.62
497.196	27141.62
497.97	28533.62
498.744	29907.62
499.518	31238.62
500.292	32532.62
501.066	33670.62
501.839	34778.62
502.613	35667.62
503.387	36551.62
504.16	37198.62
504.934	37605.62
505.707	37999.62
506.48	38068.62
507.253	38099.62
508.027	37856.62
508.8	37515.62
509.573	37076.62
510.346	36344.62
511.118	35489.62
511.891	34782.62
512.664	33768.62
513.437	32780.62
514.209	31656.62
514.982	30571.62
515.754	29463.62
516.526	28339.62
517.298	27228.62
518.071	26184.62
518.843	25115.62
519.615	24069.62
520.387	23197.62
521.159	22269.62
521.93	21423.62
522.702	20575.62
523.474	19682.62
524.245	18932.62
525.017	18173.62
525.788	17477.62
526.56	16715.62
527.331	15963.62
528.102	15300.62
528.873	14612.62
529.644	13902.62
530.415	13215.62
531.186	12578.62
531.957	11984.62
532.728	11420.62
533.498	10833.62
534.269	10258.62
535.039	9680.62
535.81	9206.62
536.58	8743.62
537.351	8273.62
538.121	7876.62
538.891	7447.62
539.661	7023.62
540.431	6670.62
541.201	6309.62
541.971	5980.62
542.741	5650.62
543.51	5366.62
544.28	5110.62
545.05	4844.62
545.819	4616.62
546.588	4390.62
547.358	4149.62
548.127	3954.62
548.896	3777.62
549.665	3603.62
550.434	3413.62
551.203	3209.62
551.972	3058.62
552.741	2912.62
553.51	2748.62
554.278	2574.62
555.047	2480.62
555.815	2334.62
556.584	2216.62
557.352	2105.62
558.121	1965.62
558.889	1849.62
559.657	1768.62
560.425	1645.62
561.193	1581.62
561.961	1476.62
562.729	1419.62
563.496	1344.62
564.264	1268.62
565.032	1203.62
565.799	1123.62
566.567	1073.62
567.334	1004.62
568.101	948.62
568.869	908.62
569.636	858.62
570.403	809.62
571.17	767.62
571.937	712.62
572.704	683.62
573.471	634.62
574.237	601.62
575.004	572.62
575.771	542.62
576.537	508.62
577.303	474.62
578.07	453.62
578.836	425.62
579.602	399.62
580.368	373.62
581.134	360.62
581.9	341.62
582.666	329.62
583.432	309.62
584.198	295.62
584.964	274.62
585.729	260.62
586.495	247.62
587.26	234.62
588.025	227.62
588.791	214.62
589.556	206.62
590.321	193.62
591.086	184.62
591.851	172.62
592.616	167.62
593.381	151.62
594.146	153.62
594.911	143.62
595.675	133.62
596.44	133.62
597.204	123.62
597.969	120.62
598.733	108.62
599.497	106.62
600.261	106.62
601.025	97.62
601.79	93.62
602.553	89.62
603.317	85.62
604.081	82.62
604.845	78.62
605.609	78.62
606.372	71.62
607.136	73.62
607.899	64.62
608.662	63.62
609.426	62.62
610.189	63.62
610.952	55.62
611.715	55.62
612.478	54.62
613.241	51.62
614.004	50.62
614.767	46.62
615.529	47.62
616.292	42.62
617.055	43.62
617.817	39.62
618.579	39.62
619.342	41.62
620.104	36.62
620.866	37.62
621.628	36.62
622.39	35.62
623.152	33.62
623.914	30.62
624.676	30.62
625.438	27.62
626.199	30.62
626.961	28.62
627.722	25.62
628.484	22.62
629.245	23.62
630.006	22.62
630.768	23.62
631.529	22.62
632.29	23.62
633.051	22.62
633.812	20.62
634.573	18.62
635.333	19.62
636.094	16.62
636.855	19.62
637.615	18.62
638.376	17.62
639.136	17.62
639.896	17.62
640.657	16.62
641.417	14.62
642.177	13.62
642.937	14.62
643.697	18.62
644.457	16.62
645.216	12.62
645.976	15.62
646.736	13.62
647.495	12.62
648.255	12.62
649.014	13.62
649.774	14.62
650.533	11.62
651.292	10.62
652.051	7.62
652.81	12.62
653.569	10.62
654.328	11.62
655.087	8.62
655.846	10.62
656.604	9.62
657.363	8.62
658.121	8.62
658.88	10.62
659.638	7.62
660.397	8.62
661.155	7.62
661.913	8.62
662.671	8.62
663.429	9.62
664.187	7.62
664.945	9.62
665.703	7.62
666.46	6.62
667.218	8.62
667.976	9.62
668.733	9.62
669.49	6.62
670.248	8.62
671.005	6.62
671.762	5.62
672.519	8.62
673.276	3.62
674.033	9.62
674.79	6.62
675.547	7.62
676.304	8.62
677.06	5.62
677.817	7.62
678.574	6.62
679.33	4.62
680.086	4.62
680.843	7.62
681.599	7.62
682.355	5.62
683.111	6.62
683.867	5.62
684.623	4.62
685.379	5.62
686.135	5.62
686.89	3.62
687.646	7.62
688.402	7.62
689.157	6.62
689.912	6.62
690.668	4.62
691.423	4.62
692.178	6.62
692.933	5.62
693.688	7.62
694.443	6.62
695.198	5.62
695.953	6.62
696.708	4.62
697.462	4.62
698.217	6.62
698.972	5.62
699.726	6.62
700.48	4.62
701.235	5.62
701.989	4.62
702.743	6.62
703.497	4.62
704.251	6.62
705.005	8.62
705.759	4.62
706.513	4.62
707.266	5.62
708.02	4.62
708.774	6.62
709.527	6.62
710.28	3.62
711.034	4.62
711.787	4.62
712.54	5.62
713.293	4.62
714.046	5.62
714.799	4.62
715.552	4.62
716.305	4.62
717.058	4.62
717.81	7.62
718.563	5.62
719.315	6.62
720.068	4.62
720.82	5.62
721.573	6.62
722.325	6.62
723.077	5.62
723.829	3.62
724.581	4.62
725.333	5.62
726.085	6.62
726.836	6.62
727.588	4.62
728.34	6.62
729.091	8.62
729.843	6.62
730.594	4.62
731.346	6.62
732.097	6.62
732.848	4.62
733.599	5.62
734.35	6.62
735.101	9.62
735.852	4.62
736.603	3.62
737.354	6.62
738.104	8.62
738.855	8.62
739.605	4.62
740.356	8.62
741.106	8.62
741.856	7.62
742.607	6.62
743.357	7.62
744.107	8.62
744.857	9.62
745.607	9.62
746.357	6.62
747.106	7.62
747.856	6.62
748.606	6.62
749.355	6.62
750.105	7.62
750.854	7.62
751.603	8.62
752.353	8.62
753.102	7.62
753.851	8.62
754.6	6.62
755.349	7.62
756.098	10.62
756.847	8.62
757.595	6.62
758.344	9.62
759.093	10.62
759.841	7.62
760.589	7.62
761.338	8.62
762.086	12.62
762.834	8.62
763.582	7.62
764.331	10.62
765.079	9.62
765.826	11.62
766.574	10.62
767.322	10.62
768.07	12.62
768.817	11.62
769.565	12.62
770.312	8.62
771.06	10.62
771.807	12.62
772.554	11.62
773.302	12.62
774.049	10.62
774.796	11.62
775.543	11.62
776.29	12.62
777.036	13.62
777.783	11.62
778.53	10.62
779.276	10.62
780.023	12.62
780.769	12.62
781.516	11.62
782.262	12.62
783.008	11.62
783.754	13.62
784.5	10.62
785.246	12.62
785.992	12.62
786.738	12.62
787.484	13.62
788.23	12.62
788.975	11.62
789.721	15.62
790.466	10.62
791.212	12.62
791.957	10.62
792.702	10.62
793.447	12.62
794.193	11.62
794.938	9.62
795.683	12.62
796.427	10.62
797.172	9.62
797.917	11.62
798.662	11.62
799.406	8.62
800.151	9.62
800.895	9.62
801.64	10.62
802.384	13.62
803.128	11.62
803.872	7.62
804.616	9.62
805.36	7.62
806.104	11.62
806.848	9.62
807.592	10.62
808.336	7.62
809.079	9.62
809.823	7.62
810.566	7.62
811.31	8.62
812.053	6.62
812.796	5.62
813.539	6.62
814.283	6.62
815.026	6.62
815.769	6.62
816.511	6.62
817.254	7.62
817.997	6.62
818.74	8.62
819.482	7.62
820.225	6.62
820.967	5.62
821.71	6.62
822.452	3.62
823.194	5.62
823.936	5.62
824.678	4.62
825.42	5.62
826.162	7.62
826.904	6.62
827.646	4.62
828.388	6.62
829.129	5.62
829.871	6.62
830.612	3.62
831.354	5.62
832.095	4.62
832.836	6.62
833.577	3.62
834.319	6.62
835.06	3.62
835.801	5.62
836.542	4.62
837.282	4.62
838.023	4.62
838.764	4.62
839.504	4.62
840.245	6.62
840.985	5.62
841.726	2.62
842.466	4.62
843.206	3.62
843.946	4.62
844.687	4.62
845.427	6.62
846.166	4.62
846.906	5.62
847.646	3.62
848.386	2.62
849.125	2.62
849.865	2.62
850.605	4.62
851.344	0.62
852.083	1.62
852.823	6.62
853.562	2.62
854.301	4.62
855.04	1.62
855.779	3.62
856.518	4.62
857.257	2.62
857.995	1.62
858.734	4.62
859.473	3.62
860.211	3.62
860.95	4.62
861.688	0.62
862.426	3.62
863.165	2.62
863.903	3.62
864.641	3.62
865.379	1.62
866.117	1.62
866.855	2.62
867.593	4.62
868.33	-0.38
869.068	0.62
869.806	4.62
870.543	-0.38
871.28	1.62
872.018	2.62
872.755	2.62
873.492	1.62
874.229	2.62
874.967	0.62
875.703	0.62
876.44	2.62
877.177	1.62
877.914	0.62
878.651	-0.38
879.387	2.62
880.124	1.62
880.86	1.62
881.597	0.62
882.333	1.62
883.069	1.62
883.806	0.62
884.542	1.62
885.278	0.62
886.014	1.62
886.749	2.62
887.485	-2.38
888.221	1.62
888.957	0.62
889.692	0.62
890.428	0.62
891.163	2.62
891.899	0.62
892.634	-0.38
893.369	1.62
894.104	0.62
894.839	1.62
895.574	-0.38
896.309	0.62
897.044	1.62
897.779	1.62
898.514	0.62
899.248	1.62
899.983	0.62
900.717	0.62
901.452	2.62
902.186	1.62
902.92	-0.38
903.654	2.62
904.389	0.62
905.123	0.62
905.857	0.62
906.59	2.62
907.324	2.62
908.058	1.62
908.792	0.62
909.525	-0.38
910.259	1.62
910.992	-0.38
911.726	0.62
912.459	0.62
913.192	-1.38
913.925	0.62
914.658	-2.38
915.391	-0.38
916.124	0.62
916.857	0.62
917.59	0.62
918.323	0.62
919.055	0.62
919.788	0.62
920.521	-1.38
921.253	-0.38
921.985	-1.38
922.718	-1.38
923.45	0.62
924.182	0.62
924.914	1.62
925.646	1.62
926.378	0.62
927.11	-0.38
927.841	-0.38
928.573	-0.38
929.305	-1.38
930.036	0.62
930.768	2.62
931.499	0.62
932.23	-0.38
932.962	-1.38
933.693	0.62
934.424	-0.38
935.155	0.62
935.886	1.62
936.617	-0.38
937.348	0.62
938.078	-1.38
938.809	0.62
939.54	1.62
940.27	-0.38
941.001	-0.38
941.731	-2.38
942.461	-0.38
943.191	-1.38
943.922	-0.38
944.652	0.62
945.382	-1.38
946.112	1.62
946.841	2.62
947.571	-1.38
948.301	-1.38
949.031	-0.38
949.76	-2.38
950.49	-1.38
951.219	-1.38
951.948	0.62
952.678	0.62
953.407	0.62
954.136	-2.38
954.865	-0.38
955.594	0.62
956.323	0.62
957.052	-2.38
957.78	0.62
958.509	-0.38
959.238	2.62
959.966	-1.38
960.695	-2.38
961.423	0.62
962.151	0.62
962.88	1.62
963.608	-1.38
964.336	-0.38
965.064	-0.38
965.792	-0.38
966.52	0.62
967.247	-1.38
967.975	0.62
968.703	-2.38
969.43	2.62
970.158	-1.38
970.885	0.62
971.613	-0.38
972.34	-1.38
973.067	0.62
973.794	0.62
974.521	-0.38
975.248	-1.38
975.975	-1.38
976.702	-1.38
977.429	0.62
978.156	2.62
978.882	-1.38
979.609	1.62
980.335	2.62
981.062	0.62
981.788	1.62
982.514	-0.38
983.24	-2.38
983.967	0.62
984.693	-0.38
985.419	0.62
986.144	1.62
986.87	1.62
987.596	0.62
988.322	-0.38
989.047	-0.38
989.773	1.62
990.498	-0.38
991.224	0.62
991.949	1.62
992.674	-0.38
993.399	0.62
994.124	-0.38
994.849	-1.38
995.574	-2.38
996.299	1.62
997.024	-0.38
997.749	0.62
998.473	0.62
999.198	0.62
999.922	0.62
1000.647	-0.38
1001.371	1.62
1002.095	0.62
1002.82	-0.38
1003.544	-2.38
1004.268	4.62
1004.992	5.62
1005.716	1.62
1006.439	4.62
1007.163	0.62
1007.887	3.62
1008.611	-1.38
1009.334	-1.38
1010.058	0.62
1010.781	2.62
1011.504	-2.38
1012.228	-1.38
1012.951	-0.38
1013.674	0.62
1014.397	-0.38
1015.12	0.62
