节点500_565_QEPB04081__187__09-53-31-910.txt的数据

Date: Thu Nov 13 09:53:31 CST 2025
User: PC
Spectrometer: QEPB0408
触发模式: 0
积分时间 (秒): 1.000000E-2
Scans to average: 1
启用暗噪声校正: true
启用非线性校正: false
滑动平均宽度: 0
X轴模式: Wavelengths
Number of Pixels in Spectrum: 1044
>>>>>Begin Spectral Data<<<<<
220.843	5.5
221.644	5.5
222.444	5.5
223.244	4.5
224.045	2.5
224.845	6.5
225.645	6.5
226.445	4.5
227.245	5.5
228.045	5.5
228.845	7.5
229.645	5.5
230.444	6.5
231.244	6.5
232.043	7.5
232.843	6.5
233.642	7.5
234.442	7.5
235.241	8.5
236.04	8.5
236.839	10.5
237.638	6.5
238.437	10.5
239.236	7.5
240.035	8.5
240.833	8.5
241.632	9.5
242.43	9.5
243.229	10.5
244.027	12.5
244.826	11.5
245.624	12.5
246.422	10.5
247.22	10.5
248.018	13.5
248.816	12.5
249.614	12.5
250.412	14.5
251.21	14.5
252.007	15.5
252.805	12.5
253.602	17.5
254.4	16.5
255.197	16.5
255.994	16.5
256.791	15.5
257.589	16.5
258.386	16.5
259.183	18.5
259.979	20.5
260.776	18.5
261.573	17.5
262.37	22.5
263.166	22.5
263.963	21.5
264.759	21.5
265.556	22.5
266.352	20.5
267.148	21.5
267.944	25.5
268.74	25.5
269.536	25.5
270.332	26.5
271.128	25.5
271.924	28.5
272.719	25.5
273.515	26.5
274.311	31.5
275.106	25.5
275.901	28.5
276.697	29.5
277.492	30.5
278.287	30.5
279.082	32.5
279.877	29.5
280.672	27.5
281.467	29.5
282.262	30.5
283.056	28.5
283.851	31.5
284.646	29.5
285.44	30.5
286.234	29.5
287.029	28.5
287.823	29.5
288.617	27.5
289.411	32.5
290.205	26.5
290.999	27.5
291.793	28.5
292.587	28.5
293.381	28.5
294.174	27.5
294.968	24.5
295.761	22.5
296.555	21.5
297.348	20.5
298.141	24.5
298.935	21.5
299.728	22.5
300.521	23.5
301.314	22.5
302.107	19.5
302.899	22.5
303.692	20.5
304.485	18.5
305.277	20.5
306.07	20.5
306.862	18.5
307.655	19.5
308.447	16.5
309.239	20.5
310.031	18.5
310.823	15.5
311.615	17.5
312.407	13.5
313.199	13.5
313.991	14.5
314.783	12.5
315.574	16.5
316.366	15.5
317.157	14.5
317.949	12.5
318.74	12.5
319.531	13.5
320.322	13.5
321.113	12.5
321.904	10.5
322.695	11.5
323.486	12.5
324.277	11.5
325.068	11.5
325.858	12.5
326.649	8.5
327.439	10.5
328.23	10.5
329.02	10.5
329.81	10.5
330.6	11.5
331.391	9.5
332.181	13.5
332.971	10.5
333.76	11.5
334.55	8.5
335.34	12.5
336.13	8.5
336.919	9.5
337.709	9.5
338.498	10.5
339.287	11.5
340.077	10.5
340.866	12.5
341.655	9.5
342.444	8.5
343.233	9.5
344.022	11.5
344.811	8.5
345.6	9.5
346.388	10.5
347.177	8.5
347.965	11.5
348.754	7.5
349.542	9.5
350.33	8.5
351.119	9.5
351.907	11.5
352.695	12.5
353.483	9.5
354.271	6.5
355.059	8.5
355.846	11.5
356.634	8.5
357.422	7.5
358.209	9.5
358.997	10.5
359.784	8.5
360.571	10.5
361.359	6.5
362.146	8.5
362.933	9.5
363.72	9.5
364.507	6.5
365.294	6.5
366.081	7.5
366.867	6.5
367.654	8.5
368.44	9.5
369.227	6.5
370.013	9.5
370.8	6.5
371.586	8.5
372.372	10.5
373.158	6.5
373.944	9.5
374.73	9.5
375.516	9.5
376.302	8.5
377.088	9.5
377.873	10.5
378.659	8.5
379.445	6.5
380.23	9.5
381.015	8.5
381.801	10.5
382.586	8.5
383.371	7.5
384.156	8.5
384.941	6.5
385.726	10.5
386.511	11.5
387.296	9.5
388.08	9.5
388.865	11.5
389.649	10.5
390.434	8.5
391.218	9.5
392.003	9.5
392.787	10.5
393.571	11.5
394.355	12.5
395.139	9.5
395.923	10.5
396.707	10.5
397.491	11.5
398.274	14.5
399.058	14.5
399.842	12.5
400.625	11.5
401.408	11.5
402.192	12.5
402.975	12.5
403.758	12.5
404.541	14.5
405.324	12.5
406.107	10.5
406.89	12.5
407.673	12.5
408.456	12.5
409.238	12.5
410.021	12.5
410.803	15.5
411.586	13.5
412.368	17.5
413.151	14.5
413.933	14.5
414.715	14.5
415.497	17.5
416.279	14.5
417.061	16.5
417.843	15.5
418.624	16.5
419.406	16.5
420.188	16.5
420.969	18.5
421.751	21.5
422.532	20.5
423.313	17.5
424.095	18.5
424.876	20.5
425.657	20.5
426.438	23.5
427.219	24.5
428	21.5
428.78	23.5
429.561	21.5
430.342	25.5
431.122	26.5
431.903	25.5
432.683	29.5
433.464	29.5
434.244	29.5
435.024	30.5
435.804	34.5
436.584	34.5
437.364	35.5
438.144	36.5
438.924	41.5
439.704	41.5
440.483	43.5
441.263	48.5
442.042	50.5
442.822	54.5
443.601	54.5
444.38	61.5
445.16	66.5
445.939	68.5
446.718	77.5
447.497	82.5
448.276	89.5
449.054	98.5
449.833	104.5
450.612	116.5
451.391	129.5
452.169	144.5
452.948	154.5
453.726	173.5
454.504	187.5
455.282	205.5
456.061	236.5
456.839	262.5
457.617	295.5
458.395	318.5
459.172	360.5
459.95	409.5
460.728	457.5
461.506	498.5
462.283	562.5
463.061	626.5
463.838	701.5
464.615	794.5
465.393	866.5
466.17	977.5
466.947	1071.5
467.724	1213.5
468.501	1337.5
469.278	1506.5
470.055	1667.5
470.831	1864.5
471.608	2048.5
472.385	2268.5
473.161	2511.5
473.938	2764.5
474.714	3062.5
475.49	3400.5
476.266	3694.5
477.043	4103.5
477.819	4519.5
478.595	4964.5
479.371	5442.5
480.146	5958.5
480.922	6552.5
481.698	7153.5
482.473	7801.5
483.249	8488.5
484.024	9304.5
484.8	10210.5
485.575	11106.5
486.35	12143.5
487.126	13181.5
487.901	14333.5
488.676	15545.5
489.451	16893.5
490.225	18283.5
491	19763.5
491.775	21215.5
492.55	22772.5
493.324	24411.5
494.099	26021.5
494.873	27725.5
495.647	29511.5
496.422	31197.5
497.196	32878.5
497.97	34527.5
498.744	35924.5
499.518	37381.5
500.292	38663.5
501.066	39793.5
501.839	40862.5
502.613	41609.5
503.387	42197.5
504.16	42628.5
504.934	42760.5
505.707	42586.5
506.48	42387.5
507.253	41927.5
508.027	41094.5
508.8	40270.5
509.573	39241.5
510.346	38053.5
511.118	36780.5
511.891	35687.5
512.664	34403.5
513.437	33086.5
514.209	31696.5
514.982	30384.5
515.754	29186.5
516.526	27928.5
517.298	26729.5
518.071	25720.5
518.843	24674.5
519.615	23571.5
520.387	22631.5
521.159	21767.5
521.93	20872.5
522.702	20017.5
523.474	19178.5
524.245	18414.5
525.017	17661.5
525.788	16854.5
526.56	16064.5
527.331	15301.5
528.102	14646.5
528.873	13893.5
529.644	13187.5
530.415	12495.5
531.186	11851.5
531.957	11293.5
532.728	10670.5
533.498	10125.5
534.269	9512.5
535.039	9022.5
535.81	8536.5
536.58	8074.5
537.351	7632.5
538.121	7218.5
538.891	6814.5
539.661	6454.5
540.431	6108.5
541.201	5768.5
541.971	5510.5
542.741	5205.5
543.51	4926.5
544.28	4694.5
545.05	4455.5
545.819	4243.5
546.588	4048.5
547.358	3828.5
548.127	3626.5
548.896	3456.5
549.665	3289.5
550.434	3095.5
551.203	2953.5
551.972	2793.5
552.741	2635.5
553.51	2495.5
554.278	2353.5
555.047	2217.5
555.815	2109.5
556.584	1983.5
557.352	1874.5
558.121	1756.5
558.889	1665.5
559.657	1582.5
560.425	1472.5
561.193	1400.5
561.961	1337.5
562.729	1256.5
563.496	1207.5
564.264	1130.5
565.032	1072.5
565.799	1017.5
566.567	956.5
567.334	903.5
568.101	849.5
568.869	801.5
569.636	766.5
570.403	721.5
571.17	684.5
571.937	636.5
572.704	600.5
573.471	571.5
574.237	533.5
575.004	504.5
575.771	480.5
576.537	447.5
577.303	430.5
578.07	396.5
578.836	379.5
579.602	365.5
580.368	335.5
581.134	323.5
581.9	300.5
582.666	284.5
583.432	271.5
584.198	265.5
584.964	243.5
585.729	236.5
586.495	216.5
587.26	207.5
588.025	198.5
588.791	191.5
589.556	175.5
590.321	173.5
591.086	161.5
591.851	148.5
592.616	148.5
593.381	141.5
594.146	135.5
594.911	130.5
595.675	121.5
596.44	109.5
597.204	115.5
597.969	109.5
598.733	102.5
599.497	95.5
600.261	91.5
601.025	91.5
601.79	87.5
602.553	82.5
603.317	81.5
604.081	77.5
604.845	72.5
605.609	71.5
606.372	68.5
607.136	64.5
607.899	61.5
608.662	58.5
609.426	55.5
610.189	55.5
610.952	55.5
611.715	51.5
612.478	51.5
613.241	47.5
614.004	45.5
614.767	43.5
615.529	42.5
616.292	41.5
617.055	38.5
617.817	39.5
618.579	36.5
619.342	36.5
620.104	34.5
620.866	34.5
621.628	32.5
622.39	32.5
623.152	30.5
623.914	29.5
624.676	28.5
625.438	27.5
626.199	25.5
626.961	27.5
627.722	25.5
628.484	24.5
629.245	24.5
630.006	23.5
630.768	21.5
631.529	24.5
632.29	22.5
633.051	20.5
633.812	18.5
634.573	18.5
635.333	17.5
636.094	19.5
636.855	19.5
637.615	22.5
638.376	17.5
639.136	17.5
639.896	16.5
640.657	16.5
641.417	16.5
642.177	13.5
642.937	15.5
643.697	14.5
644.457	15.5
645.216	12.5
645.976	14.5
646.736	12.5
647.495	14.5
648.255	11.5
649.014	12.5
649.774	13.5
650.533	10.5
651.292	13.5
652.051	12.5
652.81	9.5
653.569	13.5
654.328	11.5
655.087	11.5
655.846	7.5
656.604	8.5
657.363	11.5
658.121	10.5
658.88	10.5
659.638	11.5
660.397	9.5
661.155	10.5
661.913	12.5
662.671	9.5
663.429	12.5
664.187	9.5
664.945	8.5
665.703	7.5
666.46	7.5
667.218	7.5
667.976	8.5
668.733	8.5
669.49	7.5
670.248	7.5
671.005	10.5
671.762	7.5
672.519	8.5
673.276	9.5
674.033	7.5
674.79	8.5
675.547	7.5
676.304	6.5
677.06	6.5
677.817	7.5
678.574	6.5
679.33	8.5
680.086	8.5
680.843	7.5
681.599	6.5
682.355	7.5
683.111	7.5
683.867	5.5
684.623	8.5
685.379	6.5
686.135	4.5
686.89	7.5
687.646	6.5
688.402	7.5
689.157	4.5
689.912	6.5
690.668	10.5
691.423	5.5
692.178	7.5
692.933	6.5
693.688	6.5
694.443	5.5
695.198	6.5
695.953	6.5
696.708	5.5
697.462	5.5
698.217	8.5
698.972	5.5
699.726	4.5
700.48	5.5
701.235	4.5
701.989	5.5
702.743	4.5
703.497	5.5
704.251	7.5
705.005	6.5
705.759	5.5
706.513	5.5
707.266	7.5
708.02	6.5
708.774	7.5
709.527	6.5
710.28	5.5
711.034	7.5
711.787	4.5
712.54	4.5
713.293	6.5
714.046	5.5
714.799	8.5
715.552	5.5
716.305	6.5
717.058	6.5
717.81	5.5
718.563	6.5
719.315	6.5
720.068	6.5
720.82	6.5
721.573	9.5
722.325	7.5
723.077	7.5
723.829	6.5
724.581	4.5
725.333	7.5
726.085	6.5
726.836	8.5
727.588	5.5
728.34	4.5
729.091	8.5
729.843	6.5
730.594	8.5
731.346	7.5
732.097	6.5
732.848	5.5
733.599	8.5
734.35	6.5
735.101	8.5
735.852	7.5
736.603	7.5
737.354	9.5
738.104	5.5
738.855	8.5
739.605	8.5
740.356	10.5
741.106	8.5
741.856	9.5
742.607	9.5
743.357	10.5
744.107	10.5
744.857	7.5
745.607	10.5
746.357	9.5
747.106	5.5
747.856	11.5
748.606	8.5
749.355	10.5
750.105	11.5
750.854	11.5
751.603	8.5
752.353	9.5
753.102	8.5
753.851	10.5
754.6	9.5
755.349	10.5
756.098	11.5
756.847	10.5
757.595	7.5
758.344	9.5
759.093	10.5
759.841	8.5
760.589	10.5
761.338	9.5
762.086	12.5
762.834	9.5
763.582	11.5
764.331	9.5
765.079	13.5
765.826	9.5
766.574	10.5
767.322	10.5
768.07	12.5
768.817	11.5
769.565	11.5
770.312	10.5
771.06	12.5
771.807	12.5
772.554	9.5
773.302	12.5
774.049	13.5
774.796	11.5
775.543	16.5
776.29	13.5
777.036	11.5
777.783	12.5
778.53	13.5
779.276	12.5
780.023	12.5
780.769	14.5
781.516	12.5
782.262	15.5
783.008	16.5
783.754	15.5
784.5	14.5
785.246	14.5
785.992	12.5
786.738	15.5
787.484	12.5
788.23	12.5
788.975	11.5
789.721	12.5
790.466	12.5
791.212	11.5
791.957	12.5
792.702	12.5
793.447	11.5
794.193	12.5
794.938	11.5
795.683	12.5
796.427	11.5
797.172	12.5
797.917	10.5
798.662	10.5
799.406	11.5
800.151	10.5
800.895	11.5
801.64	11.5
802.384	10.5
803.128	12.5
803.872	9.5
804.616	10.5
805.36	7.5
806.104	9.5
806.848	9.5
807.592	8.5
808.336	10.5
809.079	8.5
809.823	6.5
810.566	7.5
811.31	8.5
812.053	9.5
812.796	6.5
813.539	8.5
814.283	8.5
815.026	8.5
815.769	7.5
816.511	6.5
817.254	6.5
817.997	8.5
818.74	6.5
819.482	8.5
820.225	6.5
820.967	6.5
821.71	6.5
822.452	3.5
823.194	7.5
823.936	6.5
824.678	7.5
825.42	5.5
826.162	5.5
826.904	6.5
827.646	6.5
828.388	4.5
829.129	5.5
829.871	4.5
830.612	5.5
831.354	7.5
832.095	6.5
832.836	5.5
833.577	6.5
834.319	3.5
835.06	6.5
835.801	5.5
836.542	6.5
837.282	6.5
838.023	6.5
838.764	4.5
839.504	7.5
840.245	3.5
840.985	4.5
841.726	6.5
842.466	4.5
843.206	5.5
843.946	3.5
844.687	3.5
845.427	5.5
846.166	4.5
846.906	4.5
847.646	4.5
848.386	4.5
849.125	3.5
849.865	5.5
850.605	3.5
851.344	4.5
852.083	4.5
852.823	5.5
853.562	4.5
854.301	2.5
855.04	3.5
855.779	3.5
856.518	3.5
857.257	2.5
857.995	3.5
858.734	2.5
859.473	4.5
860.211	4.5
860.95	5.5
861.688	2.5
862.426	0.5
863.165	3.5
863.903	1.5
864.641	3.5
865.379	4.5
866.117	2.5
866.855	3.5
867.593	1.5
868.33	3.5
869.068	0.5
869.806	2.5
870.543	3.5
871.28	1.5
872.018	2.5
872.755	1.5
873.492	3.5
874.229	1.5
874.967	2.5
875.703	2.5
876.44	0.5
877.177	2.5
877.914	0.5
878.651	0.5
879.387	1.5
880.124	2.5
880.86	1.5
881.597	1.5
882.333	2.5
883.069	3.5
883.806	1.5
884.542	0.5
885.278	-0.5
886.014	0.5
886.749	2.5
887.485	1.5
888.221	1.5
888.957	0.5
889.692	3.5
890.428	0.5
891.163	2.5
891.899	1.5
892.634	3.5
893.369	0.5
894.104	2.5
894.839	1.5
895.574	0.5
896.309	-0.5
897.044	0.5
897.779	1.5
898.514	1.5
899.248	1.5
899.983	2.5
900.717	1.5
901.452	0.5
902.186	1.5
902.92	1.5
903.654	1.5
904.389	0.5
905.123	-0.5
905.857	0.5
906.59	1.5
907.324	-1.5
908.058	0.5
908.792	1.5
909.525	2.5
910.259	1.5
910.992	1.5
911.726	1.5
912.459	-1.5
913.192	0.5
913.925	-1.5
914.658	0.5
915.391	-0.5
916.124	0.5
916.857	0.5
917.59	1.5
918.323	4.5
919.055	0.5
919.788	3.5
920.521	0.5
921.253	-2.5
921.985	-0.5
922.718	-2.5
923.45	1.5
924.182	1.5
924.914	0.5
925.646	0.5
926.378	0.5
927.11	0.5
927.841	1.5
928.573	1.5
929.305	-0.5
930.036	0.5
930.768	-2.5
931.499	1.5
932.23	-0.5
932.962	-1.5
933.693	2.5
934.424	2.5
935.155	-0.5
935.886	2.5
936.617	-0.5
937.348	-0.5
938.078	-0.5
938.809	1.5
939.54	0.5
940.27	0.5
941.001	1.5
941.731	1.5
942.461	0.5
943.191	-0.5
943.922	1.5
944.652	0.5
945.382	0.5
946.112	2.5
946.841	1.5
947.571	0.5
948.301	-0.5
949.031	0.5
949.76	0.5
950.49	1.5
951.219	0.5
951.948	1.5
952.678	0.5
953.407	-0.5
954.136	0.5
954.865	0.5
955.594	2.5
956.323	-0.5
957.052	-0.5
957.78	1.5
958.509	-0.5
959.238	-1.5
959.966	0.5
960.695	1.5
961.423	0.5
962.151	-0.5
962.88	0.5
963.608	-0.5
964.336	0.5
965.064	-0.5
965.792	-0.5
966.52	-0.5
967.247	1.5
967.975	-0.5
968.703	-0.5
969.43	3.5
970.158	-1.5
970.885	0.5
971.613	0.5
972.34	-0.5
973.067	0.5
973.794	0.5
974.521	1.5
975.248	0.5
975.975	-0.5
976.702	1.5
977.429	-0.5
978.156	-0.5
978.882	-2.5
979.609	1.5
980.335	0.5
981.062	-0.5
981.788	1.5
982.514	1.5
983.24	0.5
983.967	-1.5
984.693	-0.5
985.419	0.5
986.144	2.5
986.87	1.5
987.596	0.5
988.322	0.5
989.047	0.5
989.773	3.5
990.498	-0.5
991.224	1.5
991.949	1.5
992.674	1.5
993.399	0.5
994.124	-0.5
994.849	0.5
995.574	-1.5
996.299	0.5
997.024	0.5
997.749	-2.5
998.473	0.5
999.198	-1.5
999.922	1.5
1000.647	1.5
1001.371	2.5
1002.095	-1.5
1002.82	-1.5
1003.544	-0.5
1004.268	2.5
1004.992	2.5
1005.716	1.5
1006.439	3.5
1007.163	4.5
1007.887	3.5
1008.611	-0.5
1009.334	0.5
1010.058	0.5
1010.781	-1.5
1011.504	0.5
1012.228	1.5
1012.951	-0.5
1013.674	0.5
1014.397	1.5
1015.12	-0.5
