节点500_565_QEPB04081__167__09-53-11-934.txt的数据

Date: Thu Nov 13 09:53:11 CST 2025
User: PC
Spectrometer: QEPB0408
触发模式: 0
积分时间 (秒): 1.000000E-2
Scans to average: 1
启用暗噪声校正: true
启用非线性校正: false
滑动平均宽度: 0
X轴模式: Wavelengths
Number of Pixels in Spectrum: 1044
>>>>>Begin Spectral Data<<<<<
220.843	5.75
221.644	6.75
222.444	4.75
223.244	4.75
224.045	3.75
224.845	5.75
225.645	3.75
226.445	7.75
227.245	5.75
228.045	6.75
228.845	4.75
229.645	4.75
230.444	6.75
231.244	8.75
232.043	5.75
232.843	5.75
233.642	4.75
234.442	9.75
235.241	8.75
236.04	10.75
236.839	7.75
237.638	9.75
238.437	8.75
239.236	7.75
240.035	11.75
240.833	9.75
241.632	9.75
242.43	6.75
243.229	11.75
244.027	10.75
244.826	10.75
245.624	12.75
246.422	9.75
247.22	10.75
248.018	10.75
248.816	13.75
249.614	10.75
250.412	13.75
251.21	15.75
252.007	12.75
252.805	13.75
253.602	13.75
254.4	14.75
255.197	14.75
255.994	15.75
256.791	16.75
257.589	16.75
258.386	16.75
259.183	16.75
259.979	19.75
260.776	22.75
261.573	21.75
262.37	20.75
263.166	18.75
263.963	22.75
264.759	22.75
265.556	23.75
266.352	22.75
267.148	21.75
267.944	26.75
268.74	25.75
269.536	24.75
270.332	22.75
271.128	27.75
271.924	26.75
272.719	27.75
273.515	29.75
274.311	30.75
275.106	29.75
275.901	29.75
276.697	30.75
277.492	28.75
278.287	27.75
279.082	30.75
279.877	30.75
280.672	29.75
281.467	28.75
282.262	30.75
283.056	29.75
283.851	28.75
284.646	27.75
285.44	30.75
286.234	28.75
287.029	29.75
287.823	29.75
288.617	29.75
289.411	28.75
290.205	24.75
290.999	29.75
291.793	28.75
292.587	27.75
293.381	28.75
294.174	25.75
294.968	22.75
295.761	24.75
296.555	21.75
297.348	24.75
298.141	21.75
298.935	23.75
299.728	25.75
300.521	22.75
301.314	22.75
302.107	20.75
302.899	21.75
303.692	17.75
304.485	19.75
305.277	18.75
306.07	16.75
306.862	19.75
307.655	18.75
308.447	19.75
309.239	17.75
310.031	18.75
310.823	18.75
311.615	18.75
312.407	14.75
313.199	14.75
313.991	14.75
314.783	12.75
315.574	15.75
316.366	13.75
317.157	15.75
317.949	12.75
318.74	12.75
319.531	12.75
320.322	12.75
321.113	11.75
321.904	13.75
322.695	12.75
323.486	10.75
324.277	12.75
325.068	10.75
325.858	12.75
326.649	9.75
327.439	10.75
328.23	11.75
329.02	11.75
329.81	10.75
330.6	9.75
331.391	6.75
332.181	8.75
332.971	8.75
333.76	10.75
334.55	11.75
335.34	10.75
336.13	11.75
336.919	9.75
337.709	11.75
338.498	8.75
339.287	10.75
340.077	8.75
340.866	8.75
341.655	9.75
342.444	10.75
343.233	11.75
344.022	8.75
344.811	10.75
345.6	9.75
346.388	12.75
347.177	8.75
347.965	9.75
348.754	12.75
349.542	8.75
350.33	8.75
351.119	7.75
351.907	9.75
352.695	9.75
353.483	9.75
354.271	8.75
355.059	9.75
355.846	8.75
356.634	8.75
357.422	8.75
358.209	8.75
358.997	8.75
359.784	8.75
360.571	10.75
361.359	9.75
362.146	10.75
362.933	10.75
363.72	9.75
364.507	8.75
365.294	10.75
366.081	7.75
366.867	10.75
367.654	5.75
368.44	9.75
369.227	8.75
370.013	7.75
370.8	9.75
371.586	5.75
372.372	11.75
373.158	8.75
373.944	8.75
374.73	7.75
375.516	8.75
376.302	6.75
377.088	6.75
377.873	11.75
378.659	8.75
379.445	6.75
380.23	9.75
381.015	9.75
381.801	8.75
382.586	10.75
383.371	9.75
384.156	9.75
384.941	7.75
385.726	12.75
386.511	9.75
387.296	9.75
388.08	9.75
388.865	11.75
389.649	12.75
390.434	12.75
391.218	12.75
392.003	10.75
392.787	12.75
393.571	10.75
394.355	10.75
395.139	10.75
395.923	10.75
396.707	13.75
397.491	11.75
398.274	13.75
399.058	9.75
399.842	11.75
400.625	11.75
401.408	11.75
402.192	11.75
402.975	12.75
403.758	11.75
404.541	12.75
405.324	13.75
406.107	12.75
406.89	12.75
407.673	12.75
408.456	12.75
409.238	13.75
410.021	10.75
410.803	14.75
411.586	13.75
412.368	16.75
413.151	13.75
413.933	15.75
414.715	15.75
415.497	16.75
416.279	16.75
417.061	17.75
417.843	15.75
418.624	16.75
419.406	15.75
420.188	18.75
420.969	14.75
421.751	19.75
422.532	20.75
423.313	18.75
424.095	18.75
424.876	20.75
425.657	18.75
426.438	21.75
427.219	24.75
428	23.75
428.78	21.75
429.561	25.75
430.342	22.75
431.122	28.75
431.903	26.75
432.683	25.75
433.464	27.75
434.244	28.75
435.024	32.75
435.804	33.75
436.584	34.75
437.364	33.75
438.144	38.75
438.924	38.75
439.704	46.75
440.483	45.75
441.263	45.75
442.042	52.75
442.822	54.75
443.601	57.75
444.38	59.75
445.16	64.75
445.939	67.75
446.718	77.75
447.497	81.75
448.276	86.75
449.054	99.75
449.833	108.75
450.612	118.75
451.391	127.75
452.169	138.75
452.948	151.75
453.726	171.75
454.504	186.75
455.282	209.75
456.061	235.75
456.839	264.75
457.617	285.75
458.395	317.75
459.172	361.75
459.95	395.75
460.728	452.75
461.506	492.75
462.283	554.75
463.061	622.75
463.838	697.75
464.615	784.75
465.393	869.75
466.17	970.75
466.947	1080.75
467.724	1211.75
468.501	1338.75
469.278	1491.75
470.055	1658.75
470.831	1848.75
471.608	2046.75
472.385	2269.75
473.161	2518.75
473.938	2768.75
474.714	3057.75
475.49	3384.75
476.266	3718.75
477.043	4091.75
477.819	4522.75
478.595	4997.75
479.371	5505.75
480.146	5976.75
480.922	6551.75
481.698	7213.75
482.473	7881.75
483.249	8592.75
484.024	9426.75
484.8	10300.75
485.575	11218.75
486.35	12258.75
487.126	13264.75
487.901	14522.75
488.676	15726.75
489.451	17062.75
490.225	18505.75
491	19937.75
491.775	21406.75
492.55	23068.75
493.324	24732.75
494.099	26354.75
494.873	28168.75
495.647	29867.75
496.422	31634.75
497.196	33202.75
497.97	34940.75
498.744	36398.75
499.518	37846.75
500.292	39048.75
501.066	40221.75
501.839	41256.75
502.613	42023.75
503.387	42613.75
504.16	43046.75
504.934	43074.75
505.707	42935.75
506.48	42694.75
507.253	42113.75
508.027	41306.75
508.8	40378.75
509.573	39278.75
510.346	38194.75
511.118	36896.75
511.891	35743.75
512.664	34464.75
513.437	33029.75
514.209	31653.75
514.982	30428.75
515.754	29209.75
516.526	27880.75
517.298	26647.75
518.071	25609.75
518.843	24591.75
519.615	23568.75
520.387	22688.75
521.159	21774.75
521.93	20837.75
522.702	19978.75
523.474	19121.75
524.245	18354.75
525.017	17601.75
525.788	16826.75
526.56	16023.75
527.331	15307.75
528.102	14540.75
528.873	13856.75
529.644	13111.75
530.415	12455.75
531.186	11760.75
531.957	11222.75
532.728	10601.75
533.498	10022.75
534.269	9496.75
535.039	8921.75
535.81	8490.75
536.58	8004.75
537.351	7618.75
538.121	7187.75
538.891	6783.75
539.661	6417.75
540.431	6093.75
541.201	5768.75
541.971	5472.75
542.741	5164.75
543.51	4873.75
544.28	4664.75
545.05	4458.75
545.819	4220.75
546.588	3980.75
547.358	3807.75
548.127	3618.75
548.896	3428.75
549.665	3261.75
550.434	3092.75
551.203	2937.75
551.972	2766.75
552.741	2620.75
553.51	2456.75
554.278	2317.75
555.047	2209.75
555.815	2089.75
556.584	1979.75
557.352	1876.75
558.121	1755.75
558.889	1669.75
559.657	1544.75
560.425	1474.75
561.193	1381.75
561.961	1318.75
562.729	1251.75
563.496	1185.75
564.264	1115.75
565.032	1052.75
565.799	1002.75
566.567	939.75
567.334	903.75
568.101	852.75
568.869	800.75
569.636	749.75
570.403	706.75
571.17	673.75
571.937	646.75
572.704	599.75
573.471	566.75
574.237	539.75
575.004	498.75
575.771	476.75
576.537	446.75
577.303	412.75
578.07	398.75
578.836	368.75
579.602	358.75
580.368	332.75
581.134	325.75
581.9	303.75
582.666	289.75
583.432	270.75
584.198	250.75
584.964	243.75
585.729	232.75
586.495	222.75
587.26	205.75
588.025	202.75
588.791	186.75
589.556	175.75
590.321	171.75
591.086	164.75
591.851	155.75
592.616	144.75
593.381	136.75
594.146	130.75
594.911	127.75
595.675	117.75
596.44	114.75
597.204	117.75
597.969	108.75
598.733	103.75
599.497	98.75
600.261	94.75
601.025	88.75
601.79	83.75
602.553	83.75
603.317	76.75
604.081	74.75
604.845	76.75
605.609	69.75
606.372	68.75
607.136	62.75
607.899	63.75
608.662	56.75
609.426	58.75
610.189	54.75
610.952	51.75
611.715	52.75
612.478	48.75
613.241	47.75
614.004	43.75
614.767	45.75
615.529	44.75
616.292	40.75
617.055	36.75
617.817	36.75
618.579	37.75
619.342	34.75
620.104	34.75
620.866	34.75
621.628	33.75
622.39	31.75
623.152	31.75
623.914	26.75
624.676	26.75
625.438	29.75
626.199	25.75
626.961	27.75
627.722	24.75
628.484	25.75
629.245	22.75
630.006	23.75
630.768	21.75
631.529	22.75
632.29	22.75
633.051	22.75
633.812	20.75
634.573	19.75
635.333	17.75
636.094	20.75
636.855	17.75
637.615	19.75
638.376	18.75
639.136	15.75
639.896	13.75
640.657	14.75
641.417	14.75
642.177	15.75
642.937	14.75
643.697	16.75
644.457	14.75
645.216	15.75
645.976	12.75
646.736	15.75
647.495	16.75
648.255	12.75
649.014	10.75
649.774	10.75
650.533	11.75
651.292	9.75
652.051	11.75
652.81	11.75
653.569	10.75
654.328	12.75
655.087	12.75
655.846	10.75
656.604	8.75
657.363	11.75
658.121	11.75
658.88	9.75
659.638	11.75
660.397	9.75
661.155	8.75
661.913	9.75
662.671	8.75
663.429	8.75
664.187	9.75
664.945	8.75
665.703	8.75
666.46	8.75
667.218	7.75
667.976	9.75
668.733	9.75
669.49	7.75
670.248	8.75
671.005	7.75
671.762	7.75
672.519	6.75
673.276	8.75
674.033	6.75
674.79	8.75
675.547	8.75
676.304	6.75
677.06	8.75
677.817	6.75
678.574	7.75
679.33	6.75
680.086	8.75
680.843	5.75
681.599	6.75
682.355	5.75
683.111	6.75
683.867	4.75
684.623	7.75
685.379	8.75
686.135	7.75
686.89	5.75
687.646	6.75
688.402	4.75
689.157	8.75
689.912	6.75
690.668	8.75
691.423	7.75
692.178	5.75
692.933	6.75
693.688	4.75
694.443	7.75
695.198	5.75
695.953	7.75
696.708	6.75
697.462	4.75
698.217	6.75
698.972	5.75
699.726	7.75
700.48	8.75
701.235	6.75
701.989	5.75
702.743	5.75
703.497	5.75
704.251	5.75
705.005	6.75
705.759	6.75
706.513	8.75
707.266	6.75
708.02	4.75
708.774	5.75
709.527	4.75
710.28	6.75
711.034	5.75
711.787	6.75
712.54	5.75
713.293	7.75
714.046	7.75
714.799	7.75
715.552	7.75
716.305	6.75
717.058	4.75
717.81	5.75
718.563	3.75
719.315	8.75
720.068	6.75
720.82	8.75
721.573	8.75
722.325	7.75
723.077	6.75
723.829	7.75
724.581	6.75
725.333	7.75
726.085	8.75
726.836	7.75
727.588	5.75
728.34	4.75
729.091	8.75
729.843	6.75
730.594	6.75
731.346	8.75
732.097	7.75
732.848	8.75
733.599	6.75
734.35	5.75
735.101	8.75
735.852	6.75
736.603	9.75
737.354	8.75
738.104	6.75
738.855	7.75
739.605	8.75
740.356	12.75
741.106	8.75
741.856	8.75
742.607	9.75
743.357	10.75
744.107	9.75
744.857	6.75
745.607	7.75
746.357	8.75
747.106	10.75
747.856	8.75
748.606	7.75
749.355	8.75
750.105	10.75
750.854	9.75
751.603	7.75
752.353	10.75
753.102	8.75
753.851	9.75
754.6	9.75
755.349	9.75
756.098	9.75
756.847	9.75
757.595	9.75
758.344	9.75
759.093	8.75
759.841	10.75
760.589	9.75
761.338	13.75
762.086	11.75
762.834	12.75
763.582	9.75
764.331	14.75
765.079	10.75
765.826	12.75
766.574	14.75
767.322	12.75
768.07	12.75
768.817	13.75
769.565	13.75
770.312	11.75
771.06	11.75
771.807	14.75
772.554	12.75
773.302	15.75
774.049	13.75
774.796	13.75
775.543	16.75
776.29	12.75
777.036	14.75
777.783	11.75
778.53	13.75
779.276	12.75
780.023	13.75
780.769	15.75
781.516	12.75
782.262	13.75
783.008	12.75
783.754	15.75
784.5	15.75
785.246	16.75
785.992	13.75
786.738	11.75
787.484	13.75
788.23	14.75
788.975	13.75
789.721	12.75
790.466	13.75
791.212	12.75
791.957	13.75
792.702	16.75
793.447	13.75
794.193	9.75
794.938	11.75
795.683	14.75
796.427	12.75
797.172	12.75
797.917	14.75
798.662	11.75
799.406	12.75
800.151	8.75
800.895	12.75
801.64	12.75
802.384	12.75
803.128	11.75
803.872	9.75
804.616	9.75
805.36	8.75
806.104	12.75
806.848	9.75
807.592	11.75
808.336	8.75
809.079	10.75
809.823	8.75
810.566	6.75
811.31	8.75
812.053	6.75
812.796	8.75
813.539	6.75
814.283	8.75
815.026	8.75
815.769	6.75
816.511	8.75
817.254	8.75
817.997	7.75
818.74	5.75
819.482	8.75
820.225	7.75
820.967	4.75
821.71	6.75
822.452	5.75
823.194	7.75
823.936	4.75
824.678	3.75
825.42	5.75
826.162	4.75
826.904	6.75
827.646	4.75
828.388	4.75
829.129	7.75
829.871	6.75
830.612	5.75
831.354	6.75
832.095	4.75
832.836	3.75
833.577	4.75
834.319	5.75
835.06	4.75
835.801	3.75
836.542	3.75
837.282	4.75
838.023	4.75
838.764	6.75
839.504	3.75
840.245	3.75
840.985	6.75
841.726	4.75
842.466	5.75
843.206	3.75
843.946	6.75
844.687	5.75
845.427	2.75
846.166	5.75
846.906	5.75
847.646	3.75
848.386	4.75
849.125	4.75
849.865	3.75
850.605	4.75
851.344	2.75
852.083	1.75
852.823	6.75
853.562	5.75
854.301	4.75
855.04	2.75
855.779	3.75
856.518	4.75
857.257	0.75
857.995	4.75
858.734	4.75
859.473	2.75
860.211	4.75
860.95	3.75
861.688	2.75
862.426	2.75
863.165	3.75
863.903	3.75
864.641	5.75
865.379	2.75
866.117	1.75
866.855	1.75
867.593	1.75
868.33	4.75
869.068	1.75
869.806	3.75
870.543	1.75
871.28	2.75
872.018	3.75
872.755	1.75
873.492	1.75
874.229	1.75
874.967	3.75
875.703	1.75
876.44	0.75
877.177	1.75
877.914	2.75
878.651	2.75
879.387	-0.25
880.124	1.75
880.86	0.75
881.597	2.75
882.333	1.75
883.069	4.75
883.806	1.75
884.542	0.75
885.278	0.75
886.014	-1.25
886.749	1.75
887.485	0.75
888.221	1.75
888.957	1.75
889.692	0.75
890.428	1.75
891.163	2.75
891.899	1.75
892.634	1.75
893.369	0.75
894.104	-0.25
894.839	0.75
895.574	-1.25
896.309	0.75
897.044	3.75
897.779	1.75
898.514	2.75
899.248	1.75
899.983	0.75
900.717	1.75
901.452	-0.25
902.186	-0.25
902.92	0.75
903.654	0.75
904.389	-0.25
905.123	0.75
905.857	0.75
906.59	1.75
907.324	3.75
908.058	-0.25
908.792	1.75
909.525	2.75
910.259	-0.25
910.992	1.75
911.726	0.75
912.459	2.75
913.192	3.75
913.925	3.75
914.658	1.75
915.391	-0.25
916.124	0.75
916.857	1.75
917.59	0.75
918.323	1.75
919.055	0.75
919.788	2.75
920.521	0.75
921.253	0.75
921.985	-0.25
922.718	1.75
923.45	0.75
924.182	0.75
924.914	2.75
925.646	-0.25
926.378	0.75
927.11	-1.25
927.841	-0.25
928.573	-0.25
929.305	0.75
930.036	0.75
930.768	-2.25
931.499	2.75
932.23	0.75
932.962	1.75
933.693	0.75
934.424	0.75
935.155	2.75
935.886	0.75
936.617	0.75
937.348	0.75
938.078	1.75
938.809	-0.25
939.54	1.75
940.27	-0.25
941.001	-0.25
941.731	2.75
942.461	-0.25
943.191	0.75
943.922	-1.25
944.652	0.75
945.382	0.75
946.112	1.75
946.841	0.75
947.571	-0.25
948.301	-0.25
949.031	0.75
949.76	-0.25
950.49	-0.25
951.219	-2.25
951.948	-0.25
952.678	-0.25
953.407	1.75
954.136	-0.25
954.865	1.75
955.594	0.75
956.323	-1.25
957.052	1.75
957.78	0.75
958.509	0.75
959.238	1.75
959.966	0.75
960.695	-0.25
961.423	-0.25
962.151	-0.25
962.88	-0.25
963.608	1.75
964.336	0.75
965.064	1.75
965.792	0.75
966.52	-0.25
967.247	1.75
967.975	-1.25
968.703	2.75
969.43	0.75
970.158	0.75
970.885	1.75
971.613	0.75
972.34	0.75
973.067	-2.25
973.794	-0.25
974.521	0.75
975.248	0.75
975.975	0.75
976.702	0.75
977.429	0.75
978.156	-2.25
978.882	0.75
979.609	1.75
980.335	1.75
981.062	0.75
981.788	1.75
982.514	-0.25
983.24	1.75
983.967	0.75
984.693	-0.25
985.419	2.75
986.144	1.75
986.87	0.75
987.596	0.75
988.322	0.75
989.047	1.75
989.773	0.75
990.498	1.75
991.224	1.75
991.949	1.75
992.674	0.75
993.399	-0.25
994.124	-0.25
994.849	0.75
995.574	-0.25
996.299	0.75
997.024	0.75
997.749	0.75
998.473	1.75
999.198	1.75
999.922	0.75
1000.647	1.75
1001.371	2.75
1002.095	-1.25
1002.82	-1.25
1003.544	-2.25
1004.268	6.75
1004.992	2.75
1005.716	3.75
1006.439	2.75
1007.163	6.75
1007.887	4.75
1008.611	0.75
1009.334	-0.25
1010.058	-0.25
1010.781	1.75
1011.504	1.75
1012.228	-0.25
1012.951	1.75
1013.674	0.75
1014.397	-0.25
1015.12	-0.25
