节点500_565_QEPB04081__553__09-59-37-046.txt的数据

Date: Thu Nov 13 09:59:37 CST 2025
User: PC
Spectrometer: QEPB0408
触发模式: 0
积分时间 (秒): 1.000000E-2
Scans to average: 1
启用暗噪声校正: true
启用非线性校正: false
滑动平均宽度: 0
X轴模式: Wavelengths
Number of Pixels in Spectrum: 1044
>>>>>Begin Spectral Data<<<<<
220.843	1.88
221.644	4.88
222.444	2.88
223.244	4.88
224.045	4.88
224.845	3.88
225.645	4.88
226.445	2.88
227.245	4.88
228.045	5.88
228.845	3.88
229.645	4.88
230.444	7.88
231.244	5.88
232.043	5.88
232.843	6.88
233.642	7.88
234.442	7.88
235.241	5.88
236.04	6.88
236.839	6.88
237.638	8.88
238.437	7.88
239.236	8.88
240.035	6.88
240.833	8.88
241.632	10.88
242.43	6.88
243.229	6.88
244.027	7.88
244.826	6.88
245.624	8.88
246.422	10.88
247.22	8.88
248.018	9.88
248.816	8.88
249.614	10.88
250.412	11.88
251.21	8.88
252.007	10.88
252.805	9.88
253.602	12.88
254.4	12.88
255.197	10.88
255.994	14.88
256.791	11.88
257.589	14.88
258.386	13.88
259.183	13.88
259.979	14.88
260.776	15.88
261.573	18.88
262.37	16.88
263.166	16.88
263.963	14.88
264.759	17.88
265.556	20.88
266.352	17.88
267.148	18.88
267.944	19.88
268.74	18.88
269.536	22.88
270.332	18.88
271.128	25.88
271.924	23.88
272.719	22.88
273.515	22.88
274.311	20.88
275.106	27.88
275.901	24.88
276.697	27.88
277.492	25.88
278.287	27.88
279.082	25.88
279.877	23.88
280.672	26.88
281.467	27.88
282.262	25.88
283.056	28.88
283.851	28.88
284.646	26.88
285.44	27.88
286.234	25.88
287.029	24.88
287.823	25.88
288.617	24.88
289.411	26.88
290.205	24.88
290.999	25.88
291.793	24.88
292.587	22.88
293.381	19.88
294.174	26.88
294.968	21.88
295.761	23.88
296.555	21.88
297.348	21.88
298.141	21.88
298.935	24.88
299.728	20.88
300.521	20.88
301.314	18.88
302.107	19.88
302.899	17.88
303.692	18.88
304.485	18.88
305.277	19.88
306.07	18.88
306.862	16.88
307.655	18.88
308.447	17.88
309.239	14.88
310.031	18.88
310.823	16.88
311.615	11.88
312.407	14.88
313.199	14.88
313.991	12.88
314.783	13.88
315.574	12.88
316.366	12.88
317.157	13.88
317.949	13.88
318.74	13.88
319.531	10.88
320.322	10.88
321.113	12.88
321.904	12.88
322.695	11.88
323.486	11.88
324.277	10.88
325.068	12.88
325.858	11.88
326.649	9.88
327.439	11.88
328.23	10.88
329.02	7.88
329.81	12.88
330.6	10.88
331.391	12.88
332.181	8.88
332.971	7.88
333.76	10.88
334.55	8.88
335.34	6.88
336.13	9.88
336.919	9.88
337.709	9.88
338.498	9.88
339.287	10.88
340.077	7.88
340.866	9.88
341.655	8.88
342.444	10.88
343.233	10.88
344.022	7.88
344.811	9.88
345.6	8.88
346.388	10.88
347.177	6.88
347.965	10.88
348.754	8.88
349.542	9.88
350.33	9.88
351.119	8.88
351.907	6.88
352.695	7.88
353.483	9.88
354.271	9.88
355.059	8.88
355.846	7.88
356.634	7.88
357.422	6.88
358.209	7.88
358.997	9.88
359.784	7.88
360.571	6.88
361.359	11.88
362.146	6.88
362.933	8.88
363.72	6.88
364.507	8.88
365.294	6.88
366.081	9.88
366.867	7.88
367.654	9.88
368.44	7.88
369.227	6.88
370.013	9.88
370.8	6.88
371.586	10.88
372.372	9.88
373.158	6.88
373.944	4.88
374.73	6.88
375.516	6.88
376.302	5.88
377.088	6.88
377.873	7.88
378.659	6.88
379.445	8.88
380.23	4.88
381.015	8.88
381.801	7.88
382.586	8.88
383.371	11.88
384.156	7.88
384.941	6.88
385.726	9.88
386.511	9.88
387.296	6.88
388.08	7.88
388.865	10.88
389.649	8.88
390.434	8.88
391.218	9.88
392.003	7.88
392.787	8.88
393.571	7.88
394.355	11.88
395.139	9.88
395.923	6.88
396.707	10.88
397.491	9.88
398.274	8.88
399.058	11.88
399.842	12.88
400.625	8.88
401.408	11.88
402.192	9.88
402.975	8.88
403.758	10.88
404.541	12.88
405.324	10.88
406.107	14.88
406.89	13.88
407.673	8.88
408.456	12.88
409.238	9.88
410.021	13.88
410.803	12.88
411.586	11.88
412.368	13.88
413.151	12.88
413.933	13.88
414.715	12.88
415.497	16.88
416.279	13.88
417.061	15.88
417.843	12.88
418.624	16.88
419.406	15.88
420.188	15.88
420.969	17.88
421.751	15.88
422.532	16.88
423.313	15.88
424.095	17.88
424.876	17.88
425.657	20.88
426.438	20.88
427.219	20.88
428	19.88
428.78	21.88
429.561	22.88
430.342	24.88
431.122	25.88
431.903	30.88
432.683	25.88
433.464	25.88
434.244	27.88
435.024	31.88
435.804	31.88
436.584	32.88
437.364	36.88
438.144	34.88
438.924	40.88
439.704	41.88
440.483	45.88
441.263	49.88
442.042	52.88
442.822	54.88
443.601	61.88
444.38	62.88
445.16	71.88
445.939	77.88
446.718	84.88
447.497	90.88
448.276	96.88
449.054	107.88
449.833	113.88
450.612	134.88
451.391	143.88
452.169	155.88
452.948	173.88
453.726	192.88
454.504	211.88
455.282	235.88
456.061	263.88
456.839	284.88
457.617	327.88
458.395	358.88
459.172	404.88
459.95	442.88
460.728	502.88
461.506	564.88
462.283	613.88
463.061	680.88
463.838	753.88
464.615	840.88
465.393	932.88
466.17	1039.88
466.947	1155.88
467.724	1254.88
468.501	1379.88
469.278	1558.88
470.055	1710.88
470.831	1885.88
471.608	2087.88
472.385	2298.88
473.161	2514.88
473.938	2754.88
474.714	3026.88
475.49	3293.88
476.266	3619.88
477.043	3952.88
477.819	4318.88
478.595	4706.88
479.371	5121.88
480.146	5580.88
480.922	6085.88
481.698	6575.88
482.473	7128.88
483.249	7708.88
484.024	8392.88
484.8	9070.88
485.575	9808.88
486.35	10598.88
487.126	11477.88
487.901	12372.88
488.676	13352.88
489.451	14393.88
490.225	15482.88
491	16651.88
491.775	17841.88
492.55	19081.88
493.324	20366.88
494.099	21695.88
494.873	23112.88
495.647	24586.88
496.422	26051.88
497.196	27418.88
497.97	28850.88
498.744	30235.88
499.518	31503.88
500.292	32789.88
501.066	33981.88
501.839	34999.88
502.613	35978.88
503.387	36768.88
504.16	37460.88
504.934	37929.88
505.707	38231.88
506.48	38364.88
507.253	38254.88
508.027	37947.88
508.8	37599.88
509.573	37065.88
510.346	36347.88
511.118	35529.88
511.891	34779.88
512.664	33786.88
513.437	32728.88
514.209	31568.88
514.982	30467.88
515.754	29370.88
516.526	28221.88
517.298	27126.88
518.071	26015.88
518.843	24980.88
519.615	23996.88
520.387	23083.88
521.159	22194.88
521.93	21299.88
522.702	20402.88
523.474	19605.88
524.245	18849.88
525.017	18126.88
525.788	17354.88
526.56	16637.88
527.331	15907.88
528.102	15242.88
528.873	14528.88
529.644	13835.88
530.415	13124.88
531.186	12546.88
531.957	11904.88
532.728	11366.88
533.498	10799.88
534.269	10203.88
535.039	9606.88
535.81	9149.88
536.58	8689.88
537.351	8208.88
538.121	7812.88
538.891	7372.88
539.661	6964.88
540.431	6614.88
541.201	6249.88
541.971	5947.88
542.741	5600.88
543.51	5343.88
544.28	5060.88
545.05	4808.88
545.819	4573.88
546.588	4335.88
547.358	4130.88
548.127	3929.88
548.896	3769.88
549.665	3575.88
550.434	3363.88
551.203	3199.88
551.972	3032.88
552.741	2903.88
553.51	2720.88
554.278	2581.88
555.047	2436.88
555.815	2300.88
556.584	2205.88
557.352	2076.88
558.121	1954.88
558.889	1858.88
559.657	1749.88
560.425	1643.88
561.193	1557.88
561.961	1489.88
562.729	1390.88
563.496	1324.88
564.264	1244.88
565.032	1186.88
565.799	1126.88
566.567	1059.88
567.334	990.88
568.101	942.88
568.869	896.88
569.636	849.88
570.403	804.88
571.17	752.88
571.937	712.88
572.704	671.88
573.471	632.88
574.237	592.88
575.004	557.88
575.771	531.88
576.537	497.88
577.303	474.88
578.07	454.88
578.836	416.88
579.602	393.88
580.368	376.88
581.134	361.88
581.9	339.88
582.666	316.88
583.432	308.88
584.198	292.88
584.964	276.88
585.729	264.88
586.495	247.88
587.26	233.88
588.025	224.88
588.791	206.88
589.556	202.88
590.321	193.88
591.086	177.88
591.851	169.88
592.616	162.88
593.381	154.88
594.146	144.88
594.911	139.88
595.675	134.88
596.44	131.88
597.204	121.88
597.969	115.88
598.733	108.88
599.497	106.88
600.261	102.88
601.025	99.88
601.79	92.88
602.553	91.88
603.317	87.88
604.081	83.88
604.845	79.88
605.609	75.88
606.372	75.88
607.136	67.88
607.899	66.88
608.662	65.88
609.426	60.88
610.189	63.88
610.952	56.88
611.715	59.88
612.478	51.88
613.241	52.88
614.004	45.88
614.767	46.88
615.529	45.88
616.292	42.88
617.055	42.88
617.817	42.88
618.579	39.88
619.342	37.88
620.104	37.88
620.866	36.88
621.628	32.88
622.39	34.88
623.152	33.88
623.914	30.88
624.676	29.88
625.438	33.88
626.199	25.88
626.961	27.88
627.722	26.88
628.484	24.88
629.245	26.88
630.006	24.88
630.768	22.88
631.529	24.88
632.29	21.88
633.051	20.88
633.812	18.88
634.573	20.88
635.333	21.88
636.094	20.88
636.855	17.88
637.615	18.88
638.376	17.88
639.136	14.88
639.896	17.88
640.657	15.88
641.417	15.88
642.177	14.88
642.937	13.88
643.697	14.88
644.457	13.88
645.216	15.88
645.976	12.88
646.736	12.88
647.495	14.88
648.255	12.88
649.014	13.88
649.774	11.88
650.533	11.88
651.292	12.88
652.051	9.88
652.81	10.88
653.569	13.88
654.328	11.88
655.087	8.88
655.846	10.88
656.604	7.88
657.363	9.88
658.121	10.88
658.88	10.88
659.638	8.88
660.397	9.88
661.155	10.88
661.913	5.88
662.671	11.88
663.429	8.88
664.187	8.88
664.945	8.88
665.703	7.88
666.46	9.88
667.218	7.88
667.976	7.88
668.733	8.88
669.49	8.88
670.248	7.88
671.005	7.88
671.762	7.88
672.519	4.88
673.276	8.88
674.033	9.88
674.79	6.88
675.547	6.88
676.304	6.88
677.06	8.88
677.817	6.88
678.574	6.88
679.33	4.88
680.086	7.88
680.843	6.88
681.599	6.88
682.355	4.88
683.111	4.88
683.867	4.88
684.623	6.88
685.379	7.88
686.135	5.88
686.89	5.88
687.646	8.88
688.402	7.88
689.157	6.88
689.912	3.88
690.668	6.88
691.423	5.88
692.178	8.88
692.933	4.88
693.688	4.88
694.443	7.88
695.198	3.88
695.953	5.88
696.708	6.88
697.462	6.88
698.217	5.88
698.972	3.88
699.726	4.88
700.48	6.88
701.235	6.88
701.989	8.88
702.743	6.88
703.497	6.88
704.251	5.88
705.005	5.88
705.759	4.88
706.513	6.88
707.266	4.88
708.02	6.88
708.774	7.88
709.527	6.88
710.28	6.88
711.034	5.88
711.787	6.88
712.54	1.88
713.293	7.88
714.046	4.88
714.799	5.88
715.552	6.88
716.305	6.88
717.058	5.88
717.81	6.88
718.563	6.88
719.315	3.88
720.068	7.88
720.82	7.88
721.573	5.88
722.325	4.88
723.077	2.88
723.829	5.88
724.581	6.88
725.333	5.88
726.085	6.88
726.836	5.88
727.588	6.88
728.34	5.88
729.091	7.88
729.843	5.88
730.594	5.88
731.346	6.88
732.097	4.88
732.848	5.88
733.599	5.88
734.35	7.88
735.101	6.88
735.852	7.88
736.603	6.88
737.354	5.88
738.104	5.88
738.855	5.88
739.605	5.88
740.356	7.88
741.106	8.88
741.856	8.88
742.607	6.88
743.357	7.88
744.107	8.88
744.857	8.88
745.607	6.88
746.357	6.88
747.106	6.88
747.856	7.88
748.606	7.88
749.355	8.88
750.105	6.88
750.854	7.88
751.603	7.88
752.353	7.88
753.102	6.88
753.851	8.88
754.6	10.88
755.349	11.88
756.098	6.88
756.847	9.88
757.595	8.88
758.344	10.88
759.093	5.88
759.841	8.88
760.589	8.88
761.338	9.88
762.086	9.88
762.834	8.88
763.582	10.88
764.331	12.88
765.079	11.88
765.826	10.88
766.574	11.88
767.322	11.88
768.07	10.88
768.817	11.88
769.565	11.88
770.312	11.88
771.06	9.88
771.807	10.88
772.554	13.88
773.302	11.88
774.049	12.88
774.796	10.88
775.543	10.88
776.29	10.88
777.036	10.88
777.783	12.88
778.53	11.88
779.276	11.88
780.023	12.88
780.769	9.88
781.516	12.88
782.262	11.88
783.008	12.88
783.754	11.88
784.5	11.88
785.246	8.88
785.992	9.88
786.738	10.88
787.484	10.88
788.23	13.88
788.975	13.88
789.721	13.88
790.466	10.88
791.212	10.88
791.957	12.88
792.702	9.88
793.447	12.88
794.193	10.88
794.938	10.88
795.683	11.88
796.427	12.88
797.172	10.88
797.917	9.88
798.662	9.88
799.406	10.88
800.151	10.88
800.895	10.88
801.64	11.88
802.384	10.88
803.128	10.88
803.872	8.88
804.616	8.88
805.36	6.88
806.104	8.88
806.848	8.88
807.592	8.88
808.336	9.88
809.079	6.88
809.823	8.88
810.566	6.88
811.31	7.88
812.053	7.88
812.796	9.88
813.539	8.88
814.283	5.88
815.026	3.88
815.769	7.88
816.511	8.88
817.254	6.88
817.997	6.88
818.74	6.88
819.482	7.88
820.225	7.88
820.967	4.88
821.71	6.88
822.452	6.88
823.194	6.88
823.936	5.88
824.678	6.88
825.42	4.88
826.162	3.88
826.904	4.88
827.646	4.88
828.388	5.88
829.129	8.88
829.871	5.88
830.612	7.88
831.354	4.88
832.095	4.88
832.836	6.88
833.577	4.88
834.319	6.88
835.06	5.88
835.801	4.88
836.542	6.88
837.282	6.88
838.023	5.88
838.764	3.88
839.504	5.88
840.245	1.88
840.985	2.88
841.726	1.88
842.466	4.88
843.206	4.88
843.946	4.88
844.687	4.88
845.427	3.88
846.166	2.88
846.906	1.88
847.646	3.88
848.386	2.88
849.125	2.88
849.865	4.88
850.605	3.88
851.344	1.88
852.083	3.88
852.823	1.88
853.562	2.88
854.301	2.88
855.04	1.88
855.779	1.88
856.518	1.88
857.257	3.88
857.995	1.88
858.734	3.88
859.473	-0.12
860.211	3.88
860.95	0.88
861.688	3.88
862.426	0.88
863.165	2.88
863.903	3.88
864.641	2.88
865.379	3.88
866.117	3.88
866.855	1.88
867.593	2.88
868.33	2.88
869.068	2.88
869.806	0.88
870.543	2.88
871.28	2.88
872.018	2.88
872.755	1.88
873.492	2.88
874.229	2.88
874.967	0.88
875.703	2.88
876.44	0.88
877.177	2.88
877.914	1.88
878.651	0.88
879.387	0.88
880.124	1.88
880.86	0.88
881.597	-1.12
882.333	1.88
883.069	2.88
883.806	-0.12
884.542	0.88
885.278	1.88
886.014	2.88
886.749	0.88
887.485	2.88
888.221	0.88
888.957	0.88
889.692	1.88
890.428	0.88
891.163	-0.12
891.899	-0.12
892.634	0.88
893.369	1.88
894.104	-0.12
894.839	-0.12
895.574	0.88
896.309	2.88
897.044	0.88
897.779	1.88
898.514	1.88
899.248	0.88
899.983	1.88
900.717	1.88
901.452	1.88
902.186	2.88
902.92	1.88
903.654	-1.12
904.389	2.88
905.123	-0.12
905.857	1.88
906.59	-1.12
907.324	0.88
908.058	0.88
908.792	-0.12
909.525	3.88
910.259	-0.12
910.992	-0.12
911.726	-0.12
912.459	0.88
913.192	0.88
913.925	0.88
914.658	0.88
915.391	0.88
916.124	0.88
916.857	0.88
917.59	-2.12
918.323	-0.12
919.055	-0.12
919.788	0.88
920.521	-1.12
921.253	0.88
921.985	0.88
922.718	3.88
923.45	1.88
924.182	-0.12
924.914	0.88
925.646	0.88
926.378	1.88
927.11	-0.12
927.841	-1.12
928.573	0.88
929.305	-1.12
930.036	0.88
930.768	-0.12
931.499	0.88
932.23	0.88
932.962	-0.12
933.693	0.88
934.424	-2.12
935.155	-0.12
935.886	0.88
936.617	0.88
937.348	0.88
938.078	-0.12
938.809	-0.12
939.54	-0.12
940.27	-0.12
941.001	0.88
941.731	0.88
942.461	1.88
943.191	-0.12
943.922	0.88
944.652	-1.12
945.382	2.88
946.112	-1.12
946.841	0.88
947.571	0.88
948.301	0.88
949.031	0.88
949.76	0.88
950.49	0.88
951.219	0.88
951.948	0.88
952.678	0.88
953.407	0.88
954.136	0.88
954.865	-1.12
955.594	-1.12
956.323	0.88
957.052	-0.12
957.78	-1.12
958.509	-0.12
959.238	0.88
959.966	-2.12
960.695	0.88
961.423	-1.12
962.151	0.88
962.88	-1.12
963.608	1.88
964.336	-1.12
965.064	-2.12
965.792	-0.12
966.52	1.88
967.247	0.88
967.975	-0.12
968.703	0.88
969.43	-1.12
970.158	1.88
970.885	-1.12
971.613	-2.12
972.34	2.88
973.067	-1.12
973.794	-2.12
974.521	0.88
975.248	0.88
975.975	1.88
976.702	1.88
977.429	-0.12
978.156	-2.12
978.882	0.88
979.609	-0.12
980.335	0.88
981.062	0.88
981.788	-0.12
982.514	-1.12
983.24	-0.12
983.967	0.88
984.693	0.88
985.419	-0.12
986.144	-0.12
986.87	-0.12
987.596	0.88
988.322	-1.12
989.047	-0.12
989.773	-2.12
990.498	2.88
991.224	-0.12
991.949	-0.12
992.674	2.88
993.399	-1.12
994.124	0.88
994.849	0.88
995.574	1.88
996.299	0.88
997.024	-1.12
997.749	1.88
998.473	-1.12
999.198	0.88
999.922	-2.12
1000.647	1.88
1001.371	2.88
1002.095	-1.12
1002.82	-2.12
1003.544	0.88
1004.268	5.88
1004.992	2.88
1005.716	1.88
1006.439	3.88
1007.163	4.88
1007.887	4.88
1008.611	-0.12
1009.334	-1.12
1010.058	0.88
1010.781	1.88
1011.504	-0.12
1012.228	-2.12
1012.951	0.88
1013.674	-0.12
1014.397	0.88
1015.12	-2.12
