节点500_565_QEPB04081__404__09-57-08-352.txt的数据

Date: Thu Nov 13 09:57:08 CST 2025
User: PC
Spectrometer: QEPB0408
触发模式: 0
积分时间 (秒): 1.000000E-2
Scans to average: 1
启用暗噪声校正: true
启用非线性校正: false
滑动平均宽度: 0
X轴模式: Wavelengths
Number of Pixels in Spectrum: 1044
>>>>>Begin Spectral Data<<<<<
220.843	4
221.644	5
222.444	4
223.244	7
224.045	3
224.845	5
225.645	6
226.445	5
227.245	4
228.045	6
228.845	5
229.645	6
230.444	7
231.244	7
232.043	7
232.843	8
233.642	7
234.442	6
235.241	9
236.04	7
236.839	9
237.638	9
238.437	6
239.236	7
240.035	7
240.833	11
241.632	8
242.43	8
243.229	9
244.027	9
244.826	10
245.624	9
246.422	12
247.22	10
248.018	9
248.816	12
249.614	13
250.412	12
251.21	11
252.007	12
252.805	13
253.602	12
254.4	12
255.197	13
255.994	13
256.791	14
257.589	19
258.386	18
259.183	18
259.979	16
260.776	19
261.573	20
262.37	21
263.166	18
263.963	17
264.759	19
265.556	20
266.352	22
267.148	21
267.944	24
268.74	22
269.536	23
270.332	20
271.128	25
271.924	25
272.719	23
273.515	25
274.311	25
275.106	25
275.901	30
276.697	26
277.492	27
278.287	26
279.082	26
279.877	28
280.672	28
281.467	28
282.262	31
283.056	28
283.851	26
284.646	29
285.44	31
286.234	29
287.029	28
287.823	27
288.617	27
289.411	26
290.205	28
290.999	27
291.793	25
292.587	27
293.381	25
294.174	25
294.968	23
295.761	24
296.555	22
297.348	25
298.141	21
298.935	24
299.728	21
300.521	20
301.314	21
302.107	20
302.899	16
303.692	18
304.485	20
305.277	19
306.07	18
306.862	20
307.655	21
308.447	17
309.239	18
310.031	13
310.823	15
311.615	15
312.407	17
313.199	13
313.991	13
314.783	13
315.574	15
316.366	13
317.157	14
317.949	14
318.74	11
319.531	13
320.322	12
321.113	11
321.904	13
322.695	10
323.486	13
324.277	11
325.068	14
325.858	14
326.649	11
327.439	10
328.23	12
329.02	10
329.81	11
330.6	12
331.391	11
332.181	9
332.971	10
333.76	11
334.55	10
335.34	10
336.13	10
336.919	10
337.709	11
338.498	10
339.287	9
340.077	9
340.866	7
341.655	11
342.444	9
343.233	9
344.022	11
344.811	9
345.6	12
346.388	9
347.177	9
347.965	9
348.754	7
349.542	10
350.33	11
351.119	10
351.907	10
352.695	9
353.483	10
354.271	10
355.059	11
355.846	9
356.634	13
357.422	8
358.209	11
358.997	9
359.784	7
360.571	10
361.359	8
362.146	8
362.933	9
363.72	9
364.507	8
365.294	9
366.081	6
366.867	9
367.654	7
368.44	7
369.227	8
370.013	6
370.8	9
371.586	10
372.372	7
373.158	9
373.944	9
374.73	9
375.516	7
376.302	9
377.088	9
377.873	8
378.659	8
379.445	7
380.23	8
381.015	8
381.801	9
382.586	8
383.371	9
384.156	11
384.941	9
385.726	9
386.511	11
387.296	11
388.08	10
388.865	11
389.649	10
390.434	9
391.218	13
392.003	13
392.787	11
393.571	9
394.355	8
395.139	10
395.923	9
396.707	10
397.491	11
398.274	11
399.058	13
399.842	10
400.625	10
401.408	11
402.192	13
402.975	12
403.758	13
404.541	11
405.324	10
406.107	13
406.89	12
407.673	14
408.456	15
409.238	13
410.021	13
410.803	14
411.586	15
412.368	13
413.151	14
413.933	12
414.715	16
415.497	13
416.279	16
417.061	14
417.843	14
418.624	17
419.406	17
420.188	20
420.969	13
421.751	18
422.532	18
423.313	17
424.095	19
424.876	19
425.657	20
426.438	23
427.219	23
428	22
428.78	21
429.561	21
430.342	24
431.122	26
431.903	26
432.683	27
433.464	29
434.244	31
435.024	29
435.804	35
436.584	37
437.364	36
438.144	38
438.924	39
439.704	40
440.483	45
441.263	47
442.042	51
442.822	56
443.601	59
444.38	67
445.16	67
445.939	76
446.718	82
447.497	84
448.276	92
449.054	104
449.833	114
450.612	119
451.391	138
452.169	149
452.948	163
453.726	180
454.504	198
455.282	222
456.061	253
456.839	281
457.617	311
458.395	353
459.172	382
459.95	435
460.728	479
461.506	535
462.283	598
463.061	662
463.838	746
464.615	831
465.393	921
466.17	1012
466.947	1132
467.724	1256
468.501	1393
469.278	1542
470.055	1702
470.831	1890
471.608	2075
472.385	2289
473.161	2526
473.938	2772
474.714	3032
475.49	3319
476.266	3677
477.043	4027
477.819	4381
478.595	4796
479.371	5194
480.146	5702
480.922	6281
481.698	6761
482.473	7379
483.249	8033
484.024	8729
484.8	9523
485.575	10331
486.35	11120
487.126	12120
487.901	13136
488.676	14159
489.451	15320
490.225	16542
491	17834
491.775	19095
492.55	20476
493.324	21933
494.099	23287
494.873	24825
495.647	26457
496.422	28014
497.196	29451
497.97	31048
498.744	32389
499.518	33776
500.292	35058
501.066	36222
501.839	37257
502.613	38160
503.387	38840
504.16	39522
504.934	39907
505.707	39992
506.48	40078
507.253	39812
508.027	39320
508.8	38720
509.573	37958
510.346	37141
511.118	36110
511.891	35270
512.664	34174
513.437	32922
514.209	31776
514.982	30577
515.754	29409
516.526	28164
517.298	27009
518.071	25933
518.843	24923
519.615	23919
520.387	22954
521.159	22082
521.93	21197
522.702	20270
523.474	19478
524.245	18715
525.017	17940
525.788	17128
526.56	16428
527.331	15650
528.102	15033
528.873	14316
529.644	13545
530.415	12924
531.186	12265
531.957	11693
532.728	11109
533.498	10533
534.269	9921
535.039	9404
535.81	8942
536.58	8472
537.351	8004
538.121	7552
538.891	7147
539.661	6781
540.431	6441
541.201	6058
541.971	5758
542.741	5459
543.51	5147
544.28	4929
545.05	4677
545.819	4424
546.588	4199
547.358	4026
548.127	3818
548.896	3630
549.665	3457
550.434	3275
551.203	3116
551.972	2938
552.741	2799
553.51	2650
554.278	2485
555.047	2337
555.815	2224
556.584	2114
557.352	1986
558.121	1898
558.889	1760
559.657	1655
560.425	1564
561.193	1494
561.961	1423
562.729	1345
563.496	1261
564.264	1187
565.032	1136
565.799	1087
566.567	1012
567.334	953
568.101	900
568.869	855
569.636	811
570.403	771
571.17	726
571.937	690
572.704	642
573.471	613
574.237	571
575.004	539
575.771	521
576.537	475
577.303	459
578.07	429
578.836	405
579.602	384
580.368	360
581.134	341
581.9	329
582.666	313
583.432	293
584.198	274
584.964	267
585.729	249
586.495	240
587.26	224
588.025	217
588.791	202
589.556	196
590.321	185
591.086	175
591.851	161
592.616	154
593.381	150
594.146	142
594.911	137
595.675	125
596.44	126
597.204	118
597.969	113
598.733	107
599.497	103
600.261	100
601.025	93
601.79	90
602.553	85
603.317	82
604.081	81
604.845	76
605.609	74
606.372	70
607.136	67
607.899	66
608.662	62
609.426	60
610.189	57
610.952	55
611.715	53
612.478	52
613.241	52
614.004	46
614.767	46
615.529	45
616.292	41
617.055	39
617.817	43
618.579	40
619.342	39
620.104	36
620.866	37
621.628	37
622.39	30
623.152	33
623.914	28
624.676	31
625.438	27
626.199	27
626.961	29
627.722	27
628.484	27
629.245	28
630.006	22
630.768	23
631.529	21
632.29	21
633.051	22
633.812	21
634.573	19
635.333	19
636.094	19
636.855	18
637.615	16
638.376	16
639.136	16
639.896	17
640.657	18
641.417	13
642.177	15
642.937	15
643.697	14
644.457	15
645.216	14
645.976	13
646.736	12
647.495	12
648.255	13
649.014	12
649.774	12
650.533	13
651.292	13
652.051	13
652.81	10
653.569	11
654.328	9
655.087	12
655.846	9
656.604	11
657.363	11
658.121	10
658.88	11
659.638	10
660.397	11
661.155	10
661.913	7
662.671	8
663.429	8
664.187	12
664.945	8
665.703	11
666.46	6
667.218	9
667.976	5
668.733	7
669.49	8
670.248	8
671.005	11
671.762	7
672.519	10
673.276	9
674.033	9
674.79	7
675.547	6
676.304	7
677.06	8
677.817	7
678.574	8
679.33	7
680.086	4
680.843	6
681.599	7
682.355	6
683.111	9
683.867	7
684.623	7
685.379	9
686.135	9
686.89	5
687.646	7
688.402	7
689.157	7
689.912	9
690.668	7
691.423	5
692.178	6
692.933	6
693.688	5
694.443	7
695.198	7
695.953	5
696.708	7
697.462	7
698.217	6
698.972	7
699.726	4
700.48	8
701.235	6
701.989	7
702.743	4
703.497	5
704.251	8
705.005	7
705.759	5
706.513	5
707.266	5
708.02	7
708.774	5
709.527	7
710.28	6
711.034	7
711.787	7
712.54	7
713.293	6
714.046	4
714.799	9
715.552	6
716.305	8
717.058	6
717.81	5
718.563	3
719.315	5
720.068	9
720.82	6
721.573	8
722.325	7
723.077	8
723.829	6
724.581	9
725.333	9
726.085	5
726.836	4
727.588	7
728.34	9
729.091	9
729.843	6
730.594	7
731.346	8
732.097	6
732.848	8
733.599	9
734.35	7
735.101	7
735.852	11
736.603	7
737.354	8
738.104	6
738.855	6
739.605	9
740.356	8
741.106	9
741.856	7
742.607	8
743.357	7
744.107	8
744.857	7
745.607	9
746.357	11
747.106	7
747.856	6
748.606	9
749.355	8
750.105	8
750.854	9
751.603	11
752.353	8
753.102	9
753.851	9
754.6	9
755.349	9
756.098	11
756.847	12
757.595	10
758.344	10
759.093	10
759.841	11
760.589	9
761.338	11
762.086	13
762.834	11
763.582	12
764.331	9
765.079	9
765.826	11
766.574	12
767.322	10
768.07	9
768.817	11
769.565	14
770.312	13
771.06	12
771.807	12
772.554	11
773.302	11
774.049	15
774.796	13
775.543	12
776.29	12
777.036	11
777.783	14
778.53	14
779.276	13
780.023	14
780.769	14
781.516	13
782.262	15
783.008	12
783.754	13
784.5	14
785.246	12
785.992	11
786.738	13
787.484	13
788.23	11
788.975	14
789.721	14
790.466	13
791.212	10
791.957	10
792.702	12
793.447	14
794.193	12
794.938	14
795.683	13
796.427	13
797.172	11
797.917	11
798.662	9
799.406	13
800.151	11
800.895	7
801.64	10
802.384	12
803.128	11
803.872	10
804.616	10
805.36	10
806.104	7
806.848	10
807.592	9
808.336	8
809.079	7
809.823	8
810.566	12
811.31	9
812.053	8
812.796	7
813.539	9
814.283	8
815.026	8
815.769	9
816.511	10
817.254	5
817.997	7
818.74	9
819.482	8
820.225	6
820.967	5
821.71	8
822.452	6
823.194	5
823.936	7
824.678	7
825.42	7
826.162	6
826.904	7
827.646	5
828.388	4
829.129	8
829.871	3
830.612	5
831.354	6
832.095	4
832.836	7
833.577	2
834.319	8
835.06	4
835.801	5
836.542	5
837.282	4
838.023	8
838.764	3
839.504	6
840.245	5
840.985	9
841.726	4
842.466	5
843.206	5
843.946	5
844.687	3
845.427	2
846.166	5
846.906	5
847.646	6
848.386	5
849.125	4
849.865	6
850.605	3
851.344	4
852.083	4
852.823	3
853.562	4
854.301	2
855.04	5
855.779	4
856.518	4
857.257	1
857.995	3
858.734	5
859.473	3
860.211	4
860.95	4
861.688	2
862.426	3
863.165	3
863.903	2
864.641	3
865.379	6
866.117	2
866.855	3
867.593	0
868.33	5
869.068	3
869.806	0
870.543	3
871.28	3
872.018	3
872.755	3
873.492	1
874.229	2
874.967	1
875.703	3
876.44	0
877.177	2
877.914	2
878.651	2
879.387	1
880.124	4
880.86	3
881.597	2
882.333	3
883.069	3
883.806	2
884.542	2
885.278	3
886.014	2
886.749	3
887.485	0
888.221	3
888.957	2
889.692	2
890.428	1
891.163	2
891.899	0
892.634	3
893.369	0
894.104	2
894.839	0
895.574	3
896.309	-1
897.044	1
897.779	1
898.514	1
899.248	2
899.983	1
900.717	0
901.452	1
902.186	1
902.92	2
903.654	0
904.389	3
905.123	1
905.857	2
906.59	1
907.324	2
908.058	2
908.792	1
909.525	1
910.259	-1
910.992	0
911.726	0
912.459	1
913.192	3
913.925	2
914.658	2
915.391	1
916.124	1
916.857	1
917.59	2
918.323	1
919.055	0
919.788	-1
920.521	0
921.253	1
921.985	1
922.718	1
923.45	2
924.182	0
924.914	2
925.646	1
926.378	2
927.11	1
927.841	2
928.573	1
929.305	0
930.036	-1
930.768	1
931.499	0
932.23	1
932.962	1
933.693	2
934.424	-1
935.155	1
935.886	0
936.617	1
937.348	0
938.078	0
938.809	-1
939.54	1
940.27	1
941.001	0
941.731	1
942.461	3
943.191	-1
943.922	0
944.652	-2
945.382	1
946.112	0
946.841	1
947.571	-2
948.301	0
949.031	-1
949.76	3
950.49	-1
951.219	-1
951.948	-1
952.678	0
953.407	0
954.136	0
954.865	1
955.594	0
956.323	-1
957.052	3
957.78	0
958.509	3
959.238	1
959.966	1
960.695	-1
961.423	-1
962.151	3
962.88	2
963.608	0
964.336	-1
965.064	2
965.792	0
966.52	2
967.247	1
967.975	1
968.703	2
969.43	-2
970.158	0
970.885	1
971.613	0
972.34	1
973.067	2
973.794	1
974.521	-1
975.248	1
975.975	-1
976.702	0
977.429	-1
978.156	0
978.882	1
979.609	0
980.335	-1
981.062	0
981.788	2
982.514	0
983.24	1
983.967	-1
984.693	-1
985.419	0
986.144	1
986.87	0
987.596	2
988.322	1
989.047	-2
989.773	2
990.498	1
991.224	-1
991.949	0
992.674	0
993.399	-1
994.124	2
994.849	0
995.574	-1
996.299	1
997.024	2
997.749	1
998.473	1
999.198	1
999.922	1
1000.647	1
1001.371	5
1002.095	-1
1002.82	-1
1003.544	-2
1004.268	5
1004.992	4
1005.716	3
1006.439	4
1007.163	3
1007.887	6
1008.611	0
1009.334	0
1010.058	2
1010.781	1
1011.504	0
1012.228	2
1012.951	0
1013.674	0
1014.397	0
1015.12	-1
