节点500_565_QEPB04081__401__09-57-05-340.txt的数据

Date: Thu Nov 13 09:57:05 CST 2025
User: PC
Spectrometer: QEPB0408
触发模式: 0
积分时间 (秒): 1.000000E-2
Scans to average: 1
启用暗噪声校正: true
启用非线性校正: false
滑动平均宽度: 0
X轴模式: Wavelengths
Number of Pixels in Spectrum: 1044
>>>>>Begin Spectral Data<<<<<
220.843	6.12
221.644	4.12
222.444	3.12
223.244	2.12
224.045	4.12
224.845	5.12
225.645	3.12
226.445	3.12
227.245	4.12
228.045	5.12
228.845	4.12
229.645	5.12
230.444	6.12
231.244	6.12
232.043	6.12
232.843	6.12
233.642	5.12
234.442	6.12
235.241	6.12
236.04	7.12
236.839	7.12
237.638	6.12
238.437	8.12
239.236	8.12
240.035	9.12
240.833	9.12
241.632	5.12
242.43	7.12
243.229	7.12
244.027	8.12
244.826	8.12
245.624	9.12
246.422	10.12
247.22	10.12
248.018	12.12
248.816	10.12
249.614	9.12
250.412	10.12
251.21	13.12
252.007	13.12
252.805	10.12
253.602	13.12
254.4	11.12
255.197	14.12
255.994	12.12
256.791	14.12
257.589	17.12
258.386	13.12
259.183	18.12
259.979	16.12
260.776	17.12
261.573	16.12
262.37	16.12
263.166	20.12
263.963	22.12
264.759	21.12
265.556	17.12
266.352	19.12
267.148	20.12
267.944	19.12
268.74	22.12
269.536	22.12
270.332	23.12
271.128	21.12
271.924	25.12
272.719	24.12
273.515	27.12
274.311	25.12
275.106	25.12
275.901	29.12
276.697	26.12
277.492	29.12
278.287	26.12
279.082	26.12
279.877	25.12
280.672	26.12
281.467	28.12
282.262	30.12
283.056	25.12
283.851	28.12
284.646	28.12
285.44	28.12
286.234	26.12
287.029	25.12
287.823	27.12
288.617	26.12
289.411	26.12
290.205	26.12
290.999	24.12
291.793	24.12
292.587	26.12
293.381	27.12
294.174	25.12
294.968	24.12
295.761	22.12
296.555	21.12
297.348	22.12
298.141	21.12
298.935	22.12
299.728	21.12
300.521	21.12
301.314	18.12
302.107	22.12
302.899	20.12
303.692	18.12
304.485	18.12
305.277	20.12
306.07	17.12
306.862	19.12
307.655	18.12
308.447	14.12
309.239	18.12
310.031	16.12
310.823	16.12
311.615	15.12
312.407	15.12
313.199	14.12
313.991	14.12
314.783	13.12
315.574	11.12
316.366	14.12
317.157	12.12
317.949	12.12
318.74	10.12
319.531	14.12
320.322	13.12
321.113	11.12
321.904	10.12
322.695	11.12
323.486	9.12
324.277	8.12
325.068	14.12
325.858	9.12
326.649	9.12
327.439	12.12
328.23	9.12
329.02	9.12
329.81	11.12
330.6	9.12
331.391	9.12
332.181	9.12
332.971	8.12
333.76	8.12
334.55	11.12
335.34	9.12
336.13	13.12
336.919	9.12
337.709	9.12
338.498	12.12
339.287	12.12
340.077	11.12
340.866	8.12
341.655	9.12
342.444	8.12
343.233	9.12
344.022	10.12
344.811	7.12
345.6	10.12
346.388	8.12
347.177	7.12
347.965	8.12
348.754	11.12
349.542	8.12
350.33	10.12
351.119	8.12
351.907	11.12
352.695	8.12
353.483	9.12
354.271	9.12
355.059	9.12
355.846	8.12
356.634	10.12
357.422	8.12
358.209	8.12
358.997	4.12
359.784	6.12
360.571	7.12
361.359	8.12
362.146	6.12
362.933	8.12
363.72	9.12
364.507	8.12
365.294	5.12
366.081	7.12
366.867	7.12
367.654	9.12
368.44	7.12
369.227	6.12
370.013	8.12
370.8	7.12
371.586	6.12
372.372	8.12
373.158	7.12
373.944	8.12
374.73	5.12
375.516	7.12
376.302	8.12
377.088	7.12
377.873	4.12
378.659	6.12
379.445	9.12
380.23	7.12
381.015	8.12
381.801	8.12
382.586	9.12
383.371	8.12
384.156	9.12
384.941	9.12
385.726	9.12
386.511	8.12
387.296	8.12
388.08	7.12
388.865	10.12
389.649	8.12
390.434	9.12
391.218	9.12
392.003	9.12
392.787	7.12
393.571	6.12
394.355	8.12
395.139	10.12
395.923	9.12
396.707	9.12
397.491	9.12
398.274	11.12
399.058	11.12
399.842	12.12
400.625	12.12
401.408	12.12
402.192	10.12
402.975	9.12
403.758	11.12
404.541	10.12
405.324	10.12
406.107	14.12
406.89	12.12
407.673	13.12
408.456	10.12
409.238	12.12
410.021	15.12
410.803	12.12
411.586	16.12
412.368	12.12
413.151	14.12
413.933	11.12
414.715	14.12
415.497	15.12
416.279	12.12
417.061	18.12
417.843	13.12
418.624	16.12
419.406	18.12
420.188	16.12
420.969	18.12
421.751	16.12
422.532	20.12
423.313	18.12
424.095	18.12
424.876	16.12
425.657	21.12
426.438	23.12
427.219	20.12
428	22.12
428.78	21.12
429.561	27.12
430.342	20.12
431.122	25.12
431.903	25.12
432.683	24.12
433.464	27.12
434.244	28.12
435.024	29.12
435.804	33.12
436.584	34.12
437.364	35.12
438.144	37.12
438.924	41.12
439.704	43.12
440.483	45.12
441.263	47.12
442.042	51.12
442.822	53.12
443.601	57.12
444.38	63.12
445.16	68.12
445.939	77.12
446.718	79.12
447.497	85.12
448.276	92.12
449.054	104.12
449.833	114.12
450.612	122.12
451.391	135.12
452.169	150.12
452.948	168.12
453.726	180.12
454.504	204.12
455.282	223.12
456.061	244.12
456.839	281.12
457.617	309.12
458.395	345.12
459.172	380.12
459.95	433.12
460.728	473.12
461.506	537.12
462.283	593.12
463.061	665.12
463.838	744.12
464.615	830.12
465.393	904.12
466.17	1019.12
466.947	1127.12
467.724	1251.12
468.501	1380.12
469.278	1529.12
470.055	1681.12
470.831	1882.12
471.608	2077.12
472.385	2293.12
473.161	2530.12
473.938	2785.12
474.714	3055.12
475.49	3329.12
476.266	3640.12
477.043	4048.12
477.819	4401.12
478.595	4816.12
479.371	5228.12
480.146	5715.12
480.922	6268.12
481.698	6798.12
482.473	7393.12
483.249	8032.12
484.024	8759.12
484.8	9487.12
485.575	10366.12
486.35	11165.12
487.126	12145.12
487.901	13155.12
488.676	14196.12
489.451	15398.12
490.225	16561.12
491	17784.12
491.775	19105.12
492.55	20509.12
493.324	22014.12
494.099	23423.12
494.873	24953.12
495.647	26483.12
496.422	28081.12
497.196	29566.12
497.97	31208.12
498.744	32549.12
499.518	33808.12
500.292	35089.12
501.066	36259.12
501.839	37365.12
502.613	38221.12
503.387	38999.12
504.16	39670.12
504.934	39933.12
505.707	40127.12
506.48	40153.12
507.253	39929.12
508.027	39413.12
508.8	38892.12
509.573	38115.12
510.346	37167.12
511.118	36239.12
511.891	35170.12
512.664	34152.12
513.437	32953.12
514.209	31812.12
514.982	30547.12
515.754	29452.12
516.526	28149.12
517.298	27034.12
518.071	25970.12
518.843	24879.12
519.615	23796.12
520.387	22876.12
521.159	22102.12
521.93	21171.12
522.702	20294.12
523.474	19489.12
524.245	18685.12
525.017	17952.12
525.788	17235.12
526.56	16467.12
527.331	15642.12
528.102	15019.12
528.873	14291.12
529.644	13583.12
530.415	12900.12
531.186	12231.12
531.957	11708.12
532.728	11104.12
533.498	10489.12
534.269	9974.12
535.039	9372.12
535.81	8922.12
536.58	8476.12
537.351	7977.12
538.121	7552.12
538.891	7173.12
539.661	6769.12
540.431	6432.12
541.201	6081.12
541.971	5755.12
542.741	5460.12
543.51	5126.12
544.28	4916.12
545.05	4676.12
545.819	4450.12
546.588	4207.12
547.358	4014.12
548.127	3827.12
548.896	3609.12
549.665	3419.12
550.434	3274.12
551.203	3098.12
551.972	2934.12
552.741	2777.12
553.51	2642.12
554.278	2488.12
555.047	2330.12
555.815	2230.12
556.584	2116.12
557.352	1992.12
558.121	1886.12
558.889	1754.12
559.657	1678.12
560.425	1584.12
561.193	1501.12
561.961	1417.12
562.729	1334.12
563.496	1259.12
564.264	1209.12
565.032	1137.12
565.799	1080.12
566.567	1023.12
567.334	960.12
568.101	907.12
568.869	858.12
569.636	807.12
570.403	775.12
571.17	714.12
571.937	691.12
572.704	641.12
573.471	605.12
574.237	569.12
575.004	535.12
575.771	506.12
576.537	481.12
577.303	452.12
578.07	427.12
578.836	395.12
579.602	389.12
580.368	366.12
581.134	342.12
581.9	323.12
582.666	306.12
583.432	290.12
584.198	277.12
584.964	266.12
585.729	245.12
586.495	239.12
587.26	222.12
588.025	212.12
588.791	200.12
589.556	185.12
590.321	182.12
591.086	174.12
591.851	164.12
592.616	154.12
593.381	148.12
594.146	140.12
594.911	136.12
595.675	132.12
596.44	125.12
597.204	114.12
597.969	114.12
598.733	109.12
599.497	102.12
600.261	96.12
601.025	97.12
601.79	90.12
602.553	86.12
603.317	83.12
604.081	76.12
604.845	79.12
605.609	75.12
606.372	68.12
607.136	67.12
607.899	62.12
608.662	63.12
609.426	57.12
610.189	55.12
610.952	57.12
611.715	55.12
612.478	49.12
613.241	45.12
614.004	45.12
614.767	43.12
615.529	46.12
616.292	42.12
617.055	42.12
617.817	40.12
618.579	36.12
619.342	34.12
620.104	38.12
620.866	35.12
621.628	34.12
622.39	32.12
623.152	29.12
623.914	31.12
624.676	29.12
625.438	28.12
626.199	25.12
626.961	28.12
627.722	27.12
628.484	24.12
629.245	25.12
630.006	22.12
630.768	26.12
631.529	21.12
632.29	22.12
633.051	19.12
633.812	23.12
634.573	22.12
635.333	18.12
636.094	19.12
636.855	18.12
637.615	19.12
638.376	16.12
639.136	17.12
639.896	16.12
640.657	14.12
641.417	14.12
642.177	13.12
642.937	18.12
643.697	14.12
644.457	14.12
645.216	13.12
645.976	14.12
646.736	13.12
647.495	12.12
648.255	13.12
649.014	11.12
649.774	12.12
650.533	12.12
651.292	12.12
652.051	12.12
652.81	10.12
653.569	11.12
654.328	10.12
655.087	9.12
655.846	10.12
656.604	9.12
657.363	12.12
658.121	8.12
658.88	8.12
659.638	9.12
660.397	11.12
661.155	11.12
661.913	8.12
662.671	10.12
663.429	8.12
664.187	9.12
664.945	6.12
665.703	10.12
666.46	8.12
667.218	8.12
667.976	7.12
668.733	8.12
669.49	7.12
670.248	6.12
671.005	6.12
671.762	8.12
672.519	7.12
673.276	10.12
674.033	6.12
674.79	9.12
675.547	6.12
676.304	8.12
677.06	7.12
677.817	6.12
678.574	8.12
679.33	5.12
680.086	7.12
680.843	6.12
681.599	8.12
682.355	8.12
683.111	8.12
683.867	6.12
684.623	4.12
685.379	7.12
686.135	4.12
686.89	7.12
687.646	5.12
688.402	6.12
689.157	5.12
689.912	6.12
690.668	6.12
691.423	4.12
692.178	5.12
692.933	4.12
693.688	6.12
694.443	6.12
695.198	7.12
695.953	6.12
696.708	3.12
697.462	7.12
698.217	6.12
698.972	8.12
699.726	6.12
700.48	5.12
701.235	7.12
701.989	4.12
702.743	4.12
703.497	4.12
704.251	7.12
705.005	4.12
705.759	6.12
706.513	6.12
707.266	4.12
708.02	5.12
708.774	6.12
709.527	7.12
710.28	4.12
711.034	5.12
711.787	8.12
712.54	4.12
713.293	5.12
714.046	5.12
714.799	6.12
715.552	5.12
716.305	9.12
717.058	5.12
717.81	6.12
718.563	6.12
719.315	4.12
720.068	5.12
720.82	4.12
721.573	4.12
722.325	6.12
723.077	6.12
723.829	5.12
724.581	3.12
725.333	8.12
726.085	6.12
726.836	8.12
727.588	6.12
728.34	6.12
729.091	6.12
729.843	6.12
730.594	6.12
731.346	6.12
732.097	5.12
732.848	8.12
733.599	5.12
734.35	8.12
735.101	8.12
735.852	3.12
736.603	5.12
737.354	8.12
738.104	7.12
738.855	7.12
739.605	7.12
740.356	7.12
741.106	8.12
741.856	6.12
742.607	7.12
743.357	6.12
744.107	8.12
744.857	6.12
745.607	7.12
746.357	9.12
747.106	8.12
747.856	7.12
748.606	7.12
749.355	8.12
750.105	7.12
750.854	8.12
751.603	9.12
752.353	8.12
753.102	7.12
753.851	8.12
754.6	12.12
755.349	6.12
756.098	9.12
756.847	12.12
757.595	9.12
758.344	10.12
759.093	8.12
759.841	11.12
760.589	7.12
761.338	9.12
762.086	9.12
762.834	9.12
763.582	12.12
764.331	8.12
765.079	10.12
765.826	11.12
766.574	11.12
767.322	12.12
768.07	11.12
768.817	11.12
769.565	11.12
770.312	13.12
771.06	10.12
771.807	12.12
772.554	12.12
773.302	11.12
774.049	12.12
774.796	10.12
775.543	13.12
776.29	8.12
777.036	12.12
777.783	13.12
778.53	11.12
779.276	11.12
780.023	12.12
780.769	11.12
781.516	13.12
782.262	11.12
783.008	13.12
783.754	11.12
784.5	12.12
785.246	13.12
785.992	12.12
786.738	12.12
787.484	14.12
788.23	14.12
788.975	12.12
789.721	12.12
790.466	13.12
791.212	14.12
791.957	12.12
792.702	12.12
793.447	10.12
794.193	11.12
794.938	12.12
795.683	9.12
796.427	11.12
797.172	9.12
797.917	10.12
798.662	10.12
799.406	9.12
800.151	8.12
800.895	9.12
801.64	8.12
802.384	11.12
803.128	10.12
803.872	10.12
804.616	10.12
805.36	12.12
806.104	12.12
806.848	8.12
807.592	6.12
808.336	5.12
809.079	8.12
809.823	5.12
810.566	9.12
811.31	6.12
812.053	6.12
812.796	8.12
813.539	8.12
814.283	9.12
815.026	8.12
815.769	8.12
816.511	4.12
817.254	7.12
817.997	4.12
818.74	6.12
819.482	5.12
820.225	7.12
820.967	5.12
821.71	5.12
822.452	5.12
823.194	4.12
823.936	5.12
824.678	5.12
825.42	5.12
826.162	5.12
826.904	6.12
827.646	5.12
828.388	6.12
829.129	4.12
829.871	6.12
830.612	2.12
831.354	3.12
832.095	3.12
832.836	6.12
833.577	3.12
834.319	3.12
835.06	5.12
835.801	4.12
836.542	2.12
837.282	4.12
838.023	6.12
838.764	2.12
839.504	6.12
840.245	4.12
840.985	6.12
841.726	4.12
842.466	4.12
843.206	1.12
843.946	6.12
844.687	4.12
845.427	1.12
846.166	4.12
846.906	2.12
847.646	4.12
848.386	4.12
849.125	2.12
849.865	3.12
850.605	4.12
851.344	3.12
852.083	4.12
852.823	3.12
853.562	3.12
854.301	4.12
855.04	3.12
855.779	5.12
856.518	2.12
857.257	1.12
857.995	4.12
858.734	3.12
859.473	3.12
860.211	3.12
860.95	0.12
861.688	2.12
862.426	0.12
863.165	3.12
863.903	3.12
864.641	2.12
865.379	3.12
866.117	-0.88
866.855	-0.88
867.593	1.12
868.33	2.12
869.068	2.12
869.806	1.12
870.543	4.12
871.28	0.12
872.018	2.12
872.755	1.12
873.492	1.12
874.229	-0.88
874.967	2.12
875.703	2.12
876.44	1.12
877.177	1.12
877.914	0.12
878.651	1.12
879.387	1.12
880.124	1.12
880.86	1.12
881.597	2.12
882.333	0.12
883.069	3.12
883.806	2.12
884.542	1.12
885.278	1.12
886.014	1.12
886.749	-0.88
887.485	0.12
888.221	0.12
888.957	1.12
889.692	2.12
890.428	0.12
891.163	0.12
891.899	1.12
892.634	1.12
893.369	-1.88
894.104	0.12
894.839	0.12
895.574	-0.88
896.309	-1.88
897.044	0.12
897.779	2.12
898.514	-1.88
899.248	0.12
899.983	1.12
900.717	-0.88
901.452	-1.88
902.186	0.12
902.92	1.12
903.654	0.12
904.389	1.12
905.123	-1.88
905.857	-0.88
906.59	-0.88
907.324	0.12
908.058	1.12
908.792	1.12
909.525	0.12
910.259	-0.88
910.992	-0.88
911.726	0.12
912.459	2.12
913.192	0.12
913.925	-0.88
914.658	1.12
915.391	0.12
916.124	1.12
916.857	2.12
917.59	0.12
918.323	2.12
919.055	0.12
919.788	0.12
920.521	-3.88
921.253	-0.88
921.985	-0.88
922.718	1.12
923.45	1.12
924.182	-0.88
924.914	0.12
925.646	0.12
926.378	-0.88
927.11	0.12
927.841	0.12
928.573	2.12
929.305	-0.88
930.036	-0.88
930.768	0.12
931.499	1.12
932.23	0.12
932.962	-1.88
933.693	-1.88
934.424	0.12
935.155	-0.88
935.886	-0.88
936.617	-1.88
937.348	-1.88
938.078	0.12
938.809	1.12
939.54	0.12
940.27	1.12
941.001	0.12
941.731	-0.88
942.461	0.12
943.191	-0.88
943.922	-1.88
944.652	0.12
945.382	1.12
946.112	-1.88
946.841	-0.88
947.571	0.12
948.301	-3.88
949.031	1.12
949.76	-0.88
950.49	0.12
951.219	1.12
951.948	0.12
952.678	0.12
953.407	0.12
954.136	1.12
954.865	0.12
955.594	-0.88
956.323	0.12
957.052	1.12
957.78	0.12
958.509	0.12
959.238	0.12
959.966	0.12
960.695	1.12
961.423	-2.88
962.151	0.12
962.88	-0.88
963.608	0.12
964.336	1.12
965.064	1.12
965.792	0.12
966.52	-0.88
967.247	-0.88
967.975	-2.88
968.703	0.12
969.43	-0.88
970.158	-1.88
970.885	-1.88
971.613	-0.88
972.34	-0.88
973.067	-0.88
973.794	-0.88
974.521	0.12
975.248	0.12
975.975	2.12
976.702	-0.88
977.429	0.12
978.156	0.12
978.882	1.12
979.609	0.12
980.335	-0.88
981.062	1.12
981.788	-0.88
982.514	2.12
983.24	0.12
983.967	0.12
984.693	-0.88
985.419	0.12
986.144	-0.88
986.87	1.12
987.596	0.12
988.322	-2.88
989.047	-1.88
989.773	0.12
990.498	0.12
991.224	-0.88
991.949	2.12
992.674	-1.88
993.399	-1.88
994.124	1.12
994.849	-0.88
995.574	-1.88
996.299	-0.88
997.024	0.12
997.749	0.12
998.473	-3.88
999.198	1.12
999.922	0.12
1000.647	2.12
1001.371	5.12
1002.095	-2.88
1002.82	-1.88
1003.544	-0.88
1004.268	2.12
1004.992	3.12
1005.716	2.12
1006.439	3.12
1007.163	2.12
1007.887	1.12
1008.611	0.12
1009.334	0.12
1010.058	-0.88
1010.781	-1.88
1011.504	0.12
1012.228	-1.88
1012.951	1.12
1013.674	0.12
1014.397	-0.88
1015.12	0.12
