节点500_565_QEPB04081__77__09-51-43-026.txt的数据

Date: Thu Nov 13 09:51:43 CST 2025
User: PC
Spectrometer: QEPB0408
触发模式: 0
积分时间 (秒): 1.000000E-2
Scans to average: 1
启用暗噪声校正: true
启用非线性校正: false
滑动平均宽度: 0
X轴模式: Wavelengths
Number of Pixels in Spectrum: 1044
>>>>>Begin Spectral Data<<<<<
220.843	3.12
221.644	6.12
222.444	3.12
223.244	5.12
224.045	5.12
224.845	5.12
225.645	3.12
226.445	5.12
227.245	5.12
228.045	8.12
228.845	7.12
229.645	5.12
230.444	6.12
231.244	5.12
232.043	7.12
232.843	6.12
233.642	8.12
234.442	7.12
235.241	6.12
236.04	9.12
236.839	7.12
237.638	9.12
238.437	9.12
239.236	9.12
240.035	10.12
240.833	8.12
241.632	11.12
242.43	9.12
243.229	12.12
244.027	8.12
244.826	12.12
245.624	8.12
246.422	10.12
247.22	13.12
248.018	11.12
248.816	14.12
249.614	14.12
250.412	12.12
251.21	13.12
252.007	13.12
252.805	13.12
253.602	15.12
254.4	16.12
255.197	15.12
255.994	17.12
256.791	18.12
257.589	18.12
258.386	19.12
259.183	20.12
259.979	17.12
260.776	20.12
261.573	20.12
262.37	21.12
263.166	22.12
263.963	25.12
264.759	22.12
265.556	24.12
266.352	24.12
267.148	24.12
267.944	26.12
268.74	24.12
269.536	29.12
270.332	27.12
271.128	28.12
271.924	30.12
272.719	29.12
273.515	31.12
274.311	29.12
275.106	32.12
275.901	29.12
276.697	31.12
277.492	31.12
278.287	32.12
279.082	34.12
279.877	30.12
280.672	31.12
281.467	32.12
282.262	31.12
283.056	31.12
283.851	28.12
284.646	31.12
285.44	29.12
286.234	29.12
287.029	29.12
287.823	32.12
288.617	28.12
289.411	32.12
290.205	31.12
290.999	26.12
291.793	28.12
292.587	26.12
293.381	22.12
294.174	28.12
294.968	29.12
295.761	25.12
296.555	24.12
297.348	22.12
298.141	24.12
298.935	24.12
299.728	22.12
300.521	19.12
301.314	19.12
302.107	18.12
302.899	17.12
303.692	18.12
304.485	18.12
305.277	20.12
306.07	18.12
306.862	16.12
307.655	18.12
308.447	20.12
309.239	18.12
310.031	17.12
310.823	15.12
311.615	15.12
312.407	15.12
313.199	16.12
313.991	13.12
314.783	13.12
315.574	14.12
316.366	14.12
317.157	13.12
317.949	12.12
318.74	14.12
319.531	10.12
320.322	10.12
321.113	12.12
321.904	11.12
322.695	12.12
323.486	9.12
324.277	10.12
325.068	12.12
325.858	10.12
326.649	11.12
327.439	11.12
328.23	10.12
329.02	12.12
329.81	8.12
330.6	10.12
331.391	9.12
332.181	11.12
332.971	10.12
333.76	11.12
334.55	10.12
335.34	10.12
336.13	8.12
336.919	10.12
337.709	11.12
338.498	10.12
339.287	9.12
340.077	12.12
340.866	10.12
341.655	8.12
342.444	7.12
343.233	10.12
344.022	8.12
344.811	8.12
345.6	11.12
346.388	9.12
347.177	11.12
347.965	8.12
348.754	11.12
349.542	9.12
350.33	9.12
351.119	10.12
351.907	8.12
352.695	11.12
353.483	10.12
354.271	8.12
355.059	9.12
355.846	9.12
356.634	8.12
357.422	7.12
358.209	11.12
358.997	10.12
359.784	10.12
360.571	6.12
361.359	11.12
362.146	9.12
362.933	8.12
363.72	10.12
364.507	8.12
365.294	8.12
366.081	6.12
366.867	9.12
367.654	6.12
368.44	9.12
369.227	6.12
370.013	8.12
370.8	9.12
371.586	8.12
372.372	8.12
373.158	7.12
373.944	8.12
374.73	9.12
375.516	9.12
376.302	7.12
377.088	7.12
377.873	5.12
378.659	11.12
379.445	9.12
380.23	8.12
381.015	10.12
381.801	9.12
382.586	9.12
383.371	9.12
384.156	7.12
384.941	9.12
385.726	8.12
386.511	7.12
387.296	10.12
388.08	9.12
388.865	11.12
389.649	9.12
390.434	9.12
391.218	8.12
392.003	11.12
392.787	10.12
393.571	10.12
394.355	13.12
395.139	8.12
395.923	11.12
396.707	12.12
397.491	9.12
398.274	12.12
399.058	9.12
399.842	13.12
400.625	10.12
401.408	11.12
402.192	16.12
402.975	9.12
403.758	13.12
404.541	9.12
405.324	14.12
406.107	14.12
406.89	12.12
407.673	16.12
408.456	14.12
409.238	13.12
410.021	16.12
410.803	13.12
411.586	12.12
412.368	17.12
413.151	16.12
413.933	13.12
414.715	16.12
415.497	16.12
416.279	17.12
417.061	18.12
417.843	16.12
418.624	19.12
419.406	16.12
420.188	18.12
420.969	20.12
421.751	17.12
422.532	20.12
423.313	21.12
424.095	18.12
424.876	18.12
425.657	21.12
426.438	23.12
427.219	23.12
428	22.12
428.78	21.12
429.561	25.12
430.342	24.12
431.122	27.12
431.903	25.12
432.683	31.12
433.464	28.12
434.244	30.12
435.024	30.12
435.804	32.12
436.584	35.12
437.364	34.12
438.144	32.12
438.924	43.12
439.704	40.12
440.483	43.12
441.263	45.12
442.042	49.12
442.822	49.12
443.601	54.12
444.38	56.12
445.16	60.12
445.939	70.12
446.718	72.12
447.497	83.12
448.276	87.12
449.054	94.12
449.833	99.12
450.612	116.12
451.391	123.12
452.169	139.12
452.948	146.12
453.726	164.12
454.504	185.12
455.282	199.12
456.061	224.12
456.839	250.12
457.617	274.12
458.395	310.12
459.172	349.12
459.95	383.12
460.728	432.12
461.506	482.12
462.283	544.12
463.061	609.12
463.838	661.12
464.615	756.12
465.393	854.12
466.17	944.12
466.947	1056.12
467.724	1183.12
468.501	1318.12
469.278	1475.12
470.055	1629.12
470.831	1824.12
471.608	2045.12
472.385	2248.12
473.161	2507.12
473.938	2774.12
474.714	3057.12
475.49	3390.12
476.266	3757.12
477.043	4122.12
477.819	4590.12
478.595	5044.12
479.371	5511.12
480.146	6086.12
480.922	6690.12
481.698	7401.12
482.473	8030.12
483.249	8797.12
484.024	9659.12
484.8	10620.12
485.575	11586.12
486.35	12636.12
487.126	13732.12
487.901	15053.12
488.676	16369.12
489.451	17757.12
490.225	19197.12
491	20813.12
491.775	22390.12
492.55	24182.12
493.324	25864.12
494.099	27543.12
494.873	29346.12
495.647	31319.12
496.422	33120.12
497.196	34785.12
497.97	36378.12
498.744	37965.12
499.518	39323.12
500.292	40615.12
501.066	41694.12
501.839	42705.12
502.613	43360.12
503.387	43948.12
504.16	44200.12
504.934	44221.12
505.707	43905.12
506.48	43500.12
507.253	42869.12
508.027	41815.12
508.8	40805.12
509.573	39591.12
510.346	38333.12
511.118	37098.12
511.891	35694.12
512.664	34377.12
513.437	33012.12
514.209	31575.12
514.982	30238.12
515.754	28988.12
516.526	27676.12
517.298	26428.12
518.071	25402.12
518.843	24391.12
519.615	23363.12
520.387	22393.12
521.159	21604.12
521.93	20642.12
522.702	19835.12
523.474	19014.12
524.245	18194.12
525.017	17463.12
525.788	16659.12
526.56	15848.12
527.331	15102.12
528.102	14402.12
528.873	13614.12
529.644	12943.12
530.415	12242.12
531.186	11592.12
531.957	10986.12
532.728	10414.12
533.498	9856.12
534.269	9281.12
535.039	8750.12
535.81	8295.12
536.58	7853.12
537.351	7405.12
538.121	7027.12
538.891	6656.12
539.661	6264.12
540.431	5945.12
541.201	5626.12
541.971	5367.12
542.741	5047.12
543.51	4796.12
544.28	4561.12
545.05	4329.12
545.819	4105.12
546.588	3900.12
547.358	3710.12
548.127	3545.12
548.896	3340.12
549.665	3173.12
550.434	2998.12
551.203	2868.12
551.972	2695.12
552.741	2556.12
553.51	2404.12
554.278	2271.12
555.047	2143.12
555.815	2025.12
556.584	1917.12
557.352	1814.12
558.121	1710.12
558.889	1612.12
559.657	1513.12
560.425	1439.12
561.193	1348.12
561.961	1261.12
562.729	1221.12
563.496	1148.12
564.264	1089.12
565.032	1027.12
565.799	982.12
566.567	925.12
567.334	862.12
568.101	829.12
568.869	773.12
569.636	732.12
570.403	695.12
571.17	653.12
571.937	624.12
572.704	584.12
573.471	547.12
574.237	509.12
575.004	492.12
575.771	462.12
576.537	441.12
577.303	412.12
578.07	386.12
578.836	363.12
579.602	341.12
580.368	323.12
581.134	315.12
581.9	293.12
582.666	281.12
583.432	265.12
584.198	251.12
584.964	235.12
585.729	223.12
586.495	212.12
587.26	198.12
588.025	197.12
588.791	177.12
589.556	171.12
590.321	167.12
591.086	163.12
591.851	152.12
592.616	144.12
593.381	135.12
594.146	128.12
594.911	124.12
595.675	118.12
596.44	113.12
597.204	112.12
597.969	109.12
598.733	99.12
599.497	98.12
600.261	90.12
601.025	88.12
601.79	84.12
602.553	80.12
603.317	77.12
604.081	73.12
604.845	70.12
605.609	65.12
606.372	62.12
607.136	64.12
607.899	59.12
608.662	57.12
609.426	56.12
610.189	54.12
610.952	52.12
611.715	49.12
612.478	49.12
613.241	44.12
614.004	43.12
614.767	42.12
615.529	41.12
616.292	42.12
617.055	40.12
617.817	38.12
618.579	39.12
619.342	36.12
620.104	36.12
620.866	34.12
621.628	33.12
622.39	32.12
623.152	27.12
623.914	31.12
624.676	31.12
625.438	27.12
626.199	28.12
626.961	25.12
627.722	24.12
628.484	23.12
629.245	23.12
630.006	22.12
630.768	23.12
631.529	20.12
632.29	19.12
633.051	20.12
633.812	19.12
634.573	21.12
635.333	20.12
636.094	22.12
636.855	18.12
637.615	17.12
638.376	17.12
639.136	16.12
639.896	17.12
640.657	14.12
641.417	15.12
642.177	16.12
642.937	15.12
643.697	14.12
644.457	13.12
645.216	11.12
645.976	13.12
646.736	12.12
647.495	14.12
648.255	11.12
649.014	10.12
649.774	12.12
650.533	11.12
651.292	12.12
652.051	12.12
652.81	13.12
653.569	9.12
654.328	12.12
655.087	9.12
655.846	13.12
656.604	9.12
657.363	9.12
658.121	9.12
658.88	10.12
659.638	9.12
660.397	8.12
661.155	8.12
661.913	7.12
662.671	8.12
663.429	10.12
664.187	9.12
664.945	8.12
665.703	7.12
666.46	8.12
667.218	8.12
667.976	7.12
668.733	8.12
669.49	5.12
670.248	7.12
671.005	8.12
671.762	8.12
672.519	8.12
673.276	9.12
674.033	7.12
674.79	5.12
675.547	8.12
676.304	6.12
677.06	7.12
677.817	7.12
678.574	8.12
679.33	7.12
680.086	6.12
680.843	8.12
681.599	5.12
682.355	8.12
683.111	8.12
683.867	9.12
684.623	7.12
685.379	6.12
686.135	8.12
686.89	5.12
687.646	5.12
688.402	6.12
689.157	7.12
689.912	8.12
690.668	7.12
691.423	4.12
692.178	4.12
692.933	6.12
693.688	6.12
694.443	8.12
695.198	6.12
695.953	7.12
696.708	6.12
697.462	6.12
698.217	6.12
698.972	2.12
699.726	7.12
700.48	8.12
701.235	5.12
701.989	6.12
702.743	4.12
703.497	5.12
704.251	5.12
705.005	7.12
705.759	6.12
706.513	5.12
707.266	5.12
708.02	5.12
708.774	7.12
709.527	4.12
710.28	7.12
711.034	6.12
711.787	5.12
712.54	4.12
713.293	7.12
714.046	6.12
714.799	9.12
715.552	6.12
716.305	8.12
717.058	9.12
717.81	7.12
718.563	6.12
719.315	8.12
720.068	6.12
720.82	7.12
721.573	6.12
722.325	7.12
723.077	7.12
723.829	7.12
724.581	8.12
725.333	6.12
726.085	7.12
726.836	4.12
727.588	5.12
728.34	5.12
729.091	5.12
729.843	6.12
730.594	7.12
731.346	7.12
732.097	9.12
732.848	8.12
733.599	8.12
734.35	7.12
735.101	7.12
735.852	6.12
736.603	7.12
737.354	7.12
738.104	10.12
738.855	8.12
739.605	9.12
740.356	8.12
741.106	6.12
741.856	9.12
742.607	7.12
743.357	10.12
744.107	7.12
744.857	6.12
745.607	8.12
746.357	8.12
747.106	10.12
747.856	9.12
748.606	12.12
749.355	12.12
750.105	10.12
750.854	11.12
751.603	8.12
752.353	11.12
753.102	11.12
753.851	12.12
754.6	11.12
755.349	9.12
756.098	10.12
756.847	12.12
757.595	11.12
758.344	10.12
759.093	9.12
759.841	11.12
760.589	10.12
761.338	10.12
762.086	9.12
762.834	12.12
763.582	12.12
764.331	11.12
765.079	11.12
765.826	11.12
766.574	11.12
767.322	11.12
768.07	12.12
768.817	13.12
769.565	13.12
770.312	16.12
771.06	12.12
771.807	15.12
772.554	14.12
773.302	15.12
774.049	13.12
774.796	13.12
775.543	13.12
776.29	15.12
777.036	16.12
777.783	11.12
778.53	15.12
779.276	17.12
780.023	14.12
780.769	15.12
781.516	14.12
782.262	15.12
783.008	15.12
783.754	12.12
784.5	13.12
785.246	16.12
785.992	14.12
786.738	14.12
787.484	13.12
788.23	14.12
788.975	15.12
789.721	14.12
790.466	14.12
791.212	13.12
791.957	16.12
792.702	12.12
793.447	12.12
794.193	13.12
794.938	12.12
795.683	14.12
796.427	12.12
797.172	11.12
797.917	11.12
798.662	12.12
799.406	11.12
800.151	8.12
800.895	11.12
801.64	10.12
802.384	12.12
803.128	10.12
803.872	10.12
804.616	12.12
805.36	10.12
806.104	8.12
806.848	9.12
807.592	8.12
808.336	8.12
809.079	7.12
809.823	7.12
810.566	7.12
811.31	9.12
812.053	8.12
812.796	8.12
813.539	7.12
814.283	8.12
815.026	5.12
815.769	6.12
816.511	8.12
817.254	8.12
817.997	9.12
818.74	5.12
819.482	7.12
820.225	8.12
820.967	6.12
821.71	8.12
822.452	8.12
823.194	6.12
823.936	7.12
824.678	5.12
825.42	3.12
826.162	6.12
826.904	7.12
827.646	5.12
828.388	8.12
829.129	6.12
829.871	7.12
830.612	6.12
831.354	4.12
832.095	5.12
832.836	6.12
833.577	4.12
834.319	5.12
835.06	6.12
835.801	5.12
836.542	4.12
837.282	3.12
838.023	6.12
838.764	7.12
839.504	5.12
840.245	4.12
840.985	5.12
841.726	4.12
842.466	4.12
843.206	6.12
843.946	4.12
844.687	6.12
845.427	5.12
846.166	5.12
846.906	4.12
847.646	8.12
848.386	3.12
849.125	5.12
849.865	2.12
850.605	5.12
851.344	5.12
852.083	4.12
852.823	4.12
853.562	4.12
854.301	4.12
855.04	2.12
855.779	3.12
856.518	3.12
857.257	2.12
857.995	5.12
858.734	1.12
859.473	6.12
860.211	2.12
860.95	5.12
861.688	4.12
862.426	3.12
863.165	2.12
863.903	3.12
864.641	3.12
865.379	4.12
866.117	1.12
866.855	3.12
867.593	1.12
868.33	2.12
869.068	-0.88
869.806	2.12
870.543	3.12
871.28	1.12
872.018	4.12
872.755	1.12
873.492	4.12
874.229	3.12
874.967	1.12
875.703	2.12
876.44	1.12
877.177	1.12
877.914	-0.88
878.651	1.12
879.387	2.12
880.124	1.12
880.86	2.12
881.597	1.12
882.333	1.12
883.069	2.12
883.806	3.12
884.542	2.12
885.278	2.12
886.014	-0.88
886.749	-0.88
887.485	1.12
888.221	1.12
888.957	1.12
889.692	0.12
890.428	1.12
891.163	2.12
891.899	1.12
892.634	0.12
893.369	0.12
894.104	-0.88
894.839	2.12
895.574	1.12
896.309	3.12
897.044	1.12
897.779	1.12
898.514	-1.88
899.248	1.12
899.983	2.12
900.717	1.12
901.452	0.12
902.186	2.12
902.92	0.12
903.654	2.12
904.389	3.12
905.123	2.12
905.857	1.12
906.59	0.12
907.324	2.12
908.058	1.12
908.792	1.12
909.525	0.12
910.259	0.12
910.992	1.12
911.726	2.12
912.459	0.12
913.192	1.12
913.925	-0.88
914.658	1.12
915.391	1.12
916.124	0.12
916.857	-0.88
917.59	-0.88
918.323	1.12
919.055	-1.88
919.788	-0.88
920.521	-0.88
921.253	1.12
921.985	-1.88
922.718	1.12
923.45	0.12
924.182	0.12
924.914	2.12
925.646	0.12
926.378	0.12
927.11	1.12
927.841	-0.88
928.573	2.12
929.305	1.12
930.036	2.12
930.768	0.12
931.499	2.12
932.23	2.12
932.962	0.12
933.693	2.12
934.424	1.12
935.155	3.12
935.886	-0.88
936.617	0.12
937.348	-2.88
938.078	-1.88
938.809	0.12
939.54	1.12
940.27	0.12
941.001	0.12
941.731	1.12
942.461	0.12
943.191	0.12
943.922	2.12
944.652	0.12
945.382	0.12
946.112	-0.88
946.841	0.12
947.571	-0.88
948.301	-0.88
949.031	1.12
949.76	-2.88
950.49	1.12
951.219	-2.88
951.948	0.12
952.678	1.12
953.407	-0.88
954.136	0.12
954.865	0.12
955.594	0.12
956.323	0.12
957.052	4.12
957.78	0.12
958.509	1.12
959.238	-0.88
959.966	-1.88
960.695	0.12
961.423	-1.88
962.151	1.12
962.88	1.12
963.608	1.12
964.336	-0.88
965.064	1.12
965.792	-1.88
966.52	1.12
967.247	0.12
967.975	1.12
968.703	-0.88
969.43	0.12
970.158	-0.88
970.885	0.12
971.613	0.12
972.34	0.12
973.067	0.12
973.794	0.12
974.521	1.12
975.248	0.12
975.975	0.12
976.702	2.12
977.429	1.12
978.156	1.12
978.882	1.12
979.609	0.12
980.335	-1.88
981.062	2.12
981.788	-0.88
982.514	1.12
983.24	-2.88
983.967	1.12
984.693	0.12
985.419	0.12
986.144	-0.88
986.87	0.12
987.596	0.12
988.322	1.12
989.047	1.12
989.773	0.12
990.498	0.12
991.224	1.12
991.949	1.12
992.674	2.12
993.399	0.12
994.124	0.12
994.849	0.12
995.574	-0.88
996.299	-2.88
997.024	-0.88
997.749	1.12
998.473	0.12
999.198	0.12
999.922	0.12
1000.647	0.12
1001.371	4.12
1002.095	-0.88
1002.82	0.12
1003.544	-2.88
1004.268	2.12
1004.992	2.12
1005.716	2.12
1006.439	2.12
1007.163	3.12
1007.887	2.12
1008.611	0.12
1009.334	-2.88
1010.058	0.12
1010.781	-2.88
1011.504	0.12
1012.228	1.12
1012.951	-0.88
1013.674	1.12
1014.397	-0.88
1015.12	0.12
