节点500_565_QEPB04081__86__09-51-52-011.txt的数据

Date: Thu Nov 13 09:51:52 CST 2025
User: PC
Spectrometer: QEPB0408
触发模式: 0
积分时间 (秒): 1.000000E-2
Scans to average: 1
启用暗噪声校正: true
启用非线性校正: false
滑动平均宽度: 0
X轴模式: Wavelengths
Number of Pixels in Spectrum: 1044
>>>>>Begin Spectral Data<<<<<
220.843	3.38
221.644	4.38
222.444	5.38
223.244	6.38
224.045	4.38
224.845	7.38
225.645	5.38
226.445	6.38
227.245	4.38
228.045	7.38
228.845	6.38
229.645	5.38
230.444	5.38
231.244	4.38
232.043	7.38
232.843	8.38
233.642	9.38
234.442	7.38
235.241	7.38
236.04	10.38
236.839	6.38
237.638	7.38
238.437	10.38
239.236	7.38
240.035	9.38
240.833	9.38
241.632	11.38
242.43	9.38
243.229	11.38
244.027	12.38
244.826	11.38
245.624	11.38
246.422	11.38
247.22	11.38
248.018	9.38
248.816	11.38
249.614	11.38
250.412	15.38
251.21	13.38
252.007	14.38
252.805	16.38
253.602	14.38
254.4	18.38
255.197	14.38
255.994	14.38
256.791	16.38
257.589	17.38
258.386	21.38
259.183	19.38
259.979	20.38
260.776	19.38
261.573	19.38
262.37	20.38
263.166	21.38
263.963	21.38
264.759	20.38
265.556	23.38
266.352	24.38
267.148	24.38
267.944	25.38
268.74	23.38
269.536	27.38
270.332	26.38
271.128	27.38
271.924	26.38
272.719	27.38
273.515	28.38
274.311	30.38
275.106	30.38
275.901	32.38
276.697	31.38
277.492	26.38
278.287	31.38
279.082	33.38
279.877	30.38
280.672	29.38
281.467	28.38
282.262	29.38
283.056	32.38
283.851	32.38
284.646	32.38
285.44	28.38
286.234	27.38
287.029	31.38
287.823	31.38
288.617	28.38
289.411	31.38
290.205	30.38
290.999	29.38
291.793	28.38
292.587	28.38
293.381	27.38
294.174	27.38
294.968	25.38
295.761	24.38
296.555	22.38
297.348	23.38
298.141	19.38
298.935	26.38
299.728	20.38
300.521	19.38
301.314	21.38
302.107	18.38
302.899	20.38
303.692	21.38
304.485	22.38
305.277	17.38
306.07	20.38
306.862	20.38
307.655	16.38
308.447	18.38
309.239	17.38
310.031	19.38
310.823	15.38
311.615	13.38
312.407	14.38
313.199	14.38
313.991	15.38
314.783	14.38
315.574	13.38
316.366	13.38
317.157	16.38
317.949	13.38
318.74	14.38
319.531	13.38
320.322	10.38
321.113	12.38
321.904	12.38
322.695	13.38
323.486	12.38
324.277	11.38
325.068	10.38
325.858	12.38
326.649	10.38
327.439	9.38
328.23	12.38
329.02	9.38
329.81	9.38
330.6	10.38
331.391	8.38
332.181	12.38
332.971	11.38
333.76	9.38
334.55	9.38
335.34	9.38
336.13	12.38
336.919	9.38
337.709	11.38
338.498	11.38
339.287	10.38
340.077	9.38
340.866	11.38
341.655	10.38
342.444	11.38
343.233	10.38
344.022	9.38
344.811	6.38
345.6	9.38
346.388	8.38
347.177	8.38
347.965	7.38
348.754	8.38
349.542	9.38
350.33	10.38
351.119	8.38
351.907	6.38
352.695	8.38
353.483	9.38
354.271	11.38
355.059	9.38
355.846	8.38
356.634	9.38
357.422	8.38
358.209	9.38
358.997	6.38
359.784	9.38
360.571	9.38
361.359	9.38
362.146	7.38
362.933	8.38
363.72	6.38
364.507	8.38
365.294	8.38
366.081	8.38
366.867	9.38
367.654	8.38
368.44	9.38
369.227	9.38
370.013	5.38
370.8	7.38
371.586	10.38
372.372	8.38
373.158	7.38
373.944	8.38
374.73	8.38
375.516	5.38
376.302	10.38
377.088	8.38
377.873	9.38
378.659	6.38
379.445	8.38
380.23	7.38
381.015	7.38
381.801	8.38
382.586	8.38
383.371	7.38
384.156	9.38
384.941	7.38
385.726	9.38
386.511	8.38
387.296	11.38
388.08	9.38
388.865	8.38
389.649	12.38
390.434	8.38
391.218	9.38
392.003	6.38
392.787	9.38
393.571	12.38
394.355	12.38
395.139	10.38
395.923	9.38
396.707	12.38
397.491	10.38
398.274	15.38
399.058	11.38
399.842	10.38
400.625	13.38
401.408	10.38
402.192	13.38
402.975	11.38
403.758	12.38
404.541	12.38
405.324	15.38
406.107	11.38
406.89	13.38
407.673	13.38
408.456	13.38
409.238	15.38
410.021	12.38
410.803	15.38
411.586	16.38
412.368	15.38
413.151	14.38
413.933	16.38
414.715	16.38
415.497	14.38
416.279	17.38
417.061	17.38
417.843	15.38
418.624	16.38
419.406	20.38
420.188	18.38
420.969	18.38
421.751	18.38
422.532	20.38
423.313	20.38
424.095	18.38
424.876	20.38
425.657	22.38
426.438	22.38
427.219	21.38
428	21.38
428.78	22.38
429.561	22.38
430.342	26.38
431.122	25.38
431.903	26.38
432.683	29.38
433.464	31.38
434.244	28.38
435.024	29.38
435.804	34.38
436.584	35.38
437.364	33.38
438.144	36.38
438.924	39.38
439.704	41.38
440.483	43.38
441.263	49.38
442.042	49.38
442.822	50.38
443.601	57.38
444.38	61.38
445.16	63.38
445.939	68.38
446.718	73.38
447.497	80.38
448.276	86.38
449.054	95.38
449.833	105.38
450.612	110.38
451.391	121.38
452.169	133.38
452.948	155.38
453.726	162.38
454.504	183.38
455.282	201.38
456.061	229.38
456.839	252.38
457.617	278.38
458.395	311.38
459.172	354.38
459.95	390.38
460.728	435.38
461.506	495.38
462.283	538.38
463.061	607.38
463.838	684.38
464.615	770.38
465.393	848.38
466.17	950.38
466.947	1069.38
467.724	1196.38
468.501	1324.38
469.278	1469.38
470.055	1642.38
470.831	1826.38
471.608	2051.38
472.385	2258.38
473.161	2489.38
473.938	2772.38
474.714	3079.38
475.49	3370.38
476.266	3736.38
477.043	4141.38
477.819	4573.38
478.595	5022.38
479.371	5526.38
480.146	6072.38
480.922	6710.38
481.698	7326.38
482.473	8022.38
483.249	8778.38
484.024	9645.38
484.8	10588.38
485.575	11581.38
486.35	12575.38
487.126	13723.38
487.901	14994.38
488.676	16289.38
489.451	17711.38
490.225	19120.38
491	20702.38
491.775	22307.38
492.55	24073.38
493.324	25710.38
494.099	27437.38
494.873	29199.38
495.647	31106.38
496.422	32910.38
497.196	34713.38
497.97	36262.38
498.744	37764.38
499.518	39135.38
500.292	40474.38
501.066	41574.38
501.839	42629.38
502.613	43241.38
503.387	43782.38
504.16	44116.38
504.934	44022.38
505.707	43721.38
506.48	43492.38
507.253	42756.38
508.027	41906.38
508.8	40791.38
509.573	39568.38
510.346	38361.38
511.118	37015.38
511.891	35859.38
512.664	34451.38
513.437	33022.38
514.209	31577.38
514.982	30296.38
515.754	28960.38
516.526	27757.38
517.298	26459.38
518.071	25503.38
518.843	24414.38
519.615	23426.38
520.387	22492.38
521.159	21636.38
521.93	20717.38
522.702	19857.38
523.474	19041.38
524.245	18242.38
525.017	17575.38
525.788	16689.38
526.56	15850.38
527.331	15149.38
528.102	14420.38
528.873	13689.38
529.644	12974.38
530.415	12311.38
531.186	11657.38
531.957	11042.38
532.728	10429.38
533.498	9921.38
534.269	9349.38
535.039	8785.38
535.81	8332.38
536.58	7934.38
537.351	7454.38
538.121	7044.38
538.891	6653.38
539.661	6310.38
540.431	5995.38
541.201	5664.38
541.971	5381.38
542.741	5076.38
543.51	4798.38
544.28	4571.38
545.05	4356.38
545.819	4136.38
546.588	3932.38
547.358	3737.38
548.127	3545.38
548.896	3357.38
549.665	3206.38
550.434	3039.38
551.203	2873.38
551.972	2708.38
552.741	2580.38
553.51	2412.38
554.278	2282.38
555.047	2150.38
555.815	2037.38
556.584	1920.38
557.352	1813.38
558.121	1712.38
558.889	1602.38
559.657	1516.38
560.425	1429.38
561.193	1371.38
561.961	1280.38
562.729	1230.38
563.496	1158.38
564.264	1094.38
565.032	1037.38
565.799	986.38
566.567	932.38
567.334	884.38
568.101	825.38
568.869	782.38
569.636	738.38
570.403	701.38
571.17	660.38
571.937	628.38
572.704	576.38
573.471	562.38
574.237	525.38
575.004	490.38
575.771	463.38
576.537	433.38
577.303	411.38
578.07	388.38
578.836	363.38
579.602	340.38
580.368	325.38
581.134	311.38
581.9	295.38
582.666	275.38
583.432	267.38
584.198	249.38
584.964	236.38
585.729	226.38
586.495	218.38
587.26	208.38
588.025	194.38
588.791	187.38
589.556	179.38
590.321	165.38
591.086	156.38
591.851	154.38
592.616	138.38
593.381	136.38
594.146	128.38
594.911	122.38
595.675	121.38
596.44	116.38
597.204	107.38
597.969	101.38
598.733	101.38
599.497	94.38
600.261	92.38
601.025	85.38
601.79	84.38
602.553	81.38
603.317	72.38
604.081	73.38
604.845	74.38
605.609	66.38
606.372	66.38
607.136	61.38
607.899	59.38
608.662	61.38
609.426	54.38
610.189	53.38
610.952	52.38
611.715	51.38
612.478	48.38
613.241	44.38
614.004	45.38
614.767	40.38
615.529	40.38
616.292	38.38
617.055	40.38
617.817	36.38
618.579	38.38
619.342	30.38
620.104	37.38
620.866	34.38
621.628	33.38
622.39	30.38
623.152	29.38
623.914	28.38
624.676	29.38
625.438	26.38
626.199	25.38
626.961	24.38
627.722	24.38
628.484	22.38
629.245	24.38
630.006	23.38
630.768	22.38
631.529	20.38
632.29	22.38
633.051	21.38
633.812	18.38
634.573	21.38
635.333	15.38
636.094	16.38
636.855	16.38
637.615	16.38
638.376	16.38
639.136	17.38
639.896	17.38
640.657	15.38
641.417	16.38
642.177	12.38
642.937	15.38
643.697	15.38
644.457	13.38
645.216	16.38
645.976	14.38
646.736	14.38
647.495	12.38
648.255	13.38
649.014	13.38
649.774	11.38
650.533	13.38
651.292	12.38
652.051	10.38
652.81	10.38
653.569	10.38
654.328	12.38
655.087	8.38
655.846	12.38
656.604	11.38
657.363	9.38
658.121	9.38
658.88	9.38
659.638	10.38
660.397	9.38
661.155	9.38
661.913	9.38
662.671	8.38
663.429	8.38
664.187	12.38
664.945	9.38
665.703	8.38
666.46	7.38
667.218	6.38
667.976	8.38
668.733	7.38
669.49	8.38
670.248	9.38
671.005	7.38
671.762	9.38
672.519	6.38
673.276	6.38
674.033	7.38
674.79	6.38
675.547	8.38
676.304	7.38
677.06	6.38
677.817	5.38
678.574	8.38
679.33	6.38
680.086	8.38
680.843	6.38
681.599	7.38
682.355	8.38
683.111	8.38
683.867	5.38
684.623	6.38
685.379	5.38
686.135	6.38
686.89	6.38
687.646	8.38
688.402	8.38
689.157	7.38
689.912	6.38
690.668	6.38
691.423	7.38
692.178	2.38
692.933	8.38
693.688	6.38
694.443	8.38
695.198	8.38
695.953	6.38
696.708	6.38
697.462	5.38
698.217	9.38
698.972	6.38
699.726	7.38
700.48	6.38
701.235	6.38
701.989	6.38
702.743	6.38
703.497	8.38
704.251	7.38
705.005	7.38
705.759	4.38
706.513	5.38
707.266	4.38
708.02	6.38
708.774	6.38
709.527	5.38
710.28	6.38
711.034	5.38
711.787	6.38
712.54	6.38
713.293	4.38
714.046	8.38
714.799	5.38
715.552	6.38
716.305	4.38
717.058	7.38
717.81	7.38
718.563	6.38
719.315	6.38
720.068	5.38
720.82	8.38
721.573	7.38
722.325	6.38
723.077	6.38
723.829	6.38
724.581	5.38
725.333	6.38
726.085	7.38
726.836	6.38
727.588	6.38
728.34	6.38
729.091	8.38
729.843	8.38
730.594	8.38
731.346	6.38
732.097	8.38
732.848	6.38
733.599	9.38
734.35	8.38
735.101	10.38
735.852	5.38
736.603	10.38
737.354	6.38
738.104	8.38
738.855	9.38
739.605	6.38
740.356	11.38
741.106	9.38
741.856	7.38
742.607	8.38
743.357	10.38
744.107	8.38
744.857	8.38
745.607	9.38
746.357	8.38
747.106	8.38
747.856	9.38
748.606	8.38
749.355	8.38
750.105	10.38
750.854	10.38
751.603	11.38
752.353	11.38
753.102	10.38
753.851	10.38
754.6	11.38
755.349	8.38
756.098	11.38
756.847	12.38
757.595	12.38
758.344	11.38
759.093	8.38
759.841	12.38
760.589	10.38
761.338	13.38
762.086	11.38
762.834	14.38
763.582	12.38
764.331	12.38
765.079	11.38
765.826	10.38
766.574	11.38
767.322	13.38
768.07	12.38
768.817	9.38
769.565	13.38
770.312	12.38
771.06	12.38
771.807	13.38
772.554	13.38
773.302	13.38
774.049	15.38
774.796	12.38
775.543	13.38
776.29	14.38
777.036	13.38
777.783	13.38
778.53	13.38
779.276	13.38
780.023	16.38
780.769	14.38
781.516	14.38
782.262	14.38
783.008	13.38
783.754	13.38
784.5	14.38
785.246	13.38
785.992	13.38
786.738	15.38
787.484	12.38
788.23	13.38
788.975	11.38
789.721	12.38
790.466	16.38
791.212	14.38
791.957	16.38
792.702	12.38
793.447	12.38
794.193	13.38
794.938	11.38
795.683	12.38
796.427	13.38
797.172	11.38
797.917	12.38
798.662	10.38
799.406	11.38
800.151	11.38
800.895	11.38
801.64	9.38
802.384	11.38
803.128	10.38
803.872	7.38
804.616	10.38
805.36	8.38
806.104	10.38
806.848	9.38
807.592	12.38
808.336	9.38
809.079	8.38
809.823	7.38
810.566	9.38
811.31	9.38
812.053	8.38
812.796	8.38
813.539	7.38
814.283	7.38
815.026	8.38
815.769	4.38
816.511	7.38
817.254	6.38
817.997	6.38
818.74	7.38
819.482	5.38
820.225	8.38
820.967	5.38
821.71	6.38
822.452	4.38
823.194	8.38
823.936	6.38
824.678	7.38
825.42	6.38
826.162	6.38
826.904	4.38
827.646	4.38
828.388	4.38
829.129	6.38
829.871	3.38
830.612	5.38
831.354	6.38
832.095	6.38
832.836	7.38
833.577	4.38
834.319	4.38
835.06	4.38
835.801	4.38
836.542	3.38
837.282	5.38
838.023	4.38
838.764	4.38
839.504	4.38
840.245	3.38
840.985	4.38
841.726	5.38
842.466	6.38
843.206	4.38
843.946	3.38
844.687	3.38
845.427	6.38
846.166	3.38
846.906	4.38
847.646	5.38
848.386	4.38
849.125	6.38
849.865	4.38
850.605	3.38
851.344	3.38
852.083	6.38
852.823	4.38
853.562	1.38
854.301	4.38
855.04	3.38
855.779	4.38
856.518	3.38
857.257	4.38
857.995	1.38
858.734	3.38
859.473	4.38
860.211	3.38
860.95	0.38
861.688	1.38
862.426	1.38
863.165	4.38
863.903	0.38
864.641	2.38
865.379	3.38
866.117	2.38
866.855	3.38
867.593	2.38
868.33	4.38
869.068	3.38
869.806	1.38
870.543	4.38
871.28	2.38
872.018	3.38
872.755	1.38
873.492	3.38
874.229	-1.62
874.967	2.38
875.703	3.38
876.44	2.38
877.177	2.38
877.914	0.38
878.651	1.38
879.387	1.38
880.124	4.38
880.86	3.38
881.597	2.38
882.333	0.38
883.069	-0.62
883.806	-0.62
884.542	0.38
885.278	2.38
886.014	1.38
886.749	1.38
887.485	-0.62
888.221	-0.62
888.957	-1.62
889.692	-0.62
890.428	0.38
891.163	1.38
891.899	-0.62
892.634	0.38
893.369	1.38
894.104	1.38
894.839	2.38
895.574	1.38
896.309	0.38
897.044	2.38
897.779	1.38
898.514	-1.62
899.248	1.38
899.983	0.38
900.717	2.38
901.452	0.38
902.186	0.38
902.92	0.38
903.654	1.38
904.389	0.38
905.123	0.38
905.857	0.38
906.59	0.38
907.324	3.38
908.058	1.38
908.792	-0.62
909.525	2.38
910.259	0.38
910.992	1.38
911.726	2.38
912.459	0.38
913.192	0.38
913.925	1.38
914.658	-0.62
915.391	0.38
916.124	-0.62
916.857	-0.62
917.59	0.38
918.323	1.38
919.055	0.38
919.788	0.38
920.521	1.38
921.253	0.38
921.985	1.38
922.718	-0.62
923.45	-0.62
924.182	-0.62
924.914	0.38
925.646	0.38
926.378	1.38
927.11	-1.62
927.841	0.38
928.573	0.38
929.305	0.38
930.036	0.38
930.768	-0.62
931.499	0.38
932.23	-0.62
932.962	-0.62
933.693	0.38
934.424	-1.62
935.155	1.38
935.886	0.38
936.617	2.38
937.348	-2.62
938.078	0.38
938.809	3.38
939.54	-0.62
940.27	1.38
941.001	0.38
941.731	1.38
942.461	1.38
943.191	2.38
943.922	0.38
944.652	0.38
945.382	1.38
946.112	-2.62
946.841	1.38
947.571	1.38
948.301	-0.62
949.031	-0.62
949.76	-0.62
950.49	0.38
951.219	0.38
951.948	0.38
952.678	1.38
953.407	-0.62
954.136	1.38
954.865	0.38
955.594	0.38
956.323	0.38
957.052	0.38
957.78	1.38
958.509	1.38
959.238	-0.62
959.966	1.38
960.695	-1.62
961.423	1.38
962.151	1.38
962.88	-0.62
963.608	0.38
964.336	1.38
965.064	1.38
965.792	0.38
966.52	-1.62
967.247	0.38
967.975	0.38
968.703	1.38
969.43	0.38
970.158	0.38
970.885	0.38
971.613	-1.62
972.34	0.38
973.067	1.38
973.794	0.38
974.521	0.38
975.248	0.38
975.975	0.38
976.702	-2.62
977.429	-1.62
978.156	-1.62
978.882	1.38
979.609	0.38
980.335	2.38
981.062	-2.62
981.788	0.38
982.514	0.38
983.24	-0.62
983.967	-0.62
984.693	0.38
985.419	-1.62
986.144	-0.62
986.87	0.38
987.596	-1.62
988.322	-1.62
989.047	1.38
989.773	2.38
990.498	0.38
991.224	-0.62
991.949	-0.62
992.674	0.38
993.399	1.38
994.124	-0.62
994.849	0.38
995.574	0.38
996.299	0.38
997.024	-0.62
997.749	1.38
998.473	0.38
999.198	-0.62
999.922	0.38
1000.647	-0.62
1001.371	2.38
1002.095	0.38
1002.82	-1.62
1003.544	-2.62
1004.268	3.38
1004.992	4.38
1005.716	1.38
1006.439	2.38
1007.163	4.38
1007.887	4.38
1008.611	0.38
1009.334	-1.62
1010.058	0.38
1010.781	0.38
1011.504	-0.62
1012.228	0.38
1012.951	0.38
1013.674	-0.62
1014.397	0.38
1015.12	1.38
