节点500_565_QEPB04081__582__10-00-05-983.txt的数据

Date: Thu Nov 13 10:00:05 CST 2025
User: PC
Spectrometer: QEPB0408
触发模式: 0
积分时间 (秒): 1.000000E-2
Scans to average: 1
启用暗噪声校正: true
启用非线性校正: false
滑动平均宽度: 0
X轴模式: Wavelengths
Number of Pixels in Spectrum: 1044
>>>>>Begin Spectral Data<<<<<
220.843	1.75
221.644	1.75
222.444	5.75
223.244	3.75
224.045	4.75
224.845	4.75
225.645	3.75
226.445	6.75
227.245	5.75
228.045	4.75
228.845	4.75
229.645	3.75
230.444	7.75
231.244	6.75
232.043	3.75
232.843	8.75
233.642	8.75
234.442	7.75
235.241	6.75
236.04	8.75
236.839	8.75
237.638	6.75
238.437	4.75
239.236	6.75
240.035	8.75
240.833	6.75
241.632	8.75
242.43	7.75
243.229	8.75
244.027	9.75
244.826	9.75
245.624	9.75
246.422	7.75
247.22	13.75
248.018	8.75
248.816	11.75
249.614	11.75
250.412	11.75
251.21	11.75
252.007	10.75
252.805	12.75
253.602	11.75
254.4	12.75
255.197	15.75
255.994	10.75
256.791	14.75
257.589	15.75
258.386	18.75
259.183	16.75
259.979	16.75
260.776	16.75
261.573	17.75
262.37	16.75
263.166	17.75
263.963	19.75
264.759	17.75
265.556	20.75
266.352	20.75
267.148	20.75
267.944	19.75
268.74	20.75
269.536	20.75
270.332	22.75
271.128	19.75
271.924	23.75
272.719	21.75
273.515	22.75
274.311	22.75
275.106	25.75
275.901	24.75
276.697	24.75
277.492	21.75
278.287	28.75
279.082	24.75
279.877	24.75
280.672	25.75
281.467	23.75
282.262	28.75
283.056	26.75
283.851	27.75
284.646	29.75
285.44	24.75
286.234	26.75
287.029	24.75
287.823	27.75
288.617	24.75
289.411	25.75
290.205	26.75
290.999	22.75
291.793	27.75
292.587	26.75
293.381	25.75
294.174	24.75
294.968	22.75
295.761	22.75
296.555	24.75
297.348	22.75
298.141	19.75
298.935	25.75
299.728	22.75
300.521	19.75
301.314	21.75
302.107	20.75
302.899	18.75
303.692	18.75
304.485	18.75
305.277	18.75
306.07	20.75
306.862	17.75
307.655	20.75
308.447	18.75
309.239	16.75
310.031	16.75
310.823	15.75
311.615	16.75
312.407	13.75
313.199	16.75
313.991	15.75
314.783	14.75
315.574	12.75
316.366	14.75
317.157	13.75
317.949	12.75
318.74	13.75
319.531	14.75
320.322	10.75
321.113	9.75
321.904	10.75
322.695	9.75
323.486	11.75
324.277	13.75
325.068	12.75
325.858	9.75
326.649	12.75
327.439	10.75
328.23	10.75
329.02	9.75
329.81	8.75
330.6	10.75
331.391	12.75
332.181	8.75
332.971	11.75
333.76	8.75
334.55	9.75
335.34	11.75
336.13	8.75
336.919	9.75
337.709	9.75
338.498	6.75
339.287	12.75
340.077	9.75
340.866	9.75
341.655	11.75
342.444	10.75
343.233	8.75
344.022	7.75
344.811	7.75
345.6	8.75
346.388	9.75
347.177	10.75
347.965	6.75
348.754	8.75
349.542	10.75
350.33	9.75
351.119	8.75
351.907	8.75
352.695	7.75
353.483	8.75
354.271	9.75
355.059	9.75
355.846	7.75
356.634	8.75
357.422	8.75
358.209	8.75
358.997	8.75
359.784	8.75
360.571	8.75
361.359	9.75
362.146	7.75
362.933	10.75
363.72	7.75
364.507	7.75
365.294	7.75
366.081	10.75
366.867	8.75
367.654	6.75
368.44	9.75
369.227	4.75
370.013	7.75
370.8	5.75
371.586	10.75
372.372	8.75
373.158	8.75
373.944	6.75
374.73	6.75
375.516	6.75
376.302	7.75
377.088	6.75
377.873	9.75
378.659	9.75
379.445	6.75
380.23	8.75
381.015	10.75
381.801	6.75
382.586	7.75
383.371	7.75
384.156	6.75
384.941	6.75
385.726	8.75
386.511	6.75
387.296	7.75
388.08	8.75
388.865	8.75
389.649	8.75
390.434	9.75
391.218	8.75
392.003	8.75
392.787	8.75
393.571	9.75
394.355	7.75
395.139	12.75
395.923	9.75
396.707	8.75
397.491	11.75
398.274	9.75
399.058	10.75
399.842	8.75
400.625	13.75
401.408	11.75
402.192	11.75
402.975	11.75
403.758	9.75
404.541	8.75
405.324	11.75
406.107	12.75
406.89	9.75
407.673	14.75
408.456	12.75
409.238	12.75
410.021	10.75
410.803	11.75
411.586	12.75
412.368	15.75
413.151	12.75
413.933	13.75
414.715	11.75
415.497	13.75
416.279	12.75
417.061	13.75
417.843	16.75
418.624	15.75
419.406	16.75
420.188	14.75
420.969	14.75
421.751	16.75
422.532	16.75
423.313	15.75
424.095	17.75
424.876	20.75
425.657	17.75
426.438	19.75
427.219	18.75
428	22.75
428.78	22.75
429.561	21.75
430.342	25.75
431.122	27.75
431.903	28.75
432.683	27.75
433.464	29.75
434.244	29.75
435.024	28.75
435.804	33.75
436.584	32.75
437.364	38.75
438.144	36.75
438.924	37.75
439.704	42.75
440.483	45.75
441.263	49.75
442.042	50.75
442.822	55.75
443.601	60.75
444.38	64.75
445.16	68.75
445.939	74.75
446.718	84.75
447.497	89.75
448.276	99.75
449.054	105.75
449.833	117.75
450.612	124.75
451.391	144.75
452.169	157.75
452.948	178.75
453.726	191.75
454.504	214.75
455.282	240.75
456.061	264.75
456.839	292.75
457.617	328.75
458.395	365.75
459.172	403.75
459.95	452.75
460.728	490.75
461.506	552.75
462.283	615.75
463.061	687.75
463.838	763.75
464.615	847.75
465.393	930.75
466.17	1044.75
466.947	1142.75
467.724	1284.75
468.501	1402.75
469.278	1574.75
470.055	1720.75
470.831	1887.75
471.608	2088.75
472.385	2296.75
473.161	2534.75
473.938	2777.75
474.714	3031.75
475.49	3304.75
476.266	3636.75
477.043	3975.75
477.819	4308.75
478.595	4713.75
479.371	5101.75
480.146	5542.75
480.922	6062.75
481.698	6580.75
482.473	7106.75
483.249	7693.75
484.024	8347.75
484.8	9055.75
485.575	9805.75
486.35	10567.75
487.126	11491.75
487.901	12325.75
488.676	13301.75
489.451	14351.75
490.225	15410.75
491	16599.75
491.775	17708.75
492.55	18968.75
493.324	20335.75
494.099	21658.75
494.873	23026.75
495.647	24467.75
496.422	25834.75
497.196	27234.75
497.97	28672.75
498.744	30080.75
499.518	31415.75
500.292	32628.75
501.066	33833.75
501.839	34836.75
502.613	35799.75
503.387	36624.75
504.16	37259.75
504.934	37757.75
505.707	38145.75
506.48	38287.75
507.253	38285.75
508.027	37952.75
508.8	37576.75
509.573	36998.75
510.346	36329.75
511.118	35425.75
511.891	34847.75
512.664	33778.75
513.437	32727.75
514.209	31597.75
514.982	30589.75
515.754	29528.75
516.526	28348.75
517.298	27296.75
518.071	26158.75
518.843	25094.75
519.615	24111.75
520.387	23159.75
521.159	22262.75
521.93	21397.75
522.702	20524.75
523.474	19647.75
524.245	18894.75
525.017	18170.75
525.788	17422.75
526.56	16695.75
527.331	15944.75
528.102	15251.75
528.873	14625.75
529.644	13826.75
530.415	13232.75
531.186	12551.75
531.957	12010.75
532.728	11414.75
533.498	10812.75
534.269	10248.75
535.039	9735.75
535.81	9213.75
536.58	8716.75
537.351	8242.75
538.121	7849.75
538.891	7452.75
539.661	7032.75
540.431	6659.75
541.201	6288.75
541.971	5974.75
542.741	5664.75
543.51	5308.75
544.28	5109.75
545.05	4815.75
545.819	4583.75
546.588	4385.75
547.358	4179.75
548.127	3967.75
548.896	3774.75
549.665	3586.75
550.434	3416.75
551.203	3225.75
551.972	3051.75
552.741	2905.75
553.51	2752.75
554.278	2606.75
555.047	2455.75
555.815	2335.75
556.584	2206.75
557.352	2100.75
558.121	1963.75
558.889	1858.75
559.657	1762.75
560.425	1662.75
561.193	1566.75
561.961	1484.75
562.729	1421.75
563.496	1326.75
564.264	1247.75
565.032	1197.75
565.799	1145.75
566.567	1067.75
567.334	999.75
568.101	968.75
568.869	890.75
569.636	842.75
570.403	801.75
571.17	753.75
571.937	719.75
572.704	679.75
573.471	640.75
574.237	600.75
575.004	569.75
575.771	533.75
576.537	499.75
577.303	479.75
578.07	452.75
578.836	420.75
579.602	402.75
580.368	374.75
581.134	359.75
581.9	337.75
582.666	327.75
583.432	306.75
584.198	295.75
584.964	281.75
585.729	264.75
586.495	242.75
587.26	229.75
588.025	216.75
588.791	210.75
589.556	202.75
590.321	196.75
591.086	179.75
591.851	172.75
592.616	164.75
593.381	158.75
594.146	144.75
594.911	140.75
595.675	130.75
596.44	127.75
597.204	120.75
597.969	114.75
598.733	109.75
599.497	106.75
600.261	105.75
601.025	98.75
601.79	90.75
602.553	90.75
603.317	87.75
604.081	82.75
604.845	78.75
605.609	74.75
606.372	70.75
607.136	69.75
607.899	69.75
608.662	62.75
609.426	63.75
610.189	59.75
610.952	55.75
611.715	54.75
612.478	54.75
613.241	51.75
614.004	46.75
614.767	47.75
615.529	42.75
616.292	42.75
617.055	43.75
617.817	39.75
618.579	38.75
619.342	40.75
620.104	38.75
620.866	36.75
621.628	34.75
622.39	34.75
623.152	29.75
623.914	31.75
624.676	29.75
625.438	30.75
626.199	30.75
626.961	28.75
627.722	26.75
628.484	23.75
629.245	24.75
630.006	24.75
630.768	24.75
631.529	21.75
632.29	22.75
633.051	21.75
633.812	18.75
634.573	19.75
635.333	20.75
636.094	18.75
636.855	19.75
637.615	16.75
638.376	17.75
639.136	18.75
639.896	16.75
640.657	16.75
641.417	15.75
642.177	14.75
642.937	16.75
643.697	16.75
644.457	14.75
645.216	15.75
645.976	11.75
646.736	15.75
647.495	12.75
648.255	12.75
649.014	11.75
649.774	13.75
650.533	12.75
651.292	11.75
652.051	12.75
652.81	8.75
653.569	10.75
654.328	9.75
655.087	9.75
655.846	11.75
656.604	8.75
657.363	8.75
658.121	9.75
658.88	11.75
659.638	8.75
660.397	10.75
661.155	9.75
661.913	7.75
662.671	9.75
663.429	9.75
664.187	8.75
664.945	7.75
665.703	11.75
666.46	8.75
667.218	8.75
667.976	9.75
668.733	8.75
669.49	8.75
670.248	6.75
671.005	8.75
671.762	7.75
672.519	5.75
673.276	9.75
674.033	8.75
674.79	8.75
675.547	6.75
676.304	7.75
677.06	6.75
677.817	5.75
678.574	6.75
679.33	4.75
680.086	6.75
680.843	6.75
681.599	8.75
682.355	6.75
683.111	6.75
683.867	7.75
684.623	6.75
685.379	6.75
686.135	5.75
686.89	6.75
687.646	5.75
688.402	5.75
689.157	8.75
689.912	5.75
690.668	6.75
691.423	7.75
692.178	6.75
692.933	6.75
693.688	5.75
694.443	5.75
695.198	6.75
695.953	5.75
696.708	4.75
697.462	8.75
698.217	2.75
698.972	6.75
699.726	7.75
700.48	4.75
701.235	6.75
701.989	4.75
702.743	5.75
703.497	3.75
704.251	5.75
705.005	5.75
705.759	5.75
706.513	4.75
707.266	6.75
708.02	3.75
708.774	4.75
709.527	6.75
710.28	3.75
711.034	4.75
711.787	3.75
712.54	4.75
713.293	5.75
714.046	4.75
714.799	6.75
715.552	7.75
716.305	6.75
717.058	5.75
717.81	5.75
718.563	5.75
719.315	6.75
720.068	7.75
720.82	5.75
721.573	5.75
722.325	6.75
723.077	4.75
723.829	8.75
724.581	6.75
725.333	8.75
726.085	5.75
726.836	5.75
727.588	8.75
728.34	6.75
729.091	7.75
729.843	6.75
730.594	5.75
731.346	7.75
732.097	6.75
732.848	5.75
733.599	6.75
734.35	8.75
735.101	6.75
735.852	8.75
736.603	6.75
737.354	4.75
738.104	8.75
738.855	6.75
739.605	9.75
740.356	7.75
741.106	8.75
741.856	5.75
742.607	7.75
743.357	6.75
744.107	7.75
744.857	7.75
745.607	6.75
746.357	9.75
747.106	5.75
747.856	7.75
748.606	7.75
749.355	9.75
750.105	7.75
750.854	8.75
751.603	6.75
752.353	9.75
753.102	9.75
753.851	8.75
754.6	6.75
755.349	6.75
756.098	6.75
756.847	8.75
757.595	7.75
758.344	9.75
759.093	9.75
759.841	9.75
760.589	11.75
761.338	8.75
762.086	9.75
762.834	9.75
763.582	9.75
764.331	10.75
765.079	11.75
765.826	9.75
766.574	11.75
767.322	10.75
768.07	9.75
768.817	10.75
769.565	9.75
770.312	9.75
771.06	8.75
771.807	9.75
772.554	12.75
773.302	10.75
774.049	11.75
774.796	8.75
775.543	12.75
776.29	10.75
777.036	11.75
777.783	11.75
778.53	12.75
779.276	10.75
780.023	12.75
780.769	12.75
781.516	11.75
782.262	11.75
783.008	10.75
783.754	12.75
784.5	10.75
785.246	11.75
785.992	12.75
786.738	13.75
787.484	10.75
788.23	13.75
788.975	10.75
789.721	14.75
790.466	11.75
791.212	12.75
791.957	9.75
792.702	8.75
793.447	10.75
794.193	12.75
794.938	12.75
795.683	12.75
796.427	12.75
797.172	10.75
797.917	10.75
798.662	11.75
799.406	11.75
800.151	10.75
800.895	9.75
801.64	10.75
802.384	10.75
803.128	9.75
803.872	12.75
804.616	10.75
805.36	10.75
806.104	8.75
806.848	8.75
807.592	8.75
808.336	6.75
809.079	9.75
809.823	6.75
810.566	8.75
811.31	8.75
812.053	10.75
812.796	5.75
813.539	9.75
814.283	6.75
815.026	8.75
815.769	7.75
816.511	5.75
817.254	5.75
817.997	6.75
818.74	5.75
819.482	8.75
820.225	5.75
820.967	7.75
821.71	4.75
822.452	6.75
823.194	4.75
823.936	8.75
824.678	5.75
825.42	5.75
826.162	5.75
826.904	5.75
827.646	5.75
828.388	6.75
829.129	4.75
829.871	3.75
830.612	6.75
831.354	6.75
832.095	4.75
832.836	7.75
833.577	4.75
834.319	4.75
835.06	6.75
835.801	6.75
836.542	3.75
837.282	5.75
838.023	2.75
838.764	4.75
839.504	6.75
840.245	3.75
840.985	6.75
841.726	5.75
842.466	6.75
843.206	5.75
843.946	2.75
844.687	6.75
845.427	4.75
846.166	4.75
846.906	5.75
847.646	4.75
848.386	4.75
849.125	5.75
849.865	4.75
850.605	1.75
851.344	4.75
852.083	5.75
852.823	3.75
853.562	4.75
854.301	4.75
855.04	4.75
855.779	2.75
856.518	5.75
857.257	3.75
857.995	5.75
858.734	3.75
859.473	5.75
860.211	3.75
860.95	2.75
861.688	2.75
862.426	4.75
863.165	3.75
863.903	1.75
864.641	3.75
865.379	2.75
866.117	0.75
866.855	1.75
867.593	1.75
868.33	1.75
869.068	2.75
869.806	3.75
870.543	1.75
871.28	2.75
872.018	2.75
872.755	1.75
873.492	2.75
874.229	1.75
874.967	0.75
875.703	0.75
876.44	1.75
877.177	4.75
877.914	-0.25
878.651	1.75
879.387	2.75
880.124	1.75
880.86	2.75
881.597	0.75
882.333	0.75
883.069	-0.25
883.806	2.75
884.542	1.75
885.278	1.75
886.014	2.75
886.749	0.75
887.485	3.75
888.221	0.75
888.957	1.75
889.692	1.75
890.428	4.75
891.163	1.75
891.899	0.75
892.634	2.75
893.369	2.75
894.104	0.75
894.839	1.75
895.574	2.75
896.309	2.75
897.044	0.75
897.779	-0.25
898.514	0.75
899.248	2.75
899.983	2.75
900.717	0.75
901.452	-1.25
902.186	1.75
902.92	-1.25
903.654	0.75
904.389	0.75
905.123	-2.25
905.857	0.75
906.59	2.75
907.324	0.75
908.058	0.75
908.792	0.75
909.525	0.75
910.259	-1.25
910.992	0.75
911.726	1.75
912.459	-0.25
913.192	-1.25
913.925	-0.25
914.658	1.75
915.391	0.75
916.124	0.75
916.857	0.75
917.59	1.75
918.323	0.75
919.055	-0.25
919.788	-0.25
920.521	0.75
921.253	1.75
921.985	-1.25
922.718	0.75
923.45	-0.25
924.182	-1.25
924.914	-0.25
925.646	-2.25
926.378	0.75
927.11	-1.25
927.841	1.75
928.573	1.75
929.305	0.75
930.036	-0.25
930.768	-0.25
931.499	0.75
932.23	-0.25
932.962	1.75
933.693	0.75
934.424	0.75
935.155	1.75
935.886	-0.25
936.617	1.75
937.348	-0.25
938.078	-0.25
938.809	2.75
939.54	-1.25
940.27	0.75
941.001	-0.25
941.731	-0.25
942.461	0.75
943.191	0.75
943.922	-1.25
944.652	2.75
945.382	0.75
946.112	-0.25
946.841	-0.25
947.571	-1.25
948.301	-0.25
949.031	-0.25
949.76	0.75
950.49	2.75
951.219	0.75
951.948	0.75
952.678	-1.25
953.407	0.75
954.136	0.75
954.865	0.75
955.594	1.75
956.323	-1.25
957.052	-1.25
957.78	-2.25
958.509	0.75
959.238	-0.25
959.966	0.75
960.695	1.75
961.423	0.75
962.151	-0.25
962.88	1.75
963.608	0.75
964.336	0.75
965.064	-0.25
965.792	0.75
966.52	-0.25
967.247	0.75
967.975	0.75
968.703	0.75
969.43	-2.25
970.158	0.75
970.885	1.75
971.613	1.75
972.34	-0.25
973.067	-1.25
973.794	-0.25
974.521	1.75
975.248	0.75
975.975	0.75
976.702	0.75
977.429	0.75
978.156	0.75
978.882	-0.25
979.609	-2.25
980.335	1.75
981.062	-0.25
981.788	0.75
982.514	1.75
983.24	0.75
983.967	0.75
984.693	1.75
985.419	-0.25
986.144	1.75
986.87	0.75
987.596	0.75
988.322	1.75
989.047	1.75
989.773	0.75
990.498	0.75
991.224	-0.25
991.949	1.75
992.674	0.75
993.399	0.75
994.124	-0.25
994.849	-0.25
995.574	-0.25
996.299	2.75
997.024	0.75
997.749	-0.25
998.473	0.75
999.198	-1.25
999.922	0.75
1000.647	0.75
1001.371	1.75
1002.095	-0.25
1002.82	-1.25
1003.544	-1.25
1004.268	2.75
1004.992	1.75
1005.716	2.75
1006.439	4.75
1007.163	3.75
1007.887	5.75
1008.611	-0.25
1009.334	0.75
1010.058	-0.25
1010.781	0.75
1011.504	-1.25
1012.228	1.75
1012.951	1.75
1013.674	-1.25
1014.397	0.75
1015.12	-0.25
