节点500_565_QEPB04081__233__09-54-17-739.txt的数据

Date: Thu Nov 13 09:54:17 CST 2025
User: PC
Spectrometer: QEPB0408
触发模式: 0
积分时间 (秒): 1.000000E-2
Scans to average: 1
启用暗噪声校正: true
启用非线性校正: false
滑动平均宽度: 0
X轴模式: Wavelengths
Number of Pixels in Spectrum: 1044
>>>>>Begin Spectral Data<<<<<
220.843	6.5
221.644	4.5
222.444	4.5
223.244	7.5
224.045	5.5
224.845	8.5
225.645	6.5
226.445	2.5
227.245	6.5
228.045	5.5
228.845	6.5
229.645	5.5
230.444	7.5
231.244	6.5
232.043	9.5
232.843	7.5
233.642	9.5
234.442	8.5
235.241	9.5
236.04	6.5
236.839	8.5
237.638	8.5
238.437	9.5
239.236	7.5
240.035	5.5
240.833	9.5
241.632	8.5
242.43	11.5
243.229	10.5
244.027	11.5
244.826	11.5
245.624	10.5
246.422	10.5
247.22	12.5
248.018	13.5
248.816	10.5
249.614	12.5
250.412	12.5
251.21	12.5
252.007	16.5
252.805	14.5
253.602	16.5
254.4	17.5
255.197	16.5
255.994	17.5
256.791	16.5
257.589	17.5
258.386	16.5
259.183	18.5
259.979	18.5
260.776	21.5
261.573	18.5
262.37	21.5
263.166	21.5
263.963	21.5
264.759	23.5
265.556	25.5
266.352	25.5
267.148	23.5
267.944	25.5
268.74	23.5
269.536	23.5
270.332	25.5
271.128	31.5
271.924	25.5
272.719	26.5
273.515	29.5
274.311	27.5
275.106	29.5
275.901	31.5
276.697	24.5
277.492	28.5
278.287	28.5
279.082	33.5
279.877	30.5
280.672	28.5
281.467	29.5
282.262	31.5
283.056	33.5
283.851	28.5
284.646	33.5
285.44	29.5
286.234	29.5
287.029	32.5
287.823	29.5
288.617	30.5
289.411	29.5
290.205	29.5
290.999	28.5
291.793	28.5
292.587	27.5
293.381	28.5
294.174	25.5
294.968	28.5
295.761	24.5
296.555	24.5
297.348	23.5
298.141	22.5
298.935	21.5
299.728	26.5
300.521	25.5
301.314	22.5
302.107	20.5
302.899	19.5
303.692	18.5
304.485	19.5
305.277	20.5
306.07	14.5
306.862	18.5
307.655	19.5
308.447	18.5
309.239	18.5
310.031	16.5
310.823	16.5
311.615	13.5
312.407	17.5
313.199	15.5
313.991	17.5
314.783	15.5
315.574	15.5
316.366	12.5
317.157	10.5
317.949	13.5
318.74	11.5
319.531	14.5
320.322	15.5
321.113	10.5
321.904	12.5
322.695	13.5
323.486	14.5
324.277	11.5
325.068	11.5
325.858	10.5
326.649	15.5
327.439	11.5
328.23	9.5
329.02	10.5
329.81	12.5
330.6	11.5
331.391	12.5
332.181	11.5
332.971	13.5
333.76	10.5
334.55	12.5
335.34	10.5
336.13	11.5
336.919	10.5
337.709	8.5
338.498	12.5
339.287	9.5
340.077	10.5
340.866	10.5
341.655	10.5
342.444	12.5
343.233	10.5
344.022	10.5
344.811	10.5
345.6	10.5
346.388	9.5
347.177	9.5
347.965	8.5
348.754	9.5
349.542	12.5
350.33	9.5
351.119	10.5
351.907	11.5
352.695	10.5
353.483	7.5
354.271	10.5
355.059	9.5
355.846	7.5
356.634	11.5
357.422	9.5
358.209	11.5
358.997	8.5
359.784	9.5
360.571	7.5
361.359	10.5
362.146	8.5
362.933	9.5
363.72	9.5
364.507	7.5
365.294	10.5
366.081	11.5
366.867	7.5
367.654	9.5
368.44	8.5
369.227	9.5
370.013	10.5
370.8	9.5
371.586	9.5
372.372	7.5
373.158	10.5
373.944	8.5
374.73	9.5
375.516	9.5
376.302	11.5
377.088	9.5
377.873	9.5
378.659	8.5
379.445	10.5
380.23	9.5
381.015	8.5
381.801	9.5
382.586	8.5
383.371	9.5
384.156	10.5
384.941	9.5
385.726	11.5
386.511	10.5
387.296	10.5
388.08	9.5
388.865	8.5
389.649	9.5
390.434	9.5
391.218	9.5
392.003	8.5
392.787	9.5
393.571	10.5
394.355	8.5
395.139	8.5
395.923	9.5
396.707	12.5
397.491	11.5
398.274	11.5
399.058	13.5
399.842	11.5
400.625	14.5
401.408	13.5
402.192	12.5
402.975	10.5
403.758	13.5
404.541	12.5
405.324	12.5
406.107	15.5
406.89	14.5
407.673	15.5
408.456	14.5
409.238	14.5
410.021	14.5
410.803	16.5
411.586	13.5
412.368	14.5
413.151	17.5
413.933	15.5
414.715	18.5
415.497	17.5
416.279	16.5
417.061	16.5
417.843	18.5
418.624	18.5
419.406	18.5
420.188	18.5
420.969	17.5
421.751	17.5
422.532	19.5
423.313	19.5
424.095	21.5
424.876	20.5
425.657	20.5
426.438	24.5
427.219	20.5
428	21.5
428.78	23.5
429.561	26.5
430.342	25.5
431.122	25.5
431.903	26.5
432.683	26.5
433.464	27.5
434.244	31.5
435.024	34.5
435.804	33.5
436.584	35.5
437.364	36.5
438.144	36.5
438.924	37.5
439.704	41.5
440.483	43.5
441.263	46.5
442.042	51.5
442.822	54.5
443.601	59.5
444.38	63.5
445.16	65.5
445.939	69.5
446.718	75.5
447.497	81.5
448.276	95.5
449.054	100.5
449.833	112.5
450.612	118.5
451.391	130.5
452.169	140.5
452.948	156.5
453.726	172.5
454.504	197.5
455.282	221.5
456.061	242.5
456.839	268.5
457.617	295.5
458.395	331.5
459.172	363.5
459.95	406.5
460.728	458.5
461.506	507.5
462.283	574.5
463.061	645.5
463.838	716.5
464.615	782.5
465.393	892.5
466.17	981.5
466.947	1103.5
467.724	1225.5
468.501	1366.5
469.278	1527.5
470.055	1681.5
470.831	1864.5
471.608	2059.5
472.385	2282.5
473.161	2517.5
473.938	2776.5
474.714	3069.5
475.49	3370.5
476.266	3719.5
477.043	4099.5
477.819	4497.5
478.595	4950.5
479.371	5409.5
480.146	5944.5
480.922	6493.5
481.698	7103.5
482.473	7741.5
483.249	8448.5
484.024	9243.5
484.8	10084.5
485.575	10981.5
486.35	11952.5
487.126	12979.5
487.901	14119.5
488.676	15287.5
489.451	16620.5
490.225	17932.5
491	19368.5
491.775	20823.5
492.55	22334.5
493.324	23930.5
494.099	25545.5
494.873	27188.5
495.647	28890.5
496.422	30656.5
497.196	32229.5
497.97	33788.5
498.744	35355.5
499.518	36710.5
500.292	38027.5
501.066	39151.5
501.839	40186.5
502.613	40978.5
503.387	41571.5
504.16	42046.5
504.934	42236.5
505.707	42283.5
506.48	42036.5
507.253	41535.5
508.027	40834.5
508.8	40008.5
509.573	39045.5
510.346	38021.5
511.118	36854.5
511.891	35760.5
512.664	34483.5
513.437	33120.5
514.209	31786.5
514.982	30505.5
515.754	29335.5
516.526	28061.5
517.298	26857.5
518.071	25780.5
518.843	24691.5
519.615	23719.5
520.387	22732.5
521.159	21941.5
521.93	21005.5
522.702	20085.5
523.474	19342.5
524.245	18499.5
525.017	17779.5
525.788	17000.5
526.56	16194.5
527.331	15465.5
528.102	14720.5
528.873	14000.5
529.644	13289.5
530.415	12623.5
531.186	11985.5
531.957	11355.5
532.728	10774.5
533.498	10250.5
534.269	9638.5
535.039	9109.5
535.81	8645.5
536.58	8206.5
537.351	7737.5
538.121	7265.5
538.891	6908.5
539.661	6526.5
540.431	6194.5
541.201	5868.5
541.971	5582.5
542.741	5296.5
543.51	4956.5
544.28	4726.5
545.05	4527.5
545.819	4311.5
546.588	4061.5
547.358	3891.5
548.127	3661.5
548.896	3501.5
549.665	3324.5
550.434	3167.5
551.203	2987.5
551.972	2832.5
552.741	2685.5
553.51	2524.5
554.278	2387.5
555.047	2248.5
555.815	2121.5
556.584	2020.5
557.352	1904.5
558.121	1813.5
558.889	1685.5
559.657	1611.5
560.425	1509.5
561.193	1422.5
561.961	1354.5
562.729	1287.5
563.496	1202.5
564.264	1142.5
565.032	1095.5
565.799	1028.5
566.567	977.5
567.334	926.5
568.101	864.5
568.869	823.5
569.636	770.5
570.403	727.5
571.17	685.5
571.937	647.5
572.704	624.5
573.471	563.5
574.237	546.5
575.004	521.5
575.771	483.5
576.537	459.5
577.303	429.5
578.07	407.5
578.836	384.5
579.602	364.5
580.368	344.5
581.134	328.5
581.9	312.5
582.666	296.5
583.432	285.5
584.198	261.5
584.964	259.5
585.729	236.5
586.495	227.5
587.26	214.5
588.025	200.5
588.791	192.5
589.556	179.5
590.321	176.5
591.086	167.5
591.851	159.5
592.616	153.5
593.381	145.5
594.146	135.5
594.911	131.5
595.675	125.5
596.44	120.5
597.204	113.5
597.969	105.5
598.733	103.5
599.497	100.5
600.261	97.5
601.025	92.5
601.79	86.5
602.553	87.5
603.317	83.5
604.081	77.5
604.845	77.5
605.609	73.5
606.372	71.5
607.136	64.5
607.899	62.5
608.662	59.5
609.426	56.5
610.189	55.5
610.952	55.5
611.715	52.5
612.478	52.5
613.241	49.5
614.004	50.5
614.767	43.5
615.529	42.5
616.292	45.5
617.055	39.5
617.817	41.5
618.579	38.5
619.342	38.5
620.104	35.5
620.866	35.5
621.628	31.5
622.39	31.5
623.152	29.5
623.914	32.5
624.676	32.5
625.438	29.5
626.199	28.5
626.961	29.5
627.722	27.5
628.484	24.5
629.245	23.5
630.006	23.5
630.768	23.5
631.529	23.5
632.29	21.5
633.051	20.5
633.812	17.5
634.573	21.5
635.333	21.5
636.094	18.5
636.855	18.5
637.615	18.5
638.376	19.5
639.136	18.5
639.896	18.5
640.657	17.5
641.417	16.5
642.177	19.5
642.937	17.5
643.697	13.5
644.457	17.5
645.216	15.5
645.976	17.5
646.736	13.5
647.495	11.5
648.255	13.5
649.014	13.5
649.774	12.5
650.533	13.5
651.292	13.5
652.051	14.5
652.81	12.5
653.569	10.5
654.328	12.5
655.087	11.5
655.846	12.5
656.604	13.5
657.363	11.5
658.121	10.5
658.88	8.5
659.638	10.5
660.397	10.5
661.155	9.5
661.913	10.5
662.671	11.5
663.429	11.5
664.187	9.5
664.945	9.5
665.703	9.5
666.46	10.5
667.218	8.5
667.976	9.5
668.733	10.5
669.49	8.5
670.248	8.5
671.005	8.5
671.762	9.5
672.519	6.5
673.276	8.5
674.033	10.5
674.79	7.5
675.547	5.5
676.304	7.5
677.06	9.5
677.817	8.5
678.574	8.5
679.33	6.5
680.086	4.5
680.843	9.5
681.599	6.5
682.355	7.5
683.111	6.5
683.867	8.5
684.623	6.5
685.379	8.5
686.135	8.5
686.89	7.5
687.646	7.5
688.402	9.5
689.157	6.5
689.912	8.5
690.668	7.5
691.423	6.5
692.178	6.5
692.933	7.5
693.688	7.5
694.443	7.5
695.198	6.5
695.953	9.5
696.708	7.5
697.462	6.5
698.217	7.5
698.972	7.5
699.726	6.5
700.48	6.5
701.235	6.5
701.989	6.5
702.743	4.5
703.497	8.5
704.251	7.5
705.005	7.5
705.759	6.5
706.513	4.5
707.266	6.5
708.02	7.5
708.774	7.5
709.527	7.5
710.28	7.5
711.034	9.5
711.787	6.5
712.54	6.5
713.293	6.5
714.046	8.5
714.799	7.5
715.552	7.5
716.305	8.5
717.058	8.5
717.81	6.5
718.563	6.5
719.315	9.5
720.068	5.5
720.82	8.5
721.573	8.5
722.325	5.5
723.077	6.5
723.829	7.5
724.581	9.5
725.333	7.5
726.085	6.5
726.836	7.5
727.588	7.5
728.34	7.5
729.091	6.5
729.843	7.5
730.594	7.5
731.346	10.5
732.097	9.5
732.848	6.5
733.599	7.5
734.35	9.5
735.101	9.5
735.852	8.5
736.603	8.5
737.354	8.5
738.104	9.5
738.855	6.5
739.605	8.5
740.356	8.5
741.106	10.5
741.856	9.5
742.607	8.5
743.357	8.5
744.107	9.5
744.857	9.5
745.607	8.5
746.357	12.5
747.106	9.5
747.856	10.5
748.606	9.5
749.355	9.5
750.105	9.5
750.854	8.5
751.603	9.5
752.353	10.5
753.102	8.5
753.851	11.5
754.6	10.5
755.349	11.5
756.098	11.5
756.847	11.5
757.595	11.5
758.344	10.5
759.093	11.5
759.841	11.5
760.589	10.5
761.338	11.5
762.086	11.5
762.834	13.5
763.582	12.5
764.331	14.5
765.079	12.5
765.826	9.5
766.574	13.5
767.322	12.5
768.07	13.5
768.817	10.5
769.565	11.5
770.312	12.5
771.06	12.5
771.807	13.5
772.554	12.5
773.302	12.5
774.049	13.5
774.796	14.5
775.543	14.5
776.29	12.5
777.036	15.5
777.783	15.5
778.53	15.5
779.276	13.5
780.023	13.5
780.769	15.5
781.516	13.5
782.262	13.5
783.008	12.5
783.754	13.5
784.5	14.5
785.246	15.5
785.992	13.5
786.738	13.5
787.484	13.5
788.23	14.5
788.975	14.5
789.721	13.5
790.466	16.5
791.212	14.5
791.957	13.5
792.702	14.5
793.447	13.5
794.193	14.5
794.938	14.5
795.683	12.5
796.427	12.5
797.172	14.5
797.917	9.5
798.662	12.5
799.406	13.5
800.151	11.5
800.895	13.5
801.64	13.5
802.384	11.5
803.128	9.5
803.872	11.5
804.616	11.5
805.36	9.5
806.104	10.5
806.848	11.5
807.592	8.5
808.336	9.5
809.079	11.5
809.823	10.5
810.566	7.5
811.31	10.5
812.053	9.5
812.796	9.5
813.539	9.5
814.283	7.5
815.026	8.5
815.769	6.5
816.511	7.5
817.254	9.5
817.997	7.5
818.74	7.5
819.482	6.5
820.225	9.5
820.967	4.5
821.71	5.5
822.452	8.5
823.194	6.5
823.936	8.5
824.678	7.5
825.42	8.5
826.162	7.5
826.904	7.5
827.646	5.5
828.388	8.5
829.129	7.5
829.871	8.5
830.612	6.5
831.354	4.5
832.095	5.5
832.836	6.5
833.577	3.5
834.319	5.5
835.06	6.5
835.801	6.5
836.542	4.5
837.282	6.5
838.023	5.5
838.764	6.5
839.504	6.5
840.245	7.5
840.985	7.5
841.726	3.5
842.466	6.5
843.206	5.5
843.946	4.5
844.687	5.5
845.427	5.5
846.166	4.5
846.906	6.5
847.646	6.5
848.386	3.5
849.125	5.5
849.865	2.5
850.605	5.5
851.344	3.5
852.083	4.5
852.823	3.5
853.562	2.5
854.301	2.5
855.04	5.5
855.779	1.5
856.518	4.5
857.257	1.5
857.995	3.5
858.734	4.5
859.473	3.5
860.211	4.5
860.95	3.5
861.688	3.5
862.426	3.5
863.165	3.5
863.903	2.5
864.641	5.5
865.379	2.5
866.117	3.5
866.855	2.5
867.593	2.5
868.33	3.5
869.068	1.5
869.806	4.5
870.543	5.5
871.28	1.5
872.018	3.5
872.755	3.5
873.492	4.5
874.229	2.5
874.967	1.5
875.703	5.5
876.44	1.5
877.177	1.5
877.914	2.5
878.651	3.5
879.387	3.5
880.124	3.5
880.86	2.5
881.597	3.5
882.333	3.5
883.069	3.5
883.806	2.5
884.542	0.5
885.278	4.5
886.014	0.5
886.749	2.5
887.485	3.5
888.221	2.5
888.957	2.5
889.692	2.5
890.428	2.5
891.163	1.5
891.899	3.5
892.634	1.5
893.369	1.5
894.104	0.5
894.839	2.5
895.574	0.5
896.309	1.5
897.044	0.5
897.779	1.5
898.514	2.5
899.248	2.5
899.983	1.5
900.717	2.5
901.452	1.5
902.186	2.5
902.92	0.5
903.654	0.5
904.389	1.5
905.123	1.5
905.857	1.5
906.59	2.5
907.324	1.5
908.058	1.5
908.792	1.5
909.525	2.5
910.259	3.5
910.992	2.5
911.726	3.5
912.459	1.5
913.192	1.5
913.925	0.5
914.658	-0.5
915.391	2.5
916.124	2.5
916.857	-0.5
917.59	2.5
918.323	1.5
919.055	3.5
919.788	-0.5
920.521	0.5
921.253	1.5
921.985	1.5
922.718	0.5
923.45	1.5
924.182	0.5
924.914	-0.5
925.646	0.5
926.378	2.5
927.11	0.5
927.841	0.5
928.573	0.5
929.305	2.5
930.036	1.5
930.768	0.5
931.499	-1.5
932.23	2.5
932.962	2.5
933.693	1.5
934.424	2.5
935.155	1.5
935.886	1.5
936.617	0.5
937.348	0.5
938.078	-0.5
938.809	0.5
939.54	0.5
940.27	1.5
941.001	1.5
941.731	0.5
942.461	2.5
943.191	1.5
943.922	2.5
944.652	2.5
945.382	1.5
946.112	0.5
946.841	1.5
947.571	1.5
948.301	1.5
949.031	0.5
949.76	2.5
950.49	0.5
951.219	-1.5
951.948	0.5
952.678	3.5
953.407	-0.5
954.136	1.5
954.865	1.5
955.594	1.5
956.323	0.5
957.052	3.5
957.78	0.5
958.509	2.5
959.238	0.5
959.966	0.5
960.695	1.5
961.423	1.5
962.151	0.5
962.88	2.5
963.608	0.5
964.336	-0.5
965.064	0.5
965.792	1.5
966.52	1.5
967.247	1.5
967.975	3.5
968.703	1.5
969.43	1.5
970.158	2.5
970.885	1.5
971.613	2.5
972.34	0.5
973.067	-0.5
973.794	-0.5
974.521	0.5
975.248	1.5
975.975	-0.5
976.702	-0.5
977.429	2.5
978.156	-2.5
978.882	2.5
979.609	-1.5
980.335	2.5
981.062	1.5
981.788	1.5
982.514	0.5
983.24	0.5
983.967	1.5
984.693	-0.5
985.419	1.5
986.144	0.5
986.87	1.5
987.596	2.5
988.322	1.5
989.047	2.5
989.773	0.5
990.498	3.5
991.224	3.5
991.949	1.5
992.674	-0.5
993.399	2.5
994.124	4.5
994.849	2.5
995.574	0.5
996.299	2.5
997.024	0.5
997.749	0.5
998.473	0.5
999.198	-0.5
999.922	-0.5
1000.647	3.5
1001.371	4.5
1002.095	-2.5
1002.82	-1.5
1003.544	0.5
1004.268	2.5
1004.992	0.5
1005.716	2.5
1006.439	4.5
1007.163	5.5
1007.887	5.5
1008.611	1.5
1009.334	1.5
1010.058	1.5
1010.781	1.5
1011.504	1.5
1012.228	1.5
1012.951	1.5
1013.674	-0.5
1014.397	-1.5
1015.12	-0.5
