节点500_565_QEPB04081__20__09-50-47-099.txt的数据

Date: Thu Nov 13 09:50:47 CST 2025
User: PC
Spectrometer: QEPB0408
触发模式: 0
积分时间 (秒): 1.000000E-2
Scans to average: 1
启用暗噪声校正: true
启用非线性校正: false
滑动平均宽度: 0
X轴模式: Wavelengths
Number of Pixels in Spectrum: 1044
>>>>>Begin Spectral Data<<<<<
220.843	3.12
221.644	6.12
222.444	4.12
223.244	7.12
224.045	6.12
224.845	5.12
225.645	4.12
226.445	5.12
227.245	4.12
228.045	6.12
228.845	6.12
229.645	6.12
230.444	5.12
231.244	6.12
232.043	6.12
232.843	6.12
233.642	8.12
234.442	11.12
235.241	8.12
236.04	9.12
236.839	8.12
237.638	9.12
238.437	10.12
239.236	4.12
240.035	7.12
240.833	8.12
241.632	10.12
242.43	8.12
243.229	10.12
244.027	11.12
244.826	12.12
245.624	13.12
246.422	12.12
247.22	12.12
248.018	11.12
248.816	13.12
249.614	13.12
250.412	15.12
251.21	14.12
252.007	14.12
252.805	15.12
253.602	16.12
254.4	17.12
255.197	17.12
255.994	17.12
256.791	15.12
257.589	16.12
258.386	19.12
259.183	20.12
259.979	20.12
260.776	22.12
261.573	23.12
262.37	24.12
263.166	24.12
263.963	23.12
264.759	21.12
265.556	26.12
266.352	24.12
267.148	24.12
267.944	24.12
268.74	28.12
269.536	26.12
270.332	29.12
271.128	27.12
271.924	29.12
272.719	30.12
273.515	27.12
274.311	29.12
275.106	30.12
275.901	30.12
276.697	31.12
277.492	31.12
278.287	31.12
279.082	32.12
279.877	32.12
280.672	31.12
281.467	36.12
282.262	34.12
283.056	34.12
283.851	32.12
284.646	29.12
285.44	31.12
286.234	30.12
287.029	29.12
287.823	30.12
288.617	31.12
289.411	28.12
290.205	33.12
290.999	27.12
291.793	28.12
292.587	28.12
293.381	26.12
294.174	26.12
294.968	26.12
295.761	22.12
296.555	22.12
297.348	21.12
298.141	26.12
298.935	24.12
299.728	22.12
300.521	18.12
301.314	21.12
302.107	21.12
302.899	21.12
303.692	20.12
304.485	20.12
305.277	20.12
306.07	16.12
306.862	21.12
307.655	16.12
308.447	19.12
309.239	17.12
310.031	16.12
310.823	20.12
311.615	17.12
312.407	15.12
313.199	15.12
313.991	13.12
314.783	15.12
315.574	14.12
316.366	12.12
317.157	16.12
317.949	13.12
318.74	12.12
319.531	13.12
320.322	11.12
321.113	12.12
321.904	11.12
322.695	12.12
323.486	12.12
324.277	12.12
325.068	13.12
325.858	10.12
326.649	11.12
327.439	11.12
328.23	12.12
329.02	10.12
329.81	9.12
330.6	12.12
331.391	11.12
332.181	10.12
332.971	11.12
333.76	10.12
334.55	9.12
335.34	9.12
336.13	7.12
336.919	9.12
337.709	10.12
338.498	10.12
339.287	11.12
340.077	11.12
340.866	12.12
341.655	12.12
342.444	8.12
343.233	9.12
344.022	10.12
344.811	8.12
345.6	11.12
346.388	8.12
347.177	12.12
347.965	10.12
348.754	11.12
349.542	9.12
350.33	9.12
351.119	10.12
351.907	10.12
352.695	8.12
353.483	10.12
354.271	9.12
355.059	10.12
355.846	6.12
356.634	9.12
357.422	9.12
358.209	9.12
358.997	10.12
359.784	10.12
360.571	8.12
361.359	8.12
362.146	7.12
362.933	9.12
363.72	7.12
364.507	7.12
365.294	6.12
366.081	9.12
366.867	8.12
367.654	8.12
368.44	10.12
369.227	7.12
370.013	9.12
370.8	8.12
371.586	9.12
372.372	8.12
373.158	9.12
373.944	7.12
374.73	7.12
375.516	10.12
376.302	6.12
377.088	10.12
377.873	9.12
378.659	7.12
379.445	7.12
380.23	8.12
381.015	7.12
381.801	9.12
382.586	8.12
383.371	10.12
384.156	10.12
384.941	7.12
385.726	10.12
386.511	12.12
387.296	8.12
388.08	12.12
388.865	11.12
389.649	11.12
390.434	10.12
391.218	7.12
392.003	9.12
392.787	10.12
393.571	10.12
394.355	11.12
395.139	10.12
395.923	9.12
396.707	9.12
397.491	13.12
398.274	11.12
399.058	13.12
399.842	14.12
400.625	13.12
401.408	13.12
402.192	12.12
402.975	14.12
403.758	14.12
404.541	12.12
405.324	12.12
406.107	13.12
406.89	14.12
407.673	14.12
408.456	15.12
409.238	12.12
410.021	13.12
410.803	17.12
411.586	13.12
412.368	14.12
413.151	14.12
413.933	13.12
414.715	16.12
415.497	18.12
416.279	16.12
417.061	18.12
417.843	18.12
418.624	20.12
419.406	17.12
420.188	20.12
420.969	19.12
421.751	16.12
422.532	19.12
423.313	19.12
424.095	19.12
424.876	21.12
425.657	20.12
426.438	22.12
427.219	20.12
428	26.12
428.78	26.12
429.561	24.12
430.342	28.12
431.122	25.12
431.903	30.12
432.683	28.12
433.464	31.12
434.244	28.12
435.024	34.12
435.804	32.12
436.584	36.12
437.364	35.12
438.144	39.12
438.924	42.12
439.704	44.12
440.483	42.12
441.263	44.12
442.042	48.12
442.822	54.12
443.601	54.12
444.38	61.12
445.16	64.12
445.939	68.12
446.718	72.12
447.497	74.12
448.276	87.12
449.054	94.12
449.833	100.12
450.612	111.12
451.391	122.12
452.169	132.12
452.948	142.12
453.726	160.12
454.504	177.12
455.282	200.12
456.061	215.12
456.839	245.12
457.617	267.12
458.395	305.12
459.172	334.12
459.95	375.12
460.728	423.12
461.506	468.12
462.283	530.12
463.061	598.12
463.838	675.12
464.615	734.12
465.393	833.12
466.17	926.12
466.947	1034.12
467.724	1164.12
468.501	1302.12
469.278	1452.12
470.055	1608.12
470.831	1805.12
471.608	2018.12
472.385	2253.12
473.161	2495.12
473.938	2776.12
474.714	3067.12
475.49	3367.12
476.266	3775.12
477.043	4165.12
477.819	4594.12
478.595	5069.12
479.371	5586.12
480.146	6188.12
480.922	6834.12
481.698	7484.12
482.473	8209.12
483.249	9032.12
484.024	9917.12
484.8	10920.12
485.575	11985.12
486.35	13111.12
487.126	14240.12
487.901	15569.12
488.676	16984.12
489.451	18451.12
490.225	20020.12
491	21744.12
491.775	23349.12
492.55	25220.12
493.324	27008.12
494.099	28884.12
494.873	30614.12
495.647	32662.12
496.422	34561.12
497.196	36273.12
497.97	38002.12
498.744	39575.12
499.518	40759.12
500.292	42152.12
501.066	43243.12
501.839	44227.12
502.613	44808.12
503.387	45227.12
504.16	45433.12
504.934	45291.12
505.707	44907.12
506.48	44294.12
507.253	43440.12
508.027	42476.12
508.8	41252.12
509.573	39943.12
510.346	38609.12
511.118	37190.12
511.891	35929.12
512.664	34417.12
513.437	32870.12
514.209	31414.12
514.982	30216.12
515.754	28972.12
516.526	27617.12
517.298	26353.12
518.071	25281.12
518.843	24265.12
519.615	23322.12
520.387	22339.12
521.159	21517.12
521.93	20603.12
522.702	19771.12
523.474	18931.12
524.245	18138.12
525.017	17354.12
525.788	16545.12
526.56	15693.12
527.331	14981.12
528.102	14267.12
528.873	13471.12
529.644	12768.12
530.415	12115.12
531.186	11478.12
531.957	10898.12
532.728	10284.12
533.498	9710.12
534.269	9129.12
535.039	8631.12
535.81	8171.12
536.58	7736.12
537.351	7292.12
538.121	6870.12
538.891	6524.12
539.661	6170.12
540.431	5844.12
541.201	5543.12
541.971	5274.12
542.741	4992.12
543.51	4734.12
544.28	4484.12
545.05	4269.12
545.819	4051.12
546.588	3839.12
547.358	3645.12
548.127	3457.12
548.896	3296.12
549.665	3132.12
550.434	2967.12
551.203	2791.12
551.972	2656.12
552.741	2501.12
553.51	2356.12
554.278	2224.12
555.047	2102.12
555.815	1977.12
556.584	1879.12
557.352	1764.12
558.121	1663.12
558.889	1570.12
559.657	1488.12
560.425	1389.12
561.193	1330.12
561.961	1254.12
562.729	1185.12
563.496	1118.12
564.264	1061.12
565.032	1019.12
565.799	946.12
566.567	912.12
567.334	851.12
568.101	789.12
568.869	758.12
569.636	724.12
570.403	680.12
571.17	640.12
571.937	610.12
572.704	575.12
573.471	536.12
574.237	507.12
575.004	472.12
575.771	456.12
576.537	431.12
577.303	399.12
578.07	377.12
578.836	349.12
579.602	333.12
580.368	317.12
581.134	300.12
581.9	279.12
582.666	266.12
583.432	262.12
584.198	242.12
584.964	229.12
585.729	217.12
586.495	201.12
587.26	197.12
588.025	190.12
588.791	179.12
589.556	169.12
590.321	159.12
591.086	156.12
591.851	149.12
592.616	141.12
593.381	132.12
594.146	127.12
594.911	124.12
595.675	118.12
596.44	109.12
597.204	103.12
597.969	104.12
598.733	101.12
599.497	93.12
600.261	90.12
601.025	84.12
601.79	82.12
602.553	71.12
603.317	78.12
604.081	70.12
604.845	65.12
605.609	68.12
606.372	64.12
607.136	62.12
607.899	58.12
608.662	59.12
609.426	55.12
610.189	55.12
610.952	50.12
611.715	48.12
612.478	50.12
613.241	49.12
614.004	42.12
614.767	44.12
615.529	43.12
616.292	38.12
617.055	37.12
617.817	36.12
618.579	37.12
619.342	33.12
620.104	34.12
620.866	33.12
621.628	34.12
622.39	32.12
623.152	26.12
623.914	31.12
624.676	29.12
625.438	26.12
626.199	26.12
626.961	26.12
627.722	25.12
628.484	25.12
629.245	22.12
630.006	24.12
630.768	23.12
631.529	22.12
632.29	21.12
633.051	18.12
633.812	17.12
634.573	17.12
635.333	22.12
636.094	17.12
636.855	16.12
637.615	15.12
638.376	17.12
639.136	16.12
639.896	15.12
640.657	17.12
641.417	16.12
642.177	14.12
642.937	17.12
643.697	15.12
644.457	13.12
645.216	15.12
645.976	13.12
646.736	10.12
647.495	14.12
648.255	13.12
649.014	11.12
649.774	12.12
650.533	13.12
651.292	11.12
652.051	13.12
652.81	12.12
653.569	11.12
654.328	11.12
655.087	13.12
655.846	10.12
656.604	12.12
657.363	10.12
658.121	10.12
658.88	11.12
659.638	11.12
660.397	9.12
661.155	11.12
661.913	9.12
662.671	6.12
663.429	8.12
664.187	8.12
664.945	8.12
665.703	8.12
666.46	5.12
667.218	10.12
667.976	8.12
668.733	6.12
669.49	8.12
670.248	7.12
671.005	9.12
671.762	9.12
672.519	9.12
673.276	8.12
674.033	4.12
674.79	7.12
675.547	6.12
676.304	6.12
677.06	5.12
677.817	7.12
678.574	8.12
679.33	6.12
680.086	5.12
680.843	7.12
681.599	7.12
682.355	6.12
683.111	7.12
683.867	7.12
684.623	6.12
685.379	7.12
686.135	6.12
686.89	8.12
687.646	6.12
688.402	7.12
689.157	7.12
689.912	7.12
690.668	4.12
691.423	6.12
692.178	8.12
692.933	5.12
693.688	9.12
694.443	5.12
695.198	6.12
695.953	7.12
696.708	6.12
697.462	6.12
698.217	5.12
698.972	8.12
699.726	7.12
700.48	6.12
701.235	6.12
701.989	5.12
702.743	6.12
703.497	5.12
704.251	8.12
705.005	8.12
705.759	6.12
706.513	9.12
707.266	4.12
708.02	6.12
708.774	6.12
709.527	7.12
710.28	4.12
711.034	7.12
711.787	6.12
712.54	6.12
713.293	7.12
714.046	4.12
714.799	7.12
715.552	7.12
716.305	6.12
717.058	5.12
717.81	6.12
718.563	7.12
719.315	6.12
720.068	5.12
720.82	8.12
721.573	8.12
722.325	5.12
723.077	6.12
723.829	10.12
724.581	6.12
725.333	9.12
726.085	7.12
726.836	7.12
727.588	6.12
728.34	6.12
729.091	9.12
729.843	6.12
730.594	8.12
731.346	8.12
732.097	8.12
732.848	8.12
733.599	5.12
734.35	7.12
735.101	8.12
735.852	8.12
736.603	8.12
737.354	10.12
738.104	8.12
738.855	6.12
739.605	11.12
740.356	6.12
741.106	11.12
741.856	10.12
742.607	10.12
743.357	9.12
744.107	8.12
744.857	10.12
745.607	11.12
746.357	8.12
747.106	9.12
747.856	10.12
748.606	9.12
749.355	8.12
750.105	14.12
750.854	11.12
751.603	12.12
752.353	14.12
753.102	11.12
753.851	12.12
754.6	11.12
755.349	12.12
756.098	11.12
756.847	9.12
757.595	11.12
758.344	11.12
759.093	10.12
759.841	8.12
760.589	12.12
761.338	9.12
762.086	12.12
762.834	12.12
763.582	12.12
764.331	14.12
765.079	10.12
765.826	13.12
766.574	14.12
767.322	10.12
768.07	13.12
768.817	12.12
769.565	16.12
770.312	12.12
771.06	17.12
771.807	15.12
772.554	13.12
773.302	16.12
774.049	15.12
774.796	13.12
775.543	9.12
776.29	14.12
777.036	12.12
777.783	15.12
778.53	16.12
779.276	13.12
780.023	16.12
780.769	16.12
781.516	14.12
782.262	13.12
783.008	14.12
783.754	14.12
784.5	14.12
785.246	16.12
785.992	14.12
786.738	15.12
787.484	14.12
788.23	11.12
788.975	14.12
789.721	14.12
790.466	14.12
791.212	12.12
791.957	14.12
792.702	15.12
793.447	14.12
794.193	12.12
794.938	12.12
795.683	9.12
796.427	15.12
797.172	12.12
797.917	11.12
798.662	11.12
799.406	11.12
800.151	8.12
800.895	14.12
801.64	8.12
802.384	11.12
803.128	10.12
803.872	9.12
804.616	11.12
805.36	11.12
806.104	10.12
806.848	8.12
807.592	11.12
808.336	9.12
809.079	8.12
809.823	9.12
810.566	8.12
811.31	9.12
812.053	7.12
812.796	8.12
813.539	7.12
814.283	7.12
815.026	8.12
815.769	7.12
816.511	5.12
817.254	8.12
817.997	4.12
818.74	6.12
819.482	6.12
820.225	8.12
820.967	4.12
821.71	7.12
822.452	5.12
823.194	7.12
823.936	8.12
824.678	7.12
825.42	6.12
826.162	5.12
826.904	7.12
827.646	5.12
828.388	4.12
829.129	7.12
829.871	1.12
830.612	3.12
831.354	7.12
832.095	7.12
832.836	4.12
833.577	8.12
834.319	5.12
835.06	3.12
835.801	7.12
836.542	4.12
837.282	6.12
838.023	4.12
838.764	5.12
839.504	6.12
840.245	6.12
840.985	5.12
841.726	2.12
842.466	5.12
843.206	3.12
843.946	4.12
844.687	4.12
845.427	4.12
846.166	6.12
846.906	7.12
847.646	6.12
848.386	4.12
849.125	6.12
849.865	5.12
850.605	3.12
851.344	6.12
852.083	3.12
852.823	6.12
853.562	5.12
854.301	4.12
855.04	3.12
855.779	1.12
856.518	3.12
857.257	6.12
857.995	3.12
858.734	2.12
859.473	1.12
860.211	2.12
860.95	2.12
861.688	5.12
862.426	4.12
863.165	2.12
863.903	2.12
864.641	4.12
865.379	2.12
866.117	4.12
866.855	3.12
867.593	2.12
868.33	2.12
869.068	3.12
869.806	4.12
870.543	0.12
871.28	3.12
872.018	0.12
872.755	2.12
873.492	1.12
874.229	2.12
874.967	0.12
875.703	3.12
876.44	2.12
877.177	2.12
877.914	0.12
878.651	2.12
879.387	-0.88
880.124	2.12
880.86	2.12
881.597	1.12
882.333	2.12
883.069	2.12
883.806	1.12
884.542	0.12
885.278	3.12
886.014	0.12
886.749	1.12
887.485	2.12
888.221	-1.88
888.957	2.12
889.692	1.12
890.428	1.12
891.163	0.12
891.899	1.12
892.634	1.12
893.369	2.12
894.104	0.12
894.839	0.12
895.574	4.12
896.309	1.12
897.044	0.12
897.779	1.12
898.514	0.12
899.248	0.12
899.983	3.12
900.717	0.12
901.452	0.12
902.186	1.12
902.92	1.12
903.654	0.12
904.389	1.12
905.123	-0.88
905.857	3.12
906.59	1.12
907.324	1.12
908.058	1.12
908.792	1.12
909.525	1.12
910.259	0.12
910.992	1.12
911.726	2.12
912.459	0.12
913.192	0.12
913.925	-0.88
914.658	2.12
915.391	-1.88
916.124	1.12
916.857	-0.88
917.59	1.12
918.323	0.12
919.055	0.12
919.788	1.12
920.521	1.12
921.253	-0.88
921.985	-0.88
922.718	1.12
923.45	0.12
924.182	1.12
924.914	0.12
925.646	0.12
926.378	1.12
927.11	1.12
927.841	0.12
928.573	1.12
929.305	-0.88
930.036	1.12
930.768	-2.88
931.499	-0.88
932.23	-0.88
932.962	1.12
933.693	0.12
934.424	-0.88
935.155	0.12
935.886	2.12
936.617	0.12
937.348	3.12
938.078	-0.88
938.809	0.12
939.54	-0.88
940.27	1.12
941.001	0.12
941.731	2.12
942.461	0.12
943.191	0.12
943.922	-0.88
944.652	-0.88
945.382	-2.88
946.112	1.12
946.841	0.12
947.571	2.12
948.301	-0.88
949.031	0.12
949.76	1.12
950.49	0.12
951.219	0.12
951.948	0.12
952.678	0.12
953.407	1.12
954.136	1.12
954.865	0.12
955.594	0.12
956.323	0.12
957.052	1.12
957.78	-0.88
958.509	1.12
959.238	1.12
959.966	0.12
960.695	0.12
961.423	-1.88
962.151	0.12
962.88	0.12
963.608	0.12
964.336	-0.88
965.064	-0.88
965.792	0.12
966.52	0.12
967.247	0.12
967.975	0.12
968.703	1.12
969.43	-1.88
970.158	1.12
970.885	1.12
971.613	0.12
972.34	0.12
973.067	-1.88
973.794	-0.88
974.521	1.12
975.248	-0.88
975.975	-2.88
976.702	0.12
977.429	4.12
978.156	-0.88
978.882	0.12
979.609	3.12
980.335	0.12
981.062	1.12
981.788	0.12
982.514	-0.88
983.24	-0.88
983.967	2.12
984.693	0.12
985.419	-0.88
986.144	0.12
986.87	0.12
987.596	2.12
988.322	2.12
989.047	0.12
989.773	1.12
990.498	1.12
991.224	0.12
991.949	-0.88
992.674	1.12
993.399	-0.88
994.124	1.12
994.849	1.12
995.574	1.12
996.299	1.12
997.024	-2.88
997.749	2.12
998.473	-0.88
999.198	0.12
999.922	1.12
1000.647	1.12
1001.371	4.12
1002.095	1.12
1002.82	-2.88
1003.544	-0.88
1004.268	1.12
1004.992	3.12
1005.716	3.12
1006.439	3.12
1007.163	4.12
1007.887	3.12
1008.611	1.12
1009.334	1.12
1010.058	1.12
1010.781	-1.88
1011.504	0.12
1012.228	0.12
1012.951	-1.88
1013.674	0.12
1014.397	0.12
1015.12	0.12
