节点500_565_QEPB04081__356__09-56-20-400.txt的数据

Date: Thu Nov 13 09:56:20 CST 2025
User: PC
Spectrometer: QEPB0408
触发模式: 0
积分时间 (秒): 1.000000E-2
Scans to average: 1
启用暗噪声校正: true
启用非线性校正: false
滑动平均宽度: 0
X轴模式: Wavelengths
Number of Pixels in Spectrum: 1044
>>>>>Begin Spectral Data<<<<<
220.843	1.62
221.644	2.62
222.444	3.62
223.244	5.62
224.045	6.62
224.845	2.62
225.645	4.62
226.445	3.62
227.245	6.62
228.045	4.62
228.845	6.62
229.645	6.62
230.444	6.62
231.244	5.62
232.043	6.62
232.843	7.62
233.642	6.62
234.442	8.62
235.241	7.62
236.04	10.62
236.839	6.62
237.638	6.62
238.437	7.62
239.236	7.62
240.035	8.62
240.833	6.62
241.632	10.62
242.43	10.62
243.229	9.62
244.027	10.62
244.826	5.62
245.624	8.62
246.422	9.62
247.22	12.62
248.018	8.62
248.816	9.62
249.614	9.62
250.412	10.62
251.21	12.62
252.007	11.62
252.805	15.62
253.602	10.62
254.4	11.62
255.197	13.62
255.994	16.62
256.791	18.62
257.589	14.62
258.386	18.62
259.183	15.62
259.979	18.62
260.776	15.62
261.573	16.62
262.37	16.62
263.166	16.62
263.963	19.62
264.759	23.62
265.556	21.62
266.352	21.62
267.148	21.62
267.944	24.62
268.74	22.62
269.536	26.62
270.332	20.62
271.128	24.62
271.924	24.62
272.719	24.62
273.515	24.62
274.311	24.62
275.106	26.62
275.901	26.62
276.697	26.62
277.492	29.62
278.287	29.62
279.082	28.62
279.877	29.62
280.672	26.62
281.467	27.62
282.262	29.62
283.056	28.62
283.851	30.62
284.646	28.62
285.44	29.62
286.234	28.62
287.029	24.62
287.823	31.62
288.617	26.62
289.411	25.62
290.205	28.62
290.999	25.62
291.793	28.62
292.587	27.62
293.381	26.62
294.174	23.62
294.968	25.62
295.761	22.62
296.555	22.62
297.348	18.62
298.141	20.62
298.935	27.62
299.728	18.62
300.521	20.62
301.314	21.62
302.107	21.62
302.899	21.62
303.692	17.62
304.485	20.62
305.277	16.62
306.07	19.62
306.862	16.62
307.655	18.62
308.447	19.62
309.239	17.62
310.031	18.62
310.823	16.62
311.615	16.62
312.407	13.62
313.199	16.62
313.991	13.62
314.783	12.62
315.574	11.62
316.366	12.62
317.157	14.62
317.949	12.62
318.74	12.62
319.531	13.62
320.322	11.62
321.113	10.62
321.904	13.62
322.695	12.62
323.486	11.62
324.277	12.62
325.068	11.62
325.858	11.62
326.649	12.62
327.439	8.62
328.23	12.62
329.02	10.62
329.81	11.62
330.6	8.62
331.391	10.62
332.181	12.62
332.971	9.62
333.76	8.62
334.55	10.62
335.34	8.62
336.13	10.62
336.919	10.62
337.709	8.62
338.498	8.62
339.287	11.62
340.077	10.62
340.866	8.62
341.655	10.62
342.444	12.62
343.233	9.62
344.022	11.62
344.811	12.62
345.6	9.62
346.388	9.62
347.177	9.62
347.965	9.62
348.754	7.62
349.542	9.62
350.33	12.62
351.119	12.62
351.907	12.62
352.695	10.62
353.483	9.62
354.271	9.62
355.059	9.62
355.846	8.62
356.634	8.62
357.422	8.62
358.209	9.62
358.997	8.62
359.784	11.62
360.571	9.62
361.359	8.62
362.146	7.62
362.933	7.62
363.72	7.62
364.507	9.62
365.294	7.62
366.081	7.62
366.867	7.62
367.654	10.62
368.44	7.62
369.227	6.62
370.013	4.62
370.8	11.62
371.586	5.62
372.372	8.62
373.158	9.62
373.944	6.62
374.73	8.62
375.516	9.62
376.302	8.62
377.088	4.62
377.873	8.62
378.659	6.62
379.445	8.62
380.23	9.62
381.015	8.62
381.801	9.62
382.586	6.62
383.371	6.62
384.156	8.62
384.941	9.62
385.726	6.62
386.511	8.62
387.296	9.62
388.08	8.62
388.865	9.62
389.649	10.62
390.434	8.62
391.218	10.62
392.003	7.62
392.787	8.62
393.571	8.62
394.355	9.62
395.139	9.62
395.923	10.62
396.707	9.62
397.491	13.62
398.274	10.62
399.058	9.62
399.842	9.62
400.625	9.62
401.408	11.62
402.192	9.62
402.975	10.62
403.758	12.62
404.541	12.62
405.324	13.62
406.107	8.62
406.89	11.62
407.673	12.62
408.456	12.62
409.238	10.62
410.021	11.62
410.803	13.62
411.586	12.62
412.368	14.62
413.151	13.62
413.933	16.62
414.715	14.62
415.497	17.62
416.279	14.62
417.061	14.62
417.843	16.62
418.624	15.62
419.406	18.62
420.188	16.62
420.969	18.62
421.751	17.62
422.532	18.62
423.313	18.62
424.095	19.62
424.876	20.62
425.657	21.62
426.438	22.62
427.219	18.62
428	20.62
428.78	24.62
429.561	21.62
430.342	25.62
431.122	23.62
431.903	25.62
432.683	25.62
433.464	29.62
434.244	28.62
435.024	32.62
435.804	32.62
436.584	34.62
437.364	36.62
438.144	33.62
438.924	37.62
439.704	44.62
440.483	47.62
441.263	47.62
442.042	51.62
442.822	53.62
443.601	56.62
444.38	62.62
445.16	68.62
445.939	74.62
446.718	76.62
447.497	87.62
448.276	94.62
449.054	98.62
449.833	108.62
450.612	125.62
451.391	136.62
452.169	150.62
452.948	159.62
453.726	182.62
454.504	201.62
455.282	218.62
456.061	250.62
456.839	270.62
457.617	316.62
458.395	343.62
459.172	378.62
459.95	417.62
460.728	480.62
461.506	522.62
462.283	586.62
463.061	652.62
463.838	738.62
464.615	812.62
465.393	903.62
466.17	1016.62
466.947	1118.62
467.724	1246.62
468.501	1378.62
469.278	1526.62
470.055	1704.62
470.831	1885.62
471.608	2053.62
472.385	2279.62
473.161	2505.62
473.938	2764.62
474.714	3041.62
475.49	3342.62
476.266	3673.62
477.043	4035.62
477.819	4451.62
478.595	4850.62
479.371	5281.62
480.146	5744.62
480.922	6293.62
481.698	6886.62
482.473	7457.62
483.249	8128.62
484.024	8823.62
484.8	9645.62
485.575	10462.62
486.35	11312.62
487.126	12281.62
487.901	13282.62
488.676	14405.62
489.451	15667.62
490.225	16858.62
491	18141.62
491.775	19436.62
492.55	20916.62
493.324	22378.62
494.099	23777.62
494.873	25383.62
495.647	26930.62
496.422	28559.62
497.196	30138.62
497.97	31617.62
498.744	33032.62
499.518	34388.62
500.292	35726.62
501.066	36896.62
501.839	37958.62
502.613	38816.62
503.387	39506.62
504.16	40174.62
504.934	40418.62
505.707	40644.62
506.48	40537.62
507.253	40205.62
508.027	39774.62
508.8	39068.62
509.573	38380.62
510.346	37385.62
511.118	36338.62
511.891	35350.62
512.664	34221.62
513.437	33032.62
514.209	31745.62
514.982	30615.62
515.754	29364.62
516.526	28174.62
517.298	26976.62
518.071	25902.62
518.843	24821.62
519.615	23838.62
520.387	22920.62
521.159	22026.62
521.93	21161.62
522.702	20244.62
523.474	19414.62
524.245	18665.62
525.017	17945.62
525.788	17119.62
526.56	16360.62
527.331	15644.62
528.102	14953.62
528.873	14182.62
529.644	13492.62
530.415	12857.62
531.186	12158.62
531.957	11628.62
532.728	11018.62
533.498	10456.62
534.269	9860.62
535.039	9319.62
535.81	8836.62
536.58	8406.62
537.351	7931.62
538.121	7486.62
538.891	7116.62
539.661	6702.62
540.431	6366.62
541.201	6014.62
541.971	5726.62
542.741	5403.62
543.51	5120.62
544.28	4882.62
545.05	4634.62
545.819	4416.62
546.588	4188.62
547.358	4006.62
548.127	3781.62
548.896	3617.62
549.665	3456.62
550.434	3244.62
551.203	3054.62
551.972	2907.62
552.741	2778.62
553.51	2596.62
554.278	2472.62
555.047	2311.62
555.815	2192.62
556.584	2080.62
557.352	1982.62
558.121	1857.62
558.889	1755.62
559.657	1658.62
560.425	1557.62
561.193	1475.62
561.961	1415.62
562.729	1323.62
563.496	1261.62
564.264	1184.62
565.032	1131.62
565.799	1057.62
566.567	1001.62
567.334	952.62
568.101	890.62
568.869	847.62
569.636	802.62
570.403	754.62
571.17	722.62
571.937	674.62
572.704	623.62
573.471	601.62
574.237	566.62
575.004	526.62
575.771	496.62
576.537	474.62
577.303	453.62
578.07	428.62
578.836	395.62
579.602	377.62
580.368	358.62
581.134	346.62
581.9	319.62
582.666	299.62
583.432	296.62
584.198	274.62
584.964	258.62
585.729	252.62
586.495	227.62
587.26	224.62
588.025	215.62
588.791	197.62
589.556	188.62
590.321	179.62
591.086	170.62
591.851	162.62
592.616	153.62
593.381	146.62
594.146	147.62
594.911	134.62
595.675	124.62
596.44	124.62
597.204	112.62
597.969	114.62
598.733	106.62
599.497	104.62
600.261	98.62
601.025	91.62
601.79	88.62
602.553	85.62
603.317	82.62
604.081	78.62
604.845	74.62
605.609	70.62
606.372	70.62
607.136	68.62
607.899	62.62
608.662	60.62
609.426	61.62
610.189	55.62
610.952	54.62
611.715	55.62
612.478	46.62
613.241	48.62
614.004	46.62
614.767	45.62
615.529	48.62
616.292	42.62
617.055	39.62
617.817	39.62
618.579	38.62
619.342	38.62
620.104	36.62
620.866	34.62
621.628	29.62
622.39	30.62
623.152	33.62
623.914	29.62
624.676	30.62
625.438	29.62
626.199	26.62
626.961	24.62
627.722	26.62
628.484	25.62
629.245	25.62
630.006	22.62
630.768	19.62
631.529	21.62
632.29	24.62
633.051	23.62
633.812	20.62
634.573	18.62
635.333	19.62
636.094	21.62
636.855	19.62
637.615	18.62
638.376	18.62
639.136	14.62
639.896	17.62
640.657	17.62
641.417	13.62
642.177	15.62
642.937	14.62
643.697	16.62
644.457	13.62
645.216	16.62
645.976	12.62
646.736	13.62
647.495	12.62
648.255	11.62
649.014	13.62
649.774	12.62
650.533	12.62
651.292	12.62
652.051	8.62
652.81	12.62
653.569	9.62
654.328	11.62
655.087	8.62
655.846	11.62
656.604	10.62
657.363	8.62
658.121	10.62
658.88	10.62
659.638	8.62
660.397	9.62
661.155	10.62
661.913	7.62
662.671	9.62
663.429	7.62
664.187	8.62
664.945	9.62
665.703	9.62
666.46	8.62
667.218	8.62
667.976	9.62
668.733	8.62
669.49	6.62
670.248	9.62
671.005	7.62
671.762	7.62
672.519	6.62
673.276	6.62
674.033	5.62
674.79	6.62
675.547	5.62
676.304	7.62
677.06	6.62
677.817	8.62
678.574	8.62
679.33	10.62
680.086	7.62
680.843	6.62
681.599	2.62
682.355	7.62
683.111	6.62
683.867	6.62
684.623	8.62
685.379	6.62
686.135	6.62
686.89	8.62
687.646	6.62
688.402	4.62
689.157	7.62
689.912	5.62
690.668	3.62
691.423	7.62
692.178	3.62
692.933	7.62
693.688	7.62
694.443	5.62
695.198	7.62
695.953	3.62
696.708	6.62
697.462	5.62
698.217	7.62
698.972	6.62
699.726	7.62
700.48	6.62
701.235	7.62
701.989	6.62
702.743	4.62
703.497	8.62
704.251	4.62
705.005	5.62
705.759	3.62
706.513	6.62
707.266	4.62
708.02	6.62
708.774	4.62
709.527	6.62
710.28	6.62
711.034	3.62
711.787	5.62
712.54	6.62
713.293	4.62
714.046	6.62
714.799	5.62
715.552	7.62
716.305	5.62
717.058	5.62
717.81	6.62
718.563	6.62
719.315	8.62
720.068	4.62
720.82	6.62
721.573	4.62
722.325	6.62
723.077	5.62
723.829	6.62
724.581	6.62
725.333	6.62
726.085	8.62
726.836	7.62
727.588	6.62
728.34	5.62
729.091	6.62
729.843	5.62
730.594	7.62
731.346	8.62
732.097	6.62
732.848	6.62
733.599	8.62
734.35	7.62
735.101	5.62
735.852	3.62
736.603	7.62
737.354	7.62
738.104	6.62
738.855	8.62
739.605	8.62
740.356	8.62
741.106	8.62
741.856	7.62
742.607	7.62
743.357	9.62
744.107	9.62
744.857	7.62
745.607	6.62
746.357	10.62
747.106	6.62
747.856	6.62
748.606	11.62
749.355	10.62
750.105	6.62
750.854	8.62
751.603	8.62
752.353	8.62
753.102	8.62
753.851	10.62
754.6	9.62
755.349	8.62
756.098	8.62
756.847	9.62
757.595	9.62
758.344	9.62
759.093	10.62
759.841	12.62
760.589	8.62
761.338	8.62
762.086	11.62
762.834	8.62
763.582	11.62
764.331	10.62
765.079	10.62
765.826	11.62
766.574	14.62
767.322	11.62
768.07	11.62
768.817	9.62
769.565	10.62
770.312	11.62
771.06	11.62
771.807	12.62
772.554	10.62
773.302	12.62
774.049	13.62
774.796	12.62
775.543	13.62
776.29	11.62
777.036	14.62
777.783	10.62
778.53	13.62
779.276	12.62
780.023	15.62
780.769	11.62
781.516	14.62
782.262	11.62
783.008	13.62
783.754	12.62
784.5	13.62
785.246	14.62
785.992	13.62
786.738	14.62
787.484	13.62
788.23	9.62
788.975	12.62
789.721	12.62
790.466	12.62
791.212	12.62
791.957	15.62
792.702	11.62
793.447	13.62
794.193	10.62
794.938	10.62
795.683	11.62
796.427	11.62
797.172	10.62
797.917	12.62
798.662	11.62
799.406	10.62
800.151	11.62
800.895	10.62
801.64	8.62
802.384	11.62
803.128	6.62
803.872	8.62
804.616	9.62
805.36	7.62
806.104	9.62
806.848	12.62
807.592	9.62
808.336	9.62
809.079	8.62
809.823	7.62
810.566	6.62
811.31	9.62
812.053	4.62
812.796	7.62
813.539	7.62
814.283	10.62
815.026	9.62
815.769	6.62
816.511	5.62
817.254	8.62
817.997	9.62
818.74	10.62
819.482	6.62
820.225	6.62
820.967	5.62
821.71	8.62
822.452	4.62
823.194	6.62
823.936	6.62
824.678	4.62
825.42	7.62
826.162	6.62
826.904	4.62
827.646	5.62
828.388	6.62
829.129	5.62
829.871	5.62
830.612	5.62
831.354	4.62
832.095	6.62
832.836	5.62
833.577	6.62
834.319	4.62
835.06	5.62
835.801	5.62
836.542	5.62
837.282	3.62
838.023	5.62
838.764	5.62
839.504	5.62
840.245	4.62
840.985	4.62
841.726	4.62
842.466	5.62
843.206	4.62
843.946	4.62
844.687	4.62
845.427	4.62
846.166	5.62
846.906	4.62
847.646	4.62
848.386	2.62
849.125	5.62
849.865	2.62
850.605	1.62
851.344	4.62
852.083	4.62
852.823	4.62
853.562	3.62
854.301	4.62
855.04	2.62
855.779	6.62
856.518	1.62
857.257	4.62
857.995	2.62
858.734	3.62
859.473	4.62
860.211	4.62
860.95	4.62
861.688	1.62
862.426	3.62
863.165	2.62
863.903	3.62
864.641	2.62
865.379	0.62
866.117	1.62
866.855	4.62
867.593	1.62
868.33	1.62
869.068	3.62
869.806	2.62
870.543	-1.38
871.28	2.62
872.018	2.62
872.755	2.62
873.492	1.62
874.229	3.62
874.967	3.62
875.703	0.62
876.44	1.62
877.177	1.62
877.914	2.62
878.651	0.62
879.387	1.62
880.124	0.62
880.86	1.62
881.597	0.62
882.333	2.62
883.069	1.62
883.806	0.62
884.542	0.62
885.278	3.62
886.014	0.62
886.749	1.62
887.485	1.62
888.221	3.62
888.957	-0.38
889.692	2.62
890.428	1.62
891.163	0.62
891.899	2.62
892.634	-1.38
893.369	1.62
894.104	-0.38
894.839	1.62
895.574	2.62
896.309	0.62
897.044	1.62
897.779	0.62
898.514	-0.38
899.248	0.62
899.983	2.62
900.717	0.62
901.452	0.62
902.186	0.62
902.92	0.62
903.654	1.62
904.389	-1.38
905.123	-0.38
905.857	1.62
906.59	0.62
907.324	3.62
908.058	-1.38
908.792	0.62
909.525	0.62
910.259	-1.38
910.992	-0.38
911.726	0.62
912.459	0.62
913.192	1.62
913.925	0.62
914.658	1.62
915.391	-0.38
916.124	-1.38
916.857	0.62
917.59	1.62
918.323	2.62
919.055	0.62
919.788	-0.38
920.521	-0.38
921.253	-1.38
921.985	0.62
922.718	-0.38
923.45	0.62
924.182	0.62
924.914	0.62
925.646	1.62
926.378	0.62
927.11	2.62
927.841	0.62
928.573	2.62
929.305	-0.38
930.036	-0.38
930.768	1.62
931.499	-3.38
932.23	-1.38
932.962	0.62
933.693	-0.38
934.424	1.62
935.155	1.62
935.886	1.62
936.617	-1.38
937.348	0.62
938.078	1.62
938.809	-0.38
939.54	2.62
940.27	1.62
941.001	0.62
941.731	-0.38
942.461	-0.38
943.191	-0.38
943.922	0.62
944.652	-1.38
945.382	0.62
946.112	-1.38
946.841	-0.38
947.571	0.62
948.301	-0.38
949.031	0.62
949.76	1.62
950.49	-1.38
951.219	1.62
951.948	-1.38
952.678	0.62
953.407	-2.38
954.136	1.62
954.865	-2.38
955.594	-0.38
956.323	1.62
957.052	0.62
957.78	0.62
958.509	-1.38
959.238	-0.38
959.966	1.62
960.695	0.62
961.423	0.62
962.151	0.62
962.88	-0.38
963.608	-1.38
964.336	0.62
965.064	-0.38
965.792	0.62
966.52	-2.38
967.247	2.62
967.975	0.62
968.703	1.62
969.43	0.62
970.158	0.62
970.885	0.62
971.613	-0.38
972.34	0.62
973.067	0.62
973.794	-2.38
974.521	-0.38
975.248	-0.38
975.975	0.62
976.702	1.62
977.429	0.62
978.156	3.62
978.882	1.62
979.609	-1.38
980.335	0.62
981.062	-0.38
981.788	0.62
982.514	1.62
983.24	0.62
983.967	-0.38
984.693	4.62
985.419	0.62
986.144	1.62
986.87	1.62
987.596	-0.38
988.322	-2.38
989.047	0.62
989.773	1.62
990.498	-1.38
991.224	2.62
991.949	1.62
992.674	0.62
993.399	0.62
994.124	0.62
994.849	1.62
995.574	0.62
996.299	0.62
997.024	-1.38
997.749	0.62
998.473	-1.38
999.198	-0.38
999.922	2.62
1000.647	3.62
1001.371	4.62
1002.095	-1.38
1002.82	-0.38
1003.544	-2.38
1004.268	5.62
1004.992	1.62
1005.716	2.62
1006.439	2.62
1007.163	5.62
1007.887	5.62
1008.611	1.62
1009.334	1.62
1010.058	-0.38
1010.781	0.62
1011.504	1.62
1012.228	2.62
1012.951	-0.38
1013.674	0.62
1014.397	-2.38
1015.12	1.62
