节点500_565_QEPB04081__370__09-56-34-349.txt的数据

Date: Thu Nov 13 09:56:34 CST 2025
User: PC
Spectrometer: QEPB0408
触发模式: 0
积分时间 (秒): 1.000000E-2
Scans to average: 1
启用暗噪声校正: true
启用非线性校正: false
滑动平均宽度: 0
X轴模式: Wavelengths
Number of Pixels in Spectrum: 1044
>>>>>Begin Spectral Data<<<<<
220.843	5.5
221.644	4.5
222.444	3.5
223.244	4.5
224.045	6.5
224.845	6.5
225.645	6.5
226.445	3.5
227.245	4.5
228.045	7.5
228.845	3.5
229.645	6.5
230.444	6.5
231.244	5.5
232.043	5.5
232.843	7.5
233.642	8.5
234.442	6.5
235.241	5.5
236.04	6.5
236.839	5.5
237.638	5.5
238.437	6.5
239.236	9.5
240.035	8.5
240.833	6.5
241.632	9.5
242.43	7.5
243.229	8.5
244.027	11.5
244.826	12.5
245.624	8.5
246.422	7.5
247.22	9.5
248.018	9.5
248.816	10.5
249.614	12.5
250.412	9.5
251.21	10.5
252.007	13.5
252.805	12.5
253.602	12.5
254.4	13.5
255.197	13.5
255.994	16.5
256.791	14.5
257.589	16.5
258.386	15.5
259.183	18.5
259.979	14.5
260.776	16.5
261.573	14.5
262.37	18.5
263.166	18.5
263.963	17.5
264.759	20.5
265.556	19.5
266.352	21.5
267.148	20.5
267.944	22.5
268.74	24.5
269.536	21.5
270.332	24.5
271.128	23.5
271.924	23.5
272.719	24.5
273.515	28.5
274.311	25.5
275.106	28.5
275.901	30.5
276.697	28.5
277.492	26.5
278.287	26.5
279.082	26.5
279.877	27.5
280.672	27.5
281.467	30.5
282.262	30.5
283.056	27.5
283.851	27.5
284.646	29.5
285.44	29.5
286.234	26.5
287.029	28.5
287.823	26.5
288.617	28.5
289.411	25.5
290.205	26.5
290.999	27.5
291.793	27.5
292.587	25.5
293.381	27.5
294.174	22.5
294.968	28.5
295.761	22.5
296.555	20.5
297.348	22.5
298.141	18.5
298.935	24.5
299.728	21.5
300.521	20.5
301.314	20.5
302.107	20.5
302.899	18.5
303.692	18.5
304.485	18.5
305.277	20.5
306.07	18.5
306.862	20.5
307.655	19.5
308.447	17.5
309.239	16.5
310.031	16.5
310.823	14.5
311.615	15.5
312.407	13.5
313.199	13.5
313.991	14.5
314.783	14.5
315.574	13.5
316.366	13.5
317.157	11.5
317.949	12.5
318.74	11.5
319.531	12.5
320.322	9.5
321.113	9.5
321.904	10.5
322.695	10.5
323.486	12.5
324.277	12.5
325.068	12.5
325.858	12.5
326.649	10.5
327.439	10.5
328.23	10.5
329.02	12.5
329.81	9.5
330.6	13.5
331.391	10.5
332.181	9.5
332.971	9.5
333.76	6.5
334.55	10.5
335.34	9.5
336.13	11.5
336.919	9.5
337.709	12.5
338.498	9.5
339.287	8.5
340.077	12.5
340.866	8.5
341.655	12.5
342.444	11.5
343.233	9.5
344.022	10.5
344.811	9.5
345.6	9.5
346.388	9.5
347.177	10.5
347.965	8.5
348.754	8.5
349.542	8.5
350.33	7.5
351.119	9.5
351.907	10.5
352.695	8.5
353.483	8.5
354.271	7.5
355.059	6.5
355.846	8.5
356.634	8.5
357.422	7.5
358.209	8.5
358.997	6.5
359.784	7.5
360.571	7.5
361.359	10.5
362.146	12.5
362.933	7.5
363.72	10.5
364.507	5.5
365.294	6.5
366.081	9.5
366.867	6.5
367.654	8.5
368.44	8.5
369.227	7.5
370.013	5.5
370.8	8.5
371.586	7.5
372.372	7.5
373.158	8.5
373.944	9.5
374.73	8.5
375.516	7.5
376.302	7.5
377.088	8.5
377.873	7.5
378.659	7.5
379.445	9.5
380.23	6.5
381.015	8.5
381.801	7.5
382.586	7.5
383.371	7.5
384.156	10.5
384.941	9.5
385.726	8.5
386.511	8.5
387.296	8.5
388.08	8.5
388.865	5.5
389.649	9.5
390.434	6.5
391.218	11.5
392.003	9.5
392.787	10.5
393.571	9.5
394.355	9.5
395.139	8.5
395.923	8.5
396.707	11.5
397.491	12.5
398.274	12.5
399.058	11.5
399.842	11.5
400.625	10.5
401.408	12.5
402.192	13.5
402.975	9.5
403.758	12.5
404.541	13.5
405.324	12.5
406.107	9.5
406.89	9.5
407.673	11.5
408.456	9.5
409.238	14.5
410.021	14.5
410.803	12.5
411.586	14.5
412.368	11.5
413.151	12.5
413.933	13.5
414.715	14.5
415.497	17.5
416.279	15.5
417.061	11.5
417.843	18.5
418.624	15.5
419.406	14.5
420.188	18.5
420.969	19.5
421.751	17.5
422.532	18.5
423.313	18.5
424.095	20.5
424.876	18.5
425.657	19.5
426.438	20.5
427.219	21.5
428	22.5
428.78	20.5
429.561	24.5
430.342	24.5
431.122	25.5
431.903	28.5
432.683	26.5
433.464	26.5
434.244	29.5
435.024	30.5
435.804	31.5
436.584	33.5
437.364	36.5
438.144	37.5
438.924	39.5
439.704	38.5
440.483	41.5
441.263	46.5
442.042	53.5
442.822	51.5
443.601	58.5
444.38	59.5
445.16	66.5
445.939	75.5
446.718	73.5
447.497	84.5
448.276	88.5
449.054	102.5
449.833	112.5
450.612	120.5
451.391	134.5
452.169	149.5
452.948	158.5
453.726	177.5
454.504	203.5
455.282	221.5
456.061	253.5
456.839	282.5
457.617	312.5
458.395	351.5
459.172	378.5
459.95	429.5
460.728	480.5
461.506	523.5
462.283	586.5
463.061	658.5
463.838	740.5
464.615	813.5
465.393	924.5
466.17	1017.5
466.947	1134.5
467.724	1236.5
468.501	1386.5
469.278	1534.5
470.055	1681.5
470.831	1870.5
471.608	2070.5
472.385	2290.5
473.161	2509.5
473.938	2794.5
474.714	3046.5
475.49	3334.5
476.266	3666.5
477.043	4018.5
477.819	4411.5
478.595	4828.5
479.371	5276.5
480.146	5763.5
480.922	6300.5
481.698	6833.5
482.473	7414.5
483.249	8137.5
484.024	8761.5
484.8	9602.5
485.575	10476.5
486.35	11299.5
487.126	12252.5
487.901	13241.5
488.676	14318.5
489.451	15518.5
490.225	16777.5
491	18026.5
491.775	19344.5
492.55	20789.5
493.324	22221.5
494.099	23682.5
494.873	25246.5
495.647	26820.5
496.422	28394.5
497.196	29907.5
497.97	31420.5
498.744	32938.5
499.518	34258.5
500.292	35462.5
501.066	36682.5
501.839	37786.5
502.613	38680.5
503.387	39348.5
504.16	40038.5
504.934	40330.5
505.707	40451.5
506.48	40354.5
507.253	40239.5
508.027	39645.5
508.8	38971.5
509.573	38284.5
510.346	37333.5
511.118	36298.5
511.891	35380.5
512.664	34278.5
513.437	33056.5
514.209	31782.5
514.982	30546.5
515.754	29391.5
516.526	28174.5
517.298	26983.5
518.071	25952.5
518.843	24875.5
519.615	23845.5
520.387	22918.5
521.159	22033.5
521.93	21181.5
522.702	20233.5
523.474	19445.5
524.245	18685.5
525.017	17954.5
525.788	17169.5
526.56	16404.5
527.331	15631.5
528.102	14963.5
528.873	14217.5
529.644	13571.5
530.415	12865.5
531.186	12202.5
531.957	11611.5
532.728	11056.5
533.498	10459.5
534.269	9929.5
535.039	9330.5
535.81	8920.5
536.58	8419.5
537.351	7962.5
538.121	7488.5
538.891	7092.5
539.661	6736.5
540.431	6390.5
541.201	6008.5
541.971	5739.5
542.741	5383.5
543.51	5110.5
544.28	4902.5
545.05	4655.5
545.819	4444.5
546.588	4192.5
547.358	3980.5
548.127	3813.5
548.896	3648.5
549.665	3438.5
550.434	3252.5
551.203	3113.5
551.972	2960.5
552.741	2790.5
553.51	2617.5
554.278	2482.5
555.047	2352.5
555.815	2211.5
556.584	2100.5
557.352	1989.5
558.121	1869.5
558.889	1760.5
559.657	1677.5
560.425	1568.5
561.193	1479.5
561.961	1407.5
562.729	1336.5
563.496	1260.5
564.264	1190.5
565.032	1128.5
565.799	1069.5
566.567	1016.5
567.334	955.5
568.101	898.5
568.869	854.5
569.636	807.5
570.403	764.5
571.17	717.5
571.937	675.5
572.704	640.5
573.471	612.5
574.237	565.5
575.004	534.5
575.771	509.5
576.537	473.5
577.303	448.5
578.07	420.5
578.836	399.5
579.602	379.5
580.368	358.5
581.134	343.5
581.9	320.5
582.666	307.5
583.432	291.5
584.198	273.5
584.964	267.5
585.729	243.5
586.495	234.5
587.26	216.5
588.025	210.5
588.791	202.5
589.556	186.5
590.321	180.5
591.086	168.5
591.851	164.5
592.616	153.5
593.381	150.5
594.146	139.5
594.911	133.5
595.675	125.5
596.44	125.5
597.204	117.5
597.969	111.5
598.733	106.5
599.497	100.5
600.261	103.5
601.025	95.5
601.79	89.5
602.553	89.5
603.317	80.5
604.081	81.5
604.845	77.5
605.609	70.5
606.372	69.5
607.136	71.5
607.899	65.5
608.662	61.5
609.426	60.5
610.189	57.5
610.952	57.5
611.715	51.5
612.478	49.5
613.241	48.5
614.004	46.5
614.767	46.5
615.529	44.5
616.292	43.5
617.055	42.5
617.817	39.5
618.579	40.5
619.342	37.5
620.104	33.5
620.866	34.5
621.628	33.5
622.39	30.5
623.152	32.5
623.914	28.5
624.676	29.5
625.438	29.5
626.199	24.5
626.961	25.5
627.722	26.5
628.484	25.5
629.245	24.5
630.006	25.5
630.768	22.5
631.529	24.5
632.29	23.5
633.051	21.5
633.812	18.5
634.573	19.5
635.333	17.5
636.094	18.5
636.855	18.5
637.615	17.5
638.376	20.5
639.136	18.5
639.896	18.5
640.657	16.5
641.417	15.5
642.177	14.5
642.937	15.5
643.697	13.5
644.457	13.5
645.216	12.5
645.976	12.5
646.736	15.5
647.495	12.5
648.255	9.5
649.014	13.5
649.774	14.5
650.533	12.5
651.292	10.5
652.051	13.5
652.81	13.5
653.569	10.5
654.328	11.5
655.087	11.5
655.846	12.5
656.604	10.5
657.363	9.5
658.121	11.5
658.88	11.5
659.638	10.5
660.397	8.5
661.155	8.5
661.913	9.5
662.671	8.5
663.429	9.5
664.187	9.5
664.945	10.5
665.703	8.5
666.46	8.5
667.218	9.5
667.976	5.5
668.733	6.5
669.49	8.5
670.248	6.5
671.005	8.5
671.762	6.5
672.519	6.5
673.276	7.5
674.033	5.5
674.79	8.5
675.547	8.5
676.304	5.5
677.06	7.5
677.817	7.5
678.574	7.5
679.33	5.5
680.086	6.5
680.843	4.5
681.599	6.5
682.355	6.5
683.111	8.5
683.867	3.5
684.623	8.5
685.379	5.5
686.135	6.5
686.89	9.5
687.646	8.5
688.402	6.5
689.157	7.5
689.912	3.5
690.668	6.5
691.423	3.5
692.178	7.5
692.933	6.5
693.688	7.5
694.443	4.5
695.198	4.5
695.953	8.5
696.708	5.5
697.462	4.5
698.217	5.5
698.972	7.5
699.726	5.5
700.48	4.5
701.235	6.5
701.989	6.5
702.743	7.5
703.497	5.5
704.251	5.5
705.005	5.5
705.759	6.5
706.513	5.5
707.266	4.5
708.02	5.5
708.774	4.5
709.527	5.5
710.28	6.5
711.034	8.5
711.787	4.5
712.54	3.5
713.293	4.5
714.046	2.5
714.799	5.5
715.552	7.5
716.305	5.5
717.058	5.5
717.81	4.5
718.563	5.5
719.315	6.5
720.068	6.5
720.82	5.5
721.573	5.5
722.325	7.5
723.077	7.5
723.829	7.5
724.581	7.5
725.333	7.5
726.085	6.5
726.836	5.5
727.588	7.5
728.34	4.5
729.091	6.5
729.843	7.5
730.594	8.5
731.346	7.5
732.097	5.5
732.848	5.5
733.599	7.5
734.35	7.5
735.101	8.5
735.852	6.5
736.603	7.5
737.354	7.5
738.104	7.5
738.855	8.5
739.605	9.5
740.356	8.5
741.106	8.5
741.856	8.5
742.607	10.5
743.357	8.5
744.107	5.5
744.857	10.5
745.607	8.5
746.357	6.5
747.106	7.5
747.856	7.5
748.606	8.5
749.355	6.5
750.105	9.5
750.854	9.5
751.603	9.5
752.353	6.5
753.102	11.5
753.851	10.5
754.6	9.5
755.349	9.5
756.098	12.5
756.847	10.5
757.595	5.5
758.344	8.5
759.093	10.5
759.841	10.5
760.589	10.5
761.338	12.5
762.086	10.5
762.834	10.5
763.582	9.5
764.331	10.5
765.079	10.5
765.826	10.5
766.574	10.5
767.322	11.5
768.07	9.5
768.817	10.5
769.565	12.5
770.312	12.5
771.06	11.5
771.807	13.5
772.554	13.5
773.302	12.5
774.049	14.5
774.796	10.5
775.543	12.5
776.29	11.5
777.036	10.5
777.783	14.5
778.53	13.5
779.276	13.5
780.023	13.5
780.769	12.5
781.516	12.5
782.262	10.5
783.008	12.5
783.754	12.5
784.5	12.5
785.246	11.5
785.992	9.5
786.738	11.5
787.484	12.5
788.23	13.5
788.975	14.5
789.721	13.5
790.466	11.5
791.212	13.5
791.957	9.5
792.702	9.5
793.447	13.5
794.193	12.5
794.938	12.5
795.683	11.5
796.427	11.5
797.172	9.5
797.917	11.5
798.662	12.5
799.406	10.5
800.151	12.5
800.895	7.5
801.64	9.5
802.384	10.5
803.128	9.5
803.872	9.5
804.616	11.5
805.36	8.5
806.104	9.5
806.848	8.5
807.592	8.5
808.336	8.5
809.079	6.5
809.823	10.5
810.566	8.5
811.31	6.5
812.053	9.5
812.796	8.5
813.539	8.5
814.283	5.5
815.026	8.5
815.769	8.5
816.511	5.5
817.254	5.5
817.997	4.5
818.74	7.5
819.482	7.5
820.225	6.5
820.967	7.5
821.71	6.5
822.452	6.5
823.194	5.5
823.936	8.5
824.678	7.5
825.42	4.5
826.162	6.5
826.904	4.5
827.646	6.5
828.388	5.5
829.129	7.5
829.871	5.5
830.612	7.5
831.354	6.5
832.095	4.5
832.836	5.5
833.577	6.5
834.319	4.5
835.06	2.5
835.801	4.5
836.542	2.5
837.282	5.5
838.023	6.5
838.764	4.5
839.504	3.5
840.245	3.5
840.985	2.5
841.726	5.5
842.466	3.5
843.206	5.5
843.946	4.5
844.687	4.5
845.427	3.5
846.166	4.5
846.906	4.5
847.646	2.5
848.386	3.5
849.125	5.5
849.865	3.5
850.605	3.5
851.344	4.5
852.083	4.5
852.823	4.5
853.562	4.5
854.301	5.5
855.04	2.5
855.779	3.5
856.518	3.5
857.257	4.5
857.995	3.5
858.734	3.5
859.473	3.5
860.211	2.5
860.95	2.5
861.688	4.5
862.426	1.5
863.165	2.5
863.903	2.5
864.641	3.5
865.379	3.5
866.117	2.5
866.855	2.5
867.593	2.5
868.33	4.5
869.068	1.5
869.806	2.5
870.543	2.5
871.28	1.5
872.018	2.5
872.755	2.5
873.492	3.5
874.229	1.5
874.967	1.5
875.703	2.5
876.44	1.5
877.177	1.5
877.914	-0.5
878.651	0.5
879.387	1.5
880.124	0.5
880.86	1.5
881.597	2.5
882.333	0.5
883.069	1.5
883.806	0.5
884.542	0.5
885.278	0.5
886.014	2.5
886.749	-0.5
887.485	1.5
888.221	0.5
888.957	2.5
889.692	0.5
890.428	1.5
891.163	0.5
891.899	0.5
892.634	2.5
893.369	0.5
894.104	4.5
894.839	1.5
895.574	-0.5
896.309	1.5
897.044	0.5
897.779	0.5
898.514	-1.5
899.248	1.5
899.983	2.5
900.717	0.5
901.452	2.5
902.186	1.5
902.92	-0.5
903.654	0.5
904.389	1.5
905.123	3.5
905.857	1.5
906.59	1.5
907.324	0.5
908.058	1.5
908.792	0.5
909.525	1.5
910.259	-0.5
910.992	1.5
911.726	1.5
912.459	0.5
913.192	0.5
913.925	-0.5
914.658	-0.5
915.391	0.5
916.124	1.5
916.857	3.5
917.59	0.5
918.323	-0.5
919.055	0.5
919.788	1.5
920.521	-2.5
921.253	0.5
921.985	1.5
922.718	0.5
923.45	-0.5
924.182	0.5
924.914	0.5
925.646	-0.5
926.378	0.5
927.11	0.5
927.841	0.5
928.573	1.5
929.305	0.5
930.036	2.5
930.768	0.5
931.499	2.5
932.23	1.5
932.962	1.5
933.693	1.5
934.424	0.5
935.155	-0.5
935.886	-1.5
936.617	-1.5
937.348	-0.5
938.078	0.5
938.809	-0.5
939.54	0.5
940.27	1.5
941.001	2.5
941.731	1.5
942.461	-2.5
943.191	-0.5
943.922	1.5
944.652	-0.5
945.382	1.5
946.112	-0.5
946.841	0.5
947.571	-0.5
948.301	3.5
949.031	1.5
949.76	-1.5
950.49	1.5
951.219	-0.5
951.948	3.5
952.678	-0.5
953.407	-0.5
954.136	-0.5
954.865	0.5
955.594	-0.5
956.323	-2.5
957.052	1.5
957.78	0.5
958.509	-0.5
959.238	0.5
959.966	0.5
960.695	-0.5
961.423	1.5
962.151	-0.5
962.88	-0.5
963.608	0.5
964.336	-0.5
965.064	0.5
965.792	0.5
966.52	0.5
967.247	0.5
967.975	1.5
968.703	0.5
969.43	-1.5
970.158	-1.5
970.885	1.5
971.613	-0.5
972.34	0.5
973.067	-0.5
973.794	0.5
974.521	-2.5
975.248	-1.5
975.975	1.5
976.702	-3.5
977.429	-0.5
978.156	-0.5
978.882	0.5
979.609	-0.5
980.335	0.5
981.062	0.5
981.788	-2.5
982.514	-0.5
983.24	0.5
983.967	0.5
984.693	2.5
985.419	0.5
986.144	0.5
986.87	2.5
987.596	-0.5
988.322	-1.5
989.047	-0.5
989.773	-1.5
990.498	1.5
991.224	0.5
991.949	0.5
992.674	1.5
993.399	-0.5
994.124	3.5
994.849	0.5
995.574	-0.5
996.299	1.5
997.024	0.5
997.749	-2.5
998.473	0.5
999.198	1.5
999.922	0.5
1000.647	2.5
1001.371	3.5
1002.095	-2.5
1002.82	-0.5
1003.544	0.5
1004.268	2.5
1004.992	1.5
1005.716	3.5
1006.439	1.5
1007.163	4.5
1007.887	4.5
1008.611	-0.5
1009.334	-1.5
1010.058	-0.5
1010.781	-0.5
1011.504	2.5
1012.228	-0.5
1012.951	0.5
1013.674	-2.5
1014.397	1.5
1015.12	-0.5
