节点500_565_QEPB04081__525__09-59-09-092.txt的数据

Date: Thu Nov 13 09:59:09 CST 2025
User: PC
Spectrometer: QEPB0408
触发模式: 0
积分时间 (秒): 1.000000E-2
Scans to average: 1
启用暗噪声校正: true
启用非线性校正: false
滑动平均宽度: 0
X轴模式: Wavelengths
Number of Pixels in Spectrum: 1044
>>>>>Begin Spectral Data<<<<<
220.843	4.38
221.644	5.38
222.444	5.38
223.244	4.38
224.045	6.38
224.845	5.38
225.645	7.38
226.445	6.38
227.245	4.38
228.045	4.38
228.845	7.38
229.645	8.38
230.444	4.38
231.244	6.38
232.043	8.38
232.843	7.38
233.642	5.38
234.442	8.38
235.241	7.38
236.04	8.38
236.839	5.38
237.638	7.38
238.437	7.38
239.236	6.38
240.035	5.38
240.833	9.38
241.632	7.38
242.43	7.38
243.229	12.38
244.027	8.38
244.826	11.38
245.624	12.38
246.422	13.38
247.22	10.38
248.018	9.38
248.816	11.38
249.614	13.38
250.412	11.38
251.21	13.38
252.007	12.38
252.805	10.38
253.602	14.38
254.4	12.38
255.197	12.38
255.994	14.38
256.791	14.38
257.589	16.38
258.386	16.38
259.183	17.38
259.979	15.38
260.776	19.38
261.573	17.38
262.37	19.38
263.166	21.38
263.963	17.38
264.759	17.38
265.556	19.38
266.352	21.38
267.148	21.38
267.944	22.38
268.74	20.38
269.536	22.38
270.332	25.38
271.128	25.38
271.924	24.38
272.719	23.38
273.515	23.38
274.311	22.38
275.106	26.38
275.901	24.38
276.697	28.38
277.492	27.38
278.287	26.38
279.082	28.38
279.877	27.38
280.672	28.38
281.467	27.38
282.262	24.38
283.056	29.38
283.851	26.38
284.646	27.38
285.44	25.38
286.234	25.38
287.029	25.38
287.823	26.38
288.617	27.38
289.411	25.38
290.205	28.38
290.999	26.38
291.793	25.38
292.587	25.38
293.381	25.38
294.174	27.38
294.968	23.38
295.761	21.38
296.555	21.38
297.348	24.38
298.141	23.38
298.935	24.38
299.728	24.38
300.521	22.38
301.314	23.38
302.107	23.38
302.899	20.38
303.692	19.38
304.485	17.38
305.277	21.38
306.07	19.38
306.862	19.38
307.655	19.38
308.447	18.38
309.239	18.38
310.031	15.38
310.823	16.38
311.615	14.38
312.407	14.38
313.199	15.38
313.991	18.38
314.783	13.38
315.574	17.38
316.366	12.38
317.157	11.38
317.949	12.38
318.74	13.38
319.531	13.38
320.322	14.38
321.113	11.38
321.904	12.38
322.695	12.38
323.486	11.38
324.277	12.38
325.068	10.38
325.858	9.38
326.649	10.38
327.439	10.38
328.23	10.38
329.02	11.38
329.81	10.38
330.6	11.38
331.391	9.38
332.181	12.38
332.971	11.38
333.76	11.38
334.55	10.38
335.34	10.38
336.13	11.38
336.919	8.38
337.709	10.38
338.498	8.38
339.287	7.38
340.077	9.38
340.866	9.38
341.655	12.38
342.444	8.38
343.233	11.38
344.022	9.38
344.811	10.38
345.6	10.38
346.388	10.38
347.177	10.38
347.965	9.38
348.754	10.38
349.542	10.38
350.33	9.38
351.119	10.38
351.907	9.38
352.695	11.38
353.483	8.38
354.271	11.38
355.059	10.38
355.846	9.38
356.634	10.38
357.422	7.38
358.209	7.38
358.997	8.38
359.784	10.38
360.571	10.38
361.359	9.38
362.146	10.38
362.933	10.38
363.72	9.38
364.507	7.38
365.294	8.38
366.081	8.38
366.867	9.38
367.654	7.38
368.44	7.38
369.227	9.38
370.013	6.38
370.8	9.38
371.586	7.38
372.372	9.38
373.158	7.38
373.944	8.38
374.73	7.38
375.516	6.38
376.302	8.38
377.088	7.38
377.873	7.38
378.659	8.38
379.445	8.38
380.23	7.38
381.015	9.38
381.801	7.38
382.586	10.38
383.371	7.38
384.156	7.38
384.941	7.38
385.726	9.38
386.511	8.38
387.296	10.38
388.08	10.38
388.865	8.38
389.649	10.38
390.434	10.38
391.218	9.38
392.003	11.38
392.787	9.38
393.571	10.38
394.355	11.38
395.139	8.38
395.923	11.38
396.707	10.38
397.491	11.38
398.274	9.38
399.058	9.38
399.842	10.38
400.625	10.38
401.408	13.38
402.192	11.38
402.975	9.38
403.758	12.38
404.541	11.38
405.324	9.38
406.107	11.38
406.89	14.38
407.673	11.38
408.456	11.38
409.238	12.38
410.021	10.38
410.803	14.38
411.586	14.38
412.368	14.38
413.151	15.38
413.933	14.38
414.715	14.38
415.497	14.38
416.279	15.38
417.061	17.38
417.843	17.38
418.624	16.38
419.406	14.38
420.188	16.38
420.969	17.38
421.751	18.38
422.532	20.38
423.313	19.38
424.095	17.38
424.876	21.38
425.657	22.38
426.438	20.38
427.219	23.38
428	21.38
428.78	24.38
429.561	20.38
430.342	25.38
431.122	26.38
431.903	23.38
432.683	29.38
433.464	28.38
434.244	29.38
435.024	32.38
435.804	32.38
436.584	34.38
437.364	34.38
438.144	40.38
438.924	42.38
439.704	41.38
440.483	45.38
441.263	48.38
442.042	52.38
442.822	54.38
443.601	62.38
444.38	69.38
445.16	75.38
445.939	77.38
446.718	80.38
447.497	88.38
448.276	98.38
449.054	109.38
449.833	116.38
450.612	127.38
451.391	142.38
452.169	160.38
452.948	175.38
453.726	195.38
454.504	207.38
455.282	240.38
456.061	260.38
456.839	290.38
457.617	325.38
458.395	366.38
459.172	398.38
459.95	444.38
460.728	499.38
461.506	551.38
462.283	609.38
463.061	681.38
463.838	757.38
464.615	845.38
465.393	944.38
466.17	1033.38
466.947	1145.38
467.724	1279.38
468.501	1412.38
469.278	1561.38
470.055	1718.38
470.831	1869.38
471.608	2078.38
472.385	2284.38
473.161	2500.38
473.938	2775.38
474.714	3021.38
475.49	3312.38
476.266	3620.38
477.043	3944.38
477.819	4336.38
478.595	4737.38
479.371	5135.38
480.146	5571.38
480.922	6130.38
481.698	6611.38
482.473	7155.38
483.249	7782.38
484.024	8429.38
484.8	9140.38
485.575	9891.38
486.35	10720.38
487.126	11603.38
487.901	12453.38
488.676	13512.38
489.451	14588.38
490.225	15657.38
491	16863.38
491.775	18023.38
492.55	19366.38
493.324	20615.38
494.099	22036.38
494.873	23438.38
495.647	24947.38
496.422	26346.38
497.196	27736.38
497.97	29261.38
498.744	30693.38
499.518	31863.38
500.292	33203.38
501.066	34369.38
501.839	35419.38
502.613	36334.38
503.387	37108.38
504.16	37855.38
504.934	38264.38
505.707	38618.38
506.48	38672.38
507.253	38613.38
508.027	38237.38
508.8	37827.38
509.573	37231.38
510.346	36595.38
511.118	35667.38
511.891	34888.38
512.664	33835.38
513.437	32784.38
514.209	31661.38
514.982	30515.38
515.754	29434.38
516.526	28229.38
517.298	27090.38
518.071	26021.38
518.843	25026.38
519.615	24059.38
520.387	23116.38
521.159	22224.38
521.93	21337.38
522.702	20419.38
523.474	19612.38
524.245	18828.38
525.017	18089.38
525.788	17362.38
526.56	16656.38
527.331	15875.38
528.102	15185.38
528.873	14462.38
529.644	13772.38
530.415	13111.38
531.186	12470.38
531.957	11877.38
532.728	11320.38
533.498	10737.38
534.269	10167.38
535.039	9557.38
535.81	9126.38
536.58	8621.38
537.351	8175.38
538.121	7743.38
538.891	7362.38
539.661	6946.38
540.431	6602.38
541.201	6219.38
541.971	5940.38
542.741	5617.38
543.51	5281.38
544.28	5029.38
545.05	4781.38
545.819	4585.38
546.588	4350.38
547.358	4116.38
548.127	3904.38
548.896	3732.38
549.665	3559.38
550.434	3374.38
551.203	3198.38
551.972	3024.38
552.741	2877.38
553.51	2713.38
554.278	2567.38
555.047	2411.38
555.815	2303.38
556.584	2184.38
557.352	2049.38
558.121	1955.38
558.889	1838.38
559.657	1721.38
560.425	1625.38
561.193	1547.38
561.961	1460.38
562.729	1396.38
563.496	1313.38
564.264	1256.38
565.032	1184.38
565.799	1117.38
566.567	1046.38
567.334	992.38
568.101	941.38
568.869	879.38
569.636	843.38
570.403	800.38
571.17	757.38
571.937	708.38
572.704	671.38
573.471	632.38
574.237	586.38
575.004	564.38
575.771	527.38
576.537	497.38
577.303	475.38
578.07	448.38
578.836	425.38
579.602	401.38
580.368	385.38
581.134	354.38
581.9	335.38
582.666	316.38
583.432	301.38
584.198	289.38
584.964	274.38
585.729	264.38
586.495	242.38
587.26	233.38
588.025	225.38
588.791	215.38
589.556	199.38
590.321	192.38
591.086	180.38
591.851	173.38
592.616	168.38
593.381	152.38
594.146	139.38
594.911	143.38
595.675	131.38
596.44	124.38
597.204	125.38
597.969	119.38
598.733	112.38
599.497	108.38
600.261	105.38
601.025	97.38
601.79	94.38
602.553	92.38
603.317	85.38
604.081	83.38
604.845	81.38
605.609	70.38
606.372	73.38
607.136	72.38
607.899	65.38
608.662	65.38
609.426	62.38
610.189	60.38
610.952	56.38
611.715	53.38
612.478	53.38
613.241	51.38
614.004	48.38
614.767	47.38
615.529	45.38
616.292	44.38
617.055	41.38
617.817	41.38
618.579	42.38
619.342	43.38
620.104	36.38
620.866	37.38
621.628	34.38
622.39	34.38
623.152	34.38
623.914	32.38
624.676	31.38
625.438	31.38
626.199	29.38
626.961	30.38
627.722	25.38
628.484	27.38
629.245	27.38
630.006	23.38
630.768	23.38
631.529	26.38
632.29	23.38
633.051	20.38
633.812	19.38
634.573	20.38
635.333	19.38
636.094	18.38
636.855	17.38
637.615	18.38
638.376	23.38
639.136	19.38
639.896	15.38
640.657	17.38
641.417	17.38
642.177	17.38
642.937	15.38
643.697	15.38
644.457	13.38
645.216	16.38
645.976	15.38
646.736	14.38
647.495	16.38
648.255	14.38
649.014	15.38
649.774	13.38
650.533	11.38
651.292	12.38
652.051	9.38
652.81	11.38
653.569	13.38
654.328	9.38
655.087	11.38
655.846	10.38
656.604	9.38
657.363	11.38
658.121	10.38
658.88	11.38
659.638	7.38
660.397	11.38
661.155	11.38
661.913	10.38
662.671	9.38
663.429	10.38
664.187	10.38
664.945	9.38
665.703	10.38
666.46	7.38
667.218	9.38
667.976	7.38
668.733	8.38
669.49	7.38
670.248	11.38
671.005	9.38
671.762	9.38
672.519	9.38
673.276	9.38
674.033	8.38
674.79	6.38
675.547	8.38
676.304	7.38
677.06	8.38
677.817	7.38
678.574	8.38
679.33	7.38
680.086	6.38
680.843	7.38
681.599	8.38
682.355	6.38
683.111	8.38
683.867	7.38
684.623	9.38
685.379	4.38
686.135	8.38
686.89	7.38
687.646	8.38
688.402	8.38
689.157	6.38
689.912	6.38
690.668	8.38
691.423	6.38
692.178	7.38
692.933	6.38
693.688	7.38
694.443	5.38
695.198	7.38
695.953	4.38
696.708	7.38
697.462	9.38
698.217	6.38
698.972	5.38
699.726	7.38
700.48	6.38
701.235	5.38
701.989	4.38
702.743	4.38
703.497	4.38
704.251	6.38
705.005	8.38
705.759	7.38
706.513	6.38
707.266	8.38
708.02	5.38
708.774	8.38
709.527	8.38
710.28	9.38
711.034	6.38
711.787	3.38
712.54	7.38
713.293	7.38
714.046	7.38
714.799	6.38
715.552	7.38
716.305	7.38
717.058	7.38
717.81	6.38
718.563	7.38
719.315	7.38
720.068	4.38
720.82	8.38
721.573	7.38
722.325	4.38
723.077	8.38
723.829	5.38
724.581	6.38
725.333	6.38
726.085	8.38
726.836	6.38
727.588	7.38
728.34	5.38
729.091	7.38
729.843	8.38
730.594	5.38
731.346	8.38
732.097	7.38
732.848	6.38
733.599	9.38
734.35	7.38
735.101	7.38
735.852	5.38
736.603	7.38
737.354	8.38
738.104	8.38
738.855	8.38
739.605	5.38
740.356	9.38
741.106	7.38
741.856	7.38
742.607	9.38
743.357	6.38
744.107	7.38
744.857	6.38
745.607	8.38
746.357	10.38
747.106	11.38
747.856	7.38
748.606	10.38
749.355	10.38
750.105	9.38
750.854	12.38
751.603	7.38
752.353	11.38
753.102	8.38
753.851	8.38
754.6	7.38
755.349	9.38
756.098	10.38
756.847	9.38
757.595	13.38
758.344	8.38
759.093	10.38
759.841	9.38
760.589	7.38
761.338	10.38
762.086	10.38
762.834	11.38
763.582	10.38
764.331	10.38
765.079	8.38
765.826	9.38
766.574	9.38
767.322	9.38
768.07	11.38
768.817	11.38
769.565	9.38
770.312	12.38
771.06	10.38
771.807	11.38
772.554	13.38
773.302	12.38
774.049	11.38
774.796	12.38
775.543	11.38
776.29	13.38
777.036	12.38
777.783	14.38
778.53	13.38
779.276	11.38
780.023	12.38
780.769	11.38
781.516	12.38
782.262	11.38
783.008	13.38
783.754	14.38
784.5	15.38
785.246	13.38
785.992	12.38
786.738	12.38
787.484	13.38
788.23	13.38
788.975	12.38
789.721	12.38
790.466	11.38
791.212	13.38
791.957	10.38
792.702	13.38
793.447	12.38
794.193	12.38
794.938	11.38
795.683	11.38
796.427	13.38
797.172	11.38
797.917	12.38
798.662	11.38
799.406	11.38
800.151	9.38
800.895	10.38
801.64	8.38
802.384	11.38
803.128	10.38
803.872	11.38
804.616	12.38
805.36	10.38
806.104	9.38
806.848	9.38
807.592	7.38
808.336	12.38
809.079	8.38
809.823	8.38
810.566	9.38
811.31	9.38
812.053	10.38
812.796	9.38
813.539	5.38
814.283	8.38
815.026	11.38
815.769	6.38
816.511	7.38
817.254	6.38
817.997	7.38
818.74	6.38
819.482	7.38
820.225	7.38
820.967	7.38
821.71	9.38
822.452	7.38
823.194	6.38
823.936	6.38
824.678	7.38
825.42	8.38
826.162	5.38
826.904	7.38
827.646	7.38
828.388	6.38
829.129	5.38
829.871	5.38
830.612	8.38
831.354	7.38
832.095	6.38
832.836	5.38
833.577	6.38
834.319	5.38
835.06	5.38
835.801	6.38
836.542	3.38
837.282	7.38
838.023	5.38
838.764	6.38
839.504	4.38
840.245	5.38
840.985	4.38
841.726	4.38
842.466	5.38
843.206	4.38
843.946	2.38
844.687	5.38
845.427	3.38
846.166	7.38
846.906	3.38
847.646	4.38
848.386	4.38
849.125	3.38
849.865	2.38
850.605	5.38
851.344	4.38
852.083	4.38
852.823	7.38
853.562	2.38
854.301	4.38
855.04	4.38
855.779	6.38
856.518	6.38
857.257	4.38
857.995	3.38
858.734	4.38
859.473	5.38
860.211	2.38
860.95	4.38
861.688	5.38
862.426	5.38
863.165	4.38
863.903	1.38
864.641	3.38
865.379	3.38
866.117	3.38
866.855	5.38
867.593	0.38
868.33	3.38
869.068	1.38
869.806	4.38
870.543	3.38
871.28	5.38
872.018	2.38
872.755	3.38
873.492	3.38
874.229	4.38
874.967	2.38
875.703	4.38
876.44	3.38
877.177	1.38
877.914	-0.62
878.651	3.38
879.387	2.38
880.124	2.38
880.86	2.38
881.597	3.38
882.333	2.38
883.069	3.38
883.806	4.38
884.542	1.38
885.278	4.38
886.014	1.38
886.749	3.38
887.485	2.38
888.221	1.38
888.957	4.38
889.692	-0.62
890.428	3.38
891.163	1.38
891.899	3.38
892.634	1.38
893.369	2.38
894.104	2.38
894.839	3.38
895.574	3.38
896.309	1.38
897.044	2.38
897.779	1.38
898.514	1.38
899.248	0.38
899.983	-1.62
900.717	-0.62
901.452	0.38
902.186	4.38
902.92	3.38
903.654	1.38
904.389	0.38
905.123	1.38
905.857	1.38
906.59	1.38
907.324	2.38
908.058	0.38
908.792	0.38
909.525	2.38
910.259	1.38
910.992	1.38
911.726	1.38
912.459	2.38
913.192	-0.62
913.925	1.38
914.658	0.38
915.391	-0.62
916.124	0.38
916.857	2.38
917.59	-1.62
918.323	1.38
919.055	1.38
919.788	2.38
920.521	1.38
921.253	1.38
921.985	1.38
922.718	0.38
923.45	-1.62
924.182	2.38
924.914	1.38
925.646	-0.62
926.378	-0.62
927.11	0.38
927.841	1.38
928.573	0.38
929.305	-0.62
930.036	3.38
930.768	2.38
931.499	0.38
932.23	1.38
932.962	1.38
933.693	1.38
934.424	1.38
935.155	-0.62
935.886	2.38
936.617	1.38
937.348	1.38
938.078	2.38
938.809	1.38
939.54	0.38
940.27	2.38
941.001	0.38
941.731	2.38
942.461	0.38
943.191	1.38
943.922	1.38
944.652	3.38
945.382	1.38
946.112	1.38
946.841	0.38
947.571	1.38
948.301	0.38
949.031	4.38
949.76	1.38
950.49	-0.62
951.219	1.38
951.948	1.38
952.678	0.38
953.407	2.38
954.136	2.38
954.865	1.38
955.594	-0.62
956.323	1.38
957.052	-1.62
957.78	0.38
958.509	0.38
959.238	1.38
959.966	3.38
960.695	-0.62
961.423	2.38
962.151	2.38
962.88	0.38
963.608	2.38
964.336	0.38
965.064	1.38
965.792	0.38
966.52	1.38
967.247	-0.62
967.975	3.38
968.703	0.38
969.43	0.38
970.158	2.38
970.885	0.38
971.613	2.38
972.34	-0.62
973.067	2.38
973.794	1.38
974.521	-1.62
975.248	1.38
975.975	1.38
976.702	2.38
977.429	-0.62
978.156	3.38
978.882	1.38
979.609	2.38
980.335	1.38
981.062	0.38
981.788	1.38
982.514	-0.62
983.24	1.38
983.967	0.38
984.693	1.38
985.419	1.38
986.144	2.38
986.87	1.38
987.596	1.38
988.322	1.38
989.047	-0.62
989.773	3.38
990.498	1.38
991.224	1.38
991.949	1.38
992.674	0.38
993.399	2.38
994.124	1.38
994.849	2.38
995.574	1.38
996.299	1.38
997.024	-1.62
997.749	1.38
998.473	2.38
999.198	1.38
999.922	1.38
1000.647	1.38
1001.371	4.38
1002.095	-1.62
1002.82	0.38
1003.544	-1.62
1004.268	4.38
1004.992	2.38
1005.716	2.38
1006.439	1.38
1007.163	3.38
1007.887	4.38
1008.611	0.38
1009.334	-0.62
1010.058	2.38
1010.781	0.38
1011.504	1.38
1012.228	-0.62
1012.951	-1.62
1013.674	1.38
1014.397	-0.62
1015.12	-0.62
