节点500_565_QEPB04081__106__09-52-11-964.txt的数据

Date: Thu Nov 13 09:52:11 CST 2025
User: PC
Spectrometer: QEPB0408
触发模式: 0
积分时间 (秒): 1.000000E-2
Scans to average: 1
启用暗噪声校正: true
启用非线性校正: false
滑动平均宽度: 0
X轴模式: Wavelengths
Number of Pixels in Spectrum: 1044
>>>>>Begin Spectral Data<<<<<
220.843	6.38
221.644	4.38
222.444	4.38
223.244	6.38
224.045	5.38
224.845	4.38
225.645	6.38
226.445	6.38
227.245	6.38
228.045	5.38
228.845	4.38
229.645	7.38
230.444	5.38
231.244	5.38
232.043	7.38
232.843	5.38
233.642	9.38
234.442	8.38
235.241	11.38
236.04	6.38
236.839	9.38
237.638	10.38
238.437	8.38
239.236	9.38
240.035	8.38
240.833	12.38
241.632	10.38
242.43	8.38
243.229	11.38
244.027	8.38
244.826	9.38
245.624	12.38
246.422	12.38
247.22	13.38
248.018	15.38
248.816	13.38
249.614	12.38
250.412	13.38
251.21	16.38
252.007	14.38
252.805	16.38
253.602	16.38
254.4	13.38
255.197	15.38
255.994	16.38
256.791	15.38
257.589	16.38
258.386	16.38
259.183	17.38
259.979	20.38
260.776	20.38
261.573	22.38
262.37	17.38
263.166	22.38
263.963	22.38
264.759	21.38
265.556	25.38
266.352	23.38
267.148	27.38
267.944	27.38
268.74	27.38
269.536	22.38
270.332	26.38
271.128	28.38
271.924	28.38
272.719	27.38
273.515	27.38
274.311	30.38
275.106	27.38
275.901	26.38
276.697	32.38
277.492	32.38
278.287	29.38
279.082	29.38
279.877	30.38
280.672	29.38
281.467	32.38
282.262	29.38
283.056	33.38
283.851	30.38
284.646	29.38
285.44	33.38
286.234	29.38
287.029	26.38
287.823	29.38
288.617	29.38
289.411	30.38
290.205	30.38
290.999	29.38
291.793	26.38
292.587	30.38
293.381	26.38
294.174	27.38
294.968	23.38
295.761	24.38
296.555	28.38
297.348	20.38
298.141	23.38
298.935	26.38
299.728	22.38
300.521	22.38
301.314	22.38
302.107	22.38
302.899	21.38
303.692	19.38
304.485	19.38
305.277	20.38
306.07	18.38
306.862	17.38
307.655	18.38
308.447	17.38
309.239	19.38
310.031	20.38
310.823	18.38
311.615	16.38
312.407	16.38
313.199	14.38
313.991	13.38
314.783	15.38
315.574	14.38
316.366	13.38
317.157	11.38
317.949	10.38
318.74	15.38
319.531	12.38
320.322	12.38
321.113	13.38
321.904	12.38
322.695	12.38
323.486	11.38
324.277	12.38
325.068	12.38
325.858	10.38
326.649	10.38
327.439	11.38
328.23	10.38
329.02	10.38
329.81	11.38
330.6	12.38
331.391	12.38
332.181	12.38
332.971	9.38
333.76	12.38
334.55	11.38
335.34	11.38
336.13	9.38
336.919	11.38
337.709	9.38
338.498	10.38
339.287	9.38
340.077	8.38
340.866	11.38
341.655	9.38
342.444	12.38
343.233	8.38
344.022	9.38
344.811	12.38
345.6	12.38
346.388	11.38
347.177	8.38
347.965	11.38
348.754	9.38
349.542	10.38
350.33	12.38
351.119	6.38
351.907	8.38
352.695	9.38
353.483	9.38
354.271	7.38
355.059	10.38
355.846	9.38
356.634	7.38
357.422	12.38
358.209	6.38
358.997	10.38
359.784	9.38
360.571	7.38
361.359	8.38
362.146	6.38
362.933	7.38
363.72	8.38
364.507	11.38
365.294	8.38
366.081	9.38
366.867	9.38
367.654	8.38
368.44	9.38
369.227	9.38
370.013	9.38
370.8	7.38
371.586	9.38
372.372	8.38
373.158	6.38
373.944	9.38
374.73	10.38
375.516	10.38
376.302	10.38
377.088	8.38
377.873	8.38
378.659	7.38
379.445	10.38
380.23	8.38
381.015	10.38
381.801	11.38
382.586	10.38
383.371	12.38
384.156	9.38
384.941	8.38
385.726	6.38
386.511	10.38
387.296	10.38
388.08	11.38
388.865	11.38
389.649	9.38
390.434	7.38
391.218	10.38
392.003	10.38
392.787	11.38
393.571	9.38
394.355	7.38
395.139	12.38
395.923	9.38
396.707	10.38
397.491	11.38
398.274	13.38
399.058	12.38
399.842	11.38
400.625	11.38
401.408	11.38
402.192	12.38
402.975	9.38
403.758	12.38
404.541	13.38
405.324	12.38
406.107	12.38
406.89	14.38
407.673	14.38
408.456	14.38
409.238	13.38
410.021	15.38
410.803	13.38
411.586	15.38
412.368	14.38
413.151	14.38
413.933	16.38
414.715	14.38
415.497	14.38
416.279	15.38
417.061	16.38
417.843	16.38
418.624	17.38
419.406	20.38
420.188	18.38
420.969	18.38
421.751	18.38
422.532	19.38
423.313	18.38
424.095	20.38
424.876	20.38
425.657	18.38
426.438	24.38
427.219	24.38
428	22.38
428.78	23.38
429.561	24.38
430.342	25.38
431.122	25.38
431.903	29.38
432.683	29.38
433.464	29.38
434.244	30.38
435.024	30.38
435.804	34.38
436.584	33.38
437.364	35.38
438.144	36.38
438.924	37.38
439.704	43.38
440.483	44.38
441.263	44.38
442.042	49.38
442.822	53.38
443.601	55.38
444.38	60.38
445.16	64.38
445.939	68.38
446.718	78.38
447.497	81.38
448.276	92.38
449.054	100.38
449.833	107.38
450.612	113.38
451.391	125.38
452.169	135.38
452.948	152.38
453.726	164.38
454.504	186.38
455.282	205.38
456.061	227.38
456.839	253.38
457.617	282.38
458.395	315.38
459.172	350.38
459.95	399.38
460.728	442.38
461.506	485.38
462.283	550.38
463.061	622.38
463.838	685.38
464.615	771.38
465.393	864.38
466.17	949.38
466.947	1070.38
467.724	1189.38
468.501	1336.38
469.278	1480.38
470.055	1649.38
470.831	1818.38
471.608	2039.38
472.385	2265.38
473.161	2496.38
473.938	2770.38
474.714	3049.38
475.49	3375.38
476.266	3739.38
477.043	4134.38
477.819	4530.38
478.595	5030.38
479.371	5491.38
480.146	6042.38
480.922	6675.38
481.698	7299.38
482.473	7979.38
483.249	8720.38
484.024	9540.38
484.8	10467.38
485.575	11439.38
486.35	12436.38
487.126	13592.38
487.901	14791.38
488.676	16057.38
489.451	17455.38
490.225	18878.38
491	20431.38
491.775	21996.38
492.55	23688.38
493.324	25350.38
494.099	27022.38
494.873	28805.38
495.647	30619.38
496.422	32447.38
497.196	34156.38
497.97	35773.38
498.744	37274.38
499.518	38631.38
500.292	40008.38
501.066	41143.38
501.839	42146.38
502.613	42753.38
503.387	43236.38
504.16	43666.38
504.934	43743.38
505.707	43544.38
506.48	43147.38
507.253	42574.38
508.027	41641.38
508.8	40705.38
509.573	39488.38
510.346	38307.38
511.118	37061.38
511.891	35898.38
512.664	34523.38
513.437	32989.38
514.209	31674.38
514.982	30367.38
515.754	29160.38
516.526	27820.38
517.298	26560.38
518.071	25566.38
518.843	24500.38
519.615	23482.38
520.387	22569.38
521.159	21681.38
521.93	20748.38
522.702	19929.38
523.474	19057.38
524.245	18296.38
525.017	17572.38
525.788	16760.38
526.56	15949.38
527.331	15212.38
528.102	14507.38
528.873	13743.38
529.644	13041.38
530.415	12383.38
531.186	11738.38
531.957	11103.38
532.728	10519.38
533.498	9996.38
534.269	9395.38
535.039	8879.38
535.81	8394.38
536.58	7988.38
537.351	7496.38
538.121	7069.38
538.891	6715.38
539.661	6319.38
540.431	6011.38
541.201	5726.38
541.971	5407.38
542.741	5119.38
543.51	4836.38
544.28	4642.38
545.05	4382.38
545.819	4166.38
546.588	3951.38
547.358	3765.38
548.127	3554.38
548.896	3408.38
549.665	3224.38
550.434	3040.38
551.203	2895.38
551.972	2726.38
552.741	2602.38
553.51	2468.38
554.278	2312.38
555.047	2170.38
555.815	2055.38
556.584	1935.38
557.352	1843.38
558.121	1728.38
558.889	1633.38
559.657	1531.38
560.425	1453.38
561.193	1377.38
561.961	1308.38
562.729	1244.38
563.496	1159.38
564.264	1112.38
565.032	1049.38
565.799	985.38
566.567	932.38
567.334	886.38
568.101	832.38
568.869	777.38
569.636	745.38
570.403	703.38
571.17	669.38
571.937	631.38
572.704	591.38
573.471	557.38
574.237	519.38
575.004	492.38
575.771	465.38
576.537	438.38
577.303	411.38
578.07	396.38
578.836	367.38
579.602	348.38
580.368	330.38
581.134	313.38
581.9	301.38
582.666	291.38
583.432	269.38
584.198	257.38
584.964	237.38
585.729	237.38
586.495	220.38
587.26	208.38
588.025	197.38
588.791	183.38
589.556	178.38
590.321	168.38
591.086	160.38
591.851	150.38
592.616	148.38
593.381	139.38
594.146	134.38
594.911	123.38
595.675	119.38
596.44	113.38
597.204	115.38
597.969	103.38
598.733	96.38
599.497	97.38
600.261	92.38
601.025	92.38
601.79	86.38
602.553	83.38
603.317	75.38
604.081	68.38
604.845	69.38
605.609	68.38
606.372	66.38
607.136	67.38
607.899	59.38
608.662	59.38
609.426	56.38
610.189	57.38
610.952	55.38
611.715	48.38
612.478	51.38
613.241	45.38
614.004	45.38
614.767	44.38
615.529	43.38
616.292	40.38
617.055	43.38
617.817	40.38
618.579	36.38
619.342	36.38
620.104	38.38
620.866	33.38
621.628	34.38
622.39	28.38
623.152	32.38
623.914	30.38
624.676	28.38
625.438	31.38
626.199	27.38
626.961	25.38
627.722	27.38
628.484	23.38
629.245	24.38
630.006	23.38
630.768	22.38
631.529	22.38
632.29	24.38
633.051	19.38
633.812	19.38
634.573	16.38
635.333	19.38
636.094	19.38
636.855	19.38
637.615	19.38
638.376	15.38
639.136	16.38
639.896	17.38
640.657	18.38
641.417	16.38
642.177	13.38
642.937	14.38
643.697	16.38
644.457	15.38
645.216	13.38
645.976	13.38
646.736	13.38
647.495	12.38
648.255	12.38
649.014	14.38
649.774	14.38
650.533	14.38
651.292	11.38
652.051	12.38
652.81	10.38
653.569	14.38
654.328	10.38
655.087	13.38
655.846	10.38
656.604	12.38
657.363	9.38
658.121	8.38
658.88	8.38
659.638	9.38
660.397	9.38
661.155	12.38
661.913	9.38
662.671	7.38
663.429	9.38
664.187	8.38
664.945	7.38
665.703	9.38
666.46	8.38
667.218	8.38
667.976	5.38
668.733	8.38
669.49	7.38
670.248	8.38
671.005	8.38
671.762	8.38
672.519	9.38
673.276	6.38
674.033	6.38
674.79	7.38
675.547	7.38
676.304	8.38
677.06	4.38
677.817	5.38
678.574	7.38
679.33	7.38
680.086	8.38
680.843	7.38
681.599	7.38
682.355	4.38
683.111	6.38
683.867	7.38
684.623	8.38
685.379	6.38
686.135	6.38
686.89	6.38
687.646	7.38
688.402	8.38
689.157	6.38
689.912	5.38
690.668	7.38
691.423	4.38
692.178	8.38
692.933	8.38
693.688	8.38
694.443	4.38
695.198	9.38
695.953	8.38
696.708	7.38
697.462	8.38
698.217	4.38
698.972	6.38
699.726	7.38
700.48	6.38
701.235	6.38
701.989	5.38
702.743	7.38
703.497	5.38
704.251	8.38
705.005	5.38
705.759	5.38
706.513	5.38
707.266	4.38
708.02	7.38
708.774	8.38
709.527	8.38
710.28	5.38
711.034	7.38
711.787	5.38
712.54	3.38
713.293	9.38
714.046	6.38
714.799	7.38
715.552	7.38
716.305	4.38
717.058	7.38
717.81	6.38
718.563	5.38
719.315	6.38
720.068	9.38
720.82	8.38
721.573	6.38
722.325	4.38
723.077	6.38
723.829	8.38
724.581	5.38
725.333	6.38
726.085	6.38
726.836	10.38
727.588	5.38
728.34	6.38
729.091	7.38
729.843	7.38
730.594	7.38
731.346	5.38
732.097	7.38
732.848	9.38
733.599	6.38
734.35	7.38
735.101	6.38
735.852	10.38
736.603	8.38
737.354	6.38
738.104	7.38
738.855	9.38
739.605	6.38
740.356	7.38
741.106	8.38
741.856	10.38
742.607	10.38
743.357	9.38
744.107	9.38
744.857	10.38
745.607	12.38
746.357	7.38
747.106	9.38
747.856	8.38
748.606	12.38
749.355	10.38
750.105	10.38
750.854	7.38
751.603	8.38
752.353	11.38
753.102	10.38
753.851	10.38
754.6	9.38
755.349	9.38
756.098	9.38
756.847	15.38
757.595	9.38
758.344	11.38
759.093	10.38
759.841	10.38
760.589	12.38
761.338	11.38
762.086	9.38
762.834	11.38
763.582	10.38
764.331	12.38
765.079	10.38
765.826	9.38
766.574	12.38
767.322	12.38
768.07	13.38
768.817	12.38
769.565	12.38
770.312	14.38
771.06	13.38
771.807	15.38
772.554	14.38
773.302	14.38
774.049	13.38
774.796	12.38
775.543	15.38
776.29	12.38
777.036	14.38
777.783	13.38
778.53	14.38
779.276	16.38
780.023	12.38
780.769	17.38
781.516	14.38
782.262	15.38
783.008	12.38
783.754	13.38
784.5	14.38
785.246	14.38
785.992	13.38
786.738	13.38
787.484	15.38
788.23	13.38
788.975	13.38
789.721	13.38
790.466	12.38
791.212	14.38
791.957	13.38
792.702	9.38
793.447	11.38
794.193	10.38
794.938	10.38
795.683	12.38
796.427	10.38
797.172	9.38
797.917	12.38
798.662	11.38
799.406	9.38
800.151	10.38
800.895	9.38
801.64	12.38
802.384	11.38
803.128	7.38
803.872	8.38
804.616	11.38
805.36	11.38
806.104	10.38
806.848	6.38
807.592	7.38
808.336	8.38
809.079	10.38
809.823	8.38
810.566	8.38
811.31	7.38
812.053	7.38
812.796	5.38
813.539	6.38
814.283	6.38
815.026	6.38
815.769	9.38
816.511	7.38
817.254	5.38
817.997	8.38
818.74	4.38
819.482	9.38
820.225	5.38
820.967	9.38
821.71	6.38
822.452	7.38
823.194	7.38
823.936	6.38
824.678	5.38
825.42	4.38
826.162	5.38
826.904	7.38
827.646	6.38
828.388	8.38
829.129	4.38
829.871	6.38
830.612	4.38
831.354	5.38
832.095	7.38
832.836	4.38
833.577	3.38
834.319	4.38
835.06	4.38
835.801	4.38
836.542	4.38
837.282	5.38
838.023	4.38
838.764	4.38
839.504	5.38
840.245	4.38
840.985	5.38
841.726	6.38
842.466	7.38
843.206	6.38
843.946	6.38
844.687	4.38
845.427	3.38
846.166	4.38
846.906	4.38
847.646	5.38
848.386	5.38
849.125	5.38
849.865	3.38
850.605	5.38
851.344	3.38
852.083	4.38
852.823	5.38
853.562	5.38
854.301	3.38
855.04	2.38
855.779	4.38
856.518	3.38
857.257	4.38
857.995	3.38
858.734	3.38
859.473	3.38
860.211	2.38
860.95	5.38
861.688	2.38
862.426	2.38
863.165	1.38
863.903	3.38
864.641	3.38
865.379	3.38
866.117	3.38
866.855	2.38
867.593	3.38
868.33	1.38
869.068	0.38
869.806	2.38
870.543	2.38
871.28	3.38
872.018	0.38
872.755	2.38
873.492	0.38
874.229	3.38
874.967	2.38
875.703	2.38
876.44	1.38
877.177	1.38
877.914	4.38
878.651	3.38
879.387	2.38
880.124	2.38
880.86	-0.62
881.597	2.38
882.333	1.38
883.069	2.38
883.806	-0.62
884.542	2.38
885.278	3.38
886.014	1.38
886.749	2.38
887.485	0.38
888.221	0.38
888.957	3.38
889.692	3.38
890.428	3.38
891.163	0.38
891.899	0.38
892.634	0.38
893.369	1.38
894.104	2.38
894.839	1.38
895.574	2.38
896.309	0.38
897.044	2.38
897.779	2.38
898.514	3.38
899.248	1.38
899.983	2.38
900.717	2.38
901.452	-1.62
902.186	2.38
902.92	-1.62
903.654	0.38
904.389	2.38
905.123	0.38
905.857	1.38
906.59	-0.62
907.324	0.38
908.058	1.38
908.792	1.38
909.525	0.38
910.259	2.38
910.992	0.38
911.726	0.38
912.459	-0.62
913.192	-0.62
913.925	1.38
914.658	-0.62
915.391	1.38
916.124	0.38
916.857	3.38
917.59	3.38
918.323	2.38
919.055	0.38
919.788	-0.62
920.521	-0.62
921.253	0.38
921.985	2.38
922.718	1.38
923.45	0.38
924.182	2.38
924.914	0.38
925.646	3.38
926.378	-0.62
927.11	1.38
927.841	0.38
928.573	-2.62
929.305	1.38
930.036	1.38
930.768	2.38
931.499	1.38
932.23	2.38
932.962	-0.62
933.693	2.38
934.424	1.38
935.155	0.38
935.886	0.38
936.617	1.38
937.348	2.38
938.078	0.38
938.809	-1.62
939.54	0.38
940.27	0.38
941.001	1.38
941.731	1.38
942.461	1.38
943.191	1.38
943.922	-0.62
944.652	1.38
945.382	0.38
946.112	0.38
946.841	1.38
947.571	1.38
948.301	1.38
949.031	0.38
949.76	1.38
950.49	-1.62
951.219	-1.62
951.948	0.38
952.678	1.38
953.407	-0.62
954.136	2.38
954.865	1.38
955.594	-1.62
956.323	0.38
957.052	1.38
957.78	3.38
958.509	0.38
959.238	1.38
959.966	0.38
960.695	0.38
961.423	0.38
962.151	1.38
962.88	1.38
963.608	-0.62
964.336	-1.62
965.064	2.38
965.792	-1.62
966.52	0.38
967.247	-0.62
967.975	1.38
968.703	0.38
969.43	0.38
970.158	-1.62
970.885	1.38
971.613	2.38
972.34	0.38
973.067	0.38
973.794	2.38
974.521	2.38
975.248	1.38
975.975	-0.62
976.702	-1.62
977.429	-2.62
978.156	-0.62
978.882	0.38
979.609	0.38
980.335	-0.62
981.062	0.38
981.788	2.38
982.514	-0.62
983.24	0.38
983.967	1.38
984.693	1.38
985.419	0.38
986.144	-1.62
986.87	0.38
987.596	-0.62
988.322	0.38
989.047	0.38
989.773	1.38
990.498	0.38
991.224	0.38
991.949	1.38
992.674	-2.62
993.399	1.38
994.124	0.38
994.849	1.38
995.574	2.38
996.299	0.38
997.024	1.38
997.749	-0.62
998.473	1.38
999.198	0.38
999.922	0.38
1000.647	0.38
1001.371	2.38
1002.095	-0.62
1002.82	-1.62
1003.544	-0.62
1004.268	4.38
1004.992	3.38
1005.716	4.38
1006.439	4.38
1007.163	3.38
1007.887	4.38
1008.611	1.38
1009.334	0.38
1010.058	-1.62
1010.781	0.38
1011.504	1.38
1012.228	1.38
1012.951	-0.62
1013.674	0.38
1014.397	0.38
1015.12	0.38
