节点500_565_QEPB04081__427__09-57-31-282.txt的数据

Date: Thu Nov 13 09:57:31 CST 2025
User: PC
Spectrometer: QEPB0408
触发模式: 0
积分时间 (秒): 1.000000E-2
Scans to average: 1
启用暗噪声校正: true
启用非线性校正: false
滑动平均宽度: 0
X轴模式: Wavelengths
Number of Pixels in Spectrum: 1044
>>>>>Begin Spectral Data<<<<<
220.843	3.88
221.644	2.88
222.444	4.88
223.244	3.88
224.045	3.88
224.845	4.88
225.645	5.88
226.445	6.88
227.245	3.88
228.045	6.88
228.845	5.88
229.645	6.88
230.444	6.88
231.244	5.88
232.043	8.88
232.843	5.88
233.642	4.88
234.442	5.88
235.241	7.88
236.04	9.88
236.839	7.88
237.638	6.88
238.437	8.88
239.236	9.88
240.035	9.88
240.833	8.88
241.632	6.88
242.43	12.88
243.229	9.88
244.027	12.88
244.826	8.88
245.624	11.88
246.422	13.88
247.22	10.88
248.018	11.88
248.816	10.88
249.614	10.88
250.412	10.88
251.21	14.88
252.007	14.88
252.805	11.88
253.602	14.88
254.4	13.88
255.197	13.88
255.994	14.88
256.791	14.88
257.589	16.88
258.386	13.88
259.183	12.88
259.979	14.88
260.776	15.88
261.573	18.88
262.37	15.88
263.166	17.88
263.963	19.88
264.759	19.88
265.556	19.88
266.352	18.88
267.148	23.88
267.944	20.88
268.74	22.88
269.536	19.88
270.332	25.88
271.128	22.88
271.924	25.88
272.719	25.88
273.515	24.88
274.311	27.88
275.106	26.88
275.901	29.88
276.697	26.88
277.492	27.88
278.287	23.88
279.082	25.88
279.877	25.88
280.672	28.88
281.467	26.88
282.262	29.88
283.056	25.88
283.851	27.88
284.646	25.88
285.44	30.88
286.234	27.88
287.029	25.88
287.823	28.88
288.617	24.88
289.411	26.88
290.205	24.88
290.999	26.88
291.793	25.88
292.587	26.88
293.381	24.88
294.174	25.88
294.968	25.88
295.761	24.88
296.555	21.88
297.348	20.88
298.141	22.88
298.935	23.88
299.728	22.88
300.521	22.88
301.314	17.88
302.107	19.88
302.899	17.88
303.692	18.88
304.485	18.88
305.277	19.88
306.07	18.88
306.862	19.88
307.655	19.88
308.447	17.88
309.239	18.88
310.031	16.88
310.823	17.88
311.615	16.88
312.407	16.88
313.199	15.88
313.991	14.88
314.783	14.88
315.574	12.88
316.366	16.88
317.157	14.88
317.949	14.88
318.74	12.88
319.531	10.88
320.322	13.88
321.113	12.88
321.904	11.88
322.695	9.88
323.486	12.88
324.277	11.88
325.068	12.88
325.858	11.88
326.649	11.88
327.439	12.88
328.23	9.88
329.02	10.88
329.81	9.88
330.6	10.88
331.391	10.88
332.181	10.88
332.971	9.88
333.76	8.88
334.55	11.88
335.34	9.88
336.13	9.88
336.919	12.88
337.709	9.88
338.498	12.88
339.287	10.88
340.077	8.88
340.866	10.88
341.655	11.88
342.444	7.88
343.233	10.88
344.022	10.88
344.811	10.88
345.6	10.88
346.388	9.88
347.177	8.88
347.965	8.88
348.754	11.88
349.542	12.88
350.33	10.88
351.119	10.88
351.907	10.88
352.695	8.88
353.483	9.88
354.271	6.88
355.059	10.88
355.846	9.88
356.634	7.88
357.422	9.88
358.209	8.88
358.997	9.88
359.784	8.88
360.571	8.88
361.359	10.88
362.146	8.88
362.933	6.88
363.72	6.88
364.507	8.88
365.294	8.88
366.081	6.88
366.867	6.88
367.654	9.88
368.44	7.88
369.227	7.88
370.013	4.88
370.8	9.88
371.586	7.88
372.372	5.88
373.158	8.88
373.944	8.88
374.73	7.88
375.516	9.88
376.302	9.88
377.088	8.88
377.873	10.88
378.659	7.88
379.445	5.88
380.23	10.88
381.015	8.88
381.801	8.88
382.586	12.88
383.371	8.88
384.156	7.88
384.941	11.88
385.726	8.88
386.511	7.88
387.296	9.88
388.08	9.88
388.865	10.88
389.649	7.88
390.434	9.88
391.218	11.88
392.003	9.88
392.787	8.88
393.571	10.88
394.355	8.88
395.139	10.88
395.923	8.88
396.707	10.88
397.491	10.88
398.274	10.88
399.058	10.88
399.842	11.88
400.625	9.88
401.408	11.88
402.192	12.88
402.975	12.88
403.758	10.88
404.541	12.88
405.324	11.88
406.107	12.88
406.89	10.88
407.673	11.88
408.456	11.88
409.238	13.88
410.021	13.88
410.803	12.88
411.586	13.88
412.368	11.88
413.151	11.88
413.933	13.88
414.715	13.88
415.497	16.88
416.279	11.88
417.061	17.88
417.843	15.88
418.624	15.88
419.406	18.88
420.188	15.88
420.969	17.88
421.751	17.88
422.532	13.88
423.313	18.88
424.095	19.88
424.876	17.88
425.657	18.88
426.438	18.88
427.219	18.88
428	22.88
428.78	20.88
429.561	24.88
430.342	23.88
431.122	29.88
431.903	25.88
432.683	29.88
433.464	26.88
434.244	29.88
435.024	34.88
435.804	33.88
436.584	31.88
437.364	37.88
438.144	37.88
438.924	38.88
439.704	43.88
440.483	44.88
441.263	44.88
442.042	50.88
442.822	55.88
443.601	60.88
444.38	62.88
445.16	66.88
445.939	76.88
446.718	79.88
447.497	88.88
448.276	95.88
449.054	101.88
449.833	112.88
450.612	123.88
451.391	134.88
452.169	153.88
452.948	169.88
453.726	184.88
454.504	205.88
455.282	233.88
456.061	253.88
456.839	282.88
457.617	310.88
458.395	355.88
459.172	389.88
459.95	437.88
460.728	483.88
461.506	549.88
462.283	599.88
463.061	671.88
463.838	752.88
464.615	819.88
465.393	932.88
466.17	1004.88
466.947	1136.88
467.724	1250.88
468.501	1408.88
469.278	1544.88
470.055	1701.88
470.831	1856.88
471.608	2063.88
472.385	2294.88
473.161	2535.88
473.938	2772.88
474.714	3032.88
475.49	3324.88
476.266	3650.88
477.043	4022.88
477.819	4400.88
478.595	4800.88
479.371	5231.88
480.146	5704.88
480.922	6236.88
481.698	6747.88
482.473	7350.88
483.249	7947.88
484.024	8681.88
484.8	9413.88
485.575	10240.88
486.35	11071.88
487.126	11982.88
487.901	12984.88
488.676	14026.88
489.451	15163.88
490.225	16379.88
491	17614.88
491.775	18908.88
492.55	20251.88
493.324	21650.88
494.099	23072.88
494.873	24552.88
495.647	26148.88
496.422	27628.88
497.196	29094.88
497.97	30611.88
498.744	32045.88
499.518	33272.88
500.292	34662.88
501.066	35810.88
501.839	36903.88
502.613	37768.88
503.387	38558.88
504.16	39194.88
504.934	39592.88
505.707	39712.88
506.48	39732.88
507.253	39632.88
508.027	39167.88
508.8	38668.88
509.573	37913.88
510.346	37051.88
511.118	36079.88
511.891	35261.88
512.664	34123.88
513.437	32963.88
514.209	31702.88
514.982	30579.88
515.754	29438.88
516.526	28188.88
517.298	27053.88
518.071	26018.88
518.843	24895.88
519.615	23930.88
520.387	22941.88
521.159	22133.88
521.93	21227.88
522.702	20305.88
523.474	19543.88
524.245	18771.88
525.017	18002.88
525.788	17207.88
526.56	16460.88
527.331	15749.88
528.102	15007.88
528.873	14310.88
529.644	13606.88
530.415	12975.88
531.186	12357.88
531.957	11732.88
532.728	11174.88
533.498	10561.88
534.269	9997.88
535.039	9430.88
535.81	8969.88
536.58	8518.88
537.351	8055.88
538.121	7605.88
538.891	7207.88
539.661	6820.88
540.431	6444.88
541.201	6117.88
541.971	5800.88
542.741	5482.88
543.51	5161.88
544.28	4936.88
545.05	4694.88
545.819	4467.88
546.588	4256.88
547.358	4077.88
548.127	3843.88
548.896	3677.88
549.665	3472.88
550.434	3283.88
551.203	3134.88
551.972	2955.88
552.741	2797.88
553.51	2658.88
554.278	2508.88
555.047	2367.88
555.815	2263.88
556.584	2122.88
557.352	2019.88
558.121	1906.88
558.889	1787.88
559.657	1684.88
560.425	1597.88
561.193	1516.88
561.961	1426.88
562.729	1352.88
563.496	1274.88
564.264	1209.88
565.032	1142.88
565.799	1095.88
566.567	1031.88
567.334	964.88
568.101	909.88
568.869	875.88
569.636	817.88
570.403	765.88
571.17	735.88
571.937	694.88
572.704	647.88
573.471	624.88
574.237	575.88
575.004	555.88
575.771	514.88
576.537	486.88
577.303	458.88
578.07	431.88
578.836	408.88
579.602	382.88
580.368	368.88
581.134	344.88
581.9	326.88
582.666	312.88
583.432	291.88
584.198	280.88
584.964	272.88
585.729	253.88
586.495	244.88
587.26	224.88
588.025	209.88
588.791	202.88
589.556	187.88
590.321	179.88
591.086	171.88
591.851	165.88
592.616	160.88
593.381	147.88
594.146	147.88
594.911	136.88
595.675	127.88
596.44	120.88
597.204	121.88
597.969	114.88
598.733	105.88
599.497	101.88
600.261	99.88
601.025	94.88
601.79	91.88
602.553	88.88
603.317	80.88
604.081	78.88
604.845	76.88
605.609	73.88
606.372	71.88
607.136	64.88
607.899	65.88
608.662	61.88
609.426	60.88
610.189	57.88
610.952	56.88
611.715	54.88
612.478	55.88
613.241	52.88
614.004	46.88
614.767	44.88
615.529	43.88
616.292	43.88
617.055	40.88
617.817	41.88
618.579	37.88
619.342	36.88
620.104	36.88
620.866	34.88
621.628	36.88
622.39	33.88
623.152	34.88
623.914	28.88
624.676	31.88
625.438	28.88
626.199	27.88
626.961	27.88
627.722	25.88
628.484	28.88
629.245	26.88
630.006	24.88
630.768	21.88
631.529	22.88
632.29	20.88
633.051	21.88
633.812	23.88
634.573	21.88
635.333	20.88
636.094	21.88
636.855	20.88
637.615	18.88
638.376	19.88
639.136	17.88
639.896	16.88
640.657	13.88
641.417	15.88
642.177	16.88
642.937	15.88
643.697	17.88
644.457	13.88
645.216	13.88
645.976	12.88
646.736	13.88
647.495	14.88
648.255	14.88
649.014	10.88
649.774	10.88
650.533	9.88
651.292	10.88
652.051	9.88
652.81	10.88
653.569	12.88
654.328	9.88
655.087	12.88
655.846	10.88
656.604	9.88
657.363	9.88
658.121	12.88
658.88	9.88
659.638	7.88
660.397	7.88
661.155	10.88
661.913	10.88
662.671	8.88
663.429	7.88
664.187	8.88
664.945	8.88
665.703	8.88
666.46	7.88
667.218	9.88
667.976	10.88
668.733	6.88
669.49	8.88
670.248	5.88
671.005	8.88
671.762	8.88
672.519	4.88
673.276	5.88
674.033	8.88
674.79	6.88
675.547	6.88
676.304	8.88
677.06	5.88
677.817	9.88
678.574	5.88
679.33	5.88
680.086	8.88
680.843	5.88
681.599	6.88
682.355	4.88
683.111	6.88
683.867	7.88
684.623	4.88
685.379	7.88
686.135	8.88
686.89	7.88
687.646	4.88
688.402	5.88
689.157	5.88
689.912	4.88
690.668	6.88
691.423	6.88
692.178	6.88
692.933	5.88
693.688	6.88
694.443	8.88
695.198	5.88
695.953	8.88
696.708	4.88
697.462	8.88
698.217	4.88
698.972	5.88
699.726	7.88
700.48	5.88
701.235	7.88
701.989	7.88
702.743	5.88
703.497	6.88
704.251	6.88
705.005	6.88
705.759	8.88
706.513	5.88
707.266	6.88
708.02	7.88
708.774	6.88
709.527	4.88
710.28	4.88
711.034	4.88
711.787	6.88
712.54	6.88
713.293	6.88
714.046	4.88
714.799	4.88
715.552	5.88
716.305	6.88
717.058	6.88
717.81	5.88
718.563	3.88
719.315	4.88
720.068	7.88
720.82	5.88
721.573	4.88
722.325	7.88
723.077	4.88
723.829	6.88
724.581	8.88
725.333	7.88
726.085	7.88
726.836	6.88
727.588	6.88
728.34	4.88
729.091	6.88
729.843	9.88
730.594	6.88
731.346	6.88
732.097	8.88
732.848	8.88
733.599	6.88
734.35	7.88
735.101	8.88
735.852	6.88
736.603	6.88
737.354	5.88
738.104	7.88
738.855	5.88
739.605	8.88
740.356	9.88
741.106	7.88
741.856	8.88
742.607	8.88
743.357	7.88
744.107	7.88
744.857	8.88
745.607	7.88
746.357	7.88
747.106	7.88
747.856	8.88
748.606	8.88
749.355	8.88
750.105	10.88
750.854	7.88
751.603	11.88
752.353	6.88
753.102	9.88
753.851	9.88
754.6	10.88
755.349	9.88
756.098	7.88
756.847	10.88
757.595	10.88
758.344	8.88
759.093	7.88
759.841	8.88
760.589	10.88
761.338	11.88
762.086	11.88
762.834	8.88
763.582	9.88
764.331	8.88
765.079	10.88
765.826	10.88
766.574	9.88
767.322	12.88
768.07	11.88
768.817	11.88
769.565	11.88
770.312	11.88
771.06	11.88
771.807	13.88
772.554	13.88
773.302	11.88
774.049	12.88
774.796	12.88
775.543	11.88
776.29	10.88
777.036	12.88
777.783	9.88
778.53	11.88
779.276	10.88
780.023	12.88
780.769	13.88
781.516	10.88
782.262	12.88
783.008	12.88
783.754	11.88
784.5	14.88
785.246	13.88
785.992	12.88
786.738	12.88
787.484	13.88
788.23	11.88
788.975	13.88
789.721	13.88
790.466	11.88
791.212	11.88
791.957	11.88
792.702	12.88
793.447	11.88
794.193	11.88
794.938	10.88
795.683	12.88
796.427	9.88
797.172	12.88
797.917	10.88
798.662	10.88
799.406	11.88
800.151	9.88
800.895	12.88
801.64	8.88
802.384	10.88
803.128	9.88
803.872	8.88
804.616	9.88
805.36	10.88
806.104	9.88
806.848	9.88
807.592	7.88
808.336	8.88
809.079	9.88
809.823	8.88
810.566	6.88
811.31	9.88
812.053	10.88
812.796	8.88
813.539	6.88
814.283	6.88
815.026	8.88
815.769	7.88
816.511	8.88
817.254	9.88
817.997	6.88
818.74	8.88
819.482	7.88
820.225	6.88
820.967	7.88
821.71	5.88
822.452	4.88
823.194	6.88
823.936	4.88
824.678	3.88
825.42	7.88
826.162	6.88
826.904	6.88
827.646	6.88
828.388	4.88
829.129	3.88
829.871	3.88
830.612	4.88
831.354	4.88
832.095	7.88
832.836	5.88
833.577	3.88
834.319	5.88
835.06	4.88
835.801	5.88
836.542	6.88
837.282	4.88
838.023	3.88
838.764	4.88
839.504	5.88
840.245	4.88
840.985	3.88
841.726	4.88
842.466	4.88
843.206	5.88
843.946	4.88
844.687	4.88
845.427	4.88
846.166	4.88
846.906	4.88
847.646	5.88
848.386	4.88
849.125	3.88
849.865	4.88
850.605	2.88
851.344	6.88
852.083	4.88
852.823	1.88
853.562	4.88
854.301	3.88
855.04	4.88
855.779	2.88
856.518	3.88
857.257	2.88
857.995	3.88
858.734	4.88
859.473	4.88
860.211	2.88
860.95	3.88
861.688	3.88
862.426	3.88
863.165	3.88
863.903	1.88
864.641	2.88
865.379	3.88
866.117	4.88
866.855	4.88
867.593	0.88
868.33	3.88
869.068	2.88
869.806	2.88
870.543	3.88
871.28	1.88
872.018	1.88
872.755	1.88
873.492	2.88
874.229	1.88
874.967	-0.12
875.703	3.88
876.44	3.88
877.177	1.88
877.914	1.88
878.651	2.88
879.387	1.88
880.124	-0.12
880.86	1.88
881.597	0.88
882.333	1.88
883.069	2.88
883.806	0.88
884.542	1.88
885.278	4.88
886.014	0.88
886.749	1.88
887.485	2.88
888.221	2.88
888.957	2.88
889.692	0.88
890.428	0.88
891.163	2.88
891.899	-0.12
892.634	1.88
893.369	-1.12
894.104	4.88
894.839	1.88
895.574	1.88
896.309	2.88
897.044	-0.12
897.779	0.88
898.514	0.88
899.248	1.88
899.983	0.88
900.717	-0.12
901.452	0.88
902.186	0.88
902.92	0.88
903.654	0.88
904.389	-1.12
905.123	-0.12
905.857	1.88
906.59	2.88
907.324	1.88
908.058	1.88
908.792	0.88
909.525	1.88
910.259	-1.12
910.992	0.88
911.726	-0.12
912.459	0.88
913.192	0.88
913.925	1.88
914.658	-2.12
915.391	-1.12
916.124	1.88
916.857	0.88
917.59	-0.12
918.323	1.88
919.055	-1.12
919.788	0.88
920.521	0.88
921.253	0.88
921.985	0.88
922.718	0.88
923.45	1.88
924.182	-0.12
924.914	0.88
925.646	-1.12
926.378	1.88
927.11	1.88
927.841	0.88
928.573	-0.12
929.305	1.88
930.036	0.88
930.768	-0.12
931.499	1.88
932.23	-0.12
932.962	0.88
933.693	0.88
934.424	0.88
935.155	0.88
935.886	-0.12
936.617	-1.12
937.348	1.88
938.078	2.88
938.809	-0.12
939.54	0.88
940.27	-0.12
941.001	-1.12
941.731	0.88
942.461	0.88
943.191	0.88
943.922	-0.12
944.652	0.88
945.382	1.88
946.112	-1.12
946.841	1.88
947.571	-0.12
948.301	-0.12
949.031	-0.12
949.76	0.88
950.49	1.88
951.219	-0.12
951.948	1.88
952.678	-0.12
953.407	0.88
954.136	-2.12
954.865	-0.12
955.594	0.88
956.323	1.88
957.052	2.88
957.78	0.88
958.509	1.88
959.238	2.88
959.966	0.88
960.695	-2.12
961.423	0.88
962.151	-1.12
962.88	0.88
963.608	-1.12
964.336	0.88
965.064	1.88
965.792	0.88
966.52	2.88
967.247	-0.12
967.975	-1.12
968.703	-0.12
969.43	-1.12
970.158	0.88
970.885	1.88
971.613	-0.12
972.34	-0.12
973.067	-0.12
973.794	1.88
974.521	-1.12
975.248	0.88
975.975	-2.12
976.702	-1.12
977.429	0.88
978.156	1.88
978.882	0.88
979.609	-0.12
980.335	1.88
981.062	-0.12
981.788	0.88
982.514	-0.12
983.24	1.88
983.967	0.88
984.693	0.88
985.419	-0.12
986.144	1.88
986.87	-0.12
987.596	-0.12
988.322	0.88
989.047	-1.12
989.773	1.88
990.498	-0.12
991.224	0.88
991.949	-0.12
992.674	1.88
993.399	-0.12
994.124	0.88
994.849	0.88
995.574	0.88
996.299	0.88
997.024	-0.12
997.749	0.88
998.473	0.88
999.198	1.88
999.922	0.88
1000.647	0.88
1001.371	2.88
1002.095	-0.12
1002.82	-1.12
1003.544	-2.12
1004.268	2.88
1004.992	2.88
1005.716	3.88
1006.439	1.88
1007.163	6.88
1007.887	3.88
1008.611	-0.12
1009.334	0.88
1010.058	-0.12
1010.781	0.88
1011.504	2.88
1012.228	0.88
1012.951	0.88
1013.674	-2.12
1014.397	1.88
1015.12	-0.12
