节点500_565_QEPB04081__49__09-51-15-069.txt的数据

Date: Thu Nov 13 09:51:15 CST 2025
User: PC
Spectrometer: QEPB0408
触发模式: 0
积分时间 (秒): 1.000000E-2
Scans to average: 1
启用暗噪声校正: true
启用非线性校正: false
滑动平均宽度: 0
X轴模式: Wavelengths
Number of Pixels in Spectrum: 1044
>>>>>Begin Spectral Data<<<<<
220.843	2.12
221.644	3.12
222.444	4.12
223.244	4.12
224.045	6.12
224.845	4.12
225.645	4.12
226.445	4.12
227.245	5.12
228.045	6.12
228.845	9.12
229.645	5.12
230.444	7.12
231.244	7.12
232.043	8.12
232.843	6.12
233.642	6.12
234.442	8.12
235.241	7.12
236.04	8.12
236.839	6.12
237.638	8.12
238.437	8.12
239.236	9.12
240.035	6.12
240.833	10.12
241.632	10.12
242.43	8.12
243.229	11.12
244.027	11.12
244.826	12.12
245.624	12.12
246.422	12.12
247.22	11.12
248.018	12.12
248.816	11.12
249.614	15.12
250.412	14.12
251.21	13.12
252.007	13.12
252.805	17.12
253.602	12.12
254.4	14.12
255.197	18.12
255.994	16.12
256.791	17.12
257.589	17.12
258.386	19.12
259.183	19.12
259.979	20.12
260.776	17.12
261.573	23.12
262.37	24.12
263.166	24.12
263.963	24.12
264.759	24.12
265.556	22.12
266.352	24.12
267.148	25.12
267.944	25.12
268.74	27.12
269.536	27.12
270.332	25.12
271.128	31.12
271.924	28.12
272.719	29.12
273.515	30.12
274.311	31.12
275.106	30.12
275.901	32.12
276.697	31.12
277.492	34.12
278.287	30.12
279.082	32.12
279.877	31.12
280.672	31.12
281.467	29.12
282.262	30.12
283.056	33.12
283.851	31.12
284.646	30.12
285.44	31.12
286.234	30.12
287.029	28.12
287.823	31.12
288.617	32.12
289.411	32.12
290.205	28.12
290.999	29.12
291.793	31.12
292.587	28.12
293.381	27.12
294.174	28.12
294.968	27.12
295.761	23.12
296.555	23.12
297.348	25.12
298.141	22.12
298.935	24.12
299.728	22.12
300.521	23.12
301.314	23.12
302.107	20.12
302.899	19.12
303.692	18.12
304.485	21.12
305.277	20.12
306.07	21.12
306.862	20.12
307.655	19.12
308.447	17.12
309.239	17.12
310.031	18.12
310.823	17.12
311.615	18.12
312.407	16.12
313.199	14.12
313.991	16.12
314.783	13.12
315.574	16.12
316.366	12.12
317.157	13.12
317.949	12.12
318.74	13.12
319.531	14.12
320.322	12.12
321.113	12.12
321.904	11.12
322.695	10.12
323.486	11.12
324.277	8.12
325.068	12.12
325.858	11.12
326.649	11.12
327.439	8.12
328.23	10.12
329.02	12.12
329.81	9.12
330.6	11.12
331.391	10.12
332.181	10.12
332.971	10.12
333.76	10.12
334.55	7.12
335.34	7.12
336.13	13.12
336.919	12.12
337.709	11.12
338.498	10.12
339.287	10.12
340.077	11.12
340.866	11.12
341.655	10.12
342.444	10.12
343.233	9.12
344.022	11.12
344.811	9.12
345.6	10.12
346.388	8.12
347.177	11.12
347.965	10.12
348.754	13.12
349.542	12.12
350.33	10.12
351.119	9.12
351.907	7.12
352.695	9.12
353.483	8.12
354.271	9.12
355.059	12.12
355.846	7.12
356.634	10.12
357.422	9.12
358.209	8.12
358.997	8.12
359.784	9.12
360.571	10.12
361.359	10.12
362.146	9.12
362.933	6.12
363.72	10.12
364.507	7.12
365.294	10.12
366.081	8.12
366.867	8.12
367.654	9.12
368.44	7.12
369.227	7.12
370.013	6.12
370.8	10.12
371.586	10.12
372.372	8.12
373.158	7.12
373.944	8.12
374.73	9.12
375.516	8.12
376.302	9.12
377.088	8.12
377.873	9.12
378.659	10.12
379.445	6.12
380.23	7.12
381.015	10.12
381.801	11.12
382.586	8.12
383.371	6.12
384.156	11.12
384.941	10.12
385.726	7.12
386.511	10.12
387.296	12.12
388.08	6.12
388.865	8.12
389.649	10.12
390.434	8.12
391.218	9.12
392.003	12.12
392.787	11.12
393.571	12.12
394.355	11.12
395.139	12.12
395.923	12.12
396.707	11.12
397.491	11.12
398.274	13.12
399.058	10.12
399.842	13.12
400.625	15.12
401.408	13.12
402.192	11.12
402.975	14.12
403.758	11.12
404.541	12.12
405.324	13.12
406.107	13.12
406.89	8.12
407.673	16.12
408.456	14.12
409.238	15.12
410.021	12.12
410.803	16.12
411.586	14.12
412.368	13.12
413.151	15.12
413.933	16.12
414.715	15.12
415.497	13.12
416.279	15.12
417.061	19.12
417.843	15.12
418.624	20.12
419.406	16.12
420.188	18.12
420.969	16.12
421.751	19.12
422.532	20.12
423.313	18.12
424.095	23.12
424.876	21.12
425.657	22.12
426.438	20.12
427.219	24.12
428	24.12
428.78	22.12
429.561	24.12
430.342	23.12
431.122	26.12
431.903	27.12
432.683	28.12
433.464	29.12
434.244	29.12
435.024	30.12
435.804	35.12
436.584	32.12
437.364	33.12
438.144	38.12
438.924	42.12
439.704	43.12
440.483	46.12
441.263	44.12
442.042	48.12
442.822	52.12
443.601	56.12
444.38	58.12
445.16	62.12
445.939	67.12
446.718	71.12
447.497	82.12
448.276	85.12
449.054	91.12
449.833	99.12
450.612	111.12
451.391	121.12
452.169	134.12
452.948	147.12
453.726	159.12
454.504	177.12
455.282	194.12
456.061	221.12
456.839	249.12
457.617	279.12
458.395	308.12
459.172	338.12
459.95	382.12
460.728	423.12
461.506	476.12
462.283	532.12
463.061	608.12
463.838	671.12
464.615	750.12
465.393	833.12
466.17	948.12
466.947	1051.12
467.724	1169.12
468.501	1300.12
469.278	1468.12
470.055	1636.12
470.831	1823.12
471.608	2026.12
472.385	2245.12
473.161	2512.12
473.938	2787.12
474.714	3050.12
475.49	3385.12
476.266	3756.12
477.043	4155.12
477.819	4568.12
478.595	5068.12
479.371	5546.12
480.146	6133.12
480.922	6756.12
481.698	7419.12
482.473	8164.12
483.249	8934.12
484.024	9810.12
484.8	10748.12
485.575	11785.12
486.35	12802.12
487.126	14061.12
487.901	15366.12
488.676	16635.12
489.451	18105.12
490.225	19611.12
491	21236.12
491.775	22916.12
492.55	24651.12
493.324	26438.12
494.099	28194.12
494.873	30064.12
495.647	31951.12
496.422	33864.12
497.196	35549.12
497.97	37213.12
498.744	38740.12
499.518	40097.12
500.292	41343.12
501.066	42515.12
501.839	43520.12
502.613	44080.12
503.387	44510.12
504.16	44828.12
504.934	44688.12
505.707	44379.12
506.48	43943.12
507.253	43181.12
508.027	42342.12
508.8	41111.12
509.573	39804.12
510.346	38490.12
511.118	37033.12
511.891	35823.12
512.664	34435.12
513.437	32891.12
514.209	31429.12
514.982	30126.12
515.754	28943.12
516.526	27624.12
517.298	26465.12
518.071	25408.12
518.843	24319.12
519.615	23296.12
520.387	22376.12
521.159	21489.12
521.93	20622.12
522.702	19818.12
523.474	18910.12
524.245	18172.12
525.017	17460.12
525.788	16597.12
526.56	15776.12
527.331	15030.12
528.102	14254.12
528.873	13548.12
529.644	12876.12
530.415	12152.12
531.186	11527.12
531.957	10914.12
532.728	10361.12
533.498	9776.12
534.269	9224.12
535.039	8734.12
535.81	8224.12
536.58	7758.12
537.351	7347.12
538.121	6959.12
538.891	6582.12
539.661	6245.12
540.431	5888.12
541.201	5588.12
541.971	5300.12
542.741	5011.12
543.51	4725.12
544.28	4517.12
545.05	4313.12
545.819	4066.12
546.588	3858.12
547.358	3682.12
548.127	3498.12
548.896	3306.12
549.665	3158.12
550.434	2972.12
551.203	2850.12
551.972	2684.12
552.741	2532.12
553.51	2403.12
554.278	2252.12
555.047	2121.12
555.815	2006.12
556.584	1900.12
557.352	1775.12
558.121	1693.12
558.889	1585.12
559.657	1484.12
560.425	1423.12
561.193	1338.12
561.961	1278.12
562.729	1204.12
563.496	1135.12
564.264	1068.12
565.032	1010.12
565.799	980.12
566.567	918.12
567.334	856.12
568.101	819.12
568.869	765.12
569.636	726.12
570.403	689.12
571.17	644.12
571.937	605.12
572.704	571.12
573.471	533.12
574.237	505.12
575.004	489.12
575.771	454.12
576.537	431.12
577.303	409.12
578.07	383.12
578.836	364.12
579.602	338.12
580.368	321.12
581.134	301.12
581.9	288.12
582.666	274.12
583.432	263.12
584.198	240.12
584.964	234.12
585.729	220.12
586.495	207.12
587.26	204.12
588.025	190.12
588.791	183.12
589.556	171.12
590.321	167.12
591.086	153.12
591.851	145.12
592.616	143.12
593.381	137.12
594.146	129.12
594.911	121.12
595.675	114.12
596.44	114.12
597.204	108.12
597.969	102.12
598.733	97.12
599.497	93.12
600.261	92.12
601.025	85.12
601.79	83.12
602.553	80.12
603.317	77.12
604.081	73.12
604.845	68.12
605.609	68.12
606.372	65.12
607.136	62.12
607.899	60.12
608.662	58.12
609.426	55.12
610.189	54.12
610.952	53.12
611.715	50.12
612.478	47.12
613.241	45.12
614.004	42.12
614.767	43.12
615.529	41.12
616.292	41.12
617.055	41.12
617.817	36.12
618.579	36.12
619.342	38.12
620.104	36.12
620.866	33.12
621.628	34.12
622.39	32.12
623.152	29.12
623.914	28.12
624.676	29.12
625.438	28.12
626.199	25.12
626.961	23.12
627.722	23.12
628.484	27.12
629.245	22.12
630.006	26.12
630.768	22.12
631.529	24.12
632.29	21.12
633.051	20.12
633.812	21.12
634.573	20.12
635.333	18.12
636.094	18.12
636.855	20.12
637.615	18.12
638.376	16.12
639.136	18.12
639.896	19.12
640.657	18.12
641.417	15.12
642.177	16.12
642.937	13.12
643.697	17.12
644.457	13.12
645.216	12.12
645.976	11.12
646.736	9.12
647.495	16.12
648.255	13.12
649.014	13.12
649.774	13.12
650.533	9.12
651.292	13.12
652.051	10.12
652.81	11.12
653.569	12.12
654.328	11.12
655.087	10.12
655.846	12.12
656.604	10.12
657.363	11.12
658.121	9.12
658.88	8.12
659.638	10.12
660.397	10.12
661.155	6.12
661.913	7.12
662.671	9.12
663.429	11.12
664.187	8.12
664.945	7.12
665.703	10.12
666.46	12.12
667.218	7.12
667.976	9.12
668.733	12.12
669.49	7.12
670.248	9.12
671.005	7.12
671.762	8.12
672.519	8.12
673.276	8.12
674.033	6.12
674.79	7.12
675.547	6.12
676.304	9.12
677.06	7.12
677.817	6.12
678.574	7.12
679.33	6.12
680.086	9.12
680.843	7.12
681.599	8.12
682.355	6.12
683.111	7.12
683.867	4.12
684.623	8.12
685.379	6.12
686.135	8.12
686.89	7.12
687.646	8.12
688.402	5.12
689.157	6.12
689.912	8.12
690.668	5.12
691.423	5.12
692.178	7.12
692.933	5.12
693.688	6.12
694.443	8.12
695.198	8.12
695.953	6.12
696.708	8.12
697.462	8.12
698.217	6.12
698.972	6.12
699.726	6.12
700.48	7.12
701.235	8.12
701.989	5.12
702.743	5.12
703.497	4.12
704.251	6.12
705.005	5.12
705.759	6.12
706.513	8.12
707.266	6.12
708.02	6.12
708.774	5.12
709.527	6.12
710.28	2.12
711.034	5.12
711.787	6.12
712.54	5.12
713.293	7.12
714.046	6.12
714.799	7.12
715.552	8.12
716.305	8.12
717.058	6.12
717.81	7.12
718.563	8.12
719.315	6.12
720.068	4.12
720.82	6.12
721.573	6.12
722.325	9.12
723.077	6.12
723.829	7.12
724.581	9.12
725.333	8.12
726.085	8.12
726.836	7.12
727.588	7.12
728.34	8.12
729.091	7.12
729.843	7.12
730.594	8.12
731.346	7.12
732.097	6.12
732.848	8.12
733.599	8.12
734.35	5.12
735.101	8.12
735.852	8.12
736.603	7.12
737.354	7.12
738.104	8.12
738.855	8.12
739.605	7.12
740.356	8.12
741.106	9.12
741.856	9.12
742.607	10.12
743.357	7.12
744.107	9.12
744.857	9.12
745.607	7.12
746.357	9.12
747.106	8.12
747.856	10.12
748.606	8.12
749.355	8.12
750.105	9.12
750.854	8.12
751.603	11.12
752.353	9.12
753.102	10.12
753.851	10.12
754.6	10.12
755.349	10.12
756.098	11.12
756.847	12.12
757.595	12.12
758.344	12.12
759.093	12.12
759.841	12.12
760.589	10.12
761.338	10.12
762.086	11.12
762.834	10.12
763.582	13.12
764.331	12.12
765.079	13.12
765.826	12.12
766.574	12.12
767.322	14.12
768.07	13.12
768.817	11.12
769.565	12.12
770.312	14.12
771.06	13.12
771.807	13.12
772.554	15.12
773.302	12.12
774.049	16.12
774.796	15.12
775.543	14.12
776.29	11.12
777.036	14.12
777.783	15.12
778.53	16.12
779.276	16.12
780.023	15.12
780.769	15.12
781.516	12.12
782.262	16.12
783.008	15.12
783.754	13.12
784.5	15.12
785.246	15.12
785.992	12.12
786.738	11.12
787.484	12.12
788.23	15.12
788.975	14.12
789.721	15.12
790.466	12.12
791.212	13.12
791.957	9.12
792.702	13.12
793.447	13.12
794.193	12.12
794.938	11.12
795.683	11.12
796.427	12.12
797.172	11.12
797.917	12.12
798.662	11.12
799.406	11.12
800.151	9.12
800.895	9.12
801.64	10.12
802.384	10.12
803.128	11.12
803.872	11.12
804.616	10.12
805.36	9.12
806.104	7.12
806.848	10.12
807.592	10.12
808.336	7.12
809.079	7.12
809.823	9.12
810.566	7.12
811.31	10.12
812.053	4.12
812.796	9.12
813.539	9.12
814.283	9.12
815.026	6.12
815.769	9.12
816.511	9.12
817.254	7.12
817.997	6.12
818.74	5.12
819.482	6.12
820.225	5.12
820.967	7.12
821.71	4.12
822.452	6.12
823.194	8.12
823.936	5.12
824.678	4.12
825.42	5.12
826.162	5.12
826.904	8.12
827.646	4.12
828.388	6.12
829.129	5.12
829.871	7.12
830.612	4.12
831.354	7.12
832.095	5.12
832.836	5.12
833.577	5.12
834.319	3.12
835.06	6.12
835.801	6.12
836.542	6.12
837.282	6.12
838.023	6.12
838.764	3.12
839.504	3.12
840.245	5.12
840.985	5.12
841.726	6.12
842.466	6.12
843.206	4.12
843.946	3.12
844.687	3.12
845.427	6.12
846.166	5.12
846.906	2.12
847.646	4.12
848.386	3.12
849.125	6.12
849.865	4.12
850.605	3.12
851.344	4.12
852.083	5.12
852.823	5.12
853.562	4.12
854.301	4.12
855.04	1.12
855.779	3.12
856.518	3.12
857.257	3.12
857.995	3.12
858.734	2.12
859.473	4.12
860.211	3.12
860.95	3.12
861.688	4.12
862.426	1.12
863.165	4.12
863.903	3.12
864.641	4.12
865.379	2.12
866.117	4.12
866.855	1.12
867.593	3.12
868.33	4.12
869.068	3.12
869.806	1.12
870.543	1.12
871.28	4.12
872.018	1.12
872.755	4.12
873.492	1.12
874.229	2.12
874.967	3.12
875.703	4.12
876.44	1.12
877.177	0.12
877.914	1.12
878.651	0.12
879.387	-0.88
880.124	2.12
880.86	0.12
881.597	2.12
882.333	-1.88
883.069	2.12
883.806	1.12
884.542	3.12
885.278	1.12
886.014	2.12
886.749	0.12
887.485	0.12
888.221	1.12
888.957	-0.88
889.692	4.12
890.428	3.12
891.163	1.12
891.899	1.12
892.634	0.12
893.369	1.12
894.104	1.12
894.839	1.12
895.574	1.12
896.309	1.12
897.044	1.12
897.779	4.12
898.514	0.12
899.248	1.12
899.983	0.12
900.717	1.12
901.452	1.12
902.186	1.12
902.92	0.12
903.654	3.12
904.389	0.12
905.123	0.12
905.857	2.12
906.59	2.12
907.324	2.12
908.058	-1.88
908.792	1.12
909.525	-1.88
910.259	1.12
910.992	1.12
911.726	1.12
912.459	-0.88
913.192	-0.88
913.925	-0.88
914.658	-1.88
915.391	1.12
916.124	0.12
916.857	1.12
917.59	1.12
918.323	1.12
919.055	0.12
919.788	-0.88
920.521	1.12
921.253	-1.88
921.985	1.12
922.718	0.12
923.45	1.12
924.182	0.12
924.914	0.12
925.646	1.12
926.378	0.12
927.11	1.12
927.841	0.12
928.573	1.12
929.305	2.12
930.036	0.12
930.768	0.12
931.499	-0.88
932.23	0.12
932.962	2.12
933.693	0.12
934.424	2.12
935.155	1.12
935.886	-1.88
936.617	-1.88
937.348	2.12
938.078	0.12
938.809	-1.88
939.54	3.12
940.27	-2.88
941.001	-0.88
941.731	-0.88
942.461	0.12
943.191	-0.88
943.922	0.12
944.652	0.12
945.382	-2.88
946.112	2.12
946.841	-0.88
947.571	0.12
948.301	-0.88
949.031	0.12
949.76	-0.88
950.49	2.12
951.219	0.12
951.948	-2.88
952.678	1.12
953.407	-1.88
954.136	-1.88
954.865	0.12
955.594	-2.88
956.323	1.12
957.052	1.12
957.78	1.12
958.509	-0.88
959.238	0.12
959.966	1.12
960.695	0.12
961.423	2.12
962.151	0.12
962.88	1.12
963.608	0.12
964.336	2.12
965.064	0.12
965.792	0.12
966.52	1.12
967.247	-0.88
967.975	0.12
968.703	0.12
969.43	1.12
970.158	0.12
970.885	0.12
971.613	0.12
972.34	0.12
973.067	0.12
973.794	-0.88
974.521	-0.88
975.248	1.12
975.975	-1.88
976.702	-0.88
977.429	0.12
978.156	2.12
978.882	-0.88
979.609	1.12
980.335	-0.88
981.062	0.12
981.788	0.12
982.514	-2.88
983.24	2.12
983.967	0.12
984.693	-2.88
985.419	1.12
986.144	-0.88
986.87	0.12
987.596	1.12
988.322	1.12
989.047	-0.88
989.773	0.12
990.498	0.12
991.224	-0.88
991.949	1.12
992.674	-1.88
993.399	3.12
994.124	0.12
994.849	-1.88
995.574	0.12
996.299	1.12
997.024	-0.88
997.749	0.12
998.473	1.12
999.198	0.12
999.922	2.12
1000.647	2.12
1001.371	2.12
1002.095	0.12
1002.82	0.12
1003.544	-2.88
1004.268	4.12
1004.992	1.12
1005.716	2.12
1006.439	4.12
1007.163	3.12
1007.887	3.12
1008.611	-1.88
1009.334	-0.88
1010.058	0.12
1010.781	1.12
1011.504	1.12
1012.228	2.12
1012.951	-1.88
1013.674	1.12
1014.397	1.12
1015.12	0.12
