节点500_565_QEPB04081__570__09-59-54-012.txt的数据

Date: Thu Nov 13 09:59:54 CST 2025
User: PC
Spectrometer: QEPB0408
触发模式: 0
积分时间 (秒): 1.000000E-2
Scans to average: 1
启用暗噪声校正: true
启用非线性校正: false
滑动平均宽度: 0
X轴模式: Wavelengths
Number of Pixels in Spectrum: 1044
>>>>>Begin Spectral Data<<<<<
220.843	5.75
221.644	3.75
222.444	5.75
223.244	5.75
224.045	5.75
224.845	5.75
225.645	5.75
226.445	5.75
227.245	5.75
228.045	5.75
228.845	7.75
229.645	7.75
230.444	5.75
231.244	7.75
232.043	7.75
232.843	5.75
233.642	7.75
234.442	6.75
235.241	7.75
236.04	7.75
236.839	10.75
237.638	7.75
238.437	7.75
239.236	8.75
240.035	8.75
240.833	10.75
241.632	10.75
242.43	7.75
243.229	12.75
244.027	11.75
244.826	9.75
245.624	11.75
246.422	11.75
247.22	11.75
248.018	12.75
248.816	9.75
249.614	10.75
250.412	11.75
251.21	11.75
252.007	11.75
252.805	14.75
253.602	12.75
254.4	11.75
255.197	15.75
255.994	15.75
256.791	16.75
257.589	13.75
258.386	14.75
259.183	16.75
259.979	16.75
260.776	16.75
261.573	15.75
262.37	19.75
263.166	18.75
263.963	18.75
264.759	17.75
265.556	20.75
266.352	21.75
267.148	21.75
267.944	20.75
268.74	23.75
269.536	23.75
270.332	22.75
271.128	23.75
271.924	26.75
272.719	23.75
273.515	23.75
274.311	25.75
275.106	22.75
275.901	25.75
276.697	22.75
277.492	25.75
278.287	26.75
279.082	27.75
279.877	24.75
280.672	23.75
281.467	26.75
282.262	26.75
283.056	29.75
283.851	27.75
284.646	29.75
285.44	25.75
286.234	25.75
287.029	29.75
287.823	25.75
288.617	27.75
289.411	29.75
290.205	25.75
290.999	26.75
291.793	25.75
292.587	23.75
293.381	24.75
294.174	28.75
294.968	22.75
295.761	24.75
296.555	21.75
297.348	20.75
298.141	22.75
298.935	22.75
299.728	26.75
300.521	20.75
301.314	21.75
302.107	20.75
302.899	23.75
303.692	18.75
304.485	18.75
305.277	18.75
306.07	17.75
306.862	18.75
307.655	19.75
308.447	20.75
309.239	16.75
310.031	16.75
310.823	17.75
311.615	15.75
312.407	15.75
313.199	13.75
313.991	15.75
314.783	14.75
315.574	13.75
316.366	15.75
317.157	12.75
317.949	13.75
318.74	12.75
319.531	15.75
320.322	11.75
321.113	10.75
321.904	13.75
322.695	13.75
323.486	13.75
324.277	13.75
325.068	13.75
325.858	10.75
326.649	12.75
327.439	12.75
328.23	10.75
329.02	11.75
329.81	13.75
330.6	11.75
331.391	9.75
332.181	11.75
332.971	11.75
333.76	10.75
334.55	12.75
335.34	12.75
336.13	9.75
336.919	9.75
337.709	10.75
338.498	12.75
339.287	9.75
340.077	10.75
340.866	9.75
341.655	8.75
342.444	11.75
343.233	9.75
344.022	10.75
344.811	10.75
345.6	9.75
346.388	11.75
347.177	9.75
347.965	7.75
348.754	7.75
349.542	11.75
350.33	10.75
351.119	12.75
351.907	9.75
352.695	8.75
353.483	11.75
354.271	8.75
355.059	9.75
355.846	8.75
356.634	9.75
357.422	11.75
358.209	11.75
358.997	11.75
359.784	9.75
360.571	9.75
361.359	8.75
362.146	8.75
362.933	10.75
363.72	9.75
364.507	7.75
365.294	10.75
366.081	6.75
366.867	8.75
367.654	11.75
368.44	9.75
369.227	8.75
370.013	7.75
370.8	8.75
371.586	10.75
372.372	8.75
373.158	10.75
373.944	10.75
374.73	10.75
375.516	9.75
376.302	10.75
377.088	7.75
377.873	6.75
378.659	8.75
379.445	10.75
380.23	8.75
381.015	6.75
381.801	9.75
382.586	9.75
383.371	7.75
384.156	6.75
384.941	11.75
385.726	11.75
386.511	10.75
387.296	8.75
388.08	8.75
388.865	10.75
389.649	10.75
390.434	10.75
391.218	10.75
392.003	9.75
392.787	10.75
393.571	11.75
394.355	11.75
395.139	11.75
395.923	8.75
396.707	11.75
397.491	11.75
398.274	12.75
399.058	11.75
399.842	10.75
400.625	10.75
401.408	10.75
402.192	13.75
402.975	10.75
403.758	9.75
404.541	10.75
405.324	13.75
406.107	14.75
406.89	11.75
407.673	13.75
408.456	12.75
409.238	11.75
410.021	12.75
410.803	13.75
411.586	13.75
412.368	16.75
413.151	12.75
413.933	13.75
414.715	13.75
415.497	14.75
416.279	16.75
417.061	17.75
417.843	16.75
418.624	17.75
419.406	17.75
420.188	15.75
420.969	19.75
421.751	17.75
422.532	18.75
423.313	19.75
424.095	18.75
424.876	18.75
425.657	20.75
426.438	21.75
427.219	19.75
428	20.75
428.78	20.75
429.561	26.75
430.342	22.75
431.122	22.75
431.903	24.75
432.683	29.75
433.464	30.75
434.244	31.75
435.024	31.75
435.804	32.75
436.584	36.75
437.364	35.75
438.144	41.75
438.924	42.75
439.704	45.75
440.483	46.75
441.263	50.75
442.042	54.75
442.822	57.75
443.601	61.75
444.38	64.75
445.16	73.75
445.939	77.75
446.718	83.75
447.497	92.75
448.276	101.75
449.054	104.75
449.833	115.75
450.612	133.75
451.391	145.75
452.169	157.75
452.948	177.75
453.726	192.75
454.504	213.75
455.282	234.75
456.061	271.75
456.839	293.75
457.617	337.75
458.395	373.75
459.172	403.75
459.95	451.75
460.728	511.75
461.506	557.75
462.283	608.75
463.061	697.75
463.838	765.75
464.615	844.75
465.393	945.75
466.17	1039.75
466.947	1144.75
467.724	1277.75
468.501	1407.75
469.278	1551.75
470.055	1716.75
470.831	1907.75
471.608	2088.75
472.385	2297.75
473.161	2525.75
473.938	2793.75
474.714	3017.75
475.49	3301.75
476.266	3604.75
477.043	3947.75
477.819	4323.75
478.595	4707.75
479.371	5103.75
480.146	5590.75
480.922	6036.75
481.698	6545.75
482.473	7127.75
483.249	7709.75
484.024	8365.75
484.8	9055.75
485.575	9844.75
486.35	10589.75
487.126	11429.75
487.901	12384.75
488.676	13327.75
489.451	14401.75
490.225	15461.75
491	16655.75
491.775	17800.75
492.55	19051.75
493.324	20431.75
494.099	21680.75
494.873	23017.75
495.647	24514.75
496.422	25975.75
497.196	27335.75
497.97	28866.75
498.744	30103.75
499.518	31428.75
500.292	32735.75
501.066	33891.75
501.839	35003.75
502.613	35889.75
503.387	36724.75
504.16	37434.75
504.934	37923.75
505.707	38205.75
506.48	38365.75
507.253	38334.75
508.027	37981.75
508.8	37554.75
509.573	37114.75
510.346	36421.75
511.118	35556.75
511.891	34861.75
512.664	33835.75
513.437	32714.75
514.209	31667.75
514.982	30571.75
515.754	29496.75
516.526	28329.75
517.298	27293.75
518.071	26159.75
518.843	25053.75
519.615	24100.75
520.387	23152.75
521.159	22233.75
521.93	21340.75
522.702	20492.75
523.474	19689.75
524.245	18888.75
525.017	18148.75
525.788	17385.75
526.56	16661.75
527.331	15990.75
528.102	15291.75
528.873	14532.75
529.644	13865.75
530.415	13202.75
531.186	12591.75
531.957	11969.75
532.728	11425.75
533.498	10826.75
534.269	10234.75
535.039	9697.75
535.81	9222.75
536.58	8725.75
537.351	8254.75
538.121	7852.75
538.891	7399.75
539.661	7020.75
540.431	6633.75
541.201	6282.75
541.971	5973.75
542.741	5661.75
543.51	5344.75
544.28	5091.75
545.05	4845.75
545.819	4618.75
546.588	4384.75
547.358	4188.75
548.127	3949.75
548.896	3766.75
549.665	3592.75
550.434	3382.75
551.203	3240.75
551.972	3065.75
552.741	2902.75
553.51	2743.75
554.278	2581.75
555.047	2453.75
555.815	2302.75
556.584	2198.75
557.352	2078.75
558.121	1955.75
558.889	1868.75
559.657	1748.75
560.425	1663.75
561.193	1563.75
561.961	1486.75
562.729	1409.75
563.496	1333.75
564.264	1254.75
565.032	1190.75
565.799	1139.75
566.567	1072.75
567.334	1015.75
568.101	947.75
568.869	890.75
569.636	843.75
570.403	797.75
571.17	765.75
571.937	719.75
572.704	673.75
573.471	636.75
574.237	602.75
575.004	565.75
575.771	543.75
576.537	509.75
577.303	476.75
578.07	449.75
578.836	425.75
579.602	401.75
580.368	380.75
581.134	355.75
581.9	347.75
582.666	330.75
583.432	308.75
584.198	293.75
584.964	281.75
585.729	261.75
586.495	240.75
587.26	227.75
588.025	225.75
588.791	210.75
589.556	199.75
590.321	187.75
591.086	177.75
591.851	174.75
592.616	167.75
593.381	158.75
594.146	145.75
594.911	146.75
595.675	133.75
596.44	128.75
597.204	123.75
597.969	120.75
598.733	112.75
599.497	108.75
600.261	105.75
601.025	100.75
601.79	91.75
602.553	89.75
603.317	85.75
604.081	84.75
604.845	81.75
605.609	78.75
606.372	69.75
607.136	72.75
607.899	65.75
608.662	62.75
609.426	64.75
610.189	61.75
610.952	58.75
611.715	59.75
612.478	53.75
613.241	48.75
614.004	48.75
614.767	46.75
615.529	45.75
616.292	43.75
617.055	41.75
617.817	39.75
618.579	41.75
619.342	36.75
620.104	43.75
620.866	37.75
621.628	36.75
622.39	32.75
623.152	33.75
623.914	31.75
624.676	31.75
625.438	31.75
626.199	30.75
626.961	29.75
627.722	29.75
628.484	27.75
629.245	25.75
630.006	24.75
630.768	24.75
631.529	24.75
632.29	22.75
633.051	19.75
633.812	21.75
634.573	19.75
635.333	22.75
636.094	24.75
636.855	19.75
637.615	19.75
638.376	17.75
639.136	21.75
639.896	14.75
640.657	16.75
641.417	14.75
642.177	15.75
642.937	16.75
643.697	17.75
644.457	15.75
645.216	14.75
645.976	14.75
646.736	13.75
647.495	14.75
648.255	12.75
649.014	12.75
649.774	12.75
650.533	11.75
651.292	14.75
652.051	12.75
652.81	11.75
653.569	11.75
654.328	11.75
655.087	12.75
655.846	9.75
656.604	10.75
657.363	9.75
658.121	13.75
658.88	9.75
659.638	11.75
660.397	11.75
661.155	11.75
661.913	10.75
662.671	9.75
663.429	10.75
664.187	12.75
664.945	11.75
665.703	11.75
666.46	6.75
667.218	9.75
667.976	9.75
668.733	8.75
669.49	8.75
670.248	6.75
671.005	8.75
671.762	9.75
672.519	10.75
673.276	7.75
674.033	11.75
674.79	9.75
675.547	6.75
676.304	8.75
677.06	8.75
677.817	10.75
678.574	5.75
679.33	7.75
680.086	7.75
680.843	7.75
681.599	9.75
682.355	6.75
683.111	8.75
683.867	7.75
684.623	8.75
685.379	6.75
686.135	8.75
686.89	7.75
687.646	7.75
688.402	6.75
689.157	7.75
689.912	8.75
690.668	6.75
691.423	10.75
692.178	6.75
692.933	8.75
693.688	8.75
694.443	7.75
695.198	9.75
695.953	5.75
696.708	5.75
697.462	5.75
698.217	6.75
698.972	7.75
699.726	5.75
700.48	7.75
701.235	9.75
701.989	7.75
702.743	6.75
703.497	3.75
704.251	6.75
705.005	6.75
705.759	8.75
706.513	7.75
707.266	8.75
708.02	6.75
708.774	5.75
709.527	5.75
710.28	8.75
711.034	5.75
711.787	5.75
712.54	8.75
713.293	7.75
714.046	7.75
714.799	9.75
715.552	7.75
716.305	8.75
717.058	7.75
717.81	7.75
718.563	7.75
719.315	5.75
720.068	5.75
720.82	7.75
721.573	6.75
722.325	7.75
723.077	7.75
723.829	8.75
724.581	7.75
725.333	10.75
726.085	4.75
726.836	7.75
727.588	5.75
728.34	9.75
729.091	8.75
729.843	7.75
730.594	8.75
731.346	4.75
732.097	6.75
732.848	6.75
733.599	4.75
734.35	5.75
735.101	5.75
735.852	7.75
736.603	8.75
737.354	7.75
738.104	9.75
738.855	6.75
739.605	6.75
740.356	7.75
741.106	7.75
741.856	5.75
742.607	8.75
743.357	8.75
744.107	10.75
744.857	7.75
745.607	9.75
746.357	7.75
747.106	6.75
747.856	7.75
748.606	6.75
749.355	8.75
750.105	5.75
750.854	7.75
751.603	7.75
752.353	9.75
753.102	8.75
753.851	9.75
754.6	10.75
755.349	6.75
756.098	10.75
756.847	9.75
757.595	10.75
758.344	7.75
759.093	7.75
759.841	10.75
760.589	10.75
761.338	9.75
762.086	9.75
762.834	11.75
763.582	10.75
764.331	9.75
765.079	11.75
765.826	8.75
766.574	14.75
767.322	12.75
768.07	12.75
768.817	13.75
769.565	9.75
770.312	10.75
771.06	14.75
771.807	13.75
772.554	12.75
773.302	13.75
774.049	10.75
774.796	13.75
775.543	10.75
776.29	11.75
777.036	11.75
777.783	12.75
778.53	11.75
779.276	12.75
780.023	13.75
780.769	14.75
781.516	12.75
782.262	12.75
783.008	13.75
783.754	13.75
784.5	13.75
785.246	12.75
785.992	10.75
786.738	11.75
787.484	15.75
788.23	14.75
788.975	13.75
789.721	13.75
790.466	17.75
791.212	10.75
791.957	10.75
792.702	11.75
793.447	13.75
794.193	14.75
794.938	10.75
795.683	11.75
796.427	10.75
797.172	13.75
797.917	10.75
798.662	10.75
799.406	11.75
800.151	9.75
800.895	11.75
801.64	9.75
802.384	9.75
803.128	9.75
803.872	10.75
804.616	11.75
805.36	9.75
806.104	10.75
806.848	9.75
807.592	8.75
808.336	10.75
809.079	9.75
809.823	8.75
810.566	8.75
811.31	7.75
812.053	8.75
812.796	9.75
813.539	8.75
814.283	6.75
815.026	6.75
815.769	6.75
816.511	7.75
817.254	9.75
817.997	8.75
818.74	7.75
819.482	8.75
820.225	7.75
820.967	5.75
821.71	7.75
822.452	7.75
823.194	5.75
823.936	6.75
824.678	8.75
825.42	6.75
826.162	6.75
826.904	7.75
827.646	5.75
828.388	7.75
829.129	7.75
829.871	4.75
830.612	6.75
831.354	4.75
832.095	5.75
832.836	4.75
833.577	7.75
834.319	3.75
835.06	4.75
835.801	5.75
836.542	4.75
837.282	6.75
838.023	5.75
838.764	4.75
839.504	6.75
840.245	5.75
840.985	5.75
841.726	5.75
842.466	6.75
843.206	4.75
843.946	6.75
844.687	6.75
845.427	5.75
846.166	5.75
846.906	4.75
847.646	6.75
848.386	5.75
849.125	6.75
849.865	4.75
850.605	6.75
851.344	5.75
852.083	6.75
852.823	5.75
853.562	0.75
854.301	7.75
855.04	5.75
855.779	4.75
856.518	5.75
857.257	2.75
857.995	4.75
858.734	5.75
859.473	5.75
860.211	4.75
860.95	3.75
861.688	3.75
862.426	4.75
863.165	3.75
863.903	2.75
864.641	4.75
865.379	0.75
866.117	5.75
866.855	3.75
867.593	1.75
868.33	2.75
869.068	1.75
869.806	3.75
870.543	3.75
871.28	4.75
872.018	2.75
872.755	1.75
873.492	4.75
874.229	3.75
874.967	2.75
875.703	3.75
876.44	5.75
877.177	1.75
877.914	2.75
878.651	0.75
879.387	1.75
880.124	2.75
880.86	3.75
881.597	2.75
882.333	1.75
883.069	1.75
883.806	3.75
884.542	3.75
885.278	2.75
886.014	1.75
886.749	1.75
887.485	-0.25
888.221	3.75
888.957	1.75
889.692	-2.25
890.428	1.75
891.163	1.75
891.899	2.75
892.634	1.75
893.369	3.75
894.104	2.75
894.839	2.75
895.574	0.75
896.309	4.75
897.044	4.75
897.779	2.75
898.514	1.75
899.248	0.75
899.983	1.75
900.717	2.75
901.452	1.75
902.186	2.75
902.92	2.75
903.654	2.75
904.389	2.75
905.123	1.75
905.857	1.75
906.59	-0.25
907.324	1.75
908.058	0.75
908.792	1.75
909.525	1.75
910.259	3.75
910.992	-0.25
911.726	-0.25
912.459	1.75
913.192	1.75
913.925	2.75
914.658	0.75
915.391	0.75
916.124	-0.25
916.857	1.75
917.59	1.75
918.323	2.75
919.055	0.75
919.788	2.75
920.521	0.75
921.253	2.75
921.985	-0.25
922.718	-0.25
923.45	-2.25
924.182	2.75
924.914	1.75
925.646	1.75
926.378	1.75
927.11	-0.25
927.841	2.75
928.573	2.75
929.305	1.75
930.036	1.75
930.768	-0.25
931.499	1.75
932.23	2.75
932.962	0.75
933.693	0.75
934.424	1.75
935.155	0.75
935.886	2.75
936.617	1.75
937.348	-1.25
938.078	2.75
938.809	1.75
939.54	0.75
940.27	2.75
941.001	0.75
941.731	1.75
942.461	0.75
943.191	-0.25
943.922	0.75
944.652	2.75
945.382	0.75
946.112	2.75
946.841	1.75
947.571	1.75
948.301	0.75
949.031	1.75
949.76	1.75
950.49	0.75
951.219	0.75
951.948	-1.25
952.678	1.75
953.407	1.75
954.136	0.75
954.865	0.75
955.594	1.75
956.323	1.75
957.052	-0.25
957.78	1.75
958.509	-1.25
959.238	-1.25
959.966	0.75
960.695	0.75
961.423	3.75
962.151	-0.25
962.88	1.75
963.608	2.75
964.336	-0.25
965.064	2.75
965.792	-0.25
966.52	0.75
967.247	2.75
967.975	1.75
968.703	1.75
969.43	0.75
970.158	2.75
970.885	-0.25
971.613	2.75
972.34	1.75
973.067	-0.25
973.794	1.75
974.521	0.75
975.248	2.75
975.975	2.75
976.702	1.75
977.429	-1.25
978.156	0.75
978.882	0.75
979.609	3.75
980.335	1.75
981.062	0.75
981.788	2.75
982.514	2.75
983.24	1.75
983.967	-0.25
984.693	1.75
985.419	0.75
986.144	-0.25
986.87	1.75
987.596	2.75
988.322	1.75
989.047	2.75
989.773	0.75
990.498	0.75
991.224	0.75
991.949	0.75
992.674	1.75
993.399	0.75
994.124	1.75
994.849	2.75
995.574	0.75
996.299	0.75
997.024	1.75
997.749	0.75
998.473	1.75
999.198	-0.25
999.922	2.75
1000.647	1.75
1001.371	1.75
1002.095	-1.25
1002.82	-1.25
1003.544	-1.25
1004.268	3.75
1004.992	4.75
1005.716	3.75
1006.439	6.75
1007.163	4.75
1007.887	6.75
1008.611	0.75
1009.334	2.75
1010.058	0.75
1010.781	1.75
1011.504	0.75
1012.228	1.75
1012.951	0.75
1013.674	1.75
1014.397	-0.25
1015.12	-0.25
