节点500_565_QEPB04081__476__09-58-20-195.txt的数据

Date: Thu Nov 13 09:58:20 CST 2025
User: PC
Spectrometer: QEPB0408
触发模式: 0
积分时间 (秒): 1.000000E-2
Scans to average: 1
启用暗噪声校正: true
启用非线性校正: false
滑动平均宽度: 0
X轴模式: Wavelengths
Number of Pixels in Spectrum: 1044
>>>>>Begin Spectral Data<<<<<
220.843	3.38
221.644	5.38
222.444	4.38
223.244	5.38
224.045	2.38
224.845	7.38
225.645	5.38
226.445	7.38
227.245	5.38
228.045	6.38
228.845	6.38
229.645	6.38
230.444	6.38
231.244	8.38
232.043	6.38
232.843	9.38
233.642	6.38
234.442	7.38
235.241	6.38
236.04	11.38
236.839	5.38
237.638	8.38
238.437	9.38
239.236	8.38
240.035	9.38
240.833	9.38
241.632	10.38
242.43	11.38
243.229	12.38
244.027	13.38
244.826	9.38
245.624	10.38
246.422	9.38
247.22	11.38
248.018	9.38
248.816	13.38
249.614	10.38
250.412	11.38
251.21	13.38
252.007	12.38
252.805	13.38
253.602	13.38
254.4	10.38
255.197	14.38
255.994	13.38
256.791	17.38
257.589	14.38
258.386	18.38
259.183	14.38
259.979	14.38
260.776	16.38
261.573	18.38
262.37	16.38
263.166	21.38
263.963	20.38
264.759	19.38
265.556	22.38
266.352	21.38
267.148	24.38
267.944	23.38
268.74	23.38
269.536	22.38
270.332	24.38
271.128	25.38
271.924	25.38
272.719	26.38
273.515	25.38
274.311	24.38
275.106	28.38
275.901	25.38
276.697	28.38
277.492	27.38
278.287	28.38
279.082	26.38
279.877	24.38
280.672	29.38
281.467	27.38
282.262	28.38
283.056	24.38
283.851	28.38
284.646	31.38
285.44	26.38
286.234	27.38
287.029	30.38
287.823	31.38
288.617	29.38
289.411	27.38
290.205	28.38
290.999	26.38
291.793	27.38
292.587	23.38
293.381	27.38
294.174	24.38
294.968	22.38
295.761	25.38
296.555	24.38
297.348	21.38
298.141	23.38
298.935	26.38
299.728	22.38
300.521	22.38
301.314	23.38
302.107	21.38
302.899	20.38
303.692	21.38
304.485	21.38
305.277	19.38
306.07	17.38
306.862	18.38
307.655	19.38
308.447	18.38
309.239	18.38
310.031	19.38
310.823	18.38
311.615	17.38
312.407	17.38
313.199	14.38
313.991	15.38
314.783	15.38
315.574	14.38
316.366	13.38
317.157	15.38
317.949	13.38
318.74	12.38
319.531	11.38
320.322	12.38
321.113	12.38
321.904	11.38
322.695	12.38
323.486	11.38
324.277	9.38
325.068	11.38
325.858	11.38
326.649	16.38
327.439	11.38
328.23	11.38
329.02	10.38
329.81	12.38
330.6	9.38
331.391	9.38
332.181	11.38
332.971	13.38
333.76	11.38
334.55	9.38
335.34	10.38
336.13	10.38
336.919	11.38
337.709	11.38
338.498	11.38
339.287	9.38
340.077	11.38
340.866	9.38
341.655	10.38
342.444	10.38
343.233	9.38
344.022	8.38
344.811	14.38
345.6	11.38
346.388	9.38
347.177	9.38
347.965	10.38
348.754	10.38
349.542	8.38
350.33	8.38
351.119	9.38
351.907	11.38
352.695	10.38
353.483	7.38
354.271	9.38
355.059	9.38
355.846	8.38
356.634	10.38
357.422	8.38
358.209	9.38
358.997	10.38
359.784	11.38
360.571	11.38
361.359	9.38
362.146	9.38
362.933	10.38
363.72	8.38
364.507	8.38
365.294	9.38
366.081	10.38
366.867	7.38
367.654	8.38
368.44	10.38
369.227	9.38
370.013	10.38
370.8	10.38
371.586	9.38
372.372	9.38
373.158	8.38
373.944	9.38
374.73	8.38
375.516	9.38
376.302	5.38
377.088	10.38
377.873	9.38
378.659	9.38
379.445	8.38
380.23	8.38
381.015	8.38
381.801	9.38
382.586	7.38
383.371	9.38
384.156	8.38
384.941	9.38
385.726	7.38
386.511	9.38
387.296	8.38
388.08	10.38
388.865	9.38
389.649	10.38
390.434	9.38
391.218	9.38
392.003	9.38
392.787	11.38
393.571	8.38
394.355	11.38
395.139	9.38
395.923	12.38
396.707	10.38
397.491	12.38
398.274	13.38
399.058	10.38
399.842	11.38
400.625	10.38
401.408	13.38
402.192	11.38
402.975	13.38
403.758	15.38
404.541	15.38
405.324	13.38
406.107	14.38
406.89	12.38
407.673	12.38
408.456	12.38
409.238	14.38
410.021	12.38
410.803	13.38
411.586	12.38
412.368	15.38
413.151	12.38
413.933	16.38
414.715	16.38
415.497	15.38
416.279	15.38
417.061	14.38
417.843	16.38
418.624	16.38
419.406	18.38
420.188	17.38
420.969	18.38
421.751	17.38
422.532	18.38
423.313	21.38
424.095	21.38
424.876	21.38
425.657	20.38
426.438	23.38
427.219	26.38
428	19.38
428.78	20.38
429.561	24.38
430.342	25.38
431.122	27.38
431.903	27.38
432.683	28.38
433.464	29.38
434.244	29.38
435.024	29.38
435.804	34.38
436.584	34.38
437.364	36.38
438.144	38.38
438.924	42.38
439.704	41.38
440.483	50.38
441.263	51.38
442.042	54.38
442.822	56.38
443.601	59.38
444.38	66.38
445.16	67.38
445.939	70.38
446.718	83.38
447.497	89.38
448.276	95.38
449.054	103.38
449.833	122.38
450.612	130.38
451.391	136.38
452.169	154.38
452.948	172.38
453.726	184.38
454.504	211.38
455.282	233.38
456.061	255.38
456.839	281.38
457.617	319.38
458.395	353.38
459.172	397.38
459.95	443.38
460.728	482.38
461.506	547.38
462.283	609.38
463.061	672.38
463.838	749.38
464.615	820.38
465.393	920.38
466.17	1022.38
466.947	1146.38
467.724	1265.38
468.501	1416.38
469.278	1538.38
470.055	1703.38
470.831	1890.38
471.608	2070.38
472.385	2283.38
473.161	2520.38
473.938	2759.38
474.714	3042.38
475.49	3335.38
476.266	3670.38
477.043	4013.38
477.819	4340.38
478.595	4762.38
479.371	5190.38
480.146	5693.38
480.922	6134.38
481.698	6706.38
482.473	7227.38
483.249	7864.38
484.024	8510.38
484.8	9306.38
485.575	10103.38
486.35	10883.38
487.126	11794.38
487.901	12745.38
488.676	13771.38
489.451	14894.38
490.225	16074.38
491	17183.38
491.775	18508.38
492.55	19772.38
493.324	21208.38
494.099	22523.38
494.873	23947.38
495.647	25525.38
496.422	27024.38
497.196	28500.38
497.97	29905.38
498.744	31335.38
499.518	32631.38
500.292	33983.38
501.066	35095.38
501.839	36114.38
502.613	37091.38
503.387	37783.38
504.16	38527.38
504.934	39013.38
505.707	39240.38
506.48	39196.38
507.253	39113.38
508.027	38756.38
508.8	38192.38
509.573	37566.38
510.346	36878.38
511.118	35861.38
511.891	35074.38
512.664	34013.38
513.437	32942.38
514.209	31669.38
514.982	30604.38
515.754	29421.38
516.526	28229.38
517.298	27080.38
518.071	26033.38
518.843	24997.38
519.615	23894.38
520.387	23062.38
521.159	22147.38
521.93	21290.38
522.702	20395.38
523.474	19603.38
524.245	18829.38
525.017	18031.38
525.788	17279.38
526.56	16541.38
527.331	15835.38
528.102	15131.38
528.873	14422.38
529.644	13731.38
530.415	13071.38
531.186	12449.38
531.957	11773.38
532.728	11229.38
533.498	10659.38
534.269	10058.38
535.039	9527.38
535.81	9097.38
536.58	8565.38
537.351	8082.38
538.121	7695.38
538.891	7265.38
539.661	6873.38
540.431	6509.38
541.201	6169.38
541.971	5852.38
542.741	5570.38
543.51	5235.38
544.28	4990.38
545.05	4738.38
545.819	4518.38
546.588	4295.38
547.358	4097.38
548.127	3874.38
548.896	3680.38
549.665	3505.38
550.434	3318.38
551.203	3174.38
551.972	2994.38
552.741	2856.38
553.51	2703.38
554.278	2551.38
555.047	2399.38
555.815	2260.38
556.584	2150.38
557.352	2030.38
558.121	1928.38
558.889	1799.38
559.657	1705.38
560.425	1624.38
561.193	1527.38
561.961	1458.38
562.729	1374.38
563.496	1302.38
564.264	1223.38
565.032	1172.38
565.799	1096.38
566.567	1041.38
567.334	984.38
568.101	909.38
568.869	876.38
569.636	818.38
570.403	789.38
571.17	754.38
571.937	705.38
572.704	668.38
573.471	627.38
574.237	587.38
575.004	553.38
575.771	524.38
576.537	491.38
577.303	456.38
578.07	441.38
578.836	413.38
579.602	392.38
580.368	368.38
581.134	355.38
581.9	336.38
582.666	310.38
583.432	302.38
584.198	279.38
584.964	273.38
585.729	262.38
586.495	242.38
587.26	232.38
588.025	217.38
588.791	204.38
589.556	196.38
590.321	188.38
591.086	175.38
591.851	169.38
592.616	162.38
593.381	150.38
594.146	144.38
594.911	137.38
595.675	130.38
596.44	125.38
597.204	123.38
597.969	115.38
598.733	113.38
599.497	105.38
600.261	102.38
601.025	97.38
601.79	91.38
602.553	87.38
603.317	89.38
604.081	84.38
604.845	78.38
605.609	76.38
606.372	69.38
607.136	74.38
607.899	66.38
608.662	64.38
609.426	62.38
610.189	62.38
610.952	56.38
611.715	57.38
612.478	53.38
613.241	54.38
614.004	47.38
614.767	48.38
615.529	42.38
616.292	43.38
617.055	44.38
617.817	41.38
618.579	41.38
619.342	40.38
620.104	36.38
620.866	37.38
621.628	34.38
622.39	34.38
623.152	32.38
623.914	33.38
624.676	32.38
625.438	28.38
626.199	30.38
626.961	28.38
627.722	27.38
628.484	26.38
629.245	25.38
630.006	27.38
630.768	25.38
631.529	25.38
632.29	23.38
633.051	23.38
633.812	24.38
634.573	21.38
635.333	18.38
636.094	21.38
636.855	21.38
637.615	19.38
638.376	17.38
639.136	17.38
639.896	17.38
640.657	17.38
641.417	17.38
642.177	15.38
642.937	14.38
643.697	18.38
644.457	16.38
645.216	16.38
645.976	13.38
646.736	13.38
647.495	17.38
648.255	12.38
649.014	13.38
649.774	10.38
650.533	14.38
651.292	13.38
652.051	9.38
652.81	11.38
653.569	10.38
654.328	11.38
655.087	9.38
655.846	12.38
656.604	9.38
657.363	13.38
658.121	12.38
658.88	10.38
659.638	12.38
660.397	11.38
661.155	10.38
661.913	12.38
662.671	11.38
663.429	10.38
664.187	9.38
664.945	10.38
665.703	9.38
666.46	11.38
667.218	6.38
667.976	9.38
668.733	8.38
669.49	6.38
670.248	7.38
671.005	7.38
671.762	9.38
672.519	8.38
673.276	8.38
674.033	7.38
674.79	7.38
675.547	9.38
676.304	7.38
677.06	8.38
677.817	5.38
678.574	9.38
679.33	8.38
680.086	9.38
680.843	8.38
681.599	7.38
682.355	8.38
683.111	9.38
683.867	7.38
684.623	6.38
685.379	10.38
686.135	5.38
686.89	6.38
687.646	6.38
688.402	7.38
689.157	6.38
689.912	9.38
690.668	7.38
691.423	8.38
692.178	7.38
692.933	9.38
693.688	9.38
694.443	7.38
695.198	6.38
695.953	6.38
696.708	7.38
697.462	7.38
698.217	5.38
698.972	3.38
699.726	7.38
700.48	5.38
701.235	7.38
701.989	6.38
702.743	8.38
703.497	7.38
704.251	5.38
705.005	7.38
705.759	4.38
706.513	7.38
707.266	7.38
708.02	6.38
708.774	7.38
709.527	7.38
710.28	8.38
711.034	7.38
711.787	6.38
712.54	6.38
713.293	5.38
714.046	6.38
714.799	7.38
715.552	10.38
716.305	5.38
717.058	6.38
717.81	6.38
718.563	7.38
719.315	7.38
720.068	6.38
720.82	9.38
721.573	7.38
722.325	7.38
723.077	8.38
723.829	5.38
724.581	7.38
725.333	7.38
726.085	3.38
726.836	7.38
727.588	6.38
728.34	7.38
729.091	8.38
729.843	5.38
730.594	7.38
731.346	9.38
732.097	6.38
732.848	8.38
733.599	6.38
734.35	7.38
735.101	7.38
735.852	7.38
736.603	7.38
737.354	6.38
738.104	6.38
738.855	9.38
739.605	6.38
740.356	7.38
741.106	9.38
741.856	7.38
742.607	9.38
743.357	7.38
744.107	7.38
744.857	7.38
745.607	8.38
746.357	10.38
747.106	9.38
747.856	9.38
748.606	9.38
749.355	9.38
750.105	9.38
750.854	8.38
751.603	9.38
752.353	9.38
753.102	11.38
753.851	12.38
754.6	9.38
755.349	10.38
756.098	9.38
756.847	8.38
757.595	10.38
758.344	7.38
759.093	13.38
759.841	9.38
760.589	10.38
761.338	12.38
762.086	9.38
762.834	9.38
763.582	10.38
764.331	11.38
765.079	8.38
765.826	9.38
766.574	9.38
767.322	10.38
768.07	13.38
768.817	13.38
769.565	13.38
770.312	12.38
771.06	10.38
771.807	11.38
772.554	10.38
773.302	13.38
774.049	13.38
774.796	10.38
775.543	11.38
776.29	12.38
777.036	12.38
777.783	12.38
778.53	13.38
779.276	13.38
780.023	13.38
780.769	12.38
781.516	12.38
782.262	13.38
783.008	13.38
783.754	13.38
784.5	11.38
785.246	13.38
785.992	13.38
786.738	13.38
787.484	12.38
788.23	13.38
788.975	17.38
789.721	9.38
790.466	13.38
791.212	13.38
791.957	11.38
792.702	11.38
793.447	12.38
794.193	14.38
794.938	11.38
795.683	12.38
796.427	11.38
797.172	11.38
797.917	13.38
798.662	12.38
799.406	10.38
800.151	11.38
800.895	12.38
801.64	9.38
802.384	12.38
803.128	10.38
803.872	10.38
804.616	11.38
805.36	11.38
806.104	9.38
806.848	9.38
807.592	9.38
808.336	7.38
809.079	10.38
809.823	9.38
810.566	11.38
811.31	7.38
812.053	8.38
812.796	9.38
813.539	6.38
814.283	10.38
815.026	9.38
815.769	8.38
816.511	9.38
817.254	5.38
817.997	7.38
818.74	7.38
819.482	8.38
820.225	7.38
820.967	6.38
821.71	6.38
822.452	7.38
823.194	7.38
823.936	7.38
824.678	7.38
825.42	8.38
826.162	7.38
826.904	6.38
827.646	7.38
828.388	7.38
829.129	7.38
829.871	7.38
830.612	6.38
831.354	9.38
832.095	7.38
832.836	6.38
833.577	6.38
834.319	6.38
835.06	6.38
835.801	5.38
836.542	4.38
837.282	7.38
838.023	5.38
838.764	3.38
839.504	6.38
840.245	8.38
840.985	6.38
841.726	6.38
842.466	5.38
843.206	7.38
843.946	8.38
844.687	6.38
845.427	3.38
846.166	5.38
846.906	7.38
847.646	5.38
848.386	5.38
849.125	6.38
849.865	6.38
850.605	3.38
851.344	5.38
852.083	4.38
852.823	3.38
853.562	3.38
854.301	2.38
855.04	4.38
855.779	5.38
856.518	4.38
857.257	3.38
857.995	3.38
858.734	3.38
859.473	5.38
860.211	3.38
860.95	4.38
861.688	2.38
862.426	3.38
863.165	0.38
863.903	3.38
864.641	4.38
865.379	2.38
866.117	3.38
866.855	2.38
867.593	2.38
868.33	4.38
869.068	3.38
869.806	3.38
870.543	1.38
871.28	0.38
872.018	4.38
872.755	3.38
873.492	4.38
874.229	3.38
874.967	3.38
875.703	3.38
876.44	4.38
877.177	2.38
877.914	3.38
878.651	2.38
879.387	2.38
880.124	1.38
880.86	1.38
881.597	2.38
882.333	2.38
883.069	1.38
883.806	0.38
884.542	2.38
885.278	1.38
886.014	2.38
886.749	1.38
887.485	1.38
888.221	0.38
888.957	2.38
889.692	2.38
890.428	1.38
891.163	1.38
891.899	-0.62
892.634	1.38
893.369	3.38
894.104	1.38
894.839	1.38
895.574	1.38
896.309	1.38
897.044	1.38
897.779	5.38
898.514	1.38
899.248	0.38
899.983	2.38
900.717	0.38
901.452	4.38
902.186	1.38
902.92	3.38
903.654	1.38
904.389	1.38
905.123	1.38
905.857	1.38
906.59	2.38
907.324	2.38
908.058	3.38
908.792	1.38
909.525	2.38
910.259	1.38
910.992	-0.62
911.726	4.38
912.459	0.38
913.192	2.38
913.925	3.38
914.658	1.38
915.391	1.38
916.124	-1.62
916.857	2.38
917.59	0.38
918.323	3.38
919.055	2.38
919.788	1.38
920.521	1.38
921.253	-1.62
921.985	2.38
922.718	0.38
923.45	2.38
924.182	0.38
924.914	2.38
925.646	0.38
926.378	0.38
927.11	2.38
927.841	-0.62
928.573	0.38
929.305	0.38
930.036	-0.62
930.768	0.38
931.499	0.38
932.23	3.38
932.962	0.38
933.693	-0.62
934.424	1.38
935.155	2.38
935.886	0.38
936.617	0.38
937.348	0.38
938.078	0.38
938.809	0.38
939.54	1.38
940.27	1.38
941.001	4.38
941.731	1.38
942.461	1.38
943.191	1.38
943.922	2.38
944.652	1.38
945.382	3.38
946.112	1.38
946.841	1.38
947.571	2.38
948.301	2.38
949.031	3.38
949.76	0.38
950.49	0.38
951.219	1.38
951.948	0.38
952.678	-0.62
953.407	1.38
954.136	2.38
954.865	2.38
955.594	1.38
956.323	2.38
957.052	0.38
957.78	0.38
958.509	1.38
959.238	0.38
959.966	2.38
960.695	2.38
961.423	-0.62
962.151	2.38
962.88	3.38
963.608	1.38
964.336	-0.62
965.064	-1.62
965.792	3.38
966.52	-1.62
967.247	3.38
967.975	0.38
968.703	1.38
969.43	1.38
970.158	1.38
970.885	0.38
971.613	0.38
972.34	2.38
973.067	2.38
973.794	-1.62
974.521	1.38
975.248	-1.62
975.975	-0.62
976.702	3.38
977.429	2.38
978.156	1.38
978.882	2.38
979.609	0.38
980.335	2.38
981.062	1.38
981.788	1.38
982.514	0.38
983.24	1.38
983.967	1.38
984.693	0.38
985.419	-1.62
986.144	0.38
986.87	-0.62
987.596	1.38
988.322	1.38
989.047	1.38
989.773	0.38
990.498	0.38
991.224	1.38
991.949	0.38
992.674	-0.62
993.399	0.38
994.124	3.38
994.849	0.38
995.574	-0.62
996.299	1.38
997.024	-0.62
997.749	1.38
998.473	-1.62
999.198	0.38
999.922	2.38
1000.647	0.38
1001.371	3.38
1002.095	-1.62
1002.82	-1.62
1003.544	0.38
1004.268	2.38
1004.992	3.38
1005.716	4.38
1006.439	4.38
1007.163	5.38
1007.887	6.38
1008.611	1.38
1009.334	0.38
1010.058	2.38
1010.781	0.38
1011.504	1.38
1012.228	3.38
1012.951	1.38
1013.674	-2.62
1014.397	0.38
1015.12	0.38
