节点500_565_QEPB04081__295__09-55-19-545.txt的数据

Date: Thu Nov 13 09:55:19 CST 2025
User: PC
Spectrometer: QEPB0408
触发模式: 0
积分时间 (秒): 1.000000E-2
Scans to average: 1
启用暗噪声校正: true
启用非线性校正: false
滑动平均宽度: 0
X轴模式: Wavelengths
Number of Pixels in Spectrum: 1044
>>>>>Begin Spectral Data<<<<<
220.843	4
221.644	4
222.444	4
223.244	6
224.045	5
224.845	5
225.645	6
226.445	4
227.245	7
228.045	5
228.845	6
229.645	5
230.444	8
231.244	7
232.043	8
232.843	7
233.642	7
234.442	8
235.241	7
236.04	8
236.839	7
237.638	8
238.437	7
239.236	6
240.035	11
240.833	9
241.632	10
242.43	9
243.229	11
244.027	10
244.826	9
245.624	11
246.422	12
247.22	12
248.018	11
248.816	12
249.614	13
250.412	10
251.21	17
252.007	14
252.805	14
253.602	14
254.4	14
255.197	17
255.994	17
256.791	17
257.589	15
258.386	18
259.183	17
259.979	18
260.776	20
261.573	20
262.37	18
263.166	18
263.963	23
264.759	18
265.556	21
266.352	21
267.148	19
267.944	24
268.74	26
269.536	25
270.332	27
271.128	22
271.924	26
272.719	26
273.515	24
274.311	29
275.106	27
275.901	25
276.697	28
277.492	26
278.287	25
279.082	28
279.877	27
280.672	28
281.467	29
282.262	30
283.056	29
283.851	27
284.646	28
285.44	28
286.234	30
287.029	28
287.823	28
288.617	26
289.411	26
290.205	28
290.999	27
291.793	30
292.587	26
293.381	25
294.174	27
294.968	24
295.761	26
296.555	23
297.348	22
298.141	22
298.935	25
299.728	19
300.521	20
301.314	22
302.107	21
302.899	21
303.692	19
304.485	20
305.277	20
306.07	21
306.862	20
307.655	16
308.447	17
309.239	16
310.031	19
310.823	18
311.615	16
312.407	16
313.199	15
313.991	15
314.783	14
315.574	17
316.366	16
317.157	13
317.949	13
318.74	11
319.531	14
320.322	11
321.113	13
321.904	12
322.695	13
323.486	11
324.277	11
325.068	12
325.858	9
326.649	13
327.439	12
328.23	13
329.02	11
329.81	7
330.6	11
331.391	10
332.181	11
332.971	12
333.76	12
334.55	12
335.34	11
336.13	10
336.919	9
337.709	10
338.498	10
339.287	10
340.077	11
340.866	9
341.655	9
342.444	12
343.233	10
344.022	9
344.811	9
345.6	10
346.388	13
347.177	9
347.965	9
348.754	13
349.542	10
350.33	9
351.119	11
351.907	10
352.695	9
353.483	10
354.271	10
355.059	9
355.846	9
356.634	11
357.422	9
358.209	9
358.997	11
359.784	8
360.571	9
361.359	10
362.146	9
362.933	8
363.72	10
364.507	9
365.294	10
366.081	8
366.867	9
367.654	9
368.44	9
369.227	9
370.013	10
370.8	9
371.586	10
372.372	9
373.158	9
373.944	9
374.73	10
375.516	9
376.302	10
377.088	8
377.873	7
378.659	11
379.445	9
380.23	8
381.015	7
381.801	9
382.586	8
383.371	9
384.156	8
384.941	10
385.726	12
386.511	9
387.296	10
388.08	9
388.865	10
389.649	9
390.434	10
391.218	10
392.003	8
392.787	11
393.571	8
394.355	10
395.139	10
395.923	10
396.707	8
397.491	9
398.274	13
399.058	10
399.842	10
400.625	11
401.408	11
402.192	13
402.975	14
403.758	13
404.541	12
405.324	12
406.107	14
406.89	13
407.673	15
408.456	10
409.238	17
410.021	13
410.803	16
411.586	14
412.368	16
413.151	12
413.933	15
414.715	13
415.497	15
416.279	15
417.061	16
417.843	14
418.624	17
419.406	17
420.188	17
420.969	16
421.751	19
422.532	20
423.313	20
424.095	20
424.876	22
425.657	20
426.438	23
427.219	23
428	23
428.78	24
429.561	24
430.342	23
431.122	25
431.903	26
432.683	29
433.464	28
434.244	31
435.024	31
435.804	30
436.584	35
437.364	36
438.144	39
438.924	41
439.704	42
440.483	44
441.263	46
442.042	53
442.822	57
443.601	58
444.38	60
445.16	66
445.939	74
446.718	78
447.497	86
448.276	90
449.054	101
449.833	111
450.612	120
451.391	131
452.169	142
452.948	158
453.726	176
454.504	194
455.282	217
456.061	247
456.839	278
457.617	297
458.395	337
459.172	373
459.95	423
460.728	466
461.506	525
462.283	578
463.061	644
463.838	721
464.615	801
465.393	903
466.17	989
466.947	1106
467.724	1241
468.501	1371
469.278	1526
470.055	1704
470.831	1860
471.608	2081
472.385	2297
473.161	2515
473.938	2786
474.714	3067
475.49	3376
476.266	3715
477.043	4067
477.819	4473
478.595	4890
479.371	5334
480.146	5808
480.922	6393
481.698	6993
482.473	7605
483.249	8232
484.024	9032
484.8	9790
485.575	10712
486.35	11657
487.126	12624
487.901	13653
488.676	14848
489.451	16069
490.225	17356
491	18687
491.775	20084
492.55	21630
493.324	23101
494.099	24598
494.873	26237
495.647	27938
496.422	29520
497.196	31112
497.97	32684
498.744	34082
499.518	35458
500.292	36777
501.066	37992
501.839	39057
502.613	39888
503.387	40618
504.16	41113
504.934	41407
505.707	41294
506.48	41286
507.253	40857
508.027	40299
508.8	39534
509.573	38648
510.346	37724
511.118	36639
511.891	35584
512.664	34389
513.437	33093
514.209	31783
514.982	30595
515.754	29397
516.526	28112
517.298	26902
518.071	25826
518.843	24858
519.615	23819
520.387	22815
521.159	22018
521.93	21091
522.702	20205
523.474	19413
524.245	18613
525.017	17869
525.788	17069
526.56	16326
527.331	15497
528.102	14843
528.873	14118
529.644	13414
530.415	12730
531.186	12090
531.957	11488
532.728	10915
533.498	10336
534.269	9770
535.039	9207
535.81	8725
536.58	8295
537.351	7855
538.121	7409
538.891	7047
539.661	6643
540.431	6289
541.201	5930
541.971	5619
542.741	5358
543.51	5037
544.28	4797
545.05	4586
545.819	4336
546.588	4129
547.358	3942
548.127	3743
548.896	3572
549.665	3384
550.434	3192
551.203	3015
551.972	2880
552.741	2741
553.51	2563
554.278	2433
555.047	2275
555.815	2170
556.584	2057
557.352	1942
558.121	1836
558.889	1723
559.657	1627
560.425	1532
561.193	1458
561.961	1377
562.729	1306
563.496	1226
564.264	1161
565.032	1109
565.799	1045
566.567	1000
567.334	947
568.101	877
568.869	827
569.636	805
570.403	754
571.17	701
571.937	662
572.704	624
573.471	593
574.237	553
575.004	530
575.771	498
576.537	466
577.303	452
578.07	417
578.836	396
579.602	366
580.368	341
581.134	331
581.9	320
582.666	304
583.432	289
584.198	274
584.964	251
585.729	244
586.495	231
587.26	213
588.025	207
588.791	195
589.556	189
590.321	179
591.086	173
591.851	164
592.616	151
593.381	149
594.146	140
594.911	136
595.675	124
596.44	123
597.204	117
597.969	109
598.733	114
599.497	98
600.261	98
601.025	94
601.79	86
602.553	89
603.317	81
604.081	77
604.845	75
605.609	69
606.372	69
607.136	65
607.899	65
608.662	61
609.426	58
610.189	56
610.952	52
611.715	55
612.478	55
613.241	51
614.004	49
614.767	47
615.529	43
616.292	42
617.055	41
617.817	39
618.579	35
619.342	38
620.104	37
620.866	35
621.628	35
622.39	32
623.152	31
623.914	33
624.676	30
625.438	30
626.199	27
626.961	28
627.722	28
628.484	27
629.245	24
630.006	23
630.768	25
631.529	22
632.29	23
633.051	20
633.812	20
634.573	19
635.333	19
636.094	21
636.855	18
637.615	17
638.376	15
639.136	21
639.896	18
640.657	16
641.417	16
642.177	14
642.937	15
643.697	17
644.457	16
645.216	15
645.976	16
646.736	12
647.495	14
648.255	14
649.014	12
649.774	15
650.533	12
651.292	13
652.051	12
652.81	14
653.569	12
654.328	11
655.087	11
655.846	10
656.604	11
657.363	11
658.121	8
658.88	11
659.638	10
660.397	11
661.155	12
661.913	12
662.671	10
663.429	8
664.187	8
664.945	7
665.703	8
666.46	9
667.218	10
667.976	9
668.733	8
669.49	6
670.248	6
671.005	8
671.762	9
672.519	9
673.276	8
674.033	10
674.79	6
675.547	7
676.304	7
677.06	6
677.817	7
678.574	9
679.33	9
680.086	7
680.843	7
681.599	7
682.355	5
683.111	9
683.867	5
684.623	8
685.379	7
686.135	7
686.89	7
687.646	7
688.402	8
689.157	6
689.912	8
690.668	6
691.423	3
692.178	6
692.933	6
693.688	9
694.443	7
695.198	7
695.953	7
696.708	7
697.462	7
698.217	5
698.972	5
699.726	7
700.48	6
701.235	8
701.989	6
702.743	8
703.497	5
704.251	8
705.005	7
705.759	7
706.513	6
707.266	7
708.02	7
708.774	7
709.527	7
710.28	9
711.034	5
711.787	7
712.54	9
713.293	5
714.046	6
714.799	8
715.552	7
716.305	9
717.058	8
717.81	9
718.563	6
719.315	7
720.068	4
720.82	6
721.573	10
722.325	5
723.077	7
723.829	5
724.581	7
725.333	9
726.085	7
726.836	7
727.588	8
728.34	9
729.091	6
729.843	11
730.594	7
731.346	8
732.097	9
732.848	8
733.599	5
734.35	10
735.101	6
735.852	8
736.603	9
737.354	10
738.104	6
738.855	8
739.605	8
740.356	8
741.106	9
741.856	10
742.607	9
743.357	7
744.107	8
744.857	9
745.607	10
746.357	11
747.106	8
747.856	9
748.606	9
749.355	9
750.105	10
750.854	8
751.603	10
752.353	6
753.102	13
753.851	10
754.6	11
755.349	10
756.098	9
756.847	11
757.595	9
758.344	11
759.093	12
759.841	12
760.589	10
761.338	12
762.086	13
762.834	11
763.582	10
764.331	11
765.079	10
765.826	12
766.574	12
767.322	13
768.07	13
768.817	14
769.565	13
770.312	15
771.06	15
771.807	13
772.554	12
773.302	14
774.049	14
774.796	11
775.543	15
776.29	14
777.036	10
777.783	13
778.53	12
779.276	17
780.023	14
780.769	13
781.516	15
782.262	14
783.008	13
783.754	13
784.5	14
785.246	14
785.992	15
786.738	13
787.484	14
788.23	14
788.975	13
789.721	13
790.466	15
791.212	13
791.957	13
792.702	13
793.447	14
794.193	13
794.938	12
795.683	11
796.427	11
797.172	10
797.917	12
798.662	11
799.406	10
800.151	11
800.895	12
801.64	10
802.384	9
803.128	11
803.872	10
804.616	12
805.36	9
806.104	12
806.848	11
807.592	10
808.336	9
809.079	9
809.823	7
810.566	9
811.31	7
812.053	8
812.796	9
813.539	9
814.283	6
815.026	8
815.769	8
816.511	8
817.254	8
817.997	9
818.74	8
819.482	7
820.225	6
820.967	9
821.71	7
822.452	7
823.194	7
823.936	7
824.678	6
825.42	7
826.162	8
826.904	4
827.646	6
828.388	5
829.129	5
829.871	3
830.612	5
831.354	7
832.095	6
832.836	8
833.577	7
834.319	6
835.06	5
835.801	7
836.542	5
837.282	6
838.023	4
838.764	5
839.504	6
840.245	6
840.985	5
841.726	5
842.466	6
843.206	7
843.946	4
844.687	3
845.427	2
846.166	7
846.906	3
847.646	5
848.386	5
849.125	4
849.865	7
850.605	3
851.344	5
852.083	4
852.823	4
853.562	7
854.301	2
855.04	4
855.779	4
856.518	5
857.257	3
857.995	4
858.734	4
859.473	5
860.211	3
860.95	2
861.688	5
862.426	5
863.165	3
863.903	2
864.641	0
865.379	2
866.117	4
866.855	4
867.593	3
868.33	2
869.068	7
869.806	3
870.543	2
871.28	-1
872.018	0
872.755	3
873.492	4
874.229	4
874.967	3
875.703	2
876.44	1
877.177	3
877.914	-1
878.651	4
879.387	-1
880.124	2
880.86	2
881.597	0
882.333	2
883.069	1
883.806	3
884.542	2
885.278	2
886.014	0
886.749	1
887.485	3
888.221	3
888.957	2
889.692	0
890.428	0
891.163	2
891.899	1
892.634	0
893.369	2
894.104	2
894.839	2
895.574	3
896.309	0
897.044	0
897.779	1
898.514	2
899.248	1
899.983	2
900.717	2
901.452	2
902.186	-1
902.92	1
903.654	-1
904.389	3
905.123	0
905.857	2
906.59	3
907.324	1
908.058	0
908.792	-1
909.525	1
910.259	2
910.992	2
911.726	1
912.459	1
913.192	2
913.925	3
914.658	3
915.391	-1
916.124	0
916.857	1
917.59	4
918.323	0
919.055	2
919.788	2
920.521	0
921.253	1
921.985	2
922.718	3
923.45	0
924.182	1
924.914	1
925.646	1
926.378	-1
927.11	1
927.841	0
928.573	-1
929.305	2
930.036	2
930.768	-2
931.499	2
932.23	-2
932.962	3
933.693	0
934.424	0
935.155	-1
935.886	0
936.617	2
937.348	1
938.078	1
938.809	0
939.54	3
940.27	1
941.001	-1
941.731	0
942.461	-1
943.191	0
943.922	4
944.652	0
945.382	1
946.112	0
946.841	2
947.571	1
948.301	0
949.031	2
949.76	0
950.49	0
951.219	0
951.948	3
952.678	0
953.407	-1
954.136	-1
954.865	0
955.594	1
956.323	0
957.052	2
957.78	1
958.509	1
959.238	2
959.966	2
960.695	1
961.423	0
962.151	3
962.88	0
963.608	1
964.336	0
965.064	-2
965.792	1
966.52	0
967.247	2
967.975	-1
968.703	1
969.43	-2
970.158	1
970.885	1
971.613	1
972.34	1
973.067	1
973.794	1
974.521	1
975.248	0
975.975	0
976.702	2
977.429	1
978.156	1
978.882	0
979.609	1
980.335	1
981.062	1
981.788	1
982.514	3
983.24	-1
983.967	1
984.693	1
985.419	1
986.144	0
986.87	1
987.596	0
988.322	2
989.047	0
989.773	1
990.498	1
991.224	-2
991.949	0
992.674	2
993.399	1
994.124	-1
994.849	0
995.574	1
996.299	1
997.024	0
997.749	3
998.473	1
999.198	0
999.922	2
1000.647	0
1001.371	3
1002.095	-1
1002.82	-3
1003.544	-1
1004.268	6
1004.992	2
1005.716	2
1006.439	4
1007.163	4
1007.887	5
1008.611	0
1009.334	1
1010.058	4
1010.781	-2
1011.504	1
1012.228	1
1012.951	-1
1013.674	1
1014.397	1
1015.12	1
