节点500_565_QEPB04081__259__09-54-43-622.txt的数据

Date: Thu Nov 13 09:54:43 CST 2025
User: PC
Spectrometer: QEPB0408
触发模式: 0
积分时间 (秒): 1.000000E-2
Scans to average: 1
启用暗噪声校正: true
启用非线性校正: false
滑动平均宽度: 0
X轴模式: Wavelengths
Number of Pixels in Spectrum: 1044
>>>>>Begin Spectral Data<<<<<
220.843	4.25
221.644	4.25
222.444	4.25
223.244	5.25
224.045	4.25
224.845	5.25
225.645	5.25
226.445	3.25
227.245	4.25
228.045	6.25
228.845	6.25
229.645	6.25
230.444	6.25
231.244	6.25
232.043	7.25
232.843	6.25
233.642	5.25
234.442	4.25
235.241	6.25
236.04	8.25
236.839	7.25
237.638	8.25
238.437	9.25
239.236	8.25
240.035	7.25
240.833	9.25
241.632	6.25
242.43	11.25
243.229	9.25
244.027	10.25
244.826	10.25
245.624	10.25
246.422	10.25
247.22	11.25
248.018	12.25
248.816	12.25
249.614	13.25
250.412	12.25
251.21	11.25
252.007	11.25
252.805	15.25
253.602	14.25
254.4	13.25
255.197	14.25
255.994	12.25
256.791	16.25
257.589	17.25
258.386	20.25
259.183	20.25
259.979	18.25
260.776	17.25
261.573	20.25
262.37	18.25
263.166	19.25
263.963	23.25
264.759	23.25
265.556	18.25
266.352	24.25
267.148	23.25
267.944	24.25
268.74	22.25
269.536	25.25
270.332	23.25
271.128	27.25
271.924	26.25
272.719	25.25
273.515	27.25
274.311	27.25
275.106	27.25
275.901	27.25
276.697	26.25
277.492	29.25
278.287	28.25
279.082	29.25
279.877	29.25
280.672	29.25
281.467	28.25
282.262	26.25
283.056	29.25
283.851	30.25
284.646	26.25
285.44	28.25
286.234	29.25
287.029	28.25
287.823	28.25
288.617	28.25
289.411	25.25
290.205	29.25
290.999	27.25
291.793	28.25
292.587	27.25
293.381	24.25
294.174	29.25
294.968	26.25
295.761	25.25
296.555	20.25
297.348	20.25
298.141	22.25
298.935	24.25
299.728	20.25
300.521	24.25
301.314	22.25
302.107	20.25
302.899	20.25
303.692	17.25
304.485	19.25
305.277	19.25
306.07	16.25
306.862	20.25
307.655	19.25
308.447	19.25
309.239	19.25
310.031	16.25
310.823	13.25
311.615	16.25
312.407	14.25
313.199	14.25
313.991	16.25
314.783	12.25
315.574	16.25
316.366	17.25
317.157	12.25
317.949	13.25
318.74	11.25
319.531	12.25
320.322	13.25
321.113	11.25
321.904	10.25
322.695	11.25
323.486	12.25
324.277	9.25
325.068	15.25
325.858	12.25
326.649	10.25
327.439	10.25
328.23	10.25
329.02	9.25
329.81	8.25
330.6	11.25
331.391	10.25
332.181	10.25
332.971	10.25
333.76	9.25
334.55	10.25
335.34	9.25
336.13	13.25
336.919	11.25
337.709	9.25
338.498	11.25
339.287	8.25
340.077	10.25
340.866	10.25
341.655	11.25
342.444	8.25
343.233	11.25
344.022	7.25
344.811	11.25
345.6	10.25
346.388	9.25
347.177	10.25
347.965	8.25
348.754	10.25
349.542	9.25
350.33	9.25
351.119	10.25
351.907	10.25
352.695	9.25
353.483	7.25
354.271	10.25
355.059	10.25
355.846	9.25
356.634	8.25
357.422	8.25
358.209	9.25
358.997	6.25
359.784	6.25
360.571	9.25
361.359	8.25
362.146	8.25
362.933	8.25
363.72	10.25
364.507	9.25
365.294	8.25
366.081	10.25
366.867	7.25
367.654	10.25
368.44	8.25
369.227	9.25
370.013	9.25
370.8	8.25
371.586	5.25
372.372	7.25
373.158	8.25
373.944	7.25
374.73	7.25
375.516	7.25
376.302	10.25
377.088	5.25
377.873	8.25
378.659	7.25
379.445	7.25
380.23	6.25
381.015	7.25
381.801	8.25
382.586	6.25
383.371	8.25
384.156	8.25
384.941	9.25
385.726	7.25
386.511	9.25
387.296	8.25
388.08	8.25
388.865	8.25
389.649	7.25
390.434	10.25
391.218	8.25
392.003	9.25
392.787	8.25
393.571	8.25
394.355	9.25
395.139	11.25
395.923	9.25
396.707	11.25
397.491	9.25
398.274	11.25
399.058	11.25
399.842	10.25
400.625	11.25
401.408	11.25
402.192	12.25
402.975	9.25
403.758	11.25
404.541	13.25
405.324	14.25
406.107	10.25
406.89	13.25
407.673	13.25
408.456	13.25
409.238	13.25
410.021	14.25
410.803	13.25
411.586	13.25
412.368	12.25
413.151	13.25
413.933	13.25
414.715	15.25
415.497	13.25
416.279	15.25
417.061	17.25
417.843	13.25
418.624	16.25
419.406	13.25
420.188	17.25
420.969	17.25
421.751	18.25
422.532	19.25
423.313	17.25
424.095	20.25
424.876	18.25
425.657	21.25
426.438	22.25
427.219	22.25
428	21.25
428.78	22.25
429.561	23.25
430.342	23.25
431.122	28.25
431.903	26.25
432.683	25.25
433.464	28.25
434.244	32.25
435.024	32.25
435.804	32.25
436.584	34.25
437.364	34.25
438.144	36.25
438.924	36.25
439.704	40.25
440.483	44.25
441.263	48.25
442.042	51.25
442.822	53.25
443.601	56.25
444.38	56.25
445.16	66.25
445.939	72.25
446.718	74.25
447.497	82.25
448.276	90.25
449.054	98.25
449.833	108.25
450.612	118.25
451.391	133.25
452.169	145.25
452.948	158.25
453.726	171.25
454.504	202.25
455.282	213.25
456.061	241.25
456.839	266.25
457.617	310.25
458.395	335.25
459.172	371.25
459.95	413.25
460.728	460.25
461.506	512.25
462.283	576.25
463.061	640.25
463.838	711.25
464.615	791.25
465.393	895.25
466.17	990.25
466.947	1114.25
467.724	1231.25
468.501	1358.25
469.278	1526.25
470.055	1669.25
470.831	1862.25
471.608	2069.25
472.385	2299.25
473.161	2538.25
473.938	2790.25
474.714	3043.25
475.49	3374.25
476.266	3718.25
477.043	4087.25
477.819	4477.25
478.595	4928.25
479.371	5377.25
480.146	5935.25
480.922	6501.25
481.698	7073.25
482.473	7697.25
483.249	8373.25
484.024	9193.25
484.8	10041.25
485.575	10936.25
486.35	11845.25
487.126	12897.25
487.901	13967.25
488.676	15156.25
489.451	16443.25
490.225	17795.25
491	19116.25
491.775	20593.25
492.55	22175.25
493.324	23739.25
494.099	25267.25
494.873	26963.25
495.647	28636.25
496.422	30313.25
497.196	31944.25
497.97	33504.25
498.744	35022.25
499.518	36366.25
500.292	37593.25
501.066	38855.25
501.839	39976.25
502.613	40698.25
503.387	41357.25
504.16	41851.25
504.934	41994.25
505.707	41999.25
506.48	41855.25
507.253	41442.25
508.027	40726.25
508.8	39862.25
509.573	38988.25
510.346	37885.25
511.118	36831.25
511.891	35753.25
512.664	34522.25
513.437	33148.25
514.209	31756.25
514.982	30576.25
515.754	29386.25
516.526	28116.25
517.298	26890.25
518.071	25840.25
518.843	24796.25
519.615	23784.25
520.387	22830.25
521.159	21942.25
521.93	21033.25
522.702	20121.25
523.474	19297.25
524.245	18581.25
525.017	17800.25
525.788	17032.25
526.56	16227.25
527.331	15539.25
528.102	14817.25
528.873	14062.25
529.644	13346.25
530.415	12665.25
531.186	12005.25
531.957	11403.25
532.728	10827.25
533.498	10247.25
534.269	9693.25
535.039	9131.25
535.81	8667.25
536.58	8229.25
537.351	7765.25
538.121	7361.25
538.891	6939.25
539.661	6580.25
540.431	6253.25
541.201	5884.25
541.971	5590.25
542.741	5277.25
543.51	5006.25
544.28	4774.25
545.05	4534.25
545.819	4330.25
546.588	4098.25
547.358	3904.25
548.127	3690.25
548.896	3507.25
549.665	3338.25
550.434	3175.25
551.203	2997.25
551.972	2857.25
552.741	2678.25
553.51	2545.25
554.278	2390.25
555.047	2275.25
555.815	2141.25
556.584	2035.25
557.352	1925.25
558.121	1807.25
558.889	1710.25
559.657	1625.25
560.425	1528.25
561.193	1445.25
561.961	1371.25
562.729	1295.25
563.496	1211.25
564.264	1150.25
565.032	1095.25
565.799	1026.25
566.567	983.25
567.334	918.25
568.101	870.25
568.869	823.25
569.636	778.25
570.403	728.25
571.17	687.25
571.937	651.25
572.704	618.25
573.471	595.25
574.237	543.25
575.004	514.25
575.771	495.25
576.537	456.25
577.303	434.25
578.07	402.25
578.836	379.25
579.602	359.25
580.368	344.25
581.134	332.25
581.9	314.25
582.666	292.25
583.432	283.25
584.198	263.25
584.964	250.25
585.729	243.25
586.495	223.25
587.26	218.25
588.025	204.25
588.791	194.25
589.556	184.25
590.321	173.25
591.086	159.25
591.851	160.25
592.616	154.25
593.381	138.25
594.146	137.25
594.911	124.25
595.675	125.25
596.44	118.25
597.204	116.25
597.969	111.25
598.733	108.25
599.497	98.25
600.261	97.25
601.025	89.25
601.79	88.25
602.553	87.25
603.317	78.25
604.081	78.25
604.845	74.25
605.609	67.25
606.372	66.25
607.136	63.25
607.899	61.25
608.662	58.25
609.426	57.25
610.189	57.25
610.952	56.25
611.715	51.25
612.478	50.25
613.241	47.25
614.004	49.25
614.767	48.25
615.529	44.25
616.292	42.25
617.055	39.25
617.817	42.25
618.579	37.25
619.342	39.25
620.104	33.25
620.866	36.25
621.628	31.25
622.39	30.25
623.152	28.25
623.914	32.25
624.676	28.25
625.438	29.25
626.199	29.25
626.961	24.25
627.722	28.25
628.484	25.25
629.245	23.25
630.006	26.25
630.768	24.25
631.529	22.25
632.29	23.25
633.051	19.25
633.812	20.25
634.573	18.25
635.333	18.25
636.094	18.25
636.855	15.25
637.615	20.25
638.376	16.25
639.136	17.25
639.896	16.25
640.657	14.25
641.417	16.25
642.177	15.25
642.937	16.25
643.697	13.25
644.457	14.25
645.216	13.25
645.976	14.25
646.736	12.25
647.495	11.25
648.255	9.25
649.014	10.25
649.774	13.25
650.533	13.25
651.292	12.25
652.051	12.25
652.81	8.25
653.569	9.25
654.328	10.25
655.087	12.25
655.846	12.25
656.604	7.25
657.363	7.25
658.121	8.25
658.88	10.25
659.638	9.25
660.397	10.25
661.155	9.25
661.913	10.25
662.671	7.25
663.429	8.25
664.187	10.25
664.945	8.25
665.703	6.25
666.46	6.25
667.218	9.25
667.976	8.25
668.733	8.25
669.49	9.25
670.248	7.25
671.005	7.25
671.762	10.25
672.519	7.25
673.276	7.25
674.033	6.25
674.79	9.25
675.547	6.25
676.304	7.25
677.06	8.25
677.817	6.25
678.574	5.25
679.33	6.25
680.086	9.25
680.843	6.25
681.599	4.25
682.355	6.25
683.111	7.25
683.867	7.25
684.623	5.25
685.379	8.25
686.135	6.25
686.89	4.25
687.646	8.25
688.402	4.25
689.157	4.25
689.912	4.25
690.668	7.25
691.423	5.25
692.178	7.25
692.933	5.25
693.688	7.25
694.443	7.25
695.198	3.25
695.953	5.25
696.708	4.25
697.462	5.25
698.217	7.25
698.972	4.25
699.726	4.25
700.48	6.25
701.235	5.25
701.989	6.25
702.743	5.25
703.497	7.25
704.251	7.25
705.005	4.25
705.759	7.25
706.513	7.25
707.266	6.25
708.02	6.25
708.774	5.25
709.527	7.25
710.28	6.25
711.034	5.25
711.787	4.25
712.54	6.25
713.293	6.25
714.046	6.25
714.799	6.25
715.552	5.25
716.305	4.25
717.058	8.25
717.81	5.25
718.563	7.25
719.315	8.25
720.068	7.25
720.82	7.25
721.573	5.25
722.325	8.25
723.077	7.25
723.829	5.25
724.581	6.25
725.333	8.25
726.085	6.25
726.836	4.25
727.588	6.25
728.34	8.25
729.091	7.25
729.843	8.25
730.594	8.25
731.346	7.25
732.097	9.25
732.848	7.25
733.599	7.25
734.35	6.25
735.101	8.25
735.852	6.25
736.603	7.25
737.354	7.25
738.104	8.25
738.855	7.25
739.605	7.25
740.356	5.25
741.106	7.25
741.856	10.25
742.607	7.25
743.357	7.25
744.107	10.25
744.857	8.25
745.607	8.25
746.357	9.25
747.106	8.25
747.856	6.25
748.606	9.25
749.355	7.25
750.105	9.25
750.854	9.25
751.603	9.25
752.353	8.25
753.102	10.25
753.851	8.25
754.6	7.25
755.349	8.25
756.098	8.25
756.847	11.25
757.595	9.25
758.344	9.25
759.093	11.25
759.841	12.25
760.589	12.25
761.338	11.25
762.086	11.25
762.834	11.25
763.582	9.25
764.331	8.25
765.079	10.25
765.826	12.25
766.574	12.25
767.322	11.25
768.07	10.25
768.817	9.25
769.565	11.25
770.312	13.25
771.06	12.25
771.807	10.25
772.554	12.25
773.302	12.25
774.049	13.25
774.796	15.25
775.543	13.25
776.29	12.25
777.036	13.25
777.783	12.25
778.53	13.25
779.276	13.25
780.023	15.25
780.769	12.25
781.516	14.25
782.262	11.25
783.008	14.25
783.754	11.25
784.5	11.25
785.246	14.25
785.992	12.25
786.738	13.25
787.484	9.25
788.23	12.25
788.975	12.25
789.721	16.25
790.466	12.25
791.212	12.25
791.957	13.25
792.702	13.25
793.447	13.25
794.193	9.25
794.938	12.25
795.683	12.25
796.427	10.25
797.172	13.25
797.917	13.25
798.662	12.25
799.406	12.25
800.151	10.25
800.895	13.25
801.64	9.25
802.384	11.25
803.128	10.25
803.872	11.25
804.616	8.25
805.36	9.25
806.104	5.25
806.848	8.25
807.592	7.25
808.336	10.25
809.079	7.25
809.823	6.25
810.566	9.25
811.31	9.25
812.053	7.25
812.796	8.25
813.539	8.25
814.283	8.25
815.026	4.25
815.769	7.25
816.511	7.25
817.254	10.25
817.997	6.25
818.74	4.25
819.482	8.25
820.225	7.25
820.967	7.25
821.71	8.25
822.452	3.25
823.194	8.25
823.936	6.25
824.678	4.25
825.42	4.25
826.162	5.25
826.904	6.25
827.646	6.25
828.388	6.25
829.129	7.25
829.871	6.25
830.612	4.25
831.354	4.25
832.095	6.25
832.836	5.25
833.577	6.25
834.319	4.25
835.06	4.25
835.801	1.25
836.542	7.25
837.282	5.25
838.023	6.25
838.764	4.25
839.504	4.25
840.245	6.25
840.985	4.25
841.726	6.25
842.466	3.25
843.206	3.25
843.946	4.25
844.687	4.25
845.427	3.25
846.166	3.25
846.906	4.25
847.646	5.25
848.386	6.25
849.125	5.25
849.865	3.25
850.605	6.25
851.344	2.25
852.083	2.25
852.823	4.25
853.562	5.25
854.301	3.25
855.04	1.25
855.779	4.25
856.518	0.25
857.257	5.25
857.995	3.25
858.734	4.25
859.473	4.25
860.211	2.25
860.95	4.25
861.688	1.25
862.426	2.25
863.165	4.25
863.903	3.25
864.641	3.25
865.379	1.25
866.117	2.25
866.855	1.25
867.593	0.25
868.33	0.25
869.068	0.25
869.806	3.25
870.543	2.25
871.28	-0.75
872.018	0.25
872.755	0.25
873.492	3.25
874.229	1.25
874.967	2.25
875.703	0.25
876.44	2.25
877.177	1.25
877.914	1.25
878.651	2.25
879.387	1.25
880.124	1.25
880.86	1.25
881.597	1.25
882.333	1.25
883.069	1.25
883.806	-0.75
884.542	2.25
885.278	1.25
886.014	0.25
886.749	2.25
887.485	0.25
888.221	0.25
888.957	1.25
889.692	0.25
890.428	2.25
891.163	1.25
891.899	3.25
892.634	-0.75
893.369	3.25
894.104	0.25
894.839	1.25
895.574	1.25
896.309	1.25
897.044	0.25
897.779	0.25
898.514	0.25
899.248	0.25
899.983	0.25
900.717	2.25
901.452	0.25
902.186	-2.75
902.92	-0.75
903.654	0.25
904.389	0.25
905.123	1.25
905.857	-0.75
906.59	0.25
907.324	0.25
908.058	0.25
908.792	0.25
909.525	-0.75
910.259	1.25
910.992	0.25
911.726	1.25
912.459	0.25
913.192	1.25
913.925	0.25
914.658	-0.75
915.391	0.25
916.124	0.25
916.857	-1.75
917.59	-0.75
918.323	-1.75
919.055	1.25
919.788	0.25
920.521	0.25
921.253	1.25
921.985	0.25
922.718	1.25
923.45	0.25
924.182	-0.75
924.914	-1.75
925.646	2.25
926.378	-2.75
927.11	-0.75
927.841	0.25
928.573	0.25
929.305	0.25
930.036	-0.75
930.768	2.25
931.499	-0.75
932.23	-0.75
932.962	0.25
933.693	-0.75
934.424	0.25
935.155	0.25
935.886	0.25
936.617	0.25
937.348	0.25
938.078	-1.75
938.809	-1.75
939.54	0.25
940.27	2.25
941.001	0.25
941.731	-0.75
942.461	-0.75
943.191	-0.75
943.922	-0.75
944.652	0.25
945.382	-1.75
946.112	-0.75
946.841	0.25
947.571	0.25
948.301	-0.75
949.031	-0.75
949.76	1.25
950.49	-0.75
951.219	0.25
951.948	0.25
952.678	-1.75
953.407	-1.75
954.136	1.25
954.865	0.25
955.594	0.25
956.323	1.25
957.052	-0.75
957.78	0.25
958.509	-1.75
959.238	0.25
959.966	-0.75
960.695	0.25
961.423	0.25
962.151	1.25
962.88	0.25
963.608	-1.75
964.336	0.25
965.064	0.25
965.792	0.25
966.52	-1.75
967.247	0.25
967.975	0.25
968.703	0.25
969.43	-0.75
970.158	0.25
970.885	0.25
971.613	0.25
972.34	-1.75
973.067	0.25
973.794	-0.75
974.521	0.25
975.248	1.25
975.975	-0.75
976.702	1.25
977.429	0.25
978.156	0.25
978.882	-0.75
979.609	1.25
980.335	-0.75
981.062	-0.75
981.788	0.25
982.514	0.25
983.24	0.25
983.967	-0.75
984.693	0.25
985.419	1.25
986.144	0.25
986.87	0.25
987.596	-0.75
988.322	0.25
989.047	-2.75
989.773	0.25
990.498	-1.75
991.224	2.25
991.949	0.25
992.674	0.25
993.399	0.25
994.124	-2.75
994.849	-0.75
995.574	-0.75
996.299	-0.75
997.024	0.25
997.749	-1.75
998.473	-0.75
999.198	-2.75
999.922	-0.75
1000.647	0.25
1001.371	6.25
1002.095	-1.75
1002.82	-2.75
1003.544	-3.75
1004.268	4.25
1004.992	2.25
1005.716	3.25
1006.439	4.25
1007.163	4.25
1007.887	2.25
1008.611	0.25
1009.334	0.25
1010.058	0.25
1010.781	0.25
1011.504	-0.75
1012.228	2.25
1012.951	1.25
1013.674	-0.75
1014.397	0.25
1015.12	1.25
