节点500_565_QEPB04081__281__09-55-05-551.txt的数据

Date: Thu Nov 13 09:55:05 CST 2025
User: PC
Spectrometer: QEPB0408
触发模式: 0
积分时间 (秒): 1.000000E-2
Scans to average: 1
启用暗噪声校正: true
启用非线性校正: false
滑动平均宽度: 0
X轴模式: Wavelengths
Number of Pixels in Spectrum: 1044
>>>>>Begin Spectral Data<<<<<
220.843	2.75
221.644	4.75
222.444	2.75
223.244	5.75
224.045	4.75
224.845	5.75
225.645	3.75
226.445	6.75
227.245	6.75
228.045	6.75
228.845	4.75
229.645	5.75
230.444	5.75
231.244	8.75
232.043	5.75
232.843	7.75
233.642	6.75
234.442	8.75
235.241	9.75
236.04	6.75
236.839	9.75
237.638	7.75
238.437	6.75
239.236	7.75
240.035	7.75
240.833	11.75
241.632	9.75
242.43	10.75
243.229	10.75
244.027	9.75
244.826	14.75
245.624	9.75
246.422	9.75
247.22	12.75
248.018	12.75
248.816	11.75
249.614	11.75
250.412	14.75
251.21	15.75
252.007	14.75
252.805	16.75
253.602	12.75
254.4	14.75
255.197	13.75
255.994	12.75
256.791	16.75
257.589	17.75
258.386	17.75
259.183	14.75
259.979	17.75
260.776	19.75
261.573	19.75
262.37	18.75
263.166	20.75
263.963	20.75
264.759	20.75
265.556	20.75
266.352	19.75
267.148	22.75
267.944	22.75
268.74	22.75
269.536	24.75
270.332	23.75
271.128	21.75
271.924	28.75
272.719	26.75
273.515	24.75
274.311	27.75
275.106	23.75
275.901	27.75
276.697	25.75
277.492	31.75
278.287	28.75
279.082	30.75
279.877	29.75
280.672	28.75
281.467	28.75
282.262	30.75
283.056	31.75
283.851	26.75
284.646	30.75
285.44	29.75
286.234	30.75
287.029	31.75
287.823	29.75
288.617	27.75
289.411	25.75
290.205	26.75
290.999	25.75
291.793	26.75
292.587	24.75
293.381	26.75
294.174	27.75
294.968	23.75
295.761	25.75
296.555	19.75
297.348	20.75
298.141	21.75
298.935	25.75
299.728	26.75
300.521	20.75
301.314	18.75
302.107	19.75
302.899	17.75
303.692	19.75
304.485	20.75
305.277	17.75
306.07	17.75
306.862	22.75
307.655	18.75
308.447	18.75
309.239	18.75
310.031	17.75
310.823	12.75
311.615	15.75
312.407	15.75
313.199	12.75
313.991	14.75
314.783	9.75
315.574	13.75
316.366	15.75
317.157	12.75
317.949	14.75
318.74	14.75
319.531	11.75
320.322	12.75
321.113	9.75
321.904	13.75
322.695	10.75
323.486	11.75
324.277	8.75
325.068	11.75
325.858	11.75
326.649	11.75
327.439	9.75
328.23	9.75
329.02	8.75
329.81	9.75
330.6	8.75
331.391	9.75
332.181	12.75
332.971	10.75
333.76	7.75
334.55	10.75
335.34	8.75
336.13	10.75
336.919	7.75
337.709	9.75
338.498	9.75
339.287	9.75
340.077	9.75
340.866	12.75
341.655	8.75
342.444	8.75
343.233	10.75
344.022	12.75
344.811	10.75
345.6	9.75
346.388	8.75
347.177	8.75
347.965	8.75
348.754	9.75
349.542	9.75
350.33	10.75
351.119	11.75
351.907	7.75
352.695	12.75
353.483	8.75
354.271	9.75
355.059	9.75
355.846	7.75
356.634	10.75
357.422	8.75
358.209	8.75
358.997	8.75
359.784	10.75
360.571	8.75
361.359	6.75
362.146	8.75
362.933	8.75
363.72	7.75
364.507	10.75
365.294	8.75
366.081	9.75
366.867	8.75
367.654	10.75
368.44	7.75
369.227	8.75
370.013	8.75
370.8	7.75
371.586	11.75
372.372	7.75
373.158	8.75
373.944	7.75
374.73	8.75
375.516	7.75
376.302	8.75
377.088	9.75
377.873	7.75
378.659	7.75
379.445	5.75
380.23	8.75
381.015	8.75
381.801	8.75
382.586	8.75
383.371	6.75
384.156	8.75
384.941	8.75
385.726	12.75
386.511	8.75
387.296	6.75
388.08	9.75
388.865	10.75
389.649	10.75
390.434	11.75
391.218	9.75
392.003	9.75
392.787	10.75
393.571	8.75
394.355	9.75
395.139	12.75
395.923	8.75
396.707	11.75
397.491	9.75
398.274	9.75
399.058	13.75
399.842	11.75
400.625	12.75
401.408	12.75
402.192	12.75
402.975	9.75
403.758	12.75
404.541	14.75
405.324	13.75
406.107	10.75
406.89	12.75
407.673	12.75
408.456	13.75
409.238	16.75
410.021	13.75
410.803	15.75
411.586	15.75
412.368	10.75
413.151	16.75
413.933	14.75
414.715	15.75
415.497	12.75
416.279	14.75
417.061	14.75
417.843	16.75
418.624	16.75
419.406	17.75
420.188	16.75
420.969	18.75
421.751	18.75
422.532	20.75
423.313	18.75
424.095	19.75
424.876	22.75
425.657	20.75
426.438	20.75
427.219	21.75
428	20.75
428.78	22.75
429.561	24.75
430.342	25.75
431.122	26.75
431.903	25.75
432.683	28.75
433.464	27.75
434.244	27.75
435.024	29.75
435.804	34.75
436.584	35.75
437.364	36.75
438.144	37.75
438.924	38.75
439.704	42.75
440.483	44.75
441.263	48.75
442.042	48.75
442.822	54.75
443.601	56.75
444.38	63.75
445.16	64.75
445.939	69.75
446.718	78.75
447.497	86.75
448.276	95.75
449.054	101.75
449.833	111.75
450.612	117.75
451.391	134.75
452.169	146.75
452.948	156.75
453.726	173.75
454.504	196.75
455.282	216.75
456.061	244.75
456.839	269.75
457.617	301.75
458.395	330.75
459.172	367.75
459.95	426.75
460.728	461.75
461.506	520.75
462.283	567.75
463.061	648.75
463.838	724.75
464.615	808.75
465.393	898.75
466.17	981.75
466.947	1111.75
467.724	1245.75
468.501	1360.75
469.278	1509.75
470.055	1683.75
470.831	1857.75
471.608	2061.75
472.385	2278.75
473.161	2516.75
473.938	2796.75
474.714	3065.75
475.49	3370.75
476.266	3708.75
477.043	4072.75
477.819	4495.75
478.595	4893.75
479.371	5360.75
480.146	5880.75
480.922	6455.75
481.698	6976.75
482.473	7632.75
483.249	8317.75
484.024	9099.75
484.8	9912.75
485.575	10781.75
486.35	11694.75
487.126	12709.75
487.901	13834.75
488.676	15004.75
489.451	16236.75
490.225	17603.75
491	18909.75
491.775	20291.75
492.55	21860.75
493.324	23408.75
494.099	24930.75
494.873	26524.75
495.647	28255.75
496.422	29912.75
497.196	31465.75
497.97	33112.75
498.744	34518.75
499.518	35887.75
500.292	37124.75
501.066	38402.75
501.839	39466.75
502.613	40236.75
503.387	40856.75
504.16	41465.75
504.934	41764.75
505.707	41668.75
506.48	41566.75
507.253	41213.75
508.027	40494.75
508.8	39721.75
509.573	38814.75
510.346	37785.75
511.118	36726.75
511.891	35748.75
512.664	34411.75
513.437	33163.75
514.209	31794.75
514.982	30563.75
515.754	29387.75
516.526	28053.75
517.298	26921.75
518.071	25849.75
518.843	24822.75
519.615	23824.75
520.387	22820.75
521.159	21967.75
521.93	21087.75
522.702	20208.75
523.474	19402.75
524.245	18598.75
525.017	17871.75
525.788	16978.75
526.56	16311.75
527.331	15552.75
528.102	14818.75
528.873	14123.75
529.644	13434.75
530.415	12732.75
531.186	12090.75
531.957	11481.75
532.728	10904.75
533.498	10295.75
534.269	9751.75
535.039	9197.75
535.81	8702.75
536.58	8285.75
537.351	7814.75
538.121	7355.75
538.891	6979.75
539.661	6615.75
540.431	6280.75
541.201	5949.75
541.971	5612.75
542.741	5310.75
543.51	5036.75
544.28	4781.75
545.05	4573.75
545.819	4340.75
546.588	4097.75
547.358	3899.75
548.127	3739.75
548.896	3554.75
549.665	3371.75
550.434	3191.75
551.203	3031.75
551.972	2881.75
552.741	2702.75
553.51	2583.75
554.278	2432.75
555.047	2269.75
555.815	2174.75
556.584	2061.75
557.352	1934.75
558.121	1824.75
558.889	1702.75
559.657	1622.75
560.425	1514.75
561.193	1443.75
561.961	1364.75
562.729	1299.75
563.496	1220.75
564.264	1161.75
565.032	1097.75
565.799	1051.75
566.567	997.75
567.334	922.75
568.101	868.75
568.869	825.75
569.636	791.75
570.403	748.75
571.17	695.75
571.937	655.75
572.704	619.75
573.471	584.75
574.237	556.75
575.004	530.75
575.771	489.75
576.537	462.75
577.303	434.75
578.07	409.75
578.836	390.75
579.602	368.75
580.368	353.75
581.134	328.75
581.9	315.75
582.666	303.75
583.432	280.75
584.198	268.75
584.964	260.75
585.729	239.75
586.495	224.75
587.26	215.75
588.025	206.75
588.791	192.75
589.556	185.75
590.321	173.75
591.086	167.75
591.851	159.75
592.616	151.75
593.381	141.75
594.146	136.75
594.911	136.75
595.675	129.75
596.44	116.75
597.204	116.75
597.969	106.75
598.733	105.75
599.497	101.75
600.261	96.75
601.025	91.75
601.79	87.75
602.553	83.75
603.317	82.75
604.081	77.75
604.845	74.75
605.609	71.75
606.372	69.75
607.136	65.75
607.899	63.75
608.662	60.75
609.426	60.75
610.189	57.75
610.952	55.75
611.715	49.75
612.478	48.75
613.241	48.75
614.004	49.75
614.767	45.75
615.529	45.75
616.292	39.75
617.055	41.75
617.817	37.75
618.579	37.75
619.342	39.75
620.104	39.75
620.866	34.75
621.628	31.75
622.39	30.75
623.152	29.75
623.914	32.75
624.676	28.75
625.438	29.75
626.199	28.75
626.961	25.75
627.722	26.75
628.484	26.75
629.245	24.75
630.006	22.75
630.768	26.75
631.529	20.75
632.29	23.75
633.051	23.75
633.812	17.75
634.573	17.75
635.333	17.75
636.094	19.75
636.855	17.75
637.615	14.75
638.376	16.75
639.136	18.75
639.896	17.75
640.657	13.75
641.417	16.75
642.177	14.75
642.937	13.75
643.697	14.75
644.457	13.75
645.216	13.75
645.976	13.75
646.736	12.75
647.495	11.75
648.255	12.75
649.014	12.75
649.774	10.75
650.533	13.75
651.292	10.75
652.051	11.75
652.81	12.75
653.569	10.75
654.328	13.75
655.087	8.75
655.846	9.75
656.604	8.75
657.363	9.75
658.121	10.75
658.88	10.75
659.638	8.75
660.397	10.75
661.155	11.75
661.913	7.75
662.671	11.75
663.429	8.75
664.187	8.75
664.945	7.75
665.703	7.75
666.46	6.75
667.218	8.75
667.976	6.75
668.733	6.75
669.49	7.75
670.248	9.75
671.005	6.75
671.762	7.75
672.519	8.75
673.276	6.75
674.033	8.75
674.79	8.75
675.547	3.75
676.304	7.75
677.06	6.75
677.817	4.75
678.574	8.75
679.33	7.75
680.086	6.75
680.843	8.75
681.599	6.75
682.355	6.75
683.111	6.75
683.867	8.75
684.623	4.75
685.379	7.75
686.135	5.75
686.89	8.75
687.646	6.75
688.402	5.75
689.157	6.75
689.912	6.75
690.668	7.75
691.423	7.75
692.178	6.75
692.933	5.75
693.688	4.75
694.443	8.75
695.198	6.75
695.953	7.75
696.708	6.75
697.462	5.75
698.217	6.75
698.972	5.75
699.726	4.75
700.48	5.75
701.235	4.75
701.989	6.75
702.743	6.75
703.497	6.75
704.251	5.75
705.005	5.75
705.759	4.75
706.513	6.75
707.266	7.75
708.02	6.75
708.774	7.75
709.527	5.75
710.28	6.75
711.034	3.75
711.787	6.75
712.54	6.75
713.293	6.75
714.046	4.75
714.799	6.75
715.552	6.75
716.305	2.75
717.058	8.75
717.81	5.75
718.563	6.75
719.315	5.75
720.068	5.75
720.82	6.75
721.573	6.75
722.325	6.75
723.077	2.75
723.829	9.75
724.581	4.75
725.333	6.75
726.085	8.75
726.836	6.75
727.588	6.75
728.34	6.75
729.091	6.75
729.843	7.75
730.594	8.75
731.346	6.75
732.097	8.75
732.848	8.75
733.599	6.75
734.35	6.75
735.101	6.75
735.852	6.75
736.603	9.75
737.354	5.75
738.104	10.75
738.855	4.75
739.605	9.75
740.356	6.75
741.106	7.75
741.856	7.75
742.607	7.75
743.357	7.75
744.107	6.75
744.857	10.75
745.607	8.75
746.357	9.75
747.106	7.75
747.856	9.75
748.606	9.75
749.355	6.75
750.105	9.75
750.854	9.75
751.603	10.75
752.353	8.75
753.102	9.75
753.851	9.75
754.6	9.75
755.349	10.75
756.098	9.75
756.847	9.75
757.595	10.75
758.344	10.75
759.093	8.75
759.841	8.75
760.589	9.75
761.338	8.75
762.086	12.75
762.834	11.75
763.582	11.75
764.331	11.75
765.079	8.75
765.826	10.75
766.574	10.75
767.322	8.75
768.07	11.75
768.817	12.75
769.565	12.75
770.312	13.75
771.06	11.75
771.807	9.75
772.554	11.75
773.302	12.75
774.049	9.75
774.796	13.75
775.543	11.75
776.29	12.75
777.036	14.75
777.783	13.75
778.53	12.75
779.276	12.75
780.023	12.75
780.769	15.75
781.516	12.75
782.262	13.75
783.008	13.75
783.754	12.75
784.5	13.75
785.246	13.75
785.992	13.75
786.738	12.75
787.484	11.75
788.23	13.75
788.975	12.75
789.721	13.75
790.466	14.75
791.212	12.75
791.957	11.75
792.702	11.75
793.447	10.75
794.193	10.75
794.938	12.75
795.683	12.75
796.427	14.75
797.172	10.75
797.917	12.75
798.662	12.75
799.406	11.75
800.151	12.75
800.895	12.75
801.64	10.75
802.384	9.75
803.128	9.75
803.872	11.75
804.616	9.75
805.36	10.75
806.104	6.75
806.848	9.75
807.592	9.75
808.336	7.75
809.079	9.75
809.823	6.75
810.566	8.75
811.31	5.75
812.053	8.75
812.796	7.75
813.539	7.75
814.283	6.75
815.026	7.75
815.769	9.75
816.511	4.75
817.254	5.75
817.997	6.75
818.74	6.75
819.482	6.75
820.225	7.75
820.967	6.75
821.71	8.75
822.452	3.75
823.194	7.75
823.936	7.75
824.678	6.75
825.42	4.75
826.162	6.75
826.904	3.75
827.646	6.75
828.388	5.75
829.129	6.75
829.871	5.75
830.612	3.75
831.354	6.75
832.095	2.75
832.836	4.75
833.577	6.75
834.319	4.75
835.06	3.75
835.801	2.75
836.542	5.75
837.282	4.75
838.023	5.75
838.764	3.75
839.504	6.75
840.245	2.75
840.985	3.75
841.726	5.75
842.466	3.75
843.206	4.75
843.946	4.75
844.687	5.75
845.427	4.75
846.166	3.75
846.906	5.75
847.646	2.75
848.386	4.75
849.125	4.75
849.865	6.75
850.605	6.75
851.344	4.75
852.083	2.75
852.823	2.75
853.562	1.75
854.301	2.75
855.04	3.75
855.779	3.75
856.518	4.75
857.257	2.75
857.995	4.75
858.734	2.75
859.473	1.75
860.211	1.75
860.95	4.75
861.688	-0.25
862.426	5.75
863.165	2.75
863.903	2.75
864.641	3.75
865.379	0.75
866.117	2.75
866.855	0.75
867.593	2.75
868.33	1.75
869.068	2.75
869.806	2.75
870.543	3.75
871.28	2.75
872.018	2.75
872.755	2.75
873.492	2.75
874.229	1.75
874.967	1.75
875.703	1.75
876.44	0.75
877.177	0.75
877.914	1.75
878.651	1.75
879.387	2.75
880.124	0.75
880.86	2.75
881.597	0.75
882.333	0.75
883.069	0.75
883.806	0.75
884.542	4.75
885.278	1.75
886.014	0.75
886.749	1.75
887.485	2.75
888.221	0.75
888.957	-1.25
889.692	2.75
890.428	0.75
891.163	0.75
891.899	1.75
892.634	0.75
893.369	1.75
894.104	1.75
894.839	2.75
895.574	1.75
896.309	0.75
897.044	0.75
897.779	-2.25
898.514	1.75
899.248	-0.25
899.983	2.75
900.717	0.75
901.452	1.75
902.186	0.75
902.92	0.75
903.654	0.75
904.389	0.75
905.123	0.75
905.857	-0.25
906.59	-0.25
907.324	0.75
908.058	-0.25
908.792	0.75
909.525	0.75
910.259	2.75
910.992	1.75
911.726	1.75
912.459	-0.25
913.192	0.75
913.925	4.75
914.658	0.75
915.391	1.75
916.124	0.75
916.857	-0.25
917.59	0.75
918.323	-0.25
919.055	0.75
919.788	-1.25
920.521	-0.25
921.253	-2.25
921.985	1.75
922.718	0.75
923.45	0.75
924.182	2.75
924.914	-0.25
925.646	-1.25
926.378	-0.25
927.11	0.75
927.841	-1.25
928.573	-0.25
929.305	-0.25
930.036	-0.25
930.768	1.75
931.499	-1.25
932.23	0.75
932.962	-2.25
933.693	0.75
934.424	1.75
935.155	-0.25
935.886	2.75
936.617	-1.25
937.348	0.75
938.078	-0.25
938.809	0.75
939.54	-0.25
940.27	-1.25
941.001	0.75
941.731	0.75
942.461	-0.25
943.191	0.75
943.922	2.75
944.652	-0.25
945.382	-1.25
946.112	0.75
946.841	-0.25
947.571	1.75
948.301	2.75
949.031	2.75
949.76	0.75
950.49	0.75
951.219	0.75
951.948	0.75
952.678	2.75
953.407	-2.25
954.136	0.75
954.865	-0.25
955.594	0.75
956.323	0.75
957.052	0.75
957.78	0.75
958.509	-2.25
959.238	-1.25
959.966	0.75
960.695	0.75
961.423	2.75
962.151	0.75
962.88	-0.25
963.608	-0.25
964.336	1.75
965.064	1.75
965.792	1.75
966.52	-0.25
967.247	1.75
967.975	0.75
968.703	-0.25
969.43	1.75
970.158	0.75
970.885	-0.25
971.613	-0.25
972.34	0.75
973.067	1.75
973.794	1.75
974.521	0.75
975.248	0.75
975.975	1.75
976.702	1.75
977.429	-1.25
978.156	0.75
978.882	-0.25
979.609	-0.25
980.335	-0.25
981.062	0.75
981.788	1.75
982.514	-1.25
983.24	1.75
983.967	0.75
984.693	0.75
985.419	0.75
986.144	0.75
986.87	-0.25
987.596	-1.25
988.322	-1.25
989.047	-1.25
989.773	0.75
990.498	-2.25
991.224	-0.25
991.949	0.75
992.674	-0.25
993.399	1.75
994.124	-2.25
994.849	0.75
995.574	0.75
996.299	0.75
997.024	1.75
997.749	-1.25
998.473	0.75
999.198	-0.25
999.922	0.75
1000.647	0.75
1001.371	3.75
1002.095	-0.25
1002.82	-1.25
1003.544	-2.25
1004.268	3.75
1004.992	5.75
1005.716	1.75
1006.439	2.75
1007.163	4.75
1007.887	2.75
1008.611	0.75
1009.334	1.75
1010.058	-1.25
1010.781	-0.25
1011.504	-0.25
1012.228	0.75
1012.951	-2.25
1013.674	1.75
1014.397	0.75
1015.12	-0.25
