节点500_565_QEPB04081__386__09-56-50-351.txt的数据

Date: Thu Nov 13 09:56:50 CST 2025
User: PC
Spectrometer: QEPB0408
触发模式: 0
积分时间 (秒): 1.000000E-2
Scans to average: 1
启用暗噪声校正: true
启用非线性校正: false
滑动平均宽度: 0
X轴模式: Wavelengths
Number of Pixels in Spectrum: 1044
>>>>>Begin Spectral Data<<<<<
220.843	4.75
221.644	3.75
222.444	3.75
223.244	3.75
224.045	2.75
224.845	4.75
225.645	5.75
226.445	4.75
227.245	7.75
228.045	2.75
228.845	3.75
229.645	4.75
230.444	6.75
231.244	2.75
232.043	4.75
232.843	6.75
233.642	4.75
234.442	7.75
235.241	8.75
236.04	5.75
236.839	4.75
237.638	5.75
238.437	7.75
239.236	5.75
240.035	7.75
240.833	8.75
241.632	9.75
242.43	8.75
243.229	8.75
244.027	7.75
244.826	6.75
245.624	8.75
246.422	10.75
247.22	10.75
248.018	8.75
248.816	11.75
249.614	6.75
250.412	9.75
251.21	10.75
252.007	10.75
252.805	11.75
253.602	9.75
254.4	11.75
255.197	11.75
255.994	11.75
256.791	12.75
257.589	14.75
258.386	12.75
259.183	12.75
259.979	13.75
260.776	14.75
261.573	16.75
262.37	13.75
263.166	13.75
263.963	17.75
264.759	16.75
265.556	16.75
266.352	15.75
267.148	20.75
267.944	17.75
268.74	17.75
269.536	19.75
270.332	18.75
271.128	20.75
271.924	23.75
272.719	22.75
273.515	22.75
274.311	22.75
275.106	24.75
275.901	20.75
276.697	24.75
277.492	22.75
278.287	25.75
279.082	21.75
279.877	24.75
280.672	23.75
281.467	24.75
282.262	23.75
283.056	25.75
283.851	23.75
284.646	26.75
285.44	25.75
286.234	25.75
287.029	24.75
287.823	22.75
288.617	22.75
289.411	23.75
290.205	22.75
290.999	23.75
291.793	22.75
292.587	22.75
293.381	19.75
294.174	21.75
294.968	21.75
295.761	22.75
296.555	20.75
297.348	18.75
298.141	20.75
298.935	21.75
299.728	18.75
300.521	17.75
301.314	18.75
302.107	18.75
302.899	17.75
303.692	16.75
304.485	16.75
305.277	16.75
306.07	17.75
306.862	12.75
307.655	19.75
308.447	14.75
309.239	13.75
310.031	16.75
310.823	14.75
311.615	12.75
312.407	15.75
313.199	13.75
313.991	14.75
314.783	13.75
315.574	9.75
316.366	9.75
317.157	11.75
317.949	10.75
318.74	10.75
319.531	10.75
320.322	9.75
321.113	10.75
321.904	7.75
322.695	9.75
323.486	9.75
324.277	8.75
325.068	10.75
325.858	8.75
326.649	10.75
327.439	7.75
328.23	8.75
329.02	9.75
329.81	7.75
330.6	6.75
331.391	9.75
332.181	9.75
332.971	8.75
333.76	11.75
334.55	10.75
335.34	9.75
336.13	7.75
336.919	6.75
337.709	6.75
338.498	8.75
339.287	11.75
340.077	7.75
340.866	8.75
341.655	7.75
342.444	8.75
343.233	8.75
344.022	9.75
344.811	8.75
345.6	8.75
346.388	8.75
347.177	6.75
347.965	8.75
348.754	8.75
349.542	8.75
350.33	7.75
351.119	6.75
351.907	8.75
352.695	7.75
353.483	8.75
354.271	8.75
355.059	9.75
355.846	8.75
356.634	7.75
357.422	6.75
358.209	10.75
358.997	7.75
359.784	8.75
360.571	8.75
361.359	9.75
362.146	6.75
362.933	8.75
363.72	6.75
364.507	6.75
365.294	8.75
366.081	6.75
366.867	8.75
367.654	4.75
368.44	8.75
369.227	4.75
370.013	8.75
370.8	6.75
371.586	7.75
372.372	8.75
373.158	7.75
373.944	7.75
374.73	4.75
375.516	5.75
376.302	5.75
377.088	5.75
377.873	4.75
378.659	7.75
379.445	8.75
380.23	6.75
381.015	8.75
381.801	7.75
382.586	5.75
383.371	8.75
384.156	7.75
384.941	6.75
385.726	9.75
386.511	7.75
387.296	6.75
388.08	6.75
388.865	7.75
389.649	8.75
390.434	10.75
391.218	5.75
392.003	11.75
392.787	6.75
393.571	8.75
394.355	9.75
395.139	6.75
395.923	8.75
396.707	9.75
397.491	7.75
398.274	11.75
399.058	8.75
399.842	9.75
400.625	8.75
401.408	11.75
402.192	8.75
402.975	8.75
403.758	11.75
404.541	10.75
405.324	8.75
406.107	12.75
406.89	8.75
407.673	11.75
408.456	12.75
409.238	10.75
410.021	12.75
410.803	12.75
411.586	12.75
412.368	13.75
413.151	12.75
413.933	11.75
414.715	13.75
415.497	11.75
416.279	11.75
417.061	13.75
417.843	13.75
418.624	13.75
419.406	13.75
420.188	14.75
420.969	15.75
421.751	15.75
422.532	14.75
423.313	13.75
424.095	15.75
424.876	17.75
425.657	16.75
426.438	18.75
427.219	16.75
428	20.75
428.78	18.75
429.561	20.75
430.342	18.75
431.122	20.75
431.903	24.75
432.683	22.75
433.464	25.75
434.244	28.75
435.024	27.75
435.804	30.75
436.584	30.75
437.364	29.75
438.144	33.75
438.924	34.75
439.704	36.75
440.483	39.75
441.263	41.75
442.042	45.75
442.822	48.75
443.601	51.75
444.38	57.75
445.16	59.75
445.939	61.75
446.718	72.75
447.497	72.75
448.276	82.75
449.054	88.75
449.833	102.75
450.612	106.75
451.391	122.75
452.169	135.75
452.948	145.75
453.726	160.75
454.504	170.75
455.282	201.75
456.061	222.75
456.839	245.75
457.617	268.75
458.395	304.75
459.172	330.75
459.95	380.75
460.728	418.75
461.506	465.75
462.283	520.75
463.061	581.75
463.838	650.75
464.615	725.75
465.393	796.75
466.17	898.75
466.947	989.75
467.724	1096.75
468.501	1225.75
469.278	1355.75
470.055	1494.75
470.831	1651.75
471.608	1833.75
472.385	2017.75
473.161	2199.75
473.938	2460.75
474.714	2691.75
475.49	2940.75
476.266	3230.75
477.043	3564.75
477.819	3874.75
478.595	4218.75
479.371	4618.75
480.146	5073.75
480.922	5522.75
481.698	6017.75
482.473	6501.75
483.249	7096.75
484.024	7730.75
484.8	8400.75
485.575	9126.75
486.35	9916.75
487.126	10726.75
487.901	11603.75
488.676	12553.75
489.451	13592.75
490.225	14713.75
491	15784.75
491.775	16934.75
492.55	18162.75
493.324	19432.75
494.099	20757.75
494.873	22063.75
495.647	23463.75
496.422	24882.75
497.196	26218.75
497.97	27482.75
498.744	28785.75
499.518	29898.75
500.292	31048.75
501.066	32163.75
501.839	33054.75
502.613	33859.75
503.387	34443.75
504.16	35052.75
504.934	35256.75
505.707	35486.75
506.48	35487.75
507.253	35315.75
508.027	34726.75
508.8	34251.75
509.573	33593.75
510.346	32777.75
511.118	31900.75
511.891	31069.75
512.664	30075.75
513.437	28960.75
514.209	27862.75
514.982	26864.75
515.754	25813.75
516.526	24734.75
517.298	23738.75
518.071	22777.75
518.843	21860.75
519.615	20930.75
520.387	20192.75
521.159	19408.75
521.93	18634.75
522.702	17756.75
523.474	17144.75
524.245	16422.75
525.017	15735.75
525.788	15079.75
526.56	14362.75
527.331	13744.75
528.102	13117.75
528.873	12526.75
529.644	11919.75
530.415	11323.75
531.186	10749.75
531.957	10246.75
532.728	9744.75
533.498	9229.75
534.269	8709.75
535.039	8211.75
535.81	7787.75
536.58	7430.75
537.351	7012.75
538.121	6588.75
538.891	6236.75
539.661	5936.75
540.431	5646.75
541.201	5317.75
541.971	5059.75
542.741	4790.75
543.51	4497.75
544.28	4300.75
545.05	4098.75
545.819	3879.75
546.588	3682.75
547.358	3512.75
548.127	3320.75
548.896	3168.75
549.665	3018.75
550.434	2846.75
551.203	2721.75
551.972	2578.75
552.741	2443.75
553.51	2307.75
554.278	2169.75
555.047	2041.75
555.815	1954.75
556.584	1854.75
557.352	1763.75
558.121	1631.75
558.889	1540.75
559.657	1451.75
560.425	1374.75
561.193	1313.75
561.961	1246.75
562.729	1165.75
563.496	1105.75
564.264	1052.75
565.032	991.75
565.799	946.75
566.567	895.75
567.334	839.75
568.101	796.75
568.869	754.75
569.636	699.75
570.403	672.75
571.17	631.75
571.937	590.75
572.704	562.75
573.471	536.75
574.237	494.75
575.004	472.75
575.771	440.75
576.537	421.75
577.303	398.75
578.07	366.75
578.836	347.75
579.602	331.75
580.368	312.75
581.134	301.75
581.9	289.75
582.666	267.75
583.432	255.75
584.198	248.75
584.964	230.75
585.729	217.75
586.495	205.75
587.26	197.75
588.025	188.75
588.791	174.75
589.556	166.75
590.321	160.75
591.086	152.75
591.851	146.75
592.616	138.75
593.381	124.75
594.146	128.75
594.911	122.75
595.675	114.75
596.44	107.75
597.204	102.75
597.969	98.75
598.733	91.75
599.497	90.75
600.261	88.75
601.025	83.75
601.79	80.75
602.553	74.75
603.317	72.75
604.081	68.75
604.845	66.75
605.609	64.75
606.372	61.75
607.136	61.75
607.899	57.75
608.662	54.75
609.426	50.75
610.189	49.75
610.952	48.75
611.715	48.75
612.478	46.75
613.241	43.75
614.004	40.75
614.767	37.75
615.529	37.75
616.292	38.75
617.055	35.75
617.817	37.75
618.579	30.75
619.342	33.75
620.104	31.75
620.866	33.75
621.628	32.75
622.39	30.75
623.152	24.75
623.914	26.75
624.676	25.75
625.438	27.75
626.199	26.75
626.961	22.75
627.722	24.75
628.484	22.75
629.245	22.75
630.006	21.75
630.768	20.75
631.529	20.75
632.29	19.75
633.051	22.75
633.812	20.75
634.573	22.75
635.333	18.75
636.094	16.75
636.855	16.75
637.615	16.75
638.376	17.75
639.136	15.75
639.896	13.75
640.657	14.75
641.417	14.75
642.177	13.75
642.937	13.75
643.697	15.75
644.457	11.75
645.216	14.75
645.976	10.75
646.736	9.75
647.495	13.75
648.255	12.75
649.014	10.75
649.774	9.75
650.533	10.75
651.292	8.75
652.051	8.75
652.81	9.75
653.569	9.75
654.328	11.75
655.087	8.75
655.846	9.75
656.604	11.75
657.363	8.75
658.121	10.75
658.88	8.75
659.638	9.75
660.397	4.75
661.155	7.75
661.913	8.75
662.671	9.75
663.429	7.75
664.187	8.75
664.945	6.75
665.703	5.75
666.46	9.75
667.218	7.75
667.976	7.75
668.733	7.75
669.49	7.75
670.248	7.75
671.005	4.75
671.762	9.75
672.519	6.75
673.276	4.75
674.033	6.75
674.79	5.75
675.547	4.75
676.304	5.75
677.06	6.75
677.817	4.75
678.574	4.75
679.33	4.75
680.086	5.75
680.843	7.75
681.599	4.75
682.355	4.75
683.111	6.75
683.867	6.75
684.623	4.75
685.379	4.75
686.135	3.75
686.89	5.75
687.646	6.75
688.402	3.75
689.157	6.75
689.912	6.75
690.668	8.75
691.423	6.75
692.178	4.75
692.933	6.75
693.688	5.75
694.443	4.75
695.198	5.75
695.953	7.75
696.708	3.75
697.462	6.75
698.217	4.75
698.972	6.75
699.726	3.75
700.48	5.75
701.235	6.75
701.989	3.75
702.743	4.75
703.497	4.75
704.251	5.75
705.005	6.75
705.759	4.75
706.513	4.75
707.266	7.75
708.02	5.75
708.774	3.75
709.527	4.75
710.28	4.75
711.034	4.75
711.787	4.75
712.54	4.75
713.293	6.75
714.046	5.75
714.799	3.75
715.552	5.75
716.305	4.75
717.058	4.75
717.81	4.75
718.563	3.75
719.315	6.75
720.068	6.75
720.82	5.75
721.573	6.75
722.325	3.75
723.077	3.75
723.829	5.75
724.581	6.75
725.333	6.75
726.085	7.75
726.836	5.75
727.588	6.75
728.34	6.75
729.091	5.75
729.843	6.75
730.594	4.75
731.346	9.75
732.097	6.75
732.848	5.75
733.599	6.75
734.35	4.75
735.101	6.75
735.852	8.75
736.603	7.75
737.354	5.75
738.104	5.75
738.855	8.75
739.605	8.75
740.356	5.75
741.106	3.75
741.856	8.75
742.607	4.75
743.357	6.75
744.107	6.75
744.857	7.75
745.607	7.75
746.357	8.75
747.106	8.75
747.856	6.75
748.606	6.75
749.355	6.75
750.105	5.75
750.854	8.75
751.603	5.75
752.353	7.75
753.102	9.75
753.851	10.75
754.6	8.75
755.349	9.75
756.098	8.75
756.847	8.75
757.595	9.75
758.344	6.75
759.093	6.75
759.841	8.75
760.589	7.75
761.338	9.75
762.086	10.75
762.834	10.75
763.582	6.75
764.331	8.75
765.079	7.75
765.826	8.75
766.574	7.75
767.322	9.75
768.07	12.75
768.817	6.75
769.565	11.75
770.312	9.75
771.06	10.75
771.807	13.75
772.554	8.75
773.302	9.75
774.049	11.75
774.796	12.75
775.543	7.75
776.29	12.75
777.036	10.75
777.783	11.75
778.53	12.75
779.276	10.75
780.023	12.75
780.769	9.75
781.516	12.75
782.262	11.75
783.008	9.75
783.754	12.75
784.5	12.75
785.246	9.75
785.992	12.75
786.738	14.75
787.484	10.75
788.23	11.75
788.975	12.75
789.721	12.75
790.466	13.75
791.212	11.75
791.957	11.75
792.702	12.75
793.447	9.75
794.193	10.75
794.938	8.75
795.683	11.75
796.427	8.75
797.172	8.75
797.917	9.75
798.662	8.75
799.406	8.75
800.151	8.75
800.895	7.75
801.64	8.75
802.384	9.75
803.128	9.75
803.872	8.75
804.616	9.75
805.36	9.75
806.104	6.75
806.848	7.75
807.592	12.75
808.336	7.75
809.079	6.75
809.823	7.75
810.566	7.75
811.31	8.75
812.053	5.75
812.796	5.75
813.539	6.75
814.283	5.75
815.026	6.75
815.769	4.75
816.511	7.75
817.254	6.75
817.997	5.75
818.74	4.75
819.482	6.75
820.225	6.75
820.967	6.75
821.71	8.75
822.452	3.75
823.194	6.75
823.936	3.75
824.678	4.75
825.42	8.75
826.162	5.75
826.904	5.75
827.646	4.75
828.388	3.75
829.129	4.75
829.871	6.75
830.612	5.75
831.354	4.75
832.095	4.75
832.836	3.75
833.577	3.75
834.319	3.75
835.06	2.75
835.801	6.75
836.542	5.75
837.282	4.75
838.023	4.75
838.764	4.75
839.504	1.75
840.245	5.75
840.985	3.75
841.726	6.75
842.466	4.75
843.206	2.75
843.946	3.75
844.687	1.75
845.427	2.75
846.166	4.75
846.906	3.75
847.646	4.75
848.386	4.75
849.125	4.75
849.865	3.75
850.605	3.75
851.344	2.75
852.083	5.75
852.823	1.75
853.562	1.75
854.301	4.75
855.04	4.75
855.779	4.75
856.518	2.75
857.257	1.75
857.995	3.75
858.734	2.75
859.473	4.75
860.211	3.75
860.95	1.75
861.688	3.75
862.426	3.75
863.165	3.75
863.903	2.75
864.641	3.75
865.379	2.75
866.117	3.75
866.855	3.75
867.593	4.75
868.33	0.75
869.068	0.75
869.806	-0.25
870.543	0.75
871.28	2.75
872.018	1.75
872.755	1.75
873.492	1.75
874.229	2.75
874.967	0.75
875.703	2.75
876.44	2.75
877.177	0.75
877.914	1.75
878.651	0.75
879.387	0.75
880.124	-0.25
880.86	2.75
881.597	2.75
882.333	-0.25
883.069	3.75
883.806	1.75
884.542	1.75
885.278	1.75
886.014	0.75
886.749	2.75
887.485	0.75
888.221	-0.25
888.957	1.75
889.692	-1.25
890.428	1.75
891.163	1.75
891.899	1.75
892.634	0.75
893.369	1.75
894.104	0.75
894.839	3.75
895.574	-1.25
896.309	2.75
897.044	0.75
897.779	-0.25
898.514	1.75
899.248	-0.25
899.983	3.75
900.717	0.75
901.452	-2.25
902.186	-0.25
902.92	0.75
903.654	0.75
904.389	0.75
905.123	0.75
905.857	2.75
906.59	-0.25
907.324	2.75
908.058	1.75
908.792	-0.25
909.525	0.75
910.259	-0.25
910.992	0.75
911.726	1.75
912.459	1.75
913.192	1.75
913.925	-2.25
914.658	0.75
915.391	0.75
916.124	-0.25
916.857	2.75
917.59	1.75
918.323	-0.25
919.055	2.75
919.788	0.75
920.521	0.75
921.253	1.75
921.985	-1.25
922.718	1.75
923.45	-0.25
924.182	1.75
924.914	2.75
925.646	0.75
926.378	0.75
927.11	2.75
927.841	-0.25
928.573	-2.25
929.305	1.75
930.036	3.75
930.768	-0.25
931.499	0.75
932.23	-0.25
932.962	2.75
933.693	-0.25
934.424	0.75
935.155	0.75
935.886	-1.25
936.617	-1.25
937.348	0.75
938.078	-1.25
938.809	1.75
939.54	0.75
940.27	1.75
941.001	0.75
941.731	-1.25
942.461	4.75
943.191	-1.25
943.922	1.75
944.652	-0.25
945.382	-0.25
946.112	0.75
946.841	-2.25
947.571	1.75
948.301	-2.25
949.031	0.75
949.76	-0.25
950.49	0.75
951.219	-1.25
951.948	-0.25
952.678	-0.25
953.407	-0.25
954.136	2.75
954.865	0.75
955.594	0.75
956.323	0.75
957.052	-1.25
957.78	2.75
958.509	1.75
959.238	-2.25
959.966	-1.25
960.695	-1.25
961.423	-2.25
962.151	-2.25
962.88	0.75
963.608	-1.25
964.336	2.75
965.064	2.75
965.792	-1.25
966.52	0.75
967.247	0.75
967.975	1.75
968.703	-2.25
969.43	0.75
970.158	1.75
970.885	0.75
971.613	0.75
972.34	-2.25
973.067	1.75
973.794	-0.25
974.521	0.75
975.248	-1.25
975.975	-0.25
976.702	-0.25
977.429	-0.25
978.156	-1.25
978.882	0.75
979.609	0.75
980.335	0.75
981.062	-1.25
981.788	0.75
982.514	0.75
983.24	1.75
983.967	-0.25
984.693	1.75
985.419	-1.25
986.144	2.75
986.87	0.75
987.596	-0.25
988.322	0.75
989.047	0.75
989.773	0.75
990.498	0.75
991.224	-2.25
991.949	-0.25
992.674	0.75
993.399	1.75
994.124	0.75
994.849	-0.25
995.574	0.75
996.299	0.75
997.024	0.75
997.749	1.75
998.473	-0.25
999.198	0.75
999.922	-0.25
1000.647	0.75
1001.371	1.75
1002.095	-2.25
1002.82	-0.25
1003.544	-0.25
1004.268	4.75
1004.992	1.75
1005.716	4.75
1006.439	2.75
1007.163	4.75
1007.887	2.75
1008.611	0.75
1009.334	-0.25
1010.058	-0.25
1010.781	-1.25
1011.504	-2.25
1012.228	0.75
1012.951	1.75
1013.674	-0.25
1014.397	-1.25
1015.12	0.75
