节点500_565_QEPB04081__97__09-52-02-994.txt的数据

Date: Thu Nov 13 09:52:02 CST 2025
User: PC
Spectrometer: QEPB0408
触发模式: 0
积分时间 (秒): 1.000000E-2
Scans to average: 1
启用暗噪声校正: true
启用非线性校正: false
滑动平均宽度: 0
X轴模式: Wavelengths
Number of Pixels in Spectrum: 1044
>>>>>Begin Spectral Data<<<<<
220.843	4.62
221.644	2.62
222.444	1.62
223.244	4.62
224.045	8.62
224.845	6.62
225.645	4.62
226.445	4.62
227.245	4.62
228.045	8.62
228.845	6.62
229.645	7.62
230.444	7.62
231.244	7.62
232.043	9.62
232.843	4.62
233.642	8.62
234.442	9.62
235.241	9.62
236.04	9.62
236.839	7.62
237.638	7.62
238.437	6.62
239.236	10.62
240.035	9.62
240.833	9.62
241.632	10.62
242.43	10.62
243.229	10.62
244.027	12.62
244.826	13.62
245.624	9.62
246.422	14.62
247.22	13.62
248.018	10.62
248.816	12.62
249.614	12.62
250.412	11.62
251.21	14.62
252.007	17.62
252.805	15.62
253.602	12.62
254.4	16.62
255.197	17.62
255.994	18.62
256.791	16.62
257.589	15.62
258.386	18.62
259.183	18.62
259.979	19.62
260.776	20.62
261.573	20.62
262.37	21.62
263.166	22.62
263.963	22.62
264.759	22.62
265.556	21.62
266.352	23.62
267.148	23.62
267.944	24.62
268.74	26.62
269.536	25.62
270.332	28.62
271.128	27.62
271.924	28.62
272.719	26.62
273.515	27.62
274.311	28.62
275.106	30.62
275.901	31.62
276.697	29.62
277.492	28.62
278.287	30.62
279.082	29.62
279.877	28.62
280.672	29.62
281.467	29.62
282.262	31.62
283.056	31.62
283.851	33.62
284.646	29.62
285.44	34.62
286.234	30.62
287.029	32.62
287.823	31.62
288.617	26.62
289.411	32.62
290.205	28.62
290.999	29.62
291.793	28.62
292.587	25.62
293.381	29.62
294.174	23.62
294.968	24.62
295.761	24.62
296.555	26.62
297.348	24.62
298.141	21.62
298.935	26.62
299.728	22.62
300.521	19.62
301.314	22.62
302.107	20.62
302.899	18.62
303.692	19.62
304.485	21.62
305.277	19.62
306.07	21.62
306.862	20.62
307.655	21.62
308.447	19.62
309.239	17.62
310.031	17.62
310.823	15.62
311.615	14.62
312.407	16.62
313.199	14.62
313.991	14.62
314.783	15.62
315.574	16.62
316.366	12.62
317.157	14.62
317.949	13.62
318.74	12.62
319.531	13.62
320.322	12.62
321.113	13.62
321.904	13.62
322.695	12.62
323.486	11.62
324.277	12.62
325.068	11.62
325.858	12.62
326.649	13.62
327.439	10.62
328.23	12.62
329.02	13.62
329.81	12.62
330.6	9.62
331.391	9.62
332.181	11.62
332.971	10.62
333.76	12.62
334.55	9.62
335.34	10.62
336.13	12.62
336.919	11.62
337.709	11.62
338.498	8.62
339.287	9.62
340.077	10.62
340.866	9.62
341.655	12.62
342.444	10.62
343.233	9.62
344.022	10.62
344.811	12.62
345.6	9.62
346.388	11.62
347.177	10.62
347.965	10.62
348.754	10.62
349.542	10.62
350.33	9.62
351.119	9.62
351.907	10.62
352.695	8.62
353.483	10.62
354.271	10.62
355.059	9.62
355.846	10.62
356.634	10.62
357.422	9.62
358.209	8.62
358.997	9.62
359.784	10.62
360.571	9.62
361.359	10.62
362.146	10.62
362.933	10.62
363.72	7.62
364.507	8.62
365.294	8.62
366.081	8.62
366.867	8.62
367.654	9.62
368.44	8.62
369.227	10.62
370.013	8.62
370.8	7.62
371.586	6.62
372.372	8.62
373.158	8.62
373.944	10.62
374.73	7.62
375.516	7.62
376.302	10.62
377.088	8.62
377.873	8.62
378.659	7.62
379.445	8.62
380.23	8.62
381.015	8.62
381.801	7.62
382.586	8.62
383.371	8.62
384.156	9.62
384.941	10.62
385.726	9.62
386.511	10.62
387.296	11.62
388.08	9.62
388.865	8.62
389.649	8.62
390.434	11.62
391.218	11.62
392.003	9.62
392.787	11.62
393.571	8.62
394.355	10.62
395.139	12.62
395.923	12.62
396.707	12.62
397.491	12.62
398.274	12.62
399.058	13.62
399.842	10.62
400.625	12.62
401.408	12.62
402.192	12.62
402.975	10.62
403.758	13.62
404.541	13.62
405.324	12.62
406.107	12.62
406.89	13.62
407.673	14.62
408.456	14.62
409.238	13.62
410.021	13.62
410.803	15.62
411.586	12.62
412.368	18.62
413.151	17.62
413.933	17.62
414.715	19.62
415.497	14.62
416.279	16.62
417.061	16.62
417.843	17.62
418.624	17.62
419.406	18.62
420.188	17.62
420.969	16.62
421.751	20.62
422.532	19.62
423.313	21.62
424.095	21.62
424.876	19.62
425.657	19.62
426.438	21.62
427.219	23.62
428	23.62
428.78	24.62
429.561	24.62
430.342	27.62
431.122	24.62
431.903	26.62
432.683	27.62
433.464	27.62
434.244	31.62
435.024	30.62
435.804	33.62
436.584	36.62
437.364	36.62
438.144	36.62
438.924	39.62
439.704	42.62
440.483	41.62
441.263	47.62
442.042	51.62
442.822	54.62
443.601	60.62
444.38	60.62
445.16	63.62
445.939	68.62
446.718	76.62
447.497	82.62
448.276	88.62
449.054	96.62
449.833	99.62
450.612	111.62
451.391	124.62
452.169	144.62
452.948	150.62
453.726	165.62
454.504	180.62
455.282	210.62
456.061	224.62
456.839	254.62
457.617	282.62
458.395	311.62
459.172	345.62
459.95	398.62
460.728	438.62
461.506	483.62
462.283	549.62
463.061	612.62
463.838	691.62
464.615	760.62
465.393	853.62
466.17	954.62
466.947	1058.62
467.724	1199.62
468.501	1333.62
469.278	1479.62
470.055	1645.62
470.831	1830.62
471.608	2031.62
472.385	2285.62
473.161	2504.62
473.938	2777.62
474.714	3067.62
475.49	3394.62
476.266	3749.62
477.043	4121.62
477.819	4558.62
478.595	5023.62
479.371	5523.62
480.146	6049.62
480.922	6674.62
481.698	7324.62
482.473	7958.62
483.249	8793.62
484.024	9598.62
484.8	10519.62
485.575	11476.62
486.35	12516.62
487.126	13644.62
487.901	14852.62
488.676	16217.62
489.451	17574.62
490.225	18988.62
491	20550.62
491.775	22123.62
492.55	23820.62
493.324	25509.62
494.099	27169.62
494.873	28895.62
495.647	30818.62
496.422	32651.62
497.196	34346.62
497.97	35989.62
498.744	37490.62
499.518	38835.62
500.292	40106.62
501.066	41358.62
501.839	42284.62
502.613	43050.62
503.387	43579.62
504.16	43909.62
504.934	43893.62
505.707	43680.62
506.48	43272.62
507.253	42716.62
508.027	41774.62
508.8	40762.62
509.573	39563.62
510.346	38318.62
511.118	37039.62
511.891	35825.62
512.664	34504.62
513.437	33040.62
514.209	31655.62
514.982	30370.62
515.754	29117.62
516.526	27832.62
517.298	26581.62
518.071	25494.62
518.843	24545.62
519.615	23476.62
520.387	22527.62
521.159	21663.62
521.93	20791.62
522.702	19952.62
523.474	19093.62
524.245	18292.62
525.017	17551.62
525.788	16729.62
526.56	15906.62
527.331	15192.62
528.102	14477.62
528.873	13690.62
529.644	13006.62
530.415	12340.62
531.186	11733.62
531.957	11069.62
532.728	10533.62
533.498	9922.62
534.269	9372.62
535.039	8881.62
535.81	8381.62
536.58	7960.62
537.351	7503.62
538.121	7069.62
538.891	6728.62
539.661	6350.62
540.431	5995.62
541.201	5707.62
541.971	5382.62
542.741	5096.62
543.51	4794.62
544.28	4594.62
545.05	4386.62
545.819	4171.62
546.588	3960.62
547.358	3772.62
548.127	3563.62
548.896	3398.62
549.665	3224.62
550.434	3051.62
551.203	2901.62
551.972	2722.62
552.741	2572.62
553.51	2441.62
554.278	2309.62
555.047	2168.62
555.815	2054.62
556.584	1934.62
557.352	1825.62
558.121	1722.62
558.889	1622.62
559.657	1528.62
560.425	1448.62
561.193	1358.62
561.961	1313.62
562.729	1233.62
563.496	1163.62
564.264	1102.62
565.032	1048.62
565.799	982.62
566.567	924.62
567.334	882.62
568.101	829.62
568.869	789.62
569.636	738.62
570.403	698.62
571.17	659.62
571.937	624.62
572.704	585.62
573.471	556.62
574.237	521.62
575.004	499.62
575.771	469.62
576.537	443.62
577.303	410.62
578.07	385.62
578.836	366.62
579.602	346.62
580.368	330.62
581.134	312.62
581.9	296.62
582.666	282.62
583.432	266.62
584.198	252.62
584.964	246.62
585.729	232.62
586.495	216.62
587.26	208.62
588.025	194.62
588.791	183.62
589.556	176.62
590.321	168.62
591.086	158.62
591.851	155.62
592.616	149.62
593.381	140.62
594.146	127.62
594.911	124.62
595.675	120.62
596.44	116.62
597.204	112.62
597.969	105.62
598.733	101.62
599.497	98.62
600.261	93.62
601.025	86.62
601.79	77.62
602.553	79.62
603.317	76.62
604.081	74.62
604.845	72.62
605.609	69.62
606.372	60.62
607.136	63.62
607.899	62.62
608.662	60.62
609.426	57.62
610.189	54.62
610.952	53.62
611.715	50.62
612.478	52.62
613.241	47.62
614.004	48.62
614.767	44.62
615.529	41.62
616.292	43.62
617.055	38.62
617.817	38.62
618.579	36.62
619.342	36.62
620.104	34.62
620.866	33.62
621.628	31.62
622.39	30.62
623.152	29.62
623.914	30.62
624.676	25.62
625.438	27.62
626.199	24.62
626.961	25.62
627.722	28.62
628.484	23.62
629.245	23.62
630.006	26.62
630.768	22.62
631.529	22.62
632.29	22.62
633.051	18.62
633.812	18.62
634.573	19.62
635.333	16.62
636.094	20.62
636.855	19.62
637.615	20.62
638.376	21.62
639.136	16.62
639.896	17.62
640.657	18.62
641.417	16.62
642.177	17.62
642.937	13.62
643.697	16.62
644.457	16.62
645.216	16.62
645.976	10.62
646.736	13.62
647.495	14.62
648.255	15.62
649.014	12.62
649.774	12.62
650.533	12.62
651.292	11.62
652.051	11.62
652.81	15.62
653.569	9.62
654.328	8.62
655.087	11.62
655.846	10.62
656.604	11.62
657.363	9.62
658.121	11.62
658.88	9.62
659.638	10.62
660.397	12.62
661.155	10.62
661.913	9.62
662.671	11.62
663.429	8.62
664.187	8.62
664.945	8.62
665.703	8.62
666.46	8.62
667.218	9.62
667.976	8.62
668.733	6.62
669.49	7.62
670.248	9.62
671.005	7.62
671.762	7.62
672.519	6.62
673.276	8.62
674.033	8.62
674.79	9.62
675.547	8.62
676.304	6.62
677.06	8.62
677.817	8.62
678.574	7.62
679.33	7.62
680.086	9.62
680.843	7.62
681.599	5.62
682.355	5.62
683.111	7.62
683.867	7.62
684.623	7.62
685.379	8.62
686.135	8.62
686.89	5.62
687.646	6.62
688.402	5.62
689.157	4.62
689.912	6.62
690.668	8.62
691.423	4.62
692.178	7.62
692.933	8.62
693.688	5.62
694.443	8.62
695.198	7.62
695.953	7.62
696.708	8.62
697.462	8.62
698.217	8.62
698.972	6.62
699.726	8.62
700.48	5.62
701.235	8.62
701.989	6.62
702.743	6.62
703.497	6.62
704.251	7.62
705.005	6.62
705.759	6.62
706.513	9.62
707.266	4.62
708.02	6.62
708.774	6.62
709.527	6.62
710.28	3.62
711.034	6.62
711.787	9.62
712.54	4.62
713.293	4.62
714.046	5.62
714.799	6.62
715.552	7.62
716.305	5.62
717.058	6.62
717.81	7.62
718.563	6.62
719.315	5.62
720.068	9.62
720.82	8.62
721.573	7.62
722.325	9.62
723.077	7.62
723.829	7.62
724.581	6.62
725.333	6.62
726.085	9.62
726.836	6.62
727.588	7.62
728.34	8.62
729.091	5.62
729.843	9.62
730.594	6.62
731.346	9.62
732.097	9.62
732.848	8.62
733.599	7.62
734.35	6.62
735.101	8.62
735.852	7.62
736.603	7.62
737.354	5.62
738.104	6.62
738.855	6.62
739.605	9.62
740.356	8.62
741.106	7.62
741.856	11.62
742.607	8.62
743.357	8.62
744.107	6.62
744.857	9.62
745.607	10.62
746.357	9.62
747.106	11.62
747.856	7.62
748.606	8.62
749.355	9.62
750.105	10.62
750.854	9.62
751.603	9.62
752.353	9.62
753.102	11.62
753.851	9.62
754.6	12.62
755.349	10.62
756.098	9.62
756.847	11.62
757.595	12.62
758.344	9.62
759.093	12.62
759.841	12.62
760.589	11.62
761.338	11.62
762.086	12.62
762.834	10.62
763.582	12.62
764.331	12.62
765.079	11.62
765.826	12.62
766.574	13.62
767.322	13.62
768.07	12.62
768.817	15.62
769.565	13.62
770.312	11.62
771.06	14.62
771.807	12.62
772.554	13.62
773.302	12.62
774.049	15.62
774.796	13.62
775.543	12.62
776.29	15.62
777.036	14.62
777.783	12.62
778.53	16.62
779.276	14.62
780.023	16.62
780.769	14.62
781.516	13.62
782.262	13.62
783.008	16.62
783.754	15.62
784.5	14.62
785.246	15.62
785.992	15.62
786.738	16.62
787.484	11.62
788.23	14.62
788.975	14.62
789.721	12.62
790.466	13.62
791.212	13.62
791.957	15.62
792.702	13.62
793.447	15.62
794.193	12.62
794.938	13.62
795.683	12.62
796.427	9.62
797.172	11.62
797.917	11.62
798.662	15.62
799.406	12.62
800.151	10.62
800.895	11.62
801.64	10.62
802.384	10.62
803.128	10.62
803.872	12.62
804.616	10.62
805.36	9.62
806.104	8.62
806.848	10.62
807.592	10.62
808.336	9.62
809.079	10.62
809.823	7.62
810.566	8.62
811.31	9.62
812.053	8.62
812.796	11.62
813.539	7.62
814.283	5.62
815.026	8.62
815.769	6.62
816.511	9.62
817.254	7.62
817.997	6.62
818.74	7.62
819.482	8.62
820.225	6.62
820.967	8.62
821.71	8.62
822.452	4.62
823.194	6.62
823.936	6.62
824.678	6.62
825.42	5.62
826.162	6.62
826.904	6.62
827.646	5.62
828.388	6.62
829.129	6.62
829.871	7.62
830.612	6.62
831.354	5.62
832.095	6.62
832.836	6.62
833.577	5.62
834.319	4.62
835.06	6.62
835.801	6.62
836.542	7.62
837.282	5.62
838.023	6.62
838.764	3.62
839.504	6.62
840.245	7.62
840.985	5.62
841.726	5.62
842.466	6.62
843.206	6.62
843.946	4.62
844.687	6.62
845.427	6.62
846.166	3.62
846.906	4.62
847.646	7.62
848.386	3.62
849.125	5.62
849.865	4.62
850.605	4.62
851.344	5.62
852.083	4.62
852.823	5.62
853.562	6.62
854.301	4.62
855.04	4.62
855.779	1.62
856.518	5.62
857.257	3.62
857.995	3.62
858.734	3.62
859.473	2.62
860.211	2.62
860.95	4.62
861.688	4.62
862.426	3.62
863.165	2.62
863.903	1.62
864.641	3.62
865.379	0.62
866.117	5.62
866.855	1.62
867.593	1.62
868.33	1.62
869.068	1.62
869.806	2.62
870.543	0.62
871.28	4.62
872.018	2.62
872.755	0.62
873.492	2.62
874.229	-0.38
874.967	1.62
875.703	1.62
876.44	3.62
877.177	2.62
877.914	-0.38
878.651	1.62
879.387	2.62
880.124	2.62
880.86	-0.38
881.597	1.62
882.333	1.62
883.069	2.62
883.806	-0.38
884.542	1.62
885.278	-1.38
886.014	0.62
886.749	2.62
887.485	1.62
888.221	2.62
888.957	0.62
889.692	1.62
890.428	-0.38
891.163	-0.38
891.899	1.62
892.634	3.62
893.369	1.62
894.104	1.62
894.839	0.62
895.574	0.62
896.309	0.62
897.044	2.62
897.779	2.62
898.514	0.62
899.248	0.62
899.983	2.62
900.717	0.62
901.452	-0.38
902.186	0.62
902.92	-0.38
903.654	1.62
904.389	0.62
905.123	-0.38
905.857	0.62
906.59	0.62
907.324	1.62
908.058	0.62
908.792	1.62
909.525	0.62
910.259	1.62
910.992	1.62
911.726	0.62
912.459	2.62
913.192	-0.38
913.925	2.62
914.658	-0.38
915.391	-0.38
916.124	2.62
916.857	0.62
917.59	2.62
918.323	1.62
919.055	1.62
919.788	1.62
920.521	1.62
921.253	0.62
921.985	-0.38
922.718	-1.38
923.45	0.62
924.182	1.62
924.914	0.62
925.646	-1.38
926.378	1.62
927.11	-1.38
927.841	2.62
928.573	2.62
929.305	0.62
930.036	0.62
930.768	0.62
931.499	3.62
932.23	-0.38
932.962	0.62
933.693	1.62
934.424	1.62
935.155	1.62
935.886	-0.38
936.617	0.62
937.348	0.62
938.078	0.62
938.809	-0.38
939.54	-0.38
940.27	-2.38
941.001	2.62
941.731	0.62
942.461	-0.38
943.191	2.62
943.922	-0.38
944.652	-0.38
945.382	-1.38
946.112	2.62
946.841	2.62
947.571	1.62
948.301	1.62
949.031	-0.38
949.76	1.62
950.49	2.62
951.219	1.62
951.948	1.62
952.678	-0.38
953.407	-0.38
954.136	-1.38
954.865	1.62
955.594	1.62
956.323	0.62
957.052	1.62
957.78	0.62
958.509	1.62
959.238	-2.38
959.966	2.62
960.695	0.62
961.423	0.62
962.151	-0.38
962.88	1.62
963.608	2.62
964.336	0.62
965.064	2.62
965.792	0.62
966.52	1.62
967.247	-0.38
967.975	0.62
968.703	0.62
969.43	0.62
970.158	-0.38
970.885	-2.38
971.613	0.62
972.34	0.62
973.067	1.62
973.794	1.62
974.521	0.62
975.248	-1.38
975.975	-0.38
976.702	0.62
977.429	-1.38
978.156	-0.38
978.882	1.62
979.609	0.62
980.335	1.62
981.062	0.62
981.788	1.62
982.514	-0.38
983.24	-0.38
983.967	1.62
984.693	0.62
985.419	1.62
986.144	-1.38
986.87	0.62
987.596	1.62
988.322	0.62
989.047	-1.38
989.773	-1.38
990.498	2.62
991.224	0.62
991.949	1.62
992.674	2.62
993.399	-1.38
994.124	1.62
994.849	-0.38
995.574	0.62
996.299	-0.38
997.024	0.62
997.749	-0.38
998.473	0.62
999.198	-0.38
999.922	-0.38
1000.647	-0.38
1001.371	0.62
1002.095	0.62
1002.82	-1.38
1003.544	-0.38
1004.268	3.62
1004.992	3.62
1005.716	4.62
1006.439	6.62
1007.163	3.62
1007.887	6.62
1008.611	1.62
1009.334	3.62
1010.058	1.62
1010.781	1.62
1011.504	1.62
1012.228	1.62
1012.951	0.62
1013.674	0.62
1014.397	-2.38
1015.12	1.62
