节点500_565_QEPB04081__442__09-57-46-265.txt的数据

Date: Thu Nov 13 09:57:46 CST 2025
User: PC
Spectrometer: QEPB0408
触发模式: 0
积分时间 (秒): 1.000000E-2
Scans to average: 1
启用暗噪声校正: true
启用非线性校正: false
滑动平均宽度: 0
X轴模式: Wavelengths
Number of Pixels in Spectrum: 1044
>>>>>Begin Spectral Data<<<<<
220.843	5.12
221.644	4.12
222.444	7.12
223.244	6.12
224.045	5.12
224.845	6.12
225.645	4.12
226.445	7.12
227.245	7.12
228.045	7.12
228.845	6.12
229.645	5.12
230.444	7.12
231.244	7.12
232.043	7.12
232.843	5.12
233.642	9.12
234.442	6.12
235.241	6.12
236.04	8.12
236.839	7.12
237.638	10.12
238.437	8.12
239.236	8.12
240.035	7.12
240.833	9.12
241.632	8.12
242.43	7.12
243.229	9.12
244.027	8.12
244.826	9.12
245.624	9.12
246.422	9.12
247.22	9.12
248.018	12.12
248.816	12.12
249.614	13.12
250.412	12.12
251.21	13.12
252.007	12.12
252.805	13.12
253.602	13.12
254.4	14.12
255.197	14.12
255.994	14.12
256.791	15.12
257.589	14.12
258.386	14.12
259.183	16.12
259.979	17.12
260.776	17.12
261.573	19.12
262.37	16.12
263.166	17.12
263.963	21.12
264.759	18.12
265.556	21.12
266.352	18.12
267.148	20.12
267.944	20.12
268.74	19.12
269.536	23.12
270.332	24.12
271.128	25.12
271.924	24.12
272.719	27.12
273.515	24.12
274.311	25.12
275.106	25.12
275.901	24.12
276.697	30.12
277.492	28.12
278.287	25.12
279.082	24.12
279.877	28.12
280.672	31.12
281.467	27.12
282.262	29.12
283.056	26.12
283.851	29.12
284.646	26.12
285.44	30.12
286.234	29.12
287.029	27.12
287.823	29.12
288.617	26.12
289.411	30.12
290.205	28.12
290.999	25.12
291.793	29.12
292.587	24.12
293.381	26.12
294.174	26.12
294.968	27.12
295.761	22.12
296.555	24.12
297.348	22.12
298.141	26.12
298.935	24.12
299.728	22.12
300.521	21.12
301.314	21.12
302.107	20.12
302.899	22.12
303.692	18.12
304.485	18.12
305.277	18.12
306.07	20.12
306.862	19.12
307.655	20.12
308.447	16.12
309.239	19.12
310.031	18.12
310.823	18.12
311.615	18.12
312.407	14.12
313.199	17.12
313.991	14.12
314.783	15.12
315.574	14.12
316.366	12.12
317.157	14.12
317.949	12.12
318.74	12.12
319.531	13.12
320.322	12.12
321.113	13.12
321.904	12.12
322.695	11.12
323.486	9.12
324.277	12.12
325.068	13.12
325.858	9.12
326.649	9.12
327.439	11.12
328.23	11.12
329.02	14.12
329.81	10.12
330.6	12.12
331.391	13.12
332.181	12.12
332.971	9.12
333.76	9.12
334.55	9.12
335.34	11.12
336.13	9.12
336.919	9.12
337.709	9.12
338.498	11.12
339.287	10.12
340.077	11.12
340.866	8.12
341.655	9.12
342.444	11.12
343.233	10.12
344.022	9.12
344.811	12.12
345.6	7.12
346.388	10.12
347.177	9.12
347.965	10.12
348.754	9.12
349.542	11.12
350.33	12.12
351.119	7.12
351.907	9.12
352.695	8.12
353.483	10.12
354.271	10.12
355.059	9.12
355.846	11.12
356.634	7.12
357.422	11.12
358.209	9.12
358.997	8.12
359.784	9.12
360.571	8.12
361.359	7.12
362.146	8.12
362.933	10.12
363.72	9.12
364.507	9.12
365.294	7.12
366.081	7.12
366.867	9.12
367.654	9.12
368.44	7.12
369.227	7.12
370.013	9.12
370.8	8.12
371.586	7.12
372.372	4.12
373.158	8.12
373.944	8.12
374.73	7.12
375.516	8.12
376.302	9.12
377.088	7.12
377.873	6.12
378.659	9.12
379.445	7.12
380.23	9.12
381.015	10.12
381.801	5.12
382.586	9.12
383.371	9.12
384.156	8.12
384.941	9.12
385.726	7.12
386.511	7.12
387.296	10.12
388.08	9.12
388.865	9.12
389.649	9.12
390.434	10.12
391.218	9.12
392.003	10.12
392.787	11.12
393.571	10.12
394.355	9.12
395.139	11.12
395.923	12.12
396.707	9.12
397.491	12.12
398.274	9.12
399.058	10.12
399.842	9.12
400.625	11.12
401.408	12.12
402.192	10.12
402.975	10.12
403.758	11.12
404.541	12.12
405.324	14.12
406.107	11.12
406.89	13.12
407.673	12.12
408.456	12.12
409.238	12.12
410.021	13.12
410.803	12.12
411.586	14.12
412.368	14.12
413.151	16.12
413.933	14.12
414.715	14.12
415.497	15.12
416.279	15.12
417.061	16.12
417.843	16.12
418.624	15.12
419.406	15.12
420.188	15.12
420.969	18.12
421.751	16.12
422.532	19.12
423.313	20.12
424.095	19.12
424.876	20.12
425.657	21.12
426.438	19.12
427.219	22.12
428	21.12
428.78	24.12
429.561	24.12
430.342	29.12
431.122	24.12
431.903	27.12
432.683	29.12
433.464	29.12
434.244	28.12
435.024	32.12
435.804	29.12
436.584	33.12
437.364	37.12
438.144	37.12
438.924	41.12
439.704	43.12
440.483	47.12
441.263	47.12
442.042	49.12
442.822	55.12
443.601	64.12
444.38	61.12
445.16	72.12
445.939	77.12
446.718	80.12
447.497	87.12
448.276	98.12
449.054	100.12
449.833	113.12
450.612	124.12
451.391	139.12
452.169	151.12
452.948	170.12
453.726	184.12
454.504	211.12
455.282	230.12
456.061	254.12
456.839	288.12
457.617	314.12
458.395	354.12
459.172	390.12
459.95	435.12
460.728	488.12
461.506	534.12
462.283	613.12
463.061	670.12
463.838	744.12
464.615	826.12
465.393	915.12
466.17	1017.12
466.947	1133.12
467.724	1258.12
468.501	1383.12
469.278	1544.12
470.055	1719.12
470.831	1866.12
471.608	2083.12
472.385	2290.12
473.161	2531.12
473.938	2749.12
474.714	3056.12
475.49	3331.12
476.266	3649.12
477.043	4001.12
477.819	4387.12
478.595	4791.12
479.371	5190.12
480.146	5672.12
480.922	6231.12
481.698	6753.12
482.473	7346.12
483.249	7938.12
484.024	8607.12
484.8	9387.12
485.575	10185.12
486.35	10980.12
487.126	11951.12
487.901	12891.12
488.676	13965.12
489.451	15091.12
490.225	16258.12
491	17461.12
491.775	18701.12
492.55	20109.12
493.324	21475.12
494.099	22946.12
494.873	24373.12
495.647	25952.12
496.422	27480.12
497.196	28888.12
497.97	30433.12
498.744	31795.12
499.518	33154.12
500.292	34470.12
501.066	35620.12
501.839	36716.12
502.613	37612.12
503.387	38379.12
504.16	39063.12
504.934	39427.12
505.707	39606.12
506.48	39603.12
507.253	39452.12
508.027	38998.12
508.8	38466.12
509.573	37832.12
510.346	36973.12
511.118	35990.12
511.891	35194.12
512.664	33999.12
513.437	32928.12
514.209	31699.12
514.982	30533.12
515.754	29402.12
516.526	28220.12
517.298	27061.12
518.071	26035.12
518.843	24934.12
519.615	23954.12
520.387	23004.12
521.159	22141.12
521.93	21278.12
522.702	20343.12
523.474	19507.12
524.245	18767.12
525.017	17978.12
525.788	17260.12
526.56	16513.12
527.331	15758.12
528.102	15095.12
528.873	14334.12
529.644	13638.12
530.415	12983.12
531.186	12305.12
531.957	11754.12
532.728	11158.12
533.498	10617.12
534.269	9997.12
535.039	9464.12
535.81	8973.12
536.58	8504.12
537.351	8098.12
538.121	7582.12
538.891	7193.12
539.661	6832.12
540.431	6467.12
541.201	6105.12
541.971	5792.12
542.741	5481.12
543.51	5231.12
544.28	4925.12
545.05	4723.12
545.819	4471.12
546.588	4255.12
547.358	4080.12
548.127	3837.12
548.896	3659.12
549.665	3478.12
550.434	3293.12
551.203	3132.12
551.972	2972.12
552.741	2827.12
553.51	2668.12
554.278	2526.12
555.047	2357.12
555.815	2251.12
556.584	2130.12
557.352	2016.12
558.121	1912.12
558.889	1786.12
559.657	1703.12
560.425	1602.12
561.193	1498.12
561.961	1436.12
562.729	1356.12
563.496	1282.12
564.264	1213.12
565.032	1146.12
565.799	1096.12
566.567	1024.12
567.334	957.12
568.101	917.12
568.869	869.12
569.636	814.12
570.403	776.12
571.17	725.12
571.937	699.12
572.704	650.12
573.471	606.12
574.237	567.12
575.004	551.12
575.771	517.12
576.537	490.12
577.303	454.12
578.07	441.12
578.836	413.12
579.602	387.12
580.368	359.12
581.134	340.12
581.9	336.12
582.666	310.12
583.432	299.12
584.198	285.12
584.964	267.12
585.729	259.12
586.495	242.12
587.26	229.12
588.025	217.12
588.791	205.12
589.556	195.12
590.321	186.12
591.086	176.12
591.851	169.12
592.616	162.12
593.381	153.12
594.146	139.12
594.911	143.12
595.675	135.12
596.44	124.12
597.204	122.12
597.969	112.12
598.733	112.12
599.497	103.12
600.261	101.12
601.025	99.12
601.79	90.12
602.553	87.12
603.317	84.12
604.081	80.12
604.845	76.12
605.609	73.12
606.372	71.12
607.136	67.12
607.899	67.12
608.662	59.12
609.426	63.12
610.189	59.12
610.952	54.12
611.715	52.12
612.478	52.12
613.241	54.12
614.004	50.12
614.767	46.12
615.529	45.12
616.292	45.12
617.055	43.12
617.817	41.12
618.579	39.12
619.342	37.12
620.104	36.12
620.866	34.12
621.628	34.12
622.39	33.12
623.152	35.12
623.914	34.12
624.676	28.12
625.438	28.12
626.199	29.12
626.961	29.12
627.722	28.12
628.484	26.12
629.245	25.12
630.006	22.12
630.768	23.12
631.529	23.12
632.29	23.12
633.051	21.12
633.812	23.12
634.573	20.12
635.333	18.12
636.094	22.12
636.855	17.12
637.615	17.12
638.376	18.12
639.136	15.12
639.896	17.12
640.657	16.12
641.417	17.12
642.177	16.12
642.937	18.12
643.697	18.12
644.457	17.12
645.216	14.12
645.976	14.12
646.736	16.12
647.495	11.12
648.255	16.12
649.014	13.12
649.774	11.12
650.533	12.12
651.292	12.12
652.051	12.12
652.81	10.12
653.569	11.12
654.328	11.12
655.087	9.12
655.846	12.12
656.604	10.12
657.363	11.12
658.121	7.12
658.88	10.12
659.638	9.12
660.397	11.12
661.155	10.12
661.913	10.12
662.671	11.12
663.429	8.12
664.187	8.12
664.945	7.12
665.703	7.12
666.46	10.12
667.218	9.12
667.976	9.12
668.733	7.12
669.49	10.12
670.248	8.12
671.005	8.12
671.762	8.12
672.519	10.12
673.276	9.12
674.033	8.12
674.79	9.12
675.547	7.12
676.304	7.12
677.06	9.12
677.817	5.12
678.574	9.12
679.33	6.12
680.086	8.12
680.843	3.12
681.599	7.12
682.355	7.12
683.111	10.12
683.867	4.12
684.623	7.12
685.379	6.12
686.135	7.12
686.89	5.12
687.646	7.12
688.402	6.12
689.157	9.12
689.912	7.12
690.668	7.12
691.423	8.12
692.178	6.12
692.933	5.12
693.688	5.12
694.443	7.12
695.198	6.12
695.953	7.12
696.708	7.12
697.462	8.12
698.217	6.12
698.972	6.12
699.726	5.12
700.48	7.12
701.235	5.12
701.989	6.12
702.743	7.12
703.497	6.12
704.251	7.12
705.005	8.12
705.759	5.12
706.513	7.12
707.266	7.12
708.02	7.12
708.774	7.12
709.527	7.12
710.28	6.12
711.034	9.12
711.787	4.12
712.54	7.12
713.293	6.12
714.046	4.12
714.799	4.12
715.552	5.12
716.305	6.12
717.058	10.12
717.81	4.12
718.563	7.12
719.315	6.12
720.068	5.12
720.82	7.12
721.573	7.12
722.325	7.12
723.077	7.12
723.829	5.12
724.581	5.12
725.333	7.12
726.085	7.12
726.836	8.12
727.588	8.12
728.34	7.12
729.091	9.12
729.843	9.12
730.594	6.12
731.346	9.12
732.097	7.12
732.848	7.12
733.599	9.12
734.35	7.12
735.101	9.12
735.852	8.12
736.603	8.12
737.354	7.12
738.104	7.12
738.855	7.12
739.605	9.12
740.356	7.12
741.106	8.12
741.856	9.12
742.607	5.12
743.357	9.12
744.107	7.12
744.857	7.12
745.607	8.12
746.357	9.12
747.106	6.12
747.856	10.12
748.606	10.12
749.355	10.12
750.105	10.12
750.854	10.12
751.603	9.12
752.353	8.12
753.102	7.12
753.851	8.12
754.6	8.12
755.349	10.12
756.098	8.12
756.847	7.12
757.595	8.12
758.344	10.12
759.093	11.12
759.841	9.12
760.589	11.12
761.338	9.12
762.086	11.12
762.834	8.12
763.582	10.12
764.331	11.12
765.079	7.12
765.826	13.12
766.574	11.12
767.322	12.12
768.07	14.12
768.817	12.12
769.565	11.12
770.312	11.12
771.06	9.12
771.807	13.12
772.554	11.12
773.302	12.12
774.049	11.12
774.796	9.12
775.543	11.12
776.29	12.12
777.036	9.12
777.783	13.12
778.53	11.12
779.276	12.12
780.023	12.12
780.769	11.12
781.516	13.12
782.262	14.12
783.008	13.12
783.754	12.12
784.5	13.12
785.246	11.12
785.992	14.12
786.738	11.12
787.484	10.12
788.23	13.12
788.975	12.12
789.721	13.12
790.466	12.12
791.212	12.12
791.957	13.12
792.702	12.12
793.447	12.12
794.193	10.12
794.938	10.12
795.683	13.12
796.427	13.12
797.172	9.12
797.917	9.12
798.662	12.12
799.406	10.12
800.151	11.12
800.895	11.12
801.64	11.12
802.384	10.12
803.128	9.12
803.872	9.12
804.616	11.12
805.36	11.12
806.104	9.12
806.848	10.12
807.592	9.12
808.336	9.12
809.079	8.12
809.823	7.12
810.566	9.12
811.31	9.12
812.053	8.12
812.796	10.12
813.539	8.12
814.283	9.12
815.026	9.12
815.769	7.12
816.511	5.12
817.254	9.12
817.997	8.12
818.74	10.12
819.482	8.12
820.225	5.12
820.967	7.12
821.71	5.12
822.452	8.12
823.194	5.12
823.936	5.12
824.678	6.12
825.42	6.12
826.162	7.12
826.904	7.12
827.646	5.12
828.388	5.12
829.129	5.12
829.871	5.12
830.612	5.12
831.354	5.12
832.095	1.12
832.836	5.12
833.577	6.12
834.319	5.12
835.06	6.12
835.801	6.12
836.542	7.12
837.282	4.12
838.023	6.12
838.764	3.12
839.504	6.12
840.245	5.12
840.985	6.12
841.726	4.12
842.466	5.12
843.206	4.12
843.946	5.12
844.687	3.12
845.427	2.12
846.166	4.12
846.906	5.12
847.646	5.12
848.386	5.12
849.125	5.12
849.865	4.12
850.605	6.12
851.344	7.12
852.083	6.12
852.823	4.12
853.562	4.12
854.301	3.12
855.04	6.12
855.779	2.12
856.518	3.12
857.257	2.12
857.995	3.12
858.734	3.12
859.473	3.12
860.211	4.12
860.95	2.12
861.688	1.12
862.426	6.12
863.165	3.12
863.903	3.12
864.641	2.12
865.379	4.12
866.117	2.12
866.855	2.12
867.593	1.12
868.33	3.12
869.068	2.12
869.806	4.12
870.543	1.12
871.28	3.12
872.018	3.12
872.755	4.12
873.492	4.12
874.229	3.12
874.967	0.12
875.703	4.12
876.44	3.12
877.177	3.12
877.914	1.12
878.651	1.12
879.387	3.12
880.124	2.12
880.86	0.12
881.597	4.12
882.333	1.12
883.069	1.12
883.806	1.12
884.542	1.12
885.278	-1.88
886.014	3.12
886.749	0.12
887.485	4.12
888.221	0.12
888.957	1.12
889.692	1.12
890.428	-1.88
891.163	0.12
891.899	1.12
892.634	1.12
893.369	2.12
894.104	3.12
894.839	2.12
895.574	1.12
896.309	3.12
897.044	1.12
897.779	-0.88
898.514	1.12
899.248	1.12
899.983	1.12
900.717	0.12
901.452	2.12
902.186	1.12
902.92	0.12
903.654	0.12
904.389	-0.88
905.123	2.12
905.857	3.12
906.59	1.12
907.324	1.12
908.058	2.12
908.792	2.12
909.525	2.12
910.259	1.12
910.992	1.12
911.726	3.12
912.459	1.12
913.192	1.12
913.925	0.12
914.658	1.12
915.391	2.12
916.124	0.12
916.857	1.12
917.59	-0.88
918.323	2.12
919.055	-1.88
919.788	1.12
920.521	2.12
921.253	2.12
921.985	1.12
922.718	1.12
923.45	1.12
924.182	-0.88
924.914	0.12
925.646	-0.88
926.378	1.12
927.11	0.12
927.841	0.12
928.573	2.12
929.305	0.12
930.036	3.12
930.768	1.12
931.499	2.12
932.23	1.12
932.962	-0.88
933.693	3.12
934.424	1.12
935.155	-0.88
935.886	-1.88
936.617	0.12
937.348	1.12
938.078	2.12
938.809	-0.88
939.54	-0.88
940.27	1.12
941.001	1.12
941.731	1.12
942.461	0.12
943.191	1.12
943.922	2.12
944.652	0.12
945.382	-0.88
946.112	2.12
946.841	-0.88
947.571	0.12
948.301	0.12
949.031	0.12
949.76	-0.88
950.49	2.12
951.219	0.12
951.948	2.12
952.678	1.12
953.407	1.12
954.136	1.12
954.865	-0.88
955.594	1.12
956.323	-0.88
957.052	0.12
957.78	1.12
958.509	0.12
959.238	1.12
959.966	1.12
960.695	-0.88
961.423	0.12
962.151	-0.88
962.88	1.12
963.608	0.12
964.336	1.12
965.064	1.12
965.792	2.12
966.52	1.12
967.247	1.12
967.975	1.12
968.703	1.12
969.43	-0.88
970.158	1.12
970.885	-1.88
971.613	0.12
972.34	1.12
973.067	-0.88
973.794	-1.88
974.521	1.12
975.248	-1.88
975.975	2.12
976.702	1.12
977.429	0.12
978.156	1.12
978.882	1.12
979.609	1.12
980.335	1.12
981.062	-0.88
981.788	0.12
982.514	1.12
983.24	0.12
983.967	0.12
984.693	-1.88
985.419	0.12
986.144	2.12
986.87	1.12
987.596	1.12
988.322	-0.88
989.047	1.12
989.773	1.12
990.498	2.12
991.224	-0.88
991.949	1.12
992.674	0.12
993.399	0.12
994.124	2.12
994.849	0.12
995.574	0.12
996.299	1.12
997.024	-1.88
997.749	-1.88
998.473	1.12
999.198	1.12
999.922	-0.88
1000.647	-0.88
1001.371	4.12
1002.095	-1.88
1002.82	1.12
1003.544	-1.88
1004.268	3.12
1004.992	3.12
1005.716	4.12
1006.439	3.12
1007.163	4.12
1007.887	5.12
1008.611	1.12
1009.334	2.12
1010.058	1.12
1010.781	1.12
1011.504	1.12
1012.228	1.12
1012.951	1.12
1013.674	-0.88
1014.397	-1.88
1015.12	0.12
