节点500_565_QEPB04081__71__09-51-37-035.txt的数据

Date: Thu Nov 13 09:51:37 CST 2025
User: PC
Spectrometer: QEPB0408
触发模式: 0
积分时间 (秒): 1.000000E-2
Scans to average: 1
启用暗噪声校正: true
启用非线性校正: false
滑动平均宽度: 0
X轴模式: Wavelengths
Number of Pixels in Spectrum: 1044
>>>>>Begin Spectral Data<<<<<
220.843	3.38
221.644	3.38
222.444	2.38
223.244	3.38
224.045	3.38
224.845	4.38
225.645	4.38
226.445	5.38
227.245	6.38
228.045	5.38
228.845	7.38
229.645	6.38
230.444	6.38
231.244	8.38
232.043	6.38
232.843	7.38
233.642	8.38
234.442	7.38
235.241	7.38
236.04	8.38
236.839	9.38
237.638	10.38
238.437	9.38
239.236	8.38
240.035	8.38
240.833	10.38
241.632	11.38
242.43	8.38
243.229	10.38
244.027	10.38
244.826	11.38
245.624	10.38
246.422	12.38
247.22	12.38
248.018	12.38
248.816	14.38
249.614	10.38
250.412	14.38
251.21	15.38
252.007	14.38
252.805	14.38
253.602	13.38
254.4	15.38
255.197	14.38
255.994	17.38
256.791	16.38
257.589	18.38
258.386	19.38
259.183	18.38
259.979	19.38
260.776	21.38
261.573	18.38
262.37	24.38
263.166	22.38
263.963	20.38
264.759	22.38
265.556	25.38
266.352	25.38
267.148	28.38
267.944	24.38
268.74	25.38
269.536	23.38
270.332	28.38
271.128	29.38
271.924	33.38
272.719	28.38
273.515	28.38
274.311	32.38
275.106	30.38
275.901	32.38
276.697	31.38
277.492	29.38
278.287	32.38
279.082	31.38
279.877	32.38
280.672	31.38
281.467	32.38
282.262	29.38
283.056	31.38
283.851	32.38
284.646	29.38
285.44	29.38
286.234	29.38
287.029	31.38
287.823	30.38
288.617	27.38
289.411	28.38
290.205	28.38
290.999	30.38
291.793	28.38
292.587	29.38
293.381	29.38
294.174	25.38
294.968	26.38
295.761	24.38
296.555	21.38
297.348	23.38
298.141	22.38
298.935	25.38
299.728	21.38
300.521	20.38
301.314	21.38
302.107	20.38
302.899	16.38
303.692	20.38
304.485	20.38
305.277	22.38
306.07	18.38
306.862	19.38
307.655	20.38
308.447	18.38
309.239	21.38
310.031	18.38
310.823	16.38
311.615	14.38
312.407	16.38
313.199	15.38
313.991	15.38
314.783	17.38
315.574	14.38
316.366	13.38
317.157	14.38
317.949	15.38
318.74	12.38
319.531	12.38
320.322	13.38
321.113	12.38
321.904	11.38
322.695	12.38
323.486	9.38
324.277	11.38
325.068	12.38
325.858	14.38
326.649	12.38
327.439	10.38
328.23	10.38
329.02	11.38
329.81	10.38
330.6	8.38
331.391	11.38
332.181	10.38
332.971	9.38
333.76	11.38
334.55	10.38
335.34	9.38
336.13	11.38
336.919	10.38
337.709	10.38
338.498	12.38
339.287	9.38
340.077	10.38
340.866	10.38
341.655	10.38
342.444	11.38
343.233	12.38
344.022	9.38
344.811	12.38
345.6	9.38
346.388	12.38
347.177	10.38
347.965	12.38
348.754	8.38
349.542	10.38
350.33	10.38
351.119	10.38
351.907	10.38
352.695	9.38
353.483	9.38
354.271	10.38
355.059	8.38
355.846	11.38
356.634	8.38
357.422	11.38
358.209	8.38
358.997	10.38
359.784	8.38
360.571	10.38
361.359	9.38
362.146	6.38
362.933	9.38
363.72	8.38
364.507	10.38
365.294	12.38
366.081	7.38
366.867	7.38
367.654	9.38
368.44	8.38
369.227	8.38
370.013	10.38
370.8	8.38
371.586	8.38
372.372	9.38
373.158	9.38
373.944	8.38
374.73	6.38
375.516	9.38
376.302	9.38
377.088	8.38
377.873	11.38
378.659	8.38
379.445	8.38
380.23	9.38
381.015	11.38
381.801	7.38
382.586	9.38
383.371	9.38
384.156	8.38
384.941	11.38
385.726	11.38
386.511	12.38
387.296	8.38
388.08	11.38
388.865	10.38
389.649	10.38
390.434	11.38
391.218	10.38
392.003	10.38
392.787	10.38
393.571	10.38
394.355	12.38
395.139	9.38
395.923	10.38
396.707	11.38
397.491	12.38
398.274	11.38
399.058	11.38
399.842	14.38
400.625	10.38
401.408	12.38
402.192	9.38
402.975	11.38
403.758	15.38
404.541	9.38
405.324	12.38
406.107	11.38
406.89	13.38
407.673	11.38
408.456	12.38
409.238	12.38
410.021	13.38
410.803	16.38
411.586	13.38
412.368	18.38
413.151	13.38
413.933	14.38
414.715	15.38
415.497	13.38
416.279	15.38
417.061	16.38
417.843	16.38
418.624	17.38
419.406	19.38
420.188	17.38
420.969	19.38
421.751	19.38
422.532	17.38
423.313	22.38
424.095	19.38
424.876	20.38
425.657	20.38
426.438	24.38
427.219	22.38
428	26.38
428.78	22.38
429.561	24.38
430.342	28.38
431.122	24.38
431.903	26.38
432.683	30.38
433.464	29.38
434.244	27.38
435.024	29.38
435.804	34.38
436.584	38.38
437.364	36.38
438.144	38.38
438.924	39.38
439.704	43.38
440.483	42.38
441.263	49.38
442.042	48.38
442.822	52.38
443.601	56.38
444.38	57.38
445.16	63.38
445.939	72.38
446.718	76.38
447.497	79.38
448.276	87.38
449.054	95.38
449.833	104.38
450.612	116.38
451.391	122.38
452.169	133.38
452.948	150.38
453.726	163.38
454.504	178.38
455.282	208.38
456.061	224.38
456.839	249.38
457.617	285.38
458.395	312.38
459.172	352.38
459.95	390.38
460.728	437.38
461.506	481.38
462.283	533.38
463.061	607.38
463.838	679.38
464.615	762.38
465.393	843.38
466.17	935.38
466.947	1061.38
467.724	1193.38
468.501	1329.38
469.278	1463.38
470.055	1647.38
470.831	1822.38
471.608	2016.38
472.385	2265.38
473.161	2496.38
473.938	2770.38
474.714	3063.38
475.49	3396.38
476.266	3737.38
477.043	4124.38
477.819	4567.38
478.595	5046.38
479.371	5525.38
480.146	6112.38
480.922	6678.38
481.698	7360.38
482.473	8039.38
483.249	8859.38
484.024	9676.38
484.8	10656.38
485.575	11625.38
486.35	12678.38
487.126	13864.38
487.901	15082.38
488.676	16488.38
489.451	17852.38
490.225	19336.38
491	20915.38
491.775	22560.38
492.55	24234.38
493.324	25936.38
494.099	27731.38
494.873	29489.38
495.647	31406.38
496.422	33234.38
497.196	35020.38
497.97	36689.38
498.744	38149.38
499.518	39539.38
500.292	40808.38
501.066	41988.38
501.839	42814.38
502.613	43617.38
503.387	44091.38
504.16	44392.38
504.934	44308.38
505.707	44034.38
506.48	43693.38
507.253	42962.38
508.027	42061.38
508.8	40930.38
509.573	39641.38
510.346	38426.38
511.118	37104.38
511.891	35877.38
512.664	34484.38
513.437	33033.38
514.209	31550.38
514.982	30260.38
515.754	29015.38
516.526	27729.38
517.298	26455.38
518.071	25395.38
518.843	24365.38
519.615	23444.38
520.387	22468.38
521.159	21640.38
521.93	20799.38
522.702	19847.38
523.474	18970.38
524.245	18245.38
525.017	17464.38
525.788	16690.38
526.56	15876.38
527.331	15141.38
528.102	14379.38
528.873	13640.38
529.644	12918.38
530.415	12229.38
531.186	11605.38
531.957	11016.38
532.728	10460.38
533.498	9844.38
534.269	9319.38
535.039	8753.38
535.81	8293.38
536.58	7859.38
537.351	7424.38
538.121	7023.38
538.891	6643.38
539.661	6266.38
540.431	5925.38
541.201	5632.38
541.971	5318.38
542.741	5061.38
543.51	4792.38
544.28	4560.38
545.05	4333.38
545.819	4100.38
546.588	3925.38
547.358	3718.38
548.127	3529.38
548.896	3347.38
549.665	3161.38
550.434	3021.38
551.203	2865.38
551.972	2701.38
552.741	2553.38
553.51	2397.38
554.278	2282.38
555.047	2137.38
555.815	2025.38
556.584	1915.38
557.352	1815.38
558.121	1694.38
558.889	1604.38
559.657	1509.38
560.425	1431.38
561.193	1335.38
561.961	1280.38
562.729	1211.38
563.496	1141.38
564.264	1091.38
565.032	1028.38
565.799	978.38
566.567	927.38
567.334	881.38
568.101	815.38
568.869	773.38
569.636	736.38
570.403	689.38
571.17	664.38
571.937	618.38
572.704	581.38
573.471	545.38
574.237	517.38
575.004	489.38
575.771	458.38
576.537	442.38
577.303	414.38
578.07	380.38
578.836	364.38
579.602	338.38
580.368	323.38
581.134	310.38
581.9	289.38
582.666	280.38
583.432	270.38
584.198	247.38
584.964	237.38
585.729	228.38
586.495	215.38
587.26	199.38
588.025	196.38
588.791	183.38
589.556	174.38
590.321	168.38
591.086	158.38
591.851	151.38
592.616	139.38
593.381	133.38
594.146	125.38
594.911	125.38
595.675	113.38
596.44	112.38
597.204	107.38
597.969	105.38
598.733	99.38
599.497	92.38
600.261	92.38
601.025	86.38
601.79	85.38
602.553	77.38
603.317	77.38
604.081	77.38
604.845	68.38
605.609	67.38
606.372	67.38
607.136	61.38
607.899	61.38
608.662	59.38
609.426	58.38
610.189	51.38
610.952	53.38
611.715	51.38
612.478	46.38
613.241	47.38
614.004	44.38
614.767	44.38
615.529	43.38
616.292	42.38
617.055	38.38
617.817	37.38
618.579	34.38
619.342	34.38
620.104	36.38
620.866	34.38
621.628	32.38
622.39	32.38
623.152	28.38
623.914	29.38
624.676	29.38
625.438	29.38
626.199	26.38
626.961	25.38
627.722	25.38
628.484	23.38
629.245	25.38
630.006	22.38
630.768	21.38
631.529	22.38
632.29	22.38
633.051	21.38
633.812	20.38
634.573	20.38
635.333	19.38
636.094	20.38
636.855	17.38
637.615	19.38
638.376	18.38
639.136	16.38
639.896	17.38
640.657	14.38
641.417	14.38
642.177	16.38
642.937	16.38
643.697	12.38
644.457	14.38
645.216	15.38
645.976	14.38
646.736	12.38
647.495	13.38
648.255	13.38
649.014	13.38
649.774	12.38
650.533	12.38
651.292	11.38
652.051	13.38
652.81	11.38
653.569	12.38
654.328	13.38
655.087	8.38
655.846	9.38
656.604	12.38
657.363	12.38
658.121	10.38
658.88	12.38
659.638	8.38
660.397	12.38
661.155	10.38
661.913	8.38
662.671	9.38
663.429	9.38
664.187	9.38
664.945	8.38
665.703	8.38
666.46	9.38
667.218	6.38
667.976	8.38
668.733	8.38
669.49	8.38
670.248	10.38
671.005	7.38
671.762	7.38
672.519	9.38
673.276	9.38
674.033	8.38
674.79	9.38
675.547	8.38
676.304	9.38
677.06	7.38
677.817	8.38
678.574	8.38
679.33	7.38
680.086	9.38
680.843	5.38
681.599	9.38
682.355	5.38
683.111	7.38
683.867	8.38
684.623	7.38
685.379	6.38
686.135	9.38
686.89	7.38
687.646	5.38
688.402	7.38
689.157	6.38
689.912	6.38
690.668	6.38
691.423	6.38
692.178	5.38
692.933	7.38
693.688	7.38
694.443	6.38
695.198	9.38
695.953	5.38
696.708	7.38
697.462	8.38
698.217	7.38
698.972	4.38
699.726	5.38
700.48	8.38
701.235	6.38
701.989	5.38
702.743	6.38
703.497	6.38
704.251	5.38
705.005	5.38
705.759	7.38
706.513	7.38
707.266	6.38
708.02	7.38
708.774	6.38
709.527	5.38
710.28	7.38
711.034	4.38
711.787	7.38
712.54	8.38
713.293	7.38
714.046	9.38
714.799	8.38
715.552	7.38
716.305	4.38
717.058	6.38
717.81	5.38
718.563	8.38
719.315	7.38
720.068	6.38
720.82	8.38
721.573	7.38
722.325	6.38
723.077	5.38
723.829	7.38
724.581	9.38
725.333	7.38
726.085	7.38
726.836	4.38
727.588	6.38
728.34	10.38
729.091	6.38
729.843	9.38
730.594	8.38
731.346	8.38
732.097	4.38
732.848	8.38
733.599	7.38
734.35	8.38
735.101	7.38
735.852	9.38
736.603	8.38
737.354	8.38
738.104	10.38
738.855	10.38
739.605	9.38
740.356	8.38
741.106	8.38
741.856	6.38
742.607	6.38
743.357	8.38
744.107	8.38
744.857	12.38
745.607	6.38
746.357	10.38
747.106	8.38
747.856	9.38
748.606	9.38
749.355	9.38
750.105	12.38
750.854	12.38
751.603	10.38
752.353	10.38
753.102	10.38
753.851	11.38
754.6	9.38
755.349	10.38
756.098	10.38
756.847	11.38
757.595	9.38
758.344	8.38
759.093	9.38
759.841	12.38
760.589	13.38
761.338	12.38
762.086	11.38
762.834	11.38
763.582	14.38
764.331	11.38
765.079	13.38
765.826	12.38
766.574	13.38
767.322	14.38
768.07	14.38
768.817	12.38
769.565	13.38
770.312	14.38
771.06	13.38
771.807	13.38
772.554	14.38
773.302	13.38
774.049	16.38
774.796	16.38
775.543	12.38
776.29	12.38
777.036	12.38
777.783	14.38
778.53	13.38
779.276	15.38
780.023	13.38
780.769	17.38
781.516	15.38
782.262	14.38
783.008	15.38
783.754	14.38
784.5	12.38
785.246	16.38
785.992	15.38
786.738	12.38
787.484	12.38
788.23	14.38
788.975	16.38
789.721	15.38
790.466	14.38
791.212	15.38
791.957	10.38
792.702	11.38
793.447	15.38
794.193	12.38
794.938	14.38
795.683	12.38
796.427	12.38
797.172	9.38
797.917	11.38
798.662	10.38
799.406	10.38
800.151	14.38
800.895	10.38
801.64	11.38
802.384	12.38
803.128	8.38
803.872	9.38
804.616	12.38
805.36	7.38
806.104	10.38
806.848	11.38
807.592	10.38
808.336	9.38
809.079	9.38
809.823	8.38
810.566	9.38
811.31	7.38
812.053	6.38
812.796	6.38
813.539	7.38
814.283	8.38
815.026	8.38
815.769	9.38
816.511	7.38
817.254	7.38
817.997	8.38
818.74	6.38
819.482	7.38
820.225	7.38
820.967	8.38
821.71	5.38
822.452	5.38
823.194	7.38
823.936	6.38
824.678	5.38
825.42	6.38
826.162	6.38
826.904	5.38
827.646	7.38
828.388	8.38
829.129	4.38
829.871	6.38
830.612	2.38
831.354	8.38
832.095	5.38
832.836	5.38
833.577	6.38
834.319	4.38
835.06	7.38
835.801	5.38
836.542	5.38
837.282	6.38
838.023	6.38
838.764	7.38
839.504	4.38
840.245	6.38
840.985	6.38
841.726	4.38
842.466	4.38
843.206	2.38
843.946	4.38
844.687	4.38
845.427	5.38
846.166	4.38
846.906	4.38
847.646	4.38
848.386	4.38
849.125	5.38
849.865	6.38
850.605	5.38
851.344	4.38
852.083	2.38
852.823	3.38
853.562	2.38
854.301	3.38
855.04	1.38
855.779	3.38
856.518	3.38
857.257	2.38
857.995	4.38
858.734	2.38
859.473	4.38
860.211	2.38
860.95	5.38
861.688	3.38
862.426	3.38
863.165	4.38
863.903	3.38
864.641	2.38
865.379	2.38
866.117	3.38
866.855	2.38
867.593	0.38
868.33	3.38
869.068	1.38
869.806	4.38
870.543	2.38
871.28	2.38
872.018	2.38
872.755	1.38
873.492	4.38
874.229	1.38
874.967	4.38
875.703	1.38
876.44	1.38
877.177	1.38
877.914	-0.62
878.651	1.38
879.387	0.38
880.124	2.38
880.86	0.38
881.597	2.38
882.333	4.38
883.069	3.38
883.806	2.38
884.542	1.38
885.278	4.38
886.014	-1.62
886.749	1.38
887.485	0.38
888.221	1.38
888.957	1.38
889.692	0.38
890.428	0.38
891.163	-0.62
891.899	1.38
892.634	0.38
893.369	2.38
894.104	1.38
894.839	1.38
895.574	0.38
896.309	0.38
897.044	2.38
897.779	1.38
898.514	1.38
899.248	1.38
899.983	0.38
900.717	1.38
901.452	1.38
902.186	2.38
902.92	1.38
903.654	1.38
904.389	0.38
905.123	1.38
905.857	2.38
906.59	0.38
907.324	1.38
908.058	1.38
908.792	0.38
909.525	2.38
910.259	0.38
910.992	2.38
911.726	0.38
912.459	1.38
913.192	0.38
913.925	-0.62
914.658	0.38
915.391	-0.62
916.124	0.38
916.857	-0.62
917.59	2.38
918.323	0.38
919.055	1.38
919.788	1.38
920.521	0.38
921.253	2.38
921.985	1.38
922.718	0.38
923.45	1.38
924.182	-1.62
924.914	1.38
925.646	-0.62
926.378	1.38
927.11	-2.62
927.841	1.38
928.573	-0.62
929.305	1.38
930.036	1.38
930.768	-1.62
931.499	3.38
932.23	-0.62
932.962	0.38
933.693	-0.62
934.424	2.38
935.155	0.38
935.886	-1.62
936.617	0.38
937.348	-2.62
938.078	0.38
938.809	-1.62
939.54	-0.62
940.27	0.38
941.001	-0.62
941.731	0.38
942.461	2.38
943.191	0.38
943.922	1.38
944.652	0.38
945.382	1.38
946.112	1.38
946.841	0.38
947.571	0.38
948.301	1.38
949.031	0.38
949.76	2.38
950.49	1.38
951.219	0.38
951.948	0.38
952.678	-1.62
953.407	2.38
954.136	0.38
954.865	1.38
955.594	0.38
956.323	3.38
957.052	-0.62
957.78	-1.62
958.509	1.38
959.238	1.38
959.966	0.38
960.695	0.38
961.423	0.38
962.151	1.38
962.88	-0.62
963.608	0.38
964.336	1.38
965.064	-0.62
965.792	0.38
966.52	0.38
967.247	0.38
967.975	2.38
968.703	1.38
969.43	0.38
970.158	1.38
970.885	0.38
971.613	0.38
972.34	0.38
973.067	-0.62
973.794	1.38
974.521	2.38
975.248	1.38
975.975	2.38
976.702	1.38
977.429	-0.62
978.156	-0.62
978.882	2.38
979.609	0.38
980.335	-0.62
981.062	0.38
981.788	0.38
982.514	0.38
983.24	-0.62
983.967	1.38
984.693	0.38
985.419	1.38
986.144	0.38
986.87	-0.62
987.596	-0.62
988.322	1.38
989.047	-0.62
989.773	0.38
990.498	1.38
991.224	0.38
991.949	0.38
992.674	-0.62
993.399	1.38
994.124	2.38
994.849	-1.62
995.574	-0.62
996.299	0.38
997.024	1.38
997.749	1.38
998.473	-1.62
999.198	1.38
999.922	-0.62
1000.647	1.38
1001.371	2.38
1002.095	-2.62
1002.82	1.38
1003.544	-0.62
1004.268	4.38
1004.992	2.38
1005.716	4.38
1006.439	4.38
1007.163	4.38
1007.887	5.38
1008.611	-1.62
1009.334	1.38
1010.058	0.38
1010.781	1.38
1011.504	0.38
1012.228	-2.62
1012.951	-1.62
1013.674	-1.62
1014.397	1.38
1015.12	1.38
