节点500_565_QEPB04081__591__10-00-14-965.txt的数据

Date: Thu Nov 13 10:00:14 CST 2025
User: PC
Spectrometer: QEPB0408
触发模式: 0
积分时间 (秒): 1.000000E-2
Scans to average: 1
启用暗噪声校正: true
启用非线性校正: false
滑动平均宽度: 0
X轴模式: Wavelengths
Number of Pixels in Spectrum: 1044
>>>>>Begin Spectral Data<<<<<
220.843	5.12
221.644	3.12
222.444	3.12
223.244	5.12
224.045	3.12
224.845	4.12
225.645	2.12
226.445	4.12
227.245	6.12
228.045	4.12
228.845	4.12
229.645	5.12
230.444	5.12
231.244	6.12
232.043	7.12
232.843	5.12
233.642	7.12
234.442	6.12
235.241	7.12
236.04	8.12
236.839	5.12
237.638	7.12
238.437	7.12
239.236	6.12
240.035	6.12
240.833	7.12
241.632	8.12
242.43	10.12
243.229	7.12
244.027	10.12
244.826	13.12
245.624	11.12
246.422	13.12
247.22	11.12
248.018	10.12
248.816	12.12
249.614	11.12
250.412	9.12
251.21	12.12
252.007	14.12
252.805	11.12
253.602	15.12
254.4	13.12
255.197	17.12
255.994	11.12
256.791	16.12
257.589	16.12
258.386	13.12
259.183	15.12
259.979	14.12
260.776	14.12
261.573	17.12
262.37	19.12
263.166	18.12
263.963	18.12
264.759	17.12
265.556	19.12
266.352	21.12
267.148	19.12
267.944	18.12
268.74	21.12
269.536	22.12
270.332	20.12
271.128	21.12
271.924	23.12
272.719	23.12
273.515	23.12
274.311	26.12
275.106	25.12
275.901	23.12
276.697	29.12
277.492	24.12
278.287	23.12
279.082	25.12
279.877	26.12
280.672	24.12
281.467	26.12
282.262	26.12
283.056	27.12
283.851	26.12
284.646	25.12
285.44	23.12
286.234	25.12
287.029	25.12
287.823	28.12
288.617	25.12
289.411	28.12
290.205	27.12
290.999	27.12
291.793	25.12
292.587	25.12
293.381	27.12
294.174	27.12
294.968	25.12
295.761	19.12
296.555	21.12
297.348	22.12
298.141	21.12
298.935	21.12
299.728	25.12
300.521	21.12
301.314	21.12
302.107	23.12
302.899	20.12
303.692	19.12
304.485	18.12
305.277	19.12
306.07	18.12
306.862	19.12
307.655	17.12
308.447	17.12
309.239	19.12
310.031	17.12
310.823	14.12
311.615	16.12
312.407	16.12
313.199	15.12
313.991	14.12
314.783	14.12
315.574	12.12
316.366	15.12
317.157	13.12
317.949	13.12
318.74	14.12
319.531	11.12
320.322	13.12
321.113	13.12
321.904	12.12
322.695	10.12
323.486	13.12
324.277	10.12
325.068	10.12
325.858	12.12
326.649	12.12
327.439	12.12
328.23	12.12
329.02	12.12
329.81	12.12
330.6	11.12
331.391	10.12
332.181	12.12
332.971	10.12
333.76	9.12
334.55	10.12
335.34	12.12
336.13	11.12
336.919	10.12
337.709	10.12
338.498	10.12
339.287	11.12
340.077	9.12
340.866	9.12
341.655	9.12
342.444	10.12
343.233	7.12
344.022	9.12
344.811	9.12
345.6	9.12
346.388	10.12
347.177	8.12
347.965	10.12
348.754	8.12
349.542	13.12
350.33	11.12
351.119	9.12
351.907	7.12
352.695	8.12
353.483	9.12
354.271	8.12
355.059	11.12
355.846	9.12
356.634	11.12
357.422	8.12
358.209	9.12
358.997	11.12
359.784	8.12
360.571	8.12
361.359	11.12
362.146	11.12
362.933	6.12
363.72	4.12
364.507	9.12
365.294	8.12
366.081	9.12
366.867	7.12
367.654	8.12
368.44	9.12
369.227	7.12
370.013	7.12
370.8	7.12
371.586	9.12
372.372	11.12
373.158	10.12
373.944	8.12
374.73	8.12
375.516	10.12
376.302	9.12
377.088	7.12
377.873	7.12
378.659	7.12
379.445	6.12
380.23	7.12
381.015	10.12
381.801	9.12
382.586	7.12
383.371	7.12
384.156	9.12
384.941	9.12
385.726	9.12
386.511	12.12
387.296	8.12
388.08	11.12
388.865	8.12
389.649	11.12
390.434	9.12
391.218	9.12
392.003	9.12
392.787	8.12
393.571	7.12
394.355	9.12
395.139	10.12
395.923	8.12
396.707	11.12
397.491	11.12
398.274	12.12
399.058	11.12
399.842	10.12
400.625	10.12
401.408	10.12
402.192	12.12
402.975	12.12
403.758	13.12
404.541	12.12
405.324	12.12
406.107	16.12
406.89	14.12
407.673	13.12
408.456	12.12
409.238	13.12
410.021	14.12
410.803	11.12
411.586	11.12
412.368	11.12
413.151	14.12
413.933	14.12
414.715	14.12
415.497	14.12
416.279	14.12
417.061	15.12
417.843	18.12
418.624	18.12
419.406	17.12
420.188	17.12
420.969	15.12
421.751	15.12
422.532	17.12
423.313	17.12
424.095	19.12
424.876	18.12
425.657	21.12
426.438	22.12
427.219	21.12
428	23.12
428.78	23.12
429.561	22.12
430.342	22.12
431.122	25.12
431.903	25.12
432.683	26.12
433.464	29.12
434.244	32.12
435.024	32.12
435.804	30.12
436.584	37.12
437.364	36.12
438.144	37.12
438.924	39.12
439.704	45.12
440.483	45.12
441.263	48.12
442.042	54.12
442.822	59.12
443.601	60.12
444.38	63.12
445.16	66.12
445.939	78.12
446.718	82.12
447.497	88.12
448.276	95.12
449.054	110.12
449.833	124.12
450.612	132.12
451.391	143.12
452.169	157.12
452.948	177.12
453.726	193.12
454.504	210.12
455.282	239.12
456.061	271.12
456.839	304.12
457.617	329.12
458.395	363.12
459.172	404.12
459.95	447.12
460.728	497.12
461.506	556.12
462.283	624.12
463.061	687.12
463.838	761.12
464.615	843.12
465.393	948.12
466.17	1046.12
466.947	1166.12
467.724	1282.12
468.501	1418.12
469.278	1565.12
470.055	1708.12
470.831	1911.12
471.608	2102.12
472.385	2306.12
473.161	2533.12
473.938	2770.12
474.714	3033.12
475.49	3307.12
476.266	3639.12
477.043	3957.12
477.819	4326.12
478.595	4702.12
479.371	5115.12
480.146	5559.12
480.922	6076.12
481.698	6565.12
482.473	7091.12
483.249	7690.12
484.024	8357.12
484.8	9035.12
485.575	9773.12
486.35	10589.12
487.126	11380.12
487.901	12323.12
488.676	13256.12
489.451	14293.12
490.225	15444.12
491	16565.12
491.775	17700.12
492.55	18995.12
493.324	20290.12
494.099	21639.12
494.873	23028.12
495.647	24443.12
496.422	25901.12
497.196	27180.12
497.97	28618.12
498.744	30102.12
499.518	31416.12
500.292	32636.12
501.066	33710.12
501.839	34809.12
502.613	35761.12
503.387	36583.12
504.16	37342.12
504.934	37779.12
505.707	38099.12
506.48	38244.12
507.253	38231.12
508.027	37895.12
508.8	37513.12
509.573	37070.12
510.346	36377.12
511.118	35448.12
511.891	34756.12
512.664	33868.12
513.437	32767.12
514.209	31671.12
514.982	30551.12
515.754	29502.12
516.526	28341.12
517.298	27227.12
518.071	26158.12
518.843	25135.12
519.615	24114.12
520.387	23183.12
521.159	22280.12
521.93	21411.12
522.702	20540.12
523.474	19678.12
524.245	18893.12
525.017	18145.12
525.788	17452.12
526.56	16677.12
527.331	16019.12
528.102	15287.12
528.873	14539.12
529.644	13830.12
530.415	13208.12
531.186	12597.12
531.957	11991.12
532.728	11449.12
533.498	10815.12
534.269	10224.12
535.039	9705.12
535.81	9237.12
536.58	8765.12
537.351	8254.12
538.121	7821.12
538.891	7447.12
539.661	7048.12
540.431	6705.12
541.201	6310.12
541.971	5981.12
542.741	5647.12
543.51	5347.12
544.28	5062.12
545.05	4849.12
545.819	4613.12
546.588	4373.12
547.358	4193.12
548.127	3974.12
548.896	3787.12
549.665	3589.12
550.434	3421.12
551.203	3243.12
551.972	3085.12
552.741	2915.12
553.51	2769.12
554.278	2612.12
555.047	2457.12
555.815	2333.12
556.584	2212.12
557.352	2099.12
558.121	1964.12
558.889	1852.12
559.657	1749.12
560.425	1663.12
561.193	1566.12
561.961	1485.12
562.729	1416.12
563.496	1332.12
564.264	1267.12
565.032	1186.12
565.799	1135.12
566.567	1073.12
567.334	1006.12
568.101	963.12
568.869	898.12
569.636	844.12
570.403	797.12
571.17	762.12
571.937	727.12
572.704	664.12
573.471	634.12
574.237	599.12
575.004	580.12
575.771	541.12
576.537	502.12
577.303	472.12
578.07	450.12
578.836	426.12
579.602	404.12
580.368	383.12
581.134	362.12
581.9	338.12
582.666	324.12
583.432	308.12
584.198	290.12
584.964	276.12
585.729	267.12
586.495	257.12
587.26	238.12
588.025	227.12
588.791	210.12
589.556	197.12
590.321	192.12
591.086	177.12
591.851	173.12
592.616	164.12
593.381	157.12
594.146	151.12
594.911	139.12
595.675	137.12
596.44	135.12
597.204	127.12
597.969	119.12
598.733	114.12
599.497	111.12
600.261	109.12
601.025	97.12
601.79	96.12
602.553	91.12
603.317	91.12
604.081	85.12
604.845	78.12
605.609	76.12
606.372	73.12
607.136	71.12
607.899	66.12
608.662	60.12
609.426	66.12
610.189	60.12
610.952	62.12
611.715	57.12
612.478	56.12
613.241	53.12
614.004	50.12
614.767	50.12
615.529	45.12
616.292	45.12
617.055	40.12
617.817	45.12
618.579	39.12
619.342	39.12
620.104	39.12
620.866	33.12
621.628	35.12
622.39	32.12
623.152	32.12
623.914	30.12
624.676	32.12
625.438	29.12
626.199	29.12
626.961	29.12
627.722	27.12
628.484	25.12
629.245	23.12
630.006	23.12
630.768	24.12
631.529	23.12
632.29	22.12
633.051	21.12
633.812	23.12
634.573	22.12
635.333	19.12
636.094	19.12
636.855	21.12
637.615	19.12
638.376	17.12
639.136	19.12
639.896	18.12
640.657	17.12
641.417	17.12
642.177	16.12
642.937	14.12
643.697	13.12
644.457	14.12
645.216	15.12
645.976	13.12
646.736	16.12
647.495	13.12
648.255	12.12
649.014	12.12
649.774	13.12
650.533	12.12
651.292	12.12
652.051	10.12
652.81	12.12
653.569	10.12
654.328	11.12
655.087	11.12
655.846	11.12
656.604	11.12
657.363	7.12
658.121	11.12
658.88	10.12
659.638	10.12
660.397	10.12
661.155	10.12
661.913	10.12
662.671	9.12
663.429	11.12
664.187	11.12
664.945	7.12
665.703	9.12
666.46	11.12
667.218	8.12
667.976	8.12
668.733	7.12
669.49	7.12
670.248	9.12
671.005	7.12
671.762	8.12
672.519	7.12
673.276	7.12
674.033	8.12
674.79	9.12
675.547	5.12
676.304	7.12
677.06	8.12
677.817	8.12
678.574	5.12
679.33	9.12
680.086	7.12
680.843	5.12
681.599	7.12
682.355	6.12
683.111	7.12
683.867	5.12
684.623	5.12
685.379	7.12
686.135	7.12
686.89	8.12
687.646	6.12
688.402	7.12
689.157	5.12
689.912	5.12
690.668	7.12
691.423	7.12
692.178	8.12
692.933	6.12
693.688	5.12
694.443	4.12
695.198	8.12
695.953	6.12
696.708	9.12
697.462	8.12
698.217	7.12
698.972	8.12
699.726	6.12
700.48	7.12
701.235	7.12
701.989	5.12
702.743	7.12
703.497	7.12
704.251	7.12
705.005	5.12
705.759	7.12
706.513	5.12
707.266	8.12
708.02	9.12
708.774	7.12
709.527	6.12
710.28	7.12
711.034	7.12
711.787	5.12
712.54	5.12
713.293	6.12
714.046	5.12
714.799	5.12
715.552	7.12
716.305	8.12
717.058	4.12
717.81	5.12
718.563	7.12
719.315	6.12
720.068	7.12
720.82	8.12
721.573	8.12
722.325	8.12
723.077	9.12
723.829	7.12
724.581	5.12
725.333	4.12
726.085	7.12
726.836	5.12
727.588	4.12
728.34	9.12
729.091	5.12
729.843	5.12
730.594	5.12
731.346	5.12
732.097	5.12
732.848	7.12
733.599	8.12
734.35	7.12
735.101	9.12
735.852	8.12
736.603	8.12
737.354	8.12
738.104	7.12
738.855	7.12
739.605	9.12
740.356	7.12
741.106	7.12
741.856	8.12
742.607	8.12
743.357	8.12
744.107	6.12
744.857	6.12
745.607	11.12
746.357	8.12
747.106	6.12
747.856	7.12
748.606	5.12
749.355	10.12
750.105	10.12
750.854	6.12
751.603	9.12
752.353	8.12
753.102	9.12
753.851	10.12
754.6	10.12
755.349	8.12
756.098	9.12
756.847	9.12
757.595	9.12
758.344	11.12
759.093	8.12
759.841	11.12
760.589	8.12
761.338	11.12
762.086	9.12
762.834	11.12
763.582	12.12
764.331	8.12
765.079	10.12
765.826	10.12
766.574	12.12
767.322	8.12
768.07	9.12
768.817	11.12
769.565	9.12
770.312	13.12
771.06	12.12
771.807	10.12
772.554	10.12
773.302	11.12
774.049	11.12
774.796	14.12
775.543	12.12
776.29	10.12
777.036	14.12
777.783	10.12
778.53	13.12
779.276	13.12
780.023	15.12
780.769	12.12
781.516	11.12
782.262	15.12
783.008	12.12
783.754	12.12
784.5	13.12
785.246	14.12
785.992	13.12
786.738	14.12
787.484	9.12
788.23	11.12
788.975	14.12
789.721	13.12
790.466	10.12
791.212	11.12
791.957	11.12
792.702	12.12
793.447	11.12
794.193	14.12
794.938	12.12
795.683	10.12
796.427	10.12
797.172	11.12
797.917	9.12
798.662	9.12
799.406	11.12
800.151	10.12
800.895	14.12
801.64	10.12
802.384	10.12
803.128	9.12
803.872	8.12
804.616	11.12
805.36	11.12
806.104	11.12
806.848	9.12
807.592	7.12
808.336	9.12
809.079	8.12
809.823	11.12
810.566	10.12
811.31	7.12
812.053	6.12
812.796	8.12
813.539	8.12
814.283	7.12
815.026	10.12
815.769	5.12
816.511	7.12
817.254	10.12
817.997	7.12
818.74	7.12
819.482	3.12
820.225	8.12
820.967	5.12
821.71	9.12
822.452	7.12
823.194	6.12
823.936	8.12
824.678	4.12
825.42	6.12
826.162	5.12
826.904	7.12
827.646	7.12
828.388	8.12
829.129	6.12
829.871	5.12
830.612	5.12
831.354	6.12
832.095	7.12
832.836	7.12
833.577	7.12
834.319	6.12
835.06	5.12
835.801	5.12
836.542	5.12
837.282	6.12
838.023	4.12
838.764	5.12
839.504	5.12
840.245	4.12
840.985	5.12
841.726	4.12
842.466	4.12
843.206	3.12
843.946	5.12
844.687	4.12
845.427	5.12
846.166	5.12
846.906	3.12
847.646	5.12
848.386	4.12
849.125	6.12
849.865	4.12
850.605	3.12
851.344	5.12
852.083	4.12
852.823	3.12
853.562	6.12
854.301	3.12
855.04	3.12
855.779	6.12
856.518	3.12
857.257	2.12
857.995	2.12
858.734	2.12
859.473	3.12
860.211	2.12
860.95	2.12
861.688	0.12
862.426	4.12
863.165	2.12
863.903	2.12
864.641	6.12
865.379	2.12
866.117	1.12
866.855	3.12
867.593	2.12
868.33	2.12
869.068	3.12
869.806	1.12
870.543	1.12
871.28	5.12
872.018	2.12
872.755	1.12
873.492	2.12
874.229	1.12
874.967	2.12
875.703	1.12
876.44	2.12
877.177	2.12
877.914	3.12
878.651	2.12
879.387	1.12
880.124	2.12
880.86	0.12
881.597	2.12
882.333	1.12
883.069	1.12
883.806	2.12
884.542	3.12
885.278	0.12
886.014	1.12
886.749	3.12
887.485	2.12
888.221	1.12
888.957	1.12
889.692	1.12
890.428	2.12
891.163	1.12
891.899	1.12
892.634	1.12
893.369	-0.88
894.104	0.12
894.839	0.12
895.574	1.12
896.309	1.12
897.044	1.12
897.779	0.12
898.514	1.12
899.248	1.12
899.983	2.12
900.717	1.12
901.452	1.12
902.186	0.12
902.92	1.12
903.654	1.12
904.389	2.12
905.123	2.12
905.857	2.12
906.59	-0.88
907.324	1.12
908.058	1.12
908.792	1.12
909.525	-1.88
910.259	1.12
910.992	3.12
911.726	-0.88
912.459	0.12
913.192	-0.88
913.925	-0.88
914.658	-0.88
915.391	1.12
916.124	2.12
916.857	0.12
917.59	1.12
918.323	1.12
919.055	1.12
919.788	-2.88
920.521	2.12
921.253	1.12
921.985	2.12
922.718	1.12
923.45	0.12
924.182	0.12
924.914	0.12
925.646	3.12
926.378	3.12
927.11	1.12
927.841	0.12
928.573	-0.88
929.305	2.12
930.036	-1.88
930.768	1.12
931.499	1.12
932.23	0.12
932.962	1.12
933.693	0.12
934.424	0.12
935.155	1.12
935.886	1.12
936.617	1.12
937.348	1.12
938.078	1.12
938.809	2.12
939.54	1.12
940.27	1.12
941.001	-0.88
941.731	-0.88
942.461	0.12
943.191	3.12
943.922	-0.88
944.652	0.12
945.382	1.12
946.112	1.12
946.841	1.12
947.571	0.12
948.301	0.12
949.031	1.12
949.76	0.12
950.49	3.12
951.219	-0.88
951.948	2.12
952.678	2.12
953.407	1.12
954.136	0.12
954.865	1.12
955.594	-0.88
956.323	1.12
957.052	-0.88
957.78	0.12
958.509	-0.88
959.238	1.12
959.966	-1.88
960.695	3.12
961.423	-1.88
962.151	-1.88
962.88	1.12
963.608	0.12
964.336	3.12
965.064	1.12
965.792	0.12
966.52	2.12
967.247	-1.88
967.975	2.12
968.703	0.12
969.43	-0.88
970.158	1.12
970.885	0.12
971.613	0.12
972.34	1.12
973.067	4.12
973.794	-0.88
974.521	1.12
975.248	0.12
975.975	-0.88
976.702	1.12
977.429	1.12
978.156	1.12
978.882	1.12
979.609	2.12
980.335	1.12
981.062	0.12
981.788	0.12
982.514	1.12
983.24	0.12
983.967	1.12
984.693	1.12
985.419	1.12
986.144	0.12
986.87	-0.88
987.596	0.12
988.322	0.12
989.047	2.12
989.773	0.12
990.498	1.12
991.224	1.12
991.949	2.12
992.674	4.12
993.399	2.12
994.124	1.12
994.849	1.12
995.574	-1.88
996.299	1.12
997.024	-1.88
997.749	0.12
998.473	0.12
999.198	1.12
999.922	1.12
1000.647	-0.88
1001.371	2.12
1002.095	-0.88
1002.82	-1.88
1003.544	-0.88
1004.268	1.12
1004.992	3.12
1005.716	1.12
1006.439	1.12
1007.163	2.12
1007.887	1.12
1008.611	0.12
1009.334	0.12
1010.058	0.12
1010.781	0.12
1011.504	0.12
1012.228	1.12
1012.951	1.12
1013.674	2.12
1014.397	-1.88
1015.12	0.12
