节点500_565_QEPB04081__177__09-53-21-911.txt的数据

Date: Thu Nov 13 09:53:21 CST 2025
User: PC
Spectrometer: QEPB0408
触发模式: 0
积分时间 (秒): 1.000000E-2
Scans to average: 1
启用暗噪声校正: true
启用非线性校正: false
滑动平均宽度: 0
X轴模式: Wavelengths
Number of Pixels in Spectrum: 1044
>>>>>Begin Spectral Data<<<<<
220.843	4.25
221.644	4.25
222.444	6.25
223.244	3.25
224.045	6.25
224.845	5.25
225.645	5.25
226.445	6.25
227.245	4.25
228.045	6.25
228.845	5.25
229.645	8.25
230.444	6.25
231.244	8.25
232.043	7.25
232.843	7.25
233.642	8.25
234.442	7.25
235.241	7.25
236.04	8.25
236.839	10.25
237.638	9.25
238.437	10.25
239.236	9.25
240.035	7.25
240.833	7.25
241.632	9.25
242.43	8.25
243.229	11.25
244.027	11.25
244.826	12.25
245.624	12.25
246.422	10.25
247.22	8.25
248.018	14.25
248.816	12.25
249.614	12.25
250.412	13.25
251.21	13.25
252.007	13.25
252.805	12.25
253.602	14.25
254.4	14.25
255.197	14.25
255.994	16.25
256.791	17.25
257.589	16.25
258.386	18.25
259.183	17.25
259.979	19.25
260.776	20.25
261.573	16.25
262.37	20.25
263.166	19.25
263.963	21.25
264.759	22.25
265.556	22.25
266.352	23.25
267.148	22.25
267.944	22.25
268.74	24.25
269.536	25.25
270.332	26.25
271.128	28.25
271.924	26.25
272.719	29.25
273.515	29.25
274.311	29.25
275.106	29.25
275.901	30.25
276.697	30.25
277.492	32.25
278.287	29.25
279.082	32.25
279.877	32.25
280.672	28.25
281.467	30.25
282.262	30.25
283.056	30.25
283.851	28.25
284.646	26.25
285.44	28.25
286.234	27.25
287.029	30.25
287.823	29.25
288.617	29.25
289.411	28.25
290.205	24.25
290.999	27.25
291.793	26.25
292.587	28.25
293.381	28.25
294.174	26.25
294.968	26.25
295.761	23.25
296.555	22.25
297.348	22.25
298.141	22.25
298.935	25.25
299.728	22.25
300.521	23.25
301.314	19.25
302.107	20.25
302.899	19.25
303.692	22.25
304.485	20.25
305.277	18.25
306.07	16.25
306.862	16.25
307.655	19.25
308.447	15.25
309.239	16.25
310.031	18.25
310.823	16.25
311.615	15.25
312.407	13.25
313.199	17.25
313.991	13.25
314.783	12.25
315.574	12.25
316.366	13.25
317.157	14.25
317.949	13.25
318.74	12.25
319.531	8.25
320.322	13.25
321.113	12.25
321.904	12.25
322.695	11.25
323.486	10.25
324.277	11.25
325.068	10.25
325.858	10.25
326.649	11.25
327.439	12.25
328.23	8.25
329.02	7.25
329.81	11.25
330.6	9.25
331.391	10.25
332.181	8.25
332.971	8.25
333.76	8.25
334.55	13.25
335.34	9.25
336.13	9.25
336.919	10.25
337.709	10.25
338.498	12.25
339.287	10.25
340.077	10.25
340.866	11.25
341.655	9.25
342.444	10.25
343.233	8.25
344.022	11.25
344.811	8.25
345.6	10.25
346.388	10.25
347.177	8.25
347.965	9.25
348.754	10.25
349.542	12.25
350.33	12.25
351.119	6.25
351.907	8.25
352.695	8.25
353.483	11.25
354.271	9.25
355.059	12.25
355.846	8.25
356.634	9.25
357.422	10.25
358.209	8.25
358.997	9.25
359.784	9.25
360.571	8.25
361.359	8.25
362.146	9.25
362.933	8.25
363.72	8.25
364.507	6.25
365.294	7.25
366.081	8.25
366.867	6.25
367.654	8.25
368.44	6.25
369.227	5.25
370.013	9.25
370.8	7.25
371.586	7.25
372.372	8.25
373.158	6.25
373.944	9.25
374.73	9.25
375.516	5.25
376.302	10.25
377.088	8.25
377.873	7.25
378.659	8.25
379.445	8.25
380.23	9.25
381.015	8.25
381.801	8.25
382.586	9.25
383.371	9.25
384.156	9.25
384.941	8.25
385.726	9.25
386.511	8.25
387.296	7.25
388.08	8.25
388.865	9.25
389.649	8.25
390.434	11.25
391.218	9.25
392.003	12.25
392.787	10.25
393.571	9.25
394.355	8.25
395.139	7.25
395.923	10.25
396.707	7.25
397.491	9.25
398.274	10.25
399.058	8.25
399.842	14.25
400.625	12.25
401.408	12.25
402.192	12.25
402.975	11.25
403.758	12.25
404.541	13.25
405.324	14.25
406.107	14.25
406.89	12.25
407.673	13.25
408.456	15.25
409.238	15.25
410.021	12.25
410.803	14.25
411.586	16.25
412.368	13.25
413.151	12.25
413.933	18.25
414.715	15.25
415.497	16.25
416.279	16.25
417.061	14.25
417.843	15.25
418.624	16.25
419.406	15.25
420.188	17.25
420.969	17.25
421.751	18.25
422.532	19.25
423.313	17.25
424.095	19.25
424.876	21.25
425.657	20.25
426.438	21.25
427.219	23.25
428	24.25
428.78	20.25
429.561	23.25
430.342	25.25
431.122	22.25
431.903	27.25
432.683	27.25
433.464	29.25
434.244	31.25
435.024	29.25
435.804	35.25
436.584	33.25
437.364	36.25
438.144	34.25
438.924	39.25
439.704	42.25
440.483	44.25
441.263	45.25
442.042	47.25
442.822	49.25
443.601	57.25
444.38	62.25
445.16	67.25
445.939	70.25
446.718	76.25
447.497	84.25
448.276	88.25
449.054	98.25
449.833	101.25
450.612	120.25
451.391	128.25
452.169	136.25
452.948	155.25
453.726	168.25
454.504	195.25
455.282	205.25
456.061	236.25
456.839	260.25
457.617	285.25
458.395	326.25
459.172	362.25
459.95	404.25
460.728	453.25
461.506	499.25
462.283	559.25
463.061	628.25
463.838	701.25
464.615	791.25
465.393	875.25
466.17	976.25
466.947	1086.25
467.724	1216.25
468.501	1329.25
469.278	1495.25
470.055	1658.25
470.831	1845.25
471.608	2056.25
472.385	2287.25
473.161	2504.25
473.938	2775.25
474.714	3067.25
475.49	3376.25
476.266	3754.25
477.043	4103.25
477.819	4533.25
478.595	4963.25
479.371	5422.25
480.146	5976.25
480.922	6570.25
481.698	7206.25
482.473	7844.25
483.249	8563.25
484.024	9389.25
484.8	10218.25
485.575	11184.25
486.35	12129.25
487.126	13254.25
487.901	14371.25
488.676	15661.25
489.451	16983.25
490.225	18418.25
491	19823.25
491.775	21365.25
492.55	22935.25
493.324	24550.25
494.099	26171.25
494.873	27827.25
495.647	29622.25
496.422	31437.25
497.196	33052.25
497.97	34693.25
498.744	36210.25
499.518	37566.25
500.292	38818.25
501.066	40054.25
501.839	40984.25
502.613	41742.25
503.387	42386.25
504.16	42820.25
504.934	42886.25
505.707	42722.25
506.48	42540.25
507.253	42085.25
508.027	41190.25
508.8	40348.25
509.573	39222.25
510.346	38118.25
511.118	36903.25
511.891	35713.25
512.664	34416.25
513.437	33149.25
514.209	31658.25
514.982	30465.25
515.754	29221.25
516.526	27912.25
517.298	26790.25
518.071	25709.25
518.843	24633.25
519.615	23593.25
520.387	22671.25
521.159	21769.25
521.93	20875.25
522.702	20028.25
523.474	19211.25
524.245	18422.25
525.017	17698.25
525.788	16880.25
526.56	16045.25
527.331	15309.25
528.102	14616.25
528.873	13905.25
529.644	13156.25
530.415	12486.25
531.186	11856.25
531.957	11223.25
532.728	10678.25
533.498	10055.25
534.269	9477.25
535.039	9005.25
535.81	8511.25
536.58	8062.25
537.351	7629.25
538.121	7195.25
538.891	6770.25
539.661	6469.25
540.431	6098.25
541.201	5761.25
541.971	5470.25
542.741	5174.25
543.51	4928.25
544.28	4651.25
545.05	4458.25
545.819	4210.25
546.588	4063.25
547.358	3817.25
548.127	3602.25
548.896	3451.25
549.665	3269.25
550.434	3097.25
551.203	2935.25
551.972	2797.25
552.741	2624.25
553.51	2485.25
554.278	2350.25
555.047	2224.25
555.815	2088.25
556.584	1977.25
557.352	1877.25
558.121	1764.25
558.889	1655.25
559.657	1560.25
560.425	1481.25
561.193	1410.25
561.961	1332.25
562.729	1264.25
563.496	1179.25
564.264	1127.25
565.032	1066.25
565.799	1018.25
566.567	955.25
567.334	904.25
568.101	855.25
568.869	796.25
569.636	768.25
570.403	724.25
571.17	672.25
571.937	647.25
572.704	602.25
573.471	574.25
574.237	536.25
575.004	516.25
575.771	480.25
576.537	449.25
577.303	419.25
578.07	395.25
578.836	373.25
579.602	359.25
580.368	334.25
581.134	316.25
581.9	299.25
582.666	290.25
583.432	276.25
584.198	260.25
584.964	249.25
585.729	241.25
586.495	223.25
587.26	214.25
588.025	199.25
588.791	193.25
589.556	179.25
590.321	172.25
591.086	160.25
591.851	155.25
592.616	143.25
593.381	141.25
594.146	137.25
594.911	124.25
595.675	123.25
596.44	118.25
597.204	110.25
597.969	107.25
598.733	105.25
599.497	101.25
600.261	93.25
601.025	89.25
601.79	89.25
602.553	83.25
603.317	76.25
604.081	75.25
604.845	72.25
605.609	72.25
606.372	65.25
607.136	64.25
607.899	61.25
608.662	61.25
609.426	57.25
610.189	56.25
610.952	54.25
611.715	47.25
612.478	49.25
613.241	49.25
614.004	47.25
614.767	43.25
615.529	43.25
616.292	42.25
617.055	37.25
617.817	41.25
618.579	39.25
619.342	37.25
620.104	32.25
620.866	33.25
621.628	32.25
622.39	31.25
623.152	32.25
623.914	30.25
624.676	27.25
625.438	28.25
626.199	26.25
626.961	26.25
627.722	27.25
628.484	26.25
629.245	24.25
630.006	24.25
630.768	22.25
631.529	20.25
632.29	19.25
633.051	18.25
633.812	22.25
634.573	20.25
635.333	19.25
636.094	17.25
636.855	17.25
637.615	17.25
638.376	17.25
639.136	16.25
639.896	16.25
640.657	16.25
641.417	16.25
642.177	15.25
642.937	13.25
643.697	14.25
644.457	13.25
645.216	12.25
645.976	12.25
646.736	13.25
647.495	14.25
648.255	11.25
649.014	13.25
649.774	10.25
650.533	12.25
651.292	11.25
652.051	10.25
652.81	9.25
653.569	11.25
654.328	9.25
655.087	10.25
655.846	12.25
656.604	7.25
657.363	8.25
658.121	8.25
658.88	8.25
659.638	9.25
660.397	9.25
661.155	8.25
661.913	11.25
662.671	9.25
663.429	9.25
664.187	10.25
664.945	7.25
665.703	8.25
666.46	9.25
667.218	7.25
667.976	9.25
668.733	8.25
669.49	9.25
670.248	8.25
671.005	6.25
671.762	5.25
672.519	7.25
673.276	9.25
674.033	6.25
674.79	9.25
675.547	6.25
676.304	7.25
677.06	7.25
677.817	8.25
678.574	8.25
679.33	5.25
680.086	9.25
680.843	5.25
681.599	7.25
682.355	8.25
683.111	5.25
683.867	6.25
684.623	3.25
685.379	6.25
686.135	6.25
686.89	7.25
687.646	6.25
688.402	6.25
689.157	6.25
689.912	5.25
690.668	7.25
691.423	6.25
692.178	7.25
692.933	4.25
693.688	7.25
694.443	7.25
695.198	6.25
695.953	5.25
696.708	6.25
697.462	8.25
698.217	7.25
698.972	6.25
699.726	6.25
700.48	5.25
701.235	7.25
701.989	5.25
702.743	6.25
703.497	6.25
704.251	8.25
705.005	7.25
705.759	4.25
706.513	5.25
707.266	7.25
708.02	6.25
708.774	9.25
709.527	5.25
710.28	9.25
711.034	3.25
711.787	7.25
712.54	5.25
713.293	6.25
714.046	4.25
714.799	6.25
715.552	8.25
716.305	8.25
717.058	7.25
717.81	5.25
718.563	6.25
719.315	5.25
720.068	6.25
720.82	9.25
721.573	4.25
722.325	10.25
723.077	4.25
723.829	6.25
724.581	5.25
725.333	8.25
726.085	7.25
726.836	8.25
727.588	4.25
728.34	6.25
729.091	8.25
729.843	8.25
730.594	7.25
731.346	8.25
732.097	6.25
732.848	8.25
733.599	6.25
734.35	9.25
735.101	8.25
735.852	9.25
736.603	6.25
737.354	9.25
738.104	7.25
738.855	4.25
739.605	9.25
740.356	7.25
741.106	7.25
741.856	8.25
742.607	10.25
743.357	6.25
744.107	5.25
744.857	9.25
745.607	11.25
746.357	8.25
747.106	8.25
747.856	8.25
748.606	8.25
749.355	8.25
750.105	8.25
750.854	8.25
751.603	10.25
752.353	9.25
753.102	8.25
753.851	11.25
754.6	9.25
755.349	9.25
756.098	9.25
756.847	9.25
757.595	10.25
758.344	10.25
759.093	11.25
759.841	7.25
760.589	9.25
761.338	10.25
762.086	12.25
762.834	11.25
763.582	12.25
764.331	12.25
765.079	10.25
765.826	9.25
766.574	11.25
767.322	18.25
768.07	11.25
768.817	12.25
769.565	13.25
770.312	13.25
771.06	15.25
771.807	14.25
772.554	12.25
773.302	11.25
774.049	11.25
774.796	14.25
775.543	12.25
776.29	11.25
777.036	13.25
777.783	15.25
778.53	13.25
779.276	13.25
780.023	13.25
780.769	10.25
781.516	12.25
782.262	16.25
783.008	12.25
783.754	15.25
784.5	16.25
785.246	16.25
785.992	13.25
786.738	15.25
787.484	12.25
788.23	17.25
788.975	12.25
789.721	12.25
790.466	15.25
791.212	14.25
791.957	14.25
792.702	12.25
793.447	13.25
794.193	12.25
794.938	14.25
795.683	12.25
796.427	11.25
797.172	13.25
797.917	10.25
798.662	10.25
799.406	12.25
800.151	12.25
800.895	11.25
801.64	13.25
802.384	10.25
803.128	8.25
803.872	11.25
804.616	12.25
805.36	8.25
806.104	10.25
806.848	7.25
807.592	11.25
808.336	7.25
809.079	8.25
809.823	6.25
810.566	6.25
811.31	7.25
812.053	8.25
812.796	7.25
813.539	5.25
814.283	6.25
815.026	6.25
815.769	6.25
816.511	6.25
817.254	8.25
817.997	7.25
818.74	6.25
819.482	6.25
820.225	7.25
820.967	10.25
821.71	6.25
822.452	8.25
823.194	7.25
823.936	6.25
824.678	5.25
825.42	3.25
826.162	4.25
826.904	6.25
827.646	6.25
828.388	5.25
829.129	6.25
829.871	4.25
830.612	6.25
831.354	5.25
832.095	7.25
832.836	5.25
833.577	6.25
834.319	5.25
835.06	5.25
835.801	4.25
836.542	5.25
837.282	6.25
838.023	5.25
838.764	5.25
839.504	5.25
840.245	6.25
840.985	4.25
841.726	4.25
842.466	4.25
843.206	6.25
843.946	5.25
844.687	4.25
845.427	5.25
846.166	4.25
846.906	4.25
847.646	5.25
848.386	3.25
849.125	5.25
849.865	3.25
850.605	3.25
851.344	2.25
852.083	4.25
852.823	2.25
853.562	3.25
854.301	3.25
855.04	4.25
855.779	4.25
856.518	1.25
857.257	2.25
857.995	2.25
858.734	0.25
859.473	4.25
860.211	2.25
860.95	2.25
861.688	2.25
862.426	3.25
863.165	3.25
863.903	3.25
864.641	2.25
865.379	0.25
866.117	1.25
866.855	0.25
867.593	2.25
868.33	1.25
869.068	3.25
869.806	1.25
870.543	2.25
871.28	1.25
872.018	0.25
872.755	3.25
873.492	1.25
874.229	1.25
874.967	1.25
875.703	1.25
876.44	1.25
877.177	2.25
877.914	3.25
878.651	0.25
879.387	1.25
880.124	1.25
880.86	0.25
881.597	1.25
882.333	1.25
883.069	0.25
883.806	-0.75
884.542	0.25
885.278	2.25
886.014	2.25
886.749	2.25
887.485	-0.75
888.221	3.25
888.957	0.25
889.692	2.25
890.428	0.25
891.163	0.25
891.899	-0.75
892.634	1.25
893.369	-0.75
894.104	0.25
894.839	4.25
895.574	1.25
896.309	0.25
897.044	2.25
897.779	1.25
898.514	2.25
899.248	0.25
899.983	1.25
900.717	0.25
901.452	0.25
902.186	1.25
902.92	-1.75
903.654	1.25
904.389	-1.75
905.123	1.25
905.857	1.25
906.59	0.25
907.324	1.25
908.058	-0.75
908.792	1.25
909.525	-1.75
910.259	0.25
910.992	1.25
911.726	0.25
912.459	0.25
913.192	0.25
913.925	0.25
914.658	0.25
915.391	0.25
916.124	0.25
916.857	2.25
917.59	-1.75
918.323	0.25
919.055	0.25
919.788	0.25
920.521	-0.75
921.253	-0.75
921.985	-0.75
922.718	2.25
923.45	0.25
924.182	1.25
924.914	-0.75
925.646	1.25
926.378	0.25
927.11	2.25
927.841	-0.75
928.573	0.25
929.305	2.25
930.036	-2.75
930.768	-0.75
931.499	0.25
932.23	-2.75
932.962	-0.75
933.693	-1.75
934.424	0.25
935.155	-0.75
935.886	1.25
936.617	1.25
937.348	-0.75
938.078	1.25
938.809	0.25
939.54	0.25
940.27	-1.75
941.001	0.25
941.731	-0.75
942.461	-1.75
943.191	0.25
943.922	-0.75
944.652	2.25
945.382	0.25
946.112	2.25
946.841	-0.75
947.571	0.25
948.301	0.25
949.031	0.25
949.76	1.25
950.49	-0.75
951.219	1.25
951.948	-1.75
952.678	0.25
953.407	2.25
954.136	-1.75
954.865	-1.75
955.594	-0.75
956.323	2.25
957.052	1.25
957.78	0.25
958.509	2.25
959.238	0.25
959.966	0.25
960.695	-0.75
961.423	1.25
962.151	-1.75
962.88	-1.75
963.608	0.25
964.336	0.25
965.064	0.25
965.792	-1.75
966.52	1.25
967.247	0.25
967.975	2.25
968.703	1.25
969.43	-0.75
970.158	1.25
970.885	-1.75
971.613	0.25
972.34	1.25
973.067	1.25
973.794	-0.75
974.521	2.25
975.248	-0.75
975.975	-0.75
976.702	1.25
977.429	-0.75
978.156	0.25
978.882	0.25
979.609	1.25
980.335	1.25
981.062	0.25
981.788	0.25
982.514	1.25
983.24	0.25
983.967	0.25
984.693	-0.75
985.419	0.25
986.144	0.25
986.87	-0.75
987.596	0.25
988.322	0.25
989.047	1.25
989.773	-2.75
990.498	1.25
991.224	0.25
991.949	-0.75
992.674	2.25
993.399	0.25
994.124	0.25
994.849	0.25
995.574	2.25
996.299	0.25
997.024	0.25
997.749	0.25
998.473	1.25
999.198	0.25
999.922	-1.75
1000.647	0.25
1001.371	3.25
1002.095	-2.75
1002.82	-0.75
1003.544	-0.75
1004.268	4.25
1004.992	5.25
1005.716	2.25
1006.439	0.25
1007.163	3.25
1007.887	4.25
1008.611	-0.75
1009.334	0.25
1010.058	-2.75
1010.781	1.25
1011.504	0.25
1012.228	1.25
1012.951	-1.75
1013.674	1.25
1014.397	-0.75
1015.12	2.25
