节点500_565_QEPB04081__461__09-58-05-227.txt的数据

Date: Thu Nov 13 09:58:05 CST 2025
User: PC
Spectrometer: QEPB0408
触发模式: 0
积分时间 (秒): 1.000000E-2
Scans to average: 1
启用暗噪声校正: true
启用非线性校正: false
滑动平均宽度: 0
X轴模式: Wavelengths
Number of Pixels in Spectrum: 1044
>>>>>Begin Spectral Data<<<<<
220.843	1.62
221.644	4.62
222.444	4.62
223.244	4.62
224.045	3.62
224.845	6.62
225.645	3.62
226.445	5.62
227.245	6.62
228.045	2.62
228.845	5.62
229.645	6.62
230.444	5.62
231.244	4.62
232.043	6.62
232.843	8.62
233.642	5.62
234.442	6.62
235.241	5.62
236.04	9.62
236.839	7.62
237.638	8.62
238.437	8.62
239.236	4.62
240.035	6.62
240.833	8.62
241.632	9.62
242.43	10.62
243.229	12.62
244.027	9.62
244.826	7.62
245.624	10.62
246.422	12.62
247.22	11.62
248.018	13.62
248.816	14.62
249.614	10.62
250.412	9.62
251.21	12.62
252.007	12.62
252.805	12.62
253.602	14.62
254.4	10.62
255.197	15.62
255.994	13.62
256.791	12.62
257.589	14.62
258.386	14.62
259.183	14.62
259.979	17.62
260.776	20.62
261.573	16.62
262.37	19.62
263.166	20.62
263.963	21.62
264.759	15.62
265.556	20.62
266.352	18.62
267.148	21.62
267.944	23.62
268.74	21.62
269.536	21.62
270.332	21.62
271.128	23.62
271.924	24.62
272.719	23.62
273.515	26.62
274.311	21.62
275.106	26.62
275.901	26.62
276.697	24.62
277.492	25.62
278.287	25.62
279.082	25.62
279.877	27.62
280.672	27.62
281.467	26.62
282.262	28.62
283.056	22.62
283.851	27.62
284.646	29.62
285.44	24.62
286.234	28.62
287.029	27.62
287.823	27.62
288.617	27.62
289.411	25.62
290.205	23.62
290.999	26.62
291.793	24.62
292.587	24.62
293.381	27.62
294.174	23.62
294.968	24.62
295.761	24.62
296.555	20.62
297.348	21.62
298.141	20.62
298.935	25.62
299.728	21.62
300.521	22.62
301.314	20.62
302.107	18.62
302.899	19.62
303.692	19.62
304.485	22.62
305.277	14.62
306.07	14.62
306.862	18.62
307.655	17.62
308.447	16.62
309.239	16.62
310.031	16.62
310.823	17.62
311.615	13.62
312.407	16.62
313.199	14.62
313.991	14.62
314.783	12.62
315.574	14.62
316.366	11.62
317.157	13.62
317.949	13.62
318.74	13.62
319.531	13.62
320.322	11.62
321.113	11.62
321.904	10.62
322.695	10.62
323.486	10.62
324.277	12.62
325.068	12.62
325.858	9.62
326.649	11.62
327.439	9.62
328.23	8.62
329.02	12.62
329.81	12.62
330.6	8.62
331.391	9.62
332.181	10.62
332.971	6.62
333.76	10.62
334.55	10.62
335.34	7.62
336.13	8.62
336.919	8.62
337.709	12.62
338.498	11.62
339.287	9.62
340.077	8.62
340.866	10.62
341.655	8.62
342.444	10.62
343.233	10.62
344.022	8.62
344.811	10.62
345.6	10.62
346.388	9.62
347.177	9.62
347.965	12.62
348.754	10.62
349.542	9.62
350.33	10.62
351.119	9.62
351.907	9.62
352.695	7.62
353.483	9.62
354.271	9.62
355.059	6.62
355.846	8.62
356.634	7.62
357.422	7.62
358.209	6.62
358.997	7.62
359.784	8.62
360.571	8.62
361.359	8.62
362.146	6.62
362.933	8.62
363.72	5.62
364.507	6.62
365.294	6.62
366.081	8.62
366.867	9.62
367.654	7.62
368.44	7.62
369.227	7.62
370.013	6.62
370.8	7.62
371.586	7.62
372.372	6.62
373.158	8.62
373.944	8.62
374.73	11.62
375.516	8.62
376.302	8.62
377.088	6.62
377.873	6.62
378.659	6.62
379.445	7.62
380.23	6.62
381.015	8.62
381.801	8.62
382.586	7.62
383.371	8.62
384.156	6.62
384.941	8.62
385.726	7.62
386.511	7.62
387.296	7.62
388.08	6.62
388.865	10.62
389.649	8.62
390.434	8.62
391.218	7.62
392.003	8.62
392.787	9.62
393.571	9.62
394.355	9.62
395.139	10.62
395.923	10.62
396.707	10.62
397.491	9.62
398.274	10.62
399.058	9.62
399.842	12.62
400.625	13.62
401.408	12.62
402.192	8.62
402.975	9.62
403.758	11.62
404.541	11.62
405.324	13.62
406.107	12.62
406.89	12.62
407.673	10.62
408.456	11.62
409.238	12.62
410.021	13.62
410.803	13.62
411.586	12.62
412.368	13.62
413.151	11.62
413.933	15.62
414.715	13.62
415.497	12.62
416.279	14.62
417.061	13.62
417.843	13.62
418.624	12.62
419.406	17.62
420.188	18.62
420.969	15.62
421.751	13.62
422.532	18.62
423.313	17.62
424.095	18.62
424.876	19.62
425.657	18.62
426.438	20.62
427.219	22.62
428	20.62
428.78	22.62
429.561	21.62
430.342	21.62
431.122	25.62
431.903	25.62
432.683	27.62
433.464	28.62
434.244	29.62
435.024	28.62
435.804	33.62
436.584	34.62
437.364	34.62
438.144	38.62
438.924	40.62
439.704	45.62
440.483	45.62
441.263	48.62
442.042	50.62
442.822	58.62
443.601	59.62
444.38	61.62
445.16	70.62
445.939	73.62
446.718	83.62
447.497	83.62
448.276	94.62
449.054	101.62
449.833	112.62
450.612	127.62
451.391	138.62
452.169	158.62
452.948	166.62
453.726	189.62
454.504	209.62
455.282	232.62
456.061	250.62
456.839	280.62
457.617	317.62
458.395	351.62
459.172	394.62
459.95	442.62
460.728	488.62
461.506	545.62
462.283	603.62
463.061	673.62
463.838	753.62
464.615	831.62
465.393	917.62
466.17	1017.62
466.947	1133.62
467.724	1250.62
468.501	1383.62
469.278	1536.62
470.055	1686.62
470.831	1900.62
471.608	2088.62
472.385	2301.62
473.161	2527.62
473.938	2776.62
474.714	3056.62
475.49	3325.62
476.266	3637.62
477.043	3992.62
477.819	4383.62
478.595	4788.62
479.371	5193.62
480.146	5684.62
480.922	6222.62
481.698	6743.62
482.473	7314.62
483.249	7944.62
484.024	8600.62
484.8	9379.62
485.575	10120.62
486.35	10938.62
487.126	11870.62
487.901	12858.62
488.676	13926.62
489.451	14985.62
490.225	16216.62
491	17414.62
491.775	18696.62
492.55	20022.62
493.324	21376.62
494.099	22801.62
494.873	24268.62
495.647	25792.62
496.422	27356.62
497.196	28803.62
497.97	30237.62
498.744	31696.62
499.518	33093.62
500.292	34272.62
501.066	35442.62
501.839	36592.62
502.613	37409.62
503.387	38183.62
504.16	38916.62
504.934	39280.62
505.707	39458.62
506.48	39501.62
507.253	39431.62
508.027	38924.62
508.8	38428.62
509.573	37757.62
510.346	36950.62
511.118	35964.62
511.891	35166.62
512.664	34119.62
513.437	32867.62
514.209	31758.62
514.982	30525.62
515.754	29453.62
516.526	28254.62
517.298	27093.62
518.071	26086.62
518.843	24946.62
519.615	23948.62
520.387	22967.62
521.159	22074.62
521.93	21264.62
522.702	20370.62
523.474	19599.62
524.245	18747.62
525.017	17974.62
525.788	17206.62
526.56	16525.62
527.331	15801.62
528.102	15106.62
528.873	14413.62
529.644	13674.62
530.415	12988.62
531.186	12383.62
531.957	11798.62
532.728	11209.62
533.498	10620.62
534.269	10023.62
535.039	9513.62
535.81	9014.62
536.58	8549.62
537.351	8068.62
538.121	7666.62
538.891	7243.62
539.661	6864.62
540.431	6504.62
541.201	6159.62
541.971	5818.62
542.741	5510.62
543.51	5200.62
544.28	4962.62
545.05	4727.62
545.819	4514.62
546.588	4289.62
547.358	4073.62
548.127	3856.62
548.896	3688.62
549.665	3492.62
550.434	3309.62
551.203	3145.62
551.972	3002.62
552.741	2829.62
553.51	2673.62
554.278	2512.62
555.047	2365.62
555.815	2257.62
556.584	2142.62
557.352	2027.62
558.121	1903.62
558.889	1791.62
559.657	1707.62
560.425	1616.62
561.193	1501.62
561.961	1439.62
562.729	1369.62
563.496	1280.62
564.264	1216.62
565.032	1152.62
565.799	1100.62
566.567	1026.62
567.334	968.62
568.101	916.62
568.869	871.62
569.636	814.62
570.403	792.62
571.17	739.62
571.937	694.62
572.704	644.62
573.471	616.62
574.237	576.62
575.004	549.62
575.771	522.62
576.537	488.62
577.303	454.62
578.07	440.62
578.836	407.62
579.602	390.62
580.368	364.62
581.134	350.62
581.9	329.62
582.666	313.62
583.432	297.62
584.198	285.62
584.964	267.62
585.729	255.62
586.495	242.62
587.26	223.62
588.025	212.62
588.791	198.62
589.556	192.62
590.321	185.62
591.086	175.62
591.851	167.62
592.616	158.62
593.381	148.62
594.146	144.62
594.911	136.62
595.675	127.62
596.44	123.62
597.204	122.62
597.969	119.62
598.733	109.62
599.497	109.62
600.261	100.62
601.025	98.62
601.79	90.62
602.553	90.62
603.317	79.62
604.081	82.62
604.845	76.62
605.609	77.62
606.372	72.62
607.136	66.62
607.899	64.62
608.662	62.62
609.426	60.62
610.189	61.62
610.952	55.62
611.715	57.62
612.478	53.62
613.241	48.62
614.004	45.62
614.767	47.62
615.529	46.62
616.292	44.62
617.055	40.62
617.817	38.62
618.579	43.62
619.342	37.62
620.104	36.62
620.866	37.62
621.628	34.62
622.39	31.62
623.152	32.62
623.914	31.62
624.676	29.62
625.438	28.62
626.199	25.62
626.961	24.62
627.722	27.62
628.484	23.62
629.245	25.62
630.006	22.62
630.768	20.62
631.529	24.62
632.29	20.62
633.051	20.62
633.812	18.62
634.573	19.62
635.333	19.62
636.094	19.62
636.855	19.62
637.615	17.62
638.376	15.62
639.136	12.62
639.896	16.62
640.657	14.62
641.417	14.62
642.177	17.62
642.937	16.62
643.697	17.62
644.457	16.62
645.216	13.62
645.976	16.62
646.736	13.62
647.495	11.62
648.255	14.62
649.014	11.62
649.774	12.62
650.533	15.62
651.292	12.62
652.051	9.62
652.81	11.62
653.569	9.62
654.328	11.62
655.087	11.62
655.846	12.62
656.604	10.62
657.363	11.62
658.121	10.62
658.88	8.62
659.638	9.62
660.397	7.62
661.155	11.62
661.913	10.62
662.671	10.62
663.429	9.62
664.187	10.62
664.945	9.62
665.703	8.62
666.46	8.62
667.218	5.62
667.976	8.62
668.733	9.62
669.49	5.62
670.248	7.62
671.005	6.62
671.762	8.62
672.519	7.62
673.276	6.62
674.033	6.62
674.79	7.62
675.547	8.62
676.304	6.62
677.06	8.62
677.817	5.62
678.574	6.62
679.33	6.62
680.086	5.62
680.843	7.62
681.599	7.62
682.355	5.62
683.111	8.62
683.867	6.62
684.623	6.62
685.379	7.62
686.135	7.62
686.89	6.62
687.646	5.62
688.402	5.62
689.157	4.62
689.912	8.62
690.668	5.62
691.423	6.62
692.178	8.62
692.933	5.62
693.688	5.62
694.443	5.62
695.198	8.62
695.953	6.62
696.708	6.62
697.462	3.62
698.217	5.62
698.972	4.62
699.726	6.62
700.48	6.62
701.235	5.62
701.989	8.62
702.743	4.62
703.497	6.62
704.251	6.62
705.005	5.62
705.759	6.62
706.513	3.62
707.266	6.62
708.02	6.62
708.774	5.62
709.527	6.62
710.28	6.62
711.034	2.62
711.787	5.62
712.54	4.62
713.293	5.62
714.046	5.62
714.799	6.62
715.552	6.62
716.305	4.62
717.058	7.62
717.81	5.62
718.563	5.62
719.315	6.62
720.068	4.62
720.82	8.62
721.573	7.62
722.325	8.62
723.077	6.62
723.829	5.62
724.581	6.62
725.333	6.62
726.085	7.62
726.836	5.62
727.588	7.62
728.34	6.62
729.091	5.62
729.843	6.62
730.594	4.62
731.346	8.62
732.097	5.62
732.848	6.62
733.599	7.62
734.35	8.62
735.101	6.62
735.852	6.62
736.603	6.62
737.354	5.62
738.104	6.62
738.855	7.62
739.605	9.62
740.356	7.62
741.106	7.62
741.856	8.62
742.607	6.62
743.357	7.62
744.107	8.62
744.857	8.62
745.607	7.62
746.357	6.62
747.106	7.62
747.856	8.62
748.606	10.62
749.355	8.62
750.105	6.62
750.854	8.62
751.603	8.62
752.353	10.62
753.102	9.62
753.851	10.62
754.6	10.62
755.349	9.62
756.098	9.62
756.847	8.62
757.595	11.62
758.344	10.62
759.093	9.62
759.841	6.62
760.589	6.62
761.338	10.62
762.086	8.62
762.834	11.62
763.582	13.62
764.331	10.62
765.079	10.62
765.826	11.62
766.574	10.62
767.322	10.62
768.07	12.62
768.817	11.62
769.565	13.62
770.312	10.62
771.06	10.62
771.807	11.62
772.554	12.62
773.302	12.62
774.049	8.62
774.796	13.62
775.543	12.62
776.29	12.62
777.036	12.62
777.783	9.62
778.53	12.62
779.276	11.62
780.023	10.62
780.769	12.62
781.516	12.62
782.262	14.62
783.008	10.62
783.754	13.62
784.5	9.62
785.246	14.62
785.992	14.62
786.738	13.62
787.484	12.62
788.23	9.62
788.975	12.62
789.721	12.62
790.466	10.62
791.212	11.62
791.957	12.62
792.702	12.62
793.447	12.62
794.193	9.62
794.938	10.62
795.683	12.62
796.427	7.62
797.172	9.62
797.917	9.62
798.662	8.62
799.406	12.62
800.151	9.62
800.895	8.62
801.64	9.62
802.384	9.62
803.128	11.62
803.872	9.62
804.616	8.62
805.36	10.62
806.104	11.62
806.848	8.62
807.592	9.62
808.336	9.62
809.079	8.62
809.823	7.62
810.566	7.62
811.31	7.62
812.053	6.62
812.796	7.62
813.539	6.62
814.283	4.62
815.026	8.62
815.769	5.62
816.511	7.62
817.254	6.62
817.997	5.62
818.74	6.62
819.482	4.62
820.225	5.62
820.967	6.62
821.71	5.62
822.452	7.62
823.194	7.62
823.936	5.62
824.678	7.62
825.42	8.62
826.162	5.62
826.904	4.62
827.646	3.62
828.388	6.62
829.129	4.62
829.871	6.62
830.612	5.62
831.354	4.62
832.095	5.62
832.836	4.62
833.577	5.62
834.319	4.62
835.06	8.62
835.801	3.62
836.542	5.62
837.282	2.62
838.023	5.62
838.764	4.62
839.504	3.62
840.245	4.62
840.985	3.62
841.726	4.62
842.466	6.62
843.206	2.62
843.946	4.62
844.687	2.62
845.427	3.62
846.166	6.62
846.906	4.62
847.646	4.62
848.386	3.62
849.125	3.62
849.865	4.62
850.605	3.62
851.344	1.62
852.083	2.62
852.823	3.62
853.562	2.62
854.301	5.62
855.04	2.62
855.779	4.62
856.518	3.62
857.257	3.62
857.995	4.62
858.734	1.62
859.473	6.62
860.211	2.62
860.95	1.62
861.688	1.62
862.426	3.62
863.165	3.62
863.903	2.62
864.641	4.62
865.379	3.62
866.117	4.62
866.855	1.62
867.593	4.62
868.33	4.62
869.068	1.62
869.806	3.62
870.543	0.62
871.28	2.62
872.018	0.62
872.755	2.62
873.492	2.62
874.229	-0.38
874.967	2.62
875.703	2.62
876.44	1.62
877.177	0.62
877.914	1.62
878.651	-0.38
879.387	2.62
880.124	1.62
880.86	2.62
881.597	2.62
882.333	0.62
883.069	1.62
883.806	0.62
884.542	0.62
885.278	0.62
886.014	1.62
886.749	1.62
887.485	0.62
888.221	1.62
888.957	0.62
889.692	2.62
890.428	3.62
891.163	0.62
891.899	0.62
892.634	1.62
893.369	0.62
894.104	2.62
894.839	0.62
895.574	-0.38
896.309	2.62
897.044	-0.38
897.779	-0.38
898.514	2.62
899.248	-1.38
899.983	1.62
900.717	0.62
901.452	-2.38
902.186	-0.38
902.92	0.62
903.654	1.62
904.389	0.62
905.123	0.62
905.857	0.62
906.59	1.62
907.324	-0.38
908.058	-1.38
908.792	1.62
909.525	-1.38
910.259	1.62
910.992	0.62
911.726	0.62
912.459	1.62
913.192	1.62
913.925	-0.38
914.658	-1.38
915.391	0.62
916.124	0.62
916.857	-0.38
917.59	-2.38
918.323	0.62
919.055	1.62
919.788	0.62
920.521	2.62
921.253	0.62
921.985	-0.38
922.718	0.62
923.45	0.62
924.182	0.62
924.914	-1.38
925.646	-0.38
926.378	0.62
927.11	0.62
927.841	-0.38
928.573	-1.38
929.305	0.62
930.036	-0.38
930.768	0.62
931.499	0.62
932.23	-0.38
932.962	1.62
933.693	1.62
934.424	-0.38
935.155	-0.38
935.886	0.62
936.617	-0.38
937.348	0.62
938.078	-1.38
938.809	1.62
939.54	0.62
940.27	0.62
941.001	0.62
941.731	0.62
942.461	0.62
943.191	-1.38
943.922	0.62
944.652	0.62
945.382	-0.38
946.112	2.62
946.841	-3.38
947.571	-0.38
948.301	-0.38
949.031	-0.38
949.76	-0.38
950.49	0.62
951.219	1.62
951.948	2.62
952.678	-0.38
953.407	0.62
954.136	0.62
954.865	0.62
955.594	0.62
956.323	-0.38
957.052	-2.38
957.78	-0.38
958.509	0.62
959.238	0.62
959.966	0.62
960.695	-1.38
961.423	-1.38
962.151	1.62
962.88	-0.38
963.608	0.62
964.336	1.62
965.064	-0.38
965.792	0.62
966.52	-2.38
967.247	-0.38
967.975	0.62
968.703	-0.38
969.43	0.62
970.158	-0.38
970.885	-1.38
971.613	-1.38
972.34	1.62
973.067	1.62
973.794	-1.38
974.521	0.62
975.248	0.62
975.975	0.62
976.702	0.62
977.429	0.62
978.156	-0.38
978.882	-1.38
979.609	1.62
980.335	0.62
981.062	-1.38
981.788	-0.38
982.514	-2.38
983.24	-0.38
983.967	-1.38
984.693	0.62
985.419	-1.38
986.144	0.62
986.87	-0.38
987.596	-1.38
988.322	-0.38
989.047	-1.38
989.773	0.62
990.498	-0.38
991.224	-1.38
991.949	0.62
992.674	1.62
993.399	0.62
994.124	0.62
994.849	-1.38
995.574	-0.38
996.299	0.62
997.024	1.62
997.749	-0.38
998.473	-1.38
999.198	-1.38
999.922	2.62
1000.647	-0.38
1001.371	4.62
1002.095	-0.38
1002.82	-0.38
1003.544	-2.38
1004.268	5.62
1004.992	0.62
1005.716	2.62
1006.439	1.62
1007.163	4.62
1007.887	4.62
1008.611	0.62
1009.334	-0.38
1010.058	0.62
1010.781	0.62
1011.504	-0.38
1012.228	-1.38
1012.951	-0.38
1013.674	1.62
1014.397	-1.38
1015.12	-1.38
