节点500_565_QEPB04081__393__09-56-57-337.txt的数据

Date: Thu Nov 13 09:56:57 CST 2025
User: PC
Spectrometer: QEPB0408
触发模式: 0
积分时间 (秒): 1.000000E-2
Scans to average: 1
启用暗噪声校正: true
启用非线性校正: false
滑动平均宽度: 0
X轴模式: Wavelengths
Number of Pixels in Spectrum: 1044
>>>>>Begin Spectral Data<<<<<
220.843	2.5
221.644	6.5
222.444	4.5
223.244	4.5
224.045	3.5
224.845	4.5
225.645	4.5
226.445	5.5
227.245	6.5
228.045	6.5
228.845	4.5
229.645	5.5
230.444	8.5
231.244	4.5
232.043	6.5
232.843	4.5
233.642	7.5
234.442	8.5
235.241	6.5
236.04	9.5
236.839	6.5
237.638	4.5
238.437	9.5
239.236	8.5
240.035	10.5
240.833	6.5
241.632	8.5
242.43	8.5
243.229	9.5
244.027	8.5
244.826	9.5
245.624	7.5
246.422	8.5
247.22	8.5
248.018	11.5
248.816	12.5
249.614	10.5
250.412	9.5
251.21	11.5
252.007	11.5
252.805	11.5
253.602	12.5
254.4	15.5
255.197	13.5
255.994	11.5
256.791	13.5
257.589	13.5
258.386	15.5
259.183	15.5
259.979	16.5
260.776	15.5
261.573	17.5
262.37	19.5
263.166	22.5
263.963	21.5
264.759	20.5
265.556	19.5
266.352	20.5
267.148	18.5
267.944	22.5
268.74	21.5
269.536	22.5
270.332	25.5
271.128	25.5
271.924	22.5
272.719	26.5
273.515	27.5
274.311	25.5
275.106	24.5
275.901	27.5
276.697	26.5
277.492	28.5
278.287	28.5
279.082	25.5
279.877	26.5
280.672	28.5
281.467	28.5
282.262	27.5
283.056	28.5
283.851	22.5
284.646	26.5
285.44	23.5
286.234	26.5
287.029	26.5
287.823	26.5
288.617	26.5
289.411	26.5
290.205	25.5
290.999	24.5
291.793	28.5
292.587	25.5
293.381	23.5
294.174	26.5
294.968	22.5
295.761	20.5
296.555	24.5
297.348	22.5
298.141	21.5
298.935	24.5
299.728	22.5
300.521	21.5
301.314	20.5
302.107	19.5
302.899	18.5
303.692	18.5
304.485	17.5
305.277	19.5
306.07	18.5
306.862	18.5
307.655	16.5
308.447	15.5
309.239	18.5
310.031	16.5
310.823	16.5
311.615	16.5
312.407	13.5
313.199	13.5
313.991	9.5
314.783	11.5
315.574	14.5
316.366	11.5
317.157	13.5
317.949	11.5
318.74	12.5
319.531	8.5
320.322	11.5
321.113	12.5
321.904	12.5
322.695	14.5
323.486	12.5
324.277	13.5
325.068	12.5
325.858	10.5
326.649	10.5
327.439	7.5
328.23	12.5
329.02	9.5
329.81	9.5
330.6	8.5
331.391	10.5
332.181	9.5
332.971	8.5
333.76	11.5
334.55	11.5
335.34	8.5
336.13	10.5
336.919	10.5
337.709	8.5
338.498	6.5
339.287	10.5
340.077	9.5
340.866	9.5
341.655	7.5
342.444	10.5
343.233	8.5
344.022	10.5
344.811	8.5
345.6	10.5
346.388	7.5
347.177	10.5
347.965	8.5
348.754	8.5
349.542	10.5
350.33	6.5
351.119	8.5
351.907	10.5
352.695	10.5
353.483	7.5
354.271	9.5
355.059	10.5
355.846	9.5
356.634	8.5
357.422	9.5
358.209	8.5
358.997	8.5
359.784	6.5
360.571	6.5
361.359	8.5
362.146	8.5
362.933	8.5
363.72	6.5
364.507	7.5
365.294	5.5
366.081	7.5
366.867	5.5
367.654	9.5
368.44	7.5
369.227	5.5
370.013	7.5
370.8	8.5
371.586	7.5
372.372	8.5
373.158	6.5
373.944	7.5
374.73	6.5
375.516	10.5
376.302	4.5
377.088	7.5
377.873	8.5
378.659	6.5
379.445	8.5
380.23	8.5
381.015	5.5
381.801	8.5
382.586	6.5
383.371	6.5
384.156	7.5
384.941	8.5
385.726	6.5
386.511	8.5
387.296	8.5
388.08	9.5
388.865	8.5
389.649	7.5
390.434	8.5
391.218	9.5
392.003	10.5
392.787	8.5
393.571	10.5
394.355	9.5
395.139	8.5
395.923	9.5
396.707	10.5
397.491	11.5
398.274	9.5
399.058	12.5
399.842	9.5
400.625	10.5
401.408	11.5
402.192	11.5
402.975	10.5
403.758	10.5
404.541	11.5
405.324	11.5
406.107	12.5
406.89	13.5
407.673	10.5
408.456	10.5
409.238	13.5
410.021	12.5
410.803	12.5
411.586	12.5
412.368	12.5
413.151	12.5
413.933	13.5
414.715	14.5
415.497	13.5
416.279	17.5
417.061	13.5
417.843	14.5
418.624	12.5
419.406	13.5
420.188	16.5
420.969	16.5
421.751	18.5
422.532	16.5
423.313	16.5
424.095	17.5
424.876	17.5
425.657	21.5
426.438	22.5
427.219	23.5
428	21.5
428.78	21.5
429.561	20.5
430.342	22.5
431.122	23.5
431.903	26.5
432.683	28.5
433.464	30.5
434.244	28.5
435.024	29.5
435.804	30.5
436.584	34.5
437.364	38.5
438.144	37.5
438.924	37.5
439.704	42.5
440.483	41.5
441.263	48.5
442.042	50.5
442.822	56.5
443.601	57.5
444.38	61.5
445.16	65.5
445.939	73.5
446.718	79.5
447.497	83.5
448.276	92.5
449.054	100.5
449.833	114.5
450.612	123.5
451.391	140.5
452.169	149.5
452.948	165.5
453.726	184.5
454.504	205.5
455.282	228.5
456.061	251.5
456.839	280.5
457.617	311.5
458.395	342.5
459.172	388.5
459.95	428.5
460.728	479.5
461.506	532.5
462.283	578.5
463.061	650.5
463.838	749.5
464.615	818.5
465.393	912.5
466.17	1005.5
466.947	1121.5
467.724	1243.5
468.501	1384.5
469.278	1540.5
470.055	1684.5
470.831	1874.5
471.608	2061.5
472.385	2288.5
473.161	2514.5
473.938	2780.5
474.714	3034.5
475.49	3342.5
476.266	3669.5
477.043	3998.5
477.819	4401.5
478.595	4806.5
479.371	5224.5
480.146	5729.5
480.922	6278.5
481.698	6818.5
482.473	7378.5
483.249	8025.5
484.024	8763.5
484.8	9509.5
485.575	10348.5
486.35	11208.5
487.126	12127.5
487.901	13148.5
488.676	14238.5
489.451	15417.5
490.225	16643.5
491	17886.5
491.775	19215.5
492.55	20640.5
493.324	22111.5
494.099	23464.5
494.873	24986.5
495.647	26601.5
496.422	28167.5
497.196	29609.5
497.97	31164.5
498.744	32628.5
499.518	33970.5
500.292	35205.5
501.066	36399.5
501.839	37460.5
502.613	38361.5
503.387	39074.5
504.16	39643.5
504.934	40106.5
505.707	40158.5
506.48	40066.5
507.253	39930.5
508.027	39398.5
508.8	38771.5
509.573	38036.5
510.346	37089.5
511.118	36172.5
511.891	35326.5
512.664	34124.5
513.437	32916.5
514.209	31703.5
514.982	30515.5
515.754	29348.5
516.526	28144.5
517.298	27048.5
518.071	25844.5
518.843	24895.5
519.615	23809.5
520.387	22918.5
521.159	22022.5
521.93	21141.5
522.702	20260.5
523.474	19427.5
524.245	18601.5
525.017	17930.5
525.788	17135.5
526.56	16381.5
527.331	15638.5
528.102	14928.5
528.873	14259.5
529.644	13561.5
530.415	12871.5
531.186	12222.5
531.957	11632.5
532.728	11073.5
533.498	10523.5
534.269	9901.5
535.039	9373.5
535.81	8890.5
536.58	8412.5
537.351	7948.5
538.121	7525.5
538.891	7119.5
539.661	6779.5
540.431	6404.5
541.201	6040.5
541.971	5738.5
542.741	5445.5
543.51	5139.5
544.28	4877.5
545.05	4659.5
545.819	4433.5
546.588	4211.5
547.358	3985.5
548.127	3786.5
548.896	3613.5
549.665	3397.5
550.434	3242.5
551.203	3102.5
551.972	2926.5
552.741	2784.5
553.51	2638.5
554.278	2476.5
555.047	2345.5
555.815	2207.5
556.584	2107.5
557.352	1984.5
558.121	1873.5
558.889	1757.5
559.657	1662.5
560.425	1568.5
561.193	1472.5
561.961	1418.5
562.729	1329.5
563.496	1268.5
564.264	1190.5
565.032	1141.5
565.799	1072.5
566.567	1016.5
567.334	949.5
568.101	898.5
568.869	845.5
569.636	793.5
570.403	763.5
571.17	716.5
571.937	678.5
572.704	644.5
573.471	594.5
574.237	565.5
575.004	536.5
575.771	500.5
576.537	475.5
577.303	449.5
578.07	426.5
578.836	403.5
579.602	371.5
580.368	357.5
581.134	347.5
581.9	328.5
582.666	307.5
583.432	289.5
584.198	280.5
584.964	262.5
585.729	249.5
586.495	238.5
587.26	225.5
588.025	210.5
588.791	202.5
589.556	191.5
590.321	185.5
591.086	174.5
591.851	164.5
592.616	155.5
593.381	145.5
594.146	143.5
594.911	130.5
595.675	133.5
596.44	124.5
597.204	120.5
597.969	112.5
598.733	107.5
599.497	103.5
600.261	96.5
601.025	93.5
601.79	88.5
602.553	90.5
603.317	88.5
604.081	75.5
604.845	73.5
605.609	71.5
606.372	70.5
607.136	67.5
607.899	63.5
608.662	60.5
609.426	57.5
610.189	55.5
610.952	53.5
611.715	55.5
612.478	51.5
613.241	50.5
614.004	47.5
614.767	43.5
615.529	44.5
616.292	40.5
617.055	42.5
617.817	41.5
618.579	38.5
619.342	32.5
620.104	34.5
620.866	37.5
621.628	34.5
622.39	30.5
623.152	29.5
623.914	29.5
624.676	28.5
625.438	29.5
626.199	30.5
626.961	25.5
627.722	27.5
628.484	24.5
629.245	23.5
630.006	26.5
630.768	24.5
631.529	22.5
632.29	22.5
633.051	19.5
633.812	21.5
634.573	18.5
635.333	20.5
636.094	18.5
636.855	16.5
637.615	19.5
638.376	17.5
639.136	17.5
639.896	17.5
640.657	16.5
641.417	14.5
642.177	16.5
642.937	13.5
643.697	11.5
644.457	12.5
645.216	12.5
645.976	12.5
646.736	11.5
647.495	11.5
648.255	9.5
649.014	13.5
649.774	12.5
650.533	10.5
651.292	13.5
652.051	11.5
652.81	11.5
653.569	10.5
654.328	10.5
655.087	9.5
655.846	8.5
656.604	10.5
657.363	8.5
658.121	9.5
658.88	11.5
659.638	8.5
660.397	11.5
661.155	6.5
661.913	8.5
662.671	9.5
663.429	6.5
664.187	9.5
664.945	9.5
665.703	10.5
666.46	8.5
667.218	7.5
667.976	9.5
668.733	6.5
669.49	8.5
670.248	7.5
671.005	5.5
671.762	9.5
672.519	6.5
673.276	5.5
674.033	5.5
674.79	8.5
675.547	9.5
676.304	6.5
677.06	7.5
677.817	6.5
678.574	8.5
679.33	6.5
680.086	5.5
680.843	7.5
681.599	6.5
682.355	8.5
683.111	5.5
683.867	4.5
684.623	6.5
685.379	7.5
686.135	6.5
686.89	6.5
687.646	7.5
688.402	6.5
689.157	6.5
689.912	5.5
690.668	4.5
691.423	6.5
692.178	3.5
692.933	6.5
693.688	4.5
694.443	5.5
695.198	4.5
695.953	6.5
696.708	3.5
697.462	5.5
698.217	5.5
698.972	5.5
699.726	5.5
700.48	6.5
701.235	4.5
701.989	4.5
702.743	3.5
703.497	7.5
704.251	6.5
705.005	6.5
705.759	4.5
706.513	8.5
707.266	4.5
708.02	4.5
708.774	7.5
709.527	5.5
710.28	5.5
711.034	5.5
711.787	4.5
712.54	6.5
713.293	3.5
714.046	8.5
714.799	5.5
715.552	6.5
716.305	6.5
717.058	6.5
717.81	4.5
718.563	5.5
719.315	5.5
720.068	5.5
720.82	6.5
721.573	8.5
722.325	4.5
723.077	5.5
723.829	6.5
724.581	6.5
725.333	6.5
726.085	7.5
726.836	5.5
727.588	6.5
728.34	6.5
729.091	6.5
729.843	6.5
730.594	6.5
731.346	7.5
732.097	7.5
732.848	5.5
733.599	6.5
734.35	6.5
735.101	9.5
735.852	8.5
736.603	8.5
737.354	6.5
738.104	6.5
738.855	7.5
739.605	6.5
740.356	6.5
741.106	8.5
741.856	8.5
742.607	8.5
743.357	9.5
744.107	7.5
744.857	6.5
745.607	9.5
746.357	8.5
747.106	6.5
747.856	8.5
748.606	7.5
749.355	7.5
750.105	6.5
750.854	6.5
751.603	10.5
752.353	8.5
753.102	5.5
753.851	10.5
754.6	7.5
755.349	6.5
756.098	7.5
756.847	8.5
757.595	8.5
758.344	8.5
759.093	10.5
759.841	9.5
760.589	8.5
761.338	6.5
762.086	10.5
762.834	8.5
763.582	12.5
764.331	10.5
765.079	9.5
765.826	12.5
766.574	13.5
767.322	11.5
768.07	10.5
768.817	12.5
769.565	12.5
770.312	10.5
771.06	13.5
771.807	14.5
772.554	14.5
773.302	12.5
774.049	10.5
774.796	13.5
775.543	11.5
776.29	11.5
777.036	11.5
777.783	11.5
778.53	13.5
779.276	13.5
780.023	10.5
780.769	13.5
781.516	14.5
782.262	11.5
783.008	12.5
783.754	12.5
784.5	12.5
785.246	12.5
785.992	11.5
786.738	11.5
787.484	10.5
788.23	12.5
788.975	12.5
789.721	13.5
790.466	14.5
791.212	12.5
791.957	12.5
792.702	10.5
793.447	12.5
794.193	9.5
794.938	11.5
795.683	12.5
796.427	11.5
797.172	10.5
797.917	9.5
798.662	9.5
799.406	9.5
800.151	12.5
800.895	11.5
801.64	11.5
802.384	10.5
803.128	8.5
803.872	10.5
804.616	8.5
805.36	9.5
806.104	9.5
806.848	9.5
807.592	7.5
808.336	7.5
809.079	9.5
809.823	7.5
810.566	6.5
811.31	10.5
812.053	8.5
812.796	9.5
813.539	7.5
814.283	7.5
815.026	7.5
815.769	8.5
816.511	7.5
817.254	6.5
817.997	4.5
818.74	6.5
819.482	4.5
820.225	4.5
820.967	7.5
821.71	8.5
822.452	7.5
823.194	8.5
823.936	7.5
824.678	6.5
825.42	6.5
826.162	5.5
826.904	5.5
827.646	5.5
828.388	5.5
829.129	6.5
829.871	7.5
830.612	5.5
831.354	4.5
832.095	6.5
832.836	6.5
833.577	6.5
834.319	4.5
835.06	4.5
835.801	4.5
836.542	6.5
837.282	4.5
838.023	6.5
838.764	4.5
839.504	1.5
840.245	4.5
840.985	3.5
841.726	4.5
842.466	2.5
843.206	6.5
843.946	4.5
844.687	3.5
845.427	4.5
846.166	4.5
846.906	4.5
847.646	4.5
848.386	4.5
849.125	3.5
849.865	2.5
850.605	3.5
851.344	3.5
852.083	4.5
852.823	1.5
853.562	4.5
854.301	2.5
855.04	2.5
855.779	3.5
856.518	1.5
857.257	5.5
857.995	3.5
858.734	2.5
859.473	3.5
860.211	2.5
860.95	2.5
861.688	2.5
862.426	1.5
863.165	3.5
863.903	5.5
864.641	1.5
865.379	2.5
866.117	3.5
866.855	3.5
867.593	1.5
868.33	1.5
869.068	1.5
869.806	0.5
870.543	0.5
871.28	2.5
872.018	4.5
872.755	3.5
873.492	3.5
874.229	0.5
874.967	-0.5
875.703	4.5
876.44	1.5
877.177	-1.5
877.914	0.5
878.651	2.5
879.387	2.5
880.124	1.5
880.86	1.5
881.597	2.5
882.333	1.5
883.069	0.5
883.806	0.5
884.542	2.5
885.278	-0.5
886.014	1.5
886.749	0.5
887.485	0.5
888.221	-0.5
888.957	-0.5
889.692	1.5
890.428	0.5
891.163	-1.5
891.899	-1.5
892.634	0.5
893.369	2.5
894.104	1.5
894.839	1.5
895.574	0.5
896.309	0.5
897.044	0.5
897.779	0.5
898.514	0.5
899.248	0.5
899.983	0.5
900.717	1.5
901.452	0.5
902.186	-0.5
902.92	0.5
903.654	-0.5
904.389	0.5
905.123	1.5
905.857	1.5
906.59	-0.5
907.324	-1.5
908.058	0.5
908.792	2.5
909.525	0.5
910.259	-1.5
910.992	0.5
911.726	0.5
912.459	0.5
913.192	0.5
913.925	-1.5
914.658	-0.5
915.391	0.5
916.124	0.5
916.857	-0.5
917.59	2.5
918.323	-0.5
919.055	-1.5
919.788	1.5
920.521	1.5
921.253	-1.5
921.985	0.5
922.718	-0.5
923.45	1.5
924.182	-2.5
924.914	0.5
925.646	1.5
926.378	-2.5
927.11	-1.5
927.841	0.5
928.573	0.5
929.305	-1.5
930.036	0.5
930.768	0.5
931.499	-0.5
932.23	0.5
932.962	0.5
933.693	-0.5
934.424	-0.5
935.155	0.5
935.886	-0.5
936.617	0.5
937.348	2.5
938.078	-0.5
938.809	-0.5
939.54	1.5
940.27	0.5
941.001	0.5
941.731	-0.5
942.461	0.5
943.191	1.5
943.922	-1.5
944.652	1.5
945.382	1.5
946.112	0.5
946.841	0.5
947.571	0.5
948.301	0.5
949.031	0.5
949.76	0.5
950.49	0.5
951.219	-1.5
951.948	-0.5
952.678	-0.5
953.407	0.5
954.136	-0.5
954.865	0.5
955.594	0.5
956.323	0.5
957.052	-1.5
957.78	2.5
958.509	-0.5
959.238	1.5
959.966	-0.5
960.695	-2.5
961.423	-0.5
962.151	-0.5
962.88	-1.5
963.608	-1.5
964.336	1.5
965.064	-2.5
965.792	1.5
966.52	0.5
967.247	0.5
967.975	0.5
968.703	-2.5
969.43	2.5
970.158	-0.5
970.885	-1.5
971.613	0.5
972.34	-1.5
973.067	-0.5
973.794	-0.5
974.521	0.5
975.248	0.5
975.975	-0.5
976.702	1.5
977.429	1.5
978.156	-0.5
978.882	-0.5
979.609	1.5
980.335	-0.5
981.062	1.5
981.788	-0.5
982.514	0.5
983.24	0.5
983.967	-1.5
984.693	-0.5
985.419	-0.5
986.144	1.5
986.87	-1.5
987.596	-0.5
988.322	-0.5
989.047	-0.5
989.773	-0.5
990.498	-2.5
991.224	1.5
991.949	-2.5
992.674	-0.5
993.399	0.5
994.124	-0.5
994.849	-0.5
995.574	-0.5
996.299	1.5
997.024	1.5
997.749	0.5
998.473	-1.5
999.198	2.5
999.922	-1.5
1000.647	-1.5
1001.371	2.5
1002.095	-0.5
1002.82	-2.5
1003.544	-1.5
1004.268	4.5
1004.992	0.5
1005.716	2.5
1006.439	2.5
1007.163	3.5
1007.887	4.5
1008.611	1.5
1009.334	-1.5
1010.058	0.5
1010.781	-0.5
1011.504	-2.5
1012.228	0.5
1012.951	-0.5
1013.674	1.5
1014.397	-1.5
1015.12	2.5
