节点500_565_QEPB04081__377__09-56-41-360.txt的数据

Date: Thu Nov 13 09:56:41 CST 2025
User: PC
Spectrometer: QEPB0408
触发模式: 0
积分时间 (秒): 1.000000E-2
Scans to average: 1
启用暗噪声校正: true
启用非线性校正: false
滑动平均宽度: 0
X轴模式: Wavelengths
Number of Pixels in Spectrum: 1044
>>>>>Begin Spectral Data<<<<<
220.843	2.88
221.644	0.88
222.444	2.88
223.244	0.88
224.045	2.88
224.845	1.88
225.645	3.88
226.445	5.88
227.245	1.88
228.045	3.88
228.845	4.88
229.645	4.88
230.444	4.88
231.244	5.88
232.043	5.88
232.843	4.88
233.642	4.88
234.442	6.88
235.241	7.88
236.04	5.88
236.839	4.88
237.638	7.88
238.437	9.88
239.236	7.88
240.035	7.88
240.833	7.88
241.632	8.88
242.43	8.88
243.229	9.88
244.027	9.88
244.826	10.88
245.624	6.88
246.422	9.88
247.22	10.88
248.018	11.88
248.816	8.88
249.614	10.88
250.412	11.88
251.21	10.88
252.007	13.88
252.805	11.88
253.602	14.88
254.4	12.88
255.197	13.88
255.994	16.88
256.791	14.88
257.589	14.88
258.386	15.88
259.183	18.88
259.979	14.88
260.776	14.88
261.573	17.88
262.37	14.88
263.166	21.88
263.963	17.88
264.759	16.88
265.556	19.88
266.352	20.88
267.148	22.88
267.944	20.88
268.74	21.88
269.536	23.88
270.332	21.88
271.128	22.88
271.924	26.88
272.719	24.88
273.515	27.88
274.311	24.88
275.106	23.88
275.901	28.88
276.697	25.88
277.492	27.88
278.287	23.88
279.082	26.88
279.877	25.88
280.672	26.88
281.467	27.88
282.262	27.88
283.056	26.88
283.851	27.88
284.646	27.88
285.44	26.88
286.234	27.88
287.029	29.88
287.823	25.88
288.617	25.88
289.411	24.88
290.205	26.88
290.999	27.88
291.793	26.88
292.587	25.88
293.381	24.88
294.174	23.88
294.968	24.88
295.761	22.88
296.555	21.88
297.348	21.88
298.141	22.88
298.935	22.88
299.728	21.88
300.521	19.88
301.314	18.88
302.107	21.88
302.899	18.88
303.692	20.88
304.485	17.88
305.277	18.88
306.07	17.88
306.862	16.88
307.655	17.88
308.447	15.88
309.239	15.88
310.031	13.88
310.823	14.88
311.615	13.88
312.407	15.88
313.199	14.88
313.991	11.88
314.783	10.88
315.574	12.88
316.366	12.88
317.157	11.88
317.949	12.88
318.74	11.88
319.531	10.88
320.322	12.88
321.113	12.88
321.904	11.88
322.695	11.88
323.486	11.88
324.277	11.88
325.068	8.88
325.858	10.88
326.649	8.88
327.439	10.88
328.23	10.88
329.02	10.88
329.81	10.88
330.6	6.88
331.391	9.88
332.181	8.88
332.971	9.88
333.76	7.88
334.55	8.88
335.34	9.88
336.13	9.88
336.919	9.88
337.709	7.88
338.498	8.88
339.287	9.88
340.077	10.88
340.866	10.88
341.655	7.88
342.444	9.88
343.233	7.88
344.022	9.88
344.811	10.88
345.6	10.88
346.388	7.88
347.177	7.88
347.965	9.88
348.754	7.88
349.542	8.88
350.33	6.88
351.119	9.88
351.907	8.88
352.695	7.88
353.483	7.88
354.271	5.88
355.059	7.88
355.846	7.88
356.634	8.88
357.422	7.88
358.209	8.88
358.997	8.88
359.784	7.88
360.571	9.88
361.359	5.88
362.146	8.88
362.933	5.88
363.72	6.88
364.507	7.88
365.294	7.88
366.081	9.88
366.867	7.88
367.654	7.88
368.44	6.88
369.227	6.88
370.013	5.88
370.8	7.88
371.586	9.88
372.372	5.88
373.158	9.88
373.944	7.88
374.73	6.88
375.516	6.88
376.302	7.88
377.088	7.88
377.873	4.88
378.659	8.88
379.445	9.88
380.23	8.88
381.015	10.88
381.801	9.88
382.586	4.88
383.371	5.88
384.156	7.88
384.941	8.88
385.726	7.88
386.511	4.88
387.296	9.88
388.08	9.88
388.865	9.88
389.649	7.88
390.434	7.88
391.218	8.88
392.003	7.88
392.787	8.88
393.571	8.88
394.355	7.88
395.139	8.88
395.923	8.88
396.707	8.88
397.491	8.88
398.274	8.88
399.058	9.88
399.842	9.88
400.625	11.88
401.408	9.88
402.192	11.88
402.975	9.88
403.758	10.88
404.541	12.88
405.324	9.88
406.107	12.88
406.89	11.88
407.673	10.88
408.456	11.88
409.238	11.88
410.021	13.88
410.803	13.88
411.586	12.88
412.368	11.88
413.151	14.88
413.933	14.88
414.715	13.88
415.497	12.88
416.279	13.88
417.061	12.88
417.843	13.88
418.624	15.88
419.406	14.88
420.188	18.88
420.969	15.88
421.751	15.88
422.532	19.88
423.313	17.88
424.095	16.88
424.876	18.88
425.657	19.88
426.438	17.88
427.219	19.88
428	18.88
428.78	18.88
429.561	23.88
430.342	25.88
431.122	25.88
431.903	23.88
432.683	25.88
433.464	27.88
434.244	31.88
435.024	27.88
435.804	32.88
436.584	31.88
437.364	36.88
438.144	34.88
438.924	39.88
439.704	35.88
440.483	44.88
441.263	46.88
442.042	51.88
442.822	54.88
443.601	54.88
444.38	60.88
445.16	66.88
445.939	71.88
446.718	81.88
447.497	81.88
448.276	95.88
449.054	99.88
449.833	106.88
450.612	123.88
451.391	131.88
452.169	142.88
452.948	161.88
453.726	180.88
454.504	203.88
455.282	225.88
456.061	246.88
456.839	271.88
457.617	313.88
458.395	344.88
459.172	380.88
459.95	418.88
460.728	470.88
461.506	538.88
462.283	589.88
463.061	661.88
463.838	740.88
464.615	819.88
465.393	911.88
466.17	1006.88
466.947	1111.88
467.724	1247.88
468.501	1376.88
469.278	1527.88
470.055	1691.88
470.831	1887.88
471.608	2071.88
472.385	2283.88
473.161	2525.88
473.938	2770.88
474.714	3071.88
475.49	3356.88
476.266	3657.88
477.043	4027.88
477.819	4419.88
478.595	4805.88
479.371	5259.88
480.146	5751.88
480.922	6288.88
481.698	6870.88
482.473	7425.88
483.249	8095.88
484.024	8796.88
484.8	9612.88
485.575	10395.88
486.35	11269.88
487.126	12274.88
487.901	13229.88
488.676	14273.88
489.451	15495.88
490.225	16759.88
491	17967.88
491.775	19325.88
492.55	20750.88
493.324	22245.88
494.099	23610.88
494.873	25157.88
495.647	26718.88
496.422	28351.88
497.196	29839.88
497.97	31427.88
498.744	32861.88
499.518	34171.88
500.292	35431.88
501.066	36700.88
501.839	37754.88
502.613	38533.88
503.387	39290.88
504.16	39958.88
504.934	40217.88
505.707	40417.88
506.48	40336.88
507.253	40210.88
508.027	39646.88
508.8	38966.88
509.573	38194.88
510.346	37338.88
511.118	36327.88
511.891	35412.88
512.664	34179.88
513.437	33037.88
514.209	31743.88
514.982	30581.88
515.754	29402.88
516.526	28239.88
517.298	27053.88
518.071	25958.88
518.843	24957.88
519.615	23872.88
520.387	22921.88
521.159	22099.88
521.93	21150.88
522.702	20270.88
523.474	19475.88
524.245	18679.88
525.017	17933.88
525.788	17179.88
526.56	16369.88
527.331	15655.88
528.102	14961.88
528.873	14280.88
529.644	13567.88
530.415	12843.88
531.186	12257.88
531.957	11676.88
532.728	11094.88
533.498	10516.88
534.269	9901.88
535.039	9366.88
535.81	8876.88
536.58	8442.88
537.351	7977.88
538.121	7511.88
538.891	7142.88
539.661	6780.88
540.431	6417.88
541.201	6071.88
541.971	5725.88
542.741	5424.88
543.51	5159.88
544.28	4887.88
545.05	4651.88
545.819	4462.88
546.588	4232.88
547.358	3998.88
548.127	3815.88
548.896	3613.88
549.665	3420.88
550.434	3245.88
551.203	3088.88
551.972	2931.88
552.741	2779.88
553.51	2630.88
554.278	2480.88
555.047	2340.88
555.815	2206.88
556.584	2101.88
557.352	2001.88
558.121	1875.88
558.889	1770.88
559.657	1650.88
560.425	1567.88
561.193	1483.88
561.961	1413.88
562.729	1341.88
563.496	1260.88
564.264	1197.88
565.032	1125.88
565.799	1077.88
566.567	1014.88
567.334	954.88
568.101	903.88
568.869	859.88
569.636	802.88
570.403	757.88
571.17	709.88
571.937	685.88
572.704	641.88
573.471	604.88
574.237	570.88
575.004	536.88
575.771	508.88
576.537	477.88
577.303	454.88
578.07	420.88
578.836	399.88
579.602	377.88
580.368	363.88
581.134	340.88
581.9	330.88
582.666	303.88
583.432	298.88
584.198	267.88
584.964	262.88
585.729	242.88
586.495	234.88
587.26	217.88
588.025	214.88
588.791	203.88
589.556	186.88
590.321	181.88
591.086	171.88
591.851	170.88
592.616	151.88
593.381	144.88
594.146	143.88
594.911	137.88
595.675	129.88
596.44	120.88
597.204	114.88
597.969	108.88
598.733	109.88
599.497	98.88
600.261	98.88
601.025	95.88
601.79	85.88
602.553	86.88
603.317	79.88
604.081	83.88
604.845	75.88
605.609	70.88
606.372	69.88
607.136	65.88
607.899	61.88
608.662	63.88
609.426	61.88
610.189	55.88
610.952	52.88
611.715	52.88
612.478	52.88
613.241	48.88
614.004	47.88
614.767	40.88
615.529	42.88
616.292	43.88
617.055	40.88
617.817	41.88
618.579	39.88
619.342	32.88
620.104	35.88
620.866	33.88
621.628	35.88
622.39	30.88
623.152	31.88
623.914	31.88
624.676	29.88
625.438	27.88
626.199	25.88
626.961	24.88
627.722	23.88
628.484	23.88
629.245	24.88
630.006	19.88
630.768	21.88
631.529	19.88
632.29	19.88
633.051	17.88
633.812	19.88
634.573	15.88
635.333	16.88
636.094	16.88
636.855	16.88
637.615	16.88
638.376	15.88
639.136	15.88
639.896	17.88
640.657	16.88
641.417	14.88
642.177	13.88
642.937	14.88
643.697	13.88
644.457	14.88
645.216	11.88
645.976	10.88
646.736	12.88
647.495	11.88
648.255	13.88
649.014	12.88
649.774	12.88
650.533	11.88
651.292	9.88
652.051	11.88
652.81	8.88
653.569	10.88
654.328	10.88
655.087	11.88
655.846	11.88
656.604	11.88
657.363	9.88
658.121	7.88
658.88	10.88
659.638	7.88
660.397	7.88
661.155	8.88
661.913	6.88
662.671	9.88
663.429	5.88
664.187	4.88
664.945	6.88
665.703	9.88
666.46	6.88
667.218	7.88
667.976	8.88
668.733	8.88
669.49	9.88
670.248	7.88
671.005	9.88
671.762	7.88
672.519	7.88
673.276	6.88
674.033	7.88
674.79	4.88
675.547	5.88
676.304	7.88
677.06	7.88
677.817	5.88
678.574	6.88
679.33	7.88
680.086	3.88
680.843	5.88
681.599	7.88
682.355	7.88
683.111	7.88
683.867	3.88
684.623	5.88
685.379	5.88
686.135	3.88
686.89	4.88
687.646	5.88
688.402	5.88
689.157	4.88
689.912	6.88
690.668	6.88
691.423	4.88
692.178	6.88
692.933	5.88
693.688	5.88
694.443	5.88
695.198	3.88
695.953	3.88
696.708	5.88
697.462	7.88
698.217	3.88
698.972	3.88
699.726	5.88
700.48	3.88
701.235	3.88
701.989	6.88
702.743	4.88
703.497	4.88
704.251	8.88
705.005	4.88
705.759	3.88
706.513	5.88
707.266	5.88
708.02	3.88
708.774	2.88
709.527	3.88
710.28	5.88
711.034	4.88
711.787	3.88
712.54	3.88
713.293	5.88
714.046	6.88
714.799	7.88
715.552	7.88
716.305	4.88
717.058	5.88
717.81	2.88
718.563	5.88
719.315	5.88
720.068	6.88
720.82	2.88
721.573	8.88
722.325	6.88
723.077	4.88
723.829	7.88
724.581	5.88
725.333	4.88
726.085	3.88
726.836	3.88
727.588	5.88
728.34	4.88
729.091	4.88
729.843	4.88
730.594	6.88
731.346	7.88
732.097	5.88
732.848	4.88
733.599	5.88
734.35	8.88
735.101	5.88
735.852	8.88
736.603	5.88
737.354	6.88
738.104	5.88
738.855	7.88
739.605	9.88
740.356	5.88
741.106	6.88
741.856	7.88
742.607	6.88
743.357	6.88
744.107	7.88
744.857	8.88
745.607	7.88
746.357	6.88
747.106	9.88
747.856	6.88
748.606	7.88
749.355	3.88
750.105	6.88
750.854	6.88
751.603	7.88
752.353	9.88
753.102	7.88
753.851	8.88
754.6	6.88
755.349	8.88
756.098	8.88
756.847	11.88
757.595	9.88
758.344	8.88
759.093	8.88
759.841	7.88
760.589	9.88
761.338	7.88
762.086	7.88
762.834	9.88
763.582	7.88
764.331	11.88
765.079	9.88
765.826	11.88
766.574	8.88
767.322	9.88
768.07	9.88
768.817	8.88
769.565	7.88
770.312	11.88
771.06	11.88
771.807	9.88
772.554	13.88
773.302	9.88
774.049	13.88
774.796	11.88
775.543	10.88
776.29	11.88
777.036	10.88
777.783	10.88
778.53	10.88
779.276	8.88
780.023	12.88
780.769	11.88
781.516	11.88
782.262	11.88
783.008	11.88
783.754	9.88
784.5	11.88
785.246	11.88
785.992	14.88
786.738	11.88
787.484	12.88
788.23	11.88
788.975	10.88
789.721	13.88
790.466	12.88
791.212	10.88
791.957	12.88
792.702	11.88
793.447	7.88
794.193	8.88
794.938	10.88
795.683	10.88
796.427	11.88
797.172	10.88
797.917	9.88
798.662	7.88
799.406	7.88
800.151	12.88
800.895	9.88
801.64	10.88
802.384	8.88
803.128	9.88
803.872	6.88
804.616	8.88
805.36	10.88
806.104	9.88
806.848	5.88
807.592	6.88
808.336	6.88
809.079	9.88
809.823	7.88
810.566	7.88
811.31	7.88
812.053	5.88
812.796	7.88
813.539	6.88
814.283	5.88
815.026	5.88
815.769	7.88
816.511	6.88
817.254	4.88
817.997	5.88
818.74	3.88
819.482	6.88
820.225	5.88
820.967	4.88
821.71	2.88
822.452	6.88
823.194	2.88
823.936	5.88
824.678	7.88
825.42	3.88
826.162	5.88
826.904	3.88
827.646	5.88
828.388	4.88
829.129	2.88
829.871	7.88
830.612	4.88
831.354	6.88
832.095	3.88
832.836	5.88
833.577	1.88
834.319	6.88
835.06	5.88
835.801	3.88
836.542	2.88
837.282	1.88
838.023	3.88
838.764	3.88
839.504	1.88
840.245	5.88
840.985	5.88
841.726	3.88
842.466	3.88
843.206	4.88
843.946	3.88
844.687	3.88
845.427	2.88
846.166	3.88
846.906	3.88
847.646	4.88
848.386	4.88
849.125	2.88
849.865	3.88
850.605	4.88
851.344	1.88
852.083	4.88
852.823	2.88
853.562	5.88
854.301	1.88
855.04	0.88
855.779	3.88
856.518	3.88
857.257	1.88
857.995	4.88
858.734	1.88
859.473	1.88
860.211	1.88
860.95	0.88
861.688	0.88
862.426	1.88
863.165	1.88
863.903	0.88
864.641	1.88
865.379	2.88
866.117	1.88
866.855	1.88
867.593	2.88
868.33	2.88
869.068	1.88
869.806	-0.12
870.543	0.88
871.28	0.88
872.018	0.88
872.755	0.88
873.492	0.88
874.229	1.88
874.967	-0.12
875.703	-0.12
876.44	-0.12
877.177	1.88
877.914	-0.12
878.651	1.88
879.387	-0.12
880.124	-0.12
880.86	0.88
881.597	-0.12
882.333	3.88
883.069	-0.12
883.806	-0.12
884.542	1.88
885.278	0.88
886.014	0.88
886.749	-2.12
887.485	2.88
888.221	0.88
888.957	0.88
889.692	0.88
890.428	-1.12
891.163	0.88
891.899	-0.12
892.634	1.88
893.369	-2.12
894.104	-0.12
894.839	0.88
895.574	-2.12
896.309	0.88
897.044	-1.12
897.779	-0.12
898.514	1.88
899.248	0.88
899.983	0.88
900.717	0.88
901.452	-1.12
902.186	0.88
902.92	0.88
903.654	1.88
904.389	2.88
905.123	-0.12
905.857	-0.12
906.59	0.88
907.324	-1.12
908.058	-0.12
908.792	-1.12
909.525	3.88
910.259	-3.12
910.992	0.88
911.726	-0.12
912.459	0.88
913.192	-0.12
913.925	-0.12
914.658	-0.12
915.391	-0.12
916.124	1.88
916.857	1.88
917.59	-1.12
918.323	0.88
919.055	-0.12
919.788	-0.12
920.521	-1.12
921.253	1.88
921.985	-2.12
922.718	-2.12
923.45	-0.12
924.182	-0.12
924.914	-0.12
925.646	0.88
926.378	1.88
927.11	0.88
927.841	-2.12
928.573	-0.12
929.305	-0.12
930.036	-0.12
930.768	-0.12
931.499	-0.12
932.23	-0.12
932.962	-1.12
933.693	0.88
934.424	1.88
935.155	-0.12
935.886	-3.12
936.617	-1.12
937.348	-2.12
938.078	-1.12
938.809	1.88
939.54	-1.12
940.27	-0.12
941.001	-1.12
941.731	-0.12
942.461	-0.12
943.191	0.88
943.922	-0.12
944.652	-0.12
945.382	-0.12
946.112	-1.12
946.841	-1.12
947.571	-0.12
948.301	0.88
949.031	-0.12
949.76	-2.12
950.49	0.88
951.219	-1.12
951.948	-1.12
952.678	0.88
953.407	4.88
954.136	-1.12
954.865	-2.12
955.594	-0.12
956.323	-3.12
957.052	-0.12
957.78	0.88
958.509	-0.12
959.238	-0.12
959.966	0.88
960.695	0.88
961.423	-3.12
962.151	-0.12
962.88	-3.12
963.608	1.88
964.336	-0.12
965.064	-3.12
965.792	-0.12
966.52	-0.12
967.247	-0.12
967.975	-1.12
968.703	1.88
969.43	-0.12
970.158	-0.12
970.885	-0.12
971.613	-2.12
972.34	0.88
973.067	-0.12
973.794	-0.12
974.521	-0.12
975.248	-1.12
975.975	-0.12
976.702	-0.12
977.429	-0.12
978.156	-1.12
978.882	-0.12
979.609	-2.12
980.335	-0.12
981.062	0.88
981.788	-0.12
982.514	-1.12
983.24	-1.12
983.967	-1.12
984.693	-0.12
985.419	0.88
986.144	-1.12
986.87	-1.12
987.596	0.88
988.322	-5.12
989.047	-0.12
989.773	-1.12
990.498	-0.12
991.224	3.88
991.949	0.88
992.674	1.88
993.399	-2.12
994.124	1.88
994.849	-0.12
995.574	-1.12
996.299	-1.12
997.024	-0.12
997.749	-1.12
998.473	-1.12
999.198	0.88
999.922	-0.12
1000.647	-1.12
1001.371	3.88
1002.095	-3.12
1002.82	-1.12
1003.544	-0.12
1004.268	3.88
1004.992	3.88
1005.716	1.88
1006.439	5.88
1007.163	1.88
1007.887	1.88
1008.611	-1.12
1009.334	-1.12
1010.058	-0.12
1010.781	-1.12
1011.504	-0.12
1012.228	0.88
1012.951	1.88
1013.674	-1.12
1014.397	-0.12
1015.12	-0.12
