节点500_565_QEPB04081__621__10-00-44-954.txt的数据

Date: Thu Nov 13 10:00:44 CST 2025
User: PC
Spectrometer: QEPB0408
触发模式: 0
积分时间 (秒): 1.000000E-2
Scans to average: 1
启用暗噪声校正: true
启用非线性校正: false
滑动平均宽度: 0
X轴模式: Wavelengths
Number of Pixels in Spectrum: 1044
>>>>>Begin Spectral Data<<<<<
220.843	3.5
221.644	5.5
222.444	4.5
223.244	4.5
224.045	3.5
224.845	4.5
225.645	6.5
226.445	7.5
227.245	5.5
228.045	5.5
228.845	4.5
229.645	5.5
230.444	4.5
231.244	5.5
232.043	6.5
232.843	7.5
233.642	6.5
234.442	6.5
235.241	9.5
236.04	11.5
236.839	8.5
237.638	10.5
238.437	7.5
239.236	8.5
240.035	7.5
240.833	8.5
241.632	9.5
242.43	9.5
243.229	10.5
244.027	8.5
244.826	10.5
245.624	11.5
246.422	8.5
247.22	9.5
248.018	10.5
248.816	9.5
249.614	13.5
250.412	12.5
251.21	10.5
252.007	13.5
252.805	13.5
253.602	15.5
254.4	13.5
255.197	14.5
255.994	15.5
256.791	13.5
257.589	16.5
258.386	14.5
259.183	17.5
259.979	14.5
260.776	14.5
261.573	19.5
262.37	16.5
263.166	17.5
263.963	16.5
264.759	17.5
265.556	17.5
266.352	21.5
267.148	20.5
267.944	21.5
268.74	23.5
269.536	19.5
270.332	22.5
271.128	21.5
271.924	24.5
272.719	25.5
273.515	25.5
274.311	25.5
275.106	25.5
275.901	24.5
276.697	23.5
277.492	25.5
278.287	24.5
279.082	24.5
279.877	23.5
280.672	28.5
281.467	25.5
282.262	25.5
283.056	27.5
283.851	25.5
284.646	28.5
285.44	26.5
286.234	24.5
287.029	28.5
287.823	27.5
288.617	25.5
289.411	23.5
290.205	28.5
290.999	28.5
291.793	25.5
292.587	26.5
293.381	26.5
294.174	23.5
294.968	25.5
295.761	25.5
296.555	22.5
297.348	21.5
298.141	23.5
298.935	23.5
299.728	23.5
300.521	21.5
301.314	19.5
302.107	20.5
302.899	19.5
303.692	20.5
304.485	17.5
305.277	22.5
306.07	19.5
306.862	21.5
307.655	17.5
308.447	17.5
309.239	19.5
310.031	19.5
310.823	17.5
311.615	16.5
312.407	16.5
313.199	13.5
313.991	15.5
314.783	15.5
315.574	13.5
316.366	15.5
317.157	15.5
317.949	12.5
318.74	14.5
319.531	13.5
320.322	15.5
321.113	11.5
321.904	9.5
322.695	13.5
323.486	13.5
324.277	14.5
325.068	12.5
325.858	11.5
326.649	10.5
327.439	10.5
328.23	10.5
329.02	9.5
329.81	10.5
330.6	9.5
331.391	9.5
332.181	13.5
332.971	12.5
333.76	11.5
334.55	10.5
335.34	9.5
336.13	12.5
336.919	10.5
337.709	11.5
338.498	8.5
339.287	11.5
340.077	10.5
340.866	10.5
341.655	13.5
342.444	11.5
343.233	8.5
344.022	9.5
344.811	7.5
345.6	9.5
346.388	10.5
347.177	8.5
347.965	13.5
348.754	12.5
349.542	9.5
350.33	10.5
351.119	10.5
351.907	8.5
352.695	9.5
353.483	9.5
354.271	6.5
355.059	8.5
355.846	9.5
356.634	11.5
357.422	9.5
358.209	10.5
358.997	8.5
359.784	7.5
360.571	9.5
361.359	11.5
362.146	9.5
362.933	9.5
363.72	9.5
364.507	8.5
365.294	9.5
366.081	6.5
366.867	4.5
367.654	10.5
368.44	7.5
369.227	9.5
370.013	7.5
370.8	7.5
371.586	7.5
372.372	8.5
373.158	8.5
373.944	5.5
374.73	7.5
375.516	9.5
376.302	8.5
377.088	8.5
377.873	9.5
378.659	10.5
379.445	7.5
380.23	9.5
381.015	6.5
381.801	6.5
382.586	6.5
383.371	4.5
384.156	8.5
384.941	9.5
385.726	8.5
386.511	8.5
387.296	10.5
388.08	9.5
388.865	9.5
389.649	10.5
390.434	9.5
391.218	11.5
392.003	8.5
392.787	10.5
393.571	9.5
394.355	8.5
395.139	9.5
395.923	11.5
396.707	9.5
397.491	10.5
398.274	11.5
399.058	10.5
399.842	9.5
400.625	13.5
401.408	14.5
402.192	13.5
402.975	12.5
403.758	11.5
404.541	9.5
405.324	13.5
406.107	10.5
406.89	10.5
407.673	12.5
408.456	14.5
409.238	15.5
410.021	10.5
410.803	11.5
411.586	13.5
412.368	15.5
413.151	13.5
413.933	17.5
414.715	15.5
415.497	14.5
416.279	14.5
417.061	16.5
417.843	14.5
418.624	16.5
419.406	16.5
420.188	14.5
420.969	20.5
421.751	18.5
422.532	18.5
423.313	14.5
424.095	17.5
424.876	21.5
425.657	20.5
426.438	21.5
427.219	20.5
428	24.5
428.78	23.5
429.561	23.5
430.342	22.5
431.122	24.5
431.903	27.5
432.683	29.5
433.464	29.5
434.244	31.5
435.024	29.5
435.804	33.5
436.584	37.5
437.364	35.5
438.144	39.5
438.924	42.5
439.704	45.5
440.483	45.5
441.263	50.5
442.042	49.5
442.822	58.5
443.601	59.5
444.38	65.5
445.16	69.5
445.939	75.5
446.718	83.5
447.497	89.5
448.276	101.5
449.054	112.5
449.833	120.5
450.612	129.5
451.391	144.5
452.169	159.5
452.948	174.5
453.726	195.5
454.504	216.5
455.282	241.5
456.061	266.5
456.839	296.5
457.617	330.5
458.395	367.5
459.172	410.5
459.95	456.5
460.728	501.5
461.506	566.5
462.283	629.5
463.061	693.5
463.838	756.5
464.615	849.5
465.393	945.5
466.17	1048.5
466.947	1149.5
467.724	1274.5
468.501	1426.5
469.278	1550.5
470.055	1723.5
470.831	1897.5
471.608	2105.5
472.385	2293.5
473.161	2520.5
473.938	2767.5
474.714	3017.5
475.49	3285.5
476.266	3600.5
477.043	3956.5
477.819	4332.5
478.595	4695.5
479.371	5101.5
480.146	5551.5
480.922	6056.5
481.698	6550.5
482.473	7099.5
483.249	7688.5
484.024	8317.5
484.8	9027.5
485.575	9716.5
486.35	10514.5
487.126	11373.5
487.901	12291.5
488.676	13200.5
489.451	14283.5
490.225	15371.5
491	16440.5
491.775	17706.5
492.55	18856.5
493.324	20227.5
494.099	21532.5
494.873	22855.5
495.647	24287.5
496.422	25737.5
497.196	27079.5
497.97	28499.5
498.744	29953.5
499.518	31231.5
500.292	32429.5
501.066	33639.5
501.839	34708.5
502.613	35614.5
503.387	36427.5
504.16	37219.5
504.934	37633.5
505.707	37994.5
506.48	38167.5
507.253	38117.5
508.027	37889.5
508.8	37504.5
509.573	37035.5
510.346	36306.5
511.118	35520.5
511.891	34705.5
512.664	33810.5
513.437	32732.5
514.209	31602.5
514.982	30573.5
515.754	29449.5
516.526	28316.5
517.298	27258.5
518.071	26154.5
518.843	25122.5
519.615	24069.5
520.387	23162.5
521.159	22245.5
521.93	21394.5
522.702	20505.5
523.474	19756.5
524.245	18942.5
525.017	18209.5
525.788	17392.5
526.56	16707.5
527.331	15989.5
528.102	15234.5
528.873	14587.5
529.644	13879.5
530.415	13187.5
531.186	12560.5
531.957	11975.5
532.728	11432.5
533.498	10848.5
534.269	10247.5
535.039	9707.5
535.81	9249.5
536.58	8734.5
537.351	8274.5
538.121	7837.5
538.891	7417.5
539.661	7041.5
540.431	6684.5
541.201	6302.5
541.971	5975.5
542.741	5668.5
543.51	5364.5
544.28	5085.5
545.05	4849.5
545.819	4613.5
546.588	4400.5
547.358	4168.5
548.127	3962.5
548.896	3765.5
549.665	3577.5
550.434	3389.5
551.203	3241.5
551.972	3083.5
552.741	2908.5
553.51	2756.5
554.278	2590.5
555.047	2463.5
555.815	2339.5
556.584	2225.5
557.352	2094.5
558.121	1972.5
558.889	1839.5
559.657	1767.5
560.425	1659.5
561.193	1569.5
561.961	1499.5
562.729	1405.5
563.496	1333.5
564.264	1262.5
565.032	1198.5
565.799	1132.5
566.567	1056.5
567.334	1011.5
568.101	961.5
568.869	907.5
569.636	852.5
570.403	803.5
571.17	759.5
571.937	723.5
572.704	680.5
573.471	643.5
574.237	594.5
575.004	563.5
575.771	534.5
576.537	511.5
577.303	485.5
578.07	452.5
578.836	423.5
579.602	404.5
580.368	387.5
581.134	358.5
581.9	337.5
582.666	329.5
583.432	309.5
584.198	295.5
584.964	277.5
585.729	269.5
586.495	247.5
587.26	237.5
588.025	222.5
588.791	211.5
589.556	205.5
590.321	192.5
591.086	185.5
591.851	174.5
592.616	167.5
593.381	163.5
594.146	153.5
594.911	147.5
595.675	134.5
596.44	128.5
597.204	126.5
597.969	113.5
598.733	111.5
599.497	109.5
600.261	105.5
601.025	97.5
601.79	98.5
602.553	91.5
603.317	87.5
604.081	83.5
604.845	81.5
605.609	77.5
606.372	72.5
607.136	71.5
607.899	70.5
608.662	66.5
609.426	66.5
610.189	58.5
610.952	60.5
611.715	56.5
612.478	51.5
613.241	55.5
614.004	52.5
614.767	46.5
615.529	49.5
616.292	43.5
617.055	43.5
617.817	42.5
618.579	41.5
619.342	40.5
620.104	37.5
620.866	37.5
621.628	36.5
622.39	35.5
623.152	31.5
623.914	30.5
624.676	28.5
625.438	29.5
626.199	29.5
626.961	25.5
627.722	27.5
628.484	27.5
629.245	25.5
630.006	26.5
630.768	24.5
631.529	26.5
632.29	21.5
633.051	24.5
633.812	23.5
634.573	20.5
635.333	20.5
636.094	19.5
636.855	21.5
637.615	19.5
638.376	17.5
639.136	16.5
639.896	17.5
640.657	17.5
641.417	18.5
642.177	16.5
642.937	16.5
643.697	15.5
644.457	19.5
645.216	12.5
645.976	17.5
646.736	14.5
647.495	14.5
648.255	13.5
649.014	14.5
649.774	12.5
650.533	14.5
651.292	12.5
652.051	11.5
652.81	10.5
653.569	12.5
654.328	13.5
655.087	11.5
655.846	11.5
656.604	11.5
657.363	10.5
658.121	13.5
658.88	11.5
659.638	12.5
660.397	8.5
661.155	9.5
661.913	9.5
662.671	7.5
663.429	10.5
664.187	10.5
664.945	7.5
665.703	7.5
666.46	9.5
667.218	8.5
667.976	9.5
668.733	10.5
669.49	9.5
670.248	7.5
671.005	8.5
671.762	8.5
672.519	10.5
673.276	7.5
674.033	9.5
674.79	7.5
675.547	7.5
676.304	5.5
677.06	7.5
677.817	7.5
678.574	7.5
679.33	7.5
680.086	8.5
680.843	7.5
681.599	7.5
682.355	7.5
683.111	5.5
683.867	7.5
684.623	7.5
685.379	6.5
686.135	7.5
686.89	7.5
687.646	6.5
688.402	7.5
689.157	6.5
689.912	6.5
690.668	5.5
691.423	8.5
692.178	8.5
692.933	9.5
693.688	6.5
694.443	7.5
695.198	7.5
695.953	4.5
696.708	8.5
697.462	7.5
698.217	7.5
698.972	6.5
699.726	7.5
700.48	7.5
701.235	6.5
701.989	7.5
702.743	7.5
703.497	7.5
704.251	5.5
705.005	6.5
705.759	6.5
706.513	7.5
707.266	5.5
708.02	5.5
708.774	5.5
709.527	6.5
710.28	6.5
711.034	5.5
711.787	5.5
712.54	7.5
713.293	7.5
714.046	7.5
714.799	7.5
715.552	8.5
716.305	6.5
717.058	7.5
717.81	6.5
718.563	5.5
719.315	5.5
720.068	9.5
720.82	5.5
721.573	5.5
722.325	7.5
723.077	9.5
723.829	7.5
724.581	8.5
725.333	6.5
726.085	9.5
726.836	7.5
727.588	6.5
728.34	8.5
729.091	6.5
729.843	9.5
730.594	7.5
731.346	7.5
732.097	8.5
732.848	6.5
733.599	6.5
734.35	7.5
735.101	7.5
735.852	6.5
736.603	7.5
737.354	7.5
738.104	10.5
738.855	8.5
739.605	5.5
740.356	8.5
741.106	8.5
741.856	9.5
742.607	8.5
743.357	9.5
744.107	11.5
744.857	7.5
745.607	9.5
746.357	7.5
747.106	9.5
747.856	7.5
748.606	7.5
749.355	9.5
750.105	9.5
750.854	9.5
751.603	11.5
752.353	5.5
753.102	8.5
753.851	8.5
754.6	9.5
755.349	11.5
756.098	11.5
756.847	8.5
757.595	9.5
758.344	8.5
759.093	7.5
759.841	8.5
760.589	8.5
761.338	11.5
762.086	8.5
762.834	11.5
763.582	8.5
764.331	10.5
765.079	12.5
765.826	9.5
766.574	11.5
767.322	10.5
768.07	11.5
768.817	10.5
769.565	11.5
770.312	11.5
771.06	11.5
771.807	12.5
772.554	10.5
773.302	11.5
774.049	12.5
774.796	11.5
775.543	13.5
776.29	11.5
777.036	11.5
777.783	12.5
778.53	10.5
779.276	11.5
780.023	12.5
780.769	12.5
781.516	11.5
782.262	12.5
783.008	11.5
783.754	9.5
784.5	12.5
785.246	13.5
785.992	11.5
786.738	14.5
787.484	13.5
788.23	14.5
788.975	14.5
789.721	11.5
790.466	13.5
791.212	13.5
791.957	10.5
792.702	11.5
793.447	14.5
794.193	14.5
794.938	10.5
795.683	12.5
796.427	9.5
797.172	12.5
797.917	10.5
798.662	12.5
799.406	9.5
800.151	12.5
800.895	9.5
801.64	10.5
802.384	8.5
803.128	11.5
803.872	9.5
804.616	11.5
805.36	9.5
806.104	11.5
806.848	8.5
807.592	8.5
808.336	7.5
809.079	7.5
809.823	8.5
810.566	7.5
811.31	8.5
812.053	9.5
812.796	7.5
813.539	8.5
814.283	6.5
815.026	7.5
815.769	7.5
816.511	7.5
817.254	7.5
817.997	7.5
818.74	8.5
819.482	5.5
820.225	7.5
820.967	7.5
821.71	6.5
822.452	3.5
823.194	6.5
823.936	7.5
824.678	7.5
825.42	6.5
826.162	5.5
826.904	7.5
827.646	6.5
828.388	5.5
829.129	5.5
829.871	5.5
830.612	5.5
831.354	6.5
832.095	4.5
832.836	5.5
833.577	9.5
834.319	7.5
835.06	5.5
835.801	6.5
836.542	3.5
837.282	4.5
838.023	6.5
838.764	5.5
839.504	7.5
840.245	7.5
840.985	5.5
841.726	7.5
842.466	6.5
843.206	3.5
843.946	6.5
844.687	4.5
845.427	5.5
846.166	5.5
846.906	4.5
847.646	5.5
848.386	4.5
849.125	4.5
849.865	3.5
850.605	3.5
851.344	5.5
852.083	4.5
852.823	3.5
853.562	3.5
854.301	3.5
855.04	5.5
855.779	6.5
856.518	4.5
857.257	2.5
857.995	2.5
858.734	4.5
859.473	5.5
860.211	3.5
860.95	5.5
861.688	4.5
862.426	2.5
863.165	3.5
863.903	0.5
864.641	3.5
865.379	4.5
866.117	5.5
866.855	3.5
867.593	2.5
868.33	2.5
869.068	1.5
869.806	3.5
870.543	2.5
871.28	3.5
872.018	0.5
872.755	4.5
873.492	2.5
874.229	5.5
874.967	2.5
875.703	1.5
876.44	-0.5
877.177	3.5
877.914	5.5
878.651	2.5
879.387	-0.5
880.124	1.5
880.86	0.5
881.597	3.5
882.333	2.5
883.069	2.5
883.806	1.5
884.542	2.5
885.278	2.5
886.014	-0.5
886.749	0.5
887.485	1.5
888.221	1.5
888.957	1.5
889.692	3.5
890.428	-1.5
891.163	0.5
891.899	3.5
892.634	1.5
893.369	3.5
894.104	1.5
894.839	1.5
895.574	3.5
896.309	1.5
897.044	2.5
897.779	2.5
898.514	-0.5
899.248	2.5
899.983	2.5
900.717	-0.5
901.452	0.5
902.186	0.5
902.92	1.5
903.654	2.5
904.389	1.5
905.123	2.5
905.857	0.5
906.59	0.5
907.324	1.5
908.058	-0.5
908.792	0.5
909.525	0.5
910.259	1.5
910.992	1.5
911.726	-0.5
912.459	0.5
913.192	1.5
913.925	1.5
914.658	1.5
915.391	2.5
916.124	1.5
916.857	1.5
917.59	1.5
918.323	0.5
919.055	-0.5
919.788	0.5
920.521	1.5
921.253	2.5
921.985	1.5
922.718	3.5
923.45	2.5
924.182	1.5
924.914	0.5
925.646	3.5
926.378	1.5
927.11	0.5
927.841	1.5
928.573	0.5
929.305	0.5
930.036	1.5
930.768	1.5
931.499	0.5
932.23	0.5
932.962	3.5
933.693	1.5
934.424	0.5
935.155	-0.5
935.886	0.5
936.617	0.5
937.348	-0.5
938.078	0.5
938.809	0.5
939.54	1.5
940.27	0.5
941.001	-0.5
941.731	-1.5
942.461	2.5
943.191	2.5
943.922	1.5
944.652	1.5
945.382	1.5
946.112	3.5
946.841	-1.5
947.571	0.5
948.301	-0.5
949.031	0.5
949.76	0.5
950.49	0.5
951.219	1.5
951.948	-2.5
952.678	1.5
953.407	0.5
954.136	0.5
954.865	0.5
955.594	0.5
956.323	-1.5
957.052	1.5
957.78	0.5
958.509	1.5
959.238	-2.5
959.966	1.5
960.695	-1.5
961.423	0.5
962.151	-0.5
962.88	1.5
963.608	-0.5
964.336	1.5
965.064	2.5
965.792	0.5
966.52	0.5
967.247	0.5
967.975	0.5
968.703	1.5
969.43	-0.5
970.158	-0.5
970.885	1.5
971.613	1.5
972.34	-0.5
973.067	1.5
973.794	-1.5
974.521	0.5
975.248	1.5
975.975	-0.5
976.702	1.5
977.429	-0.5
978.156	0.5
978.882	2.5
979.609	0.5
980.335	1.5
981.062	0.5
981.788	0.5
982.514	-0.5
983.24	1.5
983.967	1.5
984.693	1.5
985.419	1.5
986.144	2.5
986.87	0.5
987.596	-1.5
988.322	0.5
989.047	-1.5
989.773	1.5
990.498	-0.5
991.224	1.5
991.949	1.5
992.674	1.5
993.399	2.5
994.124	-1.5
994.849	1.5
995.574	1.5
996.299	0.5
997.024	1.5
997.749	0.5
998.473	1.5
999.198	1.5
999.922	-1.5
1000.647	-1.5
1001.371	2.5
1002.095	1.5
1002.82	-1.5
1003.544	-3.5
1004.268	6.5
1004.992	3.5
1005.716	3.5
1006.439	3.5
1007.163	4.5
1007.887	6.5
1008.611	-1.5
1009.334	1.5
1010.058	1.5
1010.781	0.5
1011.504	-1.5
1012.228	1.5
1012.951	-0.5
1013.674	1.5
1014.397	-1.5
1015.12	1.5
