节点500_565_QEPB04081__509__09-58-53-116.txt的数据

Date: Thu Nov 13 09:58:53 CST 2025
User: PC
Spectrometer: QEPB0408
触发模式: 0
积分时间 (秒): 1.000000E-2
Scans to average: 1
启用暗噪声校正: true
启用非线性校正: false
滑动平均宽度: 0
X轴模式: Wavelengths
Number of Pixels in Spectrum: 1044
>>>>>Begin Spectral Data<<<<<
220.843	3.5
221.644	3.5
222.444	4.5
223.244	5.5
224.045	5.5
224.845	4.5
225.645	4.5
226.445	5.5
227.245	7.5
228.045	5.5
228.845	6.5
229.645	7.5
230.444	6.5
231.244	6.5
232.043	9.5
232.843	8.5
233.642	8.5
234.442	7.5
235.241	9.5
236.04	9.5
236.839	6.5
237.638	9.5
238.437	11.5
239.236	9.5
240.035	8.5
240.833	10.5
241.632	9.5
242.43	7.5
243.229	11.5
244.027	8.5
244.826	12.5
245.624	11.5
246.422	9.5
247.22	13.5
248.018	10.5
248.816	13.5
249.614	13.5
250.412	13.5
251.21	13.5
252.007	11.5
252.805	10.5
253.602	13.5
254.4	13.5
255.197	11.5
255.994	15.5
256.791	15.5
257.589	13.5
258.386	13.5
259.183	15.5
259.979	15.5
260.776	13.5
261.573	18.5
262.37	17.5
263.166	17.5
263.963	21.5
264.759	20.5
265.556	18.5
266.352	18.5
267.148	22.5
267.944	18.5
268.74	19.5
269.536	22.5
270.332	23.5
271.128	22.5
271.924	25.5
272.719	22.5
273.515	25.5
274.311	27.5
275.106	25.5
275.901	27.5
276.697	26.5
277.492	25.5
278.287	29.5
279.082	26.5
279.877	26.5
280.672	30.5
281.467	27.5
282.262	25.5
283.056	25.5
283.851	29.5
284.646	28.5
285.44	29.5
286.234	25.5
287.029	26.5
287.823	26.5
288.617	25.5
289.411	27.5
290.205	25.5
290.999	28.5
291.793	27.5
292.587	23.5
293.381	25.5
294.174	26.5
294.968	25.5
295.761	25.5
296.555	21.5
297.348	24.5
298.141	23.5
298.935	23.5
299.728	20.5
300.521	21.5
301.314	20.5
302.107	23.5
302.899	19.5
303.692	18.5
304.485	18.5
305.277	19.5
306.07	20.5
306.862	18.5
307.655	17.5
308.447	17.5
309.239	18.5
310.031	19.5
310.823	16.5
311.615	14.5
312.407	13.5
313.199	17.5
313.991	14.5
314.783	12.5
315.574	14.5
316.366	15.5
317.157	15.5
317.949	13.5
318.74	14.5
319.531	10.5
320.322	14.5
321.113	11.5
321.904	13.5
322.695	13.5
323.486	12.5
324.277	11.5
325.068	11.5
325.858	13.5
326.649	10.5
327.439	10.5
328.23	10.5
329.02	9.5
329.81	11.5
330.6	12.5
331.391	10.5
332.181	11.5
332.971	9.5
333.76	11.5
334.55	10.5
335.34	11.5
336.13	11.5
336.919	12.5
337.709	10.5
338.498	8.5
339.287	10.5
340.077	9.5
340.866	11.5
341.655	9.5
342.444	9.5
343.233	11.5
344.022	11.5
344.811	10.5
345.6	9.5
346.388	11.5
347.177	9.5
347.965	10.5
348.754	9.5
349.542	9.5
350.33	8.5
351.119	6.5
351.907	10.5
352.695	7.5
353.483	9.5
354.271	10.5
355.059	9.5
355.846	9.5
356.634	8.5
357.422	9.5
358.209	9.5
358.997	10.5
359.784	8.5
360.571	8.5
361.359	7.5
362.146	10.5
362.933	6.5
363.72	6.5
364.507	10.5
365.294	8.5
366.081	10.5
366.867	7.5
367.654	7.5
368.44	8.5
369.227	10.5
370.013	9.5
370.8	7.5
371.586	11.5
372.372	8.5
373.158	9.5
373.944	8.5
374.73	5.5
375.516	8.5
376.302	6.5
377.088	9.5
377.873	7.5
378.659	10.5
379.445	10.5
380.23	10.5
381.015	9.5
381.801	8.5
382.586	9.5
383.371	11.5
384.156	8.5
384.941	8.5
385.726	8.5
386.511	11.5
387.296	10.5
388.08	12.5
388.865	9.5
389.649	9.5
390.434	7.5
391.218	7.5
392.003	10.5
392.787	11.5
393.571	11.5
394.355	12.5
395.139	10.5
395.923	12.5
396.707	9.5
397.491	9.5
398.274	10.5
399.058	10.5
399.842	12.5
400.625	12.5
401.408	10.5
402.192	11.5
402.975	10.5
403.758	11.5
404.541	10.5
405.324	13.5
406.107	9.5
406.89	10.5
407.673	13.5
408.456	13.5
409.238	13.5
410.021	13.5
410.803	13.5
411.586	13.5
412.368	13.5
413.151	15.5
413.933	14.5
414.715	14.5
415.497	14.5
416.279	13.5
417.061	15.5
417.843	17.5
418.624	17.5
419.406	19.5
420.188	17.5
420.969	18.5
421.751	17.5
422.532	18.5
423.313	16.5
424.095	22.5
424.876	20.5
425.657	19.5
426.438	18.5
427.219	20.5
428	25.5
428.78	21.5
429.561	22.5
430.342	26.5
431.122	25.5
431.903	25.5
432.683	26.5
433.464	28.5
434.244	29.5
435.024	30.5
435.804	33.5
436.584	34.5
437.364	37.5
438.144	37.5
438.924	39.5
439.704	45.5
440.483	43.5
441.263	46.5
442.042	51.5
442.822	57.5
443.601	61.5
444.38	63.5
445.16	65.5
445.939	76.5
446.718	82.5
447.497	90.5
448.276	97.5
449.054	108.5
449.833	118.5
450.612	129.5
451.391	136.5
452.169	156.5
452.948	173.5
453.726	186.5
454.504	205.5
455.282	236.5
456.061	255.5
456.839	294.5
457.617	322.5
458.395	359.5
459.172	395.5
459.95	440.5
460.728	490.5
461.506	542.5
462.283	608.5
463.061	682.5
463.838	750.5
464.615	835.5
465.393	925.5
466.17	1028.5
466.947	1140.5
467.724	1275.5
468.501	1412.5
469.278	1556.5
470.055	1715.5
470.831	1893.5
471.608	2074.5
472.385	2305.5
473.161	2537.5
473.938	2773.5
474.714	3011.5
475.49	3310.5
476.266	3641.5
477.043	3969.5
477.819	4338.5
478.595	4732.5
479.371	5148.5
480.146	5620.5
480.922	6110.5
481.698	6633.5
482.473	7206.5
483.249	7817.5
484.024	8440.5
484.8	9193.5
485.575	9953.5
486.35	10802.5
487.126	11672.5
487.901	12589.5
488.676	13563.5
489.451	14643.5
490.225	15829.5
491	17000.5
491.775	18245.5
492.55	19491.5
493.324	20876.5
494.099	22269.5
494.873	23577.5
495.647	25153.5
496.422	26599.5
497.196	28002.5
497.97	29483.5
498.744	30884.5
499.518	32294.5
500.292	33480.5
501.066	34690.5
501.839	35748.5
502.613	36613.5
503.387	37364.5
504.16	38069.5
504.934	38427.5
505.707	38753.5
506.48	38885.5
507.253	38775.5
508.027	38398.5
508.8	38022.5
509.573	37343.5
510.346	36602.5
511.118	35689.5
511.891	34884.5
512.664	33869.5
513.437	32769.5
514.209	31590.5
514.982	30476.5
515.754	29397.5
516.526	28203.5
517.298	27112.5
518.071	26077.5
518.843	24939.5
519.615	23913.5
520.387	23067.5
521.159	22141.5
521.93	21308.5
522.702	20402.5
523.474	19626.5
524.245	18769.5
525.017	18041.5
525.788	17318.5
526.56	16546.5
527.331	15857.5
528.102	15145.5
528.873	14419.5
529.644	13689.5
530.415	13063.5
531.186	12402.5
531.957	11813.5
532.728	11244.5
533.498	10683.5
534.269	10095.5
535.039	9573.5
535.81	9101.5
536.58	8587.5
537.351	8135.5
538.121	7697.5
538.891	7270.5
539.661	6936.5
540.431	6566.5
541.201	6176.5
541.971	5862.5
542.741	5545.5
543.51	5250.5
544.28	5006.5
545.05	4799.5
545.819	4545.5
546.588	4307.5
547.358	4114.5
548.127	3897.5
548.896	3729.5
549.665	3509.5
550.434	3333.5
551.203	3198.5
551.972	3004.5
552.741	2847.5
553.51	2695.5
554.278	2544.5
555.047	2413.5
555.815	2276.5
556.584	2173.5
557.352	2034.5
558.121	1916.5
558.889	1824.5
559.657	1713.5
560.425	1624.5
561.193	1526.5
561.961	1448.5
562.729	1390.5
563.496	1299.5
564.264	1234.5
565.032	1171.5
565.799	1114.5
566.567	1053.5
567.334	986.5
568.101	936.5
568.869	886.5
569.636	846.5
570.403	784.5
571.17	747.5
571.937	715.5
572.704	661.5
573.471	615.5
574.237	585.5
575.004	555.5
575.771	521.5
576.537	498.5
577.303	473.5
578.07	447.5
578.836	414.5
579.602	390.5
580.368	365.5
581.134	359.5
581.9	334.5
582.666	323.5
583.432	300.5
584.198	286.5
584.964	271.5
585.729	258.5
586.495	242.5
587.26	229.5
588.025	221.5
588.791	207.5
589.556	197.5
590.321	189.5
591.086	172.5
591.851	170.5
592.616	162.5
593.381	151.5
594.146	149.5
594.911	137.5
595.675	133.5
596.44	126.5
597.204	117.5
597.969	113.5
598.733	109.5
599.497	103.5
600.261	102.5
601.025	95.5
601.79	92.5
602.553	94.5
603.317	82.5
604.081	83.5
604.845	76.5
605.609	74.5
606.372	74.5
607.136	67.5
607.899	65.5
608.662	61.5
609.426	63.5
610.189	62.5
610.952	58.5
611.715	60.5
612.478	50.5
613.241	55.5
614.004	46.5
614.767	44.5
615.529	46.5
616.292	43.5
617.055	44.5
617.817	41.5
618.579	39.5
619.342	40.5
620.104	37.5
620.866	34.5
621.628	34.5
622.39	34.5
623.152	35.5
623.914	34.5
624.676	31.5
625.438	30.5
626.199	26.5
626.961	26.5
627.722	27.5
628.484	24.5
629.245	23.5
630.006	25.5
630.768	26.5
631.529	23.5
632.29	19.5
633.051	19.5
633.812	20.5
634.573	20.5
635.333	18.5
636.094	20.5
636.855	16.5
637.615	19.5
638.376	16.5
639.136	17.5
639.896	16.5
640.657	17.5
641.417	16.5
642.177	13.5
642.937	18.5
643.697	16.5
644.457	15.5
645.216	14.5
645.976	14.5
646.736	13.5
647.495	13.5
648.255	15.5
649.014	15.5
649.774	14.5
650.533	12.5
651.292	11.5
652.051	13.5
652.81	10.5
653.569	13.5
654.328	11.5
655.087	11.5
655.846	12.5
656.604	11.5
657.363	10.5
658.121	11.5
658.88	10.5
659.638	10.5
660.397	10.5
661.155	10.5
661.913	7.5
662.671	10.5
663.429	8.5
664.187	7.5
664.945	9.5
665.703	9.5
666.46	9.5
667.218	9.5
667.976	8.5
668.733	6.5
669.49	9.5
670.248	8.5
671.005	9.5
671.762	6.5
672.519	7.5
673.276	8.5
674.033	8.5
674.79	8.5
675.547	8.5
676.304	7.5
677.06	5.5
677.817	6.5
678.574	7.5
679.33	7.5
680.086	8.5
680.843	6.5
681.599	9.5
682.355	7.5
683.111	9.5
683.867	6.5
684.623	5.5
685.379	9.5
686.135	5.5
686.89	9.5
687.646	7.5
688.402	7.5
689.157	5.5
689.912	7.5
690.668	9.5
691.423	5.5
692.178	7.5
692.933	5.5
693.688	6.5
694.443	8.5
695.198	5.5
695.953	8.5
696.708	5.5
697.462	8.5
698.217	7.5
698.972	8.5
699.726	5.5
700.48	4.5
701.235	5.5
701.989	8.5
702.743	8.5
703.497	7.5
704.251	5.5
705.005	5.5
705.759	5.5
706.513	8.5
707.266	5.5
708.02	7.5
708.774	7.5
709.527	6.5
710.28	10.5
711.034	6.5
711.787	6.5
712.54	9.5
713.293	6.5
714.046	5.5
714.799	5.5
715.552	7.5
716.305	7.5
717.058	6.5
717.81	8.5
718.563	8.5
719.315	5.5
720.068	7.5
720.82	7.5
721.573	7.5
722.325	8.5
723.077	7.5
723.829	7.5
724.581	6.5
725.333	10.5
726.085	7.5
726.836	7.5
727.588	8.5
728.34	5.5
729.091	9.5
729.843	5.5
730.594	7.5
731.346	6.5
732.097	5.5
732.848	5.5
733.599	8.5
734.35	9.5
735.101	8.5
735.852	8.5
736.603	7.5
737.354	7.5
738.104	9.5
738.855	6.5
739.605	8.5
740.356	7.5
741.106	9.5
741.856	9.5
742.607	7.5
743.357	7.5
744.107	7.5
744.857	9.5
745.607	7.5
746.357	9.5
747.106	9.5
747.856	10.5
748.606	10.5
749.355	9.5
750.105	8.5
750.854	8.5
751.603	9.5
752.353	8.5
753.102	11.5
753.851	7.5
754.6	7.5
755.349	8.5
756.098	9.5
756.847	10.5
757.595	12.5
758.344	8.5
759.093	9.5
759.841	9.5
760.589	10.5
761.338	9.5
762.086	12.5
762.834	9.5
763.582	9.5
764.331	11.5
765.079	10.5
765.826	10.5
766.574	11.5
767.322	11.5
768.07	10.5
768.817	12.5
769.565	14.5
770.312	10.5
771.06	11.5
771.807	12.5
772.554	11.5
773.302	9.5
774.049	12.5
774.796	13.5
775.543	12.5
776.29	13.5
777.036	15.5
777.783	13.5
778.53	11.5
779.276	11.5
780.023	12.5
780.769	14.5
781.516	13.5
782.262	14.5
783.008	11.5
783.754	15.5
784.5	12.5
785.246	13.5
785.992	16.5
786.738	13.5
787.484	13.5
788.23	11.5
788.975	10.5
789.721	15.5
790.466	11.5
791.212	11.5
791.957	13.5
792.702	11.5
793.447	14.5
794.193	10.5
794.938	13.5
795.683	11.5
796.427	12.5
797.172	11.5
797.917	10.5
798.662	13.5
799.406	10.5
800.151	12.5
800.895	12.5
801.64	11.5
802.384	13.5
803.128	8.5
803.872	6.5
804.616	9.5
805.36	10.5
806.104	9.5
806.848	8.5
807.592	9.5
808.336	9.5
809.079	9.5
809.823	9.5
810.566	7.5
811.31	8.5
812.053	7.5
812.796	9.5
813.539	9.5
814.283	9.5
815.026	5.5
815.769	7.5
816.511	7.5
817.254	9.5
817.997	7.5
818.74	7.5
819.482	8.5
820.225	6.5
820.967	6.5
821.71	6.5
822.452	9.5
823.194	7.5
823.936	5.5
824.678	8.5
825.42	8.5
826.162	8.5
826.904	6.5
827.646	8.5
828.388	5.5
829.129	9.5
829.871	2.5
830.612	3.5
831.354	6.5
832.095	6.5
832.836	8.5
833.577	5.5
834.319	5.5
835.06	7.5
835.801	3.5
836.542	7.5
837.282	3.5
838.023	7.5
838.764	3.5
839.504	7.5
840.245	6.5
840.985	4.5
841.726	3.5
842.466	4.5
843.206	6.5
843.946	6.5
844.687	5.5
845.427	4.5
846.166	4.5
846.906	4.5
847.646	1.5
848.386	6.5
849.125	5.5
849.865	7.5
850.605	4.5
851.344	2.5
852.083	4.5
852.823	4.5
853.562	1.5
854.301	2.5
855.04	3.5
855.779	3.5
856.518	2.5
857.257	3.5
857.995	3.5
858.734	5.5
859.473	2.5
860.211	5.5
860.95	3.5
861.688	4.5
862.426	3.5
863.165	2.5
863.903	3.5
864.641	2.5
865.379	5.5
866.117	2.5
866.855	2.5
867.593	2.5
868.33	2.5
869.068	3.5
869.806	0.5
870.543	3.5
871.28	2.5
872.018	2.5
872.755	1.5
873.492	2.5
874.229	3.5
874.967	1.5
875.703	1.5
876.44	3.5
877.177	3.5
877.914	1.5
878.651	1.5
879.387	1.5
880.124	2.5
880.86	2.5
881.597	0.5
882.333	3.5
883.069	1.5
883.806	2.5
884.542	3.5
885.278	3.5
886.014	2.5
886.749	1.5
887.485	3.5
888.221	3.5
888.957	1.5
889.692	-0.5
890.428	-0.5
891.163	1.5
891.899	1.5
892.634	1.5
893.369	2.5
894.104	3.5
894.839	1.5
895.574	2.5
896.309	1.5
897.044	2.5
897.779	3.5
898.514	0.5
899.248	1.5
899.983	2.5
900.717	1.5
901.452	2.5
902.186	1.5
902.92	0.5
903.654	1.5
904.389	2.5
905.123	1.5
905.857	1.5
906.59	0.5
907.324	-0.5
908.058	1.5
908.792	0.5
909.525	1.5
910.259	1.5
910.992	1.5
911.726	2.5
912.459	1.5
913.192	0.5
913.925	-0.5
914.658	1.5
915.391	0.5
916.124	1.5
916.857	0.5
917.59	-0.5
918.323	2.5
919.055	0.5
919.788	0.5
920.521	5.5
921.253	1.5
921.985	0.5
922.718	0.5
923.45	1.5
924.182	-0.5
924.914	1.5
925.646	0.5
926.378	1.5
927.11	2.5
927.841	0.5
928.573	2.5
929.305	1.5
930.036	0.5
930.768	3.5
931.499	2.5
932.23	0.5
932.962	-0.5
933.693	1.5
934.424	1.5
935.155	1.5
935.886	1.5
936.617	2.5
937.348	1.5
938.078	-0.5
938.809	0.5
939.54	0.5
940.27	0.5
941.001	1.5
941.731	2.5
942.461	2.5
943.191	-0.5
943.922	2.5
944.652	1.5
945.382	0.5
946.112	1.5
946.841	0.5
947.571	1.5
948.301	-0.5
949.031	1.5
949.76	-0.5
950.49	1.5
951.219	1.5
951.948	0.5
952.678	0.5
953.407	1.5
954.136	1.5
954.865	-1.5
955.594	2.5
956.323	-0.5
957.052	0.5
957.78	0.5
958.509	0.5
959.238	1.5
959.966	-0.5
960.695	1.5
961.423	0.5
962.151	-0.5
962.88	-1.5
963.608	0.5
964.336	3.5
965.064	1.5
965.792	2.5
966.52	2.5
967.247	1.5
967.975	1.5
968.703	3.5
969.43	0.5
970.158	-0.5
970.885	-0.5
971.613	-0.5
972.34	1.5
973.067	1.5
973.794	1.5
974.521	1.5
975.248	0.5
975.975	1.5
976.702	-0.5
977.429	1.5
978.156	-1.5
978.882	1.5
979.609	4.5
980.335	1.5
981.062	3.5
981.788	1.5
982.514	1.5
983.24	-0.5
983.967	1.5
984.693	-0.5
985.419	0.5
986.144	3.5
986.87	-0.5
987.596	1.5
988.322	-0.5
989.047	-0.5
989.773	0.5
990.498	3.5
991.224	0.5
991.949	0.5
992.674	2.5
993.399	1.5
994.124	1.5
994.849	0.5
995.574	2.5
996.299	0.5
997.024	-0.5
997.749	2.5
998.473	0.5
999.198	2.5
999.922	-0.5
1000.647	0.5
1001.371	3.5
1002.095	-0.5
1002.82	-1.5
1003.544	-1.5
1004.268	1.5
1004.992	3.5
1005.716	1.5
1006.439	1.5
1007.163	5.5
1007.887	4.5
1008.611	0.5
1009.334	1.5
1010.058	2.5
1010.781	-0.5
1011.504	-0.5
1012.228	1.5
1012.951	0.5
1013.674	0.5
1014.397	-0.5
1015.12	-0.5
