节点500_565_QEPB04081__467__09-58-11-212.txt的数据

Date: Thu Nov 13 09:58:11 CST 2025
User: PC
Spectrometer: QEPB0408
触发模式: 0
积分时间 (秒): 1.000000E-2
Scans to average: 1
启用暗噪声校正: true
启用非线性校正: false
滑动平均宽度: 0
X轴模式: Wavelengths
Number of Pixels in Spectrum: 1044
>>>>>Begin Spectral Data<<<<<
220.843	1.88
221.644	3.88
222.444	2.88
223.244	1.88
224.045	3.88
224.845	4.88
225.645	5.88
226.445	3.88
227.245	4.88
228.045	4.88
228.845	4.88
229.645	5.88
230.444	4.88
231.244	7.88
232.043	6.88
232.843	6.88
233.642	6.88
234.442	6.88
235.241	9.88
236.04	6.88
236.839	8.88
237.638	8.88
238.437	8.88
239.236	6.88
240.035	6.88
240.833	8.88
241.632	8.88
242.43	8.88
243.229	8.88
244.027	7.88
244.826	9.88
245.624	6.88
246.422	10.88
247.22	10.88
248.018	8.88
248.816	12.88
249.614	13.88
250.412	12.88
251.21	12.88
252.007	10.88
252.805	12.88
253.602	13.88
254.4	10.88
255.197	11.88
255.994	15.88
256.791	14.88
257.589	13.88
258.386	14.88
259.183	15.88
259.979	16.88
260.776	14.88
261.573	16.88
262.37	18.88
263.166	16.88
263.963	17.88
264.759	18.88
265.556	18.88
266.352	22.88
267.148	18.88
267.944	23.88
268.74	22.88
269.536	20.88
270.332	20.88
271.128	23.88
271.924	24.88
272.719	23.88
273.515	24.88
274.311	24.88
275.106	21.88
275.901	25.88
276.697	24.88
277.492	27.88
278.287	25.88
279.082	26.88
279.877	25.88
280.672	24.88
281.467	28.88
282.262	27.88
283.056	24.88
283.851	25.88
284.646	27.88
285.44	28.88
286.234	25.88
287.029	27.88
287.823	28.88
288.617	24.88
289.411	25.88
290.205	25.88
290.999	26.88
291.793	24.88
292.587	26.88
293.381	24.88
294.174	26.88
294.968	26.88
295.761	22.88
296.555	23.88
297.348	21.88
298.141	21.88
298.935	21.88
299.728	22.88
300.521	20.88
301.314	22.88
302.107	20.88
302.899	20.88
303.692	20.88
304.485	18.88
305.277	21.88
306.07	17.88
306.862	18.88
307.655	19.88
308.447	16.88
309.239	16.88
310.031	18.88
310.823	17.88
311.615	15.88
312.407	15.88
313.199	13.88
313.991	15.88
314.783	12.88
315.574	12.88
316.366	15.88
317.157	12.88
317.949	11.88
318.74	15.88
319.531	11.88
320.322	12.88
321.113	12.88
321.904	9.88
322.695	12.88
323.486	11.88
324.277	12.88
325.068	9.88
325.858	9.88
326.649	9.88
327.439	10.88
328.23	9.88
329.02	10.88
329.81	10.88
330.6	10.88
331.391	9.88
332.181	11.88
332.971	11.88
333.76	9.88
334.55	12.88
335.34	8.88
336.13	8.88
336.919	9.88
337.709	10.88
338.498	10.88
339.287	8.88
340.077	10.88
340.866	10.88
341.655	9.88
342.444	8.88
343.233	8.88
344.022	9.88
344.811	8.88
345.6	10.88
346.388	8.88
347.177	10.88
347.965	9.88
348.754	7.88
349.542	10.88
350.33	5.88
351.119	8.88
351.907	8.88
352.695	9.88
353.483	6.88
354.271	10.88
355.059	8.88
355.846	8.88
356.634	9.88
357.422	5.88
358.209	7.88
358.997	10.88
359.784	10.88
360.571	9.88
361.359	4.88
362.146	6.88
362.933	6.88
363.72	9.88
364.507	7.88
365.294	6.88
366.081	4.88
366.867	7.88
367.654	6.88
368.44	6.88
369.227	8.88
370.013	7.88
370.8	7.88
371.586	9.88
372.372	6.88
373.158	8.88
373.944	6.88
374.73	7.88
375.516	8.88
376.302	5.88
377.088	7.88
377.873	7.88
378.659	6.88
379.445	8.88
380.23	8.88
381.015	8.88
381.801	6.88
382.586	6.88
383.371	6.88
384.156	6.88
384.941	7.88
385.726	4.88
386.511	9.88
387.296	7.88
388.08	10.88
388.865	10.88
389.649	8.88
390.434	9.88
391.218	10.88
392.003	8.88
392.787	7.88
393.571	10.88
394.355	12.88
395.139	10.88
395.923	9.88
396.707	8.88
397.491	10.88
398.274	11.88
399.058	9.88
399.842	10.88
400.625	8.88
401.408	11.88
402.192	11.88
402.975	10.88
403.758	10.88
404.541	11.88
405.324	13.88
406.107	13.88
406.89	12.88
407.673	11.88
408.456	13.88
409.238	12.88
410.021	11.88
410.803	10.88
411.586	9.88
412.368	14.88
413.151	14.88
413.933	13.88
414.715	16.88
415.497	13.88
416.279	15.88
417.061	14.88
417.843	14.88
418.624	17.88
419.406	16.88
420.188	16.88
420.969	15.88
421.751	18.88
422.532	14.88
423.313	17.88
424.095	20.88
424.876	21.88
425.657	19.88
426.438	17.88
427.219	18.88
428	22.88
428.78	18.88
429.561	24.88
430.342	23.88
431.122	24.88
431.903	24.88
432.683	24.88
433.464	25.88
434.244	28.88
435.024	28.88
435.804	29.88
436.584	34.88
437.364	34.88
438.144	34.88
438.924	40.88
439.704	41.88
440.483	43.88
441.263	47.88
442.042	52.88
442.822	52.88
443.601	59.88
444.38	63.88
445.16	66.88
445.939	72.88
446.718	79.88
447.497	88.88
448.276	94.88
449.054	107.88
449.833	120.88
450.612	122.88
451.391	138.88
452.169	154.88
452.948	173.88
453.726	188.88
454.504	205.88
455.282	231.88
456.061	258.88
456.839	284.88
457.617	317.88
458.395	341.88
459.172	389.88
459.95	438.88
460.728	489.88
461.506	546.88
462.283	598.88
463.061	674.88
463.838	742.88
464.615	839.88
465.393	921.88
466.17	1026.88
466.947	1141.88
467.724	1258.88
468.501	1413.88
469.278	1539.88
470.055	1712.88
470.831	1879.88
471.608	2074.88
472.385	2272.88
473.161	2514.88
473.938	2773.88
474.714	3034.88
475.49	3324.88
476.266	3647.88
477.043	3990.88
477.819	4379.88
478.595	4755.88
479.371	5190.88
480.146	5669.88
480.922	6152.88
481.698	6702.88
482.473	7292.88
483.249	7891.88
484.024	8579.88
484.8	9348.88
485.575	10126.88
486.35	10872.88
487.126	11850.88
487.901	12787.88
488.676	13844.88
489.451	14927.88
490.225	16146.88
491	17292.88
491.775	18547.88
492.55	19899.88
493.324	21223.88
494.099	22658.88
494.873	24101.88
495.647	25621.88
496.422	27169.88
497.196	28596.88
497.97	30047.88
498.744	31525.88
499.518	32807.88
500.292	34074.88
501.066	35272.88
501.839	36301.88
502.613	37202.88
503.387	37989.88
504.16	38649.88
504.934	39051.88
505.707	39332.88
506.48	39330.88
507.253	39202.88
508.027	38767.88
508.8	38244.88
509.573	37631.88
510.346	36832.88
511.118	35955.88
511.891	34998.88
512.664	33954.88
513.437	32814.88
514.209	31632.88
514.982	30525.88
515.754	29323.88
516.526	28276.88
517.298	27089.88
518.071	26014.88
518.843	24955.88
519.615	23924.88
520.387	22994.88
521.159	22200.88
521.93	21250.88
522.702	20409.88
523.474	19480.88
524.245	18829.88
525.017	18027.88
525.788	17252.88
526.56	16543.88
527.331	15741.88
528.102	15109.88
528.873	14368.88
529.644	13700.88
530.415	13013.88
531.186	12352.88
531.957	11792.88
532.728	11194.88
533.498	10637.88
534.269	10040.88
535.039	9514.88
535.81	9065.88
536.58	8527.88
537.351	8139.88
538.121	7649.88
538.891	7229.88
539.661	6897.88
540.431	6498.88
541.201	6135.88
541.971	5841.88
542.741	5511.88
543.51	5224.88
544.28	4961.88
545.05	4753.88
545.819	4507.88
546.588	4280.88
547.358	4061.88
548.127	3864.88
548.896	3666.88
549.665	3508.88
550.434	3331.88
551.203	3151.88
551.972	2996.88
552.741	2819.88
553.51	2677.88
554.278	2532.88
555.047	2386.88
555.815	2269.88
556.584	2144.88
557.352	2034.88
558.121	1907.88
558.889	1802.88
559.657	1682.88
560.425	1599.88
561.193	1517.88
561.961	1442.88
562.729	1365.88
563.496	1287.88
564.264	1220.88
565.032	1163.88
565.799	1088.88
566.567	1033.88
567.334	988.88
568.101	923.88
568.869	861.88
569.636	821.88
570.403	785.88
571.17	749.88
571.937	707.88
572.704	658.88
573.471	612.88
574.237	588.88
575.004	556.88
575.771	522.88
576.537	496.88
577.303	459.88
578.07	428.88
578.836	409.88
579.602	399.88
580.368	371.88
581.134	350.88
581.9	331.88
582.666	308.88
583.432	296.88
584.198	284.88
584.964	269.88
585.729	249.88
586.495	238.88
587.26	234.88
588.025	218.88
588.791	200.88
589.556	190.88
590.321	185.88
591.086	175.88
591.851	164.88
592.616	159.88
593.381	152.88
594.146	143.88
594.911	136.88
595.675	132.88
596.44	126.88
597.204	117.88
597.969	114.88
598.733	112.88
599.497	104.88
600.261	102.88
601.025	94.88
601.79	91.88
602.553	89.88
603.317	84.88
604.081	79.88
604.845	78.88
605.609	74.88
606.372	72.88
607.136	68.88
607.899	67.88
608.662	62.88
609.426	58.88
610.189	53.88
610.952	53.88
611.715	52.88
612.478	52.88
613.241	46.88
614.004	47.88
614.767	49.88
615.529	44.88
616.292	42.88
617.055	40.88
617.817	40.88
618.579	41.88
619.342	39.88
620.104	37.88
620.866	34.88
621.628	34.88
622.39	33.88
623.152	30.88
623.914	31.88
624.676	30.88
625.438	30.88
626.199	25.88
626.961	28.88
627.722	25.88
628.484	26.88
629.245	25.88
630.006	23.88
630.768	24.88
631.529	22.88
632.29	21.88
633.051	20.88
633.812	21.88
634.573	19.88
635.333	20.88
636.094	20.88
636.855	18.88
637.615	17.88
638.376	18.88
639.136	18.88
639.896	17.88
640.657	18.88
641.417	13.88
642.177	13.88
642.937	12.88
643.697	14.88
644.457	13.88
645.216	13.88
645.976	12.88
646.736	11.88
647.495	13.88
648.255	13.88
649.014	10.88
649.774	14.88
650.533	12.88
651.292	13.88
652.051	10.88
652.81	9.88
653.569	9.88
654.328	10.88
655.087	10.88
655.846	11.88
656.604	10.88
657.363	11.88
658.121	10.88
658.88	7.88
659.638	10.88
660.397	10.88
661.155	6.88
661.913	8.88
662.671	7.88
663.429	10.88
664.187	9.88
664.945	7.88
665.703	5.88
666.46	9.88
667.218	10.88
667.976	5.88
668.733	7.88
669.49	7.88
670.248	8.88
671.005	7.88
671.762	8.88
672.519	5.88
673.276	6.88
674.033	8.88
674.79	8.88
675.547	5.88
676.304	6.88
677.06	8.88
677.817	9.88
678.574	8.88
679.33	6.88
680.086	5.88
680.843	5.88
681.599	8.88
682.355	4.88
683.111	5.88
683.867	7.88
684.623	7.88
685.379	7.88
686.135	5.88
686.89	6.88
687.646	6.88
688.402	6.88
689.157	6.88
689.912	5.88
690.668	8.88
691.423	5.88
692.178	6.88
692.933	4.88
693.688	5.88
694.443	2.88
695.198	5.88
695.953	5.88
696.708	3.88
697.462	6.88
698.217	4.88
698.972	4.88
699.726	4.88
700.48	5.88
701.235	6.88
701.989	5.88
702.743	6.88
703.497	4.88
704.251	8.88
705.005	6.88
705.759	6.88
706.513	6.88
707.266	5.88
708.02	3.88
708.774	5.88
709.527	4.88
710.28	4.88
711.034	6.88
711.787	4.88
712.54	6.88
713.293	7.88
714.046	8.88
714.799	5.88
715.552	5.88
716.305	8.88
717.058	3.88
717.81	8.88
718.563	3.88
719.315	6.88
720.068	6.88
720.82	6.88
721.573	6.88
722.325	2.88
723.077	6.88
723.829	4.88
724.581	4.88
725.333	6.88
726.085	4.88
726.836	9.88
727.588	3.88
728.34	6.88
729.091	7.88
729.843	4.88
730.594	4.88
731.346	8.88
732.097	7.88
732.848	6.88
733.599	6.88
734.35	7.88
735.101	6.88
735.852	8.88
736.603	8.88
737.354	6.88
738.104	8.88
738.855	7.88
739.605	6.88
740.356	6.88
741.106	6.88
741.856	6.88
742.607	8.88
743.357	6.88
744.107	11.88
744.857	8.88
745.607	8.88
746.357	10.88
747.106	4.88
747.856	6.88
748.606	7.88
749.355	8.88
750.105	6.88
750.854	9.88
751.603	8.88
752.353	7.88
753.102	8.88
753.851	8.88
754.6	8.88
755.349	7.88
756.098	8.88
756.847	8.88
757.595	9.88
758.344	12.88
759.093	8.88
759.841	8.88
760.589	7.88
761.338	8.88
762.086	10.88
762.834	8.88
763.582	10.88
764.331	11.88
765.079	7.88
765.826	9.88
766.574	8.88
767.322	10.88
768.07	12.88
768.817	11.88
769.565	12.88
770.312	10.88
771.06	12.88
771.807	12.88
772.554	7.88
773.302	12.88
774.049	8.88
774.796	12.88
775.543	12.88
776.29	11.88
777.036	11.88
777.783	10.88
778.53	10.88
779.276	11.88
780.023	11.88
780.769	11.88
781.516	12.88
782.262	14.88
783.008	10.88
783.754	12.88
784.5	10.88
785.246	12.88
785.992	11.88
786.738	13.88
787.484	13.88
788.23	11.88
788.975	9.88
789.721	12.88
790.466	9.88
791.212	9.88
791.957	10.88
792.702	12.88
793.447	10.88
794.193	13.88
794.938	9.88
795.683	13.88
796.427	10.88
797.172	11.88
797.917	11.88
798.662	8.88
799.406	10.88
800.151	12.88
800.895	10.88
801.64	7.88
802.384	8.88
803.128	8.88
803.872	10.88
804.616	11.88
805.36	8.88
806.104	9.88
806.848	7.88
807.592	8.88
808.336	8.88
809.079	9.88
809.823	8.88
810.566	8.88
811.31	10.88
812.053	7.88
812.796	7.88
813.539	9.88
814.283	6.88
815.026	6.88
815.769	8.88
816.511	3.88
817.254	4.88
817.997	5.88
818.74	6.88
819.482	8.88
820.225	7.88
820.967	4.88
821.71	4.88
822.452	5.88
823.194	3.88
823.936	7.88
824.678	7.88
825.42	6.88
826.162	4.88
826.904	7.88
827.646	4.88
828.388	5.88
829.129	6.88
829.871	4.88
830.612	4.88
831.354	7.88
832.095	3.88
832.836	5.88
833.577	4.88
834.319	4.88
835.06	4.88
835.801	4.88
836.542	3.88
837.282	5.88
838.023	6.88
838.764	6.88
839.504	5.88
840.245	6.88
840.985	5.88
841.726	1.88
842.466	3.88
843.206	3.88
843.946	3.88
844.687	3.88
845.427	2.88
846.166	4.88
846.906	2.88
847.646	2.88
848.386	2.88
849.125	3.88
849.865	4.88
850.605	4.88
851.344	0.88
852.083	3.88
852.823	2.88
853.562	2.88
854.301	3.88
855.04	4.88
855.779	1.88
856.518	4.88
857.257	3.88
857.995	3.88
858.734	4.88
859.473	6.88
860.211	3.88
860.95	0.88
861.688	1.88
862.426	2.88
863.165	2.88
863.903	3.88
864.641	1.88
865.379	0.88
866.117	1.88
866.855	2.88
867.593	0.88
868.33	-0.12
869.068	0.88
869.806	2.88
870.543	-0.12
871.28	0.88
872.018	0.88
872.755	4.88
873.492	1.88
874.229	1.88
874.967	3.88
875.703	1.88
876.44	1.88
877.177	1.88
877.914	3.88
878.651	3.88
879.387	-0.12
880.124	2.88
880.86	1.88
881.597	-0.12
882.333	0.88
883.069	0.88
883.806	1.88
884.542	0.88
885.278	0.88
886.014	0.88
886.749	1.88
887.485	0.88
888.221	0.88
888.957	1.88
889.692	-0.12
890.428	1.88
891.163	0.88
891.899	-1.12
892.634	1.88
893.369	-1.12
894.104	-2.12
894.839	-1.12
895.574	-0.12
896.309	0.88
897.044	0.88
897.779	1.88
898.514	2.88
899.248	0.88
899.983	-0.12
900.717	2.88
901.452	1.88
902.186	1.88
902.92	0.88
903.654	1.88
904.389	0.88
905.123	0.88
905.857	0.88
906.59	1.88
907.324	-0.12
908.058	-0.12
908.792	-0.12
909.525	-1.12
910.259	-0.12
910.992	2.88
911.726	0.88
912.459	-0.12
913.192	1.88
913.925	-2.12
914.658	-0.12
915.391	0.88
916.124	-0.12
916.857	-2.12
917.59	0.88
918.323	0.88
919.055	-0.12
919.788	-0.12
920.521	-1.12
921.253	1.88
921.985	0.88
922.718	1.88
923.45	-0.12
924.182	0.88
924.914	-0.12
925.646	-0.12
926.378	-1.12
927.11	2.88
927.841	-0.12
928.573	-1.12
929.305	1.88
930.036	1.88
930.768	0.88
931.499	-0.12
932.23	0.88
932.962	0.88
933.693	1.88
934.424	-0.12
935.155	-0.12
935.886	0.88
936.617	-0.12
937.348	-1.12
938.078	-1.12
938.809	0.88
939.54	-0.12
940.27	-0.12
941.001	-0.12
941.731	-0.12
942.461	-1.12
943.191	-2.12
943.922	0.88
944.652	-0.12
945.382	0.88
946.112	0.88
946.841	-2.12
947.571	-0.12
948.301	1.88
949.031	1.88
949.76	-1.12
950.49	0.88
951.219	-0.12
951.948	-0.12
952.678	-1.12
953.407	0.88
954.136	0.88
954.865	-0.12
955.594	-0.12
956.323	-1.12
957.052	0.88
957.78	-1.12
958.509	-0.12
959.238	-1.12
959.966	0.88
960.695	-0.12
961.423	0.88
962.151	0.88
962.88	-1.12
963.608	0.88
964.336	-2.12
965.064	0.88
965.792	-0.12
966.52	-0.12
967.247	-0.12
967.975	0.88
968.703	1.88
969.43	0.88
970.158	-0.12
970.885	-0.12
971.613	-1.12
972.34	-2.12
973.067	0.88
973.794	0.88
974.521	-1.12
975.248	-1.12
975.975	-1.12
976.702	0.88
977.429	0.88
978.156	2.88
978.882	0.88
979.609	-0.12
980.335	-1.12
981.062	-0.12
981.788	0.88
982.514	0.88
983.24	0.88
983.967	3.88
984.693	0.88
985.419	-0.12
986.144	-1.12
986.87	-0.12
987.596	0.88
988.322	0.88
989.047	-0.12
989.773	-2.12
990.498	-1.12
991.224	1.88
991.949	-1.12
992.674	2.88
993.399	-0.12
994.124	1.88
994.849	1.88
995.574	0.88
996.299	-0.12
997.024	-2.12
997.749	-1.12
998.473	0.88
999.198	-0.12
999.922	-0.12
1000.647	-0.12
1001.371	1.88
1002.095	-2.12
1002.82	-1.12
1003.544	0.88
1004.268	1.88
1004.992	1.88
1005.716	3.88
1006.439	3.88
1007.163	4.88
1007.887	-0.12
1008.611	0.88
1009.334	-0.12
1010.058	-0.12
1010.781	0.88
1011.504	2.88
1012.228	-0.12
1012.951	-0.12
1013.674	-0.12
1014.397	0.88
1015.12	-0.12
