节点500_565_QEPB04081__465__09-58-09-224.txt的数据

Date: Thu Nov 13 09:58:09 CST 2025
User: PC
Spectrometer: QEPB0408
触发模式: 0
积分时间 (秒): 1.000000E-2
Scans to average: 1
启用暗噪声校正: true
启用非线性校正: false
滑动平均宽度: 0
X轴模式: Wavelengths
Number of Pixels in Spectrum: 1044
>>>>>Begin Spectral Data<<<<<
220.843	2.88
221.644	4.88
222.444	1.88
223.244	3.88
224.045	3.88
224.845	3.88
225.645	3.88
226.445	4.88
227.245	3.88
228.045	4.88
228.845	6.88
229.645	5.88
230.444	6.88
231.244	6.88
232.043	7.88
232.843	5.88
233.642	5.88
234.442	9.88
235.241	3.88
236.04	7.88
236.839	8.88
237.638	6.88
238.437	8.88
239.236	8.88
240.035	8.88
240.833	9.88
241.632	9.88
242.43	5.88
243.229	10.88
244.027	10.88
244.826	8.88
245.624	10.88
246.422	8.88
247.22	11.88
248.018	12.88
248.816	12.88
249.614	12.88
250.412	10.88
251.21	13.88
252.007	14.88
252.805	11.88
253.602	13.88
254.4	12.88
255.197	13.88
255.994	15.88
256.791	12.88
257.589	12.88
258.386	14.88
259.183	14.88
259.979	18.88
260.776	18.88
261.573	15.88
262.37	18.88
263.166	18.88
263.963	21.88
264.759	20.88
265.556	18.88
266.352	19.88
267.148	19.88
267.944	21.88
268.74	20.88
269.536	23.88
270.332	20.88
271.128	24.88
271.924	22.88
272.719	25.88
273.515	24.88
274.311	22.88
275.106	28.88
275.901	22.88
276.697	26.88
277.492	28.88
278.287	25.88
279.082	25.88
279.877	24.88
280.672	28.88
281.467	27.88
282.262	26.88
283.056	26.88
283.851	26.88
284.646	27.88
285.44	24.88
286.234	27.88
287.029	27.88
287.823	29.88
288.617	24.88
289.411	24.88
290.205	26.88
290.999	27.88
291.793	28.88
292.587	22.88
293.381	23.88
294.174	25.88
294.968	24.88
295.761	24.88
296.555	22.88
297.348	22.88
298.141	22.88
298.935	22.88
299.728	23.88
300.521	20.88
301.314	22.88
302.107	18.88
302.899	18.88
303.692	16.88
304.485	16.88
305.277	20.88
306.07	17.88
306.862	18.88
307.655	20.88
308.447	18.88
309.239	16.88
310.031	16.88
310.823	15.88
311.615	15.88
312.407	16.88
313.199	14.88
313.991	14.88
314.783	12.88
315.574	14.88
316.366	13.88
317.157	13.88
317.949	13.88
318.74	14.88
319.531	10.88
320.322	9.88
321.113	13.88
321.904	12.88
322.695	11.88
323.486	13.88
324.277	10.88
325.068	11.88
325.858	9.88
326.649	10.88
327.439	12.88
328.23	9.88
329.02	10.88
329.81	10.88
330.6	10.88
331.391	9.88
332.181	9.88
332.971	10.88
333.76	12.88
334.55	11.88
335.34	9.88
336.13	10.88
336.919	10.88
337.709	8.88
338.498	10.88
339.287	11.88
340.077	5.88
340.866	10.88
341.655	8.88
342.444	8.88
343.233	10.88
344.022	7.88
344.811	10.88
345.6	8.88
346.388	9.88
347.177	10.88
347.965	9.88
348.754	8.88
349.542	8.88
350.33	9.88
351.119	6.88
351.907	12.88
352.695	10.88
353.483	7.88
354.271	6.88
355.059	9.88
355.846	8.88
356.634	8.88
357.422	9.88
358.209	8.88
358.997	8.88
359.784	7.88
360.571	8.88
361.359	8.88
362.146	10.88
362.933	8.88
363.72	6.88
364.507	9.88
365.294	8.88
366.081	8.88
366.867	8.88
367.654	7.88
368.44	6.88
369.227	8.88
370.013	7.88
370.8	7.88
371.586	6.88
372.372	9.88
373.158	6.88
373.944	8.88
374.73	7.88
375.516	8.88
376.302	7.88
377.088	9.88
377.873	5.88
378.659	8.88
379.445	8.88
380.23	8.88
381.015	8.88
381.801	7.88
382.586	6.88
383.371	8.88
384.156	9.88
384.941	6.88
385.726	9.88
386.511	8.88
387.296	11.88
388.08	10.88
388.865	7.88
389.649	8.88
390.434	9.88
391.218	9.88
392.003	10.88
392.787	8.88
393.571	10.88
394.355	9.88
395.139	8.88
395.923	9.88
396.707	11.88
397.491	13.88
398.274	10.88
399.058	10.88
399.842	9.88
400.625	11.88
401.408	12.88
402.192	10.88
402.975	12.88
403.758	8.88
404.541	10.88
405.324	11.88
406.107	9.88
406.89	12.88
407.673	9.88
408.456	16.88
409.238	14.88
410.021	14.88
410.803	14.88
411.586	12.88
412.368	11.88
413.151	14.88
413.933	13.88
414.715	13.88
415.497	14.88
416.279	14.88
417.061	15.88
417.843	15.88
418.624	14.88
419.406	18.88
420.188	17.88
420.969	18.88
421.751	15.88
422.532	17.88
423.313	18.88
424.095	16.88
424.876	20.88
425.657	18.88
426.438	20.88
427.219	18.88
428	17.88
428.78	24.88
429.561	24.88
430.342	21.88
431.122	26.88
431.903	24.88
432.683	28.88
433.464	30.88
434.244	31.88
435.024	29.88
435.804	31.88
436.584	33.88
437.364	33.88
438.144	39.88
438.924	38.88
439.704	43.88
440.483	43.88
441.263	48.88
442.042	50.88
442.822	57.88
443.601	60.88
444.38	62.88
445.16	70.88
445.939	72.88
446.718	80.88
447.497	89.88
448.276	99.88
449.054	105.88
449.833	112.88
450.612	123.88
451.391	138.88
452.169	150.88
452.948	170.88
453.726	186.88
454.504	205.88
455.282	229.88
456.061	259.88
456.839	284.88
457.617	316.88
458.395	347.88
459.172	392.88
459.95	437.88
460.728	487.88
461.506	537.88
462.283	598.88
463.061	672.88
463.838	744.88
464.615	845.88
465.393	922.88
466.17	1027.88
466.947	1143.88
467.724	1260.88
468.501	1403.88
469.278	1549.88
470.055	1697.88
470.831	1890.88
471.608	2084.88
472.385	2296.88
473.161	2515.88
473.938	2764.88
474.714	3039.88
475.49	3314.88
476.266	3666.88
477.043	3998.88
477.819	4369.88
478.595	4768.88
479.371	5210.88
480.146	5636.88
480.922	6191.88
481.698	6739.88
482.473	7306.88
483.249	7927.88
484.024	8581.88
484.8	9324.88
485.575	10154.88
486.35	10943.88
487.126	11844.88
487.901	12796.88
488.676	13892.88
489.451	14925.88
490.225	16141.88
491	17366.88
491.775	18594.88
492.55	19926.88
493.324	21361.88
494.099	22679.88
494.873	24242.88
495.647	25709.88
496.422	27203.88
497.196	28676.88
497.97	30155.88
498.744	31590.88
499.518	32891.88
500.292	34176.88
501.066	35385.88
501.839	36446.88
502.613	37347.88
503.387	38053.88
504.16	38816.88
504.934	39184.88
505.707	39407.88
506.48	39443.88
507.253	39377.88
508.027	38909.88
508.8	38326.88
509.573	37781.88
510.346	36870.88
511.118	35973.88
511.891	35195.88
512.664	34072.88
513.437	32897.88
514.209	31746.88
514.982	30564.88
515.754	29483.88
516.526	28262.88
517.298	27112.88
518.071	26037.88
518.843	24990.88
519.615	23937.88
520.387	23017.88
521.159	22177.88
521.93	21261.88
522.702	20381.88
523.474	19572.88
524.245	18806.88
525.017	18072.88
525.788	17283.88
526.56	16531.88
527.331	15812.88
528.102	15122.88
528.873	14398.88
529.644	13723.88
530.415	12982.88
531.186	12357.88
531.957	11789.88
532.728	11236.88
533.498	10650.88
534.269	10067.88
535.039	9524.88
535.81	9021.88
536.58	8576.88
537.351	8094.88
538.121	7639.88
538.891	7230.88
539.661	6878.88
540.431	6531.88
541.201	6150.88
541.971	5877.88
542.741	5522.88
543.51	5237.88
544.28	4977.88
545.05	4721.88
545.819	4512.88
546.588	4272.88
547.358	4066.88
548.127	3869.88
548.896	3693.88
549.665	3509.88
550.434	3330.88
551.203	3132.88
551.972	2999.88
552.741	2812.88
553.51	2676.88
554.278	2547.88
555.047	2392.88
555.815	2262.88
556.584	2160.88
557.352	2040.88
558.121	1905.88
558.889	1814.88
559.657	1692.88
560.425	1603.88
561.193	1528.88
561.961	1449.88
562.729	1365.88
563.496	1304.88
564.264	1206.88
565.032	1168.88
565.799	1098.88
566.567	1037.88
567.334	974.88
568.101	912.88
568.869	868.88
569.636	822.88
570.403	776.88
571.17	747.88
571.937	687.88
572.704	653.88
573.471	623.88
574.237	581.88
575.004	551.88
575.771	523.88
576.537	485.88
577.303	469.88
578.07	436.88
578.836	412.88
579.602	377.88
580.368	366.88
581.134	341.88
581.9	332.88
582.666	316.88
583.432	289.88
584.198	285.88
584.964	272.88
585.729	255.88
586.495	245.88
587.26	226.88
588.025	217.88
588.791	207.88
589.556	191.88
590.321	186.88
591.086	175.88
591.851	166.88
592.616	156.88
593.381	148.88
594.146	143.88
594.911	135.88
595.675	133.88
596.44	121.88
597.204	116.88
597.969	114.88
598.733	105.88
599.497	105.88
600.261	97.88
601.025	98.88
601.79	89.88
602.553	86.88
603.317	82.88
604.081	81.88
604.845	79.88
605.609	72.88
606.372	71.88
607.136	67.88
607.899	62.88
608.662	66.88
609.426	59.88
610.189	58.88
610.952	53.88
611.715	57.88
612.478	53.88
613.241	50.88
614.004	48.88
614.767	47.88
615.529	43.88
616.292	40.88
617.055	41.88
617.817	39.88
618.579	38.88
619.342	40.88
620.104	37.88
620.866	34.88
621.628	35.88
622.39	34.88
623.152	32.88
623.914	31.88
624.676	30.88
625.438	30.88
626.199	28.88
626.961	24.88
627.722	27.88
628.484	23.88
629.245	24.88
630.006	21.88
630.768	23.88
631.529	22.88
632.29	19.88
633.051	22.88
633.812	23.88
634.573	18.88
635.333	21.88
636.094	17.88
636.855	17.88
637.615	16.88
638.376	19.88
639.136	17.88
639.896	16.88
640.657	15.88
641.417	14.88
642.177	17.88
642.937	13.88
643.697	12.88
644.457	13.88
645.216	13.88
645.976	17.88
646.736	12.88
647.495	14.88
648.255	10.88
649.014	11.88
649.774	11.88
650.533	11.88
651.292	12.88
652.051	12.88
652.81	11.88
653.569	8.88
654.328	13.88
655.087	10.88
655.846	11.88
656.604	9.88
657.363	8.88
658.121	11.88
658.88	9.88
659.638	8.88
660.397	12.88
661.155	10.88
661.913	9.88
662.671	10.88
663.429	9.88
664.187	6.88
664.945	9.88
665.703	7.88
666.46	7.88
667.218	7.88
667.976	7.88
668.733	7.88
669.49	7.88
670.248	4.88
671.005	7.88
671.762	7.88
672.519	7.88
673.276	9.88
674.033	6.88
674.79	7.88
675.547	7.88
676.304	6.88
677.06	6.88
677.817	4.88
678.574	5.88
679.33	5.88
680.086	8.88
680.843	8.88
681.599	5.88
682.355	9.88
683.111	4.88
683.867	8.88
684.623	6.88
685.379	8.88
686.135	5.88
686.89	6.88
687.646	8.88
688.402	6.88
689.157	6.88
689.912	3.88
690.668	6.88
691.423	7.88
692.178	5.88
692.933	7.88
693.688	6.88
694.443	6.88
695.198	6.88
695.953	8.88
696.708	4.88
697.462	4.88
698.217	6.88
698.972	4.88
699.726	7.88
700.48	7.88
701.235	5.88
701.989	6.88
702.743	4.88
703.497	4.88
704.251	5.88
705.005	7.88
705.759	4.88
706.513	6.88
707.266	7.88
708.02	6.88
708.774	4.88
709.527	8.88
710.28	7.88
711.034	5.88
711.787	5.88
712.54	8.88
713.293	5.88
714.046	6.88
714.799	5.88
715.552	6.88
716.305	6.88
717.058	7.88
717.81	7.88
718.563	4.88
719.315	6.88
720.068	4.88
720.82	6.88
721.573	6.88
722.325	6.88
723.077	4.88
723.829	4.88
724.581	5.88
725.333	4.88
726.085	7.88
726.836	6.88
727.588	8.88
728.34	7.88
729.091	6.88
729.843	8.88
730.594	4.88
731.346	7.88
732.097	6.88
732.848	6.88
733.599	7.88
734.35	5.88
735.101	7.88
735.852	6.88
736.603	8.88
737.354	7.88
738.104	6.88
738.855	5.88
739.605	11.88
740.356	5.88
741.106	6.88
741.856	8.88
742.607	6.88
743.357	9.88
744.107	6.88
744.857	8.88
745.607	8.88
746.357	6.88
747.106	8.88
747.856	8.88
748.606	10.88
749.355	9.88
750.105	9.88
750.854	7.88
751.603	8.88
752.353	9.88
753.102	6.88
753.851	6.88
754.6	8.88
755.349	7.88
756.098	8.88
756.847	9.88
757.595	8.88
758.344	5.88
759.093	9.88
759.841	8.88
760.589	11.88
761.338	9.88
762.086	10.88
762.834	12.88
763.582	9.88
764.331	9.88
765.079	8.88
765.826	11.88
766.574	9.88
767.322	12.88
768.07	13.88
768.817	10.88
769.565	10.88
770.312	12.88
771.06	11.88
771.807	10.88
772.554	10.88
773.302	11.88
774.049	12.88
774.796	9.88
775.543	11.88
776.29	13.88
777.036	11.88
777.783	13.88
778.53	13.88
779.276	13.88
780.023	8.88
780.769	12.88
781.516	14.88
782.262	12.88
783.008	12.88
783.754	13.88
784.5	12.88
785.246	12.88
785.992	13.88
786.738	12.88
787.484	11.88
788.23	13.88
788.975	14.88
789.721	11.88
790.466	12.88
791.212	13.88
791.957	13.88
792.702	9.88
793.447	15.88
794.193	9.88
794.938	12.88
795.683	13.88
796.427	11.88
797.172	11.88
797.917	9.88
798.662	9.88
799.406	11.88
800.151	11.88
800.895	8.88
801.64	9.88
802.384	7.88
803.128	8.88
803.872	8.88
804.616	11.88
805.36	8.88
806.104	7.88
806.848	9.88
807.592	8.88
808.336	6.88
809.079	8.88
809.823	6.88
810.566	9.88
811.31	8.88
812.053	8.88
812.796	6.88
813.539	6.88
814.283	9.88
815.026	4.88
815.769	5.88
816.511	8.88
817.254	6.88
817.997	8.88
818.74	7.88
819.482	6.88
820.225	4.88
820.967	6.88
821.71	6.88
822.452	5.88
823.194	5.88
823.936	4.88
824.678	4.88
825.42	3.88
826.162	8.88
826.904	3.88
827.646	4.88
828.388	8.88
829.129	4.88
829.871	6.88
830.612	3.88
831.354	5.88
832.095	6.88
832.836	6.88
833.577	6.88
834.319	3.88
835.06	2.88
835.801	4.88
836.542	4.88
837.282	6.88
838.023	4.88
838.764	6.88
839.504	3.88
840.245	5.88
840.985	4.88
841.726	2.88
842.466	2.88
843.206	2.88
843.946	7.88
844.687	6.88
845.427	3.88
846.166	3.88
846.906	2.88
847.646	3.88
848.386	4.88
849.125	4.88
849.865	3.88
850.605	4.88
851.344	4.88
852.083	5.88
852.823	2.88
853.562	0.88
854.301	3.88
855.04	4.88
855.779	4.88
856.518	3.88
857.257	2.88
857.995	3.88
858.734	2.88
859.473	2.88
860.211	3.88
860.95	4.88
861.688	4.88
862.426	1.88
863.165	2.88
863.903	2.88
864.641	2.88
865.379	2.88
866.117	1.88
866.855	4.88
867.593	2.88
868.33	0.88
869.068	2.88
869.806	0.88
870.543	0.88
871.28	0.88
872.018	2.88
872.755	2.88
873.492	3.88
874.229	2.88
874.967	1.88
875.703	2.88
876.44	1.88
877.177	0.88
877.914	3.88
878.651	-0.12
879.387	1.88
880.124	-1.12
880.86	1.88
881.597	2.88
882.333	1.88
883.069	0.88
883.806	1.88
884.542	1.88
885.278	0.88
886.014	1.88
886.749	1.88
887.485	-1.12
888.221	1.88
888.957	0.88
889.692	0.88
890.428	1.88
891.163	2.88
891.899	1.88
892.634	1.88
893.369	1.88
894.104	-0.12
894.839	1.88
895.574	1.88
896.309	1.88
897.044	0.88
897.779	0.88
898.514	0.88
899.248	-0.12
899.983	0.88
900.717	0.88
901.452	0.88
902.186	0.88
902.92	0.88
903.654	-2.12
904.389	-0.12
905.123	2.88
905.857	0.88
906.59	2.88
907.324	0.88
908.058	0.88
908.792	1.88
909.525	-0.12
910.259	0.88
910.992	1.88
911.726	-1.12
912.459	0.88
913.192	0.88
913.925	1.88
914.658	2.88
915.391	1.88
916.124	-2.12
916.857	-0.12
917.59	1.88
918.323	-0.12
919.055	0.88
919.788	0.88
920.521	0.88
921.253	1.88
921.985	2.88
922.718	-0.12
923.45	-2.12
924.182	0.88
924.914	0.88
925.646	1.88
926.378	-0.12
927.11	0.88
927.841	0.88
928.573	-0.12
929.305	-1.12
930.036	0.88
930.768	1.88
931.499	0.88
932.23	-0.12
932.962	0.88
933.693	-1.12
934.424	2.88
935.155	-0.12
935.886	0.88
936.617	-1.12
937.348	1.88
938.078	1.88
938.809	0.88
939.54	-0.12
940.27	0.88
941.001	0.88
941.731	0.88
942.461	1.88
943.191	-0.12
943.922	-0.12
944.652	-0.12
945.382	1.88
946.112	0.88
946.841	-0.12
947.571	-2.12
948.301	1.88
949.031	-0.12
949.76	0.88
950.49	0.88
951.219	0.88
951.948	-0.12
952.678	1.88
953.407	0.88
954.136	1.88
954.865	0.88
955.594	0.88
956.323	0.88
957.052	-0.12
957.78	0.88
958.509	-1.12
959.238	0.88
959.966	-0.12
960.695	-1.12
961.423	-0.12
962.151	0.88
962.88	0.88
963.608	-0.12
964.336	0.88
965.064	0.88
965.792	0.88
966.52	-1.12
967.247	-2.12
967.975	0.88
968.703	-2.12
969.43	1.88
970.158	-1.12
970.885	-2.12
971.613	-0.12
972.34	-0.12
973.067	3.88
973.794	-1.12
974.521	-0.12
975.248	-0.12
975.975	1.88
976.702	-2.12
977.429	-1.12
978.156	-1.12
978.882	0.88
979.609	-0.12
980.335	-1.12
981.062	0.88
981.788	-0.12
982.514	-1.12
983.24	-2.12
983.967	2.88
984.693	0.88
985.419	-1.12
986.144	0.88
986.87	-0.12
987.596	1.88
988.322	-1.12
989.047	-0.12
989.773	-0.12
990.498	-1.12
991.224	2.88
991.949	1.88
992.674	0.88
993.399	1.88
994.124	-1.12
994.849	-2.12
995.574	0.88
996.299	1.88
997.024	-0.12
997.749	1.88
998.473	-0.12
999.198	-0.12
999.922	2.88
1000.647	-1.12
1001.371	2.88
1002.095	0.88
1002.82	-1.12
1003.544	-0.12
1004.268	3.88
1004.992	1.88
1005.716	1.88
1006.439	2.88
1007.163	7.88
1007.887	3.88
1008.611	1.88
1009.334	0.88
1010.058	-2.12
1010.781	1.88
1011.504	1.88
1012.228	1.88
1012.951	-0.12
1013.674	1.88
1014.397	-3.12
1015.12	-1.12
