节点500_565_QEPB04081__304__09-55-28-514.txt的数据

Date: Thu Nov 13 09:55:28 CST 2025
User: PC
Spectrometer: QEPB0408
触发模式: 0
积分时间 (秒): 1.000000E-2
Scans to average: 1
启用暗噪声校正: true
启用非线性校正: false
滑动平均宽度: 0
X轴模式: Wavelengths
Number of Pixels in Spectrum: 1044
>>>>>Begin Spectral Data<<<<<
220.843	4.62
221.644	4.62
222.444	4.62
223.244	7.62
224.045	4.62
224.845	3.62
225.645	6.62
226.445	6.62
227.245	6.62
228.045	6.62
228.845	4.62
229.645	7.62
230.444	5.62
231.244	6.62
232.043	6.62
232.843	7.62
233.642	8.62
234.442	7.62
235.241	8.62
236.04	6.62
236.839	8.62
237.638	9.62
238.437	5.62
239.236	9.62
240.035	7.62
240.833	11.62
241.632	7.62
242.43	7.62
243.229	9.62
244.027	12.62
244.826	9.62
245.624	8.62
246.422	11.62
247.22	7.62
248.018	14.62
248.816	11.62
249.614	12.62
250.412	9.62
251.21	14.62
252.007	12.62
252.805	12.62
253.602	16.62
254.4	12.62
255.197	15.62
255.994	13.62
256.791	17.62
257.589	16.62
258.386	16.62
259.183	17.62
259.979	16.62
260.776	17.62
261.573	18.62
262.37	17.62
263.166	20.62
263.963	21.62
264.759	20.62
265.556	22.62
266.352	18.62
267.148	20.62
267.944	22.62
268.74	23.62
269.536	22.62
270.332	23.62
271.128	23.62
271.924	28.62
272.719	26.62
273.515	26.62
274.311	25.62
275.106	25.62
275.901	27.62
276.697	26.62
277.492	28.62
278.287	28.62
279.082	28.62
279.877	28.62
280.672	28.62
281.467	30.62
282.262	27.62
283.056	28.62
283.851	28.62
284.646	32.62
285.44	28.62
286.234	27.62
287.029	28.62
287.823	30.62
288.617	26.62
289.411	28.62
290.205	26.62
290.999	24.62
291.793	23.62
292.587	22.62
293.381	25.62
294.174	30.62
294.968	24.62
295.761	21.62
296.555	23.62
297.348	24.62
298.141	25.62
298.935	23.62
299.728	19.62
300.521	25.62
301.314	19.62
302.107	20.62
302.899	17.62
303.692	20.62
304.485	21.62
305.277	20.62
306.07	18.62
306.862	18.62
307.655	21.62
308.447	17.62
309.239	17.62
310.031	14.62
310.823	15.62
311.615	13.62
312.407	16.62
313.199	13.62
313.991	15.62
314.783	12.62
315.574	10.62
316.366	12.62
317.157	13.62
317.949	14.62
318.74	11.62
319.531	13.62
320.322	10.62
321.113	12.62
321.904	13.62
322.695	10.62
323.486	12.62
324.277	12.62
325.068	10.62
325.858	11.62
326.649	9.62
327.439	11.62
328.23	10.62
329.02	11.62
329.81	10.62
330.6	7.62
331.391	9.62
332.181	8.62
332.971	9.62
333.76	10.62
334.55	10.62
335.34	9.62
336.13	7.62
336.919	10.62
337.709	9.62
338.498	11.62
339.287	9.62
340.077	10.62
340.866	11.62
341.655	8.62
342.444	13.62
343.233	9.62
344.022	8.62
344.811	6.62
345.6	8.62
346.388	12.62
347.177	10.62
347.965	10.62
348.754	10.62
349.542	9.62
350.33	9.62
351.119	6.62
351.907	8.62
352.695	11.62
353.483	10.62
354.271	6.62
355.059	10.62
355.846	10.62
356.634	10.62
357.422	6.62
358.209	10.62
358.997	8.62
359.784	8.62
360.571	9.62
361.359	8.62
362.146	8.62
362.933	8.62
363.72	6.62
364.507	8.62
365.294	7.62
366.081	10.62
366.867	6.62
367.654	10.62
368.44	7.62
369.227	8.62
370.013	6.62
370.8	10.62
371.586	8.62
372.372	6.62
373.158	8.62
373.944	6.62
374.73	8.62
375.516	8.62
376.302	9.62
377.088	6.62
377.873	5.62
378.659	7.62
379.445	8.62
380.23	8.62
381.015	7.62
381.801	9.62
382.586	7.62
383.371	8.62
384.156	6.62
384.941	8.62
385.726	8.62
386.511	7.62
387.296	7.62
388.08	8.62
388.865	8.62
389.649	10.62
390.434	9.62
391.218	10.62
392.003	8.62
392.787	9.62
393.571	10.62
394.355	8.62
395.139	7.62
395.923	9.62
396.707	13.62
397.491	8.62
398.274	9.62
399.058	12.62
399.842	10.62
400.625	10.62
401.408	11.62
402.192	13.62
402.975	10.62
403.758	13.62
404.541	11.62
405.324	12.62
406.107	13.62
406.89	12.62
407.673	14.62
408.456	10.62
409.238	13.62
410.021	10.62
410.803	14.62
411.586	17.62
412.368	12.62
413.151	13.62
413.933	13.62
414.715	15.62
415.497	12.62
416.279	17.62
417.061	12.62
417.843	15.62
418.624	16.62
419.406	16.62
420.188	18.62
420.969	17.62
421.751	19.62
422.532	19.62
423.313	19.62
424.095	20.62
424.876	18.62
425.657	22.62
426.438	22.62
427.219	21.62
428	21.62
428.78	24.62
429.561	25.62
430.342	21.62
431.122	28.62
431.903	26.62
432.683	24.62
433.464	28.62
434.244	29.62
435.024	30.62
435.804	32.62
436.584	35.62
437.364	36.62
438.144	39.62
438.924	40.62
439.704	41.62
440.483	43.62
441.263	47.62
442.042	53.62
442.822	55.62
443.601	58.62
444.38	64.62
445.16	67.62
445.939	69.62
446.718	81.62
447.497	85.62
448.276	90.62
449.054	100.62
449.833	110.62
450.612	119.62
451.391	133.62
452.169	143.62
452.948	166.62
453.726	171.62
454.504	202.62
455.282	212.62
456.061	243.62
456.839	271.62
457.617	305.62
458.395	336.62
459.172	379.62
459.95	424.62
460.728	462.62
461.506	529.62
462.283	586.62
463.061	654.62
463.838	714.62
464.615	807.62
465.393	904.62
466.17	998.62
466.947	1113.62
467.724	1237.62
468.501	1379.62
469.278	1522.62
470.055	1685.62
470.831	1884.62
471.608	2078.62
472.385	2305.62
473.161	2516.62
473.938	2803.62
474.714	3066.62
475.49	3366.62
476.266	3703.62
477.043	4074.62
477.819	4454.62
478.595	4876.62
479.371	5348.62
480.146	5853.62
480.922	6381.62
481.698	6984.62
482.473	7583.62
483.249	8243.62
484.024	8997.62
484.8	9783.62
485.575	10682.62
486.35	11608.62
487.126	12582.62
487.901	13628.62
488.676	14795.62
489.451	16004.62
490.225	17307.62
491	18565.62
491.775	20016.62
492.55	21513.62
493.324	23013.62
494.099	24458.62
494.873	26189.62
495.647	27763.62
496.422	29431.62
497.196	31002.62
497.97	32501.62
498.744	33964.62
499.518	35347.62
500.292	36672.62
501.066	37831.62
501.839	38978.62
502.613	39717.62
503.387	40466.62
504.16	41044.62
504.934	41286.62
505.707	41288.62
506.48	41123.62
507.253	40824.62
508.027	40308.62
508.8	39562.62
509.573	38671.62
510.346	37650.62
511.118	36555.62
511.891	35562.62
512.664	34332.62
513.437	33110.62
514.209	31827.62
514.982	30609.62
515.754	29341.62
516.526	28159.62
517.298	26938.62
518.071	25844.62
518.843	24838.62
519.615	23802.62
520.387	22863.62
521.159	22026.62
521.93	21107.62
522.702	20197.62
523.474	19392.62
524.245	18599.62
525.017	17936.62
525.788	17075.62
526.56	16310.62
527.331	15575.62
528.102	14854.62
528.873	14165.62
529.644	13442.62
530.415	12800.62
531.186	12105.62
531.957	11510.62
532.728	10936.62
533.498	10326.62
534.269	9780.62
535.039	9260.62
535.81	8768.62
536.58	8331.62
537.351	7860.62
538.121	7392.62
538.891	7049.62
539.661	6643.62
540.431	6297.62
541.201	5964.62
541.971	5641.62
542.741	5343.62
543.51	5092.62
544.28	4802.62
545.05	4599.62
545.819	4374.62
546.588	4165.62
547.358	3916.62
548.127	3741.62
548.896	3576.62
549.665	3376.62
550.434	3207.62
551.203	3036.62
551.972	2878.62
552.741	2734.62
553.51	2576.62
554.278	2445.62
555.047	2295.62
555.815	2164.62
556.584	2058.62
557.352	1946.62
558.121	1831.62
558.889	1730.62
559.657	1634.62
560.425	1537.62
561.193	1452.62
561.961	1378.62
562.729	1313.62
563.496	1235.62
564.264	1173.62
565.032	1116.62
565.799	1053.62
566.567	983.62
567.334	941.62
568.101	889.62
568.869	828.62
569.636	789.62
570.403	747.62
571.17	702.62
571.937	683.62
572.704	631.62
573.471	586.62
574.237	553.62
575.004	523.62
575.771	497.62
576.537	461.62
577.303	447.62
578.07	421.62
578.836	392.62
579.602	372.62
580.368	353.62
581.134	332.62
581.9	311.62
582.666	302.62
583.432	284.62
584.198	273.62
584.964	260.62
585.729	243.62
586.495	232.62
587.26	216.62
588.025	203.62
588.791	199.62
589.556	184.62
590.321	178.62
591.086	172.62
591.851	165.62
592.616	155.62
593.381	145.62
594.146	144.62
594.911	132.62
595.675	126.62
596.44	118.62
597.204	118.62
597.969	106.62
598.733	105.62
599.497	103.62
600.261	95.62
601.025	90.62
601.79	87.62
602.553	83.62
603.317	81.62
604.081	81.62
604.845	76.62
605.609	73.62
606.372	71.62
607.136	63.62
607.899	64.62
608.662	58.62
609.426	58.62
610.189	57.62
610.952	55.62
611.715	53.62
612.478	50.62
613.241	51.62
614.004	46.62
614.767	43.62
615.529	40.62
616.292	42.62
617.055	40.62
617.817	41.62
618.579	38.62
619.342	34.62
620.104	34.62
620.866	32.62
621.628	31.62
622.39	28.62
623.152	28.62
623.914	31.62
624.676	28.62
625.438	26.62
626.199	25.62
626.961	24.62
627.722	25.62
628.484	26.62
629.245	26.62
630.006	22.62
630.768	24.62
631.529	20.62
632.29	25.62
633.051	19.62
633.812	20.62
634.573	17.62
635.333	20.62
636.094	19.62
636.855	17.62
637.615	17.62
638.376	17.62
639.136	13.62
639.896	16.62
640.657	14.62
641.417	18.62
642.177	14.62
642.937	16.62
643.697	12.62
644.457	13.62
645.216	12.62
645.976	13.62
646.736	13.62
647.495	13.62
648.255	12.62
649.014	12.62
649.774	11.62
650.533	12.62
651.292	9.62
652.051	11.62
652.81	8.62
653.569	12.62
654.328	12.62
655.087	9.62
655.846	11.62
656.604	12.62
657.363	7.62
658.121	10.62
658.88	9.62
659.638	8.62
660.397	10.62
661.155	7.62
661.913	7.62
662.671	9.62
663.429	9.62
664.187	10.62
664.945	6.62
665.703	8.62
666.46	8.62
667.218	7.62
667.976	8.62
668.733	7.62
669.49	9.62
670.248	6.62
671.005	8.62
671.762	7.62
672.519	9.62
673.276	9.62
674.033	7.62
674.79	7.62
675.547	6.62
676.304	8.62
677.06	8.62
677.817	6.62
678.574	6.62
679.33	8.62
680.086	7.62
680.843	5.62
681.599	7.62
682.355	4.62
683.111	7.62
683.867	8.62
684.623	8.62
685.379	7.62
686.135	5.62
686.89	6.62
687.646	7.62
688.402	7.62
689.157	6.62
689.912	3.62
690.668	8.62
691.423	6.62
692.178	6.62
692.933	7.62
693.688	6.62
694.443	7.62
695.198	4.62
695.953	3.62
696.708	6.62
697.462	7.62
698.217	4.62
698.972	6.62
699.726	6.62
700.48	5.62
701.235	6.62
701.989	4.62
702.743	5.62
703.497	4.62
704.251	4.62
705.005	6.62
705.759	4.62
706.513	6.62
707.266	4.62
708.02	4.62
708.774	6.62
709.527	7.62
710.28	5.62
711.034	4.62
711.787	6.62
712.54	4.62
713.293	4.62
714.046	6.62
714.799	4.62
715.552	4.62
716.305	9.62
717.058	6.62
717.81	4.62
718.563	5.62
719.315	4.62
720.068	6.62
720.82	4.62
721.573	6.62
722.325	6.62
723.077	5.62
723.829	5.62
724.581	7.62
725.333	6.62
726.085	7.62
726.836	8.62
727.588	4.62
728.34	8.62
729.091	9.62
729.843	8.62
730.594	6.62
731.346	6.62
732.097	7.62
732.848	6.62
733.599	4.62
734.35	5.62
735.101	6.62
735.852	6.62
736.603	6.62
737.354	7.62
738.104	7.62
738.855	8.62
739.605	8.62
740.356	5.62
741.106	9.62
741.856	8.62
742.607	8.62
743.357	8.62
744.107	8.62
744.857	8.62
745.607	8.62
746.357	9.62
747.106	6.62
747.856	6.62
748.606	10.62
749.355	7.62
750.105	8.62
750.854	7.62
751.603	9.62
752.353	6.62
753.102	10.62
753.851	7.62
754.6	11.62
755.349	8.62
756.098	9.62
756.847	9.62
757.595	10.62
758.344	8.62
759.093	13.62
759.841	9.62
760.589	12.62
761.338	10.62
762.086	14.62
762.834	9.62
763.582	10.62
764.331	7.62
765.079	11.62
765.826	9.62
766.574	12.62
767.322	11.62
768.07	9.62
768.817	12.62
769.565	12.62
770.312	12.62
771.06	13.62
771.807	12.62
772.554	11.62
773.302	12.62
774.049	11.62
774.796	11.62
775.543	11.62
776.29	11.62
777.036	9.62
777.783	12.62
778.53	12.62
779.276	13.62
780.023	12.62
780.769	14.62
781.516	13.62
782.262	11.62
783.008	12.62
783.754	13.62
784.5	14.62
785.246	10.62
785.992	11.62
786.738	14.62
787.484	12.62
788.23	12.62
788.975	10.62
789.721	12.62
790.466	15.62
791.212	13.62
791.957	12.62
792.702	11.62
793.447	11.62
794.193	12.62
794.938	10.62
795.683	13.62
796.427	12.62
797.172	13.62
797.917	11.62
798.662	12.62
799.406	9.62
800.151	10.62
800.895	8.62
801.64	10.62
802.384	11.62
803.128	9.62
803.872	10.62
804.616	8.62
805.36	8.62
806.104	12.62
806.848	10.62
807.592	7.62
808.336	5.62
809.079	8.62
809.823	8.62
810.566	8.62
811.31	8.62
812.053	10.62
812.796	8.62
813.539	8.62
814.283	6.62
815.026	6.62
815.769	9.62
816.511	8.62
817.254	6.62
817.997	6.62
818.74	7.62
819.482	5.62
820.225	6.62
820.967	5.62
821.71	5.62
822.452	5.62
823.194	5.62
823.936	6.62
824.678	8.62
825.42	5.62
826.162	4.62
826.904	4.62
827.646	4.62
828.388	5.62
829.129	6.62
829.871	4.62
830.612	5.62
831.354	5.62
832.095	5.62
832.836	5.62
833.577	6.62
834.319	6.62
835.06	8.62
835.801	5.62
836.542	4.62
837.282	6.62
838.023	4.62
838.764	6.62
839.504	4.62
840.245	6.62
840.985	3.62
841.726	6.62
842.466	2.62
843.206	3.62
843.946	3.62
844.687	4.62
845.427	4.62
846.166	6.62
846.906	4.62
847.646	3.62
848.386	4.62
849.125	4.62
849.865	2.62
850.605	3.62
851.344	4.62
852.083	3.62
852.823	3.62
853.562	2.62
854.301	4.62
855.04	4.62
855.779	4.62
856.518	1.62
857.257	2.62
857.995	4.62
858.734	5.62
859.473	1.62
860.211	0.62
860.95	3.62
861.688	3.62
862.426	3.62
863.165	2.62
863.903	3.62
864.641	0.62
865.379	2.62
866.117	1.62
866.855	4.62
867.593	1.62
868.33	1.62
869.068	3.62
869.806	0.62
870.543	4.62
871.28	2.62
872.018	0.62
872.755	2.62
873.492	4.62
874.229	1.62
874.967	1.62
875.703	2.62
876.44	1.62
877.177	0.62
877.914	1.62
878.651	0.62
879.387	2.62
880.124	-0.38
880.86	-0.38
881.597	0.62
882.333	4.62
883.069	1.62
883.806	0.62
884.542	0.62
885.278	0.62
886.014	1.62
886.749	0.62
887.485	1.62
888.221	1.62
888.957	0.62
889.692	3.62
890.428	0.62
891.163	2.62
891.899	0.62
892.634	1.62
893.369	-0.38
894.104	1.62
894.839	0.62
895.574	-2.38
896.309	2.62
897.044	1.62
897.779	0.62
898.514	1.62
899.248	-0.38
899.983	-0.38
900.717	-1.38
901.452	0.62
902.186	1.62
902.92	1.62
903.654	-0.38
904.389	1.62
905.123	-0.38
905.857	2.62
906.59	3.62
907.324	0.62
908.058	0.62
908.792	2.62
909.525	0.62
910.259	1.62
910.992	0.62
911.726	2.62
912.459	-1.38
913.192	-0.38
913.925	-1.38
914.658	2.62
915.391	0.62
916.124	2.62
916.857	0.62
917.59	1.62
918.323	0.62
919.055	2.62
919.788	1.62
920.521	-0.38
921.253	0.62
921.985	1.62
922.718	0.62
923.45	2.62
924.182	-1.38
924.914	2.62
925.646	2.62
926.378	-1.38
927.11	0.62
927.841	-1.38
928.573	-1.38
929.305	0.62
930.036	-0.38
930.768	-0.38
931.499	-0.38
932.23	1.62
932.962	-0.38
933.693	0.62
934.424	-0.38
935.155	0.62
935.886	0.62
936.617	-3.38
937.348	1.62
938.078	-0.38
938.809	0.62
939.54	-1.38
940.27	-0.38
941.001	0.62
941.731	0.62
942.461	1.62
943.191	-1.38
943.922	-0.38
944.652	0.62
945.382	1.62
946.112	0.62
946.841	0.62
947.571	-0.38
948.301	-1.38
949.031	1.62
949.76	-0.38
950.49	0.62
951.219	1.62
951.948	-2.38
952.678	0.62
953.407	-0.38
954.136	-1.38
954.865	0.62
955.594	-0.38
956.323	0.62
957.052	0.62
957.78	-1.38
958.509	0.62
959.238	-1.38
959.966	-3.38
960.695	1.62
961.423	2.62
962.151	0.62
962.88	2.62
963.608	0.62
964.336	-1.38
965.064	-0.38
965.792	1.62
966.52	0.62
967.247	2.62
967.975	-0.38
968.703	-0.38
969.43	-0.38
970.158	-2.38
970.885	-1.38
971.613	-0.38
972.34	1.62
973.067	0.62
973.794	-1.38
974.521	1.62
975.248	0.62
975.975	1.62
976.702	-1.38
977.429	0.62
978.156	0.62
978.882	-0.38
979.609	0.62
980.335	2.62
981.062	0.62
981.788	1.62
982.514	0.62
983.24	0.62
983.967	-0.38
984.693	-0.38
985.419	1.62
986.144	0.62
986.87	-2.38
987.596	-0.38
988.322	1.62
989.047	-0.38
989.773	0.62
990.498	-0.38
991.224	1.62
991.949	0.62
992.674	0.62
993.399	-2.38
994.124	-0.38
994.849	2.62
995.574	0.62
996.299	-0.38
997.024	-0.38
997.749	-0.38
998.473	1.62
999.198	-1.38
999.922	0.62
1000.647	0.62
1001.371	2.62
1002.095	-1.38
1002.82	0.62
1003.544	-0.38
1004.268	2.62
1004.992	1.62
1005.716	1.62
1006.439	3.62
1007.163	4.62
1007.887	5.62
1008.611	0.62
1009.334	0.62
1010.058	1.62
1010.781	0.62
1011.504	2.62
1012.228	-0.38
1012.951	0.62
1013.674	-1.38
1014.397	-1.38
1015.12	0.62
