节点500_565_QEPB04081__623__10-00-46-948.txt的数据

Date: Thu Nov 13 10:00:46 CST 2025
User: PC
Spectrometer: QEPB0408
触发模式: 0
积分时间 (秒): 1.000000E-2
Scans to average: 1
启用暗噪声校正: true
启用非线性校正: false
滑动平均宽度: 0
X轴模式: Wavelengths
Number of Pixels in Spectrum: 1044
>>>>>Begin Spectral Data<<<<<
220.843	3.62
221.644	3.62
222.444	1.62
223.244	6.62
224.045	2.62
224.845	4.62
225.645	5.62
226.445	5.62
227.245	0.62
228.045	3.62
228.845	7.62
229.645	4.62
230.444	7.62
231.244	4.62
232.043	5.62
232.843	5.62
233.642	6.62
234.442	7.62
235.241	5.62
236.04	5.62
236.839	4.62
237.638	5.62
238.437	8.62
239.236	6.62
240.035	8.62
240.833	7.62
241.632	9.62
242.43	7.62
243.229	6.62
244.027	8.62
244.826	8.62
245.624	7.62
246.422	8.62
247.22	9.62
248.018	11.62
248.816	13.62
249.614	9.62
250.412	12.62
251.21	12.62
252.007	8.62
252.805	11.62
253.602	11.62
254.4	12.62
255.197	13.62
255.994	13.62
256.791	14.62
257.589	12.62
258.386	14.62
259.183	13.62
259.979	14.62
260.776	14.62
261.573	14.62
262.37	16.62
263.166	15.62
263.963	17.62
264.759	18.62
265.556	19.62
266.352	16.62
267.148	22.62
267.944	18.62
268.74	19.62
269.536	22.62
270.332	20.62
271.128	25.62
271.924	21.62
272.719	24.62
273.515	22.62
274.311	22.62
275.106	23.62
275.901	25.62
276.697	25.62
277.492	23.62
278.287	24.62
279.082	24.62
279.877	26.62
280.672	27.62
281.467	24.62
282.262	26.62
283.056	25.62
283.851	25.62
284.646	24.62
285.44	26.62
286.234	24.62
287.029	25.62
287.823	26.62
288.617	24.62
289.411	26.62
290.205	24.62
290.999	23.62
291.793	26.62
292.587	25.62
293.381	22.62
294.174	22.62
294.968	24.62
295.761	21.62
296.555	22.62
297.348	20.62
298.141	18.62
298.935	24.62
299.728	21.62
300.521	20.62
301.314	18.62
302.107	20.62
302.899	17.62
303.692	17.62
304.485	17.62
305.277	18.62
306.07	16.62
306.862	17.62
307.655	18.62
308.447	16.62
309.239	19.62
310.031	16.62
310.823	15.62
311.615	15.62
312.407	14.62
313.199	13.62
313.991	16.62
314.783	13.62
315.574	12.62
316.366	14.62
317.157	13.62
317.949	13.62
318.74	13.62
319.531	12.62
320.322	11.62
321.113	12.62
321.904	11.62
322.695	14.62
323.486	11.62
324.277	12.62
325.068	10.62
325.858	8.62
326.649	8.62
327.439	8.62
328.23	10.62
329.02	8.62
329.81	12.62
330.6	9.62
331.391	7.62
332.181	8.62
332.971	9.62
333.76	9.62
334.55	11.62
335.34	8.62
336.13	9.62
336.919	8.62
337.709	8.62
338.498	9.62
339.287	8.62
340.077	7.62
340.866	13.62
341.655	10.62
342.444	9.62
343.233	7.62
344.022	6.62
344.811	8.62
345.6	8.62
346.388	8.62
347.177	7.62
347.965	8.62
348.754	11.62
349.542	8.62
350.33	9.62
351.119	6.62
351.907	9.62
352.695	8.62
353.483	6.62
354.271	9.62
355.059	9.62
355.846	8.62
356.634	8.62
357.422	8.62
358.209	7.62
358.997	10.62
359.784	8.62
360.571	6.62
361.359	10.62
362.146	7.62
362.933	9.62
363.72	7.62
364.507	8.62
365.294	8.62
366.081	8.62
366.867	6.62
367.654	5.62
368.44	7.62
369.227	8.62
370.013	8.62
370.8	6.62
371.586	6.62
372.372	6.62
373.158	5.62
373.944	8.62
374.73	9.62
375.516	8.62
376.302	10.62
377.088	7.62
377.873	8.62
378.659	7.62
379.445	5.62
380.23	6.62
381.015	7.62
381.801	6.62
382.586	6.62
383.371	6.62
384.156	6.62
384.941	7.62
385.726	8.62
386.511	9.62
387.296	9.62
388.08	9.62
388.865	9.62
389.649	7.62
390.434	7.62
391.218	7.62
392.003	8.62
392.787	9.62
393.571	10.62
394.355	8.62
395.139	8.62
395.923	9.62
396.707	10.62
397.491	10.62
398.274	9.62
399.058	7.62
399.842	12.62
400.625	10.62
401.408	12.62
402.192	8.62
402.975	10.62
403.758	11.62
404.541	12.62
405.324	11.62
406.107	10.62
406.89	13.62
407.673	11.62
408.456	12.62
409.238	11.62
410.021	15.62
410.803	15.62
411.586	13.62
412.368	11.62
413.151	11.62
413.933	14.62
414.715	15.62
415.497	14.62
416.279	14.62
417.061	15.62
417.843	13.62
418.624	13.62
419.406	13.62
420.188	17.62
420.969	15.62
421.751	17.62
422.532	17.62
423.313	17.62
424.095	16.62
424.876	18.62
425.657	20.62
426.438	20.62
427.219	16.62
428	20.62
428.78	22.62
429.561	19.62
430.342	24.62
431.122	22.62
431.903	28.62
432.683	27.62
433.464	26.62
434.244	28.62
435.024	28.62
435.804	32.62
436.584	32.62
437.364	35.62
438.144	39.62
438.924	40.62
439.704	42.62
440.483	43.62
441.263	51.62
442.042	51.62
442.822	57.62
443.601	59.62
444.38	65.62
445.16	68.62
445.939	75.62
446.718	79.62
447.497	88.62
448.276	98.62
449.054	105.62
449.833	119.62
450.612	128.62
451.391	142.62
452.169	159.62
452.948	175.62
453.726	192.62
454.504	212.62
455.282	239.62
456.061	268.62
456.839	300.62
457.617	328.62
458.395	364.62
459.172	404.62
459.95	454.62
460.728	510.62
461.506	562.62
462.283	626.62
463.061	697.62
463.838	763.62
464.615	853.62
465.393	938.62
466.17	1053.62
466.947	1161.62
467.724	1280.62
468.501	1417.62
469.278	1552.62
470.055	1715.62
470.831	1885.62
471.608	2082.62
472.385	2291.62
473.161	2536.62
473.938	2791.62
474.714	3012.62
475.49	3326.62
476.266	3620.62
477.043	3965.62
477.819	4322.62
478.595	4723.62
479.371	5108.62
480.146	5553.62
480.922	6057.62
481.698	6559.62
482.473	7123.62
483.249	7701.62
484.024	8332.62
484.8	9066.62
485.575	9783.62
486.35	10532.62
487.126	11420.62
487.901	12308.62
488.676	13229.62
489.451	14298.62
490.225	15392.62
491	16490.62
491.775	17677.62
492.55	18885.62
493.324	20255.62
494.099	21567.62
494.873	22918.62
495.647	24412.62
496.422	25813.62
497.196	27127.62
497.97	28622.62
498.744	29897.62
499.518	31220.62
500.292	32494.62
501.066	33664.62
501.839	34691.62
502.613	35714.62
503.387	36498.62
504.16	37229.62
504.934	37758.62
505.707	38140.62
506.48	38111.62
507.253	38169.62
508.027	37883.62
508.8	37444.62
509.573	37066.62
510.346	36367.62
511.118	35480.62
511.891	34794.62
512.664	33881.62
513.437	32740.62
514.209	31700.62
514.982	30531.62
515.754	29546.62
516.526	28344.62
517.298	27169.62
518.071	26154.62
518.843	25160.62
519.615	24137.62
520.387	23227.62
521.159	22313.62
521.93	21380.62
522.702	20567.62
523.474	19807.62
524.245	18914.62
525.017	18181.62
525.788	17467.62
526.56	16709.62
527.331	16053.62
528.102	15276.62
528.873	14601.62
529.644	13889.62
530.415	13196.62
531.186	12579.62
531.957	12031.62
532.728	11436.62
533.498	10859.62
534.269	10246.62
535.039	9756.62
535.81	9202.62
536.58	8754.62
537.351	8270.62
538.121	7854.62
538.891	7455.62
539.661	7051.62
540.431	6680.62
541.201	6307.62
541.971	5991.62
542.741	5684.62
543.51	5384.62
544.28	5097.62
545.05	4833.62
545.819	4628.62
546.588	4396.62
547.358	4169.62
548.127	3965.62
548.896	3794.62
549.665	3580.62
550.434	3400.62
551.203	3238.62
551.972	3069.62
552.741	2920.62
553.51	2750.62
554.278	2613.62
555.047	2457.62
555.815	2308.62
556.584	2213.62
557.352	2080.62
558.121	1974.62
558.889	1855.62
559.657	1761.62
560.425	1655.62
561.193	1568.62
561.961	1495.62
562.729	1416.62
563.496	1331.62
564.264	1261.62
565.032	1203.62
565.799	1141.62
566.567	1080.62
567.334	1013.62
568.101	948.62
568.869	902.62
569.636	843.62
570.403	810.62
571.17	766.62
571.937	725.62
572.704	684.62
573.471	641.62
574.237	593.62
575.004	569.62
575.771	537.62
576.537	510.62
577.303	480.62
578.07	444.62
578.836	421.62
579.602	396.62
580.368	377.62
581.134	365.62
581.9	336.62
582.666	322.62
583.432	308.62
584.198	289.62
584.964	285.62
585.729	262.62
586.495	251.62
587.26	240.62
588.025	220.62
588.791	214.62
589.556	207.62
590.321	189.62
591.086	182.62
591.851	169.62
592.616	162.62
593.381	156.62
594.146	147.62
594.911	143.62
595.675	133.62
596.44	123.62
597.204	124.62
597.969	116.62
598.733	111.62
599.497	107.62
600.261	103.62
601.025	97.62
601.79	96.62
602.553	89.62
603.317	87.62
604.081	86.62
604.845	80.62
605.609	75.62
606.372	77.62
607.136	67.62
607.899	68.62
608.662	63.62
609.426	63.62
610.189	57.62
610.952	54.62
611.715	53.62
612.478	52.62
613.241	52.62
614.004	49.62
614.767	48.62
615.529	43.62
616.292	44.62
617.055	41.62
617.817	42.62
618.579	41.62
619.342	36.62
620.104	37.62
620.866	36.62
621.628	32.62
622.39	31.62
623.152	34.62
623.914	29.62
624.676	29.62
625.438	31.62
626.199	26.62
626.961	25.62
627.722	27.62
628.484	23.62
629.245	27.62
630.006	24.62
630.768	25.62
631.529	22.62
632.29	22.62
633.051	20.62
633.812	22.62
634.573	20.62
635.333	19.62
636.094	20.62
636.855	19.62
637.615	18.62
638.376	16.62
639.136	16.62
639.896	14.62
640.657	17.62
641.417	17.62
642.177	13.62
642.937	15.62
643.697	12.62
644.457	14.62
645.216	14.62
645.976	12.62
646.736	12.62
647.495	12.62
648.255	10.62
649.014	13.62
649.774	12.62
650.533	13.62
651.292	11.62
652.051	10.62
652.81	10.62
653.569	11.62
654.328	10.62
655.087	10.62
655.846	10.62
656.604	9.62
657.363	11.62
658.121	10.62
658.88	11.62
659.638	8.62
660.397	10.62
661.155	8.62
661.913	8.62
662.671	8.62
663.429	7.62
664.187	8.62
664.945	4.62
665.703	8.62
666.46	6.62
667.218	7.62
667.976	7.62
668.733	7.62
669.49	8.62
670.248	8.62
671.005	8.62
671.762	8.62
672.519	6.62
673.276	8.62
674.033	6.62
674.79	7.62
675.547	7.62
676.304	7.62
677.06	6.62
677.817	6.62
678.574	5.62
679.33	7.62
680.086	4.62
680.843	7.62
681.599	6.62
682.355	6.62
683.111	4.62
683.867	6.62
684.623	5.62
685.379	6.62
686.135	7.62
686.89	6.62
687.646	7.62
688.402	7.62
689.157	4.62
689.912	7.62
690.668	5.62
691.423	8.62
692.178	6.62
692.933	5.62
693.688	6.62
694.443	4.62
695.198	5.62
695.953	6.62
696.708	4.62
697.462	6.62
698.217	3.62
698.972	5.62
699.726	5.62
700.48	6.62
701.235	5.62
701.989	5.62
702.743	2.62
703.497	4.62
704.251	4.62
705.005	4.62
705.759	5.62
706.513	5.62
707.266	4.62
708.02	5.62
708.774	6.62
709.527	5.62
710.28	6.62
711.034	4.62
711.787	6.62
712.54	4.62
713.293	6.62
714.046	4.62
714.799	5.62
715.552	4.62
716.305	6.62
717.058	5.62
717.81	3.62
718.563	7.62
719.315	4.62
720.068	6.62
720.82	8.62
721.573	2.62
722.325	6.62
723.077	5.62
723.829	4.62
724.581	4.62
725.333	6.62
726.085	6.62
726.836	6.62
727.588	6.62
728.34	5.62
729.091	6.62
729.843	7.62
730.594	5.62
731.346	6.62
732.097	6.62
732.848	3.62
733.599	7.62
734.35	4.62
735.101	7.62
735.852	7.62
736.603	7.62
737.354	6.62
738.104	4.62
738.855	5.62
739.605	6.62
740.356	6.62
741.106	7.62
741.856	6.62
742.607	6.62
743.357	8.62
744.107	5.62
744.857	8.62
745.607	6.62
746.357	5.62
747.106	6.62
747.856	6.62
748.606	6.62
749.355	6.62
750.105	8.62
750.854	6.62
751.603	8.62
752.353	6.62
753.102	9.62
753.851	9.62
754.6	9.62
755.349	8.62
756.098	6.62
756.847	8.62
757.595	6.62
758.344	6.62
759.093	10.62
759.841	7.62
760.589	6.62
761.338	8.62
762.086	11.62
762.834	10.62
763.582	8.62
764.331	8.62
765.079	10.62
765.826	11.62
766.574	8.62
767.322	9.62
768.07	9.62
768.817	10.62
769.565	9.62
770.312	12.62
771.06	8.62
771.807	10.62
772.554	11.62
773.302	10.62
774.049	11.62
774.796	13.62
775.543	12.62
776.29	10.62
777.036	10.62
777.783	11.62
778.53	10.62
779.276	11.62
780.023	9.62
780.769	10.62
781.516	11.62
782.262	11.62
783.008	10.62
783.754	12.62
784.5	15.62
785.246	10.62
785.992	11.62
786.738	12.62
787.484	13.62
788.23	10.62
788.975	13.62
789.721	9.62
790.466	12.62
791.212	11.62
791.957	11.62
792.702	10.62
793.447	11.62
794.193	10.62
794.938	9.62
795.683	7.62
796.427	11.62
797.172	11.62
797.917	12.62
798.662	10.62
799.406	9.62
800.151	9.62
800.895	10.62
801.64	7.62
802.384	7.62
803.128	6.62
803.872	9.62
804.616	7.62
805.36	8.62
806.104	9.62
806.848	8.62
807.592	8.62
808.336	7.62
809.079	6.62
809.823	6.62
810.566	8.62
811.31	6.62
812.053	8.62
812.796	6.62
813.539	6.62
814.283	8.62
815.026	4.62
815.769	7.62
816.511	6.62
817.254	8.62
817.997	5.62
818.74	7.62
819.482	7.62
820.225	5.62
820.967	4.62
821.71	7.62
822.452	5.62
823.194	3.62
823.936	7.62
824.678	6.62
825.42	6.62
826.162	7.62
826.904	5.62
827.646	7.62
828.388	5.62
829.129	4.62
829.871	6.62
830.612	4.62
831.354	6.62
832.095	6.62
832.836	7.62
833.577	5.62
834.319	4.62
835.06	4.62
835.801	6.62
836.542	3.62
837.282	4.62
838.023	3.62
838.764	4.62
839.504	4.62
840.245	5.62
840.985	5.62
841.726	2.62
842.466	2.62
843.206	5.62
843.946	4.62
844.687	4.62
845.427	3.62
846.166	6.62
846.906	4.62
847.646	4.62
848.386	3.62
849.125	5.62
849.865	6.62
850.605	4.62
851.344	4.62
852.083	2.62
852.823	4.62
853.562	3.62
854.301	4.62
855.04	3.62
855.779	2.62
856.518	4.62
857.257	5.62
857.995	3.62
858.734	0.62
859.473	1.62
860.211	2.62
860.95	2.62
861.688	1.62
862.426	2.62
863.165	2.62
863.903	1.62
864.641	2.62
865.379	2.62
866.117	2.62
866.855	1.62
867.593	-0.38
868.33	2.62
869.068	4.62
869.806	1.62
870.543	2.62
871.28	1.62
872.018	3.62
872.755	1.62
873.492	0.62
874.229	2.62
874.967	0.62
875.703	0.62
876.44	2.62
877.177	2.62
877.914	0.62
878.651	1.62
879.387	0.62
880.124	1.62
880.86	0.62
881.597	0.62
882.333	0.62
883.069	1.62
883.806	2.62
884.542	0.62
885.278	0.62
886.014	-1.38
886.749	1.62
887.485	0.62
888.221	-0.38
888.957	-0.38
889.692	1.62
890.428	0.62
891.163	0.62
891.899	-0.38
892.634	1.62
893.369	1.62
894.104	-0.38
894.839	1.62
895.574	1.62
896.309	-0.38
897.044	1.62
897.779	2.62
898.514	1.62
899.248	-0.38
899.983	0.62
900.717	0.62
901.452	1.62
902.186	-1.38
902.92	2.62
903.654	-1.38
904.389	2.62
905.123	0.62
905.857	0.62
906.59	0.62
907.324	-0.38
908.058	-0.38
908.792	0.62
909.525	2.62
910.259	0.62
910.992	1.62
911.726	1.62
912.459	-1.38
913.192	0.62
913.925	-0.38
914.658	0.62
915.391	-1.38
916.124	-0.38
916.857	0.62
917.59	-2.38
918.323	0.62
919.055	2.62
919.788	-0.38
920.521	-0.38
921.253	0.62
921.985	0.62
922.718	-1.38
923.45	1.62
924.182	0.62
924.914	0.62
925.646	-0.38
926.378	0.62
927.11	-0.38
927.841	1.62
928.573	0.62
929.305	-0.38
930.036	-0.38
930.768	0.62
931.499	0.62
932.23	-1.38
932.962	2.62
933.693	0.62
934.424	0.62
935.155	1.62
935.886	-0.38
936.617	-1.38
937.348	1.62
938.078	-0.38
938.809	1.62
939.54	0.62
940.27	-2.38
941.001	-2.38
941.731	2.62
942.461	1.62
943.191	-0.38
943.922	-1.38
944.652	-2.38
945.382	1.62
946.112	0.62
946.841	1.62
947.571	-1.38
948.301	0.62
949.031	-1.38
949.76	0.62
950.49	-2.38
951.219	0.62
951.948	0.62
952.678	0.62
953.407	0.62
954.136	0.62
954.865	1.62
955.594	0.62
956.323	1.62
957.052	-1.38
957.78	0.62
958.509	0.62
959.238	-2.38
959.966	1.62
960.695	-0.38
961.423	-0.38
962.151	2.62
962.88	-1.38
963.608	0.62
964.336	0.62
965.064	-0.38
965.792	-0.38
966.52	1.62
967.247	0.62
967.975	0.62
968.703	0.62
969.43	-1.38
970.158	-1.38
970.885	0.62
971.613	-1.38
972.34	-1.38
973.067	0.62
973.794	0.62
974.521	0.62
975.248	-1.38
975.975	-2.38
976.702	-0.38
977.429	0.62
978.156	-2.38
978.882	0.62
979.609	-2.38
980.335	0.62
981.062	-0.38
981.788	-2.38
982.514	0.62
983.24	-1.38
983.967	0.62
984.693	0.62
985.419	1.62
986.144	-0.38
986.87	0.62
987.596	0.62
988.322	1.62
989.047	0.62
989.773	-2.38
990.498	-0.38
991.224	0.62
991.949	1.62
992.674	-0.38
993.399	-0.38
994.124	-1.38
994.849	0.62
995.574	0.62
996.299	0.62
997.024	0.62
997.749	0.62
998.473	0.62
999.198	2.62
999.922	-0.38
1000.647	0.62
1001.371	2.62
1002.095	-0.38
1002.82	-0.38
1003.544	-0.38
1004.268	4.62
1004.992	2.62
1005.716	5.62
1006.439	1.62
1007.163	3.62
1007.887	4.62
1008.611	1.62
1009.334	-1.38
1010.058	0.62
1010.781	0.62
1011.504	0.62
1012.228	-0.38
1012.951	-0.38
1013.674	0.62
1014.397	0.62
1015.12	-2.38
