节点500_565_QEPB04081__473__09-58-17-210.txt的数据

Date: Thu Nov 13 09:58:17 CST 2025
User: PC
Spectrometer: QEPB0408
触发模式: 0
积分时间 (秒): 1.000000E-2
Scans to average: 1
启用暗噪声校正: true
启用非线性校正: false
滑动平均宽度: 0
X轴模式: Wavelengths
Number of Pixels in Spectrum: 1044
>>>>>Begin Spectral Data<<<<<
220.843	5.62
221.644	4.62
222.444	5.62
223.244	5.62
224.045	5.62
224.845	4.62
225.645	3.62
226.445	6.62
227.245	5.62
228.045	5.62
228.845	6.62
229.645	5.62
230.444	7.62
231.244	5.62
232.043	6.62
232.843	5.62
233.642	9.62
234.442	7.62
235.241	7.62
236.04	9.62
236.839	9.62
237.638	10.62
238.437	7.62
239.236	9.62
240.035	8.62
240.833	9.62
241.632	10.62
242.43	7.62
243.229	9.62
244.027	9.62
244.826	8.62
245.624	9.62
246.422	11.62
247.22	11.62
248.018	11.62
248.816	11.62
249.614	12.62
250.412	12.62
251.21	11.62
252.007	11.62
252.805	13.62
253.602	14.62
254.4	12.62
255.197	13.62
255.994	15.62
256.791	13.62
257.589	18.62
258.386	17.62
259.183	15.62
259.979	15.62
260.776	19.62
261.573	17.62
262.37	19.62
263.166	19.62
263.963	23.62
264.759	19.62
265.556	23.62
266.352	21.62
267.148	22.62
267.944	19.62
268.74	24.62
269.536	22.62
270.332	22.62
271.128	23.62
271.924	24.62
272.719	26.62
273.515	26.62
274.311	23.62
275.106	27.62
275.901	24.62
276.697	29.62
277.492	26.62
278.287	25.62
279.082	28.62
279.877	28.62
280.672	28.62
281.467	26.62
282.262	29.62
283.056	25.62
283.851	29.62
284.646	29.62
285.44	28.62
286.234	27.62
287.029	27.62
287.823	28.62
288.617	25.62
289.411	29.62
290.205	27.62
290.999	28.62
291.793	27.62
292.587	30.62
293.381	24.62
294.174	26.62
294.968	22.62
295.761	20.62
296.555	23.62
297.348	20.62
298.141	25.62
298.935	23.62
299.728	23.62
300.521	21.62
301.314	21.62
302.107	22.62
302.899	21.62
303.692	22.62
304.485	21.62
305.277	20.62
306.07	20.62
306.862	17.62
307.655	19.62
308.447	19.62
309.239	19.62
310.031	20.62
310.823	15.62
311.615	17.62
312.407	14.62
313.199	14.62
313.991	14.62
314.783	13.62
315.574	16.62
316.366	13.62
317.157	15.62
317.949	10.62
318.74	12.62
319.531	11.62
320.322	13.62
321.113	12.62
321.904	15.62
322.695	11.62
323.486	12.62
324.277	11.62
325.068	10.62
325.858	12.62
326.649	11.62
327.439	13.62
328.23	12.62
329.02	9.62
329.81	12.62
330.6	11.62
331.391	12.62
332.181	7.62
332.971	9.62
333.76	10.62
334.55	12.62
335.34	9.62
336.13	9.62
336.919	11.62
337.709	13.62
338.498	10.62
339.287	10.62
340.077	11.62
340.866	9.62
341.655	9.62
342.444	7.62
343.233	9.62
344.022	11.62
344.811	8.62
345.6	9.62
346.388	13.62
347.177	9.62
347.965	10.62
348.754	10.62
349.542	11.62
350.33	11.62
351.119	10.62
351.907	9.62
352.695	10.62
353.483	10.62
354.271	10.62
355.059	10.62
355.846	8.62
356.634	7.62
357.422	10.62
358.209	10.62
358.997	8.62
359.784	9.62
360.571	10.62
361.359	8.62
362.146	9.62
362.933	10.62
363.72	8.62
364.507	7.62
365.294	8.62
366.081	9.62
366.867	9.62
367.654	10.62
368.44	7.62
369.227	8.62
370.013	8.62
370.8	9.62
371.586	9.62
372.372	7.62
373.158	9.62
373.944	9.62
374.73	11.62
375.516	8.62
376.302	10.62
377.088	10.62
377.873	8.62
378.659	8.62
379.445	7.62
380.23	8.62
381.015	8.62
381.801	7.62
382.586	11.62
383.371	10.62
384.156	9.62
384.941	7.62
385.726	8.62
386.511	9.62
387.296	9.62
388.08	9.62
388.865	9.62
389.649	9.62
390.434	8.62
391.218	11.62
392.003	10.62
392.787	11.62
393.571	8.62
394.355	10.62
395.139	10.62
395.923	13.62
396.707	10.62
397.491	14.62
398.274	9.62
399.058	12.62
399.842	9.62
400.625	12.62
401.408	10.62
402.192	12.62
402.975	13.62
403.758	11.62
404.541	12.62
405.324	11.62
406.107	14.62
406.89	13.62
407.673	13.62
408.456	12.62
409.238	11.62
410.021	13.62
410.803	12.62
411.586	14.62
412.368	17.62
413.151	14.62
413.933	16.62
414.715	13.62
415.497	14.62
416.279	15.62
417.061	17.62
417.843	16.62
418.624	15.62
419.406	17.62
420.188	15.62
420.969	19.62
421.751	16.62
422.532	18.62
423.313	18.62
424.095	19.62
424.876	22.62
425.657	21.62
426.438	21.62
427.219	20.62
428	21.62
428.78	24.62
429.561	22.62
430.342	29.62
431.122	25.62
431.903	23.62
432.683	27.62
433.464	31.62
434.244	28.62
435.024	32.62
435.804	34.62
436.584	32.62
437.364	37.62
438.144	38.62
438.924	40.62
439.704	45.62
440.483	44.62
441.263	47.62
442.042	51.62
442.822	54.62
443.601	60.62
444.38	66.62
445.16	69.62
445.939	71.62
446.718	79.62
447.497	87.62
448.276	95.62
449.054	102.62
449.833	118.62
450.612	125.62
451.391	144.62
452.169	153.62
452.948	169.62
453.726	183.62
454.504	206.62
455.282	229.62
456.061	256.62
456.839	285.62
457.617	321.62
458.395	357.62
459.172	399.62
459.95	444.62
460.728	494.62
461.506	543.62
462.283	605.62
463.061	681.62
463.838	751.62
464.615	827.62
465.393	923.62
466.17	1030.62
466.947	1147.62
467.724	1254.62
468.501	1401.62
469.278	1548.62
470.055	1711.62
470.831	1883.62
471.608	2090.62
472.385	2292.62
473.161	2534.62
473.938	2775.62
474.714	3018.62
475.49	3331.62
476.266	3667.62
477.043	3989.62
477.819	4382.62
478.595	4773.62
479.371	5178.62
480.146	5681.62
480.922	6148.62
481.698	6693.62
482.473	7273.62
483.249	7891.62
484.024	8544.62
484.8	9309.62
485.575	10100.62
486.35	10899.62
487.126	11796.62
487.901	12755.62
488.676	13785.62
489.451	14914.62
490.225	16040.62
491	17259.62
491.775	18426.62
492.55	19846.62
493.324	21179.62
494.099	22544.62
494.873	23955.62
495.647	25570.62
496.422	27066.62
497.196	28406.62
497.97	29965.62
498.744	31342.62
499.518	32669.62
500.292	33931.62
501.066	35193.62
501.839	36211.62
502.613	37066.62
503.387	37930.62
504.16	38612.62
504.934	38997.62
505.707	39277.62
506.48	39295.62
507.253	39172.62
508.027	38718.62
508.8	38222.62
509.573	37641.62
510.346	36791.62
511.118	35839.62
511.891	35065.62
512.664	34005.62
513.437	32818.62
514.209	31684.62
514.982	30559.62
515.754	29397.62
516.526	28224.62
517.298	27143.62
518.071	26062.62
518.843	25012.62
519.615	23938.62
520.387	23037.62
521.159	22161.62
521.93	21311.62
522.702	20405.62
523.474	19593.62
524.245	18839.62
525.017	18078.62
525.788	17267.62
526.56	16540.62
527.331	15772.62
528.102	15072.62
528.873	14447.62
529.644	13689.62
530.415	13060.62
531.186	12376.62
531.957	11836.62
532.728	11238.62
533.498	10683.62
534.269	10070.62
535.039	9511.62
535.81	9066.62
536.58	8571.62
537.351	8129.62
538.121	7670.62
538.891	7279.62
539.661	6902.62
540.431	6506.62
541.201	6138.62
541.971	5869.62
542.741	5543.62
543.51	5248.62
544.28	4975.62
545.05	4736.62
545.819	4545.62
546.588	4275.62
547.358	4106.62
548.127	3867.62
548.896	3720.62
549.665	3507.62
550.434	3331.62
551.203	3163.62
551.972	2987.62
552.741	2848.62
553.51	2685.62
554.278	2539.62
555.047	2390.62
555.815	2272.62
556.584	2145.62
557.352	2037.62
558.121	1913.62
558.889	1795.62
559.657	1708.62
560.425	1606.62
561.193	1525.62
561.961	1452.62
562.729	1359.62
563.496	1281.62
564.264	1240.62
565.032	1167.62
565.799	1112.62
566.567	1045.62
567.334	987.62
568.101	922.62
568.869	881.62
569.636	833.62
570.403	783.62
571.17	726.62
571.937	707.62
572.704	663.62
573.471	626.62
574.237	597.62
575.004	542.62
575.771	511.62
576.537	497.62
577.303	468.62
578.07	425.62
578.836	410.62
579.602	397.62
580.368	362.62
581.134	352.62
581.9	337.62
582.666	312.62
583.432	300.62
584.198	284.62
584.964	269.62
585.729	256.62
586.495	242.62
587.26	224.62
588.025	220.62
588.791	200.62
589.556	195.62
590.321	186.62
591.086	174.62
591.851	169.62
592.616	160.62
593.381	154.62
594.146	146.62
594.911	143.62
595.675	132.62
596.44	127.62
597.204	122.62
597.969	117.62
598.733	112.62
599.497	106.62
600.261	100.62
601.025	98.62
601.79	90.62
602.553	88.62
603.317	90.62
604.081	82.62
604.845	74.62
605.609	74.62
606.372	73.62
607.136	65.62
607.899	65.62
608.662	63.62
609.426	64.62
610.189	60.62
610.952	56.62
611.715	55.62
612.478	51.62
613.241	52.62
614.004	49.62
614.767	51.62
615.529	46.62
616.292	45.62
617.055	44.62
617.817	39.62
618.579	40.62
619.342	38.62
620.104	37.62
620.866	36.62
621.628	35.62
622.39	35.62
623.152	31.62
623.914	34.62
624.676	32.62
625.438	31.62
626.199	29.62
626.961	27.62
627.722	27.62
628.484	25.62
629.245	26.62
630.006	25.62
630.768	23.62
631.529	23.62
632.29	20.62
633.051	23.62
633.812	22.62
634.573	21.62
635.333	20.62
636.094	18.62
636.855	19.62
637.615	19.62
638.376	19.62
639.136	15.62
639.896	15.62
640.657	17.62
641.417	17.62
642.177	15.62
642.937	13.62
643.697	16.62
644.457	13.62
645.216	15.62
645.976	18.62
646.736	14.62
647.495	13.62
648.255	11.62
649.014	12.62
649.774	12.62
650.533	12.62
651.292	14.62
652.051	11.62
652.81	12.62
653.569	12.62
654.328	11.62
655.087	10.62
655.846	13.62
656.604	10.62
657.363	11.62
658.121	9.62
658.88	10.62
659.638	10.62
660.397	7.62
661.155	12.62
661.913	9.62
662.671	7.62
663.429	11.62
664.187	9.62
664.945	9.62
665.703	10.62
666.46	11.62
667.218	9.62
667.976	9.62
668.733	6.62
669.49	10.62
670.248	9.62
671.005	8.62
671.762	7.62
672.519	9.62
673.276	7.62
674.033	8.62
674.79	8.62
675.547	7.62
676.304	8.62
677.06	7.62
677.817	8.62
678.574	7.62
679.33	7.62
680.086	9.62
680.843	6.62
681.599	9.62
682.355	6.62
683.111	7.62
683.867	7.62
684.623	7.62
685.379	8.62
686.135	8.62
686.89	11.62
687.646	6.62
688.402	6.62
689.157	8.62
689.912	6.62
690.668	8.62
691.423	7.62
692.178	9.62
692.933	8.62
693.688	7.62
694.443	5.62
695.198	4.62
695.953	6.62
696.708	5.62
697.462	7.62
698.217	5.62
698.972	6.62
699.726	6.62
700.48	5.62
701.235	6.62
701.989	6.62
702.743	5.62
703.497	5.62
704.251	7.62
705.005	7.62
705.759	6.62
706.513	7.62
707.266	8.62
708.02	5.62
708.774	6.62
709.527	6.62
710.28	9.62
711.034	7.62
711.787	8.62
712.54	7.62
713.293	9.62
714.046	7.62
714.799	8.62
715.552	7.62
716.305	6.62
717.058	4.62
717.81	6.62
718.563	7.62
719.315	5.62
720.068	7.62
720.82	5.62
721.573	5.62
722.325	9.62
723.077	6.62
723.829	8.62
724.581	6.62
725.333	6.62
726.085	6.62
726.836	8.62
727.588	7.62
728.34	7.62
729.091	8.62
729.843	7.62
730.594	9.62
731.346	6.62
732.097	7.62
732.848	8.62
733.599	6.62
734.35	9.62
735.101	9.62
735.852	8.62
736.603	6.62
737.354	8.62
738.104	7.62
738.855	7.62
739.605	7.62
740.356	7.62
741.106	9.62
741.856	7.62
742.607	9.62
743.357	10.62
744.107	7.62
744.857	8.62
745.607	7.62
746.357	8.62
747.106	8.62
747.856	9.62
748.606	9.62
749.355	8.62
750.105	8.62
750.854	7.62
751.603	10.62
752.353	10.62
753.102	7.62
753.851	13.62
754.6	9.62
755.349	10.62
756.098	9.62
756.847	8.62
757.595	9.62
758.344	11.62
759.093	12.62
759.841	10.62
760.589	10.62
761.338	8.62
762.086	11.62
762.834	11.62
763.582	10.62
764.331	11.62
765.079	10.62
765.826	10.62
766.574	11.62
767.322	9.62
768.07	11.62
768.817	10.62
769.565	13.62
770.312	11.62
771.06	10.62
771.807	9.62
772.554	13.62
773.302	13.62
774.049	12.62
774.796	11.62
775.543	14.62
776.29	13.62
777.036	12.62
777.783	13.62
778.53	13.62
779.276	15.62
780.023	11.62
780.769	13.62
781.516	14.62
782.262	12.62
783.008	13.62
783.754	12.62
784.5	10.62
785.246	14.62
785.992	10.62
786.738	11.62
787.484	14.62
788.23	11.62
788.975	16.62
789.721	15.62
790.466	11.62
791.212	12.62
791.957	15.62
792.702	10.62
793.447	12.62
794.193	13.62
794.938	10.62
795.683	12.62
796.427	11.62
797.172	12.62
797.917	10.62
798.662	13.62
799.406	9.62
800.151	11.62
800.895	12.62
801.64	14.62
802.384	10.62
803.128	10.62
803.872	9.62
804.616	9.62
805.36	10.62
806.104	11.62
806.848	9.62
807.592	12.62
808.336	9.62
809.079	11.62
809.823	7.62
810.566	8.62
811.31	11.62
812.053	7.62
812.796	10.62
813.539	8.62
814.283	9.62
815.026	9.62
815.769	9.62
816.511	7.62
817.254	7.62
817.997	10.62
818.74	8.62
819.482	5.62
820.225	6.62
820.967	8.62
821.71	5.62
822.452	9.62
823.194	6.62
823.936	6.62
824.678	4.62
825.42	7.62
826.162	6.62
826.904	3.62
827.646	6.62
828.388	5.62
829.129	7.62
829.871	6.62
830.612	5.62
831.354	5.62
832.095	5.62
832.836	7.62
833.577	5.62
834.319	7.62
835.06	7.62
835.801	6.62
836.542	5.62
837.282	3.62
838.023	7.62
838.764	5.62
839.504	9.62
840.245	4.62
840.985	6.62
841.726	3.62
842.466	5.62
843.206	6.62
843.946	3.62
844.687	6.62
845.427	6.62
846.166	7.62
846.906	5.62
847.646	5.62
848.386	5.62
849.125	3.62
849.865	5.62
850.605	6.62
851.344	7.62
852.083	5.62
852.823	4.62
853.562	5.62
854.301	2.62
855.04	4.62
855.779	5.62
856.518	5.62
857.257	4.62
857.995	2.62
858.734	4.62
859.473	4.62
860.211	4.62
860.95	2.62
861.688	3.62
862.426	5.62
863.165	2.62
863.903	4.62
864.641	3.62
865.379	3.62
866.117	2.62
866.855	2.62
867.593	5.62
868.33	1.62
869.068	3.62
869.806	2.62
870.543	2.62
871.28	5.62
872.018	1.62
872.755	4.62
873.492	3.62
874.229	3.62
874.967	2.62
875.703	1.62
876.44	4.62
877.177	3.62
877.914	1.62
878.651	2.62
879.387	3.62
880.124	3.62
880.86	0.62
881.597	1.62
882.333	1.62
883.069	3.62
883.806	0.62
884.542	3.62
885.278	2.62
886.014	-0.38
886.749	-0.38
887.485	2.62
888.221	3.62
888.957	3.62
889.692	1.62
890.428	3.62
891.163	2.62
891.899	1.62
892.634	2.62
893.369	1.62
894.104	2.62
894.839	3.62
895.574	1.62
896.309	2.62
897.044	1.62
897.779	1.62
898.514	-1.38
899.248	1.62
899.983	0.62
900.717	2.62
901.452	1.62
902.186	0.62
902.92	3.62
903.654	1.62
904.389	1.62
905.123	2.62
905.857	1.62
906.59	1.62
907.324	1.62
908.058	3.62
908.792	2.62
909.525	2.62
910.259	1.62
910.992	1.62
911.726	4.62
912.459	1.62
913.192	3.62
913.925	0.62
914.658	0.62
915.391	3.62
916.124	-0.38
916.857	1.62
917.59	1.62
918.323	2.62
919.055	-0.38
919.788	2.62
920.521	2.62
921.253	1.62
921.985	0.62
922.718	2.62
923.45	2.62
924.182	-0.38
924.914	1.62
925.646	1.62
926.378	0.62
927.11	2.62
927.841	2.62
928.573	1.62
929.305	1.62
930.036	3.62
930.768	0.62
931.499	-0.38
932.23	2.62
932.962	0.62
933.693	1.62
934.424	0.62
935.155	0.62
935.886	1.62
936.617	2.62
937.348	2.62
938.078	2.62
938.809	1.62
939.54	1.62
940.27	1.62
941.001	0.62
941.731	0.62
942.461	2.62
943.191	1.62
943.922	2.62
944.652	1.62
945.382	0.62
946.112	1.62
946.841	2.62
947.571	-0.38
948.301	1.62
949.031	0.62
949.76	-0.38
950.49	1.62
951.219	0.62
951.948	2.62
952.678	0.62
953.407	-1.38
954.136	0.62
954.865	-0.38
955.594	-0.38
956.323	1.62
957.052	2.62
957.78	1.62
958.509	-0.38
959.238	1.62
959.966	-2.38
960.695	1.62
961.423	3.62
962.151	3.62
962.88	0.62
963.608	1.62
964.336	0.62
965.064	0.62
965.792	0.62
966.52	3.62
967.247	3.62
967.975	-0.38
968.703	-0.38
969.43	1.62
970.158	-0.38
970.885	2.62
971.613	1.62
972.34	0.62
973.067	0.62
973.794	2.62
974.521	0.62
975.248	1.62
975.975	0.62
976.702	2.62
977.429	1.62
978.156	1.62
978.882	0.62
979.609	0.62
980.335	-0.38
981.062	2.62
981.788	-0.38
982.514	1.62
983.24	0.62
983.967	1.62
984.693	2.62
985.419	-0.38
986.144	2.62
986.87	-0.38
987.596	1.62
988.322	3.62
989.047	2.62
989.773	-0.38
990.498	0.62
991.224	1.62
991.949	0.62
992.674	2.62
993.399	0.62
994.124	0.62
994.849	3.62
995.574	-0.38
996.299	-0.38
997.024	-0.38
997.749	1.62
998.473	2.62
999.198	3.62
999.922	2.62
1000.647	3.62
1001.371	2.62
1002.095	-0.38
1002.82	-0.38
1003.544	-2.38
1004.268	4.62
1004.992	3.62
1005.716	5.62
1006.439	6.62
1007.163	4.62
1007.887	4.62
1008.611	1.62
1009.334	1.62
1010.058	1.62
1010.781	0.62
1011.504	-0.38
1012.228	1.62
1012.951	1.62
1013.674	-1.38
1014.397	-0.38
1015.12	0.62
