节点500_565_QEPB04081__315__09-55-39-489.txt的数据

Date: Thu Nov 13 09:55:39 CST 2025
User: PC
Spectrometer: QEPB0408
触发模式: 0
积分时间 (秒): 1.000000E-2
Scans to average: 1
启用暗噪声校正: true
启用非线性校正: false
滑动平均宽度: 0
X轴模式: Wavelengths
Number of Pixels in Spectrum: 1044
>>>>>Begin Spectral Data<<<<<
220.843	4.12
221.644	4.12
222.444	4.12
223.244	3.12
224.045	6.12
224.845	6.12
225.645	5.12
226.445	7.12
227.245	6.12
228.045	4.12
228.845	9.12
229.645	5.12
230.444	6.12
231.244	7.12
232.043	6.12
232.843	9.12
233.642	9.12
234.442	7.12
235.241	10.12
236.04	7.12
236.839	9.12
237.638	7.12
238.437	8.12
239.236	7.12
240.035	10.12
240.833	9.12
241.632	10.12
242.43	10.12
243.229	11.12
244.027	9.12
244.826	10.12
245.624	11.12
246.422	9.12
247.22	13.12
248.018	11.12
248.816	14.12
249.614	13.12
250.412	13.12
251.21	14.12
252.007	12.12
252.805	15.12
253.602	13.12
254.4	14.12
255.197	16.12
255.994	15.12
256.791	13.12
257.589	14.12
258.386	17.12
259.183	18.12
259.979	19.12
260.776	18.12
261.573	17.12
262.37	21.12
263.166	20.12
263.963	21.12
264.759	20.12
265.556	19.12
266.352	22.12
267.148	22.12
267.944	23.12
268.74	23.12
269.536	25.12
270.332	28.12
271.128	22.12
271.924	26.12
272.719	27.12
273.515	28.12
274.311	27.12
275.106	29.12
275.901	26.12
276.697	25.12
277.492	27.12
278.287	27.12
279.082	28.12
279.877	25.12
280.672	29.12
281.467	30.12
282.262	28.12
283.056	28.12
283.851	30.12
284.646	26.12
285.44	28.12
286.234	32.12
287.029	30.12
287.823	26.12
288.617	27.12
289.411	26.12
290.205	24.12
290.999	27.12
291.793	26.12
292.587	26.12
293.381	24.12
294.174	27.12
294.968	24.12
295.761	21.12
296.555	22.12
297.348	25.12
298.141	21.12
298.935	25.12
299.728	21.12
300.521	20.12
301.314	20.12
302.107	20.12
302.899	21.12
303.692	19.12
304.485	19.12
305.277	20.12
306.07	18.12
306.862	18.12
307.655	18.12
308.447	19.12
309.239	20.12
310.031	17.12
310.823	17.12
311.615	17.12
312.407	18.12
313.199	15.12
313.991	16.12
314.783	15.12
315.574	15.12
316.366	14.12
317.157	12.12
317.949	15.12
318.74	12.12
319.531	13.12
320.322	12.12
321.113	11.12
321.904	10.12
322.695	12.12
323.486	12.12
324.277	13.12
325.068	12.12
325.858	11.12
326.649	11.12
327.439	11.12
328.23	9.12
329.02	11.12
329.81	9.12
330.6	11.12
331.391	11.12
332.181	13.12
332.971	9.12
333.76	10.12
334.55	13.12
335.34	8.12
336.13	11.12
336.919	9.12
337.709	11.12
338.498	11.12
339.287	8.12
340.077	9.12
340.866	10.12
341.655	11.12
342.444	8.12
343.233	8.12
344.022	11.12
344.811	9.12
345.6	9.12
346.388	7.12
347.177	11.12
347.965	8.12
348.754	10.12
349.542	11.12
350.33	9.12
351.119	11.12
351.907	9.12
352.695	9.12
353.483	9.12
354.271	12.12
355.059	10.12
355.846	10.12
356.634	7.12
357.422	8.12
358.209	9.12
358.997	9.12
359.784	9.12
360.571	8.12
361.359	8.12
362.146	10.12
362.933	10.12
363.72	6.12
364.507	7.12
365.294	8.12
366.081	9.12
366.867	10.12
367.654	7.12
368.44	9.12
369.227	9.12
370.013	8.12
370.8	8.12
371.586	11.12
372.372	5.12
373.158	8.12
373.944	8.12
374.73	9.12
375.516	7.12
376.302	8.12
377.088	7.12
377.873	8.12
378.659	10.12
379.445	9.12
380.23	9.12
381.015	7.12
381.801	7.12
382.586	9.12
383.371	7.12
384.156	10.12
384.941	9.12
385.726	11.12
386.511	9.12
387.296	9.12
388.08	7.12
388.865	9.12
389.649	7.12
390.434	11.12
391.218	9.12
392.003	9.12
392.787	11.12
393.571	11.12
394.355	10.12
395.139	11.12
395.923	11.12
396.707	10.12
397.491	12.12
398.274	10.12
399.058	12.12
399.842	9.12
400.625	12.12
401.408	11.12
402.192	13.12
402.975	12.12
403.758	14.12
404.541	13.12
405.324	12.12
406.107	13.12
406.89	10.12
407.673	11.12
408.456	12.12
409.238	14.12
410.021	12.12
410.803	13.12
411.586	16.12
412.368	14.12
413.151	14.12
413.933	14.12
414.715	15.12
415.497	15.12
416.279	18.12
417.061	15.12
417.843	16.12
418.624	17.12
419.406	14.12
420.188	16.12
420.969	17.12
421.751	18.12
422.532	20.12
423.313	20.12
424.095	17.12
424.876	16.12
425.657	20.12
426.438	21.12
427.219	23.12
428	21.12
428.78	19.12
429.561	25.12
430.342	23.12
431.122	27.12
431.903	24.12
432.683	28.12
433.464	29.12
434.244	30.12
435.024	29.12
435.804	33.12
436.584	34.12
437.364	37.12
438.144	36.12
438.924	39.12
439.704	42.12
440.483	43.12
441.263	45.12
442.042	49.12
442.822	54.12
443.601	56.12
444.38	60.12
445.16	69.12
445.939	70.12
446.718	78.12
447.497	83.12
448.276	91.12
449.054	99.12
449.833	105.12
450.612	123.12
451.391	126.12
452.169	147.12
452.948	160.12
453.726	173.12
454.504	196.12
455.282	211.12
456.061	243.12
456.839	272.12
457.617	297.12
458.395	338.12
459.172	365.12
459.95	404.12
460.728	453.12
461.506	506.12
462.283	577.12
463.061	631.12
463.838	711.12
464.615	789.12
465.393	874.12
466.17	969.12
466.947	1089.12
467.724	1226.12
468.501	1340.12
469.278	1488.12
470.055	1642.12
470.831	1828.12
471.608	2015.12
472.385	2224.12
473.161	2475.12
473.938	2706.12
474.714	2970.12
475.49	3282.12
476.266	3614.12
477.043	3968.12
477.819	4336.12
478.595	4756.12
479.371	5195.12
480.146	5662.12
480.922	6223.12
481.698	6771.12
482.473	7370.12
483.249	8032.12
484.024	8759.12
484.8	9550.12
485.575	10437.12
486.35	11218.12
487.126	12207.12
487.901	13276.12
488.676	14350.12
489.451	15571.12
490.225	16799.12
491	18065.12
491.775	19434.12
492.55	20881.12
493.324	22290.12
494.099	23810.12
494.873	25312.12
495.647	26947.12
496.422	28595.12
497.196	30040.12
497.97	31613.12
498.744	33038.12
499.518	34323.12
500.292	35582.12
501.066	36686.12
501.839	37832.12
502.613	38577.12
503.387	39236.12
504.16	39853.12
504.934	40138.12
505.707	40125.12
506.48	39951.12
507.253	39838.12
508.027	39232.12
508.8	38453.12
509.573	37666.12
510.346	36750.12
511.118	35588.12
511.891	34669.12
512.664	33457.12
513.437	32268.12
514.209	31047.12
514.982	29763.12
515.754	28666.12
516.526	27500.12
517.298	26235.12
518.071	25259.12
518.843	24225.12
519.615	23261.12
520.387	22278.12
521.159	21499.12
521.93	20572.12
522.702	19712.12
523.474	18903.12
524.245	18158.12
525.017	17491.12
525.788	16656.12
526.56	15897.12
527.331	15196.12
528.102	14533.12
528.873	13832.12
529.644	13130.12
530.415	12464.12
531.186	11819.12
531.957	11226.12
532.728	10711.12
533.498	10146.12
534.269	9543.12
535.039	9032.12
535.81	8581.12
536.58	8125.12
537.351	7710.12
538.121	7251.12
538.891	6845.12
539.661	6503.12
540.431	6148.12
541.201	5826.12
541.971	5556.12
542.741	5202.12
543.51	4937.12
544.28	4699.12
545.05	4471.12
545.819	4257.12
546.588	4049.12
547.358	3833.12
548.127	3652.12
548.896	3513.12
549.665	3295.12
550.434	3127.12
551.203	2981.12
551.972	2813.12
552.741	2682.12
553.51	2518.12
554.278	2386.12
555.047	2249.12
555.815	2134.12
556.584	2024.12
557.352	1916.12
558.121	1791.12
558.889	1680.12
559.657	1598.12
560.425	1510.12
561.193	1424.12
561.961	1355.12
562.729	1277.12
563.496	1220.12
564.264	1131.12
565.032	1077.12
565.799	1031.12
566.567	971.12
567.334	913.12
568.101	855.12
568.869	813.12
569.636	778.12
570.403	733.12
571.17	693.12
571.937	650.12
572.704	615.12
573.471	576.12
574.237	553.12
575.004	522.12
575.771	482.12
576.537	451.12
577.303	427.12
578.07	405.12
578.836	383.12
579.602	358.12
580.368	345.12
581.134	324.12
581.9	311.12
582.666	293.12
583.432	288.12
584.198	261.12
584.964	251.12
585.729	237.12
586.495	227.12
587.26	217.12
588.025	202.12
588.791	191.12
589.556	182.12
590.321	178.12
591.086	165.12
591.851	160.12
592.616	149.12
593.381	140.12
594.146	133.12
594.911	131.12
595.675	122.12
596.44	121.12
597.204	114.12
597.969	113.12
598.733	101.12
599.497	99.12
600.261	97.12
601.025	92.12
601.79	85.12
602.553	83.12
603.317	79.12
604.081	79.12
604.845	76.12
605.609	68.12
606.372	68.12
607.136	67.12
607.899	63.12
608.662	60.12
609.426	54.12
610.189	54.12
610.952	54.12
611.715	52.12
612.478	53.12
613.241	49.12
614.004	48.12
614.767	46.12
615.529	41.12
616.292	41.12
617.055	39.12
617.817	39.12
618.579	38.12
619.342	38.12
620.104	40.12
620.866	32.12
621.628	32.12
622.39	31.12
623.152	32.12
623.914	30.12
624.676	30.12
625.438	29.12
626.199	28.12
626.961	26.12
627.722	27.12
628.484	25.12
629.245	25.12
630.006	26.12
630.768	19.12
631.529	21.12
632.29	22.12
633.051	21.12
633.812	23.12
634.573	19.12
635.333	20.12
636.094	19.12
636.855	19.12
637.615	17.12
638.376	17.12
639.136	14.12
639.896	16.12
640.657	18.12
641.417	17.12
642.177	14.12
642.937	17.12
643.697	17.12
644.457	14.12
645.216	16.12
645.976	13.12
646.736	15.12
647.495	12.12
648.255	13.12
649.014	13.12
649.774	15.12
650.533	10.12
651.292	13.12
652.051	12.12
652.81	9.12
653.569	12.12
654.328	13.12
655.087	12.12
655.846	11.12
656.604	13.12
657.363	9.12
658.121	9.12
658.88	13.12
659.638	10.12
660.397	12.12
661.155	9.12
661.913	11.12
662.671	8.12
663.429	10.12
664.187	9.12
664.945	9.12
665.703	10.12
666.46	6.12
667.218	10.12
667.976	10.12
668.733	10.12
669.49	10.12
670.248	9.12
671.005	9.12
671.762	8.12
672.519	8.12
673.276	8.12
674.033	5.12
674.79	6.12
675.547	7.12
676.304	8.12
677.06	7.12
677.817	9.12
678.574	7.12
679.33	8.12
680.086	5.12
680.843	4.12
681.599	9.12
682.355	5.12
683.111	7.12
683.867	6.12
684.623	7.12
685.379	7.12
686.135	7.12
686.89	8.12
687.646	7.12
688.402	6.12
689.157	6.12
689.912	7.12
690.668	10.12
691.423	7.12
692.178	7.12
692.933	5.12
693.688	6.12
694.443	7.12
695.198	6.12
695.953	8.12
696.708	4.12
697.462	6.12
698.217	5.12
698.972	7.12
699.726	5.12
700.48	5.12
701.235	5.12
701.989	3.12
702.743	10.12
703.497	8.12
704.251	7.12
705.005	7.12
705.759	6.12
706.513	7.12
707.266	6.12
708.02	9.12
708.774	6.12
709.527	9.12
710.28	7.12
711.034	7.12
711.787	6.12
712.54	6.12
713.293	5.12
714.046	6.12
714.799	9.12
715.552	7.12
716.305	6.12
717.058	5.12
717.81	5.12
718.563	6.12
719.315	8.12
720.068	8.12
720.82	6.12
721.573	9.12
722.325	7.12
723.077	5.12
723.829	8.12
724.581	8.12
725.333	7.12
726.085	6.12
726.836	9.12
727.588	6.12
728.34	7.12
729.091	9.12
729.843	6.12
730.594	9.12
731.346	5.12
732.097	9.12
732.848	7.12
733.599	9.12
734.35	8.12
735.101	6.12
735.852	8.12
736.603	5.12
737.354	9.12
738.104	9.12
738.855	7.12
739.605	8.12
740.356	7.12
741.106	6.12
741.856	7.12
742.607	10.12
743.357	4.12
744.107	10.12
744.857	7.12
745.607	9.12
746.357	8.12
747.106	8.12
747.856	10.12
748.606	7.12
749.355	10.12
750.105	9.12
750.854	8.12
751.603	9.12
752.353	8.12
753.102	7.12
753.851	11.12
754.6	9.12
755.349	10.12
756.098	12.12
756.847	7.12
757.595	9.12
758.344	14.12
759.093	7.12
759.841	8.12
760.589	10.12
761.338	11.12
762.086	11.12
762.834	9.12
763.582	11.12
764.331	11.12
765.079	10.12
765.826	10.12
766.574	11.12
767.322	15.12
768.07	10.12
768.817	10.12
769.565	9.12
770.312	12.12
771.06	9.12
771.807	13.12
772.554	13.12
773.302	13.12
774.049	12.12
774.796	13.12
775.543	11.12
776.29	12.12
777.036	10.12
777.783	12.12
778.53	14.12
779.276	13.12
780.023	10.12
780.769	14.12
781.516	15.12
782.262	13.12
783.008	12.12
783.754	14.12
784.5	13.12
785.246	13.12
785.992	15.12
786.738	13.12
787.484	13.12
788.23	13.12
788.975	13.12
789.721	12.12
790.466	14.12
791.212	12.12
791.957	11.12
792.702	15.12
793.447	14.12
794.193	13.12
794.938	13.12
795.683	11.12
796.427	10.12
797.172	11.12
797.917	13.12
798.662	11.12
799.406	13.12
800.151	12.12
800.895	9.12
801.64	14.12
802.384	9.12
803.128	10.12
803.872	8.12
804.616	9.12
805.36	9.12
806.104	11.12
806.848	9.12
807.592	8.12
808.336	8.12
809.079	8.12
809.823	8.12
810.566	9.12
811.31	9.12
812.053	9.12
812.796	7.12
813.539	8.12
814.283	8.12
815.026	10.12
815.769	7.12
816.511	8.12
817.254	7.12
817.997	8.12
818.74	6.12
819.482	8.12
820.225	7.12
820.967	8.12
821.71	6.12
822.452	10.12
823.194	6.12
823.936	7.12
824.678	7.12
825.42	6.12
826.162	4.12
826.904	8.12
827.646	5.12
828.388	5.12
829.129	8.12
829.871	4.12
830.612	8.12
831.354	6.12
832.095	7.12
832.836	5.12
833.577	5.12
834.319	4.12
835.06	5.12
835.801	5.12
836.542	7.12
837.282	4.12
838.023	7.12
838.764	6.12
839.504	5.12
840.245	5.12
840.985	5.12
841.726	7.12
842.466	6.12
843.206	7.12
843.946	5.12
844.687	6.12
845.427	5.12
846.166	6.12
846.906	4.12
847.646	5.12
848.386	6.12
849.125	5.12
849.865	6.12
850.605	7.12
851.344	4.12
852.083	5.12
852.823	2.12
853.562	3.12
854.301	2.12
855.04	5.12
855.779	6.12
856.518	4.12
857.257	3.12
857.995	3.12
858.734	6.12
859.473	4.12
860.211	4.12
860.95	5.12
861.688	5.12
862.426	5.12
863.165	4.12
863.903	5.12
864.641	4.12
865.379	3.12
866.117	2.12
866.855	5.12
867.593	2.12
868.33	3.12
869.068	2.12
869.806	5.12
870.543	2.12
871.28	1.12
872.018	4.12
872.755	2.12
873.492	2.12
874.229	1.12
874.967	3.12
875.703	1.12
876.44	1.12
877.177	2.12
877.914	1.12
878.651	2.12
879.387	1.12
880.124	2.12
880.86	1.12
881.597	2.12
882.333	3.12
883.069	1.12
883.806	3.12
884.542	1.12
885.278	1.12
886.014	1.12
886.749	2.12
887.485	1.12
888.221	6.12
888.957	3.12
889.692	1.12
890.428	0.12
891.163	1.12
891.899	3.12
892.634	1.12
893.369	5.12
894.104	2.12
894.839	3.12
895.574	1.12
896.309	2.12
897.044	1.12
897.779	3.12
898.514	1.12
899.248	2.12
899.983	0.12
900.717	1.12
901.452	1.12
902.186	3.12
902.92	1.12
903.654	1.12
904.389	2.12
905.123	4.12
905.857	1.12
906.59	2.12
907.324	1.12
908.058	1.12
908.792	0.12
909.525	3.12
910.259	-1.88
910.992	1.12
911.726	2.12
912.459	1.12
913.192	2.12
913.925	2.12
914.658	1.12
915.391	2.12
916.124	1.12
916.857	1.12
917.59	-0.88
918.323	1.12
919.055	2.12
919.788	2.12
920.521	2.12
921.253	0.12
921.985	3.12
922.718	-0.88
923.45	1.12
924.182	3.12
924.914	-0.88
925.646	2.12
926.378	2.12
927.11	1.12
927.841	0.12
928.573	2.12
929.305	1.12
930.036	2.12
930.768	1.12
931.499	1.12
932.23	1.12
932.962	0.12
933.693	3.12
934.424	2.12
935.155	2.12
935.886	1.12
936.617	1.12
937.348	1.12
938.078	1.12
938.809	1.12
939.54	1.12
940.27	1.12
941.001	3.12
941.731	1.12
942.461	0.12
943.191	1.12
943.922	-0.88
944.652	1.12
945.382	1.12
946.112	2.12
946.841	2.12
947.571	0.12
948.301	1.12
949.031	0.12
949.76	2.12
950.49	1.12
951.219	1.12
951.948	2.12
952.678	1.12
953.407	1.12
954.136	1.12
954.865	-1.88
955.594	3.12
956.323	2.12
957.052	2.12
957.78	1.12
958.509	1.12
959.238	2.12
959.966	-0.88
960.695	2.12
961.423	-0.88
962.151	0.12
962.88	2.12
963.608	1.12
964.336	1.12
965.064	-0.88
965.792	0.12
966.52	1.12
967.247	1.12
967.975	2.12
968.703	1.12
969.43	1.12
970.158	-0.88
970.885	3.12
971.613	1.12
972.34	1.12
973.067	0.12
973.794	2.12
974.521	0.12
975.248	1.12
975.975	1.12
976.702	1.12
977.429	2.12
978.156	-0.88
978.882	0.12
979.609	1.12
980.335	3.12
981.062	1.12
981.788	1.12
982.514	0.12
983.24	1.12
983.967	2.12
984.693	1.12
985.419	1.12
986.144	0.12
986.87	0.12
987.596	1.12
988.322	1.12
989.047	0.12
989.773	1.12
990.498	2.12
991.224	2.12
991.949	0.12
992.674	2.12
993.399	1.12
994.124	1.12
994.849	0.12
995.574	0.12
996.299	0.12
997.024	2.12
997.749	2.12
998.473	-0.88
999.198	1.12
999.922	2.12
1000.647	3.12
1001.371	4.12
1002.095	-0.88
1002.82	-0.88
1003.544	-1.88
1004.268	5.12
1004.992	1.12
1005.716	5.12
1006.439	5.12
1007.163	3.12
1007.887	4.12
1008.611	0.12
1009.334	1.12
1010.058	1.12
1010.781	-0.88
1011.504	2.12
1012.228	2.12
1012.951	1.12
1013.674	0.12
1014.397	-0.88
1015.12	-0.88
