节点500_565_QEPB04081__55__09-51-21-050.txt的数据

Date: Thu Nov 13 09:51:21 CST 2025
User: PC
Spectrometer: QEPB0408
触发模式: 0
积分时间 (秒): 1.000000E-2
Scans to average: 1
启用暗噪声校正: true
启用非线性校正: false
滑动平均宽度: 0
X轴模式: Wavelengths
Number of Pixels in Spectrum: 1044
>>>>>Begin Spectral Data<<<<<
220.843	5.12
221.644	7.12
222.444	6.12
223.244	4.12
224.045	6.12
224.845	6.12
225.645	4.12
226.445	5.12
227.245	5.12
228.045	6.12
228.845	7.12
229.645	4.12
230.444	6.12
231.244	5.12
232.043	8.12
232.843	8.12
233.642	5.12
234.442	7.12
235.241	6.12
236.04	9.12
236.839	9.12
237.638	10.12
238.437	8.12
239.236	9.12
240.035	9.12
240.833	10.12
241.632	9.12
242.43	8.12
243.229	10.12
244.027	11.12
244.826	10.12
245.624	11.12
246.422	12.12
247.22	14.12
248.018	13.12
248.816	14.12
249.614	13.12
250.412	13.12
251.21	15.12
252.007	14.12
252.805	14.12
253.602	16.12
254.4	15.12
255.197	15.12
255.994	17.12
256.791	17.12
257.589	17.12
258.386	17.12
259.183	18.12
259.979	21.12
260.776	21.12
261.573	22.12
262.37	21.12
263.166	24.12
263.963	24.12
264.759	22.12
265.556	21.12
266.352	24.12
267.148	26.12
267.944	27.12
268.74	28.12
269.536	28.12
270.332	27.12
271.128	29.12
271.924	29.12
272.719	30.12
273.515	32.12
274.311	30.12
275.106	28.12
275.901	29.12
276.697	31.12
277.492	33.12
278.287	30.12
279.082	33.12
279.877	31.12
280.672	30.12
281.467	34.12
282.262	32.12
283.056	32.12
283.851	30.12
284.646	33.12
285.44	29.12
286.234	31.12
287.029	30.12
287.823	32.12
288.617	29.12
289.411	30.12
290.205	30.12
290.999	27.12
291.793	29.12
292.587	26.12
293.381	27.12
294.174	25.12
294.968	28.12
295.761	26.12
296.555	22.12
297.348	22.12
298.141	22.12
298.935	25.12
299.728	22.12
300.521	22.12
301.314	17.12
302.107	23.12
302.899	21.12
303.692	19.12
304.485	18.12
305.277	19.12
306.07	21.12
306.862	20.12
307.655	21.12
308.447	18.12
309.239	17.12
310.031	16.12
310.823	17.12
311.615	14.12
312.407	15.12
313.199	16.12
313.991	14.12
314.783	15.12
315.574	15.12
316.366	14.12
317.157	13.12
317.949	13.12
318.74	10.12
319.531	12.12
320.322	11.12
321.113	13.12
321.904	11.12
322.695	12.12
323.486	14.12
324.277	13.12
325.068	13.12
325.858	11.12
326.649	14.12
327.439	9.12
328.23	11.12
329.02	12.12
329.81	9.12
330.6	10.12
331.391	8.12
332.181	11.12
332.971	11.12
333.76	10.12
334.55	13.12
335.34	9.12
336.13	11.12
336.919	9.12
337.709	12.12
338.498	12.12
339.287	9.12
340.077	10.12
340.866	8.12
341.655	10.12
342.444	9.12
343.233	10.12
344.022	10.12
344.811	10.12
345.6	11.12
346.388	10.12
347.177	9.12
347.965	11.12
348.754	9.12
349.542	9.12
350.33	10.12
351.119	9.12
351.907	11.12
352.695	10.12
353.483	8.12
354.271	9.12
355.059	10.12
355.846	7.12
356.634	12.12
357.422	8.12
358.209	11.12
358.997	9.12
359.784	10.12
360.571	9.12
361.359	8.12
362.146	10.12
362.933	6.12
363.72	10.12
364.507	9.12
365.294	10.12
366.081	11.12
366.867	8.12
367.654	9.12
368.44	9.12
369.227	8.12
370.013	9.12
370.8	10.12
371.586	10.12
372.372	9.12
373.158	10.12
373.944	9.12
374.73	9.12
375.516	9.12
376.302	8.12
377.088	9.12
377.873	9.12
378.659	11.12
379.445	8.12
380.23	7.12
381.015	8.12
381.801	9.12
382.586	8.12
383.371	7.12
384.156	12.12
384.941	9.12
385.726	11.12
386.511	9.12
387.296	6.12
388.08	9.12
388.865	10.12
389.649	9.12
390.434	9.12
391.218	10.12
392.003	10.12
392.787	7.12
393.571	9.12
394.355	11.12
395.139	11.12
395.923	10.12
396.707	12.12
397.491	9.12
398.274	13.12
399.058	13.12
399.842	12.12
400.625	9.12
401.408	12.12
402.192	11.12
402.975	9.12
403.758	12.12
404.541	15.12
405.324	16.12
406.107	12.12
406.89	15.12
407.673	14.12
408.456	14.12
409.238	15.12
410.021	11.12
410.803	14.12
411.586	16.12
412.368	14.12
413.151	16.12
413.933	15.12
414.715	18.12
415.497	16.12
416.279	13.12
417.061	18.12
417.843	16.12
418.624	16.12
419.406	18.12
420.188	16.12
420.969	20.12
421.751	20.12
422.532	22.12
423.313	19.12
424.095	21.12
424.876	18.12
425.657	20.12
426.438	20.12
427.219	19.12
428	24.12
428.78	25.12
429.561	25.12
430.342	28.12
431.122	29.12
431.903	28.12
432.683	28.12
433.464	33.12
434.244	31.12
435.024	32.12
435.804	31.12
436.584	33.12
437.364	34.12
438.144	36.12
438.924	40.12
439.704	40.12
440.483	45.12
441.263	49.12
442.042	50.12
442.822	53.12
443.601	58.12
444.38	60.12
445.16	64.12
445.939	68.12
446.718	70.12
447.497	79.12
448.276	87.12
449.054	92.12
449.833	103.12
450.612	109.12
451.391	122.12
452.169	130.12
452.948	150.12
453.726	163.12
454.504	184.12
455.282	204.12
456.061	216.12
456.839	252.12
457.617	274.12
458.395	304.12
459.172	341.12
459.95	383.12
460.728	434.12
461.506	486.12
462.283	535.12
463.061	597.12
463.838	677.12
464.615	756.12
465.393	841.12
466.17	944.12
466.947	1044.12
467.724	1170.12
468.501	1316.12
469.278	1453.12
470.055	1658.12
470.831	1822.12
471.608	2029.12
472.385	2256.12
473.161	2495.12
473.938	2767.12
474.714	3042.12
475.49	3410.12
476.266	3742.12
477.043	4137.12
477.819	4582.12
478.595	5075.12
479.371	5582.12
480.146	6104.12
480.922	6719.12
481.698	7425.12
482.473	8081.12
483.249	8863.12
484.024	9773.12
484.8	10710.12
485.575	11743.12
486.35	12788.12
487.126	13974.12
487.901	15202.12
488.676	16607.12
489.451	18050.12
490.225	19543.12
491	21088.12
491.775	22751.12
492.55	24565.12
493.324	26297.12
494.099	28100.12
494.873	29854.12
495.647	31824.12
496.422	33673.12
497.196	35437.12
497.97	37017.12
498.744	38521.12
499.518	39854.12
500.292	41211.12
501.066	42298.12
501.839	43324.12
502.613	43995.12
503.387	44418.12
504.16	44707.12
504.934	44624.12
505.707	44367.12
506.48	43800.12
507.253	43068.12
508.027	42225.12
508.8	41085.12
509.573	39838.12
510.346	38446.12
511.118	37132.12
511.891	35854.12
512.664	34469.12
513.437	33042.12
514.209	31473.12
514.982	30219.12
515.754	28904.12
516.526	27740.12
517.298	26456.12
518.071	25362.12
518.843	24340.12
519.615	23344.12
520.387	22350.12
521.159	21601.12
521.93	20724.12
522.702	19830.12
523.474	18974.12
524.245	18220.12
525.017	17410.12
525.788	16672.12
526.56	15837.12
527.331	15021.12
528.102	14305.12
528.873	13591.12
529.644	12884.12
530.415	12230.12
531.186	11579.12
531.957	10968.12
532.728	10346.12
533.498	9827.12
534.269	9243.12
535.039	8689.12
535.81	8264.12
536.58	7799.12
537.351	7389.12
538.121	6982.12
538.891	6583.12
539.661	6246.12
540.431	5936.12
541.201	5611.12
541.971	5303.12
542.741	5043.12
543.51	4757.12
544.28	4530.12
545.05	4313.12
545.819	4107.12
546.588	3883.12
547.358	3697.12
548.127	3506.12
548.896	3345.12
549.665	3161.12
550.434	2993.12
551.203	2830.12
551.972	2696.12
552.741	2533.12
553.51	2407.12
554.278	2242.12
555.047	2125.12
555.815	2013.12
556.584	1919.12
557.352	1796.12
558.121	1686.12
558.889	1583.12
559.657	1485.12
560.425	1429.12
561.193	1329.12
561.961	1287.12
562.729	1206.12
563.496	1138.12
564.264	1085.12
565.032	1025.12
565.799	961.12
566.567	908.12
567.334	873.12
568.101	811.12
568.869	768.12
569.636	729.12
570.403	703.12
571.17	653.12
571.937	620.12
572.704	579.12
573.471	543.12
574.237	512.12
575.004	484.12
575.771	449.12
576.537	435.12
577.303	406.12
578.07	378.12
578.836	356.12
579.602	341.12
580.368	321.12
581.134	302.12
581.9	295.12
582.666	277.12
583.432	264.12
584.198	246.12
584.964	230.12
585.729	223.12
586.495	210.12
587.26	200.12
588.025	193.12
588.791	186.12
589.556	168.12
590.321	165.12
591.086	157.12
591.851	148.12
592.616	140.12
593.381	136.12
594.146	124.12
594.911	121.12
595.675	117.12
596.44	111.12
597.204	108.12
597.969	105.12
598.733	102.12
599.497	98.12
600.261	84.12
601.025	89.12
601.79	80.12
602.553	79.12
603.317	73.12
604.081	74.12
604.845	69.12
605.609	66.12
606.372	67.12
607.136	60.12
607.899	62.12
608.662	56.12
609.426	57.12
610.189	51.12
610.952	51.12
611.715	50.12
612.478	46.12
613.241	44.12
614.004	44.12
614.767	38.12
615.529	40.12
616.292	35.12
617.055	38.12
617.817	34.12
618.579	39.12
619.342	33.12
620.104	34.12
620.866	33.12
621.628	33.12
622.39	31.12
623.152	28.12
623.914	29.12
624.676	29.12
625.438	26.12
626.199	23.12
626.961	25.12
627.722	26.12
628.484	25.12
629.245	22.12
630.006	28.12
630.768	23.12
631.529	21.12
632.29	20.12
633.051	22.12
633.812	21.12
634.573	18.12
635.333	18.12
636.094	18.12
636.855	18.12
637.615	15.12
638.376	15.12
639.136	16.12
639.896	16.12
640.657	16.12
641.417	14.12
642.177	15.12
642.937	14.12
643.697	15.12
644.457	15.12
645.216	13.12
645.976	12.12
646.736	14.12
647.495	13.12
648.255	12.12
649.014	12.12
649.774	11.12
650.533	13.12
651.292	11.12
652.051	12.12
652.81	9.12
653.569	9.12
654.328	12.12
655.087	11.12
655.846	11.12
656.604	10.12
657.363	11.12
658.121	9.12
658.88	7.12
659.638	9.12
660.397	11.12
661.155	10.12
661.913	10.12
662.671	8.12
663.429	11.12
664.187	8.12
664.945	9.12
665.703	6.12
666.46	12.12
667.218	8.12
667.976	8.12
668.733	10.12
669.49	8.12
670.248	7.12
671.005	8.12
671.762	7.12
672.519	7.12
673.276	8.12
674.033	7.12
674.79	7.12
675.547	9.12
676.304	6.12
677.06	5.12
677.817	8.12
678.574	6.12
679.33	6.12
680.086	6.12
680.843	6.12
681.599	6.12
682.355	7.12
683.111	7.12
683.867	8.12
684.623	6.12
685.379	6.12
686.135	8.12
686.89	7.12
687.646	4.12
688.402	8.12
689.157	5.12
689.912	8.12
690.668	7.12
691.423	6.12
692.178	7.12
692.933	5.12
693.688	5.12
694.443	4.12
695.198	6.12
695.953	8.12
696.708	6.12
697.462	5.12
698.217	6.12
698.972	7.12
699.726	8.12
700.48	6.12
701.235	5.12
701.989	7.12
702.743	4.12
703.497	4.12
704.251	5.12
705.005	5.12
705.759	6.12
706.513	3.12
707.266	4.12
708.02	5.12
708.774	6.12
709.527	7.12
710.28	6.12
711.034	5.12
711.787	4.12
712.54	8.12
713.293	4.12
714.046	6.12
714.799	6.12
715.552	4.12
716.305	7.12
717.058	7.12
717.81	7.12
718.563	4.12
719.315	8.12
720.068	6.12
720.82	7.12
721.573	9.12
722.325	6.12
723.077	6.12
723.829	6.12
724.581	5.12
725.333	6.12
726.085	4.12
726.836	9.12
727.588	6.12
728.34	8.12
729.091	6.12
729.843	7.12
730.594	6.12
731.346	8.12
732.097	10.12
732.848	6.12
733.599	7.12
734.35	7.12
735.101	7.12
735.852	9.12
736.603	8.12
737.354	10.12
738.104	9.12
738.855	9.12
739.605	7.12
740.356	8.12
741.106	9.12
741.856	9.12
742.607	8.12
743.357	8.12
744.107	7.12
744.857	7.12
745.607	11.12
746.357	8.12
747.106	9.12
747.856	12.12
748.606	9.12
749.355	11.12
750.105	11.12
750.854	12.12
751.603	9.12
752.353	10.12
753.102	8.12
753.851	8.12
754.6	10.12
755.349	12.12
756.098	13.12
756.847	11.12
757.595	11.12
758.344	13.12
759.093	11.12
759.841	9.12
760.589	12.12
761.338	12.12
762.086	13.12
762.834	11.12
763.582	11.12
764.331	12.12
765.079	10.12
765.826	12.12
766.574	11.12
767.322	14.12
768.07	11.12
768.817	14.12
769.565	13.12
770.312	14.12
771.06	12.12
771.807	13.12
772.554	14.12
773.302	12.12
774.049	15.12
774.796	14.12
775.543	14.12
776.29	13.12
777.036	18.12
777.783	15.12
778.53	15.12
779.276	17.12
780.023	15.12
780.769	13.12
781.516	13.12
782.262	15.12
783.008	15.12
783.754	16.12
784.5	13.12
785.246	15.12
785.992	14.12
786.738	12.12
787.484	16.12
788.23	14.12
788.975	13.12
789.721	14.12
790.466	13.12
791.212	13.12
791.957	12.12
792.702	13.12
793.447	14.12
794.193	13.12
794.938	12.12
795.683	13.12
796.427	12.12
797.172	10.12
797.917	12.12
798.662	11.12
799.406	9.12
800.151	13.12
800.895	10.12
801.64	9.12
802.384	9.12
803.128	10.12
803.872	7.12
804.616	12.12
805.36	10.12
806.104	10.12
806.848	8.12
807.592	8.12
808.336	11.12
809.079	9.12
809.823	8.12
810.566	9.12
811.31	5.12
812.053	13.12
812.796	6.12
813.539	9.12
814.283	6.12
815.026	7.12
815.769	9.12
816.511	7.12
817.254	9.12
817.997	4.12
818.74	5.12
819.482	6.12
820.225	4.12
820.967	6.12
821.71	6.12
822.452	7.12
823.194	7.12
823.936	7.12
824.678	6.12
825.42	6.12
826.162	6.12
826.904	7.12
827.646	6.12
828.388	4.12
829.129	4.12
829.871	7.12
830.612	4.12
831.354	4.12
832.095	3.12
832.836	5.12
833.577	6.12
834.319	6.12
835.06	6.12
835.801	5.12
836.542	5.12
837.282	4.12
838.023	6.12
838.764	4.12
839.504	6.12
840.245	4.12
840.985	6.12
841.726	3.12
842.466	2.12
843.206	2.12
843.946	6.12
844.687	4.12
845.427	5.12
846.166	4.12
846.906	4.12
847.646	6.12
848.386	3.12
849.125	2.12
849.865	5.12
850.605	4.12
851.344	4.12
852.083	1.12
852.823	3.12
853.562	4.12
854.301	2.12
855.04	4.12
855.779	4.12
856.518	3.12
857.257	4.12
857.995	4.12
858.734	1.12
859.473	1.12
860.211	3.12
860.95	2.12
861.688	4.12
862.426	3.12
863.165	1.12
863.903	3.12
864.641	1.12
865.379	3.12
866.117	2.12
866.855	4.12
867.593	4.12
868.33	1.12
869.068	3.12
869.806	3.12
870.543	2.12
871.28	0.12
872.018	1.12
872.755	2.12
873.492	1.12
874.229	1.12
874.967	0.12
875.703	2.12
876.44	1.12
877.177	1.12
877.914	5.12
878.651	0.12
879.387	2.12
880.124	1.12
880.86	3.12
881.597	0.12
882.333	2.12
883.069	1.12
883.806	2.12
884.542	2.12
885.278	0.12
886.014	2.12
886.749	1.12
887.485	2.12
888.221	1.12
888.957	0.12
889.692	1.12
890.428	1.12
891.163	0.12
891.899	1.12
892.634	-1.88
893.369	1.12
894.104	1.12
894.839	2.12
895.574	2.12
896.309	2.12
897.044	0.12
897.779	1.12
898.514	0.12
899.248	2.12
899.983	1.12
900.717	1.12
901.452	0.12
902.186	-0.88
902.92	3.12
903.654	0.12
904.389	2.12
905.123	3.12
905.857	0.12
906.59	1.12
907.324	0.12
908.058	2.12
908.792	2.12
909.525	-0.88
910.259	2.12
910.992	0.12
911.726	0.12
912.459	-0.88
913.192	1.12
913.925	-0.88
914.658	1.12
915.391	-0.88
916.124	-0.88
916.857	1.12
917.59	-0.88
918.323	1.12
919.055	0.12
919.788	0.12
920.521	0.12
921.253	0.12
921.985	0.12
922.718	-0.88
923.45	2.12
924.182	0.12
924.914	-2.88
925.646	0.12
926.378	-1.88
927.11	4.12
927.841	2.12
928.573	0.12
929.305	2.12
930.036	0.12
930.768	1.12
931.499	-0.88
932.23	1.12
932.962	0.12
933.693	1.12
934.424	1.12
935.155	0.12
935.886	0.12
936.617	-0.88
937.348	0.12
938.078	2.12
938.809	-0.88
939.54	-0.88
940.27	0.12
941.001	1.12
941.731	1.12
942.461	-0.88
943.191	0.12
943.922	1.12
944.652	-0.88
945.382	1.12
946.112	0.12
946.841	0.12
947.571	2.12
948.301	-0.88
949.031	1.12
949.76	0.12
950.49	2.12
951.219	1.12
951.948	0.12
952.678	1.12
953.407	0.12
954.136	-1.88
954.865	1.12
955.594	0.12
956.323	0.12
957.052	1.12
957.78	-0.88
958.509	0.12
959.238	1.12
959.966	1.12
960.695	1.12
961.423	0.12
962.151	0.12
962.88	3.12
963.608	-0.88
964.336	1.12
965.064	1.12
965.792	0.12
966.52	4.12
967.247	2.12
967.975	2.12
968.703	-0.88
969.43	2.12
970.158	1.12
970.885	0.12
971.613	1.12
972.34	1.12
973.067	-0.88
973.794	-0.88
974.521	0.12
975.248	1.12
975.975	2.12
976.702	1.12
977.429	-1.88
978.156	0.12
978.882	-0.88
979.609	0.12
980.335	0.12
981.062	-1.88
981.788	0.12
982.514	-0.88
983.24	1.12
983.967	-0.88
984.693	0.12
985.419	1.12
986.144	2.12
986.87	-1.88
987.596	0.12
988.322	1.12
989.047	-0.88
989.773	-0.88
990.498	0.12
991.224	0.12
991.949	1.12
992.674	-0.88
993.399	0.12
994.124	1.12
994.849	2.12
995.574	0.12
996.299	0.12
997.024	3.12
997.749	0.12
998.473	0.12
999.198	0.12
999.922	-0.88
1000.647	-0.88
1001.371	2.12
1002.095	0.12
1002.82	-0.88
1003.544	-1.88
1004.268	6.12
1004.992	3.12
1005.716	1.12
1006.439	3.12
1007.163	4.12
1007.887	3.12
1008.611	0.12
1009.334	-0.88
1010.058	0.12
1010.781	1.12
1011.504	-0.88
1012.228	0.12
1012.951	2.12
1013.674	0.12
1014.397	-0.88
1015.12	-0.88
