节点500_565_QEPB04081__313__09-55-37-491.txt的数据

Date: Thu Nov 13 09:55:37 CST 2025
User: PC
Spectrometer: QEPB0408
触发模式: 0
积分时间 (秒): 1.000000E-2
Scans to average: 1
启用暗噪声校正: true
启用非线性校正: false
滑动平均宽度: 0
X轴模式: Wavelengths
Number of Pixels in Spectrum: 1044
>>>>>Begin Spectral Data<<<<<
220.843	3.5
221.644	3.5
222.444	4.5
223.244	4.5
224.045	4.5
224.845	5.5
225.645	4.5
226.445	6.5
227.245	3.5
228.045	6.5
228.845	4.5
229.645	8.5
230.444	7.5
231.244	7.5
232.043	7.5
232.843	7.5
233.642	8.5
234.442	5.5
235.241	7.5
236.04	6.5
236.839	4.5
237.638	8.5
238.437	9.5
239.236	8.5
240.035	10.5
240.833	6.5
241.632	8.5
242.43	10.5
243.229	10.5
244.027	12.5
244.826	12.5
245.624	12.5
246.422	12.5
247.22	10.5
248.018	12.5
248.816	10.5
249.614	11.5
250.412	10.5
251.21	12.5
252.007	12.5
252.805	13.5
253.602	14.5
254.4	16.5
255.197	12.5
255.994	15.5
256.791	14.5
257.589	11.5
258.386	15.5
259.183	16.5
259.979	18.5
260.776	18.5
261.573	18.5
262.37	18.5
263.166	20.5
263.963	18.5
264.759	21.5
265.556	20.5
266.352	21.5
267.148	21.5
267.944	23.5
268.74	23.5
269.536	22.5
270.332	26.5
271.128	26.5
271.924	24.5
272.719	26.5
273.515	23.5
274.311	24.5
275.106	29.5
275.901	28.5
276.697	25.5
277.492	28.5
278.287	27.5
279.082	27.5
279.877	31.5
280.672	29.5
281.467	27.5
282.262	27.5
283.056	30.5
283.851	27.5
284.646	28.5
285.44	26.5
286.234	27.5
287.029	26.5
287.823	28.5
288.617	28.5
289.411	25.5
290.205	28.5
290.999	30.5
291.793	28.5
292.587	27.5
293.381	27.5
294.174	24.5
294.968	26.5
295.761	21.5
296.555	20.5
297.348	22.5
298.141	20.5
298.935	27.5
299.728	22.5
300.521	21.5
301.314	21.5
302.107	20.5
302.899	17.5
303.692	21.5
304.485	20.5
305.277	20.5
306.07	17.5
306.862	20.5
307.655	18.5
308.447	16.5
309.239	20.5
310.031	18.5
310.823	17.5
311.615	16.5
312.407	13.5
313.199	16.5
313.991	15.5
314.783	17.5
315.574	13.5
316.366	13.5
317.157	15.5
317.949	11.5
318.74	12.5
319.531	10.5
320.322	11.5
321.113	11.5
321.904	13.5
322.695	10.5
323.486	12.5
324.277	12.5
325.068	10.5
325.858	11.5
326.649	11.5
327.439	12.5
328.23	11.5
329.02	14.5
329.81	8.5
330.6	10.5
331.391	11.5
332.181	10.5
332.971	13.5
333.76	11.5
334.55	8.5
335.34	11.5
336.13	8.5
336.919	13.5
337.709	9.5
338.498	9.5
339.287	10.5
340.077	8.5
340.866	11.5
341.655	10.5
342.444	11.5
343.233	8.5
344.022	12.5
344.811	11.5
345.6	11.5
346.388	9.5
347.177	10.5
347.965	8.5
348.754	8.5
349.542	8.5
350.33	10.5
351.119	10.5
351.907	8.5
352.695	7.5
353.483	10.5
354.271	11.5
355.059	6.5
355.846	9.5
356.634	6.5
357.422	8.5
358.209	6.5
358.997	8.5
359.784	8.5
360.571	12.5
361.359	7.5
362.146	8.5
362.933	11.5
363.72	8.5
364.507	8.5
365.294	9.5
366.081	6.5
366.867	9.5
367.654	7.5
368.44	7.5
369.227	5.5
370.013	7.5
370.8	7.5
371.586	8.5
372.372	5.5
373.158	9.5
373.944	9.5
374.73	8.5
375.516	10.5
376.302	8.5
377.088	11.5
377.873	7.5
378.659	7.5
379.445	8.5
380.23	10.5
381.015	7.5
381.801	8.5
382.586	8.5
383.371	7.5
384.156	10.5
384.941	8.5
385.726	9.5
386.511	9.5
387.296	8.5
388.08	9.5
388.865	7.5
389.649	8.5
390.434	8.5
391.218	7.5
392.003	11.5
392.787	8.5
393.571	11.5
394.355	8.5
395.139	6.5
395.923	10.5
396.707	10.5
397.491	9.5
398.274	10.5
399.058	11.5
399.842	8.5
400.625	12.5
401.408	11.5
402.192	11.5
402.975	15.5
403.758	9.5
404.541	11.5
405.324	13.5
406.107	10.5
406.89	13.5
407.673	13.5
408.456	13.5
409.238	15.5
410.021	15.5
410.803	11.5
411.586	13.5
412.368	13.5
413.151	14.5
413.933	13.5
414.715	15.5
415.497	15.5
416.279	14.5
417.061	15.5
417.843	16.5
418.624	15.5
419.406	15.5
420.188	16.5
420.969	19.5
421.751	16.5
422.532	17.5
423.313	17.5
424.095	20.5
424.876	19.5
425.657	19.5
426.438	20.5
427.219	25.5
428	20.5
428.78	22.5
429.561	24.5
430.342	23.5
431.122	25.5
431.903	27.5
432.683	26.5
433.464	29.5
434.244	29.5
435.024	33.5
435.804	30.5
436.584	34.5
437.364	35.5
438.144	35.5
438.924	40.5
439.704	42.5
440.483	44.5
441.263	46.5
442.042	47.5
442.822	53.5
443.601	57.5
444.38	64.5
445.16	63.5
445.939	72.5
446.718	79.5
447.497	85.5
448.276	93.5
449.054	102.5
449.833	107.5
450.612	118.5
451.391	133.5
452.169	141.5
452.948	160.5
453.726	177.5
454.504	194.5
455.282	218.5
456.061	245.5
456.839	270.5
457.617	310.5
458.395	336.5
459.172	380.5
459.95	416.5
460.728	460.5
461.506	527.5
462.283	587.5
463.061	655.5
463.838	731.5
464.615	802.5
465.393	899.5
466.17	1004.5
466.947	1108.5
467.724	1242.5
468.501	1375.5
469.278	1530.5
470.055	1703.5
470.831	1884.5
471.608	2078.5
472.385	2303.5
473.161	2520.5
473.938	2795.5
474.714	3060.5
475.49	3369.5
476.266	3689.5
477.043	4049.5
477.819	4477.5
478.595	4898.5
479.371	5371.5
480.146	5822.5
480.922	6349.5
481.698	6978.5
482.473	7572.5
483.249	8208.5
484.024	9003.5
484.8	9828.5
485.575	10675.5
486.35	11540.5
487.126	12517.5
487.901	13596.5
488.676	14737.5
489.451	15928.5
490.225	17236.5
491	18557.5
491.775	19972.5
492.55	21411.5
493.324	22937.5
494.099	24453.5
494.873	26034.5
495.647	27697.5
496.422	29331.5
497.196	30919.5
497.97	32421.5
498.744	33898.5
499.518	35191.5
500.292	36517.5
501.066	37774.5
501.839	38818.5
502.613	39610.5
503.387	40250.5
504.16	40914.5
504.934	41174.5
505.707	41216.5
506.48	41130.5
507.253	40724.5
508.027	40221.5
508.8	39470.5
509.573	38560.5
510.346	37645.5
511.118	36575.5
511.891	35574.5
512.664	34350.5
513.437	33165.5
514.209	31812.5
514.982	30636.5
515.754	29363.5
516.526	28168.5
517.298	26995.5
518.071	25817.5
518.843	24855.5
519.615	23862.5
520.387	22904.5
521.159	21985.5
521.93	21100.5
522.702	20209.5
523.474	19465.5
524.245	18696.5
525.017	17957.5
525.788	17056.5
526.56	16358.5
527.331	15599.5
528.102	14921.5
528.873	14196.5
529.644	13425.5
530.415	12810.5
531.186	12146.5
531.957	11546.5
532.728	10942.5
533.498	10386.5
534.269	9817.5
535.039	9252.5
535.81	8793.5
536.58	8330.5
537.351	7822.5
538.121	7454.5
538.891	7008.5
539.661	6682.5
540.431	6318.5
541.201	5973.5
541.971	5664.5
542.741	5343.5
543.51	5096.5
544.28	4820.5
545.05	4607.5
545.819	4371.5
546.588	4121.5
547.358	3947.5
548.127	3734.5
548.896	3576.5
549.665	3384.5
550.434	3241.5
551.203	3050.5
551.972	2895.5
552.741	2748.5
553.51	2590.5
554.278	2450.5
555.047	2290.5
555.815	2166.5
556.584	2068.5
557.352	1940.5
558.121	1843.5
558.889	1731.5
559.657	1625.5
560.425	1568.5
561.193	1469.5
561.961	1388.5
562.729	1305.5
563.496	1228.5
564.264	1171.5
565.032	1111.5
565.799	1051.5
566.567	1001.5
567.334	931.5
568.101	891.5
568.869	847.5
569.636	790.5
570.403	744.5
571.17	699.5
571.937	661.5
572.704	632.5
573.471	595.5
574.237	556.5
575.004	525.5
575.771	496.5
576.537	466.5
577.303	445.5
578.07	419.5
578.836	391.5
579.602	371.5
580.368	356.5
581.134	337.5
581.9	318.5
582.666	298.5
583.432	286.5
584.198	268.5
584.964	263.5
585.729	245.5
586.495	236.5
587.26	217.5
588.025	203.5
588.791	202.5
589.556	186.5
590.321	180.5
591.086	165.5
591.851	162.5
592.616	150.5
593.381	147.5
594.146	145.5
594.911	132.5
595.675	128.5
596.44	118.5
597.204	120.5
597.969	111.5
598.733	102.5
599.497	101.5
600.261	91.5
601.025	89.5
601.79	89.5
602.553	88.5
603.317	78.5
604.081	75.5
604.845	74.5
605.609	69.5
606.372	70.5
607.136	68.5
607.899	62.5
608.662	58.5
609.426	57.5
610.189	58.5
610.952	51.5
611.715	53.5
612.478	48.5
613.241	47.5
614.004	46.5
614.767	47.5
615.529	41.5
616.292	41.5
617.055	38.5
617.817	41.5
618.579	38.5
619.342	36.5
620.104	33.5
620.866	33.5
621.628	33.5
622.39	34.5
623.152	33.5
623.914	32.5
624.676	28.5
625.438	30.5
626.199	26.5
626.961	26.5
627.722	27.5
628.484	19.5
629.245	24.5
630.006	25.5
630.768	23.5
631.529	22.5
632.29	22.5
633.051	19.5
633.812	21.5
634.573	21.5
635.333	16.5
636.094	17.5
636.855	16.5
637.615	17.5
638.376	18.5
639.136	16.5
639.896	15.5
640.657	14.5
641.417	15.5
642.177	15.5
642.937	17.5
643.697	14.5
644.457	16.5
645.216	14.5
645.976	10.5
646.736	11.5
647.495	12.5
648.255	11.5
649.014	14.5
649.774	11.5
650.533	10.5
651.292	11.5
652.051	11.5
652.81	9.5
653.569	12.5
654.328	10.5
655.087	10.5
655.846	9.5
656.604	10.5
657.363	9.5
658.121	11.5
658.88	9.5
659.638	10.5
660.397	11.5
661.155	10.5
661.913	7.5
662.671	9.5
663.429	10.5
664.187	7.5
664.945	7.5
665.703	8.5
666.46	7.5
667.218	9.5
667.976	7.5
668.733	7.5
669.49	7.5
670.248	9.5
671.005	6.5
671.762	9.5
672.519	8.5
673.276	8.5
674.033	7.5
674.79	4.5
675.547	6.5
676.304	6.5
677.06	5.5
677.817	6.5
678.574	4.5
679.33	8.5
680.086	6.5
680.843	6.5
681.599	8.5
682.355	7.5
683.111	7.5
683.867	4.5
684.623	5.5
685.379	6.5
686.135	4.5
686.89	6.5
687.646	7.5
688.402	6.5
689.157	6.5
689.912	3.5
690.668	6.5
691.423	8.5
692.178	6.5
692.933	6.5
693.688	4.5
694.443	5.5
695.198	5.5
695.953	6.5
696.708	6.5
697.462	6.5
698.217	4.5
698.972	5.5
699.726	5.5
700.48	4.5
701.235	6.5
701.989	7.5
702.743	7.5
703.497	4.5
704.251	5.5
705.005	8.5
705.759	4.5
706.513	7.5
707.266	5.5
708.02	6.5
708.774	4.5
709.527	4.5
710.28	5.5
711.034	4.5
711.787	7.5
712.54	6.5
713.293	4.5
714.046	4.5
714.799	6.5
715.552	6.5
716.305	3.5
717.058	5.5
717.81	5.5
718.563	7.5
719.315	6.5
720.068	7.5
720.82	9.5
721.573	5.5
722.325	4.5
723.077	6.5
723.829	5.5
724.581	5.5
725.333	5.5
726.085	8.5
726.836	8.5
727.588	6.5
728.34	5.5
729.091	6.5
729.843	7.5
730.594	5.5
731.346	6.5
732.097	6.5
732.848	6.5
733.599	8.5
734.35	9.5
735.101	7.5
735.852	7.5
736.603	7.5
737.354	7.5
738.104	7.5
738.855	6.5
739.605	7.5
740.356	8.5
741.106	7.5
741.856	6.5
742.607	8.5
743.357	6.5
744.107	5.5
744.857	7.5
745.607	8.5
746.357	8.5
747.106	6.5
747.856	8.5
748.606	10.5
749.355	7.5
750.105	8.5
750.854	10.5
751.603	9.5
752.353	10.5
753.102	8.5
753.851	9.5
754.6	10.5
755.349	7.5
756.098	10.5
756.847	10.5
757.595	9.5
758.344	6.5
759.093	9.5
759.841	10.5
760.589	11.5
761.338	11.5
762.086	9.5
762.834	9.5
763.582	8.5
764.331	8.5
765.079	10.5
765.826	10.5
766.574	12.5
767.322	12.5
768.07	9.5
768.817	10.5
769.565	11.5
770.312	10.5
771.06	11.5
771.807	12.5
772.554	13.5
773.302	11.5
774.049	14.5
774.796	11.5
775.543	13.5
776.29	11.5
777.036	12.5
777.783	9.5
778.53	11.5
779.276	13.5
780.023	14.5
780.769	14.5
781.516	14.5
782.262	12.5
783.008	14.5
783.754	15.5
784.5	14.5
785.246	11.5
785.992	14.5
786.738	13.5
787.484	11.5
788.23	11.5
788.975	14.5
789.721	11.5
790.466	12.5
791.212	14.5
791.957	15.5
792.702	12.5
793.447	13.5
794.193	10.5
794.938	11.5
795.683	12.5
796.427	12.5
797.172	9.5
797.917	12.5
798.662	10.5
799.406	10.5
800.151	12.5
800.895	8.5
801.64	11.5
802.384	12.5
803.128	5.5
803.872	12.5
804.616	9.5
805.36	10.5
806.104	11.5
806.848	10.5
807.592	8.5
808.336	8.5
809.079	7.5
809.823	6.5
810.566	8.5
811.31	8.5
812.053	8.5
812.796	7.5
813.539	6.5
814.283	8.5
815.026	6.5
815.769	4.5
816.511	4.5
817.254	6.5
817.997	6.5
818.74	5.5
819.482	7.5
820.225	3.5
820.967	5.5
821.71	6.5
822.452	6.5
823.194	6.5
823.936	6.5
824.678	5.5
825.42	3.5
826.162	4.5
826.904	3.5
827.646	4.5
828.388	7.5
829.129	5.5
829.871	6.5
830.612	6.5
831.354	5.5
832.095	5.5
832.836	3.5
833.577	4.5
834.319	5.5
835.06	7.5
835.801	2.5
836.542	4.5
837.282	4.5
838.023	4.5
838.764	4.5
839.504	2.5
840.245	5.5
840.985	5.5
841.726	5.5
842.466	5.5
843.206	4.5
843.946	5.5
844.687	3.5
845.427	4.5
846.166	3.5
846.906	4.5
847.646	3.5
848.386	4.5
849.125	3.5
849.865	1.5
850.605	4.5
851.344	4.5
852.083	4.5
852.823	3.5
853.562	4.5
854.301	3.5
855.04	2.5
855.779	2.5
856.518	0.5
857.257	2.5
857.995	2.5
858.734	3.5
859.473	2.5
860.211	3.5
860.95	4.5
861.688	1.5
862.426	4.5
863.165	4.5
863.903	4.5
864.641	3.5
865.379	1.5
866.117	2.5
866.855	2.5
867.593	2.5
868.33	3.5
869.068	2.5
869.806	1.5
870.543	3.5
871.28	2.5
872.018	0.5
872.755	2.5
873.492	3.5
874.229	1.5
874.967	0.5
875.703	-1.5
876.44	3.5
877.177	0.5
877.914	0.5
878.651	0.5
879.387	0.5
880.124	1.5
880.86	0.5
881.597	1.5
882.333	0.5
883.069	1.5
883.806	3.5
884.542	3.5
885.278	-0.5
886.014	0.5
886.749	1.5
887.485	1.5
888.221	4.5
888.957	2.5
889.692	1.5
890.428	2.5
891.163	0.5
891.899	-0.5
892.634	1.5
893.369	0.5
894.104	-0.5
894.839	2.5
895.574	-1.5
896.309	0.5
897.044	2.5
897.779	0.5
898.514	1.5
899.248	-0.5
899.983	0.5
900.717	-0.5
901.452	1.5
902.186	1.5
902.92	1.5
903.654	1.5
904.389	0.5
905.123	2.5
905.857	0.5
906.59	3.5
907.324	0.5
908.058	0.5
908.792	1.5
909.525	-0.5
910.259	-0.5
910.992	0.5
911.726	0.5
912.459	0.5
913.192	-0.5
913.925	1.5
914.658	-1.5
915.391	1.5
916.124	-2.5
916.857	-1.5
917.59	1.5
918.323	1.5
919.055	-0.5
919.788	-0.5
920.521	-0.5
921.253	2.5
921.985	-0.5
922.718	0.5
923.45	1.5
924.182	0.5
924.914	-0.5
925.646	1.5
926.378	-1.5
927.11	-1.5
927.841	-0.5
928.573	-1.5
929.305	-1.5
930.036	-0.5
930.768	0.5
931.499	-1.5
932.23	0.5
932.962	0.5
933.693	-0.5
934.424	-1.5
935.155	0.5
935.886	-0.5
936.617	0.5
937.348	2.5
938.078	0.5
938.809	1.5
939.54	1.5
940.27	-1.5
941.001	0.5
941.731	-0.5
942.461	1.5
943.191	0.5
943.922	0.5
944.652	0.5
945.382	-0.5
946.112	0.5
946.841	-0.5
947.571	2.5
948.301	0.5
949.031	0.5
949.76	-0.5
950.49	0.5
951.219	-0.5
951.948	-0.5
952.678	0.5
953.407	0.5
954.136	0.5
954.865	-1.5
955.594	0.5
956.323	0.5
957.052	0.5
957.78	0.5
958.509	0.5
959.238	0.5
959.966	-1.5
960.695	1.5
961.423	0.5
962.151	-1.5
962.88	-0.5
963.608	1.5
964.336	0.5
965.064	-1.5
965.792	2.5
966.52	0.5
967.247	1.5
967.975	0.5
968.703	-0.5
969.43	1.5
970.158	0.5
970.885	-0.5
971.613	-2.5
972.34	0.5
973.067	0.5
973.794	-0.5
974.521	-0.5
975.248	0.5
975.975	-0.5
976.702	-0.5
977.429	2.5
978.156	0.5
978.882	2.5
979.609	1.5
980.335	0.5
981.062	0.5
981.788	-2.5
982.514	0.5
983.24	-1.5
983.967	-0.5
984.693	-0.5
985.419	-0.5
986.144	2.5
986.87	-1.5
987.596	0.5
988.322	0.5
989.047	2.5
989.773	-0.5
990.498	-0.5
991.224	1.5
991.949	0.5
992.674	0.5
993.399	1.5
994.124	0.5
994.849	1.5
995.574	-1.5
996.299	1.5
997.024	0.5
997.749	0.5
998.473	-0.5
999.198	0.5
999.922	-0.5
1000.647	0.5
1001.371	2.5
1002.095	-0.5
1002.82	-1.5
1003.544	-2.5
1004.268	1.5
1004.992	3.5
1005.716	2.5
1006.439	2.5
1007.163	3.5
1007.887	4.5
1008.611	-0.5
1009.334	-0.5
1010.058	0.5
1010.781	2.5
1011.504	0.5
1012.228	0.5
1012.951	-0.5
1013.674	1.5
1014.397	0.5
1015.12	0.5
