节点500_565_QEPB04081__565__09-59-49-012.txt的数据

Date: Thu Nov 13 09:59:49 CST 2025
User: PC
Spectrometer: QEPB0408
触发模式: 0
积分时间 (秒): 1.000000E-2
Scans to average: 1
启用暗噪声校正: true
启用非线性校正: false
滑动平均宽度: 0
X轴模式: Wavelengths
Number of Pixels in Spectrum: 1044
>>>>>Begin Spectral Data<<<<<
220.843	6.12
221.644	2.12
222.444	4.12
223.244	5.12
224.045	4.12
224.845	5.12
225.645	3.12
226.445	6.12
227.245	4.12
228.045	7.12
228.845	6.12
229.645	6.12
230.444	8.12
231.244	6.12
232.043	6.12
232.843	5.12
233.642	7.12
234.442	7.12
235.241	9.12
236.04	9.12
236.839	9.12
237.638	10.12
238.437	9.12
239.236	7.12
240.035	6.12
240.833	9.12
241.632	7.12
242.43	9.12
243.229	9.12
244.027	10.12
244.826	11.12
245.624	8.12
246.422	12.12
247.22	9.12
248.018	10.12
248.816	11.12
249.614	11.12
250.412	10.12
251.21	9.12
252.007	14.12
252.805	13.12
253.602	13.12
254.4	13.12
255.197	13.12
255.994	13.12
256.791	16.12
257.589	15.12
258.386	14.12
259.183	15.12
259.979	17.12
260.776	15.12
261.573	17.12
262.37	16.12
263.166	15.12
263.963	19.12
264.759	20.12
265.556	20.12
266.352	20.12
267.148	18.12
267.944	20.12
268.74	23.12
269.536	21.12
270.332	23.12
271.128	19.12
271.924	23.12
272.719	26.12
273.515	24.12
274.311	25.12
275.106	26.12
275.901	26.12
276.697	26.12
277.492	27.12
278.287	27.12
279.082	25.12
279.877	28.12
280.672	23.12
281.467	25.12
282.262	28.12
283.056	30.12
283.851	25.12
284.646	26.12
285.44	29.12
286.234	24.12
287.029	26.12
287.823	29.12
288.617	27.12
289.411	27.12
290.205	23.12
290.999	27.12
291.793	25.12
292.587	31.12
293.381	26.12
294.174	24.12
294.968	26.12
295.761	22.12
296.555	21.12
297.348	19.12
298.141	22.12
298.935	24.12
299.728	21.12
300.521	21.12
301.314	21.12
302.107	18.12
302.899	20.12
303.692	20.12
304.485	22.12
305.277	21.12
306.07	17.12
306.862	18.12
307.655	19.12
308.447	18.12
309.239	21.12
310.031	19.12
310.823	16.12
311.615	16.12
312.407	16.12
313.199	13.12
313.991	14.12
314.783	14.12
315.574	15.12
316.366	15.12
317.157	11.12
317.949	10.12
318.74	11.12
319.531	9.12
320.322	11.12
321.113	12.12
321.904	11.12
322.695	15.12
323.486	13.12
324.277	14.12
325.068	9.12
325.858	12.12
326.649	12.12
327.439	10.12
328.23	10.12
329.02	13.12
329.81	8.12
330.6	11.12
331.391	11.12
332.181	10.12
332.971	12.12
333.76	9.12
334.55	11.12
335.34	10.12
336.13	9.12
336.919	10.12
337.709	13.12
338.498	11.12
339.287	10.12
340.077	11.12
340.866	10.12
341.655	11.12
342.444	10.12
343.233	9.12
344.022	11.12
344.811	9.12
345.6	12.12
346.388	10.12
347.177	9.12
347.965	9.12
348.754	10.12
349.542	12.12
350.33	9.12
351.119	11.12
351.907	9.12
352.695	8.12
353.483	11.12
354.271	9.12
355.059	8.12
355.846	8.12
356.634	9.12
357.422	5.12
358.209	7.12
358.997	8.12
359.784	8.12
360.571	10.12
361.359	9.12
362.146	7.12
362.933	7.12
363.72	9.12
364.507	8.12
365.294	8.12
366.081	10.12
366.867	7.12
367.654	7.12
368.44	8.12
369.227	9.12
370.013	8.12
370.8	8.12
371.586	10.12
372.372	7.12
373.158	8.12
373.944	5.12
374.73	9.12
375.516	8.12
376.302	11.12
377.088	7.12
377.873	7.12
378.659	8.12
379.445	7.12
380.23	9.12
381.015	8.12
381.801	7.12
382.586	11.12
383.371	7.12
384.156	9.12
384.941	6.12
385.726	10.12
386.511	8.12
387.296	9.12
388.08	11.12
388.865	9.12
389.649	10.12
390.434	9.12
391.218	12.12
392.003	9.12
392.787	8.12
393.571	11.12
394.355	7.12
395.139	11.12
395.923	8.12
396.707	11.12
397.491	9.12
398.274	12.12
399.058	11.12
399.842	10.12
400.625	13.12
401.408	8.12
402.192	11.12
402.975	11.12
403.758	11.12
404.541	12.12
405.324	13.12
406.107	13.12
406.89	9.12
407.673	10.12
408.456	11.12
409.238	11.12
410.021	14.12
410.803	13.12
411.586	10.12
412.368	16.12
413.151	14.12
413.933	14.12
414.715	14.12
415.497	16.12
416.279	16.12
417.061	18.12
417.843	17.12
418.624	15.12
419.406	14.12
420.188	17.12
420.969	18.12
421.751	19.12
422.532	19.12
423.313	18.12
424.095	17.12
424.876	18.12
425.657	20.12
426.438	24.12
427.219	19.12
428	20.12
428.78	21.12
429.561	23.12
430.342	24.12
431.122	25.12
431.903	25.12
432.683	27.12
433.464	27.12
434.244	28.12
435.024	29.12
435.804	33.12
436.584	33.12
437.364	36.12
438.144	36.12
438.924	42.12
439.704	47.12
440.483	48.12
441.263	49.12
442.042	50.12
442.822	58.12
443.601	61.12
444.38	68.12
445.16	68.12
445.939	76.12
446.718	84.12
447.497	89.12
448.276	97.12
449.054	110.12
449.833	121.12
450.612	126.12
451.391	143.12
452.169	159.12
452.948	172.12
453.726	188.12
454.504	213.12
455.282	239.12
456.061	265.12
456.839	296.12
457.617	319.12
458.395	358.12
459.172	410.12
459.95	458.12
460.728	495.12
461.506	557.12
462.283	619.12
463.061	688.12
463.838	766.12
464.615	840.12
465.393	937.12
466.17	1042.12
466.947	1155.12
467.724	1264.12
468.501	1413.12
469.278	1556.12
470.055	1714.12
470.831	1903.12
471.608	2089.12
472.385	2316.12
473.161	2514.12
473.938	2765.12
474.714	3027.12
475.49	3306.12
476.266	3602.12
477.043	3934.12
477.819	4320.12
478.595	4720.12
479.371	5114.12
480.146	5564.12
480.922	6085.12
481.698	6563.12
482.473	7127.12
483.249	7708.12
484.024	8349.12
484.8	9078.12
485.575	9794.12
486.35	10577.12
487.126	11421.12
487.901	12307.12
488.676	13342.12
489.451	14339.12
490.225	15422.12
491	16614.12
491.775	17755.12
492.55	19044.12
493.324	20357.12
494.099	21661.12
494.873	23081.12
495.647	24464.12
496.422	25965.12
497.196	27305.12
497.97	28706.12
498.744	30087.12
499.518	31463.12
500.292	32789.12
501.066	33787.12
501.839	34987.12
502.613	35859.12
503.387	36639.12
504.16	37471.12
504.934	37834.12
505.707	38095.12
506.48	38317.12
507.253	38308.12
508.027	37973.12
508.8	37601.12
509.573	37092.12
510.346	36303.12
511.118	35531.12
511.891	34768.12
512.664	33739.12
513.437	32699.12
514.209	31626.12
514.982	30543.12
515.754	29452.12
516.526	28224.12
517.298	27173.12
518.071	26141.12
518.843	25064.12
519.615	24046.12
520.387	23122.12
521.159	22255.12
521.93	21356.12
522.702	20525.12
523.474	19652.12
524.245	18852.12
525.017	18148.12
525.788	17437.12
526.56	16654.12
527.331	15945.12
528.102	15231.12
528.873	14547.12
529.644	13857.12
530.415	13159.12
531.186	12541.12
531.957	11910.12
532.728	11357.12
533.498	10800.12
534.269	10194.12
535.039	9686.12
535.81	9217.12
536.58	8707.12
537.351	8243.12
538.121	7793.12
538.891	7362.12
539.661	6988.12
540.431	6646.12
541.201	6276.12
541.971	5937.12
542.741	5635.12
543.51	5358.12
544.28	5079.12
545.05	4828.12
545.819	4593.12
546.588	4383.12
547.358	4129.12
548.127	3952.12
548.896	3746.12
549.665	3587.12
550.434	3378.12
551.203	3206.12
551.972	3058.12
552.741	2898.12
553.51	2745.12
554.278	2581.12
555.047	2442.12
555.815	2334.12
556.584	2212.12
557.352	2083.12
558.121	1952.12
558.889	1835.12
559.657	1747.12
560.425	1636.12
561.193	1568.12
561.961	1489.12
562.729	1394.12
563.496	1338.12
564.264	1259.12
565.032	1202.12
565.799	1118.12
566.567	1078.12
567.334	1016.12
568.101	939.12
568.869	895.12
569.636	843.12
570.403	798.12
571.17	755.12
571.937	707.12
572.704	676.12
573.471	635.12
574.237	603.12
575.004	565.12
575.771	537.12
576.537	503.12
577.303	473.12
578.07	454.12
578.836	425.12
579.602	401.12
580.368	379.12
581.134	358.12
581.9	345.12
582.666	320.12
583.432	303.12
584.198	291.12
584.964	279.12
585.729	260.12
586.495	253.12
587.26	230.12
588.025	224.12
588.791	212.12
589.556	201.12
590.321	191.12
591.086	185.12
591.851	171.12
592.616	161.12
593.381	155.12
594.146	148.12
594.911	138.12
595.675	127.12
596.44	128.12
597.204	127.12
597.969	119.12
598.733	113.12
599.497	105.12
600.261	101.12
601.025	101.12
601.79	95.12
602.553	87.12
603.317	89.12
604.081	84.12
604.845	78.12
605.609	75.12
606.372	71.12
607.136	70.12
607.899	66.12
608.662	64.12
609.426	61.12
610.189	58.12
610.952	59.12
611.715	56.12
612.478	54.12
613.241	51.12
614.004	51.12
614.767	47.12
615.529	42.12
616.292	45.12
617.055	42.12
617.817	41.12
618.579	43.12
619.342	39.12
620.104	35.12
620.866	35.12
621.628	35.12
622.39	35.12
623.152	35.12
623.914	33.12
624.676	30.12
625.438	35.12
626.199	29.12
626.961	27.12
627.722	27.12
628.484	29.12
629.245	24.12
630.006	24.12
630.768	23.12
631.529	20.12
632.29	21.12
633.051	18.12
633.812	21.12
634.573	20.12
635.333	19.12
636.094	17.12
636.855	20.12
637.615	19.12
638.376	20.12
639.136	18.12
639.896	17.12
640.657	16.12
641.417	16.12
642.177	17.12
642.937	15.12
643.697	13.12
644.457	14.12
645.216	14.12
645.976	12.12
646.736	14.12
647.495	13.12
648.255	14.12
649.014	14.12
649.774	12.12
650.533	13.12
651.292	12.12
652.051	11.12
652.81	12.12
653.569	11.12
654.328	11.12
655.087	10.12
655.846	11.12
656.604	13.12
657.363	12.12
658.121	8.12
658.88	10.12
659.638	8.12
660.397	10.12
661.155	7.12
661.913	11.12
662.671	8.12
663.429	13.12
664.187	9.12
664.945	9.12
665.703	11.12
666.46	10.12
667.218	8.12
667.976	9.12
668.733	7.12
669.49	7.12
670.248	9.12
671.005	8.12
671.762	7.12
672.519	11.12
673.276	9.12
674.033	7.12
674.79	9.12
675.547	6.12
676.304	8.12
677.06	5.12
677.817	8.12
678.574	10.12
679.33	7.12
680.086	6.12
680.843	6.12
681.599	8.12
682.355	5.12
683.111	9.12
683.867	9.12
684.623	9.12
685.379	7.12
686.135	6.12
686.89	7.12
687.646	8.12
688.402	8.12
689.157	4.12
689.912	6.12
690.668	6.12
691.423	7.12
692.178	3.12
692.933	5.12
693.688	8.12
694.443	7.12
695.198	7.12
695.953	7.12
696.708	6.12
697.462	6.12
698.217	6.12
698.972	8.12
699.726	6.12
700.48	9.12
701.235	7.12
701.989	6.12
702.743	7.12
703.497	5.12
704.251	4.12
705.005	5.12
705.759	5.12
706.513	6.12
707.266	7.12
708.02	7.12
708.774	8.12
709.527	8.12
710.28	6.12
711.034	8.12
711.787	6.12
712.54	8.12
713.293	7.12
714.046	5.12
714.799	7.12
715.552	4.12
716.305	5.12
717.058	4.12
717.81	8.12
718.563	8.12
719.315	8.12
720.068	8.12
720.82	6.12
721.573	7.12
722.325	7.12
723.077	6.12
723.829	8.12
724.581	7.12
725.333	8.12
726.085	4.12
726.836	7.12
727.588	6.12
728.34	7.12
729.091	5.12
729.843	7.12
730.594	9.12
731.346	7.12
732.097	8.12
732.848	4.12
733.599	8.12
734.35	5.12
735.101	5.12
735.852	5.12
736.603	6.12
737.354	8.12
738.104	3.12
738.855	9.12
739.605	8.12
740.356	7.12
741.106	8.12
741.856	8.12
742.607	9.12
743.357	8.12
744.107	8.12
744.857	8.12
745.607	9.12
746.357	8.12
747.106	5.12
747.856	10.12
748.606	7.12
749.355	6.12
750.105	8.12
750.854	9.12
751.603	7.12
752.353	7.12
753.102	7.12
753.851	7.12
754.6	7.12
755.349	9.12
756.098	9.12
756.847	9.12
757.595	9.12
758.344	9.12
759.093	7.12
759.841	12.12
760.589	9.12
761.338	9.12
762.086	9.12
762.834	9.12
763.582	10.12
764.331	9.12
765.079	11.12
765.826	12.12
766.574	11.12
767.322	7.12
768.07	12.12
768.817	8.12
769.565	8.12
770.312	10.12
771.06	9.12
771.807	12.12
772.554	11.12
773.302	11.12
774.049	13.12
774.796	11.12
775.543	9.12
776.29	9.12
777.036	12.12
777.783	10.12
778.53	12.12
779.276	12.12
780.023	10.12
780.769	10.12
781.516	10.12
782.262	12.12
783.008	13.12
783.754	13.12
784.5	11.12
785.246	11.12
785.992	15.12
786.738	12.12
787.484	13.12
788.23	13.12
788.975	14.12
789.721	12.12
790.466	12.12
791.212	12.12
791.957	11.12
792.702	10.12
793.447	13.12
794.193	13.12
794.938	12.12
795.683	12.12
796.427	9.12
797.172	9.12
797.917	11.12
798.662	11.12
799.406	13.12
800.151	11.12
800.895	10.12
801.64	11.12
802.384	12.12
803.128	13.12
803.872	7.12
804.616	9.12
805.36	9.12
806.104	10.12
806.848	10.12
807.592	9.12
808.336	8.12
809.079	8.12
809.823	9.12
810.566	9.12
811.31	7.12
812.053	10.12
812.796	8.12
813.539	8.12
814.283	9.12
815.026	9.12
815.769	6.12
816.511	8.12
817.254	9.12
817.997	8.12
818.74	5.12
819.482	7.12
820.225	8.12
820.967	5.12
821.71	8.12
822.452	7.12
823.194	5.12
823.936	7.12
824.678	5.12
825.42	6.12
826.162	6.12
826.904	6.12
827.646	8.12
828.388	4.12
829.129	6.12
829.871	5.12
830.612	7.12
831.354	5.12
832.095	5.12
832.836	5.12
833.577	4.12
834.319	5.12
835.06	5.12
835.801	5.12
836.542	5.12
837.282	4.12
838.023	4.12
838.764	7.12
839.504	3.12
840.245	6.12
840.985	5.12
841.726	4.12
842.466	5.12
843.206	3.12
843.946	4.12
844.687	9.12
845.427	3.12
846.166	5.12
846.906	4.12
847.646	2.12
848.386	3.12
849.125	5.12
849.865	2.12
850.605	5.12
851.344	7.12
852.083	3.12
852.823	4.12
853.562	4.12
854.301	2.12
855.04	4.12
855.779	4.12
856.518	3.12
857.257	1.12
857.995	3.12
858.734	3.12
859.473	3.12
860.211	2.12
860.95	4.12
861.688	5.12
862.426	5.12
863.165	3.12
863.903	3.12
864.641	4.12
865.379	2.12
866.117	3.12
866.855	3.12
867.593	2.12
868.33	3.12
869.068	3.12
869.806	2.12
870.543	3.12
871.28	3.12
872.018	4.12
872.755	0.12
873.492	4.12
874.229	2.12
874.967	3.12
875.703	3.12
876.44	2.12
877.177	3.12
877.914	1.12
878.651	3.12
879.387	0.12
880.124	1.12
880.86	2.12
881.597	1.12
882.333	2.12
883.069	1.12
883.806	1.12
884.542	1.12
885.278	1.12
886.014	1.12
886.749	2.12
887.485	5.12
888.221	1.12
888.957	2.12
889.692	-0.88
890.428	2.12
891.163	1.12
891.899	3.12
892.634	1.12
893.369	2.12
894.104	2.12
894.839	2.12
895.574	2.12
896.309	4.12
897.044	0.12
897.779	1.12
898.514	1.12
899.248	1.12
899.983	1.12
900.717	-0.88
901.452	0.12
902.186	1.12
902.92	1.12
903.654	2.12
904.389	1.12
905.123	1.12
905.857	3.12
906.59	-1.88
907.324	1.12
908.058	2.12
908.792	1.12
909.525	0.12
910.259	1.12
910.992	1.12
911.726	3.12
912.459	0.12
913.192	0.12
913.925	2.12
914.658	0.12
915.391	0.12
916.124	0.12
916.857	0.12
917.59	0.12
918.323	-0.88
919.055	-1.88
919.788	2.12
920.521	1.12
921.253	3.12
921.985	0.12
922.718	2.12
923.45	-0.88
924.182	1.12
924.914	-0.88
925.646	0.12
926.378	1.12
927.11	2.12
927.841	1.12
928.573	1.12
929.305	2.12
930.036	1.12
930.768	0.12
931.499	1.12
932.23	2.12
932.962	2.12
933.693	1.12
934.424	3.12
935.155	2.12
935.886	0.12
936.617	0.12
937.348	-0.88
938.078	0.12
938.809	2.12
939.54	0.12
940.27	1.12
941.001	-0.88
941.731	0.12
942.461	-0.88
943.191	2.12
943.922	1.12
944.652	1.12
945.382	1.12
946.112	3.12
946.841	3.12
947.571	-1.88
948.301	1.12
949.031	-0.88
949.76	0.12
950.49	-1.88
951.219	0.12
951.948	-0.88
952.678	-0.88
953.407	0.12
954.136	-0.88
954.865	-0.88
955.594	1.12
956.323	1.12
957.052	1.12
957.78	0.12
958.509	0.12
959.238	1.12
959.966	-0.88
960.695	1.12
961.423	0.12
962.151	2.12
962.88	-1.88
963.608	2.12
964.336	0.12
965.064	-0.88
965.792	1.12
966.52	-1.88
967.247	1.12
967.975	2.12
968.703	1.12
969.43	1.12
970.158	2.12
970.885	-0.88
971.613	1.12
972.34	2.12
973.067	-0.88
973.794	0.12
974.521	1.12
975.248	2.12
975.975	-0.88
976.702	2.12
977.429	1.12
978.156	1.12
978.882	1.12
979.609	1.12
980.335	1.12
981.062	-0.88
981.788	1.12
982.514	-0.88
983.24	1.12
983.967	1.12
984.693	-1.88
985.419	-0.88
986.144	-1.88
986.87	1.12
987.596	1.12
988.322	-0.88
989.047	0.12
989.773	1.12
990.498	1.12
991.224	0.12
991.949	-1.88
992.674	-1.88
993.399	1.12
994.124	-0.88
994.849	-0.88
995.574	0.12
996.299	2.12
997.024	1.12
997.749	1.12
998.473	2.12
999.198	2.12
999.922	1.12
1000.647	0.12
1001.371	5.12
1002.095	-3.88
1002.82	-0.88
1003.544	-0.88
1004.268	2.12
1004.992	2.12
1005.716	2.12
1006.439	4.12
1007.163	4.12
1007.887	5.12
1008.611	1.12
1009.334	0.12
1010.058	2.12
1010.781	0.12
1011.504	-1.88
1012.228	-1.88
1012.951	0.12
1013.674	1.12
1014.397	0.12
1015.12	-0.88
