节点500_705_QEPB04081__572__20-54-03-766.txt的数据

Date: Wed Nov 12 20:54:03 CST 2025
User: PC
Spectrometer: QEPB0408
触发模式: 0
积分时间 (秒): 1.000000E-2
Scans to average: 1
启用暗噪声校正: true
启用非线性校正: false
滑动平均宽度: 0
X轴模式: Wavelengths
Number of Pixels in Spectrum: 1044
>>>>>Begin Spectral Data<<<<<
220.843	6.25
221.644	6.25
222.444	7.25
223.244	6.25
224.045	4.25
224.845	7.25
225.645	8.25
226.445	6.25
227.245	6.25
228.045	7.25
228.845	7.25
229.645	7.25
230.444	9.25
231.244	9.25
232.043	8.25
232.843	8.25
233.642	11.25
234.442	9.25
235.241	7.25
236.04	8.25
236.839	8.25
237.638	8.25
238.437	10.25
239.236	9.25
240.035	11.25
240.833	10.25
241.632	11.25
242.43	13.25
243.229	13.25
244.027	11.25
244.826	12.25
245.624	12.25
246.422	13.25
247.22	15.25
248.018	14.25
248.816	14.25
249.614	15.25
250.412	14.25
251.21	14.25
252.007	15.25
252.805	17.25
253.602	15.25
254.4	17.25
255.197	17.25
255.994	18.25
256.791	18.25
257.589	18.25
258.386	19.25
259.183	21.25
259.979	19.25
260.776	21.25
261.573	23.25
262.37	20.25
263.166	22.25
263.963	23.25
264.759	26.25
265.556	27.25
266.352	22.25
267.148	22.25
267.944	25.25
268.74	27.25
269.536	27.25
270.332	26.25
271.128	25.25
271.924	27.25
272.719	26.25
273.515	30.25
274.311	32.25
275.106	29.25
275.901	33.25
276.697	30.25
277.492	34.25
278.287	31.25
279.082	30.25
279.877	30.25
280.672	31.25
281.467	27.25
282.262	31.25
283.056	32.25
283.851	30.25
284.646	30.25
285.44	31.25
286.234	32.25
287.029	30.25
287.823	27.25
288.617	33.25
289.411	29.25
290.205	28.25
290.999	28.25
291.793	31.25
292.587	31.25
293.381	33.25
294.174	26.25
294.968	29.25
295.761	27.25
296.555	31.25
297.348	23.25
298.141	27.25
298.935	28.25
299.728	21.25
300.521	24.25
301.314	23.25
302.107	23.25
302.899	25.25
303.692	25.25
304.485	25.25
305.277	23.25
306.07	24.25
306.862	22.25
307.655	21.25
308.447	21.25
309.239	20.25
310.031	21.25
310.823	17.25
311.615	16.25
312.407	17.25
313.199	17.25
313.991	17.25
314.783	16.25
315.574	17.25
316.366	19.25
317.157	18.25
317.949	14.25
318.74	15.25
319.531	17.25
320.322	12.25
321.113	14.25
321.904	13.25
322.695	13.25
323.486	17.25
324.277	14.25
325.068	13.25
325.858	15.25
326.649	15.25
327.439	13.25
328.23	14.25
329.02	14.25
329.81	14.25
330.6	13.25
331.391	10.25
332.181	13.25
332.971	11.25
333.76	11.25
334.55	13.25
335.34	12.25
336.13	10.25
336.919	11.25
337.709	14.25
338.498	12.25
339.287	11.25
340.077	13.25
340.866	9.25
341.655	9.25
342.444	14.25
343.233	12.25
344.022	11.25
344.811	11.25
345.6	12.25
346.388	12.25
347.177	13.25
347.965	9.25
348.754	9.25
349.542	9.25
350.33	10.25
351.119	11.25
351.907	10.25
352.695	10.25
353.483	11.25
354.271	10.25
355.059	9.25
355.846	9.25
356.634	12.25
357.422	11.25
358.209	10.25
358.997	12.25
359.784	8.25
360.571	9.25
361.359	9.25
362.146	10.25
362.933	9.25
363.72	10.25
364.507	11.25
365.294	10.25
366.081	11.25
366.867	10.25
367.654	11.25
368.44	10.25
369.227	9.25
370.013	7.25
370.8	10.25
371.586	10.25
372.372	9.25
373.158	12.25
373.944	7.25
374.73	8.25
375.516	9.25
376.302	9.25
377.088	9.25
377.873	12.25
378.659	11.25
379.445	9.25
380.23	10.25
381.015	8.25
381.801	11.25
382.586	11.25
383.371	8.25
384.156	10.25
384.941	12.25
385.726	8.25
386.511	9.25
387.296	11.25
388.08	12.25
388.865	10.25
389.649	8.25
390.434	12.25
391.218	13.25
392.003	12.25
392.787	10.25
393.571	11.25
394.355	13.25
395.139	10.25
395.923	14.25
396.707	12.25
397.491	13.25
398.274	13.25
399.058	12.25
399.842	9.25
400.625	12.25
401.408	12.25
402.192	15.25
402.975	17.25
403.758	12.25
404.541	12.25
405.324	13.25
406.107	14.25
406.89	14.25
407.673	17.25
408.456	13.25
409.238	16.25
410.021	14.25
410.803	18.25
411.586	16.25
412.368	18.25
413.151	17.25
413.933	18.25
414.715	19.25
415.497	14.25
416.279	17.25
417.061	18.25
417.843	19.25
418.624	21.25
419.406	19.25
420.188	22.25
420.969	19.25
421.751	20.25
422.532	17.25
423.313	21.25
424.095	21.25
424.876	21.25
425.657	25.25
426.438	23.25
427.219	26.25
428	29.25
428.78	28.25
429.561	30.25
430.342	32.25
431.122	29.25
431.903	33.25
432.683	32.25
433.464	35.25
434.244	38.25
435.024	41.25
435.804	39.25
436.584	43.25
437.364	48.25
438.144	49.25
438.924	48.25
439.704	57.25
440.483	58.25
441.263	60.25
442.042	68.25
442.822	71.25
443.601	73.25
444.38	83.25
445.16	96.25
445.939	95.25
446.718	105.25
447.497	118.25
448.276	130.25
449.054	146.25
449.833	156.25
450.612	171.25
451.391	191.25
452.169	210.25
452.948	237.25
453.726	258.25
454.504	285.25
455.282	315.25
456.061	348.25
456.839	395.25
457.617	430.25
458.395	485.25
459.172	536.25
459.95	607.25
460.728	672.25
461.506	748.25
462.283	828.25
463.061	918.25
463.838	1016.25
464.615	1136.25
465.393	1260.25
466.17	1387.25
466.947	1541.25
467.724	1677.25
468.501	1873.25
469.278	2055.25
470.055	2275.25
470.831	2521.25
471.608	2744.25
472.385	2995.25
473.161	3301.25
473.938	3620.25
474.714	3953.25
475.49	4327.25
476.266	4700.25
477.043	5131.25
477.819	5583.25
478.595	6074.25
479.371	6603.25
480.146	7190.25
480.922	7792.25
481.698	8427.25
482.473	9128.25
483.249	9919.25
484.024	10742.25
484.8	11556.25
485.575	12482.25
486.35	13471.25
487.126	14519.25
487.901	15637.25
488.676	16763.25
489.451	18106.25
490.225	19368.25
491	20745.25
491.775	22096.25
492.55	23575.25
493.324	25062.25
494.099	26648.25
494.873	28232.25
495.647	29888.25
496.422	31419.25
497.196	33053.25
497.97	34600.25
498.744	36099.25
499.518	37599.25
500.292	38931.25
501.066	39971.25
501.839	40982.25
502.613	41953.25
503.387	42760.25
504.16	43333.25
504.934	43710.25
505.707	44004.25
506.48	43847.25
507.253	43662.25
508.027	43316.25
508.8	42724.25
509.573	42039.25
510.346	41227.25
511.118	40440.25
511.891	39450.25
512.664	38187.25
513.437	36898.25
514.209	35748.25
514.982	34512.25
515.754	33192.25
516.526	32000.25
517.298	30705.25
518.071	29585.25
518.843	28435.25
519.615	27240.25
520.387	26197.25
521.159	25239.25
521.93	24204.25
522.702	23238.25
523.474	22170.25
524.245	21398.25
525.017	20440.25
525.788	19590.25
526.56	18882.25
527.331	18038.25
528.102	17160.25
528.873	16358.25
529.644	15603.25
530.415	14899.25
531.186	14180.25
531.957	13494.25
532.728	12818.25
533.498	12160.25
534.269	11598.25
535.039	10945.25
535.81	10382.25
536.58	9854.25
537.351	9280.25
538.121	8839.25
538.891	8352.25
539.661	7902.25
540.431	7471.25
541.201	7111.25
541.971	6728.25
542.741	6360.25
543.51	6033.25
544.28	5767.25
545.05	5487.25
545.819	5238.25
546.588	5000.25
547.358	4746.25
548.127	4493.25
548.896	4288.25
549.665	4087.25
550.434	3881.25
551.203	3660.25
551.972	3469.25
552.741	3304.25
553.51	3116.25
554.278	2941.25
555.047	2753.25
555.815	2654.25
556.584	2489.25
557.352	2348.25
558.121	2210.25
558.889	2110.25
559.657	2012.25
560.425	1898.25
561.193	1795.25
561.961	1712.25
562.729	1607.25
563.496	1524.25
564.264	1454.25
565.032	1356.25
565.799	1289.25
566.567	1220.25
567.334	1162.25
568.101	1078.25
568.869	1022.25
569.636	960.25
570.403	901.25
571.17	867.25
571.937	823.25
572.704	767.25
573.471	721.25
574.237	690.25
575.004	643.25
575.771	614.25
576.537	577.25
577.303	543.25
578.07	519.25
578.836	476.25
579.602	453.25
580.368	434.25
581.134	419.25
581.9	391.25
582.666	380.25
583.432	355.25
584.198	335.25
584.964	322.25
585.729	301.25
586.495	290.25
587.26	270.25
588.025	258.25
588.791	241.25
589.556	231.25
590.321	216.25
591.086	207.25
591.851	197.25
592.616	185.25
593.381	186.25
594.146	170.25
594.911	161.25
595.675	156.25
596.44	150.25
597.204	144.25
597.969	136.25
598.733	130.25
599.497	129.25
600.261	123.25
601.025	112.25
601.79	110.25
602.553	107.25
603.317	99.25
604.081	94.25
604.845	94.25
605.609	92.25
606.372	86.25
607.136	83.25
607.899	76.25
608.662	75.25
609.426	70.25
610.189	70.25
610.952	68.25
611.715	61.25
612.478	63.25
613.241	60.25
614.004	56.25
614.767	56.25
615.529	53.25
616.292	53.25
617.055	49.25
617.817	47.25
618.579	45.25
619.342	43.25
620.104	46.25
620.866	41.25
621.628	43.25
622.39	36.25
623.152	37.25
623.914	36.25
624.676	42.25
625.438	34.25
626.199	32.25
626.961	33.25
627.722	36.25
628.484	32.25
629.245	29.25
630.006	27.25
630.768	27.25
631.529	28.25
632.29	27.25
633.051	26.25
633.812	23.25
634.573	26.25
635.333	21.25
636.094	26.25
636.855	23.25
637.615	24.25
638.376	22.25
639.136	23.25
639.896	22.25
640.657	23.25
641.417	18.25
642.177	17.25
642.937	17.25
643.697	19.25
644.457	15.25
645.216	20.25
645.976	19.25
646.736	16.25
647.495	15.25
648.255	16.25
649.014	14.25
649.774	13.25
650.533	15.25
651.292	13.25
652.051	14.25
652.81	15.25
653.569	10.25
654.328	14.25
655.087	13.25
655.846	12.25
656.604	11.25
657.363	12.25
658.121	13.25
658.88	13.25
659.638	15.25
660.397	13.25
661.155	10.25
661.913	11.25
662.671	11.25
663.429	11.25
664.187	12.25
664.945	11.25
665.703	9.25
666.46	11.25
667.218	10.25
667.976	10.25
668.733	9.25
669.49	8.25
670.248	8.25
671.005	7.25
671.762	9.25
672.519	11.25
673.276	9.25
674.033	10.25
674.79	7.25
675.547	7.25
676.304	9.25
677.06	10.25
677.817	8.25
678.574	7.25
679.33	9.25
680.086	8.25
680.843	7.25
681.599	8.25
682.355	8.25
683.111	9.25
683.867	8.25
684.623	10.25
685.379	10.25
686.135	7.25
686.89	9.25
687.646	6.25
688.402	5.25
689.157	8.25
689.912	8.25
690.668	9.25
691.423	9.25
692.178	8.25
692.933	5.25
693.688	8.25
694.443	8.25
695.198	7.25
695.953	8.25
696.708	6.25
697.462	8.25
698.217	7.25
698.972	8.25
699.726	9.25
700.48	8.25
701.235	8.25
701.989	7.25
702.743	8.25
703.497	5.25
704.251	7.25
705.005	7.25
705.759	9.25
706.513	8.25
707.266	6.25
708.02	5.25
708.774	6.25
709.527	6.25
710.28	6.25
711.034	8.25
711.787	9.25
712.54	4.25
713.293	6.25
714.046	7.25
714.799	7.25
715.552	7.25
716.305	5.25
717.058	10.25
717.81	7.25
718.563	9.25
719.315	10.25
720.068	9.25
720.82	9.25
721.573	7.25
722.325	8.25
723.077	9.25
723.829	6.25
724.581	9.25
725.333	9.25
726.085	8.25
726.836	7.25
727.588	9.25
728.34	7.25
729.091	9.25
729.843	10.25
730.594	8.25
731.346	7.25
732.097	11.25
732.848	9.25
733.599	8.25
734.35	11.25
735.101	10.25
735.852	8.25
736.603	9.25
737.354	10.25
738.104	9.25
738.855	8.25
739.605	7.25
740.356	10.25
741.106	9.25
741.856	8.25
742.607	9.25
743.357	9.25
744.107	9.25
744.857	10.25
745.607	7.25
746.357	8.25
747.106	11.25
747.856	10.25
748.606	9.25
749.355	13.25
750.105	10.25
750.854	10.25
751.603	10.25
752.353	9.25
753.102	12.25
753.851	11.25
754.6	11.25
755.349	11.25
756.098	13.25
756.847	12.25
757.595	10.25
758.344	13.25
759.093	11.25
759.841	14.25
760.589	13.25
761.338	12.25
762.086	11.25
762.834	12.25
763.582	10.25
764.331	12.25
765.079	14.25
765.826	11.25
766.574	11.25
767.322	11.25
768.07	14.25
768.817	12.25
769.565	13.25
770.312	13.25
771.06	14.25
771.807	14.25
772.554	17.25
773.302	13.25
774.049	15.25
774.796	12.25
775.543	13.25
776.29	14.25
777.036	14.25
777.783	15.25
778.53	16.25
779.276	14.25
780.023	16.25
780.769	12.25
781.516	15.25
782.262	15.25
783.008	14.25
783.754	13.25
784.5	14.25
785.246	14.25
785.992	15.25
786.738	14.25
787.484	15.25
788.23	13.25
788.975	15.25
789.721	15.25
790.466	16.25
791.212	14.25
791.957	15.25
792.702	11.25
793.447	15.25
794.193	12.25
794.938	11.25
795.683	12.25
796.427	12.25
797.172	14.25
797.917	10.25
798.662	13.25
799.406	11.25
800.151	12.25
800.895	14.25
801.64	10.25
802.384	11.25
803.128	11.25
803.872	10.25
804.616	11.25
805.36	11.25
806.104	11.25
806.848	9.25
807.592	9.25
808.336	8.25
809.079	9.25
809.823	9.25
810.566	8.25
811.31	10.25
812.053	10.25
812.796	9.25
813.539	9.25
814.283	10.25
815.026	8.25
815.769	8.25
816.511	7.25
817.254	9.25
817.997	7.25
818.74	10.25
819.482	7.25
820.225	7.25
820.967	5.25
821.71	7.25
822.452	10.25
823.194	7.25
823.936	6.25
824.678	8.25
825.42	6.25
826.162	7.25
826.904	7.25
827.646	8.25
828.388	7.25
829.129	8.25
829.871	6.25
830.612	6.25
831.354	6.25
832.095	7.25
832.836	6.25
833.577	3.25
834.319	5.25
835.06	5.25
835.801	3.25
836.542	5.25
837.282	5.25
838.023	6.25
838.764	7.25
839.504	5.25
840.245	6.25
840.985	7.25
841.726	5.25
842.466	8.25
843.206	6.25
843.946	5.25
844.687	5.25
845.427	5.25
846.166	6.25
846.906	6.25
847.646	2.25
848.386	5.25
849.125	6.25
849.865	5.25
850.605	7.25
851.344	6.25
852.083	3.25
852.823	6.25
853.562	5.25
854.301	6.25
855.04	5.25
855.779	4.25
856.518	4.25
857.257	3.25
857.995	7.25
858.734	2.25
859.473	5.25
860.211	4.25
860.95	4.25
861.688	2.25
862.426	3.25
863.165	2.25
863.903	2.25
864.641	3.25
865.379	1.25
866.117	3.25
866.855	4.25
867.593	3.25
868.33	4.25
869.068	1.25
869.806	2.25
870.543	3.25
871.28	2.25
872.018	1.25
872.755	1.25
873.492	3.25
874.229	2.25
874.967	5.25
875.703	3.25
876.44	3.25
877.177	1.25
877.914	2.25
878.651	3.25
879.387	2.25
880.124	1.25
880.86	1.25
881.597	3.25
882.333	4.25
883.069	3.25
883.806	2.25
884.542	3.25
885.278	0.25
886.014	3.25
886.749	0.25
887.485	1.25
888.221	0.25
888.957	2.25
889.692	2.25
890.428	1.25
891.163	2.25
891.899	1.25
892.634	3.25
893.369	-0.75
894.104	2.25
894.839	2.25
895.574	2.25
896.309	0.25
897.044	2.25
897.779	1.25
898.514	1.25
899.248	1.25
899.983	3.25
900.717	0.25
901.452	2.25
902.186	2.25
902.92	1.25
903.654	3.25
904.389	0.25
905.123	3.25
905.857	-0.75
906.59	-0.75
907.324	1.25
908.058	2.25
908.792	4.25
909.525	0.25
910.259	0.25
910.992	0.25
911.726	-0.75
912.459	2.25
913.192	2.25
913.925	-0.75
914.658	1.25
915.391	0.25
916.124	1.25
916.857	-0.75
917.59	2.25
918.323	0.25
919.055	2.25
919.788	-0.75
920.521	2.25
921.253	1.25
921.985	-0.75
922.718	0.25
923.45	1.25
924.182	0.25
924.914	0.25
925.646	-0.75
926.378	-0.75
927.11	-0.75
927.841	2.25
928.573	0.25
929.305	3.25
930.036	-0.75
930.768	0.25
931.499	1.25
932.23	2.25
932.962	1.25
933.693	2.25
934.424	0.25
935.155	1.25
935.886	-0.75
936.617	3.25
937.348	0.25
938.078	1.25
938.809	2.25
939.54	3.25
940.27	0.25
941.001	2.25
941.731	1.25
942.461	-0.75
943.191	2.25
943.922	0.25
944.652	0.25
945.382	1.25
946.112	0.25
946.841	1.25
947.571	1.25
948.301	2.25
949.031	-0.75
949.76	0.25
950.49	-0.75
951.219	-0.75
951.948	2.25
952.678	3.25
953.407	1.25
954.136	1.25
954.865	1.25
955.594	-0.75
956.323	1.25
957.052	3.25
957.78	1.25
958.509	-0.75
959.238	1.25
959.966	2.25
960.695	1.25
961.423	0.25
962.151	-0.75
962.88	0.25
963.608	0.25
964.336	2.25
965.064	-1.75
965.792	0.25
966.52	-1.75
967.247	1.25
967.975	0.25
968.703	-2.75
969.43	-0.75
970.158	0.25
970.885	-0.75
971.613	1.25
972.34	1.25
973.067	2.25
973.794	2.25
974.521	1.25
975.248	-0.75
975.975	-0.75
976.702	2.25
977.429	2.25
978.156	0.25
978.882	0.25
979.609	-1.75
980.335	2.25
981.062	1.25
981.788	0.25
982.514	0.25
983.24	1.25
983.967	-0.75
984.693	1.25
985.419	0.25
986.144	1.25
986.87	-0.75
987.596	0.25
988.322	1.25
989.047	1.25
989.773	0.25
990.498	1.25
991.224	1.25
991.949	1.25
992.674	0.25
993.399	1.25
994.124	1.25
994.849	0.25
995.574	-0.75
996.299	0.25
997.024	-1.75
997.749	-0.75
998.473	0.25
999.198	1.25
999.922	1.25
1000.647	0.25
1001.371	5.25
1002.095	-1.75
1002.82	0.25
1003.544	-0.75
1004.268	5.25
1004.992	4.25
1005.716	5.25
1006.439	7.25
1007.163	3.25
1007.887	6.25
1008.611	-1.75
1009.334	1.25
1010.058	0.25
1010.781	0.25
1011.504	-1.75
1012.228	1.25
1012.951	-0.75
1013.674	-1.75
1014.397	-0.75
1015.12	0.25
