节点500_705_QEPB04081__238__20-49-17-467.txt的数据

Date: Wed Nov 12 20:49:17 CST 2025
User: PC
Spectrometer: QEPB0408
触发模式: 0
积分时间 (秒): 1.000000E-2
Scans to average: 1
启用暗噪声校正: true
启用非线性校正: false
滑动平均宽度: 0
X轴模式: Wavelengths
Number of Pixels in Spectrum: 1044
>>>>>Begin Spectral Data<<<<<
220.843	4.75
221.644	6.75
222.444	3.75
223.244	5.75
224.045	8.75
224.845	6.75
225.645	5.75
226.445	5.75
227.245	9.75
228.045	8.75
228.845	7.75
229.645	10.75
230.444	6.75
231.244	8.75
232.043	10.75
232.843	6.75
233.642	11.75
234.442	10.75
235.241	9.75
236.04	8.75
236.839	7.75
237.638	12.75
238.437	9.75
239.236	10.75
240.035	12.75
240.833	9.75
241.632	12.75
242.43	11.75
243.229	14.75
244.027	12.75
244.826	12.75
245.624	10.75
246.422	15.75
247.22	13.75
248.018	14.75
248.816	14.75
249.614	16.75
250.412	14.75
251.21	16.75
252.007	14.75
252.805	18.75
253.602	16.75
254.4	15.75
255.197	19.75
255.994	21.75
256.791	22.75
257.589	20.75
258.386	21.75
259.183	23.75
259.979	19.75
260.776	23.75
261.573	23.75
262.37	25.75
263.166	24.75
263.963	25.75
264.759	24.75
265.556	27.75
266.352	30.75
267.148	29.75
267.944	26.75
268.74	29.75
269.536	29.75
270.332	32.75
271.128	29.75
271.924	33.75
272.719	32.75
273.515	34.75
274.311	35.75
275.106	34.75
275.901	34.75
276.697	35.75
277.492	37.75
278.287	34.75
279.082	35.75
279.877	38.75
280.672	35.75
281.467	36.75
282.262	33.75
283.056	36.75
283.851	34.75
284.646	36.75
285.44	33.75
286.234	33.75
287.029	36.75
287.823	33.75
288.617	34.75
289.411	33.75
290.205	31.75
290.999	32.75
291.793	29.75
292.587	30.75
293.381	30.75
294.174	33.75
294.968	28.75
295.761	25.75
296.555	26.75
297.348	26.75
298.141	27.75
298.935	28.75
299.728	26.75
300.521	23.75
301.314	22.75
302.107	22.75
302.899	25.75
303.692	26.75
304.485	24.75
305.277	19.75
306.07	21.75
306.862	22.75
307.655	20.75
308.447	22.75
309.239	18.75
310.031	18.75
310.823	18.75
311.615	19.75
312.407	18.75
313.199	16.75
313.991	15.75
314.783	18.75
315.574	18.75
316.366	17.75
317.157	15.75
317.949	15.75
318.74	13.75
319.531	15.75
320.322	14.75
321.113	15.75
321.904	14.75
322.695	12.75
323.486	15.75
324.277	13.75
325.068	14.75
325.858	11.75
326.649	11.75
327.439	10.75
328.23	13.75
329.02	13.75
329.81	10.75
330.6	10.75
331.391	12.75
332.181	11.75
332.971	10.75
333.76	14.75
334.55	14.75
335.34	9.75
336.13	14.75
336.919	8.75
337.709	12.75
338.498	10.75
339.287	9.75
340.077	10.75
340.866	14.75
341.655	14.75
342.444	12.75
343.233	8.75
344.022	12.75
344.811	12.75
345.6	12.75
346.388	10.75
347.177	11.75
347.965	11.75
348.754	11.75
349.542	12.75
350.33	10.75
351.119	12.75
351.907	10.75
352.695	10.75
353.483	12.75
354.271	12.75
355.059	10.75
355.846	11.75
356.634	10.75
357.422	11.75
358.209	7.75
358.997	9.75
359.784	11.75
360.571	10.75
361.359	8.75
362.146	9.75
362.933	9.75
363.72	10.75
364.507	11.75
365.294	7.75
366.081	10.75
366.867	10.75
367.654	10.75
368.44	9.75
369.227	9.75
370.013	11.75
370.8	7.75
371.586	9.75
372.372	9.75
373.158	9.75
373.944	11.75
374.73	9.75
375.516	10.75
376.302	9.75
377.088	8.75
377.873	10.75
378.659	9.75
379.445	10.75
380.23	9.75
381.015	11.75
381.801	9.75
382.586	8.75
383.371	12.75
384.156	8.75
384.941	11.75
385.726	8.75
386.511	11.75
387.296	8.75
388.08	12.75
388.865	12.75
389.649	12.75
390.434	12.75
391.218	10.75
392.003	10.75
392.787	11.75
393.571	9.75
394.355	11.75
395.139	10.75
395.923	12.75
396.707	11.75
397.491	12.75
398.274	12.75
399.058	11.75
399.842	10.75
400.625	13.75
401.408	13.75
402.192	14.75
402.975	12.75
403.758	13.75
404.541	13.75
405.324	15.75
406.107	16.75
406.89	13.75
407.673	16.75
408.456	16.75
409.238	18.75
410.021	14.75
410.803	17.75
411.586	15.75
412.368	16.75
413.151	17.75
413.933	16.75
414.715	19.75
415.497	15.75
416.279	16.75
417.061	19.75
417.843	18.75
418.624	21.75
419.406	19.75
420.188	20.75
420.969	20.75
421.751	21.75
422.532	23.75
423.313	22.75
424.095	23.75
424.876	26.75
425.657	23.75
426.438	26.75
427.219	26.75
428	28.75
428.78	31.75
429.561	29.75
430.342	28.75
431.122	30.75
431.903	31.75
432.683	34.75
433.464	34.75
434.244	38.75
435.024	37.75
435.804	43.75
436.584	41.75
437.364	45.75
438.144	48.75
438.924	52.75
439.704	55.75
440.483	54.75
441.263	58.75
442.042	63.75
442.822	70.75
443.601	72.75
444.38	74.75
445.16	87.75
445.939	90.75
446.718	99.75
447.497	109.75
448.276	120.75
449.054	132.75
449.833	141.75
450.612	160.75
451.391	173.75
452.169	194.75
452.948	211.75
453.726	236.75
454.504	261.75
455.282	290.75
456.061	312.75
456.839	364.75
457.617	394.75
458.395	447.75
459.172	491.75
459.95	557.75
460.728	615.75
461.506	692.75
462.283	764.75
463.061	864.75
463.838	956.75
464.615	1059.75
465.393	1190.75
466.17	1320.75
466.947	1468.75
467.724	1642.75
468.501	1810.75
469.278	2028.75
470.055	2241.75
470.831	2473.75
471.608	2736.75
472.385	3024.75
473.161	3323.75
473.938	3698.75
474.714	4058.75
475.49	4448.75
476.266	4916.75
477.043	5376.75
477.819	5901.75
478.595	6430.75
479.371	7054.75
480.146	7726.75
480.922	8454.75
481.698	9257.75
482.473	10003.75
483.249	10924.75
484.024	11936.75
484.8	12986.75
485.575	14117.75
486.35	15337.75
487.126	16548.75
487.901	17904.75
488.676	19409.75
489.451	20929.75
490.225	22545.75
491	24198.75
491.775	25955.75
492.55	27691.75
493.324	29551.75
494.099	31398.75
494.873	33232.75
495.647	35106.75
496.422	37024.75
497.196	38800.75
497.97	40426.75
498.744	41960.75
499.518	43634.75
500.292	45016.75
501.066	45909.75
501.839	46784.75
502.613	47476.75
503.387	48018.75
504.16	48302.75
504.934	48211.75
505.707	48153.75
506.48	47593.75
507.253	47122.75
508.027	46088.75
508.8	45188.75
509.573	43999.75
510.346	42727.75
511.118	41606.75
511.891	40225.75
512.664	38750.75
513.437	37170.75
514.209	35717.75
514.982	34380.75
515.754	32922.75
516.526	31459.75
517.298	30273.75
518.071	29097.75
518.843	27881.75
519.615	26792.75
520.387	25671.75
521.159	24641.75
521.93	23628.75
522.702	22612.75
523.474	21691.75
524.245	20776.75
525.017	19767.75
525.788	18988.75
526.56	18184.75
527.331	17386.75
528.102	16440.75
528.873	15566.75
529.644	14824.75
530.415	14132.75
531.186	13443.75
531.957	12716.75
532.728	12068.75
533.498	11442.75
534.269	10760.75
535.039	10222.75
535.81	9684.75
536.58	9135.75
537.351	8625.75
538.121	8221.75
538.891	7756.75
539.661	7363.75
540.431	6946.75
541.201	6580.75
541.971	6239.75
542.741	5904.75
543.51	5602.75
544.28	5336.75
545.05	5072.75
545.819	4865.75
546.588	4635.75
547.358	4437.75
548.127	4202.75
548.896	3952.75
549.665	3777.75
550.434	3547.75
551.203	3371.75
551.972	3198.75
552.741	3023.75
553.51	2832.75
554.278	2699.75
555.047	2537.75
555.815	2402.75
556.584	2274.75
557.352	2165.75
558.121	2029.75
558.889	1905.75
559.657	1815.75
560.425	1711.75
561.193	1616.75
561.961	1530.75
562.729	1455.75
563.496	1376.75
564.264	1295.75
565.032	1219.75
565.799	1182.75
566.567	1100.75
567.334	1040.75
568.101	988.75
568.869	928.75
569.636	878.75
570.403	833.75
571.17	774.75
571.937	742.75
572.704	705.75
573.471	663.75
574.237	628.75
575.004	581.75
575.771	549.75
576.537	517.75
577.303	497.75
578.07	463.75
578.836	435.75
579.602	405.75
580.368	394.75
581.134	378.75
581.9	356.75
582.666	334.75
583.432	321.75
584.198	305.75
584.964	287.75
585.729	276.75
586.495	251.75
587.26	248.75
588.025	234.75
588.791	222.75
589.556	202.75
590.321	200.75
591.086	188.75
591.851	178.75
592.616	172.75
593.381	166.75
594.146	155.75
594.911	149.75
595.675	144.75
596.44	138.75
597.204	134.75
597.969	124.75
598.733	121.75
599.497	112.75
600.261	108.75
601.025	103.75
601.79	103.75
602.553	99.75
603.317	91.75
604.081	90.75
604.845	87.75
605.609	82.75
606.372	78.75
607.136	73.75
607.899	74.75
608.662	68.75
609.426	68.75
610.189	65.75
610.952	61.75
611.715	59.75
612.478	54.75
613.241	57.75
614.004	50.75
614.767	50.75
615.529	49.75
616.292	46.75
617.055	47.75
617.817	45.75
618.579	42.75
619.342	38.75
620.104	41.75
620.866	38.75
621.628	37.75
622.39	34.75
623.152	37.75
623.914	34.75
624.676	35.75
625.438	32.75
626.199	32.75
626.961	30.75
627.722	28.75
628.484	30.75
629.245	26.75
630.006	28.75
630.768	26.75
631.529	26.75
632.29	25.75
633.051	24.75
633.812	25.75
634.573	25.75
635.333	25.75
636.094	21.75
636.855	22.75
637.615	22.75
638.376	20.75
639.136	20.75
639.896	18.75
640.657	18.75
641.417	16.75
642.177	16.75
642.937	16.75
643.697	16.75
644.457	17.75
645.216	13.75
645.976	15.75
646.736	14.75
647.495	14.75
648.255	12.75
649.014	15.75
649.774	17.75
650.533	14.75
651.292	13.75
652.051	14.75
652.81	10.75
653.569	12.75
654.328	11.75
655.087	12.75
655.846	10.75
656.604	13.75
657.363	12.75
658.121	13.75
658.88	9.75
659.638	12.75
660.397	10.75
661.155	13.75
661.913	8.75
662.671	9.75
663.429	8.75
664.187	10.75
664.945	10.75
665.703	11.75
666.46	10.75
667.218	9.75
667.976	8.75
668.733	12.75
669.49	10.75
670.248	9.75
671.005	8.75
671.762	10.75
672.519	8.75
673.276	9.75
674.033	10.75
674.79	8.75
675.547	9.75
676.304	7.75
677.06	8.75
677.817	6.75
678.574	9.75
679.33	6.75
680.086	7.75
680.843	8.75
681.599	9.75
682.355	10.75
683.111	8.75
683.867	6.75
684.623	7.75
685.379	8.75
686.135	7.75
686.89	7.75
687.646	9.75
688.402	5.75
689.157	6.75
689.912	7.75
690.668	5.75
691.423	8.75
692.178	8.75
692.933	6.75
693.688	7.75
694.443	7.75
695.198	7.75
695.953	6.75
696.708	6.75
697.462	8.75
698.217	4.75
698.972	6.75
699.726	5.75
700.48	7.75
701.235	6.75
701.989	9.75
702.743	5.75
703.497	5.75
704.251	7.75
705.005	7.75
705.759	6.75
706.513	5.75
707.266	7.75
708.02	7.75
708.774	7.75
709.527	8.75
710.28	4.75
711.034	9.75
711.787	6.75
712.54	7.75
713.293	8.75
714.046	7.75
714.799	7.75
715.552	8.75
716.305	7.75
717.058	9.75
717.81	7.75
718.563	5.75
719.315	8.75
720.068	9.75
720.82	7.75
721.573	9.75
722.325	7.75
723.077	4.75
723.829	8.75
724.581	9.75
725.333	8.75
726.085	8.75
726.836	6.75
727.588	8.75
728.34	8.75
729.091	8.75
729.843	8.75
730.594	8.75
731.346	8.75
732.097	9.75
732.848	9.75
733.599	7.75
734.35	9.75
735.101	10.75
735.852	8.75
736.603	8.75
737.354	9.75
738.104	8.75
738.855	9.75
739.605	9.75
740.356	11.75
741.106	9.75
741.856	9.75
742.607	10.75
743.357	13.75
744.107	9.75
744.857	9.75
745.607	12.75
746.357	8.75
747.106	9.75
747.856	11.75
748.606	11.75
749.355	10.75
750.105	11.75
750.854	11.75
751.603	9.75
752.353	12.75
753.102	10.75
753.851	10.75
754.6	11.75
755.349	11.75
756.098	11.75
756.847	10.75
757.595	11.75
758.344	12.75
759.093	12.75
759.841	11.75
760.589	13.75
761.338	13.75
762.086	10.75
762.834	16.75
763.582	12.75
764.331	11.75
765.079	12.75
765.826	12.75
766.574	14.75
767.322	15.75
768.07	12.75
768.817	15.75
769.565	13.75
770.312	16.75
771.06	13.75
771.807	13.75
772.554	14.75
773.302	14.75
774.049	16.75
774.796	14.75
775.543	14.75
776.29	16.75
777.036	13.75
777.783	14.75
778.53	15.75
779.276	15.75
780.023	17.75
780.769	17.75
781.516	14.75
782.262	12.75
783.008	17.75
783.754	16.75
784.5	16.75
785.246	14.75
785.992	14.75
786.738	14.75
787.484	16.75
788.23	17.75
788.975	14.75
789.721	14.75
790.466	14.75
791.212	13.75
791.957	16.75
792.702	13.75
793.447	13.75
794.193	16.75
794.938	15.75
795.683	14.75
796.427	14.75
797.172	12.75
797.917	12.75
798.662	13.75
799.406	10.75
800.151	12.75
800.895	11.75
801.64	12.75
802.384	14.75
803.128	9.75
803.872	11.75
804.616	9.75
805.36	8.75
806.104	10.75
806.848	9.75
807.592	12.75
808.336	10.75
809.079	9.75
809.823	10.75
810.566	8.75
811.31	9.75
812.053	10.75
812.796	8.75
813.539	10.75
814.283	7.75
815.026	8.75
815.769	8.75
816.511	8.75
817.254	7.75
817.997	7.75
818.74	7.75
819.482	7.75
820.225	8.75
820.967	6.75
821.71	6.75
822.452	6.75
823.194	6.75
823.936	8.75
824.678	6.75
825.42	6.75
826.162	5.75
826.904	7.75
827.646	5.75
828.388	4.75
829.129	7.75
829.871	5.75
830.612	4.75
831.354	6.75
832.095	6.75
832.836	6.75
833.577	5.75
834.319	6.75
835.06	4.75
835.801	4.75
836.542	6.75
837.282	3.75
838.023	7.75
838.764	5.75
839.504	5.75
840.245	5.75
840.985	6.75
841.726	6.75
842.466	4.75
843.206	6.75
843.946	3.75
844.687	4.75
845.427	3.75
846.166	2.75
846.906	3.75
847.646	3.75
848.386	5.75
849.125	4.75
849.865	4.75
850.605	4.75
851.344	5.75
852.083	3.75
852.823	4.75
853.562	4.75
854.301	2.75
855.04	2.75
855.779	1.75
856.518	6.75
857.257	2.75
857.995	2.75
858.734	4.75
859.473	4.75
860.211	1.75
860.95	3.75
861.688	0.75
862.426	1.75
863.165	2.75
863.903	2.75
864.641	3.75
865.379	2.75
866.117	2.75
866.855	2.75
867.593	2.75
868.33	2.75
869.068	1.75
869.806	1.75
870.543	2.75
871.28	1.75
872.018	1.75
872.755	1.75
873.492	2.75
874.229	2.75
874.967	4.75
875.703	0.75
876.44	0.75
877.177	3.75
877.914	1.75
878.651	1.75
879.387	1.75
880.124	2.75
880.86	0.75
881.597	1.75
882.333	-0.25
883.069	-0.25
883.806	1.75
884.542	1.75
885.278	0.75
886.014	0.75
886.749	1.75
887.485	1.75
888.221	-0.25
888.957	3.75
889.692	0.75
890.428	1.75
891.163	2.75
891.899	0.75
892.634	0.75
893.369	0.75
894.104	2.75
894.839	1.75
895.574	1.75
896.309	0.75
897.044	-2.25
897.779	2.75
898.514	0.75
899.248	0.75
899.983	0.75
900.717	1.75
901.452	1.75
902.186	-0.25
902.92	0.75
903.654	1.75
904.389	-1.25
905.123	0.75
905.857	-2.25
906.59	2.75
907.324	0.75
908.058	0.75
908.792	0.75
909.525	3.75
910.259	0.75
910.992	-1.25
911.726	2.75
912.459	0.75
913.192	1.75
913.925	-0.25
914.658	-0.25
915.391	0.75
916.124	-1.25
916.857	0.75
917.59	0.75
918.323	-1.25
919.055	3.75
919.788	0.75
920.521	1.75
921.253	0.75
921.985	1.75
922.718	0.75
923.45	0.75
924.182	-0.25
924.914	-1.25
925.646	0.75
926.378	-0.25
927.11	1.75
927.841	1.75
928.573	-1.25
929.305	1.75
930.036	-0.25
930.768	1.75
931.499	0.75
932.23	-0.25
932.962	-1.25
933.693	-2.25
934.424	0.75
935.155	-0.25
935.886	-0.25
936.617	-2.25
937.348	-1.25
938.078	0.75
938.809	-0.25
939.54	-2.25
940.27	-1.25
941.001	-1.25
941.731	-0.25
942.461	-1.25
943.191	-0.25
943.922	-0.25
944.652	0.75
945.382	0.75
946.112	-0.25
946.841	0.75
947.571	-1.25
948.301	0.75
949.031	-1.25
949.76	-0.25
950.49	0.75
951.219	-0.25
951.948	0.75
952.678	0.75
953.407	0.75
954.136	0.75
954.865	0.75
955.594	0.75
956.323	-1.25
957.052	1.75
957.78	-0.25
958.509	2.75
959.238	1.75
959.966	0.75
960.695	0.75
961.423	1.75
962.151	0.75
962.88	-0.25
963.608	0.75
964.336	0.75
965.064	-0.25
965.792	-0.25
966.52	0.75
967.247	-0.25
967.975	1.75
968.703	0.75
969.43	2.75
970.158	-1.25
970.885	1.75
971.613	-1.25
972.34	0.75
973.067	1.75
973.794	-1.25
974.521	-0.25
975.248	-0.25
975.975	1.75
976.702	0.75
977.429	1.75
978.156	0.75
978.882	-2.25
979.609	-1.25
980.335	0.75
981.062	1.75
981.788	0.75
982.514	-0.25
983.24	-1.25
983.967	-1.25
984.693	0.75
985.419	0.75
986.144	-1.25
986.87	1.75
987.596	-2.25
988.322	1.75
989.047	-0.25
989.773	0.75
990.498	0.75
991.224	-2.25
991.949	1.75
992.674	-1.25
993.399	0.75
994.124	-3.25
994.849	-0.25
995.574	-1.25
996.299	-1.25
997.024	1.75
997.749	0.75
998.473	0.75
999.198	1.75
999.922	1.75
1000.647	0.75
1001.371	4.75
1002.095	-0.25
1002.82	-2.25
1003.544	-1.25
1004.268	6.75
1004.992	4.75
1005.716	4.75
1006.439	4.75
1007.163	3.75
1007.887	5.75
1008.611	0.75
1009.334	2.75
1010.058	1.75
1010.781	0.75
1011.504	1.75
1012.228	-1.25
1012.951	0.75
1013.674	-1.25
1014.397	-1.25
1015.12	0.75
