节点500_705_QEPB04081__225__20-49-06-473.txt的数据

Date: Wed Nov 12 20:49:06 CST 2025
User: PC
Spectrometer: QEPB0408
触发模式: 0
积分时间 (秒): 1.000000E-2
Scans to average: 1
启用暗噪声校正: true
启用非线性校正: false
滑动平均宽度: 0
X轴模式: Wavelengths
Number of Pixels in Spectrum: 1044
>>>>>Begin Spectral Data<<<<<
220.843	7.62
221.644	7.62
222.444	6.62
223.244	7.62
224.045	5.62
224.845	7.62
225.645	8.62
226.445	6.62
227.245	9.62
228.045	9.62
228.845	10.62
229.645	8.62
230.444	10.62
231.244	10.62
232.043	7.62
232.843	13.62
233.642	10.62
234.442	10.62
235.241	9.62
236.04	9.62
236.839	10.62
237.638	15.62
238.437	14.62
239.236	11.62
240.035	10.62
240.833	12.62
241.632	10.62
242.43	14.62
243.229	12.62
244.027	13.62
244.826	15.62
245.624	14.62
246.422	14.62
247.22	14.62
248.018	15.62
248.816	15.62
249.614	15.62
250.412	19.62
251.21	15.62
252.007	16.62
252.805	17.62
253.602	18.62
254.4	21.62
255.197	19.62
255.994	20.62
256.791	21.62
257.589	25.62
258.386	22.62
259.183	24.62
259.979	22.62
260.776	20.62
261.573	26.62
262.37	23.62
263.166	27.62
263.963	29.62
264.759	27.62
265.556	26.62
266.352	28.62
267.148	30.62
267.944	31.62
268.74	29.62
269.536	31.62
270.332	31.62
271.128	33.62
271.924	31.62
272.719	34.62
273.515	33.62
274.311	34.62
275.106	37.62
275.901	33.62
276.697	35.62
277.492	34.62
278.287	35.62
279.082	35.62
279.877	36.62
280.672	36.62
281.467	35.62
282.262	37.62
283.056	35.62
283.851	32.62
284.646	35.62
285.44	35.62
286.234	33.62
287.029	37.62
287.823	34.62
288.617	35.62
289.411	34.62
290.205	35.62
290.999	31.62
291.793	35.62
292.587	34.62
293.381	31.62
294.174	34.62
294.968	28.62
295.761	31.62
296.555	33.62
297.348	28.62
298.141	25.62
298.935	29.62
299.728	26.62
300.521	25.62
301.314	27.62
302.107	24.62
302.899	22.62
303.692	20.62
304.485	21.62
305.277	23.62
306.07	22.62
306.862	23.62
307.655	22.62
308.447	22.62
309.239	23.62
310.031	18.62
310.823	18.62
311.615	19.62
312.407	18.62
313.199	19.62
313.991	18.62
314.783	15.62
315.574	13.62
316.366	16.62
317.157	18.62
317.949	14.62
318.74	14.62
319.531	14.62
320.322	14.62
321.113	14.62
321.904	12.62
322.695	15.62
323.486	13.62
324.277	13.62
325.068	12.62
325.858	15.62
326.649	13.62
327.439	12.62
328.23	12.62
329.02	14.62
329.81	11.62
330.6	13.62
331.391	10.62
332.181	13.62
332.971	11.62
333.76	11.62
334.55	12.62
335.34	11.62
336.13	12.62
336.919	14.62
337.709	12.62
338.498	9.62
339.287	13.62
340.077	12.62
340.866	12.62
341.655	12.62
342.444	11.62
343.233	10.62
344.022	11.62
344.811	12.62
345.6	10.62
346.388	10.62
347.177	12.62
347.965	11.62
348.754	11.62
349.542	10.62
350.33	13.62
351.119	11.62
351.907	9.62
352.695	12.62
353.483	8.62
354.271	12.62
355.059	10.62
355.846	10.62
356.634	10.62
357.422	9.62
358.209	11.62
358.997	9.62
359.784	14.62
360.571	11.62
361.359	8.62
362.146	9.62
362.933	8.62
363.72	13.62
364.507	8.62
365.294	11.62
366.081	12.62
366.867	12.62
367.654	11.62
368.44	10.62
369.227	9.62
370.013	7.62
370.8	9.62
371.586	11.62
372.372	7.62
373.158	10.62
373.944	10.62
374.73	9.62
375.516	9.62
376.302	10.62
377.088	9.62
377.873	9.62
378.659	9.62
379.445	9.62
380.23	10.62
381.015	11.62
381.801	9.62
382.586	12.62
383.371	10.62
384.156	10.62
384.941	11.62
385.726	9.62
386.511	12.62
387.296	14.62
388.08	13.62
388.865	13.62
389.649	11.62
390.434	12.62
391.218	9.62
392.003	16.62
392.787	13.62
393.571	11.62
394.355	14.62
395.139	14.62
395.923	14.62
396.707	12.62
397.491	15.62
398.274	12.62
399.058	12.62
399.842	16.62
400.625	13.62
401.408	13.62
402.192	13.62
402.975	15.62
403.758	16.62
404.541	14.62
405.324	17.62
406.107	17.62
406.89	16.62
407.673	16.62
408.456	15.62
409.238	16.62
410.021	16.62
410.803	17.62
411.586	18.62
412.368	18.62
413.151	17.62
413.933	18.62
414.715	16.62
415.497	20.62
416.279	22.62
417.061	21.62
417.843	19.62
418.624	22.62
419.406	19.62
420.188	22.62
420.969	19.62
421.751	25.62
422.532	23.62
423.313	22.62
424.095	24.62
424.876	24.62
425.657	25.62
426.438	26.62
427.219	27.62
428	27.62
428.78	28.62
429.561	28.62
430.342	28.62
431.122	31.62
431.903	35.62
432.683	35.62
433.464	36.62
434.244	38.62
435.024	38.62
435.804	38.62
436.584	42.62
437.364	43.62
438.144	47.62
438.924	49.62
439.704	55.62
440.483	55.62
441.263	59.62
442.042	65.62
442.822	70.62
443.601	74.62
444.38	80.62
445.16	86.62
445.939	93.62
446.718	99.62
447.497	109.62
448.276	119.62
449.054	130.62
449.833	140.62
450.612	158.62
451.391	170.62
452.169	193.62
452.948	211.62
453.726	231.62
454.504	261.62
455.282	283.62
456.061	314.62
456.839	356.62
457.617	399.62
458.395	441.62
459.172	493.62
459.95	548.62
460.728	617.62
461.506	686.62
462.283	767.62
463.061	860.62
463.838	960.62
464.615	1075.62
465.393	1189.62
466.17	1314.62
466.947	1483.62
467.724	1658.62
468.501	1815.62
469.278	2003.62
470.055	2248.62
470.831	2471.62
471.608	2741.62
472.385	3053.62
473.161	3371.62
473.938	3689.62
474.714	4051.62
475.49	4445.62
476.266	4920.62
477.043	5356.62
477.819	5928.62
478.595	6474.62
479.371	7092.62
480.146	7702.62
480.922	8498.62
481.698	9271.62
482.473	10078.62
483.249	10986.62
484.024	11921.62
484.8	13000.62
485.575	14125.62
486.35	15321.62
487.126	16653.62
487.901	17959.62
488.676	19490.62
489.451	21088.62
490.225	22684.62
491	24309.62
491.775	26003.62
492.55	27928.62
493.324	29741.62
494.099	31598.62
494.873	33445.62
495.647	35347.62
496.422	37179.62
497.196	38990.62
497.97	40625.62
498.744	42162.62
499.518	43757.62
500.292	45091.62
501.066	46154.62
501.839	46978.62
502.613	47652.62
503.387	48176.62
504.16	48433.62
504.934	48457.62
505.707	48219.62
506.48	47735.62
507.253	47204.62
508.027	46235.62
508.8	45176.62
509.573	43984.62
510.346	42845.62
511.118	41714.62
511.891	40320.62
512.664	38806.62
513.437	37137.62
514.209	35747.62
514.982	34329.62
515.754	32910.62
516.526	31529.62
517.298	30211.62
518.071	29000.62
518.843	27848.62
519.615	26786.62
520.387	25708.62
521.159	24682.62
521.93	23625.62
522.702	22636.62
523.474	21651.62
524.245	20737.62
525.017	19861.62
525.788	18977.62
526.56	18109.62
527.331	17329.62
528.102	16403.62
528.873	15595.62
529.644	14857.62
530.415	14163.62
531.186	13455.62
531.957	12758.62
532.728	12043.62
533.498	11431.62
534.269	10804.62
535.039	10233.62
535.81	9645.62
536.58	9078.62
537.351	8622.62
538.121	8205.62
538.891	7773.62
539.661	7336.62
540.431	6914.62
541.201	6569.62
541.971	6213.62
542.741	5900.62
543.51	5633.62
544.28	5329.62
545.05	5077.62
545.819	4843.62
546.588	4594.62
547.358	4384.62
548.127	4195.62
548.896	3951.62
549.665	3758.62
550.434	3545.62
551.203	3355.62
551.972	3198.62
552.741	3036.62
553.51	2853.62
554.278	2696.62
555.047	2537.62
555.815	2392.62
556.584	2281.62
557.352	2146.62
558.121	2034.62
558.889	1897.62
559.657	1808.62
560.425	1706.62
561.193	1617.62
561.961	1529.62
562.729	1446.62
563.496	1367.62
564.264	1300.62
565.032	1223.62
565.799	1156.62
566.567	1094.62
567.334	1038.62
568.101	975.62
568.869	929.62
569.636	867.62
570.403	836.62
571.17	786.62
571.937	734.62
572.704	700.62
573.471	648.62
574.237	617.62
575.004	579.62
575.771	549.62
576.537	517.62
577.303	493.62
578.07	467.62
578.836	429.62
579.602	410.62
580.368	389.62
581.134	371.62
581.9	354.62
582.666	340.62
583.432	323.62
584.198	304.62
584.964	294.62
585.729	274.62
586.495	260.62
587.26	250.62
588.025	234.62
588.791	221.62
589.556	212.62
590.321	191.62
591.086	189.62
591.851	182.62
592.616	176.62
593.381	162.62
594.146	154.62
594.911	146.62
595.675	144.62
596.44	132.62
597.204	129.62
597.969	127.62
598.733	117.62
599.497	118.62
600.261	112.62
601.025	105.62
601.79	100.62
602.553	97.62
603.317	94.62
604.081	90.62
604.845	87.62
605.609	87.62
606.372	76.62
607.136	76.62
607.899	78.62
608.662	69.62
609.426	68.62
610.189	62.62
610.952	66.62
611.715	60.62
612.478	60.62
613.241	57.62
614.004	51.62
614.767	52.62
615.529	49.62
616.292	49.62
617.055	47.62
617.817	43.62
618.579	45.62
619.342	45.62
620.104	46.62
620.866	39.62
621.628	39.62
622.39	39.62
623.152	34.62
623.914	36.62
624.676	34.62
625.438	36.62
626.199	35.62
626.961	30.62
627.722	31.62
628.484	32.62
629.245	29.62
630.006	30.62
630.768	28.62
631.529	25.62
632.29	25.62
633.051	27.62
633.812	24.62
634.573	24.62
635.333	24.62
636.094	22.62
636.855	22.62
637.615	22.62
638.376	20.62
639.136	18.62
639.896	20.62
640.657	18.62
641.417	15.62
642.177	20.62
642.937	19.62
643.697	20.62
644.457	18.62
645.216	20.62
645.976	17.62
646.736	16.62
647.495	16.62
648.255	16.62
649.014	16.62
649.774	15.62
650.533	13.62
651.292	14.62
652.051	13.62
652.81	16.62
653.569	13.62
654.328	14.62
655.087	11.62
655.846	12.62
656.604	14.62
657.363	13.62
658.121	14.62
658.88	11.62
659.638	11.62
660.397	14.62
661.155	11.62
661.913	10.62
662.671	11.62
663.429	11.62
664.187	9.62
664.945	9.62
665.703	10.62
666.46	10.62
667.218	14.62
667.976	8.62
668.733	8.62
669.49	10.62
670.248	9.62
671.005	9.62
671.762	10.62
672.519	12.62
673.276	10.62
674.033	9.62
674.79	9.62
675.547	9.62
676.304	8.62
677.06	7.62
677.817	10.62
678.574	8.62
679.33	11.62
680.086	8.62
680.843	7.62
681.599	12.62
682.355	10.62
683.111	8.62
683.867	10.62
684.623	10.62
685.379	9.62
686.135	8.62
686.89	10.62
687.646	8.62
688.402	8.62
689.157	8.62
689.912	9.62
690.668	6.62
691.423	6.62
692.178	9.62
692.933	9.62
693.688	8.62
694.443	11.62
695.198	9.62
695.953	10.62
696.708	7.62
697.462	6.62
698.217	7.62
698.972	8.62
699.726	8.62
700.48	7.62
701.235	9.62
701.989	8.62
702.743	6.62
703.497	7.62
704.251	8.62
705.005	7.62
705.759	7.62
706.513	8.62
707.266	7.62
708.02	8.62
708.774	9.62
709.527	5.62
710.28	9.62
711.034	7.62
711.787	9.62
712.54	7.62
713.293	8.62
714.046	9.62
714.799	6.62
715.552	9.62
716.305	8.62
717.058	8.62
717.81	10.62
718.563	10.62
719.315	8.62
720.068	9.62
720.82	10.62
721.573	7.62
722.325	7.62
723.077	10.62
723.829	8.62
724.581	7.62
725.333	8.62
726.085	10.62
726.836	6.62
727.588	8.62
728.34	11.62
729.091	9.62
729.843	9.62
730.594	9.62
731.346	10.62
732.097	11.62
732.848	10.62
733.599	10.62
734.35	9.62
735.101	9.62
735.852	11.62
736.603	8.62
737.354	11.62
738.104	11.62
738.855	10.62
739.605	8.62
740.356	8.62
741.106	9.62
741.856	8.62
742.607	11.62
743.357	11.62
744.107	12.62
744.857	11.62
745.607	9.62
746.357	13.62
747.106	10.62
747.856	13.62
748.606	12.62
749.355	13.62
750.105	13.62
750.854	14.62
751.603	10.62
752.353	10.62
753.102	12.62
753.851	13.62
754.6	10.62
755.349	12.62
756.098	11.62
756.847	15.62
757.595	13.62
758.344	13.62
759.093	14.62
759.841	14.62
760.589	14.62
761.338	14.62
762.086	15.62
762.834	13.62
763.582	11.62
764.331	15.62
765.079	15.62
765.826	13.62
766.574	17.62
767.322	16.62
768.07	13.62
768.817	15.62
769.565	14.62
770.312	16.62
771.06	16.62
771.807	16.62
772.554	15.62
773.302	15.62
774.049	15.62
774.796	16.62
775.543	14.62
776.29	17.62
777.036	17.62
777.783	14.62
778.53	16.62
779.276	18.62
780.023	16.62
780.769	15.62
781.516	15.62
782.262	15.62
783.008	15.62
783.754	14.62
784.5	17.62
785.246	19.62
785.992	17.62
786.738	15.62
787.484	14.62
788.23	17.62
788.975	15.62
789.721	15.62
790.466	16.62
791.212	15.62
791.957	14.62
792.702	18.62
793.447	14.62
794.193	15.62
794.938	14.62
795.683	14.62
796.427	11.62
797.172	11.62
797.917	16.62
798.662	13.62
799.406	14.62
800.151	13.62
800.895	13.62
801.64	13.62
802.384	11.62
803.128	12.62
803.872	11.62
804.616	13.62
805.36	12.62
806.104	9.62
806.848	11.62
807.592	11.62
808.336	11.62
809.079	9.62
809.823	11.62
810.566	9.62
811.31	10.62
812.053	10.62
812.796	8.62
813.539	12.62
814.283	8.62
815.026	9.62
815.769	8.62
816.511	9.62
817.254	8.62
817.997	8.62
818.74	7.62
819.482	9.62
820.225	5.62
820.967	10.62
821.71	7.62
822.452	8.62
823.194	7.62
823.936	7.62
824.678	9.62
825.42	6.62
826.162	8.62
826.904	8.62
827.646	6.62
828.388	8.62
829.129	6.62
829.871	7.62
830.612	8.62
831.354	3.62
832.095	9.62
832.836	7.62
833.577	7.62
834.319	6.62
835.06	6.62
835.801	6.62
836.542	6.62
837.282	3.62
838.023	5.62
838.764	6.62
839.504	6.62
840.245	7.62
840.985	7.62
841.726	6.62
842.466	5.62
843.206	3.62
843.946	6.62
844.687	4.62
845.427	6.62
846.166	6.62
846.906	6.62
847.646	5.62
848.386	4.62
849.125	6.62
849.865	6.62
850.605	3.62
851.344	6.62
852.083	5.62
852.823	4.62
853.562	4.62
854.301	4.62
855.04	2.62
855.779	6.62
856.518	5.62
857.257	3.62
857.995	3.62
858.734	4.62
859.473	6.62
860.211	3.62
860.95	3.62
861.688	4.62
862.426	3.62
863.165	4.62
863.903	3.62
864.641	2.62
865.379	4.62
866.117	3.62
866.855	4.62
867.593	4.62
868.33	4.62
869.068	4.62
869.806	3.62
870.543	2.62
871.28	2.62
872.018	3.62
872.755	4.62
873.492	3.62
874.229	1.62
874.967	2.62
875.703	2.62
876.44	1.62
877.177	1.62
877.914	3.62
878.651	3.62
879.387	1.62
880.124	3.62
880.86	3.62
881.597	1.62
882.333	2.62
883.069	1.62
883.806	3.62
884.542	1.62
885.278	1.62
886.014	-0.38
886.749	0.62
887.485	3.62
888.221	1.62
888.957	2.62
889.692	2.62
890.428	3.62
891.163	2.62
891.899	1.62
892.634	1.62
893.369	2.62
894.104	1.62
894.839	1.62
895.574	2.62
896.309	0.62
897.044	0.62
897.779	3.62
898.514	1.62
899.248	0.62
899.983	2.62
900.717	1.62
901.452	-0.38
902.186	2.62
902.92	2.62
903.654	0.62
904.389	3.62
905.123	0.62
905.857	1.62
906.59	0.62
907.324	1.62
908.058	0.62
908.792	0.62
909.525	2.62
910.259	0.62
910.992	3.62
911.726	2.62
912.459	3.62
913.192	1.62
913.925	0.62
914.658	3.62
915.391	0.62
916.124	0.62
916.857	-0.38
917.59	-0.38
918.323	3.62
919.055	0.62
919.788	2.62
920.521	1.62
921.253	0.62
921.985	1.62
922.718	2.62
923.45	-2.38
924.182	0.62
924.914	1.62
925.646	-0.38
926.378	1.62
927.11	1.62
927.841	-1.38
928.573	2.62
929.305	1.62
930.036	2.62
930.768	0.62
931.499	0.62
932.23	0.62
932.962	2.62
933.693	2.62
934.424	0.62
935.155	1.62
935.886	0.62
936.617	1.62
937.348	1.62
938.078	-1.38
938.809	3.62
939.54	0.62
940.27	-0.38
941.001	-0.38
941.731	0.62
942.461	0.62
943.191	-1.38
943.922	2.62
944.652	0.62
945.382	0.62
946.112	0.62
946.841	1.62
947.571	2.62
948.301	1.62
949.031	3.62
949.76	2.62
950.49	0.62
951.219	1.62
951.948	-1.38
952.678	1.62
953.407	1.62
954.136	-0.38
954.865	0.62
955.594	-1.38
956.323	1.62
957.052	0.62
957.78	-0.38
958.509	-2.38
959.238	-0.38
959.966	1.62
960.695	-0.38
961.423	1.62
962.151	0.62
962.88	2.62
963.608	2.62
964.336	-0.38
965.064	3.62
965.792	-0.38
966.52	1.62
967.247	2.62
967.975	2.62
968.703	0.62
969.43	0.62
970.158	2.62
970.885	1.62
971.613	1.62
972.34	-0.38
973.067	1.62
973.794	-0.38
974.521	0.62
975.248	1.62
975.975	2.62
976.702	1.62
977.429	-0.38
978.156	0.62
978.882	0.62
979.609	-0.38
980.335	3.62
981.062	2.62
981.788	-0.38
982.514	0.62
983.24	-0.38
983.967	1.62
984.693	1.62
985.419	0.62
986.144	1.62
986.87	0.62
987.596	1.62
988.322	-0.38
989.047	-1.38
989.773	0.62
990.498	-0.38
991.224	0.62
991.949	-0.38
992.674	1.62
993.399	2.62
994.124	0.62
994.849	-0.38
995.574	1.62
996.299	2.62
997.024	-0.38
997.749	1.62
998.473	-0.38
999.198	-0.38
999.922	1.62
1000.647	1.62
1001.371	2.62
1002.095	-1.38
1002.82	-3.38
1003.544	-2.38
1004.268	7.62
1004.992	4.62
1005.716	4.62
1006.439	7.62
1007.163	4.62
1007.887	6.62
1008.611	1.62
1009.334	-0.38
1010.058	1.62
1010.781	-0.38
1011.504	1.62
1012.228	-0.38
1012.951	-1.38
1013.674	2.62
1014.397	2.62
1015.12	0.62
