节点500_705_QEPB04081__27__20-46-20-318.txt的数据

Date: Wed Nov 12 20:46:20 CST 2025
User: PC
Spectrometer: QEPB0408
触发模式: 0
积分时间 (秒): 1.000000E-2
Scans to average: 1
启用暗噪声校正: true
启用非线性校正: false
滑动平均宽度: 0
X轴模式: Wavelengths
Number of Pixels in Spectrum: 1044
>>>>>Begin Spectral Data<<<<<
220.843	6.38
221.644	5.38
222.444	6.38
223.244	5.38
224.045	7.38
224.845	6.38
225.645	6.38
226.445	7.38
227.245	7.38
228.045	8.38
228.845	8.38
229.645	9.38
230.444	8.38
231.244	7.38
232.043	10.38
232.843	9.38
233.642	10.38
234.442	11.38
235.241	13.38
236.04	11.38
236.839	12.38
237.638	13.38
238.437	11.38
239.236	11.38
240.035	12.38
240.833	12.38
241.632	11.38
242.43	13.38
243.229	11.38
244.027	16.38
244.826	17.38
245.624	14.38
246.422	14.38
247.22	17.38
248.018	16.38
248.816	19.38
249.614	15.38
250.412	16.38
251.21	18.38
252.007	19.38
252.805	21.38
253.602	19.38
254.4	20.38
255.197	20.38
255.994	22.38
256.791	24.38
257.589	25.38
258.386	25.38
259.183	22.38
259.979	24.38
260.776	29.38
261.573	26.38
262.37	27.38
263.166	25.38
263.963	30.38
264.759	29.38
265.556	31.38
266.352	29.38
267.148	31.38
267.944	34.38
268.74	32.38
269.536	32.38
270.332	31.38
271.128	35.38
271.924	34.38
272.719	39.38
273.515	33.38
274.311	35.38
275.106	37.38
275.901	39.38
276.697	35.38
277.492	38.38
278.287	36.38
279.082	35.38
279.877	37.38
280.672	35.38
281.467	37.38
282.262	34.38
283.056	40.38
283.851	38.38
284.646	38.38
285.44	38.38
286.234	39.38
287.029	38.38
287.823	31.38
288.617	36.38
289.411	32.38
290.205	33.38
290.999	33.38
291.793	31.38
292.587	32.38
293.381	30.38
294.174	30.38
294.968	27.38
295.761	28.38
296.555	27.38
297.348	27.38
298.141	28.38
298.935	29.38
299.728	27.38
300.521	25.38
301.314	26.38
302.107	25.38
302.899	21.38
303.692	24.38
304.485	24.38
305.277	23.38
306.07	24.38
306.862	22.38
307.655	23.38
308.447	21.38
309.239	17.38
310.031	18.38
310.823	19.38
311.615	19.38
312.407	19.38
313.199	21.38
313.991	18.38
314.783	18.38
315.574	15.38
316.366	15.38
317.157	18.38
317.949	17.38
318.74	15.38
319.531	14.38
320.322	14.38
321.113	16.38
321.904	14.38
322.695	13.38
323.486	15.38
324.277	12.38
325.068	15.38
325.858	13.38
326.649	13.38
327.439	10.38
328.23	11.38
329.02	12.38
329.81	11.38
330.6	13.38
331.391	14.38
332.181	12.38
332.971	13.38
333.76	13.38
334.55	13.38
335.34	12.38
336.13	13.38
336.919	11.38
337.709	13.38
338.498	15.38
339.287	13.38
340.077	12.38
340.866	9.38
341.655	13.38
342.444	12.38
343.233	13.38
344.022	11.38
344.811	12.38
345.6	12.38
346.388	12.38
347.177	12.38
347.965	12.38
348.754	12.38
349.542	11.38
350.33	11.38
351.119	10.38
351.907	10.38
352.695	12.38
353.483	11.38
354.271	11.38
355.059	13.38
355.846	9.38
356.634	10.38
357.422	11.38
358.209	10.38
358.997	10.38
359.784	12.38
360.571	10.38
361.359	8.38
362.146	13.38
362.933	11.38
363.72	11.38
364.507	11.38
365.294	12.38
366.081	9.38
366.867	11.38
367.654	11.38
368.44	11.38
369.227	7.38
370.013	12.38
370.8	10.38
371.586	10.38
372.372	12.38
373.158	11.38
373.944	10.38
374.73	9.38
375.516	10.38
376.302	9.38
377.088	9.38
377.873	11.38
378.659	10.38
379.445	13.38
380.23	8.38
381.015	12.38
381.801	5.38
382.586	8.38
383.371	10.38
384.156	11.38
384.941	9.38
385.726	9.38
386.511	11.38
387.296	13.38
388.08	11.38
388.865	14.38
389.649	9.38
390.434	13.38
391.218	10.38
392.003	12.38
392.787	12.38
393.571	12.38
394.355	14.38
395.139	13.38
395.923	13.38
396.707	12.38
397.491	14.38
398.274	13.38
399.058	12.38
399.842	14.38
400.625	15.38
401.408	13.38
402.192	17.38
402.975	15.38
403.758	16.38
404.541	18.38
405.324	16.38
406.107	18.38
406.89	16.38
407.673	17.38
408.456	17.38
409.238	16.38
410.021	15.38
410.803	21.38
411.586	18.38
412.368	20.38
413.151	18.38
413.933	19.38
414.715	18.38
415.497	19.38
416.279	19.38
417.061	18.38
417.843	19.38
418.624	21.38
419.406	20.38
420.188	21.38
420.969	23.38
421.751	23.38
422.532	23.38
423.313	23.38
424.095	24.38
424.876	27.38
425.657	25.38
426.438	27.38
427.219	27.38
428	27.38
428.78	27.38
429.561	26.38
430.342	31.38
431.122	34.38
431.903	31.38
432.683	34.38
433.464	33.38
434.244	36.38
435.024	42.38
435.804	39.38
436.584	43.38
437.364	45.38
438.144	50.38
438.924	51.38
439.704	51.38
440.483	57.38
441.263	61.38
442.042	66.38
442.822	68.38
443.601	71.38
444.38	71.38
445.16	86.38
445.939	89.38
446.718	96.38
447.497	102.38
448.276	115.38
449.054	122.38
449.833	134.38
450.612	147.38
451.391	156.38
452.169	175.38
452.948	201.38
453.726	222.38
454.504	244.38
455.282	268.38
456.061	296.38
456.839	326.38
457.617	367.38
458.395	418.38
459.172	464.38
459.95	521.38
460.728	581.38
461.506	649.38
462.283	720.38
463.061	805.38
463.838	919.38
464.615	1012.38
465.393	1133.38
466.17	1260.38
466.947	1413.38
467.724	1585.38
468.501	1767.38
469.278	1968.38
470.055	2164.38
470.831	2406.38
471.608	2709.38
472.385	2986.38
473.161	3324.38
473.938	3643.38
474.714	4038.38
475.49	4445.38
476.266	4925.38
477.043	5427.38
477.819	5993.38
478.595	6541.38
479.371	7192.38
480.146	7911.38
480.922	8699.38
481.698	9533.38
482.473	10451.38
483.249	11449.38
484.024	12519.38
484.8	13622.38
485.575	14849.38
486.35	16213.38
487.126	17571.38
487.901	19055.38
488.676	20678.38
489.451	22437.38
490.225	24157.38
491	26025.38
491.775	27881.38
492.55	29870.38
493.324	31792.38
494.099	33749.38
494.873	35777.38
495.647	37839.38
496.422	39748.38
497.196	41591.38
497.97	43243.38
498.744	44804.38
499.518	46452.38
500.292	47715.38
501.066	48524.38
501.839	49139.38
502.613	49735.38
503.387	50072.38
504.16	50263.38
504.934	49903.38
505.707	49411.38
506.48	48644.38
507.253	47760.38
508.027	46677.38
508.8	45393.38
509.573	44092.38
510.346	42672.38
511.118	41284.38
511.891	39770.38
512.664	38103.38
513.437	36498.38
514.209	35091.38
514.982	33564.38
515.754	31999.38
516.526	30691.38
517.298	29425.38
518.071	28311.38
518.843	27159.38
519.615	25949.38
520.387	24965.38
521.159	23943.38
521.93	22849.38
522.702	21935.38
523.474	20963.38
524.245	19995.38
525.017	19164.38
525.788	18283.38
526.56	17550.38
527.331	16652.38
528.102	15805.38
528.873	14967.38
529.644	14242.38
530.415	13489.38
531.186	12794.38
531.957	12140.38
532.728	11491.38
533.498	10831.38
534.269	10252.38
535.039	9689.38
535.81	9156.38
536.58	8643.38
537.351	8177.38
538.121	7777.38
538.891	7355.38
539.661	6941.38
540.431	6558.38
541.201	6253.38
541.971	5887.38
542.741	5597.38
543.51	5280.38
544.28	5068.38
545.05	4831.38
545.819	4570.38
546.588	4362.38
547.358	4153.38
548.127	3967.38
548.896	3724.38
549.665	3536.38
550.434	3353.38
551.203	3152.38
551.972	2984.38
552.741	2841.38
553.51	2658.38
554.278	2511.38
555.047	2379.38
555.815	2237.38
556.584	2126.38
557.352	2010.38
558.121	1910.38
558.889	1779.38
559.657	1696.38
560.425	1583.38
561.193	1509.38
561.961	1435.38
562.729	1356.38
563.496	1273.38
564.264	1199.38
565.032	1135.38
565.799	1094.38
566.567	1031.38
567.334	969.38
568.101	909.38
568.869	867.38
569.636	813.38
570.403	767.38
571.17	728.38
571.937	685.38
572.704	642.38
573.471	627.38
574.237	579.38
575.004	539.38
575.771	507.38
576.537	480.38
577.303	452.38
578.07	433.38
578.836	402.38
579.602	387.38
580.368	367.38
581.134	343.38
581.9	334.38
582.666	311.38
583.432	297.38
584.198	285.38
584.964	273.38
585.729	257.38
586.495	246.38
587.26	228.38
588.025	222.38
588.791	206.38
589.556	196.38
590.321	186.38
591.086	175.38
591.851	168.38
592.616	163.38
593.381	154.38
594.146	144.38
594.911	137.38
595.675	132.38
596.44	123.38
597.204	126.38
597.969	118.38
598.733	108.38
599.497	110.38
600.261	102.38
601.025	101.38
601.79	94.38
602.553	93.38
603.317	88.38
604.081	85.38
604.845	80.38
605.609	79.38
606.372	77.38
607.136	74.38
607.899	69.38
608.662	69.38
609.426	62.38
610.189	61.38
610.952	62.38
611.715	57.38
612.478	58.38
613.241	53.38
614.004	51.38
614.767	51.38
615.529	48.38
616.292	47.38
617.055	45.38
617.817	46.38
618.579	41.38
619.342	41.38
620.104	44.38
620.866	39.38
621.628	36.38
622.39	37.38
623.152	34.38
623.914	36.38
624.676	37.38
625.438	35.38
626.199	28.38
626.961	31.38
627.722	29.38
628.484	26.38
629.245	28.38
630.006	24.38
630.768	26.38
631.529	25.38
632.29	23.38
633.051	23.38
633.812	22.38
634.573	23.38
635.333	23.38
636.094	25.38
636.855	19.38
637.615	19.38
638.376	20.38
639.136	19.38
639.896	19.38
640.657	22.38
641.417	17.38
642.177	18.38
642.937	16.38
643.697	16.38
644.457	16.38
645.216	19.38
645.976	16.38
646.736	14.38
647.495	15.38
648.255	15.38
649.014	17.38
649.774	17.38
650.533	14.38
651.292	15.38
652.051	12.38
652.81	13.38
653.569	12.38
654.328	15.38
655.087	9.38
655.846	16.38
656.604	12.38
657.363	11.38
658.121	12.38
658.88	11.38
659.638	11.38
660.397	13.38
661.155	12.38
661.913	12.38
662.671	9.38
663.429	12.38
664.187	11.38
664.945	13.38
665.703	11.38
666.46	10.38
667.218	11.38
667.976	10.38
668.733	10.38
669.49	13.38
670.248	8.38
671.005	10.38
671.762	10.38
672.519	11.38
673.276	7.38
674.033	9.38
674.79	11.38
675.547	7.38
676.304	9.38
677.06	8.38
677.817	10.38
678.574	8.38
679.33	10.38
680.086	8.38
680.843	9.38
681.599	9.38
682.355	6.38
683.111	7.38
683.867	10.38
684.623	9.38
685.379	8.38
686.135	8.38
686.89	8.38
687.646	6.38
688.402	9.38
689.157	10.38
689.912	6.38
690.668	8.38
691.423	8.38
692.178	9.38
692.933	9.38
693.688	6.38
694.443	9.38
695.198	8.38
695.953	9.38
696.708	7.38
697.462	9.38
698.217	7.38
698.972	9.38
699.726	10.38
700.48	8.38
701.235	8.38
701.989	7.38
702.743	8.38
703.497	8.38
704.251	9.38
705.005	7.38
705.759	8.38
706.513	9.38
707.266	6.38
708.02	9.38
708.774	9.38
709.527	7.38
710.28	7.38
711.034	6.38
711.787	9.38
712.54	10.38
713.293	9.38
714.046	9.38
714.799	8.38
715.552	8.38
716.305	9.38
717.058	7.38
717.81	8.38
718.563	9.38
719.315	8.38
720.068	8.38
720.82	9.38
721.573	8.38
722.325	7.38
723.077	7.38
723.829	7.38
724.581	10.38
725.333	8.38
726.085	8.38
726.836	9.38
727.588	8.38
728.34	11.38
729.091	7.38
729.843	11.38
730.594	10.38
731.346	11.38
732.097	8.38
732.848	10.38
733.599	12.38
734.35	9.38
735.101	11.38
735.852	9.38
736.603	11.38
737.354	10.38
738.104	9.38
738.855	8.38
739.605	11.38
740.356	10.38
741.106	11.38
741.856	10.38
742.607	13.38
743.357	7.38
744.107	11.38
744.857	13.38
745.607	10.38
746.357	13.38
747.106	11.38
747.856	13.38
748.606	11.38
749.355	13.38
750.105	11.38
750.854	11.38
751.603	12.38
752.353	14.38
753.102	14.38
753.851	10.38
754.6	15.38
755.349	13.38
756.098	11.38
756.847	12.38
757.595	13.38
758.344	13.38
759.093	11.38
759.841	11.38
760.589	15.38
761.338	13.38
762.086	15.38
762.834	13.38
763.582	16.38
764.331	14.38
765.079	15.38
765.826	15.38
766.574	13.38
767.322	15.38
768.07	16.38
768.817	16.38
769.565	14.38
770.312	16.38
771.06	15.38
771.807	14.38
772.554	17.38
773.302	14.38
774.049	15.38
774.796	19.38
775.543	17.38
776.29	15.38
777.036	15.38
777.783	19.38
778.53	18.38
779.276	16.38
780.023	17.38
780.769	16.38
781.516	15.38
782.262	19.38
783.008	17.38
783.754	17.38
784.5	15.38
785.246	19.38
785.992	17.38
786.738	17.38
787.484	17.38
788.23	16.38
788.975	17.38
789.721	14.38
790.466	18.38
791.212	17.38
791.957	16.38
792.702	15.38
793.447	15.38
794.193	18.38
794.938	14.38
795.683	15.38
796.427	16.38
797.172	14.38
797.917	15.38
798.662	13.38
799.406	15.38
800.151	17.38
800.895	12.38
801.64	11.38
802.384	13.38
803.128	14.38
803.872	8.38
804.616	12.38
805.36	12.38
806.104	12.38
806.848	10.38
807.592	9.38
808.336	12.38
809.079	11.38
809.823	11.38
810.566	10.38
811.31	9.38
812.053	10.38
812.796	9.38
813.539	7.38
814.283	10.38
815.026	8.38
815.769	10.38
816.511	8.38
817.254	10.38
817.997	10.38
818.74	7.38
819.482	5.38
820.225	7.38
820.967	7.38
821.71	8.38
822.452	8.38
823.194	6.38
823.936	8.38
824.678	7.38
825.42	6.38
826.162	7.38
826.904	7.38
827.646	8.38
828.388	6.38
829.129	9.38
829.871	6.38
830.612	5.38
831.354	8.38
832.095	5.38
832.836	7.38
833.577	5.38
834.319	6.38
835.06	7.38
835.801	4.38
836.542	8.38
837.282	6.38
838.023	7.38
838.764	6.38
839.504	6.38
840.245	6.38
840.985	4.38
841.726	7.38
842.466	4.38
843.206	5.38
843.946	5.38
844.687	5.38
845.427	6.38
846.166	5.38
846.906	7.38
847.646	4.38
848.386	5.38
849.125	5.38
849.865	1.38
850.605	6.38
851.344	4.38
852.083	5.38
852.823	6.38
853.562	3.38
854.301	5.38
855.04	6.38
855.779	5.38
856.518	4.38
857.257	4.38
857.995	4.38
858.734	3.38
859.473	6.38
860.211	5.38
860.95	5.38
861.688	2.38
862.426	5.38
863.165	2.38
863.903	2.38
864.641	2.38
865.379	2.38
866.117	2.38
866.855	2.38
867.593	3.38
868.33	2.38
869.068	3.38
869.806	2.38
870.543	3.38
871.28	3.38
872.018	2.38
872.755	3.38
873.492	1.38
874.229	4.38
874.967	1.38
875.703	3.38
876.44	3.38
877.177	2.38
877.914	2.38
878.651	3.38
879.387	2.38
880.124	1.38
880.86	2.38
881.597	3.38
882.333	2.38
883.069	1.38
883.806	1.38
884.542	-0.62
885.278	2.38
886.014	2.38
886.749	-1.62
887.485	3.38
888.221	2.38
888.957	4.38
889.692	0.38
890.428	2.38
891.163	2.38
891.899	3.38
892.634	2.38
893.369	1.38
894.104	1.38
894.839	2.38
895.574	-1.62
896.309	1.38
897.044	1.38
897.779	3.38
898.514	1.38
899.248	1.38
899.983	3.38
900.717	0.38
901.452	-0.62
902.186	1.38
902.92	3.38
903.654	1.38
904.389	-0.62
905.123	0.38
905.857	1.38
906.59	1.38
907.324	1.38
908.058	1.38
908.792	1.38
909.525	-0.62
910.259	1.38
910.992	1.38
911.726	3.38
912.459	4.38
913.192	0.38
913.925	1.38
914.658	-1.62
915.391	1.38
916.124	2.38
916.857	1.38
917.59	0.38
918.323	2.38
919.055	1.38
919.788	-1.62
920.521	3.38
921.253	-0.62
921.985	-0.62
922.718	1.38
923.45	1.38
924.182	2.38
924.914	-0.62
925.646	-0.62
926.378	-0.62
927.11	1.38
927.841	2.38
928.573	1.38
929.305	3.38
930.036	1.38
930.768	1.38
931.499	1.38
932.23	-0.62
932.962	0.38
933.693	0.38
934.424	0.38
935.155	2.38
935.886	1.38
936.617	0.38
937.348	-0.62
938.078	1.38
938.809	-0.62
939.54	2.38
940.27	2.38
941.001	-0.62
941.731	0.38
942.461	0.38
943.191	1.38
943.922	1.38
944.652	1.38
945.382	2.38
946.112	-0.62
946.841	2.38
947.571	1.38
948.301	0.38
949.031	1.38
949.76	-0.62
950.49	0.38
951.219	-1.62
951.948	2.38
952.678	1.38
953.407	1.38
954.136	1.38
954.865	-0.62
955.594	2.38
956.323	0.38
957.052	0.38
957.78	-0.62
958.509	-0.62
959.238	0.38
959.966	-0.62
960.695	1.38
961.423	-1.62
962.151	-0.62
962.88	1.38
963.608	-0.62
964.336	-0.62
965.064	1.38
965.792	1.38
966.52	0.38
967.247	1.38
967.975	1.38
968.703	1.38
969.43	-0.62
970.158	0.38
970.885	1.38
971.613	1.38
972.34	-0.62
973.067	1.38
973.794	3.38
974.521	0.38
975.248	2.38
975.975	0.38
976.702	0.38
977.429	-0.62
978.156	2.38
978.882	0.38
979.609	1.38
980.335	3.38
981.062	-0.62
981.788	1.38
982.514	0.38
983.24	0.38
983.967	1.38
984.693	1.38
985.419	0.38
986.144	-0.62
986.87	2.38
987.596	-0.62
988.322	2.38
989.047	3.38
989.773	3.38
990.498	0.38
991.224	0.38
991.949	-1.62
992.674	0.38
993.399	1.38
994.124	2.38
994.849	0.38
995.574	2.38
996.299	0.38
997.024	-0.62
997.749	0.38
998.473	1.38
999.198	1.38
999.922	-0.62
1000.647	0.38
1001.371	3.38
1002.095	-1.62
1002.82	-0.62
1003.544	-0.62
1004.268	3.38
1004.992	4.38
1005.716	5.38
1006.439	5.38
1007.163	4.38
1007.887	7.38
1008.611	1.38
1009.334	1.38
1010.058	0.38
1010.781	-0.62
1011.504	-0.62
1012.228	0.38
1012.951	-0.62
1013.674	-1.62
1014.397	2.38
1015.12	-0.62
