节点500_705_QEPB04081__311__20-50-24-456.txt的数据

Date: Wed Nov 12 20:50:24 CST 2025
User: PC
Spectrometer: QEPB0408
触发模式: 0
积分时间 (秒): 1.000000E-2
Scans to average: 1
启用暗噪声校正: true
启用非线性校正: false
滑动平均宽度: 0
X轴模式: Wavelengths
Number of Pixels in Spectrum: 1044
>>>>>Begin Spectral Data<<<<<
220.843	4.38
221.644	9.38
222.444	6.38
223.244	7.38
224.045	8.38
224.845	8.38
225.645	6.38
226.445	7.38
227.245	7.38
228.045	7.38
228.845	10.38
229.645	7.38
230.444	7.38
231.244	11.38
232.043	6.38
232.843	9.38
233.642	10.38
234.442	11.38
235.241	10.38
236.04	9.38
236.839	9.38
237.638	11.38
238.437	13.38
239.236	13.38
240.035	13.38
240.833	12.38
241.632	11.38
242.43	13.38
243.229	13.38
244.027	13.38
244.826	13.38
245.624	13.38
246.422	16.38
247.22	12.38
248.018	15.38
248.816	14.38
249.614	18.38
250.412	17.38
251.21	19.38
252.007	18.38
252.805	19.38
253.602	16.38
254.4	19.38
255.197	20.38
255.994	18.38
256.791	21.38
257.589	21.38
258.386	23.38
259.183	24.38
259.979	22.38
260.776	24.38
261.573	24.38
262.37	22.38
263.166	26.38
263.963	23.38
264.759	27.38
265.556	25.38
266.352	27.38
267.148	29.38
267.944	27.38
268.74	29.38
269.536	29.38
270.332	30.38
271.128	33.38
271.924	31.38
272.719	31.38
273.515	30.38
274.311	32.38
275.106	29.38
275.901	34.38
276.697	35.38
277.492	30.38
278.287	36.38
279.082	35.38
279.877	36.38
280.672	34.38
281.467	33.38
282.262	38.38
283.056	35.38
283.851	36.38
284.646	34.38
285.44	34.38
286.234	34.38
287.029	35.38
287.823	34.38
288.617	33.38
289.411	34.38
290.205	33.38
290.999	33.38
291.793	35.38
292.587	32.38
293.381	30.38
294.174	29.38
294.968	29.38
295.761	31.38
296.555	26.38
297.348	31.38
298.141	27.38
298.935	27.38
299.728	27.38
300.521	25.38
301.314	26.38
302.107	27.38
302.899	26.38
303.692	20.38
304.485	26.38
305.277	24.38
306.07	23.38
306.862	24.38
307.655	21.38
308.447	21.38
309.239	22.38
310.031	19.38
310.823	21.38
311.615	17.38
312.407	18.38
313.199	16.38
313.991	17.38
314.783	15.38
315.574	17.38
316.366	19.38
317.157	16.38
317.949	14.38
318.74	15.38
319.531	15.38
320.322	15.38
321.113	14.38
321.904	15.38
322.695	12.38
323.486	16.38
324.277	12.38
325.068	13.38
325.858	12.38
326.649	12.38
327.439	12.38
328.23	12.38
329.02	11.38
329.81	13.38
330.6	12.38
331.391	12.38
332.181	11.38
332.971	11.38
333.76	12.38
334.55	12.38
335.34	13.38
336.13	10.38
336.919	12.38
337.709	11.38
338.498	12.38
339.287	9.38
340.077	11.38
340.866	14.38
341.655	11.38
342.444	13.38
343.233	11.38
344.022	14.38
344.811	14.38
345.6	10.38
346.388	12.38
347.177	11.38
347.965	11.38
348.754	12.38
349.542	12.38
350.33	13.38
351.119	12.38
351.907	12.38
352.695	9.38
353.483	10.38
354.271	11.38
355.059	11.38
355.846	11.38
356.634	11.38
357.422	7.38
358.209	10.38
358.997	11.38
359.784	12.38
360.571	11.38
361.359	9.38
362.146	11.38
362.933	10.38
363.72	9.38
364.507	10.38
365.294	11.38
366.081	11.38
366.867	10.38
367.654	9.38
368.44	8.38
369.227	11.38
370.013	6.38
370.8	11.38
371.586	7.38
372.372	10.38
373.158	9.38
373.944	11.38
374.73	10.38
375.516	9.38
376.302	9.38
377.088	11.38
377.873	11.38
378.659	12.38
379.445	8.38
380.23	13.38
381.015	11.38
381.801	12.38
382.586	10.38
383.371	13.38
384.156	11.38
384.941	12.38
385.726	11.38
386.511	10.38
387.296	11.38
388.08	13.38
388.865	10.38
389.649	11.38
390.434	9.38
391.218	11.38
392.003	12.38
392.787	13.38
393.571	11.38
394.355	12.38
395.139	14.38
395.923	14.38
396.707	12.38
397.491	13.38
398.274	14.38
399.058	13.38
399.842	16.38
400.625	13.38
401.408	12.38
402.192	14.38
402.975	17.38
403.758	14.38
404.541	13.38
405.324	14.38
406.107	15.38
406.89	15.38
407.673	15.38
408.456	17.38
409.238	15.38
410.021	14.38
410.803	16.38
411.586	19.38
412.368	16.38
413.151	18.38
413.933	18.38
414.715	19.38
415.497	20.38
416.279	18.38
417.061	19.38
417.843	21.38
418.624	19.38
419.406	22.38
420.188	23.38
420.969	20.38
421.751	23.38
422.532	22.38
423.313	23.38
424.095	22.38
424.876	23.38
425.657	26.38
426.438	25.38
427.219	28.38
428	27.38
428.78	27.38
429.561	31.38
430.342	28.38
431.122	32.38
431.903	31.38
432.683	33.38
433.464	37.38
434.244	37.38
435.024	38.38
435.804	37.38
436.584	45.38
437.364	45.38
438.144	48.38
438.924	48.38
439.704	56.38
440.483	57.38
441.263	60.38
442.042	66.38
442.822	68.38
443.601	73.38
444.38	84.38
445.16	86.38
445.939	95.38
446.718	105.38
447.497	110.38
448.276	122.38
449.054	132.38
449.833	146.38
450.612	165.38
451.391	179.38
452.169	189.38
452.948	211.38
453.726	238.38
454.504	277.38
455.282	304.38
456.061	331.38
456.839	365.38
457.617	412.38
458.395	464.38
459.172	507.38
459.95	567.38
460.728	623.38
461.506	708.38
462.283	782.38
463.061	887.38
463.838	972.38
464.615	1092.38
465.393	1215.38
466.17	1347.38
466.947	1502.38
467.724	1661.38
468.501	1844.38
469.278	2046.38
470.055	2265.38
470.831	2485.38
471.608	2771.38
472.385	3016.38
473.161	3382.38
473.938	3679.38
474.714	4071.38
475.49	4436.38
476.266	4891.38
477.043	5328.38
477.819	5852.38
478.595	6404.38
479.371	6999.38
480.146	7647.38
480.922	8339.38
481.698	9039.38
482.473	9887.38
483.249	10729.38
484.024	11704.38
484.8	12648.38
485.575	13719.38
486.35	14917.38
487.126	16121.38
487.901	17452.38
488.676	18815.38
489.451	20358.38
490.225	21787.38
491	23448.38
491.775	25119.38
492.55	26883.38
493.324	28587.38
494.099	30320.38
494.873	32101.38
495.647	33902.38
496.422	35807.38
497.196	37533.38
497.97	39151.38
498.744	40727.38
499.518	42281.38
500.292	43683.38
501.066	44732.38
501.839	45608.38
502.613	46296.38
503.387	46972.38
504.16	47421.38
504.934	47527.38
505.707	47392.38
506.48	47006.38
507.253	46478.38
508.027	45710.38
508.8	44704.38
509.573	43627.38
510.346	42647.38
511.118	41572.38
511.891	40319.38
512.664	38707.38
513.437	37270.38
514.209	35819.38
514.982	34511.38
515.754	33083.38
516.526	31637.38
517.298	30459.38
518.071	29206.38
518.843	28122.38
519.615	27006.38
520.387	25941.38
521.159	24945.38
521.93	23786.38
522.702	22850.38
523.474	21866.38
524.245	20950.38
525.017	19983.38
525.788	19146.38
526.56	18309.38
527.331	17510.38
528.102	16597.38
528.873	15799.38
529.644	15058.38
530.415	14384.38
531.186	13718.38
531.957	12962.38
532.728	12289.38
533.498	11599.38
534.269	10970.38
535.039	10408.38
535.81	9827.38
536.58	9315.38
537.351	8834.38
538.121	8388.38
538.891	7909.38
539.661	7478.38
540.431	7098.38
541.201	6745.38
541.971	6324.38
542.741	6025.38
543.51	5729.38
544.28	5459.38
545.05	5200.38
545.819	4935.38
546.588	4726.38
547.358	4495.38
548.127	4267.38
548.896	4072.38
549.665	3864.38
550.434	3631.38
551.203	3445.38
551.972	3268.38
552.741	3093.38
553.51	2932.38
554.278	2768.38
555.047	2601.38
555.815	2468.38
556.584	2330.38
557.352	2210.38
558.121	2084.38
558.889	1959.38
559.657	1852.38
560.425	1759.38
561.193	1665.38
561.961	1569.38
562.729	1492.38
563.496	1400.38
564.264	1331.38
565.032	1256.38
565.799	1185.38
566.567	1128.38
567.334	1073.38
568.101	1009.38
568.869	942.38
569.636	890.38
570.403	851.38
571.17	799.38
571.937	755.38
572.704	716.38
573.471	686.38
574.237	636.38
575.004	590.38
575.771	568.38
576.537	529.38
577.303	495.38
578.07	479.38
578.836	448.38
579.602	427.38
580.368	400.38
581.134	385.38
581.9	362.38
582.666	340.38
583.432	328.38
584.198	313.38
584.964	301.38
585.729	280.38
586.495	264.38
587.26	253.38
588.025	235.38
588.791	222.38
589.556	210.38
590.321	203.38
591.086	194.38
591.851	188.38
592.616	174.38
593.381	172.38
594.146	158.38
594.911	153.38
595.675	149.38
596.44	140.38
597.204	136.38
597.969	125.38
598.733	124.38
599.497	119.38
600.261	110.38
601.025	104.38
601.79	107.38
602.553	98.38
603.317	91.38
604.081	89.38
604.845	84.38
605.609	83.38
606.372	82.38
607.136	75.38
607.899	75.38
608.662	72.38
609.426	69.38
610.189	64.38
610.952	67.38
611.715	61.38
612.478	58.38
613.241	59.38
614.004	56.38
614.767	53.38
615.529	50.38
616.292	47.38
617.055	48.38
617.817	47.38
618.579	45.38
619.342	43.38
620.104	42.38
620.866	42.38
621.628	42.38
622.39	37.38
623.152	38.38
623.914	34.38
624.676	33.38
625.438	35.38
626.199	33.38
626.961	31.38
627.722	30.38
628.484	29.38
629.245	30.38
630.006	27.38
630.768	27.38
631.529	27.38
632.29	27.38
633.051	29.38
633.812	24.38
634.573	25.38
635.333	25.38
636.094	22.38
636.855	21.38
637.615	21.38
638.376	19.38
639.136	20.38
639.896	19.38
640.657	20.38
641.417	20.38
642.177	19.38
642.937	17.38
643.697	19.38
644.457	18.38
645.216	16.38
645.976	17.38
646.736	15.38
647.495	16.38
648.255	16.38
649.014	15.38
649.774	15.38
650.533	13.38
651.292	14.38
652.051	13.38
652.81	14.38
653.569	15.38
654.328	13.38
655.087	12.38
655.846	11.38
656.604	13.38
657.363	11.38
658.121	12.38
658.88	12.38
659.638	10.38
660.397	11.38
661.155	11.38
661.913	13.38
662.671	10.38
663.429	13.38
664.187	10.38
664.945	11.38
665.703	10.38
666.46	12.38
667.218	9.38
667.976	11.38
668.733	10.38
669.49	11.38
670.248	9.38
671.005	9.38
671.762	10.38
672.519	9.38
673.276	11.38
674.033	8.38
674.79	7.38
675.547	8.38
676.304	9.38
677.06	7.38
677.817	11.38
678.574	6.38
679.33	7.38
680.086	7.38
680.843	6.38
681.599	7.38
682.355	9.38
683.111	8.38
683.867	10.38
684.623	8.38
685.379	8.38
686.135	8.38
686.89	6.38
687.646	9.38
688.402	7.38
689.157	6.38
689.912	6.38
690.668	9.38
691.423	7.38
692.178	8.38
692.933	7.38
693.688	7.38
694.443	9.38
695.198	10.38
695.953	6.38
696.708	8.38
697.462	9.38
698.217	8.38
698.972	8.38
699.726	7.38
700.48	7.38
701.235	8.38
701.989	7.38
702.743	7.38
703.497	11.38
704.251	6.38
705.005	9.38
705.759	7.38
706.513	6.38
707.266	10.38
708.02	10.38
708.774	8.38
709.527	7.38
710.28	6.38
711.034	8.38
711.787	5.38
712.54	9.38
713.293	9.38
714.046	6.38
714.799	9.38
715.552	7.38
716.305	10.38
717.058	5.38
717.81	8.38
718.563	8.38
719.315	11.38
720.068	8.38
720.82	9.38
721.573	10.38
722.325	7.38
723.077	7.38
723.829	8.38
724.581	6.38
725.333	8.38
726.085	9.38
726.836	8.38
727.588	7.38
728.34	8.38
729.091	8.38
729.843	12.38
730.594	8.38
731.346	8.38
732.097	11.38
732.848	7.38
733.599	9.38
734.35	8.38
735.101	8.38
735.852	9.38
736.603	10.38
737.354	11.38
738.104	9.38
738.855	8.38
739.605	10.38
740.356	8.38
741.106	12.38
741.856	9.38
742.607	9.38
743.357	10.38
744.107	10.38
744.857	10.38
745.607	11.38
746.357	12.38
747.106	11.38
747.856	9.38
748.606	10.38
749.355	9.38
750.105	10.38
750.854	13.38
751.603	9.38
752.353	12.38
753.102	10.38
753.851	11.38
754.6	11.38
755.349	13.38
756.098	11.38
756.847	12.38
757.595	13.38
758.344	13.38
759.093	15.38
759.841	13.38
760.589	11.38
761.338	15.38
762.086	14.38
762.834	15.38
763.582	12.38
764.331	13.38
765.079	14.38
765.826	12.38
766.574	17.38
767.322	14.38
768.07	13.38
768.817	13.38
769.565	14.38
770.312	15.38
771.06	16.38
771.807	18.38
772.554	15.38
773.302	17.38
774.049	13.38
774.796	15.38
775.543	15.38
776.29	15.38
777.036	17.38
777.783	15.38
778.53	16.38
779.276	16.38
780.023	14.38
780.769	17.38
781.516	17.38
782.262	13.38
783.008	20.38
783.754	15.38
784.5	18.38
785.246	14.38
785.992	15.38
786.738	16.38
787.484	17.38
788.23	17.38
788.975	16.38
789.721	15.38
790.466	16.38
791.212	16.38
791.957	15.38
792.702	15.38
793.447	17.38
794.193	12.38
794.938	13.38
795.683	12.38
796.427	14.38
797.172	14.38
797.917	12.38
798.662	12.38
799.406	14.38
800.151	12.38
800.895	13.38
801.64	14.38
802.384	13.38
803.128	11.38
803.872	13.38
804.616	11.38
805.36	13.38
806.104	11.38
806.848	8.38
807.592	9.38
808.336	11.38
809.079	10.38
809.823	9.38
810.566	11.38
811.31	10.38
812.053	12.38
812.796	9.38
813.539	9.38
814.283	8.38
815.026	10.38
815.769	8.38
816.511	9.38
817.254	8.38
817.997	9.38
818.74	7.38
819.482	9.38
820.225	7.38
820.967	9.38
821.71	11.38
822.452	10.38
823.194	6.38
823.936	6.38
824.678	9.38
825.42	9.38
826.162	6.38
826.904	7.38
827.646	8.38
828.388	7.38
829.129	7.38
829.871	7.38
830.612	7.38
831.354	7.38
832.095	5.38
832.836	8.38
833.577	8.38
834.319	9.38
835.06	8.38
835.801	5.38
836.542	7.38
837.282	9.38
838.023	6.38
838.764	4.38
839.504	7.38
840.245	5.38
840.985	8.38
841.726	4.38
842.466	5.38
843.206	4.38
843.946	5.38
844.687	7.38
845.427	6.38
846.166	6.38
846.906	6.38
847.646	6.38
848.386	6.38
849.125	3.38
849.865	7.38
850.605	3.38
851.344	4.38
852.083	5.38
852.823	3.38
853.562	5.38
854.301	6.38
855.04	4.38
855.779	3.38
856.518	5.38
857.257	5.38
857.995	3.38
858.734	4.38
859.473	3.38
860.211	4.38
860.95	6.38
861.688	3.38
862.426	4.38
863.165	3.38
863.903	2.38
864.641	4.38
865.379	1.38
866.117	4.38
866.855	2.38
867.593	2.38
868.33	3.38
869.068	3.38
869.806	5.38
870.543	3.38
871.28	1.38
872.018	5.38
872.755	3.38
873.492	3.38
874.229	2.38
874.967	4.38
875.703	3.38
876.44	1.38
877.177	3.38
877.914	2.38
878.651	4.38
879.387	1.38
880.124	3.38
880.86	2.38
881.597	0.38
882.333	2.38
883.069	2.38
883.806	3.38
884.542	2.38
885.278	1.38
886.014	0.38
886.749	2.38
887.485	0.38
888.221	1.38
888.957	3.38
889.692	2.38
890.428	1.38
891.163	3.38
891.899	2.38
892.634	1.38
893.369	0.38
894.104	2.38
894.839	1.38
895.574	0.38
896.309	1.38
897.044	1.38
897.779	2.38
898.514	2.38
899.248	1.38
899.983	1.38
900.717	2.38
901.452	2.38
902.186	0.38
902.92	2.38
903.654	1.38
904.389	2.38
905.123	3.38
905.857	3.38
906.59	1.38
907.324	3.38
908.058	2.38
908.792	0.38
909.525	1.38
910.259	0.38
910.992	-0.62
911.726	2.38
912.459	1.38
913.192	3.38
913.925	2.38
914.658	0.38
915.391	1.38
916.124	-1.62
916.857	0.38
917.59	0.38
918.323	1.38
919.055	0.38
919.788	1.38
920.521	2.38
921.253	2.38
921.985	2.38
922.718	-0.62
923.45	0.38
924.182	3.38
924.914	-1.62
925.646	1.38
926.378	2.38
927.11	0.38
927.841	-1.62
928.573	-0.62
929.305	3.38
930.036	0.38
930.768	1.38
931.499	1.38
932.23	2.38
932.962	-0.62
933.693	1.38
934.424	3.38
935.155	-0.62
935.886	1.38
936.617	0.38
937.348	-0.62
938.078	2.38
938.809	0.38
939.54	-0.62
940.27	1.38
941.001	0.38
941.731	0.38
942.461	0.38
943.191	1.38
943.922	-0.62
944.652	0.38
945.382	1.38
946.112	1.38
946.841	-0.62
947.571	1.38
948.301	2.38
949.031	1.38
949.76	0.38
950.49	1.38
951.219	-0.62
951.948	1.38
952.678	0.38
953.407	1.38
954.136	1.38
954.865	1.38
955.594	1.38
956.323	-0.62
957.052	1.38
957.78	-1.62
958.509	2.38
959.238	0.38
959.966	-0.62
960.695	0.38
961.423	0.38
962.151	1.38
962.88	2.38
963.608	0.38
964.336	0.38
965.064	0.38
965.792	-0.62
966.52	-0.62
967.247	0.38
967.975	2.38
968.703	1.38
969.43	2.38
970.158	-0.62
970.885	0.38
971.613	1.38
972.34	-0.62
973.067	1.38
973.794	-0.62
974.521	-0.62
975.248	0.38
975.975	0.38
976.702	3.38
977.429	0.38
978.156	3.38
978.882	0.38
979.609	-0.62
980.335	0.38
981.062	-0.62
981.788	-0.62
982.514	0.38
983.24	2.38
983.967	-0.62
984.693	-0.62
985.419	1.38
986.144	1.38
986.87	1.38
987.596	0.38
988.322	2.38
989.047	2.38
989.773	0.38
990.498	1.38
991.224	-1.62
991.949	1.38
992.674	0.38
993.399	3.38
994.124	1.38
994.849	2.38
995.574	0.38
996.299	1.38
997.024	0.38
997.749	1.38
998.473	1.38
999.198	3.38
999.922	-1.62
1000.647	0.38
1001.371	2.38
1002.095	-0.62
1002.82	-1.62
1003.544	-1.62
1004.268	3.38
1004.992	2.38
1005.716	4.38
1006.439	6.38
1007.163	7.38
1007.887	5.38
1008.611	1.38
1009.334	0.38
1010.058	0.38
1010.781	1.38
1011.504	0.38
1012.228	0.38
1012.951	1.38
1013.674	-0.62
1014.397	1.38
1015.12	-0.62
