节点500_705_QEPB04081__666__20-55-23-815.txt的数据

Date: Wed Nov 12 20:55:23 CST 2025
User: PC
Spectrometer: QEPB0408
触发模式: 0
积分时间 (秒): 1.000000E-2
Scans to average: 1
启用暗噪声校正: true
启用非线性校正: false
滑动平均宽度: 0
X轴模式: Wavelengths
Number of Pixels in Spectrum: 1044
>>>>>Begin Spectral Data<<<<<
220.843	2.62
221.644	8.62
222.444	1.62
223.244	6.62
224.045	6.62
224.845	4.62
225.645	4.62
226.445	4.62
227.245	9.62
228.045	6.62
228.845	3.62
229.645	8.62
230.444	6.62
231.244	7.62
232.043	5.62
232.843	7.62
233.642	5.62
234.442	8.62
235.241	12.62
236.04	8.62
236.839	9.62
237.638	11.62
238.437	7.62
239.236	11.62
240.035	9.62
240.833	8.62
241.632	11.62
242.43	9.62
243.229	12.62
244.027	12.62
244.826	13.62
245.624	14.62
246.422	13.62
247.22	11.62
248.018	14.62
248.816	11.62
249.614	13.62
250.412	16.62
251.21	15.62
252.007	15.62
252.805	12.62
253.602	16.62
254.4	16.62
255.197	16.62
255.994	17.62
256.791	18.62
257.589	19.62
258.386	14.62
259.183	19.62
259.979	19.62
260.776	18.62
261.573	21.62
262.37	20.62
263.166	18.62
263.963	22.62
264.759	20.62
265.556	21.62
266.352	22.62
267.148	25.62
267.944	26.62
268.74	26.62
269.536	26.62
270.332	24.62
271.128	26.62
271.924	25.62
272.719	28.62
273.515	26.62
274.311	26.62
275.106	28.62
275.901	29.62
276.697	29.62
277.492	30.62
278.287	30.62
279.082	30.62
279.877	26.62
280.672	30.62
281.467	30.62
282.262	30.62
283.056	29.62
283.851	30.62
284.646	31.62
285.44	28.62
286.234	31.62
287.029	30.62
287.823	29.62
288.617	30.62
289.411	26.62
290.205	32.62
290.999	29.62
291.793	29.62
292.587	29.62
293.381	26.62
294.174	27.62
294.968	29.62
295.761	24.62
296.555	26.62
297.348	27.62
298.141	25.62
298.935	29.62
299.728	28.62
300.521	21.62
301.314	24.62
302.107	23.62
302.899	18.62
303.692	20.62
304.485	20.62
305.277	19.62
306.07	23.62
306.862	21.62
307.655	21.62
308.447	18.62
309.239	19.62
310.031	19.62
310.823	20.62
311.615	18.62
312.407	16.62
313.199	17.62
313.991	16.62
314.783	14.62
315.574	16.62
316.366	15.62
317.157	14.62
317.949	14.62
318.74	15.62
319.531	14.62
320.322	15.62
321.113	14.62
321.904	14.62
322.695	11.62
323.486	10.62
324.277	13.62
325.068	13.62
325.858	13.62
326.649	12.62
327.439	15.62
328.23	10.62
329.02	10.62
329.81	14.62
330.6	9.62
331.391	11.62
332.181	14.62
332.971	12.62
333.76	12.62
334.55	12.62
335.34	12.62
336.13	11.62
336.919	12.62
337.709	11.62
338.498	11.62
339.287	11.62
340.077	11.62
340.866	7.62
341.655	12.62
342.444	10.62
343.233	9.62
344.022	8.62
344.811	10.62
345.6	9.62
346.388	10.62
347.177	11.62
347.965	8.62
348.754	10.62
349.542	10.62
350.33	10.62
351.119	9.62
351.907	11.62
352.695	12.62
353.483	10.62
354.271	9.62
355.059	9.62
355.846	11.62
356.634	10.62
357.422	10.62
358.209	10.62
358.997	11.62
359.784	10.62
360.571	10.62
361.359	8.62
362.146	9.62
362.933	12.62
363.72	9.62
364.507	7.62
365.294	8.62
366.081	10.62
366.867	10.62
367.654	10.62
368.44	8.62
369.227	9.62
370.013	8.62
370.8	7.62
371.586	8.62
372.372	9.62
373.158	6.62
373.944	10.62
374.73	9.62
375.516	9.62
376.302	8.62
377.088	9.62
377.873	9.62
378.659	7.62
379.445	8.62
380.23	7.62
381.015	10.62
381.801	8.62
382.586	10.62
383.371	8.62
384.156	9.62
384.941	9.62
385.726	9.62
386.511	9.62
387.296	10.62
388.08	10.62
388.865	9.62
389.649	12.62
390.434	9.62
391.218	10.62
392.003	9.62
392.787	10.62
393.571	10.62
394.355	10.62
395.139	11.62
395.923	12.62
396.707	11.62
397.491	14.62
398.274	10.62
399.058	15.62
399.842	12.62
400.625	12.62
401.408	14.62
402.192	11.62
402.975	14.62
403.758	14.62
404.541	12.62
405.324	14.62
406.107	14.62
406.89	12.62
407.673	13.62
408.456	14.62
409.238	11.62
410.021	12.62
410.803	14.62
411.586	16.62
412.368	15.62
413.151	14.62
413.933	17.62
414.715	18.62
415.497	17.62
416.279	16.62
417.061	17.62
417.843	18.62
418.624	19.62
419.406	18.62
420.188	18.62
420.969	18.62
421.751	19.62
422.532	20.62
423.313	22.62
424.095	19.62
424.876	21.62
425.657	24.62
426.438	24.62
427.219	26.62
428	24.62
428.78	22.62
429.561	30.62
430.342	28.62
431.122	31.62
431.903	37.62
432.683	34.62
433.464	34.62
434.244	36.62
435.024	39.62
435.804	41.62
436.584	43.62
437.364	43.62
438.144	48.62
438.924	52.62
439.704	53.62
440.483	58.62
441.263	61.62
442.042	66.62
442.822	68.62
443.601	80.62
444.38	83.62
445.16	91.62
445.939	98.62
446.718	113.62
447.497	122.62
448.276	131.62
449.054	137.62
449.833	153.62
450.612	170.62
451.391	192.62
452.169	214.62
452.948	233.62
453.726	256.62
454.504	282.62
455.282	318.62
456.061	356.62
456.839	389.62
457.617	443.62
458.395	488.62
459.172	537.62
459.95	602.62
460.728	676.62
461.506	735.62
462.283	834.62
463.061	927.62
463.838	1033.62
464.615	1134.62
465.393	1256.62
466.17	1383.62
466.947	1541.62
467.724	1706.62
468.501	1880.62
469.278	2066.62
470.055	2286.62
470.831	2503.62
471.608	2751.62
472.385	3017.62
473.161	3328.62
473.938	3624.62
474.714	3962.62
475.49	4334.62
476.266	4732.62
477.043	5112.62
477.819	5582.62
478.595	6059.62
479.371	6593.62
480.146	7156.62
480.922	7741.62
481.698	8422.62
482.473	9094.62
483.249	9859.62
484.024	10617.62
484.8	11496.62
485.575	12380.62
486.35	13373.62
487.126	14400.62
487.901	15455.62
488.676	16661.62
489.451	17858.62
490.225	19180.62
491	20518.62
491.775	21893.62
492.55	23437.62
493.324	24851.62
494.099	26454.62
494.873	28011.62
495.647	29623.62
496.422	31102.62
497.196	32830.62
497.97	34192.62
498.744	35742.62
499.518	37293.62
500.292	38698.62
501.066	39682.62
501.839	40674.62
502.613	41601.62
503.387	42425.62
504.16	43118.62
504.934	43386.62
505.707	43775.62
506.48	43655.62
507.253	43405.62
508.027	43168.62
508.8	42584.62
509.573	41932.62
510.346	41176.62
511.118	40442.62
511.891	39444.62
512.664	38133.62
513.437	36968.62
514.209	35709.62
514.982	34501.62
515.754	33297.62
516.526	31971.62
517.298	30762.62
518.071	29652.62
518.843	28533.62
519.615	27320.62
520.387	26225.62
521.159	25290.62
521.93	24275.62
522.702	23273.62
523.474	22216.62
524.245	21353.62
525.017	20512.62
525.788	19655.62
526.56	18858.62
527.331	18078.62
528.102	17211.62
528.873	16406.62
529.644	15646.62
530.415	14946.62
531.186	14199.62
531.957	13545.62
532.728	12896.62
533.498	12208.62
534.269	11596.62
535.039	11021.62
535.81	10410.62
536.58	9878.62
537.351	9369.62
538.121	8875.62
538.891	8394.62
539.661	7955.62
540.431	7491.62
541.201	7152.62
541.971	6812.62
542.741	6407.62
543.51	6075.62
544.28	5781.62
545.05	5506.62
545.819	5284.62
546.588	5026.62
547.358	4764.62
548.127	4519.62
548.896	4337.62
549.665	4127.62
550.434	3925.62
551.203	3693.62
551.972	3511.62
552.741	3329.62
553.51	3129.62
554.278	2964.62
555.047	2815.62
555.815	2655.62
556.584	2514.62
557.352	2367.62
558.121	2244.62
558.889	2117.62
559.657	1998.62
560.425	1887.62
561.193	1803.62
561.961	1705.62
562.729	1603.62
563.496	1508.62
564.264	1434.62
565.032	1369.62
565.799	1279.62
566.567	1221.62
567.334	1153.62
568.101	1076.62
568.869	1035.62
569.636	963.62
570.403	918.62
571.17	857.62
571.937	820.62
572.704	769.62
573.471	731.62
574.237	687.62
575.004	649.62
575.771	615.62
576.537	579.62
577.303	552.62
578.07	529.62
578.836	487.62
579.602	462.62
580.368	438.62
581.134	421.62
581.9	397.62
582.666	372.62
583.432	363.62
584.198	341.62
584.964	320.62
585.729	308.62
586.495	286.62
587.26	276.62
588.025	253.62
588.791	244.62
589.556	229.62
590.321	217.62
591.086	208.62
591.851	194.62
592.616	193.62
593.381	180.62
594.146	177.62
594.911	166.62
595.675	157.62
596.44	158.62
597.204	147.62
597.969	140.62
598.733	131.62
599.497	125.62
600.261	119.62
601.025	111.62
601.79	107.62
602.553	102.62
603.317	98.62
604.081	95.62
604.845	92.62
605.609	92.62
606.372	81.62
607.136	80.62
607.899	77.62
608.662	75.62
609.426	71.62
610.189	70.62
610.952	65.62
611.715	62.62
612.478	58.62
613.241	59.62
614.004	58.62
614.767	56.62
615.529	54.62
616.292	51.62
617.055	47.62
617.817	49.62
618.579	45.62
619.342	44.62
620.104	46.62
620.866	39.62
621.628	41.62
622.39	40.62
623.152	36.62
623.914	36.62
624.676	37.62
625.438	33.62
626.199	33.62
626.961	32.62
627.722	28.62
628.484	31.62
629.245	31.62
630.006	32.62
630.768	28.62
631.529	24.62
632.29	26.62
633.051	25.62
633.812	26.62
634.573	23.62
635.333	20.62
636.094	21.62
636.855	20.62
637.615	22.62
638.376	21.62
639.136	22.62
639.896	19.62
640.657	20.62
641.417	22.62
642.177	20.62
642.937	18.62
643.697	20.62
644.457	17.62
645.216	18.62
645.976	18.62
646.736	16.62
647.495	15.62
648.255	19.62
649.014	11.62
649.774	12.62
650.533	15.62
651.292	15.62
652.051	12.62
652.81	13.62
653.569	16.62
654.328	12.62
655.087	15.62
655.846	12.62
656.604	10.62
657.363	10.62
658.121	13.62
658.88	9.62
659.638	12.62
660.397	12.62
661.155	12.62
661.913	10.62
662.671	10.62
663.429	10.62
664.187	12.62
664.945	8.62
665.703	10.62
666.46	10.62
667.218	8.62
667.976	10.62
668.733	10.62
669.49	9.62
670.248	7.62
671.005	8.62
671.762	8.62
672.519	11.62
673.276	7.62
674.033	8.62
674.79	8.62
675.547	10.62
676.304	3.62
677.06	8.62
677.817	9.62
678.574	9.62
679.33	7.62
680.086	5.62
680.843	8.62
681.599	7.62
682.355	7.62
683.111	7.62
683.867	6.62
684.623	7.62
685.379	5.62
686.135	7.62
686.89	7.62
687.646	8.62
688.402	7.62
689.157	9.62
689.912	7.62
690.668	7.62
691.423	8.62
692.178	5.62
692.933	7.62
693.688	6.62
694.443	6.62
695.198	8.62
695.953	8.62
696.708	5.62
697.462	7.62
698.217	6.62
698.972	6.62
699.726	6.62
700.48	8.62
701.235	7.62
701.989	6.62
702.743	7.62
703.497	6.62
704.251	10.62
705.005	8.62
705.759	7.62
706.513	9.62
707.266	6.62
708.02	5.62
708.774	5.62
709.527	6.62
710.28	7.62
711.034	7.62
711.787	7.62
712.54	7.62
713.293	6.62
714.046	6.62
714.799	4.62
715.552	7.62
716.305	6.62
717.058	8.62
717.81	5.62
718.563	6.62
719.315	6.62
720.068	7.62
720.82	5.62
721.573	7.62
722.325	7.62
723.077	7.62
723.829	6.62
724.581	8.62
725.333	8.62
726.085	8.62
726.836	7.62
727.588	7.62
728.34	4.62
729.091	8.62
729.843	5.62
730.594	8.62
731.346	6.62
732.097	9.62
732.848	8.62
733.599	6.62
734.35	6.62
735.101	7.62
735.852	9.62
736.603	5.62
737.354	7.62
738.104	9.62
738.855	6.62
739.605	8.62
740.356	7.62
741.106	8.62
741.856	8.62
742.607	10.62
743.357	7.62
744.107	9.62
744.857	8.62
745.607	9.62
746.357	8.62
747.106	10.62
747.856	6.62
748.606	10.62
749.355	11.62
750.105	10.62
750.854	11.62
751.603	9.62
752.353	8.62
753.102	10.62
753.851	12.62
754.6	10.62
755.349	10.62
756.098	8.62
756.847	8.62
757.595	10.62
758.344	11.62
759.093	14.62
759.841	9.62
760.589	11.62
761.338	9.62
762.086	10.62
762.834	10.62
763.582	10.62
764.331	12.62
765.079	13.62
765.826	11.62
766.574	10.62
767.322	11.62
768.07	12.62
768.817	12.62
769.565	10.62
770.312	14.62
771.06	12.62
771.807	12.62
772.554	11.62
773.302	12.62
774.049	12.62
774.796	13.62
775.543	10.62
776.29	14.62
777.036	14.62
777.783	14.62
778.53	13.62
779.276	15.62
780.023	14.62
780.769	14.62
781.516	14.62
782.262	14.62
783.008	16.62
783.754	13.62
784.5	12.62
785.246	16.62
785.992	14.62
786.738	13.62
787.484	14.62
788.23	14.62
788.975	13.62
789.721	14.62
790.466	14.62
791.212	11.62
791.957	13.62
792.702	14.62
793.447	13.62
794.193	12.62
794.938	11.62
795.683	12.62
796.427	10.62
797.172	13.62
797.917	13.62
798.662	12.62
799.406	10.62
800.151	12.62
800.895	7.62
801.64	10.62
802.384	9.62
803.128	11.62
803.872	13.62
804.616	10.62
805.36	9.62
806.104	10.62
806.848	11.62
807.592	9.62
808.336	10.62
809.079	9.62
809.823	8.62
810.566	9.62
811.31	7.62
812.053	8.62
812.796	10.62
813.539	9.62
814.283	7.62
815.026	8.62
815.769	6.62
816.511	5.62
817.254	8.62
817.997	8.62
818.74	7.62
819.482	6.62
820.225	6.62
820.967	6.62
821.71	7.62
822.452	8.62
823.194	5.62
823.936	9.62
824.678	6.62
825.42	6.62
826.162	7.62
826.904	5.62
827.646	6.62
828.388	4.62
829.129	7.62
829.871	5.62
830.612	7.62
831.354	5.62
832.095	5.62
832.836	6.62
833.577	4.62
834.319	6.62
835.06	5.62
835.801	4.62
836.542	5.62
837.282	5.62
838.023	5.62
838.764	6.62
839.504	5.62
840.245	3.62
840.985	5.62
841.726	6.62
842.466	3.62
843.206	4.62
843.946	7.62
844.687	6.62
845.427	6.62
846.166	4.62
846.906	5.62
847.646	2.62
848.386	6.62
849.125	4.62
849.865	4.62
850.605	6.62
851.344	2.62
852.083	6.62
852.823	2.62
853.562	2.62
854.301	5.62
855.04	4.62
855.779	4.62
856.518	2.62
857.257	4.62
857.995	2.62
858.734	4.62
859.473	2.62
860.211	4.62
860.95	3.62
861.688	2.62
862.426	3.62
863.165	3.62
863.903	3.62
864.641	2.62
865.379	1.62
866.117	2.62
866.855	1.62
867.593	-0.38
868.33	2.62
869.068	1.62
869.806	2.62
870.543	1.62
871.28	2.62
872.018	2.62
872.755	0.62
873.492	1.62
874.229	2.62
874.967	1.62
875.703	0.62
876.44	2.62
877.177	1.62
877.914	2.62
878.651	2.62
879.387	0.62
880.124	2.62
880.86	-0.38
881.597	2.62
882.333	2.62
883.069	3.62
883.806	3.62
884.542	2.62
885.278	1.62
886.014	-0.38
886.749	0.62
887.485	1.62
888.221	0.62
888.957	0.62
889.692	-1.38
890.428	0.62
891.163	1.62
891.899	0.62
892.634	1.62
893.369	2.62
894.104	3.62
894.839	1.62
895.574	1.62
896.309	-0.38
897.044	0.62
897.779	0.62
898.514	-0.38
899.248	0.62
899.983	1.62
900.717	1.62
901.452	1.62
902.186	0.62
902.92	1.62
903.654	1.62
904.389	0.62
905.123	0.62
905.857	-0.38
906.59	0.62
907.324	1.62
908.058	2.62
908.792	-0.38
909.525	0.62
910.259	1.62
910.992	0.62
911.726	-2.38
912.459	-0.38
913.192	0.62
913.925	0.62
914.658	2.62
915.391	0.62
916.124	-0.38
916.857	0.62
917.59	-0.38
918.323	0.62
919.055	0.62
919.788	0.62
920.521	-1.38
921.253	1.62
921.985	-0.38
922.718	-0.38
923.45	1.62
924.182	1.62
924.914	2.62
925.646	1.62
926.378	0.62
927.11	-2.38
927.841	0.62
928.573	-0.38
929.305	0.62
930.036	1.62
930.768	1.62
931.499	-1.38
932.23	0.62
932.962	-0.38
933.693	-0.38
934.424	0.62
935.155	-1.38
935.886	-0.38
936.617	-1.38
937.348	0.62
938.078	-1.38
938.809	-1.38
939.54	1.62
940.27	0.62
941.001	-0.38
941.731	-2.38
942.461	-0.38
943.191	0.62
943.922	-0.38
944.652	-2.38
945.382	-0.38
946.112	-1.38
946.841	-0.38
947.571	-1.38
948.301	2.62
949.031	0.62
949.76	1.62
950.49	2.62
951.219	-0.38
951.948	0.62
952.678	-1.38
953.407	0.62
954.136	-2.38
954.865	-0.38
955.594	-0.38
956.323	-0.38
957.052	1.62
957.78	-3.38
958.509	0.62
959.238	-1.38
959.966	1.62
960.695	-0.38
961.423	-0.38
962.151	-0.38
962.88	-0.38
963.608	0.62
964.336	0.62
965.064	0.62
965.792	-2.38
966.52	-1.38
967.247	0.62
967.975	0.62
968.703	0.62
969.43	0.62
970.158	0.62
970.885	-1.38
971.613	-0.38
972.34	1.62
973.067	0.62
973.794	-1.38
974.521	0.62
975.248	-0.38
975.975	-1.38
976.702	0.62
977.429	-0.38
978.156	-2.38
978.882	-1.38
979.609	-1.38
980.335	-0.38
981.062	0.62
981.788	-2.38
982.514	-1.38
983.24	-1.38
983.967	0.62
984.693	2.62
985.419	-1.38
986.144	-0.38
986.87	-0.38
987.596	-1.38
988.322	-1.38
989.047	2.62
989.773	1.62
990.498	0.62
991.224	1.62
991.949	-0.38
992.674	-0.38
993.399	-1.38
994.124	0.62
994.849	0.62
995.574	-0.38
996.299	1.62
997.024	-1.38
997.749	-2.38
998.473	1.62
999.198	-2.38
999.922	0.62
1000.647	-0.38
1001.371	2.62
1002.095	-0.38
1002.82	1.62
1003.544	-2.38
1004.268	4.62
1004.992	4.62
1005.716	4.62
1006.439	5.62
1007.163	3.62
1007.887	4.62
1008.611	2.62
1009.334	-1.38
1010.058	-1.38
1010.781	-1.38
1011.504	0.62
1012.228	-0.38
1012.951	-1.38
1013.674	0.62
1014.397	-1.38
1015.12	0.62
