节点500_705_QEPB04081__378__20-51-19-598.txt的数据

Date: Wed Nov 12 20:51:19 CST 2025
User: PC
Spectrometer: QEPB0408
触发模式: 0
积分时间 (秒): 1.000000E-2
Scans to average: 1
启用暗噪声校正: true
启用非线性校正: false
滑动平均宽度: 0
X轴模式: Wavelengths
Number of Pixels in Spectrum: 1044
>>>>>Begin Spectral Data<<<<<
220.843	6.38
221.644	5.38
222.444	5.38
223.244	5.38
224.045	8.38
224.845	3.38
225.645	4.38
226.445	5.38
227.245	4.38
228.045	8.38
228.845	5.38
229.645	8.38
230.444	7.38
231.244	8.38
232.043	7.38
232.843	7.38
233.642	8.38
234.442	8.38
235.241	8.38
236.04	8.38
236.839	7.38
237.638	9.38
238.437	8.38
239.236	10.38
240.035	8.38
240.833	9.38
241.632	10.38
242.43	11.38
243.229	12.38
244.027	10.38
244.826	11.38
245.624	12.38
246.422	10.38
247.22	14.38
248.018	12.38
248.816	15.38
249.614	11.38
250.412	14.38
251.21	17.38
252.007	16.38
252.805	17.38
253.602	15.38
254.4	18.38
255.197	16.38
255.994	16.38
256.791	19.38
257.589	18.38
258.386	18.38
259.183	20.38
259.979	21.38
260.776	22.38
261.573	23.38
262.37	24.38
263.166	23.38
263.963	23.38
264.759	25.38
265.556	24.38
266.352	25.38
267.148	27.38
267.944	29.38
268.74	27.38
269.536	28.38
270.332	27.38
271.128	26.38
271.924	30.38
272.719	28.38
273.515	30.38
274.311	33.38
275.106	30.38
275.901	33.38
276.697	34.38
277.492	36.38
278.287	32.38
279.082	34.38
279.877	34.38
280.672	32.38
281.467	34.38
282.262	32.38
283.056	32.38
283.851	33.38
284.646	32.38
285.44	34.38
286.234	32.38
287.029	33.38
287.823	32.38
288.617	30.38
289.411	30.38
290.205	34.38
290.999	32.38
291.793	29.38
292.587	29.38
293.381	30.38
294.174	29.38
294.968	29.38
295.761	27.38
296.555	25.38
297.348	26.38
298.141	29.38
298.935	27.38
299.728	24.38
300.521	25.38
301.314	23.38
302.107	24.38
302.899	22.38
303.692	20.38
304.485	22.38
305.277	19.38
306.07	22.38
306.862	20.38
307.655	23.38
308.447	20.38
309.239	20.38
310.031	22.38
310.823	18.38
311.615	15.38
312.407	17.38
313.199	16.38
313.991	18.38
314.783	16.38
315.574	13.38
316.366	16.38
317.157	13.38
317.949	14.38
318.74	14.38
319.531	14.38
320.322	13.38
321.113	12.38
321.904	16.38
322.695	10.38
323.486	12.38
324.277	13.38
325.068	13.38
325.858	13.38
326.649	12.38
327.439	13.38
328.23	10.38
329.02	12.38
329.81	10.38
330.6	12.38
331.391	11.38
332.181	11.38
332.971	10.38
333.76	11.38
334.55	11.38
335.34	12.38
336.13	10.38
336.919	11.38
337.709	12.38
338.498	10.38
339.287	10.38
340.077	12.38
340.866	11.38
341.655	8.38
342.444	9.38
343.233	11.38
344.022	10.38
344.811	11.38
345.6	9.38
346.388	9.38
347.177	10.38
347.965	12.38
348.754	8.38
349.542	10.38
350.33	11.38
351.119	11.38
351.907	10.38
352.695	9.38
353.483	9.38
354.271	9.38
355.059	9.38
355.846	9.38
356.634	9.38
357.422	10.38
358.209	10.38
358.997	10.38
359.784	7.38
360.571	7.38
361.359	8.38
362.146	11.38
362.933	10.38
363.72	10.38
364.507	9.38
365.294	9.38
366.081	9.38
366.867	8.38
367.654	9.38
368.44	9.38
369.227	7.38
370.013	9.38
370.8	7.38
371.586	9.38
372.372	8.38
373.158	8.38
373.944	8.38
374.73	8.38
375.516	7.38
376.302	9.38
377.088	9.38
377.873	9.38
378.659	9.38
379.445	10.38
380.23	6.38
381.015	11.38
381.801	9.38
382.586	7.38
383.371	11.38
384.156	10.38
384.941	10.38
385.726	10.38
386.511	10.38
387.296	8.38
388.08	13.38
388.865	10.38
389.649	10.38
390.434	12.38
391.218	11.38
392.003	8.38
392.787	10.38
393.571	10.38
394.355	8.38
395.139	10.38
395.923	9.38
396.707	11.38
397.491	12.38
398.274	11.38
399.058	11.38
399.842	11.38
400.625	12.38
401.408	13.38
402.192	11.38
402.975	14.38
403.758	12.38
404.541	16.38
405.324	13.38
406.107	14.38
406.89	12.38
407.673	14.38
408.456	13.38
409.238	16.38
410.021	17.38
410.803	17.38
411.586	17.38
412.368	16.38
413.151	16.38
413.933	18.38
414.715	18.38
415.497	17.38
416.279	19.38
417.061	19.38
417.843	17.38
418.624	18.38
419.406	22.38
420.188	19.38
420.969	22.38
421.751	20.38
422.532	21.38
423.313	18.38
424.095	22.38
424.876	24.38
425.657	25.38
426.438	23.38
427.219	26.38
428	27.38
428.78	26.38
429.561	26.38
430.342	29.38
431.122	29.38
431.903	31.38
432.683	33.38
433.464	36.38
434.244	38.38
435.024	40.38
435.804	40.38
436.584	42.38
437.364	42.38
438.144	45.38
438.924	46.38
439.704	53.38
440.483	55.38
441.263	62.38
442.042	64.38
442.822	71.38
443.601	76.38
444.38	80.38
445.16	89.38
445.939	93.38
446.718	104.38
447.497	112.38
448.276	128.38
449.054	137.38
449.833	142.38
450.612	162.38
451.391	177.38
452.169	200.38
452.948	223.38
453.726	242.38
454.504	268.38
455.282	306.38
456.061	338.38
456.839	371.38
457.617	416.38
458.395	469.38
459.172	510.38
459.95	563.38
460.728	656.38
461.506	713.38
462.283	788.38
463.061	885.38
463.838	985.38
464.615	1108.38
465.393	1237.38
466.17	1347.38
466.947	1513.38
467.724	1690.38
468.501	1861.38
469.278	2058.38
470.055	2271.38
470.831	2510.38
471.608	2781.38
472.385	3058.38
473.161	3348.38
473.938	3685.38
474.714	4055.38
475.49	4438.38
476.266	4863.38
477.043	5303.38
477.819	5776.38
478.595	6327.38
479.371	6930.38
480.146	7530.38
480.922	8206.38
481.698	8950.38
482.473	9729.38
483.249	10564.38
484.024	11451.38
484.8	12433.38
485.575	13424.38
486.35	14571.38
487.126	15736.38
487.901	16986.38
488.676	18392.38
489.451	19761.38
490.225	21276.38
491	22795.38
491.775	24342.38
492.55	26053.38
493.324	27757.38
494.099	29523.38
494.873	31331.38
495.647	33032.38
496.422	34762.38
497.196	36504.38
497.97	38174.38
498.744	39611.38
499.518	41277.38
500.292	42696.38
501.066	43691.38
501.839	44632.38
502.613	45372.38
503.387	46078.38
504.16	46553.38
504.934	46725.38
505.707	46803.38
506.48	46361.38
507.253	45928.38
508.027	45306.38
508.8	44407.38
509.573	43494.38
510.346	42506.38
511.118	41463.38
511.891	40318.38
512.664	38763.38
513.437	37346.38
514.209	36038.38
514.982	34655.38
515.754	33262.38
516.526	31900.38
517.298	30682.38
518.071	29457.38
518.843	28295.38
519.615	27160.38
520.387	26073.38
521.159	25051.38
521.93	23993.38
522.702	22994.38
523.474	22038.38
524.245	21109.38
525.017	20163.38
525.788	19349.38
526.56	18480.38
527.331	17721.38
528.102	16810.38
528.873	15965.38
529.644	15279.38
530.415	14534.38
531.186	13857.38
531.957	13126.38
532.728	12418.38
533.498	11826.38
534.269	11161.38
535.039	10590.38
535.81	10026.38
536.58	9437.38
537.351	8955.38
538.121	8509.38
538.891	8027.38
539.661	7581.38
540.431	7193.38
541.201	6844.38
541.971	6457.38
542.741	6127.38
543.51	5816.38
544.28	5500.38
545.05	5294.38
545.819	5047.38
546.588	4788.38
547.358	4566.38
548.127	4336.38
548.896	4102.38
549.665	3899.38
550.434	3695.38
551.203	3510.38
551.972	3333.38
552.741	3177.38
553.51	2989.38
554.278	2825.38
555.047	2655.38
555.815	2519.38
556.584	2376.38
557.352	2242.38
558.121	2132.38
558.889	2018.38
559.657	1894.38
560.425	1796.38
561.193	1699.38
561.961	1613.38
562.729	1493.38
563.496	1421.38
564.264	1358.38
565.032	1264.38
565.799	1217.38
566.567	1152.38
567.334	1095.38
568.101	1032.38
568.869	976.38
569.636	921.38
570.403	864.38
571.17	818.38
571.937	762.38
572.704	724.38
573.471	680.38
574.237	651.38
575.004	614.38
575.771	571.38
576.537	545.38
577.303	516.38
578.07	485.38
578.836	455.38
579.602	430.38
580.368	414.38
581.134	388.38
581.9	368.38
582.666	355.38
583.432	343.38
584.198	315.38
584.964	302.38
585.729	287.38
586.495	272.38
587.26	259.38
588.025	244.38
588.791	222.38
589.556	217.38
590.321	205.38
591.086	199.38
591.851	190.38
592.616	181.38
593.381	172.38
594.146	160.38
594.911	159.38
595.675	145.38
596.44	145.38
597.204	131.38
597.969	128.38
598.733	125.38
599.497	121.38
600.261	114.38
601.025	108.38
601.79	107.38
602.553	98.38
603.317	94.38
604.081	89.38
604.845	88.38
605.609	86.38
606.372	81.38
607.136	80.38
607.899	76.38
608.662	71.38
609.426	69.38
610.189	70.38
610.952	61.38
611.715	60.38
612.478	57.38
613.241	59.38
614.004	54.38
614.767	54.38
615.529	52.38
616.292	50.38
617.055	47.38
617.817	48.38
618.579	44.38
619.342	41.38
620.104	43.38
620.866	43.38
621.628	40.38
622.39	38.38
623.152	37.38
623.914	36.38
624.676	37.38
625.438	33.38
626.199	31.38
626.961	34.38
627.722	32.38
628.484	28.38
629.245	27.38
630.006	29.38
630.768	28.38
631.529	26.38
632.29	24.38
633.051	26.38
633.812	26.38
634.573	21.38
635.333	23.38
636.094	25.38
636.855	19.38
637.615	23.38
638.376	21.38
639.136	21.38
639.896	18.38
640.657	18.38
641.417	20.38
642.177	18.38
642.937	18.38
643.697	16.38
644.457	20.38
645.216	16.38
645.976	16.38
646.736	16.38
647.495	14.38
648.255	14.38
649.014	11.38
649.774	14.38
650.533	16.38
651.292	12.38
652.051	14.38
652.81	11.38
653.569	13.38
654.328	12.38
655.087	12.38
655.846	12.38
656.604	10.38
657.363	13.38
658.121	14.38
658.88	10.38
659.638	11.38
660.397	12.38
661.155	11.38
661.913	8.38
662.671	11.38
663.429	10.38
664.187	9.38
664.945	10.38
665.703	13.38
666.46	10.38
667.218	9.38
667.976	8.38
668.733	9.38
669.49	8.38
670.248	10.38
671.005	8.38
671.762	8.38
672.519	5.38
673.276	8.38
674.033	8.38
674.79	7.38
675.547	10.38
676.304	6.38
677.06	7.38
677.817	6.38
678.574	8.38
679.33	7.38
680.086	6.38
680.843	8.38
681.599	8.38
682.355	9.38
683.111	6.38
683.867	7.38
684.623	6.38
685.379	4.38
686.135	8.38
686.89	8.38
687.646	5.38
688.402	7.38
689.157	6.38
689.912	9.38
690.668	5.38
691.423	8.38
692.178	7.38
692.933	6.38
693.688	6.38
694.443	7.38
695.198	8.38
695.953	5.38
696.708	5.38
697.462	6.38
698.217	9.38
698.972	6.38
699.726	5.38
700.48	6.38
701.235	6.38
701.989	6.38
702.743	7.38
703.497	8.38
704.251	5.38
705.005	7.38
705.759	7.38
706.513	6.38
707.266	7.38
708.02	5.38
708.774	6.38
709.527	5.38
710.28	6.38
711.034	7.38
711.787	7.38
712.54	8.38
713.293	5.38
714.046	4.38
714.799	7.38
715.552	6.38
716.305	7.38
717.058	8.38
717.81	7.38
718.563	9.38
719.315	5.38
720.068	6.38
720.82	8.38
721.573	6.38
722.325	10.38
723.077	6.38
723.829	9.38
724.581	7.38
725.333	8.38
726.085	6.38
726.836	8.38
727.588	10.38
728.34	10.38
729.091	10.38
729.843	7.38
730.594	8.38
731.346	6.38
732.097	8.38
732.848	9.38
733.599	7.38
734.35	8.38
735.101	8.38
735.852	8.38
736.603	10.38
737.354	8.38
738.104	10.38
738.855	7.38
739.605	9.38
740.356	7.38
741.106	8.38
741.856	7.38
742.607	9.38
743.357	11.38
744.107	9.38
744.857	7.38
745.607	11.38
746.357	9.38
747.106	9.38
747.856	11.38
748.606	8.38
749.355	11.38
750.105	9.38
750.854	9.38
751.603	9.38
752.353	11.38
753.102	10.38
753.851	13.38
754.6	11.38
755.349	10.38
756.098	12.38
756.847	10.38
757.595	8.38
758.344	9.38
759.093	11.38
759.841	13.38
760.589	12.38
761.338	11.38
762.086	12.38
762.834	11.38
763.582	14.38
764.331	11.38
765.079	12.38
765.826	13.38
766.574	12.38
767.322	11.38
768.07	12.38
768.817	13.38
769.565	10.38
770.312	14.38
771.06	14.38
771.807	16.38
772.554	12.38
773.302	13.38
774.049	15.38
774.796	14.38
775.543	13.38
776.29	14.38
777.036	14.38
777.783	16.38
778.53	14.38
779.276	15.38
780.023	12.38
780.769	14.38
781.516	15.38
782.262	14.38
783.008	15.38
783.754	13.38
784.5	14.38
785.246	12.38
785.992	14.38
786.738	16.38
787.484	14.38
788.23	15.38
788.975	14.38
789.721	13.38
790.466	12.38
791.212	13.38
791.957	13.38
792.702	13.38
793.447	14.38
794.193	14.38
794.938	12.38
795.683	14.38
796.427	11.38
797.172	12.38
797.917	13.38
798.662	14.38
799.406	12.38
800.151	11.38
800.895	11.38
801.64	10.38
802.384	11.38
803.128	12.38
803.872	10.38
804.616	12.38
805.36	9.38
806.104	10.38
806.848	9.38
807.592	9.38
808.336	10.38
809.079	10.38
809.823	10.38
810.566	10.38
811.31	10.38
812.053	9.38
812.796	7.38
813.539	8.38
814.283	7.38
815.026	7.38
815.769	10.38
816.511	9.38
817.254	6.38
817.997	6.38
818.74	7.38
819.482	6.38
820.225	6.38
820.967	5.38
821.71	9.38
822.452	5.38
823.194	7.38
823.936	6.38
824.678	7.38
825.42	5.38
826.162	5.38
826.904	9.38
827.646	5.38
828.388	6.38
829.129	6.38
829.871	7.38
830.612	7.38
831.354	6.38
832.095	5.38
832.836	5.38
833.577	2.38
834.319	6.38
835.06	6.38
835.801	6.38
836.542	5.38
837.282	5.38
838.023	4.38
838.764	5.38
839.504	6.38
840.245	6.38
840.985	4.38
841.726	5.38
842.466	4.38
843.206	4.38
843.946	4.38
844.687	4.38
845.427	4.38
846.166	4.38
846.906	5.38
847.646	4.38
848.386	3.38
849.125	4.38
849.865	5.38
850.605	4.38
851.344	2.38
852.083	6.38
852.823	3.38
853.562	3.38
854.301	3.38
855.04	3.38
855.779	5.38
856.518	1.38
857.257	3.38
857.995	2.38
858.734	3.38
859.473	3.38
860.211	2.38
860.95	2.38
861.688	1.38
862.426	3.38
863.165	2.38
863.903	2.38
864.641	5.38
865.379	2.38
866.117	3.38
866.855	1.38
867.593	1.38
868.33	2.38
869.068	1.38
869.806	1.38
870.543	1.38
871.28	2.38
872.018	2.38
872.755	0.38
873.492	1.38
874.229	-1.62
874.967	0.38
875.703	2.38
876.44	2.38
877.177	2.38
877.914	2.38
878.651	0.38
879.387	1.38
880.124	1.38
880.86	2.38
881.597	2.38
882.333	3.38
883.069	1.38
883.806	3.38
884.542	1.38
885.278	1.38
886.014	1.38
886.749	0.38
887.485	4.38
888.221	-0.62
888.957	1.38
889.692	-0.62
890.428	2.38
891.163	1.38
891.899	2.38
892.634	4.38
893.369	0.38
894.104	1.38
894.839	-1.62
895.574	-0.62
896.309	3.38
897.044	-0.62
897.779	2.38
898.514	-1.62
899.248	0.38
899.983	-1.62
900.717	0.38
901.452	1.38
902.186	1.38
902.92	0.38
903.654	-0.62
904.389	0.38
905.123	2.38
905.857	0.38
906.59	3.38
907.324	-0.62
908.058	-0.62
908.792	-1.62
909.525	-0.62
910.259	2.38
910.992	-0.62
911.726	-0.62
912.459	-1.62
913.192	0.38
913.925	0.38
914.658	-1.62
915.391	-1.62
916.124	-0.62
916.857	-0.62
917.59	1.38
918.323	0.38
919.055	2.38
919.788	0.38
920.521	-0.62
921.253	-0.62
921.985	1.38
922.718	1.38
923.45	1.38
924.182	-1.62
924.914	0.38
925.646	0.38
926.378	-0.62
927.11	-1.62
927.841	-0.62
928.573	-0.62
929.305	-1.62
930.036	0.38
930.768	-0.62
931.499	0.38
932.23	-0.62
932.962	1.38
933.693	1.38
934.424	-1.62
935.155	-1.62
935.886	-0.62
936.617	-0.62
937.348	-2.62
938.078	1.38
938.809	0.38
939.54	-1.62
940.27	0.38
941.001	-0.62
941.731	-0.62
942.461	0.38
943.191	-0.62
943.922	2.38
944.652	0.38
945.382	2.38
946.112	-0.62
946.841	-0.62
947.571	0.38
948.301	-1.62
949.031	0.38
949.76	2.38
950.49	-2.62
951.219	-1.62
951.948	-1.62
952.678	0.38
953.407	0.38
954.136	1.38
954.865	-0.62
955.594	-1.62
956.323	-1.62
957.052	0.38
957.78	0.38
958.509	-1.62
959.238	-1.62
959.966	-0.62
960.695	0.38
961.423	-1.62
962.151	-0.62
962.88	0.38
963.608	-1.62
964.336	0.38
965.064	0.38
965.792	-1.62
966.52	0.38
967.247	1.38
967.975	0.38
968.703	-1.62
969.43	-0.62
970.158	-0.62
970.885	2.38
971.613	-1.62
972.34	-1.62
973.067	0.38
973.794	-0.62
974.521	-1.62
975.248	0.38
975.975	0.38
976.702	1.38
977.429	0.38
978.156	0.38
978.882	0.38
979.609	1.38
980.335	-0.62
981.062	-1.62
981.788	0.38
982.514	0.38
983.24	1.38
983.967	1.38
984.693	-1.62
985.419	-0.62
986.144	-0.62
986.87	-0.62
987.596	0.38
988.322	-1.62
989.047	-1.62
989.773	-1.62
990.498	1.38
991.224	0.38
991.949	1.38
992.674	0.38
993.399	-0.62
994.124	-0.62
994.849	0.38
995.574	-0.62
996.299	0.38
997.024	0.38
997.749	0.38
998.473	-2.62
999.198	1.38
999.922	-1.62
1000.647	-2.62
1001.371	5.38
1002.095	-3.62
1002.82	1.38
1003.544	-0.62
1004.268	3.38
1004.992	2.38
1005.716	4.38
1006.439	4.38
1007.163	5.38
1007.887	4.38
1008.611	1.38
1009.334	0.38
1010.058	0.38
1010.781	0.38
1011.504	0.38
1012.228	1.38
1012.951	-0.62
1013.674	-0.62
1014.397	0.38
1015.12	-1.62
