节点500_705_QEPB04081__53__20-46-46-289.txt的数据

Date: Wed Nov 12 20:46:46 CST 2025
User: PC
Spectrometer: QEPB0408
触发模式: 0
积分时间 (秒): 1.000000E-2
Scans to average: 1
启用暗噪声校正: true
启用非线性校正: false
滑动平均宽度: 0
X轴模式: Wavelengths
Number of Pixels in Spectrum: 1044
>>>>>Begin Spectral Data<<<<<
220.843	5.12
221.644	5.12
222.444	8.12
223.244	7.12
224.045	6.12
224.845	8.12
225.645	7.12
226.445	6.12
227.245	10.12
228.045	10.12
228.845	6.12
229.645	10.12
230.444	8.12
231.244	8.12
232.043	11.12
232.843	11.12
233.642	11.12
234.442	9.12
235.241	10.12
236.04	13.12
236.839	11.12
237.638	13.12
238.437	12.12
239.236	14.12
240.035	11.12
240.833	15.12
241.632	11.12
242.43	13.12
243.229	13.12
244.027	13.12
244.826	13.12
245.624	15.12
246.422	14.12
247.22	14.12
248.018	16.12
248.816	18.12
249.614	16.12
250.412	20.12
251.21	18.12
252.007	20.12
252.805	17.12
253.602	19.12
254.4	21.12
255.197	19.12
255.994	25.12
256.791	22.12
257.589	22.12
258.386	21.12
259.183	22.12
259.979	26.12
260.776	24.12
261.573	28.12
262.37	25.12
263.166	28.12
263.963	27.12
264.759	26.12
265.556	31.12
266.352	28.12
267.148	28.12
267.944	33.12
268.74	34.12
269.536	35.12
270.332	34.12
271.128	38.12
271.924	36.12
272.719	35.12
273.515	33.12
274.311	34.12
275.106	39.12
275.901	34.12
276.697	39.12
277.492	37.12
278.287	36.12
279.082	38.12
279.877	38.12
280.672	41.12
281.467	37.12
282.262	35.12
283.056	39.12
283.851	37.12
284.646	38.12
285.44	35.12
286.234	36.12
287.029	38.12
287.823	33.12
288.617	34.12
289.411	36.12
290.205	32.12
290.999	34.12
291.793	33.12
292.587	31.12
293.381	32.12
294.174	31.12
294.968	29.12
295.761	30.12
296.555	28.12
297.348	28.12
298.141	28.12
298.935	29.12
299.728	27.12
300.521	27.12
301.314	25.12
302.107	22.12
302.899	22.12
303.692	24.12
304.485	21.12
305.277	24.12
306.07	21.12
306.862	24.12
307.655	21.12
308.447	20.12
309.239	22.12
310.031	19.12
310.823	21.12
311.615	18.12
312.407	20.12
313.199	19.12
313.991	18.12
314.783	15.12
315.574	17.12
316.366	14.12
317.157	17.12
317.949	15.12
318.74	15.12
319.531	13.12
320.322	15.12
321.113	13.12
321.904	15.12
322.695	13.12
323.486	12.12
324.277	14.12
325.068	17.12
325.858	14.12
326.649	11.12
327.439	14.12
328.23	12.12
329.02	11.12
329.81	11.12
330.6	12.12
331.391	14.12
332.181	12.12
332.971	14.12
333.76	14.12
334.55	15.12
335.34	12.12
336.13	10.12
336.919	11.12
337.709	11.12
338.498	13.12
339.287	13.12
340.077	11.12
340.866	11.12
341.655	13.12
342.444	12.12
343.233	14.12
344.022	12.12
344.811	13.12
345.6	12.12
346.388	13.12
347.177	11.12
347.965	12.12
348.754	13.12
349.542	12.12
350.33	14.12
351.119	10.12
351.907	10.12
352.695	12.12
353.483	11.12
354.271	10.12
355.059	11.12
355.846	11.12
356.634	9.12
357.422	12.12
358.209	12.12
358.997	11.12
359.784	11.12
360.571	11.12
361.359	14.12
362.146	11.12
362.933	14.12
363.72	10.12
364.507	12.12
365.294	10.12
366.081	8.12
366.867	11.12
367.654	12.12
368.44	11.12
369.227	11.12
370.013	9.12
370.8	11.12
371.586	11.12
372.372	13.12
373.158	9.12
373.944	8.12
374.73	10.12
375.516	12.12
376.302	11.12
377.088	10.12
377.873	12.12
378.659	11.12
379.445	9.12
380.23	10.12
381.015	11.12
381.801	9.12
382.586	13.12
383.371	7.12
384.156	10.12
384.941	11.12
385.726	11.12
386.511	11.12
387.296	12.12
388.08	11.12
388.865	12.12
389.649	15.12
390.434	13.12
391.218	11.12
392.003	12.12
392.787	11.12
393.571	13.12
394.355	10.12
395.139	13.12
395.923	13.12
396.707	15.12
397.491	15.12
398.274	14.12
399.058	15.12
399.842	13.12
400.625	13.12
401.408	15.12
402.192	15.12
402.975	14.12
403.758	15.12
404.541	17.12
405.324	15.12
406.107	14.12
406.89	17.12
407.673	15.12
408.456	16.12
409.238	15.12
410.021	16.12
410.803	15.12
411.586	16.12
412.368	19.12
413.151	22.12
413.933	17.12
414.715	19.12
415.497	19.12
416.279	20.12
417.061	21.12
417.843	21.12
418.624	22.12
419.406	23.12
420.188	22.12
420.969	21.12
421.751	24.12
422.532	22.12
423.313	23.12
424.095	23.12
424.876	26.12
425.657	24.12
426.438	27.12
427.219	27.12
428	30.12
428.78	30.12
429.561	31.12
430.342	31.12
431.122	34.12
431.903	32.12
432.683	39.12
433.464	35.12
434.244	39.12
435.024	39.12
435.804	42.12
436.584	42.12
437.364	47.12
438.144	45.12
438.924	51.12
439.704	52.12
440.483	54.12
441.263	57.12
442.042	63.12
442.822	65.12
443.601	71.12
444.38	78.12
445.16	80.12
445.939	92.12
446.718	98.12
447.497	105.12
448.276	115.12
449.054	123.12
449.833	134.12
450.612	151.12
451.391	162.12
452.169	178.12
452.948	199.12
453.726	227.12
454.504	251.12
455.282	267.12
456.061	303.12
456.839	347.12
457.617	375.12
458.395	421.12
459.172	472.12
459.95	530.12
460.728	590.12
461.506	662.12
462.283	744.12
463.061	827.12
463.838	936.12
464.615	1059.12
465.393	1163.12
466.17	1303.12
466.947	1447.12
467.724	1618.12
468.501	1808.12
469.278	1976.12
470.055	2220.12
470.831	2450.12
471.608	2735.12
472.385	3030.12
473.161	3357.12
473.938	3714.12
474.714	4101.12
475.49	4506.12
476.266	4971.12
477.043	5458.12
477.819	6014.12
478.595	6599.12
479.371	7253.12
480.146	7958.12
480.922	8711.12
481.698	9572.12
482.473	10498.12
483.249	11479.12
484.024	12491.12
484.8	13608.12
485.575	14783.12
486.35	16151.12
487.126	17533.12
487.901	18947.12
488.676	20529.12
489.451	22267.12
490.225	24010.12
491	25795.12
491.775	27730.12
492.55	29670.12
493.324	31585.12
494.099	33535.12
494.873	35476.12
495.647	37441.12
496.422	39389.12
497.196	41353.12
497.97	43072.12
498.744	44605.12
499.518	46290.12
500.292	47585.12
501.066	48356.12
501.839	49283.12
502.613	49714.12
503.387	50112.12
504.16	50372.12
504.934	50183.12
505.707	49683.12
506.48	48962.12
507.253	48155.12
508.027	47255.12
508.8	45871.12
509.573	44599.12
510.346	43170.12
511.118	41809.12
511.891	40378.12
512.664	38667.12
513.437	37106.12
514.209	35660.12
514.982	34155.12
515.754	32659.12
516.526	31308.12
517.298	30079.12
518.071	28801.12
518.843	27634.12
519.615	26486.12
520.387	25416.12
521.159	24490.12
521.93	23381.12
522.702	22387.12
523.474	21464.12
524.245	20466.12
525.017	19513.12
525.788	18696.12
526.56	17819.12
527.331	17062.12
528.102	16163.12
528.873	15280.12
529.644	14563.12
530.415	13827.12
531.186	13127.12
531.957	12437.12
532.728	11730.12
533.498	11142.12
534.269	10483.12
535.039	9936.12
535.81	9406.12
536.58	8870.12
537.351	8387.12
538.121	7975.12
538.891	7526.12
539.661	7123.12
540.431	6699.12
541.201	6390.12
541.971	6059.12
542.741	5728.12
543.51	5418.12
544.28	5176.12
545.05	4930.12
545.819	4718.12
546.588	4496.12
547.358	4247.12
548.127	4054.12
548.896	3814.12
549.665	3636.12
550.434	3456.12
551.203	3250.12
551.972	3079.12
552.741	2908.12
553.51	2753.12
554.278	2565.12
555.047	2423.12
555.815	2308.12
556.584	2194.12
557.352	2070.12
558.121	1948.12
558.889	1835.12
559.657	1751.12
560.425	1625.12
561.193	1547.12
561.961	1479.12
562.729	1396.12
563.496	1305.12
564.264	1246.12
565.032	1168.12
565.799	1123.12
566.567	1058.12
567.334	999.12
568.101	946.12
568.869	885.12
569.636	846.12
570.403	787.12
571.17	752.12
571.937	702.12
572.704	673.12
573.471	628.12
574.237	598.12
575.004	559.12
575.771	519.12
576.537	498.12
577.303	471.12
578.07	452.12
578.836	417.12
579.602	392.12
580.368	383.12
581.134	356.12
581.9	341.12
582.666	322.12
583.432	309.12
584.198	293.12
584.964	277.12
585.729	266.12
586.495	243.12
587.26	235.12
588.025	231.12
588.791	218.12
589.556	203.12
590.321	189.12
591.086	181.12
591.851	174.12
592.616	172.12
593.381	159.12
594.146	153.12
594.911	142.12
595.675	142.12
596.44	127.12
597.204	127.12
597.969	120.12
598.733	114.12
599.497	109.12
600.261	106.12
601.025	104.12
601.79	99.12
602.553	94.12
603.317	92.12
604.081	88.12
604.845	80.12
605.609	79.12
606.372	74.12
607.136	70.12
607.899	73.12
608.662	66.12
609.426	64.12
610.189	61.12
610.952	58.12
611.715	60.12
612.478	53.12
613.241	57.12
614.004	52.12
614.767	55.12
615.529	52.12
616.292	50.12
617.055	43.12
617.817	45.12
618.579	42.12
619.342	43.12
620.104	42.12
620.866	38.12
621.628	35.12
622.39	40.12
623.152	36.12
623.914	36.12
624.676	34.12
625.438	33.12
626.199	32.12
626.961	30.12
627.722	29.12
628.484	28.12
629.245	30.12
630.006	29.12
630.768	25.12
631.529	25.12
632.29	21.12
633.051	26.12
633.812	25.12
634.573	24.12
635.333	21.12
636.094	23.12
636.855	22.12
637.615	23.12
638.376	20.12
639.136	19.12
639.896	18.12
640.657	21.12
641.417	20.12
642.177	19.12
642.937	18.12
643.697	17.12
644.457	18.12
645.216	20.12
645.976	17.12
646.736	16.12
647.495	15.12
648.255	15.12
649.014	15.12
649.774	14.12
650.533	17.12
651.292	13.12
652.051	14.12
652.81	12.12
653.569	12.12
654.328	15.12
655.087	14.12
655.846	14.12
656.604	11.12
657.363	13.12
658.121	12.12
658.88	10.12
659.638	14.12
660.397	11.12
661.155	9.12
661.913	8.12
662.671	12.12
663.429	10.12
664.187	10.12
664.945	9.12
665.703	8.12
666.46	10.12
667.218	12.12
667.976	12.12
668.733	11.12
669.49	11.12
670.248	13.12
671.005	8.12
671.762	11.12
672.519	10.12
673.276	10.12
674.033	9.12
674.79	9.12
675.547	8.12
676.304	9.12
677.06	9.12
677.817	10.12
678.574	8.12
679.33	11.12
680.086	8.12
680.843	8.12
681.599	8.12
682.355	9.12
683.111	9.12
683.867	8.12
684.623	9.12
685.379	7.12
686.135	11.12
686.89	9.12
687.646	9.12
688.402	8.12
689.157	9.12
689.912	8.12
690.668	10.12
691.423	9.12
692.178	10.12
692.933	7.12
693.688	9.12
694.443	7.12
695.198	10.12
695.953	9.12
696.708	10.12
697.462	8.12
698.217	6.12
698.972	9.12
699.726	8.12
700.48	10.12
701.235	8.12
701.989	8.12
702.743	7.12
703.497	6.12
704.251	9.12
705.005	8.12
705.759	7.12
706.513	7.12
707.266	10.12
708.02	9.12
708.774	7.12
709.527	8.12
710.28	5.12
711.034	8.12
711.787	9.12
712.54	9.12
713.293	9.12
714.046	7.12
714.799	8.12
715.552	10.12
716.305	8.12
717.058	7.12
717.81	6.12
718.563	7.12
719.315	8.12
720.068	8.12
720.82	7.12
721.573	7.12
722.325	8.12
723.077	7.12
723.829	11.12
724.581	9.12
725.333	7.12
726.085	9.12
726.836	9.12
727.588	10.12
728.34	9.12
729.091	9.12
729.843	9.12
730.594	9.12
731.346	10.12
732.097	9.12
732.848	12.12
733.599	11.12
734.35	9.12
735.101	9.12
735.852	9.12
736.603	10.12
737.354	12.12
738.104	10.12
738.855	9.12
739.605	7.12
740.356	11.12
741.106	10.12
741.856	12.12
742.607	10.12
743.357	11.12
744.107	11.12
744.857	11.12
745.607	10.12
746.357	10.12
747.106	12.12
747.856	12.12
748.606	11.12
749.355	13.12
750.105	12.12
750.854	15.12
751.603	12.12
752.353	13.12
753.102	11.12
753.851	11.12
754.6	13.12
755.349	11.12
756.098	14.12
756.847	15.12
757.595	13.12
758.344	13.12
759.093	12.12
759.841	13.12
760.589	12.12
761.338	14.12
762.086	13.12
762.834	14.12
763.582	18.12
764.331	14.12
765.079	15.12
765.826	15.12
766.574	15.12
767.322	18.12
768.07	18.12
768.817	15.12
769.565	16.12
770.312	17.12
771.06	15.12
771.807	13.12
772.554	16.12
773.302	16.12
774.049	17.12
774.796	16.12
775.543	15.12
776.29	16.12
777.036	17.12
777.783	14.12
778.53	16.12
779.276	15.12
780.023	15.12
780.769	18.12
781.516	15.12
782.262	17.12
783.008	19.12
783.754	15.12
784.5	18.12
785.246	17.12
785.992	16.12
786.738	16.12
787.484	17.12
788.23	18.12
788.975	15.12
789.721	15.12
790.466	18.12
791.212	15.12
791.957	18.12
792.702	15.12
793.447	15.12
794.193	15.12
794.938	14.12
795.683	15.12
796.427	12.12
797.172	13.12
797.917	15.12
798.662	13.12
799.406	12.12
800.151	14.12
800.895	12.12
801.64	11.12
802.384	11.12
803.128	13.12
803.872	12.12
804.616	14.12
805.36	10.12
806.104	12.12
806.848	11.12
807.592	11.12
808.336	11.12
809.079	10.12
809.823	9.12
810.566	9.12
811.31	12.12
812.053	8.12
812.796	9.12
813.539	7.12
814.283	10.12
815.026	9.12
815.769	9.12
816.511	10.12
817.254	6.12
817.997	9.12
818.74	7.12
819.482	10.12
820.225	9.12
820.967	7.12
821.71	8.12
822.452	6.12
823.194	5.12
823.936	8.12
824.678	5.12
825.42	9.12
826.162	7.12
826.904	8.12
827.646	7.12
828.388	8.12
829.129	10.12
829.871	7.12
830.612	6.12
831.354	5.12
832.095	6.12
832.836	9.12
833.577	6.12
834.319	5.12
835.06	6.12
835.801	6.12
836.542	7.12
837.282	3.12
838.023	5.12
838.764	8.12
839.504	5.12
840.245	7.12
840.985	7.12
841.726	8.12
842.466	5.12
843.206	8.12
843.946	3.12
844.687	7.12
845.427	5.12
846.166	7.12
846.906	5.12
847.646	7.12
848.386	8.12
849.125	5.12
849.865	6.12
850.605	5.12
851.344	4.12
852.083	5.12
852.823	5.12
853.562	7.12
854.301	4.12
855.04	4.12
855.779	4.12
856.518	2.12
857.257	5.12
857.995	3.12
858.734	5.12
859.473	3.12
860.211	0.12
860.95	5.12
861.688	1.12
862.426	2.12
863.165	3.12
863.903	3.12
864.641	4.12
865.379	3.12
866.117	4.12
866.855	3.12
867.593	3.12
868.33	4.12
869.068	1.12
869.806	1.12
870.543	2.12
871.28	1.12
872.018	1.12
872.755	3.12
873.492	3.12
874.229	3.12
874.967	2.12
875.703	4.12
876.44	3.12
877.177	1.12
877.914	1.12
878.651	2.12
879.387	2.12
880.124	1.12
880.86	-0.88
881.597	3.12
882.333	2.12
883.069	1.12
883.806	2.12
884.542	2.12
885.278	2.12
886.014	3.12
886.749	3.12
887.485	2.12
888.221	2.12
888.957	2.12
889.692	0.12
890.428	0.12
891.163	2.12
891.899	2.12
892.634	1.12
893.369	-0.88
894.104	1.12
894.839	1.12
895.574	2.12
896.309	3.12
897.044	2.12
897.779	1.12
898.514	2.12
899.248	2.12
899.983	0.12
900.717	2.12
901.452	1.12
902.186	1.12
902.92	0.12
903.654	0.12
904.389	0.12
905.123	1.12
905.857	0.12
906.59	1.12
907.324	3.12
908.058	1.12
908.792	0.12
909.525	1.12
910.259	2.12
910.992	2.12
911.726	0.12
912.459	-0.88
913.192	0.12
913.925	2.12
914.658	1.12
915.391	1.12
916.124	1.12
916.857	1.12
917.59	1.12
918.323	0.12
919.055	3.12
919.788	2.12
920.521	0.12
921.253	0.12
921.985	-0.88
922.718	2.12
923.45	-0.88
924.182	0.12
924.914	-1.88
925.646	3.12
926.378	0.12
927.11	2.12
927.841	1.12
928.573	1.12
929.305	1.12
930.036	2.12
930.768	2.12
931.499	1.12
932.23	1.12
932.962	3.12
933.693	2.12
934.424	1.12
935.155	0.12
935.886	0.12
936.617	-0.88
937.348	3.12
938.078	0.12
938.809	2.12
939.54	0.12
940.27	0.12
941.001	2.12
941.731	-0.88
942.461	1.12
943.191	2.12
943.922	0.12
944.652	2.12
945.382	1.12
946.112	0.12
946.841	-0.88
947.571	3.12
948.301	-0.88
949.031	0.12
949.76	1.12
950.49	-2.88
951.219	1.12
951.948	3.12
952.678	0.12
953.407	1.12
954.136	1.12
954.865	0.12
955.594	-1.88
956.323	1.12
957.052	1.12
957.78	0.12
958.509	1.12
959.238	0.12
959.966	3.12
960.695	0.12
961.423	2.12
962.151	-0.88
962.88	-0.88
963.608	2.12
964.336	-1.88
965.064	1.12
965.792	-0.88
966.52	1.12
967.247	2.12
967.975	2.12
968.703	3.12
969.43	2.12
970.158	-0.88
970.885	-0.88
971.613	2.12
972.34	0.12
973.067	1.12
973.794	0.12
974.521	0.12
975.248	1.12
975.975	2.12
976.702	2.12
977.429	1.12
978.156	-0.88
978.882	1.12
979.609	-0.88
980.335	0.12
981.062	1.12
981.788	-0.88
982.514	1.12
983.24	0.12
983.967	1.12
984.693	-1.88
985.419	-0.88
986.144	1.12
986.87	-1.88
987.596	0.12
988.322	0.12
989.047	1.12
989.773	1.12
990.498	-0.88
991.224	0.12
991.949	1.12
992.674	1.12
993.399	1.12
994.124	3.12
994.849	0.12
995.574	-1.88
996.299	-0.88
997.024	0.12
997.749	0.12
998.473	2.12
999.198	-1.88
999.922	0.12
1000.647	1.12
1001.371	4.12
1002.095	0.12
1002.82	1.12
1003.544	-1.88
1004.268	6.12
1004.992	5.12
1005.716	6.12
1006.439	6.12
1007.163	7.12
1007.887	7.12
1008.611	1.12
1009.334	1.12
1010.058	1.12
1010.781	1.12
1011.504	2.12
1012.228	1.12
1012.951	0.12
1013.674	-0.88
1014.397	0.12
1015.12	-2.88
