节点500_705_QEPB04081__648__20-55-07-840.txt的数据

Date: Wed Nov 12 20:55:07 CST 2025
User: PC
Spectrometer: QEPB0408
触发模式: 0
积分时间 (秒): 1.000000E-2
Scans to average: 1
启用暗噪声校正: true
启用非线性校正: false
滑动平均宽度: 0
X轴模式: Wavelengths
Number of Pixels in Spectrum: 1044
>>>>>Begin Spectral Data<<<<<
220.843	2.88
221.644	5.88
222.444	4.88
223.244	6.88
224.045	5.88
224.845	5.88
225.645	4.88
226.445	6.88
227.245	8.88
228.045	7.88
228.845	4.88
229.645	7.88
230.444	7.88
231.244	6.88
232.043	6.88
232.843	6.88
233.642	8.88
234.442	8.88
235.241	10.88
236.04	8.88
236.839	10.88
237.638	9.88
238.437	8.88
239.236	10.88
240.035	9.88
240.833	8.88
241.632	8.88
242.43	9.88
243.229	10.88
244.027	11.88
244.826	13.88
245.624	11.88
246.422	12.88
247.22	14.88
248.018	13.88
248.816	15.88
249.614	13.88
250.412	15.88
251.21	14.88
252.007	15.88
252.805	17.88
253.602	18.88
254.4	18.88
255.197	16.88
255.994	17.88
256.791	16.88
257.589	15.88
258.386	18.88
259.183	21.88
259.979	18.88
260.776	18.88
261.573	20.88
262.37	17.88
263.166	24.88
263.963	22.88
264.759	22.88
265.556	22.88
266.352	23.88
267.148	28.88
267.944	24.88
268.74	24.88
269.536	23.88
270.332	28.88
271.128	25.88
271.924	29.88
272.719	26.88
273.515	30.88
274.311	29.88
275.106	27.88
275.901	30.88
276.697	29.88
277.492	29.88
278.287	32.88
279.082	31.88
279.877	29.88
280.672	33.88
281.467	30.88
282.262	30.88
283.056	26.88
283.851	30.88
284.646	33.88
285.44	30.88
286.234	34.88
287.029	27.88
287.823	32.88
288.617	30.88
289.411	32.88
290.205	29.88
290.999	28.88
291.793	32.88
292.587	30.88
293.381	28.88
294.174	25.88
294.968	26.88
295.761	27.88
296.555	23.88
297.348	26.88
298.141	25.88
298.935	30.88
299.728	25.88
300.521	23.88
301.314	20.88
302.107	23.88
302.899	23.88
303.692	22.88
304.485	21.88
305.277	19.88
306.07	21.88
306.862	17.88
307.655	20.88
308.447	20.88
309.239	15.88
310.031	19.88
310.823	18.88
311.615	17.88
312.407	18.88
313.199	17.88
313.991	15.88
314.783	18.88
315.574	14.88
316.366	13.88
317.157	12.88
317.949	15.88
318.74	13.88
319.531	13.88
320.322	18.88
321.113	12.88
321.904	14.88
322.695	10.88
323.486	12.88
324.277	11.88
325.068	10.88
325.858	14.88
326.649	9.88
327.439	13.88
328.23	14.88
329.02	12.88
329.81	12.88
330.6	9.88
331.391	12.88
332.181	9.88
332.971	13.88
333.76	10.88
334.55	9.88
335.34	11.88
336.13	10.88
336.919	10.88
337.709	10.88
338.498	12.88
339.287	9.88
340.077	9.88
340.866	9.88
341.655	10.88
342.444	10.88
343.233	10.88
344.022	12.88
344.811	10.88
345.6	10.88
346.388	10.88
347.177	10.88
347.965	9.88
348.754	11.88
349.542	9.88
350.33	8.88
351.119	10.88
351.907	13.88
352.695	7.88
353.483	10.88
354.271	11.88
355.059	7.88
355.846	8.88
356.634	8.88
357.422	9.88
358.209	10.88
358.997	11.88
359.784	8.88
360.571	9.88
361.359	10.88
362.146	8.88
362.933	10.88
363.72	11.88
364.507	6.88
365.294	10.88
366.081	8.88
366.867	10.88
367.654	7.88
368.44	7.88
369.227	8.88
370.013	7.88
370.8	9.88
371.586	7.88
372.372	7.88
373.158	7.88
373.944	7.88
374.73	7.88
375.516	6.88
376.302	7.88
377.088	11.88
377.873	10.88
378.659	7.88
379.445	8.88
380.23	6.88
381.015	10.88
381.801	10.88
382.586	9.88
383.371	8.88
384.156	9.88
384.941	7.88
385.726	13.88
386.511	11.88
387.296	11.88
388.08	8.88
388.865	12.88
389.649	11.88
390.434	10.88
391.218	10.88
392.003	9.88
392.787	10.88
393.571	9.88
394.355	11.88
395.139	12.88
395.923	12.88
396.707	10.88
397.491	10.88
398.274	11.88
399.058	14.88
399.842	11.88
400.625	11.88
401.408	12.88
402.192	12.88
402.975	11.88
403.758	14.88
404.541	14.88
405.324	11.88
406.107	15.88
406.89	11.88
407.673	13.88
408.456	12.88
409.238	13.88
410.021	16.88
410.803	13.88
411.586	15.88
412.368	14.88
413.151	14.88
413.933	18.88
414.715	15.88
415.497	16.88
416.279	17.88
417.061	17.88
417.843	18.88
418.624	17.88
419.406	20.88
420.188	18.88
420.969	20.88
421.751	22.88
422.532	21.88
423.313	23.88
424.095	21.88
424.876	23.88
425.657	25.88
426.438	25.88
427.219	23.88
428	26.88
428.78	29.88
429.561	29.88
430.342	27.88
431.122	30.88
431.903	29.88
432.683	36.88
433.464	33.88
434.244	36.88
435.024	39.88
435.804	36.88
436.584	41.88
437.364	45.88
438.144	48.88
438.924	51.88
439.704	52.88
440.483	59.88
441.263	64.88
442.042	65.88
442.822	72.88
443.601	74.88
444.38	85.88
445.16	89.88
445.939	98.88
446.718	110.88
447.497	114.88
448.276	133.88
449.054	142.88
449.833	152.88
450.612	173.88
451.391	197.88
452.169	209.88
452.948	233.88
453.726	259.88
454.504	284.88
455.282	316.88
456.061	357.88
456.839	398.88
457.617	432.88
458.395	494.88
459.172	542.88
459.95	609.88
460.728	674.88
461.506	746.88
462.283	840.88
463.061	926.88
463.838	1036.88
464.615	1125.88
465.393	1250.88
466.17	1384.88
466.947	1550.88
467.724	1711.88
468.501	1860.88
469.278	2071.88
470.055	2267.88
470.831	2516.88
471.608	2739.88
472.385	3024.88
473.161	3292.88
473.938	3623.88
474.714	3953.88
475.49	4340.88
476.266	4733.88
477.043	5142.88
477.819	5593.88
478.595	6046.88
479.371	6586.88
480.146	7146.88
480.922	7752.88
481.698	8418.88
482.473	9110.88
483.249	9854.88
484.024	10655.88
484.8	11492.88
485.575	12400.88
486.35	13371.88
487.126	14420.88
487.901	15466.88
488.676	16709.88
489.451	17872.88
490.225	19124.88
491	20537.88
491.775	21872.88
492.55	23380.88
493.324	24795.88
494.099	26383.88
494.873	28000.88
495.647	29590.88
496.422	31152.88
497.196	32661.88
497.97	34349.88
498.744	35716.88
499.518	37260.88
500.292	38584.88
501.066	39671.88
501.839	40685.88
502.613	41600.88
503.387	42418.88
504.16	42993.88
504.934	43445.88
505.707	43695.88
506.48	43595.88
507.253	43473.88
508.027	43265.88
508.8	42652.88
509.573	41998.88
510.346	41161.88
511.118	40442.88
511.891	39520.88
512.664	38182.88
513.437	37010.88
514.209	35770.88
514.982	34513.88
515.754	33281.88
516.526	31942.88
517.298	30747.88
518.071	29635.88
518.843	28553.88
519.615	27412.88
520.387	26286.88
521.159	25303.88
521.93	24303.88
522.702	23226.88
523.474	22324.88
524.245	21394.88
525.017	20563.88
525.788	19680.88
526.56	18900.88
527.331	18132.88
528.102	17168.88
528.873	16394.88
529.644	15664.88
530.415	14903.88
531.186	14284.88
531.957	13547.88
532.728	12930.88
533.498	12271.88
534.269	11623.88
535.039	11004.88
535.81	10448.88
536.58	9902.88
537.351	9354.88
538.121	8869.88
538.891	8394.88
539.661	7925.88
540.431	7540.88
541.201	7134.88
541.971	6769.88
542.741	6434.88
543.51	6070.88
544.28	5789.88
545.05	5513.88
545.819	5265.88
546.588	5045.88
547.358	4787.88
548.127	4519.88
548.896	4319.88
549.665	4111.88
550.434	3878.88
551.203	3695.88
551.972	3502.88
552.741	3312.88
553.51	3150.88
554.278	2948.88
555.047	2817.88
555.815	2670.88
556.584	2528.88
557.352	2380.88
558.121	2267.88
558.889	2126.88
559.657	2014.88
560.425	1897.88
561.193	1800.88
561.961	1707.88
562.729	1608.88
563.496	1543.88
564.264	1439.88
565.032	1366.88
565.799	1293.88
566.567	1236.88
567.334	1165.88
568.101	1085.88
568.869	1032.88
569.636	964.88
570.403	926.88
571.17	856.88
571.937	821.88
572.704	772.88
573.471	736.88
574.237	690.88
575.004	645.88
575.771	612.88
576.537	577.88
577.303	538.88
578.07	522.88
578.836	490.88
579.602	453.88
580.368	432.88
581.134	413.88
581.9	392.88
582.666	377.88
583.432	361.88
584.198	334.88
584.964	329.88
585.729	304.88
586.495	291.88
587.26	271.88
588.025	260.88
588.791	245.88
589.556	229.88
590.321	222.88
591.086	212.88
591.851	200.88
592.616	186.88
593.381	182.88
594.146	176.88
594.911	163.88
595.675	159.88
596.44	149.88
597.204	149.88
597.969	136.88
598.733	129.88
599.497	124.88
600.261	117.88
601.025	118.88
601.79	110.88
602.553	104.88
603.317	99.88
604.081	98.88
604.845	92.88
605.609	86.88
606.372	86.88
607.136	80.88
607.899	80.88
608.662	74.88
609.426	72.88
610.189	70.88
610.952	71.88
611.715	68.88
612.478	63.88
613.241	59.88
614.004	58.88
614.767	55.88
615.529	54.88
616.292	52.88
617.055	50.88
617.817	50.88
618.579	49.88
619.342	44.88
620.104	42.88
620.866	42.88
621.628	41.88
622.39	41.88
623.152	36.88
623.914	40.88
624.676	34.88
625.438	30.88
626.199	32.88
626.961	32.88
627.722	29.88
628.484	31.88
629.245	28.88
630.006	32.88
630.768	26.88
631.529	28.88
632.29	26.88
633.051	23.88
633.812	26.88
634.573	23.88
635.333	22.88
636.094	18.88
636.855	22.88
637.615	22.88
638.376	17.88
639.136	20.88
639.896	20.88
640.657	19.88
641.417	17.88
642.177	18.88
642.937	19.88
643.697	16.88
644.457	17.88
645.216	16.88
645.976	16.88
646.736	14.88
647.495	14.88
648.255	14.88
649.014	14.88
649.774	15.88
650.533	14.88
651.292	15.88
652.051	14.88
652.81	13.88
653.569	14.88
654.328	13.88
655.087	15.88
655.846	12.88
656.604	12.88
657.363	12.88
658.121	9.88
658.88	12.88
659.638	9.88
660.397	11.88
661.155	13.88
661.913	8.88
662.671	10.88
663.429	10.88
664.187	8.88
664.945	10.88
665.703	9.88
666.46	11.88
667.218	10.88
667.976	8.88
668.733	9.88
669.49	8.88
670.248	7.88
671.005	9.88
671.762	9.88
672.519	7.88
673.276	7.88
674.033	8.88
674.79	9.88
675.547	9.88
676.304	6.88
677.06	5.88
677.817	8.88
678.574	8.88
679.33	7.88
680.086	9.88
680.843	7.88
681.599	6.88
682.355	7.88
683.111	7.88
683.867	7.88
684.623	7.88
685.379	8.88
686.135	6.88
686.89	7.88
687.646	8.88
688.402	7.88
689.157	7.88
689.912	9.88
690.668	3.88
691.423	6.88
692.178	7.88
692.933	10.88
693.688	7.88
694.443	5.88
695.198	7.88
695.953	8.88
696.708	7.88
697.462	8.88
698.217	5.88
698.972	7.88
699.726	8.88
700.48	6.88
701.235	5.88
701.989	6.88
702.743	6.88
703.497	6.88
704.251	6.88
705.005	6.88
705.759	7.88
706.513	7.88
707.266	7.88
708.02	6.88
708.774	5.88
709.527	5.88
710.28	6.88
711.034	6.88
711.787	6.88
712.54	5.88
713.293	6.88
714.046	5.88
714.799	6.88
715.552	5.88
716.305	8.88
717.058	5.88
717.81	7.88
718.563	5.88
719.315	7.88
720.068	7.88
720.82	6.88
721.573	8.88
722.325	6.88
723.077	6.88
723.829	7.88
724.581	4.88
725.333	8.88
726.085	4.88
726.836	7.88
727.588	7.88
728.34	8.88
729.091	10.88
729.843	7.88
730.594	5.88
731.346	9.88
732.097	5.88
732.848	8.88
733.599	6.88
734.35	7.88
735.101	10.88
735.852	7.88
736.603	7.88
737.354	8.88
738.104	8.88
738.855	9.88
739.605	8.88
740.356	8.88
741.106	6.88
741.856	8.88
742.607	7.88
743.357	8.88
744.107	8.88
744.857	9.88
745.607	10.88
746.357	9.88
747.106	10.88
747.856	9.88
748.606	8.88
749.355	7.88
750.105	8.88
750.854	9.88
751.603	12.88
752.353	10.88
753.102	9.88
753.851	10.88
754.6	12.88
755.349	8.88
756.098	10.88
756.847	12.88
757.595	13.88
758.344	10.88
759.093	8.88
759.841	10.88
760.589	11.88
761.338	12.88
762.086	13.88
762.834	11.88
763.582	10.88
764.331	11.88
765.079	9.88
765.826	12.88
766.574	12.88
767.322	14.88
768.07	12.88
768.817	11.88
769.565	14.88
770.312	10.88
771.06	13.88
771.807	13.88
772.554	13.88
773.302	12.88
774.049	14.88
774.796	14.88
775.543	14.88
776.29	11.88
777.036	11.88
777.783	14.88
778.53	14.88
779.276	13.88
780.023	13.88
780.769	14.88
781.516	11.88
782.262	16.88
783.008	14.88
783.754	12.88
784.5	14.88
785.246	16.88
785.992	11.88
786.738	15.88
787.484	12.88
788.23	13.88
788.975	13.88
789.721	13.88
790.466	14.88
791.212	14.88
791.957	12.88
792.702	14.88
793.447	14.88
794.193	12.88
794.938	13.88
795.683	12.88
796.427	11.88
797.172	11.88
797.917	10.88
798.662	11.88
799.406	11.88
800.151	12.88
800.895	10.88
801.64	12.88
802.384	10.88
803.128	10.88
803.872	8.88
804.616	10.88
805.36	10.88
806.104	9.88
806.848	9.88
807.592	9.88
808.336	10.88
809.079	10.88
809.823	8.88
810.566	9.88
811.31	9.88
812.053	8.88
812.796	7.88
813.539	9.88
814.283	8.88
815.026	8.88
815.769	9.88
816.511	8.88
817.254	6.88
817.997	7.88
818.74	4.88
819.482	6.88
820.225	7.88
820.967	6.88
821.71	6.88
822.452	8.88
823.194	4.88
823.936	5.88
824.678	5.88
825.42	7.88
826.162	7.88
826.904	6.88
827.646	5.88
828.388	8.88
829.129	5.88
829.871	5.88
830.612	8.88
831.354	5.88
832.095	2.88
832.836	7.88
833.577	4.88
834.319	7.88
835.06	6.88
835.801	6.88
836.542	4.88
837.282	7.88
838.023	5.88
838.764	4.88
839.504	3.88
840.245	5.88
840.985	4.88
841.726	5.88
842.466	7.88
843.206	6.88
843.946	4.88
844.687	3.88
845.427	3.88
846.166	5.88
846.906	4.88
847.646	5.88
848.386	6.88
849.125	1.88
849.865	6.88
850.605	5.88
851.344	3.88
852.083	3.88
852.823	5.88
853.562	3.88
854.301	2.88
855.04	2.88
855.779	3.88
856.518	3.88
857.257	4.88
857.995	2.88
858.734	3.88
859.473	3.88
860.211	2.88
860.95	3.88
861.688	4.88
862.426	4.88
863.165	2.88
863.903	2.88
864.641	2.88
865.379	2.88
866.117	2.88
866.855	1.88
867.593	0.88
868.33	1.88
869.068	-0.12
869.806	0.88
870.543	1.88
871.28	2.88
872.018	0.88
872.755	1.88
873.492	1.88
874.229	2.88
874.967	1.88
875.703	1.88
876.44	2.88
877.177	0.88
877.914	2.88
878.651	3.88
879.387	0.88
880.124	3.88
880.86	0.88
881.597	1.88
882.333	-0.12
883.069	2.88
883.806	1.88
884.542	2.88
885.278	0.88
886.014	0.88
886.749	1.88
887.485	0.88
888.221	0.88
888.957	0.88
889.692	3.88
890.428	-0.12
891.163	2.88
891.899	2.88
892.634	-0.12
893.369	0.88
894.104	1.88
894.839	-0.12
895.574	1.88
896.309	2.88
897.044	0.88
897.779	1.88
898.514	0.88
899.248	0.88
899.983	0.88
900.717	0.88
901.452	0.88
902.186	0.88
902.92	-0.12
903.654	-0.12
904.389	2.88
905.123	-1.12
905.857	3.88
906.59	1.88
907.324	-0.12
908.058	0.88
908.792	0.88
909.525	0.88
910.259	-0.12
910.992	0.88
911.726	1.88
912.459	1.88
913.192	1.88
913.925	-1.12
914.658	1.88
915.391	-2.12
916.124	-1.12
916.857	0.88
917.59	-0.12
918.323	-0.12
919.055	0.88
919.788	0.88
920.521	1.88
921.253	0.88
921.985	2.88
922.718	1.88
923.45	1.88
924.182	-1.12
924.914	-0.12
925.646	0.88
926.378	1.88
927.11	-1.12
927.841	-0.12
928.573	2.88
929.305	1.88
930.036	0.88
930.768	2.88
931.499	-2.12
932.23	0.88
932.962	-0.12
933.693	1.88
934.424	-0.12
935.155	-0.12
935.886	0.88
936.617	-2.12
937.348	2.88
938.078	1.88
938.809	1.88
939.54	0.88
940.27	0.88
941.001	1.88
941.731	0.88
942.461	1.88
943.191	2.88
943.922	-1.12
944.652	-1.12
945.382	-2.12
946.112	1.88
946.841	2.88
947.571	-0.12
948.301	1.88
949.031	-2.12
949.76	-1.12
950.49	-0.12
951.219	-0.12
951.948	-0.12
952.678	0.88
953.407	-0.12
954.136	0.88
954.865	1.88
955.594	0.88
956.323	0.88
957.052	-1.12
957.78	0.88
958.509	-0.12
959.238	-0.12
959.966	2.88
960.695	-0.12
961.423	0.88
962.151	-1.12
962.88	0.88
963.608	1.88
964.336	0.88
965.064	1.88
965.792	-1.12
966.52	1.88
967.247	0.88
967.975	0.88
968.703	-0.12
969.43	0.88
970.158	0.88
970.885	-0.12
971.613	-1.12
972.34	0.88
973.067	-2.12
973.794	2.88
974.521	-1.12
975.248	-0.12
975.975	0.88
976.702	-1.12
977.429	0.88
978.156	1.88
978.882	-0.12
979.609	0.88
980.335	-1.12
981.062	0.88
981.788	-1.12
982.514	2.88
983.24	-1.12
983.967	-1.12
984.693	-0.12
985.419	0.88
986.144	-1.12
986.87	1.88
987.596	0.88
988.322	-0.12
989.047	-2.12
989.773	1.88
990.498	0.88
991.224	1.88
991.949	-0.12
992.674	0.88
993.399	-0.12
994.124	0.88
994.849	0.88
995.574	-1.12
996.299	-0.12
997.024	-1.12
997.749	-1.12
998.473	-1.12
999.198	-1.12
999.922	0.88
1000.647	-2.12
1001.371	2.88
1002.095	-0.12
1002.82	0.88
1003.544	-1.12
1004.268	4.88
1004.992	3.88
1005.716	2.88
1006.439	3.88
1007.163	7.88
1007.887	4.88
1008.611	2.88
1009.334	-0.12
1010.058	-0.12
1010.781	-0.12
1011.504	-1.12
1012.228	1.88
1012.951	0.88
1013.674	-1.12
1014.397	-2.12
1015.12	-0.12
