节点500_705_QEPB04081__260__20-49-38-421.txt的数据

Date: Wed Nov 12 20:49:38 CST 2025
User: PC
Spectrometer: QEPB0408
触发模式: 0
积分时间 (秒): 1.000000E-2
Scans to average: 1
启用暗噪声校正: true
启用非线性校正: false
滑动平均宽度: 0
X轴模式: Wavelengths
Number of Pixels in Spectrum: 1044
>>>>>Begin Spectral Data<<<<<
220.843	3.5
221.644	6.5
222.444	6.5
223.244	4.5
224.045	7.5
224.845	6.5
225.645	6.5
226.445	7.5
227.245	7.5
228.045	9.5
228.845	5.5
229.645	7.5
230.444	6.5
231.244	5.5
232.043	8.5
232.843	9.5
233.642	9.5
234.442	8.5
235.241	9.5
236.04	8.5
236.839	7.5
237.638	11.5
238.437	10.5
239.236	11.5
240.035	11.5
240.833	12.5
241.632	14.5
242.43	9.5
243.229	10.5
244.027	14.5
244.826	14.5
245.624	13.5
246.422	12.5
247.22	11.5
248.018	10.5
248.816	17.5
249.614	12.5
250.412	13.5
251.21	16.5
252.007	13.5
252.805	16.5
253.602	18.5
254.4	17.5
255.197	18.5
255.994	18.5
256.791	19.5
257.589	22.5
258.386	20.5
259.183	23.5
259.979	20.5
260.776	22.5
261.573	24.5
262.37	21.5
263.166	21.5
263.963	22.5
264.759	24.5
265.556	26.5
266.352	25.5
267.148	30.5
267.944	28.5
268.74	28.5
269.536	28.5
270.332	27.5
271.128	31.5
271.924	32.5
272.719	32.5
273.515	32.5
274.311	32.5
275.106	32.5
275.901	35.5
276.697	32.5
277.492	36.5
278.287	31.5
279.082	30.5
279.877	34.5
280.672	31.5
281.467	35.5
282.262	33.5
283.056	34.5
283.851	34.5
284.646	33.5
285.44	34.5
286.234	32.5
287.029	34.5
287.823	34.5
288.617	31.5
289.411	32.5
290.205	33.5
290.999	31.5
291.793	31.5
292.587	35.5
293.381	31.5
294.174	31.5
294.968	30.5
295.761	24.5
296.555	27.5
297.348	24.5
298.141	24.5
298.935	26.5
299.728	26.5
300.521	26.5
301.314	21.5
302.107	25.5
302.899	23.5
303.692	22.5
304.485	23.5
305.277	21.5
306.07	22.5
306.862	18.5
307.655	22.5
308.447	22.5
309.239	20.5
310.031	19.5
310.823	19.5
311.615	18.5
312.407	19.5
313.199	17.5
313.991	15.5
314.783	17.5
315.574	18.5
316.366	16.5
317.157	13.5
317.949	17.5
318.74	12.5
319.531	14.5
320.322	15.5
321.113	14.5
321.904	13.5
322.695	12.5
323.486	12.5
324.277	13.5
325.068	12.5
325.858	9.5
326.649	11.5
327.439	10.5
328.23	11.5
329.02	10.5
329.81	9.5
330.6	12.5
331.391	10.5
332.181	12.5
332.971	12.5
333.76	12.5
334.55	11.5
335.34	9.5
336.13	11.5
336.919	13.5
337.709	9.5
338.498	12.5
339.287	10.5
340.077	10.5
340.866	10.5
341.655	13.5
342.444	12.5
343.233	10.5
344.022	10.5
344.811	9.5
345.6	12.5
346.388	11.5
347.177	11.5
347.965	10.5
348.754	9.5
349.542	12.5
350.33	10.5
351.119	12.5
351.907	11.5
352.695	12.5
353.483	8.5
354.271	8.5
355.059	11.5
355.846	8.5
356.634	8.5
357.422	11.5
358.209	11.5
358.997	10.5
359.784	7.5
360.571	11.5
361.359	12.5
362.146	10.5
362.933	8.5
363.72	6.5
364.507	9.5
365.294	9.5
366.081	9.5
366.867	12.5
367.654	10.5
368.44	10.5
369.227	7.5
370.013	10.5
370.8	7.5
371.586	10.5
372.372	9.5
373.158	10.5
373.944	11.5
374.73	9.5
375.516	9.5
376.302	10.5
377.088	8.5
377.873	9.5
378.659	7.5
379.445	9.5
380.23	9.5
381.015	8.5
381.801	8.5
382.586	8.5
383.371	9.5
384.156	10.5
384.941	11.5
385.726	12.5
386.511	10.5
387.296	10.5
388.08	9.5
388.865	11.5
389.649	9.5
390.434	10.5
391.218	12.5
392.003	8.5
392.787	11.5
393.571	10.5
394.355	10.5
395.139	12.5
395.923	12.5
396.707	14.5
397.491	12.5
398.274	12.5
399.058	15.5
399.842	14.5
400.625	12.5
401.408	12.5
402.192	12.5
402.975	15.5
403.758	13.5
404.541	12.5
405.324	13.5
406.107	14.5
406.89	13.5
407.673	16.5
408.456	15.5
409.238	14.5
410.021	16.5
410.803	15.5
411.586	17.5
412.368	16.5
413.151	15.5
413.933	14.5
414.715	18.5
415.497	17.5
416.279	16.5
417.061	16.5
417.843	19.5
418.624	19.5
419.406	17.5
420.188	21.5
420.969	19.5
421.751	19.5
422.532	20.5
423.313	21.5
424.095	24.5
424.876	24.5
425.657	23.5
426.438	24.5
427.219	26.5
428	30.5
428.78	29.5
429.561	28.5
430.342	30.5
431.122	29.5
431.903	30.5
432.683	34.5
433.464	38.5
434.244	35.5
435.024	35.5
435.804	40.5
436.584	41.5
437.364	44.5
438.144	49.5
438.924	48.5
439.704	50.5
440.483	57.5
441.263	60.5
442.042	65.5
442.822	71.5
443.601	72.5
444.38	77.5
445.16	84.5
445.939	86.5
446.718	101.5
447.497	107.5
448.276	120.5
449.054	129.5
449.833	139.5
450.612	151.5
451.391	174.5
452.169	183.5
452.948	212.5
453.726	230.5
454.504	256.5
455.282	289.5
456.061	320.5
456.839	358.5
457.617	414.5
458.395	444.5
459.172	500.5
459.95	569.5
460.728	618.5
461.506	693.5
462.283	773.5
463.061	857.5
463.838	962.5
464.615	1069.5
465.393	1202.5
466.17	1333.5
466.947	1499.5
467.724	1649.5
468.501	1815.5
469.278	2036.5
470.055	2234.5
470.831	2490.5
471.608	2741.5
472.385	3022.5
473.161	3340.5
473.938	3694.5
474.714	4067.5
475.49	4467.5
476.266	4895.5
477.043	5379.5
477.819	5875.5
478.595	6420.5
479.371	7040.5
480.146	7700.5
480.922	8406.5
481.698	9184.5
482.473	10006.5
483.249	10875.5
484.024	11808.5
484.8	12891.5
485.575	13935.5
486.35	15136.5
487.126	16397.5
487.901	17744.5
488.676	19185.5
489.451	20717.5
490.225	22273.5
491	23898.5
491.775	25610.5
492.55	27407.5
493.324	29171.5
494.099	31003.5
494.873	32937.5
495.647	34682.5
496.422	36614.5
497.196	38367.5
497.97	40010.5
498.744	41537.5
499.518	43130.5
500.292	44556.5
501.066	45492.5
501.839	46371.5
502.613	47036.5
503.387	47647.5
504.16	47896.5
504.934	47981.5
505.707	47908.5
506.48	47451.5
507.253	46968.5
508.027	46080.5
508.8	44980.5
509.573	43909.5
510.346	42862.5
511.118	41646.5
511.891	40281.5
512.664	38735.5
513.437	37241.5
514.209	35793.5
514.982	34428.5
515.754	32963.5
516.526	31616.5
517.298	30324.5
518.071	29142.5
518.843	27960.5
519.615	26855.5
520.387	25783.5
521.159	24731.5
521.93	23714.5
522.702	22738.5
523.474	21715.5
524.245	20837.5
525.017	19933.5
525.788	19018.5
526.56	18212.5
527.331	17428.5
528.102	16488.5
528.873	15660.5
529.644	14954.5
530.415	14247.5
531.186	13520.5
531.957	12782.5
532.728	12185.5
533.498	11517.5
534.269	10883.5
535.039	10317.5
535.81	9767.5
536.58	9186.5
537.351	8704.5
538.121	8266.5
538.891	7852.5
539.661	7428.5
540.431	6992.5
541.201	6646.5
541.971	6273.5
542.741	5950.5
543.51	5648.5
544.28	5393.5
545.05	5149.5
545.819	4872.5
546.588	4652.5
547.358	4468.5
548.127	4211.5
548.896	4006.5
549.665	3786.5
550.434	3608.5
551.203	3390.5
551.972	3214.5
552.741	3047.5
553.51	2875.5
554.278	2712.5
555.047	2559.5
555.815	2395.5
556.584	2278.5
557.352	2149.5
558.121	2071.5
558.889	1936.5
559.657	1821.5
560.425	1719.5
561.193	1647.5
561.961	1553.5
562.729	1459.5
563.496	1384.5
564.264	1313.5
565.032	1232.5
565.799	1175.5
566.567	1095.5
567.334	1051.5
568.101	988.5
568.869	937.5
569.636	887.5
570.403	831.5
571.17	784.5
571.937	740.5
572.704	706.5
573.471	665.5
574.237	633.5
575.004	584.5
575.771	549.5
576.537	519.5
577.303	497.5
578.07	465.5
578.836	444.5
579.602	421.5
580.368	388.5
581.134	381.5
581.9	359.5
582.666	342.5
583.432	320.5
584.198	304.5
584.964	291.5
585.729	278.5
586.495	264.5
587.26	244.5
588.025	233.5
588.791	225.5
589.556	211.5
590.321	202.5
591.086	189.5
591.851	185.5
592.616	171.5
593.381	165.5
594.146	157.5
594.911	151.5
595.675	141.5
596.44	139.5
597.204	126.5
597.969	123.5
598.733	118.5
599.497	111.5
600.261	109.5
601.025	105.5
601.79	99.5
602.553	95.5
603.317	93.5
604.081	88.5
604.845	92.5
605.609	82.5
606.372	82.5
607.136	77.5
607.899	74.5
608.662	69.5
609.426	66.5
610.189	64.5
610.952	62.5
611.715	61.5
612.478	56.5
613.241	57.5
614.004	53.5
614.767	49.5
615.529	52.5
616.292	44.5
617.055	46.5
617.817	47.5
618.579	42.5
619.342	42.5
620.104	43.5
620.866	41.5
621.628	36.5
622.39	39.5
623.152	34.5
623.914	34.5
624.676	33.5
625.438	34.5
626.199	35.5
626.961	32.5
627.722	29.5
628.484	29.5
629.245	28.5
630.006	28.5
630.768	28.5
631.529	25.5
632.29	27.5
633.051	24.5
633.812	27.5
634.573	24.5
635.333	23.5
636.094	24.5
636.855	21.5
637.615	22.5
638.376	17.5
639.136	22.5
639.896	20.5
640.657	20.5
641.417	14.5
642.177	21.5
642.937	18.5
643.697	18.5
644.457	18.5
645.216	16.5
645.976	16.5
646.736	17.5
647.495	13.5
648.255	14.5
649.014	13.5
649.774	15.5
650.533	14.5
651.292	16.5
652.051	15.5
652.81	14.5
653.569	13.5
654.328	12.5
655.087	13.5
655.846	11.5
656.604	11.5
657.363	13.5
658.121	10.5
658.88	11.5
659.638	11.5
660.397	10.5
661.155	10.5
661.913	11.5
662.671	10.5
663.429	11.5
664.187	8.5
664.945	10.5
665.703	9.5
666.46	10.5
667.218	6.5
667.976	8.5
668.733	10.5
669.49	8.5
670.248	11.5
671.005	8.5
671.762	10.5
672.519	8.5
673.276	8.5
674.033	10.5
674.79	7.5
675.547	10.5
676.304	7.5
677.06	7.5
677.817	8.5
678.574	11.5
679.33	7.5
680.086	7.5
680.843	11.5
681.599	7.5
682.355	8.5
683.111	8.5
683.867	8.5
684.623	8.5
685.379	5.5
686.135	9.5
686.89	8.5
687.646	8.5
688.402	6.5
689.157	6.5
689.912	6.5
690.668	8.5
691.423	8.5
692.178	8.5
692.933	5.5
693.688	7.5
694.443	7.5
695.198	7.5
695.953	8.5
696.708	8.5
697.462	7.5
698.217	8.5
698.972	8.5
699.726	4.5
700.48	8.5
701.235	10.5
701.989	8.5
702.743	8.5
703.497	6.5
704.251	7.5
705.005	7.5
705.759	8.5
706.513	7.5
707.266	10.5
708.02	6.5
708.774	4.5
709.527	7.5
710.28	5.5
711.034	5.5
711.787	8.5
712.54	8.5
713.293	6.5
714.046	7.5
714.799	4.5
715.552	7.5
716.305	7.5
717.058	7.5
717.81	5.5
718.563	8.5
719.315	7.5
720.068	8.5
720.82	8.5
721.573	6.5
722.325	6.5
723.077	7.5
723.829	7.5
724.581	5.5
725.333	8.5
726.085	9.5
726.836	5.5
727.588	8.5
728.34	8.5
729.091	5.5
729.843	8.5
730.594	10.5
731.346	8.5
732.097	7.5
732.848	12.5
733.599	8.5
734.35	11.5
735.101	8.5
735.852	8.5
736.603	9.5
737.354	7.5
738.104	8.5
738.855	8.5
739.605	10.5
740.356	9.5
741.106	8.5
741.856	12.5
742.607	11.5
743.357	8.5
744.107	9.5
744.857	6.5
745.607	10.5
746.357	10.5
747.106	8.5
747.856	9.5
748.606	11.5
749.355	8.5
750.105	11.5
750.854	12.5
751.603	10.5
752.353	10.5
753.102	11.5
753.851	8.5
754.6	12.5
755.349	10.5
756.098	12.5
756.847	9.5
757.595	10.5
758.344	11.5
759.093	11.5
759.841	12.5
760.589	11.5
761.338	13.5
762.086	11.5
762.834	8.5
763.582	13.5
764.331	14.5
765.079	15.5
765.826	12.5
766.574	14.5
767.322	10.5
768.07	11.5
768.817	12.5
769.565	14.5
770.312	14.5
771.06	13.5
771.807	14.5
772.554	16.5
773.302	15.5
774.049	15.5
774.796	16.5
775.543	16.5
776.29	14.5
777.036	15.5
777.783	16.5
778.53	15.5
779.276	14.5
780.023	14.5
780.769	14.5
781.516	16.5
782.262	13.5
783.008	14.5
783.754	16.5
784.5	17.5
785.246	14.5
785.992	12.5
786.738	14.5
787.484	12.5
788.23	17.5
788.975	15.5
789.721	14.5
790.466	14.5
791.212	13.5
791.957	14.5
792.702	14.5
793.447	15.5
794.193	13.5
794.938	13.5
795.683	12.5
796.427	15.5
797.172	14.5
797.917	12.5
798.662	12.5
799.406	12.5
800.151	13.5
800.895	14.5
801.64	12.5
802.384	12.5
803.128	11.5
803.872	11.5
804.616	9.5
805.36	11.5
806.104	8.5
806.848	10.5
807.592	9.5
808.336	10.5
809.079	10.5
809.823	6.5
810.566	9.5
811.31	8.5
812.053	9.5
812.796	10.5
813.539	7.5
814.283	8.5
815.026	9.5
815.769	7.5
816.511	8.5
817.254	6.5
817.997	7.5
818.74	9.5
819.482	6.5
820.225	7.5
820.967	5.5
821.71	4.5
822.452	6.5
823.194	7.5
823.936	6.5
824.678	6.5
825.42	5.5
826.162	7.5
826.904	6.5
827.646	6.5
828.388	5.5
829.129	5.5
829.871	8.5
830.612	5.5
831.354	7.5
832.095	3.5
832.836	7.5
833.577	8.5
834.319	6.5
835.06	6.5
835.801	4.5
836.542	6.5
837.282	5.5
838.023	5.5
838.764	5.5
839.504	3.5
840.245	8.5
840.985	5.5
841.726	8.5
842.466	4.5
843.206	4.5
843.946	7.5
844.687	4.5
845.427	5.5
846.166	5.5
846.906	4.5
847.646	2.5
848.386	1.5
849.125	2.5
849.865	2.5
850.605	2.5
851.344	5.5
852.083	3.5
852.823	4.5
853.562	3.5
854.301	3.5
855.04	1.5
855.779	5.5
856.518	5.5
857.257	2.5
857.995	3.5
858.734	2.5
859.473	5.5
860.211	2.5
860.95	4.5
861.688	3.5
862.426	2.5
863.165	3.5
863.903	2.5
864.641	0.5
865.379	2.5
866.117	2.5
866.855	1.5
867.593	2.5
868.33	4.5
869.068	2.5
869.806	5.5
870.543	1.5
871.28	2.5
872.018	3.5
872.755	1.5
873.492	2.5
874.229	2.5
874.967	2.5
875.703	3.5
876.44	0.5
877.177	2.5
877.914	-1.5
878.651	-1.5
879.387	2.5
880.124	1.5
880.86	1.5
881.597	0.5
882.333	2.5
883.069	-1.5
883.806	0.5
884.542	1.5
885.278	2.5
886.014	1.5
886.749	-0.5
887.485	0.5
888.221	3.5
888.957	0.5
889.692	0.5
890.428	-0.5
891.163	2.5
891.899	0.5
892.634	-0.5
893.369	0.5
894.104	0.5
894.839	-0.5
895.574	2.5
896.309	2.5
897.044	2.5
897.779	1.5
898.514	-0.5
899.248	1.5
899.983	2.5
900.717	-2.5
901.452	4.5
902.186	-0.5
902.92	-0.5
903.654	-0.5
904.389	1.5
905.123	1.5
905.857	-1.5
906.59	0.5
907.324	1.5
908.058	-1.5
908.792	0.5
909.525	0.5
910.259	1.5
910.992	-0.5
911.726	0.5
912.459	-1.5
913.192	-1.5
913.925	1.5
914.658	0.5
915.391	0.5
916.124	-0.5
916.857	-0.5
917.59	1.5
918.323	0.5
919.055	-0.5
919.788	1.5
920.521	0.5
921.253	1.5
921.985	-2.5
922.718	3.5
923.45	-1.5
924.182	0.5
924.914	-0.5
925.646	0.5
926.378	-1.5
927.11	0.5
927.841	0.5
928.573	-1.5
929.305	-0.5
930.036	-1.5
930.768	0.5
931.499	1.5
932.23	-1.5
932.962	0.5
933.693	-1.5
934.424	-0.5
935.155	-1.5
935.886	0.5
936.617	0.5
937.348	-1.5
938.078	0.5
938.809	-1.5
939.54	-2.5
940.27	-0.5
941.001	-1.5
941.731	-0.5
942.461	2.5
943.191	-0.5
943.922	2.5
944.652	0.5
945.382	0.5
946.112	0.5
946.841	1.5
947.571	1.5
948.301	-0.5
949.031	-1.5
949.76	-1.5
950.49	0.5
951.219	-1.5
951.948	0.5
952.678	-1.5
953.407	0.5
954.136	2.5
954.865	-0.5
955.594	-2.5
956.323	0.5
957.052	-1.5
957.78	1.5
958.509	-1.5
959.238	0.5
959.966	0.5
960.695	0.5
961.423	-1.5
962.151	0.5
962.88	-0.5
963.608	0.5
964.336	-1.5
965.064	0.5
965.792	-1.5
966.52	1.5
967.247	-0.5
967.975	0.5
968.703	0.5
969.43	2.5
970.158	-0.5
970.885	-1.5
971.613	-1.5
972.34	-1.5
973.067	0.5
973.794	1.5
974.521	0.5
975.248	0.5
975.975	-2.5
976.702	0.5
977.429	0.5
978.156	-1.5
978.882	1.5
979.609	0.5
980.335	0.5
981.062	-1.5
981.788	0.5
982.514	-1.5
983.24	-0.5
983.967	1.5
984.693	2.5
985.419	1.5
986.144	-0.5
986.87	-0.5
987.596	-0.5
988.322	1.5
989.047	0.5
989.773	-2.5
990.498	0.5
991.224	-0.5
991.949	-0.5
992.674	-0.5
993.399	-1.5
994.124	-0.5
994.849	-1.5
995.574	-0.5
996.299	0.5
997.024	-0.5
997.749	-1.5
998.473	-0.5
999.198	-0.5
999.922	0.5
1000.647	0.5
1001.371	3.5
1002.095	-1.5
1002.82	0.5
1003.544	-2.5
1004.268	2.5
1004.992	3.5
1005.716	6.5
1006.439	4.5
1007.163	5.5
1007.887	4.5
1008.611	-0.5
1009.334	-1.5
1010.058	0.5
1010.781	0.5
1011.504	-1.5
1012.228	-1.5
1012.951	-1.5
1013.674	1.5
1014.397	-0.5
1015.12	0.5
