节点500_705_QEPB04081__525__20-53-21-739.txt的数据

Date: Wed Nov 12 20:53:21 CST 2025
User: PC
Spectrometer: QEPB0408
触发模式: 0
积分时间 (秒): 1.000000E-2
Scans to average: 1
启用暗噪声校正: true
启用非线性校正: false
滑动平均宽度: 0
X轴模式: Wavelengths
Number of Pixels in Spectrum: 1044
>>>>>Begin Spectral Data<<<<<
220.843	3.88
221.644	5.88
222.444	4.88
223.244	4.88
224.045	6.88
224.845	6.88
225.645	4.88
226.445	7.88
227.245	5.88
228.045	7.88
228.845	6.88
229.645	9.88
230.444	4.88
231.244	7.88
232.043	10.88
232.843	6.88
233.642	9.88
234.442	8.88
235.241	6.88
236.04	6.88
236.839	7.88
237.638	11.88
238.437	9.88
239.236	12.88
240.035	10.88
240.833	10.88
241.632	10.88
242.43	13.88
243.229	9.88
244.027	9.88
244.826	9.88
245.624	13.88
246.422	12.88
247.22	11.88
248.018	12.88
248.816	15.88
249.614	12.88
250.412	16.88
251.21	12.88
252.007	15.88
252.805	13.88
253.602	16.88
254.4	15.88
255.197	18.88
255.994	14.88
256.791	17.88
257.589	18.88
258.386	23.88
259.183	20.88
259.979	17.88
260.776	20.88
261.573	20.88
262.37	21.88
263.166	21.88
263.963	21.88
264.759	26.88
265.556	23.88
266.352	21.88
267.148	25.88
267.944	25.88
268.74	25.88
269.536	26.88
270.332	27.88
271.128	24.88
271.924	26.88
272.719	30.88
273.515	29.88
274.311	29.88
275.106	31.88
275.901	32.88
276.697	30.88
277.492	30.88
278.287	30.88
279.082	32.88
279.877	33.88
280.672	33.88
281.467	30.88
282.262	30.88
283.056	32.88
283.851	32.88
284.646	32.88
285.44	29.88
286.234	31.88
287.029	28.88
287.823	29.88
288.617	34.88
289.411	32.88
290.205	32.88
290.999	29.88
291.793	30.88
292.587	30.88
293.381	33.88
294.174	28.88
294.968	29.88
295.761	23.88
296.555	24.88
297.348	26.88
298.141	25.88
298.935	26.88
299.728	23.88
300.521	22.88
301.314	22.88
302.107	22.88
302.899	23.88
303.692	23.88
304.485	21.88
305.277	20.88
306.07	17.88
306.862	22.88
307.655	21.88
308.447	21.88
309.239	18.88
310.031	18.88
310.823	17.88
311.615	19.88
312.407	16.88
313.199	17.88
313.991	17.88
314.783	16.88
315.574	15.88
316.366	17.88
317.157	14.88
317.949	14.88
318.74	13.88
319.531	14.88
320.322	14.88
321.113	15.88
321.904	11.88
322.695	12.88
323.486	13.88
324.277	13.88
325.068	10.88
325.858	12.88
326.649	11.88
327.439	12.88
328.23	14.88
329.02	14.88
329.81	14.88
330.6	12.88
331.391	11.88
332.181	12.88
332.971	12.88
333.76	9.88
334.55	10.88
335.34	13.88
336.13	11.88
336.919	8.88
337.709	10.88
338.498	12.88
339.287	9.88
340.077	10.88
340.866	7.88
341.655	12.88
342.444	8.88
343.233	11.88
344.022	11.88
344.811	9.88
345.6	9.88
346.388	8.88
347.177	12.88
347.965	10.88
348.754	10.88
349.542	10.88
350.33	12.88
351.119	10.88
351.907	8.88
352.695	11.88
353.483	9.88
354.271	13.88
355.059	10.88
355.846	6.88
356.634	10.88
357.422	9.88
358.209	8.88
358.997	8.88
359.784	10.88
360.571	11.88
361.359	7.88
362.146	10.88
362.933	8.88
363.72	10.88
364.507	8.88
365.294	9.88
366.081	10.88
366.867	7.88
367.654	9.88
368.44	8.88
369.227	8.88
370.013	8.88
370.8	6.88
371.586	8.88
372.372	7.88
373.158	7.88
373.944	7.88
374.73	7.88
375.516	8.88
376.302	7.88
377.088	9.88
377.873	8.88
378.659	9.88
379.445	9.88
380.23	8.88
381.015	9.88
381.801	9.88
382.586	8.88
383.371	10.88
384.156	7.88
384.941	10.88
385.726	10.88
386.511	9.88
387.296	10.88
388.08	9.88
388.865	9.88
389.649	10.88
390.434	9.88
391.218	12.88
392.003	8.88
392.787	11.88
393.571	11.88
394.355	12.88
395.139	10.88
395.923	11.88
396.707	12.88
397.491	11.88
398.274	10.88
399.058	12.88
399.842	16.88
400.625	12.88
401.408	13.88
402.192	13.88
402.975	12.88
403.758	12.88
404.541	12.88
405.324	12.88
406.107	14.88
406.89	14.88
407.673	13.88
408.456	14.88
409.238	14.88
410.021	16.88
410.803	14.88
411.586	16.88
412.368	14.88
413.151	14.88
413.933	16.88
414.715	17.88
415.497	17.88
416.279	19.88
417.061	16.88
417.843	16.88
418.624	19.88
419.406	20.88
420.188	17.88
420.969	17.88
421.751	20.88
422.532	21.88
423.313	19.88
424.095	24.88
424.876	23.88
425.657	25.88
426.438	21.88
427.219	25.88
428	28.88
428.78	26.88
429.561	27.88
430.342	28.88
431.122	27.88
431.903	30.88
432.683	33.88
433.464	36.88
434.244	34.88
435.024	37.88
435.804	42.88
436.584	42.88
437.364	44.88
438.144	46.88
438.924	50.88
439.704	55.88
440.483	54.88
441.263	62.88
442.042	65.88
442.822	70.88
443.601	75.88
444.38	84.88
445.16	88.88
445.939	90.88
446.718	103.88
447.497	113.88
448.276	126.88
449.054	137.88
449.833	151.88
450.612	169.88
451.391	186.88
452.169	206.88
452.948	225.88
453.726	251.88
454.504	274.88
455.282	313.88
456.061	353.88
456.839	390.88
457.617	434.88
458.395	482.88
459.172	535.88
459.95	592.88
460.728	657.88
461.506	738.88
462.283	823.88
463.061	918.88
463.838	1015.88
464.615	1122.88
465.393	1249.88
466.17	1375.88
466.947	1513.88
467.724	1696.88
468.501	1879.88
469.278	2058.88
470.055	2277.88
470.831	2516.88
471.608	2752.88
472.385	3017.88
473.161	3324.88
473.938	3643.88
474.714	3978.88
475.49	4336.88
476.266	4745.88
477.043	5182.88
477.819	5648.88
478.595	6147.88
479.371	6637.88
480.146	7244.88
480.922	7904.88
481.698	8565.88
482.473	9315.88
483.249	10093.88
484.024	10929.88
484.8	11788.88
485.575	12709.88
486.35	13743.88
487.126	14816.88
487.901	15955.88
488.676	17170.88
489.451	18537.88
490.225	19866.88
491	21232.88
491.775	22694.88
492.55	24282.88
493.324	25802.88
494.099	27352.88
494.873	29004.88
495.647	30737.88
496.422	32263.88
497.196	33995.88
497.97	35505.88
498.744	36997.88
499.518	38517.88
500.292	39841.88
501.066	40970.88
501.839	41928.88
502.613	42804.88
503.387	43492.88
504.16	44089.88
504.934	44417.88
505.707	44714.88
506.48	44514.88
507.253	44176.88
508.027	43912.88
508.8	43187.88
509.573	42413.88
510.346	41612.88
511.118	40735.88
511.891	39717.88
512.664	38420.88
513.437	37063.88
514.209	35750.88
514.982	34488.88
515.754	33223.88
516.526	31856.88
517.298	30628.88
518.071	29564.88
518.843	28352.88
519.615	27170.88
520.387	26150.88
521.159	25159.88
521.93	24076.88
522.702	23153.88
523.474	22165.88
524.245	21270.88
525.017	20414.88
525.788	19494.88
526.56	18704.88
527.331	18014.88
528.102	17012.88
528.873	16299.88
529.644	15498.88
530.415	14811.88
531.186	14103.88
531.957	13400.88
532.728	12697.88
533.498	12106.88
534.269	11475.88
535.039	10868.88
535.81	10315.88
536.58	9748.88
537.351	9213.88
538.121	8730.88
538.891	8278.88
539.661	7822.88
540.431	7397.88
541.201	7025.88
541.971	6648.88
542.741	6301.88
543.51	5976.88
544.28	5690.88
545.05	5446.88
545.819	5173.88
546.588	4919.88
547.358	4698.88
548.127	4442.88
548.896	4263.88
549.665	4046.88
550.434	3821.88
551.203	3632.88
551.972	3434.88
552.741	3264.88
553.51	3076.88
554.278	2901.88
555.047	2730.88
555.815	2587.88
556.584	2455.88
557.352	2317.88
558.121	2213.88
558.889	2073.88
559.657	1964.88
560.425	1868.88
561.193	1759.88
561.961	1673.88
562.729	1568.88
563.496	1483.88
564.264	1408.88
565.032	1336.88
565.799	1254.88
566.567	1196.88
567.334	1115.88
568.101	1058.88
568.869	1010.88
569.636	956.88
570.403	888.88
571.17	847.88
571.937	807.88
572.704	756.88
573.471	711.88
574.237	674.88
575.004	628.88
575.771	594.88
576.537	560.88
577.303	534.88
578.07	502.88
578.836	475.88
579.602	450.88
580.368	426.88
581.134	411.88
581.9	381.88
582.666	365.88
583.432	353.88
584.198	328.88
584.964	321.88
585.729	303.88
586.495	285.88
587.26	274.88
588.025	247.88
588.791	242.88
589.556	232.88
590.321	217.88
591.086	202.88
591.851	190.88
592.616	185.88
593.381	175.88
594.146	170.88
594.911	158.88
595.675	153.88
596.44	147.88
597.204	139.88
597.969	136.88
598.733	129.88
599.497	114.88
600.261	116.88
601.025	115.88
601.79	108.88
602.553	101.88
603.317	99.88
604.081	94.88
604.845	94.88
605.609	89.88
606.372	88.88
607.136	80.88
607.899	76.88
608.662	76.88
609.426	73.88
610.189	72.88
610.952	63.88
611.715	62.88
612.478	64.88
613.241	59.88
614.004	57.88
614.767	55.88
615.529	56.88
616.292	56.88
617.055	52.88
617.817	46.88
618.579	50.88
619.342	40.88
620.104	44.88
620.866	39.88
621.628	39.88
622.39	41.88
623.152	40.88
623.914	35.88
624.676	37.88
625.438	35.88
626.199	32.88
626.961	32.88
627.722	31.88
628.484	28.88
629.245	30.88
630.006	27.88
630.768	29.88
631.529	26.88
632.29	24.88
633.051	23.88
633.812	24.88
634.573	24.88
635.333	21.88
636.094	25.88
636.855	21.88
637.615	20.88
638.376	22.88
639.136	19.88
639.896	19.88
640.657	21.88
641.417	20.88
642.177	19.88
642.937	17.88
643.697	17.88
644.457	19.88
645.216	17.88
645.976	18.88
646.736	16.88
647.495	16.88
648.255	14.88
649.014	14.88
649.774	13.88
650.533	15.88
651.292	13.88
652.051	10.88
652.81	13.88
653.569	12.88
654.328	13.88
655.087	10.88
655.846	13.88
656.604	11.88
657.363	12.88
658.121	13.88
658.88	11.88
659.638	8.88
660.397	11.88
661.155	10.88
661.913	9.88
662.671	12.88
663.429	10.88
664.187	9.88
664.945	9.88
665.703	11.88
666.46	9.88
667.218	7.88
667.976	10.88
668.733	11.88
669.49	8.88
670.248	9.88
671.005	7.88
671.762	10.88
672.519	10.88
673.276	10.88
674.033	5.88
674.79	8.88
675.547	8.88
676.304	9.88
677.06	8.88
677.817	8.88
678.574	8.88
679.33	7.88
680.086	6.88
680.843	8.88
681.599	6.88
682.355	7.88
683.111	9.88
683.867	7.88
684.623	9.88
685.379	8.88
686.135	7.88
686.89	8.88
687.646	3.88
688.402	5.88
689.157	8.88
689.912	8.88
690.668	7.88
691.423	4.88
692.178	7.88
692.933	8.88
693.688	8.88
694.443	7.88
695.198	5.88
695.953	7.88
696.708	6.88
697.462	7.88
698.217	4.88
698.972	5.88
699.726	8.88
700.48	4.88
701.235	8.88
701.989	8.88
702.743	6.88
703.497	6.88
704.251	7.88
705.005	6.88
705.759	6.88
706.513	5.88
707.266	8.88
708.02	6.88
708.774	7.88
709.527	7.88
710.28	5.88
711.034	6.88
711.787	5.88
712.54	6.88
713.293	8.88
714.046	9.88
714.799	6.88
715.552	4.88
716.305	7.88
717.058	6.88
717.81	7.88
718.563	6.88
719.315	7.88
720.068	8.88
720.82	9.88
721.573	6.88
722.325	7.88
723.077	6.88
723.829	6.88
724.581	7.88
725.333	6.88
726.085	5.88
726.836	8.88
727.588	6.88
728.34	6.88
729.091	6.88
729.843	7.88
730.594	5.88
731.346	8.88
732.097	6.88
732.848	7.88
733.599	8.88
734.35	8.88
735.101	8.88
735.852	8.88
736.603	8.88
737.354	8.88
738.104	8.88
738.855	6.88
739.605	7.88
740.356	9.88
741.106	9.88
741.856	8.88
742.607	10.88
743.357	10.88
744.107	9.88
744.857	10.88
745.607	10.88
746.357	7.88
747.106	10.88
747.856	7.88
748.606	8.88
749.355	9.88
750.105	10.88
750.854	10.88
751.603	10.88
752.353	10.88
753.102	9.88
753.851	8.88
754.6	10.88
755.349	11.88
756.098	9.88
756.847	11.88
757.595	11.88
758.344	7.88
759.093	10.88
759.841	10.88
760.589	11.88
761.338	12.88
762.086	8.88
762.834	11.88
763.582	11.88
764.331	12.88
765.079	12.88
765.826	10.88
766.574	11.88
767.322	11.88
768.07	12.88
768.817	12.88
769.565	16.88
770.312	12.88
771.06	13.88
771.807	13.88
772.554	13.88
773.302	12.88
774.049	13.88
774.796	15.88
775.543	11.88
776.29	13.88
777.036	14.88
777.783	15.88
778.53	15.88
779.276	12.88
780.023	14.88
780.769	13.88
781.516	14.88
782.262	15.88
783.008	15.88
783.754	13.88
784.5	17.88
785.246	15.88
785.992	14.88
786.738	12.88
787.484	14.88
788.23	14.88
788.975	12.88
789.721	14.88
790.466	11.88
791.212	13.88
791.957	12.88
792.702	13.88
793.447	14.88
794.193	13.88
794.938	13.88
795.683	10.88
796.427	13.88
797.172	11.88
797.917	14.88
798.662	10.88
799.406	11.88
800.151	11.88
800.895	11.88
801.64	12.88
802.384	12.88
803.128	10.88
803.872	13.88
804.616	10.88
805.36	10.88
806.104	10.88
806.848	8.88
807.592	8.88
808.336	9.88
809.079	10.88
809.823	8.88
810.566	7.88
811.31	8.88
812.053	8.88
812.796	9.88
813.539	10.88
814.283	8.88
815.026	7.88
815.769	7.88
816.511	7.88
817.254	9.88
817.997	5.88
818.74	6.88
819.482	9.88
820.225	6.88
820.967	9.88
821.71	7.88
822.452	7.88
823.194	6.88
823.936	6.88
824.678	7.88
825.42	6.88
826.162	6.88
826.904	5.88
827.646	7.88
828.388	5.88
829.129	7.88
829.871	6.88
830.612	5.88
831.354	3.88
832.095	6.88
832.836	4.88
833.577	6.88
834.319	5.88
835.06	4.88
835.801	5.88
836.542	4.88
837.282	6.88
838.023	2.88
838.764	6.88
839.504	5.88
840.245	2.88
840.985	2.88
841.726	4.88
842.466	4.88
843.206	5.88
843.946	7.88
844.687	4.88
845.427	3.88
846.166	5.88
846.906	5.88
847.646	5.88
848.386	4.88
849.125	3.88
849.865	4.88
850.605	4.88
851.344	5.88
852.083	3.88
852.823	4.88
853.562	4.88
854.301	2.88
855.04	3.88
855.779	2.88
856.518	5.88
857.257	2.88
857.995	2.88
858.734	2.88
859.473	2.88
860.211	1.88
860.95	3.88
861.688	3.88
862.426	3.88
863.165	3.88
863.903	3.88
864.641	1.88
865.379	4.88
866.117	3.88
866.855	2.88
867.593	1.88
868.33	0.88
869.068	2.88
869.806	2.88
870.543	3.88
871.28	1.88
872.018	1.88
872.755	1.88
873.492	1.88
874.229	2.88
874.967	-0.12
875.703	0.88
876.44	3.88
877.177	1.88
877.914	1.88
878.651	0.88
879.387	2.88
880.124	-0.12
880.86	3.88
881.597	1.88
882.333	-0.12
883.069	1.88
883.806	0.88
884.542	1.88
885.278	1.88
886.014	1.88
886.749	0.88
887.485	1.88
888.221	0.88
888.957	1.88
889.692	1.88
890.428	1.88
891.163	1.88
891.899	2.88
892.634	0.88
893.369	-0.12
894.104	1.88
894.839	2.88
895.574	-1.12
896.309	-0.12
897.044	1.88
897.779	-1.12
898.514	1.88
899.248	-0.12
899.983	2.88
900.717	0.88
901.452	-0.12
902.186	2.88
902.92	0.88
903.654	1.88
904.389	1.88
905.123	0.88
905.857	2.88
906.59	-0.12
907.324	0.88
908.058	0.88
908.792	-1.12
909.525	2.88
910.259	-0.12
910.992	0.88
911.726	-0.12
912.459	1.88
913.192	0.88
913.925	0.88
914.658	0.88
915.391	-1.12
916.124	-0.12
916.857	-2.12
917.59	1.88
918.323	-1.12
919.055	0.88
919.788	-0.12
920.521	-1.12
921.253	0.88
921.985	-0.12
922.718	0.88
923.45	0.88
924.182	-0.12
924.914	1.88
925.646	-0.12
926.378	1.88
927.11	1.88
927.841	-1.12
928.573	0.88
929.305	-0.12
930.036	1.88
930.768	-1.12
931.499	0.88
932.23	2.88
932.962	-1.12
933.693	0.88
934.424	-3.12
935.155	-1.12
935.886	5.88
936.617	-2.12
937.348	1.88
938.078	-0.12
938.809	1.88
939.54	0.88
940.27	0.88
941.001	-1.12
941.731	-1.12
942.461	0.88
943.191	-1.12
943.922	0.88
944.652	0.88
945.382	1.88
946.112	0.88
946.841	0.88
947.571	0.88
948.301	0.88
949.031	-1.12
949.76	0.88
950.49	-0.12
951.219	-0.12
951.948	0.88
952.678	0.88
953.407	-1.12
954.136	-0.12
954.865	-0.12
955.594	0.88
956.323	1.88
957.052	-0.12
957.78	-0.12
958.509	-0.12
959.238	-0.12
959.966	-2.12
960.695	1.88
961.423	2.88
962.151	-0.12
962.88	-0.12
963.608	0.88
964.336	-1.12
965.064	0.88
965.792	-1.12
966.52	0.88
967.247	-0.12
967.975	-1.12
968.703	-2.12
969.43	0.88
970.158	2.88
970.885	0.88
971.613	0.88
972.34	-0.12
973.067	0.88
973.794	1.88
974.521	-0.12
975.248	-0.12
975.975	0.88
976.702	0.88
977.429	-1.12
978.156	-1.12
978.882	1.88
979.609	-1.12
980.335	1.88
981.062	-1.12
981.788	-1.12
982.514	0.88
983.24	-1.12
983.967	0.88
984.693	0.88
985.419	1.88
986.144	-1.12
986.87	1.88
987.596	-1.12
988.322	-1.12
989.047	0.88
989.773	0.88
990.498	-1.12
991.224	0.88
991.949	-1.12
992.674	1.88
993.399	-0.12
994.124	1.88
994.849	-0.12
995.574	-0.12
996.299	-0.12
997.024	-1.12
997.749	-0.12
998.473	-0.12
999.198	-0.12
999.922	1.88
1000.647	-1.12
1001.371	6.88
1002.095	-2.12
1002.82	-3.12
1003.544	-1.12
1004.268	4.88
1004.992	5.88
1005.716	3.88
1006.439	5.88
1007.163	2.88
1007.887	4.88
1008.611	1.88
1009.334	-0.12
1010.058	0.88
1010.781	3.88
1011.504	1.88
1012.228	0.88
1012.951	-2.12
1013.674	0.88
1014.397	-0.12
1015.12	0.88
