节点500_705_QEPB04081__255__20-49-33-443.txt的数据

Date: Wed Nov 12 20:49:33 CST 2025
User: PC
Spectrometer: QEPB0408
触发模式: 0
积分时间 (秒): 1.000000E-2
Scans to average: 1
启用暗噪声校正: true
启用非线性校正: false
滑动平均宽度: 0
X轴模式: Wavelengths
Number of Pixels in Spectrum: 1044
>>>>>Begin Spectral Data<<<<<
220.843	5.75
221.644	6.75
222.444	5.75
223.244	7.75
224.045	5.75
224.845	6.75
225.645	8.75
226.445	8.75
227.245	7.75
228.045	4.75
228.845	9.75
229.645	7.75
230.444	9.75
231.244	9.75
232.043	9.75
232.843	9.75
233.642	10.75
234.442	7.75
235.241	8.75
236.04	10.75
236.839	10.75
237.638	10.75
238.437	14.75
239.236	12.75
240.035	12.75
240.833	11.75
241.632	12.75
242.43	11.75
243.229	10.75
244.027	13.75
244.826	13.75
245.624	15.75
246.422	12.75
247.22	15.75
248.018	16.75
248.816	15.75
249.614	16.75
250.412	17.75
251.21	15.75
252.007	16.75
252.805	15.75
253.602	17.75
254.4	20.75
255.197	17.75
255.994	21.75
256.791	20.75
257.589	21.75
258.386	20.75
259.183	22.75
259.979	21.75
260.776	23.75
261.573	24.75
262.37	24.75
263.166	27.75
263.963	25.75
264.759	27.75
265.556	29.75
266.352	27.75
267.148	28.75
267.944	30.75
268.74	27.75
269.536	30.75
270.332	29.75
271.128	33.75
271.924	33.75
272.719	31.75
273.515	33.75
274.311	35.75
275.106	34.75
275.901	31.75
276.697	31.75
277.492	35.75
278.287	35.75
279.082	37.75
279.877	35.75
280.672	36.75
281.467	34.75
282.262	33.75
283.056	35.75
283.851	34.75
284.646	37.75
285.44	31.75
286.234	34.75
287.029	37.75
287.823	34.75
288.617	35.75
289.411	31.75
290.205	36.75
290.999	32.75
291.793	36.75
292.587	32.75
293.381	32.75
294.174	33.75
294.968	31.75
295.761	30.75
296.555	27.75
297.348	26.75
298.141	29.75
298.935	29.75
299.728	27.75
300.521	27.75
301.314	25.75
302.107	24.75
302.899	21.75
303.692	22.75
304.485	22.75
305.277	22.75
306.07	26.75
306.862	21.75
307.655	19.75
308.447	22.75
309.239	21.75
310.031	20.75
310.823	19.75
311.615	22.75
312.407	17.75
313.199	19.75
313.991	15.75
314.783	17.75
315.574	15.75
316.366	15.75
317.157	15.75
317.949	15.75
318.74	17.75
319.531	14.75
320.322	13.75
321.113	13.75
321.904	13.75
322.695	17.75
323.486	12.75
324.277	14.75
325.068	15.75
325.858	13.75
326.649	15.75
327.439	13.75
328.23	13.75
329.02	12.75
329.81	11.75
330.6	11.75
331.391	13.75
332.181	13.75
332.971	13.75
333.76	12.75
334.55	13.75
335.34	11.75
336.13	13.75
336.919	13.75
337.709	14.75
338.498	10.75
339.287	10.75
340.077	13.75
340.866	12.75
341.655	13.75
342.444	13.75
343.233	11.75
344.022	14.75
344.811	13.75
345.6	11.75
346.388	11.75
347.177	13.75
347.965	14.75
348.754	11.75
349.542	11.75
350.33	11.75
351.119	11.75
351.907	9.75
352.695	11.75
353.483	11.75
354.271	11.75
355.059	11.75
355.846	14.75
356.634	10.75
357.422	9.75
358.209	10.75
358.997	11.75
359.784	12.75
360.571	11.75
361.359	9.75
362.146	8.75
362.933	11.75
363.72	10.75
364.507	9.75
365.294	8.75
366.081	11.75
366.867	8.75
367.654	8.75
368.44	14.75
369.227	10.75
370.013	11.75
370.8	10.75
371.586	10.75
372.372	11.75
373.158	10.75
373.944	11.75
374.73	9.75
375.516	10.75
376.302	12.75
377.088	9.75
377.873	11.75
378.659	12.75
379.445	10.75
380.23	11.75
381.015	12.75
381.801	9.75
382.586	7.75
383.371	10.75
384.156	10.75
384.941	11.75
385.726	11.75
386.511	12.75
387.296	12.75
388.08	12.75
388.865	12.75
389.649	9.75
390.434	14.75
391.218	14.75
392.003	10.75
392.787	12.75
393.571	11.75
394.355	15.75
395.139	14.75
395.923	11.75
396.707	13.75
397.491	12.75
398.274	13.75
399.058	12.75
399.842	14.75
400.625	13.75
401.408	18.75
402.192	15.75
402.975	15.75
403.758	15.75
404.541	14.75
405.324	15.75
406.107	16.75
406.89	14.75
407.673	13.75
408.456	15.75
409.238	14.75
410.021	16.75
410.803	15.75
411.586	17.75
412.368	16.75
413.151	19.75
413.933	18.75
414.715	20.75
415.497	18.75
416.279	20.75
417.061	21.75
417.843	18.75
418.624	20.75
419.406	21.75
420.188	23.75
420.969	21.75
421.751	23.75
422.532	22.75
423.313	21.75
424.095	26.75
424.876	24.75
425.657	26.75
426.438	26.75
427.219	24.75
428	29.75
428.78	28.75
429.561	30.75
430.342	31.75
431.122	32.75
431.903	32.75
432.683	34.75
433.464	34.75
434.244	38.75
435.024	39.75
435.804	41.75
436.584	44.75
437.364	47.75
438.144	49.75
438.924	53.75
439.704	53.75
440.483	57.75
441.263	63.75
442.042	61.75
442.822	65.75
443.601	73.75
444.38	79.75
445.16	86.75
445.939	94.75
446.718	99.75
447.497	107.75
448.276	115.75
449.054	132.75
449.833	144.75
450.612	161.75
451.391	174.75
452.169	193.75
452.948	205.75
453.726	232.75
454.504	259.75
455.282	292.75
456.061	324.75
456.839	361.75
457.617	399.75
458.395	451.75
459.172	496.75
459.95	565.75
460.728	622.75
461.506	697.75
462.283	779.75
463.061	865.75
463.838	976.75
464.615	1070.75
465.393	1182.75
466.17	1338.75
466.947	1482.75
467.724	1638.75
468.501	1828.75
469.278	2029.75
470.055	2262.75
470.831	2478.75
471.608	2747.75
472.385	3036.75
473.161	3356.75
473.938	3692.75
474.714	4067.75
475.49	4511.75
476.266	4918.75
477.043	5365.75
477.819	5854.75
478.595	6400.75
479.371	7020.75
480.146	7680.75
480.922	8424.75
481.698	9158.75
482.473	10031.75
483.249	10907.75
484.024	11878.75
484.8	12867.75
485.575	14016.75
486.35	15235.75
487.126	16458.75
487.901	17801.75
488.676	19250.75
489.451	20847.75
490.225	22343.75
491	23975.75
491.775	25737.75
492.55	27530.75
493.324	29292.75
494.099	31121.75
494.873	32973.75
495.647	34791.75
496.422	36723.75
497.196	38450.75
497.97	40209.75
498.744	41797.75
499.518	43342.75
500.292	44619.75
501.066	45655.75
501.839	46462.75
502.613	47173.75
503.387	47867.75
504.16	48100.75
504.934	48157.75
505.707	48015.75
506.48	47466.75
507.253	46895.75
508.027	46061.75
508.8	45021.75
509.573	43958.75
510.346	42765.75
511.118	41657.75
511.891	40302.75
512.664	38787.75
513.437	37137.75
514.209	35778.75
514.982	34397.75
515.754	32934.75
516.526	31601.75
517.298	30296.75
518.071	29099.75
518.843	27931.75
519.615	26791.75
520.387	25751.75
521.159	24736.75
521.93	23643.75
522.702	22669.75
523.474	21732.75
524.245	20793.75
525.017	19837.75
525.788	18977.75
526.56	18160.75
527.331	17375.75
528.102	16507.75
528.873	15631.75
529.644	14921.75
530.415	14187.75
531.186	13496.75
531.957	12768.75
532.728	12088.75
533.498	11462.75
534.269	10832.75
535.039	10292.75
535.81	9721.75
536.58	9231.75
537.351	8683.75
538.121	8219.75
538.891	7784.75
539.661	7381.75
540.431	6934.75
541.201	6635.75
541.971	6291.75
542.741	5955.75
543.51	5641.75
544.28	5383.75
545.05	5133.75
545.819	4881.75
546.588	4641.75
547.358	4421.75
548.127	4195.75
548.896	3987.75
549.665	3770.75
550.434	3597.75
551.203	3397.75
551.972	3221.75
552.741	3033.75
553.51	2872.75
554.278	2705.75
555.047	2553.75
555.815	2418.75
556.584	2276.75
557.352	2150.75
558.121	2031.75
558.889	1908.75
559.657	1828.75
560.425	1728.75
561.193	1635.75
561.961	1529.75
562.729	1446.75
563.496	1373.75
564.264	1303.75
565.032	1229.75
565.799	1171.75
566.567	1106.75
567.334	1040.75
568.101	974.75
568.869	932.75
569.636	887.75
570.403	829.75
571.17	776.75
571.937	745.75
572.704	701.75
573.471	664.75
574.237	619.75
575.004	586.75
575.771	551.75
576.537	513.75
577.303	494.75
578.07	458.75
578.836	443.75
579.602	412.75
580.368	396.75
581.134	370.75
581.9	352.75
582.666	331.75
583.432	325.75
584.198	301.75
584.964	293.75
585.729	283.75
586.495	262.75
587.26	247.75
588.025	238.75
588.791	227.75
589.556	210.75
590.321	200.75
591.086	198.75
591.851	181.75
592.616	169.75
593.381	158.75
594.146	161.75
594.911	149.75
595.675	146.75
596.44	139.75
597.204	131.75
597.969	126.75
598.733	118.75
599.497	113.75
600.261	114.75
601.025	104.75
601.79	101.75
602.553	96.75
603.317	88.75
604.081	88.75
604.845	86.75
605.609	82.75
606.372	81.75
607.136	74.75
607.899	73.75
608.662	70.75
609.426	71.75
610.189	66.75
610.952	64.75
611.715	62.75
612.478	55.75
613.241	58.75
614.004	57.75
614.767	54.75
615.529	49.75
616.292	48.75
617.055	47.75
617.817	47.75
618.579	44.75
619.342	46.75
620.104	43.75
620.866	40.75
621.628	35.75
622.39	40.75
623.152	37.75
623.914	37.75
624.676	35.75
625.438	33.75
626.199	32.75
626.961	35.75
627.722	31.75
628.484	29.75
629.245	30.75
630.006	30.75
630.768	27.75
631.529	27.75
632.29	26.75
633.051	26.75
633.812	27.75
634.573	25.75
635.333	23.75
636.094	22.75
636.855	23.75
637.615	22.75
638.376	22.75
639.136	18.75
639.896	19.75
640.657	19.75
641.417	18.75
642.177	19.75
642.937	19.75
643.697	16.75
644.457	16.75
645.216	19.75
645.976	15.75
646.736	16.75
647.495	17.75
648.255	14.75
649.014	13.75
649.774	15.75
650.533	11.75
651.292	15.75
652.051	15.75
652.81	15.75
653.569	14.75
654.328	13.75
655.087	13.75
655.846	12.75
656.604	14.75
657.363	11.75
658.121	11.75
658.88	10.75
659.638	14.75
660.397	12.75
661.155	12.75
661.913	11.75
662.671	11.75
663.429	10.75
664.187	9.75
664.945	12.75
665.703	9.75
666.46	9.75
667.218	13.75
667.976	10.75
668.733	9.75
669.49	10.75
670.248	7.75
671.005	9.75
671.762	10.75
672.519	10.75
673.276	9.75
674.033	8.75
674.79	9.75
675.547	9.75
676.304	9.75
677.06	9.75
677.817	10.75
678.574	9.75
679.33	9.75
680.086	7.75
680.843	10.75
681.599	8.75
682.355	10.75
683.111	8.75
683.867	9.75
684.623	8.75
685.379	9.75
686.135	7.75
686.89	8.75
687.646	9.75
688.402	10.75
689.157	8.75
689.912	7.75
690.668	6.75
691.423	8.75
692.178	9.75
692.933	7.75
693.688	8.75
694.443	9.75
695.198	8.75
695.953	8.75
696.708	10.75
697.462	9.75
698.217	9.75
698.972	9.75
699.726	6.75
700.48	8.75
701.235	10.75
701.989	9.75
702.743	9.75
703.497	6.75
704.251	11.75
705.005	8.75
705.759	9.75
706.513	10.75
707.266	7.75
708.02	9.75
708.774	7.75
709.527	8.75
710.28	7.75
711.034	8.75
711.787	6.75
712.54	8.75
713.293	9.75
714.046	9.75
714.799	7.75
715.552	4.75
716.305	8.75
717.058	8.75
717.81	8.75
718.563	8.75
719.315	7.75
720.068	9.75
720.82	7.75
721.573	9.75
722.325	10.75
723.077	7.75
723.829	10.75
724.581	8.75
725.333	8.75
726.085	7.75
726.836	6.75
727.588	10.75
728.34	7.75
729.091	6.75
729.843	11.75
730.594	9.75
731.346	10.75
732.097	9.75
732.848	8.75
733.599	10.75
734.35	10.75
735.101	9.75
735.852	11.75
736.603	9.75
737.354	10.75
738.104	11.75
738.855	9.75
739.605	12.75
740.356	9.75
741.106	10.75
741.856	11.75
742.607	10.75
743.357	12.75
744.107	11.75
744.857	10.75
745.607	10.75
746.357	12.75
747.106	11.75
747.856	11.75
748.606	11.75
749.355	11.75
750.105	13.75
750.854	11.75
751.603	11.75
752.353	13.75
753.102	10.75
753.851	11.75
754.6	11.75
755.349	12.75
756.098	12.75
756.847	12.75
757.595	15.75
758.344	11.75
759.093	11.75
759.841	10.75
760.589	16.75
761.338	13.75
762.086	15.75
762.834	14.75
763.582	12.75
764.331	15.75
765.079	15.75
765.826	14.75
766.574	14.75
767.322	17.75
768.07	14.75
768.817	14.75
769.565	15.75
770.312	16.75
771.06	15.75
771.807	15.75
772.554	18.75
773.302	17.75
774.049	16.75
774.796	13.75
775.543	16.75
776.29	13.75
777.036	15.75
777.783	15.75
778.53	15.75
779.276	17.75
780.023	14.75
780.769	17.75
781.516	14.75
782.262	17.75
783.008	18.75
783.754	17.75
784.5	15.75
785.246	16.75
785.992	17.75
786.738	16.75
787.484	17.75
788.23	17.75
788.975	14.75
789.721	18.75
790.466	14.75
791.212	13.75
791.957	17.75
792.702	15.75
793.447	14.75
794.193	12.75
794.938	13.75
795.683	15.75
796.427	14.75
797.172	15.75
797.917	15.75
798.662	14.75
799.406	12.75
800.151	15.75
800.895	10.75
801.64	15.75
802.384	10.75
803.128	10.75
803.872	14.75
804.616	11.75
805.36	13.75
806.104	11.75
806.848	9.75
807.592	11.75
808.336	10.75
809.079	11.75
809.823	10.75
810.566	9.75
811.31	10.75
812.053	9.75
812.796	9.75
813.539	11.75
814.283	8.75
815.026	9.75
815.769	10.75
816.511	8.75
817.254	6.75
817.997	10.75
818.74	7.75
819.482	10.75
820.225	8.75
820.967	9.75
821.71	10.75
822.452	5.75
823.194	8.75
823.936	7.75
824.678	9.75
825.42	8.75
826.162	5.75
826.904	7.75
827.646	7.75
828.388	7.75
829.129	5.75
829.871	6.75
830.612	9.75
831.354	8.75
832.095	5.75
832.836	6.75
833.577	8.75
834.319	7.75
835.06	6.75
835.801	7.75
836.542	4.75
837.282	7.75
838.023	6.75
838.764	6.75
839.504	5.75
840.245	4.75
840.985	4.75
841.726	5.75
842.466	3.75
843.206	5.75
843.946	3.75
844.687	6.75
845.427	8.75
846.166	7.75
846.906	6.75
847.646	6.75
848.386	4.75
849.125	5.75
849.865	5.75
850.605	4.75
851.344	6.75
852.083	5.75
852.823	5.75
853.562	4.75
854.301	3.75
855.04	4.75
855.779	4.75
856.518	6.75
857.257	2.75
857.995	2.75
858.734	5.75
859.473	5.75
860.211	3.75
860.95	4.75
861.688	3.75
862.426	5.75
863.165	5.75
863.903	3.75
864.641	2.75
865.379	0.75
866.117	1.75
866.855	3.75
867.593	3.75
868.33	6.75
869.068	2.75
869.806	4.75
870.543	1.75
871.28	2.75
872.018	-0.25
872.755	3.75
873.492	4.75
874.229	4.75
874.967	3.75
875.703	0.75
876.44	2.75
877.177	1.75
877.914	1.75
878.651	2.75
879.387	0.75
880.124	1.75
880.86	2.75
881.597	2.75
882.333	0.75
883.069	0.75
883.806	3.75
884.542	0.75
885.278	1.75
886.014	0.75
886.749	0.75
887.485	1.75
888.221	1.75
888.957	3.75
889.692	2.75
890.428	3.75
891.163	2.75
891.899	2.75
892.634	1.75
893.369	0.75
894.104	2.75
894.839	2.75
895.574	1.75
896.309	3.75
897.044	1.75
897.779	1.75
898.514	-0.25
899.248	2.75
899.983	1.75
900.717	1.75
901.452	1.75
902.186	2.75
902.92	4.75
903.654	1.75
904.389	1.75
905.123	0.75
905.857	3.75
906.59	2.75
907.324	-0.25
908.058	2.75
908.792	1.75
909.525	0.75
910.259	3.75
910.992	2.75
911.726	2.75
912.459	0.75
913.192	1.75
913.925	1.75
914.658	2.75
915.391	1.75
916.124	0.75
916.857	1.75
917.59	-0.25
918.323	0.75
919.055	1.75
919.788	2.75
920.521	2.75
921.253	1.75
921.985	1.75
922.718	1.75
923.45	4.75
924.182	3.75
924.914	0.75
925.646	0.75
926.378	-0.25
927.11	1.75
927.841	2.75
928.573	-0.25
929.305	2.75
930.036	2.75
930.768	0.75
931.499	0.75
932.23	1.75
932.962	1.75
933.693	1.75
934.424	-0.25
935.155	-0.25
935.886	1.75
936.617	0.75
937.348	-0.25
938.078	0.75
938.809	1.75
939.54	0.75
940.27	0.75
941.001	0.75
941.731	1.75
942.461	1.75
943.191	2.75
943.922	-0.25
944.652	1.75
945.382	2.75
946.112	-0.25
946.841	3.75
947.571	1.75
948.301	1.75
949.031	2.75
949.76	1.75
950.49	-0.25
951.219	0.75
951.948	0.75
952.678	2.75
953.407	1.75
954.136	-0.25
954.865	2.75
955.594	0.75
956.323	0.75
957.052	2.75
957.78	1.75
958.509	-0.25
959.238	1.75
959.966	1.75
960.695	2.75
961.423	-0.25
962.151	0.75
962.88	0.75
963.608	0.75
964.336	0.75
965.064	-0.25
965.792	-1.25
966.52	1.75
967.247	1.75
967.975	1.75
968.703	1.75
969.43	0.75
970.158	0.75
970.885	1.75
971.613	-0.25
972.34	1.75
973.067	0.75
973.794	0.75
974.521	-0.25
975.248	-1.25
975.975	0.75
976.702	1.75
977.429	1.75
978.156	1.75
978.882	0.75
979.609	1.75
980.335	1.75
981.062	1.75
981.788	1.75
982.514	1.75
983.24	1.75
983.967	2.75
984.693	1.75
985.419	0.75
986.144	-0.25
986.87	0.75
987.596	-0.25
988.322	0.75
989.047	-1.25
989.773	0.75
990.498	3.75
991.224	0.75
991.949	0.75
992.674	1.75
993.399	0.75
994.124	-0.25
994.849	-0.25
995.574	-0.25
996.299	2.75
997.024	1.75
997.749	0.75
998.473	0.75
999.198	0.75
999.922	0.75
1000.647	1.75
1001.371	4.75
1002.095	-1.25
1002.82	-2.25
1003.544	-1.25
1004.268	3.75
1004.992	7.75
1005.716	5.75
1006.439	3.75
1007.163	5.75
1007.887	8.75
1008.611	0.75
1009.334	2.75
1010.058	1.75
1010.781	2.75
1011.504	0.75
1012.228	2.75
1012.951	1.75
1013.674	-0.25
1014.397	0.75
1015.12	-2.25
