节点500_705_QEPB04081__68__20-47-01-292.txt的数据

Date: Wed Nov 12 20:47:01 CST 2025
User: PC
Spectrometer: QEPB0408
触发模式: 0
积分时间 (秒): 1.000000E-2
Scans to average: 1
启用暗噪声校正: true
启用非线性校正: false
滑动平均宽度: 0
X轴模式: Wavelengths
Number of Pixels in Spectrum: 1044
>>>>>Begin Spectral Data<<<<<
220.843	5.25
221.644	4.25
222.444	5.25
223.244	7.25
224.045	7.25
224.845	8.25
225.645	5.25
226.445	9.25
227.245	7.25
228.045	8.25
228.845	8.25
229.645	8.25
230.444	11.25
231.244	10.25
232.043	8.25
232.843	11.25
233.642	9.25
234.442	11.25
235.241	10.25
236.04	8.25
236.839	12.25
237.638	12.25
238.437	11.25
239.236	11.25
240.035	10.25
240.833	11.25
241.632	11.25
242.43	14.25
243.229	14.25
244.027	13.25
244.826	14.25
245.624	16.25
246.422	17.25
247.22	15.25
248.018	16.25
248.816	12.25
249.614	18.25
250.412	17.25
251.21	19.25
252.007	19.25
252.805	19.25
253.602	19.25
254.4	20.25
255.197	19.25
255.994	20.25
256.791	22.25
257.589	22.25
258.386	23.25
259.183	26.25
259.979	23.25
260.776	29.25
261.573	26.25
262.37	23.25
263.166	26.25
263.963	27.25
264.759	29.25
265.556	29.25
266.352	29.25
267.148	31.25
267.944	30.25
268.74	33.25
269.536	31.25
270.332	33.25
271.128	33.25
271.924	32.25
272.719	34.25
273.515	37.25
274.311	33.25
275.106	35.25
275.901	40.25
276.697	36.25
277.492	36.25
278.287	38.25
279.082	37.25
279.877	36.25
280.672	35.25
281.467	35.25
282.262	38.25
283.056	38.25
283.851	36.25
284.646	37.25
285.44	36.25
286.234	34.25
287.029	38.25
287.823	36.25
288.617	37.25
289.411	33.25
290.205	35.25
290.999	33.25
291.793	34.25
292.587	34.25
293.381	31.25
294.174	31.25
294.968	27.25
295.761	27.25
296.555	28.25
297.348	29.25
298.141	27.25
298.935	28.25
299.728	27.25
300.521	24.25
301.314	24.25
302.107	25.25
302.899	25.25
303.692	26.25
304.485	24.25
305.277	18.25
306.07	23.25
306.862	21.25
307.655	21.25
308.447	25.25
309.239	21.25
310.031	19.25
310.823	19.25
311.615	20.25
312.407	17.25
313.199	17.25
313.991	18.25
314.783	18.25
315.574	17.25
316.366	15.25
317.157	14.25
317.949	17.25
318.74	16.25
319.531	15.25
320.322	13.25
321.113	12.25
321.904	12.25
322.695	15.25
323.486	14.25
324.277	15.25
325.068	14.25
325.858	12.25
326.649	11.25
327.439	12.25
328.23	13.25
329.02	13.25
329.81	14.25
330.6	15.25
331.391	11.25
332.181	13.25
332.971	12.25
333.76	14.25
334.55	11.25
335.34	11.25
336.13	13.25
336.919	12.25
337.709	13.25
338.498	11.25
339.287	15.25
340.077	11.25
340.866	8.25
341.655	13.25
342.444	12.25
343.233	9.25
344.022	11.25
344.811	11.25
345.6	11.25
346.388	10.25
347.177	12.25
347.965	12.25
348.754	13.25
349.542	10.25
350.33	10.25
351.119	11.25
351.907	12.25
352.695	12.25
353.483	13.25
354.271	13.25
355.059	11.25
355.846	11.25
356.634	12.25
357.422	9.25
358.209	11.25
358.997	13.25
359.784	9.25
360.571	10.25
361.359	10.25
362.146	11.25
362.933	11.25
363.72	11.25
364.507	11.25
365.294	12.25
366.081	9.25
366.867	11.25
367.654	8.25
368.44	9.25
369.227	9.25
370.013	11.25
370.8	10.25
371.586	10.25
372.372	10.25
373.158	10.25
373.944	11.25
374.73	10.25
375.516	11.25
376.302	11.25
377.088	11.25
377.873	10.25
378.659	11.25
379.445	10.25
380.23	9.25
381.015	11.25
381.801	11.25
382.586	13.25
383.371	12.25
384.156	12.25
384.941	13.25
385.726	11.25
386.511	13.25
387.296	12.25
388.08	11.25
388.865	12.25
389.649	11.25
390.434	13.25
391.218	14.25
392.003	9.25
392.787	13.25
393.571	13.25
394.355	12.25
395.139	11.25
395.923	13.25
396.707	11.25
397.491	14.25
398.274	13.25
399.058	13.25
399.842	15.25
400.625	15.25
401.408	13.25
402.192	17.25
402.975	16.25
403.758	19.25
404.541	16.25
405.324	14.25
406.107	14.25
406.89	13.25
407.673	17.25
408.456	14.25
409.238	17.25
410.021	15.25
410.803	18.25
411.586	16.25
412.368	17.25
413.151	20.25
413.933	15.25
414.715	20.25
415.497	23.25
416.279	19.25
417.061	21.25
417.843	19.25
418.624	23.25
419.406	19.25
420.188	19.25
420.969	21.25
421.751	22.25
422.532	24.25
423.313	22.25
424.095	22.25
424.876	25.25
425.657	26.25
426.438	28.25
427.219	28.25
428	28.25
428.78	28.25
429.561	36.25
430.342	32.25
431.122	32.25
431.903	32.25
432.683	31.25
433.464	39.25
434.244	38.25
435.024	39.25
435.804	43.25
436.584	41.25
437.364	46.25
438.144	47.25
438.924	48.25
439.704	52.25
440.483	55.25
441.263	58.25
442.042	64.25
442.822	66.25
443.601	72.25
444.38	73.25
445.16	84.25
445.939	88.25
446.718	101.25
447.497	105.25
448.276	114.25
449.054	130.25
449.833	142.25
450.612	153.25
451.391	165.25
452.169	188.25
452.948	199.25
453.726	221.25
454.504	249.25
455.282	275.25
456.061	312.25
456.839	344.25
457.617	392.25
458.395	429.25
459.172	477.25
459.95	544.25
460.728	601.25
461.506	666.25
462.283	745.25
463.061	831.25
463.838	939.25
464.615	1054.25
465.393	1170.25
466.17	1325.25
466.947	1450.25
467.724	1613.25
468.501	1788.25
469.278	1997.25
470.055	2215.25
470.831	2454.25
471.608	2745.25
472.385	3045.25
473.161	3352.25
473.938	3685.25
474.714	4091.25
475.49	4495.25
476.266	4978.25
477.043	5463.25
477.819	5989.25
478.595	6559.25
479.371	7191.25
480.146	7953.25
480.922	8677.25
481.698	9521.25
482.473	10406.25
483.249	11388.25
484.024	12412.25
484.8	13491.25
485.575	14682.25
486.35	16036.25
487.126	17414.25
487.901	18851.25
488.676	20435.25
489.451	22157.25
490.225	23825.25
491	25597.25
491.775	27472.25
492.55	29428.25
493.324	31359.25
494.099	33284.25
494.873	35201.25
495.647	37178.25
496.422	39124.25
497.196	41088.25
497.97	42751.25
498.744	44262.25
499.518	45852.25
500.292	47179.25
501.066	48123.25
501.839	48768.25
502.613	49431.25
503.387	49893.25
504.16	50086.25
504.934	49919.25
505.707	49488.25
506.48	48803.25
507.253	48072.25
508.027	47087.25
508.8	45760.25
509.573	44343.25
510.346	43143.25
511.118	41816.25
511.891	40394.25
512.664	38643.25
513.437	37161.25
514.209	35657.25
514.982	34204.25
515.754	32716.25
516.526	31265.25
517.298	30053.25
518.071	28856.25
518.843	27626.25
519.615	26503.25
520.387	25479.25
521.159	24470.25
521.93	23380.25
522.702	22384.25
523.474	21422.25
524.245	20522.25
525.017	19570.25
525.788	18672.25
526.56	17804.25
527.331	17042.25
528.102	16146.25
528.873	15306.25
529.644	14579.25
530.415	13814.25
531.186	13147.25
531.957	12457.25
532.728	11785.25
533.498	11128.25
534.269	10523.25
535.039	9989.25
535.81	9416.25
536.58	8907.25
537.351	8411.25
538.121	7985.25
538.891	7545.25
539.661	7163.25
540.431	6767.25
541.201	6430.25
541.971	6053.25
542.741	5701.25
543.51	5443.25
544.28	5189.25
545.05	4948.25
545.819	4724.25
546.588	4506.25
547.358	4291.25
548.127	4068.25
548.896	3846.25
549.665	3658.25
550.434	3451.25
551.203	3287.25
551.972	3084.25
552.741	2926.25
553.51	2765.25
554.278	2606.25
555.047	2445.25
555.815	2320.25
556.584	2209.25
557.352	2067.25
558.121	1950.25
558.889	1846.25
559.657	1739.25
560.425	1658.25
561.193	1555.25
561.961	1482.25
562.729	1404.25
563.496	1320.25
564.264	1256.25
565.032	1163.25
565.799	1117.25
566.567	1050.25
567.334	1004.25
568.101	942.25
568.869	892.25
569.636	855.25
570.403	796.25
571.17	738.25
571.937	712.25
572.704	677.25
573.471	635.25
574.237	597.25
575.004	565.25
575.771	530.25
576.537	496.25
577.303	473.25
578.07	455.25
578.836	415.25
579.602	398.25
580.368	381.25
581.134	366.25
581.9	340.25
582.666	323.25
583.432	313.25
584.198	298.25
584.964	275.25
585.729	263.25
586.495	247.25
587.26	240.25
588.025	224.25
588.791	219.25
589.556	205.25
590.321	194.25
591.086	180.25
591.851	171.25
592.616	168.25
593.381	155.25
594.146	153.25
594.911	146.25
595.675	136.25
596.44	134.25
597.204	126.25
597.969	122.25
598.733	113.25
599.497	109.25
600.261	107.25
601.025	101.25
601.79	102.25
602.553	97.25
603.317	90.25
604.081	88.25
604.845	83.25
605.609	82.25
606.372	77.25
607.136	71.25
607.899	71.25
608.662	71.25
609.426	65.25
610.189	61.25
610.952	60.25
611.715	59.25
612.478	58.25
613.241	53.25
614.004	50.25
614.767	54.25
615.529	51.25
616.292	46.25
617.055	47.25
617.817	47.25
618.579	43.25
619.342	42.25
620.104	41.25
620.866	37.25
621.628	40.25
622.39	40.25
623.152	34.25
623.914	36.25
624.676	31.25
625.438	36.25
626.199	30.25
626.961	28.25
627.722	30.25
628.484	29.25
629.245	29.25
630.006	25.25
630.768	24.25
631.529	23.25
632.29	24.25
633.051	26.25
633.812	26.25
634.573	25.25
635.333	23.25
636.094	19.25
636.855	19.25
637.615	19.25
638.376	18.25
639.136	19.25
639.896	19.25
640.657	19.25
641.417	17.25
642.177	17.25
642.937	15.25
643.697	18.25
644.457	15.25
645.216	18.25
645.976	17.25
646.736	16.25
647.495	17.25
648.255	15.25
649.014	14.25
649.774	16.25
650.533	14.25
651.292	16.25
652.051	15.25
652.81	15.25
653.569	13.25
654.328	15.25
655.087	13.25
655.846	12.25
656.604	12.25
657.363	15.25
658.121	13.25
658.88	11.25
659.638	15.25
660.397	10.25
661.155	12.25
661.913	11.25
662.671	7.25
663.429	9.25
664.187	11.25
664.945	9.25
665.703	8.25
666.46	10.25
667.218	9.25
667.976	9.25
668.733	10.25
669.49	9.25
670.248	9.25
671.005	10.25
671.762	11.25
672.519	12.25
673.276	10.25
674.033	8.25
674.79	9.25
675.547	9.25
676.304	9.25
677.06	8.25
677.817	9.25
678.574	8.25
679.33	10.25
680.086	7.25
680.843	8.25
681.599	10.25
682.355	10.25
683.111	11.25
683.867	9.25
684.623	8.25
685.379	10.25
686.135	7.25
686.89	10.25
687.646	10.25
688.402	6.25
689.157	8.25
689.912	8.25
690.668	10.25
691.423	6.25
692.178	10.25
692.933	8.25
693.688	8.25
694.443	9.25
695.198	7.25
695.953	9.25
696.708	9.25
697.462	7.25
698.217	8.25
698.972	10.25
699.726	5.25
700.48	7.25
701.235	7.25
701.989	8.25
702.743	6.25
703.497	7.25
704.251	8.25
705.005	10.25
705.759	11.25
706.513	8.25
707.266	8.25
708.02	9.25
708.774	8.25
709.527	5.25
710.28	8.25
711.034	8.25
711.787	7.25
712.54	6.25
713.293	7.25
714.046	10.25
714.799	7.25
715.552	9.25
716.305	9.25
717.058	9.25
717.81	10.25
718.563	7.25
719.315	8.25
720.068	6.25
720.82	6.25
721.573	7.25
722.325	8.25
723.077	10.25
723.829	9.25
724.581	10.25
725.333	9.25
726.085	9.25
726.836	11.25
727.588	7.25
728.34	11.25
729.091	10.25
729.843	10.25
730.594	7.25
731.346	10.25
732.097	11.25
732.848	9.25
733.599	9.25
734.35	10.25
735.101	10.25
735.852	12.25
736.603	8.25
737.354	10.25
738.104	9.25
738.855	11.25
739.605	11.25
740.356	12.25
741.106	10.25
741.856	11.25
742.607	10.25
743.357	11.25
744.107	10.25
744.857	12.25
745.607	11.25
746.357	10.25
747.106	9.25
747.856	13.25
748.606	11.25
749.355	11.25
750.105	12.25
750.854	16.25
751.603	12.25
752.353	11.25
753.102	14.25
753.851	10.25
754.6	12.25
755.349	13.25
756.098	9.25
756.847	13.25
757.595	11.25
758.344	15.25
759.093	13.25
759.841	14.25
760.589	14.25
761.338	14.25
762.086	12.25
762.834	14.25
763.582	12.25
764.331	15.25
765.079	15.25
765.826	16.25
766.574	15.25
767.322	14.25
768.07	17.25
768.817	14.25
769.565	14.25
770.312	18.25
771.06	20.25
771.807	16.25
772.554	15.25
773.302	16.25
774.049	18.25
774.796	19.25
775.543	16.25
776.29	19.25
777.036	21.25
777.783	14.25
778.53	20.25
779.276	16.25
780.023	15.25
780.769	16.25
781.516	15.25
782.262	16.25
783.008	18.25
783.754	16.25
784.5	14.25
785.246	16.25
785.992	16.25
786.738	17.25
787.484	18.25
788.23	14.25
788.975	17.25
789.721	15.25
790.466	15.25
791.212	16.25
791.957	16.25
792.702	16.25
793.447	14.25
794.193	16.25
794.938	14.25
795.683	13.25
796.427	15.25
797.172	15.25
797.917	15.25
798.662	13.25
799.406	14.25
800.151	15.25
800.895	13.25
801.64	14.25
802.384	12.25
803.128	14.25
803.872	13.25
804.616	11.25
805.36	13.25
806.104	9.25
806.848	13.25
807.592	11.25
808.336	11.25
809.079	12.25
809.823	11.25
810.566	11.25
811.31	7.25
812.053	12.25
812.796	9.25
813.539	10.25
814.283	10.25
815.026	9.25
815.769	9.25
816.511	9.25
817.254	9.25
817.997	8.25
818.74	8.25
819.482	8.25
820.225	8.25
820.967	10.25
821.71	6.25
822.452	8.25
823.194	8.25
823.936	5.25
824.678	6.25
825.42	5.25
826.162	8.25
826.904	7.25
827.646	7.25
828.388	6.25
829.129	5.25
829.871	7.25
830.612	8.25
831.354	6.25
832.095	4.25
832.836	6.25
833.577	7.25
834.319	5.25
835.06	6.25
835.801	6.25
836.542	8.25
837.282	5.25
838.023	4.25
838.764	6.25
839.504	5.25
840.245	6.25
840.985	5.25
841.726	6.25
842.466	7.25
843.206	7.25
843.946	8.25
844.687	7.25
845.427	6.25
846.166	5.25
846.906	6.25
847.646	6.25
848.386	5.25
849.125	4.25
849.865	6.25
850.605	5.25
851.344	4.25
852.083	4.25
852.823	6.25
853.562	5.25
854.301	6.25
855.04	4.25
855.779	5.25
856.518	2.25
857.257	2.25
857.995	3.25
858.734	1.25
859.473	2.25
860.211	3.25
860.95	3.25
861.688	4.25
862.426	5.25
863.165	2.25
863.903	5.25
864.641	4.25
865.379	3.25
866.117	2.25
866.855	4.25
867.593	-1.75
868.33	5.25
869.068	1.25
869.806	2.25
870.543	2.25
871.28	2.25
872.018	2.25
872.755	0.25
873.492	4.25
874.229	4.25
874.967	2.25
875.703	3.25
876.44	-0.75
877.177	4.25
877.914	2.25
878.651	1.25
879.387	2.25
880.124	2.25
880.86	1.25
881.597	2.25
882.333	2.25
883.069	0.25
883.806	0.25
884.542	3.25
885.278	1.25
886.014	2.25
886.749	-2.75
887.485	0.25
888.221	0.25
888.957	1.25
889.692	1.25
890.428	3.25
891.163	1.25
891.899	1.25
892.634	0.25
893.369	2.25
894.104	0.25
894.839	2.25
895.574	2.25
896.309	3.25
897.044	4.25
897.779	1.25
898.514	2.25
899.248	1.25
899.983	3.25
900.717	-0.75
901.452	1.25
902.186	2.25
902.92	0.25
903.654	2.25
904.389	0.25
905.123	2.25
905.857	2.25
906.59	1.25
907.324	1.25
908.058	1.25
908.792	1.25
909.525	2.25
910.259	2.25
910.992	1.25
911.726	0.25
912.459	-1.75
913.192	-0.75
913.925	1.25
914.658	0.25
915.391	2.25
916.124	1.25
916.857	1.25
917.59	-0.75
918.323	1.25
919.055	3.25
919.788	2.25
920.521	1.25
921.253	2.25
921.985	0.25
922.718	2.25
923.45	2.25
924.182	2.25
924.914	1.25
925.646	3.25
926.378	-0.75
927.11	-0.75
927.841	-0.75
928.573	0.25
929.305	1.25
930.036	1.25
930.768	-0.75
931.499	2.25
932.23	2.25
932.962	1.25
933.693	2.25
934.424	1.25
935.155	1.25
935.886	1.25
936.617	2.25
937.348	1.25
938.078	1.25
938.809	0.25
939.54	0.25
940.27	0.25
941.001	1.25
941.731	2.25
942.461	-0.75
943.191	1.25
943.922	1.25
944.652	3.25
945.382	1.25
946.112	0.25
946.841	1.25
947.571	1.25
948.301	2.25
949.031	-0.75
949.76	-1.75
950.49	4.25
951.219	-0.75
951.948	1.25
952.678	3.25
953.407	2.25
954.136	1.25
954.865	1.25
955.594	1.25
956.323	0.25
957.052	-0.75
957.78	0.25
958.509	1.25
959.238	-0.75
959.966	0.25
960.695	0.25
961.423	1.25
962.151	-0.75
962.88	3.25
963.608	0.25
964.336	1.25
965.064	1.25
965.792	0.25
966.52	-0.75
967.247	1.25
967.975	1.25
968.703	-2.75
969.43	1.25
970.158	0.25
970.885	2.25
971.613	0.25
972.34	1.25
973.067	2.25
973.794	1.25
974.521	0.25
975.248	-0.75
975.975	1.25
976.702	1.25
977.429	-0.75
978.156	-0.75
978.882	-0.75
979.609	0.25
980.335	1.25
981.062	0.25
981.788	2.25
982.514	1.25
983.24	3.25
983.967	-0.75
984.693	-0.75
985.419	-0.75
986.144	-0.75
986.87	1.25
987.596	2.25
988.322	3.25
989.047	1.25
989.773	1.25
990.498	2.25
991.224	2.25
991.949	-0.75
992.674	-2.75
993.399	0.25
994.124	1.25
994.849	0.25
995.574	2.25
996.299	1.25
997.024	-2.75
997.749	1.25
998.473	-0.75
999.198	1.25
999.922	-0.75
1000.647	0.25
1001.371	4.25
1002.095	-2.75
1002.82	-1.75
1003.544	-0.75
1004.268	6.25
1004.992	6.25
1005.716	2.25
1006.439	4.25
1007.163	7.25
1007.887	7.25
1008.611	-1.75
1009.334	1.25
1010.058	0.25
1010.781	-1.75
1011.504	0.25
1012.228	1.25
1012.951	1.25
1013.674	0.25
1014.397	-1.75
1015.12	1.25
