节点500_705_QEPB04081__509__20-53-07-753.txt的数据

Date: Wed Nov 12 20:53:07 CST 2025
User: PC
Spectrometer: QEPB0408
触发模式: 0
积分时间 (秒): 1.000000E-2
Scans to average: 1
启用暗噪声校正: true
启用非线性校正: false
滑动平均宽度: 0
X轴模式: Wavelengths
Number of Pixels in Spectrum: 1044
>>>>>Begin Spectral Data<<<<<
220.843	6
221.644	6
222.444	7
223.244	6
224.045	5
224.845	7
225.645	6
226.445	7
227.245	6
228.045	7
228.845	8
229.645	5
230.444	8
231.244	7
232.043	10
232.843	9
233.642	8
234.442	10
235.241	8
236.04	10
236.839	12
237.638	11
238.437	11
239.236	9
240.035	13
240.833	13
241.632	9
242.43	11
243.229	11
244.027	14
244.826	13
245.624	9
246.422	13
247.22	13
248.018	14
248.816	11
249.614	15
250.412	15
251.21	15
252.007	13
252.805	17
253.602	15
254.4	15
255.197	17
255.994	17
256.791	19
257.589	21
258.386	19
259.183	20
259.979	20
260.776	22
261.573	22
262.37	23
263.166	23
263.963	24
264.759	24
265.556	22
266.352	26
267.148	24
267.944	27
268.74	27
269.536	27
270.332	27
271.128	29
271.924	29
272.719	29
273.515	28
274.311	31
275.106	29
275.901	31
276.697	31
277.492	35
278.287	32
279.082	32
279.877	31
280.672	32
281.467	34
282.262	31
283.056	33
283.851	33
284.646	30
285.44	33
286.234	33
287.029	34
287.823	31
288.617	32
289.411	33
290.205	29
290.999	30
291.793	30
292.587	31
293.381	31
294.174	28
294.968	28
295.761	27
296.555	27
297.348	26
298.141	26
298.935	31
299.728	26
300.521	25
301.314	23
302.107	25
302.899	27
303.692	20
304.485	22
305.277	22
306.07	19
306.862	23
307.655	20
308.447	21
309.239	19
310.031	23
310.823	19
311.615	18
312.407	19
313.199	19
313.991	15
314.783	15
315.574	18
316.366	16
317.157	16
317.949	14
318.74	13
319.531	15
320.322	15
321.113	14
321.904	12
322.695	15
323.486	14
324.277	11
325.068	12
325.858	13
326.649	12
327.439	15
328.23	13
329.02	12
329.81	11
330.6	14
331.391	14
332.181	13
332.971	11
333.76	12
334.55	15
335.34	10
336.13	11
336.919	10
337.709	10
338.498	10
339.287	13
340.077	12
340.866	10
341.655	12
342.444	10
343.233	9
344.022	12
344.811	11
345.6	11
346.388	10
347.177	10
347.965	11
348.754	7
349.542	13
350.33	9
351.119	11
351.907	9
352.695	9
353.483	10
354.271	10
355.059	8
355.846	11
356.634	10
357.422	9
358.209	7
358.997	9
359.784	9
360.571	11
361.359	9
362.146	13
362.933	10
363.72	8
364.507	8
365.294	11
366.081	7
366.867	10
367.654	8
368.44	10
369.227	10
370.013	9
370.8	11
371.586	11
372.372	10
373.158	8
373.944	11
374.73	10
375.516	10
376.302	11
377.088	6
377.873	9
378.659	9
379.445	10
380.23	11
381.015	9
381.801	8
382.586	10
383.371	9
384.156	11
384.941	9
385.726	10
386.511	8
387.296	11
388.08	10
388.865	11
389.649	10
390.434	12
391.218	11
392.003	11
392.787	11
393.571	11
394.355	11
395.139	12
395.923	12
396.707	14
397.491	12
398.274	14
399.058	13
399.842	11
400.625	13
401.408	12
402.192	15
402.975	13
403.758	11
404.541	13
405.324	12
406.107	12
406.89	14
407.673	14
408.456	17
409.238	17
410.021	15
410.803	14
411.586	15
412.368	14
413.151	19
413.933	17
414.715	17
415.497	16
416.279	18
417.061	21
417.843	20
418.624	17
419.406	19
420.188	20
420.969	20
421.751	21
422.532	20
423.313	23
424.095	24
424.876	25
425.657	25
426.438	24
427.219	28
428	26
428.78	30
429.561	31
430.342	32
431.122	33
431.903	33
432.683	34
433.464	35
434.244	35
435.024	39
435.804	41
436.584	42
437.364	46
438.144	46
438.924	52
439.704	50
440.483	59
441.263	60
442.042	63
442.822	74
443.601	81
444.38	84
445.16	90
445.939	97
446.718	109
447.497	116
448.276	123
449.054	138
449.833	153
450.612	168
451.391	190
452.169	203
452.948	231
453.726	249
454.504	285
455.282	310
456.061	348
456.839	383
457.617	428
458.395	484
459.172	526
459.95	593
460.728	654
461.506	743
462.283	825
463.061	926
463.838	1011
464.615	1129
465.393	1250
466.17	1376
466.947	1520
467.724	1697
468.501	1866
469.278	2053
470.055	2284
470.831	2507
471.608	2760
472.385	3008
473.161	3309
473.938	3638
474.714	3973
475.49	4361
476.266	4761
477.043	5176
477.819	5624
478.595	6149
479.371	6650
480.146	7252
480.922	7927
481.698	8606
482.473	9263
483.249	10068
484.024	10964
484.8	11790
485.575	12739
486.35	13767
487.126	14943
487.901	16025
488.676	17240
489.451	18602
490.225	19936
491	21293
491.775	22816
492.55	24320
493.324	25898
494.099	27510
494.873	29162
495.647	30800
496.422	32453
497.196	34125
497.97	35633
498.744	37103
499.518	38704
500.292	40037
501.066	41106
501.839	42107
502.613	42931
503.387	43622
504.16	44227
504.934	44614
505.707	44808
506.48	44625
507.253	44371
508.027	43934
508.8	43260
509.573	42458
510.346	41583
511.118	40706
511.891	39659
512.664	38392
513.437	37037
514.209	35710
514.982	34478
515.754	33158
516.526	31792
517.298	30601
518.071	29438
518.843	28291
519.615	27180
520.387	26102
521.159	25078
521.93	24052
522.702	23048
523.474	22113
524.245	21221
525.017	20229
525.788	19489
526.56	18692
527.331	17870
528.102	17019
528.873	16137
529.644	15379
530.415	14773
531.186	14067
531.957	13333
532.728	12723
533.498	12057
534.269	11424
535.039	10784
535.81	10233
536.58	9665
537.351	9189
538.121	8724
538.891	8234
539.661	7773
540.431	7391
541.201	6991
541.971	6643
542.741	6281
543.51	5953
544.28	5650
545.05	5396
545.819	5155
546.588	4899
547.358	4669
548.127	4453
548.896	4216
549.665	4028
550.434	3779
551.203	3615
551.972	3399
552.741	3251
553.51	3072
554.278	2881
555.047	2740
555.815	2592
556.584	2462
557.352	2319
558.121	2196
558.889	2071
559.657	1961
560.425	1843
561.193	1748
561.961	1666
562.729	1590
563.496	1484
564.264	1391
565.032	1323
565.799	1264
566.567	1183
567.334	1134
568.101	1070
568.869	999
569.636	947
570.403	884
571.17	847
571.937	799
572.704	754
573.471	719
574.237	680
575.004	642
575.771	602
576.537	557
577.303	533
578.07	500
578.836	481
579.602	444
580.368	421
581.134	409
581.9	383
582.666	366
583.432	347
584.198	334
584.964	322
585.729	299
586.495	278
587.26	271
588.025	250
588.791	235
589.556	233
590.321	215
591.086	198
591.851	192
592.616	182
593.381	182
594.146	167
594.911	164
595.675	153
596.44	150
597.204	144
597.969	135
598.733	123
599.497	122
600.261	120
601.025	113
601.79	105
602.553	102
603.317	98
604.081	95
604.845	95
605.609	83
606.372	79
607.136	83
607.899	76
608.662	75
609.426	72
610.189	68
610.952	63
611.715	59
612.478	60
613.241	59
614.004	58
614.767	57
615.529	51
616.292	52
617.055	52
617.817	48
618.579	47
619.342	49
620.104	44
620.866	45
621.628	39
622.39	38
623.152	40
623.914	41
624.676	35
625.438	33
626.199	34
626.961	32
627.722	33
628.484	30
629.245	27
630.006	30
630.768	27
631.529	27
632.29	26
633.051	25
633.812	23
634.573	26
635.333	22
636.094	23
636.855	23
637.615	22
638.376	17
639.136	19
639.896	23
640.657	22
641.417	20
642.177	21
642.937	19
643.697	19
644.457	16
645.216	17
645.976	16
646.736	16
647.495	18
648.255	14
649.014	14
649.774	17
650.533	14
651.292	14
652.051	13
652.81	15
653.569	12
654.328	12
655.087	11
655.846	13
656.604	15
657.363	11
658.121	10
658.88	12
659.638	11
660.397	11
661.155	10
661.913	13
662.671	11
663.429	9
664.187	9
664.945	9
665.703	10
666.46	11
667.218	9
667.976	9
668.733	9
669.49	11
670.248	9
671.005	11
671.762	9
672.519	10
673.276	9
674.033	8
674.79	6
675.547	8
676.304	7
677.06	7
677.817	8
678.574	11
679.33	7
680.086	6
680.843	7
681.599	9
682.355	9
683.111	8
683.867	10
684.623	10
685.379	6
686.135	10
686.89	8
687.646	7
688.402	7
689.157	7
689.912	7
690.668	8
691.423	7
692.178	7
692.933	8
693.688	8
694.443	7
695.198	8
695.953	9
696.708	7
697.462	9
698.217	8
698.972	8
699.726	6
700.48	6
701.235	8
701.989	8
702.743	7
703.497	7
704.251	9
705.005	8
705.759	8
706.513	8
707.266	9
708.02	7
708.774	7
709.527	5
710.28	8
711.034	8
711.787	5
712.54	7
713.293	7
714.046	6
714.799	8
715.552	7
716.305	9
717.058	5
717.81	9
718.563	6
719.315	9
720.068	8
720.82	9
721.573	7
722.325	7
723.077	9
723.829	7
724.581	9
725.333	9
726.085	7
726.836	10
727.588	8
728.34	8
729.091	11
729.843	12
730.594	11
731.346	8
732.097	8
732.848	13
733.599	10
734.35	9
735.101	8
735.852	11
736.603	7
737.354	8
738.104	8
738.855	11
739.605	11
740.356	11
741.106	11
741.856	9
742.607	9
743.357	11
744.107	9
744.857	11
745.607	9
746.357	7
747.106	12
747.856	10
748.606	9
749.355	9
750.105	11
750.854	8
751.603	9
752.353	14
753.102	9
753.851	13
754.6	11
755.349	10
756.098	10
756.847	12
757.595	9
758.344	13
759.093	11
759.841	10
760.589	10
761.338	15
762.086	13
762.834	14
763.582	13
764.331	11
765.079	13
765.826	11
766.574	14
767.322	14
768.07	14
768.817	13
769.565	13
770.312	15
771.06	11
771.807	16
772.554	13
773.302	15
774.049	10
774.796	13
775.543	13
776.29	13
777.036	16
777.783	15
778.53	16
779.276	16
780.023	16
780.769	15
781.516	16
782.262	14
783.008	15
783.754	14
784.5	13
785.246	14
785.992	12
786.738	15
787.484	14
788.23	15
788.975	16
789.721	15
790.466	15
791.212	15
791.957	15
792.702	14
793.447	12
794.193	15
794.938	15
795.683	12
796.427	11
797.172	12
797.917	11
798.662	14
799.406	14
800.151	14
800.895	12
801.64	11
802.384	11
803.128	10
803.872	11
804.616	10
805.36	12
806.104	11
806.848	8
807.592	9
808.336	9
809.079	12
809.823	9
810.566	10
811.31	11
812.053	8
812.796	8
813.539	11
814.283	9
815.026	10
815.769	9
816.511	10
817.254	8
817.997	8
818.74	10
819.482	11
820.225	8
820.967	8
821.71	8
822.452	4
823.194	7
823.936	8
824.678	8
825.42	5
826.162	5
826.904	6
827.646	7
828.388	8
829.129	9
829.871	8
830.612	5
831.354	7
832.095	5
832.836	8
833.577	7
834.319	5
835.06	7
835.801	6
836.542	6
837.282	8
838.023	5
838.764	8
839.504	8
840.245	5
840.985	6
841.726	4
842.466	5
843.206	6
843.946	5
844.687	2
845.427	4
846.166	7
846.906	3
847.646	4
848.386	5
849.125	5
849.865	7
850.605	6
851.344	7
852.083	3
852.823	4
853.562	7
854.301	4
855.04	3
855.779	2
856.518	5
857.257	5
857.995	3
858.734	6
859.473	2
860.211	4
860.95	5
861.688	3
862.426	4
863.165	1
863.903	2
864.641	4
865.379	6
866.117	3
866.855	2
867.593	2
868.33	4
869.068	2
869.806	2
870.543	4
871.28	2
872.018	4
872.755	3
873.492	3
874.229	3
874.967	2
875.703	3
876.44	3
877.177	3
877.914	4
878.651	3
879.387	1
880.124	2
880.86	2
881.597	2
882.333	0
883.069	3
883.806	-1
884.542	0
885.278	2
886.014	2
886.749	2
887.485	2
888.221	3
888.957	0
889.692	-1
890.428	3
891.163	2
891.899	1
892.634	3
893.369	2
894.104	1
894.839	1
895.574	1
896.309	0
897.044	0
897.779	1
898.514	-1
899.248	2
899.983	-1
900.717	3
901.452	0
902.186	1
902.92	3
903.654	0
904.389	0
905.123	1
905.857	1
906.59	-1
907.324	3
908.058	0
908.792	2
909.525	3
910.259	1
910.992	2
911.726	0
912.459	2
913.192	0
913.925	1
914.658	1
915.391	-1
916.124	2
916.857	0
917.59	0
918.323	1
919.055	1
919.788	1
920.521	1
921.253	1
921.985	-1
922.718	1
923.45	1
924.182	0
924.914	3
925.646	0
926.378	2
927.11	2
927.841	-1
928.573	1
929.305	1
930.036	0
930.768	0
931.499	2
932.23	1
932.962	1
933.693	0
934.424	1
935.155	2
935.886	0
936.617	-1
937.348	1
938.078	-1
938.809	-1
939.54	0
940.27	-1
941.001	-1
941.731	-1
942.461	-1
943.191	0
943.922	-1
944.652	0
945.382	1
946.112	-1
946.841	-3
947.571	2
948.301	-1
949.031	1
949.76	0
950.49	0
951.219	-1
951.948	2
952.678	-1
953.407	2
954.136	-1
954.865	3
955.594	0
956.323	1
957.052	1
957.78	2
958.509	-1
959.238	-1
959.966	1
960.695	0
961.423	-1
962.151	2
962.88	1
963.608	0
964.336	-1
965.064	0
965.792	1
966.52	2
967.247	2
967.975	1
968.703	2
969.43	1
970.158	0
970.885	3
971.613	1
972.34	1
973.067	-2
973.794	-1
974.521	-1
975.248	0
975.975	1
976.702	-2
977.429	0
978.156	-2
978.882	0
979.609	-1
980.335	0
981.062	1
981.788	-3
982.514	1
983.24	-1
983.967	3
984.693	0
985.419	0
986.144	2
986.87	1
987.596	0
988.322	-1
989.047	0
989.773	0
990.498	-1
991.224	0
991.949	0
992.674	2
993.399	1
994.124	1
994.849	-1
995.574	-1
996.299	1
997.024	1
997.749	-1
998.473	1
999.198	-1
999.922	1
1000.647	-1
1001.371	5
1002.095	-1
1002.82	-3
1003.544	2
1004.268	4
1004.992	4
1005.716	5
1006.439	4
1007.163	4
1007.887	5
1008.611	-1
1009.334	-1
1010.058	1
1010.781	0
1011.504	-1
1012.228	1
1012.951	-2
1013.674	1
1014.397	-1
1015.12	-1
