节点500_705_QEPB04081__337__20-50-44-560.txt的数据

Date: Wed Nov 12 20:50:44 CST 2025
User: PC
Spectrometer: QEPB0408
触发模式: 0
积分时间 (秒): 1.000000E-2
Scans to average: 1
启用暗噪声校正: true
启用非线性校正: false
滑动平均宽度: 0
X轴模式: Wavelengths
Number of Pixels in Spectrum: 1044
>>>>>Begin Spectral Data<<<<<
220.843	4.38
221.644	5.38
222.444	4.38
223.244	7.38
224.045	4.38
224.845	8.38
225.645	5.38
226.445	4.38
227.245	6.38
228.045	6.38
228.845	6.38
229.645	7.38
230.444	10.38
231.244	8.38
232.043	7.38
232.843	8.38
233.642	4.38
234.442	6.38
235.241	9.38
236.04	7.38
236.839	9.38
237.638	9.38
238.437	10.38
239.236	8.38
240.035	7.38
240.833	10.38
241.632	10.38
242.43	12.38
243.229	13.38
244.027	11.38
244.826	12.38
245.624	11.38
246.422	14.38
247.22	14.38
248.018	15.38
248.816	13.38
249.614	15.38
250.412	16.38
251.21	15.38
252.007	15.38
252.805	17.38
253.602	13.38
254.4	18.38
255.197	16.38
255.994	18.38
256.791	18.38
257.589	19.38
258.386	19.38
259.183	20.38
259.979	18.38
260.776	18.38
261.573	24.38
262.37	22.38
263.166	25.38
263.963	25.38
264.759	24.38
265.556	28.38
266.352	25.38
267.148	27.38
267.944	28.38
268.74	30.38
269.536	28.38
270.332	28.38
271.128	29.38
271.924	29.38
272.719	30.38
273.515	32.38
274.311	33.38
275.106	31.38
275.901	31.38
276.697	32.38
277.492	34.38
278.287	30.38
279.082	31.38
279.877	34.38
280.672	34.38
281.467	33.38
282.262	35.38
283.056	34.38
283.851	33.38
284.646	38.38
285.44	33.38
286.234	34.38
287.029	33.38
287.823	37.38
288.617	32.38
289.411	33.38
290.205	35.38
290.999	32.38
291.793	28.38
292.587	33.38
293.381	30.38
294.174	29.38
294.968	25.38
295.761	29.38
296.555	25.38
297.348	28.38
298.141	24.38
298.935	28.38
299.728	25.38
300.521	24.38
301.314	24.38
302.107	23.38
302.899	21.38
303.692	21.38
304.485	20.38
305.277	23.38
306.07	21.38
306.862	24.38
307.655	22.38
308.447	18.38
309.239	22.38
310.031	19.38
310.823	17.38
311.615	19.38
312.407	17.38
313.199	16.38
313.991	16.38
314.783	18.38
315.574	14.38
316.366	17.38
317.157	13.38
317.949	14.38
318.74	14.38
319.531	13.38
320.322	15.38
321.113	13.38
321.904	12.38
322.695	13.38
323.486	11.38
324.277	15.38
325.068	11.38
325.858	11.38
326.649	11.38
327.439	11.38
328.23	12.38
329.02	14.38
329.81	11.38
330.6	11.38
331.391	14.38
332.181	11.38
332.971	11.38
333.76	10.38
334.55	11.38
335.34	9.38
336.13	12.38
336.919	8.38
337.709	8.38
338.498	12.38
339.287	8.38
340.077	11.38
340.866	10.38
341.655	14.38
342.444	11.38
343.233	12.38
344.022	10.38
344.811	10.38
345.6	10.38
346.388	12.38
347.177	12.38
347.965	10.38
348.754	12.38
349.542	10.38
350.33	11.38
351.119	8.38
351.907	10.38
352.695	11.38
353.483	9.38
354.271	12.38
355.059	12.38
355.846	9.38
356.634	8.38
357.422	10.38
358.209	10.38
358.997	8.38
359.784	10.38
360.571	9.38
361.359	10.38
362.146	8.38
362.933	9.38
363.72	11.38
364.507	7.38
365.294	8.38
366.081	7.38
366.867	9.38
367.654	9.38
368.44	8.38
369.227	10.38
370.013	8.38
370.8	9.38
371.586	7.38
372.372	8.38
373.158	9.38
373.944	7.38
374.73	12.38
375.516	10.38
376.302	9.38
377.088	6.38
377.873	10.38
378.659	10.38
379.445	10.38
380.23	10.38
381.015	7.38
381.801	8.38
382.586	9.38
383.371	7.38
384.156	11.38
384.941	12.38
385.726	9.38
386.511	10.38
387.296	12.38
388.08	11.38
388.865	12.38
389.649	13.38
390.434	8.38
391.218	9.38
392.003	12.38
392.787	10.38
393.571	11.38
394.355	11.38
395.139	12.38
395.923	12.38
396.707	11.38
397.491	14.38
398.274	11.38
399.058	14.38
399.842	13.38
400.625	13.38
401.408	14.38
402.192	12.38
402.975	14.38
403.758	13.38
404.541	15.38
405.324	14.38
406.107	14.38
406.89	14.38
407.673	14.38
408.456	17.38
409.238	15.38
410.021	15.38
410.803	17.38
411.586	17.38
412.368	16.38
413.151	16.38
413.933	18.38
414.715	17.38
415.497	15.38
416.279	18.38
417.061	19.38
417.843	19.38
418.624	18.38
419.406	21.38
420.188	19.38
420.969	17.38
421.751	21.38
422.532	23.38
423.313	21.38
424.095	24.38
424.876	26.38
425.657	26.38
426.438	25.38
427.219	25.38
428	27.38
428.78	28.38
429.561	28.38
430.342	27.38
431.122	28.38
431.903	33.38
432.683	32.38
433.464	31.38
434.244	35.38
435.024	37.38
435.804	41.38
436.584	45.38
437.364	47.38
438.144	48.38
438.924	48.38
439.704	51.38
440.483	58.38
441.263	62.38
442.042	66.38
442.822	69.38
443.601	71.38
444.38	87.38
445.16	86.38
445.939	93.38
446.718	103.38
447.497	113.38
448.276	121.38
449.054	134.38
449.833	149.38
450.612	163.38
451.391	178.38
452.169	196.38
452.948	210.38
453.726	242.38
454.504	269.38
455.282	297.38
456.061	336.38
456.839	374.38
457.617	412.38
458.395	460.38
459.172	511.38
459.95	558.38
460.728	633.38
461.506	722.38
462.283	798.38
463.061	883.38
463.838	996.38
464.615	1085.38
465.393	1220.38
466.17	1371.38
466.947	1518.38
467.724	1678.38
468.501	1847.38
469.278	2040.38
470.055	2267.38
470.831	2489.38
471.608	2774.38
472.385	3040.38
473.161	3362.38
473.938	3679.38
474.714	4061.38
475.49	4464.38
476.266	4868.38
477.043	5326.38
477.819	5830.38
478.595	6375.38
479.371	6946.38
480.146	7590.38
480.922	8281.38
481.698	8985.38
482.473	9789.38
483.249	10667.38
484.024	11538.38
484.8	12589.38
485.575	13597.38
486.35	14769.38
487.126	15996.38
487.901	17348.38
488.676	18716.38
489.451	20128.38
490.225	21618.38
491	23110.38
491.775	24776.38
492.55	26503.38
493.324	28307.38
494.099	29993.38
494.873	31725.38
495.647	33501.38
496.422	35327.38
497.196	37131.38
497.97	38774.38
498.744	40247.38
499.518	41814.38
500.292	43217.38
501.066	44248.38
501.839	45250.38
502.613	45922.38
503.387	46640.38
504.16	46966.38
504.934	47168.38
505.707	47065.38
506.48	46746.38
507.253	46351.38
508.027	45509.38
508.8	44692.38
509.573	43585.38
510.346	42633.38
511.118	41520.38
511.891	40377.38
512.664	38762.38
513.437	37339.38
514.209	35898.38
514.982	34567.38
515.754	33147.38
516.526	31805.38
517.298	30604.38
518.071	29356.38
518.843	28170.38
519.615	27021.38
520.387	25987.38
521.159	24896.38
521.93	23868.38
522.702	22961.38
523.474	21949.38
524.245	21016.38
525.017	20060.38
525.788	19207.38
526.56	18410.38
527.331	17573.38
528.102	16705.38
528.873	15876.38
529.644	15123.38
530.415	14426.38
531.186	13773.38
531.957	13005.38
532.728	12350.38
533.498	11696.38
534.269	11124.38
535.039	10444.38
535.81	9910.38
536.58	9370.38
537.351	8886.38
538.121	8415.38
538.891	7950.38
539.661	7558.38
540.431	7120.38
541.201	6792.38
541.971	6401.38
542.741	6071.38
543.51	5750.38
544.28	5479.38
545.05	5243.38
545.819	4976.38
546.588	4744.38
547.358	4506.38
548.127	4261.38
548.896	4065.38
549.665	3872.38
550.434	3679.38
551.203	3465.38
551.972	3307.38
552.741	3128.38
553.51	2928.38
554.278	2788.38
555.047	2610.38
555.815	2481.38
556.584	2353.38
557.352	2220.38
558.121	2095.38
558.889	1968.38
559.657	1863.38
560.425	1769.38
561.193	1674.38
561.961	1587.38
562.729	1507.38
563.496	1410.38
564.264	1343.38
565.032	1264.38
565.799	1191.38
566.567	1137.38
567.334	1075.38
568.101	1017.38
568.869	969.38
569.636	893.38
570.403	855.38
571.17	799.38
571.937	764.38
572.704	729.38
573.471	675.38
574.237	640.38
575.004	607.38
575.771	578.38
576.537	539.38
577.303	505.38
578.07	476.38
578.836	454.38
579.602	425.38
580.368	410.38
581.134	390.38
581.9	364.38
582.666	354.38
583.432	334.38
584.198	319.38
584.964	298.38
585.729	281.38
586.495	262.38
587.26	255.38
588.025	236.38
588.791	227.38
589.556	214.38
590.321	209.38
591.086	197.38
591.851	186.38
592.616	173.38
593.381	166.38
594.146	156.38
594.911	152.38
595.675	147.38
596.44	142.38
597.204	133.38
597.969	126.38
598.733	120.38
599.497	114.38
600.261	115.38
601.025	109.38
601.79	99.38
602.553	102.38
603.317	93.38
604.081	89.38
604.845	84.38
605.609	83.38
606.372	78.38
607.136	73.38
607.899	73.38
608.662	69.38
609.426	67.38
610.189	64.38
610.952	67.38
611.715	63.38
612.478	59.38
613.241	59.38
614.004	53.38
614.767	55.38
615.529	52.38
616.292	45.38
617.055	47.38
617.817	46.38
618.579	43.38
619.342	42.38
620.104	40.38
620.866	38.38
621.628	39.38
622.39	40.38
623.152	35.38
623.914	37.38
624.676	35.38
625.438	33.38
626.199	33.38
626.961	27.38
627.722	27.38
628.484	27.38
629.245	28.38
630.006	29.38
630.768	26.38
631.529	24.38
632.29	25.38
633.051	29.38
633.812	22.38
634.573	23.38
635.333	23.38
636.094	20.38
636.855	20.38
637.615	20.38
638.376	19.38
639.136	21.38
639.896	16.38
640.657	20.38
641.417	19.38
642.177	17.38
642.937	19.38
643.697	17.38
644.457	16.38
645.216	13.38
645.976	15.38
646.736	12.38
647.495	14.38
648.255	16.38
649.014	13.38
649.774	14.38
650.533	14.38
651.292	12.38
652.051	13.38
652.81	14.38
653.569	13.38
654.328	12.38
655.087	11.38
655.846	12.38
656.604	9.38
657.363	12.38
658.121	12.38
658.88	12.38
659.638	9.38
660.397	12.38
661.155	12.38
661.913	8.38
662.671	8.38
663.429	10.38
664.187	12.38
664.945	13.38
665.703	10.38
666.46	10.38
667.218	9.38
667.976	10.38
668.733	8.38
669.49	10.38
670.248	10.38
671.005	9.38
671.762	9.38
672.519	9.38
673.276	9.38
674.033	8.38
674.79	5.38
675.547	8.38
676.304	7.38
677.06	7.38
677.817	8.38
678.574	7.38
679.33	9.38
680.086	8.38
680.843	9.38
681.599	8.38
682.355	8.38
683.111	8.38
683.867	9.38
684.623	5.38
685.379	6.38
686.135	7.38
686.89	6.38
687.646	8.38
688.402	7.38
689.157	7.38
689.912	7.38
690.668	5.38
691.423	6.38
692.178	6.38
692.933	8.38
693.688	6.38
694.443	6.38
695.198	8.38
695.953	6.38
696.708	8.38
697.462	8.38
698.217	5.38
698.972	7.38
699.726	5.38
700.48	6.38
701.235	4.38
701.989	4.38
702.743	7.38
703.497	6.38
704.251	6.38
705.005	7.38
705.759	7.38
706.513	10.38
707.266	7.38
708.02	6.38
708.774	6.38
709.527	9.38
710.28	7.38
711.034	6.38
711.787	6.38
712.54	8.38
713.293	7.38
714.046	6.38
714.799	8.38
715.552	6.38
716.305	8.38
717.058	7.38
717.81	6.38
718.563	6.38
719.315	6.38
720.068	6.38
720.82	7.38
721.573	4.38
722.325	6.38
723.077	6.38
723.829	8.38
724.581	8.38
725.333	7.38
726.085	7.38
726.836	8.38
727.588	8.38
728.34	7.38
729.091	10.38
729.843	9.38
730.594	8.38
731.346	8.38
732.097	8.38
732.848	9.38
733.599	9.38
734.35	9.38
735.101	8.38
735.852	9.38
736.603	10.38
737.354	7.38
738.104	9.38
738.855	7.38
739.605	8.38
740.356	10.38
741.106	10.38
741.856	9.38
742.607	9.38
743.357	8.38
744.107	8.38
744.857	10.38
745.607	9.38
746.357	9.38
747.106	10.38
747.856	10.38
748.606	10.38
749.355	9.38
750.105	7.38
750.854	8.38
751.603	10.38
752.353	10.38
753.102	11.38
753.851	10.38
754.6	11.38
755.349	10.38
756.098	12.38
756.847	11.38
757.595	9.38
758.344	11.38
759.093	10.38
759.841	11.38
760.589	14.38
761.338	11.38
762.086	11.38
762.834	11.38
763.582	11.38
764.331	13.38
765.079	14.38
765.826	13.38
766.574	11.38
767.322	13.38
768.07	15.38
768.817	18.38
769.565	13.38
770.312	11.38
771.06	12.38
771.807	14.38
772.554	16.38
773.302	12.38
774.049	15.38
774.796	17.38
775.543	15.38
776.29	16.38
777.036	14.38
777.783	16.38
778.53	14.38
779.276	14.38
780.023	14.38
780.769	14.38
781.516	14.38
782.262	12.38
783.008	16.38
783.754	14.38
784.5	12.38
785.246	14.38
785.992	14.38
786.738	15.38
787.484	13.38
788.23	16.38
788.975	15.38
789.721	14.38
790.466	14.38
791.212	13.38
791.957	13.38
792.702	14.38
793.447	14.38
794.193	10.38
794.938	11.38
795.683	14.38
796.427	13.38
797.172	13.38
797.917	13.38
798.662	12.38
799.406	11.38
800.151	10.38
800.895	11.38
801.64	13.38
802.384	10.38
803.128	12.38
803.872	11.38
804.616	9.38
805.36	9.38
806.104	8.38
806.848	9.38
807.592	10.38
808.336	10.38
809.079	8.38
809.823	10.38
810.566	7.38
811.31	9.38
812.053	9.38
812.796	8.38
813.539	8.38
814.283	7.38
815.026	7.38
815.769	9.38
816.511	7.38
817.254	6.38
817.997	9.38
818.74	7.38
819.482	5.38
820.225	7.38
820.967	9.38
821.71	6.38
822.452	9.38
823.194	4.38
823.936	5.38
824.678	7.38
825.42	2.38
826.162	7.38
826.904	5.38
827.646	6.38
828.388	7.38
829.129	6.38
829.871	4.38
830.612	4.38
831.354	4.38
832.095	3.38
832.836	3.38
833.577	6.38
834.319	6.38
835.06	4.38
835.801	6.38
836.542	6.38
837.282	7.38
838.023	3.38
838.764	5.38
839.504	6.38
840.245	9.38
840.985	4.38
841.726	6.38
842.466	5.38
843.206	3.38
843.946	7.38
844.687	3.38
845.427	4.38
846.166	2.38
846.906	5.38
847.646	5.38
848.386	3.38
849.125	4.38
849.865	3.38
850.605	3.38
851.344	5.38
852.083	5.38
852.823	3.38
853.562	2.38
854.301	4.38
855.04	3.38
855.779	5.38
856.518	2.38
857.257	4.38
857.995	4.38
858.734	1.38
859.473	3.38
860.211	1.38
860.95	2.38
861.688	2.38
862.426	2.38
863.165	1.38
863.903	4.38
864.641	4.38
865.379	1.38
866.117	1.38
866.855	2.38
867.593	3.38
868.33	2.38
869.068	1.38
869.806	1.38
870.543	4.38
871.28	2.38
872.018	2.38
872.755	2.38
873.492	0.38
874.229	1.38
874.967	0.38
875.703	2.38
876.44	0.38
877.177	2.38
877.914	1.38
878.651	0.38
879.387	0.38
880.124	1.38
880.86	1.38
881.597	1.38
882.333	0.38
883.069	0.38
883.806	-0.62
884.542	-0.62
885.278	1.38
886.014	2.38
886.749	0.38
887.485	1.38
888.221	1.38
888.957	1.38
889.692	1.38
890.428	-0.62
891.163	0.38
891.899	0.38
892.634	0.38
893.369	2.38
894.104	-0.62
894.839	1.38
895.574	2.38
896.309	0.38
897.044	-1.62
897.779	0.38
898.514	-3.62
899.248	1.38
899.983	0.38
900.717	-0.62
901.452	3.38
902.186	-0.62
902.92	0.38
903.654	2.38
904.389	0.38
905.123	2.38
905.857	0.38
906.59	-2.62
907.324	2.38
908.058	2.38
908.792	0.38
909.525	1.38
910.259	1.38
910.992	1.38
911.726	0.38
912.459	2.38
913.192	1.38
913.925	-1.62
914.658	-0.62
915.391	0.38
916.124	0.38
916.857	0.38
917.59	0.38
918.323	0.38
919.055	1.38
919.788	1.38
920.521	-1.62
921.253	1.38
921.985	-1.62
922.718	0.38
923.45	0.38
924.182	2.38
924.914	-1.62
925.646	0.38
926.378	0.38
927.11	0.38
927.841	0.38
928.573	0.38
929.305	-1.62
930.036	0.38
930.768	0.38
931.499	0.38
932.23	0.38
932.962	-0.62
933.693	-1.62
934.424	-0.62
935.155	-0.62
935.886	-0.62
936.617	0.38
937.348	0.38
938.078	-1.62
938.809	0.38
939.54	-0.62
940.27	0.38
941.001	0.38
941.731	-0.62
942.461	0.38
943.191	0.38
943.922	0.38
944.652	0.38
945.382	-0.62
946.112	0.38
946.841	0.38
947.571	0.38
948.301	-1.62
949.031	2.38
949.76	-1.62
950.49	-0.62
951.219	-1.62
951.948	-0.62
952.678	-0.62
953.407	1.38
954.136	-1.62
954.865	-1.62
955.594	1.38
956.323	0.38
957.052	0.38
957.78	0.38
958.509	-2.62
959.238	1.38
959.966	-0.62
960.695	2.38
961.423	-0.62
962.151	1.38
962.88	-0.62
963.608	0.38
964.336	-0.62
965.064	-1.62
965.792	0.38
966.52	0.38
967.247	-0.62
967.975	-0.62
968.703	-0.62
969.43	-0.62
970.158	0.38
970.885	-0.62
971.613	-1.62
972.34	0.38
973.067	-0.62
973.794	0.38
974.521	-0.62
975.248	-0.62
975.975	-1.62
976.702	-0.62
977.429	-0.62
978.156	2.38
978.882	0.38
979.609	-0.62
980.335	-1.62
981.062	-2.62
981.788	-1.62
982.514	-0.62
983.24	-1.62
983.967	0.38
984.693	-1.62
985.419	-1.62
986.144	-1.62
986.87	-1.62
987.596	0.38
988.322	-0.62
989.047	2.38
989.773	-0.62
990.498	0.38
991.224	-0.62
991.949	3.38
992.674	1.38
993.399	-0.62
994.124	0.38
994.849	0.38
995.574	1.38
996.299	-1.62
997.024	1.38
997.749	-2.62
998.473	-0.62
999.198	0.38
999.922	3.38
1000.647	0.38
1001.371	4.38
1002.095	-0.62
1002.82	-3.62
1003.544	-2.62
1004.268	4.38
1004.992	2.38
1005.716	5.38
1006.439	2.38
1007.163	2.38
1007.887	3.38
1008.611	0.38
1009.334	-0.62
1010.058	0.38
1010.781	-1.62
1011.504	-0.62
1012.228	-0.62
1012.951	1.38
1013.674	0.38
1014.397	0.38
1015.12	0.38
