节点500_705_QEPB04081__408__20-51-43-679.txt的数据

Date: Wed Nov 12 20:51:43 CST 2025
User: PC
Spectrometer: QEPB0408
触发模式: 0
积分时间 (秒): 1.000000E-2
Scans to average: 1
启用暗噪声校正: true
启用非线性校正: false
滑动平均宽度: 0
X轴模式: Wavelengths
Number of Pixels in Spectrum: 1044
>>>>>Begin Spectral Data<<<<<
220.843	6.25
221.644	3.25
222.444	5.25
223.244	5.25
224.045	6.25
224.845	7.25
225.645	4.25
226.445	8.25
227.245	6.25
228.045	7.25
228.845	8.25
229.645	7.25
230.444	6.25
231.244	8.25
232.043	7.25
232.843	7.25
233.642	10.25
234.442	11.25
235.241	9.25
236.04	7.25
236.839	11.25
237.638	10.25
238.437	10.25
239.236	10.25
240.035	11.25
240.833	11.25
241.632	9.25
242.43	11.25
243.229	12.25
244.027	14.25
244.826	13.25
245.624	12.25
246.422	11.25
247.22	13.25
248.018	13.25
248.816	13.25
249.614	16.25
250.412	14.25
251.21	16.25
252.007	14.25
252.805	16.25
253.602	15.25
254.4	15.25
255.197	16.25
255.994	18.25
256.791	19.25
257.589	20.25
258.386	20.25
259.183	23.25
259.979	20.25
260.776	20.25
261.573	21.25
262.37	21.25
263.166	22.25
263.963	24.25
264.759	25.25
265.556	22.25
266.352	25.25
267.148	26.25
267.944	27.25
268.74	27.25
269.536	27.25
270.332	30.25
271.128	28.25
271.924	27.25
272.719	32.25
273.515	27.25
274.311	28.25
275.106	29.25
275.901	31.25
276.697	32.25
277.492	30.25
278.287	34.25
279.082	28.25
279.877	34.25
280.672	34.25
281.467	29.25
282.262	29.25
283.056	33.25
283.851	32.25
284.646	30.25
285.44	34.25
286.234	31.25
287.029	30.25
287.823	30.25
288.617	32.25
289.411	29.25
290.205	30.25
290.999	29.25
291.793	30.25
292.587	29.25
293.381	27.25
294.174	28.25
294.968	31.25
295.761	27.25
296.555	24.25
297.348	24.25
298.141	24.25
298.935	29.25
299.728	25.25
300.521	25.25
301.314	27.25
302.107	23.25
302.899	24.25
303.692	24.25
304.485	22.25
305.277	22.25
306.07	20.25
306.862	21.25
307.655	20.25
308.447	19.25
309.239	19.25
310.031	18.25
310.823	19.25
311.615	18.25
312.407	17.25
313.199	16.25
313.991	15.25
314.783	16.25
315.574	15.25
316.366	15.25
317.157	14.25
317.949	18.25
318.74	14.25
319.531	13.25
320.322	15.25
321.113	14.25
321.904	13.25
322.695	14.25
323.486	14.25
324.277	15.25
325.068	12.25
325.858	11.25
326.649	12.25
327.439	15.25
328.23	8.25
329.02	12.25
329.81	11.25
330.6	12.25
331.391	10.25
332.181	11.25
332.971	11.25
333.76	13.25
334.55	11.25
335.34	14.25
336.13	11.25
336.919	15.25
337.709	10.25
338.498	10.25
339.287	14.25
340.077	13.25
340.866	11.25
341.655	11.25
342.444	13.25
343.233	12.25
344.022	12.25
344.811	14.25
345.6	8.25
346.388	11.25
347.177	8.25
347.965	11.25
348.754	11.25
349.542	10.25
350.33	8.25
351.119	13.25
351.907	13.25
352.695	10.25
353.483	11.25
354.271	9.25
355.059	10.25
355.846	10.25
356.634	10.25
357.422	10.25
358.209	9.25
358.997	11.25
359.784	11.25
360.571	10.25
361.359	9.25
362.146	12.25
362.933	9.25
363.72	11.25
364.507	10.25
365.294	10.25
366.081	10.25
366.867	10.25
367.654	10.25
368.44	12.25
369.227	8.25
370.013	8.25
370.8	9.25
371.586	8.25
372.372	12.25
373.158	10.25
373.944	12.25
374.73	9.25
375.516	7.25
376.302	9.25
377.088	8.25
377.873	10.25
378.659	12.25
379.445	12.25
380.23	9.25
381.015	8.25
381.801	11.25
382.586	10.25
383.371	8.25
384.156	11.25
384.941	9.25
385.726	10.25
386.511	9.25
387.296	9.25
388.08	13.25
388.865	10.25
389.649	11.25
390.434	13.25
391.218	12.25
392.003	9.25
392.787	13.25
393.571	10.25
394.355	11.25
395.139	11.25
395.923	12.25
396.707	11.25
397.491	13.25
398.274	11.25
399.058	12.25
399.842	15.25
400.625	14.25
401.408	11.25
402.192	14.25
402.975	15.25
403.758	13.25
404.541	12.25
405.324	14.25
406.107	12.25
406.89	14.25
407.673	14.25
408.456	16.25
409.238	16.25
410.021	15.25
410.803	16.25
411.586	18.25
412.368	18.25
413.151	16.25
413.933	16.25
414.715	17.25
415.497	18.25
416.279	16.25
417.061	19.25
417.843	17.25
418.624	15.25
419.406	21.25
420.188	21.25
420.969	20.25
421.751	21.25
422.532	21.25
423.313	19.25
424.095	19.25
424.876	22.25
425.657	24.25
426.438	22.25
427.219	24.25
428	27.25
428.78	26.25
429.561	26.25
430.342	29.25
431.122	34.25
431.903	32.25
432.683	30.25
433.464	30.25
434.244	37.25
435.024	38.25
435.804	42.25
436.584	44.25
437.364	44.25
438.144	47.25
438.924	53.25
439.704	55.25
440.483	52.25
441.263	58.25
442.042	60.25
442.822	65.25
443.601	73.25
444.38	74.25
445.16	85.25
445.939	91.25
446.718	99.25
447.497	105.25
448.276	114.25
449.054	128.25
449.833	143.25
450.612	158.25
451.391	173.25
452.169	188.25
452.948	210.25
453.726	237.25
454.504	260.25
455.282	284.25
456.061	317.25
456.839	361.25
457.617	398.25
458.395	448.25
459.172	495.25
459.95	547.25
460.728	609.25
461.506	673.25
462.283	767.25
463.061	842.25
463.838	941.25
464.615	1047.25
465.393	1166.25
466.17	1275.25
466.947	1429.25
467.724	1591.25
468.501	1765.25
469.278	1934.25
470.055	2139.25
470.831	2385.25
471.608	2610.25
472.385	2860.25
473.161	3172.25
473.938	3486.25
474.714	3819.25
475.49	4178.25
476.266	4583.25
477.043	4991.25
477.819	5445.25
478.595	5944.25
479.371	6494.25
480.146	7045.25
480.922	7708.25
481.698	8395.25
482.473	9091.25
483.249	9871.25
484.024	10718.25
484.8	11559.25
485.575	12537.25
486.35	13604.25
487.126	14739.25
487.901	15855.25
488.676	17139.25
489.451	18437.25
490.225	19860.25
491	21213.25
491.775	22688.25
492.55	24248.25
493.324	25827.25
494.099	27462.25
494.873	29069.25
495.647	30711.25
496.422	32265.25
497.196	33944.25
497.97	35531.25
498.744	36910.25
499.518	38535.25
500.292	39782.25
501.066	40671.25
501.839	41600.25
502.613	42456.25
503.387	43085.25
504.16	43452.25
504.934	43703.25
505.707	43745.25
506.48	43537.25
507.253	43186.25
508.027	42615.25
508.8	41874.25
509.573	40919.25
510.346	39972.25
511.118	39088.25
511.891	37955.25
512.664	36498.25
513.437	35269.25
514.209	34000.25
514.982	32740.25
515.754	31443.25
516.526	30147.25
517.298	28969.25
518.071	27806.25
518.843	26741.25
519.615	25680.25
520.387	24611.25
521.159	23642.25
521.93	22659.25
522.702	21729.25
523.474	20853.25
524.245	19999.25
525.017	19142.25
525.788	18294.25
526.56	17585.25
527.331	16805.25
528.102	15981.25
528.873	15203.25
529.644	14442.25
530.415	13784.25
531.186	13088.25
531.957	12435.25
532.728	11835.25
533.498	11192.25
534.269	10587.25
535.039	10065.25
535.81	9501.25
536.58	8996.25
537.351	8507.25
538.121	8079.25
538.891	7637.25
539.661	7200.25
540.431	6802.25
541.201	6488.25
541.971	6150.25
542.741	5828.25
543.51	5486.25
544.28	5264.25
545.05	5009.25
545.819	4778.25
546.588	4544.25
547.358	4351.25
548.127	4123.25
548.896	3926.25
549.665	3716.25
550.434	3530.25
551.203	3369.25
551.972	3167.25
552.741	3007.25
553.51	2814.25
554.278	2667.25
555.047	2531.25
555.815	2401.25
556.584	2268.25
557.352	2142.25
558.121	2011.25
558.889	1915.25
559.657	1794.25
560.425	1702.25
561.193	1633.25
561.961	1526.25
562.729	1447.25
563.496	1359.25
564.264	1296.25
565.032	1215.25
565.799	1160.25
566.567	1113.25
567.334	1033.25
568.101	981.25
568.869	935.25
569.636	878.25
570.403	833.25
571.17	770.25
571.937	742.25
572.704	686.25
573.471	652.25
574.237	615.25
575.004	581.25
575.771	540.25
576.537	517.25
577.303	494.25
578.07	466.25
578.836	435.25
579.602	409.25
580.368	392.25
581.134	375.25
581.9	356.25
582.666	337.25
583.432	324.25
584.198	307.25
584.964	291.25
585.729	275.25
586.495	263.25
587.26	246.25
588.025	233.25
588.791	222.25
589.556	210.25
590.321	196.25
591.086	186.25
591.851	177.25
592.616	172.25
593.381	166.25
594.146	155.25
594.911	147.25
595.675	143.25
596.44	137.25
597.204	131.25
597.969	125.25
598.733	117.25
599.497	115.25
600.261	113.25
601.025	103.25
601.79	102.25
602.553	95.25
603.317	94.25
604.081	90.25
604.845	84.25
605.609	80.25
606.372	74.25
607.136	74.25
607.899	74.25
608.662	70.25
609.426	66.25
610.189	61.25
610.952	62.25
611.715	62.25
612.478	58.25
613.241	54.25
614.004	52.25
614.767	53.25
615.529	50.25
616.292	49.25
617.055	49.25
617.817	47.25
618.579	45.25
619.342	40.25
620.104	42.25
620.866	40.25
621.628	39.25
622.39	39.25
623.152	36.25
623.914	34.25
624.676	35.25
625.438	35.25
626.199	29.25
626.961	33.25
627.722	25.25
628.484	29.25
629.245	28.25
630.006	28.25
630.768	24.25
631.529	25.25
632.29	26.25
633.051	23.25
633.812	26.25
634.573	22.25
635.333	23.25
636.094	21.25
636.855	19.25
637.615	20.25
638.376	21.25
639.136	18.25
639.896	19.25
640.657	20.25
641.417	17.25
642.177	16.25
642.937	18.25
643.697	16.25
644.457	18.25
645.216	18.25
645.976	15.25
646.736	17.25
647.495	13.25
648.255	13.25
649.014	15.25
649.774	15.25
650.533	15.25
651.292	14.25
652.051	17.25
652.81	13.25
653.569	11.25
654.328	11.25
655.087	11.25
655.846	12.25
656.604	13.25
657.363	12.25
658.121	13.25
658.88	11.25
659.638	9.25
660.397	10.25
661.155	9.25
661.913	12.25
662.671	14.25
663.429	11.25
664.187	10.25
664.945	11.25
665.703	7.25
666.46	11.25
667.218	12.25
667.976	6.25
668.733	9.25
669.49	11.25
670.248	8.25
671.005	11.25
671.762	9.25
672.519	10.25
673.276	10.25
674.033	10.25
674.79	5.25
675.547	10.25
676.304	9.25
677.06	7.25
677.817	7.25
678.574	10.25
679.33	7.25
680.086	5.25
680.843	9.25
681.599	8.25
682.355	8.25
683.111	8.25
683.867	7.25
684.623	8.25
685.379	10.25
686.135	10.25
686.89	7.25
687.646	6.25
688.402	8.25
689.157	7.25
689.912	8.25
690.668	9.25
691.423	6.25
692.178	5.25
692.933	3.25
693.688	7.25
694.443	5.25
695.198	7.25
695.953	9.25
696.708	9.25
697.462	8.25
698.217	6.25
698.972	9.25
699.726	9.25
700.48	6.25
701.235	6.25
701.989	8.25
702.743	8.25
703.497	7.25
704.251	9.25
705.005	7.25
705.759	6.25
706.513	7.25
707.266	7.25
708.02	8.25
708.774	7.25
709.527	7.25
710.28	8.25
711.034	8.25
711.787	9.25
712.54	7.25
713.293	8.25
714.046	7.25
714.799	7.25
715.552	9.25
716.305	6.25
717.058	8.25
717.81	8.25
718.563	7.25
719.315	8.25
720.068	8.25
720.82	9.25
721.573	9.25
722.325	5.25
723.077	9.25
723.829	7.25
724.581	5.25
725.333	7.25
726.085	6.25
726.836	8.25
727.588	11.25
728.34	9.25
729.091	9.25
729.843	10.25
730.594	8.25
731.346	11.25
732.097	8.25
732.848	9.25
733.599	10.25
734.35	8.25
735.101	10.25
735.852	7.25
736.603	7.25
737.354	7.25
738.104	9.25
738.855	12.25
739.605	11.25
740.356	11.25
741.106	12.25
741.856	11.25
742.607	9.25
743.357	8.25
744.107	11.25
744.857	9.25
745.607	9.25
746.357	9.25
747.106	9.25
747.856	10.25
748.606	10.25
749.355	10.25
750.105	10.25
750.854	11.25
751.603	10.25
752.353	10.25
753.102	11.25
753.851	9.25
754.6	11.25
755.349	11.25
756.098	11.25
756.847	13.25
757.595	12.25
758.344	10.25
759.093	11.25
759.841	12.25
760.589	11.25
761.338	12.25
762.086	12.25
762.834	10.25
763.582	14.25
764.331	12.25
765.079	13.25
765.826	13.25
766.574	12.25
767.322	13.25
768.07	11.25
768.817	14.25
769.565	13.25
770.312	14.25
771.06	11.25
771.807	14.25
772.554	17.25
773.302	15.25
774.049	15.25
774.796	14.25
775.543	14.25
776.29	15.25
777.036	17.25
777.783	14.25
778.53	15.25
779.276	16.25
780.023	15.25
780.769	16.25
781.516	13.25
782.262	16.25
783.008	18.25
783.754	17.25
784.5	16.25
785.246	15.25
785.992	13.25
786.738	13.25
787.484	13.25
788.23	13.25
788.975	14.25
789.721	13.25
790.466	15.25
791.212	13.25
791.957	16.25
792.702	16.25
793.447	12.25
794.193	15.25
794.938	13.25
795.683	14.25
796.427	12.25
797.172	11.25
797.917	13.25
798.662	13.25
799.406	14.25
800.151	11.25
800.895	13.25
801.64	10.25
802.384	9.25
803.128	11.25
803.872	9.25
804.616	12.25
805.36	10.25
806.104	9.25
806.848	12.25
807.592	11.25
808.336	9.25
809.079	6.25
809.823	9.25
810.566	12.25
811.31	8.25
812.053	10.25
812.796	5.25
813.539	9.25
814.283	8.25
815.026	10.25
815.769	10.25
816.511	4.25
817.254	8.25
817.997	8.25
818.74	9.25
819.482	7.25
820.225	8.25
820.967	6.25
821.71	6.25
822.452	8.25
823.194	7.25
823.936	4.25
824.678	7.25
825.42	8.25
826.162	8.25
826.904	7.25
827.646	7.25
828.388	9.25
829.129	7.25
829.871	9.25
830.612	6.25
831.354	5.25
832.095	5.25
832.836	5.25
833.577	7.25
834.319	5.25
835.06	6.25
835.801	7.25
836.542	6.25
837.282	6.25
838.023	6.25
838.764	7.25
839.504	7.25
840.245	4.25
840.985	6.25
841.726	5.25
842.466	8.25
843.206	5.25
843.946	4.25
844.687	1.25
845.427	6.25
846.166	5.25
846.906	6.25
847.646	5.25
848.386	5.25
849.125	8.25
849.865	7.25
850.605	4.25
851.344	3.25
852.083	5.25
852.823	4.25
853.562	5.25
854.301	3.25
855.04	2.25
855.779	4.25
856.518	2.25
857.257	3.25
857.995	5.25
858.734	2.25
859.473	3.25
860.211	4.25
860.95	3.25
861.688	4.25
862.426	3.25
863.165	5.25
863.903	2.25
864.641	4.25
865.379	3.25
866.117	2.25
866.855	7.25
867.593	5.25
868.33	1.25
869.068	3.25
869.806	3.25
870.543	2.25
871.28	1.25
872.018	4.25
872.755	1.25
873.492	1.25
874.229	5.25
874.967	1.25
875.703	3.25
876.44	2.25
877.177	3.25
877.914	2.25
878.651	-0.75
879.387	2.25
880.124	0.25
880.86	2.25
881.597	-0.75
882.333	1.25
883.069	3.25
883.806	0.25
884.542	3.25
885.278	-0.75
886.014	3.25
886.749	1.25
887.485	1.25
888.221	1.25
888.957	1.25
889.692	2.25
890.428	1.25
891.163	-0.75
891.899	0.25
892.634	1.25
893.369	2.25
894.104	0.25
894.839	1.25
895.574	2.25
896.309	1.25
897.044	1.25
897.779	-0.75
898.514	4.25
899.248	1.25
899.983	2.25
900.717	1.25
901.452	3.25
902.186	1.25
902.92	2.25
903.654	2.25
904.389	2.25
905.123	1.25
905.857	0.25
906.59	2.25
907.324	2.25
908.058	1.25
908.792	2.25
909.525	1.25
910.259	1.25
910.992	0.25
911.726	0.25
912.459	0.25
913.192	-0.75
913.925	3.25
914.658	-0.75
915.391	1.25
916.124	0.25
916.857	0.25
917.59	0.25
918.323	3.25
919.055	1.25
919.788	-0.75
920.521	3.25
921.253	3.25
921.985	0.25
922.718	0.25
923.45	1.25
924.182	2.25
924.914	0.25
925.646	2.25
926.378	0.25
927.11	-0.75
927.841	-0.75
928.573	0.25
929.305	1.25
930.036	0.25
930.768	2.25
931.499	2.25
932.23	0.25
932.962	0.25
933.693	-1.75
934.424	1.25
935.155	2.25
935.886	0.25
936.617	2.25
937.348	1.25
938.078	1.25
938.809	2.25
939.54	-0.75
940.27	0.25
941.001	0.25
941.731	1.25
942.461	1.25
943.191	-0.75
943.922	2.25
944.652	0.25
945.382	1.25
946.112	1.25
946.841	2.25
947.571	3.25
948.301	0.25
949.031	-0.75
949.76	1.25
950.49	-0.75
951.219	1.25
951.948	-0.75
952.678	0.25
953.407	2.25
954.136	0.25
954.865	0.25
955.594	-0.75
956.323	1.25
957.052	0.25
957.78	2.25
958.509	0.25
959.238	1.25
959.966	1.25
960.695	1.25
961.423	-0.75
962.151	1.25
962.88	2.25
963.608	0.25
964.336	3.25
965.064	1.25
965.792	0.25
966.52	-2.75
967.247	-0.75
967.975	1.25
968.703	2.25
969.43	0.25
970.158	0.25
970.885	0.25
971.613	0.25
972.34	-0.75
973.067	-0.75
973.794	-0.75
974.521	1.25
975.248	1.25
975.975	0.25
976.702	1.25
977.429	2.25
978.156	1.25
978.882	0.25
979.609	1.25
980.335	0.25
981.062	0.25
981.788	2.25
982.514	1.25
983.24	-0.75
983.967	1.25
984.693	1.25
985.419	-0.75
986.144	0.25
986.87	1.25
987.596	-0.75
988.322	3.25
989.047	1.25
989.773	0.25
990.498	4.25
991.224	2.25
991.949	-0.75
992.674	0.25
993.399	0.25
994.124	1.25
994.849	0.25
995.574	0.25
996.299	-0.75
997.024	0.25
997.749	-0.75
998.473	-1.75
999.198	2.25
999.922	2.25
1000.647	0.25
1001.371	3.25
1002.095	-1.75
1002.82	0.25
1003.544	-1.75
1004.268	3.25
1004.992	3.25
1005.716	4.25
1006.439	6.25
1007.163	6.25
1007.887	4.25
1008.611	1.25
1009.334	0.25
1010.058	-0.75
1010.781	-0.75
1011.504	1.25
1012.228	-0.75
1012.951	0.25
1013.674	-0.75
1014.397	-1.75
1015.12	2.25
