节点500_705_QEPB04081__71__20-47-04-283.txt的数据

Date: Wed Nov 12 20:47:04 CST 2025
User: PC
Spectrometer: QEPB0408
触发模式: 0
积分时间 (秒): 1.000000E-2
Scans to average: 1
启用暗噪声校正: true
启用非线性校正: false
滑动平均宽度: 0
X轴模式: Wavelengths
Number of Pixels in Spectrum: 1044
>>>>>Begin Spectral Data<<<<<
220.843	7.12
221.644	6.12
222.444	6.12
223.244	5.12
224.045	8.12
224.845	6.12
225.645	8.12
226.445	5.12
227.245	9.12
228.045	8.12
228.845	9.12
229.645	10.12
230.444	7.12
231.244	9.12
232.043	10.12
232.843	8.12
233.642	10.12
234.442	10.12
235.241	11.12
236.04	7.12
236.839	9.12
237.638	11.12
238.437	10.12
239.236	12.12
240.035	12.12
240.833	13.12
241.632	13.12
242.43	11.12
243.229	14.12
244.027	14.12
244.826	14.12
245.624	14.12
246.422	14.12
247.22	18.12
248.018	19.12
248.816	19.12
249.614	16.12
250.412	16.12
251.21	19.12
252.007	19.12
252.805	19.12
253.602	17.12
254.4	21.12
255.197	20.12
255.994	23.12
256.791	22.12
257.589	24.12
258.386	21.12
259.183	23.12
259.979	26.12
260.776	30.12
261.573	25.12
262.37	29.12
263.166	29.12
263.963	27.12
264.759	27.12
265.556	28.12
266.352	29.12
267.148	30.12
267.944	33.12
268.74	31.12
269.536	32.12
270.332	34.12
271.128	35.12
271.924	38.12
272.719	32.12
273.515	36.12
274.311	33.12
275.106	38.12
275.901	38.12
276.697	36.12
277.492	36.12
278.287	38.12
279.082	37.12
279.877	37.12
280.672	39.12
281.467	39.12
282.262	35.12
283.056	35.12
283.851	37.12
284.646	36.12
285.44	36.12
286.234	37.12
287.029	35.12
287.823	38.12
288.617	34.12
289.411	33.12
290.205	31.12
290.999	33.12
291.793	31.12
292.587	36.12
293.381	24.12
294.174	34.12
294.968	30.12
295.761	30.12
296.555	29.12
297.348	28.12
298.141	26.12
298.935	29.12
299.728	25.12
300.521	26.12
301.314	28.12
302.107	25.12
302.899	22.12
303.692	24.12
304.485	23.12
305.277	22.12
306.07	21.12
306.862	22.12
307.655	23.12
308.447	20.12
309.239	22.12
310.031	22.12
310.823	21.12
311.615	20.12
312.407	17.12
313.199	20.12
313.991	16.12
314.783	17.12
315.574	17.12
316.366	16.12
317.157	16.12
317.949	18.12
318.74	16.12
319.531	14.12
320.322	15.12
321.113	14.12
321.904	11.12
322.695	15.12
323.486	15.12
324.277	14.12
325.068	14.12
325.858	13.12
326.649	12.12
327.439	13.12
328.23	13.12
329.02	13.12
329.81	10.12
330.6	13.12
331.391	13.12
332.181	13.12
332.971	14.12
333.76	13.12
334.55	12.12
335.34	11.12
336.13	13.12
336.919	13.12
337.709	11.12
338.498	13.12
339.287	12.12
340.077	12.12
340.866	13.12
341.655	15.12
342.444	11.12
343.233	14.12
344.022	13.12
344.811	10.12
345.6	10.12
346.388	12.12
347.177	11.12
347.965	13.12
348.754	12.12
349.542	11.12
350.33	9.12
351.119	12.12
351.907	12.12
352.695	9.12
353.483	11.12
354.271	11.12
355.059	11.12
355.846	9.12
356.634	12.12
357.422	12.12
358.209	10.12
358.997	10.12
359.784	11.12
360.571	11.12
361.359	10.12
362.146	10.12
362.933	9.12
363.72	9.12
364.507	9.12
365.294	9.12
366.081	7.12
366.867	11.12
367.654	11.12
368.44	10.12
369.227	9.12
370.013	11.12
370.8	9.12
371.586	11.12
372.372	9.12
373.158	12.12
373.944	9.12
374.73	7.12
375.516	12.12
376.302	9.12
377.088	11.12
377.873	11.12
378.659	10.12
379.445	9.12
380.23	10.12
381.015	9.12
381.801	10.12
382.586	10.12
383.371	12.12
384.156	10.12
384.941	14.12
385.726	7.12
386.511	10.12
387.296	11.12
388.08	9.12
388.865	11.12
389.649	11.12
390.434	13.12
391.218	11.12
392.003	12.12
392.787	11.12
393.571	13.12
394.355	14.12
395.139	12.12
395.923	11.12
396.707	12.12
397.491	14.12
398.274	14.12
399.058	15.12
399.842	15.12
400.625	15.12
401.408	14.12
402.192	12.12
402.975	14.12
403.758	15.12
404.541	14.12
405.324	17.12
406.107	17.12
406.89	15.12
407.673	14.12
408.456	15.12
409.238	16.12
410.021	19.12
410.803	16.12
411.586	17.12
412.368	18.12
413.151	21.12
413.933	16.12
414.715	19.12
415.497	18.12
416.279	19.12
417.061	21.12
417.843	21.12
418.624	21.12
419.406	24.12
420.188	22.12
420.969	21.12
421.751	23.12
422.532	22.12
423.313	27.12
424.095	22.12
424.876	24.12
425.657	25.12
426.438	26.12
427.219	26.12
428	29.12
428.78	30.12
429.561	31.12
430.342	32.12
431.122	33.12
431.903	34.12
432.683	35.12
433.464	33.12
434.244	38.12
435.024	38.12
435.804	44.12
436.584	47.12
437.364	49.12
438.144	48.12
438.924	49.12
439.704	54.12
440.483	61.12
441.263	60.12
442.042	62.12
442.822	66.12
443.601	73.12
444.38	74.12
445.16	83.12
445.939	88.12
446.718	99.12
447.497	102.12
448.276	117.12
449.054	127.12
449.833	139.12
450.612	153.12
451.391	170.12
452.169	184.12
452.948	198.12
453.726	227.12
454.504	248.12
455.282	285.12
456.061	309.12
456.839	335.12
457.617	389.12
458.395	430.12
459.172	480.12
459.95	538.12
460.728	590.12
461.506	676.12
462.283	747.12
463.061	835.12
463.838	940.12
464.615	1047.12
465.393	1177.12
466.17	1311.12
466.947	1459.12
467.724	1618.12
468.501	1797.12
469.278	1992.12
470.055	2202.12
470.831	2479.12
471.608	2740.12
472.385	3028.12
473.161	3333.12
473.938	3716.12
474.714	4105.12
475.49	4485.12
476.266	4970.12
477.043	5444.12
477.819	6003.12
478.595	6560.12
479.371	7245.12
480.146	7932.12
480.922	8684.12
481.698	9551.12
482.473	10461.12
483.249	11389.12
484.024	12417.12
484.8	13506.12
485.575	14682.12
486.35	15998.12
487.126	17369.12
487.901	18861.12
488.676	20417.12
489.451	22092.12
490.225	23790.12
491	25618.12
491.775	27437.12
492.55	29406.12
493.324	31271.12
494.099	33217.12
494.873	35171.12
495.647	37151.12
496.422	39111.12
497.196	40944.12
497.97	42727.12
498.744	44301.12
499.518	45782.12
500.292	47201.12
501.066	48033.12
501.839	48817.12
502.613	49466.12
503.387	49863.12
504.16	50103.12
504.934	49901.12
505.707	49354.12
506.48	48871.12
507.253	47983.12
508.027	46991.12
508.8	45748.12
509.573	44509.12
510.346	43176.12
511.118	41878.12
511.891	40510.12
512.664	38628.12
513.437	37146.12
514.209	35594.12
514.982	34149.12
515.754	32661.12
516.526	31368.12
517.298	30033.12
518.071	28834.12
518.843	27655.12
519.615	26530.12
520.387	25495.12
521.159	24510.12
521.93	23443.12
522.702	22426.12
523.474	21456.12
524.245	20509.12
525.017	19505.12
525.788	18763.12
526.56	17942.12
527.331	17040.12
528.102	16122.12
528.873	15291.12
529.644	14575.12
530.415	13891.12
531.186	13176.12
531.957	12491.12
532.728	11807.12
533.498	11155.12
534.269	10531.12
535.039	9998.12
535.81	9429.12
536.58	8900.12
537.351	8383.12
538.121	8000.12
538.891	7543.12
539.661	7156.12
540.431	6758.12
541.201	6408.12
541.971	6097.12
542.741	5757.12
543.51	5463.12
544.28	5226.12
545.05	4952.12
545.819	4705.12
546.588	4488.12
547.358	4271.12
548.127	4061.12
548.896	3841.12
549.665	3658.12
550.434	3421.12
551.203	3246.12
551.972	3113.12
552.741	2941.12
553.51	2765.12
554.278	2602.12
555.047	2438.12
555.815	2314.12
556.584	2202.12
557.352	2075.12
558.121	1963.12
558.889	1841.12
559.657	1729.12
560.425	1659.12
561.193	1558.12
561.961	1470.12
562.729	1402.12
563.496	1321.12
564.264	1236.12
565.032	1172.12
565.799	1119.12
566.567	1052.12
567.334	1008.12
568.101	949.12
568.869	890.12
569.636	849.12
570.403	800.12
571.17	752.12
571.937	716.12
572.704	681.12
573.471	641.12
574.237	587.12
575.004	566.12
575.771	525.12
576.537	509.12
577.303	467.12
578.07	448.12
578.836	421.12
579.602	401.12
580.368	368.12
581.134	361.12
581.9	346.12
582.666	324.12
583.432	313.12
584.198	295.12
584.964	283.12
585.729	265.12
586.495	250.12
587.26	236.12
588.025	222.12
588.791	213.12
589.556	202.12
590.321	196.12
591.086	182.12
591.851	178.12
592.616	166.12
593.381	161.12
594.146	150.12
594.911	146.12
595.675	132.12
596.44	134.12
597.204	127.12
597.969	120.12
598.733	119.12
599.497	115.12
600.261	109.12
601.025	99.12
601.79	96.12
602.553	95.12
603.317	88.12
604.081	84.12
604.845	85.12
605.609	80.12
606.372	76.12
607.136	75.12
607.899	73.12
608.662	68.12
609.426	69.12
610.189	61.12
610.952	64.12
611.715	57.12
612.478	57.12
613.241	55.12
614.004	52.12
614.767	50.12
615.529	51.12
616.292	51.12
617.055	47.12
617.817	45.12
618.579	46.12
619.342	41.12
620.104	41.12
620.866	38.12
621.628	40.12
622.39	39.12
623.152	34.12
623.914	33.12
624.676	34.12
625.438	35.12
626.199	27.12
626.961	34.12
627.722	31.12
628.484	30.12
629.245	29.12
630.006	30.12
630.768	28.12
631.529	26.12
632.29	24.12
633.051	27.12
633.812	27.12
634.573	25.12
635.333	23.12
636.094	24.12
636.855	22.12
637.615	19.12
638.376	20.12
639.136	19.12
639.896	23.12
640.657	17.12
641.417	18.12
642.177	17.12
642.937	19.12
643.697	17.12
644.457	20.12
645.216	17.12
645.976	17.12
646.736	15.12
647.495	17.12
648.255	15.12
649.014	13.12
649.774	15.12
650.533	15.12
651.292	14.12
652.051	13.12
652.81	14.12
653.569	12.12
654.328	14.12
655.087	12.12
655.846	11.12
656.604	12.12
657.363	11.12
658.121	14.12
658.88	10.12
659.638	15.12
660.397	13.12
661.155	11.12
661.913	11.12
662.671	11.12
663.429	10.12
664.187	12.12
664.945	12.12
665.703	11.12
666.46	11.12
667.218	11.12
667.976	11.12
668.733	10.12
669.49	12.12
670.248	11.12
671.005	13.12
671.762	9.12
672.519	10.12
673.276	10.12
674.033	11.12
674.79	10.12
675.547	9.12
676.304	10.12
677.06	7.12
677.817	8.12
678.574	9.12
679.33	7.12
680.086	10.12
680.843	8.12
681.599	6.12
682.355	8.12
683.111	8.12
683.867	5.12
684.623	9.12
685.379	10.12
686.135	9.12
686.89	10.12
687.646	9.12
688.402	7.12
689.157	9.12
689.912	8.12
690.668	9.12
691.423	7.12
692.178	10.12
692.933	7.12
693.688	5.12
694.443	8.12
695.198	6.12
695.953	8.12
696.708	7.12
697.462	9.12
698.217	8.12
698.972	8.12
699.726	7.12
700.48	9.12
701.235	9.12
701.989	7.12
702.743	7.12
703.497	7.12
704.251	7.12
705.005	8.12
705.759	5.12
706.513	8.12
707.266	8.12
708.02	9.12
708.774	9.12
709.527	6.12
710.28	8.12
711.034	7.12
711.787	7.12
712.54	10.12
713.293	8.12
714.046	9.12
714.799	9.12
715.552	9.12
716.305	7.12
717.058	7.12
717.81	7.12
718.563	8.12
719.315	6.12
720.068	9.12
720.82	7.12
721.573	9.12
722.325	7.12
723.077	7.12
723.829	9.12
724.581	9.12
725.333	10.12
726.085	8.12
726.836	10.12
727.588	8.12
728.34	10.12
729.091	8.12
729.843	9.12
730.594	8.12
731.346	11.12
732.097	10.12
732.848	9.12
733.599	8.12
734.35	9.12
735.101	10.12
735.852	9.12
736.603	7.12
737.354	12.12
738.104	9.12
738.855	12.12
739.605	9.12
740.356	12.12
741.106	11.12
741.856	8.12
742.607	11.12
743.357	13.12
744.107	11.12
744.857	10.12
745.607	11.12
746.357	12.12
747.106	11.12
747.856	13.12
748.606	12.12
749.355	13.12
750.105	14.12
750.854	12.12
751.603	12.12
752.353	12.12
753.102	11.12
753.851	14.12
754.6	11.12
755.349	13.12
756.098	10.12
756.847	12.12
757.595	12.12
758.344	13.12
759.093	13.12
759.841	13.12
760.589	14.12
761.338	15.12
762.086	13.12
762.834	12.12
763.582	14.12
764.331	14.12
765.079	13.12
765.826	15.12
766.574	15.12
767.322	15.12
768.07	14.12
768.817	15.12
769.565	15.12
770.312	15.12
771.06	15.12
771.807	14.12
772.554	13.12
773.302	12.12
774.049	16.12
774.796	15.12
775.543	17.12
776.29	17.12
777.036	19.12
777.783	18.12
778.53	17.12
779.276	16.12
780.023	17.12
780.769	19.12
781.516	17.12
782.262	18.12
783.008	18.12
783.754	15.12
784.5	14.12
785.246	17.12
785.992	16.12
786.738	18.12
787.484	16.12
788.23	15.12
788.975	17.12
789.721	14.12
790.466	15.12
791.212	18.12
791.957	15.12
792.702	15.12
793.447	15.12
794.193	14.12
794.938	16.12
795.683	15.12
796.427	14.12
797.172	14.12
797.917	15.12
798.662	14.12
799.406	16.12
800.151	13.12
800.895	12.12
801.64	12.12
802.384	12.12
803.128	10.12
803.872	13.12
804.616	13.12
805.36	11.12
806.104	10.12
806.848	10.12
807.592	9.12
808.336	12.12
809.079	10.12
809.823	10.12
810.566	11.12
811.31	8.12
812.053	8.12
812.796	9.12
813.539	12.12
814.283	8.12
815.026	7.12
815.769	7.12
816.511	8.12
817.254	9.12
817.997	8.12
818.74	10.12
819.482	9.12
820.225	6.12
820.967	8.12
821.71	5.12
822.452	8.12
823.194	6.12
823.936	8.12
824.678	7.12
825.42	5.12
826.162	7.12
826.904	6.12
827.646	7.12
828.388	6.12
829.129	8.12
829.871	8.12
830.612	6.12
831.354	7.12
832.095	3.12
832.836	8.12
833.577	8.12
834.319	4.12
835.06	8.12
835.801	5.12
836.542	8.12
837.282	6.12
838.023	7.12
838.764	7.12
839.504	5.12
840.245	6.12
840.985	4.12
841.726	6.12
842.466	3.12
843.206	5.12
843.946	6.12
844.687	7.12
845.427	5.12
846.166	9.12
846.906	6.12
847.646	6.12
848.386	4.12
849.125	6.12
849.865	7.12
850.605	4.12
851.344	4.12
852.083	4.12
852.823	8.12
853.562	3.12
854.301	6.12
855.04	4.12
855.779	3.12
856.518	4.12
857.257	5.12
857.995	4.12
858.734	4.12
859.473	3.12
860.211	5.12
860.95	2.12
861.688	5.12
862.426	3.12
863.165	6.12
863.903	3.12
864.641	3.12
865.379	3.12
866.117	2.12
866.855	3.12
867.593	2.12
868.33	3.12
869.068	2.12
869.806	5.12
870.543	3.12
871.28	3.12
872.018	2.12
872.755	2.12
873.492	2.12
874.229	2.12
874.967	4.12
875.703	3.12
876.44	1.12
877.177	3.12
877.914	1.12
878.651	3.12
879.387	3.12
880.124	0.12
880.86	4.12
881.597	1.12
882.333	2.12
883.069	1.12
883.806	0.12
884.542	0.12
885.278	0.12
886.014	1.12
886.749	1.12
887.485	3.12
888.221	3.12
888.957	0.12
889.692	0.12
890.428	0.12
891.163	5.12
891.899	2.12
892.634	1.12
893.369	2.12
894.104	-0.88
894.839	2.12
895.574	0.12
896.309	2.12
897.044	3.12
897.779	-0.88
898.514	4.12
899.248	1.12
899.983	1.12
900.717	2.12
901.452	2.12
902.186	1.12
902.92	2.12
903.654	4.12
904.389	-0.88
905.123	0.12
905.857	0.12
906.59	3.12
907.324	3.12
908.058	0.12
908.792	3.12
909.525	3.12
910.259	1.12
910.992	1.12
911.726	2.12
912.459	1.12
913.192	2.12
913.925	2.12
914.658	-0.88
915.391	1.12
916.124	2.12
916.857	-0.88
917.59	0.12
918.323	1.12
919.055	-0.88
919.788	3.12
920.521	1.12
921.253	1.12
921.985	-1.88
922.718	1.12
923.45	1.12
924.182	1.12
924.914	2.12
925.646	1.12
926.378	0.12
927.11	-0.88
927.841	2.12
928.573	0.12
929.305	1.12
930.036	-0.88
930.768	0.12
931.499	0.12
932.23	-0.88
932.962	1.12
933.693	0.12
934.424	2.12
935.155	1.12
935.886	0.12
936.617	0.12
937.348	1.12
938.078	-0.88
938.809	0.12
939.54	-0.88
940.27	1.12
941.001	-0.88
941.731	3.12
942.461	-0.88
943.191	-0.88
943.922	-0.88
944.652	1.12
945.382	-0.88
946.112	1.12
946.841	-1.88
947.571	-0.88
948.301	0.12
949.031	-0.88
949.76	-1.88
950.49	0.12
951.219	1.12
951.948	1.12
952.678	1.12
953.407	-0.88
954.136	1.12
954.865	1.12
955.594	2.12
956.323	1.12
957.052	0.12
957.78	-0.88
958.509	-0.88
959.238	2.12
959.966	1.12
960.695	3.12
961.423	1.12
962.151	1.12
962.88	0.12
963.608	-0.88
964.336	0.12
965.064	1.12
965.792	1.12
966.52	-0.88
967.247	0.12
967.975	-1.88
968.703	0.12
969.43	2.12
970.158	1.12
970.885	-1.88
971.613	0.12
972.34	0.12
973.067	0.12
973.794	1.12
974.521	-0.88
975.248	0.12
975.975	0.12
976.702	1.12
977.429	0.12
978.156	1.12
978.882	0.12
979.609	-1.88
980.335	1.12
981.062	-0.88
981.788	0.12
982.514	0.12
983.24	1.12
983.967	0.12
984.693	-0.88
985.419	1.12
986.144	-1.88
986.87	1.12
987.596	-0.88
988.322	2.12
989.047	1.12
989.773	2.12
990.498	1.12
991.224	3.12
991.949	1.12
992.674	-0.88
993.399	-1.88
994.124	-1.88
994.849	1.12
995.574	1.12
996.299	1.12
997.024	2.12
997.749	2.12
998.473	1.12
999.198	2.12
999.922	1.12
1000.647	-0.88
1001.371	3.12
1002.095	-0.88
1002.82	-0.88
1003.544	-3.88
1004.268	6.12
1004.992	6.12
1005.716	4.12
1006.439	8.12
1007.163	5.12
1007.887	5.12
1008.611	1.12
1009.334	0.12
1010.058	2.12
1010.781	-0.88
1011.504	0.12
1012.228	1.12
1012.951	1.12
1013.674	1.12
1014.397	-0.88
1015.12	1.12
