节点500_705_QEPB04081__520__20-53-16-764.txt的数据

Date: Wed Nov 12 20:53:16 CST 2025
User: PC
Spectrometer: QEPB0408
触发模式: 0
积分时间 (秒): 1.000000E-2
Scans to average: 1
启用暗噪声校正: true
启用非线性校正: false
滑动平均宽度: 0
X轴模式: Wavelengths
Number of Pixels in Spectrum: 1044
>>>>>Begin Spectral Data<<<<<
220.843	5.75
221.644	6.75
222.444	7.75
223.244	7.75
224.045	7.75
224.845	5.75
225.645	7.75
226.445	6.75
227.245	6.75
228.045	8.75
228.845	5.75
229.645	9.75
230.444	10.75
231.244	12.75
232.043	7.75
232.843	8.75
233.642	8.75
234.442	9.75
235.241	11.75
236.04	9.75
236.839	10.75
237.638	10.75
238.437	8.75
239.236	10.75
240.035	11.75
240.833	13.75
241.632	12.75
242.43	12.75
243.229	13.75
244.027	10.75
244.826	13.75
245.624	12.75
246.422	11.75
247.22	15.75
248.018	13.75
248.816	14.75
249.614	16.75
250.412	16.75
251.21	13.75
252.007	16.75
252.805	16.75
253.602	14.75
254.4	17.75
255.197	16.75
255.994	19.75
256.791	21.75
257.589	18.75
258.386	22.75
259.183	18.75
259.979	21.75
260.776	22.75
261.573	20.75
262.37	21.75
263.166	25.75
263.963	27.75
264.759	24.75
265.556	23.75
266.352	26.75
267.148	24.75
267.944	25.75
268.74	27.75
269.536	25.75
270.332	26.75
271.128	32.75
271.924	30.75
272.719	30.75
273.515	32.75
274.311	27.75
275.106	29.75
275.901	31.75
276.697	33.75
277.492	30.75
278.287	34.75
279.082	34.75
279.877	30.75
280.672	36.75
281.467	31.75
282.262	32.75
283.056	34.75
283.851	35.75
284.646	31.75
285.44	32.75
286.234	32.75
287.029	33.75
287.823	31.75
288.617	30.75
289.411	32.75
290.205	32.75
290.999	29.75
291.793	31.75
292.587	34.75
293.381	33.75
294.174	33.75
294.968	29.75
295.761	26.75
296.555	25.75
297.348	27.75
298.141	27.75
298.935	29.75
299.728	26.75
300.521	27.75
301.314	23.75
302.107	24.75
302.899	22.75
303.692	24.75
304.485	22.75
305.277	21.75
306.07	22.75
306.862	20.75
307.655	21.75
308.447	19.75
309.239	22.75
310.031	22.75
310.823	17.75
311.615	20.75
312.407	21.75
313.199	16.75
313.991	20.75
314.783	16.75
315.574	15.75
316.366	16.75
317.157	15.75
317.949	14.75
318.74	18.75
319.531	16.75
320.322	13.75
321.113	15.75
321.904	14.75
322.695	13.75
323.486	14.75
324.277	16.75
325.068	12.75
325.858	12.75
326.649	13.75
327.439	11.75
328.23	12.75
329.02	12.75
329.81	13.75
330.6	15.75
331.391	11.75
332.181	13.75
332.971	13.75
333.76	12.75
334.55	10.75
335.34	14.75
336.13	11.75
336.919	11.75
337.709	12.75
338.498	10.75
339.287	13.75
340.077	12.75
340.866	14.75
341.655	11.75
342.444	12.75
343.233	11.75
344.022	12.75
344.811	10.75
345.6	11.75
346.388	11.75
347.177	13.75
347.965	11.75
348.754	12.75
349.542	10.75
350.33	9.75
351.119	12.75
351.907	10.75
352.695	10.75
353.483	10.75
354.271	9.75
355.059	9.75
355.846	10.75
356.634	12.75
357.422	9.75
358.209	8.75
358.997	9.75
359.784	11.75
360.571	9.75
361.359	12.75
362.146	12.75
362.933	10.75
363.72	8.75
364.507	9.75
365.294	7.75
366.081	11.75
366.867	7.75
367.654	10.75
368.44	9.75
369.227	10.75
370.013	9.75
370.8	7.75
371.586	9.75
372.372	9.75
373.158	10.75
373.944	9.75
374.73	9.75
375.516	9.75
376.302	9.75
377.088	11.75
377.873	9.75
378.659	7.75
379.445	9.75
380.23	10.75
381.015	11.75
381.801	7.75
382.586	12.75
383.371	9.75
384.156	10.75
384.941	9.75
385.726	10.75
386.511	9.75
387.296	11.75
388.08	8.75
388.865	10.75
389.649	12.75
390.434	11.75
391.218	9.75
392.003	12.75
392.787	10.75
393.571	12.75
394.355	14.75
395.139	13.75
395.923	12.75
396.707	11.75
397.491	10.75
398.274	13.75
399.058	12.75
399.842	14.75
400.625	13.75
401.408	11.75
402.192	10.75
402.975	12.75
403.758	13.75
404.541	15.75
405.324	15.75
406.107	14.75
406.89	14.75
407.673	14.75
408.456	15.75
409.238	14.75
410.021	15.75
410.803	16.75
411.586	15.75
412.368	18.75
413.151	18.75
413.933	16.75
414.715	19.75
415.497	19.75
416.279	19.75
417.061	21.75
417.843	18.75
418.624	21.75
419.406	19.75
420.188	20.75
420.969	19.75
421.751	22.75
422.532	21.75
423.313	22.75
424.095	23.75
424.876	24.75
425.657	24.75
426.438	25.75
427.219	23.75
428	27.75
428.78	28.75
429.561	29.75
430.342	28.75
431.122	33.75
431.903	29.75
432.683	34.75
433.464	39.75
434.244	38.75
435.024	40.75
435.804	42.75
436.584	43.75
437.364	46.75
438.144	48.75
438.924	50.75
439.704	54.75
440.483	57.75
441.263	63.75
442.042	61.75
442.822	71.75
443.601	77.75
444.38	82.75
445.16	91.75
445.939	97.75
446.718	108.75
447.497	116.75
448.276	130.75
449.054	141.75
449.833	151.75
450.612	170.75
451.391	186.75
452.169	208.75
452.948	228.75
453.726	253.75
454.504	280.75
455.282	315.75
456.061	350.75
456.839	401.75
457.617	431.75
458.395	473.75
459.172	543.75
459.95	590.75
460.728	651.75
461.506	729.75
462.283	826.75
463.061	911.75
463.838	1017.75
464.615	1122.75
465.393	1265.75
466.17	1386.75
466.947	1546.75
467.724	1690.75
468.501	1882.75
469.278	2056.75
470.055	2282.75
470.831	2520.75
471.608	2732.75
472.385	3034.75
473.161	3339.75
473.938	3633.75
474.714	3980.75
475.49	4391.75
476.266	4747.75
477.043	5178.75
477.819	5644.75
478.595	6135.75
479.371	6670.75
480.146	7281.75
480.922	7908.75
481.698	8542.75
482.473	9323.75
483.249	10075.75
484.024	10940.75
484.8	11753.75
485.575	12745.75
486.35	13745.75
487.126	14872.75
487.901	16022.75
488.676	17215.75
489.451	18544.75
490.225	19922.75
491	21302.75
491.775	22698.75
492.55	24244.75
493.324	25867.75
494.099	27479.75
494.873	29122.75
495.647	30700.75
496.422	32392.75
497.196	33990.75
497.97	35573.75
498.744	37006.75
499.518	38597.75
500.292	40093.75
501.066	41034.75
501.839	42036.75
502.613	43015.75
503.387	43618.75
504.16	44231.75
504.934	44495.75
505.707	44740.75
506.48	44564.75
507.253	44357.75
508.027	43925.75
508.8	43249.75
509.573	42439.75
510.346	41603.75
511.118	40773.75
511.891	39755.75
512.664	38352.75
513.437	37088.75
514.209	35755.75
514.982	34566.75
515.754	33151.75
516.526	31995.75
517.298	30620.75
518.071	29505.75
518.843	28413.75
519.615	27211.75
520.387	26174.75
521.159	25129.75
521.93	24077.75
522.702	23126.75
523.474	22147.75
524.245	21249.75
525.017	20399.75
525.788	19522.75
526.56	18766.75
527.331	17961.75
528.102	17033.75
528.873	16239.75
529.644	15478.75
530.415	14740.75
531.186	14075.75
531.957	13372.75
532.728	12747.75
533.498	12071.75
534.269	11436.75
535.039	10839.75
535.81	10261.75
536.58	9704.75
537.351	9180.75
538.121	8712.75
538.891	8280.75
539.661	7794.75
540.431	7357.75
541.201	7047.75
541.971	6651.75
542.741	6278.75
543.51	5968.75
544.28	5656.75
545.05	5408.75
545.819	5159.75
546.588	4927.75
547.358	4695.75
548.127	4458.75
548.896	4252.75
549.665	4024.75
550.434	3811.75
551.203	3608.75
551.972	3443.75
552.741	3269.75
553.51	3062.75
554.278	2896.75
555.047	2720.75
555.815	2609.75
556.584	2461.75
557.352	2301.75
558.121	2199.75
558.889	2061.75
559.657	1957.75
560.425	1860.75
561.193	1753.75
561.961	1668.75
562.729	1563.75
563.496	1485.75
564.264	1411.75
565.032	1326.75
565.799	1262.75
566.567	1192.75
567.334	1127.75
568.101	1063.75
568.869	1004.75
569.636	949.75
570.403	907.75
571.17	852.75
571.937	800.75
572.704	751.75
573.471	703.75
574.237	674.75
575.004	637.75
575.771	593.75
576.537	566.75
577.303	533.75
578.07	501.75
578.836	467.75
579.602	453.75
580.368	423.75
581.134	403.75
581.9	383.75
582.666	369.75
583.432	354.75
584.198	336.75
584.964	315.75
585.729	297.75
586.495	271.75
587.26	269.75
588.025	253.75
588.791	235.75
589.556	227.75
590.321	215.75
591.086	202.75
591.851	200.75
592.616	193.75
593.381	175.75
594.146	170.75
594.911	163.75
595.675	154.75
596.44	152.75
597.204	135.75
597.969	133.75
598.733	132.75
599.497	123.75
600.261	124.75
601.025	109.75
601.79	109.75
602.553	105.75
603.317	102.75
604.081	96.75
604.845	93.75
605.609	89.75
606.372	84.75
607.136	85.75
607.899	78.75
608.662	73.75
609.426	73.75
610.189	67.75
610.952	67.75
611.715	65.75
612.478	60.75
613.241	62.75
614.004	58.75
614.767	53.75
615.529	56.75
616.292	52.75
617.055	49.75
617.817	49.75
618.579	48.75
619.342	45.75
620.104	45.75
620.866	40.75
621.628	38.75
622.39	39.75
623.152	38.75
623.914	40.75
624.676	37.75
625.438	39.75
626.199	34.75
626.961	34.75
627.722	32.75
628.484	29.75
629.245	31.75
630.006	28.75
630.768	27.75
631.529	29.75
632.29	27.75
633.051	29.75
633.812	26.75
634.573	24.75
635.333	25.75
636.094	24.75
636.855	22.75
637.615	25.75
638.376	19.75
639.136	22.75
639.896	19.75
640.657	20.75
641.417	19.75
642.177	18.75
642.937	16.75
643.697	18.75
644.457	17.75
645.216	15.75
645.976	17.75
646.736	15.75
647.495	15.75
648.255	14.75
649.014	16.75
649.774	15.75
650.533	12.75
651.292	13.75
652.051	14.75
652.81	16.75
653.569	16.75
654.328	13.75
655.087	12.75
655.846	13.75
656.604	13.75
657.363	13.75
658.121	16.75
658.88	12.75
659.638	12.75
660.397	11.75
661.155	11.75
661.913	10.75
662.671	11.75
663.429	12.75
664.187	10.75
664.945	11.75
665.703	10.75
666.46	10.75
667.218	9.75
667.976	10.75
668.733	11.75
669.49	11.75
670.248	11.75
671.005	10.75
671.762	9.75
672.519	9.75
673.276	8.75
674.033	11.75
674.79	11.75
675.547	8.75
676.304	9.75
677.06	7.75
677.817	9.75
678.574	7.75
679.33	8.75
680.086	7.75
680.843	8.75
681.599	8.75
682.355	5.75
683.111	8.75
683.867	7.75
684.623	8.75
685.379	9.75
686.135	7.75
686.89	10.75
687.646	6.75
688.402	8.75
689.157	7.75
689.912	6.75
690.668	8.75
691.423	7.75
692.178	8.75
692.933	7.75
693.688	5.75
694.443	9.75
695.198	6.75
695.953	6.75
696.708	10.75
697.462	7.75
698.217	8.75
698.972	8.75
699.726	9.75
700.48	8.75
701.235	8.75
701.989	6.75
702.743	9.75
703.497	7.75
704.251	6.75
705.005	9.75
705.759	8.75
706.513	7.75
707.266	7.75
708.02	7.75
708.774	8.75
709.527	6.75
710.28	5.75
711.034	5.75
711.787	8.75
712.54	5.75
713.293	9.75
714.046	4.75
714.799	8.75
715.552	6.75
716.305	5.75
717.058	6.75
717.81	10.75
718.563	6.75
719.315	9.75
720.068	9.75
720.82	7.75
721.573	10.75
722.325	8.75
723.077	9.75
723.829	7.75
724.581	8.75
725.333	4.75
726.085	8.75
726.836	8.75
727.588	9.75
728.34	7.75
729.091	8.75
729.843	7.75
730.594	10.75
731.346	8.75
732.097	9.75
732.848	8.75
733.599	6.75
734.35	10.75
735.101	8.75
735.852	8.75
736.603	5.75
737.354	8.75
738.104	8.75
738.855	9.75
739.605	8.75
740.356	9.75
741.106	8.75
741.856	10.75
742.607	10.75
743.357	8.75
744.107	9.75
744.857	8.75
745.607	11.75
746.357	12.75
747.106	10.75
747.856	9.75
748.606	10.75
749.355	10.75
750.105	11.75
750.854	10.75
751.603	12.75
752.353	9.75
753.102	10.75
753.851	9.75
754.6	10.75
755.349	10.75
756.098	13.75
756.847	10.75
757.595	13.75
758.344	9.75
759.093	12.75
759.841	13.75
760.589	10.75
761.338	12.75
762.086	14.75
762.834	13.75
763.582	11.75
764.331	12.75
765.079	13.75
765.826	13.75
766.574	11.75
767.322	12.75
768.07	13.75
768.817	12.75
769.565	15.75
770.312	12.75
771.06	15.75
771.807	13.75
772.554	14.75
773.302	12.75
774.049	15.75
774.796	13.75
775.543	14.75
776.29	17.75
777.036	17.75
777.783	14.75
778.53	16.75
779.276	13.75
780.023	13.75
780.769	16.75
781.516	16.75
782.262	17.75
783.008	15.75
783.754	15.75
784.5	17.75
785.246	16.75
785.992	15.75
786.738	13.75
787.484	16.75
788.23	12.75
788.975	15.75
789.721	16.75
790.466	14.75
791.212	15.75
791.957	15.75
792.702	14.75
793.447	11.75
794.193	12.75
794.938	13.75
795.683	11.75
796.427	12.75
797.172	10.75
797.917	15.75
798.662	13.75
799.406	11.75
800.151	13.75
800.895	13.75
801.64	12.75
802.384	14.75
803.128	14.75
803.872	9.75
804.616	11.75
805.36	9.75
806.104	10.75
806.848	12.75
807.592	11.75
808.336	8.75
809.079	7.75
809.823	9.75
810.566	11.75
811.31	9.75
812.053	10.75
812.796	11.75
813.539	10.75
814.283	11.75
815.026	7.75
815.769	10.75
816.511	7.75
817.254	7.75
817.997	8.75
818.74	7.75
819.482	6.75
820.225	9.75
820.967	8.75
821.71	8.75
822.452	7.75
823.194	6.75
823.936	6.75
824.678	6.75
825.42	6.75
826.162	5.75
826.904	6.75
827.646	6.75
828.388	5.75
829.129	6.75
829.871	8.75
830.612	6.75
831.354	8.75
832.095	6.75
832.836	6.75
833.577	8.75
834.319	5.75
835.06	4.75
835.801	7.75
836.542	6.75
837.282	8.75
838.023	7.75
838.764	8.75
839.504	5.75
840.245	6.75
840.985	6.75
841.726	5.75
842.466	5.75
843.206	5.75
843.946	5.75
844.687	4.75
845.427	4.75
846.166	3.75
846.906	6.75
847.646	5.75
848.386	7.75
849.125	4.75
849.865	5.75
850.605	3.75
851.344	6.75
852.083	4.75
852.823	3.75
853.562	3.75
854.301	5.75
855.04	6.75
855.779	3.75
856.518	4.75
857.257	3.75
857.995	4.75
858.734	4.75
859.473	3.75
860.211	2.75
860.95	1.75
861.688	3.75
862.426	2.75
863.165	2.75
863.903	3.75
864.641	3.75
865.379	3.75
866.117	2.75
866.855	7.75
867.593	3.75
868.33	3.75
869.068	1.75
869.806	2.75
870.543	4.75
871.28	3.75
872.018	2.75
872.755	2.75
873.492	2.75
874.229	2.75
874.967	1.75
875.703	2.75
876.44	0.75
877.177	1.75
877.914	4.75
878.651	2.75
879.387	3.75
880.124	3.75
880.86	0.75
881.597	0.75
882.333	0.75
883.069	1.75
883.806	2.75
884.542	3.75
885.278	2.75
886.014	2.75
886.749	3.75
887.485	-0.25
888.221	2.75
888.957	2.75
889.692	2.75
890.428	1.75
891.163	2.75
891.899	1.75
892.634	0.75
893.369	2.75
894.104	1.75
894.839	0.75
895.574	2.75
896.309	0.75
897.044	1.75
897.779	2.75
898.514	2.75
899.248	-0.25
899.983	1.75
900.717	1.75
901.452	0.75
902.186	0.75
902.92	2.75
903.654	2.75
904.389	0.75
905.123	1.75
905.857	0.75
906.59	0.75
907.324	0.75
908.058	2.75
908.792	2.75
909.525	0.75
910.259	-0.25
910.992	1.75
911.726	2.75
912.459	1.75
913.192	0.75
913.925	2.75
914.658	0.75
915.391	0.75
916.124	1.75
916.857	1.75
917.59	2.75
918.323	1.75
919.055	0.75
919.788	2.75
920.521	0.75
921.253	1.75
921.985	2.75
922.718	1.75
923.45	1.75
924.182	0.75
924.914	1.75
925.646	1.75
926.378	0.75
927.11	1.75
927.841	0.75
928.573	-0.25
929.305	1.75
930.036	3.75
930.768	1.75
931.499	1.75
932.23	0.75
932.962	2.75
933.693	1.75
934.424	0.75
935.155	1.75
935.886	1.75
936.617	1.75
937.348	-0.25
938.078	2.75
938.809	2.75
939.54	0.75
940.27	0.75
941.001	-0.25
941.731	1.75
942.461	1.75
943.191	0.75
943.922	-0.25
944.652	-0.25
945.382	-0.25
946.112	1.75
946.841	1.75
947.571	0.75
948.301	0.75
949.031	1.75
949.76	0.75
950.49	1.75
951.219	3.75
951.948	0.75
952.678	2.75
953.407	1.75
954.136	1.75
954.865	2.75
955.594	0.75
956.323	1.75
957.052	-0.25
957.78	1.75
958.509	-0.25
959.238	-1.25
959.966	-0.25
960.695	0.75
961.423	1.75
962.151	-0.25
962.88	2.75
963.608	0.75
964.336	0.75
965.064	-0.25
965.792	-0.25
966.52	1.75
967.247	1.75
967.975	-0.25
968.703	-0.25
969.43	1.75
970.158	1.75
970.885	-1.25
971.613	-0.25
972.34	1.75
973.067	0.75
973.794	1.75
974.521	0.75
975.248	0.75
975.975	0.75
976.702	-1.25
977.429	2.75
978.156	2.75
978.882	2.75
979.609	2.75
980.335	1.75
981.062	0.75
981.788	0.75
982.514	-1.25
983.24	-0.25
983.967	1.75
984.693	0.75
985.419	0.75
986.144	0.75
986.87	1.75
987.596	0.75
988.322	1.75
989.047	0.75
989.773	0.75
990.498	1.75
991.224	-0.25
991.949	0.75
992.674	-1.25
993.399	1.75
994.124	1.75
994.849	1.75
995.574	-0.25
996.299	0.75
997.024	-2.25
997.749	0.75
998.473	2.75
999.198	2.75
999.922	1.75
1000.647	1.75
1001.371	2.75
1002.095	-0.25
1002.82	-1.25
1003.544	-0.25
1004.268	6.75
1004.992	6.75
1005.716	4.75
1006.439	5.75
1007.163	5.75
1007.887	5.75
1008.611	1.75
1009.334	1.75
1010.058	1.75
1010.781	1.75
1011.504	-0.25
1012.228	2.75
1012.951	-1.25
1013.674	0.75
1014.397	-0.25
1015.12	-0.25
