节点500_705_QEPB04081__668__20-55-24-823.txt的数据

Date: Wed Nov 12 20:55:24 CST 2025
User: PC
Spectrometer: QEPB0408
触发模式: 0
积分时间 (秒): 1.000000E-2
Scans to average: 1
启用暗噪声校正: true
启用非线性校正: false
滑动平均宽度: 0
X轴模式: Wavelengths
Number of Pixels in Spectrum: 1044
>>>>>Begin Spectral Data<<<<<
220.843	4.75
221.644	3.75
222.444	4.75
223.244	3.75
224.045	6.75
224.845	6.75
225.645	4.75
226.445	3.75
227.245	4.75
228.045	5.75
228.845	5.75
229.645	10.75
230.444	6.75
231.244	4.75
232.043	7.75
232.843	8.75
233.642	10.75
234.442	9.75
235.241	11.75
236.04	9.75
236.839	8.75
237.638	8.75
238.437	9.75
239.236	10.75
240.035	11.75
240.833	10.75
241.632	11.75
242.43	10.75
243.229	12.75
244.027	8.75
244.826	15.75
245.624	9.75
246.422	12.75
247.22	14.75
248.018	15.75
248.816	15.75
249.614	15.75
250.412	14.75
251.21	12.75
252.007	15.75
252.805	15.75
253.602	14.75
254.4	14.75
255.197	14.75
255.994	18.75
256.791	17.75
257.589	21.75
258.386	17.75
259.183	17.75
259.979	18.75
260.776	19.75
261.573	22.75
262.37	22.75
263.166	19.75
263.963	20.75
264.759	20.75
265.556	24.75
266.352	20.75
267.148	23.75
267.944	26.75
268.74	25.75
269.536	26.75
270.332	27.75
271.128	29.75
271.924	28.75
272.719	27.75
273.515	30.75
274.311	26.75
275.106	27.75
275.901	27.75
276.697	29.75
277.492	30.75
278.287	30.75
279.082	32.75
279.877	29.75
280.672	29.75
281.467	32.75
282.262	31.75
283.056	33.75
283.851	28.75
284.646	34.75
285.44	30.75
286.234	28.75
287.029	30.75
287.823	28.75
288.617	29.75
289.411	28.75
290.205	30.75
290.999	26.75
291.793	30.75
292.587	30.75
293.381	29.75
294.174	27.75
294.968	26.75
295.761	27.75
296.555	27.75
297.348	26.75
298.141	24.75
298.935	27.75
299.728	22.75
300.521	23.75
301.314	23.75
302.107	23.75
302.899	21.75
303.692	20.75
304.485	21.75
305.277	22.75
306.07	24.75
306.862	22.75
307.655	21.75
308.447	20.75
309.239	18.75
310.031	18.75
310.823	21.75
311.615	18.75
312.407	14.75
313.199	18.75
313.991	13.75
314.783	14.75
315.574	14.75
316.366	13.75
317.157	17.75
317.949	13.75
318.74	16.75
319.531	12.75
320.322	13.75
321.113	14.75
321.904	14.75
322.695	13.75
323.486	9.75
324.277	13.75
325.068	11.75
325.858	12.75
326.649	12.75
327.439	12.75
328.23	11.75
329.02	13.75
329.81	14.75
330.6	10.75
331.391	9.75
332.181	12.75
332.971	10.75
333.76	10.75
334.55	12.75
335.34	11.75
336.13	10.75
336.919	10.75
337.709	10.75
338.498	9.75
339.287	11.75
340.077	12.75
340.866	9.75
341.655	10.75
342.444	10.75
343.233	11.75
344.022	7.75
344.811	9.75
345.6	10.75
346.388	9.75
347.177	12.75
347.965	9.75
348.754	11.75
349.542	8.75
350.33	9.75
351.119	8.75
351.907	9.75
352.695	9.75
353.483	10.75
354.271	7.75
355.059	9.75
355.846	8.75
356.634	11.75
357.422	6.75
358.209	8.75
358.997	9.75
359.784	11.75
360.571	10.75
361.359	10.75
362.146	9.75
362.933	10.75
363.72	8.75
364.507	8.75
365.294	9.75
366.081	7.75
366.867	9.75
367.654	9.75
368.44	8.75
369.227	8.75
370.013	8.75
370.8	8.75
371.586	9.75
372.372	7.75
373.158	8.75
373.944	9.75
374.73	6.75
375.516	9.75
376.302	9.75
377.088	9.75
377.873	8.75
378.659	9.75
379.445	10.75
380.23	8.75
381.015	8.75
381.801	7.75
382.586	9.75
383.371	8.75
384.156	8.75
384.941	8.75
385.726	7.75
386.511	9.75
387.296	8.75
388.08	8.75
388.865	10.75
389.649	10.75
390.434	10.75
391.218	7.75
392.003	10.75
392.787	9.75
393.571	10.75
394.355	9.75
395.139	8.75
395.923	13.75
396.707	11.75
397.491	11.75
398.274	11.75
399.058	12.75
399.842	10.75
400.625	10.75
401.408	14.75
402.192	12.75
402.975	14.75
403.758	13.75
404.541	13.75
405.324	16.75
406.107	12.75
406.89	15.75
407.673	12.75
408.456	14.75
409.238	15.75
410.021	12.75
410.803	15.75
411.586	14.75
412.368	17.75
413.151	14.75
413.933	16.75
414.715	18.75
415.497	14.75
416.279	18.75
417.061	16.75
417.843	16.75
418.624	17.75
419.406	17.75
420.188	17.75
420.969	17.75
421.751	17.75
422.532	20.75
423.313	20.75
424.095	20.75
424.876	22.75
425.657	25.75
426.438	24.75
427.219	25.75
428	25.75
428.78	27.75
429.561	26.75
430.342	28.75
431.122	29.75
431.903	30.75
432.683	33.75
433.464	35.75
434.244	32.75
435.024	37.75
435.804	40.75
436.584	44.75
437.364	46.75
438.144	47.75
438.924	53.75
439.704	54.75
440.483	56.75
441.263	63.75
442.042	68.75
442.822	73.75
443.601	73.75
444.38	84.75
445.16	87.75
445.939	95.75
446.718	110.75
447.497	121.75
448.276	130.75
449.054	135.75
449.833	159.75
450.612	173.75
451.391	187.75
452.169	221.75
452.948	233.75
453.726	261.75
454.504	287.75
455.282	321.75
456.061	364.75
456.839	392.75
457.617	443.75
458.395	484.75
459.172	534.75
459.95	599.75
460.728	667.75
461.506	749.75
462.283	830.75
463.061	917.75
463.838	1019.75
464.615	1134.75
465.393	1260.75
466.17	1402.75
466.947	1539.75
467.724	1702.75
468.501	1886.75
469.278	2076.75
470.055	2281.75
470.831	2508.75
471.608	2762.75
472.385	3009.75
473.161	3305.75
473.938	3598.75
474.714	3952.75
475.49	4325.75
476.266	4726.75
477.043	5109.75
477.819	5571.75
478.595	6054.75
479.371	6565.75
480.146	7162.75
480.922	7727.75
481.698	8389.75
482.473	9114.75
483.249	9847.75
484.024	10616.75
484.8	11466.75
485.575	12384.75
486.35	13394.75
487.126	14459.75
487.901	15473.75
488.676	16670.75
489.451	17886.75
490.225	19186.75
491	20534.75
491.775	21937.75
492.55	23378.75
493.324	24838.75
494.099	26352.75
494.873	27963.75
495.647	29508.75
496.422	31092.75
497.196	32753.75
497.97	34327.75
498.744	35677.75
499.518	37226.75
500.292	38633.75
501.066	39657.75
501.839	40628.75
502.613	41597.75
503.387	42342.75
504.16	42978.75
504.934	43446.75
505.707	43639.75
506.48	43601.75
507.253	43447.75
508.027	43197.75
508.8	42598.75
509.573	41932.75
510.346	41181.75
511.118	40418.75
511.891	39428.75
512.664	38247.75
513.437	36950.75
514.209	35761.75
514.982	34495.75
515.754	33221.75
516.526	31994.75
517.298	30757.75
518.071	29676.75
518.843	28515.75
519.615	27310.75
520.387	26215.75
521.159	25298.75
521.93	24262.75
522.702	23258.75
523.474	22269.75
524.245	21373.75
525.017	20526.75
525.788	19682.75
526.56	18859.75
527.331	18089.75
528.102	17184.75
528.873	16385.75
529.644	15637.75
530.415	14941.75
531.186	14298.75
531.957	13545.75
532.728	12877.75
533.498	12233.75
534.269	11652.75
535.039	10983.75
535.81	10423.75
536.58	9867.75
537.351	9358.75
538.121	8871.75
538.891	8402.75
539.661	7914.75
540.431	7485.75
541.201	7123.75
541.971	6787.75
542.741	6409.75
543.51	6094.75
544.28	5788.75
545.05	5507.75
545.819	5245.75
546.588	5042.75
547.358	4759.75
548.127	4520.75
548.896	4314.75
549.665	4105.75
550.434	3883.75
551.203	3698.75
551.972	3512.75
552.741	3333.75
553.51	3139.75
554.278	2954.75
555.047	2828.75
555.815	2661.75
556.584	2525.75
557.352	2378.75
558.121	2260.75
558.889	2129.75
559.657	2013.75
560.425	1894.75
561.193	1815.75
561.961	1693.75
562.729	1619.75
563.496	1498.75
564.264	1460.75
565.032	1357.75
565.799	1293.75
566.567	1226.75
567.334	1152.75
568.101	1098.75
568.869	1027.75
569.636	977.75
570.403	909.75
571.17	864.75
571.937	821.75
572.704	766.75
573.471	739.75
574.237	690.75
575.004	646.75
575.771	602.75
576.537	578.75
577.303	539.75
578.07	514.75
578.836	484.75
579.602	455.75
580.368	445.75
581.134	419.75
581.9	395.75
582.666	369.75
583.432	357.75
584.198	342.75
584.964	323.75
585.729	306.75
586.495	286.75
587.26	281.75
588.025	263.75
588.791	234.75
589.556	232.75
590.321	220.75
591.086	215.75
591.851	196.75
592.616	185.75
593.381	182.75
594.146	172.75
594.911	166.75
595.675	158.75
596.44	151.75
597.204	139.75
597.969	134.75
598.733	132.75
599.497	127.75
600.261	118.75
601.025	116.75
601.79	108.75
602.553	104.75
603.317	101.75
604.081	94.75
604.845	91.75
605.609	94.75
606.372	88.75
607.136	81.75
607.899	80.75
608.662	79.75
609.426	71.75
610.189	70.75
610.952	70.75
611.715	63.75
612.478	62.75
613.241	60.75
614.004	57.75
614.767	53.75
615.529	54.75
616.292	52.75
617.055	50.75
617.817	52.75
618.579	45.75
619.342	41.75
620.104	48.75
620.866	40.75
621.628	39.75
622.39	39.75
623.152	39.75
623.914	37.75
624.676	36.75
625.438	35.75
626.199	33.75
626.961	32.75
627.722	30.75
628.484	33.75
629.245	31.75
630.006	28.75
630.768	27.75
631.529	25.75
632.29	27.75
633.051	27.75
633.812	23.75
634.573	24.75
635.333	22.75
636.094	26.75
636.855	21.75
637.615	20.75
638.376	23.75
639.136	19.75
639.896	22.75
640.657	20.75
641.417	19.75
642.177	18.75
642.937	16.75
643.697	15.75
644.457	17.75
645.216	17.75
645.976	16.75
646.736	15.75
647.495	13.75
648.255	13.75
649.014	13.75
649.774	13.75
650.533	17.75
651.292	12.75
652.051	14.75
652.81	13.75
653.569	13.75
654.328	11.75
655.087	12.75
655.846	13.75
656.604	10.75
657.363	9.75
658.121	12.75
658.88	9.75
659.638	12.75
660.397	12.75
661.155	9.75
661.913	12.75
662.671	9.75
663.429	12.75
664.187	9.75
664.945	9.75
665.703	9.75
666.46	9.75
667.218	8.75
667.976	7.75
668.733	10.75
669.49	9.75
670.248	9.75
671.005	10.75
671.762	9.75
672.519	8.75
673.276	7.75
674.033	11.75
674.79	8.75
675.547	5.75
676.304	8.75
677.06	8.75
677.817	8.75
678.574	7.75
679.33	7.75
680.086	11.75
680.843	8.75
681.599	8.75
682.355	6.75
683.111	7.75
683.867	7.75
684.623	7.75
685.379	7.75
686.135	7.75
686.89	7.75
687.646	6.75
688.402	4.75
689.157	8.75
689.912	5.75
690.668	6.75
691.423	8.75
692.178	8.75
692.933	7.75
693.688	7.75
694.443	5.75
695.198	8.75
695.953	7.75
696.708	5.75
697.462	8.75
698.217	6.75
698.972	6.75
699.726	7.75
700.48	6.75
701.235	9.75
701.989	7.75
702.743	7.75
703.497	8.75
704.251	8.75
705.005	5.75
705.759	5.75
706.513	8.75
707.266	7.75
708.02	2.75
708.774	4.75
709.527	5.75
710.28	8.75
711.034	7.75
711.787	7.75
712.54	8.75
713.293	7.75
714.046	6.75
714.799	8.75
715.552	7.75
716.305	7.75
717.058	6.75
717.81	6.75
718.563	7.75
719.315	8.75
720.068	6.75
720.82	7.75
721.573	7.75
722.325	7.75
723.077	8.75
723.829	6.75
724.581	9.75
725.333	6.75
726.085	8.75
726.836	8.75
727.588	6.75
728.34	6.75
729.091	6.75
729.843	7.75
730.594	9.75
731.346	9.75
732.097	7.75
732.848	7.75
733.599	8.75
734.35	8.75
735.101	7.75
735.852	7.75
736.603	6.75
737.354	7.75
738.104	6.75
738.855	12.75
739.605	6.75
740.356	8.75
741.106	7.75
741.856	7.75
742.607	10.75
743.357	10.75
744.107	9.75
744.857	11.75
745.607	10.75
746.357	8.75
747.106	10.75
747.856	10.75
748.606	7.75
749.355	8.75
750.105	9.75
750.854	8.75
751.603	10.75
752.353	10.75
753.102	13.75
753.851	10.75
754.6	9.75
755.349	10.75
756.098	10.75
756.847	10.75
757.595	8.75
758.344	11.75
759.093	11.75
759.841	11.75
760.589	12.75
761.338	8.75
762.086	10.75
762.834	10.75
763.582	10.75
764.331	12.75
765.079	11.75
765.826	12.75
766.574	12.75
767.322	12.75
768.07	10.75
768.817	14.75
769.565	11.75
770.312	8.75
771.06	9.75
771.807	13.75
772.554	13.75
773.302	12.75
774.049	12.75
774.796	14.75
775.543	10.75
776.29	13.75
777.036	14.75
777.783	12.75
778.53	13.75
779.276	13.75
780.023	13.75
780.769	11.75
781.516	12.75
782.262	15.75
783.008	13.75
783.754	15.75
784.5	14.75
785.246	13.75
785.992	12.75
786.738	16.75
787.484	14.75
788.23	14.75
788.975	12.75
789.721	14.75
790.466	12.75
791.212	13.75
791.957	12.75
792.702	10.75
793.447	12.75
794.193	13.75
794.938	12.75
795.683	14.75
796.427	12.75
797.172	11.75
797.917	13.75
798.662	11.75
799.406	12.75
800.151	13.75
800.895	14.75
801.64	11.75
802.384	11.75
803.128	11.75
803.872	11.75
804.616	13.75
805.36	10.75
806.104	10.75
806.848	11.75
807.592	9.75
808.336	11.75
809.079	6.75
809.823	9.75
810.566	9.75
811.31	8.75
812.053	7.75
812.796	8.75
813.539	8.75
814.283	9.75
815.026	11.75
815.769	6.75
816.511	8.75
817.254	5.75
817.997	7.75
818.74	5.75
819.482	6.75
820.225	6.75
820.967	7.75
821.71	7.75
822.452	7.75
823.194	5.75
823.936	6.75
824.678	5.75
825.42	4.75
826.162	3.75
826.904	5.75
827.646	8.75
828.388	6.75
829.129	4.75
829.871	8.75
830.612	6.75
831.354	3.75
832.095	5.75
832.836	4.75
833.577	5.75
834.319	5.75
835.06	5.75
835.801	6.75
836.542	6.75
837.282	4.75
838.023	4.75
838.764	5.75
839.504	5.75
840.245	3.75
840.985	5.75
841.726	3.75
842.466	2.75
843.206	3.75
843.946	5.75
844.687	0.75
845.427	3.75
846.166	5.75
846.906	5.75
847.646	5.75
848.386	7.75
849.125	1.75
849.865	4.75
850.605	5.75
851.344	3.75
852.083	4.75
852.823	2.75
853.562	4.75
854.301	4.75
855.04	3.75
855.779	5.75
856.518	2.75
857.257	4.75
857.995	2.75
858.734	2.75
859.473	5.75
860.211	2.75
860.95	4.75
861.688	3.75
862.426	4.75
863.165	2.75
863.903	3.75
864.641	3.75
865.379	3.75
866.117	2.75
866.855	1.75
867.593	-1.25
868.33	1.75
869.068	1.75
869.806	1.75
870.543	1.75
871.28	3.75
872.018	2.75
872.755	1.75
873.492	2.75
874.229	1.75
874.967	-0.25
875.703	2.75
876.44	0.75
877.177	1.75
877.914	0.75
878.651	1.75
879.387	2.75
880.124	2.75
880.86	2.75
881.597	0.75
882.333	1.75
883.069	2.75
883.806	0.75
884.542	0.75
885.278	1.75
886.014	1.75
886.749	2.75
887.485	2.75
888.221	0.75
888.957	1.75
889.692	0.75
890.428	2.75
891.163	0.75
891.899	0.75
892.634	0.75
893.369	1.75
894.104	2.75
894.839	-0.25
895.574	-2.25
896.309	3.75
897.044	-0.25
897.779	1.75
898.514	0.75
899.248	0.75
899.983	0.75
900.717	-2.25
901.452	0.75
902.186	0.75
902.92	-0.25
903.654	0.75
904.389	-0.25
905.123	2.75
905.857	-1.25
906.59	1.75
907.324	0.75
908.058	0.75
908.792	0.75
909.525	0.75
910.259	2.75
910.992	-1.25
911.726	1.75
912.459	1.75
913.192	1.75
913.925	2.75
914.658	-1.25
915.391	-0.25
916.124	-1.25
916.857	-1.25
917.59	-1.25
918.323	-0.25
919.055	-0.25
919.788	-0.25
920.521	-0.25
921.253	-1.25
921.985	1.75
922.718	0.75
923.45	-0.25
924.182	1.75
924.914	-1.25
925.646	1.75
926.378	-1.25
927.11	-1.25
927.841	1.75
928.573	-0.25
929.305	-0.25
930.036	-0.25
930.768	1.75
931.499	0.75
932.23	-0.25
932.962	2.75
933.693	-2.25
934.424	0.75
935.155	1.75
935.886	-1.25
936.617	-0.25
937.348	-1.25
938.078	1.75
938.809	0.75
939.54	1.75
940.27	0.75
941.001	-1.25
941.731	0.75
942.461	-1.25
943.191	-0.25
943.922	1.75
944.652	-0.25
945.382	-1.25
946.112	0.75
946.841	-0.25
947.571	-1.25
948.301	0.75
949.031	-0.25
949.76	-1.25
950.49	0.75
951.219	-1.25
951.948	2.75
952.678	-0.25
953.407	-1.25
954.136	0.75
954.865	0.75
955.594	0.75
956.323	0.75
957.052	0.75
957.78	1.75
958.509	-0.25
959.238	1.75
959.966	0.75
960.695	-1.25
961.423	-1.25
962.151	0.75
962.88	-2.25
963.608	0.75
964.336	-0.25
965.064	0.75
965.792	-0.25
966.52	1.75
967.247	0.75
967.975	-1.25
968.703	-1.25
969.43	-0.25
970.158	-0.25
970.885	0.75
971.613	-1.25
972.34	1.75
973.067	1.75
973.794	-1.25
974.521	0.75
975.248	-1.25
975.975	1.75
976.702	-2.25
977.429	0.75
978.156	2.75
978.882	-2.25
979.609	1.75
980.335	0.75
981.062	-1.25
981.788	3.75
982.514	1.75
983.24	1.75
983.967	0.75
984.693	-1.25
985.419	-0.25
986.144	1.75
986.87	0.75
987.596	-1.25
988.322	0.75
989.047	-0.25
989.773	1.75
990.498	0.75
991.224	-0.25
991.949	0.75
992.674	-1.25
993.399	-0.25
994.124	-1.25
994.849	0.75
995.574	-0.25
996.299	-1.25
997.024	1.75
997.749	-0.25
998.473	-0.25
999.198	-0.25
999.922	-0.25
1000.647	-1.25
1001.371	1.75
1002.095	-2.25
1002.82	0.75
1003.544	-3.25
1004.268	5.75
1004.992	4.75
1005.716	3.75
1006.439	2.75
1007.163	2.75
1007.887	5.75
1008.611	-0.25
1009.334	-0.25
1010.058	-0.25
1010.781	-0.25
1011.504	-0.25
1012.228	-2.25
1012.951	-0.25
1013.674	0.75
1014.397	0.75
1015.12	1.75
