节点500_705_QEPB04081__536__20-53-32-731.txt的数据

Date: Wed Nov 12 20:53:32 CST 2025
User: PC
Spectrometer: QEPB0408
触发模式: 0
积分时间 (秒): 1.000000E-2
Scans to average: 1
启用暗噪声校正: true
启用非线性校正: false
滑动平均宽度: 0
X轴模式: Wavelengths
Number of Pixels in Spectrum: 1044
>>>>>Begin Spectral Data<<<<<
220.843	3.25
221.644	4.25
222.444	5.25
223.244	4.25
224.045	7.25
224.845	6.25
225.645	7.25
226.445	7.25
227.245	6.25
228.045	10.25
228.845	8.25
229.645	9.25
230.444	9.25
231.244	8.25
232.043	8.25
232.843	7.25
233.642	9.25
234.442	10.25
235.241	12.25
236.04	12.25
236.839	10.25
237.638	11.25
238.437	8.25
239.236	12.25
240.035	11.25
240.833	9.25
241.632	12.25
242.43	12.25
243.229	15.25
244.027	10.25
244.826	11.25
245.624	10.25
246.422	12.25
247.22	12.25
248.018	11.25
248.816	15.25
249.614	14.25
250.412	17.25
251.21	15.25
252.007	16.25
252.805	19.25
253.602	14.25
254.4	19.25
255.197	19.25
255.994	19.25
256.791	20.25
257.589	19.25
258.386	20.25
259.183	19.25
259.979	21.25
260.776	20.25
261.573	23.25
262.37	21.25
263.166	23.25
263.963	23.25
264.759	24.25
265.556	23.25
266.352	23.25
267.148	25.25
267.944	26.25
268.74	26.25
269.536	27.25
270.332	27.25
271.128	28.25
271.924	32.25
272.719	29.25
273.515	28.25
274.311	26.25
275.106	32.25
275.901	29.25
276.697	32.25
277.492	28.25
278.287	32.25
279.082	32.25
279.877	32.25
280.672	34.25
281.467	31.25
282.262	31.25
283.056	34.25
283.851	33.25
284.646	34.25
285.44	33.25
286.234	31.25
287.029	34.25
287.823	32.25
288.617	30.25
289.411	32.25
290.205	33.25
290.999	29.25
291.793	31.25
292.587	28.25
293.381	27.25
294.174	30.25
294.968	28.25
295.761	28.25
296.555	27.25
297.348	25.25
298.141	26.25
298.935	28.25
299.728	26.25
300.521	23.25
301.314	27.25
302.107	25.25
302.899	23.25
303.692	24.25
304.485	22.25
305.277	21.25
306.07	22.25
306.862	21.25
307.655	21.25
308.447	21.25
309.239	23.25
310.031	21.25
310.823	21.25
311.615	19.25
312.407	18.25
313.199	18.25
313.991	16.25
314.783	16.25
315.574	18.25
316.366	16.25
317.157	18.25
317.949	15.25
318.74	14.25
319.531	15.25
320.322	13.25
321.113	16.25
321.904	14.25
322.695	14.25
323.486	13.25
324.277	13.25
325.068	13.25
325.858	15.25
326.649	14.25
327.439	11.25
328.23	12.25
329.02	12.25
329.81	13.25
330.6	14.25
331.391	12.25
332.181	11.25
332.971	10.25
333.76	12.25
334.55	11.25
335.34	11.25
336.13	12.25
336.919	12.25
337.709	12.25
338.498	12.25
339.287	13.25
340.077	13.25
340.866	12.25
341.655	12.25
342.444	11.25
343.233	13.25
344.022	11.25
344.811	13.25
345.6	13.25
346.388	11.25
347.177	11.25
347.965	10.25
348.754	15.25
349.542	10.25
350.33	8.25
351.119	10.25
351.907	11.25
352.695	11.25
353.483	11.25
354.271	11.25
355.059	9.25
355.846	8.25
356.634	10.25
357.422	10.25
358.209	11.25
358.997	10.25
359.784	10.25
360.571	11.25
361.359	10.25
362.146	10.25
362.933	9.25
363.72	11.25
364.507	10.25
365.294	9.25
366.081	10.25
366.867	11.25
367.654	10.25
368.44	9.25
369.227	7.25
370.013	9.25
370.8	9.25
371.586	9.25
372.372	10.25
373.158	9.25
373.944	8.25
374.73	10.25
375.516	9.25
376.302	9.25
377.088	11.25
377.873	12.25
378.659	8.25
379.445	10.25
380.23	8.25
381.015	9.25
381.801	8.25
382.586	9.25
383.371	10.25
384.156	10.25
384.941	9.25
385.726	9.25
386.511	12.25
387.296	12.25
388.08	11.25
388.865	11.25
389.649	11.25
390.434	9.25
391.218	12.25
392.003	9.25
392.787	11.25
393.571	11.25
394.355	12.25
395.139	12.25
395.923	11.25
396.707	15.25
397.491	12.25
398.274	13.25
399.058	12.25
399.842	13.25
400.625	11.25
401.408	13.25
402.192	14.25
402.975	12.25
403.758	15.25
404.541	16.25
405.324	15.25
406.107	12.25
406.89	11.25
407.673	15.25
408.456	15.25
409.238	15.25
410.021	15.25
410.803	18.25
411.586	15.25
412.368	16.25
413.151	21.25
413.933	18.25
414.715	17.25
415.497	19.25
416.279	17.25
417.061	17.25
417.843	18.25
418.624	21.25
419.406	20.25
420.188	20.25
420.969	20.25
421.751	22.25
422.532	24.25
423.313	20.25
424.095	24.25
424.876	23.25
425.657	26.25
426.438	25.25
427.219	28.25
428	28.25
428.78	27.25
429.561	29.25
430.342	31.25
431.122	29.25
431.903	33.25
432.683	33.25
433.464	35.25
434.244	36.25
435.024	41.25
435.804	39.25
436.584	40.25
437.364	47.25
438.144	47.25
438.924	49.25
439.704	54.25
440.483	58.25
441.263	61.25
442.042	64.25
442.822	70.25
443.601	78.25
444.38	82.25
445.16	91.25
445.939	99.25
446.718	109.25
447.497	120.25
448.276	128.25
449.054	141.25
449.833	157.25
450.612	171.25
451.391	191.25
452.169	209.25
452.948	226.25
453.726	260.25
454.504	285.25
455.282	310.25
456.061	350.25
456.839	392.25
457.617	436.25
458.395	482.25
459.172	540.25
459.95	595.25
460.728	671.25
461.506	747.25
462.283	835.25
463.061	906.25
463.838	1012.25
464.615	1128.25
465.393	1253.25
466.17	1399.25
466.947	1546.25
467.724	1696.25
468.501	1855.25
469.278	2089.25
470.055	2289.25
470.831	2514.25
471.608	2766.25
472.385	3019.25
473.161	3310.25
473.938	3628.25
474.714	3999.25
475.49	4360.25
476.266	4742.25
477.043	5172.25
477.819	5636.25
478.595	6152.25
479.371	6666.25
480.146	7240.25
480.922	7857.25
481.698	8526.25
482.473	9281.25
483.249	10003.25
484.024	10851.25
484.8	11720.25
485.575	12634.25
486.35	13646.25
487.126	14768.25
487.901	15832.25
488.676	17071.25
489.451	18338.25
490.225	19766.25
491	21092.25
491.775	22510.25
492.55	24089.25
493.324	25502.25
494.099	27155.25
494.873	28846.25
495.647	30389.25
496.422	32062.25
497.196	33678.25
497.97	35178.25
498.744	36752.25
499.518	38213.25
500.292	39664.25
501.066	40613.25
501.839	41619.25
502.613	42522.25
503.387	43268.25
504.16	43868.25
504.934	44240.25
505.707	44421.25
506.48	44349.25
507.253	44080.25
508.027	43749.25
508.8	43037.25
509.573	42364.25
510.346	41551.25
511.118	40690.25
511.891	39622.25
512.664	38375.25
513.437	37078.25
514.209	35796.25
514.982	34522.25
515.754	33231.25
516.526	31931.25
517.298	30739.25
518.071	29612.25
518.843	28407.25
519.615	27310.25
520.387	26210.25
521.159	25192.25
521.93	24185.25
522.702	23126.25
523.474	22175.25
524.245	21317.25
525.017	20450.25
525.788	19586.25
526.56	18787.25
527.331	18019.25
528.102	17135.25
528.873	16306.25
529.644	15559.25
530.415	14800.25
531.186	14098.25
531.957	13413.25
532.728	12800.25
533.498	12125.25
534.269	11507.25
535.039	10914.25
535.81	10365.25
536.58	9763.25
537.351	9284.25
538.121	8815.25
538.891	8284.25
539.661	7847.25
540.431	7417.25
541.201	7032.25
541.971	6690.25
542.741	6339.25
543.51	5995.25
544.28	5738.25
545.05	5452.25
545.819	5205.25
546.588	4945.25
547.358	4689.25
548.127	4495.25
548.896	4257.25
549.665	4057.25
550.434	3850.25
551.203	3675.25
551.972	3447.25
552.741	3272.25
553.51	3082.25
554.278	2915.25
555.047	2778.25
555.815	2609.25
556.584	2471.25
557.352	2339.25
558.121	2227.25
558.889	2092.25
559.657	1978.25
560.425	1871.25
561.193	1773.25
561.961	1684.25
562.729	1591.25
563.496	1497.25
564.264	1430.25
565.032	1342.25
565.799	1268.25
566.567	1213.25
567.334	1128.25
568.101	1064.25
568.869	1032.25
569.636	958.25
570.403	894.25
571.17	844.25
571.937	814.25
572.704	760.25
573.471	711.25
574.237	672.25
575.004	637.25
575.771	606.25
576.537	566.25
577.303	536.25
578.07	501.25
578.836	478.25
579.602	452.25
580.368	430.25
581.134	411.25
581.9	395.25
582.666	370.25
583.432	344.25
584.198	336.25
584.964	322.25
585.729	298.25
586.495	281.25
587.26	274.25
588.025	257.25
588.791	244.25
589.556	225.25
590.321	220.25
591.086	203.25
591.851	198.25
592.616	180.25
593.381	176.25
594.146	169.25
594.911	164.25
595.675	158.25
596.44	154.25
597.204	140.25
597.969	137.25
598.733	128.25
599.497	130.25
600.261	119.25
601.025	116.25
601.79	108.25
602.553	105.25
603.317	101.25
604.081	97.25
604.845	94.25
605.609	86.25
606.372	81.25
607.136	82.25
607.899	79.25
608.662	74.25
609.426	70.25
610.189	71.25
610.952	65.25
611.715	65.25
612.478	62.25
613.241	60.25
614.004	58.25
614.767	57.25
615.529	50.25
616.292	55.25
617.055	52.25
617.817	48.25
618.579	46.25
619.342	46.25
620.104	47.25
620.866	46.25
621.628	41.25
622.39	37.25
623.152	39.25
623.914	38.25
624.676	38.25
625.438	31.25
626.199	34.25
626.961	35.25
627.722	33.25
628.484	31.25
629.245	31.25
630.006	26.25
630.768	27.25
631.529	26.25
632.29	26.25
633.051	26.25
633.812	26.25
634.573	25.25
635.333	24.25
636.094	23.25
636.855	22.25
637.615	22.25
638.376	23.25
639.136	21.25
639.896	21.25
640.657	19.25
641.417	21.25
642.177	19.25
642.937	20.25
643.697	18.25
644.457	17.25
645.216	18.25
645.976	15.25
646.736	18.25
647.495	18.25
648.255	17.25
649.014	17.25
649.774	13.25
650.533	14.25
651.292	13.25
652.051	13.25
652.81	13.25
653.569	14.25
654.328	13.25
655.087	13.25
655.846	13.25
656.604	15.25
657.363	14.25
658.121	11.25
658.88	11.25
659.638	12.25
660.397	13.25
661.155	10.25
661.913	11.25
662.671	11.25
663.429	11.25
664.187	7.25
664.945	12.25
665.703	11.25
666.46	12.25
667.218	11.25
667.976	10.25
668.733	11.25
669.49	8.25
670.248	9.25
671.005	14.25
671.762	8.25
672.519	11.25
673.276	7.25
674.033	10.25
674.79	10.25
675.547	10.25
676.304	11.25
677.06	8.25
677.817	9.25
678.574	11.25
679.33	9.25
680.086	8.25
680.843	8.25
681.599	10.25
682.355	8.25
683.111	8.25
683.867	5.25
684.623	6.25
685.379	10.25
686.135	6.25
686.89	9.25
687.646	8.25
688.402	8.25
689.157	9.25
689.912	9.25
690.668	9.25
691.423	7.25
692.178	9.25
692.933	8.25
693.688	9.25
694.443	8.25
695.198	8.25
695.953	7.25
696.708	7.25
697.462	9.25
698.217	8.25
698.972	4.25
699.726	8.25
700.48	6.25
701.235	10.25
701.989	7.25
702.743	8.25
703.497	11.25
704.251	8.25
705.005	6.25
705.759	9.25
706.513	6.25
707.266	10.25
708.02	7.25
708.774	7.25
709.527	6.25
710.28	7.25
711.034	5.25
711.787	7.25
712.54	8.25
713.293	8.25
714.046	7.25
714.799	8.25
715.552	7.25
716.305	10.25
717.058	8.25
717.81	8.25
718.563	5.25
719.315	9.25
720.068	8.25
720.82	8.25
721.573	7.25
722.325	8.25
723.077	6.25
723.829	8.25
724.581	8.25
725.333	9.25
726.085	6.25
726.836	7.25
727.588	8.25
728.34	12.25
729.091	8.25
729.843	9.25
730.594	9.25
731.346	10.25
732.097	9.25
732.848	8.25
733.599	8.25
734.35	7.25
735.101	9.25
735.852	8.25
736.603	10.25
737.354	8.25
738.104	10.25
738.855	11.25
739.605	11.25
740.356	11.25
741.106	10.25
741.856	8.25
742.607	10.25
743.357	12.25
744.107	10.25
744.857	9.25
745.607	9.25
746.357	14.25
747.106	7.25
747.856	12.25
748.606	8.25
749.355	9.25
750.105	8.25
750.854	9.25
751.603	13.25
752.353	12.25
753.102	11.25
753.851	11.25
754.6	12.25
755.349	11.25
756.098	9.25
756.847	11.25
757.595	11.25
758.344	10.25
759.093	12.25
759.841	12.25
760.589	11.25
761.338	14.25
762.086	12.25
762.834	11.25
763.582	10.25
764.331	11.25
765.079	11.25
765.826	15.25
766.574	12.25
767.322	14.25
768.07	12.25
768.817	14.25
769.565	12.25
770.312	15.25
771.06	14.25
771.807	11.25
772.554	13.25
773.302	14.25
774.049	13.25
774.796	14.25
775.543	13.25
776.29	15.25
777.036	15.25
777.783	16.25
778.53	18.25
779.276	11.25
780.023	15.25
780.769	15.25
781.516	15.25
782.262	17.25
783.008	16.25
783.754	15.25
784.5	16.25
785.246	17.25
785.992	13.25
786.738	17.25
787.484	15.25
788.23	12.25
788.975	15.25
789.721	12.25
790.466	17.25
791.212	15.25
791.957	14.25
792.702	13.25
793.447	13.25
794.193	13.25
794.938	13.25
795.683	13.25
796.427	13.25
797.172	13.25
797.917	14.25
798.662	11.25
799.406	13.25
800.151	11.25
800.895	12.25
801.64	10.25
802.384	11.25
803.128	13.25
803.872	12.25
804.616	10.25
805.36	10.25
806.104	10.25
806.848	10.25
807.592	10.25
808.336	11.25
809.079	7.25
809.823	9.25
810.566	9.25
811.31	6.25
812.053	11.25
812.796	11.25
813.539	8.25
814.283	9.25
815.026	8.25
815.769	9.25
816.511	10.25
817.254	8.25
817.997	7.25
818.74	8.25
819.482	6.25
820.225	6.25
820.967	6.25
821.71	6.25
822.452	8.25
823.194	6.25
823.936	6.25
824.678	6.25
825.42	5.25
826.162	8.25
826.904	9.25
827.646	6.25
828.388	8.25
829.129	6.25
829.871	8.25
830.612	5.25
831.354	5.25
832.095	7.25
832.836	7.25
833.577	5.25
834.319	7.25
835.06	7.25
835.801	7.25
836.542	6.25
837.282	6.25
838.023	5.25
838.764	7.25
839.504	8.25
840.245	5.25
840.985	8.25
841.726	6.25
842.466	6.25
843.206	5.25
843.946	5.25
844.687	3.25
845.427	6.25
846.166	5.25
846.906	6.25
847.646	6.25
848.386	5.25
849.125	5.25
849.865	4.25
850.605	5.25
851.344	5.25
852.083	3.25
852.823	6.25
853.562	4.25
854.301	3.25
855.04	5.25
855.779	7.25
856.518	3.25
857.257	3.25
857.995	4.25
858.734	4.25
859.473	5.25
860.211	4.25
860.95	5.25
861.688	4.25
862.426	5.25
863.165	3.25
863.903	4.25
864.641	5.25
865.379	3.25
866.117	2.25
866.855	3.25
867.593	3.25
868.33	5.25
869.068	4.25
869.806	2.25
870.543	2.25
871.28	1.25
872.018	1.25
872.755	2.25
873.492	3.25
874.229	3.25
874.967	1.25
875.703	0.25
876.44	-0.75
877.177	4.25
877.914	0.25
878.651	1.25
879.387	2.25
880.124	0.25
880.86	1.25
881.597	1.25
882.333	2.25
883.069	3.25
883.806	1.25
884.542	3.25
885.278	1.25
886.014	2.25
886.749	1.25
887.485	2.25
888.221	2.25
888.957	2.25
889.692	2.25
890.428	4.25
891.163	3.25
891.899	2.25
892.634	2.25
893.369	-0.75
894.104	1.25
894.839	1.25
895.574	1.25
896.309	4.25
897.044	2.25
897.779	3.25
898.514	3.25
899.248	2.25
899.983	2.25
900.717	1.25
901.452	2.25
902.186	2.25
902.92	1.25
903.654	2.25
904.389	1.25
905.123	0.25
905.857	0.25
906.59	0.25
907.324	1.25
908.058	0.25
908.792	0.25
909.525	-0.75
910.259	2.25
910.992	1.25
911.726	-0.75
912.459	1.25
913.192	4.25
913.925	-0.75
914.658	1.25
915.391	1.25
916.124	-0.75
916.857	1.25
917.59	1.25
918.323	1.25
919.055	2.25
919.788	1.25
920.521	-1.75
921.253	1.25
921.985	-0.75
922.718	-0.75
923.45	0.25
924.182	1.25
924.914	2.25
925.646	3.25
926.378	1.25
927.11	1.25
927.841	-0.75
928.573	-0.75
929.305	1.25
930.036	1.25
930.768	0.25
931.499	-0.75
932.23	-0.75
932.962	2.25
933.693	0.25
934.424	1.25
935.155	1.25
935.886	1.25
936.617	0.25
937.348	0.25
938.078	1.25
938.809	-0.75
939.54	0.25
940.27	1.25
941.001	1.25
941.731	1.25
942.461	-0.75
943.191	2.25
943.922	1.25
944.652	2.25
945.382	1.25
946.112	-0.75
946.841	3.25
947.571	-1.75
948.301	0.25
949.031	0.25
949.76	-0.75
950.49	-0.75
951.219	-0.75
951.948	-1.75
952.678	2.25
953.407	1.25
954.136	2.25
954.865	-0.75
955.594	1.25
956.323	2.25
957.052	-1.75
957.78	0.25
958.509	1.25
959.238	1.25
959.966	0.25
960.695	2.25
961.423	-0.75
962.151	-1.75
962.88	-2.75
963.608	0.25
964.336	1.25
965.064	-0.75
965.792	1.25
966.52	1.25
967.247	1.25
967.975	1.25
968.703	-1.75
969.43	2.25
970.158	-0.75
970.885	-0.75
971.613	3.25
972.34	-0.75
973.067	0.25
973.794	1.25
974.521	1.25
975.248	1.25
975.975	-2.75
976.702	0.25
977.429	-0.75
978.156	-0.75
978.882	-0.75
979.609	-0.75
980.335	-0.75
981.062	0.25
981.788	-0.75
982.514	-0.75
983.24	0.25
983.967	-1.75
984.693	-0.75
985.419	0.25
986.144	0.25
986.87	3.25
987.596	-0.75
988.322	-1.75
989.047	1.25
989.773	-0.75
990.498	0.25
991.224	0.25
991.949	0.25
992.674	1.25
993.399	-0.75
994.124	1.25
994.849	-0.75
995.574	1.25
996.299	0.25
997.024	3.25
997.749	0.25
998.473	1.25
999.198	2.25
999.922	-0.75
1000.647	1.25
1001.371	4.25
1002.095	-1.75
1002.82	-0.75
1003.544	-0.75
1004.268	7.25
1004.992	4.25
1005.716	6.25
1006.439	4.25
1007.163	3.25
1007.887	4.25
1008.611	0.25
1009.334	0.25
1010.058	1.25
1010.781	0.25
1011.504	0.25
1012.228	0.25
1012.951	0.25
1013.674	-2.75
1014.397	1.25
1015.12	0.25
