节点500_705_QEPB04081__173__20-48-44-026.txt的数据

Date: Wed Nov 12 20:48:44 CST 2025
User: PC
Spectrometer: QEPB0408
触发模式: 0
积分时间 (秒): 1.000000E-2
Scans to average: 1
启用暗噪声校正: true
启用非线性校正: false
滑动平均宽度: 0
X轴模式: Wavelengths
Number of Pixels in Spectrum: 1044
>>>>>Begin Spectral Data<<<<<
220.843	7.88
221.644	4.88
222.444	3.88
223.244	5.88
224.045	5.88
224.845	4.88
225.645	9.88
226.445	8.88
227.245	7.88
228.045	7.88
228.845	8.88
229.645	8.88
230.444	8.88
231.244	7.88
232.043	9.88
232.843	8.88
233.642	10.88
234.442	8.88
235.241	9.88
236.04	8.88
236.839	9.88
237.638	8.88
238.437	10.88
239.236	10.88
240.035	10.88
240.833	12.88
241.632	11.88
242.43	9.88
243.229	12.88
244.027	12.88
244.826	15.88
245.624	12.88
246.422	12.88
247.22	14.88
248.018	13.88
248.816	12.88
249.614	15.88
250.412	14.88
251.21	17.88
252.007	18.88
252.805	17.88
253.602	18.88
254.4	19.88
255.197	19.88
255.994	19.88
256.791	21.88
257.589	20.88
258.386	22.88
259.183	22.88
259.979	21.88
260.776	22.88
261.573	21.88
262.37	25.88
263.166	24.88
263.963	25.88
264.759	24.88
265.556	26.88
266.352	29.88
267.148	31.88
267.944	31.88
268.74	30.88
269.536	30.88
270.332	29.88
271.128	33.88
271.924	34.88
272.719	31.88
273.515	31.88
274.311	31.88
275.106	34.88
275.901	31.88
276.697	35.88
277.492	34.88
278.287	35.88
279.082	36.88
279.877	35.88
280.672	37.88
281.467	36.88
282.262	38.88
283.056	33.88
283.851	35.88
284.646	36.88
285.44	34.88
286.234	31.88
287.029	32.88
287.823	34.88
288.617	31.88
289.411	32.88
290.205	30.88
290.999	38.88
291.793	34.88
292.587	30.88
293.381	30.88
294.174	27.88
294.968	31.88
295.761	30.88
296.555	28.88
297.348	26.88
298.141	26.88
298.935	31.88
299.728	23.88
300.521	26.88
301.314	19.88
302.107	24.88
302.899	20.88
303.692	23.88
304.485	22.88
305.277	18.88
306.07	26.88
306.862	20.88
307.655	21.88
308.447	22.88
309.239	18.88
310.031	18.88
310.823	17.88
311.615	22.88
312.407	14.88
313.199	17.88
313.991	19.88
314.783	16.88
315.574	15.88
316.366	15.88
317.157	15.88
317.949	12.88
318.74	13.88
319.531	14.88
320.322	14.88
321.113	14.88
321.904	11.88
322.695	14.88
323.486	13.88
324.277	11.88
325.068	11.88
325.858	13.88
326.649	12.88
327.439	13.88
328.23	13.88
329.02	14.88
329.81	9.88
330.6	13.88
331.391	13.88
332.181	13.88
332.971	11.88
333.76	10.88
334.55	15.88
335.34	12.88
336.13	11.88
336.919	12.88
337.709	10.88
338.498	11.88
339.287	12.88
340.077	11.88
340.866	10.88
341.655	12.88
342.444	10.88
343.233	11.88
344.022	10.88
344.811	9.88
345.6	11.88
346.388	10.88
347.177	13.88
347.965	10.88
348.754	11.88
349.542	10.88
350.33	9.88
351.119	9.88
351.907	10.88
352.695	12.88
353.483	10.88
354.271	10.88
355.059	9.88
355.846	10.88
356.634	10.88
357.422	9.88
358.209	11.88
358.997	10.88
359.784	10.88
360.571	12.88
361.359	10.88
362.146	8.88
362.933	9.88
363.72	11.88
364.507	9.88
365.294	11.88
366.081	8.88
366.867	8.88
367.654	9.88
368.44	6.88
369.227	8.88
370.013	6.88
370.8	7.88
371.586	7.88
372.372	9.88
373.158	7.88
373.944	9.88
374.73	8.88
375.516	10.88
376.302	9.88
377.088	9.88
377.873	10.88
378.659	7.88
379.445	13.88
380.23	8.88
381.015	8.88
381.801	10.88
382.586	11.88
383.371	11.88
384.156	10.88
384.941	13.88
385.726	10.88
386.511	9.88
387.296	10.88
388.08	12.88
388.865	9.88
389.649	12.88
390.434	14.88
391.218	11.88
392.003	9.88
392.787	12.88
393.571	10.88
394.355	11.88
395.139	14.88
395.923	9.88
396.707	14.88
397.491	13.88
398.274	14.88
399.058	12.88
399.842	12.88
400.625	14.88
401.408	12.88
402.192	13.88
402.975	16.88
403.758	15.88
404.541	16.88
405.324	14.88
406.107	18.88
406.89	17.88
407.673	13.88
408.456	14.88
409.238	17.88
410.021	17.88
410.803	14.88
411.586	18.88
412.368	16.88
413.151	15.88
413.933	15.88
414.715	17.88
415.497	19.88
416.279	17.88
417.061	17.88
417.843	21.88
418.624	18.88
419.406	20.88
420.188	20.88
420.969	19.88
421.751	18.88
422.532	21.88
423.313	23.88
424.095	24.88
424.876	24.88
425.657	23.88
426.438	24.88
427.219	24.88
428	31.88
428.78	26.88
429.561	27.88
430.342	29.88
431.122	31.88
431.903	28.88
432.683	30.88
433.464	32.88
434.244	36.88
435.024	38.88
435.804	39.88
436.584	42.88
437.364	45.88
438.144	50.88
438.924	49.88
439.704	56.88
440.483	54.88
441.263	58.88
442.042	64.88
442.822	67.88
443.601	71.88
444.38	79.88
445.16	86.88
445.939	90.88
446.718	100.88
447.497	107.88
448.276	113.88
449.054	130.88
449.833	141.88
450.612	153.88
451.391	171.88
452.169	184.88
452.948	209.88
453.726	229.88
454.504	253.88
455.282	286.88
456.061	319.88
456.839	351.88
457.617	394.88
458.395	439.88
459.172	501.88
459.95	551.88
460.728	613.88
461.506	678.88
462.283	774.88
463.061	860.88
463.838	954.88
464.615	1067.88
465.393	1186.88
466.17	1322.88
466.947	1476.88
467.724	1638.88
468.501	1819.88
469.278	2019.88
470.055	2227.88
470.831	2456.88
471.608	2738.88
472.385	3037.88
473.161	3345.88
473.938	3678.88
474.714	4059.88
475.49	4450.88
476.266	4894.88
477.043	5400.88
477.819	5948.88
478.595	6485.88
479.371	7126.88
480.146	7783.88
480.922	8522.88
481.698	9308.88
482.473	10159.88
483.249	11079.88
484.024	12031.88
484.8	13155.88
485.575	14221.88
486.35	15495.88
487.126	16820.88
487.901	18174.88
488.676	19642.88
489.451	21233.88
490.225	22941.88
491	24651.88
491.775	26376.88
492.55	28186.88
493.324	30063.88
494.099	31874.88
494.873	33841.88
495.647	35679.88
496.422	37554.88
497.196	39513.88
497.97	41110.88
498.744	42643.88
499.518	44231.88
500.292	45506.88
501.066	46513.88
501.839	47316.88
502.613	47975.88
503.387	48511.88
504.16	48740.88
504.934	48857.88
505.707	48511.88
506.48	47968.88
507.253	47299.88
508.027	46436.88
508.8	45310.88
509.573	44082.88
510.346	42917.88
511.118	41729.88
511.891	40318.88
512.664	38711.88
513.437	37183.88
514.209	35796.88
514.982	34366.88
515.754	32803.88
516.526	31490.88
517.298	30215.88
518.071	28972.88
518.843	27844.88
519.615	26681.88
520.387	25619.88
521.159	24640.88
521.93	23535.88
522.702	22564.88
523.474	21627.88
524.245	20701.88
525.017	19695.88
525.788	18845.88
526.56	18079.88
527.331	17223.88
528.102	16416.88
528.873	15502.88
529.644	14706.88
530.415	14042.88
531.186	13346.88
531.957	12693.88
532.728	12006.88
533.498	11349.88
534.269	10700.88
535.039	10161.88
535.81	9609.88
536.58	9091.88
537.351	8590.88
538.121	8132.88
538.891	7706.88
539.661	7274.88
540.431	6907.88
541.201	6515.88
541.971	6189.88
542.741	5873.88
543.51	5542.88
544.28	5285.88
545.05	5044.88
545.819	4808.88
546.588	4571.88
547.358	4368.88
548.127	4145.88
548.896	3931.88
549.665	3721.88
550.434	3526.88
551.203	3341.88
551.972	3173.88
552.741	2986.88
553.51	2828.88
554.278	2664.88
555.047	2509.88
555.815	2373.88
556.584	2241.88
557.352	2135.88
558.121	1998.88
558.889	1891.88
559.657	1788.88
560.425	1690.88
561.193	1601.88
561.961	1521.88
562.729	1433.88
563.496	1349.88
564.264	1284.88
565.032	1207.88
565.799	1139.88
566.567	1092.88
567.334	1026.88
568.101	976.88
568.869	912.88
569.636	866.88
570.403	810.88
571.17	776.88
571.937	733.88
572.704	697.88
573.471	651.88
574.237	607.88
575.004	580.88
575.771	541.88
576.537	504.88
577.303	478.88
578.07	457.88
578.836	432.88
579.602	406.88
580.368	390.88
581.134	366.88
581.9	343.88
582.666	328.88
583.432	320.88
584.198	301.88
584.964	291.88
585.729	264.88
586.495	256.88
587.26	244.88
588.025	225.88
588.791	215.88
589.556	204.88
590.321	195.88
591.086	185.88
591.851	173.88
592.616	170.88
593.381	164.88
594.146	155.88
594.911	146.88
595.675	141.88
596.44	133.88
597.204	127.88
597.969	125.88
598.733	119.88
599.497	113.88
600.261	108.88
601.025	102.88
601.79	98.88
602.553	96.88
603.317	91.88
604.081	89.88
604.845	85.88
605.609	82.88
606.372	79.88
607.136	74.88
607.899	70.88
608.662	69.88
609.426	67.88
610.189	62.88
610.952	64.88
611.715	59.88
612.478	59.88
613.241	53.88
614.004	53.88
614.767	50.88
615.529	53.88
616.292	47.88
617.055	44.88
617.817	43.88
618.579	43.88
619.342	44.88
620.104	38.88
620.866	38.88
621.628	37.88
622.39	35.88
623.152	36.88
623.914	34.88
624.676	34.88
625.438	32.88
626.199	28.88
626.961	30.88
627.722	30.88
628.484	31.88
629.245	28.88
630.006	26.88
630.768	24.88
631.529	27.88
632.29	25.88
633.051	25.88
633.812	24.88
634.573	24.88
635.333	22.88
636.094	20.88
636.855	20.88
637.615	18.88
638.376	20.88
639.136	23.88
639.896	18.88
640.657	19.88
641.417	16.88
642.177	19.88
642.937	16.88
643.697	20.88
644.457	17.88
645.216	14.88
645.976	16.88
646.736	14.88
647.495	15.88
648.255	15.88
649.014	16.88
649.774	11.88
650.533	10.88
651.292	14.88
652.051	13.88
652.81	12.88
653.569	13.88
654.328	12.88
655.087	12.88
655.846	13.88
656.604	10.88
657.363	14.88
658.121	10.88
658.88	11.88
659.638	12.88
660.397	10.88
661.155	8.88
661.913	8.88
662.671	10.88
663.429	9.88
664.187	9.88
664.945	8.88
665.703	11.88
666.46	8.88
667.218	9.88
667.976	8.88
668.733	9.88
669.49	9.88
670.248	6.88
671.005	9.88
671.762	9.88
672.519	9.88
673.276	10.88
674.033	7.88
674.79	8.88
675.547	6.88
676.304	9.88
677.06	9.88
677.817	4.88
678.574	7.88
679.33	7.88
680.086	8.88
680.843	7.88
681.599	9.88
682.355	7.88
683.111	8.88
683.867	9.88
684.623	7.88
685.379	8.88
686.135	7.88
686.89	5.88
687.646	7.88
688.402	6.88
689.157	8.88
689.912	11.88
690.668	6.88
691.423	6.88
692.178	9.88
692.933	8.88
693.688	6.88
694.443	7.88
695.198	8.88
695.953	5.88
696.708	9.88
697.462	8.88
698.217	8.88
698.972	7.88
699.726	6.88
700.48	6.88
701.235	4.88
701.989	8.88
702.743	6.88
703.497	5.88
704.251	7.88
705.005	7.88
705.759	8.88
706.513	8.88
707.266	9.88
708.02	10.88
708.774	7.88
709.527	7.88
710.28	5.88
711.034	7.88
711.787	8.88
712.54	10.88
713.293	6.88
714.046	7.88
714.799	7.88
715.552	5.88
716.305	6.88
717.058	4.88
717.81	7.88
718.563	7.88
719.315	6.88
720.068	8.88
720.82	10.88
721.573	10.88
722.325	7.88
723.077	7.88
723.829	7.88
724.581	7.88
725.333	10.88
726.085	7.88
726.836	8.88
727.588	7.88
728.34	7.88
729.091	9.88
729.843	9.88
730.594	9.88
731.346	10.88
732.097	5.88
732.848	9.88
733.599	6.88
734.35	9.88
735.101	7.88
735.852	7.88
736.603	8.88
737.354	7.88
738.104	8.88
738.855	9.88
739.605	8.88
740.356	9.88
741.106	9.88
741.856	10.88
742.607	11.88
743.357	13.88
744.107	9.88
744.857	7.88
745.607	9.88
746.357	8.88
747.106	8.88
747.856	8.88
748.606	9.88
749.355	10.88
750.105	12.88
750.854	11.88
751.603	9.88
752.353	12.88
753.102	9.88
753.851	10.88
754.6	14.88
755.349	8.88
756.098	13.88
756.847	11.88
757.595	13.88
758.344	13.88
759.093	13.88
759.841	13.88
760.589	12.88
761.338	11.88
762.086	11.88
762.834	11.88
763.582	14.88
764.331	14.88
765.079	11.88
765.826	11.88
766.574	13.88
767.322	11.88
768.07	13.88
768.817	15.88
769.565	13.88
770.312	13.88
771.06	15.88
771.807	14.88
772.554	15.88
773.302	15.88
774.049	15.88
774.796	14.88
775.543	15.88
776.29	17.88
777.036	15.88
777.783	17.88
778.53	13.88
779.276	16.88
780.023	14.88
780.769	15.88
781.516	14.88
782.262	16.88
783.008	14.88
783.754	14.88
784.5	14.88
785.246	15.88
785.992	13.88
786.738	15.88
787.484	16.88
788.23	16.88
788.975	13.88
789.721	14.88
790.466	15.88
791.212	15.88
791.957	14.88
792.702	12.88
793.447	15.88
794.193	13.88
794.938	12.88
795.683	13.88
796.427	10.88
797.172	14.88
797.917	11.88
798.662	12.88
799.406	12.88
800.151	12.88
800.895	12.88
801.64	10.88
802.384	12.88
803.128	8.88
803.872	10.88
804.616	10.88
805.36	10.88
806.104	9.88
806.848	10.88
807.592	11.88
808.336	8.88
809.079	10.88
809.823	10.88
810.566	8.88
811.31	6.88
812.053	7.88
812.796	6.88
813.539	9.88
814.283	7.88
815.026	7.88
815.769	8.88
816.511	7.88
817.254	4.88
817.997	8.88
818.74	9.88
819.482	8.88
820.225	7.88
820.967	5.88
821.71	7.88
822.452	8.88
823.194	7.88
823.936	5.88
824.678	7.88
825.42	7.88
826.162	7.88
826.904	8.88
827.646	7.88
828.388	9.88
829.129	7.88
829.871	9.88
830.612	6.88
831.354	6.88
832.095	5.88
832.836	5.88
833.577	7.88
834.319	6.88
835.06	4.88
835.801	5.88
836.542	5.88
837.282	6.88
838.023	4.88
838.764	4.88
839.504	5.88
840.245	5.88
840.985	3.88
841.726	5.88
842.466	3.88
843.206	5.88
843.946	4.88
844.687	7.88
845.427	2.88
846.166	6.88
846.906	4.88
847.646	1.88
848.386	4.88
849.125	5.88
849.865	3.88
850.605	3.88
851.344	3.88
852.083	5.88
852.823	2.88
853.562	3.88
854.301	3.88
855.04	2.88
855.779	7.88
856.518	3.88
857.257	0.88
857.995	2.88
858.734	4.88
859.473	4.88
860.211	1.88
860.95	2.88
861.688	4.88
862.426	2.88
863.165	1.88
863.903	3.88
864.641	2.88
865.379	1.88
866.117	0.88
866.855	4.88
867.593	4.88
868.33	0.88
869.068	2.88
869.806	3.88
870.543	2.88
871.28	1.88
872.018	-0.12
872.755	4.88
873.492	0.88
874.229	0.88
874.967	0.88
875.703	0.88
876.44	2.88
877.177	0.88
877.914	0.88
878.651	1.88
879.387	0.88
880.124	0.88
880.86	-1.12
881.597	2.88
882.333	1.88
883.069	4.88
883.806	1.88
884.542	0.88
885.278	2.88
886.014	1.88
886.749	0.88
887.485	1.88
888.221	1.88
888.957	0.88
889.692	0.88
890.428	2.88
891.163	-1.12
891.899	1.88
892.634	-0.12
893.369	0.88
894.104	-0.12
894.839	-0.12
895.574	0.88
896.309	1.88
897.044	1.88
897.779	-1.12
898.514	0.88
899.248	0.88
899.983	-1.12
900.717	1.88
901.452	0.88
902.186	-1.12
902.92	0.88
903.654	-2.12
904.389	0.88
905.123	0.88
905.857	0.88
906.59	1.88
907.324	0.88
908.058	2.88
908.792	-2.12
909.525	2.88
910.259	1.88
910.992	-0.12
911.726	1.88
912.459	-1.12
913.192	0.88
913.925	-0.12
914.658	0.88
915.391	0.88
916.124	0.88
916.857	-0.12
917.59	0.88
918.323	1.88
919.055	-0.12
919.788	-0.12
920.521	-0.12
921.253	-1.12
921.985	-0.12
922.718	1.88
923.45	0.88
924.182	-0.12
924.914	0.88
925.646	-0.12
926.378	-0.12
927.11	1.88
927.841	2.88
928.573	-1.12
929.305	0.88
930.036	0.88
930.768	1.88
931.499	0.88
932.23	1.88
932.962	-0.12
933.693	-1.12
934.424	1.88
935.155	-0.12
935.886	1.88
936.617	0.88
937.348	1.88
938.078	-0.12
938.809	-3.12
939.54	-0.12
940.27	-1.12
941.001	1.88
941.731	0.88
942.461	-0.12
943.191	-0.12
943.922	-1.12
944.652	0.88
945.382	-0.12
946.112	-0.12
946.841	0.88
947.571	-0.12
948.301	-0.12
949.031	-0.12
949.76	0.88
950.49	-1.12
951.219	-0.12
951.948	0.88
952.678	-1.12
953.407	0.88
954.136	0.88
954.865	-1.12
955.594	0.88
956.323	0.88
957.052	-1.12
957.78	-1.12
958.509	-0.12
959.238	-1.12
959.966	0.88
960.695	-0.12
961.423	-1.12
962.151	0.88
962.88	-0.12
963.608	-0.12
964.336	0.88
965.064	-0.12
965.792	0.88
966.52	-0.12
967.247	-0.12
967.975	-0.12
968.703	0.88
969.43	-1.12
970.158	-1.12
970.885	2.88
971.613	-1.12
972.34	2.88
973.067	1.88
973.794	0.88
974.521	-1.12
975.248	-0.12
975.975	-0.12
976.702	-1.12
977.429	0.88
978.156	1.88
978.882	-1.12
979.609	-0.12
980.335	-0.12
981.062	1.88
981.788	-0.12
982.514	-1.12
983.24	-0.12
983.967	-0.12
984.693	0.88
985.419	1.88
986.144	1.88
986.87	1.88
987.596	0.88
988.322	0.88
989.047	0.88
989.773	0.88
990.498	0.88
991.224	-2.12
991.949	-1.12
992.674	-0.12
993.399	0.88
994.124	0.88
994.849	-1.12
995.574	-0.12
996.299	-1.12
997.024	0.88
997.749	0.88
998.473	-0.12
999.198	-1.12
999.922	0.88
1000.647	0.88
1001.371	5.88
1002.095	-1.12
1002.82	-1.12
1003.544	-1.12
1004.268	3.88
1004.992	5.88
1005.716	3.88
1006.439	2.88
1007.163	4.88
1007.887	6.88
1008.611	-0.12
1009.334	1.88
1010.058	-1.12
1010.781	0.88
1011.504	-1.12
1012.228	-0.12
1012.951	-1.12
1013.674	0.88
1014.397	-1.12
1015.12	-1.12
