节点500_705_QEPB04081__460__20-52-24-782.txt的数据

Date: Wed Nov 12 20:52:24 CST 2025
User: PC
Spectrometer: QEPB0408
触发模式: 0
积分时间 (秒): 1.000000E-2
Scans to average: 1
启用暗噪声校正: true
启用非线性校正: false
滑动平均宽度: 0
X轴模式: Wavelengths
Number of Pixels in Spectrum: 1044
>>>>>Begin Spectral Data<<<<<
220.843	5.5
221.644	8.5
222.444	3.5
223.244	7.5
224.045	7.5
224.845	4.5
225.645	7.5
226.445	8.5
227.245	5.5
228.045	7.5
228.845	4.5
229.645	9.5
230.444	9.5
231.244	7.5
232.043	8.5
232.843	10.5
233.642	10.5
234.442	8.5
235.241	10.5
236.04	10.5
236.839	9.5
237.638	11.5
238.437	11.5
239.236	13.5
240.035	12.5
240.833	12.5
241.632	11.5
242.43	12.5
243.229	11.5
244.027	11.5
244.826	11.5
245.624	11.5
246.422	14.5
247.22	12.5
248.018	15.5
248.816	14.5
249.614	13.5
250.412	15.5
251.21	15.5
252.007	15.5
252.805	18.5
253.602	17.5
254.4	19.5
255.197	19.5
255.994	18.5
256.791	16.5
257.589	17.5
258.386	19.5
259.183	20.5
259.979	19.5
260.776	23.5
261.573	22.5
262.37	22.5
263.166	24.5
263.963	23.5
264.759	25.5
265.556	25.5
266.352	26.5
267.148	27.5
267.944	29.5
268.74	29.5
269.536	27.5
270.332	26.5
271.128	30.5
271.924	30.5
272.719	29.5
273.515	31.5
274.311	30.5
275.106	34.5
275.901	30.5
276.697	33.5
277.492	35.5
278.287	29.5
279.082	34.5
279.877	34.5
280.672	31.5
281.467	30.5
282.262	35.5
283.056	31.5
283.851	30.5
284.646	32.5
285.44	30.5
286.234	30.5
287.029	34.5
287.823	33.5
288.617	33.5
289.411	32.5
290.205	30.5
290.999	31.5
291.793	32.5
292.587	32.5
293.381	31.5
294.174	28.5
294.968	29.5
295.761	27.5
296.555	27.5
297.348	28.5
298.141	27.5
298.935	27.5
299.728	27.5
300.521	23.5
301.314	24.5
302.107	25.5
302.899	21.5
303.692	22.5
304.485	23.5
305.277	21.5
306.07	21.5
306.862	24.5
307.655	19.5
308.447	21.5
309.239	20.5
310.031	21.5
310.823	21.5
311.615	19.5
312.407	17.5
313.199	19.5
313.991	13.5
314.783	17.5
315.574	18.5
316.366	15.5
317.157	16.5
317.949	16.5
318.74	15.5
319.531	14.5
320.322	15.5
321.113	12.5
321.904	12.5
322.695	15.5
323.486	14.5
324.277	13.5
325.068	13.5
325.858	11.5
326.649	12.5
327.439	11.5
328.23	14.5
329.02	11.5
329.81	14.5
330.6	11.5
331.391	11.5
332.181	12.5
332.971	11.5
333.76	11.5
334.55	13.5
335.34	14.5
336.13	11.5
336.919	8.5
337.709	12.5
338.498	11.5
339.287	11.5
340.077	12.5
340.866	11.5
341.655	12.5
342.444	9.5
343.233	15.5
344.022	11.5
344.811	8.5
345.6	11.5
346.388	13.5
347.177	11.5
347.965	11.5
348.754	12.5
349.542	11.5
350.33	11.5
351.119	13.5
351.907	10.5
352.695	14.5
353.483	9.5
354.271	8.5
355.059	12.5
355.846	11.5
356.634	9.5
357.422	10.5
358.209	9.5
358.997	11.5
359.784	10.5
360.571	8.5
361.359	11.5
362.146	13.5
362.933	9.5
363.72	10.5
364.507	11.5
365.294	11.5
366.081	10.5
366.867	10.5
367.654	8.5
368.44	7.5
369.227	9.5
370.013	9.5
370.8	8.5
371.586	11.5
372.372	9.5
373.158	11.5
373.944	8.5
374.73	9.5
375.516	8.5
376.302	10.5
377.088	9.5
377.873	10.5
378.659	11.5
379.445	11.5
380.23	9.5
381.015	9.5
381.801	8.5
382.586	12.5
383.371	9.5
384.156	10.5
384.941	13.5
385.726	10.5
386.511	10.5
387.296	10.5
388.08	12.5
388.865	13.5
389.649	12.5
390.434	11.5
391.218	12.5
392.003	11.5
392.787	12.5
393.571	16.5
394.355	13.5
395.139	13.5
395.923	14.5
396.707	11.5
397.491	12.5
398.274	13.5
399.058	14.5
399.842	12.5
400.625	10.5
401.408	13.5
402.192	11.5
402.975	15.5
403.758	14.5
404.541	17.5
405.324	14.5
406.107	12.5
406.89	17.5
407.673	13.5
408.456	15.5
409.238	16.5
410.021	15.5
410.803	17.5
411.586	16.5
412.368	19.5
413.151	21.5
413.933	17.5
414.715	21.5
415.497	20.5
416.279	19.5
417.061	18.5
417.843	20.5
418.624	21.5
419.406	20.5
420.188	19.5
420.969	21.5
421.751	22.5
422.532	24.5
423.313	21.5
424.095	22.5
424.876	24.5
425.657	25.5
426.438	24.5
427.219	28.5
428	25.5
428.78	28.5
429.561	27.5
430.342	31.5
431.122	33.5
431.903	31.5
432.683	35.5
433.464	34.5
434.244	37.5
435.024	37.5
435.804	40.5
436.584	43.5
437.364	41.5
438.144	50.5
438.924	49.5
439.704	55.5
440.483	56.5
441.263	60.5
442.042	64.5
442.822	73.5
443.601	77.5
444.38	80.5
445.16	87.5
445.939	99.5
446.718	108.5
447.497	111.5
448.276	126.5
449.054	139.5
449.833	155.5
450.612	167.5
451.391	188.5
452.169	204.5
452.948	229.5
453.726	255.5
454.504	277.5
455.282	306.5
456.061	344.5
456.839	381.5
457.617	431.5
458.395	475.5
459.172	530.5
459.95	586.5
460.728	658.5
461.506	742.5
462.283	816.5
463.061	901.5
463.838	1001.5
464.615	1113.5
465.393	1220.5
466.17	1373.5
466.947	1519.5
467.724	1679.5
468.501	1879.5
469.278	2065.5
470.055	2266.5
470.831	2515.5
471.608	2749.5
472.385	3042.5
473.161	3326.5
473.938	3666.5
474.714	4010.5
475.49	4415.5
476.266	4791.5
477.043	5239.5
477.819	5699.5
478.595	6213.5
479.371	6741.5
480.146	7380.5
480.922	7998.5
481.698	8704.5
482.473	9484.5
483.249	10245.5
484.024	11096.5
484.8	12035.5
485.575	12968.5
486.35	14003.5
487.126	15211.5
487.901	16312.5
488.676	17571.5
489.451	18986.5
490.225	20395.5
491	21867.5
491.775	23342.5
492.55	24945.5
493.324	26522.5
494.099	28199.5
494.873	29847.5
495.647	31610.5
496.422	33234.5
497.196	34913.5
497.97	36490.5
498.744	38000.5
499.518	39514.5
500.292	41005.5
501.066	41986.5
501.839	42975.5
502.613	43817.5
503.387	44570.5
504.16	45087.5
504.934	45320.5
505.707	45514.5
506.48	45282.5
507.253	44881.5
508.027	44533.5
508.8	43736.5
509.573	42899.5
510.346	41947.5
511.118	41074.5
511.891	39942.5
512.664	38516.5
513.437	37237.5
514.209	35881.5
514.982	34574.5
515.754	33254.5
516.526	31862.5
517.298	30701.5
518.071	29445.5
518.843	28343.5
519.615	27160.5
520.387	26084.5
521.159	25095.5
521.93	24059.5
522.702	23097.5
523.474	22095.5
524.245	21228.5
525.017	20382.5
525.788	19469.5
526.56	18696.5
527.331	17889.5
528.102	16953.5
528.873	16157.5
529.644	15348.5
530.415	14690.5
531.186	14020.5
531.957	13313.5
532.728	12606.5
533.498	11973.5
534.269	11360.5
535.039	10771.5
535.81	10163.5
536.58	9594.5
537.351	9146.5
538.121	8654.5
538.891	8170.5
539.661	7736.5
540.431	7354.5
541.201	6954.5
541.971	6555.5
542.741	6240.5
543.51	5896.5
544.28	5647.5
545.05	5383.5
545.819	5100.5
546.588	4896.5
547.358	4634.5
548.127	4389.5
548.896	4174.5
549.665	3995.5
550.434	3786.5
551.203	3584.5
551.972	3420.5
552.741	3227.5
553.51	3022.5
554.278	2852.5
555.047	2705.5
555.815	2557.5
556.584	2431.5
557.352	2294.5
558.121	2192.5
558.889	2053.5
559.657	1933.5
560.425	1819.5
561.193	1739.5
561.961	1650.5
562.729	1550.5
563.496	1472.5
564.264	1393.5
565.032	1325.5
565.799	1250.5
566.567	1182.5
567.334	1109.5
568.101	1055.5
568.869	984.5
569.636	935.5
570.403	878.5
571.17	835.5
571.937	781.5
572.704	753.5
573.471	713.5
574.237	651.5
575.004	619.5
575.771	577.5
576.537	552.5
577.303	527.5
578.07	490.5
578.836	474.5
579.602	439.5
580.368	420.5
581.134	403.5
581.9	379.5
582.666	370.5
583.432	344.5
584.198	331.5
584.964	311.5
585.729	285.5
586.495	278.5
587.26	266.5
588.025	242.5
588.791	235.5
589.556	229.5
590.321	210.5
591.086	200.5
591.851	189.5
592.616	188.5
593.381	177.5
594.146	174.5
594.911	157.5
595.675	153.5
596.44	149.5
597.204	141.5
597.969	134.5
598.733	128.5
599.497	122.5
600.261	115.5
601.025	110.5
601.79	108.5
602.553	102.5
603.317	96.5
604.081	95.5
604.845	88.5
605.609	85.5
606.372	82.5
607.136	81.5
607.899	77.5
608.662	74.5
609.426	70.5
610.189	64.5
610.952	69.5
611.715	65.5
612.478	58.5
613.241	58.5
614.004	60.5
614.767	55.5
615.529	53.5
616.292	50.5
617.055	50.5
617.817	44.5
618.579	48.5
619.342	47.5
620.104	40.5
620.866	41.5
621.628	42.5
622.39	36.5
623.152	41.5
623.914	40.5
624.676	37.5
625.438	35.5
626.199	34.5
626.961	31.5
627.722	33.5
628.484	34.5
629.245	28.5
630.006	31.5
630.768	30.5
631.529	27.5
632.29	26.5
633.051	24.5
633.812	25.5
634.573	27.5
635.333	25.5
636.094	23.5
636.855	23.5
637.615	25.5
638.376	21.5
639.136	21.5
639.896	19.5
640.657	21.5
641.417	24.5
642.177	21.5
642.937	19.5
643.697	17.5
644.457	19.5
645.216	17.5
645.976	17.5
646.736	18.5
647.495	14.5
648.255	16.5
649.014	14.5
649.774	14.5
650.533	16.5
651.292	15.5
652.051	15.5
652.81	15.5
653.569	13.5
654.328	12.5
655.087	14.5
655.846	14.5
656.604	11.5
657.363	15.5
658.121	11.5
658.88	10.5
659.638	14.5
660.397	10.5
661.155	10.5
661.913	12.5
662.671	12.5
663.429	9.5
664.187	10.5
664.945	11.5
665.703	9.5
666.46	10.5
667.218	11.5
667.976	9.5
668.733	9.5
669.49	11.5
670.248	9.5
671.005	11.5
671.762	9.5
672.519	10.5
673.276	9.5
674.033	12.5
674.79	8.5
675.547	11.5
676.304	11.5
677.06	10.5
677.817	8.5
678.574	8.5
679.33	10.5
680.086	8.5
680.843	9.5
681.599	8.5
682.355	9.5
683.111	13.5
683.867	8.5
684.623	9.5
685.379	8.5
686.135	10.5
686.89	10.5
687.646	8.5
688.402	7.5
689.157	9.5
689.912	9.5
690.668	10.5
691.423	8.5
692.178	6.5
692.933	7.5
693.688	7.5
694.443	6.5
695.198	7.5
695.953	9.5
696.708	6.5
697.462	10.5
698.217	9.5
698.972	8.5
699.726	7.5
700.48	9.5
701.235	8.5
701.989	6.5
702.743	8.5
703.497	7.5
704.251	8.5
705.005	7.5
705.759	4.5
706.513	10.5
707.266	7.5
708.02	9.5
708.774	7.5
709.527	9.5
710.28	5.5
711.034	5.5
711.787	7.5
712.54	8.5
713.293	10.5
714.046	11.5
714.799	7.5
715.552	9.5
716.305	7.5
717.058	11.5
717.81	9.5
718.563	7.5
719.315	8.5
720.068	7.5
720.82	11.5
721.573	9.5
722.325	9.5
723.077	11.5
723.829	5.5
724.581	7.5
725.333	7.5
726.085	10.5
726.836	7.5
727.588	7.5
728.34	8.5
729.091	8.5
729.843	8.5
730.594	10.5
731.346	10.5
732.097	10.5
732.848	8.5
733.599	10.5
734.35	9.5
735.101	11.5
735.852	8.5
736.603	9.5
737.354	8.5
738.104	8.5
738.855	10.5
739.605	11.5
740.356	11.5
741.106	9.5
741.856	9.5
742.607	9.5
743.357	10.5
744.107	11.5
744.857	9.5
745.607	11.5
746.357	11.5
747.106	10.5
747.856	8.5
748.606	9.5
749.355	13.5
750.105	10.5
750.854	9.5
751.603	12.5
752.353	13.5
753.102	10.5
753.851	11.5
754.6	10.5
755.349	14.5
756.098	13.5
756.847	13.5
757.595	12.5
758.344	12.5
759.093	14.5
759.841	10.5
760.589	12.5
761.338	10.5
762.086	15.5
762.834	9.5
763.582	12.5
764.331	14.5
765.079	12.5
765.826	15.5
766.574	11.5
767.322	15.5
768.07	12.5
768.817	14.5
769.565	15.5
770.312	14.5
771.06	16.5
771.807	15.5
772.554	13.5
773.302	15.5
774.049	16.5
774.796	17.5
775.543	15.5
776.29	13.5
777.036	16.5
777.783	18.5
778.53	17.5
779.276	14.5
780.023	15.5
780.769	15.5
781.516	17.5
782.262	17.5
783.008	16.5
783.754	15.5
784.5	15.5
785.246	17.5
785.992	17.5
786.738	16.5
787.484	15.5
788.23	17.5
788.975	15.5
789.721	15.5
790.466	13.5
791.212	13.5
791.957	11.5
792.702	15.5
793.447	13.5
794.193	12.5
794.938	15.5
795.683	14.5
796.427	13.5
797.172	13.5
797.917	13.5
798.662	12.5
799.406	12.5
800.151	11.5
800.895	14.5
801.64	12.5
802.384	12.5
803.128	11.5
803.872	12.5
804.616	11.5
805.36	11.5
806.104	9.5
806.848	9.5
807.592	9.5
808.336	9.5
809.079	10.5
809.823	11.5
810.566	9.5
811.31	10.5
812.053	9.5
812.796	9.5
813.539	9.5
814.283	8.5
815.026	9.5
815.769	8.5
816.511	8.5
817.254	9.5
817.997	6.5
818.74	5.5
819.482	6.5
820.225	6.5
820.967	8.5
821.71	5.5
822.452	8.5
823.194	5.5
823.936	8.5
824.678	7.5
825.42	11.5
826.162	8.5
826.904	7.5
827.646	6.5
828.388	6.5
829.129	8.5
829.871	5.5
830.612	7.5
831.354	8.5
832.095	7.5
832.836	6.5
833.577	6.5
834.319	5.5
835.06	5.5
835.801	5.5
836.542	5.5
837.282	8.5
838.023	4.5
838.764	7.5
839.504	6.5
840.245	4.5
840.985	5.5
841.726	6.5
842.466	5.5
843.206	7.5
843.946	4.5
844.687	6.5
845.427	5.5
846.166	6.5
846.906	6.5
847.646	6.5
848.386	7.5
849.125	4.5
849.865	2.5
850.605	5.5
851.344	4.5
852.083	5.5
852.823	7.5
853.562	4.5
854.301	3.5
855.04	6.5
855.779	6.5
856.518	3.5
857.257	5.5
857.995	5.5
858.734	1.5
859.473	3.5
860.211	4.5
860.95	3.5
861.688	5.5
862.426	0.5
863.165	3.5
863.903	5.5
864.641	5.5
865.379	3.5
866.117	2.5
866.855	4.5
867.593	1.5
868.33	3.5
869.068	2.5
869.806	5.5
870.543	5.5
871.28	3.5
872.018	2.5
872.755	2.5
873.492	2.5
874.229	2.5
874.967	3.5
875.703	2.5
876.44	2.5
877.177	1.5
877.914	0.5
878.651	3.5
879.387	1.5
880.124	3.5
880.86	2.5
881.597	3.5
882.333	2.5
883.069	1.5
883.806	3.5
884.542	1.5
885.278	2.5
886.014	3.5
886.749	1.5
887.485	2.5
888.221	3.5
888.957	2.5
889.692	2.5
890.428	2.5
891.163	2.5
891.899	0.5
892.634	1.5
893.369	0.5
894.104	2.5
894.839	-0.5
895.574	1.5
896.309	0.5
897.044	0.5
897.779	2.5
898.514	0.5
899.248	0.5
899.983	0.5
900.717	-0.5
901.452	2.5
902.186	-0.5
902.92	1.5
903.654	0.5
904.389	-0.5
905.123	2.5
905.857	2.5
906.59	0.5
907.324	1.5
908.058	2.5
908.792	1.5
909.525	1.5
910.259	2.5
910.992	3.5
911.726	2.5
912.459	1.5
913.192	-0.5
913.925	3.5
914.658	0.5
915.391	2.5
916.124	1.5
916.857	-0.5
917.59	0.5
918.323	-1.5
919.055	1.5
919.788	0.5
920.521	2.5
921.253	-0.5
921.985	-0.5
922.718	1.5
923.45	1.5
924.182	0.5
924.914	0.5
925.646	-0.5
926.378	1.5
927.11	1.5
927.841	0.5
928.573	-0.5
929.305	0.5
930.036	2.5
930.768	0.5
931.499	3.5
932.23	0.5
932.962	2.5
933.693	1.5
934.424	2.5
935.155	0.5
935.886	-0.5
936.617	1.5
937.348	1.5
938.078	1.5
938.809	2.5
939.54	-0.5
940.27	0.5
941.001	3.5
941.731	2.5
942.461	1.5
943.191	2.5
943.922	-0.5
944.652	0.5
945.382	0.5
946.112	0.5
946.841	0.5
947.571	0.5
948.301	0.5
949.031	-0.5
949.76	-0.5
950.49	2.5
951.219	-0.5
951.948	1.5
952.678	1.5
953.407	1.5
954.136	-0.5
954.865	1.5
955.594	1.5
956.323	-0.5
957.052	1.5
957.78	1.5
958.509	2.5
959.238	0.5
959.966	-1.5
960.695	2.5
961.423	-0.5
962.151	0.5
962.88	2.5
963.608	0.5
964.336	3.5
965.064	2.5
965.792	0.5
966.52	0.5
967.247	0.5
967.975	1.5
968.703	1.5
969.43	0.5
970.158	1.5
970.885	3.5
971.613	0.5
972.34	0.5
973.067	1.5
973.794	2.5
974.521	0.5
975.248	2.5
975.975	2.5
976.702	2.5
977.429	-0.5
978.156	0.5
978.882	0.5
979.609	1.5
980.335	0.5
981.062	1.5
981.788	1.5
982.514	-0.5
983.24	0.5
983.967	1.5
984.693	1.5
985.419	-0.5
986.144	1.5
986.87	1.5
987.596	-0.5
988.322	-0.5
989.047	-0.5
989.773	3.5
990.498	1.5
991.224	-1.5
991.949	2.5
992.674	-0.5
993.399	2.5
994.124	-2.5
994.849	-1.5
995.574	0.5
996.299	1.5
997.024	0.5
997.749	0.5
998.473	1.5
999.198	1.5
999.922	0.5
1000.647	1.5
1001.371	3.5
1002.095	-0.5
1002.82	-0.5
1003.544	0.5
1004.268	8.5
1004.992	6.5
1005.716	4.5
1006.439	8.5
1007.163	6.5
1007.887	6.5
1008.611	-0.5
1009.334	0.5
1010.058	-0.5
1010.781	0.5
1011.504	-0.5
1012.228	1.5
1012.951	-1.5
1013.674	-0.5
1014.397	-0.5
1015.12	-0.5
