节点500_705_QEPB04081__585__20-54-14-786.txt的数据

Date: Wed Nov 12 20:54:14 CST 2025
User: PC
Spectrometer: QEPB0408
触发模式: 0
积分时间 (秒): 1.000000E-2
Scans to average: 1
启用暗噪声校正: true
启用非线性校正: false
滑动平均宽度: 0
X轴模式: Wavelengths
Number of Pixels in Spectrum: 1044
>>>>>Begin Spectral Data<<<<<
220.843	5.12
221.644	6.12
222.444	8.12
223.244	7.12
224.045	5.12
224.845	8.12
225.645	6.12
226.445	4.12
227.245	5.12
228.045	9.12
228.845	5.12
229.645	9.12
230.444	7.12
231.244	8.12
232.043	9.12
232.843	10.12
233.642	9.12
234.442	6.12
235.241	9.12
236.04	7.12
236.839	11.12
237.638	10.12
238.437	13.12
239.236	12.12
240.035	11.12
240.833	11.12
241.632	12.12
242.43	14.12
243.229	10.12
244.027	12.12
244.826	13.12
245.624	12.12
246.422	12.12
247.22	15.12
248.018	13.12
248.816	12.12
249.614	15.12
250.412	15.12
251.21	11.12
252.007	17.12
252.805	14.12
253.602	14.12
254.4	15.12
255.197	19.12
255.994	17.12
256.791	18.12
257.589	19.12
258.386	21.12
259.183	18.12
259.979	21.12
260.776	20.12
261.573	22.12
262.37	22.12
263.166	20.12
263.963	22.12
264.759	24.12
265.556	24.12
266.352	25.12
267.148	23.12
267.944	24.12
268.74	27.12
269.536	26.12
270.332	24.12
271.128	26.12
271.924	24.12
272.719	31.12
273.515	30.12
274.311	31.12
275.106	30.12
275.901	29.12
276.697	32.12
277.492	30.12
278.287	31.12
279.082	31.12
279.877	32.12
280.672	32.12
281.467	33.12
282.262	30.12
283.056	30.12
283.851	31.12
284.646	34.12
285.44	30.12
286.234	31.12
287.029	33.12
287.823	31.12
288.617	31.12
289.411	31.12
290.205	31.12
290.999	31.12
291.793	31.12
292.587	29.12
293.381	28.12
294.174	27.12
294.968	30.12
295.761	24.12
296.555	24.12
297.348	24.12
298.141	25.12
298.935	28.12
299.728	27.12
300.521	23.12
301.314	25.12
302.107	24.12
302.899	22.12
303.692	21.12
304.485	22.12
305.277	19.12
306.07	22.12
306.862	22.12
307.655	23.12
308.447	25.12
309.239	21.12
310.031	18.12
310.823	22.12
311.615	18.12
312.407	17.12
313.199	15.12
313.991	17.12
314.783	16.12
315.574	16.12
316.366	15.12
317.157	15.12
317.949	16.12
318.74	14.12
319.531	18.12
320.322	13.12
321.113	15.12
321.904	14.12
322.695	11.12
323.486	13.12
324.277	12.12
325.068	13.12
325.858	13.12
326.649	10.12
327.439	13.12
328.23	13.12
329.02	13.12
329.81	11.12
330.6	11.12
331.391	13.12
332.181	12.12
332.971	13.12
333.76	14.12
334.55	10.12
335.34	11.12
336.13	11.12
336.919	10.12
337.709	11.12
338.498	12.12
339.287	9.12
340.077	10.12
340.866	11.12
341.655	10.12
342.444	15.12
343.233	11.12
344.022	11.12
344.811	10.12
345.6	11.12
346.388	12.12
347.177	11.12
347.965	11.12
348.754	9.12
349.542	12.12
350.33	12.12
351.119	12.12
351.907	10.12
352.695	10.12
353.483	10.12
354.271	12.12
355.059	8.12
355.846	10.12
356.634	7.12
357.422	11.12
358.209	7.12
358.997	10.12
359.784	10.12
360.571	9.12
361.359	11.12
362.146	9.12
362.933	8.12
363.72	9.12
364.507	9.12
365.294	9.12
366.081	9.12
366.867	10.12
367.654	8.12
368.44	9.12
369.227	8.12
370.013	9.12
370.8	9.12
371.586	10.12
372.372	9.12
373.158	10.12
373.944	8.12
374.73	8.12
375.516	10.12
376.302	11.12
377.088	9.12
377.873	11.12
378.659	9.12
379.445	8.12
380.23	10.12
381.015	9.12
381.801	8.12
382.586	11.12
383.371	10.12
384.156	10.12
384.941	10.12
385.726	8.12
386.511	8.12
387.296	11.12
388.08	11.12
388.865	10.12
389.649	11.12
390.434	12.12
391.218	12.12
392.003	13.12
392.787	11.12
393.571	12.12
394.355	8.12
395.139	10.12
395.923	11.12
396.707	9.12
397.491	10.12
398.274	11.12
399.058	13.12
399.842	13.12
400.625	15.12
401.408	14.12
402.192	13.12
402.975	14.12
403.758	15.12
404.541	12.12
405.324	13.12
406.107	13.12
406.89	15.12
407.673	13.12
408.456	17.12
409.238	13.12
410.021	17.12
410.803	15.12
411.586	14.12
412.368	15.12
413.151	17.12
413.933	17.12
414.715	16.12
415.497	21.12
416.279	16.12
417.061	19.12
417.843	18.12
418.624	18.12
419.406	19.12
420.188	18.12
420.969	19.12
421.751	22.12
422.532	20.12
423.313	23.12
424.095	20.12
424.876	26.12
425.657	26.12
426.438	27.12
427.219	25.12
428	23.12
428.78	28.12
429.561	31.12
430.342	31.12
431.122	31.12
431.903	31.12
432.683	35.12
433.464	31.12
434.244	39.12
435.024	38.12
435.804	42.12
436.584	44.12
437.364	44.12
438.144	47.12
438.924	50.12
439.704	54.12
440.483	59.12
441.263	64.12
442.042	66.12
442.822	72.12
443.601	80.12
444.38	83.12
445.16	94.12
445.939	101.12
446.718	103.12
447.497	119.12
448.276	128.12
449.054	140.12
449.833	160.12
450.612	181.12
451.391	194.12
452.169	211.12
452.948	237.12
453.726	261.12
454.504	287.12
455.282	323.12
456.061	358.12
456.839	396.12
457.617	435.12
458.395	490.12
459.172	547.12
459.95	607.12
460.728	671.12
461.506	747.12
462.283	832.12
463.061	923.12
463.838	1025.12
464.615	1136.12
465.393	1251.12
466.17	1400.12
466.947	1533.12
467.724	1715.12
468.501	1873.12
469.278	2055.12
470.055	2264.12
470.831	2504.12
471.608	2767.12
472.385	3029.12
473.161	3324.12
473.938	3627.12
474.714	3975.12
475.49	4330.12
476.266	4688.12
477.043	5139.12
477.819	5573.12
478.595	6078.12
479.371	6638.12
480.146	7156.12
480.922	7790.12
481.698	8461.12
482.473	9159.12
483.249	9858.12
484.024	10732.12
484.8	11525.12
485.575	12471.12
486.35	13469.12
487.126	14479.12
487.901	15527.12
488.676	16756.12
489.451	17980.12
490.225	19307.12
491	20666.12
491.775	22094.12
492.55	23525.12
493.324	25098.12
494.099	26665.12
494.873	28196.12
495.647	29835.12
496.422	31366.12
497.196	32984.12
497.97	34526.12
498.744	36003.12
499.518	37522.12
500.292	38870.12
501.066	39971.12
501.839	40870.12
502.613	41891.12
503.387	42772.12
504.16	43301.12
504.934	43678.12
505.707	43931.12
506.48	43861.12
507.253	43610.12
508.027	43430.12
508.8	42713.12
509.573	42109.12
510.346	41339.12
511.118	40547.12
511.891	39487.12
512.664	38132.12
513.437	36992.12
514.209	35820.12
514.982	34564.12
515.754	33264.12
516.526	32014.12
517.298	30768.12
518.071	29680.12
518.843	28496.12
519.615	27339.12
520.387	26300.12
521.159	25254.12
521.93	24281.12
522.702	23248.12
523.474	22340.12
524.245	21418.12
525.017	20511.12
525.788	19652.12
526.56	18881.12
527.331	18091.12
528.102	17186.12
528.873	16388.12
529.644	15596.12
530.415	14927.12
531.186	14234.12
531.957	13491.12
532.728	12911.12
533.498	12198.12
534.269	11624.12
535.039	11006.12
535.81	10421.12
536.58	9851.12
537.351	9329.12
538.121	8873.12
538.891	8351.12
539.661	7946.12
540.431	7495.12
541.201	7133.12
541.971	6789.12
542.741	6395.12
543.51	6070.12
544.28	5758.12
545.05	5515.12
545.819	5246.12
546.588	5008.12
547.358	4777.12
548.127	4528.12
548.896	4297.12
549.665	4085.12
550.434	3915.12
551.203	3704.12
551.972	3507.12
552.741	3319.12
553.51	3116.12
554.278	2942.12
555.047	2805.12
555.815	2628.12
556.584	2502.12
557.352	2368.12
558.121	2245.12
558.889	2117.12
559.657	1999.12
560.425	1890.12
561.193	1797.12
561.961	1704.12
562.729	1602.12
563.496	1525.12
564.264	1446.12
565.032	1369.12
565.799	1288.12
566.567	1222.12
567.334	1149.12
568.101	1087.12
568.869	1036.12
569.636	972.12
570.403	899.12
571.17	853.12
571.937	808.12
572.704	775.12
573.471	733.12
574.237	686.12
575.004	649.12
575.771	609.12
576.537	580.12
577.303	547.12
578.07	519.12
578.836	488.12
579.602	466.12
580.368	437.12
581.134	414.12
581.9	389.12
582.666	378.12
583.432	359.12
584.198	344.12
584.964	324.12
585.729	304.12
586.495	291.12
587.26	272.12
588.025	258.12
588.791	246.12
589.556	236.12
590.321	225.12
591.086	212.12
591.851	198.12
592.616	184.12
593.381	179.12
594.146	171.12
594.911	161.12
595.675	155.12
596.44	154.12
597.204	142.12
597.969	133.12
598.733	130.12
599.497	125.12
600.261	124.12
601.025	113.12
601.79	113.12
602.553	100.12
603.317	101.12
604.081	101.12
604.845	92.12
605.609	87.12
606.372	88.12
607.136	81.12
607.899	82.12
608.662	78.12
609.426	72.12
610.189	68.12
610.952	66.12
611.715	67.12
612.478	65.12
613.241	57.12
614.004	57.12
614.767	57.12
615.529	52.12
616.292	52.12
617.055	52.12
617.817	48.12
618.579	51.12
619.342	46.12
620.104	48.12
620.866	42.12
621.628	45.12
622.39	40.12
623.152	39.12
623.914	38.12
624.676	36.12
625.438	33.12
626.199	34.12
626.961	34.12
627.722	30.12
628.484	32.12
629.245	34.12
630.006	29.12
630.768	28.12
631.529	27.12
632.29	24.12
633.051	25.12
633.812	25.12
634.573	24.12
635.333	25.12
636.094	22.12
636.855	27.12
637.615	21.12
638.376	22.12
639.136	19.12
639.896	19.12
640.657	21.12
641.417	19.12
642.177	22.12
642.937	18.12
643.697	20.12
644.457	18.12
645.216	15.12
645.976	18.12
646.736	16.12
647.495	15.12
648.255	16.12
649.014	12.12
649.774	16.12
650.533	13.12
651.292	14.12
652.051	14.12
652.81	15.12
653.569	13.12
654.328	14.12
655.087	13.12
655.846	11.12
656.604	12.12
657.363	13.12
658.121	9.12
658.88	13.12
659.638	10.12
660.397	11.12
661.155	11.12
661.913	12.12
662.671	11.12
663.429	9.12
664.187	10.12
664.945	9.12
665.703	9.12
666.46	10.12
667.218	8.12
667.976	11.12
668.733	8.12
669.49	13.12
670.248	9.12
671.005	10.12
671.762	9.12
672.519	9.12
673.276	7.12
674.033	10.12
674.79	9.12
675.547	10.12
676.304	6.12
677.06	8.12
677.817	8.12
678.574	8.12
679.33	8.12
680.086	6.12
680.843	9.12
681.599	7.12
682.355	7.12
683.111	9.12
683.867	12.12
684.623	8.12
685.379	8.12
686.135	10.12
686.89	9.12
687.646	10.12
688.402	7.12
689.157	9.12
689.912	8.12
690.668	7.12
691.423	9.12
692.178	9.12
692.933	8.12
693.688	8.12
694.443	7.12
695.198	8.12
695.953	4.12
696.708	9.12
697.462	6.12
698.217	7.12
698.972	8.12
699.726	7.12
700.48	5.12
701.235	9.12
701.989	9.12
702.743	8.12
703.497	9.12
704.251	9.12
705.005	10.12
705.759	8.12
706.513	8.12
707.266	8.12
708.02	7.12
708.774	7.12
709.527	10.12
710.28	9.12
711.034	9.12
711.787	8.12
712.54	9.12
713.293	7.12
714.046	6.12
714.799	7.12
715.552	5.12
716.305	10.12
717.058	7.12
717.81	9.12
718.563	8.12
719.315	6.12
720.068	7.12
720.82	10.12
721.573	8.12
722.325	6.12
723.077	8.12
723.829	8.12
724.581	7.12
725.333	5.12
726.085	9.12
726.836	11.12
727.588	8.12
728.34	10.12
729.091	9.12
729.843	8.12
730.594	9.12
731.346	8.12
732.097	8.12
732.848	11.12
733.599	9.12
734.35	11.12
735.101	8.12
735.852	10.12
736.603	7.12
737.354	11.12
738.104	9.12
738.855	8.12
739.605	7.12
740.356	10.12
741.106	9.12
741.856	11.12
742.607	10.12
743.357	9.12
744.107	8.12
744.857	10.12
745.607	10.12
746.357	10.12
747.106	9.12
747.856	10.12
748.606	11.12
749.355	10.12
750.105	9.12
750.854	9.12
751.603	11.12
752.353	9.12
753.102	9.12
753.851	12.12
754.6	10.12
755.349	12.12
756.098	11.12
756.847	12.12
757.595	12.12
758.344	11.12
759.093	9.12
759.841	11.12
760.589	13.12
761.338	13.12
762.086	11.12
762.834	9.12
763.582	11.12
764.331	13.12
765.079	11.12
765.826	13.12
766.574	14.12
767.322	15.12
768.07	12.12
768.817	12.12
769.565	13.12
770.312	13.12
771.06	13.12
771.807	15.12
772.554	11.12
773.302	17.12
774.049	13.12
774.796	17.12
775.543	14.12
776.29	14.12
777.036	13.12
777.783	14.12
778.53	15.12
779.276	15.12
780.023	15.12
780.769	14.12
781.516	11.12
782.262	16.12
783.008	12.12
783.754	16.12
784.5	16.12
785.246	16.12
785.992	14.12
786.738	14.12
787.484	12.12
788.23	15.12
788.975	16.12
789.721	14.12
790.466	13.12
791.212	13.12
791.957	14.12
792.702	13.12
793.447	13.12
794.193	14.12
794.938	15.12
795.683	13.12
796.427	14.12
797.172	11.12
797.917	10.12
798.662	12.12
799.406	11.12
800.151	13.12
800.895	13.12
801.64	13.12
802.384	12.12
803.128	13.12
803.872	14.12
804.616	10.12
805.36	10.12
806.104	10.12
806.848	12.12
807.592	9.12
808.336	7.12
809.079	11.12
809.823	10.12
810.566	11.12
811.31	7.12
812.053	8.12
812.796	8.12
813.539	8.12
814.283	8.12
815.026	7.12
815.769	8.12
816.511	9.12
817.254	7.12
817.997	10.12
818.74	7.12
819.482	10.12
820.225	9.12
820.967	10.12
821.71	8.12
822.452	6.12
823.194	7.12
823.936	3.12
824.678	7.12
825.42	7.12
826.162	8.12
826.904	8.12
827.646	6.12
828.388	8.12
829.129	7.12
829.871	7.12
830.612	8.12
831.354	5.12
832.095	5.12
832.836	4.12
833.577	8.12
834.319	6.12
835.06	5.12
835.801	4.12
836.542	5.12
837.282	7.12
838.023	8.12
838.764	6.12
839.504	5.12
840.245	7.12
840.985	6.12
841.726	6.12
842.466	7.12
843.206	5.12
843.946	3.12
844.687	7.12
845.427	3.12
846.166	7.12
846.906	6.12
847.646	5.12
848.386	3.12
849.125	3.12
849.865	6.12
850.605	2.12
851.344	7.12
852.083	7.12
852.823	3.12
853.562	4.12
854.301	5.12
855.04	3.12
855.779	4.12
856.518	4.12
857.257	3.12
857.995	5.12
858.734	3.12
859.473	3.12
860.211	3.12
860.95	3.12
861.688	4.12
862.426	4.12
863.165	3.12
863.903	3.12
864.641	3.12
865.379	3.12
866.117	1.12
866.855	4.12
867.593	4.12
868.33	4.12
869.068	3.12
869.806	2.12
870.543	3.12
871.28	2.12
872.018	2.12
872.755	4.12
873.492	1.12
874.229	4.12
874.967	2.12
875.703	4.12
876.44	1.12
877.177	2.12
877.914	2.12
878.651	4.12
879.387	2.12
880.124	1.12
880.86	3.12
881.597	3.12
882.333	1.12
883.069	2.12
883.806	0.12
884.542	2.12
885.278	1.12
886.014	0.12
886.749	3.12
887.485	2.12
888.221	2.12
888.957	3.12
889.692	1.12
890.428	2.12
891.163	1.12
891.899	3.12
892.634	-1.88
893.369	3.12
894.104	3.12
894.839	0.12
895.574	1.12
896.309	1.12
897.044	0.12
897.779	2.12
898.514	2.12
899.248	4.12
899.983	3.12
900.717	1.12
901.452	2.12
902.186	3.12
902.92	2.12
903.654	0.12
904.389	0.12
905.123	0.12
905.857	1.12
906.59	1.12
907.324	1.12
908.058	2.12
908.792	-0.88
909.525	1.12
910.259	2.12
910.992	3.12
911.726	-0.88
912.459	0.12
913.192	-0.88
913.925	0.12
914.658	0.12
915.391	1.12
916.124	1.12
916.857	2.12
917.59	0.12
918.323	-0.88
919.055	-0.88
919.788	3.12
920.521	1.12
921.253	1.12
921.985	2.12
922.718	0.12
923.45	3.12
924.182	1.12
924.914	0.12
925.646	1.12
926.378	2.12
927.11	1.12
927.841	1.12
928.573	1.12
929.305	0.12
930.036	-0.88
930.768	-0.88
931.499	-0.88
932.23	-0.88
932.962	1.12
933.693	1.12
934.424	1.12
935.155	0.12
935.886	0.12
936.617	1.12
937.348	2.12
938.078	-0.88
938.809	0.12
939.54	0.12
940.27	-0.88
941.001	0.12
941.731	-0.88
942.461	2.12
943.191	1.12
943.922	-0.88
944.652	0.12
945.382	1.12
946.112	1.12
946.841	-0.88
947.571	1.12
948.301	1.12
949.031	0.12
949.76	-0.88
950.49	-0.88
951.219	2.12
951.948	-1.88
952.678	2.12
953.407	1.12
954.136	1.12
954.865	0.12
955.594	1.12
956.323	2.12
957.052	-0.88
957.78	2.12
958.509	1.12
959.238	0.12
959.966	-0.88
960.695	1.12
961.423	-0.88
962.151	0.12
962.88	-1.88
963.608	2.12
964.336	-0.88
965.064	3.12
965.792	0.12
966.52	0.12
967.247	1.12
967.975	0.12
968.703	0.12
969.43	-0.88
970.158	1.12
970.885	0.12
971.613	0.12
972.34	3.12
973.067	0.12
973.794	0.12
974.521	1.12
975.248	1.12
975.975	1.12
976.702	0.12
977.429	1.12
978.156	-0.88
978.882	2.12
979.609	2.12
980.335	0.12
981.062	0.12
981.788	-1.88
982.514	1.12
983.24	-0.88
983.967	-0.88
984.693	-2.88
985.419	1.12
986.144	-0.88
986.87	2.12
987.596	-0.88
988.322	2.12
989.047	-0.88
989.773	1.12
990.498	-0.88
991.224	0.12
991.949	-0.88
992.674	-0.88
993.399	-1.88
994.124	0.12
994.849	2.12
995.574	-0.88
996.299	0.12
997.024	-0.88
997.749	0.12
998.473	1.12
999.198	0.12
999.922	1.12
1000.647	-0.88
1001.371	4.12
1002.095	1.12
1002.82	-0.88
1003.544	-0.88
1004.268	5.12
1004.992	5.12
1005.716	7.12
1006.439	4.12
1007.163	6.12
1007.887	5.12
1008.611	1.12
1009.334	-0.88
1010.058	2.12
1010.781	0.12
1011.504	-0.88
1012.228	-0.88
1012.951	0.12
1013.674	-0.88
1014.397	-1.88
1015.12	-0.88
