节点500_705_QEPB04081__361__20-51-03-591.txt的数据

Date: Wed Nov 12 20:51:03 CST 2025
User: PC
Spectrometer: QEPB0408
触发模式: 0
积分时间 (秒): 1.000000E-2
Scans to average: 1
启用暗噪声校正: true
启用非线性校正: false
滑动平均宽度: 0
X轴模式: Wavelengths
Number of Pixels in Spectrum: 1044
>>>>>Begin Spectral Data<<<<<
220.843	5.25
221.644	7.25
222.444	5.25
223.244	5.25
224.045	6.25
224.845	9.25
225.645	5.25
226.445	8.25
227.245	6.25
228.045	7.25
228.845	7.25
229.645	7.25
230.444	10.25
231.244	11.25
232.043	8.25
232.843	11.25
233.642	10.25
234.442	11.25
235.241	10.25
236.04	9.25
236.839	10.25
237.638	10.25
238.437	9.25
239.236	13.25
240.035	8.25
240.833	15.25
241.632	11.25
242.43	15.25
243.229	14.25
244.027	13.25
244.826	15.25
245.624	11.25
246.422	15.25
247.22	14.25
248.018	13.25
248.816	17.25
249.614	15.25
250.412	16.25
251.21	11.25
252.007	17.25
252.805	15.25
253.602	18.25
254.4	18.25
255.197	17.25
255.994	19.25
256.791	18.25
257.589	22.25
258.386	22.25
259.183	21.25
259.979	23.25
260.776	19.25
261.573	25.25
262.37	24.25
263.166	28.25
263.963	27.25
264.759	25.25
265.556	26.25
266.352	27.25
267.148	28.25
267.944	28.25
268.74	26.25
269.536	30.25
270.332	31.25
271.128	30.25
271.924	28.25
272.719	32.25
273.515	32.25
274.311	33.25
275.106	34.25
275.901	36.25
276.697	32.25
277.492	34.25
278.287	32.25
279.082	37.25
279.877	33.25
280.672	32.25
281.467	33.25
282.262	31.25
283.056	35.25
283.851	31.25
284.646	34.25
285.44	33.25
286.234	34.25
287.029	36.25
287.823	33.25
288.617	31.25
289.411	34.25
290.205	33.25
290.999	30.25
291.793	34.25
292.587	31.25
293.381	31.25
294.174	29.25
294.968	31.25
295.761	28.25
296.555	26.25
297.348	26.25
298.141	29.25
298.935	29.25
299.728	29.25
300.521	26.25
301.314	24.25
302.107	25.25
302.899	24.25
303.692	25.25
304.485	22.25
305.277	24.25
306.07	23.25
306.862	25.25
307.655	23.25
308.447	21.25
309.239	20.25
310.031	25.25
310.823	23.25
311.615	17.25
312.407	19.25
313.199	19.25
313.991	18.25
314.783	18.25
315.574	18.25
316.366	15.25
317.157	17.25
317.949	14.25
318.74	14.25
319.531	15.25
320.322	15.25
321.113	14.25
321.904	14.25
322.695	13.25
323.486	14.25
324.277	14.25
325.068	11.25
325.858	15.25
326.649	16.25
327.439	12.25
328.23	13.25
329.02	15.25
329.81	14.25
330.6	12.25
331.391	12.25
332.181	12.25
332.971	12.25
333.76	12.25
334.55	12.25
335.34	12.25
336.13	11.25
336.919	15.25
337.709	14.25
338.498	14.25
339.287	12.25
340.077	12.25
340.866	11.25
341.655	11.25
342.444	13.25
343.233	12.25
344.022	10.25
344.811	10.25
345.6	11.25
346.388	12.25
347.177	9.25
347.965	13.25
348.754	11.25
349.542	13.25
350.33	11.25
351.119	9.25
351.907	11.25
352.695	11.25
353.483	11.25
354.271	10.25
355.059	11.25
355.846	9.25
356.634	11.25
357.422	11.25
358.209	9.25
358.997	10.25
359.784	10.25
360.571	11.25
361.359	12.25
362.146	10.25
362.933	11.25
363.72	10.25
364.507	10.25
365.294	9.25
366.081	9.25
366.867	10.25
367.654	10.25
368.44	11.25
369.227	8.25
370.013	10.25
370.8	11.25
371.586	10.25
372.372	10.25
373.158	9.25
373.944	10.25
374.73	10.25
375.516	11.25
376.302	9.25
377.088	13.25
377.873	10.25
378.659	10.25
379.445	11.25
380.23	12.25
381.015	11.25
381.801	12.25
382.586	12.25
383.371	11.25
384.156	9.25
384.941	11.25
385.726	11.25
386.511	11.25
387.296	12.25
388.08	11.25
388.865	12.25
389.649	10.25
390.434	14.25
391.218	11.25
392.003	13.25
392.787	13.25
393.571	10.25
394.355	15.25
395.139	11.25
395.923	13.25
396.707	12.25
397.491	12.25
398.274	15.25
399.058	12.25
399.842	14.25
400.625	11.25
401.408	13.25
402.192	14.25
402.975	12.25
403.758	17.25
404.541	14.25
405.324	17.25
406.107	15.25
406.89	14.25
407.673	16.25
408.456	15.25
409.238	13.25
410.021	18.25
410.803	16.25
411.586	15.25
412.368	15.25
413.151	17.25
413.933	17.25
414.715	20.25
415.497	16.25
416.279	19.25
417.061	19.25
417.843	21.25
418.624	20.25
419.406	20.25
420.188	20.25
420.969	24.25
421.751	22.25
422.532	23.25
423.313	20.25
424.095	26.25
424.876	23.25
425.657	26.25
426.438	25.25
427.219	24.25
428	28.25
428.78	29.25
429.561	28.25
430.342	28.25
431.122	33.25
431.903	32.25
432.683	33.25
433.464	33.25
434.244	37.25
435.024	37.25
435.804	42.25
436.584	44.25
437.364	48.25
438.144	45.25
438.924	51.25
439.704	55.25
440.483	58.25
441.263	57.25
442.042	63.25
442.822	69.25
443.601	77.25
444.38	80.25
445.16	87.25
445.939	96.25
446.718	101.25
447.497	111.25
448.276	126.25
449.054	134.25
449.833	147.25
450.612	159.25
451.391	182.25
452.169	194.25
452.948	218.25
453.726	239.25
454.504	271.25
455.282	305.25
456.061	337.25
456.839	373.25
457.617	417.25
458.395	452.25
459.172	513.25
459.95	570.25
460.728	645.25
461.506	721.25
462.283	802.25
463.061	890.25
463.838	987.25
464.615	1107.25
465.393	1210.25
466.17	1360.25
466.947	1510.25
467.724	1669.25
468.501	1851.25
469.278	2048.25
470.055	2255.25
470.831	2498.25
471.608	2769.25
472.385	3047.25
473.161	3342.25
473.938	3677.25
474.714	4035.25
475.49	4449.25
476.266	4847.25
477.043	5305.25
477.819	5805.25
478.595	6319.25
479.371	6924.25
480.146	7536.25
480.922	8214.25
481.698	8961.25
482.473	9726.25
483.249	10550.25
484.024	11481.25
484.8	12450.25
485.575	13469.25
486.35	14625.25
487.126	15855.25
487.901	17101.25
488.676	18422.25
489.451	19914.25
490.225	21370.25
491	22898.25
491.775	24542.25
492.55	26231.25
493.324	27890.25
494.099	29638.25
494.873	31481.25
495.647	33163.25
496.422	34908.25
497.196	36731.25
497.97	38379.25
498.744	39750.25
499.518	41480.25
500.292	42808.25
501.066	43810.25
501.839	44743.25
502.613	45530.25
503.387	46197.25
504.16	46660.25
504.934	46757.25
505.707	46740.25
506.48	46458.25
507.253	45991.25
508.027	45338.25
508.8	44456.25
509.573	43397.25
510.346	42413.25
511.118	41385.25
511.891	40185.25
512.664	38688.25
513.437	37170.25
514.209	35862.25
514.982	34472.25
515.754	33095.25
516.526	31795.25
517.298	30569.25
518.071	29390.25
518.843	28170.25
519.615	26998.25
520.387	26014.25
521.159	24913.25
521.93	23886.25
522.702	22890.25
523.474	21922.25
524.245	21031.25
525.017	20135.25
525.788	19263.25
526.56	18382.25
527.331	17607.25
528.102	16751.25
528.873	15875.25
529.644	15216.25
530.415	14477.25
531.186	13758.25
531.957	13094.25
532.728	12416.25
533.498	11715.25
534.269	11119.25
535.039	10511.25
535.81	9949.25
536.58	9425.25
537.351	8911.25
538.121	8460.25
538.891	7960.25
539.661	7551.25
540.431	7130.25
541.201	6821.25
541.971	6411.25
542.741	6092.25
543.51	5753.25
544.28	5473.25
545.05	5217.25
545.819	5010.25
546.588	4767.25
547.358	4524.25
548.127	4307.25
548.896	4099.25
549.665	3873.25
550.434	3679.25
551.203	3487.25
551.972	3328.25
552.741	3144.25
553.51	2949.25
554.278	2763.25
555.047	2630.25
555.815	2492.25
556.584	2367.25
557.352	2223.25
558.121	2105.25
558.889	1996.25
559.657	1888.25
560.425	1788.25
561.193	1693.25
561.961	1597.25
562.729	1517.25
563.496	1411.25
564.264	1336.25
565.032	1269.25
565.799	1203.25
566.567	1134.25
567.334	1085.25
568.101	1011.25
568.869	961.25
569.636	909.25
570.403	857.25
571.17	805.25
571.937	770.25
572.704	726.25
573.471	678.25
574.237	642.25
575.004	598.25
575.771	566.25
576.537	541.25
577.303	513.25
578.07	485.25
578.836	462.25
579.602	431.25
580.368	417.25
581.134	394.25
581.9	372.25
582.666	342.25
583.432	330.25
584.198	318.25
584.964	297.25
585.729	281.25
586.495	274.25
587.26	259.25
588.025	241.25
588.791	231.25
589.556	217.25
590.321	202.25
591.086	199.25
591.851	186.25
592.616	175.25
593.381	171.25
594.146	157.25
594.911	154.25
595.675	143.25
596.44	142.25
597.204	136.25
597.969	128.25
598.733	125.25
599.497	117.25
600.261	115.25
601.025	111.25
601.79	106.25
602.553	98.25
603.317	96.25
604.081	96.25
604.845	87.25
605.609	85.25
606.372	80.25
607.136	78.25
607.899	70.25
608.662	71.25
609.426	66.25
610.189	66.25
610.952	66.25
611.715	64.25
612.478	59.25
613.241	58.25
614.004	54.25
614.767	53.25
615.529	54.25
616.292	54.25
617.055	49.25
617.817	45.25
618.579	44.25
619.342	42.25
620.104	43.25
620.866	40.25
621.628	37.25
622.39	35.25
623.152	38.25
623.914	38.25
624.676	35.25
625.438	35.25
626.199	30.25
626.961	34.25
627.722	33.25
628.484	27.25
629.245	30.25
630.006	29.25
630.768	25.25
631.529	25.25
632.29	27.25
633.051	26.25
633.812	25.25
634.573	22.25
635.333	22.25
636.094	23.25
636.855	23.25
637.615	17.25
638.376	23.25
639.136	23.25
639.896	21.25
640.657	19.25
641.417	21.25
642.177	17.25
642.937	20.25
643.697	19.25
644.457	18.25
645.216	17.25
645.976	15.25
646.736	16.25
647.495	15.25
648.255	16.25
649.014	15.25
649.774	16.25
650.533	16.25
651.292	15.25
652.051	15.25
652.81	13.25
653.569	14.25
654.328	13.25
655.087	13.25
655.846	10.25
656.604	13.25
657.363	12.25
658.121	14.25
658.88	11.25
659.638	13.25
660.397	14.25
661.155	11.25
661.913	13.25
662.671	12.25
663.429	9.25
664.187	12.25
664.945	11.25
665.703	10.25
666.46	10.25
667.218	13.25
667.976	9.25
668.733	8.25
669.49	11.25
670.248	8.25
671.005	8.25
671.762	10.25
672.519	10.25
673.276	7.25
674.033	9.25
674.79	11.25
675.547	10.25
676.304	8.25
677.06	9.25
677.817	10.25
678.574	8.25
679.33	7.25
680.086	9.25
680.843	11.25
681.599	7.25
682.355	10.25
683.111	7.25
683.867	8.25
684.623	10.25
685.379	9.25
686.135	8.25
686.89	8.25
687.646	8.25
688.402	9.25
689.157	7.25
689.912	5.25
690.668	6.25
691.423	8.25
692.178	7.25
692.933	7.25
693.688	7.25
694.443	7.25
695.198	8.25
695.953	9.25
696.708	9.25
697.462	7.25
698.217	7.25
698.972	9.25
699.726	10.25
700.48	9.25
701.235	9.25
701.989	7.25
702.743	8.25
703.497	9.25
704.251	6.25
705.005	10.25
705.759	7.25
706.513	8.25
707.266	9.25
708.02	8.25
708.774	8.25
709.527	7.25
710.28	6.25
711.034	11.25
711.787	8.25
712.54	9.25
713.293	8.25
714.046	9.25
714.799	7.25
715.552	9.25
716.305	8.25
717.058	9.25
717.81	6.25
718.563	10.25
719.315	5.25
720.068	8.25
720.82	10.25
721.573	8.25
722.325	8.25
723.077	7.25
723.829	10.25
724.581	8.25
725.333	8.25
726.085	9.25
726.836	8.25
727.588	8.25
728.34	7.25
729.091	12.25
729.843	8.25
730.594	10.25
731.346	6.25
732.097	11.25
732.848	9.25
733.599	7.25
734.35	9.25
735.101	10.25
735.852	11.25
736.603	9.25
737.354	9.25
738.104	12.25
738.855	8.25
739.605	9.25
740.356	8.25
741.106	11.25
741.856	8.25
742.607	11.25
743.357	9.25
744.107	12.25
744.857	11.25
745.607	12.25
746.357	11.25
747.106	10.25
747.856	12.25
748.606	13.25
749.355	11.25
750.105	13.25
750.854	11.25
751.603	11.25
752.353	10.25
753.102	11.25
753.851	13.25
754.6	13.25
755.349	12.25
756.098	11.25
756.847	10.25
757.595	13.25
758.344	12.25
759.093	13.25
759.841	13.25
760.589	14.25
761.338	11.25
762.086	11.25
762.834	13.25
763.582	14.25
764.331	14.25
765.079	12.25
765.826	14.25
766.574	14.25
767.322	12.25
768.07	14.25
768.817	15.25
769.565	14.25
770.312	15.25
771.06	14.25
771.807	15.25
772.554	15.25
773.302	14.25
774.049	15.25
774.796	15.25
775.543	17.25
776.29	14.25
777.036	18.25
777.783	15.25
778.53	17.25
779.276	15.25
780.023	15.25
780.769	18.25
781.516	13.25
782.262	16.25
783.008	16.25
783.754	15.25
784.5	17.25
785.246	16.25
785.992	17.25
786.738	16.25
787.484	18.25
788.23	15.25
788.975	16.25
789.721	15.25
790.466	14.25
791.212	17.25
791.957	16.25
792.702	13.25
793.447	15.25
794.193	14.25
794.938	13.25
795.683	14.25
796.427	15.25
797.172	11.25
797.917	12.25
798.662	16.25
799.406	12.25
800.151	16.25
800.895	14.25
801.64	14.25
802.384	11.25
803.128	13.25
803.872	11.25
804.616	11.25
805.36	12.25
806.104	10.25
806.848	10.25
807.592	11.25
808.336	8.25
809.079	11.25
809.823	10.25
810.566	10.25
811.31	10.25
812.053	10.25
812.796	10.25
813.539	8.25
814.283	10.25
815.026	10.25
815.769	9.25
816.511	8.25
817.254	6.25
817.997	9.25
818.74	7.25
819.482	6.25
820.225	9.25
820.967	7.25
821.71	5.25
822.452	7.25
823.194	12.25
823.936	8.25
824.678	8.25
825.42	8.25
826.162	8.25
826.904	8.25
827.646	6.25
828.388	9.25
829.129	8.25
829.871	6.25
830.612	4.25
831.354	7.25
832.095	7.25
832.836	5.25
833.577	7.25
834.319	9.25
835.06	6.25
835.801	6.25
836.542	5.25
837.282	7.25
838.023	6.25
838.764	7.25
839.504	6.25
840.245	5.25
840.985	6.25
841.726	5.25
842.466	5.25
843.206	7.25
843.946	3.25
844.687	8.25
845.427	5.25
846.166	6.25
846.906	4.25
847.646	5.25
848.386	5.25
849.125	3.25
849.865	7.25
850.605	5.25
851.344	5.25
852.083	5.25
852.823	4.25
853.562	5.25
854.301	5.25
855.04	5.25
855.779	4.25
856.518	4.25
857.257	4.25
857.995	5.25
858.734	3.25
859.473	3.25
860.211	6.25
860.95	4.25
861.688	3.25
862.426	2.25
863.165	2.25
863.903	3.25
864.641	2.25
865.379	4.25
866.117	3.25
866.855	3.25
867.593	4.25
868.33	3.25
869.068	2.25
869.806	2.25
870.543	3.25
871.28	3.25
872.018	3.25
872.755	3.25
873.492	2.25
874.229	2.25
874.967	4.25
875.703	3.25
876.44	3.25
877.177	1.25
877.914	4.25
878.651	1.25
879.387	3.25
880.124	3.25
880.86	0.25
881.597	1.25
882.333	1.25
883.069	3.25
883.806	1.25
884.542	2.25
885.278	3.25
886.014	0.25
886.749	2.25
887.485	1.25
888.221	1.25
888.957	1.25
889.692	2.25
890.428	2.25
891.163	2.25
891.899	2.25
892.634	1.25
893.369	1.25
894.104	2.25
894.839	0.25
895.574	0.25
896.309	0.25
897.044	1.25
897.779	1.25
898.514	0.25
899.248	1.25
899.983	3.25
900.717	2.25
901.452	0.25
902.186	2.25
902.92	2.25
903.654	1.25
904.389	3.25
905.123	0.25
905.857	1.25
906.59	0.25
907.324	4.25
908.058	1.25
908.792	3.25
909.525	0.25
910.259	2.25
910.992	-1.75
911.726	2.25
912.459	-0.75
913.192	2.25
913.925	-1.75
914.658	2.25
915.391	0.25
916.124	0.25
916.857	2.25
917.59	2.25
918.323	3.25
919.055	1.25
919.788	0.25
920.521	0.25
921.253	-0.75
921.985	-0.75
922.718	3.25
923.45	2.25
924.182	-0.75
924.914	-0.75
925.646	2.25
926.378	0.25
927.11	1.25
927.841	0.25
928.573	0.25
929.305	1.25
930.036	-0.75
930.768	2.25
931.499	2.25
932.23	1.25
932.962	-0.75
933.693	2.25
934.424	2.25
935.155	-0.75
935.886	1.25
936.617	1.25
937.348	0.25
938.078	1.25
938.809	1.25
939.54	0.25
940.27	2.25
941.001	2.25
941.731	-0.75
942.461	-0.75
943.191	0.25
943.922	0.25
944.652	1.25
945.382	0.25
946.112	0.25
946.841	0.25
947.571	1.25
948.301	1.25
949.031	1.25
949.76	0.25
950.49	1.25
951.219	1.25
951.948	0.25
952.678	-0.75
953.407	1.25
954.136	1.25
954.865	-0.75
955.594	2.25
956.323	1.25
957.052	1.25
957.78	2.25
958.509	2.25
959.238	0.25
959.966	1.25
960.695	1.25
961.423	1.25
962.151	2.25
962.88	2.25
963.608	0.25
964.336	1.25
965.064	1.25
965.792	1.25
966.52	1.25
967.247	3.25
967.975	-2.75
968.703	0.25
969.43	3.25
970.158	-0.75
970.885	0.25
971.613	2.25
972.34	-0.75
973.067	2.25
973.794	-0.75
974.521	0.25
975.248	0.25
975.975	1.25
976.702	-0.75
977.429	2.25
978.156	0.25
978.882	0.25
979.609	1.25
980.335	0.25
981.062	0.25
981.788	0.25
982.514	-0.75
983.24	1.25
983.967	0.25
984.693	4.25
985.419	1.25
986.144	1.25
986.87	1.25
987.596	0.25
988.322	0.25
989.047	0.25
989.773	1.25
990.498	1.25
991.224	-0.75
991.949	-0.75
992.674	0.25
993.399	0.25
994.124	1.25
994.849	-0.75
995.574	0.25
996.299	2.25
997.024	1.25
997.749	-0.75
998.473	0.25
999.198	3.25
999.922	-0.75
1000.647	1.25
1001.371	3.25
1002.095	-0.75
1002.82	-2.75
1003.544	-1.75
1004.268	6.25
1004.992	4.25
1005.716	4.25
1006.439	4.25
1007.163	5.25
1007.887	4.25
1008.611	2.25
1009.334	1.25
1010.058	-0.75
1010.781	1.25
1011.504	0.25
1012.228	1.25
1012.951	0.25
1013.674	1.25
1014.397	-0.75
1015.12	1.25
