节点500_705_QEPB04081__425__20-51-56-703.txt的数据

Date: Wed Nov 12 20:51:56 CST 2025
User: PC
Spectrometer: QEPB0408
触发模式: 0
积分时间 (秒): 1.000000E-2
Scans to average: 1
启用暗噪声校正: true
启用非线性校正: false
滑动平均宽度: 0
X轴模式: Wavelengths
Number of Pixels in Spectrum: 1044
>>>>>Begin Spectral Data<<<<<
220.843	4.62
221.644	5.62
222.444	5.62
223.244	4.62
224.045	5.62
224.845	6.62
225.645	7.62
226.445	5.62
227.245	7.62
228.045	6.62
228.845	5.62
229.645	9.62
230.444	5.62
231.244	6.62
232.043	8.62
232.843	8.62
233.642	7.62
234.442	10.62
235.241	6.62
236.04	9.62
236.839	12.62
237.638	11.62
238.437	11.62
239.236	9.62
240.035	10.62
240.833	11.62
241.632	11.62
242.43	11.62
243.229	10.62
244.027	11.62
244.826	11.62
245.624	10.62
246.422	11.62
247.22	10.62
248.018	14.62
248.816	16.62
249.614	14.62
250.412	17.62
251.21	17.62
252.007	14.62
252.805	15.62
253.602	14.62
254.4	17.62
255.197	18.62
255.994	17.62
256.791	18.62
257.589	18.62
258.386	18.62
259.183	20.62
259.979	21.62
260.776	22.62
261.573	22.62
262.37	25.62
263.166	22.62
263.963	22.62
264.759	23.62
265.556	26.62
266.352	25.62
267.148	24.62
267.944	25.62
268.74	26.62
269.536	27.62
270.332	29.62
271.128	30.62
271.924	31.62
272.719	29.62
273.515	30.62
274.311	28.62
275.106	29.62
275.901	32.62
276.697	29.62
277.492	30.62
278.287	34.62
279.082	35.62
279.877	34.62
280.672	31.62
281.467	33.62
282.262	35.62
283.056	34.62
283.851	34.62
284.646	31.62
285.44	33.62
286.234	33.62
287.029	33.62
287.823	33.62
288.617	31.62
289.411	31.62
290.205	34.62
290.999	28.62
291.793	30.62
292.587	30.62
293.381	33.62
294.174	28.62
294.968	27.62
295.761	24.62
296.555	26.62
297.348	25.62
298.141	27.62
298.935	27.62
299.728	25.62
300.521	24.62
301.314	22.62
302.107	24.62
302.899	23.62
303.692	24.62
304.485	21.62
305.277	22.62
306.07	20.62
306.862	20.62
307.655	24.62
308.447	18.62
309.239	20.62
310.031	20.62
310.823	21.62
311.615	17.62
312.407	14.62
313.199	19.62
313.991	15.62
314.783	16.62
315.574	15.62
316.366	16.62
317.157	15.62
317.949	14.62
318.74	13.62
319.531	13.62
320.322	12.62
321.113	16.62
321.904	14.62
322.695	14.62
323.486	11.62
324.277	14.62
325.068	12.62
325.858	11.62
326.649	12.62
327.439	14.62
328.23	11.62
329.02	11.62
329.81	13.62
330.6	12.62
331.391	12.62
332.181	12.62
332.971	14.62
333.76	11.62
334.55	12.62
335.34	8.62
336.13	10.62
336.919	12.62
337.709	12.62
338.498	12.62
339.287	11.62
340.077	10.62
340.866	10.62
341.655	11.62
342.444	13.62
343.233	10.62
344.022	9.62
344.811	9.62
345.6	9.62
346.388	10.62
347.177	10.62
347.965	10.62
348.754	10.62
349.542	11.62
350.33	10.62
351.119	13.62
351.907	10.62
352.695	10.62
353.483	12.62
354.271	10.62
355.059	9.62
355.846	10.62
356.634	7.62
357.422	11.62
358.209	6.62
358.997	8.62
359.784	9.62
360.571	9.62
361.359	9.62
362.146	9.62
362.933	9.62
363.72	10.62
364.507	8.62
365.294	10.62
366.081	9.62
366.867	9.62
367.654	9.62
368.44	9.62
369.227	8.62
370.013	7.62
370.8	7.62
371.586	10.62
372.372	9.62
373.158	9.62
373.944	9.62
374.73	6.62
375.516	10.62
376.302	9.62
377.088	8.62
377.873	10.62
378.659	8.62
379.445	10.62
380.23	9.62
381.015	9.62
381.801	9.62
382.586	8.62
383.371	9.62
384.156	9.62
384.941	10.62
385.726	11.62
386.511	13.62
387.296	12.62
388.08	10.62
388.865	9.62
389.649	11.62
390.434	12.62
391.218	12.62
392.003	10.62
392.787	14.62
393.571	12.62
394.355	10.62
395.139	13.62
395.923	12.62
396.707	13.62
397.491	11.62
398.274	12.62
399.058	12.62
399.842	14.62
400.625	12.62
401.408	14.62
402.192	14.62
402.975	14.62
403.758	13.62
404.541	13.62
405.324	15.62
406.107	13.62
406.89	12.62
407.673	16.62
408.456	14.62
409.238	16.62
410.021	17.62
410.803	16.62
411.586	17.62
412.368	15.62
413.151	16.62
413.933	18.62
414.715	19.62
415.497	17.62
416.279	16.62
417.061	17.62
417.843	17.62
418.624	20.62
419.406	17.62
420.188	20.62
420.969	20.62
421.751	20.62
422.532	20.62
423.313	24.62
424.095	23.62
424.876	26.62
425.657	24.62
426.438	23.62
427.219	23.62
428	26.62
428.78	27.62
429.561	28.62
430.342	28.62
431.122	31.62
431.903	34.62
432.683	33.62
433.464	35.62
434.244	34.62
435.024	37.62
435.804	40.62
436.584	39.62
437.364	45.62
438.144	46.62
438.924	52.62
439.704	52.62
440.483	53.62
441.263	64.62
442.042	64.62
442.822	69.62
443.601	75.62
444.38	82.62
445.16	90.62
445.939	98.62
446.718	107.62
447.497	114.62
448.276	123.62
449.054	138.62
449.833	151.62
450.612	166.62
451.391	180.62
452.169	194.62
452.948	222.62
453.726	248.62
454.504	273.62
455.282	306.62
456.061	337.62
456.839	374.62
457.617	412.62
458.395	468.62
459.172	518.62
459.95	582.62
460.728	640.62
461.506	730.62
462.283	804.62
463.061	902.62
463.838	1001.62
464.615	1108.62
465.393	1247.62
466.17	1365.62
466.947	1518.62
467.724	1692.62
468.501	1864.62
469.278	2068.62
470.055	2264.62
470.831	2515.62
471.608	2746.62
472.385	3017.62
473.161	3322.62
473.938	3658.62
474.714	4017.62
475.49	4409.62
476.266	4821.62
477.043	5284.62
477.819	5722.62
478.595	6279.62
479.371	6822.62
480.146	7435.62
480.922	8116.62
481.698	8834.62
482.473	9567.62
483.249	10391.62
484.024	11278.62
484.8	12192.62
485.575	13180.62
486.35	14270.62
487.126	15459.62
487.901	16660.62
488.676	17950.62
489.451	19383.62
490.225	20816.62
491	22283.62
491.775	23833.62
492.55	25460.62
493.324	27090.62
494.099	28719.62
494.873	30538.62
495.647	32197.62
496.422	33890.62
497.196	35687.62
497.97	37285.62
498.744	38783.62
499.518	40337.62
500.292	41712.62
501.066	42700.62
501.839	43764.62
502.613	44537.62
503.387	45310.62
504.16	45828.62
504.934	45953.62
505.707	45981.62
506.48	45815.62
507.253	45413.62
508.027	44855.62
508.8	44074.62
509.573	43132.62
510.346	42161.62
511.118	41253.62
511.891	40044.62
512.664	38633.62
513.437	37266.62
514.209	35884.62
514.982	34556.62
515.754	33243.62
516.526	31874.62
517.298	30632.62
518.071	29479.62
518.843	28301.62
519.615	27129.62
520.387	26071.62
521.159	25078.62
521.93	24024.62
522.702	23016.62
523.474	22006.62
524.245	21176.62
525.017	20300.62
525.788	19377.62
526.56	18597.62
527.331	17800.62
528.102	16881.62
528.873	16056.62
529.644	15280.62
530.415	14623.62
531.186	13948.62
531.957	13187.62
532.728	12577.62
533.498	11875.62
534.269	11253.62
535.039	10680.62
535.81	10100.62
536.58	9563.62
537.351	9023.62
538.121	8586.62
538.891	8096.62
539.661	7663.62
540.431	7226.62
541.201	6885.62
541.971	6564.62
542.741	6179.62
543.51	5863.62
544.28	5582.62
545.05	5332.62
545.819	5073.62
546.588	4832.62
547.358	4598.62
548.127	4391.62
548.896	4138.62
549.665	3937.62
550.434	3737.62
551.203	3532.62
551.972	3384.62
552.741	3192.62
553.51	2998.62
554.278	2838.62
555.047	2700.62
555.815	2525.62
556.584	2404.62
557.352	2261.62
558.121	2136.62
558.889	2037.62
559.657	1923.62
560.425	1807.62
561.193	1725.62
561.961	1627.62
562.729	1536.62
563.496	1452.62
564.264	1379.62
565.032	1293.62
565.799	1226.62
566.567	1172.62
567.334	1100.62
568.101	1036.62
568.869	991.62
569.636	933.62
570.403	871.62
571.17	824.62
571.937	780.62
572.704	730.62
573.471	700.62
574.237	661.62
575.004	620.62
575.771	584.62
576.537	550.62
577.303	518.62
578.07	492.62
578.836	468.62
579.602	440.62
580.368	422.62
581.134	393.62
581.9	379.62
582.666	361.62
583.432	342.62
584.198	323.62
584.964	307.62
585.729	294.62
586.495	277.62
587.26	266.62
588.025	243.62
588.791	234.62
589.556	219.62
590.321	209.62
591.086	199.62
591.851	196.62
592.616	179.62
593.381	174.62
594.146	161.62
594.911	152.62
595.675	156.62
596.44	142.62
597.204	140.62
597.969	128.62
598.733	123.62
599.497	122.62
600.261	114.62
601.025	115.62
601.79	100.62
602.553	100.62
603.317	92.62
604.081	94.62
604.845	89.62
605.609	87.62
606.372	82.62
607.136	77.62
607.899	77.62
608.662	70.62
609.426	74.62
610.189	69.62
610.952	63.62
611.715	61.62
612.478	58.62
613.241	61.62
614.004	53.62
614.767	55.62
615.529	49.62
616.292	51.62
617.055	51.62
617.817	47.62
618.579	45.62
619.342	45.62
620.104	41.62
620.866	40.62
621.628	38.62
622.39	39.62
623.152	37.62
623.914	35.62
624.676	34.62
625.438	33.62
626.199	33.62
626.961	33.62
627.722	27.62
628.484	29.62
629.245	29.62
630.006	30.62
630.768	26.62
631.529	27.62
632.29	24.62
633.051	26.62
633.812	24.62
634.573	23.62
635.333	25.62
636.094	23.62
636.855	23.62
637.615	21.62
638.376	20.62
639.136	19.62
639.896	18.62
640.657	20.62
641.417	17.62
642.177	19.62
642.937	16.62
643.697	18.62
644.457	19.62
645.216	14.62
645.976	17.62
646.736	15.62
647.495	15.62
648.255	12.62
649.014	14.62
649.774	13.62
650.533	11.62
651.292	15.62
652.051	16.62
652.81	12.62
653.569	16.62
654.328	12.62
655.087	9.62
655.846	12.62
656.604	11.62
657.363	13.62
658.121	10.62
658.88	12.62
659.638	10.62
660.397	10.62
661.155	9.62
661.913	12.62
662.671	10.62
663.429	9.62
664.187	10.62
664.945	10.62
665.703	10.62
666.46	11.62
667.218	5.62
667.976	9.62
668.733	10.62
669.49	7.62
670.248	10.62
671.005	8.62
671.762	9.62
672.519	10.62
673.276	8.62
674.033	8.62
674.79	9.62
675.547	5.62
676.304	8.62
677.06	6.62
677.817	6.62
678.574	5.62
679.33	7.62
680.086	8.62
680.843	8.62
681.599	10.62
682.355	8.62
683.111	6.62
683.867	7.62
684.623	9.62
685.379	6.62
686.135	7.62
686.89	6.62
687.646	7.62
688.402	6.62
689.157	7.62
689.912	7.62
690.668	6.62
691.423	7.62
692.178	8.62
692.933	6.62
693.688	6.62
694.443	6.62
695.198	8.62
695.953	6.62
696.708	8.62
697.462	7.62
698.217	5.62
698.972	7.62
699.726	6.62
700.48	8.62
701.235	6.62
701.989	7.62
702.743	5.62
703.497	6.62
704.251	6.62
705.005	7.62
705.759	6.62
706.513	5.62
707.266	8.62
708.02	6.62
708.774	8.62
709.527	6.62
710.28	6.62
711.034	5.62
711.787	5.62
712.54	6.62
713.293	6.62
714.046	7.62
714.799	5.62
715.552	5.62
716.305	7.62
717.058	6.62
717.81	7.62
718.563	7.62
719.315	7.62
720.068	9.62
720.82	6.62
721.573	5.62
722.325	9.62
723.077	7.62
723.829	9.62
724.581	7.62
725.333	7.62
726.085	7.62
726.836	9.62
727.588	8.62
728.34	8.62
729.091	9.62
729.843	6.62
730.594	9.62
731.346	8.62
732.097	9.62
732.848	7.62
733.599	8.62
734.35	10.62
735.101	6.62
735.852	7.62
736.603	9.62
737.354	8.62
738.104	10.62
738.855	10.62
739.605	10.62
740.356	8.62
741.106	9.62
741.856	8.62
742.607	9.62
743.357	11.62
744.107	6.62
744.857	11.62
745.607	7.62
746.357	9.62
747.106	9.62
747.856	8.62
748.606	6.62
749.355	11.62
750.105	7.62
750.854	12.62
751.603	10.62
752.353	10.62
753.102	10.62
753.851	10.62
754.6	12.62
755.349	11.62
756.098	10.62
756.847	8.62
757.595	10.62
758.344	11.62
759.093	12.62
759.841	11.62
760.589	10.62
761.338	8.62
762.086	10.62
762.834	14.62
763.582	11.62
764.331	12.62
765.079	10.62
765.826	13.62
766.574	12.62
767.322	14.62
768.07	11.62
768.817	12.62
769.565	11.62
770.312	12.62
771.06	13.62
771.807	12.62
772.554	14.62
773.302	15.62
774.049	15.62
774.796	14.62
775.543	16.62
776.29	15.62
777.036	15.62
777.783	13.62
778.53	15.62
779.276	14.62
780.023	12.62
780.769	16.62
781.516	14.62
782.262	13.62
783.008	12.62
783.754	14.62
784.5	15.62
785.246	13.62
785.992	12.62
786.738	14.62
787.484	15.62
788.23	11.62
788.975	13.62
789.721	14.62
790.466	12.62
791.212	13.62
791.957	14.62
792.702	14.62
793.447	12.62
794.193	13.62
794.938	12.62
795.683	14.62
796.427	15.62
797.172	13.62
797.917	12.62
798.662	12.62
799.406	12.62
800.151	14.62
800.895	11.62
801.64	12.62
802.384	11.62
803.128	10.62
803.872	13.62
804.616	10.62
805.36	10.62
806.104	12.62
806.848	10.62
807.592	12.62
808.336	10.62
809.079	10.62
809.823	10.62
810.566	10.62
811.31	10.62
812.053	7.62
812.796	8.62
813.539	7.62
814.283	9.62
815.026	6.62
815.769	10.62
816.511	7.62
817.254	6.62
817.997	5.62
818.74	7.62
819.482	7.62
820.225	7.62
820.967	8.62
821.71	7.62
822.452	6.62
823.194	7.62
823.936	7.62
824.678	5.62
825.42	8.62
826.162	6.62
826.904	6.62
827.646	4.62
828.388	6.62
829.129	7.62
829.871	6.62
830.612	4.62
831.354	6.62
832.095	6.62
832.836	4.62
833.577	5.62
834.319	6.62
835.06	5.62
835.801	6.62
836.542	6.62
837.282	5.62
838.023	7.62
838.764	6.62
839.504	4.62
840.245	5.62
840.985	5.62
841.726	7.62
842.466	6.62
843.206	3.62
843.946	5.62
844.687	3.62
845.427	5.62
846.166	5.62
846.906	5.62
847.646	3.62
848.386	7.62
849.125	5.62
849.865	4.62
850.605	5.62
851.344	4.62
852.083	3.62
852.823	5.62
853.562	3.62
854.301	2.62
855.04	5.62
855.779	2.62
856.518	4.62
857.257	4.62
857.995	4.62
858.734	5.62
859.473	1.62
860.211	3.62
860.95	3.62
861.688	4.62
862.426	3.62
863.165	3.62
863.903	4.62
864.641	3.62
865.379	4.62
866.117	2.62
866.855	1.62
867.593	1.62
868.33	1.62
869.068	2.62
869.806	2.62
870.543	4.62
871.28	3.62
872.018	1.62
872.755	1.62
873.492	2.62
874.229	-0.38
874.967	2.62
875.703	1.62
876.44	3.62
877.177	2.62
877.914	2.62
878.651	2.62
879.387	1.62
880.124	0.62
880.86	1.62
881.597	2.62
882.333	0.62
883.069	1.62
883.806	-0.38
884.542	2.62
885.278	1.62
886.014	0.62
886.749	1.62
887.485	0.62
888.221	0.62
888.957	1.62
889.692	0.62
890.428	2.62
891.163	0.62
891.899	1.62
892.634	3.62
893.369	0.62
894.104	1.62
894.839	0.62
895.574	2.62
896.309	0.62
897.044	1.62
897.779	-0.38
898.514	1.62
899.248	1.62
899.983	2.62
900.717	0.62
901.452	2.62
902.186	2.62
902.92	2.62
903.654	1.62
904.389	0.62
905.123	-1.38
905.857	0.62
906.59	1.62
907.324	-0.38
908.058	0.62
908.792	-0.38
909.525	1.62
910.259	0.62
910.992	-0.38
911.726	-0.38
912.459	1.62
913.192	-1.38
913.925	-0.38
914.658	0.62
915.391	0.62
916.124	0.62
916.857	-1.38
917.59	-1.38
918.323	2.62
919.055	-0.38
919.788	0.62
920.521	-0.38
921.253	-1.38
921.985	1.62
922.718	-0.38
923.45	-0.38
924.182	-2.38
924.914	-0.38
925.646	1.62
926.378	-1.38
927.11	-1.38
927.841	0.62
928.573	-1.38
929.305	1.62
930.036	0.62
930.768	0.62
931.499	-0.38
932.23	1.62
932.962	-2.38
933.693	0.62
934.424	-0.38
935.155	-1.38
935.886	0.62
936.617	0.62
937.348	-0.38
938.078	0.62
938.809	0.62
939.54	1.62
940.27	-1.38
941.001	0.62
941.731	1.62
942.461	1.62
943.191	-0.38
943.922	-1.38
944.652	0.62
945.382	0.62
946.112	2.62
946.841	-1.38
947.571	1.62
948.301	-0.38
949.031	-0.38
949.76	0.62
950.49	-0.38
951.219	0.62
951.948	-0.38
952.678	0.62
953.407	0.62
954.136	-1.38
954.865	0.62
955.594	-1.38
956.323	2.62
957.052	-0.38
957.78	1.62
958.509	-0.38
959.238	-0.38
959.966	-0.38
960.695	0.62
961.423	-0.38
962.151	-2.38
962.88	-1.38
963.608	-0.38
964.336	1.62
965.064	-1.38
965.792	-2.38
966.52	0.62
967.247	-0.38
967.975	-0.38
968.703	-1.38
969.43	-0.38
970.158	-1.38
970.885	0.62
971.613	-1.38
972.34	1.62
973.067	0.62
973.794	-1.38
974.521	0.62
975.248	-0.38
975.975	0.62
976.702	2.62
977.429	1.62
978.156	-0.38
978.882	-1.38
979.609	0.62
980.335	-1.38
981.062	-1.38
981.788	-0.38
982.514	-0.38
983.24	-0.38
983.967	-1.38
984.693	2.62
985.419	1.62
986.144	-0.38
986.87	-1.38
987.596	1.62
988.322	0.62
989.047	-1.38
989.773	0.62
990.498	0.62
991.224	-1.38
991.949	0.62
992.674	-3.38
993.399	-0.38
994.124	-0.38
994.849	0.62
995.574	-0.38
996.299	-0.38
997.024	-0.38
997.749	-1.38
998.473	-0.38
999.198	-2.38
999.922	-0.38
1000.647	2.62
1001.371	2.62
1002.095	-1.38
1002.82	1.62
1003.544	-1.38
1004.268	5.62
1004.992	4.62
1005.716	2.62
1006.439	3.62
1007.163	5.62
1007.887	7.62
1008.611	-2.38
1009.334	1.62
1010.058	-0.38
1010.781	2.62
1011.504	0.62
1012.228	2.62
1012.951	-1.38
1013.674	-0.38
1014.397	0.62
1015.12	-0.38
