节点500_705_QEPB04081__293__20-50-10-398.txt的数据

Date: Wed Nov 12 20:50:10 CST 2025
User: PC
Spectrometer: QEPB0408
触发模式: 0
积分时间 (秒): 1.000000E-2
Scans to average: 1
启用暗噪声校正: true
启用非线性校正: false
滑动平均宽度: 0
X轴模式: Wavelengths
Number of Pixels in Spectrum: 1044
>>>>>Begin Spectral Data<<<<<
220.843	4.5
221.644	4.5
222.444	4.5
223.244	6.5
224.045	5.5
224.845	5.5
225.645	8.5
226.445	3.5
227.245	6.5
228.045	4.5
228.845	9.5
229.645	8.5
230.444	9.5
231.244	7.5
232.043	6.5
232.843	8.5
233.642	9.5
234.442	10.5
235.241	7.5
236.04	11.5
236.839	9.5
237.638	9.5
238.437	12.5
239.236	9.5
240.035	11.5
240.833	11.5
241.632	9.5
242.43	14.5
243.229	12.5
244.027	14.5
244.826	11.5
245.624	13.5
246.422	15.5
247.22	11.5
248.018	16.5
248.816	14.5
249.614	12.5
250.412	16.5
251.21	14.5
252.007	17.5
252.805	14.5
253.602	14.5
254.4	16.5
255.197	18.5
255.994	21.5
256.791	17.5
257.589	21.5
258.386	18.5
259.183	22.5
259.979	22.5
260.776	21.5
261.573	20.5
262.37	24.5
263.166	21.5
263.963	23.5
264.759	26.5
265.556	25.5
266.352	24.5
267.148	28.5
267.944	28.5
268.74	26.5
269.536	29.5
270.332	30.5
271.128	32.5
271.924	28.5
272.719	33.5
273.515	31.5
274.311	33.5
275.106	34.5
275.901	35.5
276.697	34.5
277.492	34.5
278.287	34.5
279.082	30.5
279.877	35.5
280.672	37.5
281.467	34.5
282.262	33.5
283.056	34.5
283.851	36.5
284.646	32.5
285.44	32.5
286.234	34.5
287.029	33.5
287.823	33.5
288.617	33.5
289.411	31.5
290.205	31.5
290.999	32.5
291.793	34.5
292.587	29.5
293.381	31.5
294.174	28.5
294.968	26.5
295.761	27.5
296.555	25.5
297.348	28.5
298.141	27.5
298.935	27.5
299.728	26.5
300.521	26.5
301.314	25.5
302.107	24.5
302.899	22.5
303.692	21.5
304.485	23.5
305.277	24.5
306.07	19.5
306.862	19.5
307.655	19.5
308.447	19.5
309.239	18.5
310.031	20.5
310.823	21.5
311.615	17.5
312.407	18.5
313.199	14.5
313.991	18.5
314.783	16.5
315.574	19.5
316.366	17.5
317.157	14.5
317.949	14.5
318.74	13.5
319.531	13.5
320.322	14.5
321.113	13.5
321.904	14.5
322.695	11.5
323.486	13.5
324.277	14.5
325.068	12.5
325.858	13.5
326.649	10.5
327.439	12.5
328.23	12.5
329.02	12.5
329.81	10.5
330.6	11.5
331.391	10.5
332.181	12.5
332.971	9.5
333.76	10.5
334.55	12.5
335.34	11.5
336.13	9.5
336.919	11.5
337.709	10.5
338.498	11.5
339.287	13.5
340.077	15.5
340.866	12.5
341.655	7.5
342.444	12.5
343.233	12.5
344.022	10.5
344.811	13.5
345.6	10.5
346.388	12.5
347.177	11.5
347.965	8.5
348.754	9.5
349.542	8.5
350.33	12.5
351.119	7.5
351.907	10.5
352.695	12.5
353.483	10.5
354.271	10.5
355.059	10.5
355.846	12.5
356.634	12.5
357.422	9.5
358.209	8.5
358.997	9.5
359.784	10.5
360.571	10.5
361.359	9.5
362.146	9.5
362.933	8.5
363.72	10.5
364.507	9.5
365.294	9.5
366.081	11.5
366.867	10.5
367.654	10.5
368.44	8.5
369.227	9.5
370.013	9.5
370.8	8.5
371.586	8.5
372.372	8.5
373.158	11.5
373.944	10.5
374.73	9.5
375.516	9.5
376.302	11.5
377.088	9.5
377.873	7.5
378.659	9.5
379.445	10.5
380.23	10.5
381.015	7.5
381.801	12.5
382.586	9.5
383.371	8.5
384.156	10.5
384.941	10.5
385.726	8.5
386.511	12.5
387.296	10.5
388.08	12.5
388.865	9.5
389.649	10.5
390.434	8.5
391.218	11.5
392.003	10.5
392.787	12.5
393.571	11.5
394.355	12.5
395.139	14.5
395.923	11.5
396.707	10.5
397.491	14.5
398.274	13.5
399.058	14.5
399.842	12.5
400.625	14.5
401.408	12.5
402.192	13.5
402.975	14.5
403.758	12.5
404.541	13.5
405.324	13.5
406.107	14.5
406.89	15.5
407.673	15.5
408.456	15.5
409.238	16.5
410.021	15.5
410.803	15.5
411.586	18.5
412.368	17.5
413.151	16.5
413.933	18.5
414.715	18.5
415.497	17.5
416.279	19.5
417.061	17.5
417.843	20.5
418.624	20.5
419.406	20.5
420.188	19.5
420.969	21.5
421.751	24.5
422.532	22.5
423.313	22.5
424.095	25.5
424.876	21.5
425.657	24.5
426.438	26.5
427.219	25.5
428	28.5
428.78	26.5
429.561	30.5
430.342	30.5
431.122	29.5
431.903	32.5
432.683	35.5
433.464	34.5
434.244	34.5
435.024	39.5
435.804	39.5
436.584	40.5
437.364	40.5
438.144	45.5
438.924	47.5
439.704	51.5
440.483	56.5
441.263	61.5
442.042	66.5
442.822	68.5
443.601	70.5
444.38	82.5
445.16	88.5
445.939	97.5
446.718	101.5
447.497	110.5
448.276	118.5
449.054	133.5
449.833	148.5
450.612	155.5
451.391	175.5
452.169	193.5
452.948	211.5
453.726	234.5
454.504	265.5
455.282	294.5
456.061	326.5
456.839	363.5
457.617	405.5
458.395	457.5
459.172	498.5
459.95	572.5
460.728	629.5
461.506	705.5
462.283	774.5
463.061	877.5
463.838	963.5
464.615	1080.5
465.393	1200.5
466.17	1339.5
466.947	1492.5
467.724	1654.5
468.501	1830.5
469.278	2024.5
470.055	2261.5
470.831	2499.5
471.608	2733.5
472.385	3035.5
473.161	3357.5
473.938	3672.5
474.714	4039.5
475.49	4443.5
476.266	4866.5
477.043	5352.5
477.819	5824.5
478.595	6372.5
479.371	7001.5
480.146	7601.5
480.922	8284.5
481.698	9074.5
482.473	9843.5
483.249	10736.5
484.024	11675.5
484.8	12680.5
485.575	13731.5
486.35	14915.5
487.126	16139.5
487.901	17407.5
488.676	18829.5
489.451	20369.5
490.225	21864.5
491	23429.5
491.775	25084.5
492.55	26880.5
493.324	28593.5
494.099	30309.5
494.873	32255.5
495.647	34047.5
496.422	35819.5
497.196	37612.5
497.97	39272.5
498.744	40703.5
499.518	42366.5
500.292	43626.5
501.066	44751.5
501.839	45614.5
502.613	46319.5
503.387	46958.5
504.16	47368.5
504.934	47506.5
505.707	47305.5
506.48	47030.5
507.253	46371.5
508.027	45743.5
508.8	44719.5
509.573	43589.5
510.346	42573.5
511.118	41451.5
511.891	40230.5
512.664	38690.5
513.437	37184.5
514.209	35869.5
514.982	34424.5
515.754	32972.5
516.526	31657.5
517.298	30384.5
518.071	29255.5
518.843	28004.5
519.615	26933.5
520.387	25888.5
521.159	24799.5
521.93	23737.5
522.702	22844.5
523.474	21852.5
524.245	20852.5
525.017	19958.5
525.788	19096.5
526.56	18265.5
527.331	17480.5
528.102	16561.5
528.873	15764.5
529.644	15013.5
530.415	14322.5
531.186	13616.5
531.957	12899.5
532.728	12233.5
533.498	11571.5
534.269	10958.5
535.039	10390.5
535.81	9838.5
536.58	9310.5
537.351	8788.5
538.121	8368.5
538.891	7873.5
539.661	7463.5
540.431	7082.5
541.201	6712.5
541.971	6339.5
542.741	5990.5
543.51	5709.5
544.28	5436.5
545.05	5175.5
545.819	4917.5
546.588	4698.5
547.358	4472.5
548.127	4254.5
548.896	4020.5
549.665	3826.5
550.434	3630.5
551.203	3442.5
551.972	3252.5
552.741	3090.5
553.51	2878.5
554.278	2728.5
555.047	2595.5
555.815	2474.5
556.584	2317.5
557.352	2173.5
558.121	2066.5
558.889	1965.5
559.657	1841.5
560.425	1745.5
561.193	1669.5
561.961	1573.5
562.729	1474.5
563.496	1412.5
564.264	1335.5
565.032	1252.5
565.799	1178.5
566.567	1122.5
567.334	1063.5
568.101	992.5
568.869	942.5
569.636	900.5
570.403	836.5
571.17	789.5
571.937	750.5
572.704	715.5
573.471	673.5
574.237	630.5
575.004	593.5
575.771	566.5
576.537	521.5
577.303	498.5
578.07	471.5
578.836	446.5
579.602	420.5
580.368	397.5
581.134	376.5
581.9	365.5
582.666	345.5
583.432	326.5
584.198	308.5
584.964	291.5
585.729	281.5
586.495	267.5
587.26	246.5
588.025	236.5
588.791	225.5
589.556	211.5
590.321	204.5
591.086	193.5
591.851	184.5
592.616	172.5
593.381	168.5
594.146	160.5
594.911	156.5
595.675	144.5
596.44	142.5
597.204	132.5
597.969	124.5
598.733	124.5
599.497	115.5
600.261	108.5
601.025	106.5
601.79	102.5
602.553	91.5
603.317	90.5
604.081	93.5
604.845	88.5
605.609	84.5
606.372	78.5
607.136	80.5
607.899	72.5
608.662	70.5
609.426	66.5
610.189	65.5
610.952	65.5
611.715	62.5
612.478	60.5
613.241	55.5
614.004	55.5
614.767	53.5
615.529	48.5
616.292	51.5
617.055	48.5
617.817	47.5
618.579	44.5
619.342	40.5
620.104	42.5
620.866	40.5
621.628	41.5
622.39	37.5
623.152	35.5
623.914	33.5
624.676	32.5
625.438	33.5
626.199	30.5
626.961	32.5
627.722	30.5
628.484	26.5
629.245	28.5
630.006	26.5
630.768	28.5
631.529	28.5
632.29	24.5
633.051	25.5
633.812	21.5
634.573	22.5
635.333	20.5
636.094	19.5
636.855	21.5
637.615	19.5
638.376	21.5
639.136	18.5
639.896	19.5
640.657	18.5
641.417	20.5
642.177	17.5
642.937	17.5
643.697	17.5
644.457	15.5
645.216	15.5
645.976	13.5
646.736	14.5
647.495	17.5
648.255	15.5
649.014	14.5
649.774	14.5
650.533	11.5
651.292	12.5
652.051	12.5
652.81	13.5
653.569	12.5
654.328	10.5
655.087	12.5
655.846	13.5
656.604	12.5
657.363	12.5
658.121	10.5
658.88	12.5
659.638	12.5
660.397	10.5
661.155	10.5
661.913	10.5
662.671	8.5
663.429	11.5
664.187	10.5
664.945	9.5
665.703	8.5
666.46	8.5
667.218	10.5
667.976	9.5
668.733	8.5
669.49	7.5
670.248	8.5
671.005	12.5
671.762	7.5
672.519	10.5
673.276	8.5
674.033	7.5
674.79	8.5
675.547	9.5
676.304	10.5
677.06	6.5
677.817	8.5
678.574	6.5
679.33	8.5
680.086	8.5
680.843	8.5
681.599	9.5
682.355	7.5
683.111	8.5
683.867	7.5
684.623	7.5
685.379	5.5
686.135	5.5
686.89	9.5
687.646	8.5
688.402	7.5
689.157	8.5
689.912	7.5
690.668	8.5
691.423	6.5
692.178	8.5
692.933	7.5
693.688	8.5
694.443	6.5
695.198	6.5
695.953	7.5
696.708	5.5
697.462	6.5
698.217	5.5
698.972	6.5
699.726	9.5
700.48	7.5
701.235	5.5
701.989	6.5
702.743	6.5
703.497	7.5
704.251	6.5
705.005	6.5
705.759	6.5
706.513	7.5
707.266	7.5
708.02	5.5
708.774	7.5
709.527	7.5
710.28	7.5
711.034	8.5
711.787	6.5
712.54	8.5
713.293	6.5
714.046	8.5
714.799	7.5
715.552	7.5
716.305	7.5
717.058	6.5
717.81	9.5
718.563	8.5
719.315	5.5
720.068	8.5
720.82	6.5
721.573	9.5
722.325	5.5
723.077	7.5
723.829	10.5
724.581	5.5
725.333	6.5
726.085	6.5
726.836	7.5
727.588	6.5
728.34	8.5
729.091	8.5
729.843	6.5
730.594	9.5
731.346	8.5
732.097	10.5
732.848	7.5
733.599	7.5
734.35	10.5
735.101	9.5
735.852	6.5
736.603	7.5
737.354	7.5
738.104	7.5
738.855	10.5
739.605	10.5
740.356	10.5
741.106	7.5
741.856	7.5
742.607	10.5
743.357	9.5
744.107	10.5
744.857	10.5
745.607	10.5
746.357	11.5
747.106	7.5
747.856	10.5
748.606	11.5
749.355	10.5
750.105	9.5
750.854	10.5
751.603	10.5
752.353	8.5
753.102	11.5
753.851	13.5
754.6	10.5
755.349	13.5
756.098	12.5
756.847	11.5
757.595	9.5
758.344	13.5
759.093	12.5
759.841	12.5
760.589	12.5
761.338	11.5
762.086	8.5
762.834	12.5
763.582	12.5
764.331	11.5
765.079	11.5
765.826	16.5
766.574	12.5
767.322	12.5
768.07	15.5
768.817	14.5
769.565	14.5
770.312	13.5
771.06	13.5
771.807	16.5
772.554	14.5
773.302	13.5
774.049	14.5
774.796	15.5
775.543	14.5
776.29	15.5
777.036	17.5
777.783	14.5
778.53	12.5
779.276	14.5
780.023	16.5
780.769	16.5
781.516	13.5
782.262	15.5
783.008	14.5
783.754	15.5
784.5	15.5
785.246	15.5
785.992	15.5
786.738	14.5
787.484	13.5
788.23	15.5
788.975	16.5
789.721	15.5
790.466	12.5
791.212	10.5
791.957	14.5
792.702	14.5
793.447	13.5
794.193	12.5
794.938	14.5
795.683	14.5
796.427	11.5
797.172	10.5
797.917	13.5
798.662	12.5
799.406	11.5
800.151	12.5
800.895	12.5
801.64	12.5
802.384	10.5
803.128	12.5
803.872	11.5
804.616	10.5
805.36	11.5
806.104	12.5
806.848	10.5
807.592	10.5
808.336	7.5
809.079	9.5
809.823	10.5
810.566	11.5
811.31	8.5
812.053	9.5
812.796	8.5
813.539	10.5
814.283	11.5
815.026	8.5
815.769	8.5
816.511	9.5
817.254	7.5
817.997	6.5
818.74	8.5
819.482	7.5
820.225	5.5
820.967	8.5
821.71	6.5
822.452	7.5
823.194	6.5
823.936	5.5
824.678	7.5
825.42	5.5
826.162	6.5
826.904	4.5
827.646	6.5
828.388	5.5
829.129	5.5
829.871	6.5
830.612	4.5
831.354	6.5
832.095	6.5
832.836	3.5
833.577	6.5
834.319	4.5
835.06	4.5
835.801	5.5
836.542	3.5
837.282	6.5
838.023	4.5
838.764	5.5
839.504	5.5
840.245	4.5
840.985	4.5
841.726	3.5
842.466	5.5
843.206	5.5
843.946	5.5
844.687	6.5
845.427	6.5
846.166	4.5
846.906	5.5
847.646	5.5
848.386	3.5
849.125	4.5
849.865	5.5
850.605	1.5
851.344	3.5
852.083	6.5
852.823	5.5
853.562	4.5
854.301	2.5
855.04	2.5
855.779	1.5
856.518	2.5
857.257	3.5
857.995	-0.5
858.734	4.5
859.473	2.5
860.211	4.5
860.95	3.5
861.688	3.5
862.426	3.5
863.165	1.5
863.903	4.5
864.641	0.5
865.379	5.5
866.117	2.5
866.855	1.5
867.593	2.5
868.33	0.5
869.068	2.5
869.806	0.5
870.543	2.5
871.28	0.5
872.018	2.5
872.755	2.5
873.492	-0.5
874.229	1.5
874.967	1.5
875.703	2.5
876.44	1.5
877.177	0.5
877.914	0.5
878.651	0.5
879.387	0.5
880.124	0.5
880.86	2.5
881.597	1.5
882.333	-0.5
883.069	2.5
883.806	-0.5
884.542	1.5
885.278	-0.5
886.014	-0.5
886.749	2.5
887.485	-0.5
888.221	3.5
888.957	1.5
889.692	1.5
890.428	1.5
891.163	-0.5
891.899	0.5
892.634	1.5
893.369	1.5
894.104	1.5
894.839	0.5
895.574	0.5
896.309	0.5
897.044	0.5
897.779	-0.5
898.514	1.5
899.248	0.5
899.983	1.5
900.717	0.5
901.452	-1.5
902.186	1.5
902.92	-1.5
903.654	-0.5
904.389	1.5
905.123	3.5
905.857	-0.5
906.59	0.5
907.324	0.5
908.058	0.5
908.792	0.5
909.525	0.5
910.259	-1.5
910.992	1.5
911.726	0.5
912.459	-0.5
913.192	-0.5
913.925	0.5
914.658	2.5
915.391	0.5
916.124	0.5
916.857	2.5
917.59	2.5
918.323	1.5
919.055	-0.5
919.788	-1.5
920.521	-0.5
921.253	-1.5
921.985	-0.5
922.718	0.5
923.45	-0.5
924.182	-0.5
924.914	0.5
925.646	-0.5
926.378	0.5
927.11	0.5
927.841	1.5
928.573	-0.5
929.305	0.5
930.036	-0.5
930.768	0.5
931.499	1.5
932.23	-1.5
932.962	-1.5
933.693	3.5
934.424	2.5
935.155	-3.5
935.886	0.5
936.617	-3.5
937.348	0.5
938.078	0.5
938.809	-0.5
939.54	0.5
940.27	-0.5
941.001	-2.5
941.731	0.5
942.461	1.5
943.191	-2.5
943.922	0.5
944.652	-0.5
945.382	-1.5
946.112	0.5
946.841	0.5
947.571	0.5
948.301	-0.5
949.031	-0.5
949.76	-0.5
950.49	-1.5
951.219	-1.5
951.948	0.5
952.678	0.5
953.407	-1.5
954.136	-2.5
954.865	-0.5
955.594	1.5
956.323	-0.5
957.052	-1.5
957.78	-1.5
958.509	1.5
959.238	-0.5
959.966	-1.5
960.695	0.5
961.423	0.5
962.151	1.5
962.88	1.5
963.608	0.5
964.336	-0.5
965.064	0.5
965.792	-0.5
966.52	-1.5
967.247	0.5
967.975	-1.5
968.703	1.5
969.43	1.5
970.158	0.5
970.885	-0.5
971.613	-1.5
972.34	-0.5
973.067	0.5
973.794	-0.5
974.521	0.5
975.248	-2.5
975.975	-0.5
976.702	0.5
977.429	-0.5
978.156	0.5
978.882	0.5
979.609	-1.5
980.335	-1.5
981.062	1.5
981.788	0.5
982.514	2.5
983.24	-0.5
983.967	-1.5
984.693	0.5
985.419	-0.5
986.144	2.5
986.87	-1.5
987.596	-0.5
988.322	-0.5
989.047	0.5
989.773	0.5
990.498	-0.5
991.224	-1.5
991.949	0.5
992.674	2.5
993.399	1.5
994.124	-2.5
994.849	1.5
995.574	-0.5
996.299	2.5
997.024	-0.5
997.749	0.5
998.473	0.5
999.198	-0.5
999.922	-0.5
1000.647	0.5
1001.371	2.5
1002.095	0.5
1002.82	-1.5
1003.544	-1.5
1004.268	2.5
1004.992	3.5
1005.716	2.5
1006.439	2.5
1007.163	5.5
1007.887	6.5
1008.611	-0.5
1009.334	3.5
1010.058	-3.5
1010.781	0.5
1011.504	-2.5
1012.228	-0.5
1012.951	1.5
1013.674	0.5
1014.397	-1.5
1015.12	-0.5
