节点500_705_QEPB04081__535__20-53-31-735.txt的数据

Date: Wed Nov 12 20:53:31 CST 2025
User: PC
Spectrometer: QEPB0408
触发模式: 0
积分时间 (秒): 1.000000E-2
Scans to average: 1
启用暗噪声校正: true
启用非线性校正: false
滑动平均宽度: 0
X轴模式: Wavelengths
Number of Pixels in Spectrum: 1044
>>>>>Begin Spectral Data<<<<<
220.843	2.75
221.644	3.75
222.444	4.75
223.244	3.75
224.045	6.75
224.845	4.75
225.645	5.75
226.445	6.75
227.245	5.75
228.045	6.75
228.845	8.75
229.645	4.75
230.444	6.75
231.244	7.75
232.043	6.75
232.843	8.75
233.642	8.75
234.442	7.75
235.241	9.75
236.04	8.75
236.839	8.75
237.638	9.75
238.437	8.75
239.236	10.75
240.035	7.75
240.833	12.75
241.632	8.75
242.43	12.75
243.229	10.75
244.027	13.75
244.826	10.75
245.624	11.75
246.422	13.75
247.22	10.75
248.018	15.75
248.816	12.75
249.614	14.75
250.412	16.75
251.21	14.75
252.007	14.75
252.805	15.75
253.602	16.75
254.4	14.75
255.197	14.75
255.994	18.75
256.791	18.75
257.589	18.75
258.386	20.75
259.183	16.75
259.979	21.75
260.776	23.75
261.573	24.75
262.37	22.75
263.166	20.75
263.963	23.75
264.759	20.75
265.556	22.75
266.352	21.75
267.148	20.75
267.944	23.75
268.74	26.75
269.536	28.75
270.332	27.75
271.128	28.75
271.924	28.75
272.719	27.75
273.515	25.75
274.311	29.75
275.106	30.75
275.901	28.75
276.697	32.75
277.492	30.75
278.287	33.75
279.082	29.75
279.877	34.75
280.672	32.75
281.467	30.75
282.262	33.75
283.056	33.75
283.851	32.75
284.646	30.75
285.44	29.75
286.234	31.75
287.029	33.75
287.823	31.75
288.617	29.75
289.411	32.75
290.205	31.75
290.999	29.75
291.793	32.75
292.587	32.75
293.381	28.75
294.174	26.75
294.968	25.75
295.761	26.75
296.555	25.75
297.348	25.75
298.141	24.75
298.935	26.75
299.728	23.75
300.521	20.75
301.314	24.75
302.107	23.75
302.899	25.75
303.692	23.75
304.485	21.75
305.277	23.75
306.07	22.75
306.862	22.75
307.655	18.75
308.447	22.75
309.239	21.75
310.031	18.75
310.823	17.75
311.615	16.75
312.407	19.75
313.199	18.75
313.991	17.75
314.783	18.75
315.574	16.75
316.366	16.75
317.157	13.75
317.949	14.75
318.74	15.75
319.531	11.75
320.322	14.75
321.113	10.75
321.904	14.75
322.695	11.75
323.486	11.75
324.277	12.75
325.068	14.75
325.858	14.75
326.649	14.75
327.439	9.75
328.23	11.75
329.02	8.75
329.81	10.75
330.6	12.75
331.391	11.75
332.181	10.75
332.971	11.75
333.76	12.75
334.55	12.75
335.34	10.75
336.13	10.75
336.919	11.75
337.709	10.75
338.498	9.75
339.287	12.75
340.077	9.75
340.866	13.75
341.655	10.75
342.444	11.75
343.233	10.75
344.022	11.75
344.811	10.75
345.6	8.75
346.388	12.75
347.177	13.75
347.965	10.75
348.754	11.75
349.542	10.75
350.33	14.75
351.119	10.75
351.907	12.75
352.695	9.75
353.483	7.75
354.271	10.75
355.059	9.75
355.846	10.75
356.634	11.75
357.422	10.75
358.209	8.75
358.997	9.75
359.784	10.75
360.571	8.75
361.359	10.75
362.146	10.75
362.933	8.75
363.72	8.75
364.507	9.75
365.294	7.75
366.081	8.75
366.867	10.75
367.654	7.75
368.44	8.75
369.227	11.75
370.013	8.75
370.8	9.75
371.586	7.75
372.372	8.75
373.158	10.75
373.944	8.75
374.73	10.75
375.516	9.75
376.302	10.75
377.088	10.75
377.873	8.75
378.659	9.75
379.445	6.75
380.23	8.75
381.015	10.75
381.801	9.75
382.586	9.75
383.371	9.75
384.156	9.75
384.941	9.75
385.726	12.75
386.511	9.75
387.296	11.75
388.08	8.75
388.865	9.75
389.649	10.75
390.434	10.75
391.218	8.75
392.003	10.75
392.787	10.75
393.571	12.75
394.355	13.75
395.139	10.75
395.923	11.75
396.707	11.75
397.491	13.75
398.274	11.75
399.058	12.75
399.842	8.75
400.625	14.75
401.408	12.75
402.192	11.75
402.975	12.75
403.758	11.75
404.541	12.75
405.324	12.75
406.107	14.75
406.89	14.75
407.673	13.75
408.456	15.75
409.238	14.75
410.021	15.75
410.803	18.75
411.586	13.75
412.368	18.75
413.151	18.75
413.933	16.75
414.715	16.75
415.497	15.75
416.279	21.75
417.061	18.75
417.843	18.75
418.624	20.75
419.406	20.75
420.188	19.75
420.969	16.75
421.751	23.75
422.532	22.75
423.313	21.75
424.095	21.75
424.876	22.75
425.657	21.75
426.438	22.75
427.219	26.75
428	27.75
428.78	25.75
429.561	27.75
430.342	30.75
431.122	31.75
431.903	31.75
432.683	36.75
433.464	34.75
434.244	35.75
435.024	36.75
435.804	39.75
436.584	41.75
437.364	45.75
438.144	50.75
438.924	49.75
439.704	52.75
440.483	60.75
441.263	59.75
442.042	64.75
442.822	69.75
443.601	74.75
444.38	84.75
445.16	92.75
445.939	95.75
446.718	105.75
447.497	115.75
448.276	126.75
449.054	134.75
449.833	152.75
450.612	170.75
451.391	187.75
452.169	201.75
452.948	225.75
453.726	257.75
454.504	284.75
455.282	310.75
456.061	353.75
456.839	388.75
457.617	428.75
458.395	478.75
459.172	536.75
459.95	590.75
460.728	666.75
461.506	744.75
462.283	826.75
463.061	916.75
463.838	1016.75
464.615	1123.75
465.393	1240.75
466.17	1387.75
466.947	1536.75
467.724	1693.75
468.501	1866.75
469.278	2075.75
470.055	2271.75
470.831	2514.75
471.608	2749.75
472.385	3033.75
473.161	3288.75
473.938	3627.75
474.714	3958.75
475.49	4336.75
476.266	4747.75
477.043	5176.75
477.819	5636.75
478.595	6128.75
479.371	6654.75
480.146	7217.75
480.922	7874.75
481.698	8518.75
482.473	9228.75
483.249	10004.75
484.024	10866.75
484.8	11748.75
485.575	12604.75
486.35	13630.75
487.126	14760.75
487.901	15879.75
488.676	17082.75
489.451	18400.75
490.225	19751.75
491	21110.75
491.775	22563.75
492.55	24064.75
493.324	25533.75
494.099	27186.75
494.873	28801.75
495.647	30440.75
496.422	32087.75
497.196	33647.75
497.97	35249.75
498.744	36725.75
499.518	38255.75
500.292	39647.75
501.066	40650.75
501.839	41597.75
502.613	42601.75
503.387	43293.75
504.16	43935.75
504.934	44274.75
505.707	44394.75
506.48	44359.75
507.253	44045.75
508.027	43716.75
508.8	43124.75
509.573	42323.75
510.346	41544.75
511.118	40618.75
511.891	39693.75
512.664	38332.75
513.437	37058.75
514.209	35810.75
514.982	34569.75
515.754	33250.75
516.526	31894.75
517.298	30660.75
518.071	29589.75
518.843	28394.75
519.615	27179.75
520.387	26127.75
521.159	25101.75
521.93	24136.75
522.702	23140.75
523.474	22168.75
524.245	21279.75
525.017	20454.75
525.788	19564.75
526.56	18784.75
527.331	17969.75
528.102	17101.75
528.873	16262.75
529.644	15492.75
530.415	14824.75
531.186	14140.75
531.957	13396.75
532.728	12754.75
533.498	12110.75
534.269	11483.75
535.039	10878.75
535.81	10300.75
536.58	9775.75
537.351	9200.75
538.121	8757.75
538.891	8279.75
539.661	7822.75
540.431	7440.75
541.201	7055.75
541.971	6708.75
542.741	6334.75
543.51	6002.75
544.28	5727.75
545.05	5445.75
545.819	5181.75
546.588	4981.75
547.358	4713.75
548.127	4483.75
548.896	4253.75
549.665	4062.75
550.434	3856.75
551.203	3607.75
551.972	3452.75
552.741	3257.75
553.51	3084.75
554.278	2927.75
555.047	2764.75
555.815	2633.75
556.584	2474.75
557.352	2332.75
558.121	2192.75
558.889	2105.75
559.657	1980.75
560.425	1866.75
561.193	1780.75
561.961	1673.75
562.729	1569.75
563.496	1490.75
564.264	1413.75
565.032	1362.75
565.799	1273.75
566.567	1206.75
567.334	1137.75
568.101	1077.75
568.869	1017.75
569.636	946.75
570.403	902.75
571.17	835.75
571.937	794.75
572.704	761.75
573.471	734.75
574.237	682.75
575.004	637.75
575.771	597.75
576.537	572.75
577.303	532.75
578.07	514.75
578.836	482.75
579.602	450.75
580.368	431.75
581.134	406.75
581.9	387.75
582.666	367.75
583.432	347.75
584.198	336.75
584.964	313.75
585.729	302.75
586.495	284.75
587.26	269.75
588.025	256.75
588.791	240.75
589.556	230.75
590.321	218.75
591.086	207.75
591.851	195.75
592.616	182.75
593.381	179.75
594.146	171.75
594.911	158.75
595.675	154.75
596.44	146.75
597.204	142.75
597.969	132.75
598.733	126.75
599.497	127.75
600.261	116.75
601.025	114.75
601.79	106.75
602.553	104.75
603.317	100.75
604.081	95.75
604.845	91.75
605.609	87.75
606.372	83.75
607.136	82.75
607.899	78.75
608.662	73.75
609.426	72.75
610.189	66.75
610.952	67.75
611.715	67.75
612.478	58.75
613.241	57.75
614.004	57.75
614.767	54.75
615.529	55.75
616.292	52.75
617.055	48.75
617.817	48.75
618.579	46.75
619.342	45.75
620.104	39.75
620.866	43.75
621.628	38.75
622.39	40.75
623.152	37.75
623.914	38.75
624.676	30.75
625.438	34.75
626.199	30.75
626.961	31.75
627.722	31.75
628.484	30.75
629.245	26.75
630.006	30.75
630.768	29.75
631.529	28.75
632.29	27.75
633.051	25.75
633.812	23.75
634.573	25.75
635.333	23.75
636.094	23.75
636.855	20.75
637.615	21.75
638.376	20.75
639.136	20.75
639.896	20.75
640.657	20.75
641.417	19.75
642.177	17.75
642.937	20.75
643.697	15.75
644.457	14.75
645.216	14.75
645.976	16.75
646.736	16.75
647.495	16.75
648.255	16.75
649.014	14.75
649.774	14.75
650.533	13.75
651.292	12.75
652.051	13.75
652.81	12.75
653.569	12.75
654.328	13.75
655.087	10.75
655.846	11.75
656.604	15.75
657.363	12.75
658.121	8.75
658.88	11.75
659.638	10.75
660.397	11.75
661.155	11.75
661.913	8.75
662.671	12.75
663.429	10.75
664.187	7.75
664.945	11.75
665.703	9.75
666.46	10.75
667.218	11.75
667.976	8.75
668.733	10.75
669.49	8.75
670.248	9.75
671.005	8.75
671.762	7.75
672.519	8.75
673.276	7.75
674.033	8.75
674.79	9.75
675.547	7.75
676.304	9.75
677.06	7.75
677.817	9.75
678.574	5.75
679.33	9.75
680.086	6.75
680.843	8.75
681.599	7.75
682.355	8.75
683.111	8.75
683.867	7.75
684.623	9.75
685.379	6.75
686.135	8.75
686.89	8.75
687.646	7.75
688.402	8.75
689.157	7.75
689.912	8.75
690.668	7.75
691.423	8.75
692.178	7.75
692.933	6.75
693.688	8.75
694.443	6.75
695.198	7.75
695.953	8.75
696.708	7.75
697.462	8.75
698.217	4.75
698.972	4.75
699.726	6.75
700.48	6.75
701.235	7.75
701.989	7.75
702.743	7.75
703.497	6.75
704.251	5.75
705.005	6.75
705.759	6.75
706.513	7.75
707.266	8.75
708.02	6.75
708.774	5.75
709.527	9.75
710.28	7.75
711.034	6.75
711.787	7.75
712.54	7.75
713.293	8.75
714.046	5.75
714.799	7.75
715.552	7.75
716.305	8.75
717.058	9.75
717.81	7.75
718.563	6.75
719.315	9.75
720.068	5.75
720.82	8.75
721.573	7.75
722.325	9.75
723.077	8.75
723.829	7.75
724.581	6.75
725.333	7.75
726.085	9.75
726.836	7.75
727.588	7.75
728.34	9.75
729.091	6.75
729.843	8.75
730.594	8.75
731.346	10.75
732.097	7.75
732.848	8.75
733.599	8.75
734.35	8.75
735.101	9.75
735.852	6.75
736.603	7.75
737.354	8.75
738.104	6.75
738.855	5.75
739.605	5.75
740.356	7.75
741.106	6.75
741.856	10.75
742.607	8.75
743.357	10.75
744.107	8.75
744.857	11.75
745.607	9.75
746.357	10.75
747.106	7.75
747.856	7.75
748.606	9.75
749.355	9.75
750.105	9.75
750.854	10.75
751.603	9.75
752.353	9.75
753.102	11.75
753.851	11.75
754.6	12.75
755.349	11.75
756.098	10.75
756.847	8.75
757.595	9.75
758.344	12.75
759.093	9.75
759.841	10.75
760.589	11.75
761.338	12.75
762.086	11.75
762.834	10.75
763.582	12.75
764.331	13.75
765.079	14.75
765.826	13.75
766.574	12.75
767.322	13.75
768.07	13.75
768.817	11.75
769.565	12.75
770.312	12.75
771.06	15.75
771.807	16.75
772.554	14.75
773.302	12.75
774.049	11.75
774.796	12.75
775.543	12.75
776.29	12.75
777.036	14.75
777.783	15.75
778.53	15.75
779.276	14.75
780.023	12.75
780.769	13.75
781.516	14.75
782.262	14.75
783.008	14.75
783.754	13.75
784.5	13.75
785.246	13.75
785.992	10.75
786.738	13.75
787.484	14.75
788.23	16.75
788.975	13.75
789.721	12.75
790.466	12.75
791.212	14.75
791.957	15.75
792.702	10.75
793.447	12.75
794.193	14.75
794.938	13.75
795.683	12.75
796.427	10.75
797.172	10.75
797.917	10.75
798.662	13.75
799.406	12.75
800.151	13.75
800.895	11.75
801.64	12.75
802.384	12.75
803.128	9.75
803.872	11.75
804.616	9.75
805.36	9.75
806.104	10.75
806.848	10.75
807.592	6.75
808.336	10.75
809.079	11.75
809.823	12.75
810.566	8.75
811.31	8.75
812.053	10.75
812.796	8.75
813.539	7.75
814.283	9.75
815.026	8.75
815.769	6.75
816.511	10.75
817.254	9.75
817.997	7.75
818.74	8.75
819.482	7.75
820.225	6.75
820.967	6.75
821.71	7.75
822.452	6.75
823.194	7.75
823.936	6.75
824.678	6.75
825.42	9.75
826.162	7.75
826.904	6.75
827.646	7.75
828.388	7.75
829.129	5.75
829.871	6.75
830.612	4.75
831.354	5.75
832.095	6.75
832.836	8.75
833.577	5.75
834.319	8.75
835.06	7.75
835.801	4.75
836.542	7.75
837.282	5.75
838.023	3.75
838.764	5.75
839.504	6.75
840.245	5.75
840.985	2.75
841.726	8.75
842.466	3.75
843.206	7.75
843.946	5.75
844.687	3.75
845.427	5.75
846.166	5.75
846.906	4.75
847.646	5.75
848.386	4.75
849.125	2.75
849.865	6.75
850.605	4.75
851.344	4.75
852.083	6.75
852.823	3.75
853.562	3.75
854.301	6.75
855.04	1.75
855.779	2.75
856.518	2.75
857.257	4.75
857.995	2.75
858.734	2.75
859.473	2.75
860.211	3.75
860.95	6.75
861.688	2.75
862.426	3.75
863.165	3.75
863.903	3.75
864.641	2.75
865.379	2.75
866.117	2.75
866.855	1.75
867.593	2.75
868.33	2.75
869.068	3.75
869.806	2.75
870.543	2.75
871.28	2.75
872.018	3.75
872.755	2.75
873.492	3.75
874.229	1.75
874.967	2.75
875.703	1.75
876.44	1.75
877.177	-0.25
877.914	3.75
878.651	1.75
879.387	2.75
880.124	2.75
880.86	-1.25
881.597	0.75
882.333	1.75
883.069	2.75
883.806	2.75
884.542	1.75
885.278	3.75
886.014	1.75
886.749	2.75
887.485	2.75
888.221	0.75
888.957	0.75
889.692	0.75
890.428	0.75
891.163	3.75
891.899	-0.25
892.634	1.75
893.369	-1.25
894.104	-0.25
894.839	-0.25
895.574	2.75
896.309	1.75
897.044	1.75
897.779	2.75
898.514	-1.25
899.248	1.75
899.983	0.75
900.717	1.75
901.452	1.75
902.186	1.75
902.92	1.75
903.654	0.75
904.389	2.75
905.123	-0.25
905.857	0.75
906.59	-0.25
907.324	-1.25
908.058	0.75
908.792	1.75
909.525	2.75
910.259	-0.25
910.992	-0.25
911.726	-1.25
912.459	0.75
913.192	0.75
913.925	-0.25
914.658	1.75
915.391	0.75
916.124	1.75
916.857	0.75
917.59	1.75
918.323	1.75
919.055	2.75
919.788	0.75
920.521	1.75
921.253	0.75
921.985	0.75
922.718	-0.25
923.45	0.75
924.182	2.75
924.914	0.75
925.646	2.75
926.378	-0.25
927.11	1.75
927.841	1.75
928.573	0.75
929.305	-1.25
930.036	-2.25
930.768	1.75
931.499	-0.25
932.23	0.75
932.962	-3.25
933.693	-2.25
934.424	3.75
935.155	-1.25
935.886	0.75
936.617	-3.25
937.348	0.75
938.078	-0.25
938.809	-1.25
939.54	-1.25
940.27	0.75
941.001	0.75
941.731	0.75
942.461	1.75
943.191	-0.25
943.922	-1.25
944.652	1.75
945.382	0.75
946.112	-0.25
946.841	1.75
947.571	0.75
948.301	-0.25
949.031	-1.25
949.76	-0.25
950.49	-0.25
951.219	0.75
951.948	1.75
952.678	-1.25
953.407	0.75
954.136	0.75
954.865	-1.25
955.594	0.75
956.323	1.75
957.052	-0.25
957.78	-0.25
958.509	0.75
959.238	-0.25
959.966	-0.25
960.695	0.75
961.423	0.75
962.151	0.75
962.88	0.75
963.608	-0.25
964.336	0.75
965.064	-1.25
965.792	0.75
966.52	-1.25
967.247	1.75
967.975	-0.25
968.703	-1.25
969.43	-0.25
970.158	-2.25
970.885	1.75
971.613	0.75
972.34	-0.25
973.067	-0.25
973.794	1.75
974.521	0.75
975.248	-2.25
975.975	-0.25
976.702	0.75
977.429	0.75
978.156	0.75
978.882	0.75
979.609	1.75
980.335	-1.25
981.062	1.75
981.788	-1.25
982.514	-0.25
983.24	-3.25
983.967	-1.25
984.693	0.75
985.419	-2.25
986.144	1.75
986.87	-0.25
987.596	-1.25
988.322	1.75
989.047	-1.25
989.773	1.75
990.498	-0.25
991.224	-1.25
991.949	-0.25
992.674	-1.25
993.399	0.75
994.124	-0.25
994.849	2.75
995.574	-1.25
996.299	-0.25
997.024	-0.25
997.749	0.75
998.473	0.75
999.198	-1.25
999.922	1.75
1000.647	-1.25
1001.371	3.75
1002.095	-2.25
1002.82	-1.25
1003.544	-1.25
1004.268	5.75
1004.992	3.75
1005.716	4.75
1006.439	2.75
1007.163	5.75
1007.887	5.75
1008.611	0.75
1009.334	0.75
1010.058	-1.25
1010.781	0.75
1011.504	-0.25
1012.228	-1.25
1012.951	0.75
1013.674	-1.25
1014.397	0.75
1015.12	0.75
