节点500_705_QEPB04081__334__20-50-41-556.txt的数据

Date: Wed Nov 12 20:50:41 CST 2025
User: PC
Spectrometer: QEPB0408
触发模式: 0
积分时间 (秒): 1.000000E-2
Scans to average: 1
启用暗噪声校正: true
启用非线性校正: false
滑动平均宽度: 0
X轴模式: Wavelengths
Number of Pixels in Spectrum: 1044
>>>>>Begin Spectral Data<<<<<
220.843	3.38
221.644	5.38
222.444	3.38
223.244	4.38
224.045	6.38
224.845	4.38
225.645	6.38
226.445	6.38
227.245	7.38
228.045	8.38
228.845	6.38
229.645	9.38
230.444	6.38
231.244	8.38
232.043	6.38
232.843	6.38
233.642	7.38
234.442	8.38
235.241	7.38
236.04	8.38
236.839	9.38
237.638	10.38
238.437	10.38
239.236	10.38
240.035	10.38
240.833	11.38
241.632	13.38
242.43	12.38
243.229	14.38
244.027	11.38
244.826	14.38
245.624	12.38
246.422	14.38
247.22	16.38
248.018	14.38
248.816	14.38
249.614	14.38
250.412	14.38
251.21	14.38
252.007	14.38
252.805	18.38
253.602	15.38
254.4	21.38
255.197	19.38
255.994	18.38
256.791	21.38
257.589	19.38
258.386	21.38
259.183	22.38
259.979	22.38
260.776	20.38
261.573	21.38
262.37	23.38
263.166	26.38
263.963	26.38
264.759	23.38
265.556	25.38
266.352	26.38
267.148	28.38
267.944	27.38
268.74	26.38
269.536	28.38
270.332	26.38
271.128	30.38
271.924	30.38
272.719	28.38
273.515	32.38
274.311	30.38
275.106	29.38
275.901	32.38
276.697	33.38
277.492	34.38
278.287	31.38
279.082	37.38
279.877	36.38
280.672	35.38
281.467	34.38
282.262	32.38
283.056	36.38
283.851	30.38
284.646	33.38
285.44	33.38
286.234	35.38
287.029	36.38
287.823	34.38
288.617	33.38
289.411	33.38
290.205	30.38
290.999	31.38
291.793	34.38
292.587	33.38
293.381	27.38
294.174	27.38
294.968	27.38
295.761	27.38
296.555	29.38
297.348	23.38
298.141	28.38
298.935	31.38
299.728	24.38
300.521	25.38
301.314	21.38
302.107	24.38
302.899	23.38
303.692	23.38
304.485	22.38
305.277	23.38
306.07	19.38
306.862	23.38
307.655	21.38
308.447	23.38
309.239	20.38
310.031	19.38
310.823	20.38
311.615	17.38
312.407	18.38
313.199	17.38
313.991	17.38
314.783	18.38
315.574	18.38
316.366	18.38
317.157	18.38
317.949	14.38
318.74	15.38
319.531	17.38
320.322	16.38
321.113	12.38
321.904	14.38
322.695	11.38
323.486	12.38
324.277	14.38
325.068	12.38
325.858	12.38
326.649	13.38
327.439	13.38
328.23	13.38
329.02	11.38
329.81	10.38
330.6	9.38
331.391	9.38
332.181	12.38
332.971	13.38
333.76	12.38
334.55	12.38
335.34	9.38
336.13	10.38
336.919	10.38
337.709	9.38
338.498	12.38
339.287	10.38
340.077	12.38
340.866	10.38
341.655	11.38
342.444	12.38
343.233	12.38
344.022	11.38
344.811	9.38
345.6	12.38
346.388	10.38
347.177	12.38
347.965	14.38
348.754	10.38
349.542	11.38
350.33	10.38
351.119	10.38
351.907	9.38
352.695	9.38
353.483	10.38
354.271	10.38
355.059	10.38
355.846	7.38
356.634	10.38
357.422	13.38
358.209	10.38
358.997	10.38
359.784	10.38
360.571	10.38
361.359	10.38
362.146	12.38
362.933	10.38
363.72	7.38
364.507	8.38
365.294	9.38
366.081	8.38
366.867	10.38
367.654	7.38
368.44	8.38
369.227	7.38
370.013	10.38
370.8	8.38
371.586	11.38
372.372	7.38
373.158	7.38
373.944	9.38
374.73	9.38
375.516	11.38
376.302	7.38
377.088	8.38
377.873	8.38
378.659	8.38
379.445	9.38
380.23	8.38
381.015	10.38
381.801	11.38
382.586	11.38
383.371	10.38
384.156	7.38
384.941	11.38
385.726	10.38
386.511	10.38
387.296	12.38
388.08	9.38
388.865	10.38
389.649	10.38
390.434	10.38
391.218	11.38
392.003	12.38
392.787	11.38
393.571	10.38
394.355	13.38
395.139	14.38
395.923	12.38
396.707	11.38
397.491	12.38
398.274	12.38
399.058	12.38
399.842	14.38
400.625	14.38
401.408	12.38
402.192	14.38
402.975	13.38
403.758	13.38
404.541	14.38
405.324	14.38
406.107	14.38
406.89	14.38
407.673	14.38
408.456	15.38
409.238	15.38
410.021	13.38
410.803	15.38
411.586	14.38
412.368	16.38
413.151	16.38
413.933	16.38
414.715	17.38
415.497	18.38
416.279	18.38
417.061	18.38
417.843	18.38
418.624	20.38
419.406	19.38
420.188	22.38
420.969	17.38
421.751	20.38
422.532	21.38
423.313	21.38
424.095	23.38
424.876	25.38
425.657	23.38
426.438	26.38
427.219	27.38
428	26.38
428.78	24.38
429.561	30.38
430.342	29.38
431.122	31.38
431.903	29.38
432.683	34.38
433.464	36.38
434.244	39.38
435.024	39.38
435.804	41.38
436.584	40.38
437.364	45.38
438.144	46.38
438.924	48.38
439.704	50.38
440.483	53.38
441.263	57.38
442.042	64.38
442.822	68.38
443.601	72.38
444.38	77.38
445.16	86.38
445.939	92.38
446.718	101.38
447.497	109.38
448.276	126.38
449.054	134.38
449.833	143.38
450.612	162.38
451.391	172.38
452.169	200.38
452.948	214.38
453.726	235.38
454.504	265.38
455.282	295.38
456.061	329.38
456.839	368.38
457.617	409.38
458.395	462.38
459.172	499.38
459.95	564.38
460.728	634.38
461.506	698.38
462.283	793.38
463.061	896.38
463.838	977.38
464.615	1094.38
465.393	1214.38
466.17	1348.38
466.947	1495.38
467.724	1657.38
468.501	1862.38
469.278	2040.38
470.055	2262.38
470.831	2498.38
471.608	2769.38
472.385	3049.38
473.161	3348.38
473.938	3692.38
474.714	4035.38
475.49	4432.38
476.266	4863.38
477.043	5310.38
477.819	5801.38
478.595	6358.38
479.371	6906.38
480.146	7578.38
480.922	8284.38
481.698	8999.38
482.473	9844.38
483.249	10636.38
484.024	11591.38
484.8	12566.38
485.575	13623.38
486.35	14799.38
487.126	16004.38
487.901	17285.38
488.676	18645.38
489.451	20114.38
490.225	21589.38
491	23201.38
491.775	24884.38
492.55	26500.38
493.324	28308.38
494.099	30047.38
494.873	31790.38
495.647	33523.38
496.422	35364.38
497.196	37196.38
497.97	38822.38
498.744	40351.38
499.518	41947.38
500.292	43356.38
501.066	44403.38
501.839	45181.38
502.613	46062.38
503.387	46666.38
504.16	47091.38
504.934	47128.38
505.707	47101.38
506.48	46749.38
507.253	46315.38
508.027	45674.38
508.8	44594.38
509.573	43577.38
510.346	42616.38
511.118	41521.38
511.891	40315.38
512.664	38778.38
513.437	37316.38
514.209	35883.38
514.982	34534.38
515.754	33159.38
516.526	31788.38
517.298	30546.38
518.071	29282.38
518.843	28092.38
519.615	27042.38
520.387	26009.38
521.159	24928.38
521.93	23885.38
522.702	22884.38
523.474	22005.38
524.245	20975.38
525.017	20081.38
525.788	19229.38
526.56	18401.38
527.331	17586.38
528.102	16704.38
528.873	15879.38
529.644	15129.38
530.415	14421.38
531.186	13760.38
531.957	13018.38
532.728	12353.38
533.498	11710.38
534.269	11050.38
535.039	10471.38
535.81	9923.38
536.58	9375.38
537.351	8832.38
538.121	8359.38
538.891	7981.38
539.661	7520.38
540.431	7112.38
541.201	6770.38
541.971	6399.38
542.741	6057.38
543.51	5751.38
544.28	5486.38
545.05	5235.38
545.819	4969.38
546.588	4750.38
547.358	4517.38
548.127	4277.38
548.896	4052.38
549.665	3871.38
550.434	3674.38
551.203	3446.38
551.972	3285.38
552.741	3132.38
553.51	2956.38
554.278	2761.38
555.047	2616.38
555.815	2465.38
556.584	2336.38
557.352	2210.38
558.121	2091.38
558.889	1973.38
559.657	1884.38
560.425	1769.38
561.193	1678.38
561.961	1580.38
562.729	1507.38
563.496	1413.38
564.264	1346.38
565.032	1256.38
565.799	1182.38
566.567	1134.38
567.334	1073.38
568.101	1012.38
568.869	952.38
569.636	897.38
570.403	846.38
571.17	807.38
571.937	756.38
572.704	713.38
573.471	681.38
574.237	639.38
575.004	607.38
575.771	556.38
576.537	538.38
577.303	509.38
578.07	485.38
578.836	449.38
579.602	428.38
580.368	409.38
581.134	390.38
581.9	358.38
582.666	350.38
583.432	328.38
584.198	309.38
584.964	302.38
585.729	282.38
586.495	270.38
587.26	255.38
588.025	238.38
588.791	227.38
589.556	214.38
590.321	206.38
591.086	195.38
591.851	189.38
592.616	176.38
593.381	170.38
594.146	156.38
594.911	154.38
595.675	147.38
596.44	139.38
597.204	132.38
597.969	129.38
598.733	122.38
599.497	116.38
600.261	112.38
601.025	105.38
601.79	105.38
602.553	94.38
603.317	94.38
604.081	90.38
604.845	85.38
605.609	85.38
606.372	81.38
607.136	73.38
607.899	74.38
608.662	69.38
609.426	72.38
610.189	66.38
610.952	65.38
611.715	61.38
612.478	62.38
613.241	57.38
614.004	58.38
614.767	54.38
615.529	52.38
616.292	51.38
617.055	47.38
617.817	44.38
618.579	45.38
619.342	45.38
620.104	41.38
620.866	40.38
621.628	38.38
622.39	37.38
623.152	38.38
623.914	36.38
624.676	34.38
625.438	34.38
626.199	32.38
626.961	31.38
627.722	30.38
628.484	29.38
629.245	30.38
630.006	26.38
630.768	26.38
631.529	28.38
632.29	26.38
633.051	25.38
633.812	27.38
634.573	23.38
635.333	23.38
636.094	22.38
636.855	22.38
637.615	21.38
638.376	19.38
639.136	21.38
639.896	20.38
640.657	18.38
641.417	19.38
642.177	19.38
642.937	18.38
643.697	15.38
644.457	18.38
645.216	15.38
645.976	16.38
646.736	15.38
647.495	12.38
648.255	15.38
649.014	14.38
649.774	14.38
650.533	14.38
651.292	14.38
652.051	13.38
652.81	12.38
653.569	14.38
654.328	12.38
655.087	12.38
655.846	12.38
656.604	11.38
657.363	16.38
658.121	11.38
658.88	13.38
659.638	9.38
660.397	11.38
661.155	9.38
661.913	10.38
662.671	10.38
663.429	11.38
664.187	11.38
664.945	8.38
665.703	9.38
666.46	9.38
667.218	8.38
667.976	9.38
668.733	10.38
669.49	6.38
670.248	10.38
671.005	7.38
671.762	8.38
672.519	7.38
673.276	8.38
674.033	9.38
674.79	8.38
675.547	8.38
676.304	9.38
677.06	8.38
677.817	8.38
678.574	8.38
679.33	7.38
680.086	8.38
680.843	6.38
681.599	7.38
682.355	6.38
683.111	8.38
683.867	8.38
684.623	8.38
685.379	9.38
686.135	7.38
686.89	8.38
687.646	5.38
688.402	6.38
689.157	7.38
689.912	8.38
690.668	5.38
691.423	8.38
692.178	7.38
692.933	6.38
693.688	8.38
694.443	6.38
695.198	8.38
695.953	7.38
696.708	9.38
697.462	9.38
698.217	5.38
698.972	6.38
699.726	4.38
700.48	6.38
701.235	7.38
701.989	8.38
702.743	7.38
703.497	7.38
704.251	7.38
705.005	6.38
705.759	7.38
706.513	5.38
707.266	8.38
708.02	8.38
708.774	7.38
709.527	9.38
710.28	7.38
711.034	7.38
711.787	6.38
712.54	8.38
713.293	7.38
714.046	8.38
714.799	9.38
715.552	6.38
716.305	5.38
717.058	6.38
717.81	6.38
718.563	9.38
719.315	8.38
720.068	7.38
720.82	8.38
721.573	5.38
722.325	4.38
723.077	6.38
723.829	7.38
724.581	11.38
725.333	7.38
726.085	5.38
726.836	7.38
727.588	4.38
728.34	8.38
729.091	8.38
729.843	6.38
730.594	6.38
731.346	8.38
732.097	7.38
732.848	10.38
733.599	7.38
734.35	10.38
735.101	6.38
735.852	7.38
736.603	8.38
737.354	9.38
738.104	9.38
738.855	8.38
739.605	11.38
740.356	10.38
741.106	8.38
741.856	9.38
742.607	8.38
743.357	11.38
744.107	11.38
744.857	8.38
745.607	10.38
746.357	10.38
747.106	10.38
747.856	8.38
748.606	10.38
749.355	11.38
750.105	7.38
750.854	11.38
751.603	10.38
752.353	7.38
753.102	10.38
753.851	10.38
754.6	10.38
755.349	12.38
756.098	12.38
756.847	10.38
757.595	10.38
758.344	15.38
759.093	11.38
759.841	13.38
760.589	12.38
761.338	11.38
762.086	10.38
762.834	11.38
763.582	13.38
764.331	12.38
765.079	14.38
765.826	14.38
766.574	11.38
767.322	14.38
768.07	13.38
768.817	13.38
769.565	15.38
770.312	17.38
771.06	11.38
771.807	15.38
772.554	15.38
773.302	8.38
774.049	14.38
774.796	15.38
775.543	15.38
776.29	16.38
777.036	12.38
777.783	14.38
778.53	13.38
779.276	16.38
780.023	16.38
780.769	16.38
781.516	14.38
782.262	15.38
783.008	14.38
783.754	17.38
784.5	16.38
785.246	15.38
785.992	12.38
786.738	13.38
787.484	13.38
788.23	14.38
788.975	16.38
789.721	13.38
790.466	13.38
791.212	13.38
791.957	15.38
792.702	13.38
793.447	13.38
794.193	14.38
794.938	13.38
795.683	13.38
796.427	14.38
797.172	15.38
797.917	13.38
798.662	12.38
799.406	11.38
800.151	12.38
800.895	12.38
801.64	11.38
802.384	11.38
803.128	13.38
803.872	12.38
804.616	10.38
805.36	12.38
806.104	11.38
806.848	9.38
807.592	10.38
808.336	6.38
809.079	10.38
809.823	10.38
810.566	7.38
811.31	8.38
812.053	9.38
812.796	6.38
813.539	9.38
814.283	6.38
815.026	8.38
815.769	7.38
816.511	8.38
817.254	7.38
817.997	8.38
818.74	9.38
819.482	7.38
820.225	6.38
820.967	7.38
821.71	6.38
822.452	6.38
823.194	6.38
823.936	7.38
824.678	6.38
825.42	6.38
826.162	6.38
826.904	7.38
827.646	6.38
828.388	4.38
829.129	7.38
829.871	7.38
830.612	5.38
831.354	8.38
832.095	5.38
832.836	8.38
833.577	4.38
834.319	5.38
835.06	7.38
835.801	5.38
836.542	5.38
837.282	4.38
838.023	6.38
838.764	7.38
839.504	4.38
840.245	7.38
840.985	5.38
841.726	3.38
842.466	3.38
843.206	5.38
843.946	4.38
844.687	4.38
845.427	6.38
846.166	3.38
846.906	5.38
847.646	4.38
848.386	4.38
849.125	5.38
849.865	4.38
850.605	4.38
851.344	3.38
852.083	4.38
852.823	4.38
853.562	2.38
854.301	4.38
855.04	3.38
855.779	2.38
856.518	2.38
857.257	2.38
857.995	4.38
858.734	3.38
859.473	2.38
860.211	4.38
860.95	3.38
861.688	2.38
862.426	-0.62
863.165	2.38
863.903	0.38
864.641	2.38
865.379	1.38
866.117	1.38
866.855	1.38
867.593	2.38
868.33	3.38
869.068	1.38
869.806	1.38
870.543	1.38
871.28	-0.62
872.018	2.38
872.755	1.38
873.492	0.38
874.229	2.38
874.967	1.38
875.703	4.38
876.44	1.38
877.177	1.38
877.914	1.38
878.651	0.38
879.387	1.38
880.124	2.38
880.86	2.38
881.597	1.38
882.333	2.38
883.069	0.38
883.806	-1.62
884.542	1.38
885.278	1.38
886.014	2.38
886.749	1.38
887.485	1.38
888.221	3.38
888.957	1.38
889.692	1.38
890.428	1.38
891.163	3.38
891.899	0.38
892.634	1.38
893.369	1.38
894.104	1.38
894.839	2.38
895.574	-0.62
896.309	0.38
897.044	-1.62
897.779	1.38
898.514	1.38
899.248	1.38
899.983	-0.62
900.717	-0.62
901.452	0.38
902.186	2.38
902.92	0.38
903.654	0.38
904.389	-1.62
905.123	0.38
905.857	0.38
906.59	2.38
907.324	1.38
908.058	0.38
908.792	-0.62
909.525	1.38
910.259	0.38
910.992	-1.62
911.726	0.38
912.459	0.38
913.192	-0.62
913.925	0.38
914.658	1.38
915.391	-1.62
916.124	-0.62
916.857	-0.62
917.59	1.38
918.323	1.38
919.055	0.38
919.788	-0.62
920.521	-0.62
921.253	0.38
921.985	-1.62
922.718	1.38
923.45	1.38
924.182	0.38
924.914	-0.62
925.646	-1.62
926.378	0.38
927.11	1.38
927.841	-0.62
928.573	0.38
929.305	1.38
930.036	0.38
930.768	-1.62
931.499	-1.62
932.23	0.38
932.962	0.38
933.693	1.38
934.424	-1.62
935.155	0.38
935.886	-1.62
936.617	0.38
937.348	-1.62
938.078	-1.62
938.809	-0.62
939.54	-0.62
940.27	-0.62
941.001	0.38
941.731	-1.62
942.461	-0.62
943.191	-1.62
943.922	1.38
944.652	-1.62
945.382	0.38
946.112	0.38
946.841	1.38
947.571	1.38
948.301	-0.62
949.031	2.38
949.76	-0.62
950.49	-1.62
951.219	0.38
951.948	-0.62
952.678	-0.62
953.407	-1.62
954.136	-0.62
954.865	-1.62
955.594	-0.62
956.323	0.38
957.052	1.38
957.78	-0.62
958.509	-1.62
959.238	1.38
959.966	-0.62
960.695	-0.62
961.423	-0.62
962.151	1.38
962.88	-2.62
963.608	0.38
964.336	-1.62
965.064	-0.62
965.792	-0.62
966.52	2.38
967.247	1.38
967.975	2.38
968.703	-0.62
969.43	-1.62
970.158	0.38
970.885	0.38
971.613	-0.62
972.34	1.38
973.067	0.38
973.794	0.38
974.521	-1.62
975.248	-0.62
975.975	-0.62
976.702	1.38
977.429	-0.62
978.156	-1.62
978.882	0.38
979.609	1.38
980.335	0.38
981.062	0.38
981.788	-0.62
982.514	0.38
983.24	-0.62
983.967	0.38
984.693	1.38
985.419	0.38
986.144	1.38
986.87	-1.62
987.596	0.38
988.322	-0.62
989.047	1.38
989.773	1.38
990.498	-0.62
991.224	0.38
991.949	-1.62
992.674	1.38
993.399	-1.62
994.124	0.38
994.849	0.38
995.574	-0.62
996.299	0.38
997.024	1.38
997.749	2.38
998.473	-0.62
999.198	1.38
999.922	-0.62
1000.647	-0.62
1001.371	3.38
1002.095	-1.62
1002.82	1.38
1003.544	-3.62
1004.268	4.38
1004.992	-0.62
1005.716	3.38
1006.439	4.38
1007.163	5.38
1007.887	5.38
1008.611	-1.62
1009.334	-1.62
1010.058	0.38
1010.781	-0.62
1011.504	0.38
1012.228	-1.62
1012.951	1.38
1013.674	-1.62
1014.397	-0.62
1015.12	1.38
