节点500_705_QEPB04081__376__20-51-17-588.txt的数据

Date: Wed Nov 12 20:51:17 CST 2025
User: PC
Spectrometer: QEPB0408
触发模式: 0
积分时间 (秒): 1.000000E-2
Scans to average: 1
启用暗噪声校正: true
启用非线性校正: false
滑动平均宽度: 0
X轴模式: Wavelengths
Number of Pixels in Spectrum: 1044
>>>>>Begin Spectral Data<<<<<
220.843	5.62
221.644	5.62
222.444	7.62
223.244	6.62
224.045	5.62
224.845	4.62
225.645	6.62
226.445	9.62
227.245	6.62
228.045	6.62
228.845	8.62
229.645	4.62
230.444	8.62
231.244	6.62
232.043	9.62
232.843	8.62
233.642	8.62
234.442	7.62
235.241	7.62
236.04	11.62
236.839	8.62
237.638	7.62
238.437	10.62
239.236	10.62
240.035	10.62
240.833	10.62
241.632	10.62
242.43	12.62
243.229	10.62
244.027	11.62
244.826	11.62
245.624	15.62
246.422	14.62
247.22	12.62
248.018	13.62
248.816	14.62
249.614	13.62
250.412	13.62
251.21	16.62
252.007	16.62
252.805	16.62
253.602	17.62
254.4	14.62
255.197	18.62
255.994	17.62
256.791	18.62
257.589	18.62
258.386	19.62
259.183	19.62
259.979	20.62
260.776	20.62
261.573	23.62
262.37	23.62
263.166	23.62
263.963	22.62
264.759	24.62
265.556	23.62
266.352	27.62
267.148	25.62
267.944	27.62
268.74	27.62
269.536	26.62
270.332	29.62
271.128	30.62
271.924	31.62
272.719	32.62
273.515	27.62
274.311	31.62
275.106	33.62
275.901	31.62
276.697	35.62
277.492	34.62
278.287	33.62
279.082	31.62
279.877	34.62
280.672	33.62
281.467	32.62
282.262	34.62
283.056	34.62
283.851	33.62
284.646	32.62
285.44	34.62
286.234	36.62
287.029	32.62
287.823	31.62
288.617	30.62
289.411	29.62
290.205	32.62
290.999	33.62
291.793	30.62
292.587	32.62
293.381	29.62
294.174	28.62
294.968	27.62
295.761	28.62
296.555	25.62
297.348	26.62
298.141	21.62
298.935	30.62
299.728	23.62
300.521	28.62
301.314	26.62
302.107	24.62
302.899	21.62
303.692	21.62
304.485	23.62
305.277	23.62
306.07	20.62
306.862	22.62
307.655	20.62
308.447	17.62
309.239	19.62
310.031	21.62
310.823	17.62
311.615	18.62
312.407	18.62
313.199	14.62
313.991	17.62
314.783	16.62
315.574	14.62
316.366	18.62
317.157	13.62
317.949	14.62
318.74	12.62
319.531	15.62
320.322	15.62
321.113	15.62
321.904	13.62
322.695	14.62
323.486	10.62
324.277	12.62
325.068	15.62
325.858	13.62
326.649	8.62
327.439	13.62
328.23	11.62
329.02	12.62
329.81	10.62
330.6	12.62
331.391	13.62
332.181	11.62
332.971	14.62
333.76	10.62
334.55	10.62
335.34	11.62
336.13	9.62
336.919	11.62
337.709	10.62
338.498	12.62
339.287	10.62
340.077	12.62
340.866	9.62
341.655	10.62
342.444	9.62
343.233	10.62
344.022	10.62
344.811	12.62
345.6	10.62
346.388	9.62
347.177	8.62
347.965	9.62
348.754	10.62
349.542	9.62
350.33	12.62
351.119	12.62
351.907	11.62
352.695	9.62
353.483	9.62
354.271	12.62
355.059	10.62
355.846	8.62
356.634	8.62
357.422	9.62
358.209	11.62
358.997	9.62
359.784	10.62
360.571	8.62
361.359	9.62
362.146	10.62
362.933	9.62
363.72	9.62
364.507	9.62
365.294	10.62
366.081	10.62
366.867	8.62
367.654	8.62
368.44	7.62
369.227	7.62
370.013	10.62
370.8	8.62
371.586	7.62
372.372	9.62
373.158	8.62
373.944	9.62
374.73	8.62
375.516	8.62
376.302	9.62
377.088	8.62
377.873	11.62
378.659	10.62
379.445	8.62
380.23	9.62
381.015	6.62
381.801	10.62
382.586	10.62
383.371	7.62
384.156	9.62
384.941	9.62
385.726	11.62
386.511	9.62
387.296	13.62
388.08	14.62
388.865	11.62
389.649	9.62
390.434	10.62
391.218	9.62
392.003	10.62
392.787	11.62
393.571	9.62
394.355	11.62
395.139	10.62
395.923	10.62
396.707	10.62
397.491	11.62
398.274	11.62
399.058	15.62
399.842	12.62
400.625	14.62
401.408	14.62
402.192	14.62
402.975	12.62
403.758	14.62
404.541	15.62
405.324	14.62
406.107	16.62
406.89	15.62
407.673	14.62
408.456	14.62
409.238	16.62
410.021	14.62
410.803	16.62
411.586	18.62
412.368	16.62
413.151	14.62
413.933	19.62
414.715	18.62
415.497	17.62
416.279	16.62
417.061	18.62
417.843	22.62
418.624	15.62
419.406	21.62
420.188	20.62
420.969	20.62
421.751	22.62
422.532	20.62
423.313	21.62
424.095	25.62
424.876	24.62
425.657	24.62
426.438	23.62
427.219	29.62
428	28.62
428.78	29.62
429.561	28.62
430.342	29.62
431.122	34.62
431.903	31.62
432.683	32.62
433.464	32.62
434.244	35.62
435.024	38.62
435.804	38.62
436.584	44.62
437.364	45.62
438.144	46.62
438.924	49.62
439.704	53.62
440.483	56.62
441.263	58.62
442.042	63.62
442.822	67.62
443.601	78.62
444.38	83.62
445.16	90.62
445.939	98.62
446.718	106.62
447.497	109.62
448.276	119.62
449.054	134.62
449.833	148.62
450.612	162.62
451.391	178.62
452.169	196.62
452.948	219.62
453.726	248.62
454.504	272.62
455.282	303.62
456.061	331.62
456.839	376.62
457.617	412.62
458.395	473.62
459.172	521.62
459.95	577.62
460.728	642.62
461.506	712.62
462.283	794.62
463.061	893.62
463.838	993.62
464.615	1106.62
465.393	1230.62
466.17	1372.62
466.947	1521.62
467.724	1690.62
468.501	1861.62
469.278	2065.62
470.055	2271.62
470.831	2523.62
471.608	2774.62
472.385	3048.62
473.161	3372.62
473.938	3690.62
474.714	4071.62
475.49	4423.62
476.266	4875.62
477.043	5333.62
477.819	5803.62
478.595	6321.62
479.371	6913.62
480.146	7523.62
480.922	8213.62
481.698	8940.62
482.473	9706.62
483.249	10599.62
484.024	11477.62
484.8	12419.62
485.575	13426.62
486.35	14612.62
487.126	15816.62
487.901	17034.62
488.676	18343.62
489.451	19869.62
490.225	21293.62
491	22846.62
491.775	24398.62
492.55	26125.62
493.324	27792.62
494.099	29539.62
494.873	31353.62
495.647	33035.62
496.422	34817.62
497.196	36574.62
497.97	38157.62
498.744	39665.62
499.518	41305.62
500.292	42633.62
501.066	43714.62
501.839	44660.62
502.613	45359.62
503.387	46095.62
504.16	46519.62
504.934	46668.62
505.707	46663.62
506.48	46419.62
507.253	46040.62
508.027	45344.62
508.8	44495.62
509.573	43524.62
510.346	42438.62
511.118	41483.62
511.891	40202.62
512.664	38775.62
513.437	37314.62
514.209	35977.62
514.982	34612.62
515.754	33288.62
516.526	31895.62
517.298	30640.62
518.071	29464.62
518.843	28284.62
519.615	27152.62
520.387	26094.62
521.159	24956.62
521.93	24004.62
522.702	22948.62
523.474	22039.62
524.245	21159.62
525.017	20206.62
525.788	19320.62
526.56	18504.62
527.331	17732.62
528.102	16799.62
528.873	16017.62
529.644	15255.62
530.415	14518.62
531.186	13852.62
531.957	13154.62
532.728	12412.62
533.498	11849.62
534.269	11169.62
535.039	10582.62
535.81	10022.62
536.58	9468.62
537.351	8995.62
538.121	8487.62
538.891	8040.62
539.661	7616.62
540.431	7221.62
541.201	6830.62
541.971	6476.62
542.741	6126.62
543.51	5815.62
544.28	5525.62
545.05	5282.62
545.819	5031.62
546.588	4805.62
547.358	4572.62
548.127	4353.62
548.896	4118.62
549.665	3910.62
550.434	3706.62
551.203	3519.62
551.972	3336.62
552.741	3155.62
553.51	2965.62
554.278	2791.62
555.047	2653.62
555.815	2522.62
556.584	2381.62
557.352	2248.62
558.121	2115.62
558.889	2006.62
559.657	1895.62
560.425	1787.62
561.193	1694.62
561.961	1599.62
562.729	1514.62
563.496	1429.62
564.264	1352.62
565.032	1277.62
565.799	1219.62
566.567	1148.62
567.334	1079.62
568.101	1027.62
568.869	957.62
569.636	915.62
570.403	866.62
571.17	813.62
571.937	769.62
572.704	715.62
573.471	686.62
574.237	645.62
575.004	609.62
575.771	566.62
576.537	537.62
577.303	521.62
578.07	493.62
578.836	451.62
579.602	435.62
580.368	407.62
581.134	385.62
581.9	374.62
582.666	356.62
583.432	334.62
584.198	318.62
584.964	306.62
585.729	284.62
586.495	271.62
587.26	255.62
588.025	241.62
588.791	227.62
589.556	214.62
590.321	207.62
591.086	201.62
591.851	190.62
592.616	180.62
593.381	168.62
594.146	161.62
594.911	158.62
595.675	147.62
596.44	143.62
597.204	135.62
597.969	132.62
598.733	118.62
599.497	123.62
600.261	113.62
601.025	104.62
601.79	102.62
602.553	102.62
603.317	96.62
604.081	94.62
604.845	90.62
605.609	84.62
606.372	75.62
607.136	77.62
607.899	80.62
608.662	71.62
609.426	72.62
610.189	69.62
610.952	61.62
611.715	65.62
612.478	61.62
613.241	57.62
614.004	57.62
614.767	51.62
615.529	54.62
616.292	51.62
617.055	50.62
617.817	48.62
618.579	46.62
619.342	42.62
620.104	44.62
620.866	41.62
621.628	39.62
622.39	38.62
623.152	38.62
623.914	37.62
624.676	32.62
625.438	34.62
626.199	34.62
626.961	28.62
627.722	30.62
628.484	30.62
629.245	28.62
630.006	30.62
630.768	28.62
631.529	24.62
632.29	26.62
633.051	25.62
633.812	23.62
634.573	22.62
635.333	25.62
636.094	22.62
636.855	22.62
637.615	21.62
638.376	20.62
639.136	21.62
639.896	21.62
640.657	18.62
641.417	18.62
642.177	18.62
642.937	17.62
643.697	16.62
644.457	14.62
645.216	17.62
645.976	15.62
646.736	16.62
647.495	17.62
648.255	16.62
649.014	16.62
649.774	16.62
650.533	14.62
651.292	14.62
652.051	14.62
652.81	14.62
653.569	11.62
654.328	14.62
655.087	11.62
655.846	13.62
656.604	12.62
657.363	12.62
658.121	11.62
658.88	13.62
659.638	11.62
660.397	10.62
661.155	11.62
661.913	8.62
662.671	8.62
663.429	9.62
664.187	8.62
664.945	8.62
665.703	8.62
666.46	12.62
667.218	8.62
667.976	9.62
668.733	7.62
669.49	9.62
670.248	9.62
671.005	7.62
671.762	13.62
672.519	10.62
673.276	10.62
674.033	8.62
674.79	10.62
675.547	8.62
676.304	6.62
677.06	5.62
677.817	8.62
678.574	8.62
679.33	9.62
680.086	7.62
680.843	6.62
681.599	10.62
682.355	4.62
683.111	7.62
683.867	7.62
684.623	8.62
685.379	6.62
686.135	7.62
686.89	8.62
687.646	6.62
688.402	9.62
689.157	7.62
689.912	6.62
690.668	7.62
691.423	5.62
692.178	6.62
692.933	7.62
693.688	8.62
694.443	7.62
695.198	7.62
695.953	8.62
696.708	6.62
697.462	7.62
698.217	7.62
698.972	5.62
699.726	10.62
700.48	7.62
701.235	8.62
701.989	6.62
702.743	8.62
703.497	7.62
704.251	7.62
705.005	7.62
705.759	8.62
706.513	7.62
707.266	5.62
708.02	6.62
708.774	6.62
709.527	7.62
710.28	6.62
711.034	6.62
711.787	5.62
712.54	6.62
713.293	8.62
714.046	9.62
714.799	6.62
715.552	7.62
716.305	7.62
717.058	5.62
717.81	9.62
718.563	6.62
719.315	8.62
720.068	8.62
720.82	8.62
721.573	7.62
722.325	7.62
723.077	4.62
723.829	5.62
724.581	7.62
725.333	5.62
726.085	8.62
726.836	7.62
727.588	8.62
728.34	10.62
729.091	5.62
729.843	9.62
730.594	8.62
731.346	8.62
732.097	8.62
732.848	8.62
733.599	10.62
734.35	10.62
735.101	11.62
735.852	9.62
736.603	11.62
737.354	9.62
738.104	8.62
738.855	7.62
739.605	9.62
740.356	8.62
741.106	7.62
741.856	8.62
742.607	10.62
743.357	8.62
744.107	8.62
744.857	11.62
745.607	9.62
746.357	10.62
747.106	8.62
747.856	11.62
748.606	10.62
749.355	9.62
750.105	10.62
750.854	12.62
751.603	10.62
752.353	9.62
753.102	12.62
753.851	10.62
754.6	9.62
755.349	9.62
756.098	9.62
756.847	12.62
757.595	13.62
758.344	10.62
759.093	10.62
759.841	10.62
760.589	11.62
761.338	13.62
762.086	12.62
762.834	14.62
763.582	10.62
764.331	12.62
765.079	13.62
765.826	9.62
766.574	16.62
767.322	14.62
768.07	13.62
768.817	13.62
769.565	11.62
770.312	12.62
771.06	13.62
771.807	15.62
772.554	14.62
773.302	13.62
774.049	15.62
774.796	14.62
775.543	12.62
776.29	14.62
777.036	13.62
777.783	12.62
778.53	14.62
779.276	15.62
780.023	16.62
780.769	21.62
781.516	14.62
782.262	14.62
783.008	14.62
783.754	17.62
784.5	15.62
785.246	16.62
785.992	13.62
786.738	16.62
787.484	12.62
788.23	13.62
788.975	15.62
789.721	16.62
790.466	15.62
791.212	16.62
791.957	14.62
792.702	12.62
793.447	14.62
794.193	14.62
794.938	10.62
795.683	15.62
796.427	12.62
797.172	14.62
797.917	13.62
798.662	10.62
799.406	12.62
800.151	13.62
800.895	10.62
801.64	11.62
802.384	10.62
803.128	10.62
803.872	12.62
804.616	10.62
805.36	9.62
806.104	9.62
806.848	12.62
807.592	9.62
808.336	9.62
809.079	9.62
809.823	9.62
810.566	9.62
811.31	7.62
812.053	7.62
812.796	9.62
813.539	8.62
814.283	6.62
815.026	9.62
815.769	7.62
816.511	7.62
817.254	8.62
817.997	7.62
818.74	8.62
819.482	9.62
820.225	5.62
820.967	9.62
821.71	6.62
822.452	8.62
823.194	8.62
823.936	10.62
824.678	8.62
825.42	6.62
826.162	9.62
826.904	6.62
827.646	3.62
828.388	6.62
829.129	5.62
829.871	5.62
830.612	7.62
831.354	7.62
832.095	7.62
832.836	3.62
833.577	6.62
834.319	6.62
835.06	4.62
835.801	5.62
836.542	2.62
837.282	3.62
838.023	4.62
838.764	6.62
839.504	4.62
840.245	4.62
840.985	7.62
841.726	2.62
842.466	4.62
843.206	5.62
843.946	8.62
844.687	2.62
845.427	4.62
846.166	7.62
846.906	3.62
847.646	4.62
848.386	4.62
849.125	5.62
849.865	4.62
850.605	7.62
851.344	3.62
852.083	3.62
852.823	6.62
853.562	4.62
854.301	6.62
855.04	4.62
855.779	6.62
856.518	5.62
857.257	3.62
857.995	6.62
858.734	4.62
859.473	4.62
860.211	2.62
860.95	-0.38
861.688	3.62
862.426	1.62
863.165	4.62
863.903	2.62
864.641	2.62
865.379	1.62
866.117	1.62
866.855	3.62
867.593	2.62
868.33	2.62
869.068	2.62
869.806	2.62
870.543	-0.38
871.28	1.62
872.018	1.62
872.755	2.62
873.492	2.62
874.229	4.62
874.967	0.62
875.703	3.62
876.44	0.62
877.177	0.62
877.914	-0.38
878.651	0.62
879.387	1.62
880.124	1.62
880.86	1.62
881.597	-0.38
882.333	0.62
883.069	2.62
883.806	-0.38
884.542	0.62
885.278	1.62
886.014	0.62
886.749	0.62
887.485	1.62
888.221	0.62
888.957	0.62
889.692	1.62
890.428	-0.38
891.163	2.62
891.899	1.62
892.634	-0.38
893.369	0.62
894.104	-0.38
894.839	-0.38
895.574	-0.38
896.309	1.62
897.044	0.62
897.779	-1.38
898.514	0.62
899.248	0.62
899.983	1.62
900.717	0.62
901.452	1.62
902.186	0.62
902.92	-1.38
903.654	1.62
904.389	0.62
905.123	3.62
905.857	-1.38
906.59	0.62
907.324	0.62
908.058	-1.38
908.792	2.62
909.525	1.62
910.259	-1.38
910.992	0.62
911.726	0.62
912.459	0.62
913.192	-1.38
913.925	-0.38
914.658	-0.38
915.391	0.62
916.124	2.62
916.857	2.62
917.59	-1.38
918.323	0.62
919.055	-0.38
919.788	1.62
920.521	1.62
921.253	1.62
921.985	1.62
922.718	1.62
923.45	2.62
924.182	-0.38
924.914	-0.38
925.646	0.62
926.378	1.62
927.11	-0.38
927.841	1.62
928.573	2.62
929.305	0.62
930.036	0.62
930.768	-1.38
931.499	1.62
932.23	2.62
932.962	0.62
933.693	-0.38
934.424	-1.38
935.155	-0.38
935.886	-1.38
936.617	0.62
937.348	1.62
938.078	-0.38
938.809	0.62
939.54	1.62
940.27	0.62
941.001	0.62
941.731	0.62
942.461	0.62
943.191	-2.38
943.922	0.62
944.652	0.62
945.382	0.62
946.112	-0.38
946.841	0.62
947.571	0.62
948.301	-0.38
949.031	0.62
949.76	-0.38
950.49	-2.38
951.219	-0.38
951.948	0.62
952.678	1.62
953.407	-1.38
954.136	0.62
954.865	2.62
955.594	0.62
956.323	-1.38
957.052	-0.38
957.78	0.62
958.509	0.62
959.238	-0.38
959.966	-0.38
960.695	-1.38
961.423	1.62
962.151	-1.38
962.88	-1.38
963.608	0.62
964.336	-0.38
965.064	-1.38
965.792	-0.38
966.52	-0.38
967.247	-1.38
967.975	-0.38
968.703	0.62
969.43	-1.38
970.158	0.62
970.885	-1.38
971.613	1.62
972.34	0.62
973.067	-1.38
973.794	-1.38
974.521	-0.38
975.248	0.62
975.975	-0.38
976.702	-1.38
977.429	2.62
978.156	-1.38
978.882	-0.38
979.609	-2.38
980.335	-1.38
981.062	1.62
981.788	-1.38
982.514	0.62
983.24	0.62
983.967	-0.38
984.693	1.62
985.419	0.62
986.144	0.62
986.87	0.62
987.596	0.62
988.322	-2.38
989.047	-1.38
989.773	2.62
990.498	0.62
991.224	-0.38
991.949	-0.38
992.674	0.62
993.399	-1.38
994.124	0.62
994.849	-0.38
995.574	0.62
996.299	-2.38
997.024	-1.38
997.749	1.62
998.473	-0.38
999.198	-0.38
999.922	-1.38
1000.647	0.62
1001.371	4.62
1002.095	-1.38
1002.82	-1.38
1003.544	-1.38
1004.268	4.62
1004.992	3.62
1005.716	3.62
1006.439	3.62
1007.163	3.62
1007.887	3.62
1008.611	0.62
1009.334	-0.38
1010.058	-2.38
1010.781	1.62
1011.504	0.62
1012.228	0.62
1012.951	-4.38
1013.674	1.62
1014.397	1.62
1015.12	0.62
