节点500_705_QEPB04081__87__20-47-20-241.txt的数据

Date: Wed Nov 12 20:47:20 CST 2025
User: PC
Spectrometer: QEPB0408
触发模式: 0
积分时间 (秒): 1.000000E-2
Scans to average: 1
启用暗噪声校正: true
启用非线性校正: false
滑动平均宽度: 0
X轴模式: Wavelengths
Number of Pixels in Spectrum: 1044
>>>>>Begin Spectral Data<<<<<
220.843	6.62
221.644	6.62
222.444	3.62
223.244	5.62
224.045	5.62
224.845	2.62
225.645	6.62
226.445	5.62
227.245	6.62
228.045	7.62
228.845	8.62
229.645	8.62
230.444	7.62
231.244	10.62
232.043	8.62
232.843	9.62
233.642	9.62
234.442	11.62
235.241	12.62
236.04	10.62
236.839	11.62
237.638	13.62
238.437	8.62
239.236	9.62
240.035	11.62
240.833	10.62
241.632	10.62
242.43	11.62
243.229	12.62
244.027	12.62
244.826	14.62
245.624	12.62
246.422	15.62
247.22	15.62
248.018	14.62
248.816	16.62
249.614	16.62
250.412	15.62
251.21	15.62
252.007	16.62
252.805	20.62
253.602	14.62
254.4	20.62
255.197	18.62
255.994	21.62
256.791	21.62
257.589	21.62
258.386	20.62
259.183	21.62
259.979	24.62
260.776	26.62
261.573	23.62
262.37	27.62
263.166	23.62
263.963	27.62
264.759	28.62
265.556	30.62
266.352	30.62
267.148	29.62
267.944	28.62
268.74	34.62
269.536	29.62
270.332	35.62
271.128	33.62
271.924	35.62
272.719	30.62
273.515	36.62
274.311	34.62
275.106	39.62
275.901	36.62
276.697	33.62
277.492	35.62
278.287	37.62
279.082	37.62
279.877	33.62
280.672	35.62
281.467	35.62
282.262	31.62
283.056	34.62
283.851	31.62
284.646	37.62
285.44	36.62
286.234	37.62
287.029	31.62
287.823	33.62
288.617	34.62
289.411	33.62
290.205	35.62
290.999	32.62
291.793	30.62
292.587	32.62
293.381	29.62
294.174	29.62
294.968	26.62
295.761	27.62
296.555	27.62
297.348	26.62
298.141	24.62
298.935	29.62
299.728	28.62
300.521	24.62
301.314	21.62
302.107	21.62
302.899	22.62
303.692	24.62
304.485	21.62
305.277	21.62
306.07	20.62
306.862	20.62
307.655	19.62
308.447	18.62
309.239	18.62
310.031	24.62
310.823	18.62
311.615	16.62
312.407	14.62
313.199	16.62
313.991	17.62
314.783	20.62
315.574	13.62
316.366	15.62
317.157	16.62
317.949	14.62
318.74	13.62
319.531	13.62
320.322	12.62
321.113	12.62
321.904	12.62
322.695	16.62
323.486	12.62
324.277	12.62
325.068	14.62
325.858	13.62
326.649	13.62
327.439	13.62
328.23	13.62
329.02	16.62
329.81	12.62
330.6	9.62
331.391	10.62
332.181	13.62
332.971	10.62
333.76	13.62
334.55	12.62
335.34	11.62
336.13	12.62
336.919	11.62
337.709	12.62
338.498	10.62
339.287	9.62
340.077	10.62
340.866	12.62
341.655	13.62
342.444	14.62
343.233	12.62
344.022	10.62
344.811	13.62
345.6	8.62
346.388	12.62
347.177	9.62
347.965	11.62
348.754	11.62
349.542	9.62
350.33	10.62
351.119	9.62
351.907	12.62
352.695	10.62
353.483	9.62
354.271	12.62
355.059	10.62
355.846	11.62
356.634	9.62
357.422	10.62
358.209	10.62
358.997	10.62
359.784	8.62
360.571	12.62
361.359	9.62
362.146	9.62
362.933	11.62
363.72	9.62
364.507	10.62
365.294	9.62
366.081	9.62
366.867	11.62
367.654	10.62
368.44	10.62
369.227	11.62
370.013	10.62
370.8	9.62
371.586	10.62
372.372	8.62
373.158	8.62
373.944	10.62
374.73	8.62
375.516	8.62
376.302	9.62
377.088	7.62
377.873	10.62
378.659	9.62
379.445	9.62
380.23	12.62
381.015	8.62
381.801	8.62
382.586	11.62
383.371	8.62
384.156	9.62
384.941	11.62
385.726	10.62
386.511	10.62
387.296	10.62
388.08	12.62
388.865	11.62
389.649	10.62
390.434	10.62
391.218	9.62
392.003	12.62
392.787	11.62
393.571	11.62
394.355	12.62
395.139	13.62
395.923	10.62
396.707	12.62
397.491	13.62
398.274	12.62
399.058	13.62
399.842	14.62
400.625	11.62
401.408	15.62
402.192	13.62
402.975	12.62
403.758	13.62
404.541	14.62
405.324	15.62
406.107	16.62
406.89	18.62
407.673	16.62
408.456	14.62
409.238	15.62
410.021	14.62
410.803	18.62
411.586	14.62
412.368	17.62
413.151	18.62
413.933	18.62
414.715	17.62
415.497	19.62
416.279	17.62
417.061	20.62
417.843	18.62
418.624	20.62
419.406	20.62
420.188	24.62
420.969	18.62
421.751	21.62
422.532	23.62
423.313	22.62
424.095	20.62
424.876	26.62
425.657	28.62
426.438	25.62
427.219	24.62
428	27.62
428.78	27.62
429.561	30.62
430.342	28.62
431.122	30.62
431.903	34.62
432.683	38.62
433.464	33.62
434.244	38.62
435.024	42.62
435.804	40.62
436.584	42.62
437.364	44.62
438.144	47.62
438.924	50.62
439.704	53.62
440.483	55.62
441.263	60.62
442.042	62.62
442.822	65.62
443.601	71.62
444.38	78.62
445.16	82.62
445.939	91.62
446.718	98.62
447.497	107.62
448.276	114.62
449.054	128.62
449.833	141.62
450.612	150.62
451.391	170.62
452.169	185.62
452.948	206.62
453.726	222.62
454.504	248.62
455.282	277.62
456.061	309.62
456.839	344.62
457.617	390.62
458.395	432.62
459.172	478.62
459.95	531.62
460.728	598.62
461.506	678.62
462.283	746.62
463.061	832.62
463.838	937.62
464.615	1054.62
465.393	1175.62
466.17	1305.62
466.947	1444.62
467.724	1613.62
468.501	1806.62
469.278	2007.62
470.055	2221.62
470.831	2473.62
471.608	2735.62
472.385	3013.62
473.161	3371.62
473.938	3707.62
474.714	4056.62
475.49	4509.62
476.266	4966.62
477.043	5440.62
477.819	5998.62
478.595	6546.62
479.371	7219.62
480.146	7899.62
480.922	8619.62
481.698	9500.62
482.473	10361.62
483.249	11336.62
484.024	12396.62
484.8	13439.62
485.575	14640.62
486.35	15927.62
487.126	17344.62
487.901	18793.62
488.676	20328.62
489.451	22046.62
490.225	23742.62
491	25470.62
491.775	27260.62
492.55	29266.62
493.324	31174.62
494.099	33020.62
494.873	35031.62
495.647	37002.62
496.422	38992.62
497.196	40863.62
497.97	42458.62
498.744	43974.62
499.518	45695.62
500.292	46971.62
501.066	47843.62
501.839	48635.62
502.613	49292.62
503.387	49589.62
504.16	49890.62
504.934	49738.62
505.707	49374.62
506.48	48729.62
507.253	47979.62
508.027	46878.62
508.8	45644.62
509.573	44483.62
510.346	43134.62
511.118	41844.62
511.891	40320.62
512.664	38631.62
513.437	37171.62
514.209	35596.62
514.982	34249.62
515.754	32777.62
516.526	31314.62
517.298	30125.62
518.071	28831.62
518.843	27710.62
519.615	26512.62
520.387	25553.62
521.159	24488.62
521.93	23420.62
522.702	22421.62
523.474	21483.62
524.245	20572.62
525.017	19644.62
525.788	18718.62
526.56	17896.62
527.331	17171.62
528.102	16183.62
528.873	15347.62
529.644	14650.62
530.415	13897.62
531.186	13206.62
531.957	12433.62
532.728	11774.62
533.498	11179.62
534.269	10548.62
535.039	9989.62
535.81	9438.62
536.58	8930.62
537.351	8458.62
538.121	8041.62
538.891	7550.62
539.661	7152.62
540.431	6797.62
541.201	6434.62
541.971	6115.62
542.741	5757.62
543.51	5469.62
544.28	5239.62
545.05	4960.62
545.819	4743.62
546.588	4511.62
547.358	4304.62
548.127	4083.62
548.896	3892.62
549.665	3673.62
550.434	3439.62
551.203	3288.62
551.972	3120.62
552.741	2960.62
553.51	2782.62
554.278	2629.62
555.047	2455.62
555.815	2335.62
556.584	2200.62
557.352	2078.62
558.121	1964.62
558.889	1849.62
559.657	1738.62
560.425	1661.62
561.193	1584.62
561.961	1475.62
562.729	1411.62
563.496	1314.62
564.264	1276.62
565.032	1172.62
565.799	1132.62
566.567	1066.62
567.334	1001.62
568.101	946.62
568.869	904.62
569.636	846.62
570.403	800.62
571.17	752.62
571.937	717.62
572.704	679.62
573.471	641.62
574.237	604.62
575.004	566.62
575.771	537.62
576.537	494.62
577.303	471.62
578.07	450.62
578.836	419.62
579.602	402.62
580.368	384.62
581.134	366.62
581.9	343.62
582.666	324.62
583.432	304.62
584.198	290.62
584.964	274.62
585.729	267.62
586.495	254.62
587.26	241.62
588.025	222.62
588.791	216.62
589.556	197.62
590.321	191.62
591.086	183.62
591.851	170.62
592.616	165.62
593.381	160.62
594.146	149.62
594.911	145.62
595.675	139.62
596.44	131.62
597.204	126.62
597.969	118.62
598.733	118.62
599.497	112.62
600.261	105.62
601.025	101.62
601.79	99.62
602.553	88.62
603.317	90.62
604.081	89.62
604.845	83.62
605.609	81.62
606.372	71.62
607.136	71.62
607.899	71.62
608.662	66.62
609.426	62.62
610.189	65.62
610.952	60.62
611.715	57.62
612.478	59.62
613.241	54.62
614.004	54.62
614.767	52.62
615.529	49.62
616.292	48.62
617.055	46.62
617.817	46.62
618.579	42.62
619.342	43.62
620.104	42.62
620.866	36.62
621.628	37.62
622.39	37.62
623.152	36.62
623.914	34.62
624.676	33.62
625.438	33.62
626.199	30.62
626.961	29.62
627.722	30.62
628.484	25.62
629.245	28.62
630.006	26.62
630.768	26.62
631.529	23.62
632.29	23.62
633.051	26.62
633.812	22.62
634.573	24.62
635.333	20.62
636.094	21.62
636.855	21.62
637.615	19.62
638.376	21.62
639.136	18.62
639.896	19.62
640.657	18.62
641.417	17.62
642.177	16.62
642.937	17.62
643.697	16.62
644.457	16.62
645.216	15.62
645.976	17.62
646.736	18.62
647.495	17.62
648.255	16.62
649.014	13.62
649.774	14.62
650.533	10.62
651.292	12.62
652.051	13.62
652.81	12.62
653.569	10.62
654.328	14.62
655.087	12.62
655.846	14.62
656.604	9.62
657.363	11.62
658.121	11.62
658.88	11.62
659.638	10.62
660.397	12.62
661.155	9.62
661.913	12.62
662.671	11.62
663.429	10.62
664.187	11.62
664.945	10.62
665.703	10.62
666.46	8.62
667.218	10.62
667.976	10.62
668.733	5.62
669.49	10.62
670.248	10.62
671.005	8.62
671.762	9.62
672.519	8.62
673.276	8.62
674.033	9.62
674.79	6.62
675.547	10.62
676.304	7.62
677.06	9.62
677.817	10.62
678.574	9.62
679.33	7.62
680.086	6.62
680.843	8.62
681.599	8.62
682.355	5.62
683.111	10.62
683.867	7.62
684.623	7.62
685.379	9.62
686.135	7.62
686.89	8.62
687.646	7.62
688.402	8.62
689.157	7.62
689.912	8.62
690.668	4.62
691.423	7.62
692.178	7.62
692.933	7.62
693.688	7.62
694.443	6.62
695.198	5.62
695.953	7.62
696.708	8.62
697.462	7.62
698.217	5.62
698.972	6.62
699.726	6.62
700.48	5.62
701.235	7.62
701.989	7.62
702.743	8.62
703.497	6.62
704.251	9.62
705.005	6.62
705.759	7.62
706.513	6.62
707.266	5.62
708.02	9.62
708.774	5.62
709.527	8.62
710.28	5.62
711.034	4.62
711.787	8.62
712.54	7.62
713.293	5.62
714.046	8.62
714.799	8.62
715.552	6.62
716.305	4.62
717.058	9.62
717.81	5.62
718.563	9.62
719.315	10.62
720.068	8.62
720.82	9.62
721.573	7.62
722.325	7.62
723.077	9.62
723.829	9.62
724.581	7.62
725.333	8.62
726.085	6.62
726.836	5.62
727.588	8.62
728.34	6.62
729.091	7.62
729.843	9.62
730.594	7.62
731.346	9.62
732.097	5.62
732.848	9.62
733.599	6.62
734.35	8.62
735.101	6.62
735.852	8.62
736.603	10.62
737.354	9.62
738.104	8.62
738.855	9.62
739.605	9.62
740.356	12.62
741.106	10.62
741.856	10.62
742.607	12.62
743.357	7.62
744.107	8.62
744.857	9.62
745.607	10.62
746.357	9.62
747.106	7.62
747.856	10.62
748.606	10.62
749.355	12.62
750.105	12.62
750.854	12.62
751.603	10.62
752.353	10.62
753.102	10.62
753.851	10.62
754.6	11.62
755.349	11.62
756.098	10.62
756.847	13.62
757.595	10.62
758.344	10.62
759.093	12.62
759.841	11.62
760.589	12.62
761.338	13.62
762.086	13.62
762.834	13.62
763.582	14.62
764.331	13.62
765.079	13.62
765.826	15.62
766.574	13.62
767.322	14.62
768.07	12.62
768.817	13.62
769.565	16.62
770.312	14.62
771.06	13.62
771.807	15.62
772.554	14.62
773.302	11.62
774.049	15.62
774.796	18.62
775.543	13.62
776.29	15.62
777.036	17.62
777.783	16.62
778.53	17.62
779.276	18.62
780.023	16.62
780.769	14.62
781.516	15.62
782.262	14.62
783.008	16.62
783.754	18.62
784.5	13.62
785.246	14.62
785.992	14.62
786.738	15.62
787.484	14.62
788.23	13.62
788.975	16.62
789.721	13.62
790.466	16.62
791.212	11.62
791.957	16.62
792.702	14.62
793.447	13.62
794.193	14.62
794.938	14.62
795.683	16.62
796.427	12.62
797.172	15.62
797.917	12.62
798.662	11.62
799.406	10.62
800.151	11.62
800.895	14.62
801.64	12.62
802.384	9.62
803.128	10.62
803.872	11.62
804.616	11.62
805.36	9.62
806.104	10.62
806.848	10.62
807.592	12.62
808.336	10.62
809.079	7.62
809.823	9.62
810.566	6.62
811.31	8.62
812.053	6.62
812.796	6.62
813.539	9.62
814.283	8.62
815.026	7.62
815.769	9.62
816.511	8.62
817.254	8.62
817.997	7.62
818.74	8.62
819.482	7.62
820.225	7.62
820.967	6.62
821.71	5.62
822.452	8.62
823.194	6.62
823.936	9.62
824.678	7.62
825.42	7.62
826.162	7.62
826.904	4.62
827.646	6.62
828.388	6.62
829.129	5.62
829.871	7.62
830.612	5.62
831.354	6.62
832.095	6.62
832.836	6.62
833.577	4.62
834.319	6.62
835.06	4.62
835.801	7.62
836.542	8.62
837.282	2.62
838.023	5.62
838.764	6.62
839.504	2.62
840.245	5.62
840.985	3.62
841.726	6.62
842.466	5.62
843.206	6.62
843.946	4.62
844.687	4.62
845.427	6.62
846.166	2.62
846.906	5.62
847.646	5.62
848.386	3.62
849.125	2.62
849.865	5.62
850.605	7.62
851.344	1.62
852.083	4.62
852.823	5.62
853.562	3.62
854.301	3.62
855.04	2.62
855.779	4.62
856.518	2.62
857.257	2.62
857.995	3.62
858.734	2.62
859.473	5.62
860.211	2.62
860.95	3.62
861.688	2.62
862.426	2.62
863.165	3.62
863.903	2.62
864.641	6.62
865.379	-1.38
866.117	2.62
866.855	4.62
867.593	0.62
868.33	3.62
869.068	1.62
869.806	2.62
870.543	1.62
871.28	3.62
872.018	2.62
872.755	3.62
873.492	3.62
874.229	1.62
874.967	3.62
875.703	2.62
876.44	1.62
877.177	2.62
877.914	1.62
878.651	1.62
879.387	0.62
880.124	2.62
880.86	0.62
881.597	0.62
882.333	1.62
883.069	0.62
883.806	2.62
884.542	2.62
885.278	1.62
886.014	3.62
886.749	2.62
887.485	0.62
888.221	-0.38
888.957	0.62
889.692	2.62
890.428	1.62
891.163	1.62
891.899	1.62
892.634	0.62
893.369	-0.38
894.104	-0.38
894.839	1.62
895.574	1.62
896.309	0.62
897.044	0.62
897.779	0.62
898.514	-0.38
899.248	0.62
899.983	1.62
900.717	-0.38
901.452	0.62
902.186	0.62
902.92	-0.38
903.654	0.62
904.389	-0.38
905.123	0.62
905.857	-0.38
906.59	2.62
907.324	0.62
908.058	1.62
908.792	0.62
909.525	-1.38
910.259	-1.38
910.992	-0.38
911.726	0.62
912.459	-0.38
913.192	-0.38
913.925	0.62
914.658	-1.38
915.391	-0.38
916.124	-0.38
916.857	1.62
917.59	1.62
918.323	-0.38
919.055	0.62
919.788	-1.38
920.521	0.62
921.253	0.62
921.985	-0.38
922.718	0.62
923.45	0.62
924.182	1.62
924.914	-0.38
925.646	-1.38
926.378	2.62
927.11	-0.38
927.841	-0.38
928.573	-3.38
929.305	1.62
930.036	-1.38
930.768	1.62
931.499	1.62
932.23	-1.38
932.962	0.62
933.693	1.62
934.424	2.62
935.155	-1.38
935.886	-0.38
936.617	-1.38
937.348	-0.38
938.078	-1.38
938.809	0.62
939.54	0.62
940.27	1.62
941.001	-1.38
941.731	0.62
942.461	-0.38
943.191	0.62
943.922	-0.38
944.652	-1.38
945.382	1.62
946.112	-2.38
946.841	1.62
947.571	-0.38
948.301	1.62
949.031	-1.38
949.76	-1.38
950.49	0.62
951.219	0.62
951.948	-0.38
952.678	-2.38
953.407	0.62
954.136	-0.38
954.865	0.62
955.594	-0.38
956.323	-1.38
957.052	1.62
957.78	2.62
958.509	-0.38
959.238	-1.38
959.966	-1.38
960.695	-0.38
961.423	0.62
962.151	1.62
962.88	2.62
963.608	0.62
964.336	-0.38
965.064	-0.38
965.792	-0.38
966.52	-1.38
967.247	-0.38
967.975	-0.38
968.703	0.62
969.43	1.62
970.158	0.62
970.885	1.62
971.613	-1.38
972.34	0.62
973.067	-0.38
973.794	-2.38
974.521	0.62
975.248	0.62
975.975	0.62
976.702	0.62
977.429	-1.38
978.156	0.62
978.882	-2.38
979.609	2.62
980.335	-4.38
981.062	1.62
981.788	-0.38
982.514	-0.38
983.24	0.62
983.967	0.62
984.693	-0.38
985.419	-0.38
986.144	-0.38
986.87	0.62
987.596	-1.38
988.322	-1.38
989.047	-1.38
989.773	1.62
990.498	-1.38
991.224	0.62
991.949	-1.38
992.674	-0.38
993.399	1.62
994.124	0.62
994.849	-1.38
995.574	0.62
996.299	0.62
997.024	1.62
997.749	-1.38
998.473	-0.38
999.198	-0.38
999.922	1.62
1000.647	-1.38
1001.371	2.62
1002.095	-0.38
1002.82	-0.38
1003.544	-1.38
1004.268	4.62
1004.992	5.62
1005.716	2.62
1006.439	2.62
1007.163	4.62
1007.887	5.62
1008.611	0.62
1009.334	0.62
1010.058	1.62
1010.781	0.62
1011.504	1.62
1012.228	-0.38
1012.951	0.62
1013.674	-1.38
1014.397	0.62
1015.12	-0.38
