节点500_705_QEPB04081__325__20-50-34-491.txt的数据

Date: Wed Nov 12 20:50:34 CST 2025
User: PC
Spectrometer: QEPB0408
触发模式: 0
积分时间 (秒): 1.000000E-2
Scans to average: 1
启用暗噪声校正: true
启用非线性校正: false
滑动平均宽度: 0
X轴模式: Wavelengths
Number of Pixels in Spectrum: 1044
>>>>>Begin Spectral Data<<<<<
220.843	5.62
221.644	5.62
222.444	4.62
223.244	5.62
224.045	4.62
224.845	6.62
225.645	5.62
226.445	3.62
227.245	6.62
228.045	8.62
228.845	8.62
229.645	6.62
230.444	10.62
231.244	9.62
232.043	8.62
232.843	7.62
233.642	6.62
234.442	7.62
235.241	9.62
236.04	11.62
236.839	10.62
237.638	9.62
238.437	12.62
239.236	11.62
240.035	11.62
240.833	11.62
241.632	13.62
242.43	12.62
243.229	14.62
244.027	14.62
244.826	11.62
245.624	12.62
246.422	14.62
247.22	14.62
248.018	14.62
248.816	15.62
249.614	15.62
250.412	15.62
251.21	16.62
252.007	17.62
252.805	19.62
253.602	17.62
254.4	19.62
255.197	17.62
255.994	17.62
256.791	18.62
257.589	20.62
258.386	22.62
259.183	21.62
259.979	24.62
260.776	21.62
261.573	23.62
262.37	23.62
263.166	26.62
263.963	24.62
264.759	27.62
265.556	25.62
266.352	26.62
267.148	29.62
267.944	28.62
268.74	28.62
269.536	30.62
270.332	28.62
271.128	30.62
271.924	29.62
272.719	32.62
273.515	33.62
274.311	32.62
275.106	33.62
275.901	30.62
276.697	34.62
277.492	34.62
278.287	34.62
279.082	32.62
279.877	34.62
280.672	34.62
281.467	36.62
282.262	34.62
283.056	32.62
283.851	33.62
284.646	31.62
285.44	30.62
286.234	33.62
287.029	33.62
287.823	33.62
288.617	32.62
289.411	32.62
290.205	33.62
290.999	30.62
291.793	32.62
292.587	28.62
293.381	28.62
294.174	30.62
294.968	28.62
295.761	28.62
296.555	24.62
297.348	27.62
298.141	25.62
298.935	27.62
299.728	26.62
300.521	25.62
301.314	24.62
302.107	23.62
302.899	20.62
303.692	18.62
304.485	19.62
305.277	23.62
306.07	20.62
306.862	22.62
307.655	21.62
308.447	22.62
309.239	20.62
310.031	19.62
310.823	19.62
311.615	20.62
312.407	20.62
313.199	14.62
313.991	17.62
314.783	17.62
315.574	15.62
316.366	16.62
317.157	13.62
317.949	12.62
318.74	17.62
319.531	12.62
320.322	14.62
321.113	13.62
321.904	12.62
322.695	13.62
323.486	12.62
324.277	14.62
325.068	12.62
325.858	14.62
326.649	13.62
327.439	13.62
328.23	11.62
329.02	8.62
329.81	12.62
330.6	10.62
331.391	11.62
332.181	12.62
332.971	10.62
333.76	15.62
334.55	10.62
335.34	12.62
336.13	12.62
336.919	10.62
337.709	10.62
338.498	11.62
339.287	9.62
340.077	10.62
340.866	12.62
341.655	10.62
342.444	11.62
343.233	12.62
344.022	12.62
344.811	10.62
345.6	12.62
346.388	12.62
347.177	12.62
347.965	8.62
348.754	12.62
349.542	9.62
350.33	12.62
351.119	10.62
351.907	9.62
352.695	12.62
353.483	12.62
354.271	11.62
355.059	10.62
355.846	9.62
356.634	11.62
357.422	8.62
358.209	8.62
358.997	8.62
359.784	12.62
360.571	9.62
361.359	6.62
362.146	10.62
362.933	8.62
363.72	9.62
364.507	7.62
365.294	8.62
366.081	9.62
366.867	9.62
367.654	6.62
368.44	8.62
369.227	10.62
370.013	9.62
370.8	11.62
371.586	10.62
372.372	8.62
373.158	10.62
373.944	9.62
374.73	8.62
375.516	8.62
376.302	8.62
377.088	10.62
377.873	9.62
378.659	11.62
379.445	8.62
380.23	7.62
381.015	9.62
381.801	6.62
382.586	9.62
383.371	10.62
384.156	11.62
384.941	10.62
385.726	7.62
386.511	12.62
387.296	8.62
388.08	10.62
388.865	11.62
389.649	9.62
390.434	10.62
391.218	10.62
392.003	11.62
392.787	11.62
393.571	11.62
394.355	10.62
395.139	11.62
395.923	12.62
396.707	12.62
397.491	13.62
398.274	9.62
399.058	14.62
399.842	14.62
400.625	12.62
401.408	14.62
402.192	12.62
402.975	11.62
403.758	13.62
404.541	12.62
405.324	13.62
406.107	14.62
406.89	17.62
407.673	16.62
408.456	14.62
409.238	16.62
410.021	14.62
410.803	16.62
411.586	17.62
412.368	16.62
413.151	18.62
413.933	16.62
414.715	17.62
415.497	18.62
416.279	18.62
417.061	19.62
417.843	20.62
418.624	21.62
419.406	19.62
420.188	18.62
420.969	20.62
421.751	21.62
422.532	21.62
423.313	23.62
424.095	24.62
424.876	25.62
425.657	27.62
426.438	23.62
427.219	25.62
428	26.62
428.78	27.62
429.561	29.62
430.342	29.62
431.122	32.62
431.903	31.62
432.683	33.62
433.464	35.62
434.244	38.62
435.024	39.62
435.804	38.62
436.584	43.62
437.364	46.62
438.144	47.62
438.924	51.62
439.704	50.62
440.483	56.62
441.263	60.62
442.042	62.62
442.822	69.62
443.601	75.62
444.38	80.62
445.16	88.62
445.939	95.62
446.718	103.62
447.497	110.62
448.276	120.62
449.054	131.62
449.833	145.62
450.612	162.62
451.391	174.62
452.169	194.62
452.948	214.62
453.726	236.62
454.504	259.62
455.282	295.62
456.061	338.62
456.839	372.62
457.617	420.62
458.395	455.62
459.172	508.62
459.95	572.62
460.728	633.62
461.506	699.62
462.283	788.62
463.061	881.62
463.838	985.62
464.615	1099.62
465.393	1213.62
466.17	1349.62
466.947	1500.62
467.724	1661.62
468.501	1836.62
469.278	2054.62
470.055	2266.62
470.831	2511.62
471.608	2753.62
472.385	3016.62
473.161	3359.62
473.938	3695.62
474.714	4043.62
475.49	4444.62
476.266	4895.62
477.043	5284.62
477.819	5811.62
478.595	6374.62
479.371	6991.62
480.146	7595.62
480.922	8304.62
481.698	9032.62
482.473	9849.62
483.249	10704.62
484.024	11612.62
484.8	12628.62
485.575	13674.62
486.35	14871.62
487.126	16109.62
487.901	17443.62
488.676	18759.62
489.451	20188.62
490.225	21694.62
491	23342.62
491.775	24971.62
492.55	26650.62
493.324	28391.62
494.099	30171.62
494.873	32046.62
495.647	33757.62
496.422	35603.62
497.196	37344.62
497.97	39030.62
498.744	40528.62
499.518	42043.62
500.292	43514.62
501.066	44578.62
501.839	45424.62
502.613	46130.62
503.387	46791.62
504.16	47281.62
504.934	47369.62
505.707	47232.62
506.48	46973.62
507.253	46300.62
508.027	45689.62
508.8	44729.62
509.573	43663.62
510.346	42590.62
511.118	41546.62
511.891	40317.62
512.664	38810.62
513.437	37238.62
514.209	35935.62
514.982	34503.62
515.754	33133.62
516.526	31727.62
517.298	30492.62
518.071	29207.62
518.843	28074.62
519.615	26931.62
520.387	25924.62
521.159	24904.62
521.93	23789.62
522.702	22865.62
523.474	21885.62
524.245	20981.62
525.017	20054.62
525.788	19159.62
526.56	18327.62
527.331	17537.62
528.102	16598.62
528.873	15893.62
529.644	15079.62
530.415	14402.62
531.186	13721.62
531.957	12962.62
532.728	12302.62
533.498	11656.62
534.269	11054.62
535.039	10459.62
535.81	9909.62
536.58	9327.62
537.351	8862.62
538.121	8366.62
538.891	7923.62
539.661	7508.62
540.431	7092.62
541.201	6739.62
541.971	6389.62
542.741	6070.62
543.51	5745.62
544.28	5454.62
545.05	5192.62
545.819	4941.62
546.588	4738.62
547.358	4502.62
548.127	4267.62
548.896	4074.62
549.665	3829.62
550.434	3652.62
551.203	3452.62
551.972	3271.62
552.741	3112.62
553.51	2934.62
554.278	2773.62
555.047	2604.62
555.815	2477.62
556.584	2334.62
557.352	2204.62
558.121	2075.62
558.889	1950.62
559.657	1866.62
560.425	1757.62
561.193	1677.62
561.961	1578.62
562.729	1486.62
563.496	1405.62
564.264	1326.62
565.032	1268.62
565.799	1206.62
566.567	1129.62
567.334	1063.62
568.101	997.62
568.869	965.62
569.636	896.62
570.403	853.62
571.17	796.62
571.937	755.62
572.704	720.62
573.471	673.62
574.237	637.62
575.004	600.62
575.771	562.62
576.537	528.62
577.303	508.62
578.07	476.62
578.836	458.62
579.602	424.62
580.368	399.62
581.134	383.62
581.9	373.62
582.666	345.62
583.432	334.62
584.198	315.62
584.964	299.62
585.729	286.62
586.495	267.62
587.26	251.62
588.025	238.62
588.791	221.62
589.556	213.62
590.321	206.62
591.086	192.62
591.851	186.62
592.616	178.62
593.381	163.62
594.146	159.62
594.911	152.62
595.675	146.62
596.44	142.62
597.204	131.62
597.969	124.62
598.733	121.62
599.497	116.62
600.261	109.62
601.025	108.62
601.79	102.62
602.553	103.62
603.317	93.62
604.081	93.62
604.845	88.62
605.609	84.62
606.372	80.62
607.136	79.62
607.899	74.62
608.662	68.62
609.426	70.62
610.189	67.62
610.952	63.62
611.715	64.62
612.478	58.62
613.241	57.62
614.004	58.62
614.767	53.62
615.529	50.62
616.292	48.62
617.055	48.62
617.817	45.62
618.579	45.62
619.342	43.62
620.104	41.62
620.866	41.62
621.628	40.62
622.39	36.62
623.152	37.62
623.914	31.62
624.676	35.62
625.438	36.62
626.199	30.62
626.961	30.62
627.722	31.62
628.484	30.62
629.245	29.62
630.006	30.62
630.768	28.62
631.529	27.62
632.29	26.62
633.051	25.62
633.812	27.62
634.573	24.62
635.333	23.62
636.094	23.62
636.855	23.62
637.615	21.62
638.376	21.62
639.136	21.62
639.896	22.62
640.657	20.62
641.417	19.62
642.177	18.62
642.937	18.62
643.697	15.62
644.457	18.62
645.216	18.62
645.976	15.62
646.736	16.62
647.495	13.62
648.255	18.62
649.014	13.62
649.774	14.62
650.533	13.62
651.292	13.62
652.051	15.62
652.81	13.62
653.569	15.62
654.328	12.62
655.087	12.62
655.846	12.62
656.604	13.62
657.363	12.62
658.121	10.62
658.88	11.62
659.638	10.62
660.397	10.62
661.155	9.62
661.913	10.62
662.671	10.62
663.429	10.62
664.187	12.62
664.945	9.62
665.703	8.62
666.46	10.62
667.218	10.62
667.976	11.62
668.733	10.62
669.49	9.62
670.248	10.62
671.005	10.62
671.762	8.62
672.519	9.62
673.276	8.62
674.033	7.62
674.79	10.62
675.547	9.62
676.304	8.62
677.06	6.62
677.817	9.62
678.574	8.62
679.33	8.62
680.086	10.62
680.843	8.62
681.599	6.62
682.355	8.62
683.111	4.62
683.867	8.62
684.623	11.62
685.379	8.62
686.135	9.62
686.89	7.62
687.646	9.62
688.402	7.62
689.157	7.62
689.912	8.62
690.668	7.62
691.423	8.62
692.178	6.62
692.933	6.62
693.688	6.62
694.443	7.62
695.198	7.62
695.953	6.62
696.708	7.62
697.462	6.62
698.217	6.62
698.972	6.62
699.726	7.62
700.48	7.62
701.235	6.62
701.989	9.62
702.743	7.62
703.497	8.62
704.251	5.62
705.005	7.62
705.759	7.62
706.513	7.62
707.266	9.62
708.02	8.62
708.774	6.62
709.527	5.62
710.28	7.62
711.034	7.62
711.787	8.62
712.54	6.62
713.293	6.62
714.046	8.62
714.799	7.62
715.552	5.62
716.305	6.62
717.058	7.62
717.81	8.62
718.563	8.62
719.315	4.62
720.068	9.62
720.82	9.62
721.573	5.62
722.325	8.62
723.077	5.62
723.829	8.62
724.581	6.62
725.333	7.62
726.085	8.62
726.836	6.62
727.588	8.62
728.34	8.62
729.091	7.62
729.843	7.62
730.594	10.62
731.346	7.62
732.097	6.62
732.848	9.62
733.599	9.62
734.35	9.62
735.101	9.62
735.852	11.62
736.603	10.62
737.354	8.62
738.104	7.62
738.855	9.62
739.605	8.62
740.356	7.62
741.106	9.62
741.856	9.62
742.607	10.62
743.357	9.62
744.107	10.62
744.857	11.62
745.607	10.62
746.357	9.62
747.106	10.62
747.856	9.62
748.606	10.62
749.355	11.62
750.105	10.62
750.854	10.62
751.603	9.62
752.353	12.62
753.102	9.62
753.851	10.62
754.6	11.62
755.349	10.62
756.098	12.62
756.847	11.62
757.595	11.62
758.344	14.62
759.093	13.62
759.841	12.62
760.589	12.62
761.338	13.62
762.086	10.62
762.834	12.62
763.582	11.62
764.331	13.62
765.079	13.62
765.826	13.62
766.574	13.62
767.322	11.62
768.07	12.62
768.817	13.62
769.565	11.62
770.312	16.62
771.06	13.62
771.807	15.62
772.554	14.62
773.302	12.62
774.049	12.62
774.796	15.62
775.543	17.62
776.29	14.62
777.036	15.62
777.783	16.62
778.53	16.62
779.276	14.62
780.023	14.62
780.769	16.62
781.516	14.62
782.262	14.62
783.008	17.62
783.754	14.62
784.5	16.62
785.246	17.62
785.992	14.62
786.738	16.62
787.484	13.62
788.23	15.62
788.975	16.62
789.721	14.62
790.466	15.62
791.212	13.62
791.957	14.62
792.702	15.62
793.447	13.62
794.193	14.62
794.938	14.62
795.683	13.62
796.427	11.62
797.172	13.62
797.917	12.62
798.662	12.62
799.406	13.62
800.151	12.62
800.895	10.62
801.64	14.62
802.384	12.62
803.128	8.62
803.872	10.62
804.616	13.62
805.36	11.62
806.104	10.62
806.848	11.62
807.592	8.62
808.336	8.62
809.079	10.62
809.823	9.62
810.566	5.62
811.31	9.62
812.053	11.62
812.796	7.62
813.539	8.62
814.283	9.62
815.026	8.62
815.769	10.62
816.511	11.62
817.254	8.62
817.997	7.62
818.74	9.62
819.482	6.62
820.225	7.62
820.967	8.62
821.71	6.62
822.452	5.62
823.194	8.62
823.936	7.62
824.678	7.62
825.42	7.62
826.162	9.62
826.904	5.62
827.646	4.62
828.388	4.62
829.129	5.62
829.871	7.62
830.612	4.62
831.354	6.62
832.095	6.62
832.836	4.62
833.577	4.62
834.319	8.62
835.06	3.62
835.801	6.62
836.542	6.62
837.282	3.62
838.023	7.62
838.764	6.62
839.504	3.62
840.245	5.62
840.985	5.62
841.726	6.62
842.466	6.62
843.206	7.62
843.946	5.62
844.687	2.62
845.427	3.62
846.166	4.62
846.906	5.62
847.646	5.62
848.386	4.62
849.125	5.62
849.865	4.62
850.605	3.62
851.344	4.62
852.083	5.62
852.823	4.62
853.562	3.62
854.301	3.62
855.04	3.62
855.779	2.62
856.518	4.62
857.257	1.62
857.995	4.62
858.734	3.62
859.473	4.62
860.211	3.62
860.95	3.62
861.688	4.62
862.426	3.62
863.165	2.62
863.903	2.62
864.641	2.62
865.379	3.62
866.117	2.62
866.855	5.62
867.593	0.62
868.33	4.62
869.068	2.62
869.806	1.62
870.543	2.62
871.28	2.62
872.018	2.62
872.755	0.62
873.492	2.62
874.229	1.62
874.967	2.62
875.703	2.62
876.44	2.62
877.177	3.62
877.914	4.62
878.651	0.62
879.387	1.62
880.124	4.62
880.86	3.62
881.597	1.62
882.333	1.62
883.069	0.62
883.806	1.62
884.542	3.62
885.278	0.62
886.014	3.62
886.749	2.62
887.485	0.62
888.221	1.62
888.957	1.62
889.692	1.62
890.428	1.62
891.163	0.62
891.899	-0.38
892.634	2.62
893.369	0.62
894.104	0.62
894.839	2.62
895.574	1.62
896.309	2.62
897.044	0.62
897.779	-1.38
898.514	0.62
899.248	0.62
899.983	-0.38
900.717	-2.38
901.452	-0.38
902.186	1.62
902.92	0.62
903.654	0.62
904.389	0.62
905.123	0.62
905.857	2.62
906.59	2.62
907.324	1.62
908.058	-3.38
908.792	-0.38
909.525	2.62
910.259	-0.38
910.992	-1.38
911.726	0.62
912.459	1.62
913.192	-1.38
913.925	2.62
914.658	1.62
915.391	1.62
916.124	2.62
916.857	0.62
917.59	0.62
918.323	-1.38
919.055	1.62
919.788	0.62
920.521	-0.38
921.253	-0.38
921.985	-2.38
922.718	1.62
923.45	-1.38
924.182	-0.38
924.914	0.62
925.646	-1.38
926.378	0.62
927.11	0.62
927.841	0.62
928.573	2.62
929.305	-0.38
930.036	0.62
930.768	-1.38
931.499	1.62
932.23	-0.38
932.962	1.62
933.693	0.62
934.424	-0.38
935.155	-0.38
935.886	-1.38
936.617	1.62
937.348	2.62
938.078	1.62
938.809	2.62
939.54	-3.38
940.27	0.62
941.001	0.62
941.731	1.62
942.461	-0.38
943.191	-1.38
943.922	-0.38
944.652	0.62
945.382	-0.38
946.112	0.62
946.841	2.62
947.571	-0.38
948.301	-0.38
949.031	1.62
949.76	-0.38
950.49	-1.38
951.219	1.62
951.948	0.62
952.678	-1.38
953.407	0.62
954.136	-0.38
954.865	-0.38
955.594	1.62
956.323	1.62
957.052	0.62
957.78	0.62
958.509	-1.38
959.238	1.62
959.966	-0.38
960.695	0.62
961.423	-0.38
962.151	0.62
962.88	0.62
963.608	-2.38
964.336	0.62
965.064	0.62
965.792	-0.38
966.52	-0.38
967.247	-2.38
967.975	1.62
968.703	0.62
969.43	2.62
970.158	0.62
970.885	-0.38
971.613	-0.38
972.34	-1.38
973.067	1.62
973.794	-0.38
974.521	-1.38
975.248	-0.38
975.975	-2.38
976.702	0.62
977.429	0.62
978.156	0.62
978.882	0.62
979.609	0.62
980.335	1.62
981.062	1.62
981.788	-1.38
982.514	0.62
983.24	0.62
983.967	-1.38
984.693	-0.38
985.419	0.62
986.144	0.62
986.87	-1.38
987.596	-3.38
988.322	-0.38
989.047	0.62
989.773	0.62
990.498	-0.38
991.224	-0.38
991.949	-0.38
992.674	1.62
993.399	-0.38
994.124	0.62
994.849	1.62
995.574	0.62
996.299	1.62
997.024	-0.38
997.749	-0.38
998.473	-3.38
999.198	-0.38
999.922	0.62
1000.647	-0.38
1001.371	1.62
1002.095	-0.38
1002.82	-1.38
1003.544	-1.38
1004.268	2.62
1004.992	2.62
1005.716	4.62
1006.439	2.62
1007.163	4.62
1007.887	4.62
1008.611	-0.38
1009.334	-0.38
1010.058	-1.38
1010.781	-0.38
1011.504	0.62
1012.228	0.62
1012.951	2.62
1013.674	-1.38
1014.397	-2.38
1015.12	2.62
