节点500_705_QEPB04081__158__20-48-29-064.txt的数据

Date: Wed Nov 12 20:48:29 CST 2025
User: PC
Spectrometer: QEPB0408
触发模式: 0
积分时间 (秒): 1.000000E-2
Scans to average: 1
启用暗噪声校正: true
启用非线性校正: false
滑动平均宽度: 0
X轴模式: Wavelengths
Number of Pixels in Spectrum: 1044
>>>>>Begin Spectral Data<<<<<
220.843	5
221.644	7
222.444	6
223.244	9
224.045	7
224.845	9
225.645	8
226.445	8
227.245	8
228.045	8
228.845	8
229.645	8
230.444	7
231.244	10
232.043	9
232.843	8
233.642	10
234.442	9
235.241	10
236.04	9
236.839	8
237.638	11
238.437	10
239.236	12
240.035	14
240.833	11
241.632	10
242.43	14
243.229	13
244.027	13
244.826	12
245.624	17
246.422	14
247.22	15
248.018	16
248.816	16
249.614	15
250.412	15
251.21	15
252.007	17
252.805	19
253.602	21
254.4	18
255.197	16
255.994	22
256.791	22
257.589	24
258.386	21
259.183	24
259.979	25
260.776	22
261.573	25
262.37	26
263.166	25
263.963	30
264.759	30
265.556	26
266.352	29
267.148	30
267.944	31
268.74	31
269.536	30
270.332	32
271.128	32
271.924	35
272.719	35
273.515	32
274.311	31
275.106	34
275.901	36
276.697	36
277.492	35
278.287	33
279.082	37
279.877	34
280.672	39
281.467	35
282.262	37
283.056	34
283.851	36
284.646	34
285.44	37
286.234	38
287.029	31
287.823	32
288.617	35
289.411	33
290.205	32
290.999	33
291.793	33
292.587	31
293.381	30
294.174	30
294.968	31
295.761	29
296.555	27
297.348	27
298.141	28
298.935	28
299.728	27
300.521	24
301.314	25
302.107	25
302.899	23
303.692	22
304.485	24
305.277	22
306.07	24
306.862	22
307.655	22
308.447	20
309.239	21
310.031	19
310.823	21
311.615	19
312.407	20
313.199	19
313.991	15
314.783	19
315.574	15
316.366	16
317.157	15
317.949	16
318.74	15
319.531	13
320.322	17
321.113	11
321.904	15
322.695	16
323.486	12
324.277	13
325.068	11
325.858	14
326.649	12
327.439	13
328.23	13
329.02	13
329.81	10
330.6	11
331.391	15
332.181	14
332.971	12
333.76	15
334.55	13
335.34	13
336.13	13
336.919	14
337.709	13
338.498	14
339.287	13
340.077	13
340.866	11
341.655	12
342.444	11
343.233	13
344.022	12
344.811	11
345.6	10
346.388	11
347.177	12
347.965	10
348.754	14
349.542	10
350.33	13
351.119	10
351.907	13
352.695	13
353.483	10
354.271	12
355.059	13
355.846	11
356.634	10
357.422	8
358.209	12
358.997	8
359.784	10
360.571	10
361.359	11
362.146	9
362.933	12
363.72	9
364.507	12
365.294	9
366.081	10
366.867	9
367.654	10
368.44	9
369.227	11
370.013	10
370.8	10
371.586	9
372.372	9
373.158	9
373.944	9
374.73	12
375.516	10
376.302	9
377.088	8
377.873	11
378.659	9
379.445	10
380.23	10
381.015	11
381.801	8
382.586	11
383.371	10
384.156	13
384.941	9
385.726	11
386.511	11
387.296	9
388.08	11
388.865	10
389.649	12
390.434	12
391.218	13
392.003	11
392.787	10
393.571	14
394.355	12
395.139	12
395.923	16
396.707	12
397.491	11
398.274	15
399.058	16
399.842	14
400.625	14
401.408	12
402.192	15
402.975	14
403.758	15
404.541	14
405.324	14
406.107	15
406.89	17
407.673	18
408.456	18
409.238	14
410.021	18
410.803	19
411.586	14
412.368	18
413.151	15
413.933	18
414.715	19
415.497	18
416.279	20
417.061	18
417.843	21
418.624	19
419.406	22
420.188	25
420.969	24
421.751	23
422.532	23
423.313	25
424.095	24
424.876	25
425.657	26
426.438	26
427.219	30
428	30
428.78	29
429.561	29
430.342	30
431.122	31
431.903	33
432.683	35
433.464	34
434.244	36
435.024	37
435.804	40
436.584	45
437.364	44
438.144	46
438.924	50
439.704	53
440.483	56
441.263	59
442.042	66
442.822	69
443.601	70
444.38	75
445.16	80
445.939	89
446.718	99
447.497	109
448.276	119
449.054	125
449.833	143
450.612	154
451.391	169
452.169	190
452.948	203
453.726	235
454.504	258
455.282	286
456.061	319
456.839	348
457.617	397
458.395	435
459.172	498
459.95	550
460.728	613
461.506	689
462.283	773
463.061	845
463.838	953
464.615	1057
465.393	1182
466.17	1313
466.947	1482
467.724	1643
468.501	1812
469.278	2019
470.055	2225
470.831	2483
471.608	2735
472.385	3043
473.161	3372
473.938	3698
474.714	4079
475.49	4479
476.266	4930
477.043	5392
477.819	5941
478.595	6508
479.371	7179
480.146	7799
480.922	8592
481.698	9347
482.473	10187
483.249	11117
484.024	12080
484.8	13185
485.575	14334
486.35	15570
487.126	16940
487.901	18335
488.676	19774
489.451	21482
490.225	23023
491	24772
491.775	26525
492.55	28441
493.324	30255
494.099	32172
494.873	34067
495.647	35901
496.422	37911
497.196	39787
497.97	41428
498.744	42908
499.518	44551
500.292	45873
501.066	46785
501.839	47626
502.613	48326
503.387	48863
504.16	49144
504.934	49052
505.707	48826
506.48	48171
507.253	47533
508.027	46643
508.8	45424
509.573	44246
510.346	43057
511.118	41862
511.891	40399
512.664	38772
513.437	37217
514.209	35756
514.982	34343
515.754	32899
516.526	31477
517.298	30174
518.071	28936
518.843	27796
519.615	26668
520.387	25640
521.159	24588
521.93	23560
522.702	22605
523.474	21638
524.245	20703
525.017	19654
525.788	18916
526.56	18034
527.331	17253
528.102	16338
528.873	15493
529.644	14742
530.415	14091
531.186	13371
531.957	12627
532.728	11984
533.498	11366
534.269	10719
535.039	10135
535.81	9567
536.58	9059
537.351	8522
538.121	8113
538.891	7715
539.661	7237
540.431	6865
541.201	6532
541.971	6170
542.741	5872
543.51	5558
544.28	5278
545.05	5053
545.819	4805
546.588	4610
547.358	4373
548.127	4137
548.896	3919
549.665	3717
550.434	3525
551.203	3351
551.972	3183
552.741	2987
553.51	2821
554.278	2655
555.047	2505
555.815	2389
556.584	2226
557.352	2114
558.121	2004
558.889	1896
559.657	1792
560.425	1691
561.193	1593
561.961	1509
562.729	1428
563.496	1356
564.264	1269
565.032	1197
565.799	1140
566.567	1085
567.334	1017
568.101	978
568.869	914
569.636	859
570.403	833
571.17	780
571.937	726
572.704	689
573.471	650
574.237	619
575.004	575
575.771	540
576.537	514
577.303	485
578.07	470
578.836	426
579.602	409
580.368	383
581.134	372
581.9	345
582.666	335
583.432	315
584.198	301
584.964	288
585.729	271
586.495	260
587.26	243
588.025	234
588.791	214
589.556	207
590.321	192
591.086	193
591.851	178
592.616	175
593.381	162
594.146	154
594.911	146
595.675	144
596.44	134
597.204	129
597.969	125
598.733	121
599.497	107
600.261	109
601.025	101
601.79	99
602.553	95
603.317	94
604.081	88
604.845	86
605.609	82
606.372	79
607.136	74
607.899	73
608.662	67
609.426	67
610.189	65
610.952	60
611.715	61
612.478	58
613.241	57
614.004	55
614.767	53
615.529	52
616.292	48
617.055	45
617.817	45
618.579	44
619.342	44
620.104	42
620.866	41
621.628	42
622.39	35
623.152	37
623.914	33
624.676	35
625.438	34
626.199	32
626.961	30
627.722	28
628.484	29
629.245	30
630.006	27
630.768	29
631.529	26
632.29	25
633.051	26
633.812	26
634.573	27
635.333	23
636.094	22
636.855	21
637.615	24
638.376	20
639.136	21
639.896	18
640.657	17
641.417	19
642.177	20
642.937	17
643.697	17
644.457	19
645.216	18
645.976	17
646.736	19
647.495	16
648.255	14
649.014	14
649.774	10
650.533	15
651.292	15
652.051	15
652.81	13
653.569	15
654.328	12
655.087	11
655.846	15
656.604	14
657.363	12
658.121	11
658.88	10
659.638	13
660.397	11
661.155	12
661.913	10
662.671	10
663.429	13
664.187	10
664.945	12
665.703	9
666.46	11
667.218	10
667.976	11
668.733	10
669.49	11
670.248	8
671.005	12
671.762	8
672.519	9
673.276	9
674.033	10
674.79	10
675.547	7
676.304	9
677.06	7
677.817	8
678.574	6
679.33	7
680.086	9
680.843	8
681.599	9
682.355	8
683.111	8
683.867	6
684.623	9
685.379	11
686.135	8
686.89	8
687.646	8
688.402	9
689.157	8
689.912	8
690.668	5
691.423	5
692.178	7
692.933	8
693.688	7
694.443	8
695.198	9
695.953	9
696.708	8
697.462	7
698.217	8
698.972	8
699.726	5
700.48	6
701.235	7
701.989	6
702.743	9
703.497	7
704.251	7
705.005	8
705.759	5
706.513	9
707.266	9
708.02	8
708.774	6
709.527	8
710.28	11
711.034	6
711.787	7
712.54	8
713.293	6
714.046	8
714.799	7
715.552	9
716.305	6
717.058	8
717.81	9
718.563	8
719.315	7
720.068	9
720.82	10
721.573	12
722.325	9
723.077	9
723.829	8
724.581	9
725.333	8
726.085	10
726.836	6
727.588	10
728.34	8
729.091	8
729.843	10
730.594	9
731.346	8
732.097	11
732.848	8
733.599	9
734.35	10
735.101	9
735.852	9
736.603	11
737.354	10
738.104	9
738.855	11
739.605	12
740.356	13
741.106	11
741.856	9
742.607	12
743.357	9
744.107	11
744.857	11
745.607	12
746.357	9
747.106	10
747.856	13
748.606	12
749.355	14
750.105	10
750.854	10
751.603	13
752.353	9
753.102	14
753.851	13
754.6	11
755.349	14
756.098	14
756.847	13
757.595	15
758.344	13
759.093	13
759.841	10
760.589	14
761.338	14
762.086	15
762.834	13
763.582	10
764.331	16
765.079	15
765.826	16
766.574	14
767.322	15
768.07	13
768.817	16
769.565	17
770.312	14
771.06	15
771.807	15
772.554	14
773.302	14
774.049	13
774.796	18
775.543	15
776.29	18
777.036	17
777.783	15
778.53	17
779.276	15
780.023	17
780.769	15
781.516	19
782.262	19
783.008	16
783.754	17
784.5	19
785.246	18
785.992	14
786.738	14
787.484	16
788.23	16
788.975	18
789.721	14
790.466	16
791.212	17
791.957	13
792.702	15
793.447	16
794.193	14
794.938	14
795.683	13
796.427	13
797.172	12
797.917	15
798.662	14
799.406	14
800.151	15
800.895	13
801.64	10
802.384	14
803.128	11
803.872	14
804.616	12
805.36	9
806.104	11
806.848	14
807.592	11
808.336	13
809.079	8
809.823	11
810.566	10
811.31	11
812.053	10
812.796	9
813.539	9
814.283	8
815.026	8
815.769	11
816.511	9
817.254	11
817.997	5
818.74	8
819.482	9
820.225	8
820.967	8
821.71	7
822.452	9
823.194	6
823.936	8
824.678	9
825.42	6
826.162	7
826.904	7
827.646	7
828.388	9
829.129	7
829.871	9
830.612	6
831.354	8
832.095	5
832.836	5
833.577	7
834.319	7
835.06	10
835.801	5
836.542	7
837.282	6
838.023	5
838.764	6
839.504	6
840.245	5
840.985	6
841.726	5
842.466	5
843.206	5
843.946	4
844.687	6
845.427	5
846.166	4
846.906	5
847.646	5
848.386	4
849.125	3
849.865	4
850.605	3
851.344	4
852.083	3
852.823	6
853.562	3
854.301	4
855.04	6
855.779	5
856.518	4
857.257	2
857.995	3
858.734	4
859.473	2
860.211	3
860.95	2
861.688	5
862.426	4
863.165	3
863.903	2
864.641	4
865.379	4
866.117	2
866.855	3
867.593	4
868.33	2
869.068	3
869.806	4
870.543	5
871.28	2
872.018	2
872.755	1
873.492	3
874.229	2
874.967	1
875.703	3
876.44	2
877.177	1
877.914	1
878.651	3
879.387	1
880.124	-1
880.86	-1
881.597	3
882.333	2
883.069	2
883.806	1
884.542	3
885.278	2
886.014	1
886.749	4
887.485	2
888.221	0
888.957	-1
889.692	2
890.428	0
891.163	0
891.899	1
892.634	-1
893.369	1
894.104	3
894.839	4
895.574	2
896.309	3
897.044	1
897.779	1
898.514	-1
899.248	2
899.983	1
900.717	3
901.452	3
902.186	2
902.92	-1
903.654	0
904.389	1
905.123	-3
905.857	1
906.59	0
907.324	1
908.058	-1
908.792	3
909.525	0
910.259	1
910.992	0
911.726	0
912.459	2
913.192	1
913.925	1
914.658	1
915.391	-1
916.124	2
916.857	1
917.59	3
918.323	0
919.055	1
919.788	0
920.521	0
921.253	0
921.985	1
922.718	-1
923.45	4
924.182	2
924.914	1
925.646	0
926.378	3
927.11	-2
927.841	0
928.573	1
929.305	0
930.036	-1
930.768	-2
931.499	1
932.23	2
932.962	0
933.693	0
934.424	-1
935.155	2
935.886	-1
936.617	-1
937.348	0
938.078	0
938.809	1
939.54	1
940.27	0
941.001	1
941.731	0
942.461	1
943.191	0
943.922	1
944.652	1
945.382	3
946.112	1
946.841	1
947.571	-1
948.301	-3
949.031	1
949.76	-2
950.49	0
951.219	1
951.948	-1
952.678	1
953.407	0
954.136	2
954.865	-1
955.594	1
956.323	0
957.052	2
957.78	1
958.509	3
959.238	2
959.966	0
960.695	-1
961.423	-2
962.151	0
962.88	0
963.608	1
964.336	0
965.064	0
965.792	0
966.52	2
967.247	-1
967.975	1
968.703	-1
969.43	0
970.158	2
970.885	2
971.613	1
972.34	0
973.067	0
973.794	1
974.521	-1
975.248	1
975.975	0
976.702	0
977.429	0
978.156	2
978.882	1
979.609	-4
980.335	1
981.062	3
981.788	1
982.514	1
983.24	1
983.967	0
984.693	1
985.419	1
986.144	0
986.87	0
987.596	1
988.322	-2
989.047	2
989.773	-1
990.498	0
991.224	3
991.949	0
992.674	1
993.399	1
994.124	0
994.849	2
995.574	1
996.299	1
997.024	0
997.749	2
998.473	1
999.198	0
999.922	2
1000.647	1
1001.371	3
1002.095	-1
1002.82	-1
1003.544	-1
1004.268	6
1004.992	6
1005.716	4
1006.439	6
1007.163	6
1007.887	6
1008.611	2
1009.334	2
1010.058	0
1010.781	-1
1011.504	1
1012.228	3
1012.951	0
1013.674	0
1014.397	-2
1015.12	2
