节点500_705_QEPB04081__324__20-50-33-488.txt的数据

Date: Wed Nov 12 20:50:33 CST 2025
User: PC
Spectrometer: QEPB0408
触发模式: 0
积分时间 (秒): 1.000000E-2
Scans to average: 1
启用暗噪声校正: true
启用非线性校正: false
滑动平均宽度: 0
X轴模式: Wavelengths
Number of Pixels in Spectrum: 1044
>>>>>Begin Spectral Data<<<<<
220.843	4.75
221.644	6.75
222.444	5.75
223.244	5.75
224.045	7.75
224.845	8.75
225.645	6.75
226.445	9.75
227.245	8.75
228.045	7.75
228.845	8.75
229.645	5.75
230.444	10.75
231.244	10.75
232.043	8.75
232.843	8.75
233.642	8.75
234.442	9.75
235.241	12.75
236.04	10.75
236.839	10.75
237.638	11.75
238.437	11.75
239.236	9.75
240.035	11.75
240.833	11.75
241.632	12.75
242.43	11.75
243.229	16.75
244.027	11.75
244.826	14.75
245.624	14.75
246.422	13.75
247.22	15.75
248.018	13.75
248.816	18.75
249.614	14.75
250.412	15.75
251.21	15.75
252.007	17.75
252.805	17.75
253.602	21.75
254.4	15.75
255.197	19.75
255.994	20.75
256.791	21.75
257.589	20.75
258.386	19.75
259.183	20.75
259.979	23.75
260.776	21.75
261.573	24.75
262.37	24.75
263.166	23.75
263.963	27.75
264.759	22.75
265.556	24.75
266.352	30.75
267.148	30.75
267.944	29.75
268.74	29.75
269.536	32.75
270.332	28.75
271.128	30.75
271.924	31.75
272.719	32.75
273.515	33.75
274.311	31.75
275.106	34.75
275.901	32.75
276.697	33.75
277.492	33.75
278.287	32.75
279.082	34.75
279.877	32.75
280.672	32.75
281.467	36.75
282.262	31.75
283.056	35.75
283.851	34.75
284.646	36.75
285.44	34.75
286.234	33.75
287.029	34.75
287.823	34.75
288.617	33.75
289.411	33.75
290.205	31.75
290.999	31.75
291.793	30.75
292.587	31.75
293.381	32.75
294.174	31.75
294.968	28.75
295.761	28.75
296.555	28.75
297.348	28.75
298.141	30.75
298.935	25.75
299.728	29.75
300.521	26.75
301.314	24.75
302.107	24.75
302.899	24.75
303.692	21.75
304.485	23.75
305.277	22.75
306.07	25.75
306.862	22.75
307.655	22.75
308.447	20.75
309.239	19.75
310.031	20.75
310.823	18.75
311.615	19.75
312.407	18.75
313.199	22.75
313.991	18.75
314.783	14.75
315.574	18.75
316.366	17.75
317.157	17.75
317.949	17.75
318.74	15.75
319.531	12.75
320.322	12.75
321.113	15.75
321.904	15.75
322.695	15.75
323.486	12.75
324.277	14.75
325.068	14.75
325.858	13.75
326.649	15.75
327.439	15.75
328.23	14.75
329.02	14.75
329.81	13.75
330.6	13.75
331.391	12.75
332.181	12.75
332.971	11.75
333.76	9.75
334.55	13.75
335.34	17.75
336.13	11.75
336.919	15.75
337.709	12.75
338.498	12.75
339.287	9.75
340.077	12.75
340.866	11.75
341.655	10.75
342.444	13.75
343.233	13.75
344.022	13.75
344.811	11.75
345.6	13.75
346.388	10.75
347.177	13.75
347.965	10.75
348.754	12.75
349.542	12.75
350.33	11.75
351.119	12.75
351.907	10.75
352.695	10.75
353.483	11.75
354.271	11.75
355.059	11.75
355.846	10.75
356.634	9.75
357.422	11.75
358.209	11.75
358.997	11.75
359.784	8.75
360.571	10.75
361.359	11.75
362.146	8.75
362.933	8.75
363.72	11.75
364.507	10.75
365.294	9.75
366.081	10.75
366.867	10.75
367.654	11.75
368.44	13.75
369.227	12.75
370.013	11.75
370.8	6.75
371.586	10.75
372.372	10.75
373.158	12.75
373.944	11.75
374.73	11.75
375.516	10.75
376.302	12.75
377.088	10.75
377.873	9.75
378.659	10.75
379.445	10.75
380.23	12.75
381.015	12.75
381.801	9.75
382.586	9.75
383.371	10.75
384.156	11.75
384.941	10.75
385.726	11.75
386.511	10.75
387.296	11.75
388.08	13.75
388.865	13.75
389.649	12.75
390.434	12.75
391.218	15.75
392.003	12.75
392.787	10.75
393.571	14.75
394.355	13.75
395.139	13.75
395.923	11.75
396.707	13.75
397.491	12.75
398.274	14.75
399.058	12.75
399.842	17.75
400.625	15.75
401.408	15.75
402.192	11.75
402.975	15.75
403.758	13.75
404.541	15.75
405.324	15.75
406.107	14.75
406.89	15.75
407.673	16.75
408.456	14.75
409.238	16.75
410.021	17.75
410.803	17.75
411.586	20.75
412.368	17.75
413.151	17.75
413.933	18.75
414.715	20.75
415.497	19.75
416.279	18.75
417.061	19.75
417.843	19.75
418.624	22.75
419.406	18.75
420.188	22.75
420.969	23.75
421.751	19.75
422.532	24.75
423.313	25.75
424.095	21.75
424.876	21.75
425.657	25.75
426.438	28.75
427.219	29.75
428	28.75
428.78	29.75
429.561	30.75
430.342	29.75
431.122	28.75
431.903	31.75
432.683	33.75
433.464	33.75
434.244	38.75
435.024	36.75
435.804	41.75
436.584	46.75
437.364	46.75
438.144	48.75
438.924	51.75
439.704	56.75
440.483	58.75
441.263	60.75
442.042	66.75
442.822	67.75
443.601	76.75
444.38	82.75
445.16	87.75
445.939	90.75
446.718	106.75
447.497	109.75
448.276	117.75
449.054	131.75
449.833	148.75
450.612	158.75
451.391	178.75
452.169	194.75
452.948	218.75
453.726	244.75
454.504	273.75
455.282	295.75
456.061	333.75
456.839	372.75
457.617	411.75
458.395	460.75
459.172	508.75
459.95	568.75
460.728	639.75
461.506	712.75
462.283	794.75
463.061	883.75
463.838	984.75
464.615	1087.75
465.393	1214.75
466.17	1357.75
466.947	1503.75
467.724	1682.75
468.501	1853.75
469.278	2043.75
470.055	2267.75
470.831	2492.75
471.608	2768.75
472.385	3035.75
473.161	3360.75
473.938	3695.75
474.714	4063.75
475.49	4456.75
476.266	4882.75
477.043	5360.75
477.819	5830.75
478.595	6354.75
479.371	6951.75
480.146	7636.75
480.922	8303.75
481.698	9052.75
482.473	9902.75
483.249	10679.75
484.024	11622.75
484.8	12616.75
485.575	13693.75
486.35	14858.75
487.126	16090.75
487.901	17385.75
488.676	18768.75
489.451	20290.75
490.225	21768.75
491	23383.75
491.775	24919.75
492.55	26761.75
493.324	28441.75
494.099	30231.75
494.873	32057.75
495.647	33855.75
496.422	35584.75
497.196	37429.75
497.97	39029.75
498.744	40592.75
499.518	42201.75
500.292	43524.75
501.066	44594.75
501.839	45470.75
502.613	46178.75
503.387	46808.75
504.16	47190.75
504.934	47327.75
505.707	47300.75
506.48	46887.75
507.253	46398.75
508.027	45709.75
508.8	44766.75
509.573	43660.75
510.346	42615.75
511.118	41589.75
511.891	40374.75
512.664	38816.75
513.437	37347.75
514.209	35893.75
514.982	34573.75
515.754	33122.75
516.526	31756.75
517.298	30520.75
518.071	29293.75
518.843	28094.75
519.615	27002.75
520.387	25984.75
521.159	24962.75
521.93	23800.75
522.702	22876.75
523.474	21920.75
524.245	20999.75
525.017	20041.75
525.788	19108.75
526.56	18435.75
527.331	17568.75
528.102	16673.75
528.873	15787.75
529.644	15102.75
530.415	14415.75
531.186	13683.75
531.957	12959.75
532.728	12264.75
533.498	11693.75
534.269	11036.75
535.039	10462.75
535.81	9885.75
536.58	9360.75
537.351	8839.75
538.121	8411.75
538.891	7914.75
539.661	7495.75
540.431	7082.75
541.201	6717.75
541.971	6390.75
542.741	6073.75
543.51	5743.75
544.28	5465.75
545.05	5224.75
545.819	4962.75
546.588	4716.75
547.358	4516.75
548.127	4255.75
548.896	4063.75
549.665	3847.75
550.434	3647.75
551.203	3426.75
551.972	3294.75
552.741	3090.75
553.51	2943.75
554.278	2762.75
555.047	2634.75
555.815	2459.75
556.584	2327.75
557.352	2200.75
558.121	2085.75
558.889	1961.75
559.657	1844.75
560.425	1759.75
561.193	1674.75
561.961	1572.75
562.729	1487.75
563.496	1408.75
564.264	1336.75
565.032	1258.75
565.799	1188.75
566.567	1119.75
567.334	1075.75
568.101	1008.75
568.869	955.75
569.636	892.75
570.403	847.75
571.17	802.75
571.937	756.75
572.704	720.75
573.471	675.75
574.237	623.75
575.004	596.75
575.771	564.75
576.537	535.75
577.303	507.75
578.07	481.75
578.836	447.75
579.602	430.75
580.368	400.75
581.134	389.75
581.9	360.75
582.666	345.75
583.432	340.75
584.198	310.75
584.964	297.75
585.729	288.75
586.495	265.75
587.26	248.75
588.025	241.75
588.791	228.75
589.556	220.75
590.321	207.75
591.086	193.75
591.851	190.75
592.616	178.75
593.381	168.75
594.146	160.75
594.911	153.75
595.675	145.75
596.44	143.75
597.204	136.75
597.969	126.75
598.733	125.75
599.497	115.75
600.261	118.75
601.025	105.75
601.79	106.75
602.553	96.75
603.317	93.75
604.081	92.75
604.845	89.75
605.609	84.75
606.372	84.75
607.136	78.75
607.899	75.75
608.662	70.75
609.426	65.75
610.189	65.75
610.952	66.75
611.715	63.75
612.478	61.75
613.241	56.75
614.004	57.75
614.767	56.75
615.529	53.75
616.292	47.75
617.055	48.75
617.817	48.75
618.579	45.75
619.342	46.75
620.104	43.75
620.866	44.75
621.628	42.75
622.39	37.75
623.152	38.75
623.914	37.75
624.676	34.75
625.438	38.75
626.199	33.75
626.961	32.75
627.722	29.75
628.484	29.75
629.245	31.75
630.006	28.75
630.768	25.75
631.529	27.75
632.29	28.75
633.051	23.75
633.812	26.75
634.573	24.75
635.333	23.75
636.094	22.75
636.855	22.75
637.615	21.75
638.376	22.75
639.136	19.75
639.896	18.75
640.657	18.75
641.417	19.75
642.177	20.75
642.937	18.75
643.697	16.75
644.457	15.75
645.216	16.75
645.976	18.75
646.736	17.75
647.495	17.75
648.255	14.75
649.014	17.75
649.774	15.75
650.533	16.75
651.292	15.75
652.051	17.75
652.81	11.75
653.569	12.75
654.328	14.75
655.087	10.75
655.846	13.75
656.604	12.75
657.363	14.75
658.121	12.75
658.88	13.75
659.638	10.75
660.397	14.75
661.155	10.75
661.913	13.75
662.671	11.75
663.429	12.75
664.187	8.75
664.945	12.75
665.703	10.75
666.46	10.75
667.218	10.75
667.976	10.75
668.733	12.75
669.49	9.75
670.248	7.75
671.005	8.75
671.762	8.75
672.519	9.75
673.276	9.75
674.033	11.75
674.79	8.75
675.547	9.75
676.304	8.75
677.06	9.75
677.817	8.75
678.574	8.75
679.33	8.75
680.086	11.75
680.843	8.75
681.599	10.75
682.355	9.75
683.111	9.75
683.867	6.75
684.623	11.75
685.379	7.75
686.135	9.75
686.89	7.75
687.646	8.75
688.402	8.75
689.157	7.75
689.912	8.75
690.668	7.75
691.423	8.75
692.178	9.75
692.933	8.75
693.688	5.75
694.443	8.75
695.198	9.75
695.953	9.75
696.708	9.75
697.462	8.75
698.217	8.75
698.972	9.75
699.726	9.75
700.48	8.75
701.235	9.75
701.989	5.75
702.743	10.75
703.497	7.75
704.251	10.75
705.005	11.75
705.759	8.75
706.513	8.75
707.266	8.75
708.02	8.75
708.774	8.75
709.527	7.75
710.28	11.75
711.034	7.75
711.787	10.75
712.54	7.75
713.293	11.75
714.046	9.75
714.799	7.75
715.552	8.75
716.305	8.75
717.058	10.75
717.81	8.75
718.563	8.75
719.315	6.75
720.068	9.75
720.82	9.75
721.573	8.75
722.325	10.75
723.077	9.75
723.829	6.75
724.581	10.75
725.333	8.75
726.085	8.75
726.836	9.75
727.588	9.75
728.34	10.75
729.091	8.75
729.843	9.75
730.594	7.75
731.346	9.75
732.097	8.75
732.848	8.75
733.599	9.75
734.35	9.75
735.101	8.75
735.852	9.75
736.603	10.75
737.354	10.75
738.104	11.75
738.855	12.75
739.605	8.75
740.356	9.75
741.106	10.75
741.856	9.75
742.607	11.75
743.357	10.75
744.107	11.75
744.857	12.75
745.607	11.75
746.357	9.75
747.106	11.75
747.856	12.75
748.606	10.75
749.355	10.75
750.105	10.75
750.854	10.75
751.603	11.75
752.353	12.75
753.102	10.75
753.851	12.75
754.6	14.75
755.349	13.75
756.098	12.75
756.847	12.75
757.595	13.75
758.344	12.75
759.093	13.75
759.841	12.75
760.589	13.75
761.338	15.75
762.086	13.75
762.834	12.75
763.582	14.75
764.331	10.75
765.079	13.75
765.826	12.75
766.574	13.75
767.322	17.75
768.07	13.75
768.817	17.75
769.565	13.75
770.312	10.75
771.06	14.75
771.807	14.75
772.554	16.75
773.302	16.75
774.049	14.75
774.796	14.75
775.543	15.75
776.29	17.75
777.036	13.75
777.783	17.75
778.53	17.75
779.276	14.75
780.023	19.75
780.769	15.75
781.516	17.75
782.262	15.75
783.008	17.75
783.754	14.75
784.5	14.75
785.246	16.75
785.992	14.75
786.738	18.75
787.484	17.75
788.23	16.75
788.975	13.75
789.721	13.75
790.466	14.75
791.212	15.75
791.957	16.75
792.702	14.75
793.447	14.75
794.193	15.75
794.938	15.75
795.683	15.75
796.427	14.75
797.172	12.75
797.917	14.75
798.662	12.75
799.406	10.75
800.151	15.75
800.895	12.75
801.64	15.75
802.384	11.75
803.128	12.75
803.872	10.75
804.616	13.75
805.36	10.75
806.104	9.75
806.848	11.75
807.592	11.75
808.336	11.75
809.079	9.75
809.823	11.75
810.566	8.75
811.31	7.75
812.053	13.75
812.796	7.75
813.539	9.75
814.283	8.75
815.026	9.75
815.769	10.75
816.511	8.75
817.254	7.75
817.997	8.75
818.74	7.75
819.482	7.75
820.225	8.75
820.967	10.75
821.71	6.75
822.452	10.75
823.194	8.75
823.936	8.75
824.678	8.75
825.42	5.75
826.162	8.75
826.904	9.75
827.646	6.75
828.388	6.75
829.129	8.75
829.871	6.75
830.612	8.75
831.354	8.75
832.095	5.75
832.836	6.75
833.577	7.75
834.319	8.75
835.06	6.75
835.801	8.75
836.542	6.75
837.282	5.75
838.023	5.75
838.764	6.75
839.504	5.75
840.245	5.75
840.985	7.75
841.726	5.75
842.466	8.75
843.206	8.75
843.946	6.75
844.687	6.75
845.427	3.75
846.166	5.75
846.906	4.75
847.646	7.75
848.386	6.75
849.125	7.75
849.865	4.75
850.605	3.75
851.344	3.75
852.083	2.75
852.823	6.75
853.562	6.75
854.301	4.75
855.04	2.75
855.779	4.75
856.518	3.75
857.257	6.75
857.995	5.75
858.734	7.75
859.473	3.75
860.211	5.75
860.95	2.75
861.688	5.75
862.426	3.75
863.165	3.75
863.903	4.75
864.641	3.75
865.379	3.75
866.117	2.75
866.855	5.75
867.593	2.75
868.33	3.75
869.068	3.75
869.806	3.75
870.543	3.75
871.28	5.75
872.018	3.75
872.755	4.75
873.492	3.75
874.229	3.75
874.967	2.75
875.703	4.75
876.44	2.75
877.177	3.75
877.914	3.75
878.651	1.75
879.387	3.75
880.124	3.75
880.86	0.75
881.597	1.75
882.333	2.75
883.069	1.75
883.806	0.75
884.542	3.75
885.278	2.75
886.014	2.75
886.749	3.75
887.485	2.75
888.221	1.75
888.957	2.75
889.692	2.75
890.428	1.75
891.163	1.75
891.899	0.75
892.634	0.75
893.369	3.75
894.104	0.75
894.839	1.75
895.574	2.75
896.309	0.75
897.044	2.75
897.779	0.75
898.514	-0.25
899.248	2.75
899.983	1.75
900.717	1.75
901.452	1.75
902.186	1.75
902.92	-0.25
903.654	1.75
904.389	3.75
905.123	-0.25
905.857	4.75
906.59	0.75
907.324	1.75
908.058	2.75
908.792	2.75
909.525	3.75
910.259	1.75
910.992	2.75
911.726	2.75
912.459	-0.25
913.192	0.75
913.925	-0.25
914.658	1.75
915.391	-0.25
916.124	3.75
916.857	1.75
917.59	0.75
918.323	-0.25
919.055	2.75
919.788	-0.25
920.521	0.75
921.253	0.75
921.985	1.75
922.718	-0.25
923.45	-0.25
924.182	-0.25
924.914	1.75
925.646	4.75
926.378	2.75
927.11	0.75
927.841	0.75
928.573	2.75
929.305	-0.25
930.036	2.75
930.768	2.75
931.499	1.75
932.23	3.75
932.962	1.75
933.693	5.75
934.424	-0.25
935.155	1.75
935.886	3.75
936.617	0.75
937.348	2.75
938.078	-0.25
938.809	1.75
939.54	-0.25
940.27	0.75
941.001	1.75
941.731	-1.25
942.461	3.75
943.191	2.75
943.922	1.75
944.652	1.75
945.382	0.75
946.112	0.75
946.841	-1.25
947.571	2.75
948.301	-0.25
949.031	-0.25
949.76	0.75
950.49	0.75
951.219	2.75
951.948	-1.25
952.678	1.75
953.407	0.75
954.136	1.75
954.865	2.75
955.594	0.75
956.323	2.75
957.052	0.75
957.78	1.75
958.509	-0.25
959.238	0.75
959.966	1.75
960.695	1.75
961.423	1.75
962.151	1.75
962.88	-1.25
963.608	0.75
964.336	1.75
965.064	1.75
965.792	1.75
966.52	1.75
967.247	-0.25
967.975	2.75
968.703	1.75
969.43	-0.25
970.158	2.75
970.885	1.75
971.613	0.75
972.34	2.75
973.067	-0.25
973.794	1.75
974.521	-0.25
975.248	3.75
975.975	1.75
976.702	-0.25
977.429	0.75
978.156	0.75
978.882	-0.25
979.609	0.75
980.335	2.75
981.062	1.75
981.788	-0.25
982.514	-0.25
983.24	1.75
983.967	2.75
984.693	-0.25
985.419	0.75
986.144	2.75
986.87	-0.25
987.596	2.75
988.322	1.75
989.047	1.75
989.773	-0.25
990.498	1.75
991.224	1.75
991.949	0.75
992.674	3.75
993.399	1.75
994.124	1.75
994.849	0.75
995.574	0.75
996.299	-0.25
997.024	2.75
997.749	-0.25
998.473	0.75
999.198	0.75
999.922	1.75
1000.647	-2.25
1001.371	3.75
1002.095	-2.25
1002.82	-0.25
1003.544	-0.25
1004.268	6.75
1004.992	5.75
1005.716	6.75
1006.439	5.75
1007.163	3.75
1007.887	6.75
1008.611	0.75
1009.334	1.75
1010.058	3.75
1010.781	1.75
1011.504	-0.25
1012.228	2.75
1012.951	0.75
1013.674	-1.25
1014.397	-0.25
1015.12	-0.25
