节点500_705_QEPB04081__603__20-54-30-797.txt的数据

Date: Wed Nov 12 20:54:30 CST 2025
User: PC
Spectrometer: QEPB0408
触发模式: 0
积分时间 (秒): 1.000000E-2
Scans to average: 1
启用暗噪声校正: true
启用非线性校正: false
滑动平均宽度: 0
X轴模式: Wavelengths
Number of Pixels in Spectrum: 1044
>>>>>Begin Spectral Data<<<<<
220.843	4.5
221.644	5.5
222.444	5.5
223.244	3.5
224.045	6.5
224.845	6.5
225.645	6.5
226.445	5.5
227.245	7.5
228.045	6.5
228.845	6.5
229.645	8.5
230.444	9.5
231.244	11.5
232.043	10.5
232.843	10.5
233.642	9.5
234.442	9.5
235.241	10.5
236.04	8.5
236.839	11.5
237.638	11.5
238.437	12.5
239.236	11.5
240.035	9.5
240.833	13.5
241.632	11.5
242.43	10.5
243.229	10.5
244.027	13.5
244.826	13.5
245.624	11.5
246.422	14.5
247.22	13.5
248.018	14.5
248.816	15.5
249.614	14.5
250.412	14.5
251.21	16.5
252.007	19.5
252.805	14.5
253.602	16.5
254.4	16.5
255.197	17.5
255.994	18.5
256.791	19.5
257.589	20.5
258.386	22.5
259.183	19.5
259.979	21.5
260.776	19.5
261.573	20.5
262.37	20.5
263.166	24.5
263.963	21.5
264.759	20.5
265.556	23.5
266.352	26.5
267.148	25.5
267.944	25.5
268.74	26.5
269.536	27.5
270.332	28.5
271.128	30.5
271.924	31.5
272.719	30.5
273.515	30.5
274.311	27.5
275.106	28.5
275.901	31.5
276.697	33.5
277.492	29.5
278.287	30.5
279.082	29.5
279.877	31.5
280.672	34.5
281.467	31.5
282.262	34.5
283.056	29.5
283.851	30.5
284.646	32.5
285.44	28.5
286.234	34.5
287.029	30.5
287.823	34.5
288.617	31.5
289.411	33.5
290.205	30.5
290.999	30.5
291.793	28.5
292.587	27.5
293.381	31.5
294.174	28.5
294.968	29.5
295.761	30.5
296.555	25.5
297.348	26.5
298.141	26.5
298.935	26.5
299.728	22.5
300.521	23.5
301.314	25.5
302.107	24.5
302.899	22.5
303.692	21.5
304.485	18.5
305.277	21.5
306.07	20.5
306.862	23.5
307.655	21.5
308.447	20.5
309.239	21.5
310.031	18.5
310.823	22.5
311.615	17.5
312.407	19.5
313.199	21.5
313.991	17.5
314.783	17.5
315.574	15.5
316.366	15.5
317.157	15.5
317.949	14.5
318.74	15.5
319.531	15.5
320.322	12.5
321.113	11.5
321.904	17.5
322.695	13.5
323.486	13.5
324.277	14.5
325.068	12.5
325.858	14.5
326.649	12.5
327.439	12.5
328.23	14.5
329.02	13.5
329.81	12.5
330.6	11.5
331.391	11.5
332.181	13.5
332.971	10.5
333.76	14.5
334.55	10.5
335.34	13.5
336.13	13.5
336.919	12.5
337.709	12.5
338.498	12.5
339.287	12.5
340.077	15.5
340.866	14.5
341.655	13.5
342.444	10.5
343.233	12.5
344.022	10.5
344.811	12.5
345.6	11.5
346.388	12.5
347.177	10.5
347.965	13.5
348.754	12.5
349.542	10.5
350.33	11.5
351.119	11.5
351.907	10.5
352.695	11.5
353.483	10.5
354.271	13.5
355.059	11.5
355.846	9.5
356.634	9.5
357.422	9.5
358.209	11.5
358.997	12.5
359.784	10.5
360.571	10.5
361.359	11.5
362.146	11.5
362.933	11.5
363.72	10.5
364.507	10.5
365.294	8.5
366.081	10.5
366.867	11.5
367.654	10.5
368.44	8.5
369.227	9.5
370.013	9.5
370.8	8.5
371.586	12.5
372.372	10.5
373.158	11.5
373.944	9.5
374.73	11.5
375.516	10.5
376.302	11.5
377.088	12.5
377.873	9.5
378.659	11.5
379.445	11.5
380.23	9.5
381.015	11.5
381.801	9.5
382.586	11.5
383.371	12.5
384.156	11.5
384.941	11.5
385.726	10.5
386.511	11.5
387.296	9.5
388.08	12.5
388.865	11.5
389.649	11.5
390.434	12.5
391.218	11.5
392.003	11.5
392.787	10.5
393.571	11.5
394.355	12.5
395.139	13.5
395.923	11.5
396.707	9.5
397.491	14.5
398.274	13.5
399.058	11.5
399.842	12.5
400.625	13.5
401.408	14.5
402.192	12.5
402.975	13.5
403.758	13.5
404.541	14.5
405.324	15.5
406.107	13.5
406.89	15.5
407.673	17.5
408.456	14.5
409.238	12.5
410.021	12.5
410.803	17.5
411.586	15.5
412.368	19.5
413.151	17.5
413.933	20.5
414.715	18.5
415.497	16.5
416.279	18.5
417.061	17.5
417.843	21.5
418.624	19.5
419.406	20.5
420.188	21.5
420.969	20.5
421.751	22.5
422.532	20.5
423.313	23.5
424.095	19.5
424.876	24.5
425.657	27.5
426.438	25.5
427.219	24.5
428	23.5
428.78	27.5
429.561	30.5
430.342	29.5
431.122	30.5
431.903	31.5
432.683	33.5
433.464	36.5
434.244	38.5
435.024	40.5
435.804	41.5
436.584	42.5
437.364	48.5
438.144	48.5
438.924	53.5
439.704	56.5
440.483	59.5
441.263	61.5
442.042	68.5
442.822	69.5
443.601	75.5
444.38	83.5
445.16	88.5
445.939	99.5
446.718	111.5
447.497	116.5
448.276	131.5
449.054	139.5
449.833	155.5
450.612	171.5
451.391	193.5
452.169	212.5
452.948	232.5
453.726	256.5
454.504	287.5
455.282	321.5
456.061	354.5
456.839	402.5
457.617	436.5
458.395	490.5
459.172	553.5
459.95	601.5
460.728	667.5
461.506	737.5
462.283	828.5
463.061	912.5
463.838	1022.5
464.615	1133.5
465.393	1251.5
466.17	1383.5
466.947	1529.5
467.724	1698.5
468.501	1864.5
469.278	2073.5
470.055	2267.5
470.831	2508.5
471.608	2743.5
472.385	3025.5
473.161	3304.5
473.938	3619.5
474.714	3974.5
475.49	4330.5
476.266	4721.5
477.043	5113.5
477.819	5581.5
478.595	6035.5
479.371	6559.5
480.146	7178.5
480.922	7771.5
481.698	8410.5
482.473	9105.5
483.249	9861.5
484.024	10655.5
484.8	11480.5
485.575	12355.5
486.35	13386.5
487.126	14426.5
487.901	15491.5
488.676	16621.5
489.451	17956.5
490.225	19239.5
491	20528.5
491.775	21962.5
492.55	23420.5
493.324	24982.5
494.099	26532.5
494.873	28012.5
495.647	29635.5
496.422	31186.5
497.196	32799.5
497.97	34369.5
498.744	35817.5
499.518	37309.5
500.292	38632.5
501.066	39774.5
501.839	40759.5
502.613	41665.5
503.387	42443.5
504.16	43066.5
504.934	43459.5
505.707	43688.5
506.48	43705.5
507.253	43531.5
508.027	43173.5
508.8	42573.5
509.573	41926.5
510.346	41327.5
511.118	40418.5
511.891	39461.5
512.664	38174.5
513.437	36921.5
514.209	35743.5
514.982	34444.5
515.754	33203.5
516.526	31901.5
517.298	30732.5
518.071	29595.5
518.843	28399.5
519.615	27286.5
520.387	26198.5
521.159	25288.5
521.93	24170.5
522.702	23237.5
523.474	22243.5
524.245	21341.5
525.017	20443.5
525.788	19646.5
526.56	18811.5
527.331	18108.5
528.102	17155.5
528.873	16380.5
529.644	15608.5
530.415	14928.5
531.186	14181.5
531.957	13482.5
532.728	12891.5
533.498	12212.5
534.269	11542.5
535.039	11030.5
535.81	10439.5
536.58	9842.5
537.351	9307.5
538.121	8872.5
538.891	8384.5
539.661	7917.5
540.431	7438.5
541.201	7160.5
541.971	6776.5
542.741	6392.5
543.51	6058.5
544.28	5752.5
545.05	5517.5
545.819	5231.5
546.588	5002.5
547.358	4761.5
548.127	4528.5
548.896	4292.5
549.665	4089.5
550.434	3889.5
551.203	3700.5
551.972	3486.5
552.741	3320.5
553.51	3122.5
554.278	2936.5
555.047	2784.5
555.815	2632.5
556.584	2498.5
557.352	2365.5
558.121	2246.5
558.889	2132.5
559.657	2008.5
560.425	1894.5
561.193	1802.5
561.961	1703.5
562.729	1612.5
563.496	1520.5
564.264	1432.5
565.032	1365.5
565.799	1285.5
566.567	1215.5
567.334	1156.5
568.101	1091.5
568.869	1026.5
569.636	968.5
570.403	912.5
571.17	867.5
571.937	827.5
572.704	770.5
573.471	733.5
574.237	682.5
575.004	654.5
575.771	611.5
576.537	582.5
577.303	544.5
578.07	513.5
578.836	484.5
579.602	458.5
580.368	431.5
581.134	427.5
581.9	395.5
582.666	373.5
583.432	360.5
584.198	338.5
584.964	326.5
585.729	305.5
586.495	289.5
587.26	274.5
588.025	256.5
588.791	242.5
589.556	232.5
590.321	224.5
591.086	208.5
591.851	199.5
592.616	192.5
593.381	185.5
594.146	171.5
594.911	168.5
595.675	156.5
596.44	148.5
597.204	150.5
597.969	139.5
598.733	131.5
599.497	127.5
600.261	119.5
601.025	114.5
601.79	110.5
602.553	103.5
603.317	101.5
604.081	99.5
604.845	95.5
605.609	91.5
606.372	88.5
607.136	84.5
607.899	79.5
608.662	75.5
609.426	78.5
610.189	68.5
610.952	66.5
611.715	63.5
612.478	62.5
613.241	58.5
614.004	62.5
614.767	57.5
615.529	56.5
616.292	52.5
617.055	48.5
617.817	51.5
618.579	49.5
619.342	46.5
620.104	41.5
620.866	42.5
621.628	43.5
622.39	43.5
623.152	41.5
623.914	38.5
624.676	38.5
625.438	35.5
626.199	34.5
626.961	31.5
627.722	32.5
628.484	31.5
629.245	32.5
630.006	30.5
630.768	29.5
631.529	27.5
632.29	28.5
633.051	27.5
633.812	28.5
634.573	23.5
635.333	23.5
636.094	23.5
636.855	21.5
637.615	23.5
638.376	19.5
639.136	22.5
639.896	18.5
640.657	23.5
641.417	22.5
642.177	18.5
642.937	21.5
643.697	18.5
644.457	18.5
645.216	17.5
645.976	19.5
646.736	17.5
647.495	15.5
648.255	17.5
649.014	14.5
649.774	15.5
650.533	15.5
651.292	16.5
652.051	15.5
652.81	17.5
653.569	14.5
654.328	15.5
655.087	11.5
655.846	15.5
656.604	14.5
657.363	14.5
658.121	14.5
658.88	11.5
659.638	11.5
660.397	11.5
661.155	11.5
661.913	10.5
662.671	12.5
663.429	11.5
664.187	9.5
664.945	11.5
665.703	11.5
666.46	11.5
667.218	12.5
667.976	9.5
668.733	8.5
669.49	9.5
670.248	12.5
671.005	9.5
671.762	10.5
672.519	10.5
673.276	8.5
674.033	10.5
674.79	7.5
675.547	8.5
676.304	8.5
677.06	8.5
677.817	9.5
678.574	7.5
679.33	11.5
680.086	7.5
680.843	9.5
681.599	9.5
682.355	6.5
683.111	7.5
683.867	6.5
684.623	10.5
685.379	8.5
686.135	8.5
686.89	8.5
687.646	6.5
688.402	9.5
689.157	7.5
689.912	8.5
690.668	7.5
691.423	10.5
692.178	9.5
692.933	5.5
693.688	12.5
694.443	8.5
695.198	8.5
695.953	9.5
696.708	9.5
697.462	8.5
698.217	10.5
698.972	6.5
699.726	8.5
700.48	8.5
701.235	7.5
701.989	7.5
702.743	7.5
703.497	5.5
704.251	7.5
705.005	8.5
705.759	9.5
706.513	8.5
707.266	5.5
708.02	8.5
708.774	5.5
709.527	8.5
710.28	9.5
711.034	6.5
711.787	8.5
712.54	7.5
713.293	7.5
714.046	8.5
714.799	9.5
715.552	9.5
716.305	7.5
717.058	7.5
717.81	7.5
718.563	7.5
719.315	9.5
720.068	8.5
720.82	9.5
721.573	4.5
722.325	9.5
723.077	8.5
723.829	8.5
724.581	8.5
725.333	7.5
726.085	7.5
726.836	8.5
727.588	11.5
728.34	9.5
729.091	8.5
729.843	9.5
730.594	9.5
731.346	9.5
732.097	8.5
732.848	9.5
733.599	8.5
734.35	11.5
735.101	11.5
735.852	8.5
736.603	10.5
737.354	9.5
738.104	10.5
738.855	11.5
739.605	8.5
740.356	10.5
741.106	9.5
741.856	9.5
742.607	12.5
743.357	12.5
744.107	12.5
744.857	11.5
745.607	13.5
746.357	10.5
747.106	11.5
747.856	11.5
748.606	9.5
749.355	12.5
750.105	9.5
750.854	12.5
751.603	8.5
752.353	10.5
753.102	11.5
753.851	9.5
754.6	10.5
755.349	9.5
756.098	10.5
756.847	13.5
757.595	11.5
758.344	13.5
759.093	10.5
759.841	11.5
760.589	11.5
761.338	11.5
762.086	9.5
762.834	12.5
763.582	10.5
764.331	12.5
765.079	10.5
765.826	14.5
766.574	12.5
767.322	15.5
768.07	11.5
768.817	14.5
769.565	14.5
770.312	15.5
771.06	12.5
771.807	14.5
772.554	16.5
773.302	13.5
774.049	15.5
774.796	13.5
775.543	13.5
776.29	15.5
777.036	13.5
777.783	13.5
778.53	13.5
779.276	17.5
780.023	15.5
780.769	12.5
781.516	15.5
782.262	15.5
783.008	14.5
783.754	15.5
784.5	15.5
785.246	13.5
785.992	15.5
786.738	16.5
787.484	15.5
788.23	14.5
788.975	12.5
789.721	16.5
790.466	12.5
791.212	13.5
791.957	12.5
792.702	14.5
793.447	12.5
794.193	13.5
794.938	13.5
795.683	13.5
796.427	12.5
797.172	14.5
797.917	13.5
798.662	14.5
799.406	10.5
800.151	10.5
800.895	10.5
801.64	10.5
802.384	13.5
803.128	11.5
803.872	11.5
804.616	11.5
805.36	11.5
806.104	13.5
806.848	9.5
807.592	11.5
808.336	9.5
809.079	10.5
809.823	9.5
810.566	9.5
811.31	10.5
812.053	9.5
812.796	9.5
813.539	11.5
814.283	10.5
815.026	7.5
815.769	11.5
816.511	9.5
817.254	7.5
817.997	8.5
818.74	8.5
819.482	9.5
820.225	9.5
820.967	6.5
821.71	7.5
822.452	8.5
823.194	7.5
823.936	8.5
824.678	7.5
825.42	6.5
826.162	5.5
826.904	7.5
827.646	5.5
828.388	6.5
829.129	7.5
829.871	6.5
830.612	6.5
831.354	7.5
832.095	7.5
832.836	6.5
833.577	4.5
834.319	8.5
835.06	5.5
835.801	6.5
836.542	6.5
837.282	5.5
838.023	7.5
838.764	6.5
839.504	5.5
840.245	5.5
840.985	3.5
841.726	7.5
842.466	5.5
843.206	7.5
843.946	6.5
844.687	7.5
845.427	5.5
846.166	5.5
846.906	4.5
847.646	5.5
848.386	5.5
849.125	5.5
849.865	4.5
850.605	4.5
851.344	6.5
852.083	6.5
852.823	8.5
853.562	5.5
854.301	3.5
855.04	2.5
855.779	3.5
856.518	4.5
857.257	5.5
857.995	5.5
858.734	4.5
859.473	6.5
860.211	3.5
860.95	3.5
861.688	4.5
862.426	2.5
863.165	5.5
863.903	3.5
864.641	2.5
865.379	0.5
866.117	4.5
866.855	2.5
867.593	3.5
868.33	2.5
869.068	-0.5
869.806	2.5
870.543	2.5
871.28	2.5
872.018	1.5
872.755	4.5
873.492	3.5
874.229	3.5
874.967	3.5
875.703	1.5
876.44	2.5
877.177	5.5
877.914	0.5
878.651	3.5
879.387	0.5
880.124	1.5
880.86	0.5
881.597	-0.5
882.333	1.5
883.069	5.5
883.806	2.5
884.542	2.5
885.278	2.5
886.014	1.5
886.749	2.5
887.485	2.5
888.221	1.5
888.957	3.5
889.692	0.5
890.428	4.5
891.163	3.5
891.899	3.5
892.634	2.5
893.369	0.5
894.104	1.5
894.839	3.5
895.574	2.5
896.309	2.5
897.044	0.5
897.779	0.5
898.514	1.5
899.248	0.5
899.983	1.5
900.717	1.5
901.452	1.5
902.186	-2.5
902.92	-0.5
903.654	0.5
904.389	0.5
905.123	1.5
905.857	3.5
906.59	3.5
907.324	-0.5
908.058	4.5
908.792	1.5
909.525	2.5
910.259	1.5
910.992	1.5
911.726	2.5
912.459	2.5
913.192	3.5
913.925	1.5
914.658	-0.5
915.391	-0.5
916.124	3.5
916.857	0.5
917.59	0.5
918.323	-0.5
919.055	1.5
919.788	0.5
920.521	4.5
921.253	-0.5
921.985	2.5
922.718	2.5
923.45	0.5
924.182	-0.5
924.914	-1.5
925.646	3.5
926.378	2.5
927.11	2.5
927.841	2.5
928.573	0.5
929.305	2.5
930.036	0.5
930.768	2.5
931.499	2.5
932.23	2.5
932.962	1.5
933.693	1.5
934.424	-1.5
935.155	0.5
935.886	1.5
936.617	1.5
937.348	0.5
938.078	0.5
938.809	1.5
939.54	1.5
940.27	3.5
941.001	1.5
941.731	3.5
942.461	-0.5
943.191	0.5
943.922	-0.5
944.652	3.5
945.382	1.5
946.112	0.5
946.841	3.5
947.571	-1.5
948.301	1.5
949.031	0.5
949.76	1.5
950.49	1.5
951.219	-1.5
951.948	-0.5
952.678	0.5
953.407	1.5
954.136	0.5
954.865	0.5
955.594	3.5
956.323	0.5
957.052	1.5
957.78	2.5
958.509	1.5
959.238	-0.5
959.966	1.5
960.695	1.5
961.423	1.5
962.151	2.5
962.88	2.5
963.608	1.5
964.336	1.5
965.064	1.5
965.792	2.5
966.52	1.5
967.247	1.5
967.975	1.5
968.703	1.5
969.43	2.5
970.158	-0.5
970.885	2.5
971.613	-0.5
972.34	3.5
973.067	0.5
973.794	1.5
974.521	0.5
975.248	0.5
975.975	2.5
976.702	0.5
977.429	-0.5
978.156	1.5
978.882	1.5
979.609	0.5
980.335	-0.5
981.062	0.5
981.788	1.5
982.514	-1.5
983.24	0.5
983.967	2.5
984.693	-0.5
985.419	2.5
986.144	-0.5
986.87	-1.5
987.596	-0.5
988.322	1.5
989.047	0.5
989.773	1.5
990.498	-0.5
991.224	-1.5
991.949	0.5
992.674	0.5
993.399	2.5
994.124	1.5
994.849	1.5
995.574	1.5
996.299	-0.5
997.024	1.5
997.749	0.5
998.473	0.5
999.198	1.5
999.922	-0.5
1000.647	1.5
1001.371	2.5
1002.095	0.5
1002.82	-0.5
1003.544	-2.5
1004.268	7.5
1004.992	5.5
1005.716	7.5
1006.439	5.5
1007.163	6.5
1007.887	6.5
1008.611	-0.5
1009.334	2.5
1010.058	2.5
1010.781	0.5
1011.504	1.5
1012.228	1.5
1012.951	0.5
1013.674	-0.5
1014.397	-0.5
1015.12	0.5
