节点500_705_QEPB04081__150__20-48-22-082.txt的数据

Date: Wed Nov 12 20:48:22 CST 2025
User: PC
Spectrometer: QEPB0408
触发模式: 0
积分时间 (秒): 1.000000E-2
Scans to average: 1
启用暗噪声校正: true
启用非线性校正: false
滑动平均宽度: 0
X轴模式: Wavelengths
Number of Pixels in Spectrum: 1044
>>>>>Begin Spectral Data<<<<<
220.843	5.12
221.644	3.12
222.444	8.12
223.244	5.12
224.045	7.12
224.845	6.12
225.645	7.12
226.445	5.12
227.245	4.12
228.045	11.12
228.845	9.12
229.645	7.12
230.444	9.12
231.244	8.12
232.043	8.12
232.843	8.12
233.642	8.12
234.442	9.12
235.241	10.12
236.04	11.12
236.839	11.12
237.638	11.12
238.437	10.12
239.236	12.12
240.035	13.12
240.833	13.12
241.632	14.12
242.43	14.12
243.229	13.12
244.027	15.12
244.826	15.12
245.624	16.12
246.422	17.12
247.22	15.12
248.018	16.12
248.816	16.12
249.614	17.12
250.412	16.12
251.21	19.12
252.007	17.12
252.805	17.12
253.602	17.12
254.4	21.12
255.197	20.12
255.994	24.12
256.791	23.12
257.589	20.12
258.386	22.12
259.183	23.12
259.979	23.12
260.776	24.12
261.573	22.12
262.37	28.12
263.166	26.12
263.963	28.12
264.759	29.12
265.556	27.12
266.352	27.12
267.148	27.12
267.944	31.12
268.74	32.12
269.536	33.12
270.332	33.12
271.128	30.12
271.924	33.12
272.719	37.12
273.515	32.12
274.311	36.12
275.106	32.12
275.901	35.12
276.697	35.12
277.492	37.12
278.287	34.12
279.082	37.12
279.877	36.12
280.672	37.12
281.467	36.12
282.262	36.12
283.056	35.12
283.851	35.12
284.646	34.12
285.44	32.12
286.234	34.12
287.029	35.12
287.823	33.12
288.617	34.12
289.411	34.12
290.205	32.12
290.999	29.12
291.793	34.12
292.587	33.12
293.381	31.12
294.174	29.12
294.968	29.12
295.761	29.12
296.555	29.12
297.348	25.12
298.141	29.12
298.935	27.12
299.728	26.12
300.521	27.12
301.314	26.12
302.107	22.12
302.899	24.12
303.692	23.12
304.485	23.12
305.277	25.12
306.07	23.12
306.862	23.12
307.655	22.12
308.447	19.12
309.239	22.12
310.031	20.12
310.823	18.12
311.615	19.12
312.407	19.12
313.199	17.12
313.991	16.12
314.783	15.12
315.574	17.12
316.366	14.12
317.157	17.12
317.949	16.12
318.74	17.12
319.531	15.12
320.322	16.12
321.113	16.12
321.904	14.12
322.695	15.12
323.486	11.12
324.277	12.12
325.068	13.12
325.858	13.12
326.649	10.12
327.439	10.12
328.23	13.12
329.02	15.12
329.81	14.12
330.6	13.12
331.391	10.12
332.181	12.12
332.971	15.12
333.76	14.12
334.55	14.12
335.34	12.12
336.13	13.12
336.919	12.12
337.709	13.12
338.498	11.12
339.287	11.12
340.077	14.12
340.866	9.12
341.655	12.12
342.444	11.12
343.233	10.12
344.022	11.12
344.811	13.12
345.6	11.12
346.388	14.12
347.177	11.12
347.965	11.12
348.754	11.12
349.542	13.12
350.33	12.12
351.119	13.12
351.907	13.12
352.695	10.12
353.483	10.12
354.271	11.12
355.059	11.12
355.846	12.12
356.634	13.12
357.422	12.12
358.209	9.12
358.997	11.12
359.784	11.12
360.571	13.12
361.359	7.12
362.146	9.12
362.933	11.12
363.72	9.12
364.507	9.12
365.294	9.12
366.081	11.12
366.867	9.12
367.654	6.12
368.44	9.12
369.227	9.12
370.013	8.12
370.8	8.12
371.586	9.12
372.372	13.12
373.158	8.12
373.944	10.12
374.73	9.12
375.516	8.12
376.302	9.12
377.088	9.12
377.873	11.12
378.659	8.12
379.445	10.12
380.23	11.12
381.015	10.12
381.801	9.12
382.586	10.12
383.371	9.12
384.156	10.12
384.941	11.12
385.726	11.12
386.511	11.12
387.296	13.12
388.08	11.12
388.865	13.12
389.649	14.12
390.434	11.12
391.218	14.12
392.003	7.12
392.787	12.12
393.571	9.12
394.355	11.12
395.139	11.12
395.923	12.12
396.707	14.12
397.491	12.12
398.274	13.12
399.058	12.12
399.842	14.12
400.625	13.12
401.408	13.12
402.192	14.12
402.975	17.12
403.758	14.12
404.541	16.12
405.324	15.12
406.107	17.12
406.89	14.12
407.673	17.12
408.456	17.12
409.238	16.12
410.021	16.12
410.803	19.12
411.586	15.12
412.368	15.12
413.151	18.12
413.933	19.12
414.715	17.12
415.497	18.12
416.279	18.12
417.061	18.12
417.843	22.12
418.624	20.12
419.406	24.12
420.188	20.12
420.969	21.12
421.751	22.12
422.532	23.12
423.313	26.12
424.095	25.12
424.876	26.12
425.657	25.12
426.438	26.12
427.219	25.12
428	26.12
428.78	28.12
429.561	28.12
430.342	30.12
431.122	34.12
431.903	34.12
432.683	34.12
433.464	35.12
434.244	38.12
435.024	42.12
435.804	42.12
436.584	42.12
437.364	46.12
438.144	49.12
438.924	49.12
439.704	54.12
440.483	51.12
441.263	62.12
442.042	63.12
442.822	71.12
443.601	73.12
444.38	79.12
445.16	85.12
445.939	84.12
446.718	98.12
447.497	109.12
448.276	117.12
449.054	136.12
449.833	143.12
450.612	155.12
451.391	169.12
452.169	189.12
452.948	204.12
453.726	227.12
454.504	251.12
455.282	283.12
456.061	312.12
456.839	351.12
457.617	391.12
458.395	435.12
459.172	491.12
459.95	555.12
460.728	606.12
461.506	683.12
462.283	763.12
463.061	849.12
463.838	945.12
464.615	1065.12
465.393	1189.12
466.17	1319.12
466.947	1481.12
467.724	1635.12
468.501	1821.12
469.278	2010.12
470.055	2252.12
470.831	2472.12
471.608	2728.12
472.385	3039.12
473.161	3366.12
473.938	3698.12
474.714	4087.12
475.49	4473.12
476.266	4930.12
477.043	5409.12
477.819	5907.12
478.595	6505.12
479.371	7155.12
480.146	7830.12
480.922	8558.12
481.698	9365.12
482.473	10251.12
483.249	11153.12
484.024	12147.12
484.8	13196.12
485.575	14378.12
486.35	15612.12
487.126	16944.12
487.901	18327.12
488.676	19790.12
489.451	21519.12
490.225	23143.12
491	24791.12
491.775	26586.12
492.55	28474.12
493.324	30371.12
494.099	32169.12
494.873	34150.12
495.647	36137.12
496.422	37954.12
497.196	39873.12
497.97	41561.12
498.744	43086.12
499.518	44680.12
500.292	46006.12
501.066	47015.12
501.839	47744.12
502.613	48393.12
503.387	48944.12
504.16	49076.12
504.934	49083.12
505.707	48839.12
506.48	48292.12
507.253	47539.12
508.027	46689.12
508.8	45467.12
509.573	44312.12
510.346	43095.12
511.118	41867.12
511.891	40404.12
512.664	38787.12
513.437	37175.12
514.209	35818.12
514.982	34286.12
515.754	32829.12
516.526	31469.12
517.298	30230.12
518.071	28957.12
518.843	27819.12
519.615	26610.12
520.387	25673.12
521.159	24677.12
521.93	23617.12
522.702	22587.12
523.474	21623.12
524.245	20751.12
525.017	19765.12
525.788	18824.12
526.56	18049.12
527.331	17273.12
528.102	16317.12
528.873	15523.12
529.644	14797.12
530.415	14074.12
531.186	13337.12
531.957	12640.12
532.728	11973.12
533.498	11385.12
534.269	10719.12
535.039	10104.12
535.81	9527.12
536.58	9073.12
537.351	8557.12
538.121	8135.12
538.891	7679.12
539.661	7285.12
540.431	6859.12
541.201	6503.12
541.971	6173.12
542.741	5858.12
543.51	5581.12
544.28	5285.12
545.05	5025.12
545.819	4824.12
546.588	4574.12
547.358	4358.12
548.127	4162.12
548.896	3936.12
549.665	3726.12
550.434	3501.12
551.203	3337.12
551.972	3158.12
552.741	2982.12
553.51	2817.12
554.278	2653.12
555.047	2504.12
555.815	2366.12
556.584	2241.12
557.352	2122.12
558.121	2003.12
558.889	1884.12
559.657	1783.12
560.425	1678.12
561.193	1609.12
561.961	1520.12
562.729	1420.12
563.496	1341.12
564.264	1280.12
565.032	1200.12
565.799	1142.12
566.567	1088.12
567.334	1022.12
568.101	968.12
568.869	904.12
569.636	854.12
570.403	822.12
571.17	769.12
571.937	724.12
572.704	693.12
573.471	650.12
574.237	612.12
575.004	568.12
575.771	538.12
576.537	503.12
577.303	482.12
578.07	456.12
578.836	430.12
579.602	409.12
580.368	389.12
581.134	371.12
581.9	349.12
582.666	332.12
583.432	323.12
584.198	306.12
584.964	283.12
585.729	265.12
586.495	259.12
587.26	246.12
588.025	231.12
588.791	215.12
589.556	207.12
590.321	201.12
591.086	186.12
591.851	180.12
592.616	171.12
593.381	166.12
594.146	152.12
594.911	147.12
595.675	139.12
596.44	137.12
597.204	126.12
597.969	120.12
598.733	121.12
599.497	113.12
600.261	111.12
601.025	102.12
601.79	98.12
602.553	98.12
603.317	93.12
604.081	82.12
604.845	88.12
605.609	79.12
606.372	77.12
607.136	77.12
607.899	70.12
608.662	69.12
609.426	65.12
610.189	66.12
610.952	64.12
611.715	61.12
612.478	58.12
613.241	56.12
614.004	57.12
614.767	55.12
615.529	56.12
616.292	47.12
617.055	48.12
617.817	47.12
618.579	45.12
619.342	43.12
620.104	42.12
620.866	40.12
621.628	40.12
622.39	35.12
623.152	36.12
623.914	35.12
624.676	32.12
625.438	34.12
626.199	35.12
626.961	28.12
627.722	29.12
628.484	29.12
629.245	30.12
630.006	31.12
630.768	25.12
631.529	28.12
632.29	29.12
633.051	24.12
633.812	27.12
634.573	22.12
635.333	23.12
636.094	22.12
636.855	24.12
637.615	20.12
638.376	22.12
639.136	18.12
639.896	18.12
640.657	18.12
641.417	19.12
642.177	18.12
642.937	18.12
643.697	17.12
644.457	18.12
645.216	16.12
645.976	16.12
646.736	13.12
647.495	14.12
648.255	15.12
649.014	15.12
649.774	17.12
650.533	13.12
651.292	17.12
652.051	14.12
652.81	12.12
653.569	14.12
654.328	15.12
655.087	14.12
655.846	13.12
656.604	12.12
657.363	13.12
658.121	12.12
658.88	11.12
659.638	11.12
660.397	11.12
661.155	11.12
661.913	9.12
662.671	11.12
663.429	11.12
664.187	10.12
664.945	12.12
665.703	9.12
666.46	9.12
667.218	10.12
667.976	11.12
668.733	10.12
669.49	8.12
670.248	13.12
671.005	9.12
671.762	10.12
672.519	9.12
673.276	9.12
674.033	9.12
674.79	10.12
675.547	9.12
676.304	8.12
677.06	8.12
677.817	5.12
678.574	10.12
679.33	9.12
680.086	8.12
680.843	10.12
681.599	10.12
682.355	12.12
683.111	11.12
683.867	8.12
684.623	9.12
685.379	12.12
686.135	11.12
686.89	7.12
687.646	9.12
688.402	9.12
689.157	7.12
689.912	8.12
690.668	7.12
691.423	10.12
692.178	8.12
692.933	8.12
693.688	7.12
694.443	9.12
695.198	6.12
695.953	6.12
696.708	7.12
697.462	9.12
698.217	8.12
698.972	9.12
699.726	8.12
700.48	7.12
701.235	5.12
701.989	7.12
702.743	7.12
703.497	8.12
704.251	7.12
705.005	8.12
705.759	11.12
706.513	9.12
707.266	6.12
708.02	8.12
708.774	10.12
709.527	9.12
710.28	8.12
711.034	6.12
711.787	10.12
712.54	10.12
713.293	7.12
714.046	7.12
714.799	11.12
715.552	9.12
716.305	7.12
717.058	10.12
717.81	9.12
718.563	10.12
719.315	10.12
720.068	9.12
720.82	9.12
721.573	7.12
722.325	9.12
723.077	9.12
723.829	9.12
724.581	8.12
725.333	9.12
726.085	9.12
726.836	10.12
727.588	8.12
728.34	7.12
729.091	9.12
729.843	11.12
730.594	8.12
731.346	9.12
732.097	10.12
732.848	10.12
733.599	8.12
734.35	9.12
735.101	7.12
735.852	5.12
736.603	10.12
737.354	11.12
738.104	10.12
738.855	10.12
739.605	12.12
740.356	12.12
741.106	11.12
741.856	10.12
742.607	8.12
743.357	12.12
744.107	11.12
744.857	11.12
745.607	13.12
746.357	11.12
747.106	12.12
747.856	12.12
748.606	12.12
749.355	12.12
750.105	11.12
750.854	12.12
751.603	12.12
752.353	13.12
753.102	10.12
753.851	14.12
754.6	14.12
755.349	13.12
756.098	14.12
756.847	14.12
757.595	10.12
758.344	11.12
759.093	15.12
759.841	13.12
760.589	13.12
761.338	15.12
762.086	12.12
762.834	16.12
763.582	13.12
764.331	11.12
765.079	14.12
765.826	14.12
766.574	14.12
767.322	14.12
768.07	15.12
768.817	17.12
769.565	14.12
770.312	13.12
771.06	15.12
771.807	17.12
772.554	16.12
773.302	14.12
774.049	15.12
774.796	17.12
775.543	15.12
776.29	15.12
777.036	15.12
777.783	15.12
778.53	15.12
779.276	19.12
780.023	18.12
780.769	16.12
781.516	13.12
782.262	14.12
783.008	17.12
783.754	15.12
784.5	16.12
785.246	15.12
785.992	17.12
786.738	16.12
787.484	18.12
788.23	17.12
788.975	14.12
789.721	16.12
790.466	17.12
791.212	16.12
791.957	15.12
792.702	15.12
793.447	11.12
794.193	14.12
794.938	15.12
795.683	14.12
796.427	12.12
797.172	14.12
797.917	15.12
798.662	13.12
799.406	11.12
800.151	11.12
800.895	14.12
801.64	12.12
802.384	12.12
803.128	11.12
803.872	12.12
804.616	13.12
805.36	10.12
806.104	11.12
806.848	10.12
807.592	11.12
808.336	9.12
809.079	10.12
809.823	12.12
810.566	10.12
811.31	12.12
812.053	11.12
812.796	9.12
813.539	7.12
814.283	8.12
815.026	6.12
815.769	8.12
816.511	6.12
817.254	8.12
817.997	7.12
818.74	9.12
819.482	9.12
820.225	8.12
820.967	7.12
821.71	9.12
822.452	8.12
823.194	7.12
823.936	7.12
824.678	11.12
825.42	8.12
826.162	6.12
826.904	6.12
827.646	5.12
828.388	7.12
829.129	7.12
829.871	8.12
830.612	7.12
831.354	6.12
832.095	9.12
832.836	5.12
833.577	8.12
834.319	8.12
835.06	7.12
835.801	8.12
836.542	8.12
837.282	6.12
838.023	5.12
838.764	6.12
839.504	7.12
840.245	7.12
840.985	7.12
841.726	3.12
842.466	5.12
843.206	7.12
843.946	6.12
844.687	5.12
845.427	7.12
846.166	8.12
846.906	5.12
847.646	6.12
848.386	4.12
849.125	4.12
849.865	5.12
850.605	5.12
851.344	3.12
852.083	5.12
852.823	7.12
853.562	4.12
854.301	4.12
855.04	4.12
855.779	4.12
856.518	4.12
857.257	1.12
857.995	6.12
858.734	2.12
859.473	2.12
860.211	1.12
860.95	3.12
861.688	3.12
862.426	3.12
863.165	1.12
863.903	3.12
864.641	3.12
865.379	3.12
866.117	3.12
866.855	3.12
867.593	2.12
868.33	1.12
869.068	3.12
869.806	2.12
870.543	-0.88
871.28	0.12
872.018	2.12
872.755	4.12
873.492	3.12
874.229	2.12
874.967	-0.88
875.703	0.12
876.44	2.12
877.177	1.12
877.914	3.12
878.651	1.12
879.387	0.12
880.124	3.12
880.86	2.12
881.597	3.12
882.333	3.12
883.069	3.12
883.806	1.12
884.542	2.12
885.278	4.12
886.014	1.12
886.749	1.12
887.485	0.12
888.221	1.12
888.957	1.12
889.692	1.12
890.428	2.12
891.163	4.12
891.899	-0.88
892.634	3.12
893.369	-1.88
894.104	1.12
894.839	1.12
895.574	2.12
896.309	2.12
897.044	1.12
897.779	3.12
898.514	0.12
899.248	2.12
899.983	3.12
900.717	1.12
901.452	0.12
902.186	0.12
902.92	3.12
903.654	1.12
904.389	1.12
905.123	3.12
905.857	1.12
906.59	-0.88
907.324	1.12
908.058	1.12
908.792	3.12
909.525	1.12
910.259	0.12
910.992	2.12
911.726	1.12
912.459	0.12
913.192	2.12
913.925	4.12
914.658	-1.88
915.391	1.12
916.124	-0.88
916.857	1.12
917.59	0.12
918.323	0.12
919.055	2.12
919.788	1.12
920.521	0.12
921.253	0.12
921.985	0.12
922.718	2.12
923.45	1.12
924.182	2.12
924.914	1.12
925.646	2.12
926.378	-0.88
927.11	1.12
927.841	-0.88
928.573	2.12
929.305	1.12
930.036	1.12
930.768	0.12
931.499	1.12
932.23	0.12
932.962	0.12
933.693	0.12
934.424	1.12
935.155	0.12
935.886	0.12
936.617	1.12
937.348	0.12
938.078	2.12
938.809	-0.88
939.54	2.12
940.27	0.12
941.001	1.12
941.731	0.12
942.461	1.12
943.191	1.12
943.922	2.12
944.652	0.12
945.382	0.12
946.112	-0.88
946.841	1.12
947.571	2.12
948.301	1.12
949.031	1.12
949.76	1.12
950.49	0.12
951.219	-0.88
951.948	2.12
952.678	-0.88
953.407	1.12
954.136	-0.88
954.865	1.12
955.594	1.12
956.323	0.12
957.052	2.12
957.78	2.12
958.509	1.12
959.238	1.12
959.966	-1.88
960.695	0.12
961.423	-2.88
962.151	2.12
962.88	-0.88
963.608	0.12
964.336	0.12
965.064	-0.88
965.792	-0.88
966.52	1.12
967.247	0.12
967.975	2.12
968.703	-0.88
969.43	0.12
970.158	2.12
970.885	1.12
971.613	0.12
972.34	1.12
973.067	-0.88
973.794	-1.88
974.521	0.12
975.248	3.12
975.975	0.12
976.702	1.12
977.429	0.12
978.156	0.12
978.882	-2.88
979.609	-0.88
980.335	-1.88
981.062	-0.88
981.788	-0.88
982.514	-0.88
983.24	0.12
983.967	0.12
984.693	-0.88
985.419	-1.88
986.144	2.12
986.87	-0.88
987.596	0.12
988.322	2.12
989.047	1.12
989.773	0.12
990.498	0.12
991.224	0.12
991.949	0.12
992.674	1.12
993.399	0.12
994.124	-0.88
994.849	0.12
995.574	0.12
996.299	2.12
997.024	1.12
997.749	0.12
998.473	2.12
999.198	-0.88
999.922	-0.88
1000.647	-2.88
1001.371	3.12
1002.095	-0.88
1002.82	-0.88
1003.544	0.12
1004.268	6.12
1004.992	5.12
1005.716	5.12
1006.439	6.12
1007.163	6.12
1007.887	5.12
1008.611	1.12
1009.334	3.12
1010.058	0.12
1010.781	2.12
1011.504	-1.88
1012.228	2.12
1012.951	0.12
1013.674	-0.88
1014.397	1.12
1015.12	-1.88
