节点500_705_QEPB04081__480__20-52-42-769.txt的数据

Date: Wed Nov 12 20:52:42 CST 2025
User: PC
Spectrometer: QEPB0408
触发模式: 0
积分时间 (秒): 1.000000E-2
Scans to average: 1
启用暗噪声校正: true
启用非线性校正: false
滑动平均宽度: 0
X轴模式: Wavelengths
Number of Pixels in Spectrum: 1044
>>>>>Begin Spectral Data<<<<<
220.843	6.25
221.644	8.25
222.444	5.25
223.244	6.25
224.045	7.25
224.845	8.25
225.645	6.25
226.445	9.25
227.245	5.25
228.045	8.25
228.845	5.25
229.645	8.25
230.444	6.25
231.244	8.25
232.043	8.25
232.843	9.25
233.642	10.25
234.442	6.25
235.241	8.25
236.04	8.25
236.839	9.25
237.638	10.25
238.437	10.25
239.236	11.25
240.035	7.25
240.833	11.25
241.632	11.25
242.43	15.25
243.229	12.25
244.027	9.25
244.826	12.25
245.624	13.25
246.422	13.25
247.22	11.25
248.018	15.25
248.816	15.25
249.614	17.25
250.412	16.25
251.21	16.25
252.007	20.25
252.805	15.25
253.602	15.25
254.4	18.25
255.197	20.25
255.994	21.25
256.791	21.25
257.589	19.25
258.386	22.25
259.183	20.25
259.979	19.25
260.776	20.25
261.573	22.25
262.37	23.25
263.166	21.25
263.963	23.25
264.759	21.25
265.556	24.25
266.352	25.25
267.148	26.25
267.944	26.25
268.74	29.25
269.536	28.25
270.332	27.25
271.128	27.25
271.924	28.25
272.719	33.25
273.515	31.25
274.311	29.25
275.106	30.25
275.901	32.25
276.697	32.25
277.492	31.25
278.287	31.25
279.082	30.25
279.877	28.25
280.672	31.25
281.467	33.25
282.262	33.25
283.056	34.25
283.851	34.25
284.646	31.25
285.44	32.25
286.234	31.25
287.029	31.25
287.823	33.25
288.617	32.25
289.411	28.25
290.205	34.25
290.999	33.25
291.793	32.25
292.587	28.25
293.381	29.25
294.174	29.25
294.968	29.25
295.761	27.25
296.555	27.25
297.348	26.25
298.141	28.25
298.935	24.25
299.728	24.25
300.521	24.25
301.314	23.25
302.107	26.25
302.899	23.25
303.692	22.25
304.485	23.25
305.277	22.25
306.07	21.25
306.862	25.25
307.655	24.25
308.447	21.25
309.239	23.25
310.031	18.25
310.823	22.25
311.615	17.25
312.407	18.25
313.199	17.25
313.991	16.25
314.783	17.25
315.574	18.25
316.366	17.25
317.157	15.25
317.949	14.25
318.74	16.25
319.531	13.25
320.322	15.25
321.113	13.25
321.904	13.25
322.695	15.25
323.486	14.25
324.277	14.25
325.068	13.25
325.858	14.25
326.649	14.25
327.439	12.25
328.23	14.25
329.02	11.25
329.81	12.25
330.6	10.25
331.391	12.25
332.181	13.25
332.971	12.25
333.76	11.25
334.55	14.25
335.34	13.25
336.13	9.25
336.919	14.25
337.709	13.25
338.498	10.25
339.287	12.25
340.077	13.25
340.866	11.25
341.655	11.25
342.444	11.25
343.233	10.25
344.022	13.25
344.811	11.25
345.6	10.25
346.388	11.25
347.177	12.25
347.965	11.25
348.754	12.25
349.542	11.25
350.33	10.25
351.119	12.25
351.907	9.25
352.695	14.25
353.483	12.25
354.271	11.25
355.059	9.25
355.846	11.25
356.634	9.25
357.422	10.25
358.209	14.25
358.997	10.25
359.784	11.25
360.571	10.25
361.359	9.25
362.146	10.25
362.933	9.25
363.72	9.25
364.507	8.25
365.294	10.25
366.081	8.25
366.867	11.25
367.654	9.25
368.44	7.25
369.227	12.25
370.013	10.25
370.8	11.25
371.586	10.25
372.372	11.25
373.158	7.25
373.944	10.25
374.73	9.25
375.516	10.25
376.302	10.25
377.088	11.25
377.873	10.25
378.659	9.25
379.445	10.25
380.23	9.25
381.015	10.25
381.801	8.25
382.586	12.25
383.371	11.25
384.156	10.25
384.941	12.25
385.726	10.25
386.511	11.25
387.296	12.25
388.08	12.25
388.865	11.25
389.649	10.25
390.434	12.25
391.218	12.25
392.003	11.25
392.787	12.25
393.571	11.25
394.355	14.25
395.139	11.25
395.923	13.25
396.707	12.25
397.491	13.25
398.274	10.25
399.058	13.25
399.842	12.25
400.625	11.25
401.408	12.25
402.192	13.25
402.975	12.25
403.758	15.25
404.541	14.25
405.324	15.25
406.107	18.25
406.89	14.25
407.673	18.25
408.456	15.25
409.238	17.25
410.021	15.25
410.803	15.25
411.586	16.25
412.368	17.25
413.151	16.25
413.933	15.25
414.715	17.25
415.497	16.25
416.279	22.25
417.061	17.25
417.843	18.25
418.624	20.25
419.406	17.25
420.188	19.25
420.969	18.25
421.751	24.25
422.532	21.25
423.313	21.25
424.095	21.25
424.876	24.25
425.657	24.25
426.438	25.25
427.219	26.25
428	27.25
428.78	24.25
429.561	32.25
430.342	27.25
431.122	37.25
431.903	33.25
432.683	32.25
433.464	35.25
434.244	34.25
435.024	37.25
435.804	37.25
436.584	43.25
437.364	44.25
438.144	43.25
438.924	50.25
439.704	51.25
440.483	61.25
441.263	62.25
442.042	66.25
442.822	71.25
443.601	78.25
444.38	81.25
445.16	84.25
445.939	96.25
446.718	104.25
447.497	108.25
448.276	125.25
449.054	135.25
449.833	148.25
450.612	170.25
451.391	186.25
452.169	205.25
452.948	226.25
453.726	251.25
454.504	274.25
455.282	307.25
456.061	343.25
456.839	377.25
457.617	430.25
458.395	473.25
459.172	531.25
459.95	582.25
460.728	654.25
461.506	725.25
462.283	811.25
463.061	905.25
463.838	996.25
464.615	1130.25
465.393	1229.25
466.17	1366.25
466.947	1524.25
467.724	1686.25
468.501	1847.25
469.278	2038.25
470.055	2259.25
470.831	2474.25
471.608	2740.25
472.385	3008.25
473.161	3313.25
473.938	3606.25
474.714	3958.25
475.49	4355.25
476.266	4744.25
477.043	5166.25
477.819	5641.25
478.595	6144.25
479.371	6667.25
480.146	7273.25
480.922	7923.25
481.698	8625.25
482.473	9284.25
483.249	10147.25
484.024	10956.25
484.8	11872.25
485.575	12821.25
486.35	13847.25
487.126	14954.25
487.901	16143.25
488.676	17368.25
489.451	18706.25
490.225	20105.25
491	21545.25
491.775	22925.25
492.55	24583.25
493.324	26159.25
494.099	27818.25
494.873	29398.25
495.647	31033.25
496.422	32755.25
497.196	34338.25
497.97	36014.25
498.744	37451.25
499.518	39024.25
500.292	40408.25
501.066	41412.25
501.839	42410.25
502.613	43247.25
503.387	43977.25
504.16	44516.25
504.934	44804.25
505.707	44904.25
506.48	44674.25
507.253	44396.25
508.027	44009.25
508.8	43290.25
509.573	42516.25
510.346	41573.25
511.118	40692.25
511.891	39598.25
512.664	38152.25
513.437	36902.25
514.209	35627.25
514.982	34329.25
515.754	32908.25
516.526	31674.25
517.298	30371.25
518.071	29279.25
518.843	28124.25
519.615	27009.25
520.387	25934.25
521.159	24899.25
521.93	23914.25
522.702	22957.25
523.474	21969.25
524.245	21035.25
525.017	20159.25
525.788	19378.25
526.56	18518.25
527.331	17730.25
528.102	16833.25
528.873	16028.25
529.644	15277.25
530.415	14642.25
531.186	13976.25
531.957	13231.25
532.728	12559.25
533.498	11927.25
534.269	11290.25
535.039	10702.25
535.81	10148.25
536.58	9559.25
537.351	9060.25
538.121	8608.25
538.891	8124.25
539.661	7727.25
540.431	7284.25
541.201	6941.25
541.971	6588.25
542.741	6212.25
543.51	5867.25
544.28	5607.25
545.05	5329.25
545.819	5113.25
546.588	4855.25
547.358	4628.25
548.127	4402.25
548.896	4185.25
549.665	3964.25
550.434	3757.25
551.203	3555.25
551.972	3393.25
552.741	3192.25
553.51	3035.25
554.278	2838.25
555.047	2704.25
555.815	2562.25
556.584	2425.25
557.352	2286.25
558.121	2173.25
558.889	2039.25
559.657	1925.25
560.425	1828.25
561.193	1726.25
561.961	1642.25
562.729	1571.25
563.496	1458.25
564.264	1385.25
565.032	1318.25
565.799	1232.25
566.567	1171.25
567.334	1102.25
568.101	1058.25
568.869	995.25
569.636	927.25
570.403	877.25
571.17	831.25
571.937	799.25
572.704	737.25
573.471	703.25
574.237	661.25
575.004	624.25
575.771	581.25
576.537	546.25
577.303	524.25
578.07	487.25
578.836	471.25
579.602	441.25
580.368	418.25
581.134	400.25
581.9	383.25
582.666	354.25
583.432	344.25
584.198	328.25
584.964	315.25
585.729	292.25
586.495	274.25
587.26	257.25
588.025	254.25
588.791	243.25
589.556	219.25
590.321	214.25
591.086	206.25
591.851	191.25
592.616	179.25
593.381	171.25
594.146	170.25
594.911	162.25
595.675	153.25
596.44	151.25
597.204	138.25
597.969	134.25
598.733	127.25
599.497	121.25
600.261	117.25
601.025	114.25
601.79	107.25
602.553	102.25
603.317	99.25
604.081	93.25
604.845	86.25
605.609	85.25
606.372	79.25
607.136	82.25
607.899	74.25
608.662	76.25
609.426	71.25
610.189	71.25
610.952	66.25
611.715	65.25
612.478	63.25
613.241	56.25
614.004	54.25
614.767	56.25
615.529	51.25
616.292	51.25
617.055	48.25
617.817	48.25
618.579	48.25
619.342	47.25
620.104	42.25
620.866	42.25
621.628	41.25
622.39	39.25
623.152	38.25
623.914	36.25
624.676	37.25
625.438	31.25
626.199	31.25
626.961	35.25
627.722	30.25
628.484	28.25
629.245	32.25
630.006	28.25
630.768	30.25
631.529	26.25
632.29	25.25
633.051	27.25
633.812	26.25
634.573	24.25
635.333	25.25
636.094	21.25
636.855	23.25
637.615	22.25
638.376	22.25
639.136	20.25
639.896	22.25
640.657	19.25
641.417	19.25
642.177	19.25
642.937	17.25
643.697	19.25
644.457	16.25
645.216	17.25
645.976	15.25
646.736	17.25
647.495	13.25
648.255	16.25
649.014	16.25
649.774	12.25
650.533	14.25
651.292	14.25
652.051	15.25
652.81	13.25
653.569	15.25
654.328	13.25
655.087	14.25
655.846	14.25
656.604	13.25
657.363	10.25
658.121	14.25
658.88	12.25
659.638	11.25
660.397	12.25
661.155	11.25
661.913	10.25
662.671	11.25
663.429	9.25
664.187	13.25
664.945	10.25
665.703	9.25
666.46	9.25
667.218	9.25
667.976	8.25
668.733	12.25
669.49	9.25
670.248	8.25
671.005	10.25
671.762	7.25
672.519	11.25
673.276	9.25
674.033	10.25
674.79	9.25
675.547	8.25
676.304	9.25
677.06	8.25
677.817	7.25
678.574	8.25
679.33	8.25
680.086	10.25
680.843	9.25
681.599	9.25
682.355	10.25
683.111	8.25
683.867	7.25
684.623	8.25
685.379	10.25
686.135	7.25
686.89	7.25
687.646	5.25
688.402	7.25
689.157	8.25
689.912	9.25
690.668	8.25
691.423	7.25
692.178	9.25
692.933	6.25
693.688	9.25
694.443	5.25
695.198	7.25
695.953	10.25
696.708	8.25
697.462	7.25
698.217	9.25
698.972	8.25
699.726	5.25
700.48	7.25
701.235	6.25
701.989	7.25
702.743	7.25
703.497	7.25
704.251	7.25
705.005	8.25
705.759	6.25
706.513	6.25
707.266	5.25
708.02	7.25
708.774	9.25
709.527	7.25
710.28	9.25
711.034	6.25
711.787	6.25
712.54	8.25
713.293	8.25
714.046	8.25
714.799	7.25
715.552	9.25
716.305	6.25
717.058	9.25
717.81	9.25
718.563	7.25
719.315	7.25
720.068	9.25
720.82	8.25
721.573	6.25
722.325	8.25
723.077	9.25
723.829	6.25
724.581	5.25
725.333	10.25
726.085	7.25
726.836	7.25
727.588	7.25
728.34	8.25
729.091	8.25
729.843	9.25
730.594	10.25
731.346	8.25
732.097	8.25
732.848	10.25
733.599	9.25
734.35	7.25
735.101	10.25
735.852	8.25
736.603	8.25
737.354	9.25
738.104	11.25
738.855	9.25
739.605	10.25
740.356	9.25
741.106	7.25
741.856	7.25
742.607	10.25
743.357	8.25
744.107	10.25
744.857	11.25
745.607	8.25
746.357	10.25
747.106	10.25
747.856	10.25
748.606	11.25
749.355	10.25
750.105	12.25
750.854	8.25
751.603	9.25
752.353	11.25
753.102	9.25
753.851	11.25
754.6	13.25
755.349	11.25
756.098	12.25
756.847	10.25
757.595	12.25
758.344	11.25
759.093	11.25
759.841	11.25
760.589	10.25
761.338	11.25
762.086	12.25
762.834	12.25
763.582	12.25
764.331	11.25
765.079	11.25
765.826	15.25
766.574	13.25
767.322	13.25
768.07	12.25
768.817	13.25
769.565	12.25
770.312	12.25
771.06	13.25
771.807	14.25
772.554	13.25
773.302	15.25
774.049	15.25
774.796	17.25
775.543	15.25
776.29	15.25
777.036	11.25
777.783	15.25
778.53	14.25
779.276	14.25
780.023	17.25
780.769	16.25
781.516	14.25
782.262	17.25
783.008	15.25
783.754	15.25
784.5	13.25
785.246	16.25
785.992	16.25
786.738	14.25
787.484	14.25
788.23	13.25
788.975	14.25
789.721	16.25
790.466	13.25
791.212	16.25
791.957	13.25
792.702	15.25
793.447	13.25
794.193	11.25
794.938	13.25
795.683	13.25
796.427	14.25
797.172	9.25
797.917	16.25
798.662	11.25
799.406	14.25
800.151	11.25
800.895	12.25
801.64	13.25
802.384	13.25
803.128	11.25
803.872	13.25
804.616	15.25
805.36	11.25
806.104	12.25
806.848	10.25
807.592	9.25
808.336	9.25
809.079	10.25
809.823	8.25
810.566	8.25
811.31	11.25
812.053	9.25
812.796	7.25
813.539	11.25
814.283	8.25
815.026	8.25
815.769	5.25
816.511	9.25
817.254	11.25
817.997	8.25
818.74	8.25
819.482	9.25
820.225	7.25
820.967	5.25
821.71	8.25
822.452	7.25
823.194	8.25
823.936	7.25
824.678	8.25
825.42	5.25
826.162	10.25
826.904	6.25
827.646	7.25
828.388	7.25
829.129	7.25
829.871	7.25
830.612	7.25
831.354	6.25
832.095	6.25
832.836	6.25
833.577	5.25
834.319	8.25
835.06	5.25
835.801	5.25
836.542	5.25
837.282	3.25
838.023	5.25
838.764	5.25
839.504	5.25
840.245	6.25
840.985	7.25
841.726	6.25
842.466	4.25
843.206	6.25
843.946	6.25
844.687	3.25
845.427	4.25
846.166	6.25
846.906	3.25
847.646	4.25
848.386	6.25
849.125	6.25
849.865	4.25
850.605	6.25
851.344	6.25
852.083	5.25
852.823	5.25
853.562	6.25
854.301	2.25
855.04	4.25
855.779	4.25
856.518	5.25
857.257	6.25
857.995	3.25
858.734	6.25
859.473	5.25
860.211	3.25
860.95	4.25
861.688	3.25
862.426	2.25
863.165	4.25
863.903	3.25
864.641	2.25
865.379	2.25
866.117	3.25
866.855	5.25
867.593	1.25
868.33	3.25
869.068	3.25
869.806	4.25
870.543	3.25
871.28	4.25
872.018	5.25
872.755	2.25
873.492	5.25
874.229	1.25
874.967	3.25
875.703	2.25
876.44	2.25
877.177	2.25
877.914	4.25
878.651	3.25
879.387	0.25
880.124	1.25
880.86	3.25
881.597	3.25
882.333	1.25
883.069	1.25
883.806	1.25
884.542	0.25
885.278	0.25
886.014	3.25
886.749	1.25
887.485	1.25
888.221	2.25
888.957	-0.75
889.692	1.25
890.428	1.25
891.163	2.25
891.899	2.25
892.634	1.25
893.369	2.25
894.104	2.25
894.839	1.25
895.574	1.25
896.309	1.25
897.044	-0.75
897.779	-2.75
898.514	2.25
899.248	1.25
899.983	3.25
900.717	0.25
901.452	2.25
902.186	0.25
902.92	3.25
903.654	-0.75
904.389	1.25
905.123	1.25
905.857	-0.75
906.59	1.25
907.324	0.25
908.058	1.25
908.792	0.25
909.525	2.25
910.259	0.25
910.992	-0.75
911.726	2.25
912.459	1.25
913.192	2.25
913.925	1.25
914.658	1.25
915.391	1.25
916.124	2.25
916.857	0.25
917.59	0.25
918.323	-0.75
919.055	1.25
919.788	-0.75
920.521	1.25
921.253	0.25
921.985	2.25
922.718	0.25
923.45	-0.75
924.182	-0.75
924.914	0.25
925.646	0.25
926.378	2.25
927.11	-0.75
927.841	1.25
928.573	-0.75
929.305	-0.75
930.036	1.25
930.768	1.25
931.499	0.25
932.23	-0.75
932.962	1.25
933.693	1.25
934.424	0.25
935.155	2.25
935.886	2.25
936.617	-0.75
937.348	0.25
938.078	2.25
938.809	0.25
939.54	-0.75
940.27	1.25
941.001	-0.75
941.731	1.25
942.461	1.25
943.191	-2.75
943.922	0.25
944.652	-0.75
945.382	-0.75
946.112	2.25
946.841	-0.75
947.571	1.25
948.301	2.25
949.031	2.25
949.76	-0.75
950.49	1.25
951.219	-0.75
951.948	-1.75
952.678	2.25
953.407	1.25
954.136	0.25
954.865	2.25
955.594	1.25
956.323	1.25
957.052	-0.75
957.78	1.25
958.509	0.25
959.238	1.25
959.966	2.25
960.695	1.25
961.423	0.25
962.151	0.25
962.88	1.25
963.608	-0.75
964.336	-0.75
965.064	0.25
965.792	1.25
966.52	0.25
967.247	0.25
967.975	1.25
968.703	0.25
969.43	0.25
970.158	1.25
970.885	1.25
971.613	1.25
972.34	0.25
973.067	3.25
973.794	1.25
974.521	0.25
975.248	0.25
975.975	0.25
976.702	0.25
977.429	0.25
978.156	0.25
978.882	2.25
979.609	-0.75
980.335	2.25
981.062	-1.75
981.788	1.25
982.514	-0.75
983.24	1.25
983.967	-1.75
984.693	0.25
985.419	0.25
986.144	-0.75
986.87	0.25
987.596	1.25
988.322	-0.75
989.047	-0.75
989.773	0.25
990.498	2.25
991.224	0.25
991.949	1.25
992.674	1.25
993.399	2.25
994.124	1.25
994.849	-1.75
995.574	1.25
996.299	1.25
997.024	-0.75
997.749	2.25
998.473	-1.75
999.198	1.25
999.922	1.25
1000.647	1.25
1001.371	3.25
1002.095	-2.75
1002.82	-0.75
1003.544	-2.75
1004.268	5.25
1004.992	5.25
1005.716	4.25
1006.439	7.25
1007.163	5.25
1007.887	5.25
1008.611	0.25
1009.334	0.25
1010.058	1.25
1010.781	0.25
1011.504	0.25
1012.228	2.25
1012.951	0.25
1013.674	1.25
1014.397	0.25
1015.12	1.25
