节点500_705_QEPB04081__689__20-55-45-784.txt的数据

Date: Wed Nov 12 20:55:45 CST 2025
User: PC
Spectrometer: QEPB0408
触发模式: 0
积分时间 (秒): 1.000000E-2
Scans to average: 1
启用暗噪声校正: true
启用非线性校正: false
滑动平均宽度: 0
X轴模式: Wavelengths
Number of Pixels in Spectrum: 1044
>>>>>Begin Spectral Data<<<<<
220.843	8.62
221.644	4.62
222.444	4.62
223.244	4.62
224.045	4.62
224.845	6.62
225.645	5.62
226.445	9.62
227.245	5.62
228.045	7.62
228.845	7.62
229.645	6.62
230.444	9.62
231.244	8.62
232.043	8.62
232.843	9.62
233.642	6.62
234.442	9.62
235.241	8.62
236.04	9.62
236.839	10.62
237.638	14.62
238.437	12.62
239.236	11.62
240.035	11.62
240.833	11.62
241.632	9.62
242.43	13.62
243.229	13.62
244.027	11.62
244.826	12.62
245.624	13.62
246.422	12.62
247.22	12.62
248.018	12.62
248.816	11.62
249.614	15.62
250.412	11.62
251.21	16.62
252.007	15.62
252.805	15.62
253.602	19.62
254.4	16.62
255.197	15.62
255.994	15.62
256.791	17.62
257.589	18.62
258.386	17.62
259.183	20.62
259.979	18.62
260.776	22.62
261.573	23.62
262.37	19.62
263.166	22.62
263.963	22.62
264.759	24.62
265.556	22.62
266.352	22.62
267.148	25.62
267.944	26.62
268.74	26.62
269.536	24.62
270.332	27.62
271.128	29.62
271.924	28.62
272.719	26.62
273.515	29.62
274.311	29.62
275.106	27.62
275.901	29.62
276.697	28.62
277.492	30.62
278.287	30.62
279.082	29.62
279.877	31.62
280.672	29.62
281.467	33.62
282.262	30.62
283.056	32.62
283.851	31.62
284.646	30.62
285.44	33.62
286.234	32.62
287.029	31.62
287.823	28.62
288.617	30.62
289.411	32.62
290.205	29.62
290.999	29.62
291.793	26.62
292.587	30.62
293.381	26.62
294.174	28.62
294.968	26.62
295.761	27.62
296.555	26.62
297.348	25.62
298.141	25.62
298.935	29.62
299.728	25.62
300.521	26.62
301.314	26.62
302.107	25.62
302.899	23.62
303.692	22.62
304.485	22.62
305.277	23.62
306.07	19.62
306.862	21.62
307.655	21.62
308.447	21.62
309.239	21.62
310.031	21.62
310.823	22.62
311.615	20.62
312.407	17.62
313.199	15.62
313.991	15.62
314.783	15.62
315.574	16.62
316.366	16.62
317.157	17.62
317.949	14.62
318.74	11.62
319.531	16.62
320.322	13.62
321.113	13.62
321.904	12.62
322.695	11.62
323.486	11.62
324.277	13.62
325.068	14.62
325.858	15.62
326.649	13.62
327.439	12.62
328.23	11.62
329.02	13.62
329.81	10.62
330.6	13.62
331.391	15.62
332.181	11.62
332.971	11.62
333.76	13.62
334.55	11.62
335.34	11.62
336.13	14.62
336.919	11.62
337.709	11.62
338.498	11.62
339.287	8.62
340.077	13.62
340.866	10.62
341.655	13.62
342.444	12.62
343.233	9.62
344.022	13.62
344.811	12.62
345.6	12.62
346.388	9.62
347.177	10.62
347.965	11.62
348.754	9.62
349.542	12.62
350.33	11.62
351.119	11.62
351.907	11.62
352.695	11.62
353.483	13.62
354.271	11.62
355.059	13.62
355.846	13.62
356.634	10.62
357.422	11.62
358.209	11.62
358.997	11.62
359.784	9.62
360.571	12.62
361.359	9.62
362.146	9.62
362.933	8.62
363.72	10.62
364.507	11.62
365.294	11.62
366.081	8.62
366.867	9.62
367.654	8.62
368.44	11.62
369.227	8.62
370.013	10.62
370.8	11.62
371.586	9.62
372.372	9.62
373.158	10.62
373.944	11.62
374.73	8.62
375.516	9.62
376.302	7.62
377.088	9.62
377.873	9.62
378.659	9.62
379.445	11.62
380.23	9.62
381.015	11.62
381.801	10.62
382.586	7.62
383.371	8.62
384.156	9.62
384.941	13.62
385.726	9.62
386.511	10.62
387.296	11.62
388.08	11.62
388.865	12.62
389.649	10.62
390.434	10.62
391.218	10.62
392.003	11.62
392.787	8.62
393.571	12.62
394.355	10.62
395.139	12.62
395.923	10.62
396.707	13.62
397.491	11.62
398.274	15.62
399.058	11.62
399.842	13.62
400.625	12.62
401.408	11.62
402.192	14.62
402.975	15.62
403.758	14.62
404.541	17.62
405.324	13.62
406.107	15.62
406.89	14.62
407.673	17.62
408.456	13.62
409.238	15.62
410.021	15.62
410.803	14.62
411.586	16.62
412.368	16.62
413.151	17.62
413.933	17.62
414.715	14.62
415.497	17.62
416.279	16.62
417.061	19.62
417.843	18.62
418.624	19.62
419.406	21.62
420.188	20.62
420.969	22.62
421.751	21.62
422.532	24.62
423.313	22.62
424.095	24.62
424.876	24.62
425.657	24.62
426.438	26.62
427.219	21.62
428	25.62
428.78	28.62
429.561	26.62
430.342	32.62
431.122	28.62
431.903	30.62
432.683	34.62
433.464	35.62
434.244	35.62
435.024	40.62
435.804	44.62
436.584	43.62
437.364	46.62
438.144	45.62
438.924	54.62
439.704	52.62
440.483	58.62
441.263	61.62
442.042	65.62
442.822	72.62
443.601	78.62
444.38	80.62
445.16	94.62
445.939	98.62
446.718	108.62
447.497	119.62
448.276	131.62
449.054	143.62
449.833	159.62
450.612	175.62
451.391	192.62
452.169	210.62
452.948	230.62
453.726	257.62
454.504	292.62
455.282	322.62
456.061	359.62
456.839	392.62
457.617	444.62
458.395	480.62
459.172	545.62
459.95	607.62
460.728	674.62
461.506	761.62
462.283	839.62
463.061	924.62
463.838	1031.62
464.615	1142.62
465.393	1267.62
466.17	1401.62
466.947	1539.62
467.724	1700.62
468.501	1880.62
469.278	2078.62
470.055	2287.62
470.831	2527.62
471.608	2739.62
472.385	3008.62
473.161	3292.62
473.938	3602.62
474.714	3955.62
475.49	4319.62
476.266	4733.62
477.043	5126.62
477.819	5539.62
478.595	6010.62
479.371	6573.62
480.146	7128.62
480.922	7694.62
481.698	8359.62
482.473	9061.62
483.249	9831.62
484.024	10619.62
484.8	11400.62
485.575	12315.62
486.35	13287.62
487.126	14328.62
487.901	15358.62
488.676	16536.62
489.451	17757.62
490.225	19115.62
491	20407.62
491.775	21738.62
492.55	23162.62
493.324	24645.62
494.099	26209.62
494.873	27768.62
495.647	29273.62
496.422	30801.62
497.196	32463.62
497.97	33963.62
498.744	35367.62
499.518	36929.62
500.292	38305.62
501.066	39372.62
501.839	40360.62
502.613	41316.62
503.387	42110.62
504.16	42749.62
504.934	43243.62
505.707	43431.62
506.48	43418.62
507.253	43204.62
508.027	42999.62
508.8	42480.62
509.573	41822.62
510.346	41074.62
511.118	40348.62
511.891	39400.62
512.664	38191.62
513.437	36902.62
514.209	35716.62
514.982	34537.62
515.754	33264.62
516.526	32055.62
517.298	30800.62
518.071	29721.62
518.843	28544.62
519.615	27325.62
520.387	26265.62
521.159	25318.62
521.93	24278.62
522.702	23316.62
523.474	22321.62
524.245	21444.62
525.017	20519.62
525.788	19740.62
526.56	18915.62
527.331	18123.62
528.102	17214.62
528.873	16413.62
529.644	15637.62
530.415	15001.62
531.186	14323.62
531.957	13590.62
532.728	12923.62
533.498	12289.62
534.269	11658.62
535.039	11072.62
535.81	10455.62
536.58	9927.62
537.351	9383.62
538.121	8900.62
538.891	8407.62
539.661	8015.62
540.431	7543.62
541.201	7186.62
541.971	6833.62
542.741	6435.62
543.51	6132.62
544.28	5800.62
545.05	5549.62
545.819	5281.62
546.588	5050.62
547.358	4811.62
548.127	4553.62
548.896	4322.62
549.665	4106.62
550.434	3922.62
551.203	3707.62
551.972	3522.62
552.741	3346.62
553.51	3150.62
554.278	2991.62
555.047	2819.62
555.815	2669.62
556.584	2524.62
557.352	2386.62
558.121	2260.62
558.889	2134.62
559.657	2004.62
560.425	1915.62
561.193	1824.62
561.961	1717.62
562.729	1615.62
563.496	1538.62
564.264	1456.62
565.032	1358.62
565.799	1290.62
566.567	1238.62
567.334	1164.62
568.101	1103.62
568.869	1039.62
569.636	983.62
570.403	920.62
571.17	880.62
571.937	823.62
572.704	783.62
573.471	734.62
574.237	687.62
575.004	652.62
575.771	612.62
576.537	584.62
577.303	548.62
578.07	525.62
578.836	489.62
579.602	450.62
580.368	440.62
581.134	422.62
581.9	402.62
582.666	385.62
583.432	367.62
584.198	341.62
584.964	321.62
585.729	311.62
586.495	290.62
587.26	279.62
588.025	263.62
588.791	248.62
589.556	233.62
590.321	222.62
591.086	211.62
591.851	200.62
592.616	193.62
593.381	179.62
594.146	176.62
594.911	166.62
595.675	158.62
596.44	153.62
597.204	140.62
597.969	136.62
598.733	130.62
599.497	126.62
600.261	120.62
601.025	116.62
601.79	113.62
602.553	108.62
603.317	99.62
604.081	101.62
604.845	92.62
605.609	90.62
606.372	87.62
607.136	80.62
607.899	83.62
608.662	75.62
609.426	73.62
610.189	67.62
610.952	69.62
611.715	63.62
612.478	61.62
613.241	60.62
614.004	55.62
614.767	60.62
615.529	52.62
616.292	50.62
617.055	54.62
617.817	47.62
618.579	45.62
619.342	45.62
620.104	46.62
620.866	43.62
621.628	41.62
622.39	39.62
623.152	37.62
623.914	38.62
624.676	36.62
625.438	35.62
626.199	36.62
626.961	33.62
627.722	31.62
628.484	27.62
629.245	31.62
630.006	29.62
630.768	29.62
631.529	31.62
632.29	27.62
633.051	26.62
633.812	23.62
634.573	26.62
635.333	26.62
636.094	24.62
636.855	23.62
637.615	20.62
638.376	21.62
639.136	23.62
639.896	20.62
640.657	19.62
641.417	18.62
642.177	18.62
642.937	18.62
643.697	19.62
644.457	19.62
645.216	17.62
645.976	18.62
646.736	16.62
647.495	17.62
648.255	14.62
649.014	16.62
649.774	15.62
650.533	15.62
651.292	14.62
652.051	17.62
652.81	15.62
653.569	13.62
654.328	13.62
655.087	14.62
655.846	12.62
656.604	14.62
657.363	13.62
658.121	11.62
658.88	11.62
659.638	11.62
660.397	12.62
661.155	10.62
661.913	12.62
662.671	9.62
663.429	11.62
664.187	9.62
664.945	11.62
665.703	12.62
666.46	12.62
667.218	10.62
667.976	9.62
668.733	11.62
669.49	10.62
670.248	12.62
671.005	10.62
671.762	7.62
672.519	9.62
673.276	8.62
674.033	7.62
674.79	11.62
675.547	11.62
676.304	6.62
677.06	7.62
677.817	9.62
678.574	10.62
679.33	9.62
680.086	8.62
680.843	7.62
681.599	7.62
682.355	8.62
683.111	8.62
683.867	9.62
684.623	10.62
685.379	8.62
686.135	9.62
686.89	9.62
687.646	6.62
688.402	9.62
689.157	8.62
689.912	7.62
690.668	10.62
691.423	7.62
692.178	8.62
692.933	7.62
693.688	7.62
694.443	10.62
695.198	10.62
695.953	6.62
696.708	10.62
697.462	7.62
698.217	7.62
698.972	6.62
699.726	6.62
700.48	8.62
701.235	7.62
701.989	6.62
702.743	8.62
703.497	7.62
704.251	6.62
705.005	9.62
705.759	7.62
706.513	8.62
707.266	8.62
708.02	8.62
708.774	8.62
709.527	8.62
710.28	4.62
711.034	5.62
711.787	11.62
712.54	6.62
713.293	7.62
714.046	8.62
714.799	8.62
715.552	8.62
716.305	7.62
717.058	9.62
717.81	9.62
718.563	8.62
719.315	10.62
720.068	5.62
720.82	9.62
721.573	6.62
722.325	10.62
723.077	7.62
723.829	9.62
724.581	8.62
725.333	7.62
726.085	7.62
726.836	7.62
727.588	8.62
728.34	9.62
729.091	9.62
729.843	13.62
730.594	8.62
731.346	10.62
732.097	11.62
732.848	10.62
733.599	10.62
734.35	8.62
735.101	8.62
735.852	9.62
736.603	11.62
737.354	10.62
738.104	7.62
738.855	11.62
739.605	8.62
740.356	9.62
741.106	10.62
741.856	8.62
742.607	10.62
743.357	10.62
744.107	8.62
744.857	9.62
745.607	11.62
746.357	11.62
747.106	7.62
747.856	10.62
748.606	11.62
749.355	10.62
750.105	12.62
750.854	10.62
751.603	11.62
752.353	11.62
753.102	11.62
753.851	12.62
754.6	9.62
755.349	9.62
756.098	11.62
756.847	11.62
757.595	9.62
758.344	13.62
759.093	15.62
759.841	9.62
760.589	12.62
761.338	10.62
762.086	13.62
762.834	11.62
763.582	12.62
764.331	11.62
765.079	12.62
765.826	11.62
766.574	10.62
767.322	12.62
768.07	13.62
768.817	13.62
769.565	14.62
770.312	11.62
771.06	14.62
771.807	13.62
772.554	12.62
773.302	12.62
774.049	15.62
774.796	14.62
775.543	12.62
776.29	19.62
777.036	12.62
777.783	15.62
778.53	16.62
779.276	14.62
780.023	13.62
780.769	17.62
781.516	15.62
782.262	15.62
783.008	13.62
783.754	16.62
784.5	13.62
785.246	15.62
785.992	16.62
786.738	15.62
787.484	14.62
788.23	14.62
788.975	12.62
789.721	16.62
790.466	13.62
791.212	15.62
791.957	14.62
792.702	14.62
793.447	11.62
794.193	13.62
794.938	12.62
795.683	12.62
796.427	14.62
797.172	12.62
797.917	11.62
798.662	12.62
799.406	14.62
800.151	12.62
800.895	10.62
801.64	11.62
802.384	12.62
803.128	12.62
803.872	12.62
804.616	11.62
805.36	12.62
806.104	10.62
806.848	10.62
807.592	9.62
808.336	12.62
809.079	11.62
809.823	9.62
810.566	13.62
811.31	9.62
812.053	11.62
812.796	8.62
813.539	8.62
814.283	7.62
815.026	11.62
815.769	9.62
816.511	10.62
817.254	9.62
817.997	9.62
818.74	6.62
819.482	5.62
820.225	8.62
820.967	10.62
821.71	7.62
822.452	8.62
823.194	5.62
823.936	9.62
824.678	5.62
825.42	7.62
826.162	8.62
826.904	7.62
827.646	5.62
828.388	7.62
829.129	7.62
829.871	8.62
830.612	6.62
831.354	6.62
832.095	6.62
832.836	7.62
833.577	6.62
834.319	5.62
835.06	5.62
835.801	5.62
836.542	6.62
837.282	7.62
838.023	4.62
838.764	6.62
839.504	6.62
840.245	6.62
840.985	5.62
841.726	6.62
842.466	6.62
843.206	5.62
843.946	3.62
844.687	4.62
845.427	5.62
846.166	4.62
846.906	5.62
847.646	5.62
848.386	4.62
849.125	5.62
849.865	5.62
850.605	6.62
851.344	5.62
852.083	4.62
852.823	5.62
853.562	4.62
854.301	6.62
855.04	4.62
855.779	2.62
856.518	5.62
857.257	4.62
857.995	4.62
858.734	3.62
859.473	3.62
860.211	2.62
860.95	4.62
861.688	5.62
862.426	5.62
863.165	2.62
863.903	2.62
864.641	1.62
865.379	2.62
866.117	4.62
866.855	4.62
867.593	4.62
868.33	4.62
869.068	5.62
869.806	4.62
870.543	2.62
871.28	3.62
872.018	1.62
872.755	5.62
873.492	2.62
874.229	2.62
874.967	1.62
875.703	2.62
876.44	2.62
877.177	2.62
877.914	1.62
878.651	3.62
879.387	5.62
880.124	-0.38
880.86	2.62
881.597	1.62
882.333	2.62
883.069	3.62
883.806	2.62
884.542	3.62
885.278	2.62
886.014	3.62
886.749	1.62
887.485	2.62
888.221	1.62
888.957	2.62
889.692	3.62
890.428	2.62
891.163	3.62
891.899	0.62
892.634	1.62
893.369	1.62
894.104	2.62
894.839	-0.38
895.574	1.62
896.309	0.62
897.044	-0.38
897.779	3.62
898.514	0.62
899.248	2.62
899.983	2.62
900.717	1.62
901.452	2.62
902.186	0.62
902.92	0.62
903.654	0.62
904.389	-0.38
905.123	1.62
905.857	-0.38
906.59	-0.38
907.324	1.62
908.058	1.62
908.792	1.62
909.525	-0.38
910.259	3.62
910.992	1.62
911.726	3.62
912.459	2.62
913.192	0.62
913.925	-0.38
914.658	2.62
915.391	0.62
916.124	-0.38
916.857	3.62
917.59	1.62
918.323	0.62
919.055	1.62
919.788	1.62
920.521	3.62
921.253	0.62
921.985	0.62
922.718	1.62
923.45	-0.38
924.182	3.62
924.914	1.62
925.646	-0.38
926.378	2.62
927.11	1.62
927.841	-0.38
928.573	0.62
929.305	2.62
930.036	0.62
930.768	0.62
931.499	1.62
932.23	0.62
932.962	3.62
933.693	1.62
934.424	0.62
935.155	2.62
935.886	0.62
936.617	2.62
937.348	1.62
938.078	1.62
938.809	-0.38
939.54	2.62
940.27	0.62
941.001	0.62
941.731	2.62
942.461	-1.38
943.191	0.62
943.922	1.62
944.652	0.62
945.382	-0.38
946.112	1.62
946.841	2.62
947.571	2.62
948.301	-0.38
949.031	1.62
949.76	0.62
950.49	0.62
951.219	-1.38
951.948	2.62
952.678	-0.38
953.407	1.62
954.136	1.62
954.865	1.62
955.594	1.62
956.323	0.62
957.052	2.62
957.78	1.62
958.509	1.62
959.238	2.62
959.966	-0.38
960.695	1.62
961.423	2.62
962.151	1.62
962.88	-0.38
963.608	1.62
964.336	-1.38
965.064	1.62
965.792	1.62
966.52	2.62
967.247	1.62
967.975	2.62
968.703	0.62
969.43	2.62
970.158	-1.38
970.885	1.62
971.613	4.62
972.34	-0.38
973.067	0.62
973.794	-0.38
974.521	1.62
975.248	1.62
975.975	-0.38
976.702	-0.38
977.429	0.62
978.156	1.62
978.882	0.62
979.609	2.62
980.335	-1.38
981.062	3.62
981.788	-0.38
982.514	1.62
983.24	-0.38
983.967	-1.38
984.693	0.62
985.419	1.62
986.144	-0.38
986.87	1.62
987.596	-0.38
988.322	2.62
989.047	-0.38
989.773	0.62
990.498	-0.38
991.224	0.62
991.949	0.62
992.674	1.62
993.399	2.62
994.124	-0.38
994.849	0.62
995.574	1.62
996.299	-0.38
997.024	2.62
997.749	2.62
998.473	-0.38
999.198	-0.38
999.922	0.62
1000.647	-2.38
1001.371	2.62
1002.095	-0.38
1002.82	-1.38
1003.544	-2.38
1004.268	4.62
1004.992	3.62
1005.716	3.62
1006.439	4.62
1007.163	6.62
1007.887	5.62
1008.611	1.62
1009.334	1.62
1010.058	0.62
1010.781	1.62
1011.504	-0.38
1012.228	0.62
1012.951	0.62
1013.674	-0.38
1014.397	0.62
1015.12	0.62
