节点500_705_QEPB04081__399__20-51-36-621.txt的数据

Date: Wed Nov 12 20:51:36 CST 2025
User: PC
Spectrometer: QEPB0408
触发模式: 0
积分时间 (秒): 1.000000E-2
Scans to average: 1
启用暗噪声校正: true
启用非线性校正: false
滑动平均宽度: 0
X轴模式: Wavelengths
Number of Pixels in Spectrum: 1044
>>>>>Begin Spectral Data<<<<<
220.843	3.88
221.644	6.88
222.444	5.88
223.244	3.88
224.045	9.88
224.845	5.88
225.645	6.88
226.445	5.88
227.245	4.88
228.045	7.88
228.845	8.88
229.645	8.88
230.444	7.88
231.244	8.88
232.043	7.88
232.843	7.88
233.642	9.88
234.442	8.88
235.241	9.88
236.04	7.88
236.839	10.88
237.638	9.88
238.437	11.88
239.236	10.88
240.035	9.88
240.833	13.88
241.632	10.88
242.43	9.88
243.229	12.88
244.027	9.88
244.826	12.88
245.624	12.88
246.422	14.88
247.22	14.88
248.018	12.88
248.816	14.88
249.614	15.88
250.412	14.88
251.21	15.88
252.007	15.88
252.805	16.88
253.602	16.88
254.4	18.88
255.197	18.88
255.994	20.88
256.791	15.88
257.589	18.88
258.386	19.88
259.183	19.88
259.979	21.88
260.776	20.88
261.573	22.88
262.37	25.88
263.166	24.88
263.963	24.88
264.759	22.88
265.556	26.88
266.352	26.88
267.148	24.88
267.944	25.88
268.74	25.88
269.536	28.88
270.332	30.88
271.128	27.88
271.924	30.88
272.719	28.88
273.515	32.88
274.311	30.88
275.106	32.88
275.901	32.88
276.697	32.88
277.492	31.88
278.287	30.88
279.082	34.88
279.877	33.88
280.672	35.88
281.467	32.88
282.262	34.88
283.056	31.88
283.851	33.88
284.646	32.88
285.44	34.88
286.234	34.88
287.029	33.88
287.823	35.88
288.617	31.88
289.411	31.88
290.205	31.88
290.999	32.88
291.793	33.88
292.587	32.88
293.381	29.88
294.174	28.88
294.968	27.88
295.761	28.88
296.555	22.88
297.348	28.88
298.141	26.88
298.935	27.88
299.728	26.88
300.521	25.88
301.314	24.88
302.107	22.88
302.899	21.88
303.692	24.88
304.485	22.88
305.277	22.88
306.07	22.88
306.862	21.88
307.655	23.88
308.447	20.88
309.239	25.88
310.031	19.88
310.823	20.88
311.615	18.88
312.407	16.88
313.199	17.88
313.991	15.88
314.783	17.88
315.574	15.88
316.366	16.88
317.157	16.88
317.949	16.88
318.74	17.88
319.531	15.88
320.322	14.88
321.113	13.88
321.904	14.88
322.695	13.88
323.486	12.88
324.277	13.88
325.068	14.88
325.858	14.88
326.649	12.88
327.439	11.88
328.23	15.88
329.02	11.88
329.81	11.88
330.6	10.88
331.391	8.88
332.181	12.88
332.971	9.88
333.76	10.88
334.55	12.88
335.34	14.88
336.13	12.88
336.919	10.88
337.709	11.88
338.498	10.88
339.287	10.88
340.077	10.88
340.866	11.88
341.655	10.88
342.444	9.88
343.233	12.88
344.022	11.88
344.811	11.88
345.6	10.88
346.388	9.88
347.177	14.88
347.965	9.88
348.754	13.88
349.542	10.88
350.33	8.88
351.119	12.88
351.907	8.88
352.695	10.88
353.483	9.88
354.271	10.88
355.059	11.88
355.846	10.88
356.634	12.88
357.422	8.88
358.209	9.88
358.997	8.88
359.784	9.88
360.571	10.88
361.359	9.88
362.146	12.88
362.933	9.88
363.72	9.88
364.507	11.88
365.294	10.88
366.081	9.88
366.867	10.88
367.654	10.88
368.44	10.88
369.227	6.88
370.013	8.88
370.8	8.88
371.586	11.88
372.372	9.88
373.158	7.88
373.944	9.88
374.73	11.88
375.516	8.88
376.302	7.88
377.088	10.88
377.873	9.88
378.659	9.88
379.445	11.88
380.23	10.88
381.015	10.88
381.801	9.88
382.586	11.88
383.371	9.88
384.156	9.88
384.941	9.88
385.726	9.88
386.511	9.88
387.296	8.88
388.08	11.88
388.865	10.88
389.649	9.88
390.434	12.88
391.218	9.88
392.003	11.88
392.787	9.88
393.571	9.88
394.355	13.88
395.139	11.88
395.923	11.88
396.707	10.88
397.491	12.88
398.274	11.88
399.058	11.88
399.842	13.88
400.625	12.88
401.408	14.88
402.192	10.88
402.975	12.88
403.758	10.88
404.541	12.88
405.324	14.88
406.107	13.88
406.89	13.88
407.673	17.88
408.456	13.88
409.238	15.88
410.021	14.88
410.803	13.88
411.586	17.88
412.368	17.88
413.151	16.88
413.933	17.88
414.715	18.88
415.497	19.88
416.279	18.88
417.061	18.88
417.843	17.88
418.624	18.88
419.406	20.88
420.188	21.88
420.969	18.88
421.751	18.88
422.532	23.88
423.313	22.88
424.095	22.88
424.876	24.88
425.657	24.88
426.438	24.88
427.219	22.88
428	24.88
428.78	28.88
429.561	26.88
430.342	30.88
431.122	30.88
431.903	34.88
432.683	33.88
433.464	36.88
434.244	34.88
435.024	39.88
435.804	40.88
436.584	42.88
437.364	45.88
438.144	47.88
438.924	50.88
439.704	53.88
440.483	56.88
441.263	60.88
442.042	64.88
442.822	74.88
443.601	74.88
444.38	83.88
445.16	86.88
445.939	96.88
446.718	103.88
447.497	113.88
448.276	123.88
449.054	134.88
449.833	149.88
450.612	167.88
451.391	178.88
452.169	206.88
452.948	224.88
453.726	244.88
454.504	276.88
455.282	305.88
456.061	341.88
456.839	378.88
457.617	425.88
458.395	468.88
459.172	520.88
459.95	576.88
460.728	655.88
461.506	723.88
462.283	802.88
463.061	893.88
463.838	998.88
464.615	1108.88
465.393	1228.88
466.17	1366.88
466.947	1497.88
467.724	1682.88
468.501	1874.88
469.278	2067.88
470.055	2270.88
470.831	2498.88
471.608	2766.88
472.385	3059.88
473.161	3364.88
473.938	3703.88
474.714	4039.88
475.49	4436.88
476.266	4835.88
477.043	5283.88
477.819	5766.88
478.595	6292.88
479.371	6876.88
480.146	7526.88
480.922	8208.88
481.698	8913.88
482.473	9661.88
483.249	10526.88
484.024	11381.88
484.8	12314.88
485.575	13324.88
486.35	14439.88
487.126	15610.88
487.901	16836.88
488.676	18174.88
489.451	19576.88
490.225	21090.88
491	22553.88
491.775	24111.88
492.55	25834.88
493.324	27448.88
494.099	29184.88
494.873	30986.88
495.647	32682.88
496.422	34368.88
497.196	36060.88
497.97	37862.88
498.744	39265.88
499.518	40892.88
500.292	42344.88
501.066	43274.88
501.839	44250.88
502.613	44984.88
503.387	45748.88
504.16	46142.88
504.934	46426.88
505.707	46437.88
506.48	46121.88
507.253	45706.88
508.027	45215.88
508.8	44320.88
509.573	43340.88
510.346	42481.88
511.118	41385.88
511.891	40201.88
512.664	38780.88
513.437	37333.88
514.209	35957.88
514.982	34669.88
515.754	33314.88
516.526	31969.88
517.298	30763.88
518.071	29534.88
518.843	28407.88
519.615	27143.88
520.387	26112.88
521.159	25057.88
521.93	24039.88
522.702	23053.88
523.474	22015.88
524.245	21189.88
525.017	20304.88
525.788	19419.88
526.56	18549.88
527.331	17795.88
528.102	16881.88
528.873	16009.88
529.644	15304.88
530.415	14574.88
531.186	13909.88
531.957	13180.88
532.728	12526.88
533.498	11838.88
534.269	11265.88
535.039	10675.88
535.81	10105.88
536.58	9518.88
537.351	8988.88
538.121	8544.88
538.891	8119.88
539.661	7650.88
540.431	7200.88
541.201	6860.88
541.971	6481.88
542.741	6178.88
543.51	5848.88
544.28	5547.88
545.05	5293.88
545.819	5077.88
546.588	4833.88
547.358	4577.88
548.127	4378.88
548.896	4134.88
549.665	3931.88
550.434	3718.88
551.203	3548.88
551.972	3367.88
552.741	3158.88
553.51	3008.88
554.278	2819.88
555.047	2674.88
555.815	2526.88
556.584	2388.88
557.352	2263.88
558.121	2142.88
558.889	2041.88
559.657	1922.88
560.425	1813.88
561.193	1703.88
561.961	1600.88
562.729	1547.88
563.496	1446.88
564.264	1365.88
565.032	1301.88
565.799	1222.88
566.567	1160.88
567.334	1088.88
568.101	1029.88
568.869	979.88
569.636	917.88
570.403	870.88
571.17	823.88
571.937	778.88
572.704	734.88
573.471	687.88
574.237	650.88
575.004	614.88
575.771	583.88
576.537	542.88
577.303	518.88
578.07	495.88
578.836	467.88
579.602	431.88
580.368	414.88
581.134	397.88
581.9	374.88
582.666	353.88
583.432	334.88
584.198	319.88
584.964	304.88
585.729	285.88
586.495	268.88
587.26	255.88
588.025	248.88
588.791	233.88
589.556	216.88
590.321	210.88
591.086	194.88
591.851	191.88
592.616	177.88
593.381	179.88
594.146	162.88
594.911	156.88
595.675	147.88
596.44	141.88
597.204	133.88
597.969	131.88
598.733	120.88
599.497	121.88
600.261	114.88
601.025	106.88
601.79	106.88
602.553	95.88
603.317	95.88
604.081	94.88
604.845	88.88
605.609	89.88
606.372	85.88
607.136	80.88
607.899	76.88
608.662	72.88
609.426	69.88
610.189	69.88
610.952	65.88
611.715	61.88
612.478	60.88
613.241	57.88
614.004	55.88
614.767	54.88
615.529	52.88
616.292	50.88
617.055	50.88
617.817	46.88
618.579	45.88
619.342	45.88
620.104	42.88
620.866	39.88
621.628	37.88
622.39	39.88
623.152	33.88
623.914	36.88
624.676	32.88
625.438	35.88
626.199	32.88
626.961	32.88
627.722	31.88
628.484	30.88
629.245	27.88
630.006	25.88
630.768	28.88
631.529	29.88
632.29	23.88
633.051	26.88
633.812	23.88
634.573	24.88
635.333	22.88
636.094	20.88
636.855	23.88
637.615	20.88
638.376	19.88
639.136	20.88
639.896	21.88
640.657	18.88
641.417	18.88
642.177	17.88
642.937	16.88
643.697	19.88
644.457	18.88
645.216	17.88
645.976	18.88
646.736	13.88
647.495	14.88
648.255	15.88
649.014	16.88
649.774	13.88
650.533	15.88
651.292	13.88
652.051	13.88
652.81	13.88
653.569	14.88
654.328	12.88
655.087	14.88
655.846	12.88
656.604	13.88
657.363	10.88
658.121	14.88
658.88	12.88
659.638	10.88
660.397	10.88
661.155	10.88
661.913	11.88
662.671	10.88
663.429	8.88
664.187	11.88
664.945	10.88
665.703	10.88
666.46	9.88
667.218	11.88
667.976	9.88
668.733	8.88
669.49	11.88
670.248	7.88
671.005	10.88
671.762	10.88
672.519	8.88
673.276	7.88
674.033	7.88
674.79	7.88
675.547	10.88
676.304	7.88
677.06	8.88
677.817	5.88
678.574	10.88
679.33	6.88
680.086	7.88
680.843	8.88
681.599	7.88
682.355	8.88
683.111	8.88
683.867	10.88
684.623	5.88
685.379	8.88
686.135	8.88
686.89	5.88
687.646	8.88
688.402	7.88
689.157	7.88
689.912	6.88
690.668	5.88
691.423	6.88
692.178	6.88
692.933	6.88
693.688	9.88
694.443	9.88
695.198	10.88
695.953	8.88
696.708	5.88
697.462	7.88
698.217	7.88
698.972	6.88
699.726	6.88
700.48	4.88
701.235	7.88
701.989	6.88
702.743	4.88
703.497	6.88
704.251	5.88
705.005	7.88
705.759	7.88
706.513	7.88
707.266	8.88
708.02	9.88
708.774	7.88
709.527	6.88
710.28	7.88
711.034	8.88
711.787	6.88
712.54	8.88
713.293	6.88
714.046	7.88
714.799	7.88
715.552	6.88
716.305	10.88
717.058	8.88
717.81	7.88
718.563	8.88
719.315	8.88
720.068	8.88
720.82	4.88
721.573	7.88
722.325	9.88
723.077	8.88
723.829	8.88
724.581	7.88
725.333	8.88
726.085	4.88
726.836	9.88
727.588	7.88
728.34	7.88
729.091	9.88
729.843	11.88
730.594	8.88
731.346	7.88
732.097	8.88
732.848	8.88
733.599	7.88
734.35	7.88
735.101	5.88
735.852	7.88
736.603	5.88
737.354	7.88
738.104	12.88
738.855	9.88
739.605	9.88
740.356	7.88
741.106	10.88
741.856	9.88
742.607	10.88
743.357	9.88
744.107	9.88
744.857	8.88
745.607	11.88
746.357	12.88
747.106	8.88
747.856	7.88
748.606	10.88
749.355	9.88
750.105	8.88
750.854	8.88
751.603	10.88
752.353	12.88
753.102	10.88
753.851	10.88
754.6	9.88
755.349	12.88
756.098	10.88
756.847	13.88
757.595	11.88
758.344	13.88
759.093	11.88
759.841	11.88
760.589	13.88
761.338	11.88
762.086	11.88
762.834	12.88
763.582	11.88
764.331	11.88
765.079	11.88
765.826	10.88
766.574	12.88
767.322	10.88
768.07	12.88
768.817	12.88
769.565	13.88
770.312	14.88
771.06	11.88
771.807	12.88
772.554	12.88
773.302	13.88
774.049	13.88
774.796	15.88
775.543	12.88
776.29	14.88
777.036	15.88
777.783	17.88
778.53	17.88
779.276	14.88
780.023	13.88
780.769	14.88
781.516	12.88
782.262	16.88
783.008	17.88
783.754	16.88
784.5	14.88
785.246	15.88
785.992	14.88
786.738	14.88
787.484	14.88
788.23	13.88
788.975	12.88
789.721	14.88
790.466	14.88
791.212	13.88
791.957	14.88
792.702	13.88
793.447	12.88
794.193	14.88
794.938	14.88
795.683	13.88
796.427	14.88
797.172	11.88
797.917	13.88
798.662	12.88
799.406	12.88
800.151	12.88
800.895	14.88
801.64	11.88
802.384	11.88
803.128	12.88
803.872	11.88
804.616	10.88
805.36	10.88
806.104	7.88
806.848	8.88
807.592	10.88
808.336	8.88
809.079	9.88
809.823	9.88
810.566	10.88
811.31	8.88
812.053	10.88
812.796	10.88
813.539	8.88
814.283	8.88
815.026	8.88
815.769	8.88
816.511	7.88
817.254	6.88
817.997	5.88
818.74	7.88
819.482	7.88
820.225	8.88
820.967	7.88
821.71	6.88
822.452	8.88
823.194	7.88
823.936	6.88
824.678	6.88
825.42	6.88
826.162	5.88
826.904	8.88
827.646	3.88
828.388	7.88
829.129	7.88
829.871	4.88
830.612	5.88
831.354	4.88
832.095	7.88
832.836	4.88
833.577	4.88
834.319	7.88
835.06	5.88
835.801	6.88
836.542	4.88
837.282	4.88
838.023	5.88
838.764	5.88
839.504	3.88
840.245	4.88
840.985	4.88
841.726	6.88
842.466	6.88
843.206	5.88
843.946	6.88
844.687	8.88
845.427	5.88
846.166	4.88
846.906	4.88
847.646	3.88
848.386	2.88
849.125	2.88
849.865	3.88
850.605	6.88
851.344	6.88
852.083	5.88
852.823	6.88
853.562	5.88
854.301	2.88
855.04	3.88
855.779	4.88
856.518	4.88
857.257	2.88
857.995	1.88
858.734	3.88
859.473	1.88
860.211	4.88
860.95	1.88
861.688	4.88
862.426	3.88
863.165	3.88
863.903	4.88
864.641	4.88
865.379	1.88
866.117	1.88
866.855	4.88
867.593	2.88
868.33	3.88
869.068	2.88
869.806	2.88
870.543	2.88
871.28	2.88
872.018	0.88
872.755	2.88
873.492	2.88
874.229	0.88
874.967	3.88
875.703	0.88
876.44	2.88
877.177	1.88
877.914	0.88
878.651	-0.12
879.387	0.88
880.124	2.88
880.86	1.88
881.597	2.88
882.333	3.88
883.069	0.88
883.806	0.88
884.542	3.88
885.278	1.88
886.014	0.88
886.749	3.88
887.485	0.88
888.221	2.88
888.957	2.88
889.692	1.88
890.428	2.88
891.163	-0.12
891.899	2.88
892.634	1.88
893.369	-0.12
894.104	0.88
894.839	0.88
895.574	0.88
896.309	-0.12
897.044	0.88
897.779	1.88
898.514	1.88
899.248	0.88
899.983	1.88
900.717	-0.12
901.452	0.88
902.186	-1.12
902.92	2.88
903.654	1.88
904.389	1.88
905.123	3.88
905.857	1.88
906.59	0.88
907.324	0.88
908.058	1.88
908.792	1.88
909.525	2.88
910.259	0.88
910.992	0.88
911.726	-0.12
912.459	0.88
913.192	1.88
913.925	0.88
914.658	-0.12
915.391	-0.12
916.124	1.88
916.857	1.88
917.59	0.88
918.323	1.88
919.055	-0.12
919.788	2.88
920.521	1.88
921.253	0.88
921.985	-1.12
922.718	-2.12
923.45	0.88
924.182	-1.12
924.914	-1.12
925.646	-0.12
926.378	-1.12
927.11	2.88
927.841	0.88
928.573	0.88
929.305	0.88
930.036	-1.12
930.768	-1.12
931.499	-1.12
932.23	-0.12
932.962	-0.12
933.693	-0.12
934.424	-1.12
935.155	-2.12
935.886	1.88
936.617	-1.12
937.348	1.88
938.078	0.88
938.809	-0.12
939.54	-0.12
940.27	1.88
941.001	2.88
941.731	0.88
942.461	-1.12
943.191	0.88
943.922	-2.12
944.652	2.88
945.382	-0.12
946.112	-0.12
946.841	0.88
947.571	2.88
948.301	1.88
949.031	-1.12
949.76	0.88
950.49	0.88
951.219	0.88
951.948	-1.12
952.678	-0.12
953.407	2.88
954.136	-1.12
954.865	-0.12
955.594	0.88
956.323	0.88
957.052	-0.12
957.78	-0.12
958.509	2.88
959.238	0.88
959.966	-0.12
960.695	-0.12
961.423	0.88
962.151	-0.12
962.88	-1.12
963.608	-0.12
964.336	1.88
965.064	-1.12
965.792	0.88
966.52	1.88
967.247	1.88
967.975	-0.12
968.703	2.88
969.43	0.88
970.158	-2.12
970.885	-0.12
971.613	0.88
972.34	1.88
973.067	0.88
973.794	2.88
974.521	1.88
975.248	-1.12
975.975	0.88
976.702	-2.12
977.429	0.88
978.156	1.88
978.882	0.88
979.609	0.88
980.335	2.88
981.062	-1.12
981.788	0.88
982.514	1.88
983.24	1.88
983.967	-1.12
984.693	0.88
985.419	0.88
986.144	2.88
986.87	-0.12
987.596	-0.12
988.322	0.88
989.047	-1.12
989.773	3.88
990.498	-0.12
991.224	0.88
991.949	-1.12
992.674	1.88
993.399	1.88
994.124	-2.12
994.849	2.88
995.574	-0.12
996.299	-0.12
997.024	-0.12
997.749	1.88
998.473	0.88
999.198	-0.12
999.922	-1.12
1000.647	-1.12
1001.371	1.88
1002.095	-0.12
1002.82	-0.12
1003.544	-4.12
1004.268	4.88
1004.992	2.88
1005.716	5.88
1006.439	3.88
1007.163	5.88
1007.887	8.88
1008.611	0.88
1009.334	0.88
1010.058	0.88
1010.781	-0.12
1011.504	-1.12
1012.228	-1.12
1012.951	-1.12
1013.674	0.88
1014.397	2.88
1015.12	-0.12
