节点500_705_QEPB04081__427__20-51-58-707.txt的数据

Date: Wed Nov 12 20:51:58 CST 2025
User: PC
Spectrometer: QEPB0408
触发模式: 0
积分时间 (秒): 1.000000E-2
Scans to average: 1
启用暗噪声校正: true
启用非线性校正: false
滑动平均宽度: 0
X轴模式: Wavelengths
Number of Pixels in Spectrum: 1044
>>>>>Begin Spectral Data<<<<<
220.843	7.75
221.644	5.75
222.444	7.75
223.244	8.75
224.045	7.75
224.845	10.75
225.645	7.75
226.445	7.75
227.245	8.75
228.045	7.75
228.845	9.75
229.645	7.75
230.444	9.75
231.244	8.75
232.043	8.75
232.843	12.75
233.642	7.75
234.442	10.75
235.241	8.75
236.04	10.75
236.839	10.75
237.638	9.75
238.437	10.75
239.236	9.75
240.035	11.75
240.833	12.75
241.632	13.75
242.43	12.75
243.229	13.75
244.027	14.75
244.826	13.75
245.624	13.75
246.422	15.75
247.22	14.75
248.018	17.75
248.816	17.75
249.614	17.75
250.412	14.75
251.21	16.75
252.007	18.75
252.805	16.75
253.602	16.75
254.4	18.75
255.197	19.75
255.994	18.75
256.791	20.75
257.589	19.75
258.386	19.75
259.183	23.75
259.979	21.75
260.776	23.75
261.573	22.75
262.37	22.75
263.166	20.75
263.963	22.75
264.759	23.75
265.556	27.75
266.352	26.75
267.148	28.75
267.944	28.75
268.74	31.75
269.536	26.75
270.332	28.75
271.128	32.75
271.924	27.75
272.719	29.75
273.515	31.75
274.311	31.75
275.106	33.75
275.901	34.75
276.697	34.75
277.492	33.75
278.287	34.75
279.082	31.75
279.877	30.75
280.672	32.75
281.467	34.75
282.262	34.75
283.056	35.75
283.851	35.75
284.646	33.75
285.44	33.75
286.234	31.75
287.029	33.75
287.823	31.75
288.617	30.75
289.411	34.75
290.205	32.75
290.999	30.75
291.793	33.75
292.587	30.75
293.381	34.75
294.174	27.75
294.968	29.75
295.761	24.75
296.555	27.75
297.348	27.75
298.141	25.75
298.935	29.75
299.728	30.75
300.521	23.75
301.314	26.75
302.107	23.75
302.899	22.75
303.692	22.75
304.485	21.75
305.277	22.75
306.07	21.75
306.862	21.75
307.655	22.75
308.447	22.75
309.239	21.75
310.031	19.75
310.823	21.75
311.615	18.75
312.407	19.75
313.199	13.75
313.991	17.75
314.783	16.75
315.574	17.75
316.366	17.75
317.157	14.75
317.949	16.75
318.74	15.75
319.531	17.75
320.322	18.75
321.113	15.75
321.904	13.75
322.695	13.75
323.486	15.75
324.277	13.75
325.068	11.75
325.858	13.75
326.649	13.75
327.439	13.75
328.23	14.75
329.02	13.75
329.81	13.75
330.6	11.75
331.391	12.75
332.181	13.75
332.971	12.75
333.76	12.75
334.55	10.75
335.34	13.75
336.13	11.75
336.919	14.75
337.709	12.75
338.498	11.75
339.287	10.75
340.077	13.75
340.866	12.75
341.655	11.75
342.444	13.75
343.233	11.75
344.022	11.75
344.811	12.75
345.6	12.75
346.388	13.75
347.177	13.75
347.965	11.75
348.754	13.75
349.542	14.75
350.33	11.75
351.119	9.75
351.907	13.75
352.695	8.75
353.483	10.75
354.271	14.75
355.059	12.75
355.846	10.75
356.634	12.75
357.422	11.75
358.209	11.75
358.997	11.75
359.784	10.75
360.571	10.75
361.359	11.75
362.146	10.75
362.933	9.75
363.72	11.75
364.507	9.75
365.294	9.75
366.081	10.75
366.867	8.75
367.654	11.75
368.44	10.75
369.227	10.75
370.013	10.75
370.8	8.75
371.586	10.75
372.372	9.75
373.158	10.75
373.944	10.75
374.73	7.75
375.516	10.75
376.302	10.75
377.088	9.75
377.873	10.75
378.659	9.75
379.445	12.75
380.23	9.75
381.015	8.75
381.801	12.75
382.586	10.75
383.371	8.75
384.156	11.75
384.941	10.75
385.726	11.75
386.511	10.75
387.296	10.75
388.08	11.75
388.865	9.75
389.649	11.75
390.434	13.75
391.218	13.75
392.003	14.75
392.787	9.75
393.571	11.75
394.355	12.75
395.139	14.75
395.923	13.75
396.707	14.75
397.491	14.75
398.274	15.75
399.058	13.75
399.842	13.75
400.625	13.75
401.408	13.75
402.192	15.75
402.975	13.75
403.758	13.75
404.541	14.75
405.324	14.75
406.107	15.75
406.89	15.75
407.673	13.75
408.456	16.75
409.238	14.75
410.021	18.75
410.803	15.75
411.586	16.75
412.368	18.75
413.151	18.75
413.933	17.75
414.715	19.75
415.497	18.75
416.279	20.75
417.061	19.75
417.843	21.75
418.624	18.75
419.406	20.75
420.188	19.75
420.969	22.75
421.751	21.75
422.532	22.75
423.313	23.75
424.095	23.75
424.876	25.75
425.657	23.75
426.438	26.75
427.219	27.75
428	26.75
428.78	29.75
429.561	29.75
430.342	30.75
431.122	29.75
431.903	29.75
432.683	35.75
433.464	34.75
434.244	40.75
435.024	39.75
435.804	41.75
436.584	47.75
437.364	46.75
438.144	46.75
438.924	48.75
439.704	52.75
440.483	64.75
441.263	62.75
442.042	66.75
442.822	70.75
443.601	74.75
444.38	78.75
445.16	92.75
445.939	94.75
446.718	103.75
447.497	115.75
448.276	126.75
449.054	135.75
449.833	143.75
450.612	168.75
451.391	180.75
452.169	197.75
452.948	227.75
453.726	249.75
454.504	274.75
455.282	305.75
456.061	335.75
456.839	384.75
457.617	422.75
458.395	471.75
459.172	528.75
459.95	589.75
460.728	653.75
461.506	722.75
462.283	811.75
463.061	901.75
463.838	995.75
464.615	1119.75
465.393	1233.75
466.17	1368.75
466.947	1522.75
467.724	1691.75
468.501	1853.75
469.278	2044.75
470.055	2279.75
470.831	2507.75
471.608	2790.75
472.385	3048.75
473.161	3360.75
473.938	3672.75
474.714	4010.75
475.49	4386.75
476.266	4852.75
477.043	5259.75
477.819	5753.75
478.595	6287.75
479.371	6838.75
480.146	7439.75
480.922	8127.75
481.698	8815.75
482.473	9586.75
483.249	10391.75
484.024	11332.75
484.8	12237.75
485.575	13127.75
486.35	14284.75
487.126	15476.75
487.901	16638.75
488.676	17915.75
489.451	19367.75
490.225	20789.75
491	22237.75
491.775	23790.75
492.55	25410.75
493.324	27066.75
494.099	28723.75
494.873	30426.75
495.647	32200.75
496.422	33853.75
497.196	35576.75
497.97	37258.75
498.744	38688.75
499.518	40335.75
500.292	41736.75
501.066	42677.75
501.839	43562.75
502.613	44476.75
503.387	45190.75
504.16	45627.75
504.934	45932.75
505.707	45937.75
506.48	45717.75
507.253	45380.75
508.027	44909.75
508.8	44030.75
509.573	43042.75
510.346	42190.75
511.118	41281.75
511.891	40113.75
512.664	38658.75
513.437	37251.75
514.209	35938.75
514.982	34612.75
515.754	33199.75
516.526	31900.75
517.298	30671.75
518.071	29409.75
518.843	28341.75
519.615	27151.75
520.387	26083.75
521.159	25105.75
521.93	24044.75
522.702	23023.75
523.474	22130.75
524.245	21158.75
525.017	20268.75
525.788	19463.75
526.56	18667.75
527.331	17803.75
528.102	16897.75
528.873	16093.75
529.644	15286.75
530.415	14591.75
531.186	13939.75
531.957	13217.75
532.728	12540.75
533.498	11892.75
534.269	11286.75
535.039	10707.75
535.81	10139.75
536.58	9576.75
537.351	9029.75
538.121	8583.75
538.891	8128.75
539.661	7683.75
540.431	7242.75
541.201	6912.75
541.971	6548.75
542.741	6185.75
543.51	5880.75
544.28	5563.75
545.05	5333.75
545.819	5081.75
546.588	4841.75
547.358	4602.75
548.127	4380.75
548.896	4161.75
549.665	3950.75
550.434	3747.75
551.203	3542.75
551.972	3379.75
552.741	3212.75
553.51	2984.75
554.278	2848.75
555.047	2679.75
555.815	2534.75
556.584	2426.75
557.352	2274.75
558.121	2134.75
558.889	2033.75
559.657	1919.75
560.425	1806.75
561.193	1730.75
561.961	1620.75
562.729	1541.75
563.496	1443.75
564.264	1374.75
565.032	1292.75
565.799	1222.75
566.567	1156.75
567.334	1102.75
568.101	1050.75
568.869	983.75
569.636	911.75
570.403	876.75
571.17	828.75
571.937	793.75
572.704	742.75
573.471	710.75
574.237	647.75
575.004	611.75
575.771	588.75
576.537	546.75
577.303	518.75
578.07	496.75
578.836	458.75
579.602	441.75
580.368	425.75
581.134	396.75
581.9	383.75
582.666	358.75
583.432	335.75
584.198	328.75
584.964	308.75
585.729	289.75
586.495	267.75
587.26	253.75
588.025	248.75
588.791	234.75
589.556	222.75
590.321	211.75
591.086	199.75
591.851	191.75
592.616	178.75
593.381	172.75
594.146	166.75
594.911	155.75
595.675	155.75
596.44	148.75
597.204	142.75
597.969	133.75
598.733	123.75
599.497	121.75
600.261	116.75
601.025	109.75
601.79	103.75
602.553	105.75
603.317	97.75
604.081	92.75
604.845	91.75
605.609	84.75
606.372	83.75
607.136	80.75
607.899	76.75
608.662	74.75
609.426	72.75
610.189	71.75
610.952	66.75
611.715	65.75
612.478	60.75
613.241	59.75
614.004	57.75
614.767	53.75
615.529	51.75
616.292	50.75
617.055	48.75
617.817	47.75
618.579	44.75
619.342	43.75
620.104	42.75
620.866	43.75
621.628	44.75
622.39	37.75
623.152	35.75
623.914	36.75
624.676	33.75
625.438	35.75
626.199	34.75
626.961	33.75
627.722	31.75
628.484	33.75
629.245	29.75
630.006	29.75
630.768	28.75
631.529	26.75
632.29	27.75
633.051	28.75
633.812	26.75
634.573	24.75
635.333	24.75
636.094	24.75
636.855	23.75
637.615	22.75
638.376	17.75
639.136	22.75
639.896	19.75
640.657	18.75
641.417	19.75
642.177	19.75
642.937	19.75
643.697	19.75
644.457	17.75
645.216	20.75
645.976	18.75
646.736	17.75
647.495	17.75
648.255	15.75
649.014	17.75
649.774	15.75
650.533	14.75
651.292	13.75
652.051	15.75
652.81	13.75
653.569	14.75
654.328	15.75
655.087	15.75
655.846	14.75
656.604	11.75
657.363	12.75
658.121	13.75
658.88	13.75
659.638	13.75
660.397	12.75
661.155	10.75
661.913	10.75
662.671	9.75
663.429	10.75
664.187	9.75
664.945	10.75
665.703	9.75
666.46	11.75
667.218	9.75
667.976	9.75
668.733	12.75
669.49	10.75
670.248	9.75
671.005	9.75
671.762	11.75
672.519	12.75
673.276	9.75
674.033	12.75
674.79	9.75
675.547	8.75
676.304	10.75
677.06	9.75
677.817	8.75
678.574	10.75
679.33	7.75
680.086	6.75
680.843	10.75
681.599	9.75
682.355	6.75
683.111	8.75
683.867	9.75
684.623	10.75
685.379	8.75
686.135	10.75
686.89	9.75
687.646	6.75
688.402	7.75
689.157	7.75
689.912	10.75
690.668	4.75
691.423	9.75
692.178	6.75
692.933	6.75
693.688	6.75
694.443	6.75
695.198	7.75
695.953	7.75
696.708	8.75
697.462	8.75
698.217	7.75
698.972	8.75
699.726	8.75
700.48	8.75
701.235	6.75
701.989	8.75
702.743	8.75
703.497	7.75
704.251	6.75
705.005	6.75
705.759	9.75
706.513	8.75
707.266	6.75
708.02	7.75
708.774	9.75
709.527	8.75
710.28	6.75
711.034	5.75
711.787	8.75
712.54	9.75
713.293	7.75
714.046	9.75
714.799	9.75
715.552	6.75
716.305	8.75
717.058	8.75
717.81	7.75
718.563	7.75
719.315	9.75
720.068	8.75
720.82	6.75
721.573	6.75
722.325	7.75
723.077	5.75
723.829	8.75
724.581	10.75
725.333	7.75
726.085	9.75
726.836	9.75
727.588	10.75
728.34	8.75
729.091	9.75
729.843	9.75
730.594	8.75
731.346	6.75
732.097	10.75
732.848	10.75
733.599	11.75
734.35	6.75
735.101	9.75
735.852	8.75
736.603	9.75
737.354	8.75
738.104	8.75
738.855	7.75
739.605	11.75
740.356	11.75
741.106	8.75
741.856	11.75
742.607	8.75
743.357	10.75
744.107	10.75
744.857	9.75
745.607	11.75
746.357	10.75
747.106	9.75
747.856	8.75
748.606	10.75
749.355	12.75
750.105	9.75
750.854	13.75
751.603	9.75
752.353	11.75
753.102	10.75
753.851	9.75
754.6	11.75
755.349	12.75
756.098	13.75
756.847	11.75
757.595	11.75
758.344	12.75
759.093	9.75
759.841	15.75
760.589	12.75
761.338	14.75
762.086	12.75
762.834	10.75
763.582	13.75
764.331	11.75
765.079	15.75
765.826	13.75
766.574	12.75
767.322	15.75
768.07	14.75
768.817	15.75
769.565	15.75
770.312	15.75
771.06	15.75
771.807	12.75
772.554	17.75
773.302	11.75
774.049	16.75
774.796	16.75
775.543	16.75
776.29	13.75
777.036	14.75
777.783	14.75
778.53	17.75
779.276	14.75
780.023	15.75
780.769	16.75
781.516	15.75
782.262	16.75
783.008	14.75
783.754	15.75
784.5	13.75
785.246	15.75
785.992	15.75
786.738	15.75
787.484	15.75
788.23	16.75
788.975	13.75
789.721	14.75
790.466	13.75
791.212	14.75
791.957	15.75
792.702	16.75
793.447	17.75
794.193	13.75
794.938	13.75
795.683	15.75
796.427	12.75
797.172	11.75
797.917	13.75
798.662	13.75
799.406	13.75
800.151	11.75
800.895	10.75
801.64	12.75
802.384	11.75
803.128	11.75
803.872	11.75
804.616	12.75
805.36	10.75
806.104	10.75
806.848	10.75
807.592	13.75
808.336	11.75
809.079	10.75
809.823	11.75
810.566	10.75
811.31	10.75
812.053	8.75
812.796	10.75
813.539	11.75
814.283	10.75
815.026	8.75
815.769	9.75
816.511	12.75
817.254	11.75
817.997	9.75
818.74	10.75
819.482	8.75
820.225	8.75
820.967	8.75
821.71	7.75
822.452	7.75
823.194	7.75
823.936	7.75
824.678	7.75
825.42	8.75
826.162	5.75
826.904	6.75
827.646	8.75
828.388	7.75
829.129	5.75
829.871	6.75
830.612	7.75
831.354	6.75
832.095	6.75
832.836	7.75
833.577	6.75
834.319	5.75
835.06	5.75
835.801	6.75
836.542	7.75
837.282	6.75
838.023	4.75
838.764	5.75
839.504	7.75
840.245	5.75
840.985	6.75
841.726	6.75
842.466	6.75
843.206	7.75
843.946	5.75
844.687	8.75
845.427	6.75
846.166	3.75
846.906	4.75
847.646	5.75
848.386	1.75
849.125	5.75
849.865	5.75
850.605	3.75
851.344	4.75
852.083	4.75
852.823	2.75
853.562	4.75
854.301	3.75
855.04	5.75
855.779	4.75
856.518	3.75
857.257	2.75
857.995	5.75
858.734	3.75
859.473	5.75
860.211	2.75
860.95	5.75
861.688	2.75
862.426	5.75
863.165	5.75
863.903	4.75
864.641	4.75
865.379	2.75
866.117	3.75
866.855	2.75
867.593	3.75
868.33	5.75
869.068	1.75
869.806	2.75
870.543	1.75
871.28	2.75
872.018	5.75
872.755	1.75
873.492	0.75
874.229	2.75
874.967	2.75
875.703	3.75
876.44	4.75
877.177	3.75
877.914	2.75
878.651	2.75
879.387	0.75
880.124	3.75
880.86	2.75
881.597	1.75
882.333	1.75
883.069	2.75
883.806	0.75
884.542	4.75
885.278	4.75
886.014	1.75
886.749	1.75
887.485	0.75
888.221	1.75
888.957	3.75
889.692	2.75
890.428	2.75
891.163	3.75
891.899	2.75
892.634	0.75
893.369	0.75
894.104	2.75
894.839	-0.25
895.574	0.75
896.309	2.75
897.044	-0.25
897.779	2.75
898.514	0.75
899.248	-0.25
899.983	2.75
900.717	2.75
901.452	0.75
902.186	-0.25
902.92	0.75
903.654	0.75
904.389	3.75
905.123	2.75
905.857	2.75
906.59	2.75
907.324	0.75
908.058	0.75
908.792	0.75
909.525	-0.25
910.259	-1.25
910.992	-0.25
911.726	0.75
912.459	-0.25
913.192	1.75
913.925	2.75
914.658	0.75
915.391	3.75
916.124	2.75
916.857	2.75
917.59	-0.25
918.323	1.75
919.055	1.75
919.788	2.75
920.521	0.75
921.253	0.75
921.985	1.75
922.718	-0.25
923.45	-0.25
924.182	2.75
924.914	1.75
925.646	1.75
926.378	3.75
927.11	0.75
927.841	1.75
928.573	-0.25
929.305	2.75
930.036	2.75
930.768	1.75
931.499	1.75
932.23	1.75
932.962	-0.25
933.693	1.75
934.424	1.75
935.155	1.75
935.886	0.75
936.617	-0.25
937.348	-1.25
938.078	4.75
938.809	-0.25
939.54	3.75
940.27	-0.25
941.001	-0.25
941.731	0.75
942.461	-0.25
943.191	1.75
943.922	1.75
944.652	1.75
945.382	1.75
946.112	0.75
946.841	-0.25
947.571	-0.25
948.301	0.75
949.031	1.75
949.76	0.75
950.49	0.75
951.219	0.75
951.948	2.75
952.678	0.75
953.407	0.75
954.136	0.75
954.865	-0.25
955.594	-0.25
956.323	-0.25
957.052	0.75
957.78	0.75
958.509	-1.25
959.238	1.75
959.966	-0.25
960.695	1.75
961.423	2.75
962.151	1.75
962.88	1.75
963.608	1.75
964.336	-0.25
965.064	-0.25
965.792	0.75
966.52	-0.25
967.247	0.75
967.975	1.75
968.703	-0.25
969.43	-1.25
970.158	0.75
970.885	2.75
971.613	2.75
972.34	2.75
973.067	1.75
973.794	1.75
974.521	0.75
975.248	-0.25
975.975	1.75
976.702	0.75
977.429	0.75
978.156	-0.25
978.882	-0.25
979.609	0.75
980.335	-0.25
981.062	1.75
981.788	1.75
982.514	1.75
983.24	1.75
983.967	0.75
984.693	1.75
985.419	0.75
986.144	2.75
986.87	1.75
987.596	0.75
988.322	0.75
989.047	-0.25
989.773	1.75
990.498	0.75
991.224	-1.25
991.949	0.75
992.674	2.75
993.399	1.75
994.124	1.75
994.849	0.75
995.574	-0.25
996.299	1.75
997.024	1.75
997.749	0.75
998.473	0.75
999.198	3.75
999.922	-0.25
1000.647	1.75
1001.371	2.75
1002.095	-0.25
1002.82	-0.25
1003.544	-2.25
1004.268	3.75
1004.992	3.75
1005.716	4.75
1006.439	5.75
1007.163	5.75
1007.887	5.75
1008.611	2.75
1009.334	1.75
1010.058	1.75
1010.781	0.75
1011.504	1.75
1012.228	-0.25
1012.951	0.75
1013.674	-0.25
1014.397	-0.25
1015.12	-0.25
