节点500_705_QEPB04081__125__20-47-58-078.txt的数据

Date: Wed Nov 12 20:47:58 CST 2025
User: PC
Spectrometer: QEPB0408
触发模式: 0
积分时间 (秒): 1.000000E-2
Scans to average: 1
启用暗噪声校正: true
启用非线性校正: false
滑动平均宽度: 0
X轴模式: Wavelengths
Number of Pixels in Spectrum: 1044
>>>>>Begin Spectral Data<<<<<
220.843	4.75
221.644	5.75
222.444	5.75
223.244	7.75
224.045	8.75
224.845	6.75
225.645	10.75
226.445	5.75
227.245	6.75
228.045	8.75
228.845	7.75
229.645	8.75
230.444	7.75
231.244	8.75
232.043	7.75
232.843	10.75
233.642	9.75
234.442	7.75
235.241	10.75
236.04	9.75
236.839	11.75
237.638	10.75
238.437	12.75
239.236	11.75
240.035	10.75
240.833	12.75
241.632	11.75
242.43	12.75
243.229	11.75
244.027	10.75
244.826	12.75
245.624	13.75
246.422	14.75
247.22	17.75
248.018	16.75
248.816	14.75
249.614	16.75
250.412	15.75
251.21	18.75
252.007	16.75
252.805	18.75
253.602	17.75
254.4	18.75
255.197	16.75
255.994	21.75
256.791	22.75
257.589	22.75
258.386	19.75
259.183	21.75
259.979	23.75
260.776	22.75
261.573	26.75
262.37	25.75
263.166	24.75
263.963	24.75
264.759	29.75
265.556	29.75
266.352	27.75
267.148	30.75
267.944	30.75
268.74	30.75
269.536	32.75
270.332	31.75
271.128	31.75
271.924	35.75
272.719	35.75
273.515	35.75
274.311	31.75
275.106	35.75
275.901	35.75
276.697	34.75
277.492	34.75
278.287	36.75
279.082	35.75
279.877	34.75
280.672	35.75
281.467	36.75
282.262	38.75
283.056	34.75
283.851	37.75
284.646	33.75
285.44	34.75
286.234	32.75
287.029	35.75
287.823	33.75
288.617	32.75
289.411	31.75
290.205	33.75
290.999	38.75
291.793	32.75
292.587	33.75
293.381	28.75
294.174	30.75
294.968	33.75
295.761	27.75
296.555	30.75
297.348	28.75
298.141	26.75
298.935	29.75
299.728	24.75
300.521	28.75
301.314	24.75
302.107	24.75
302.899	22.75
303.692	23.75
304.485	22.75
305.277	24.75
306.07	21.75
306.862	20.75
307.655	20.75
308.447	18.75
309.239	20.75
310.031	18.75
310.823	17.75
311.615	17.75
312.407	15.75
313.199	16.75
313.991	16.75
314.783	18.75
315.574	14.75
316.366	15.75
317.157	14.75
317.949	14.75
318.74	12.75
319.531	14.75
320.322	14.75
321.113	13.75
321.904	13.75
322.695	12.75
323.486	13.75
324.277	14.75
325.068	10.75
325.858	11.75
326.649	11.75
327.439	13.75
328.23	12.75
329.02	11.75
329.81	13.75
330.6	11.75
331.391	10.75
332.181	13.75
332.971	10.75
333.76	12.75
334.55	7.75
335.34	13.75
336.13	13.75
336.919	9.75
337.709	12.75
338.498	11.75
339.287	11.75
340.077	12.75
340.866	12.75
341.655	13.75
342.444	10.75
343.233	8.75
344.022	10.75
344.811	11.75
345.6	9.75
346.388	12.75
347.177	11.75
347.965	10.75
348.754	14.75
349.542	11.75
350.33	10.75
351.119	10.75
351.907	10.75
352.695	7.75
353.483	9.75
354.271	10.75
355.059	9.75
355.846	8.75
356.634	8.75
357.422	8.75
358.209	7.75
358.997	9.75
359.784	10.75
360.571	6.75
361.359	9.75
362.146	9.75
362.933	10.75
363.72	10.75
364.507	8.75
365.294	8.75
366.081	10.75
366.867	5.75
367.654	8.75
368.44	7.75
369.227	8.75
370.013	10.75
370.8	10.75
371.586	8.75
372.372	7.75
373.158	9.75
373.944	10.75
374.73	8.75
375.516	9.75
376.302	9.75
377.088	9.75
377.873	9.75
378.659	10.75
379.445	11.75
380.23	10.75
381.015	7.75
381.801	8.75
382.586	10.75
383.371	9.75
384.156	11.75
384.941	10.75
385.726	9.75
386.511	10.75
387.296	6.75
388.08	10.75
388.865	12.75
389.649	11.75
390.434	12.75
391.218	11.75
392.003	13.75
392.787	10.75
393.571	14.75
394.355	12.75
395.139	13.75
395.923	10.75
396.707	12.75
397.491	14.75
398.274	10.75
399.058	13.75
399.842	12.75
400.625	15.75
401.408	12.75
402.192	13.75
402.975	13.75
403.758	16.75
404.541	15.75
405.324	15.75
406.107	13.75
406.89	14.75
407.673	16.75
408.456	16.75
409.238	16.75
410.021	14.75
410.803	17.75
411.586	16.75
412.368	18.75
413.151	18.75
413.933	18.75
414.715	17.75
415.497	19.75
416.279	19.75
417.061	19.75
417.843	16.75
418.624	19.75
419.406	18.75
420.188	21.75
420.969	22.75
421.751	21.75
422.532	22.75
423.313	22.75
424.095	24.75
424.876	24.75
425.657	26.75
426.438	27.75
427.219	25.75
428	28.75
428.78	30.75
429.561	28.75
430.342	30.75
431.122	33.75
431.903	30.75
432.683	30.75
433.464	31.75
434.244	35.75
435.024	37.75
435.804	41.75
436.584	44.75
437.364	43.75
438.144	46.75
438.924	52.75
439.704	53.75
440.483	55.75
441.263	59.75
442.042	60.75
442.822	64.75
443.601	71.75
444.38	78.75
445.16	81.75
445.939	86.75
446.718	98.75
447.497	112.75
448.276	119.75
449.054	123.75
449.833	138.75
450.612	149.75
451.391	172.75
452.169	180.75
452.948	205.75
453.726	228.75
454.504	250.75
455.282	278.75
456.061	314.75
456.839	344.75
457.617	393.75
458.395	439.75
459.172	482.75
459.95	544.75
460.728	606.75
461.506	673.75
462.283	762.75
463.061	845.75
463.838	933.75
464.615	1060.75
465.393	1164.75
466.17	1313.75
466.947	1459.75
467.724	1629.75
468.501	1824.75
469.278	2019.75
470.055	2238.75
470.831	2475.75
471.608	2739.75
472.385	3000.75
473.161	3366.75
473.938	3684.75
474.714	4085.75
475.49	4489.75
476.266	4934.75
477.043	5424.75
477.819	5962.75
478.595	6545.75
479.371	7196.75
480.146	7877.75
480.922	8626.75
481.698	9415.75
482.473	10292.75
483.249	11207.75
484.024	12236.75
484.8	13305.75
485.575	14510.75
486.35	15725.75
487.126	17107.75
487.901	18588.75
488.676	20040.75
489.451	21730.75
490.225	23472.75
491	25113.75
491.775	26896.75
492.55	28877.75
493.324	30661.75
494.099	32654.75
494.873	34481.75
495.647	36484.75
496.422	38401.75
497.196	40325.75
497.97	41869.75
498.744	43412.75
499.518	45117.75
500.292	46320.75
501.066	47369.75
501.839	48140.75
502.613	48786.75
503.387	49178.75
504.16	49517.75
504.934	49308.75
505.707	49068.75
506.48	48348.75
507.253	47801.75
508.027	46824.75
508.8	45653.75
509.573	44329.75
510.346	43095.75
511.118	41855.75
511.891	40485.75
512.664	38773.75
513.437	37220.75
514.209	35679.75
514.982	34341.75
515.754	32850.75
516.526	31451.75
517.298	30187.75
518.071	28955.75
518.843	27781.75
519.615	26676.75
520.387	25617.75
521.159	24602.75
521.93	23522.75
522.702	22535.75
523.474	21597.75
524.245	20584.75
525.017	19697.75
525.788	18797.75
526.56	18051.75
527.331	17167.75
528.102	16291.75
528.873	15450.75
529.644	14697.75
530.415	14046.75
531.186	13323.75
531.957	12545.75
532.728	11931.75
533.498	11266.75
534.269	10661.75
535.039	10097.75
535.81	9510.75
536.58	8996.75
537.351	8483.75
538.121	8086.75
538.891	7672.75
539.661	7236.75
540.431	6847.75
541.201	6472.75
541.971	6154.75
542.741	5813.75
543.51	5543.75
544.28	5256.75
545.05	5005.75
545.819	4763.75
546.588	4559.75
547.358	4328.75
548.127	4114.75
548.896	3893.75
549.665	3707.75
550.434	3496.75
551.203	3320.75
551.972	3170.75
552.741	2972.75
553.51	2778.75
554.278	2659.75
555.047	2486.75
555.815	2339.75
556.584	2231.75
557.352	2095.75
558.121	1985.75
558.889	1854.75
559.657	1771.75
560.425	1667.75
561.193	1594.75
561.961	1505.75
562.729	1417.75
563.496	1326.75
564.264	1268.75
565.032	1197.75
565.799	1138.75
566.567	1077.75
567.334	1005.75
568.101	957.75
568.869	906.75
569.636	860.75
570.403	812.75
571.17	770.75
571.937	720.75
572.704	692.75
573.471	637.75
574.237	613.75
575.004	576.75
575.771	536.75
576.537	504.75
577.303	481.75
578.07	454.75
578.836	425.75
579.602	406.75
580.368	380.75
581.134	364.75
581.9	351.75
582.666	324.75
583.432	315.75
584.198	294.75
584.964	286.75
585.729	268.75
586.495	251.75
587.26	242.75
588.025	225.75
588.791	222.75
589.556	206.75
590.321	193.75
591.086	193.75
591.851	172.75
592.616	167.75
593.381	158.75
594.146	156.75
594.911	148.75
595.675	145.75
596.44	135.75
597.204	126.75
597.969	120.75
598.733	116.75
599.497	113.75
600.261	107.75
601.025	102.75
601.79	98.75
602.553	88.75
603.317	93.75
604.081	88.75
604.845	82.75
605.609	78.75
606.372	75.75
607.136	75.75
607.899	72.75
608.662	68.75
609.426	62.75
610.189	64.75
610.952	62.75
611.715	61.75
612.478	56.75
613.241	51.75
614.004	53.75
614.767	54.75
615.529	46.75
616.292	48.75
617.055	42.75
617.817	43.75
618.579	41.75
619.342	42.75
620.104	38.75
620.866	41.75
621.628	37.75
622.39	36.75
623.152	37.75
623.914	35.75
624.676	36.75
625.438	34.75
626.199	30.75
626.961	29.75
627.722	29.75
628.484	28.75
629.245	28.75
630.006	26.75
630.768	26.75
631.529	27.75
632.29	24.75
633.051	24.75
633.812	23.75
634.573	22.75
635.333	22.75
636.094	21.75
636.855	22.75
637.615	22.75
638.376	19.75
639.136	18.75
639.896	16.75
640.657	19.75
641.417	19.75
642.177	16.75
642.937	16.75
643.697	16.75
644.457	16.75
645.216	15.75
645.976	14.75
646.736	16.75
647.495	14.75
648.255	13.75
649.014	16.75
649.774	13.75
650.533	13.75
651.292	13.75
652.051	13.75
652.81	11.75
653.569	12.75
654.328	12.75
655.087	13.75
655.846	15.75
656.604	9.75
657.363	12.75
658.121	12.75
658.88	10.75
659.638	11.75
660.397	12.75
661.155	11.75
661.913	11.75
662.671	10.75
663.429	12.75
664.187	9.75
664.945	10.75
665.703	8.75
666.46	9.75
667.218	10.75
667.976	8.75
668.733	7.75
669.49	10.75
670.248	6.75
671.005	10.75
671.762	6.75
672.519	8.75
673.276	6.75
674.033	9.75
674.79	9.75
675.547	8.75
676.304	11.75
677.06	8.75
677.817	7.75
678.574	7.75
679.33	8.75
680.086	5.75
680.843	7.75
681.599	7.75
682.355	6.75
683.111	9.75
683.867	7.75
684.623	7.75
685.379	6.75
686.135	6.75
686.89	10.75
687.646	9.75
688.402	7.75
689.157	8.75
689.912	3.75
690.668	7.75
691.423	6.75
692.178	9.75
692.933	9.75
693.688	8.75
694.443	8.75
695.198	5.75
695.953	7.75
696.708	6.75
697.462	10.75
698.217	8.75
698.972	7.75
699.726	7.75
700.48	8.75
701.235	9.75
701.989	5.75
702.743	7.75
703.497	8.75
704.251	7.75
705.005	6.75
705.759	6.75
706.513	6.75
707.266	7.75
708.02	7.75
708.774	8.75
709.527	9.75
710.28	8.75
711.034	3.75
711.787	8.75
712.54	7.75
713.293	5.75
714.046	8.75
714.799	4.75
715.552	7.75
716.305	8.75
717.058	9.75
717.81	8.75
718.563	8.75
719.315	9.75
720.068	7.75
720.82	8.75
721.573	6.75
722.325	11.75
723.077	10.75
723.829	7.75
724.581	7.75
725.333	5.75
726.085	8.75
726.836	8.75
727.588	9.75
728.34	7.75
729.091	8.75
729.843	8.75
730.594	8.75
731.346	8.75
732.097	8.75
732.848	7.75
733.599	10.75
734.35	9.75
735.101	8.75
735.852	10.75
736.603	8.75
737.354	8.75
738.104	10.75
738.855	9.75
739.605	11.75
740.356	7.75
741.106	9.75
741.856	10.75
742.607	9.75
743.357	10.75
744.107	9.75
744.857	11.75
745.607	9.75
746.357	10.75
747.106	10.75
747.856	13.75
748.606	10.75
749.355	14.75
750.105	11.75
750.854	9.75
751.603	10.75
752.353	13.75
753.102	10.75
753.851	12.75
754.6	12.75
755.349	13.75
756.098	8.75
756.847	12.75
757.595	13.75
758.344	11.75
759.093	12.75
759.841	14.75
760.589	14.75
761.338	11.75
762.086	13.75
762.834	14.75
763.582	14.75
764.331	14.75
765.079	13.75
765.826	15.75
766.574	12.75
767.322	16.75
768.07	14.75
768.817	14.75
769.565	16.75
770.312	13.75
771.06	14.75
771.807	16.75
772.554	14.75
773.302	16.75
774.049	15.75
774.796	18.75
775.543	14.75
776.29	16.75
777.036	17.75
777.783	16.75
778.53	16.75
779.276	18.75
780.023	18.75
780.769	18.75
781.516	16.75
782.262	17.75
783.008	14.75
783.754	14.75
784.5	13.75
785.246	14.75
785.992	14.75
786.738	17.75
787.484	16.75
788.23	13.75
788.975	15.75
789.721	13.75
790.466	17.75
791.212	13.75
791.957	13.75
792.702	13.75
793.447	14.75
794.193	14.75
794.938	14.75
795.683	13.75
796.427	12.75
797.172	12.75
797.917	12.75
798.662	11.75
799.406	12.75
800.151	11.75
800.895	12.75
801.64	9.75
802.384	8.75
803.128	13.75
803.872	11.75
804.616	11.75
805.36	13.75
806.104	8.75
806.848	10.75
807.592	8.75
808.336	10.75
809.079	9.75
809.823	9.75
810.566	7.75
811.31	7.75
812.053	9.75
812.796	7.75
813.539	9.75
814.283	9.75
815.026	5.75
815.769	8.75
816.511	6.75
817.254	9.75
817.997	8.75
818.74	7.75
819.482	7.75
820.225	6.75
820.967	6.75
821.71	5.75
822.452	7.75
823.194	5.75
823.936	6.75
824.678	6.75
825.42	6.75
826.162	4.75
826.904	6.75
827.646	5.75
828.388	7.75
829.129	6.75
829.871	5.75
830.612	6.75
831.354	7.75
832.095	5.75
832.836	5.75
833.577	4.75
834.319	5.75
835.06	6.75
835.801	6.75
836.542	6.75
837.282	5.75
838.023	5.75
838.764	5.75
839.504	4.75
840.245	5.75
840.985	5.75
841.726	7.75
842.466	3.75
843.206	4.75
843.946	3.75
844.687	6.75
845.427	4.75
846.166	3.75
846.906	5.75
847.646	4.75
848.386	3.75
849.125	5.75
849.865	3.75
850.605	4.75
851.344	6.75
852.083	6.75
852.823	3.75
853.562	4.75
854.301	6.75
855.04	2.75
855.779	4.75
856.518	2.75
857.257	2.75
857.995	1.75
858.734	1.75
859.473	2.75
860.211	0.75
860.95	1.75
861.688	2.75
862.426	1.75
863.165	3.75
863.903	4.75
864.641	5.75
865.379	1.75
866.117	0.75
866.855	3.75
867.593	3.75
868.33	0.75
869.068	1.75
869.806	2.75
870.543	1.75
871.28	2.75
872.018	1.75
872.755	0.75
873.492	0.75
874.229	3.75
874.967	1.75
875.703	3.75
876.44	-0.25
877.177	0.75
877.914	0.75
878.651	1.75
879.387	1.75
880.124	2.75
880.86	1.75
881.597	0.75
882.333	1.75
883.069	2.75
883.806	-0.25
884.542	-0.25
885.278	0.75
886.014	0.75
886.749	0.75
887.485	-1.25
888.221	0.75
888.957	2.75
889.692	1.75
890.428	-0.25
891.163	0.75
891.899	0.75
892.634	-0.25
893.369	0.75
894.104	-0.25
894.839	1.75
895.574	1.75
896.309	0.75
897.044	2.75
897.779	0.75
898.514	0.75
899.248	1.75
899.983	2.75
900.717	-1.25
901.452	-0.25
902.186	-0.25
902.92	0.75
903.654	0.75
904.389	2.75
905.123	0.75
905.857	1.75
906.59	1.75
907.324	2.75
908.058	0.75
908.792	0.75
909.525	1.75
910.259	1.75
910.992	1.75
911.726	-0.25
912.459	-1.25
913.192	-0.25
913.925	2.75
914.658	-2.25
915.391	0.75
916.124	0.75
916.857	1.75
917.59	-0.25
918.323	0.75
919.055	2.75
919.788	-1.25
920.521	1.75
921.253	1.75
921.985	-1.25
922.718	2.75
923.45	2.75
924.182	-1.25
924.914	-1.25
925.646	-0.25
926.378	-1.25
927.11	0.75
927.841	1.75
928.573	0.75
929.305	-1.25
930.036	-0.25
930.768	-1.25
931.499	2.75
932.23	1.75
932.962	0.75
933.693	0.75
934.424	0.75
935.155	0.75
935.886	0.75
936.617	-1.25
937.348	-0.25
938.078	0.75
938.809	-1.25
939.54	0.75
940.27	1.75
941.001	-1.25
941.731	1.75
942.461	0.75
943.191	-1.25
943.922	-0.25
944.652	-1.25
945.382	-1.25
946.112	-0.25
946.841	-0.25
947.571	-0.25
948.301	-0.25
949.031	0.75
949.76	-1.25
950.49	1.75
951.219	-2.25
951.948	-0.25
952.678	2.75
953.407	-0.25
954.136	-0.25
954.865	-1.25
955.594	-0.25
956.323	1.75
957.052	-1.25
957.78	0.75
958.509	-0.25
959.238	0.75
959.966	-1.25
960.695	-0.25
961.423	0.75
962.151	-1.25
962.88	-1.25
963.608	-2.25
964.336	0.75
965.064	0.75
965.792	-1.25
966.52	1.75
967.247	-1.25
967.975	2.75
968.703	0.75
969.43	-2.25
970.158	0.75
970.885	-1.25
971.613	2.75
972.34	-0.25
973.067	0.75
973.794	0.75
974.521	-1.25
975.248	-0.25
975.975	-1.25
976.702	1.75
977.429	1.75
978.156	1.75
978.882	1.75
979.609	-1.25
980.335	-0.25
981.062	0.75
981.788	0.75
982.514	0.75
983.24	1.75
983.967	-0.25
984.693	-1.25
985.419	1.75
986.144	-1.25
986.87	-0.25
987.596	-0.25
988.322	0.75
989.047	-0.25
989.773	-0.25
990.498	0.75
991.224	-0.25
991.949	-0.25
992.674	-0.25
993.399	1.75
994.124	1.75
994.849	-1.25
995.574	-0.25
996.299	1.75
997.024	-2.25
997.749	1.75
998.473	0.75
999.198	-0.25
999.922	-0.25
1000.647	-1.25
1001.371	4.75
1002.095	-1.25
1002.82	-0.25
1003.544	-2.25
1004.268	5.75
1004.992	2.75
1005.716	4.75
1006.439	5.75
1007.163	6.75
1007.887	6.75
1008.611	0.75
1009.334	1.75
1010.058	0.75
1010.781	1.75
1011.504	0.75
1012.228	1.75
1012.951	0.75
1013.674	-2.25
1014.397	-0.25
1015.12	0.75
