节点500_705_QEPB04081__606__20-54-33-787.txt的数据

Date: Wed Nov 12 20:54:33 CST 2025
User: PC
Spectrometer: QEPB0408
触发模式: 0
积分时间 (秒): 1.000000E-2
Scans to average: 1
启用暗噪声校正: true
启用非线性校正: false
滑动平均宽度: 0
X轴模式: Wavelengths
Number of Pixels in Spectrum: 1044
>>>>>Begin Spectral Data<<<<<
220.843	4.75
221.644	5.75
222.444	5.75
223.244	5.75
224.045	4.75
224.845	5.75
225.645	6.75
226.445	4.75
227.245	4.75
228.045	9.75
228.845	8.75
229.645	10.75
230.444	7.75
231.244	5.75
232.043	9.75
232.843	10.75
233.642	6.75
234.442	7.75
235.241	5.75
236.04	8.75
236.839	9.75
237.638	9.75
238.437	7.75
239.236	10.75
240.035	10.75
240.833	9.75
241.632	9.75
242.43	7.75
243.229	10.75
244.027	12.75
244.826	10.75
245.624	10.75
246.422	13.75
247.22	14.75
248.018	9.75
248.816	12.75
249.614	13.75
250.412	11.75
251.21	14.75
252.007	15.75
252.805	16.75
253.602	14.75
254.4	16.75
255.197	18.75
255.994	16.75
256.791	19.75
257.589	18.75
258.386	17.75
259.183	19.75
259.979	20.75
260.776	20.75
261.573	21.75
262.37	20.75
263.166	22.75
263.963	22.75
264.759	22.75
265.556	24.75
266.352	23.75
267.148	26.75
267.944	23.75
268.74	26.75
269.536	24.75
270.332	29.75
271.128	24.75
271.924	29.75
272.719	25.75
273.515	27.75
274.311	29.75
275.106	29.75
275.901	28.75
276.697	28.75
277.492	28.75
278.287	30.75
279.082	29.75
279.877	34.75
280.672	30.75
281.467	29.75
282.262	29.75
283.056	31.75
283.851	32.75
284.646	29.75
285.44	33.75
286.234	31.75
287.029	30.75
287.823	30.75
288.617	33.75
289.411	28.75
290.205	28.75
290.999	30.75
291.793	30.75
292.587	30.75
293.381	29.75
294.174	28.75
294.968	26.75
295.761	22.75
296.555	25.75
297.348	26.75
298.141	25.75
298.935	30.75
299.728	26.75
300.521	26.75
301.314	25.75
302.107	22.75
302.899	21.75
303.692	23.75
304.485	22.75
305.277	20.75
306.07	21.75
306.862	19.75
307.655	22.75
308.447	18.75
309.239	20.75
310.031	19.75
310.823	17.75
311.615	16.75
312.407	14.75
313.199	16.75
313.991	16.75
314.783	16.75
315.574	17.75
316.366	15.75
317.157	16.75
317.949	12.75
318.74	14.75
319.531	14.75
320.322	13.75
321.113	14.75
321.904	13.75
322.695	14.75
323.486	13.75
324.277	12.75
325.068	14.75
325.858	12.75
326.649	11.75
327.439	10.75
328.23	10.75
329.02	8.75
329.81	9.75
330.6	12.75
331.391	13.75
332.181	11.75
332.971	13.75
333.76	11.75
334.55	11.75
335.34	12.75
336.13	10.75
336.919	9.75
337.709	10.75
338.498	9.75
339.287	10.75
340.077	9.75
340.866	14.75
341.655	12.75
342.444	9.75
343.233	11.75
344.022	8.75
344.811	10.75
345.6	8.75
346.388	10.75
347.177	10.75
347.965	12.75
348.754	10.75
349.542	11.75
350.33	9.75
351.119	12.75
351.907	10.75
352.695	10.75
353.483	9.75
354.271	9.75
355.059	9.75
355.846	7.75
356.634	10.75
357.422	8.75
358.209	9.75
358.997	12.75
359.784	10.75
360.571	8.75
361.359	12.75
362.146	7.75
362.933	7.75
363.72	10.75
364.507	9.75
365.294	10.75
366.081	9.75
366.867	10.75
367.654	6.75
368.44	10.75
369.227	7.75
370.013	9.75
370.8	9.75
371.586	8.75
372.372	6.75
373.158	8.75
373.944	8.75
374.73	10.75
375.516	10.75
376.302	8.75
377.088	8.75
377.873	7.75
378.659	8.75
379.445	9.75
380.23	8.75
381.015	8.75
381.801	8.75
382.586	9.75
383.371	10.75
384.156	8.75
384.941	10.75
385.726	9.75
386.511	10.75
387.296	11.75
388.08	11.75
388.865	11.75
389.649	8.75
390.434	11.75
391.218	10.75
392.003	12.75
392.787	9.75
393.571	11.75
394.355	11.75
395.139	9.75
395.923	12.75
396.707	8.75
397.491	12.75
398.274	13.75
399.058	10.75
399.842	12.75
400.625	12.75
401.408	11.75
402.192	13.75
402.975	9.75
403.758	12.75
404.541	13.75
405.324	14.75
406.107	14.75
406.89	11.75
407.673	16.75
408.456	15.75
409.238	14.75
410.021	12.75
410.803	12.75
411.586	16.75
412.368	15.75
413.151	15.75
413.933	16.75
414.715	17.75
415.497	17.75
416.279	16.75
417.061	18.75
417.843	18.75
418.624	17.75
419.406	20.75
420.188	21.75
420.969	22.75
421.751	19.75
422.532	18.75
423.313	18.75
424.095	23.75
424.876	22.75
425.657	22.75
426.438	25.75
427.219	26.75
428	26.75
428.78	28.75
429.561	29.75
430.342	30.75
431.122	28.75
431.903	31.75
432.683	34.75
433.464	34.75
434.244	34.75
435.024	37.75
435.804	39.75
436.584	40.75
437.364	43.75
438.144	49.75
438.924	50.75
439.704	54.75
440.483	56.75
441.263	60.75
442.042	68.75
442.822	70.75
443.601	76.75
444.38	82.75
445.16	89.75
445.939	97.75
446.718	105.75
447.497	118.75
448.276	132.75
449.054	138.75
449.833	160.75
450.612	173.75
451.391	191.75
452.169	205.75
452.948	233.75
453.726	263.75
454.504	282.75
455.282	318.75
456.061	351.75
456.839	388.75
457.617	433.75
458.395	484.75
459.172	536.75
459.95	605.75
460.728	671.75
461.506	747.75
462.283	829.75
463.061	927.75
463.838	1029.75
464.615	1136.75
465.393	1259.75
466.17	1397.75
466.947	1538.75
467.724	1697.75
468.501	1885.75
469.278	2085.75
470.055	2271.75
470.831	2503.75
471.608	2756.75
472.385	3013.75
473.161	3313.75
473.938	3596.75
474.714	3968.75
475.49	4335.75
476.266	4712.75
477.043	5086.75
477.819	5588.75
478.595	6058.75
479.371	6589.75
480.146	7182.75
480.922	7775.75
481.698	8413.75
482.473	9081.75
483.249	9867.75
484.024	10668.75
484.8	11478.75
485.575	12430.75
486.35	13406.75
487.126	14448.75
487.901	15526.75
488.676	16649.75
489.451	17926.75
490.225	19238.75
491	20622.75
491.775	21992.75
492.55	23437.75
493.324	24967.75
494.099	26530.75
494.873	28091.75
495.647	29656.75
496.422	31243.75
497.196	32885.75
497.97	34410.75
498.744	35803.75
499.518	37327.75
500.292	38709.75
501.066	39856.75
501.839	40850.75
502.613	41740.75
503.387	42581.75
504.16	43065.75
504.934	43571.75
505.707	43806.75
506.48	43690.75
507.253	43590.75
508.027	43235.75
508.8	42736.75
509.573	41962.75
510.346	41194.75
511.118	40426.75
511.891	39504.75
512.664	38177.75
513.437	36919.75
514.209	35793.75
514.982	34499.75
515.754	33246.75
516.526	31943.75
517.298	30716.75
518.071	29617.75
518.843	28518.75
519.615	27285.75
520.387	26337.75
521.159	25271.75
521.93	24210.75
522.702	23234.75
523.474	22308.75
524.245	21410.75
525.017	20520.75
525.788	19639.75
526.56	18860.75
527.331	18087.75
528.102	17213.75
528.873	16378.75
529.644	15646.75
530.415	14914.75
531.186	14263.75
531.957	13557.75
532.728	12854.75
533.498	12272.75
534.269	11587.75
535.039	11031.75
535.81	10421.75
536.58	9860.75
537.351	9329.75
538.121	8872.75
538.891	8404.75
539.661	7918.75
540.431	7495.75
541.201	7144.75
541.971	6744.75
542.741	6385.75
543.51	6084.75
544.28	5757.75
545.05	5480.75
545.819	5259.75
546.588	5010.75
547.358	4775.75
548.127	4526.75
548.896	4306.75
549.665	4087.75
550.434	3855.75
551.203	3690.75
551.972	3491.75
552.741	3340.75
553.51	3106.75
554.278	2956.75
555.047	2793.75
555.815	2658.75
556.584	2492.75
557.352	2372.75
558.121	2244.75
558.889	2129.75
559.657	2000.75
560.425	1906.75
561.193	1790.75
561.961	1720.75
562.729	1630.75
563.496	1518.75
564.264	1445.75
565.032	1361.75
565.799	1292.75
566.567	1222.75
567.334	1139.75
568.101	1085.75
568.869	1026.75
569.636	975.75
570.403	919.75
571.17	872.75
571.937	816.75
572.704	763.75
573.471	724.75
574.237	675.75
575.004	645.75
575.771	606.75
576.537	568.75
577.303	541.75
578.07	514.75
578.836	479.75
579.602	457.75
580.368	431.75
581.134	417.75
581.9	398.75
582.666	377.75
583.432	362.75
584.198	339.75
584.964	321.75
585.729	310.75
586.495	292.75
587.26	273.75
588.025	255.75
588.791	246.75
589.556	229.75
590.321	222.75
591.086	208.75
591.851	200.75
592.616	190.75
593.381	179.75
594.146	172.75
594.911	163.75
595.675	159.75
596.44	150.75
597.204	142.75
597.969	138.75
598.733	129.75
599.497	122.75
600.261	117.75
601.025	112.75
601.79	108.75
602.553	98.75
603.317	103.75
604.081	96.75
604.845	92.75
605.609	88.75
606.372	87.75
607.136	84.75
607.899	78.75
608.662	77.75
609.426	73.75
610.189	67.75
610.952	64.75
611.715	66.75
612.478	61.75
613.241	59.75
614.004	56.75
614.767	56.75
615.529	56.75
616.292	50.75
617.055	51.75
617.817	49.75
618.579	50.75
619.342	43.75
620.104	43.75
620.866	44.75
621.628	38.75
622.39	38.75
623.152	39.75
623.914	38.75
624.676	36.75
625.438	35.75
626.199	29.75
626.961	30.75
627.722	34.75
628.484	28.75
629.245	30.75
630.006	25.75
630.768	31.75
631.529	25.75
632.29	27.75
633.051	26.75
633.812	27.75
634.573	23.75
635.333	23.75
636.094	21.75
636.855	22.75
637.615	21.75
638.376	22.75
639.136	23.75
639.896	23.75
640.657	17.75
641.417	20.75
642.177	17.75
642.937	17.75
643.697	14.75
644.457	16.75
645.216	15.75
645.976	12.75
646.736	15.75
647.495	14.75
648.255	14.75
649.014	15.75
649.774	12.75
650.533	15.75
651.292	15.75
652.051	13.75
652.81	14.75
653.569	12.75
654.328	11.75
655.087	11.75
655.846	13.75
656.604	10.75
657.363	12.75
658.121	12.75
658.88	10.75
659.638	11.75
660.397	9.75
661.155	12.75
661.913	6.75
662.671	9.75
663.429	10.75
664.187	9.75
664.945	12.75
665.703	12.75
666.46	11.75
667.218	8.75
667.976	9.75
668.733	8.75
669.49	7.75
670.248	8.75
671.005	9.75
671.762	10.75
672.519	10.75
673.276	8.75
674.033	8.75
674.79	6.75
675.547	10.75
676.304	7.75
677.06	7.75
677.817	6.75
678.574	7.75
679.33	8.75
680.086	9.75
680.843	8.75
681.599	8.75
682.355	8.75
683.111	10.75
683.867	5.75
684.623	7.75
685.379	9.75
686.135	8.75
686.89	7.75
687.646	7.75
688.402	7.75
689.157	6.75
689.912	7.75
690.668	6.75
691.423	4.75
692.178	7.75
692.933	6.75
693.688	9.75
694.443	7.75
695.198	8.75
695.953	7.75
696.708	6.75
697.462	8.75
698.217	7.75
698.972	7.75
699.726	5.75
700.48	5.75
701.235	10.75
701.989	6.75
702.743	8.75
703.497	6.75
704.251	6.75
705.005	8.75
705.759	8.75
706.513	5.75
707.266	5.75
708.02	6.75
708.774	7.75
709.527	7.75
710.28	6.75
711.034	5.75
711.787	9.75
712.54	6.75
713.293	8.75
714.046	4.75
714.799	7.75
715.552	7.75
716.305	10.75
717.058	9.75
717.81	5.75
718.563	7.75
719.315	7.75
720.068	6.75
720.82	9.75
721.573	8.75
722.325	7.75
723.077	4.75
723.829	6.75
724.581	9.75
725.333	8.75
726.085	8.75
726.836	8.75
727.588	7.75
728.34	9.75
729.091	7.75
729.843	8.75
730.594	8.75
731.346	8.75
732.097	9.75
732.848	9.75
733.599	8.75
734.35	8.75
735.101	7.75
735.852	7.75
736.603	6.75
737.354	9.75
738.104	7.75
738.855	7.75
739.605	8.75
740.356	9.75
741.106	9.75
741.856	10.75
742.607	10.75
743.357	9.75
744.107	9.75
744.857	11.75
745.607	9.75
746.357	8.75
747.106	8.75
747.856	10.75
748.606	9.75
749.355	9.75
750.105	9.75
750.854	9.75
751.603	8.75
752.353	9.75
753.102	8.75
753.851	9.75
754.6	9.75
755.349	8.75
756.098	10.75
756.847	10.75
757.595	12.75
758.344	13.75
759.093	8.75
759.841	9.75
760.589	11.75
761.338	9.75
762.086	10.75
762.834	12.75
763.582	11.75
764.331	10.75
765.079	9.75
765.826	12.75
766.574	13.75
767.322	12.75
768.07	12.75
768.817	10.75
769.565	13.75
770.312	13.75
771.06	12.75
771.807	13.75
772.554	12.75
773.302	14.75
774.049	12.75
774.796	14.75
775.543	14.75
776.29	14.75
777.036	13.75
777.783	17.75
778.53	11.75
779.276	15.75
780.023	11.75
780.769	14.75
781.516	14.75
782.262	14.75
783.008	15.75
783.754	15.75
784.5	12.75
785.246	14.75
785.992	17.75
786.738	14.75
787.484	12.75
788.23	14.75
788.975	15.75
789.721	10.75
790.466	12.75
791.212	14.75
791.957	13.75
792.702	14.75
793.447	13.75
794.193	15.75
794.938	11.75
795.683	12.75
796.427	12.75
797.172	10.75
797.917	15.75
798.662	12.75
799.406	10.75
800.151	10.75
800.895	9.75
801.64	11.75
802.384	10.75
803.128	8.75
803.872	10.75
804.616	10.75
805.36	8.75
806.104	9.75
806.848	6.75
807.592	8.75
808.336	9.75
809.079	10.75
809.823	7.75
810.566	7.75
811.31	10.75
812.053	7.75
812.796	5.75
813.539	10.75
814.283	8.75
815.026	4.75
815.769	12.75
816.511	5.75
817.254	9.75
817.997	9.75
818.74	10.75
819.482	6.75
820.225	6.75
820.967	7.75
821.71	6.75
822.452	7.75
823.194	7.75
823.936	6.75
824.678	7.75
825.42	5.75
826.162	6.75
826.904	6.75
827.646	6.75
828.388	5.75
829.129	7.75
829.871	7.75
830.612	6.75
831.354	6.75
832.095	3.75
832.836	8.75
833.577	5.75
834.319	5.75
835.06	4.75
835.801	5.75
836.542	3.75
837.282	4.75
838.023	5.75
838.764	6.75
839.504	4.75
840.245	4.75
840.985	5.75
841.726	5.75
842.466	4.75
843.206	6.75
843.946	5.75
844.687	4.75
845.427	2.75
846.166	2.75
846.906	6.75
847.646	2.75
848.386	3.75
849.125	6.75
849.865	2.75
850.605	2.75
851.344	3.75
852.083	4.75
852.823	3.75
853.562	4.75
854.301	4.75
855.04	3.75
855.779	2.75
856.518	3.75
857.257	3.75
857.995	4.75
858.734	3.75
859.473	2.75
860.211	3.75
860.95	4.75
861.688	3.75
862.426	2.75
863.165	4.75
863.903	2.75
864.641	1.75
865.379	5.75
866.117	1.75
866.855	2.75
867.593	1.75
868.33	2.75
869.068	0.75
869.806	0.75
870.543	1.75
871.28	2.75
872.018	1.75
872.755	2.75
873.492	3.75
874.229	5.75
874.967	2.75
875.703	1.75
876.44	0.75
877.177	2.75
877.914	-0.25
878.651	3.75
879.387	1.75
880.124	2.75
880.86	3.75
881.597	1.75
882.333	2.75
883.069	0.75
883.806	1.75
884.542	0.75
885.278	-0.25
886.014	0.75
886.749	0.75
887.485	1.75
888.221	1.75
888.957	2.75
889.692	2.75
890.428	1.75
891.163	1.75
891.899	2.75
892.634	2.75
893.369	0.75
894.104	1.75
894.839	0.75
895.574	0.75
896.309	0.75
897.044	0.75
897.779	0.75
898.514	-0.25
899.248	0.75
899.983	-0.25
900.717	1.75
901.452	2.75
902.186	1.75
902.92	1.75
903.654	2.75
904.389	1.75
905.123	-0.25
905.857	-0.25
906.59	1.75
907.324	1.75
908.058	0.75
908.792	0.75
909.525	-0.25
910.259	-0.25
910.992	-0.25
911.726	2.75
912.459	-0.25
913.192	0.75
913.925	2.75
914.658	0.75
915.391	0.75
916.124	-0.25
916.857	-0.25
917.59	-0.25
918.323	0.75
919.055	2.75
919.788	-0.25
920.521	-0.25
921.253	0.75
921.985	-0.25
922.718	2.75
923.45	-2.25
924.182	1.75
924.914	0.75
925.646	1.75
926.378	0.75
927.11	-0.25
927.841	0.75
928.573	1.75
929.305	0.75
930.036	-1.25
930.768	-1.25
931.499	0.75
932.23	-0.25
932.962	-0.25
933.693	0.75
934.424	1.75
935.155	0.75
935.886	0.75
936.617	0.75
937.348	-1.25
938.078	1.75
938.809	-0.25
939.54	1.75
940.27	-1.25
941.001	-0.25
941.731	-0.25
942.461	-1.25
943.191	0.75
943.922	-1.25
944.652	0.75
945.382	0.75
946.112	0.75
946.841	-0.25
947.571	-0.25
948.301	1.75
949.031	-0.25
949.76	-2.25
950.49	-1.25
951.219	-1.25
951.948	0.75
952.678	-0.25
953.407	0.75
954.136	0.75
954.865	1.75
955.594	-1.25
956.323	-0.25
957.052	1.75
957.78	0.75
958.509	-0.25
959.238	-0.25
959.966	-1.25
960.695	-0.25
961.423	-1.25
962.151	-0.25
962.88	-0.25
963.608	-0.25
964.336	-1.25
965.064	-1.25
965.792	1.75
966.52	-0.25
967.247	-0.25
967.975	-0.25
968.703	0.75
969.43	0.75
970.158	0.75
970.885	-0.25
971.613	-0.25
972.34	-0.25
973.067	-0.25
973.794	-0.25
974.521	-1.25
975.248	0.75
975.975	-0.25
976.702	3.75
977.429	0.75
978.156	-0.25
978.882	0.75
979.609	0.75
980.335	0.75
981.062	-0.25
981.788	0.75
982.514	-0.25
983.24	-1.25
983.967	-3.25
984.693	0.75
985.419	-0.25
986.144	1.75
986.87	0.75
987.596	-1.25
988.322	-0.25
989.047	-2.25
989.773	-1.25
990.498	0.75
991.224	-1.25
991.949	1.75
992.674	-1.25
993.399	1.75
994.124	-0.25
994.849	-1.25
995.574	0.75
996.299	0.75
997.024	0.75
997.749	0.75
998.473	1.75
999.198	-1.25
999.922	-0.25
1000.647	1.75
1001.371	3.75
1002.095	-3.25
1002.82	-1.25
1003.544	0.75
1004.268	4.75
1004.992	2.75
1005.716	3.75
1006.439	5.75
1007.163	4.75
1007.887	4.75
1008.611	0.75
1009.334	-1.25
1010.058	0.75
1010.781	0.75
1011.504	-0.25
1012.228	-1.25
1012.951	0.75
1013.674	-1.25
1014.397	1.75
1015.12	-1.25
