节点500_705_QEPB04081__541__20-53-37-725.txt的数据

Date: Wed Nov 12 20:53:37 CST 2025
User: PC
Spectrometer: QEPB0408
触发模式: 0
积分时间 (秒): 1.000000E-2
Scans to average: 1
启用暗噪声校正: true
启用非线性校正: false
滑动平均宽度: 0
X轴模式: Wavelengths
Number of Pixels in Spectrum: 1044
>>>>>Begin Spectral Data<<<<<
220.843	7.12
221.644	4.12
222.444	5.12
223.244	3.12
224.045	5.12
224.845	8.12
225.645	8.12
226.445	8.12
227.245	6.12
228.045	4.12
228.845	6.12
229.645	10.12
230.444	9.12
231.244	9.12
232.043	10.12
232.843	10.12
233.642	6.12
234.442	7.12
235.241	10.12
236.04	12.12
236.839	9.12
237.638	10.12
238.437	7.12
239.236	9.12
240.035	12.12
240.833	14.12
241.632	12.12
242.43	11.12
243.229	11.12
244.027	9.12
244.826	13.12
245.624	13.12
246.422	15.12
247.22	13.12
248.018	17.12
248.816	10.12
249.614	14.12
250.412	19.12
251.21	13.12
252.007	17.12
252.805	15.12
253.602	17.12
254.4	18.12
255.197	19.12
255.994	17.12
256.791	17.12
257.589	18.12
258.386	20.12
259.183	20.12
259.979	21.12
260.776	21.12
261.573	21.12
262.37	22.12
263.166	21.12
263.963	22.12
264.759	22.12
265.556	24.12
266.352	24.12
267.148	25.12
267.944	25.12
268.74	23.12
269.536	24.12
270.332	26.12
271.128	29.12
271.924	28.12
272.719	28.12
273.515	31.12
274.311	31.12
275.106	28.12
275.901	33.12
276.697	30.12
277.492	33.12
278.287	31.12
279.082	30.12
279.877	35.12
280.672	31.12
281.467	33.12
282.262	30.12
283.056	31.12
283.851	33.12
284.646	33.12
285.44	33.12
286.234	30.12
287.029	31.12
287.823	29.12
288.617	31.12
289.411	29.12
290.205	29.12
290.999	29.12
291.793	30.12
292.587	32.12
293.381	29.12
294.174	30.12
294.968	31.12
295.761	27.12
296.555	29.12
297.348	25.12
298.141	25.12
298.935	26.12
299.728	27.12
300.521	23.12
301.314	24.12
302.107	25.12
302.899	22.12
303.692	21.12
304.485	21.12
305.277	19.12
306.07	21.12
306.862	23.12
307.655	23.12
308.447	19.12
309.239	22.12
310.031	21.12
310.823	19.12
311.615	18.12
312.407	19.12
313.199	15.12
313.991	18.12
314.783	16.12
315.574	16.12
316.366	13.12
317.157	18.12
317.949	15.12
318.74	14.12
319.531	10.12
320.322	16.12
321.113	15.12
321.904	16.12
322.695	13.12
323.486	14.12
324.277	16.12
325.068	14.12
325.858	12.12
326.649	15.12
327.439	13.12
328.23	15.12
329.02	14.12
329.81	10.12
330.6	12.12
331.391	12.12
332.181	11.12
332.971	11.12
333.76	11.12
334.55	11.12
335.34	13.12
336.13	11.12
336.919	11.12
337.709	10.12
338.498	11.12
339.287	11.12
340.077	13.12
340.866	10.12
341.655	15.12
342.444	11.12
343.233	13.12
344.022	10.12
344.811	12.12
345.6	13.12
346.388	12.12
347.177	14.12
347.965	10.12
348.754	13.12
349.542	11.12
350.33	9.12
351.119	11.12
351.907	11.12
352.695	10.12
353.483	10.12
354.271	13.12
355.059	10.12
355.846	11.12
356.634	13.12
357.422	11.12
358.209	8.12
358.997	11.12
359.784	10.12
360.571	9.12
361.359	7.12
362.146	8.12
362.933	11.12
363.72	11.12
364.507	11.12
365.294	11.12
366.081	11.12
366.867	8.12
367.654	8.12
368.44	8.12
369.227	9.12
370.013	11.12
370.8	8.12
371.586	10.12
372.372	9.12
373.158	9.12
373.944	8.12
374.73	9.12
375.516	13.12
376.302	8.12
377.088	12.12
377.873	10.12
378.659	10.12
379.445	10.12
380.23	9.12
381.015	11.12
381.801	12.12
382.586	10.12
383.371	9.12
384.156	8.12
384.941	9.12
385.726	8.12
386.511	11.12
387.296	10.12
388.08	10.12
388.865	11.12
389.649	11.12
390.434	11.12
391.218	10.12
392.003	9.12
392.787	11.12
393.571	10.12
394.355	13.12
395.139	11.12
395.923	11.12
396.707	10.12
397.491	12.12
398.274	12.12
399.058	12.12
399.842	13.12
400.625	13.12
401.408	12.12
402.192	14.12
402.975	16.12
403.758	12.12
404.541	14.12
405.324	12.12
406.107	12.12
406.89	15.12
407.673	14.12
408.456	17.12
409.238	17.12
410.021	16.12
410.803	15.12
411.586	13.12
412.368	16.12
413.151	17.12
413.933	15.12
414.715	19.12
415.497	16.12
416.279	20.12
417.061	14.12
417.843	21.12
418.624	19.12
419.406	17.12
420.188	19.12
420.969	22.12
421.751	23.12
422.532	21.12
423.313	24.12
424.095	22.12
424.876	19.12
425.657	26.12
426.438	23.12
427.219	27.12
428	26.12
428.78	28.12
429.561	28.12
430.342	32.12
431.122	31.12
431.903	29.12
432.683	35.12
433.464	36.12
434.244	35.12
435.024	40.12
435.804	43.12
436.584	44.12
437.364	43.12
438.144	49.12
438.924	53.12
439.704	56.12
440.483	54.12
441.263	60.12
442.042	65.12
442.822	74.12
443.601	78.12
444.38	86.12
445.16	96.12
445.939	99.12
446.718	111.12
447.497	118.12
448.276	128.12
449.054	141.12
449.833	156.12
450.612	167.12
451.391	193.12
452.169	203.12
452.948	231.12
453.726	251.12
454.504	278.12
455.282	314.12
456.061	349.12
456.839	398.12
457.617	436.12
458.395	486.12
459.172	536.12
459.95	605.12
460.728	672.12
461.506	749.12
462.283	821.12
463.061	922.12
463.838	1008.12
464.615	1122.12
465.393	1256.12
466.17	1381.12
466.947	1549.12
467.724	1692.12
468.501	1871.12
469.278	2072.12
470.055	2282.12
470.831	2520.12
471.608	2760.12
472.385	3027.12
473.161	3305.12
473.938	3629.12
474.714	3967.12
475.49	4349.12
476.266	4727.12
477.043	5171.12
477.819	5611.12
478.595	6107.12
479.371	6614.12
480.146	7217.12
480.922	7843.12
481.698	8500.12
482.473	9229.12
483.249	9967.12
484.024	10818.12
484.8	11629.12
485.575	12558.12
486.35	13572.12
487.126	14670.12
487.901	15766.12
488.676	16942.12
489.451	18271.12
490.225	19649.12
491	20969.12
491.775	22439.12
492.55	23909.12
493.324	25455.12
494.099	27097.12
494.873	28571.12
495.647	30227.12
496.422	31851.12
497.196	33483.12
497.97	35104.12
498.744	36530.12
499.518	38095.12
500.292	39419.12
501.066	40516.12
501.839	41522.12
502.613	42401.12
503.387	43154.12
504.16	43787.12
504.934	44051.12
505.707	44335.12
506.48	44217.12
507.253	43981.12
508.027	43601.12
508.8	42933.12
509.573	42211.12
510.346	41500.12
511.118	40641.12
511.891	39676.12
512.664	38274.12
513.437	36969.12
514.209	35774.12
514.982	34528.12
515.754	33268.12
516.526	31907.12
517.298	30681.12
518.071	29609.12
518.843	28405.12
519.615	27172.12
520.387	26210.12
521.159	25179.12
521.93	24118.12
522.702	23147.12
523.474	22135.12
524.245	21300.12
525.017	20411.12
525.788	19562.12
526.56	18744.12
527.331	18001.12
528.102	17128.12
528.873	16269.12
529.644	15522.12
530.415	14792.12
531.186	14171.12
531.957	13402.12
532.728	12786.12
533.498	12055.12
534.269	11493.12
535.039	10907.12
535.81	10321.12
536.58	9765.12
537.351	9262.12
538.121	8754.12
538.891	8267.12
539.661	7873.12
540.431	7438.12
541.201	7087.12
541.971	6691.12
542.741	6329.12
543.51	6026.12
544.28	5723.12
545.05	5448.12
545.819	5205.12
546.588	4953.12
547.358	4718.12
548.127	4491.12
548.896	4270.12
549.665	4056.12
550.434	3852.12
551.203	3633.12
551.972	3469.12
552.741	3264.12
553.51	3090.12
554.278	2935.12
555.047	2759.12
555.815	2632.12
556.584	2490.12
557.352	2317.12
558.121	2220.12
558.889	2078.12
559.657	1982.12
560.425	1879.12
561.193	1769.12
561.961	1663.12
562.729	1587.12
563.496	1491.12
564.264	1424.12
565.032	1338.12
565.799	1264.12
566.567	1178.12
567.334	1127.12
568.101	1079.12
568.869	1016.12
569.636	955.12
570.403	905.12
571.17	860.12
571.937	807.12
572.704	759.12
573.471	716.12
574.237	676.12
575.004	632.12
575.771	604.12
576.537	564.12
577.303	538.12
578.07	510.12
578.836	475.12
579.602	448.12
580.368	429.12
581.134	407.12
581.9	389.12
582.666	377.12
583.432	358.12
584.198	333.12
584.964	314.12
585.729	299.12
586.495	280.12
587.26	269.12
588.025	252.12
588.791	239.12
589.556	232.12
590.321	220.12
591.086	206.12
591.851	197.12
592.616	186.12
593.381	178.12
594.146	169.12
594.911	166.12
595.675	153.12
596.44	153.12
597.204	140.12
597.969	133.12
598.733	127.12
599.497	126.12
600.261	120.12
601.025	110.12
601.79	107.12
602.553	105.12
603.317	107.12
604.081	98.12
604.845	89.12
605.609	83.12
606.372	80.12
607.136	83.12
607.899	73.12
608.662	73.12
609.426	75.12
610.189	69.12
610.952	67.12
611.715	60.12
612.478	64.12
613.241	57.12
614.004	59.12
614.767	54.12
615.529	56.12
616.292	51.12
617.055	47.12
617.817	51.12
618.579	46.12
619.342	44.12
620.104	43.12
620.866	41.12
621.628	41.12
622.39	38.12
623.152	39.12
623.914	38.12
624.676	36.12
625.438	36.12
626.199	29.12
626.961	31.12
627.722	29.12
628.484	33.12
629.245	32.12
630.006	31.12
630.768	32.12
631.529	27.12
632.29	27.12
633.051	28.12
633.812	26.12
634.573	25.12
635.333	24.12
636.094	22.12
636.855	23.12
637.615	20.12
638.376	23.12
639.136	19.12
639.896	22.12
640.657	17.12
641.417	16.12
642.177	17.12
642.937	18.12
643.697	18.12
644.457	15.12
645.216	18.12
645.976	17.12
646.736	16.12
647.495	16.12
648.255	15.12
649.014	13.12
649.774	14.12
650.533	12.12
651.292	11.12
652.051	13.12
652.81	14.12
653.569	14.12
654.328	13.12
655.087	11.12
655.846	14.12
656.604	13.12
657.363	13.12
658.121	11.12
658.88	12.12
659.638	10.12
660.397	11.12
661.155	10.12
661.913	11.12
662.671	9.12
663.429	13.12
664.187	9.12
664.945	13.12
665.703	9.12
666.46	11.12
667.218	9.12
667.976	11.12
668.733	11.12
669.49	7.12
670.248	11.12
671.005	12.12
671.762	9.12
672.519	10.12
673.276	8.12
674.033	9.12
674.79	9.12
675.547	9.12
676.304	8.12
677.06	7.12
677.817	11.12
678.574	8.12
679.33	8.12
680.086	8.12
680.843	8.12
681.599	9.12
682.355	7.12
683.111	6.12
683.867	9.12
684.623	8.12
685.379	7.12
686.135	10.12
686.89	10.12
687.646	7.12
688.402	7.12
689.157	7.12
689.912	9.12
690.668	9.12
691.423	7.12
692.178	7.12
692.933	7.12
693.688	9.12
694.443	7.12
695.198	7.12
695.953	8.12
696.708	6.12
697.462	10.12
698.217	7.12
698.972	9.12
699.726	7.12
700.48	8.12
701.235	7.12
701.989	9.12
702.743	8.12
703.497	7.12
704.251	6.12
705.005	6.12
705.759	6.12
706.513	8.12
707.266	5.12
708.02	8.12
708.774	8.12
709.527	5.12
710.28	9.12
711.034	7.12
711.787	10.12
712.54	7.12
713.293	8.12
714.046	6.12
714.799	8.12
715.552	10.12
716.305	8.12
717.058	9.12
717.81	8.12
718.563	6.12
719.315	9.12
720.068	10.12
720.82	7.12
721.573	8.12
722.325	8.12
723.077	7.12
723.829	7.12
724.581	9.12
725.333	6.12
726.085	10.12
726.836	5.12
727.588	8.12
728.34	6.12
729.091	11.12
729.843	8.12
730.594	8.12
731.346	11.12
732.097	9.12
732.848	8.12
733.599	8.12
734.35	7.12
735.101	8.12
735.852	8.12
736.603	8.12
737.354	9.12
738.104	9.12
738.855	9.12
739.605	8.12
740.356	10.12
741.106	9.12
741.856	5.12
742.607	12.12
743.357	9.12
744.107	9.12
744.857	11.12
745.607	9.12
746.357	10.12
747.106	10.12
747.856	10.12
748.606	11.12
749.355	12.12
750.105	12.12
750.854	7.12
751.603	10.12
752.353	9.12
753.102	9.12
753.851	7.12
754.6	11.12
755.349	11.12
756.098	10.12
756.847	13.12
757.595	12.12
758.344	11.12
759.093	11.12
759.841	9.12
760.589	11.12
761.338	13.12
762.086	13.12
762.834	10.12
763.582	13.12
764.331	10.12
765.079	15.12
765.826	12.12
766.574	12.12
767.322	9.12
768.07	14.12
768.817	12.12
769.565	13.12
770.312	15.12
771.06	14.12
771.807	13.12
772.554	13.12
773.302	14.12
774.049	12.12
774.796	14.12
775.543	14.12
776.29	12.12
777.036	14.12
777.783	17.12
778.53	15.12
779.276	15.12
780.023	14.12
780.769	13.12
781.516	16.12
782.262	14.12
783.008	15.12
783.754	15.12
784.5	13.12
785.246	14.12
785.992	15.12
786.738	15.12
787.484	12.12
788.23	13.12
788.975	13.12
789.721	17.12
790.466	15.12
791.212	15.12
791.957	17.12
792.702	13.12
793.447	14.12
794.193	16.12
794.938	13.12
795.683	14.12
796.427	12.12
797.172	15.12
797.917	13.12
798.662	13.12
799.406	16.12
800.151	10.12
800.895	12.12
801.64	11.12
802.384	8.12
803.128	10.12
803.872	11.12
804.616	9.12
805.36	11.12
806.104	13.12
806.848	11.12
807.592	10.12
808.336	10.12
809.079	7.12
809.823	9.12
810.566	9.12
811.31	11.12
812.053	8.12
812.796	8.12
813.539	11.12
814.283	10.12
815.026	9.12
815.769	8.12
816.511	7.12
817.254	8.12
817.997	6.12
818.74	7.12
819.482	6.12
820.225	7.12
820.967	7.12
821.71	7.12
822.452	9.12
823.194	6.12
823.936	7.12
824.678	6.12
825.42	6.12
826.162	7.12
826.904	4.12
827.646	9.12
828.388	6.12
829.129	7.12
829.871	7.12
830.612	7.12
831.354	4.12
832.095	7.12
832.836	7.12
833.577	5.12
834.319	6.12
835.06	4.12
835.801	7.12
836.542	6.12
837.282	5.12
838.023	8.12
838.764	7.12
839.504	4.12
840.245	6.12
840.985	6.12
841.726	5.12
842.466	6.12
843.206	5.12
843.946	6.12
844.687	5.12
845.427	7.12
846.166	5.12
846.906	7.12
847.646	7.12
848.386	5.12
849.125	5.12
849.865	4.12
850.605	6.12
851.344	5.12
852.083	4.12
852.823	5.12
853.562	2.12
854.301	4.12
855.04	3.12
855.779	6.12
856.518	4.12
857.257	3.12
857.995	5.12
858.734	5.12
859.473	5.12
860.211	1.12
860.95	6.12
861.688	4.12
862.426	3.12
863.165	3.12
863.903	5.12
864.641	3.12
865.379	3.12
866.117	3.12
866.855	4.12
867.593	4.12
868.33	3.12
869.068	4.12
869.806	3.12
870.543	3.12
871.28	3.12
872.018	3.12
872.755	0.12
873.492	2.12
874.229	0.12
874.967	6.12
875.703	1.12
876.44	2.12
877.177	2.12
877.914	-0.88
878.651	2.12
879.387	2.12
880.124	0.12
880.86	0.12
881.597	-0.88
882.333	2.12
883.069	3.12
883.806	1.12
884.542	4.12
885.278	2.12
886.014	1.12
886.749	1.12
887.485	4.12
888.221	1.12
888.957	1.12
889.692	0.12
890.428	1.12
891.163	3.12
891.899	-0.88
892.634	3.12
893.369	1.12
894.104	2.12
894.839	2.12
895.574	1.12
896.309	2.12
897.044	0.12
897.779	0.12
898.514	3.12
899.248	1.12
899.983	2.12
900.717	2.12
901.452	2.12
902.186	1.12
902.92	2.12
903.654	3.12
904.389	-0.88
905.123	2.12
905.857	-0.88
906.59	1.12
907.324	1.12
908.058	3.12
908.792	0.12
909.525	0.12
910.259	1.12
910.992	1.12
911.726	1.12
912.459	2.12
913.192	-0.88
913.925	1.12
914.658	0.12
915.391	2.12
916.124	1.12
916.857	3.12
917.59	0.12
918.323	1.12
919.055	1.12
919.788	-1.88
920.521	1.12
921.253	2.12
921.985	0.12
922.718	1.12
923.45	0.12
924.182	1.12
924.914	0.12
925.646	0.12
926.378	-0.88
927.11	3.12
927.841	3.12
928.573	0.12
929.305	0.12
930.036	0.12
930.768	0.12
931.499	0.12
932.23	0.12
932.962	4.12
933.693	-0.88
934.424	0.12
935.155	0.12
935.886	2.12
936.617	-1.88
937.348	-1.88
938.078	1.12
938.809	0.12
939.54	1.12
940.27	1.12
941.001	0.12
941.731	-1.88
942.461	-0.88
943.191	-0.88
943.922	2.12
944.652	1.12
945.382	-0.88
946.112	1.12
946.841	3.12
947.571	1.12
948.301	0.12
949.031	1.12
949.76	0.12
950.49	4.12
951.219	-0.88
951.948	1.12
952.678	-1.88
953.407	1.12
954.136	1.12
954.865	1.12
955.594	0.12
956.323	0.12
957.052	3.12
957.78	1.12
958.509	-0.88
959.238	0.12
959.966	2.12
960.695	-0.88
961.423	-0.88
962.151	-0.88
962.88	3.12
963.608	1.12
964.336	2.12
965.064	-0.88
965.792	0.12
966.52	-0.88
967.247	1.12
967.975	0.12
968.703	-0.88
969.43	2.12
970.158	1.12
970.885	1.12
971.613	2.12
972.34	-0.88
973.067	2.12
973.794	-0.88
974.521	1.12
975.248	-0.88
975.975	1.12
976.702	-0.88
977.429	1.12
978.156	2.12
978.882	0.12
979.609	0.12
980.335	2.12
981.062	-1.88
981.788	0.12
982.514	1.12
983.24	-1.88
983.967	0.12
984.693	-0.88
985.419	3.12
986.144	2.12
986.87	1.12
987.596	-0.88
988.322	0.12
989.047	1.12
989.773	1.12
990.498	1.12
991.224	1.12
991.949	1.12
992.674	-0.88
993.399	1.12
994.124	1.12
994.849	-0.88
995.574	-0.88
996.299	-1.88
997.024	0.12
997.749	-0.88
998.473	2.12
999.198	2.12
999.922	2.12
1000.647	1.12
1001.371	3.12
1002.095	-0.88
1002.82	-0.88
1003.544	-0.88
1004.268	3.12
1004.992	3.12
1005.716	4.12
1006.439	4.12
1007.163	7.12
1007.887	6.12
1008.611	-1.88
1009.334	0.12
1010.058	0.12
1010.781	1.12
1011.504	0.12
1012.228	-0.88
1012.951	-0.88
1013.674	-0.88
1014.397	1.12
1015.12	0.12
