节点500_705_QEPB04081__423__20-51-55-687.txt的数据

Date: Wed Nov 12 20:51:55 CST 2025
User: PC
Spectrometer: QEPB0408
触发模式: 0
积分时间 (秒): 1.000000E-2
Scans to average: 1
启用暗噪声校正: true
启用非线性校正: false
滑动平均宽度: 0
X轴模式: Wavelengths
Number of Pixels in Spectrum: 1044
>>>>>Begin Spectral Data<<<<<
220.843	5.25
221.644	6.25
222.444	7.25
223.244	6.25
224.045	7.25
224.845	4.25
225.645	8.25
226.445	9.25
227.245	6.25
228.045	9.25
228.845	9.25
229.645	9.25
230.444	10.25
231.244	6.25
232.043	11.25
232.843	12.25
233.642	11.25
234.442	10.25
235.241	9.25
236.04	9.25
236.839	8.25
237.638	12.25
238.437	9.25
239.236	10.25
240.035	11.25
240.833	11.25
241.632	9.25
242.43	10.25
243.229	14.25
244.027	14.25
244.826	11.25
245.624	14.25
246.422	14.25
247.22	13.25
248.018	13.25
248.816	13.25
249.614	16.25
250.412	15.25
251.21	15.25
252.007	17.25
252.805	18.25
253.602	16.25
254.4	15.25
255.197	19.25
255.994	19.25
256.791	18.25
257.589	18.25
258.386	19.25
259.183	19.25
259.979	20.25
260.776	21.25
261.573	21.25
262.37	20.25
263.166	23.25
263.963	25.25
264.759	22.25
265.556	23.25
266.352	27.25
267.148	27.25
267.944	27.25
268.74	26.25
269.536	30.25
270.332	30.25
271.128	31.25
271.924	32.25
272.719	30.25
273.515	30.25
274.311	31.25
275.106	31.25
275.901	31.25
276.697	32.25
277.492	33.25
278.287	31.25
279.082	36.25
279.877	33.25
280.672	32.25
281.467	36.25
282.262	30.25
283.056	34.25
283.851	33.25
284.646	32.25
285.44	36.25
286.234	32.25
287.029	32.25
287.823	32.25
288.617	31.25
289.411	33.25
290.205	34.25
290.999	34.25
291.793	31.25
292.587	27.25
293.381	31.25
294.174	31.25
294.968	29.25
295.761	27.25
296.555	26.25
297.348	25.25
298.141	26.25
298.935	25.25
299.728	25.25
300.521	29.25
301.314	22.25
302.107	22.25
302.899	24.25
303.692	19.25
304.485	23.25
305.277	21.25
306.07	24.25
306.862	23.25
307.655	20.25
308.447	21.25
309.239	21.25
310.031	21.25
310.823	16.25
311.615	21.25
312.407	20.25
313.199	18.25
313.991	19.25
314.783	14.25
315.574	18.25
316.366	16.25
317.157	15.25
317.949	15.25
318.74	14.25
319.531	16.25
320.322	15.25
321.113	11.25
321.904	13.25
322.695	11.25
323.486	14.25
324.277	13.25
325.068	13.25
325.858	14.25
326.649	14.25
327.439	15.25
328.23	12.25
329.02	13.25
329.81	10.25
330.6	13.25
331.391	13.25
332.181	11.25
332.971	11.25
333.76	11.25
334.55	12.25
335.34	10.25
336.13	13.25
336.919	11.25
337.709	12.25
338.498	13.25
339.287	12.25
340.077	12.25
340.866	12.25
341.655	13.25
342.444	13.25
343.233	11.25
344.022	11.25
344.811	12.25
345.6	12.25
346.388	11.25
347.177	11.25
347.965	13.25
348.754	13.25
349.542	11.25
350.33	11.25
351.119	11.25
351.907	9.25
352.695	11.25
353.483	13.25
354.271	10.25
355.059	10.25
355.846	9.25
356.634	10.25
357.422	8.25
358.209	11.25
358.997	10.25
359.784	10.25
360.571	11.25
361.359	10.25
362.146	8.25
362.933	11.25
363.72	9.25
364.507	9.25
365.294	12.25
366.081	10.25
366.867	10.25
367.654	9.25
368.44	10.25
369.227	8.25
370.013	10.25
370.8	10.25
371.586	9.25
372.372	10.25
373.158	10.25
373.944	11.25
374.73	9.25
375.516	8.25
376.302	9.25
377.088	9.25
377.873	11.25
378.659	8.25
379.445	10.25
380.23	10.25
381.015	8.25
381.801	10.25
382.586	10.25
383.371	13.25
384.156	10.25
384.941	10.25
385.726	11.25
386.511	11.25
387.296	9.25
388.08	11.25
388.865	11.25
389.649	11.25
390.434	12.25
391.218	11.25
392.003	11.25
392.787	14.25
393.571	12.25
394.355	11.25
395.139	13.25
395.923	14.25
396.707	11.25
397.491	13.25
398.274	11.25
399.058	12.25
399.842	14.25
400.625	13.25
401.408	10.25
402.192	14.25
402.975	13.25
403.758	15.25
404.541	15.25
405.324	14.25
406.107	15.25
406.89	13.25
407.673	14.25
408.456	16.25
409.238	15.25
410.021	16.25
410.803	15.25
411.586	17.25
412.368	18.25
413.151	19.25
413.933	14.25
414.715	17.25
415.497	16.25
416.279	21.25
417.061	18.25
417.843	22.25
418.624	18.25
419.406	19.25
420.188	21.25
420.969	20.25
421.751	23.25
422.532	20.25
423.313	22.25
424.095	23.25
424.876	22.25
425.657	23.25
426.438	27.25
427.219	26.25
428	27.25
428.78	27.25
429.561	29.25
430.342	31.25
431.122	30.25
431.903	35.25
432.683	33.25
433.464	39.25
434.244	37.25
435.024	37.25
435.804	40.25
436.584	47.25
437.364	47.25
438.144	47.25
438.924	54.25
439.704	56.25
440.483	60.25
441.263	64.25
442.042	65.25
442.822	68.25
443.601	79.25
444.38	81.25
445.16	90.25
445.939	100.25
446.718	103.25
447.497	112.25
448.276	132.25
449.054	140.25
449.833	148.25
450.612	166.25
451.391	185.25
452.169	197.25
452.948	218.25
453.726	248.25
454.504	280.25
455.282	308.25
456.061	337.25
456.839	384.25
457.617	415.25
458.395	469.25
459.172	518.25
459.95	587.25
460.728	647.25
461.506	715.25
462.283	811.25
463.061	898.25
463.838	996.25
464.615	1117.25
465.393	1237.25
466.17	1360.25
466.947	1529.25
467.724	1686.25
468.501	1879.25
469.278	2061.25
470.055	2269.25
470.831	2514.25
471.608	2780.25
472.385	3028.25
473.161	3351.25
473.938	3676.25
474.714	4025.25
475.49	4393.25
476.266	4805.25
477.043	5256.25
477.819	5751.25
478.595	6320.25
479.371	6845.25
480.146	7412.25
480.922	8122.25
481.698	8803.25
482.473	9594.25
483.249	10409.25
484.024	11293.25
484.8	12229.25
485.575	13211.25
486.35	14317.25
487.126	15484.25
487.901	16677.25
488.676	17964.25
489.451	19400.25
490.225	20855.25
491	22299.25
491.775	23842.25
492.55	25522.25
493.324	27093.25
494.099	28830.25
494.873	30504.25
495.647	32223.25
496.422	33946.25
497.196	35686.25
497.97	37216.25
498.744	38787.25
499.518	40410.25
500.292	41823.25
501.066	42876.25
501.839	43814.25
502.613	44569.25
503.387	45358.25
504.16	45794.25
504.934	46003.25
505.707	46042.25
506.48	45870.25
507.253	45416.25
508.027	44830.25
508.8	44086.25
509.573	43245.25
510.346	42255.25
511.118	41198.25
511.891	40104.25
512.664	38632.25
513.437	37262.25
514.209	35941.25
514.982	34676.25
515.754	33303.25
516.526	31944.25
517.298	30652.25
518.071	29469.25
518.843	28264.25
519.615	27140.25
520.387	26027.25
521.159	25043.25
521.93	24078.25
522.702	23000.25
523.474	22057.25
524.245	21188.25
525.017	20255.25
525.788	19437.25
526.56	18589.25
527.331	17819.25
528.102	16893.25
528.873	16106.25
529.644	15327.25
530.415	14620.25
531.186	13914.25
531.957	13207.25
532.728	12543.25
533.498	11889.25
534.269	11272.25
535.039	10688.25
535.81	10136.25
536.58	9549.25
537.351	9062.25
538.121	8567.25
538.891	8114.25
539.661	7669.25
540.431	7242.25
541.201	6896.25
541.971	6527.25
542.741	6188.25
543.51	5852.25
544.28	5607.25
545.05	5320.25
545.819	5081.25
546.588	4847.25
547.358	4628.25
548.127	4379.25
548.896	4148.25
549.665	3943.25
550.434	3769.25
551.203	3555.25
551.972	3353.25
552.741	3194.25
553.51	2987.25
554.278	2844.25
555.047	2687.25
555.815	2547.25
556.584	2414.25
557.352	2275.25
558.121	2140.25
558.889	2049.25
559.657	1909.25
560.425	1801.25
561.193	1726.25
561.961	1634.25
562.729	1529.25
563.496	1457.25
564.264	1366.25
565.032	1292.25
565.799	1228.25
566.567	1156.25
567.334	1100.25
568.101	1053.25
568.869	975.25
569.636	930.25
570.403	873.25
571.17	829.25
571.937	785.25
572.704	748.25
573.471	701.25
574.237	653.25
575.004	625.25
575.771	575.25
576.537	543.25
577.303	514.25
578.07	490.25
578.836	469.25
579.602	437.25
580.368	416.25
581.134	388.25
581.9	377.25
582.666	361.25
583.432	349.25
584.198	322.25
584.964	309.25
585.729	298.25
586.495	271.25
587.26	265.25
588.025	251.25
588.791	235.25
589.556	220.25
590.321	213.25
591.086	204.25
591.851	192.25
592.616	180.25
593.381	169.25
594.146	170.25
594.911	158.25
595.675	147.25
596.44	142.25
597.204	140.25
597.969	134.25
598.733	132.25
599.497	121.25
600.261	115.25
601.025	110.25
601.79	109.25
602.553	101.25
603.317	97.25
604.081	92.25
604.845	86.25
605.609	89.25
606.372	82.25
607.136	80.25
607.899	78.25
608.662	74.25
609.426	72.25
610.189	67.25
610.952	65.25
611.715	62.25
612.478	60.25
613.241	58.25
614.004	59.25
614.767	56.25
615.529	54.25
616.292	48.25
617.055	49.25
617.817	47.25
618.579	48.25
619.342	46.25
620.104	43.25
620.866	46.25
621.628	41.25
622.39	39.25
623.152	38.25
623.914	37.25
624.676	35.25
625.438	36.25
626.199	33.25
626.961	32.25
627.722	32.25
628.484	30.25
629.245	29.25
630.006	29.25
630.768	27.25
631.529	25.25
632.29	29.25
633.051	24.25
633.812	25.25
634.573	24.25
635.333	24.25
636.094	24.25
636.855	24.25
637.615	21.25
638.376	20.25
639.136	19.25
639.896	21.25
640.657	21.25
641.417	18.25
642.177	17.25
642.937	19.25
643.697	16.25
644.457	17.25
645.216	16.25
645.976	19.25
646.736	17.25
647.495	16.25
648.255	14.25
649.014	14.25
649.774	17.25
650.533	15.25
651.292	14.25
652.051	15.25
652.81	13.25
653.569	15.25
654.328	12.25
655.087	15.25
655.846	11.25
656.604	13.25
657.363	15.25
658.121	11.25
658.88	12.25
659.638	13.25
660.397	13.25
661.155	10.25
661.913	11.25
662.671	11.25
663.429	10.25
664.187	10.25
664.945	9.25
665.703	11.25
666.46	10.25
667.218	13.25
667.976	10.25
668.733	10.25
669.49	11.25
670.248	10.25
671.005	9.25
671.762	12.25
672.519	8.25
673.276	10.25
674.033	9.25
674.79	9.25
675.547	8.25
676.304	11.25
677.06	7.25
677.817	8.25
678.574	7.25
679.33	7.25
680.086	8.25
680.843	7.25
681.599	10.25
682.355	10.25
683.111	9.25
683.867	9.25
684.623	8.25
685.379	9.25
686.135	5.25
686.89	7.25
687.646	9.25
688.402	7.25
689.157	5.25
689.912	8.25
690.668	7.25
691.423	8.25
692.178	7.25
692.933	9.25
693.688	9.25
694.443	8.25
695.198	8.25
695.953	9.25
696.708	10.25
697.462	8.25
698.217	8.25
698.972	8.25
699.726	6.25
700.48	9.25
701.235	9.25
701.989	7.25
702.743	9.25
703.497	7.25
704.251	6.25
705.005	6.25
705.759	9.25
706.513	6.25
707.266	7.25
708.02	9.25
708.774	7.25
709.527	9.25
710.28	7.25
711.034	8.25
711.787	7.25
712.54	7.25
713.293	9.25
714.046	6.25
714.799	11.25
715.552	7.25
716.305	8.25
717.058	7.25
717.81	9.25
718.563	8.25
719.315	6.25
720.068	9.25
720.82	9.25
721.573	9.25
722.325	6.25
723.077	8.25
723.829	7.25
724.581	7.25
725.333	10.25
726.085	8.25
726.836	8.25
727.588	8.25
728.34	6.25
729.091	7.25
729.843	9.25
730.594	9.25
731.346	9.25
732.097	6.25
732.848	9.25
733.599	7.25
734.35	10.25
735.101	11.25
735.852	11.25
736.603	9.25
737.354	9.25
738.104	9.25
738.855	10.25
739.605	10.25
740.356	10.25
741.106	11.25
741.856	8.25
742.607	9.25
743.357	9.25
744.107	9.25
744.857	12.25
745.607	10.25
746.357	11.25
747.106	12.25
747.856	10.25
748.606	11.25
749.355	10.25
750.105	11.25
750.854	11.25
751.603	11.25
752.353	14.25
753.102	10.25
753.851	12.25
754.6	12.25
755.349	10.25
756.098	11.25
756.847	11.25
757.595	10.25
758.344	11.25
759.093	11.25
759.841	12.25
760.589	13.25
761.338	12.25
762.086	12.25
762.834	13.25
763.582	13.25
764.331	9.25
765.079	12.25
765.826	15.25
766.574	15.25
767.322	13.25
768.07	15.25
768.817	15.25
769.565	15.25
770.312	14.25
771.06	13.25
771.807	17.25
772.554	15.25
773.302	14.25
774.049	15.25
774.796	13.25
775.543	14.25
776.29	14.25
777.036	15.25
777.783	13.25
778.53	15.25
779.276	16.25
780.023	13.25
780.769	17.25
781.516	16.25
782.262	14.25
783.008	14.25
783.754	15.25
784.5	15.25
785.246	15.25
785.992	14.25
786.738	13.25
787.484	15.25
788.23	15.25
788.975	15.25
789.721	14.25
790.466	13.25
791.212	15.25
791.957	14.25
792.702	14.25
793.447	13.25
794.193	15.25
794.938	16.25
795.683	13.25
796.427	13.25
797.172	13.25
797.917	14.25
798.662	14.25
799.406	14.25
800.151	16.25
800.895	14.25
801.64	11.25
802.384	12.25
803.128	11.25
803.872	11.25
804.616	13.25
805.36	11.25
806.104	11.25
806.848	9.25
807.592	10.25
808.336	10.25
809.079	10.25
809.823	9.25
810.566	10.25
811.31	11.25
812.053	8.25
812.796	9.25
813.539	10.25
814.283	10.25
815.026	9.25
815.769	8.25
816.511	10.25
817.254	7.25
817.997	8.25
818.74	6.25
819.482	9.25
820.225	8.25
820.967	8.25
821.71	8.25
822.452	5.25
823.194	8.25
823.936	8.25
824.678	5.25
825.42	7.25
826.162	7.25
826.904	6.25
827.646	5.25
828.388	8.25
829.129	7.25
829.871	4.25
830.612	6.25
831.354	7.25
832.095	7.25
832.836	7.25
833.577	5.25
834.319	8.25
835.06	6.25
835.801	6.25
836.542	5.25
837.282	7.25
838.023	7.25
838.764	5.25
839.504	8.25
840.245	6.25
840.985	6.25
841.726	4.25
842.466	6.25
843.206	4.25
843.946	6.25
844.687	7.25
845.427	3.25
846.166	6.25
846.906	5.25
847.646	5.25
848.386	7.25
849.125	4.25
849.865	4.25
850.605	4.25
851.344	3.25
852.083	4.25
852.823	4.25
853.562	5.25
854.301	3.25
855.04	6.25
855.779	2.25
856.518	3.25
857.257	4.25
857.995	3.25
858.734	3.25
859.473	3.25
860.211	4.25
860.95	4.25
861.688	4.25
862.426	5.25
863.165	2.25
863.903	4.25
864.641	5.25
865.379	3.25
866.117	5.25
866.855	2.25
867.593	4.25
868.33	2.25
869.068	3.25
869.806	1.25
870.543	5.25
871.28	3.25
872.018	1.25
872.755	2.25
873.492	1.25
874.229	4.25
874.967	3.25
875.703	3.25
876.44	3.25
877.177	2.25
877.914	3.25
878.651	1.25
879.387	1.25
880.124	1.25
880.86	1.25
881.597	3.25
882.333	1.25
883.069	2.25
883.806	1.25
884.542	2.25
885.278	-0.75
886.014	-0.75
886.749	4.25
887.485	1.25
888.221	3.25
888.957	1.25
889.692	1.25
890.428	1.25
891.163	2.25
891.899	1.25
892.634	3.25
893.369	-0.75
894.104	2.25
894.839	2.25
895.574	0.25
896.309	0.25
897.044	2.25
897.779	1.25
898.514	1.25
899.248	1.25
899.983	1.25
900.717	1.25
901.452	3.25
902.186	2.25
902.92	1.25
903.654	1.25
904.389	1.25
905.123	1.25
905.857	0.25
906.59	2.25
907.324	1.25
908.058	3.25
908.792	1.25
909.525	3.25
910.259	3.25
910.992	1.25
911.726	0.25
912.459	-0.75
913.192	2.25
913.925	-0.75
914.658	1.25
915.391	0.25
916.124	1.25
916.857	1.25
917.59	1.25
918.323	1.25
919.055	2.25
919.788	0.25
920.521	0.25
921.253	-0.75
921.985	1.25
922.718	1.25
923.45	0.25
924.182	-0.75
924.914	3.25
925.646	0.25
926.378	2.25
927.11	0.25
927.841	3.25
928.573	1.25
929.305	1.25
930.036	0.25
930.768	1.25
931.499	1.25
932.23	2.25
932.962	0.25
933.693	1.25
934.424	-0.75
935.155	-0.75
935.886	2.25
936.617	-0.75
937.348	2.25
938.078	0.25
938.809	1.25
939.54	-0.75
940.27	0.25
941.001	2.25
941.731	-0.75
942.461	2.25
943.191	0.25
943.922	-0.75
944.652	2.25
945.382	0.25
946.112	2.25
946.841	2.25
947.571	-0.75
948.301	1.25
949.031	0.25
949.76	0.25
950.49	2.25
951.219	2.25
951.948	1.25
952.678	1.25
953.407	1.25
954.136	0.25
954.865	2.25
955.594	2.25
956.323	2.25
957.052	1.25
957.78	0.25
958.509	2.25
959.238	0.25
959.966	-0.75
960.695	1.25
961.423	0.25
962.151	-0.75
962.88	0.25
963.608	1.25
964.336	4.25
965.064	1.25
965.792	1.25
966.52	1.25
967.247	0.25
967.975	-0.75
968.703	0.25
969.43	2.25
970.158	1.25
970.885	0.25
971.613	1.25
972.34	-1.75
973.067	-0.75
973.794	-0.75
974.521	2.25
975.248	0.25
975.975	2.25
976.702	-0.75
977.429	1.25
978.156	0.25
978.882	-1.75
979.609	2.25
980.335	2.25
981.062	2.25
981.788	2.25
982.514	2.25
983.24	-0.75
983.967	1.25
984.693	0.25
985.419	1.25
986.144	1.25
986.87	0.25
987.596	-0.75
988.322	-0.75
989.047	-1.75
989.773	1.25
990.498	1.25
991.224	-0.75
991.949	0.25
992.674	-0.75
993.399	1.25
994.124	-1.75
994.849	1.25
995.574	1.25
996.299	-0.75
997.024	1.25
997.749	1.25
998.473	1.25
999.198	1.25
999.922	3.25
1000.647	2.25
1001.371	3.25
1002.095	0.25
1002.82	0.25
1003.544	-3.75
1004.268	3.25
1004.992	3.25
1005.716	3.25
1006.439	5.25
1007.163	8.25
1007.887	4.25
1008.611	-0.75
1009.334	-0.75
1010.058	1.25
1010.781	0.25
1011.504	-0.75
1012.228	1.25
1012.951	2.25
1013.674	0.25
1014.397	-1.75
1015.12	-0.75
