节点500_705_QEPB04081__507__20-53-05-754.txt的数据

Date: Wed Nov 12 20:53:05 CST 2025
User: PC
Spectrometer: QEPB0408
触发模式: 0
积分时间 (秒): 1.000000E-2
Scans to average: 1
启用暗噪声校正: true
启用非线性校正: false
滑动平均宽度: 0
X轴模式: Wavelengths
Number of Pixels in Spectrum: 1044
>>>>>Begin Spectral Data<<<<<
220.843	2.75
221.644	5.75
222.444	5.75
223.244	2.75
224.045	5.75
224.845	4.75
225.645	7.75
226.445	6.75
227.245	5.75
228.045	6.75
228.845	7.75
229.645	7.75
230.444	8.75
231.244	11.75
232.043	7.75
232.843	5.75
233.642	8.75
234.442	8.75
235.241	8.75
236.04	9.75
236.839	7.75
237.638	11.75
238.437	7.75
239.236	9.75
240.035	11.75
240.833	11.75
241.632	13.75
242.43	9.75
243.229	12.75
244.027	12.75
244.826	14.75
245.624	12.75
246.422	12.75
247.22	12.75
248.018	13.75
248.816	11.75
249.614	12.75
250.412	12.75
251.21	13.75
252.007	14.75
252.805	16.75
253.602	17.75
254.4	14.75
255.197	16.75
255.994	16.75
256.791	19.75
257.589	17.75
258.386	19.75
259.183	20.75
259.979	19.75
260.776	19.75
261.573	22.75
262.37	22.75
263.166	21.75
263.963	25.75
264.759	22.75
265.556	26.75
266.352	21.75
267.148	26.75
267.944	27.75
268.74	23.75
269.536	25.75
270.332	29.75
271.128	26.75
271.924	26.75
272.719	28.75
273.515	28.75
274.311	29.75
275.106	28.75
275.901	29.75
276.697	31.75
277.492	33.75
278.287	32.75
279.082	29.75
279.877	35.75
280.672	34.75
281.467	34.75
282.262	30.75
283.056	35.75
283.851	30.75
284.646	32.75
285.44	31.75
286.234	30.75
287.029	34.75
287.823	33.75
288.617	32.75
289.411	33.75
290.205	28.75
290.999	33.75
291.793	33.75
292.587	30.75
293.381	30.75
294.174	30.75
294.968	27.75
295.761	27.75
296.555	25.75
297.348	25.75
298.141	26.75
298.935	25.75
299.728	26.75
300.521	24.75
301.314	25.75
302.107	26.75
302.899	22.75
303.692	22.75
304.485	19.75
305.277	22.75
306.07	20.75
306.862	25.75
307.655	20.75
308.447	21.75
309.239	21.75
310.031	20.75
310.823	19.75
311.615	17.75
312.407	16.75
313.199	19.75
313.991	16.75
314.783	16.75
315.574	16.75
316.366	16.75
317.157	14.75
317.949	13.75
318.74	13.75
319.531	14.75
320.322	13.75
321.113	13.75
321.904	11.75
322.695	16.75
323.486	12.75
324.277	11.75
325.068	10.75
325.858	13.75
326.649	12.75
327.439	11.75
328.23	11.75
329.02	12.75
329.81	13.75
330.6	10.75
331.391	12.75
332.181	11.75
332.971	8.75
333.76	14.75
334.55	11.75
335.34	10.75
336.13	12.75
336.919	13.75
337.709	12.75
338.498	11.75
339.287	13.75
340.077	11.75
340.866	12.75
341.655	12.75
342.444	9.75
343.233	12.75
344.022	10.75
344.811	12.75
345.6	9.75
346.388	12.75
347.177	9.75
347.965	9.75
348.754	10.75
349.542	11.75
350.33	11.75
351.119	10.75
351.907	8.75
352.695	10.75
353.483	10.75
354.271	9.75
355.059	8.75
355.846	10.75
356.634	10.75
357.422	9.75
358.209	11.75
358.997	10.75
359.784	11.75
360.571	8.75
361.359	9.75
362.146	10.75
362.933	8.75
363.72	9.75
364.507	9.75
365.294	9.75
366.081	9.75
366.867	9.75
367.654	11.75
368.44	9.75
369.227	7.75
370.013	7.75
370.8	6.75
371.586	9.75
372.372	9.75
373.158	9.75
373.944	12.75
374.73	10.75
375.516	9.75
376.302	7.75
377.088	10.75
377.873	9.75
378.659	7.75
379.445	9.75
380.23	8.75
381.015	10.75
381.801	10.75
382.586	9.75
383.371	11.75
384.156	9.75
384.941	9.75
385.726	10.75
386.511	9.75
387.296	12.75
388.08	11.75
388.865	10.75
389.649	8.75
390.434	9.75
391.218	9.75
392.003	11.75
392.787	13.75
393.571	12.75
394.355	12.75
395.139	11.75
395.923	9.75
396.707	15.75
397.491	13.75
398.274	12.75
399.058	8.75
399.842	12.75
400.625	13.75
401.408	12.75
402.192	13.75
402.975	13.75
403.758	14.75
404.541	12.75
405.324	14.75
406.107	14.75
406.89	15.75
407.673	12.75
408.456	14.75
409.238	14.75
410.021	13.75
410.803	13.75
411.586	18.75
412.368	15.75
413.151	16.75
413.933	15.75
414.715	16.75
415.497	15.75
416.279	20.75
417.061	18.75
417.843	19.75
418.624	20.75
419.406	17.75
420.188	19.75
420.969	19.75
421.751	20.75
422.532	22.75
423.313	20.75
424.095	23.75
424.876	22.75
425.657	24.75
426.438	24.75
427.219	26.75
428	25.75
428.78	26.75
429.561	30.75
430.342	26.75
431.122	30.75
431.903	28.75
432.683	30.75
433.464	32.75
434.244	38.75
435.024	34.75
435.804	40.75
436.584	42.75
437.364	47.75
438.144	45.75
438.924	52.75
439.704	56.75
440.483	57.75
441.263	61.75
442.042	67.75
442.822	70.75
443.601	74.75
444.38	82.75
445.16	89.75
445.939	98.75
446.718	106.75
447.497	112.75
448.276	128.75
449.054	144.75
449.833	154.75
450.612	166.75
451.391	188.75
452.169	200.75
452.948	231.75
453.726	251.75
454.504	281.75
455.282	312.75
456.061	347.75
456.839	382.75
457.617	428.75
458.395	476.75
459.172	528.75
459.95	597.75
460.728	662.75
461.506	732.75
462.283	827.75
463.061	918.75
463.838	1018.75
464.615	1129.75
465.393	1231.75
466.17	1369.75
466.947	1534.75
467.724	1696.75
468.501	1859.75
469.278	2062.75
470.055	2275.75
470.831	2487.75
471.608	2759.75
472.385	3015.75
473.161	3314.75
473.938	3645.75
474.714	3997.75
475.49	4342.75
476.266	4763.75
477.043	5150.75
477.819	5645.75
478.595	6153.75
479.371	6707.75
480.146	7303.75
480.922	7930.75
481.698	8605.75
482.473	9351.75
483.249	10109.75
484.024	10890.75
484.8	11814.75
485.575	12757.75
486.35	13783.75
487.126	14904.75
487.901	16033.75
488.676	17235.75
489.451	18567.75
490.225	19892.75
491	21351.75
491.775	22819.75
492.55	24285.75
493.324	25899.75
494.099	27500.75
494.873	29118.75
495.647	30802.75
496.422	32451.75
497.196	34126.75
497.97	35713.75
498.744	37188.75
499.518	38753.75
500.292	40100.75
501.066	41144.75
501.839	42002.75
502.613	43012.75
503.387	43722.75
504.16	44289.75
504.934	44620.75
505.707	44801.75
506.48	44592.75
507.253	44381.75
508.027	43987.75
508.8	43251.75
509.573	42465.75
510.346	41604.75
511.118	40737.75
511.891	39748.75
512.664	38345.75
513.437	37037.75
514.209	35771.75
514.982	34439.75
515.754	33119.75
516.526	31835.75
517.298	30594.75
518.071	29460.75
518.843	28293.75
519.615	27142.75
520.387	26095.75
521.159	25027.75
521.93	24078.75
522.702	23072.75
523.474	22103.75
524.245	21208.75
525.017	20245.75
525.788	19458.75
526.56	18735.75
527.331	17907.75
528.102	17012.75
528.873	16190.75
529.644	15375.75
530.415	14712.75
531.186	14037.75
531.957	13313.75
532.728	12675.75
533.498	12047.75
534.269	11396.75
535.039	10795.75
535.81	10265.75
536.58	9712.75
537.351	9170.75
538.121	8717.75
538.891	8211.75
539.661	7768.75
540.431	7358.75
541.201	6972.75
541.971	6656.75
542.741	6242.75
543.51	5934.75
544.28	5677.75
545.05	5404.75
545.819	5146.75
546.588	4921.75
547.358	4693.75
548.127	4456.75
548.896	4228.75
549.665	4011.75
550.434	3812.75
551.203	3608.75
551.972	3431.75
552.741	3257.75
553.51	3064.75
554.278	2889.75
555.047	2736.75
555.815	2598.75
556.584	2449.75
557.352	2318.75
558.121	2190.75
558.889	2067.75
559.657	1960.75
560.425	1857.75
561.193	1749.75
561.961	1662.75
562.729	1556.75
563.496	1486.75
564.264	1401.75
565.032	1324.75
565.799	1240.75
566.567	1193.75
567.334	1114.75
568.101	1049.75
568.869	1006.75
569.636	958.75
570.403	882.75
571.17	836.75
571.937	803.75
572.704	747.75
573.471	700.75
574.237	671.75
575.004	629.75
575.771	591.75
576.537	554.75
577.303	532.75
578.07	503.75
578.836	471.75
579.602	444.75
580.368	429.75
581.134	400.75
581.9	381.75
582.666	367.75
583.432	348.75
584.198	332.75
584.964	310.75
585.729	297.75
586.495	273.75
587.26	261.75
588.025	250.75
588.791	237.75
589.556	228.75
590.321	213.75
591.086	201.75
591.851	190.75
592.616	184.75
593.381	173.75
594.146	168.75
594.911	160.75
595.675	148.75
596.44	150.75
597.204	144.75
597.969	136.75
598.733	126.75
599.497	119.75
600.261	114.75
601.025	113.75
601.79	108.75
602.553	104.75
603.317	104.75
604.081	93.75
604.845	90.75
605.609	84.75
606.372	82.75
607.136	78.75
607.899	76.75
608.662	71.75
609.426	69.75
610.189	69.75
610.952	68.75
611.715	64.75
612.478	61.75
613.241	58.75
614.004	57.75
614.767	55.75
615.529	53.75
616.292	55.75
617.055	48.75
617.817	53.75
618.579	44.75
619.342	42.75
620.104	41.75
620.866	44.75
621.628	38.75
622.39	39.75
623.152	35.75
623.914	36.75
624.676	33.75
625.438	34.75
626.199	33.75
626.961	31.75
627.722	30.75
628.484	30.75
629.245	29.75
630.006	29.75
630.768	28.75
631.529	24.75
632.29	27.75
633.051	26.75
633.812	26.75
634.573	27.75
635.333	23.75
636.094	23.75
636.855	22.75
637.615	20.75
638.376	20.75
639.136	19.75
639.896	20.75
640.657	18.75
641.417	19.75
642.177	20.75
642.937	18.75
643.697	15.75
644.457	19.75
645.216	18.75
645.976	15.75
646.736	16.75
647.495	15.75
648.255	14.75
649.014	14.75
649.774	15.75
650.533	14.75
651.292	14.75
652.051	10.75
652.81	14.75
653.569	12.75
654.328	10.75
655.087	14.75
655.846	10.75
656.604	11.75
657.363	12.75
658.121	12.75
658.88	11.75
659.638	10.75
660.397	10.75
661.155	9.75
661.913	12.75
662.671	8.75
663.429	10.75
664.187	9.75
664.945	8.75
665.703	9.75
666.46	9.75
667.218	10.75
667.976	9.75
668.733	10.75
669.49	9.75
670.248	8.75
671.005	6.75
671.762	7.75
672.519	8.75
673.276	8.75
674.033	7.75
674.79	6.75
675.547	10.75
676.304	6.75
677.06	7.75
677.817	8.75
678.574	10.75
679.33	7.75
680.086	9.75
680.843	7.75
681.599	10.75
682.355	7.75
683.111	6.75
683.867	8.75
684.623	9.75
685.379	8.75
686.135	5.75
686.89	8.75
687.646	7.75
688.402	7.75
689.157	8.75
689.912	5.75
690.668	8.75
691.423	6.75
692.178	5.75
692.933	7.75
693.688	8.75
694.443	9.75
695.198	5.75
695.953	9.75
696.708	7.75
697.462	7.75
698.217	6.75
698.972	5.75
699.726	7.75
700.48	7.75
701.235	8.75
701.989	9.75
702.743	7.75
703.497	9.75
704.251	6.75
705.005	6.75
705.759	5.75
706.513	6.75
707.266	7.75
708.02	7.75
708.774	7.75
709.527	4.75
710.28	7.75
711.034	6.75
711.787	9.75
712.54	7.75
713.293	9.75
714.046	8.75
714.799	7.75
715.552	9.75
716.305	7.75
717.058	7.75
717.81	9.75
718.563	7.75
719.315	6.75
720.068	8.75
720.82	6.75
721.573	6.75
722.325	6.75
723.077	7.75
723.829	6.75
724.581	5.75
725.333	7.75
726.085	7.75
726.836	7.75
727.588	9.75
728.34	8.75
729.091	9.75
729.843	8.75
730.594	6.75
731.346	8.75
732.097	7.75
732.848	6.75
733.599	10.75
734.35	7.75
735.101	9.75
735.852	9.75
736.603	6.75
737.354	8.75
738.104	8.75
738.855	9.75
739.605	9.75
740.356	9.75
741.106	10.75
741.856	10.75
742.607	10.75
743.357	11.75
744.107	8.75
744.857	11.75
745.607	11.75
746.357	8.75
747.106	9.75
747.856	9.75
748.606	10.75
749.355	9.75
750.105	9.75
750.854	8.75
751.603	10.75
752.353	9.75
753.102	10.75
753.851	10.75
754.6	10.75
755.349	11.75
756.098	10.75
756.847	10.75
757.595	10.75
758.344	10.75
759.093	10.75
759.841	7.75
760.589	10.75
761.338	10.75
762.086	11.75
762.834	13.75
763.582	10.75
764.331	14.75
765.079	11.75
765.826	10.75
766.574	12.75
767.322	14.75
768.07	11.75
768.817	14.75
769.565	12.75
770.312	12.75
771.06	12.75
771.807	13.75
772.554	9.75
773.302	14.75
774.049	12.75
774.796	14.75
775.543	12.75
776.29	14.75
777.036	12.75
777.783	12.75
778.53	14.75
779.276	13.75
780.023	14.75
780.769	14.75
781.516	16.75
782.262	15.75
783.008	13.75
783.754	13.75
784.5	13.75
785.246	17.75
785.992	12.75
786.738	15.75
787.484	12.75
788.23	11.75
788.975	15.75
789.721	13.75
790.466	14.75
791.212	15.75
791.957	12.75
792.702	13.75
793.447	11.75
794.193	13.75
794.938	15.75
795.683	14.75
796.427	12.75
797.172	11.75
797.917	12.75
798.662	10.75
799.406	13.75
800.151	11.75
800.895	8.75
801.64	12.75
802.384	10.75
803.128	11.75
803.872	10.75
804.616	9.75
805.36	9.75
806.104	10.75
806.848	9.75
807.592	6.75
808.336	12.75
809.079	9.75
809.823	6.75
810.566	10.75
811.31	7.75
812.053	9.75
812.796	6.75
813.539	9.75
814.283	10.75
815.026	9.75
815.769	7.75
816.511	8.75
817.254	8.75
817.997	8.75
818.74	7.75
819.482	6.75
820.225	7.75
820.967	6.75
821.71	5.75
822.452	11.75
823.194	4.75
823.936	7.75
824.678	6.75
825.42	5.75
826.162	8.75
826.904	8.75
827.646	3.75
828.388	7.75
829.129	7.75
829.871	6.75
830.612	5.75
831.354	6.75
832.095	8.75
832.836	5.75
833.577	6.75
834.319	5.75
835.06	3.75
835.801	5.75
836.542	2.75
837.282	5.75
838.023	5.75
838.764	7.75
839.504	4.75
840.245	4.75
840.985	8.75
841.726	5.75
842.466	6.75
843.206	2.75
843.946	5.75
844.687	4.75
845.427	3.75
846.166	6.75
846.906	4.75
847.646	3.75
848.386	5.75
849.125	6.75
849.865	5.75
850.605	3.75
851.344	5.75
852.083	6.75
852.823	4.75
853.562	2.75
854.301	4.75
855.04	5.75
855.779	4.75
856.518	4.75
857.257	2.75
857.995	3.75
858.734	2.75
859.473	5.75
860.211	2.75
860.95	2.75
861.688	3.75
862.426	3.75
863.165	4.75
863.903	4.75
864.641	2.75
865.379	2.75
866.117	1.75
866.855	0.75
867.593	2.75
868.33	2.75
869.068	2.75
869.806	2.75
870.543	1.75
871.28	2.75
872.018	2.75
872.755	1.75
873.492	0.75
874.229	2.75
874.967	1.75
875.703	1.75
876.44	-0.25
877.177	3.75
877.914	1.75
878.651	0.75
879.387	2.75
880.124	1.75
880.86	2.75
881.597	1.75
882.333	2.75
883.069	2.75
883.806	0.75
884.542	0.75
885.278	-0.25
886.014	1.75
886.749	0.75
887.485	3.75
888.221	0.75
888.957	0.75
889.692	-0.25
890.428	2.75
891.163	3.75
891.899	1.75
892.634	1.75
893.369	0.75
894.104	0.75
894.839	0.75
895.574	1.75
896.309	-0.25
897.044	1.75
897.779	2.75
898.514	2.75
899.248	2.75
899.983	1.75
900.717	2.75
901.452	-0.25
902.186	2.75
902.92	-0.25
903.654	2.75
904.389	-0.25
905.123	2.75
905.857	0.75
906.59	0.75
907.324	0.75
908.058	-1.25
908.792	1.75
909.525	0.75
910.259	-0.25
910.992	1.75
911.726	1.75
912.459	-0.25
913.192	-0.25
913.925	1.75
914.658	-0.25
915.391	0.75
916.124	0.75
916.857	0.75
917.59	0.75
918.323	-3.25
919.055	-0.25
919.788	-0.25
920.521	-1.25
921.253	0.75
921.985	-1.25
922.718	1.75
923.45	0.75
924.182	-0.25
924.914	-1.25
925.646	-1.25
926.378	2.75
927.11	-0.25
927.841	0.75
928.573	0.75
929.305	0.75
930.036	0.75
930.768	1.75
931.499	2.75
932.23	1.75
932.962	-0.25
933.693	0.75
934.424	-0.25
935.155	-0.25
935.886	-1.25
936.617	-2.25
937.348	-0.25
938.078	0.75
938.809	-0.25
939.54	-1.25
940.27	1.75
941.001	-1.25
941.731	1.75
942.461	-0.25
943.191	-0.25
943.922	1.75
944.652	0.75
945.382	0.75
946.112	0.75
946.841	-2.25
947.571	-1.25
948.301	-0.25
949.031	-1.25
949.76	0.75
950.49	0.75
951.219	2.75
951.948	-1.25
952.678	1.75
953.407	0.75
954.136	-0.25
954.865	-1.25
955.594	0.75
956.323	-0.25
957.052	0.75
957.78	2.75
958.509	0.75
959.238	-0.25
959.966	-0.25
960.695	-0.25
961.423	0.75
962.151	-1.25
962.88	-0.25
963.608	-1.25
964.336	0.75
965.064	0.75
965.792	-1.25
966.52	-1.25
967.247	-0.25
967.975	0.75
968.703	-0.25
969.43	1.75
970.158	1.75
970.885	-1.25
971.613	-0.25
972.34	0.75
973.067	-0.25
973.794	1.75
974.521	0.75
975.248	-0.25
975.975	-2.25
976.702	-0.25
977.429	-0.25
978.156	-1.25
978.882	-1.25
979.609	0.75
980.335	1.75
981.062	0.75
981.788	0.75
982.514	-2.25
983.24	-0.25
983.967	-0.25
984.693	-1.25
985.419	2.75
986.144	0.75
986.87	0.75
987.596	0.75
988.322	1.75
989.047	-1.25
989.773	0.75
990.498	1.75
991.224	-0.25
991.949	0.75
992.674	1.75
993.399	-1.25
994.124	-1.25
994.849	-1.25
995.574	0.75
996.299	1.75
997.024	0.75
997.749	0.75
998.473	-1.25
999.198	2.75
999.922	0.75
1000.647	1.75
1001.371	4.75
1002.095	-1.25
1002.82	-2.25
1003.544	-0.25
1004.268	2.75
1004.992	1.75
1005.716	4.75
1006.439	6.75
1007.163	4.75
1007.887	5.75
1008.611	0.75
1009.334	-1.25
1010.058	0.75
1010.781	0.75
1011.504	2.75
1012.228	-1.25
1012.951	-0.25
1013.674	0.75
1014.397	-0.25
1015.12	-1.25
