节点500_705_QEPB04081__563__20-53-55-764.txt的数据

Date: Wed Nov 12 20:53:55 CST 2025
User: PC
Spectrometer: QEPB0408
触发模式: 0
积分时间 (秒): 1.000000E-2
Scans to average: 1
启用暗噪声校正: true
启用非线性校正: false
滑动平均宽度: 0
X轴模式: Wavelengths
Number of Pixels in Spectrum: 1044
>>>>>Begin Spectral Data<<<<<
220.843	4.25
221.644	6.25
222.444	6.25
223.244	6.25
224.045	7.25
224.845	6.25
225.645	7.25
226.445	3.25
227.245	8.25
228.045	6.25
228.845	8.25
229.645	6.25
230.444	8.25
231.244	11.25
232.043	7.25
232.843	10.25
233.642	8.25
234.442	6.25
235.241	10.25
236.04	8.25
236.839	10.25
237.638	10.25
238.437	9.25
239.236	12.25
240.035	11.25
240.833	14.25
241.632	12.25
242.43	11.25
243.229	11.25
244.027	13.25
244.826	13.25
245.624	11.25
246.422	15.25
247.22	14.25
248.018	12.25
248.816	15.25
249.614	15.25
250.412	14.25
251.21	14.25
252.007	14.25
252.805	16.25
253.602	18.25
254.4	17.25
255.197	15.25
255.994	18.25
256.791	18.25
257.589	20.25
258.386	18.25
259.183	22.25
259.979	19.25
260.776	24.25
261.573	19.25
262.37	20.25
263.166	24.25
263.963	25.25
264.759	25.25
265.556	24.25
266.352	24.25
267.148	25.25
267.944	25.25
268.74	24.25
269.536	28.25
270.332	27.25
271.128	29.25
271.924	29.25
272.719	29.25
273.515	29.25
274.311	27.25
275.106	28.25
275.901	31.25
276.697	31.25
277.492	31.25
278.287	30.25
279.082	32.25
279.877	31.25
280.672	34.25
281.467	33.25
282.262	33.25
283.056	30.25
283.851	33.25
284.646	34.25
285.44	31.25
286.234	28.25
287.029	34.25
287.823	33.25
288.617	32.25
289.411	31.25
290.205	28.25
290.999	30.25
291.793	34.25
292.587	32.25
293.381	29.25
294.174	30.25
294.968	28.25
295.761	28.25
296.555	25.25
297.348	25.25
298.141	23.25
298.935	29.25
299.728	24.25
300.521	24.25
301.314	27.25
302.107	21.25
302.899	22.25
303.692	22.25
304.485	21.25
305.277	22.25
306.07	23.25
306.862	23.25
307.655	22.25
308.447	22.25
309.239	21.25
310.031	21.25
310.823	19.25
311.615	18.25
312.407	17.25
313.199	17.25
313.991	15.25
314.783	17.25
315.574	15.25
316.366	15.25
317.157	15.25
317.949	17.25
318.74	15.25
319.531	16.25
320.322	15.25
321.113	14.25
321.904	15.25
322.695	15.25
323.486	14.25
324.277	15.25
325.068	10.25
325.858	11.25
326.649	15.25
327.439	13.25
328.23	13.25
329.02	10.25
329.81	13.25
330.6	13.25
331.391	10.25
332.181	14.25
332.971	13.25
333.76	12.25
334.55	11.25
335.34	12.25
336.13	13.25
336.919	12.25
337.709	11.25
338.498	9.25
339.287	13.25
340.077	13.25
340.866	12.25
341.655	13.25
342.444	12.25
343.233	9.25
344.022	11.25
344.811	11.25
345.6	12.25
346.388	13.25
347.177	12.25
347.965	12.25
348.754	11.25
349.542	10.25
350.33	9.25
351.119	13.25
351.907	11.25
352.695	10.25
353.483	11.25
354.271	11.25
355.059	10.25
355.846	10.25
356.634	11.25
357.422	11.25
358.209	11.25
358.997	11.25
359.784	8.25
360.571	10.25
361.359	10.25
362.146	11.25
362.933	12.25
363.72	10.25
364.507	11.25
365.294	8.25
366.081	10.25
366.867	10.25
367.654	10.25
368.44	8.25
369.227	11.25
370.013	11.25
370.8	9.25
371.586	10.25
372.372	7.25
373.158	9.25
373.944	11.25
374.73	12.25
375.516	11.25
376.302	10.25
377.088	6.25
377.873	10.25
378.659	11.25
379.445	10.25
380.23	11.25
381.015	9.25
381.801	10.25
382.586	10.25
383.371	9.25
384.156	10.25
384.941	12.25
385.726	10.25
386.511	10.25
387.296	8.25
388.08	10.25
388.865	11.25
389.649	12.25
390.434	10.25
391.218	10.25
392.003	10.25
392.787	10.25
393.571	11.25
394.355	12.25
395.139	11.25
395.923	12.25
396.707	11.25
397.491	13.25
398.274	13.25
399.058	12.25
399.842	14.25
400.625	12.25
401.408	13.25
402.192	14.25
402.975	13.25
403.758	12.25
404.541	15.25
405.324	14.25
406.107	15.25
406.89	16.25
407.673	12.25
408.456	16.25
409.238	16.25
410.021	18.25
410.803	16.25
411.586	16.25
412.368	15.25
413.151	16.25
413.933	17.25
414.715	16.25
415.497	18.25
416.279	19.25
417.061	19.25
417.843	20.25
418.624	19.25
419.406	18.25
420.188	20.25
420.969	21.25
421.751	20.25
422.532	18.25
423.313	24.25
424.095	23.25
424.876	23.25
425.657	24.25
426.438	25.25
427.219	27.25
428	28.25
428.78	24.25
429.561	29.25
430.342	30.25
431.122	32.25
431.903	31.25
432.683	34.25
433.464	37.25
434.244	38.25
435.024	39.25
435.804	40.25
436.584	42.25
437.364	45.25
438.144	47.25
438.924	52.25
439.704	56.25
440.483	57.25
441.263	63.25
442.042	67.25
442.822	73.25
443.601	79.25
444.38	86.25
445.16	87.25
445.939	99.25
446.718	105.25
447.497	122.25
448.276	129.25
449.054	141.25
449.833	157.25
450.612	172.25
451.391	188.25
452.169	210.25
452.948	236.25
453.726	252.25
454.504	282.25
455.282	314.25
456.061	351.25
456.839	387.25
457.617	437.25
458.395	487.25
459.172	539.25
459.95	606.25
460.728	668.25
461.506	741.25
462.283	825.25
463.061	927.25
463.838	1023.25
464.615	1129.25
465.393	1258.25
466.17	1389.25
466.947	1526.25
467.724	1697.25
468.501	1885.25
469.278	2064.25
470.055	2267.25
470.831	2504.25
471.608	2748.25
472.385	3016.25
473.161	3311.25
473.938	3593.25
474.714	3960.25
475.49	4337.25
476.266	4725.25
477.043	5135.25
477.819	5632.25
478.595	6075.25
479.371	6620.25
480.146	7175.25
480.922	7830.25
481.698	8488.25
482.473	9178.25
483.249	9935.25
484.024	10719.25
484.8	11610.25
485.575	12499.25
486.35	13514.25
487.126	14554.25
487.901	15674.25
488.676	16859.25
489.451	18136.25
490.225	19441.25
491	20797.25
491.775	22193.25
492.55	23701.25
493.324	25245.25
494.099	26855.25
494.873	28471.25
495.647	29977.25
496.422	31572.25
497.196	33224.25
497.97	34781.25
498.744	36251.25
499.518	37848.25
500.292	39125.25
501.066	40191.25
501.839	41157.25
502.613	42168.25
503.387	42983.25
504.16	43491.25
504.934	43898.25
505.707	44140.25
506.48	44019.25
507.253	43825.25
508.027	43439.25
508.8	42762.25
509.573	42172.25
510.346	41325.25
511.118	40568.25
511.891	39487.25
512.664	38192.25
513.437	36963.25
514.209	35847.25
514.982	34513.25
515.754	33241.25
516.526	31974.25
517.298	30600.25
518.071	29597.25
518.843	28476.25
519.615	27263.25
520.387	26160.25
521.159	25142.25
521.93	24088.25
522.702	23185.25
523.474	22275.25
524.245	21308.25
525.017	20501.25
525.788	19569.25
526.56	18781.25
527.331	18041.25
528.102	17155.25
528.873	16349.25
529.644	15542.25
530.415	14844.25
531.186	14187.25
531.957	13507.25
532.728	12806.25
533.498	12185.25
534.269	11541.25
535.039	10952.25
535.81	10351.25
536.58	9804.25
537.351	9257.25
538.121	8853.25
538.891	8311.25
539.661	7897.25
540.431	7466.25
541.201	7061.25
541.971	6750.25
542.741	6360.25
543.51	6044.25
544.28	5739.25
545.05	5462.25
545.819	5216.25
546.588	4993.25
547.358	4760.25
548.127	4517.25
548.896	4286.25
549.665	4099.25
550.434	3879.25
551.203	3660.25
551.972	3485.25
552.741	3301.25
553.51	3081.25
554.278	2943.25
555.047	2798.25
555.815	2632.25
556.584	2493.25
557.352	2339.25
558.121	2245.25
558.889	2116.25
559.657	1979.25
560.425	1884.25
561.193	1791.25
561.961	1701.25
562.729	1602.25
563.496	1506.25
564.264	1434.25
565.032	1356.25
565.799	1280.25
566.567	1205.25
567.334	1154.25
568.101	1076.25
568.869	1023.25
569.636	957.25
570.403	905.25
571.17	855.25
571.937	812.25
572.704	775.25
573.471	715.25
574.237	676.25
575.004	638.25
575.771	597.25
576.537	568.25
577.303	550.25
578.07	515.25
578.836	486.25
579.602	454.25
580.368	433.25
581.134	408.25
581.9	393.25
582.666	379.25
583.432	357.25
584.198	338.25
584.964	318.25
585.729	304.25
586.495	290.25
587.26	275.25
588.025	257.25
588.791	242.25
589.556	230.25
590.321	217.25
591.086	213.25
591.851	198.25
592.616	184.25
593.381	177.25
594.146	168.25
594.911	163.25
595.675	159.25
596.44	153.25
597.204	142.25
597.969	133.25
598.733	128.25
599.497	125.25
600.261	123.25
601.025	116.25
601.79	107.25
602.553	106.25
603.317	101.25
604.081	95.25
604.845	95.25
605.609	89.25
606.372	83.25
607.136	78.25
607.899	84.25
608.662	76.25
609.426	73.25
610.189	68.25
610.952	68.25
611.715	66.25
612.478	59.25
613.241	60.25
614.004	56.25
614.767	54.25
615.529	55.25
616.292	53.25
617.055	49.25
617.817	48.25
618.579	46.25
619.342	47.25
620.104	47.25
620.866	46.25
621.628	41.25
622.39	40.25
623.152	39.25
623.914	37.25
624.676	38.25
625.438	35.25
626.199	33.25
626.961	34.25
627.722	32.25
628.484	30.25
629.245	31.25
630.006	28.25
630.768	28.25
631.529	27.25
632.29	28.25
633.051	28.25
633.812	27.25
634.573	25.25
635.333	27.25
636.094	24.25
636.855	26.25
637.615	23.25
638.376	21.25
639.136	22.25
639.896	19.25
640.657	20.25
641.417	19.25
642.177	18.25
642.937	18.25
643.697	17.25
644.457	17.25
645.216	15.25
645.976	15.25
646.736	17.25
647.495	14.25
648.255	15.25
649.014	16.25
649.774	16.25
650.533	15.25
651.292	10.25
652.051	11.25
652.81	13.25
653.569	16.25
654.328	13.25
655.087	14.25
655.846	14.25
656.604	13.25
657.363	13.25
658.121	13.25
658.88	11.25
659.638	14.25
660.397	11.25
661.155	12.25
661.913	9.25
662.671	9.25
663.429	11.25
664.187	11.25
664.945	11.25
665.703	11.25
666.46	13.25
667.218	11.25
667.976	10.25
668.733	10.25
669.49	9.25
670.248	7.25
671.005	10.25
671.762	10.25
672.519	9.25
673.276	11.25
674.033	9.25
674.79	9.25
675.547	8.25
676.304	10.25
677.06	9.25
677.817	9.25
678.574	7.25
679.33	10.25
680.086	8.25
680.843	10.25
681.599	10.25
682.355	8.25
683.111	9.25
683.867	8.25
684.623	8.25
685.379	9.25
686.135	7.25
686.89	8.25
687.646	7.25
688.402	9.25
689.157	7.25
689.912	9.25
690.668	10.25
691.423	9.25
692.178	8.25
692.933	9.25
693.688	9.25
694.443	7.25
695.198	9.25
695.953	6.25
696.708	8.25
697.462	8.25
698.217	6.25
698.972	10.25
699.726	9.25
700.48	4.25
701.235	8.25
701.989	7.25
702.743	12.25
703.497	5.25
704.251	5.25
705.005	8.25
705.759	8.25
706.513	9.25
707.266	7.25
708.02	10.25
708.774	8.25
709.527	7.25
710.28	9.25
711.034	8.25
711.787	7.25
712.54	8.25
713.293	8.25
714.046	10.25
714.799	8.25
715.552	8.25
716.305	6.25
717.058	9.25
717.81	7.25
718.563	9.25
719.315	7.25
720.068	6.25
720.82	8.25
721.573	7.25
722.325	10.25
723.077	6.25
723.829	11.25
724.581	7.25
725.333	7.25
726.085	9.25
726.836	9.25
727.588	7.25
728.34	9.25
729.091	7.25
729.843	7.25
730.594	7.25
731.346	9.25
732.097	7.25
732.848	8.25
733.599	6.25
734.35	7.25
735.101	8.25
735.852	7.25
736.603	6.25
737.354	9.25
738.104	8.25
738.855	8.25
739.605	9.25
740.356	12.25
741.106	9.25
741.856	9.25
742.607	8.25
743.357	10.25
744.107	10.25
744.857	9.25
745.607	11.25
746.357	8.25
747.106	11.25
747.856	9.25
748.606	9.25
749.355	9.25
750.105	8.25
750.854	12.25
751.603	9.25
752.353	8.25
753.102	13.25
753.851	9.25
754.6	15.25
755.349	10.25
756.098	6.25
756.847	12.25
757.595	11.25
758.344	13.25
759.093	11.25
759.841	12.25
760.589	10.25
761.338	11.25
762.086	11.25
762.834	11.25
763.582	13.25
764.331	12.25
765.079	13.25
765.826	11.25
766.574	13.25
767.322	15.25
768.07	13.25
768.817	15.25
769.565	14.25
770.312	14.25
771.06	15.25
771.807	12.25
772.554	15.25
773.302	14.25
774.049	14.25
774.796	12.25
775.543	14.25
776.29	15.25
777.036	13.25
777.783	15.25
778.53	14.25
779.276	15.25
780.023	15.25
780.769	13.25
781.516	15.25
782.262	13.25
783.008	17.25
783.754	15.25
784.5	14.25
785.246	12.25
785.992	13.25
786.738	14.25
787.484	14.25
788.23	16.25
788.975	16.25
789.721	13.25
790.466	14.25
791.212	13.25
791.957	14.25
792.702	14.25
793.447	14.25
794.193	12.25
794.938	14.25
795.683	13.25
796.427	11.25
797.172	11.25
797.917	12.25
798.662	12.25
799.406	15.25
800.151	13.25
800.895	13.25
801.64	9.25
802.384	13.25
803.128	12.25
803.872	11.25
804.616	12.25
805.36	11.25
806.104	11.25
806.848	10.25
807.592	8.25
808.336	12.25
809.079	8.25
809.823	8.25
810.566	10.25
811.31	12.25
812.053	10.25
812.796	9.25
813.539	7.25
814.283	7.25
815.026	11.25
815.769	7.25
816.511	11.25
817.254	9.25
817.997	6.25
818.74	9.25
819.482	8.25
820.225	8.25
820.967	8.25
821.71	9.25
822.452	8.25
823.194	7.25
823.936	7.25
824.678	5.25
825.42	9.25
826.162	6.25
826.904	5.25
827.646	7.25
828.388	6.25
829.129	7.25
829.871	8.25
830.612	3.25
831.354	5.25
832.095	6.25
832.836	7.25
833.577	6.25
834.319	6.25
835.06	8.25
835.801	6.25
836.542	7.25
837.282	4.25
838.023	7.25
838.764	5.25
839.504	9.25
840.245	8.25
840.985	3.25
841.726	5.25
842.466	4.25
843.206	4.25
843.946	6.25
844.687	4.25
845.427	3.25
846.166	4.25
846.906	6.25
847.646	3.25
848.386	4.25
849.125	6.25
849.865	6.25
850.605	3.25
851.344	6.25
852.083	5.25
852.823	3.25
853.562	3.25
854.301	4.25
855.04	3.25
855.779	7.25
856.518	4.25
857.257	6.25
857.995	5.25
858.734	6.25
859.473	3.25
860.211	2.25
860.95	5.25
861.688	3.25
862.426	4.25
863.165	3.25
863.903	3.25
864.641	3.25
865.379	2.25
866.117	3.25
866.855	3.25
867.593	5.25
868.33	3.25
869.068	5.25
869.806	1.25
870.543	0.25
871.28	5.25
872.018	-0.75
872.755	1.25
873.492	3.25
874.229	2.25
874.967	1.25
875.703	2.25
876.44	3.25
877.177	3.25
877.914	3.25
878.651	0.25
879.387	2.25
880.124	2.25
880.86	1.25
881.597	1.25
882.333	1.25
883.069	-1.75
883.806	1.25
884.542	1.25
885.278	4.25
886.014	1.25
886.749	3.25
887.485	2.25
888.221	1.25
888.957	3.25
889.692	1.25
890.428	1.25
891.163	2.25
891.899	1.25
892.634	1.25
893.369	1.25
894.104	1.25
894.839	0.25
895.574	5.25
896.309	2.25
897.044	1.25
897.779	2.25
898.514	-0.75
899.248	1.25
899.983	1.25
900.717	1.25
901.452	2.25
902.186	0.25
902.92	1.25
903.654	2.25
904.389	1.25
905.123	0.25
905.857	2.25
906.59	2.25
907.324	0.25
908.058	3.25
908.792	1.25
909.525	0.25
910.259	1.25
910.992	2.25
911.726	1.25
912.459	1.25
913.192	2.25
913.925	0.25
914.658	2.25
915.391	1.25
916.124	0.25
916.857	0.25
917.59	-0.75
918.323	0.25
919.055	1.25
919.788	-0.75
920.521	0.25
921.253	1.25
921.985	0.25
922.718	1.25
923.45	1.25
924.182	1.25
924.914	-0.75
925.646	2.25
926.378	-0.75
927.11	-0.75
927.841	1.25
928.573	1.25
929.305	0.25
930.036	1.25
930.768	2.25
931.499	1.25
932.23	1.25
932.962	0.25
933.693	0.25
934.424	2.25
935.155	-0.75
935.886	1.25
936.617	0.25
937.348	1.25
938.078	3.25
938.809	1.25
939.54	1.25
940.27	-1.75
941.001	1.25
941.731	-0.75
942.461	-0.75
943.191	1.25
943.922	0.25
944.652	1.25
945.382	3.25
946.112	-0.75
946.841	1.25
947.571	1.25
948.301	-0.75
949.031	-1.75
949.76	2.25
950.49	3.25
951.219	-1.75
951.948	3.25
952.678	0.25
953.407	2.25
954.136	1.25
954.865	0.25
955.594	1.25
956.323	1.25
957.052	1.25
957.78	2.25
958.509	2.25
959.238	-0.75
959.966	3.25
960.695	2.25
961.423	1.25
962.151	-0.75
962.88	-0.75
963.608	0.25
964.336	0.25
965.064	-0.75
965.792	1.25
966.52	0.25
967.247	1.25
967.975	0.25
968.703	1.25
969.43	3.25
970.158	0.25
970.885	-0.75
971.613	-0.75
972.34	2.25
973.067	-1.75
973.794	1.25
974.521	2.25
975.248	-0.75
975.975	2.25
976.702	-0.75
977.429	1.25
978.156	1.25
978.882	1.25
979.609	0.25
980.335	1.25
981.062	-1.75
981.788	1.25
982.514	1.25
983.24	-0.75
983.967	0.25
984.693	1.25
985.419	-4.75
986.144	1.25
986.87	1.25
987.596	0.25
988.322	-0.75
989.047	0.25
989.773	0.25
990.498	0.25
991.224	1.25
991.949	-0.75
992.674	3.25
993.399	1.25
994.124	-0.75
994.849	2.25
995.574	0.25
996.299	1.25
997.024	0.25
997.749	-0.75
998.473	1.25
999.198	-1.75
999.922	1.25
1000.647	-0.75
1001.371	5.25
1002.095	-0.75
1002.82	0.25
1003.544	-0.75
1004.268	4.25
1004.992	5.25
1005.716	4.25
1006.439	7.25
1007.163	6.25
1007.887	5.25
1008.611	-1.75
1009.334	2.25
1010.058	2.25
1010.781	1.25
1011.504	0.25
1012.228	1.25
1012.951	-0.75
1013.674	-0.75
1014.397	-0.75
1015.12	-1.75
