节点500_705_QEPB04081__390__20-51-29-604.txt的数据

Date: Wed Nov 12 20:51:29 CST 2025
User: PC
Spectrometer: QEPB0408
触发模式: 0
积分时间 (秒): 1.000000E-2
Scans to average: 1
启用暗噪声校正: true
启用非线性校正: false
滑动平均宽度: 0
X轴模式: Wavelengths
Number of Pixels in Spectrum: 1044
>>>>>Begin Spectral Data<<<<<
220.843	8.38
221.644	4.38
222.444	3.38
223.244	5.38
224.045	6.38
224.845	7.38
225.645	4.38
226.445	6.38
227.245	7.38
228.045	6.38
228.845	7.38
229.645	7.38
230.444	9.38
231.244	6.38
232.043	9.38
232.843	8.38
233.642	9.38
234.442	6.38
235.241	7.38
236.04	9.38
236.839	8.38
237.638	11.38
238.437	10.38
239.236	10.38
240.035	8.38
240.833	12.38
241.632	10.38
242.43	10.38
243.229	13.38
244.027	13.38
244.826	12.38
245.624	14.38
246.422	13.38
247.22	14.38
248.018	11.38
248.816	13.38
249.614	14.38
250.412	14.38
251.21	18.38
252.007	13.38
252.805	17.38
253.602	16.38
254.4	16.38
255.197	19.38
255.994	18.38
256.791	18.38
257.589	17.38
258.386	17.38
259.183	18.38
259.979	18.38
260.776	21.38
261.573	19.38
262.37	21.38
263.166	25.38
263.963	25.38
264.759	24.38
265.556	24.38
266.352	24.38
267.148	28.38
267.944	25.38
268.74	30.38
269.536	27.38
270.332	29.38
271.128	26.38
271.924	32.38
272.719	28.38
273.515	31.38
274.311	27.38
275.106	33.38
275.901	34.38
276.697	32.38
277.492	30.38
278.287	34.38
279.082	30.38
279.877	32.38
280.672	34.38
281.467	33.38
282.262	31.38
283.056	33.38
283.851	32.38
284.646	30.38
285.44	35.38
286.234	31.38
287.029	34.38
287.823	33.38
288.617	33.38
289.411	32.38
290.205	28.38
290.999	31.38
291.793	31.38
292.587	35.38
293.381	26.38
294.174	29.38
294.968	27.38
295.761	22.38
296.555	24.38
297.348	25.38
298.141	25.38
298.935	29.38
299.728	23.38
300.521	27.38
301.314	22.38
302.107	25.38
302.899	21.38
303.692	25.38
304.485	22.38
305.277	20.38
306.07	24.38
306.862	20.38
307.655	21.38
308.447	20.38
309.239	18.38
310.031	17.38
310.823	19.38
311.615	18.38
312.407	18.38
313.199	18.38
313.991	17.38
314.783	16.38
315.574	16.38
316.366	14.38
317.157	17.38
317.949	17.38
318.74	11.38
319.531	12.38
320.322	13.38
321.113	12.38
321.904	14.38
322.695	14.38
323.486	13.38
324.277	11.38
325.068	11.38
325.858	11.38
326.649	13.38
327.439	14.38
328.23	9.38
329.02	12.38
329.81	13.38
330.6	13.38
331.391	10.38
332.181	11.38
332.971	12.38
333.76	11.38
334.55	9.38
335.34	11.38
336.13	13.38
336.919	11.38
337.709	13.38
338.498	12.38
339.287	7.38
340.077	9.38
340.866	11.38
341.655	10.38
342.444	12.38
343.233	10.38
344.022	9.38
344.811	10.38
345.6	11.38
346.388	10.38
347.177	9.38
347.965	12.38
348.754	10.38
349.542	11.38
350.33	11.38
351.119	10.38
351.907	7.38
352.695	14.38
353.483	11.38
354.271	11.38
355.059	10.38
355.846	9.38
356.634	9.38
357.422	11.38
358.209	10.38
358.997	10.38
359.784	11.38
360.571	9.38
361.359	10.38
362.146	9.38
362.933	8.38
363.72	10.38
364.507	12.38
365.294	9.38
366.081	10.38
366.867	8.38
367.654	10.38
368.44	8.38
369.227	8.38
370.013	10.38
370.8	7.38
371.586	8.38
372.372	10.38
373.158	8.38
373.944	10.38
374.73	8.38
375.516	9.38
376.302	8.38
377.088	8.38
377.873	8.38
378.659	10.38
379.445	9.38
380.23	11.38
381.015	9.38
381.801	10.38
382.586	8.38
383.371	8.38
384.156	9.38
384.941	10.38
385.726	11.38
386.511	9.38
387.296	9.38
388.08	11.38
388.865	11.38
389.649	9.38
390.434	10.38
391.218	14.38
392.003	8.38
392.787	16.38
393.571	12.38
394.355	11.38
395.139	12.38
395.923	10.38
396.707	13.38
397.491	9.38
398.274	14.38
399.058	13.38
399.842	10.38
400.625	12.38
401.408	11.38
402.192	13.38
402.975	12.38
403.758	12.38
404.541	14.38
405.324	13.38
406.107	13.38
406.89	14.38
407.673	15.38
408.456	14.38
409.238	13.38
410.021	16.38
410.803	16.38
411.586	14.38
412.368	18.38
413.151	17.38
413.933	20.38
414.715	16.38
415.497	18.38
416.279	19.38
417.061	14.38
417.843	19.38
418.624	18.38
419.406	19.38
420.188	19.38
420.969	21.38
421.751	20.38
422.532	21.38
423.313	24.38
424.095	20.38
424.876	24.38
425.657	23.38
426.438	27.38
427.219	26.38
428	26.38
428.78	24.38
429.561	25.38
430.342	28.38
431.122	32.38
431.903	34.38
432.683	31.38
433.464	31.38
434.244	36.38
435.024	37.38
435.804	41.38
436.584	42.38
437.364	43.38
438.144	48.38
438.924	51.38
439.704	52.38
440.483	55.38
441.263	63.38
442.042	67.38
442.822	71.38
443.601	71.38
444.38	81.38
445.16	88.38
445.939	94.38
446.718	105.38
447.497	113.38
448.276	118.38
449.054	132.38
449.833	149.38
450.612	165.38
451.391	181.38
452.169	195.38
452.948	225.38
453.726	247.38
454.504	274.38
455.282	306.38
456.061	337.38
456.839	378.38
457.617	415.38
458.395	459.38
459.172	522.38
459.95	581.38
460.728	650.38
461.506	724.38
462.283	801.38
463.061	906.38
463.838	1009.38
464.615	1109.38
465.393	1228.38
466.17	1370.38
466.947	1517.38
467.724	1676.38
468.501	1868.38
469.278	2072.38
470.055	2305.38
470.831	2515.38
471.608	2781.38
472.385	3037.38
473.161	3345.38
473.938	3676.38
474.714	4028.38
475.49	4435.38
476.266	4872.38
477.043	5303.38
477.819	5802.38
478.595	6296.38
479.371	6891.38
480.146	7507.38
480.922	8171.38
481.698	8941.38
482.473	9697.38
483.249	10473.38
484.024	11421.38
484.8	12363.38
485.575	13370.38
486.35	14487.38
487.126	15665.38
487.901	16943.38
488.676	18201.38
489.451	19744.38
490.225	21138.38
491	22725.38
491.775	24261.38
492.55	25881.38
493.324	27595.38
494.099	29302.38
494.873	31105.38
495.647	32784.38
496.422	34544.38
497.196	36290.38
497.97	37889.38
498.744	39454.38
499.518	41164.38
500.292	42382.38
501.066	43377.38
501.839	44313.38
502.613	45185.38
503.387	45841.38
504.16	46303.38
504.934	46464.38
505.707	46488.38
506.48	46230.38
507.253	45840.38
508.027	45211.38
508.8	44482.38
509.573	43388.38
510.346	42514.38
511.118	41480.38
511.891	40359.38
512.664	38849.38
513.437	37328.38
514.209	36046.38
514.982	34645.38
515.754	33348.38
516.526	31957.38
517.298	30691.38
518.071	29440.38
518.843	28353.38
519.615	27199.38
520.387	26153.38
521.159	25023.38
521.93	24028.38
522.702	23024.38
523.474	22068.38
524.245	21224.38
525.017	20253.38
525.788	19436.38
526.56	18617.38
527.331	17748.38
528.102	16906.38
528.873	16049.38
529.644	15341.38
530.415	14587.38
531.186	13875.38
531.957	13150.38
532.728	12490.38
533.498	11832.38
534.269	11258.38
535.039	10676.38
535.81	10072.38
536.58	9517.38
537.351	9018.38
538.121	8530.38
538.891	8060.38
539.661	7663.38
540.431	7211.38
541.201	6900.38
541.971	6537.38
542.741	6110.38
543.51	5825.38
544.28	5577.38
545.05	5318.38
545.819	5037.38
546.588	4807.38
547.358	4574.38
548.127	4335.38
548.896	4140.38
549.665	3912.38
550.434	3716.38
551.203	3523.38
551.972	3355.38
552.741	3159.38
553.51	2977.38
554.278	2808.38
555.047	2660.38
555.815	2530.38
556.584	2395.38
557.352	2264.38
558.121	2135.38
558.889	2015.38
559.657	1900.38
560.425	1810.38
561.193	1695.38
561.961	1616.38
562.729	1537.38
563.496	1445.38
564.264	1368.38
565.032	1277.38
565.799	1217.38
566.567	1138.38
567.334	1084.38
568.101	1040.38
568.869	973.38
569.636	929.38
570.403	863.38
571.17	819.38
571.937	775.38
572.704	736.38
573.471	682.38
574.237	662.38
575.004	618.38
575.771	585.38
576.537	548.38
577.303	520.38
578.07	489.38
578.836	463.38
579.602	439.38
580.368	412.38
581.134	389.38
581.9	371.38
582.666	354.38
583.432	343.38
584.198	322.38
584.964	301.38
585.729	295.38
586.495	275.38
587.26	257.38
588.025	246.38
588.791	227.38
589.556	219.38
590.321	208.38
591.086	199.38
591.851	190.38
592.616	175.38
593.381	171.38
594.146	164.38
594.911	153.38
595.675	149.38
596.44	147.38
597.204	134.38
597.969	126.38
598.733	122.38
599.497	121.38
600.261	115.38
601.025	107.38
601.79	108.38
602.553	106.38
603.317	96.38
604.081	96.38
604.845	91.38
605.609	86.38
606.372	84.38
607.136	78.38
607.899	77.38
608.662	75.38
609.426	67.38
610.189	67.38
610.952	64.38
611.715	64.38
612.478	59.38
613.241	57.38
614.004	55.38
614.767	52.38
615.529	52.38
616.292	49.38
617.055	49.38
617.817	46.38
618.579	45.38
619.342	43.38
620.104	43.38
620.866	41.38
621.628	38.38
622.39	39.38
623.152	38.38
623.914	32.38
624.676	35.38
625.438	36.38
626.199	30.38
626.961	28.38
627.722	28.38
628.484	31.38
629.245	28.38
630.006	29.38
630.768	28.38
631.529	25.38
632.29	28.38
633.051	25.38
633.812	24.38
634.573	22.38
635.333	23.38
636.094	24.38
636.855	23.38
637.615	18.38
638.376	20.38
639.136	22.38
639.896	20.38
640.657	20.38
641.417	21.38
642.177	16.38
642.937	18.38
643.697	15.38
644.457	18.38
645.216	17.38
645.976	16.38
646.736	17.38
647.495	12.38
648.255	18.38
649.014	14.38
649.774	15.38
650.533	16.38
651.292	14.38
652.051	14.38
652.81	9.38
653.569	12.38
654.328	12.38
655.087	12.38
655.846	11.38
656.604	10.38
657.363	13.38
658.121	9.38
658.88	11.38
659.638	13.38
660.397	8.38
661.155	11.38
661.913	9.38
662.671	12.38
663.429	12.38
664.187	10.38
664.945	10.38
665.703	9.38
666.46	10.38
667.218	9.38
667.976	10.38
668.733	9.38
669.49	10.38
670.248	7.38
671.005	7.38
671.762	10.38
672.519	11.38
673.276	9.38
674.033	9.38
674.79	8.38
675.547	9.38
676.304	11.38
677.06	8.38
677.817	9.38
678.574	7.38
679.33	9.38
680.086	7.38
680.843	9.38
681.599	7.38
682.355	8.38
683.111	7.38
683.867	6.38
684.623	7.38
685.379	7.38
686.135	8.38
686.89	6.38
687.646	6.38
688.402	8.38
689.157	6.38
689.912	9.38
690.668	7.38
691.423	6.38
692.178	6.38
692.933	10.38
693.688	7.38
694.443	8.38
695.198	7.38
695.953	6.38
696.708	8.38
697.462	8.38
698.217	8.38
698.972	8.38
699.726	4.38
700.48	5.38
701.235	7.38
701.989	6.38
702.743	8.38
703.497	6.38
704.251	7.38
705.005	8.38
705.759	6.38
706.513	6.38
707.266	6.38
708.02	8.38
708.774	5.38
709.527	5.38
710.28	8.38
711.034	7.38
711.787	6.38
712.54	5.38
713.293	9.38
714.046	7.38
714.799	8.38
715.552	8.38
716.305	8.38
717.058	6.38
717.81	7.38
718.563	9.38
719.315	7.38
720.068	6.38
720.82	7.38
721.573	6.38
722.325	7.38
723.077	7.38
723.829	7.38
724.581	8.38
725.333	9.38
726.085	8.38
726.836	7.38
727.588	8.38
728.34	10.38
729.091	8.38
729.843	9.38
730.594	7.38
731.346	9.38
732.097	9.38
732.848	9.38
733.599	8.38
734.35	8.38
735.101	10.38
735.852	6.38
736.603	7.38
737.354	8.38
738.104	6.38
738.855	8.38
739.605	8.38
740.356	9.38
741.106	9.38
741.856	10.38
742.607	10.38
743.357	8.38
744.107	10.38
744.857	12.38
745.607	11.38
746.357	9.38
747.106	8.38
747.856	11.38
748.606	9.38
749.355	10.38
750.105	11.38
750.854	11.38
751.603	11.38
752.353	10.38
753.102	10.38
753.851	9.38
754.6	11.38
755.349	8.38
756.098	11.38
756.847	9.38
757.595	13.38
758.344	10.38
759.093	10.38
759.841	13.38
760.589	10.38
761.338	13.38
762.086	12.38
762.834	10.38
763.582	12.38
764.331	12.38
765.079	12.38
765.826	12.38
766.574	11.38
767.322	16.38
768.07	13.38
768.817	15.38
769.565	14.38
770.312	13.38
771.06	16.38
771.807	12.38
772.554	14.38
773.302	14.38
774.049	14.38
774.796	16.38
775.543	15.38
776.29	16.38
777.036	17.38
777.783	16.38
778.53	14.38
779.276	14.38
780.023	14.38
780.769	13.38
781.516	14.38
782.262	13.38
783.008	15.38
783.754	12.38
784.5	14.38
785.246	16.38
785.992	14.38
786.738	15.38
787.484	14.38
788.23	16.38
788.975	12.38
789.721	14.38
790.466	15.38
791.212	9.38
791.957	14.38
792.702	13.38
793.447	11.38
794.193	15.38
794.938	14.38
795.683	13.38
796.427	13.38
797.172	14.38
797.917	10.38
798.662	11.38
799.406	10.38
800.151	12.38
800.895	13.38
801.64	11.38
802.384	11.38
803.128	9.38
803.872	11.38
804.616	12.38
805.36	9.38
806.104	9.38
806.848	8.38
807.592	8.38
808.336	10.38
809.079	8.38
809.823	8.38
810.566	9.38
811.31	8.38
812.053	9.38
812.796	6.38
813.539	9.38
814.283	7.38
815.026	9.38
815.769	8.38
816.511	7.38
817.254	6.38
817.997	5.38
818.74	8.38
819.482	5.38
820.225	7.38
820.967	8.38
821.71	9.38
822.452	8.38
823.194	7.38
823.936	7.38
824.678	4.38
825.42	4.38
826.162	6.38
826.904	5.38
827.646	6.38
828.388	7.38
829.129	5.38
829.871	6.38
830.612	5.38
831.354	5.38
832.095	5.38
832.836	6.38
833.577	5.38
834.319	3.38
835.06	5.38
835.801	5.38
836.542	6.38
837.282	8.38
838.023	5.38
838.764	5.38
839.504	3.38
840.245	5.38
840.985	5.38
841.726	5.38
842.466	4.38
843.206	9.38
843.946	6.38
844.687	4.38
845.427	4.38
846.166	4.38
846.906	3.38
847.646	3.38
848.386	5.38
849.125	2.38
849.865	2.38
850.605	4.38
851.344	5.38
852.083	3.38
852.823	4.38
853.562	4.38
854.301	4.38
855.04	3.38
855.779	5.38
856.518	2.38
857.257	3.38
857.995	3.38
858.734	3.38
859.473	4.38
860.211	3.38
860.95	3.38
861.688	3.38
862.426	0.38
863.165	1.38
863.903	1.38
864.641	2.38
865.379	0.38
866.117	1.38
866.855	2.38
867.593	2.38
868.33	1.38
869.068	0.38
869.806	2.38
870.543	1.38
871.28	2.38
872.018	1.38
872.755	1.38
873.492	2.38
874.229	-1.62
874.967	1.38
875.703	1.38
876.44	2.38
877.177	2.38
877.914	2.38
878.651	1.38
879.387	2.38
880.124	2.38
880.86	2.38
881.597	3.38
882.333	-0.62
883.069	-0.62
883.806	0.38
884.542	-0.62
885.278	1.38
886.014	2.38
886.749	1.38
887.485	-0.62
888.221	0.38
888.957	3.38
889.692	0.38
890.428	0.38
891.163	2.38
891.899	-0.62
892.634	1.38
893.369	2.38
894.104	0.38
894.839	3.38
895.574	0.38
896.309	1.38
897.044	0.38
897.779	1.38
898.514	1.38
899.248	0.38
899.983	2.38
900.717	0.38
901.452	0.38
902.186	-0.62
902.92	1.38
903.654	0.38
904.389	-0.62
905.123	2.38
905.857	0.38
906.59	0.38
907.324	-2.62
908.058	1.38
908.792	1.38
909.525	1.38
910.259	-3.62
910.992	0.38
911.726	1.38
912.459	-0.62
913.192	-1.62
913.925	-0.62
914.658	-0.62
915.391	1.38
916.124	-1.62
916.857	-0.62
917.59	-0.62
918.323	-1.62
919.055	1.38
919.788	-0.62
920.521	0.38
921.253	0.38
921.985	-0.62
922.718	1.38
923.45	-1.62
924.182	2.38
924.914	1.38
925.646	2.38
926.378	-0.62
927.11	-0.62
927.841	-0.62
928.573	0.38
929.305	0.38
930.036	1.38
930.768	-1.62
931.499	1.38
932.23	-1.62
932.962	-0.62
933.693	0.38
934.424	1.38
935.155	0.38
935.886	1.38
936.617	0.38
937.348	2.38
938.078	-1.62
938.809	-1.62
939.54	0.38
940.27	0.38
941.001	-1.62
941.731	0.38
942.461	-2.62
943.191	-1.62
943.922	1.38
944.652	0.38
945.382	-1.62
946.112	-1.62
946.841	0.38
947.571	0.38
948.301	-1.62
949.031	-0.62
949.76	-1.62
950.49	-1.62
951.219	-0.62
951.948	2.38
952.678	0.38
953.407	-0.62
954.136	0.38
954.865	-0.62
955.594	0.38
956.323	0.38
957.052	-1.62
957.78	-1.62
958.509	-0.62
959.238	-2.62
959.966	-0.62
960.695	0.38
961.423	-0.62
962.151	-1.62
962.88	1.38
963.608	0.38
964.336	-2.62
965.064	0.38
965.792	-0.62
966.52	1.38
967.247	-0.62
967.975	-1.62
968.703	-0.62
969.43	0.38
970.158	-1.62
970.885	-0.62
971.613	1.38
972.34	-1.62
973.067	2.38
973.794	-1.62
974.521	1.38
975.248	1.38
975.975	1.38
976.702	0.38
977.429	2.38
978.156	2.38
978.882	0.38
979.609	-1.62
980.335	-1.62
981.062	0.38
981.788	-1.62
982.514	-0.62
983.24	0.38
983.967	-1.62
984.693	1.38
985.419	0.38
986.144	0.38
986.87	-1.62
987.596	-0.62
988.322	-1.62
989.047	0.38
989.773	-3.62
990.498	-0.62
991.224	0.38
991.949	-0.62
992.674	0.38
993.399	-0.62
994.124	0.38
994.849	0.38
995.574	1.38
996.299	0.38
997.024	0.38
997.749	-1.62
998.473	-1.62
999.198	1.38
999.922	-1.62
1000.647	1.38
1001.371	3.38
1002.095	0.38
1002.82	-2.62
1003.544	-1.62
1004.268	5.38
1004.992	5.38
1005.716	4.38
1006.439	6.38
1007.163	3.38
1007.887	5.38
1008.611	0.38
1009.334	-0.62
1010.058	2.38
1010.781	-1.62
1011.504	0.38
1012.228	0.38
1012.951	1.38
1013.674	0.38
1014.397	0.38
1015.12	-1.62
