节点500_705_QEPB04081__223__20-49-05-465.txt的数据

Date: Wed Nov 12 20:49:05 CST 2025
User: PC
Spectrometer: QEPB0408
触发模式: 0
积分时间 (秒): 1.000000E-2
Scans to average: 1
启用暗噪声校正: true
启用非线性校正: false
滑动平均宽度: 0
X轴模式: Wavelengths
Number of Pixels in Spectrum: 1044
>>>>>Begin Spectral Data<<<<<
220.843	6.62
221.644	6.62
222.444	6.62
223.244	6.62
224.045	7.62
224.845	6.62
225.645	5.62
226.445	8.62
227.245	7.62
228.045	9.62
228.845	7.62
229.645	5.62
230.444	11.62
231.244	9.62
232.043	9.62
232.843	9.62
233.642	8.62
234.442	9.62
235.241	12.62
236.04	11.62
236.839	11.62
237.638	11.62
238.437	10.62
239.236	11.62
240.035	10.62
240.833	11.62
241.632	12.62
242.43	15.62
243.229	14.62
244.027	13.62
244.826	15.62
245.624	10.62
246.422	13.62
247.22	15.62
248.018	17.62
248.816	15.62
249.614	15.62
250.412	15.62
251.21	15.62
252.007	19.62
252.805	17.62
253.602	20.62
254.4	22.62
255.197	20.62
255.994	18.62
256.791	22.62
257.589	24.62
258.386	21.62
259.183	25.62
259.979	24.62
260.776	23.62
261.573	22.62
262.37	27.62
263.166	25.62
263.963	24.62
264.759	26.62
265.556	25.62
266.352	30.62
267.148	28.62
267.944	31.62
268.74	30.62
269.536	28.62
270.332	31.62
271.128	31.62
271.924	32.62
272.719	33.62
273.515	33.62
274.311	33.62
275.106	33.62
275.901	34.62
276.697	38.62
277.492	37.62
278.287	35.62
279.082	37.62
279.877	36.62
280.672	37.62
281.467	37.62
282.262	36.62
283.056	35.62
283.851	35.62
284.646	36.62
285.44	35.62
286.234	32.62
287.029	35.62
287.823	34.62
288.617	34.62
289.411	30.62
290.205	34.62
290.999	30.62
291.793	35.62
292.587	32.62
293.381	30.62
294.174	30.62
294.968	30.62
295.761	26.62
296.555	30.62
297.348	28.62
298.141	25.62
298.935	26.62
299.728	29.62
300.521	26.62
301.314	23.62
302.107	25.62
302.899	24.62
303.692	25.62
304.485	22.62
305.277	22.62
306.07	22.62
306.862	22.62
307.655	23.62
308.447	20.62
309.239	22.62
310.031	20.62
310.823	19.62
311.615	18.62
312.407	17.62
313.199	18.62
313.991	18.62
314.783	18.62
315.574	16.62
316.366	18.62
317.157	15.62
317.949	14.62
318.74	15.62
319.531	12.62
320.322	15.62
321.113	14.62
321.904	12.62
322.695	13.62
323.486	15.62
324.277	11.62
325.068	13.62
325.858	17.62
326.649	12.62
327.439	10.62
328.23	12.62
329.02	11.62
329.81	13.62
330.6	13.62
331.391	12.62
332.181	13.62
332.971	13.62
333.76	13.62
334.55	13.62
335.34	14.62
336.13	13.62
336.919	13.62
337.709	14.62
338.498	13.62
339.287	11.62
340.077	11.62
340.866	10.62
341.655	12.62
342.444	10.62
343.233	10.62
344.022	11.62
344.811	8.62
345.6	13.62
346.388	10.62
347.177	12.62
347.965	11.62
348.754	11.62
349.542	11.62
350.33	11.62
351.119	10.62
351.907	13.62
352.695	10.62
353.483	10.62
354.271	12.62
355.059	11.62
355.846	10.62
356.634	11.62
357.422	11.62
358.209	11.62
358.997	12.62
359.784	11.62
360.571	12.62
361.359	9.62
362.146	11.62
362.933	9.62
363.72	10.62
364.507	9.62
365.294	11.62
366.081	11.62
366.867	10.62
367.654	10.62
368.44	10.62
369.227	11.62
370.013	12.62
370.8	10.62
371.586	11.62
372.372	10.62
373.158	13.62
373.944	10.62
374.73	10.62
375.516	10.62
376.302	10.62
377.088	12.62
377.873	9.62
378.659	11.62
379.445	12.62
380.23	9.62
381.015	9.62
381.801	11.62
382.586	10.62
383.371	10.62
384.156	9.62
384.941	10.62
385.726	12.62
386.511	11.62
387.296	10.62
388.08	12.62
388.865	11.62
389.649	10.62
390.434	12.62
391.218	13.62
392.003	12.62
392.787	10.62
393.571	11.62
394.355	12.62
395.139	9.62
395.923	12.62
396.707	13.62
397.491	13.62
398.274	12.62
399.058	11.62
399.842	13.62
400.625	13.62
401.408	15.62
402.192	13.62
402.975	15.62
403.758	12.62
404.541	15.62
405.324	13.62
406.107	16.62
406.89	17.62
407.673	17.62
408.456	18.62
409.238	17.62
410.021	19.62
410.803	18.62
411.586	18.62
412.368	18.62
413.151	17.62
413.933	20.62
414.715	18.62
415.497	19.62
416.279	21.62
417.061	18.62
417.843	19.62
418.624	21.62
419.406	20.62
420.188	19.62
420.969	24.62
421.751	24.62
422.532	21.62
423.313	23.62
424.095	21.62
424.876	27.62
425.657	26.62
426.438	23.62
427.219	28.62
428	28.62
428.78	26.62
429.561	30.62
430.342	32.62
431.122	31.62
431.903	34.62
432.683	34.62
433.464	36.62
434.244	34.62
435.024	41.62
435.804	40.62
436.584	42.62
437.364	47.62
438.144	47.62
438.924	50.62
439.704	48.62
440.483	57.62
441.263	58.62
442.042	64.62
442.822	68.62
443.601	74.62
444.38	79.62
445.16	84.62
445.939	92.62
446.718	101.62
447.497	110.62
448.276	119.62
449.054	131.62
449.833	144.62
450.612	161.62
451.391	174.62
452.169	186.62
452.948	211.62
453.726	231.62
454.504	257.62
455.282	290.62
456.061	326.62
456.839	357.62
457.617	390.62
458.395	443.62
459.172	495.62
459.95	551.62
460.728	618.62
461.506	689.62
462.283	766.62
463.061	862.62
463.838	959.62
464.615	1079.62
465.393	1184.62
466.17	1330.62
466.947	1468.62
467.724	1647.62
468.501	1827.62
469.278	2029.62
470.055	2250.62
470.831	2485.62
471.608	2744.62
472.385	3028.62
473.161	3364.62
473.938	3677.62
474.714	4059.62
475.49	4488.62
476.266	4914.62
477.043	5362.62
477.819	5881.62
478.595	6465.62
479.371	7069.62
480.146	7731.62
480.922	8482.62
481.698	9240.62
482.473	10113.62
483.249	10988.62
484.024	11977.62
484.8	13020.62
485.575	14150.62
486.35	15355.62
487.126	16662.62
487.901	18026.62
488.676	19494.62
489.451	21061.62
490.225	22664.62
491	24275.62
491.775	26036.62
492.55	27864.62
493.324	29725.62
494.099	31575.62
494.873	33422.62
495.647	35312.62
496.422	37217.62
497.196	39061.62
497.97	40688.62
498.744	42129.62
499.518	43833.62
500.292	45153.62
501.066	46111.62
501.839	46969.62
502.613	47663.62
503.387	48214.62
504.16	48508.62
504.934	48500.62
505.707	48198.62
506.48	47711.62
507.253	47114.62
508.027	46305.62
508.8	45211.62
509.573	44000.62
510.346	42843.62
511.118	41738.62
511.891	40269.62
512.664	38710.62
513.437	37207.62
514.209	35774.62
514.982	34358.62
515.754	32865.62
516.526	31444.62
517.298	30279.62
518.071	28982.62
518.843	27860.62
519.615	26707.62
520.387	25751.62
521.159	24667.62
521.93	23652.62
522.702	22621.62
523.474	21662.62
524.245	20721.62
525.017	19829.62
525.788	18931.62
526.56	18150.62
527.331	17286.62
528.102	16399.62
528.873	15571.62
529.644	14883.62
530.415	14133.62
531.186	13438.62
531.957	12692.62
532.728	12047.62
533.498	11402.62
534.269	10761.62
535.039	10229.62
535.81	9651.62
536.58	9104.62
537.351	8635.62
538.121	8207.62
538.891	7766.62
539.661	7336.62
540.431	6933.62
541.201	6572.62
541.971	6200.62
542.741	5915.62
543.51	5616.62
544.28	5330.62
545.05	5077.62
545.819	4837.62
546.588	4615.62
547.358	4381.62
548.127	4171.62
548.896	3946.62
549.665	3742.62
550.434	3560.62
551.203	3380.62
551.972	3201.62
552.741	3016.62
553.51	2843.62
554.278	2682.62
555.047	2524.62
555.815	2391.62
556.584	2283.62
557.352	2133.62
558.121	2025.62
558.889	1897.62
559.657	1800.62
560.425	1710.62
561.193	1618.62
561.961	1521.62
562.729	1447.62
563.496	1374.62
564.264	1280.62
565.032	1224.62
565.799	1147.62
566.567	1095.62
567.334	1030.62
568.101	981.62
568.869	920.62
569.636	872.62
570.403	817.62
571.17	772.62
571.937	745.62
572.704	695.62
573.471	656.62
574.237	618.62
575.004	584.62
575.771	548.62
576.537	510.62
577.303	483.62
578.07	464.62
578.836	432.62
579.602	411.62
580.368	384.62
581.134	360.62
581.9	349.62
582.666	343.62
583.432	323.62
584.198	306.62
584.964	290.62
585.729	282.62
586.495	265.62
587.26	240.62
588.025	235.62
588.791	220.62
589.556	209.62
590.321	204.62
591.086	185.62
591.851	182.62
592.616	175.62
593.381	161.62
594.146	157.62
594.911	153.62
595.675	143.62
596.44	135.62
597.204	130.62
597.969	125.62
598.733	118.62
599.497	117.62
600.261	107.62
601.025	106.62
601.79	103.62
602.553	92.62
603.317	92.62
604.081	92.62
604.845	87.62
605.609	83.62
606.372	79.62
607.136	77.62
607.899	75.62
608.662	67.62
609.426	68.62
610.189	64.62
610.952	58.62
611.715	60.62
612.478	59.62
613.241	55.62
614.004	54.62
614.767	53.62
615.529	50.62
616.292	48.62
617.055	46.62
617.817	50.62
618.579	43.62
619.342	45.62
620.104	41.62
620.866	40.62
621.628	39.62
622.39	38.62
623.152	38.62
623.914	35.62
624.676	34.62
625.438	34.62
626.199	30.62
626.961	34.62
627.722	32.62
628.484	31.62
629.245	31.62
630.006	30.62
630.768	26.62
631.529	26.62
632.29	26.62
633.051	24.62
633.812	22.62
634.573	24.62
635.333	21.62
636.094	24.62
636.855	23.62
637.615	23.62
638.376	18.62
639.136	20.62
639.896	20.62
640.657	17.62
641.417	18.62
642.177	19.62
642.937	17.62
643.697	17.62
644.457	15.62
645.216	18.62
645.976	18.62
646.736	19.62
647.495	15.62
648.255	15.62
649.014	16.62
649.774	15.62
650.533	15.62
651.292	13.62
652.051	13.62
652.81	13.62
653.569	11.62
654.328	15.62
655.087	13.62
655.846	13.62
656.604	13.62
657.363	14.62
658.121	13.62
658.88	10.62
659.638	13.62
660.397	13.62
661.155	11.62
661.913	9.62
662.671	10.62
663.429	11.62
664.187	11.62
664.945	10.62
665.703	11.62
666.46	9.62
667.218	10.62
667.976	11.62
668.733	10.62
669.49	11.62
670.248	11.62
671.005	7.62
671.762	9.62
672.519	10.62
673.276	10.62
674.033	9.62
674.79	10.62
675.547	9.62
676.304	11.62
677.06	8.62
677.817	11.62
678.574	10.62
679.33	9.62
680.086	9.62
680.843	7.62
681.599	10.62
682.355	9.62
683.111	9.62
683.867	9.62
684.623	8.62
685.379	9.62
686.135	7.62
686.89	7.62
687.646	7.62
688.402	8.62
689.157	10.62
689.912	6.62
690.668	10.62
691.423	8.62
692.178	9.62
692.933	8.62
693.688	9.62
694.443	8.62
695.198	7.62
695.953	8.62
696.708	8.62
697.462	5.62
698.217	8.62
698.972	7.62
699.726	8.62
700.48	7.62
701.235	8.62
701.989	10.62
702.743	8.62
703.497	8.62
704.251	6.62
705.005	8.62
705.759	10.62
706.513	6.62
707.266	5.62
708.02	6.62
708.774	8.62
709.527	6.62
710.28	9.62
711.034	7.62
711.787	8.62
712.54	7.62
713.293	6.62
714.046	9.62
714.799	7.62
715.552	9.62
716.305	9.62
717.058	10.62
717.81	9.62
718.563	9.62
719.315	7.62
720.068	10.62
720.82	9.62
721.573	7.62
722.325	9.62
723.077	10.62
723.829	6.62
724.581	8.62
725.333	10.62
726.085	9.62
726.836	10.62
727.588	9.62
728.34	9.62
729.091	9.62
729.843	10.62
730.594	12.62
731.346	8.62
732.097	9.62
732.848	7.62
733.599	8.62
734.35	9.62
735.101	7.62
735.852	8.62
736.603	10.62
737.354	12.62
738.104	9.62
738.855	11.62
739.605	11.62
740.356	9.62
741.106	9.62
741.856	9.62
742.607	10.62
743.357	11.62
744.107	10.62
744.857	10.62
745.607	9.62
746.357	10.62
747.106	10.62
747.856	12.62
748.606	10.62
749.355	11.62
750.105	11.62
750.854	10.62
751.603	10.62
752.353	12.62
753.102	11.62
753.851	13.62
754.6	11.62
755.349	13.62
756.098	13.62
756.847	13.62
757.595	13.62
758.344	12.62
759.093	11.62
759.841	14.62
760.589	12.62
761.338	14.62
762.086	13.62
762.834	13.62
763.582	13.62
764.331	13.62
765.079	13.62
765.826	14.62
766.574	13.62
767.322	13.62
768.07	16.62
768.817	14.62
769.565	14.62
770.312	16.62
771.06	16.62
771.807	15.62
772.554	13.62
773.302	18.62
774.049	17.62
774.796	18.62
775.543	13.62
776.29	16.62
777.036	15.62
777.783	16.62
778.53	14.62
779.276	15.62
780.023	13.62
780.769	15.62
781.516	15.62
782.262	15.62
783.008	15.62
783.754	16.62
784.5	15.62
785.246	17.62
785.992	14.62
786.738	17.62
787.484	15.62
788.23	15.62
788.975	16.62
789.721	16.62
790.466	15.62
791.212	15.62
791.957	15.62
792.702	15.62
793.447	13.62
794.193	15.62
794.938	14.62
795.683	15.62
796.427	15.62
797.172	12.62
797.917	14.62
798.662	11.62
799.406	13.62
800.151	12.62
800.895	12.62
801.64	12.62
802.384	11.62
803.128	10.62
803.872	10.62
804.616	11.62
805.36	13.62
806.104	10.62
806.848	11.62
807.592	9.62
808.336	11.62
809.079	8.62
809.823	11.62
810.566	9.62
811.31	10.62
812.053	11.62
812.796	9.62
813.539	10.62
814.283	9.62
815.026	7.62
815.769	9.62
816.511	7.62
817.254	8.62
817.997	7.62
818.74	8.62
819.482	8.62
820.225	6.62
820.967	10.62
821.71	7.62
822.452	7.62
823.194	9.62
823.936	5.62
824.678	8.62
825.42	6.62
826.162	8.62
826.904	7.62
827.646	9.62
828.388	6.62
829.129	8.62
829.871	7.62
830.612	7.62
831.354	9.62
832.095	4.62
832.836	5.62
833.577	5.62
834.319	6.62
835.06	7.62
835.801	8.62
836.542	7.62
837.282	6.62
838.023	9.62
838.764	6.62
839.504	7.62
840.245	9.62
840.985	7.62
841.726	6.62
842.466	7.62
843.206	7.62
843.946	7.62
844.687	7.62
845.427	6.62
846.166	7.62
846.906	5.62
847.646	5.62
848.386	5.62
849.125	4.62
849.865	6.62
850.605	2.62
851.344	3.62
852.083	2.62
852.823	4.62
853.562	4.62
854.301	5.62
855.04	6.62
855.779	5.62
856.518	7.62
857.257	5.62
857.995	3.62
858.734	1.62
859.473	6.62
860.211	4.62
860.95	4.62
861.688	4.62
862.426	4.62
863.165	2.62
863.903	5.62
864.641	5.62
865.379	4.62
866.117	2.62
866.855	3.62
867.593	2.62
868.33	2.62
869.068	4.62
869.806	2.62
870.543	2.62
871.28	2.62
872.018	2.62
872.755	3.62
873.492	3.62
874.229	2.62
874.967	0.62
875.703	1.62
876.44	2.62
877.177	2.62
877.914	2.62
878.651	0.62
879.387	3.62
880.124	1.62
880.86	2.62
881.597	2.62
882.333	3.62
883.069	2.62
883.806	2.62
884.542	3.62
885.278	3.62
886.014	3.62
886.749	3.62
887.485	2.62
888.221	2.62
888.957	2.62
889.692	1.62
890.428	1.62
891.163	3.62
891.899	1.62
892.634	2.62
893.369	4.62
894.104	-0.38
894.839	2.62
895.574	1.62
896.309	2.62
897.044	2.62
897.779	1.62
898.514	3.62
899.248	0.62
899.983	0.62
900.717	-0.38
901.452	0.62
902.186	1.62
902.92	0.62
903.654	1.62
904.389	1.62
905.123	2.62
905.857	2.62
906.59	2.62
907.324	-0.38
908.058	1.62
908.792	3.62
909.525	1.62
910.259	0.62
910.992	1.62
911.726	2.62
912.459	1.62
913.192	1.62
913.925	2.62
914.658	2.62
915.391	0.62
916.124	2.62
916.857	-0.38
917.59	2.62
918.323	0.62
919.055	0.62
919.788	2.62
920.521	-0.38
921.253	0.62
921.985	0.62
922.718	0.62
923.45	0.62
924.182	0.62
924.914	0.62
925.646	0.62
926.378	-0.38
927.11	-0.38
927.841	0.62
928.573	-0.38
929.305	-0.38
930.036	-0.38
930.768	-0.38
931.499	2.62
932.23	-0.38
932.962	-0.38
933.693	1.62
934.424	0.62
935.155	1.62
935.886	2.62
936.617	1.62
937.348	-0.38
938.078	0.62
938.809	2.62
939.54	0.62
940.27	1.62
941.001	2.62
941.731	0.62
942.461	2.62
943.191	0.62
943.922	1.62
944.652	-0.38
945.382	-0.38
946.112	1.62
946.841	1.62
947.571	-0.38
948.301	-0.38
949.031	1.62
949.76	1.62
950.49	-0.38
951.219	1.62
951.948	-1.38
952.678	1.62
953.407	0.62
954.136	0.62
954.865	1.62
955.594	1.62
956.323	1.62
957.052	-0.38
957.78	3.62
958.509	-0.38
959.238	0.62
959.966	2.62
960.695	1.62
961.423	0.62
962.151	0.62
962.88	1.62
963.608	1.62
964.336	-0.38
965.064	1.62
965.792	-0.38
966.52	4.62
967.247	2.62
967.975	-0.38
968.703	1.62
969.43	4.62
970.158	1.62
970.885	0.62
971.613	-1.38
972.34	2.62
973.067	0.62
973.794	-0.38
974.521	-0.38
975.248	1.62
975.975	0.62
976.702	3.62
977.429	1.62
978.156	-1.38
978.882	1.62
979.609	1.62
980.335	2.62
981.062	2.62
981.788	0.62
982.514	0.62
983.24	1.62
983.967	0.62
984.693	-0.38
985.419	-0.38
986.144	-0.38
986.87	0.62
987.596	1.62
988.322	-0.38
989.047	3.62
989.773	-0.38
990.498	0.62
991.224	1.62
991.949	0.62
992.674	0.62
993.399	1.62
994.124	1.62
994.849	1.62
995.574	2.62
996.299	2.62
997.024	-0.38
997.749	1.62
998.473	0.62
999.198	0.62
999.922	1.62
1000.647	1.62
1001.371	3.62
1002.095	-1.38
1002.82	-2.38
1003.544	-0.38
1004.268	3.62
1004.992	3.62
1005.716	4.62
1006.439	3.62
1007.163	7.62
1007.887	7.62
1008.611	3.62
1009.334	-0.38
1010.058	1.62
1010.781	2.62
1011.504	0.62
1012.228	1.62
1012.951	-1.38
1013.674	1.62
1014.397	1.62
1015.12	-1.38
