节点500_705_QEPB04081__682__20-55-38-790.txt的数据

Date: Wed Nov 12 20:55:38 CST 2025
User: PC
Spectrometer: QEPB0408
触发模式: 0
积分时间 (秒): 1.000000E-2
Scans to average: 1
启用暗噪声校正: true
启用非线性校正: false
滑动平均宽度: 0
X轴模式: Wavelengths
Number of Pixels in Spectrum: 1044
>>>>>Begin Spectral Data<<<<<
220.843	3.75
221.644	6.75
222.444	2.75
223.244	5.75
224.045	6.75
224.845	8.75
225.645	9.75
226.445	7.75
227.245	7.75
228.045	6.75
228.845	10.75
229.645	6.75
230.444	7.75
231.244	7.75
232.043	9.75
232.843	10.75
233.642	9.75
234.442	9.75
235.241	9.75
236.04	10.75
236.839	11.75
237.638	11.75
238.437	13.75
239.236	11.75
240.035	10.75
240.833	9.75
241.632	10.75
242.43	12.75
243.229	12.75
244.027	14.75
244.826	12.75
245.624	10.75
246.422	14.75
247.22	14.75
248.018	16.75
248.816	13.75
249.614	14.75
250.412	15.75
251.21	12.75
252.007	14.75
252.805	14.75
253.602	18.75
254.4	15.75
255.197	15.75
255.994	17.75
256.791	17.75
257.589	18.75
258.386	18.75
259.183	20.75
259.979	19.75
260.776	17.75
261.573	23.75
262.37	21.75
263.166	23.75
263.963	24.75
264.759	23.75
265.556	21.75
266.352	24.75
267.148	23.75
267.944	28.75
268.74	28.75
269.536	24.75
270.332	25.75
271.128	29.75
271.924	28.75
272.719	30.75
273.515	28.75
274.311	29.75
275.106	30.75
275.901	31.75
276.697	29.75
277.492	30.75
278.287	30.75
279.082	29.75
279.877	32.75
280.672	31.75
281.467	31.75
282.262	33.75
283.056	34.75
283.851	33.75
284.646	30.75
285.44	32.75
286.234	30.75
287.029	31.75
287.823	33.75
288.617	27.75
289.411	28.75
290.205	32.75
290.999	30.75
291.793	30.75
292.587	31.75
293.381	29.75
294.174	31.75
294.968	28.75
295.761	26.75
296.555	26.75
297.348	29.75
298.141	26.75
298.935	28.75
299.728	23.75
300.521	24.75
301.314	24.75
302.107	22.75
302.899	25.75
303.692	22.75
304.485	21.75
305.277	23.75
306.07	22.75
306.862	22.75
307.655	20.75
308.447	21.75
309.239	20.75
310.031	21.75
310.823	19.75
311.615	17.75
312.407	19.75
313.199	16.75
313.991	19.75
314.783	17.75
315.574	20.75
316.366	13.75
317.157	15.75
317.949	15.75
318.74	15.75
319.531	12.75
320.322	13.75
321.113	14.75
321.904	13.75
322.695	15.75
323.486	12.75
324.277	14.75
325.068	11.75
325.858	14.75
326.649	13.75
327.439	12.75
328.23	14.75
329.02	12.75
329.81	15.75
330.6	10.75
331.391	13.75
332.181	13.75
332.971	13.75
333.76	9.75
334.55	14.75
335.34	12.75
336.13	13.75
336.919	11.75
337.709	10.75
338.498	13.75
339.287	14.75
340.077	10.75
340.866	11.75
341.655	11.75
342.444	13.75
343.233	12.75
344.022	12.75
344.811	13.75
345.6	11.75
346.388	15.75
347.177	10.75
347.965	11.75
348.754	12.75
349.542	12.75
350.33	12.75
351.119	12.75
351.907	9.75
352.695	14.75
353.483	10.75
354.271	11.75
355.059	11.75
355.846	13.75
356.634	8.75
357.422	11.75
358.209	11.75
358.997	9.75
359.784	12.75
360.571	8.75
361.359	9.75
362.146	10.75
362.933	7.75
363.72	11.75
364.507	8.75
365.294	10.75
366.081	9.75
366.867	12.75
367.654	9.75
368.44	7.75
369.227	12.75
370.013	8.75
370.8	7.75
371.586	10.75
372.372	9.75
373.158	10.75
373.944	9.75
374.73	9.75
375.516	11.75
376.302	11.75
377.088	10.75
377.873	7.75
378.659	10.75
379.445	9.75
380.23	11.75
381.015	9.75
381.801	10.75
382.586	13.75
383.371	10.75
384.156	11.75
384.941	9.75
385.726	8.75
386.511	13.75
387.296	10.75
388.08	11.75
388.865	11.75
389.649	12.75
390.434	12.75
391.218	8.75
392.003	12.75
392.787	8.75
393.571	15.75
394.355	12.75
395.139	11.75
395.923	10.75
396.707	13.75
397.491	13.75
398.274	12.75
399.058	14.75
399.842	11.75
400.625	13.75
401.408	14.75
402.192	11.75
402.975	15.75
403.758	13.75
404.541	13.75
405.324	12.75
406.107	13.75
406.89	15.75
407.673	14.75
408.456	14.75
409.238	15.75
410.021	16.75
410.803	17.75
411.586	17.75
412.368	15.75
413.151	15.75
413.933	19.75
414.715	18.75
415.497	20.75
416.279	19.75
417.061	20.75
417.843	19.75
418.624	18.75
419.406	21.75
420.188	19.75
420.969	20.75
421.751	22.75
422.532	20.75
423.313	21.75
424.095	24.75
424.876	23.75
425.657	23.75
426.438	25.75
427.219	31.75
428	28.75
428.78	26.75
429.561	31.75
430.342	31.75
431.122	35.75
431.903	31.75
432.683	36.75
433.464	32.75
434.244	38.75
435.024	39.75
435.804	42.75
436.584	43.75
437.364	46.75
438.144	47.75
438.924	54.75
439.704	56.75
440.483	56.75
441.263	61.75
442.042	69.75
442.822	74.75
443.601	79.75
444.38	84.75
445.16	95.75
445.939	100.75
446.718	114.75
447.497	119.75
448.276	131.75
449.054	145.75
449.833	162.75
450.612	179.75
451.391	191.75
452.169	207.75
452.948	234.75
453.726	265.75
454.504	291.75
455.282	319.75
456.061	360.75
456.839	390.75
457.617	440.75
458.395	492.75
459.172	543.75
459.95	609.75
460.728	680.75
461.506	746.75
462.283	830.75
463.061	923.75
463.838	1031.75
464.615	1149.75
465.393	1274.75
466.17	1399.75
466.947	1544.75
467.724	1717.75
468.501	1890.75
469.278	2076.75
470.055	2281.75
470.831	2518.75
471.608	2760.75
472.385	3044.75
473.161	3306.75
473.938	3619.75
474.714	3965.75
475.49	4331.75
476.266	4698.75
477.043	5141.75
477.819	5590.75
478.595	6058.75
479.371	6603.75
480.146	7134.75
480.922	7750.75
481.698	8389.75
482.473	9107.75
483.249	9821.75
484.024	10627.75
484.8	11456.75
485.575	12329.75
486.35	13307.75
487.126	14343.75
487.901	15466.75
488.676	16597.75
489.451	17824.75
490.225	19116.75
491	20482.75
491.775	21845.75
492.55	23274.75
493.324	24732.75
494.099	26309.75
494.873	27774.75
495.647	29381.75
496.422	30901.75
497.196	32599.75
497.97	34108.75
498.744	35577.75
499.518	37128.75
500.292	38377.75
501.066	39480.75
501.839	40477.75
502.613	41471.75
503.387	42279.75
504.16	42839.75
504.934	43234.75
505.707	43582.75
506.48	43550.75
507.253	43353.75
508.027	43086.75
508.8	42568.75
509.573	41887.75
510.346	41169.75
511.118	40425.75
511.891	39450.75
512.664	38195.75
513.437	37022.75
514.209	35757.75
514.982	34550.75
515.754	33246.75
516.526	32056.75
517.298	30737.75
518.071	29713.75
518.843	28568.75
519.615	27355.75
520.387	26266.75
521.159	25293.75
521.93	24254.75
522.702	23281.75
523.474	22295.75
524.245	21428.75
525.017	20523.75
525.788	19707.75
526.56	18917.75
527.331	18093.75
528.102	17263.75
528.873	16439.75
529.644	15651.75
530.415	14941.75
531.186	14320.75
531.957	13536.75
532.728	12940.75
533.498	12243.75
534.269	11632.75
535.039	11032.75
535.81	10471.75
536.58	9907.75
537.351	9407.75
538.121	8866.75
538.891	8405.75
539.661	7932.75
540.431	7524.75
541.201	7131.75
541.971	6811.75
542.741	6454.75
543.51	6129.75
544.28	5824.75
545.05	5543.75
545.819	5288.75
546.588	5049.75
547.358	4762.75
548.127	4515.75
548.896	4317.75
549.665	4099.75
550.434	3907.75
551.203	3697.75
551.972	3542.75
552.741	3308.75
553.51	3155.75
554.278	2963.75
555.047	2825.75
555.815	2673.75
556.584	2522.75
557.352	2383.75
558.121	2265.75
558.889	2145.75
559.657	1999.75
560.425	1901.75
561.193	1804.75
561.961	1726.75
562.729	1627.75
563.496	1520.75
564.264	1454.75
565.032	1373.75
565.799	1294.75
566.567	1226.75
567.334	1155.75
568.101	1098.75
568.869	1046.75
569.636	986.75
570.403	931.75
571.17	877.75
571.937	821.75
572.704	765.75
573.471	741.75
574.237	691.75
575.004	651.75
575.771	617.75
576.537	582.75
577.303	555.75
578.07	520.75
578.836	495.75
579.602	466.75
580.368	444.75
581.134	422.75
581.9	403.75
582.666	380.75
583.432	359.75
584.198	340.75
584.964	324.75
585.729	313.75
586.495	297.75
587.26	270.75
588.025	257.75
588.791	246.75
589.556	234.75
590.321	222.75
591.086	209.75
591.851	205.75
592.616	184.75
593.381	187.75
594.146	178.75
594.911	162.75
595.675	158.75
596.44	150.75
597.204	148.75
597.969	134.75
598.733	132.75
599.497	128.75
600.261	116.75
601.025	111.75
601.79	111.75
602.553	105.75
603.317	104.75
604.081	101.75
604.845	95.75
605.609	86.75
606.372	87.75
607.136	84.75
607.899	76.75
608.662	72.75
609.426	73.75
610.189	72.75
610.952	69.75
611.715	70.75
612.478	63.75
613.241	60.75
614.004	64.75
614.767	55.75
615.529	58.75
616.292	49.75
617.055	49.75
617.817	47.75
618.579	48.75
619.342	46.75
620.104	42.75
620.866	44.75
621.628	40.75
622.39	41.75
623.152	39.75
623.914	37.75
624.676	35.75
625.438	34.75
626.199	34.75
626.961	32.75
627.722	32.75
628.484	33.75
629.245	31.75
630.006	29.75
630.768	27.75
631.529	27.75
632.29	29.75
633.051	26.75
633.812	29.75
634.573	27.75
635.333	23.75
636.094	24.75
636.855	23.75
637.615	25.75
638.376	19.75
639.136	26.75
639.896	22.75
640.657	21.75
641.417	20.75
642.177	18.75
642.937	20.75
643.697	17.75
644.457	16.75
645.216	16.75
645.976	17.75
646.736	16.75
647.495	15.75
648.255	15.75
649.014	15.75
649.774	14.75
650.533	15.75
651.292	14.75
652.051	17.75
652.81	15.75
653.569	15.75
654.328	16.75
655.087	12.75
655.846	14.75
656.604	12.75
657.363	11.75
658.121	13.75
658.88	10.75
659.638	12.75
660.397	11.75
661.155	12.75
661.913	12.75
662.671	10.75
663.429	11.75
664.187	10.75
664.945	11.75
665.703	9.75
666.46	10.75
667.218	11.75
667.976	11.75
668.733	12.75
669.49	11.75
670.248	10.75
671.005	10.75
671.762	9.75
672.519	8.75
673.276	10.75
674.033	10.75
674.79	10.75
675.547	8.75
676.304	6.75
677.06	8.75
677.817	9.75
678.574	9.75
679.33	10.75
680.086	10.75
680.843	8.75
681.599	9.75
682.355	8.75
683.111	8.75
683.867	7.75
684.623	7.75
685.379	7.75
686.135	10.75
686.89	10.75
687.646	8.75
688.402	7.75
689.157	7.75
689.912	6.75
690.668	7.75
691.423	10.75
692.178	9.75
692.933	6.75
693.688	8.75
694.443	9.75
695.198	9.75
695.953	7.75
696.708	8.75
697.462	8.75
698.217	7.75
698.972	9.75
699.726	8.75
700.48	9.75
701.235	7.75
701.989	10.75
702.743	5.75
703.497	6.75
704.251	9.75
705.005	6.75
705.759	8.75
706.513	9.75
707.266	10.75
708.02	9.75
708.774	7.75
709.527	6.75
710.28	8.75
711.034	7.75
711.787	7.75
712.54	8.75
713.293	8.75
714.046	8.75
714.799	8.75
715.552	7.75
716.305	8.75
717.058	8.75
717.81	4.75
718.563	8.75
719.315	8.75
720.068	8.75
720.82	8.75
721.573	8.75
722.325	7.75
723.077	7.75
723.829	9.75
724.581	6.75
725.333	11.75
726.085	8.75
726.836	8.75
727.588	8.75
728.34	6.75
729.091	10.75
729.843	9.75
730.594	6.75
731.346	12.75
732.097	9.75
732.848	8.75
733.599	10.75
734.35	10.75
735.101	6.75
735.852	7.75
736.603	12.75
737.354	9.75
738.104	9.75
738.855	9.75
739.605	10.75
740.356	9.75
741.106	9.75
741.856	9.75
742.607	10.75
743.357	9.75
744.107	7.75
744.857	10.75
745.607	11.75
746.357	9.75
747.106	10.75
747.856	12.75
748.606	10.75
749.355	9.75
750.105	11.75
750.854	10.75
751.603	7.75
752.353	10.75
753.102	12.75
753.851	12.75
754.6	10.75
755.349	9.75
756.098	11.75
756.847	10.75
757.595	9.75
758.344	13.75
759.093	10.75
759.841	10.75
760.589	11.75
761.338	14.75
762.086	11.75
762.834	10.75
763.582	11.75
764.331	12.75
765.079	12.75
765.826	13.75
766.574	11.75
767.322	14.75
768.07	11.75
768.817	13.75
769.565	11.75
770.312	12.75
771.06	13.75
771.807	13.75
772.554	14.75
773.302	14.75
774.049	14.75
774.796	13.75
775.543	15.75
776.29	15.75
777.036	16.75
777.783	16.75
778.53	14.75
779.276	15.75
780.023	13.75
780.769	15.75
781.516	16.75
782.262	13.75
783.008	12.75
783.754	17.75
784.5	15.75
785.246	15.75
785.992	16.75
786.738	17.75
787.484	15.75
788.23	15.75
788.975	15.75
789.721	14.75
790.466	12.75
791.212	15.75
791.957	15.75
792.702	12.75
793.447	15.75
794.193	14.75
794.938	13.75
795.683	14.75
796.427	13.75
797.172	13.75
797.917	13.75
798.662	13.75
799.406	14.75
800.151	11.75
800.895	11.75
801.64	11.75
802.384	10.75
803.128	12.75
803.872	8.75
804.616	13.75
805.36	15.75
806.104	11.75
806.848	12.75
807.592	11.75
808.336	8.75
809.079	9.75
809.823	8.75
810.566	10.75
811.31	10.75
812.053	9.75
812.796	11.75
813.539	7.75
814.283	8.75
815.026	8.75
815.769	8.75
816.511	9.75
817.254	7.75
817.997	11.75
818.74	9.75
819.482	9.75
820.225	8.75
820.967	8.75
821.71	7.75
822.452	7.75
823.194	6.75
823.936	7.75
824.678	7.75
825.42	9.75
826.162	8.75
826.904	8.75
827.646	6.75
828.388	9.75
829.129	6.75
829.871	7.75
830.612	10.75
831.354	9.75
832.095	7.75
832.836	5.75
833.577	7.75
834.319	7.75
835.06	7.75
835.801	5.75
836.542	6.75
837.282	6.75
838.023	5.75
838.764	6.75
839.504	5.75
840.245	6.75
840.985	7.75
841.726	4.75
842.466	5.75
843.206	7.75
843.946	5.75
844.687	7.75
845.427	6.75
846.166	2.75
846.906	7.75
847.646	3.75
848.386	5.75
849.125	8.75
849.865	4.75
850.605	5.75
851.344	5.75
852.083	3.75
852.823	5.75
853.562	5.75
854.301	1.75
855.04	6.75
855.779	6.75
856.518	5.75
857.257	3.75
857.995	6.75
858.734	4.75
859.473	3.75
860.211	6.75
860.95	2.75
861.688	2.75
862.426	4.75
863.165	5.75
863.903	3.75
864.641	5.75
865.379	2.75
866.117	4.75
866.855	1.75
867.593	5.75
868.33	1.75
869.068	3.75
869.806	2.75
870.543	2.75
871.28	1.75
872.018	2.75
872.755	4.75
873.492	3.75
874.229	3.75
874.967	2.75
875.703	2.75
876.44	5.75
877.177	1.75
877.914	4.75
878.651	2.75
879.387	3.75
880.124	1.75
880.86	1.75
881.597	3.75
882.333	2.75
883.069	3.75
883.806	2.75
884.542	2.75
885.278	1.75
886.014	1.75
886.749	3.75
887.485	1.75
888.221	2.75
888.957	2.75
889.692	2.75
890.428	4.75
891.163	-0.25
891.899	1.75
892.634	4.75
893.369	1.75
894.104	2.75
894.839	2.75
895.574	1.75
896.309	0.75
897.044	1.75
897.779	0.75
898.514	4.75
899.248	3.75
899.983	3.75
900.717	1.75
901.452	1.75
902.186	-0.25
902.92	3.75
903.654	1.75
904.389	1.75
905.123	3.75
905.857	3.75
906.59	1.75
907.324	3.75
908.058	2.75
908.792	-1.25
909.525	2.75
910.259	1.75
910.992	0.75
911.726	1.75
912.459	0.75
913.192	0.75
913.925	2.75
914.658	3.75
915.391	-0.25
916.124	-0.25
916.857	3.75
917.59	-0.25
918.323	0.75
919.055	-0.25
919.788	-1.25
920.521	0.75
921.253	3.75
921.985	0.75
922.718	2.75
923.45	2.75
924.182	-2.25
924.914	2.75
925.646	2.75
926.378	-0.25
927.11	0.75
927.841	0.75
928.573	2.75
929.305	-0.25
930.036	3.75
930.768	2.75
931.499	2.75
932.23	2.75
932.962	2.75
933.693	0.75
934.424	1.75
935.155	1.75
935.886	0.75
936.617	0.75
937.348	2.75
938.078	2.75
938.809	1.75
939.54	-0.25
940.27	1.75
941.001	1.75
941.731	0.75
942.461	1.75
943.191	0.75
943.922	2.75
944.652	1.75
945.382	1.75
946.112	2.75
946.841	1.75
947.571	2.75
948.301	-0.25
949.031	0.75
949.76	-0.25
950.49	0.75
951.219	-0.25
951.948	-0.25
952.678	0.75
953.407	1.75
954.136	0.75
954.865	1.75
955.594	3.75
956.323	1.75
957.052	1.75
957.78	1.75
958.509	-0.25
959.238	-2.25
959.966	2.75
960.695	0.75
961.423	1.75
962.151	-1.25
962.88	0.75
963.608	0.75
964.336	0.75
965.064	0.75
965.792	1.75
966.52	1.75
967.247	1.75
967.975	1.75
968.703	0.75
969.43	-1.25
970.158	1.75
970.885	0.75
971.613	0.75
972.34	2.75
973.067	2.75
973.794	1.75
974.521	0.75
975.248	1.75
975.975	0.75
976.702	2.75
977.429	0.75
978.156	0.75
978.882	0.75
979.609	0.75
980.335	0.75
981.062	0.75
981.788	-0.25
982.514	0.75
983.24	-1.25
983.967	0.75
984.693	-0.25
985.419	1.75
986.144	2.75
986.87	3.75
987.596	2.75
988.322	1.75
989.047	0.75
989.773	1.75
990.498	3.75
991.224	1.75
991.949	-0.25
992.674	1.75
993.399	-0.25
994.124	0.75
994.849	1.75
995.574	0.75
996.299	2.75
997.024	0.75
997.749	0.75
998.473	0.75
999.198	2.75
999.922	1.75
1000.647	0.75
1001.371	3.75
1002.095	-0.25
1002.82	-0.25
1003.544	-2.25
1004.268	5.75
1004.992	6.75
1005.716	6.75
1006.439	3.75
1007.163	7.75
1007.887	4.75
1008.611	1.75
1009.334	-0.25
1010.058	2.75
1010.781	2.75
1011.504	-0.25
1012.228	1.75
1012.951	0.75
1013.674	-0.25
1014.397	-0.25
1015.12	-1.25
