节点500_705_QEPB04081__45__20-46-38-310.txt的数据

Date: Wed Nov 12 20:46:38 CST 2025
User: PC
Spectrometer: QEPB0408
触发模式: 0
积分时间 (秒): 1.000000E-2
Scans to average: 1
启用暗噪声校正: true
启用非线性校正: false
滑动平均宽度: 0
X轴模式: Wavelengths
Number of Pixels in Spectrum: 1044
>>>>>Begin Spectral Data<<<<<
220.843	5.62
221.644	4.62
222.444	5.62
223.244	3.62
224.045	7.62
224.845	5.62
225.645	5.62
226.445	6.62
227.245	7.62
228.045	8.62
228.845	7.62
229.645	8.62
230.444	7.62
231.244	7.62
232.043	9.62
232.843	9.62
233.642	9.62
234.442	13.62
235.241	7.62
236.04	10.62
236.839	12.62
237.638	10.62
238.437	10.62
239.236	11.62
240.035	10.62
240.833	10.62
241.632	14.62
242.43	11.62
243.229	11.62
244.027	14.62
244.826	10.62
245.624	14.62
246.422	16.62
247.22	15.62
248.018	16.62
248.816	14.62
249.614	15.62
250.412	15.62
251.21	16.62
252.007	18.62
252.805	20.62
253.602	17.62
254.4	21.62
255.197	20.62
255.994	19.62
256.791	22.62
257.589	23.62
258.386	21.62
259.183	22.62
259.979	21.62
260.776	25.62
261.573	22.62
262.37	26.62
263.166	28.62
263.963	28.62
264.759	29.62
265.556	32.62
266.352	29.62
267.148	29.62
267.944	32.62
268.74	29.62
269.536	31.62
270.332	30.62
271.128	31.62
271.924	34.62
272.719	34.62
273.515	29.62
274.311	34.62
275.106	35.62
275.901	36.62
276.697	37.62
277.492	36.62
278.287	36.62
279.082	34.62
279.877	36.62
280.672	34.62
281.467	36.62
282.262	38.62
283.056	35.62
283.851	34.62
284.646	31.62
285.44	34.62
286.234	34.62
287.029	34.62
287.823	34.62
288.617	32.62
289.411	29.62
290.205	31.62
290.999	32.62
291.793	29.62
292.587	34.62
293.381	31.62
294.174	31.62
294.968	30.62
295.761	28.62
296.555	27.62
297.348	24.62
298.141	25.62
298.935	26.62
299.728	24.62
300.521	27.62
301.314	24.62
302.107	22.62
302.899	21.62
303.692	20.62
304.485	22.62
305.277	25.62
306.07	21.62
306.862	21.62
307.655	20.62
308.447	20.62
309.239	21.62
310.031	18.62
310.823	17.62
311.615	18.62
312.407	18.62
313.199	15.62
313.991	16.62
314.783	13.62
315.574	16.62
316.366	17.62
317.157	17.62
317.949	12.62
318.74	13.62
319.531	13.62
320.322	14.62
321.113	12.62
321.904	12.62
322.695	11.62
323.486	12.62
324.277	13.62
325.068	13.62
325.858	13.62
326.649	15.62
327.439	11.62
328.23	12.62
329.02	10.62
329.81	11.62
330.6	12.62
331.391	13.62
332.181	13.62
332.971	12.62
333.76	12.62
334.55	14.62
335.34	10.62
336.13	8.62
336.919	11.62
337.709	10.62
338.498	11.62
339.287	9.62
340.077	12.62
340.866	12.62
341.655	10.62
342.444	10.62
343.233	10.62
344.022	12.62
344.811	13.62
345.6	11.62
346.388	9.62
347.177	11.62
347.965	11.62
348.754	12.62
349.542	8.62
350.33	10.62
351.119	10.62
351.907	11.62
352.695	9.62
353.483	12.62
354.271	10.62
355.059	10.62
355.846	10.62
356.634	9.62
357.422	10.62
358.209	11.62
358.997	10.62
359.784	9.62
360.571	9.62
361.359	10.62
362.146	8.62
362.933	11.62
363.72	8.62
364.507	8.62
365.294	10.62
366.081	7.62
366.867	7.62
367.654	9.62
368.44	9.62
369.227	11.62
370.013	10.62
370.8	10.62
371.586	6.62
372.372	11.62
373.158	9.62
373.944	7.62
374.73	10.62
375.516	8.62
376.302	11.62
377.088	10.62
377.873	10.62
378.659	9.62
379.445	9.62
380.23	9.62
381.015	9.62
381.801	10.62
382.586	9.62
383.371	10.62
384.156	9.62
384.941	8.62
385.726	12.62
386.511	9.62
387.296	11.62
388.08	12.62
388.865	11.62
389.649	10.62
390.434	8.62
391.218	14.62
392.003	11.62
392.787	11.62
393.571	13.62
394.355	12.62
395.139	13.62
395.923	13.62
396.707	13.62
397.491	10.62
398.274	13.62
399.058	12.62
399.842	11.62
400.625	14.62
401.408	14.62
402.192	15.62
402.975	13.62
403.758	14.62
404.541	18.62
405.324	13.62
406.107	16.62
406.89	17.62
407.673	17.62
408.456	15.62
409.238	15.62
410.021	17.62
410.803	16.62
411.586	18.62
412.368	17.62
413.151	20.62
413.933	21.62
414.715	15.62
415.497	17.62
416.279	18.62
417.061	18.62
417.843	18.62
418.624	21.62
419.406	20.62
420.188	21.62
420.969	20.62
421.751	21.62
422.532	23.62
423.313	24.62
424.095	24.62
424.876	23.62
425.657	23.62
426.438	23.62
427.219	23.62
428	25.62
428.78	29.62
429.561	28.62
430.342	29.62
431.122	30.62
431.903	31.62
432.683	32.62
433.464	34.62
434.244	36.62
435.024	35.62
435.804	41.62
436.584	43.62
437.364	44.62
438.144	45.62
438.924	49.62
439.704	53.62
440.483	53.62
441.263	60.62
442.042	63.62
442.822	65.62
443.601	69.62
444.38	77.62
445.16	78.62
445.939	89.62
446.718	96.62
447.497	106.62
448.276	115.62
449.054	125.62
449.833	140.62
450.612	150.62
451.391	168.62
452.169	181.62
452.948	199.62
453.726	216.62
454.504	253.62
455.282	270.62
456.061	313.62
456.839	338.62
457.617	384.62
458.395	423.62
459.172	470.62
459.95	523.62
460.728	596.62
461.506	674.62
462.283	743.62
463.061	836.62
463.838	919.62
464.615	1033.62
465.393	1162.62
466.17	1307.62
466.947	1445.62
467.724	1613.62
468.501	1788.62
469.278	1994.62
470.055	2226.62
470.831	2467.62
471.608	2734.62
472.385	3017.62
473.161	3346.62
473.938	3720.62
474.714	4086.62
475.49	4528.62
476.266	4997.62
477.043	5481.62
477.819	5996.62
478.595	6588.62
479.371	7281.62
480.146	7975.62
480.922	8725.62
481.698	9650.62
482.473	10527.62
483.249	11521.62
484.024	12588.62
484.8	13663.62
485.575	14865.62
486.35	16200.62
487.126	17627.62
487.901	19123.62
488.676	20721.62
489.451	22469.62
490.225	24236.62
491	26001.62
491.775	27957.62
492.55	29934.62
493.324	31858.62
494.099	33814.62
494.873	35779.62
495.647	37832.62
496.422	39803.62
497.196	41608.62
497.97	43456.62
498.744	44993.62
499.518	46490.62
500.292	47897.62
501.066	48733.62
501.839	49499.62
502.613	49969.62
503.387	50317.62
504.16	50566.62
504.934	50313.62
505.707	49887.62
506.48	49085.62
507.253	48308.62
508.027	47229.62
508.8	46037.62
509.573	44648.62
510.346	43236.62
511.118	41909.62
511.891	40395.62
512.664	38711.62
513.437	37070.62
514.209	35664.62
514.982	34108.62
515.754	32702.62
516.526	31280.62
517.298	29967.62
518.071	28774.62
518.843	27600.62
519.615	26375.62
520.387	25386.62
521.159	24342.62
521.93	23342.62
522.702	22360.62
523.474	21365.62
524.245	20423.62
525.017	19524.62
525.788	18629.62
526.56	17815.62
527.331	16959.62
528.102	16094.62
528.873	15264.62
529.644	14560.62
530.415	13799.62
531.186	13074.62
531.957	12323.62
532.728	11706.62
533.498	11048.62
534.269	10487.62
535.039	9881.62
535.81	9356.62
536.58	8838.62
537.351	8336.62
538.121	7927.62
538.891	7514.62
539.661	7078.62
540.431	6687.62
541.201	6374.62
541.971	6047.62
542.741	5714.62
543.51	5398.62
544.28	5160.62
545.05	4934.62
545.819	4694.62
546.588	4444.62
547.358	4247.62
548.127	4032.62
548.896	3810.62
549.665	3588.62
550.434	3426.62
551.203	3239.62
551.972	3064.62
552.741	2910.62
553.51	2726.62
554.278	2585.62
555.047	2422.62
555.815	2296.62
556.584	2171.62
557.352	2034.62
558.121	1945.62
558.889	1841.62
559.657	1735.62
560.425	1640.62
561.193	1544.62
561.961	1468.62
562.729	1384.62
563.496	1324.62
564.264	1231.62
565.032	1171.62
565.799	1105.62
566.567	1050.62
567.334	1001.62
568.101	936.62
568.869	882.62
569.636	830.62
570.403	790.62
571.17	746.62
571.937	701.62
572.704	664.62
573.471	637.62
574.237	589.62
575.004	556.62
575.771	526.62
576.537	494.62
577.303	458.62
578.07	439.62
578.836	412.62
579.602	392.62
580.368	377.62
581.134	353.62
581.9	329.62
582.666	330.62
583.432	308.62
584.198	288.62
584.964	276.62
585.729	259.62
586.495	248.62
587.26	236.62
588.025	228.62
588.791	210.62
589.556	197.62
590.321	192.62
591.086	183.62
591.851	175.62
592.616	166.62
593.381	151.62
594.146	143.62
594.911	143.62
595.675	137.62
596.44	131.62
597.204	125.62
597.969	119.62
598.733	113.62
599.497	104.62
600.261	102.62
601.025	101.62
601.79	96.62
602.553	93.62
603.317	88.62
604.081	87.62
604.845	78.62
605.609	80.62
606.372	78.62
607.136	74.62
607.899	65.62
608.662	70.62
609.426	65.62
610.189	59.62
610.952	62.62
611.715	57.62
612.478	56.62
613.241	52.62
614.004	53.62
614.767	49.62
615.529	48.62
616.292	42.62
617.055	45.62
617.817	42.62
618.579	43.62
619.342	38.62
620.104	36.62
620.866	39.62
621.628	37.62
622.39	38.62
623.152	34.62
623.914	36.62
624.676	33.62
625.438	32.62
626.199	30.62
626.961	28.62
627.722	30.62
628.484	26.62
629.245	30.62
630.006	27.62
630.768	24.62
631.529	26.62
632.29	23.62
633.051	23.62
633.812	22.62
634.573	20.62
635.333	20.62
636.094	24.62
636.855	21.62
637.615	19.62
638.376	17.62
639.136	19.62
639.896	17.62
640.657	19.62
641.417	17.62
642.177	17.62
642.937	17.62
643.697	15.62
644.457	14.62
645.216	12.62
645.976	16.62
646.736	13.62
647.495	17.62
648.255	16.62
649.014	13.62
649.774	15.62
650.533	12.62
651.292	11.62
652.051	12.62
652.81	15.62
653.569	11.62
654.328	12.62
655.087	10.62
655.846	10.62
656.604	10.62
657.363	11.62
658.121	10.62
658.88	13.62
659.638	11.62
660.397	10.62
661.155	8.62
661.913	11.62
662.671	10.62
663.429	12.62
664.187	9.62
664.945	8.62
665.703	9.62
666.46	11.62
667.218	9.62
667.976	8.62
668.733	11.62
669.49	10.62
670.248	9.62
671.005	9.62
671.762	6.62
672.519	7.62
673.276	9.62
674.033	7.62
674.79	9.62
675.547	8.62
676.304	8.62
677.06	7.62
677.817	5.62
678.574	7.62
679.33	6.62
680.086	7.62
680.843	7.62
681.599	5.62
682.355	8.62
683.111	6.62
683.867	7.62
684.623	6.62
685.379	6.62
686.135	9.62
686.89	8.62
687.646	5.62
688.402	8.62
689.157	5.62
689.912	5.62
690.668	6.62
691.423	6.62
692.178	6.62
692.933	9.62
693.688	6.62
694.443	5.62
695.198	6.62
695.953	7.62
696.708	8.62
697.462	7.62
698.217	5.62
698.972	5.62
699.726	9.62
700.48	7.62
701.235	6.62
701.989	5.62
702.743	6.62
703.497	7.62
704.251	7.62
705.005	6.62
705.759	7.62
706.513	6.62
707.266	8.62
708.02	5.62
708.774	9.62
709.527	5.62
710.28	6.62
711.034	8.62
711.787	6.62
712.54	6.62
713.293	8.62
714.046	5.62
714.799	10.62
715.552	7.62
716.305	6.62
717.058	8.62
717.81	6.62
718.563	4.62
719.315	9.62
720.068	5.62
720.82	7.62
721.573	7.62
722.325	9.62
723.077	9.62
723.829	7.62
724.581	7.62
725.333	7.62
726.085	8.62
726.836	10.62
727.588	8.62
728.34	7.62
729.091	7.62
729.843	8.62
730.594	10.62
731.346	7.62
732.097	8.62
732.848	7.62
733.599	10.62
734.35	8.62
735.101	10.62
735.852	9.62
736.603	7.62
737.354	9.62
738.104	9.62
738.855	9.62
739.605	10.62
740.356	10.62
741.106	10.62
741.856	9.62
742.607	10.62
743.357	13.62
744.107	8.62
744.857	10.62
745.607	10.62
746.357	12.62
747.106	10.62
747.856	10.62
748.606	10.62
749.355	10.62
750.105	9.62
750.854	10.62
751.603	11.62
752.353	10.62
753.102	11.62
753.851	14.62
754.6	12.62
755.349	10.62
756.098	12.62
756.847	14.62
757.595	11.62
758.344	12.62
759.093	14.62
759.841	11.62
760.589	10.62
761.338	12.62
762.086	14.62
762.834	12.62
763.582	13.62
764.331	15.62
765.079	14.62
765.826	12.62
766.574	12.62
767.322	13.62
768.07	16.62
768.817	15.62
769.565	13.62
770.312	14.62
771.06	16.62
771.807	18.62
772.554	12.62
773.302	14.62
774.049	15.62
774.796	19.62
775.543	14.62
776.29	15.62
777.036	16.62
777.783	14.62
778.53	19.62
779.276	16.62
780.023	16.62
780.769	14.62
781.516	14.62
782.262	17.62
783.008	18.62
783.754	17.62
784.5	15.62
785.246	16.62
785.992	15.62
786.738	14.62
787.484	14.62
788.23	14.62
788.975	15.62
789.721	17.62
790.466	13.62
791.212	16.62
791.957	15.62
792.702	18.62
793.447	13.62
794.193	15.62
794.938	15.62
795.683	13.62
796.427	13.62
797.172	15.62
797.917	12.62
798.662	14.62
799.406	13.62
800.151	14.62
800.895	11.62
801.64	14.62
802.384	11.62
803.128	14.62
803.872	10.62
804.616	9.62
805.36	12.62
806.104	10.62
806.848	10.62
807.592	10.62
808.336	11.62
809.079	8.62
809.823	8.62
810.566	7.62
811.31	6.62
812.053	10.62
812.796	8.62
813.539	6.62
814.283	8.62
815.026	5.62
815.769	7.62
816.511	9.62
817.254	8.62
817.997	6.62
818.74	7.62
819.482	9.62
820.225	5.62
820.967	7.62
821.71	7.62
822.452	7.62
823.194	4.62
823.936	7.62
824.678	6.62
825.42	5.62
826.162	6.62
826.904	6.62
827.646	8.62
828.388	4.62
829.129	5.62
829.871	5.62
830.612	4.62
831.354	4.62
832.095	7.62
832.836	6.62
833.577	3.62
834.319	4.62
835.06	4.62
835.801	3.62
836.542	4.62
837.282	5.62
838.023	3.62
838.764	5.62
839.504	4.62
840.245	4.62
840.985	5.62
841.726	5.62
842.466	3.62
843.206	3.62
843.946	5.62
844.687	3.62
845.427	4.62
846.166	3.62
846.906	1.62
847.646	5.62
848.386	4.62
849.125	5.62
849.865	3.62
850.605	2.62
851.344	3.62
852.083	3.62
852.823	4.62
853.562	2.62
854.301	3.62
855.04	4.62
855.779	3.62
856.518	4.62
857.257	2.62
857.995	2.62
858.734	2.62
859.473	2.62
860.211	2.62
860.95	3.62
861.688	1.62
862.426	2.62
863.165	2.62
863.903	3.62
864.641	3.62
865.379	2.62
866.117	1.62
866.855	4.62
867.593	1.62
868.33	2.62
869.068	3.62
869.806	0.62
870.543	1.62
871.28	-1.38
872.018	0.62
872.755	2.62
873.492	1.62
874.229	2.62
874.967	0.62
875.703	2.62
876.44	0.62
877.177	1.62
877.914	-0.38
878.651	1.62
879.387	0.62
880.124	-0.38
880.86	1.62
881.597	-0.38
882.333	2.62
883.069	3.62
883.806	1.62
884.542	1.62
885.278	-0.38
886.014	-0.38
886.749	1.62
887.485	0.62
888.221	1.62
888.957	0.62
889.692	2.62
890.428	-0.38
891.163	-0.38
891.899	0.62
892.634	2.62
893.369	-0.38
894.104	2.62
894.839	3.62
895.574	0.62
896.309	-1.38
897.044	1.62
897.779	0.62
898.514	1.62
899.248	-1.38
899.983	-1.38
900.717	-0.38
901.452	1.62
902.186	0.62
902.92	-2.38
903.654	0.62
904.389	0.62
905.123	0.62
905.857	-0.38
906.59	0.62
907.324	1.62
908.058	-1.38
908.792	-0.38
909.525	1.62
910.259	2.62
910.992	-1.38
911.726	-1.38
912.459	-0.38
913.192	-0.38
913.925	-0.38
914.658	-1.38
915.391	-1.38
916.124	0.62
916.857	-0.38
917.59	1.62
918.323	2.62
919.055	-1.38
919.788	0.62
920.521	-1.38
921.253	1.62
921.985	-1.38
922.718	1.62
923.45	-0.38
924.182	-0.38
924.914	1.62
925.646	-1.38
926.378	1.62
927.11	-2.38
927.841	-3.38
928.573	1.62
929.305	-1.38
930.036	0.62
930.768	-0.38
931.499	-0.38
932.23	-2.38
932.962	-0.38
933.693	1.62
934.424	0.62
935.155	-1.38
935.886	1.62
936.617	0.62
937.348	-0.38
938.078	0.62
938.809	0.62
939.54	-1.38
940.27	-0.38
941.001	0.62
941.731	-0.38
942.461	-1.38
943.191	-0.38
943.922	-0.38
944.652	-0.38
945.382	-0.38
946.112	-0.38
946.841	-1.38
947.571	-1.38
948.301	-1.38
949.031	2.62
949.76	-1.38
950.49	-2.38
951.219	0.62
951.948	1.62
952.678	-0.38
953.407	1.62
954.136	1.62
954.865	-1.38
955.594	1.62
956.323	-1.38
957.052	-4.38
957.78	0.62
958.509	-1.38
959.238	-1.38
959.966	-2.38
960.695	-0.38
961.423	-0.38
962.151	-0.38
962.88	0.62
963.608	2.62
964.336	-0.38
965.064	-0.38
965.792	-1.38
966.52	1.62
967.247	-1.38
967.975	0.62
968.703	1.62
969.43	-1.38
970.158	3.62
970.885	0.62
971.613	-0.38
972.34	-0.38
973.067	-1.38
973.794	-1.38
974.521	-0.38
975.248	-1.38
975.975	-1.38
976.702	-0.38
977.429	1.62
978.156	-0.38
978.882	-0.38
979.609	0.62
980.335	0.62
981.062	-0.38
981.788	0.62
982.514	-0.38
983.24	-1.38
983.967	0.62
984.693	-0.38
985.419	0.62
986.144	-1.38
986.87	-1.38
987.596	0.62
988.322	0.62
989.047	0.62
989.773	0.62
990.498	1.62
991.224	-0.38
991.949	-0.38
992.674	1.62
993.399	-0.38
994.124	-0.38
994.849	-0.38
995.574	2.62
996.299	-1.38
997.024	2.62
997.749	0.62
998.473	-0.38
999.198	-1.38
999.922	-1.38
1000.647	0.62
1001.371	4.62
1002.095	0.62
1002.82	0.62
1003.544	-0.38
1004.268	5.62
1004.992	2.62
1005.716	4.62
1006.439	5.62
1007.163	4.62
1007.887	6.62
1008.611	0.62
1009.334	-1.38
1010.058	0.62
1010.781	0.62
1011.504	-1.38
1012.228	0.62
1012.951	-2.38
1013.674	-1.38
1014.397	-1.38
1015.12	-0.38
