节点500_705_QEPB04081__431__20-52-02-710.txt的数据

Date: Wed Nov 12 20:52:02 CST 2025
User: PC
Spectrometer: QEPB0408
触发模式: 0
积分时间 (秒): 1.000000E-2
Scans to average: 1
启用暗噪声校正: true
启用非线性校正: false
滑动平均宽度: 0
X轴模式: Wavelengths
Number of Pixels in Spectrum: 1044
>>>>>Begin Spectral Data<<<<<
220.843	5.75
221.644	6.75
222.444	3.75
223.244	6.75
224.045	5.75
224.845	6.75
225.645	5.75
226.445	8.75
227.245	8.75
228.045	8.75
228.845	8.75
229.645	6.75
230.444	9.75
231.244	5.75
232.043	9.75
232.843	10.75
233.642	9.75
234.442	7.75
235.241	7.75
236.04	11.75
236.839	8.75
237.638	9.75
238.437	8.75
239.236	9.75
240.035	12.75
240.833	11.75
241.632	12.75
242.43	8.75
243.229	12.75
244.027	10.75
244.826	11.75
245.624	9.75
246.422	13.75
247.22	13.75
248.018	14.75
248.816	13.75
249.614	15.75
250.412	17.75
251.21	15.75
252.007	15.75
252.805	14.75
253.602	16.75
254.4	18.75
255.197	18.75
255.994	21.75
256.791	18.75
257.589	17.75
258.386	18.75
259.183	21.75
259.979	18.75
260.776	22.75
261.573	21.75
262.37	24.75
263.166	24.75
263.963	24.75
264.759	25.75
265.556	25.75
266.352	24.75
267.148	26.75
267.944	26.75
268.74	25.75
269.536	28.75
270.332	30.75
271.128	28.75
271.924	32.75
272.719	27.75
273.515	32.75
274.311	29.75
275.106	29.75
275.901	33.75
276.697	32.75
277.492	32.75
278.287	33.75
279.082	33.75
279.877	33.75
280.672	34.75
281.467	35.75
282.262	32.75
283.056	33.75
283.851	34.75
284.646	34.75
285.44	31.75
286.234	34.75
287.029	31.75
287.823	30.75
288.617	31.75
289.411	32.75
290.205	32.75
290.999	30.75
291.793	30.75
292.587	32.75
293.381	28.75
294.174	29.75
294.968	27.75
295.761	27.75
296.555	29.75
297.348	24.75
298.141	23.75
298.935	28.75
299.728	28.75
300.521	23.75
301.314	24.75
302.107	23.75
302.899	23.75
303.692	23.75
304.485	19.75
305.277	21.75
306.07	21.75
306.862	24.75
307.655	21.75
308.447	20.75
309.239	20.75
310.031	18.75
310.823	21.75
311.615	19.75
312.407	17.75
313.199	16.75
313.991	19.75
314.783	16.75
315.574	17.75
316.366	18.75
317.157	15.75
317.949	15.75
318.74	15.75
319.531	14.75
320.322	13.75
321.113	12.75
321.904	13.75
322.695	11.75
323.486	14.75
324.277	15.75
325.068	13.75
325.858	14.75
326.649	11.75
327.439	12.75
328.23	13.75
329.02	12.75
329.81	10.75
330.6	10.75
331.391	12.75
332.181	10.75
332.971	11.75
333.76	9.75
334.55	12.75
335.34	12.75
336.13	9.75
336.919	13.75
337.709	13.75
338.498	10.75
339.287	10.75
340.077	12.75
340.866	9.75
341.655	11.75
342.444	10.75
343.233	9.75
344.022	12.75
344.811	11.75
345.6	10.75
346.388	12.75
347.177	10.75
347.965	13.75
348.754	8.75
349.542	10.75
350.33	10.75
351.119	9.75
351.907	12.75
352.695	11.75
353.483	10.75
354.271	10.75
355.059	11.75
355.846	10.75
356.634	9.75
357.422	10.75
358.209	8.75
358.997	10.75
359.784	9.75
360.571	10.75
361.359	8.75
362.146	10.75
362.933	10.75
363.72	10.75
364.507	12.75
365.294	10.75
366.081	8.75
366.867	9.75
367.654	8.75
368.44	8.75
369.227	9.75
370.013	9.75
370.8	10.75
371.586	6.75
372.372	8.75
373.158	10.75
373.944	7.75
374.73	9.75
375.516	7.75
376.302	7.75
377.088	10.75
377.873	9.75
378.659	6.75
379.445	8.75
380.23	11.75
381.015	10.75
381.801	10.75
382.586	8.75
383.371	9.75
384.156	11.75
384.941	8.75
385.726	11.75
386.511	9.75
387.296	11.75
388.08	9.75
388.865	10.75
389.649	9.75
390.434	12.75
391.218	10.75
392.003	9.75
392.787	10.75
393.571	14.75
394.355	12.75
395.139	13.75
395.923	13.75
396.707	14.75
397.491	12.75
398.274	13.75
399.058	14.75
399.842	14.75
400.625	15.75
401.408	13.75
402.192	12.75
402.975	16.75
403.758	16.75
404.541	14.75
405.324	13.75
406.107	14.75
406.89	9.75
407.673	16.75
408.456	14.75
409.238	16.75
410.021	14.75
410.803	14.75
411.586	18.75
412.368	16.75
413.151	14.75
413.933	17.75
414.715	15.75
415.497	19.75
416.279	16.75
417.061	18.75
417.843	18.75
418.624	19.75
419.406	21.75
420.188	18.75
420.969	19.75
421.751	19.75
422.532	22.75
423.313	22.75
424.095	23.75
424.876	25.75
425.657	24.75
426.438	26.75
427.219	25.75
428	28.75
428.78	26.75
429.561	28.75
430.342	28.75
431.122	28.75
431.903	33.75
432.683	34.75
433.464	34.75
434.244	39.75
435.024	41.75
435.804	42.75
436.584	43.75
437.364	48.75
438.144	49.75
438.924	50.75
439.704	54.75
440.483	56.75
441.263	60.75
442.042	66.75
442.822	69.75
443.601	73.75
444.38	79.75
445.16	89.75
445.939	98.75
446.718	105.75
447.497	114.75
448.276	124.75
449.054	140.75
449.833	150.75
450.612	157.75
451.391	177.75
452.169	204.75
452.948	225.75
453.726	247.75
454.504	283.75
455.282	303.75
456.061	340.75
456.839	378.75
457.617	422.75
458.395	466.75
459.172	519.75
459.95	590.75
460.728	661.75
461.506	727.75
462.283	807.75
463.061	890.75
463.838	1015.75
464.615	1109.75
465.393	1227.75
466.17	1374.75
466.947	1512.75
467.724	1685.75
468.501	1846.75
469.278	2063.75
470.055	2269.75
470.831	2504.75
471.608	2782.75
472.385	3051.75
473.161	3352.75
473.938	3677.75
474.714	4020.75
475.49	4424.75
476.266	4817.75
477.043	5266.75
477.819	5757.75
478.595	6234.75
479.371	6800.75
480.146	7440.75
480.922	8108.75
481.698	8783.75
482.473	9553.75
483.249	10361.75
484.024	11232.75
484.8	12180.75
485.575	13143.75
486.35	14238.75
487.126	15402.75
487.901	16594.75
488.676	17882.75
489.451	19292.75
490.225	20685.75
491	22209.75
491.775	23673.75
492.55	25319.75
493.324	26898.75
494.099	28539.75
494.873	30359.75
495.647	31964.75
496.422	33813.75
497.196	35434.75
497.97	37115.75
498.744	38630.75
499.518	40226.75
500.292	41504.75
501.066	42560.75
501.839	43570.75
502.613	44363.75
503.387	45152.75
504.16	45622.75
504.934	45728.75
505.707	45912.75
506.48	45721.75
507.253	45274.75
508.027	44824.75
508.8	43991.75
509.573	43098.75
510.346	42183.75
511.118	41224.75
511.891	40112.75
512.664	38626.75
513.437	37268.75
514.209	35893.75
514.982	34541.75
515.754	33202.75
516.526	31940.75
517.298	30647.75
518.071	29509.75
518.843	28356.75
519.615	27165.75
520.387	26090.75
521.159	25024.75
521.93	24056.75
522.702	23066.75
523.474	22058.75
524.245	21221.75
525.017	20269.75
525.788	19398.75
526.56	18614.75
527.331	17800.75
528.102	16941.75
528.873	16064.75
529.644	15306.75
530.415	14651.75
531.186	13932.75
531.957	13213.75
532.728	12561.75
533.498	11916.75
534.269	11290.75
535.039	10743.75
535.81	10152.75
536.58	9583.75
537.351	9054.75
538.121	8575.75
538.891	8103.75
539.661	7686.75
540.431	7275.75
541.201	6930.75
541.971	6565.75
542.741	6194.75
543.51	5872.75
544.28	5597.75
545.05	5362.75
545.819	5085.75
546.588	4861.75
547.358	4623.75
548.127	4392.75
548.896	4161.75
549.665	3948.75
550.434	3731.75
551.203	3561.75
551.972	3388.75
552.741	3194.75
553.51	3021.75
554.278	2847.75
555.047	2671.75
555.815	2543.75
556.584	2419.75
557.352	2277.75
558.121	2146.75
558.889	2031.75
559.657	1927.75
560.425	1829.75
561.193	1729.75
561.961	1626.75
562.729	1543.75
563.496	1464.75
564.264	1395.75
565.032	1314.75
565.799	1242.75
566.567	1163.75
567.334	1100.75
568.101	1048.75
568.869	1000.75
569.636	925.75
570.403	881.75
571.17	820.75
571.937	783.75
572.704	729.75
573.471	694.75
574.237	658.75
575.004	612.75
575.771	585.75
576.537	554.75
577.303	521.75
578.07	502.75
578.836	461.75
579.602	442.75
580.368	417.75
581.134	398.75
581.9	377.75
582.666	354.75
583.432	345.75
584.198	321.75
584.964	307.75
585.729	293.75
586.495	282.75
587.26	264.75
588.025	252.75
588.791	233.75
589.556	217.75
590.321	211.75
591.086	198.75
591.851	190.75
592.616	185.75
593.381	170.75
594.146	168.75
594.911	157.75
595.675	147.75
596.44	143.75
597.204	141.75
597.969	134.75
598.733	129.75
599.497	122.75
600.261	112.75
601.025	108.75
601.79	106.75
602.553	97.75
603.317	92.75
604.081	94.75
604.845	86.75
605.609	83.75
606.372	86.75
607.136	82.75
607.899	77.75
608.662	74.75
609.426	69.75
610.189	66.75
610.952	66.75
611.715	58.75
612.478	60.75
613.241	56.75
614.004	57.75
614.767	53.75
615.529	48.75
616.292	50.75
617.055	52.75
617.817	46.75
618.579	45.75
619.342	44.75
620.104	40.75
620.866	40.75
621.628	39.75
622.39	41.75
623.152	36.75
623.914	34.75
624.676	33.75
625.438	33.75
626.199	33.75
626.961	32.75
627.722	28.75
628.484	28.75
629.245	28.75
630.006	30.75
630.768	26.75
631.529	26.75
632.29	24.75
633.051	28.75
633.812	26.75
634.573	24.75
635.333	24.75
636.094	22.75
636.855	21.75
637.615	22.75
638.376	20.75
639.136	22.75
639.896	18.75
640.657	20.75
641.417	17.75
642.177	17.75
642.937	20.75
643.697	18.75
644.457	16.75
645.216	18.75
645.976	17.75
646.736	18.75
647.495	12.75
648.255	16.75
649.014	14.75
649.774	13.75
650.533	15.75
651.292	11.75
652.051	12.75
652.81	14.75
653.569	10.75
654.328	13.75
655.087	12.75
655.846	10.75
656.604	12.75
657.363	11.75
658.121	10.75
658.88	9.75
659.638	12.75
660.397	11.75
661.155	12.75
661.913	11.75
662.671	10.75
663.429	12.75
664.187	11.75
664.945	10.75
665.703	11.75
666.46	6.75
667.218	10.75
667.976	8.75
668.733	8.75
669.49	8.75
670.248	7.75
671.005	10.75
671.762	8.75
672.519	6.75
673.276	7.75
674.033	6.75
674.79	8.75
675.547	7.75
676.304	7.75
677.06	10.75
677.817	8.75
678.574	6.75
679.33	8.75
680.086	9.75
680.843	8.75
681.599	7.75
682.355	8.75
683.111	10.75
683.867	7.75
684.623	9.75
685.379	8.75
686.135	10.75
686.89	7.75
687.646	9.75
688.402	7.75
689.157	10.75
689.912	8.75
690.668	5.75
691.423	5.75
692.178	8.75
692.933	7.75
693.688	8.75
694.443	5.75
695.198	6.75
695.953	8.75
696.708	5.75
697.462	8.75
698.217	5.75
698.972	7.75
699.726	9.75
700.48	5.75
701.235	4.75
701.989	6.75
702.743	7.75
703.497	5.75
704.251	9.75
705.005	5.75
705.759	7.75
706.513	6.75
707.266	7.75
708.02	7.75
708.774	9.75
709.527	8.75
710.28	7.75
711.034	6.75
711.787	5.75
712.54	5.75
713.293	10.75
714.046	5.75
714.799	6.75
715.552	7.75
716.305	9.75
717.058	6.75
717.81	5.75
718.563	9.75
719.315	7.75
720.068	8.75
720.82	9.75
721.573	7.75
722.325	6.75
723.077	5.75
723.829	9.75
724.581	8.75
725.333	9.75
726.085	8.75
726.836	8.75
727.588	8.75
728.34	8.75
729.091	10.75
729.843	8.75
730.594	6.75
731.346	8.75
732.097	7.75
732.848	9.75
733.599	8.75
734.35	9.75
735.101	7.75
735.852	6.75
736.603	10.75
737.354	7.75
738.104	8.75
738.855	10.75
739.605	8.75
740.356	12.75
741.106	6.75
741.856	10.75
742.607	9.75
743.357	10.75
744.107	8.75
744.857	9.75
745.607	9.75
746.357	9.75
747.106	10.75
747.856	9.75
748.606	11.75
749.355	8.75
750.105	9.75
750.854	8.75
751.603	9.75
752.353	10.75
753.102	11.75
753.851	11.75
754.6	7.75
755.349	9.75
756.098	14.75
756.847	12.75
757.595	11.75
758.344	14.75
759.093	9.75
759.841	11.75
760.589	12.75
761.338	14.75
762.086	11.75
762.834	12.75
763.582	12.75
764.331	12.75
765.079	11.75
765.826	14.75
766.574	13.75
767.322	13.75
768.07	15.75
768.817	13.75
769.565	12.75
770.312	11.75
771.06	11.75
771.807	14.75
772.554	14.75
773.302	13.75
774.049	14.75
774.796	13.75
775.543	14.75
776.29	14.75
777.036	14.75
777.783	14.75
778.53	14.75
779.276	15.75
780.023	14.75
780.769	15.75
781.516	14.75
782.262	14.75
783.008	14.75
783.754	13.75
784.5	13.75
785.246	12.75
785.992	14.75
786.738	13.75
787.484	12.75
788.23	16.75
788.975	13.75
789.721	14.75
790.466	14.75
791.212	15.75
791.957	14.75
792.702	11.75
793.447	12.75
794.193	14.75
794.938	12.75
795.683	14.75
796.427	12.75
797.172	12.75
797.917	12.75
798.662	10.75
799.406	9.75
800.151	11.75
800.895	12.75
801.64	10.75
802.384	10.75
803.128	13.75
803.872	12.75
804.616	12.75
805.36	8.75
806.104	11.75
806.848	9.75
807.592	9.75
808.336	11.75
809.079	10.75
809.823	8.75
810.566	8.75
811.31	10.75
812.053	8.75
812.796	8.75
813.539	8.75
814.283	10.75
815.026	9.75
815.769	9.75
816.511	6.75
817.254	6.75
817.997	8.75
818.74	6.75
819.482	6.75
820.225	8.75
820.967	7.75
821.71	7.75
822.452	8.75
823.194	9.75
823.936	4.75
824.678	8.75
825.42	6.75
826.162	6.75
826.904	6.75
827.646	7.75
828.388	5.75
829.129	6.75
829.871	7.75
830.612	6.75
831.354	7.75
832.095	6.75
832.836	7.75
833.577	4.75
834.319	8.75
835.06	4.75
835.801	4.75
836.542	6.75
837.282	4.75
838.023	6.75
838.764	6.75
839.504	5.75
840.245	4.75
840.985	6.75
841.726	6.75
842.466	4.75
843.206	4.75
843.946	6.75
844.687	3.75
845.427	4.75
846.166	4.75
846.906	2.75
847.646	4.75
848.386	7.75
849.125	6.75
849.865	4.75
850.605	6.75
851.344	4.75
852.083	4.75
852.823	1.75
853.562	4.75
854.301	3.75
855.04	3.75
855.779	2.75
856.518	4.75
857.257	2.75
857.995	3.75
858.734	4.75
859.473	5.75
860.211	2.75
860.95	4.75
861.688	3.75
862.426	2.75
863.165	0.75
863.903	2.75
864.641	3.75
865.379	1.75
866.117	3.75
866.855	2.75
867.593	1.75
868.33	4.75
869.068	1.75
869.806	4.75
870.543	0.75
871.28	3.75
872.018	1.75
872.755	1.75
873.492	2.75
874.229	2.75
874.967	2.75
875.703	1.75
876.44	1.75
877.177	3.75
877.914	0.75
878.651	0.75
879.387	0.75
880.124	1.75
880.86	-0.25
881.597	2.75
882.333	1.75
883.069	1.75
883.806	0.75
884.542	2.75
885.278	1.75
886.014	0.75
886.749	0.75
887.485	0.75
888.221	0.75
888.957	4.75
889.692	0.75
890.428	3.75
891.163	0.75
891.899	0.75
892.634	2.75
893.369	0.75
894.104	0.75
894.839	2.75
895.574	-1.25
896.309	0.75
897.044	2.75
897.779	0.75
898.514	-0.25
899.248	1.75
899.983	0.75
900.717	-0.25
901.452	-0.25
902.186	-1.25
902.92	1.75
903.654	1.75
904.389	0.75
905.123	2.75
905.857	0.75
906.59	0.75
907.324	2.75
908.058	1.75
908.792	-0.25
909.525	0.75
910.259	0.75
910.992	0.75
911.726	0.75
912.459	1.75
913.192	-2.25
913.925	2.75
914.658	-1.25
915.391	2.75
916.124	0.75
916.857	0.75
917.59	0.75
918.323	-0.25
919.055	1.75
919.788	-0.25
920.521	0.75
921.253	1.75
921.985	0.75
922.718	1.75
923.45	-1.25
924.182	-0.25
924.914	-1.25
925.646	-1.25
926.378	2.75
927.11	-0.25
927.841	1.75
928.573	2.75
929.305	-0.25
930.036	0.75
930.768	-1.25
931.499	2.75
932.23	-0.25
932.962	-1.25
933.693	0.75
934.424	-0.25
935.155	-0.25
935.886	-1.25
936.617	0.75
937.348	1.75
938.078	-0.25
938.809	-0.25
939.54	-0.25
940.27	0.75
941.001	-1.25
941.731	-1.25
942.461	-1.25
943.191	0.75
943.922	2.75
944.652	0.75
945.382	-1.25
946.112	-2.25
946.841	0.75
947.571	-0.25
948.301	0.75
949.031	0.75
949.76	-1.25
950.49	2.75
951.219	-3.25
951.948	-0.25
952.678	0.75
953.407	1.75
954.136	0.75
954.865	2.75
955.594	0.75
956.323	1.75
957.052	1.75
957.78	1.75
958.509	-2.25
959.238	1.75
959.966	-1.25
960.695	1.75
961.423	0.75
962.151	-1.25
962.88	1.75
963.608	1.75
964.336	0.75
965.064	-1.25
965.792	-0.25
966.52	0.75
967.247	-1.25
967.975	-0.25
968.703	1.75
969.43	-1.25
970.158	0.75
970.885	1.75
971.613	1.75
972.34	-1.25
973.067	-0.25
973.794	-1.25
974.521	3.75
975.248	0.75
975.975	-0.25
976.702	1.75
977.429	0.75
978.156	0.75
978.882	-1.25
979.609	0.75
980.335	0.75
981.062	0.75
981.788	0.75
982.514	-0.25
983.24	0.75
983.967	1.75
984.693	0.75
985.419	-0.25
986.144	0.75
986.87	1.75
987.596	-1.25
988.322	-1.25
989.047	-0.25
989.773	-2.25
990.498	1.75
991.224	-1.25
991.949	0.75
992.674	-0.25
993.399	-0.25
994.124	1.75
994.849	-0.25
995.574	-0.25
996.299	0.75
997.024	1.75
997.749	-0.25
998.473	1.75
999.198	-1.25
999.922	0.75
1000.647	-1.25
1001.371	3.75
1002.095	-1.25
1002.82	-2.25
1003.544	-2.25
1004.268	-0.25
1004.992	6.75
1005.716	1.75
1006.439	4.75
1007.163	3.75
1007.887	5.75
1008.611	1.75
1009.334	-0.25
1010.058	-0.25
1010.781	0.75
1011.504	-2.25
1012.228	0.75
1012.951	1.75
1013.674	0.75
1014.397	0.75
1015.12	-1.25
