节点500_705_QEPB04081__415__20-51-48-689.txt的数据

Date: Wed Nov 12 20:51:48 CST 2025
User: PC
Spectrometer: QEPB0408
触发模式: 0
积分时间 (秒): 1.000000E-2
Scans to average: 1
启用暗噪声校正: true
启用非线性校正: false
滑动平均宽度: 0
X轴模式: Wavelengths
Number of Pixels in Spectrum: 1044
>>>>>Begin Spectral Data<<<<<
220.843	5.12
221.644	5.12
222.444	7.12
223.244	5.12
224.045	8.12
224.845	7.12
225.645	7.12
226.445	6.12
227.245	6.12
228.045	8.12
228.845	8.12
229.645	7.12
230.444	7.12
231.244	9.12
232.043	6.12
232.843	10.12
233.642	10.12
234.442	9.12
235.241	11.12
236.04	10.12
236.839	9.12
237.638	8.12
238.437	11.12
239.236	11.12
240.035	12.12
240.833	10.12
241.632	11.12
242.43	14.12
243.229	13.12
244.027	13.12
244.826	15.12
245.624	14.12
246.422	13.12
247.22	13.12
248.018	18.12
248.816	14.12
249.614	13.12
250.412	15.12
251.21	15.12
252.007	19.12
252.805	17.12
253.602	15.12
254.4	15.12
255.197	16.12
255.994	19.12
256.791	19.12
257.589	21.12
258.386	22.12
259.183	21.12
259.979	21.12
260.776	22.12
261.573	26.12
262.37	26.12
263.166	25.12
263.963	23.12
264.759	24.12
265.556	26.12
266.352	27.12
267.148	29.12
267.944	30.12
268.74	27.12
269.536	26.12
270.332	29.12
271.128	31.12
271.924	29.12
272.719	29.12
273.515	31.12
274.311	34.12
275.106	30.12
275.901	31.12
276.697	33.12
277.492	32.12
278.287	34.12
279.082	32.12
279.877	31.12
280.672	35.12
281.467	35.12
282.262	31.12
283.056	34.12
283.851	35.12
284.646	34.12
285.44	35.12
286.234	35.12
287.029	34.12
287.823	33.12
288.617	33.12
289.411	31.12
290.205	31.12
290.999	32.12
291.793	31.12
292.587	29.12
293.381	32.12
294.174	29.12
294.968	29.12
295.761	29.12
296.555	25.12
297.348	29.12
298.141	29.12
298.935	29.12
299.728	27.12
300.521	27.12
301.314	25.12
302.107	23.12
302.899	24.12
303.692	22.12
304.485	23.12
305.277	22.12
306.07	21.12
306.862	20.12
307.655	21.12
308.447	20.12
309.239	21.12
310.031	19.12
310.823	18.12
311.615	19.12
312.407	16.12
313.199	19.12
313.991	17.12
314.783	17.12
315.574	14.12
316.366	18.12
317.157	17.12
317.949	12.12
318.74	17.12
319.531	17.12
320.322	15.12
321.113	15.12
321.904	14.12
322.695	10.12
323.486	15.12
324.277	14.12
325.068	13.12
325.858	15.12
326.649	14.12
327.439	11.12
328.23	13.12
329.02	12.12
329.81	13.12
330.6	13.12
331.391	11.12
332.181	12.12
332.971	12.12
333.76	13.12
334.55	14.12
335.34	14.12
336.13	12.12
336.919	10.12
337.709	13.12
338.498	11.12
339.287	14.12
340.077	11.12
340.866	13.12
341.655	11.12
342.444	11.12
343.233	13.12
344.022	11.12
344.811	11.12
345.6	12.12
346.388	10.12
347.177	13.12
347.965	11.12
348.754	11.12
349.542	12.12
350.33	11.12
351.119	9.12
351.907	11.12
352.695	11.12
353.483	8.12
354.271	11.12
355.059	12.12
355.846	10.12
356.634	10.12
357.422	12.12
358.209	10.12
358.997	9.12
359.784	10.12
360.571	10.12
361.359	7.12
362.146	9.12
362.933	10.12
363.72	8.12
364.507	10.12
365.294	10.12
366.081	8.12
366.867	7.12
367.654	11.12
368.44	8.12
369.227	10.12
370.013	10.12
370.8	9.12
371.586	9.12
372.372	11.12
373.158	11.12
373.944	9.12
374.73	8.12
375.516	8.12
376.302	8.12
377.088	10.12
377.873	10.12
378.659	9.12
379.445	9.12
380.23	11.12
381.015	8.12
381.801	8.12
382.586	11.12
383.371	10.12
384.156	10.12
384.941	11.12
385.726	10.12
386.511	15.12
387.296	10.12
388.08	11.12
388.865	14.12
389.649	10.12
390.434	11.12
391.218	11.12
392.003	13.12
392.787	10.12
393.571	14.12
394.355	12.12
395.139	12.12
395.923	13.12
396.707	10.12
397.491	13.12
398.274	14.12
399.058	12.12
399.842	13.12
400.625	12.12
401.408	16.12
402.192	14.12
402.975	15.12
403.758	13.12
404.541	16.12
405.324	13.12
406.107	13.12
406.89	15.12
407.673	16.12
408.456	15.12
409.238	17.12
410.021	15.12
410.803	20.12
411.586	18.12
412.368	17.12
413.151	18.12
413.933	13.12
414.715	18.12
415.497	18.12
416.279	18.12
417.061	20.12
417.843	18.12
418.624	17.12
419.406	21.12
420.188	20.12
420.969	21.12
421.751	20.12
422.532	23.12
423.313	25.12
424.095	22.12
424.876	23.12
425.657	25.12
426.438	25.12
427.219	27.12
428	26.12
428.78	26.12
429.561	28.12
430.342	25.12
431.122	32.12
431.903	32.12
432.683	36.12
433.464	34.12
434.244	37.12
435.024	41.12
435.804	41.12
436.584	46.12
437.364	46.12
438.144	46.12
438.924	50.12
439.704	54.12
440.483	56.12
441.263	63.12
442.042	69.12
442.822	71.12
443.601	78.12
444.38	80.12
445.16	91.12
445.939	96.12
446.718	105.12
447.497	113.12
448.276	126.12
449.054	138.12
449.833	148.12
450.612	165.12
451.391	184.12
452.169	205.12
452.948	222.12
453.726	255.12
454.504	270.12
455.282	308.12
456.061	341.12
456.839	375.12
457.617	417.12
458.395	469.12
459.172	531.12
459.95	582.12
460.728	660.12
461.506	715.12
462.283	803.12
463.061	889.12
463.838	991.12
464.615	1105.12
465.393	1234.12
466.17	1374.12
466.947	1522.12
467.724	1676.12
468.501	1861.12
469.278	2049.12
470.055	2255.12
470.831	2505.12
471.608	2770.12
472.385	3053.12
473.161	3327.12
473.938	3654.12
474.714	4006.12
475.49	4437.12
476.266	4850.12
477.043	5281.12
477.819	5752.12
478.595	6280.12
479.371	6837.12
480.146	7472.12
480.922	8121.12
481.698	8847.12
482.473	9565.12
483.249	10432.12
484.024	11298.12
484.8	12269.12
485.575	13234.12
486.35	14333.12
487.126	15533.12
487.901	16784.12
488.676	18025.12
489.451	19434.12
490.225	20887.12
491	22389.12
491.775	24000.12
492.55	25587.12
493.324	27235.12
494.099	28928.12
494.873	30773.12
495.647	32344.12
496.422	34078.12
497.196	35850.12
497.97	37480.12
498.744	38947.12
499.518	40533.12
500.292	41927.12
501.066	43099.12
501.839	43968.12
502.613	44755.12
503.387	45373.12
504.16	45904.12
504.934	46135.12
505.707	46192.12
506.48	45853.12
507.253	45574.12
508.027	44993.12
508.8	44113.12
509.573	43122.12
510.346	42249.12
511.118	41284.12
511.891	40073.12
512.664	38648.12
513.437	37251.12
514.209	35950.12
514.982	34562.12
515.754	33251.12
516.526	31867.12
517.298	30611.12
518.071	29458.12
518.843	28216.12
519.615	27069.12
520.387	26074.12
521.159	25080.12
521.93	23973.12
522.702	22982.12
523.474	22025.12
524.245	21186.12
525.017	20226.12
525.788	19378.12
526.56	18547.12
527.331	17789.12
528.102	16875.12
528.873	16041.12
529.644	15265.12
530.415	14587.12
531.186	13912.12
531.957	13179.12
532.728	12478.12
533.498	11918.12
534.269	11227.12
535.039	10660.12
535.81	10047.12
536.58	9489.12
537.351	9004.12
538.121	8543.12
538.891	8064.12
539.661	7647.12
540.431	7239.12
541.201	6858.12
541.971	6537.12
542.741	6176.12
543.51	5835.12
544.28	5548.12
545.05	5316.12
545.819	5068.12
546.588	4836.12
547.358	4620.12
548.127	4361.12
548.896	4142.12
549.665	3933.12
550.434	3715.12
551.203	3521.12
551.972	3376.12
552.741	3191.12
553.51	2995.12
554.278	2829.12
555.047	2665.12
555.815	2523.12
556.584	2386.12
557.352	2258.12
558.121	2140.12
558.889	2013.12
559.657	1914.12
560.425	1813.12
561.193	1709.12
561.961	1627.12
562.729	1544.12
563.496	1450.12
564.264	1363.12
565.032	1293.12
565.799	1221.12
566.567	1152.12
567.334	1095.12
568.101	1043.12
568.869	975.12
569.636	915.12
570.403	865.12
571.17	814.12
571.937	776.12
572.704	739.12
573.471	695.12
574.237	650.12
575.004	606.12
575.771	576.12
576.537	543.12
577.303	517.12
578.07	495.12
578.836	461.12
579.602	431.12
580.368	418.12
581.134	400.12
581.9	373.12
582.666	364.12
583.432	337.12
584.198	325.12
584.964	300.12
585.729	284.12
586.495	272.12
587.26	261.12
588.025	243.12
588.791	235.12
589.556	218.12
590.321	214.12
591.086	202.12
591.851	192.12
592.616	185.12
593.381	168.12
594.146	163.12
594.911	161.12
595.675	152.12
596.44	140.12
597.204	138.12
597.969	130.12
598.733	128.12
599.497	117.12
600.261	116.12
601.025	111.12
601.79	102.12
602.553	103.12
603.317	101.12
604.081	95.12
604.845	86.12
605.609	90.12
606.372	79.12
607.136	81.12
607.899	76.12
608.662	76.12
609.426	68.12
610.189	69.12
610.952	66.12
611.715	59.12
612.478	61.12
613.241	56.12
614.004	57.12
614.767	53.12
615.529	54.12
616.292	49.12
617.055	49.12
617.817	47.12
618.579	47.12
619.342	45.12
620.104	45.12
620.866	42.12
621.628	43.12
622.39	40.12
623.152	39.12
623.914	38.12
624.676	35.12
625.438	37.12
626.199	35.12
626.961	34.12
627.722	29.12
628.484	28.12
629.245	31.12
630.006	28.12
630.768	30.12
631.529	27.12
632.29	26.12
633.051	26.12
633.812	25.12
634.573	23.12
635.333	24.12
636.094	27.12
636.855	24.12
637.615	22.12
638.376	22.12
639.136	21.12
639.896	19.12
640.657	20.12
641.417	17.12
642.177	17.12
642.937	18.12
643.697	19.12
644.457	17.12
645.216	19.12
645.976	15.12
646.736	15.12
647.495	16.12
648.255	17.12
649.014	17.12
649.774	17.12
650.533	18.12
651.292	16.12
652.051	13.12
652.81	15.12
653.569	12.12
654.328	13.12
655.087	14.12
655.846	14.12
656.604	14.12
657.363	13.12
658.121	13.12
658.88	12.12
659.638	11.12
660.397	13.12
661.155	11.12
661.913	9.12
662.671	12.12
663.429	13.12
664.187	13.12
664.945	10.12
665.703	10.12
666.46	9.12
667.218	11.12
667.976	8.12
668.733	11.12
669.49	10.12
670.248	11.12
671.005	9.12
671.762	9.12
672.519	9.12
673.276	8.12
674.033	11.12
674.79	10.12
675.547	7.12
676.304	10.12
677.06	7.12
677.817	9.12
678.574	10.12
679.33	6.12
680.086	8.12
680.843	7.12
681.599	7.12
682.355	8.12
683.111	9.12
683.867	7.12
684.623	9.12
685.379	9.12
686.135	9.12
686.89	5.12
687.646	9.12
688.402	9.12
689.157	9.12
689.912	8.12
690.668	6.12
691.423	7.12
692.178	8.12
692.933	4.12
693.688	4.12
694.443	7.12
695.198	7.12
695.953	8.12
696.708	6.12
697.462	9.12
698.217	9.12
698.972	10.12
699.726	8.12
700.48	7.12
701.235	11.12
701.989	6.12
702.743	9.12
703.497	9.12
704.251	6.12
705.005	5.12
705.759	8.12
706.513	5.12
707.266	6.12
708.02	8.12
708.774	9.12
709.527	7.12
710.28	7.12
711.034	7.12
711.787	8.12
712.54	7.12
713.293	8.12
714.046	8.12
714.799	8.12
715.552	8.12
716.305	7.12
717.058	8.12
717.81	8.12
718.563	8.12
719.315	10.12
720.068	9.12
720.82	11.12
721.573	8.12
722.325	7.12
723.077	9.12
723.829	10.12
724.581	7.12
725.333	7.12
726.085	9.12
726.836	6.12
727.588	5.12
728.34	8.12
729.091	7.12
729.843	8.12
730.594	11.12
731.346	6.12
732.097	9.12
732.848	10.12
733.599	12.12
734.35	9.12
735.101	9.12
735.852	9.12
736.603	7.12
737.354	9.12
738.104	8.12
738.855	9.12
739.605	12.12
740.356	12.12
741.106	9.12
741.856	8.12
742.607	9.12
743.357	9.12
744.107	8.12
744.857	9.12
745.607	10.12
746.357	11.12
747.106	10.12
747.856	10.12
748.606	9.12
749.355	10.12
750.105	9.12
750.854	9.12
751.603	10.12
752.353	11.12
753.102	9.12
753.851	8.12
754.6	11.12
755.349	11.12
756.098	13.12
756.847	12.12
757.595	10.12
758.344	13.12
759.093	11.12
759.841	12.12
760.589	12.12
761.338	10.12
762.086	13.12
762.834	13.12
763.582	14.12
764.331	14.12
765.079	12.12
765.826	15.12
766.574	11.12
767.322	15.12
768.07	14.12
768.817	16.12
769.565	13.12
770.312	15.12
771.06	17.12
771.807	17.12
772.554	18.12
773.302	14.12
774.049	16.12
774.796	15.12
775.543	12.12
776.29	15.12
777.036	15.12
777.783	14.12
778.53	13.12
779.276	14.12
780.023	15.12
780.769	14.12
781.516	18.12
782.262	13.12
783.008	15.12
783.754	17.12
784.5	17.12
785.246	18.12
785.992	15.12
786.738	16.12
787.484	15.12
788.23	15.12
788.975	16.12
789.721	13.12
790.466	15.12
791.212	15.12
791.957	15.12
792.702	14.12
793.447	15.12
794.193	14.12
794.938	11.12
795.683	15.12
796.427	15.12
797.172	14.12
797.917	13.12
798.662	11.12
799.406	13.12
800.151	13.12
800.895	11.12
801.64	11.12
802.384	10.12
803.128	13.12
803.872	14.12
804.616	10.12
805.36	12.12
806.104	9.12
806.848	11.12
807.592	10.12
808.336	10.12
809.079	8.12
809.823	8.12
810.566	10.12
811.31	11.12
812.053	10.12
812.796	7.12
813.539	9.12
814.283	9.12
815.026	8.12
815.769	8.12
816.511	7.12
817.254	9.12
817.997	9.12
818.74	11.12
819.482	8.12
820.225	8.12
820.967	9.12
821.71	7.12
822.452	8.12
823.194	6.12
823.936	7.12
824.678	7.12
825.42	7.12
826.162	6.12
826.904	6.12
827.646	7.12
828.388	7.12
829.129	6.12
829.871	8.12
830.612	6.12
831.354	6.12
832.095	6.12
832.836	4.12
833.577	5.12
834.319	6.12
835.06	8.12
835.801	7.12
836.542	7.12
837.282	7.12
838.023	6.12
838.764	6.12
839.504	5.12
840.245	8.12
840.985	4.12
841.726	5.12
842.466	5.12
843.206	4.12
843.946	6.12
844.687	6.12
845.427	5.12
846.166	5.12
846.906	6.12
847.646	4.12
848.386	4.12
849.125	3.12
849.865	3.12
850.605	6.12
851.344	4.12
852.083	5.12
852.823	7.12
853.562	4.12
854.301	3.12
855.04	5.12
855.779	5.12
856.518	4.12
857.257	4.12
857.995	4.12
858.734	2.12
859.473	7.12
860.211	5.12
860.95	4.12
861.688	4.12
862.426	4.12
863.165	4.12
863.903	3.12
864.641	4.12
865.379	3.12
866.117	2.12
866.855	2.12
867.593	3.12
868.33	1.12
869.068	3.12
869.806	2.12
870.543	4.12
871.28	1.12
872.018	4.12
872.755	3.12
873.492	2.12
874.229	2.12
874.967	2.12
875.703	3.12
876.44	1.12
877.177	3.12
877.914	1.12
878.651	1.12
879.387	3.12
880.124	3.12
880.86	0.12
881.597	3.12
882.333	3.12
883.069	1.12
883.806	1.12
884.542	3.12
885.278	2.12
886.014	1.12
886.749	1.12
887.485	1.12
888.221	3.12
888.957	1.12
889.692	-0.88
890.428	1.12
891.163	2.12
891.899	0.12
892.634	0.12
893.369	3.12
894.104	-0.88
894.839	1.12
895.574	1.12
896.309	1.12
897.044	2.12
897.779	0.12
898.514	-0.88
899.248	3.12
899.983	0.12
900.717	1.12
901.452	0.12
902.186	-0.88
902.92	0.12
903.654	2.12
904.389	-0.88
905.123	1.12
905.857	-0.88
906.59	2.12
907.324	2.12
908.058	2.12
908.792	4.12
909.525	0.12
910.259	3.12
910.992	2.12
911.726	-0.88
912.459	0.12
913.192	0.12
913.925	0.12
914.658	0.12
915.391	-0.88
916.124	1.12
916.857	-0.88
917.59	2.12
918.323	-0.88
919.055	1.12
919.788	2.12
920.521	-1.88
921.253	1.12
921.985	1.12
922.718	1.12
923.45	1.12
924.182	-0.88
924.914	3.12
925.646	-0.88
926.378	3.12
927.11	-1.88
927.841	2.12
928.573	-0.88
929.305	1.12
930.036	1.12
930.768	-1.88
931.499	1.12
932.23	1.12
932.962	-0.88
933.693	1.12
934.424	0.12
935.155	1.12
935.886	-1.88
936.617	0.12
937.348	1.12
938.078	0.12
938.809	1.12
939.54	-0.88
940.27	1.12
941.001	2.12
941.731	0.12
942.461	-0.88
943.191	0.12
943.922	2.12
944.652	1.12
945.382	-0.88
946.112	2.12
946.841	2.12
947.571	0.12
948.301	-0.88
949.031	2.12
949.76	0.12
950.49	-0.88
951.219	0.12
951.948	1.12
952.678	-1.88
953.407	-2.88
954.136	1.12
954.865	2.12
955.594	-1.88
956.323	2.12
957.052	1.12
957.78	1.12
958.509	-0.88
959.238	0.12
959.966	0.12
960.695	0.12
961.423	1.12
962.151	-0.88
962.88	3.12
963.608	0.12
964.336	0.12
965.064	-0.88
965.792	1.12
966.52	1.12
967.247	-2.88
967.975	2.12
968.703	1.12
969.43	-0.88
970.158	-0.88
970.885	-0.88
971.613	0.12
972.34	1.12
973.067	1.12
973.794	0.12
974.521	1.12
975.248	1.12
975.975	0.12
976.702	1.12
977.429	0.12
978.156	-0.88
978.882	-0.88
979.609	-0.88
980.335	-0.88
981.062	1.12
981.788	3.12
982.514	0.12
983.24	1.12
983.967	0.12
984.693	-1.88
985.419	0.12
986.144	2.12
986.87	1.12
987.596	-1.88
988.322	-0.88
989.047	0.12
989.773	1.12
990.498	1.12
991.224	1.12
991.949	1.12
992.674	1.12
993.399	-0.88
994.124	1.12
994.849	2.12
995.574	-0.88
996.299	0.12
997.024	1.12
997.749	1.12
998.473	1.12
999.198	0.12
999.922	-0.88
1000.647	1.12
1001.371	3.12
1002.095	-0.88
1002.82	1.12
1003.544	-2.88
1004.268	3.12
1004.992	4.12
1005.716	6.12
1006.439	3.12
1007.163	4.12
1007.887	6.12
1008.611	0.12
1009.334	-1.88
1010.058	0.12
1010.781	2.12
1011.504	0.12
1012.228	5.12
1012.951	0.12
1013.674	1.12
1014.397	-1.88
1015.12	0.12
