节点500_705_QEPB04081__471__20-52-34-784.txt的数据

Date: Wed Nov 12 20:52:34 CST 2025
User: PC
Spectrometer: QEPB0408
触发模式: 0
积分时间 (秒): 1.000000E-2
Scans to average: 1
启用暗噪声校正: true
启用非线性校正: false
滑动平均宽度: 0
X轴模式: Wavelengths
Number of Pixels in Spectrum: 1044
>>>>>Begin Spectral Data<<<<<
220.843	4.88
221.644	3.88
222.444	4.88
223.244	5.88
224.045	7.88
224.845	7.88
225.645	5.88
226.445	3.88
227.245	7.88
228.045	6.88
228.845	7.88
229.645	7.88
230.444	8.88
231.244	7.88
232.043	8.88
232.843	7.88
233.642	9.88
234.442	9.88
235.241	9.88
236.04	8.88
236.839	7.88
237.638	9.88
238.437	8.88
239.236	8.88
240.035	9.88
240.833	10.88
241.632	10.88
242.43	11.88
243.229	13.88
244.027	10.88
244.826	12.88
245.624	12.88
246.422	13.88
247.22	12.88
248.018	13.88
248.816	16.88
249.614	15.88
250.412	14.88
251.21	14.88
252.007	17.88
252.805	15.88
253.602	15.88
254.4	17.88
255.197	17.88
255.994	16.88
256.791	20.88
257.589	17.88
258.386	16.88
259.183	22.88
259.979	22.88
260.776	22.88
261.573	21.88
262.37	20.88
263.166	24.88
263.963	22.88
264.759	22.88
265.556	23.88
266.352	24.88
267.148	25.88
267.944	23.88
268.74	23.88
269.536	28.88
270.332	26.88
271.128	27.88
271.924	28.88
272.719	29.88
273.515	29.88
274.311	29.88
275.106	31.88
275.901	32.88
276.697	31.88
277.492	32.88
278.287	32.88
279.082	30.88
279.877	32.88
280.672	30.88
281.467	33.88
282.262	30.88
283.056	32.88
283.851	34.88
284.646	30.88
285.44	29.88
286.234	31.88
287.029	32.88
287.823	33.88
288.617	33.88
289.411	28.88
290.205	32.88
290.999	31.88
291.793	30.88
292.587	31.88
293.381	30.88
294.174	28.88
294.968	30.88
295.761	25.88
296.555	25.88
297.348	24.88
298.141	26.88
298.935	25.88
299.728	26.88
300.521	28.88
301.314	22.88
302.107	23.88
302.899	24.88
303.692	22.88
304.485	23.88
305.277	21.88
306.07	22.88
306.862	21.88
307.655	21.88
308.447	19.88
309.239	20.88
310.031	22.88
310.823	20.88
311.615	16.88
312.407	14.88
313.199	16.88
313.991	17.88
314.783	16.88
315.574	17.88
316.366	16.88
317.157	17.88
317.949	14.88
318.74	14.88
319.531	14.88
320.322	13.88
321.113	13.88
321.904	14.88
322.695	11.88
323.486	11.88
324.277	12.88
325.068	13.88
325.858	14.88
326.649	13.88
327.439	11.88
328.23	12.88
329.02	14.88
329.81	12.88
330.6	11.88
331.391	12.88
332.181	11.88
332.971	10.88
333.76	13.88
334.55	9.88
335.34	13.88
336.13	10.88
336.919	10.88
337.709	11.88
338.498	10.88
339.287	9.88
340.077	11.88
340.866	11.88
341.655	9.88
342.444	9.88
343.233	10.88
344.022	11.88
344.811	10.88
345.6	10.88
346.388	9.88
347.177	10.88
347.965	9.88
348.754	11.88
349.542	10.88
350.33	10.88
351.119	10.88
351.907	12.88
352.695	10.88
353.483	10.88
354.271	9.88
355.059	12.88
355.846	10.88
356.634	11.88
357.422	10.88
358.209	10.88
358.997	8.88
359.784	8.88
360.571	11.88
361.359	7.88
362.146	10.88
362.933	8.88
363.72	11.88
364.507	6.88
365.294	8.88
366.081	10.88
366.867	6.88
367.654	8.88
368.44	8.88
369.227	9.88
370.013	10.88
370.8	6.88
371.586	10.88
372.372	9.88
373.158	8.88
373.944	9.88
374.73	7.88
375.516	7.88
376.302	7.88
377.088	7.88
377.873	7.88
378.659	10.88
379.445	9.88
380.23	9.88
381.015	8.88
381.801	10.88
382.586	9.88
383.371	8.88
384.156	8.88
384.941	8.88
385.726	10.88
386.511	9.88
387.296	9.88
388.08	11.88
388.865	14.88
389.649	10.88
390.434	8.88
391.218	12.88
392.003	12.88
392.787	9.88
393.571	11.88
394.355	10.88
395.139	11.88
395.923	10.88
396.707	12.88
397.491	14.88
398.274	12.88
399.058	13.88
399.842	15.88
400.625	12.88
401.408	12.88
402.192	14.88
402.975	13.88
403.758	12.88
404.541	12.88
405.324	14.88
406.107	12.88
406.89	14.88
407.673	15.88
408.456	15.88
409.238	14.88
410.021	17.88
410.803	16.88
411.586	14.88
412.368	17.88
413.151	16.88
413.933	17.88
414.715	20.88
415.497	17.88
416.279	19.88
417.061	17.88
417.843	17.88
418.624	18.88
419.406	20.88
420.188	19.88
420.969	18.88
421.751	19.88
422.532	20.88
423.313	21.88
424.095	23.88
424.876	24.88
425.657	25.88
426.438	26.88
427.219	25.88
428	26.88
428.78	24.88
429.561	26.88
430.342	32.88
431.122	30.88
431.903	31.88
432.683	33.88
433.464	34.88
434.244	32.88
435.024	40.88
435.804	40.88
436.584	43.88
437.364	47.88
438.144	44.88
438.924	49.88
439.704	54.88
440.483	55.88
441.263	62.88
442.042	67.88
442.822	73.88
443.601	75.88
444.38	81.88
445.16	84.88
445.939	94.88
446.718	110.88
447.497	116.88
448.276	123.88
449.054	134.88
449.833	149.88
450.612	164.88
451.391	186.88
452.169	202.88
452.948	227.88
453.726	250.88
454.504	274.88
455.282	312.88
456.061	345.88
456.839	374.88
457.617	426.88
458.395	472.88
459.172	535.88
459.95	586.88
460.728	658.88
461.506	728.88
462.283	816.88
463.061	913.88
463.838	1006.88
464.615	1118.88
465.393	1243.88
466.17	1363.88
466.947	1538.88
467.724	1685.88
468.501	1867.88
469.278	2052.88
470.055	2264.88
470.831	2513.88
471.608	2748.88
472.385	3019.88
473.161	3341.88
473.938	3661.88
474.714	3981.88
475.49	4384.88
476.266	4802.88
477.043	5236.88
477.819	5706.88
478.595	6195.88
479.371	6753.88
480.146	7354.88
480.922	7991.88
481.698	8706.88
482.473	9441.88
483.249	10258.88
484.024	11083.88
484.8	11984.88
485.575	12972.88
486.35	13979.88
487.126	15163.88
487.901	16339.88
488.676	17517.88
489.451	18894.88
490.225	20306.88
491	21764.88
491.775	23206.88
492.55	24758.88
493.324	26460.88
494.099	28078.88
494.873	29758.88
495.647	31459.88
496.422	32986.88
497.196	34754.88
497.97	36398.88
498.744	37847.88
499.518	39383.88
500.292	40842.88
501.066	41785.88
501.839	42850.88
502.613	43731.88
503.387	44418.88
504.16	44861.88
504.934	45309.88
505.707	45412.88
506.48	45138.88
507.253	44792.88
508.027	44403.88
508.8	43683.88
509.573	42865.88
510.346	41922.88
511.118	41004.88
511.891	39937.88
512.664	38605.88
513.437	37189.88
514.209	35895.88
514.982	34584.88
515.754	33258.88
516.526	31930.88
517.298	30692.88
518.071	29577.88
518.843	28419.88
519.615	27170.88
520.387	26124.88
521.159	25082.88
521.93	24105.88
522.702	23059.88
523.474	22135.88
524.245	21223.88
525.017	20352.88
525.788	19464.88
526.56	18735.88
527.331	17847.88
528.102	17007.88
528.873	16175.88
529.644	15409.88
530.415	14719.88
531.186	14013.88
531.957	13344.88
532.728	12636.88
533.498	12019.88
534.269	11378.88
535.039	10740.88
535.81	10205.88
536.58	9676.88
537.351	9104.88
538.121	8664.88
538.891	8170.88
539.661	7740.88
540.431	7345.88
541.201	6940.88
541.971	6607.88
542.741	6241.88
543.51	5940.88
544.28	5632.88
545.05	5402.88
545.819	5126.88
546.588	4876.88
547.358	4656.88
548.127	4416.88
548.896	4192.88
549.665	3995.88
550.434	3780.88
551.203	3582.88
551.972	3411.88
552.741	3248.88
553.51	3045.88
554.278	2870.88
555.047	2697.88
555.815	2562.88
556.584	2422.88
557.352	2284.88
558.121	2181.88
558.889	2070.88
559.657	1947.88
560.425	1831.88
561.193	1735.88
561.961	1638.88
562.729	1563.88
563.496	1472.88
564.264	1397.88
565.032	1320.88
565.799	1243.88
566.567	1178.88
567.334	1119.88
568.101	1050.88
568.869	992.88
569.636	934.88
570.403	891.88
571.17	842.88
571.937	798.88
572.704	741.88
573.471	697.88
574.237	667.88
575.004	628.88
575.771	592.88
576.537	559.88
577.303	525.88
578.07	494.88
578.836	454.88
579.602	446.88
580.368	417.88
581.134	403.88
581.9	377.88
582.666	358.88
583.432	347.88
584.198	330.88
584.964	305.88
585.729	289.88
586.495	280.88
587.26	258.88
588.025	249.88
588.791	243.88
589.556	223.88
590.321	213.88
591.086	203.88
591.851	195.88
592.616	184.88
593.381	173.88
594.146	165.88
594.911	158.88
595.675	149.88
596.44	144.88
597.204	140.88
597.969	132.88
598.733	129.88
599.497	120.88
600.261	115.88
601.025	109.88
601.79	108.88
602.553	101.88
603.317	98.88
604.081	94.88
604.845	88.88
605.609	85.88
606.372	81.88
607.136	80.88
607.899	76.88
608.662	71.88
609.426	68.88
610.189	68.88
610.952	68.88
611.715	62.88
612.478	64.88
613.241	60.88
614.004	56.88
614.767	54.88
615.529	55.88
616.292	52.88
617.055	48.88
617.817	47.88
618.579	45.88
619.342	44.88
620.104	41.88
620.866	38.88
621.628	38.88
622.39	35.88
623.152	37.88
623.914	37.88
624.676	33.88
625.438	35.88
626.199	36.88
626.961	34.88
627.722	33.88
628.484	30.88
629.245	29.88
630.006	30.88
630.768	28.88
631.529	25.88
632.29	26.88
633.051	24.88
633.812	23.88
634.573	23.88
635.333	22.88
636.094	23.88
636.855	21.88
637.615	21.88
638.376	20.88
639.136	20.88
639.896	19.88
640.657	19.88
641.417	20.88
642.177	19.88
642.937	16.88
643.697	20.88
644.457	14.88
645.216	19.88
645.976	15.88
646.736	17.88
647.495	17.88
648.255	14.88
649.014	13.88
649.774	13.88
650.533	14.88
651.292	11.88
652.051	12.88
652.81	14.88
653.569	12.88
654.328	15.88
655.087	11.88
655.846	12.88
656.604	12.88
657.363	9.88
658.121	14.88
658.88	10.88
659.638	12.88
660.397	13.88
661.155	11.88
661.913	11.88
662.671	11.88
663.429	10.88
664.187	12.88
664.945	11.88
665.703	9.88
666.46	11.88
667.218	9.88
667.976	10.88
668.733	10.88
669.49	10.88
670.248	8.88
671.005	8.88
671.762	9.88
672.519	8.88
673.276	10.88
674.033	9.88
674.79	10.88
675.547	8.88
676.304	7.88
677.06	9.88
677.817	10.88
678.574	6.88
679.33	8.88
680.086	8.88
680.843	7.88
681.599	9.88
682.355	8.88
683.111	8.88
683.867	9.88
684.623	8.88
685.379	8.88
686.135	5.88
686.89	8.88
687.646	8.88
688.402	7.88
689.157	8.88
689.912	6.88
690.668	9.88
691.423	5.88
692.178	7.88
692.933	8.88
693.688	8.88
694.443	6.88
695.198	6.88
695.953	8.88
696.708	5.88
697.462	5.88
698.217	5.88
698.972	9.88
699.726	7.88
700.48	4.88
701.235	3.88
701.989	8.88
702.743	6.88
703.497	8.88
704.251	5.88
705.005	6.88
705.759	7.88
706.513	7.88
707.266	5.88
708.02	7.88
708.774	7.88
709.527	7.88
710.28	6.88
711.034	5.88
711.787	9.88
712.54	8.88
713.293	6.88
714.046	7.88
714.799	5.88
715.552	4.88
716.305	9.88
717.058	8.88
717.81	6.88
718.563	6.88
719.315	10.88
720.068	7.88
720.82	9.88
721.573	5.88
722.325	7.88
723.077	9.88
723.829	10.88
724.581	7.88
725.333	7.88
726.085	7.88
726.836	8.88
727.588	8.88
728.34	7.88
729.091	8.88
729.843	6.88
730.594	8.88
731.346	9.88
732.097	8.88
732.848	8.88
733.599	7.88
734.35	9.88
735.101	7.88
735.852	8.88
736.603	7.88
737.354	10.88
738.104	8.88
738.855	8.88
739.605	10.88
740.356	8.88
741.106	10.88
741.856	8.88
742.607	7.88
743.357	8.88
744.107	9.88
744.857	11.88
745.607	10.88
746.357	10.88
747.106	9.88
747.856	11.88
748.606	8.88
749.355	10.88
750.105	9.88
750.854	8.88
751.603	7.88
752.353	10.88
753.102	8.88
753.851	10.88
754.6	10.88
755.349	11.88
756.098	12.88
756.847	9.88
757.595	10.88
758.344	10.88
759.093	12.88
759.841	11.88
760.589	11.88
761.338	12.88
762.086	12.88
762.834	11.88
763.582	13.88
764.331	13.88
765.079	11.88
765.826	11.88
766.574	12.88
767.322	13.88
768.07	11.88
768.817	12.88
769.565	12.88
770.312	14.88
771.06	16.88
771.807	11.88
772.554	15.88
773.302	11.88
774.049	14.88
774.796	14.88
775.543	13.88
776.29	19.88
777.036	16.88
777.783	13.88
778.53	12.88
779.276	12.88
780.023	14.88
780.769	14.88
781.516	16.88
782.262	15.88
783.008	13.88
783.754	14.88
784.5	11.88
785.246	17.88
785.992	15.88
786.738	13.88
787.484	13.88
788.23	16.88
788.975	14.88
789.721	12.88
790.466	13.88
791.212	13.88
791.957	10.88
792.702	12.88
793.447	12.88
794.193	14.88
794.938	12.88
795.683	13.88
796.427	12.88
797.172	12.88
797.917	12.88
798.662	14.88
799.406	12.88
800.151	10.88
800.895	11.88
801.64	10.88
802.384	10.88
803.128	10.88
803.872	11.88
804.616	10.88
805.36	11.88
806.104	8.88
806.848	10.88
807.592	9.88
808.336	9.88
809.079	9.88
809.823	8.88
810.566	8.88
811.31	7.88
812.053	12.88
812.796	6.88
813.539	10.88
814.283	7.88
815.026	8.88
815.769	6.88
816.511	9.88
817.254	7.88
817.997	7.88
818.74	5.88
819.482	4.88
820.225	6.88
820.967	5.88
821.71	6.88
822.452	7.88
823.194	6.88
823.936	7.88
824.678	6.88
825.42	7.88
826.162	8.88
826.904	6.88
827.646	4.88
828.388	6.88
829.129	6.88
829.871	7.88
830.612	6.88
831.354	5.88
832.095	6.88
832.836	6.88
833.577	5.88
834.319	4.88
835.06	6.88
835.801	6.88
836.542	4.88
837.282	8.88
838.023	6.88
838.764	8.88
839.504	5.88
840.245	5.88
840.985	6.88
841.726	7.88
842.466	4.88
843.206	4.88
843.946	6.88
844.687	2.88
845.427	4.88
846.166	6.88
846.906	4.88
847.646	6.88
848.386	6.88
849.125	5.88
849.865	5.88
850.605	4.88
851.344	4.88
852.083	5.88
852.823	2.88
853.562	2.88
854.301	5.88
855.04	4.88
855.779	3.88
856.518	2.88
857.257	3.88
857.995	4.88
858.734	1.88
859.473	4.88
860.211	4.88
860.95	3.88
861.688	3.88
862.426	1.88
863.165	3.88
863.903	3.88
864.641	1.88
865.379	4.88
866.117	2.88
866.855	3.88
867.593	3.88
868.33	1.88
869.068	1.88
869.806	0.88
870.543	2.88
871.28	0.88
872.018	1.88
872.755	2.88
873.492	2.88
874.229	2.88
874.967	0.88
875.703	2.88
876.44	1.88
877.177	3.88
877.914	1.88
878.651	0.88
879.387	1.88
880.124	-0.12
880.86	0.88
881.597	1.88
882.333	0.88
883.069	1.88
883.806	1.88
884.542	0.88
885.278	1.88
886.014	-0.12
886.749	-0.12
887.485	1.88
888.221	-0.12
888.957	2.88
889.692	3.88
890.428	0.88
891.163	-0.12
891.899	0.88
892.634	0.88
893.369	4.88
894.104	-1.12
894.839	0.88
895.574	-1.12
896.309	1.88
897.044	0.88
897.779	1.88
898.514	1.88
899.248	-1.12
899.983	0.88
900.717	-1.12
901.452	-1.12
902.186	1.88
902.92	-0.12
903.654	-1.12
904.389	-0.12
905.123	0.88
905.857	2.88
906.59	-0.12
907.324	1.88
908.058	0.88
908.792	0.88
909.525	0.88
910.259	-0.12
910.992	1.88
911.726	0.88
912.459	1.88
913.192	-1.12
913.925	1.88
914.658	-1.12
915.391	-1.12
916.124	0.88
916.857	0.88
917.59	0.88
918.323	1.88
919.055	0.88
919.788	0.88
920.521	-1.12
921.253	-0.12
921.985	-2.12
922.718	2.88
923.45	-1.12
924.182	-0.12
924.914	-0.12
925.646	1.88
926.378	-0.12
927.11	0.88
927.841	0.88
928.573	1.88
929.305	-1.12
930.036	-1.12
930.768	-1.12
931.499	0.88
932.23	1.88
932.962	0.88
933.693	-0.12
934.424	0.88
935.155	0.88
935.886	-2.12
936.617	1.88
937.348	0.88
938.078	-1.12
938.809	-1.12
939.54	-0.12
940.27	1.88
941.001	-0.12
941.731	2.88
942.461	-0.12
943.191	-0.12
943.922	2.88
944.652	-1.12
945.382	2.88
946.112	-2.12
946.841	-0.12
947.571	0.88
948.301	-1.12
949.031	1.88
949.76	-0.12
950.49	-0.12
951.219	-0.12
951.948	0.88
952.678	-1.12
953.407	0.88
954.136	-0.12
954.865	-0.12
955.594	0.88
956.323	-1.12
957.052	2.88
957.78	0.88
958.509	1.88
959.238	0.88
959.966	-3.12
960.695	-1.12
961.423	-0.12
962.151	-1.12
962.88	-1.12
963.608	0.88
964.336	-0.12
965.064	-0.12
965.792	0.88
966.52	0.88
967.247	0.88
967.975	0.88
968.703	0.88
969.43	0.88
970.158	0.88
970.885	1.88
971.613	-1.12
972.34	-1.12
973.067	-1.12
973.794	0.88
974.521	-1.12
975.248	1.88
975.975	-0.12
976.702	-0.12
977.429	1.88
978.156	-1.12
978.882	-1.12
979.609	0.88
980.335	-0.12
981.062	-1.12
981.788	1.88
982.514	0.88
983.24	0.88
983.967	0.88
984.693	-0.12
985.419	1.88
986.144	1.88
986.87	-2.12
987.596	-0.12
988.322	-1.12
989.047	-1.12
989.773	0.88
990.498	-0.12
991.224	-0.12
991.949	-1.12
992.674	-0.12
993.399	1.88
994.124	-0.12
994.849	0.88
995.574	-0.12
996.299	0.88
997.024	-0.12
997.749	0.88
998.473	-0.12
999.198	0.88
999.922	-0.12
1000.647	-1.12
1001.371	1.88
1002.095	-2.12
1002.82	0.88
1003.544	-1.12
1004.268	6.88
1004.992	1.88
1005.716	3.88
1006.439	3.88
1007.163	6.88
1007.887	4.88
1008.611	-1.12
1009.334	-1.12
1010.058	2.88
1010.781	-0.12
1011.504	0.88
1012.228	-0.12
1012.951	-0.12
1013.674	0.88
1014.397	-0.12
1015.12	-0.12
