节点500_705_QEPB04081__526__20-53-22-729.txt的数据

Date: Wed Nov 12 20:53:22 CST 2025
User: PC
Spectrometer: QEPB0408
触发模式: 0
积分时间 (秒): 1.000000E-2
Scans to average: 1
启用暗噪声校正: true
启用非线性校正: false
滑动平均宽度: 0
X轴模式: Wavelengths
Number of Pixels in Spectrum: 1044
>>>>>Begin Spectral Data<<<<<
220.843	5.75
221.644	5.75
222.444	5.75
223.244	4.75
224.045	5.75
224.845	8.75
225.645	6.75
226.445	4.75
227.245	8.75
228.045	6.75
228.845	8.75
229.645	7.75
230.444	6.75
231.244	6.75
232.043	8.75
232.843	7.75
233.642	9.75
234.442	10.75
235.241	7.75
236.04	8.75
236.839	11.75
237.638	8.75
238.437	6.75
239.236	11.75
240.035	8.75
240.833	10.75
241.632	10.75
242.43	10.75
243.229	11.75
244.027	12.75
244.826	13.75
245.624	11.75
246.422	11.75
247.22	11.75
248.018	15.75
248.816	13.75
249.614	14.75
250.412	14.75
251.21	13.75
252.007	15.75
252.805	13.75
253.602	15.75
254.4	15.75
255.197	16.75
255.994	18.75
256.791	18.75
257.589	17.75
258.386	17.75
259.183	19.75
259.979	20.75
260.776	22.75
261.573	18.75
262.37	22.75
263.166	21.75
263.963	23.75
264.759	24.75
265.556	26.75
266.352	23.75
267.148	25.75
267.944	26.75
268.74	27.75
269.536	27.75
270.332	28.75
271.128	27.75
271.924	27.75
272.719	32.75
273.515	27.75
274.311	27.75
275.106	28.75
275.901	29.75
276.697	28.75
277.492	27.75
278.287	31.75
279.082	30.75
279.877	31.75
280.672	32.75
281.467	29.75
282.262	30.75
283.056	31.75
283.851	35.75
284.646	33.75
285.44	30.75
286.234	30.75
287.029	31.75
287.823	32.75
288.617	32.75
289.411	30.75
290.205	30.75
290.999	29.75
291.793	30.75
292.587	30.75
293.381	30.75
294.174	30.75
294.968	27.75
295.761	26.75
296.555	25.75
297.348	26.75
298.141	22.75
298.935	26.75
299.728	23.75
300.521	24.75
301.314	21.75
302.107	22.75
302.899	24.75
303.692	20.75
304.485	21.75
305.277	18.75
306.07	20.75
306.862	18.75
307.655	19.75
308.447	19.75
309.239	19.75
310.031	21.75
310.823	19.75
311.615	16.75
312.407	18.75
313.199	19.75
313.991	14.75
314.783	17.75
315.574	17.75
316.366	15.75
317.157	14.75
317.949	15.75
318.74	14.75
319.531	14.75
320.322	11.75
321.113	10.75
321.904	14.75
322.695	13.75
323.486	14.75
324.277	13.75
325.068	13.75
325.858	11.75
326.649	13.75
327.439	14.75
328.23	10.75
329.02	11.75
329.81	10.75
330.6	13.75
331.391	10.75
332.181	12.75
332.971	12.75
333.76	10.75
334.55	11.75
335.34	11.75
336.13	10.75
336.919	11.75
337.709	8.75
338.498	13.75
339.287	10.75
340.077	10.75
340.866	12.75
341.655	10.75
342.444	12.75
343.233	9.75
344.022	9.75
344.811	10.75
345.6	10.75
346.388	10.75
347.177	9.75
347.965	11.75
348.754	11.75
349.542	11.75
350.33	12.75
351.119	10.75
351.907	10.75
352.695	12.75
353.483	12.75
354.271	9.75
355.059	10.75
355.846	9.75
356.634	9.75
357.422	8.75
358.209	8.75
358.997	9.75
359.784	9.75
360.571	7.75
361.359	12.75
362.146	8.75
362.933	10.75
363.72	9.75
364.507	7.75
365.294	9.75
366.081	8.75
366.867	11.75
367.654	7.75
368.44	10.75
369.227	10.75
370.013	8.75
370.8	7.75
371.586	6.75
372.372	10.75
373.158	11.75
373.944	9.75
374.73	6.75
375.516	9.75
376.302	8.75
377.088	8.75
377.873	10.75
378.659	6.75
379.445	7.75
380.23	8.75
381.015	8.75
381.801	10.75
382.586	10.75
383.371	6.75
384.156	10.75
384.941	8.75
385.726	10.75
386.511	9.75
387.296	9.75
388.08	11.75
388.865	10.75
389.649	12.75
390.434	9.75
391.218	11.75
392.003	7.75
392.787	7.75
393.571	12.75
394.355	12.75
395.139	10.75
395.923	10.75
396.707	10.75
397.491	13.75
398.274	10.75
399.058	12.75
399.842	11.75
400.625	11.75
401.408	12.75
402.192	12.75
402.975	13.75
403.758	13.75
404.541	14.75
405.324	13.75
406.107	14.75
406.89	13.75
407.673	14.75
408.456	14.75
409.238	13.75
410.021	16.75
410.803	15.75
411.586	13.75
412.368	17.75
413.151	14.75
413.933	14.75
414.715	17.75
415.497	16.75
416.279	18.75
417.061	20.75
417.843	13.75
418.624	19.75
419.406	17.75
420.188	17.75
420.969	21.75
421.751	20.75
422.532	20.75
423.313	20.75
424.095	22.75
424.876	24.75
425.657	23.75
426.438	22.75
427.219	26.75
428	27.75
428.78	23.75
429.561	26.75
430.342	28.75
431.122	29.75
431.903	30.75
432.683	31.75
433.464	33.75
434.244	37.75
435.024	37.75
435.804	41.75
436.584	39.75
437.364	43.75
438.144	45.75
438.924	49.75
439.704	53.75
440.483	56.75
441.263	62.75
442.042	69.75
442.822	70.75
443.601	75.75
444.38	82.75
445.16	91.75
445.939	95.75
446.718	106.75
447.497	116.75
448.276	123.75
449.054	144.75
449.833	153.75
450.612	165.75
451.391	191.75
452.169	206.75
452.948	233.75
453.726	255.75
454.504	282.75
455.282	314.75
456.061	342.75
456.839	384.75
457.617	432.75
458.395	476.75
459.172	533.75
459.95	600.75
460.728	666.75
461.506	732.75
462.283	818.75
463.061	900.75
463.838	1006.75
464.615	1125.75
465.393	1238.75
466.17	1380.75
466.947	1527.75
467.724	1694.75
468.501	1862.75
469.278	2062.75
470.055	2257.75
470.831	2502.75
471.608	2765.75
472.385	3015.75
473.161	3325.75
473.938	3638.75
474.714	3971.75
475.49	4371.75
476.266	4741.75
477.043	5168.75
477.819	5613.75
478.595	6125.75
479.371	6676.75
480.146	7273.75
480.922	7883.75
481.698	8534.75
482.473	9277.75
483.249	10044.75
484.024	10880.75
484.8	11784.75
485.575	12698.75
486.35	13683.75
487.126	14843.75
487.901	15964.75
488.676	17170.75
489.451	18502.75
490.225	19809.75
491	21218.75
491.775	22646.75
492.55	24158.75
493.324	25753.75
494.099	27326.75
494.873	28945.75
495.647	30545.75
496.422	32211.75
497.196	33893.75
497.97	35472.75
498.744	36898.75
499.518	38542.75
500.292	39819.75
501.066	40916.75
501.839	41842.75
502.613	42780.75
503.387	43590.75
504.16	44065.75
504.934	44390.75
505.707	44579.75
506.48	44575.75
507.253	44265.75
508.027	43865.75
508.8	43261.75
509.573	42411.75
510.346	41649.75
511.118	40740.75
511.891	39736.75
512.664	38331.75
513.437	37063.75
514.209	35694.75
514.982	34533.75
515.754	33244.75
516.526	31910.75
517.298	30668.75
518.071	29503.75
518.843	28340.75
519.615	27204.75
520.387	26145.75
521.159	25134.75
521.93	24123.75
522.702	23090.75
523.474	22131.75
524.245	21279.75
525.017	20390.75
525.788	19522.75
526.56	18778.75
527.331	17957.75
528.102	17056.75
528.873	16220.75
529.644	15434.75
530.415	14800.75
531.186	14094.75
531.957	13412.75
532.728	12766.75
533.498	12097.75
534.269	11437.75
535.039	10857.75
535.81	10266.75
536.58	9721.75
537.351	9205.75
538.121	8735.75
538.891	8249.75
539.661	7824.75
540.431	7385.75
541.201	6982.75
541.971	6663.75
542.741	6291.75
543.51	5956.75
544.28	5684.75
545.05	5421.75
545.819	5129.75
546.588	4937.75
547.358	4689.75
548.127	4466.75
548.896	4255.75
549.665	4036.75
550.434	3814.75
551.203	3621.75
551.972	3432.75
552.741	3253.75
553.51	3099.75
554.278	2901.75
555.047	2738.75
555.815	2609.75
556.584	2451.75
557.352	2340.75
558.121	2185.75
558.889	2074.75
559.657	1970.75
560.425	1866.75
561.193	1769.75
561.961	1675.75
562.729	1574.75
563.496	1490.75
564.264	1418.75
565.032	1329.75
565.799	1259.75
566.567	1204.75
567.334	1132.75
568.101	1060.75
568.869	1013.75
569.636	947.75
570.403	901.75
571.17	841.75
571.937	826.75
572.704	756.75
573.471	719.75
574.237	669.75
575.004	638.75
575.771	592.75
576.537	554.75
577.303	540.75
578.07	504.75
578.836	481.75
579.602	449.75
580.368	431.75
581.134	407.75
581.9	385.75
582.666	369.75
583.432	350.75
584.198	333.75
584.964	314.75
585.729	297.75
586.495	279.75
587.26	268.75
588.025	252.75
588.791	239.75
589.556	228.75
590.321	214.75
591.086	202.75
591.851	184.75
592.616	186.75
593.381	174.75
594.146	163.75
594.911	163.75
595.675	157.75
596.44	150.75
597.204	143.75
597.969	132.75
598.733	123.75
599.497	123.75
600.261	117.75
601.025	109.75
601.79	107.75
602.553	110.75
603.317	99.75
604.081	95.75
604.845	95.75
605.609	89.75
606.372	88.75
607.136	78.75
607.899	76.75
608.662	72.75
609.426	71.75
610.189	66.75
610.952	66.75
611.715	64.75
612.478	61.75
613.241	58.75
614.004	58.75
614.767	54.75
615.529	53.75
616.292	50.75
617.055	49.75
617.817	44.75
618.579	43.75
619.342	43.75
620.104	42.75
620.866	43.75
621.628	39.75
622.39	41.75
623.152	34.75
623.914	35.75
624.676	36.75
625.438	32.75
626.199	31.75
626.961	32.75
627.722	32.75
628.484	29.75
629.245	26.75
630.006	27.75
630.768	27.75
631.529	26.75
632.29	26.75
633.051	26.75
633.812	23.75
634.573	26.75
635.333	21.75
636.094	23.75
636.855	22.75
637.615	19.75
638.376	22.75
639.136	21.75
639.896	19.75
640.657	19.75
641.417	19.75
642.177	16.75
642.937	20.75
643.697	17.75
644.457	16.75
645.216	15.75
645.976	14.75
646.736	13.75
647.495	14.75
648.255	17.75
649.014	14.75
649.774	13.75
650.533	14.75
651.292	11.75
652.051	14.75
652.81	11.75
653.569	13.75
654.328	14.75
655.087	13.75
655.846	13.75
656.604	10.75
657.363	9.75
658.121	11.75
658.88	10.75
659.638	11.75
660.397	10.75
661.155	9.75
661.913	9.75
662.671	13.75
663.429	11.75
664.187	8.75
664.945	11.75
665.703	10.75
666.46	8.75
667.218	8.75
667.976	12.75
668.733	9.75
669.49	12.75
670.248	7.75
671.005	7.75
671.762	7.75
672.519	6.75
673.276	9.75
674.033	6.75
674.79	6.75
675.547	7.75
676.304	7.75
677.06	8.75
677.817	7.75
678.574	8.75
679.33	8.75
680.086	10.75
680.843	10.75
681.599	9.75
682.355	7.75
683.111	7.75
683.867	8.75
684.623	7.75
685.379	6.75
686.135	8.75
686.89	4.75
687.646	7.75
688.402	9.75
689.157	8.75
689.912	7.75
690.668	6.75
691.423	5.75
692.178	7.75
692.933	8.75
693.688	6.75
694.443	10.75
695.198	6.75
695.953	8.75
696.708	7.75
697.462	4.75
698.217	7.75
698.972	6.75
699.726	6.75
700.48	3.75
701.235	7.75
701.989	8.75
702.743	9.75
703.497	6.75
704.251	6.75
705.005	7.75
705.759	8.75
706.513	7.75
707.266	7.75
708.02	7.75
708.774	6.75
709.527	5.75
710.28	6.75
711.034	8.75
711.787	6.75
712.54	6.75
713.293	6.75
714.046	6.75
714.799	7.75
715.552	7.75
716.305	7.75
717.058	7.75
717.81	6.75
718.563	10.75
719.315	5.75
720.068	7.75
720.82	6.75
721.573	7.75
722.325	9.75
723.077	7.75
723.829	7.75
724.581	7.75
725.333	9.75
726.085	7.75
726.836	4.75
727.588	8.75
728.34	7.75
729.091	8.75
729.843	8.75
730.594	8.75
731.346	8.75
732.097	7.75
732.848	9.75
733.599	7.75
734.35	9.75
735.101	10.75
735.852	8.75
736.603	10.75
737.354	6.75
738.104	8.75
738.855	10.75
739.605	8.75
740.356	10.75
741.106	9.75
741.856	8.75
742.607	5.75
743.357	10.75
744.107	9.75
744.857	8.75
745.607	8.75
746.357	7.75
747.106	9.75
747.856	6.75
748.606	9.75
749.355	8.75
750.105	9.75
750.854	8.75
751.603	9.75
752.353	8.75
753.102	9.75
753.851	8.75
754.6	10.75
755.349	10.75
756.098	10.75
756.847	12.75
757.595	10.75
758.344	11.75
759.093	10.75
759.841	11.75
760.589	9.75
761.338	11.75
762.086	13.75
762.834	12.75
763.582	10.75
764.331	13.75
765.079	11.75
765.826	10.75
766.574	11.75
767.322	12.75
768.07	14.75
768.817	12.75
769.565	12.75
770.312	12.75
771.06	11.75
771.807	14.75
772.554	14.75
773.302	14.75
774.049	13.75
774.796	12.75
775.543	13.75
776.29	13.75
777.036	14.75
777.783	16.75
778.53	11.75
779.276	13.75
780.023	12.75
780.769	13.75
781.516	15.75
782.262	15.75
783.008	14.75
783.754	13.75
784.5	12.75
785.246	13.75
785.992	13.75
786.738	14.75
787.484	13.75
788.23	14.75
788.975	12.75
789.721	15.75
790.466	14.75
791.212	12.75
791.957	13.75
792.702	12.75
793.447	14.75
794.193	13.75
794.938	11.75
795.683	11.75
796.427	10.75
797.172	13.75
797.917	10.75
798.662	10.75
799.406	13.75
800.151	9.75
800.895	11.75
801.64	11.75
802.384	8.75
803.128	10.75
803.872	13.75
804.616	8.75
805.36	10.75
806.104	9.75
806.848	8.75
807.592	10.75
808.336	9.75
809.079	12.75
809.823	9.75
810.566	11.75
811.31	10.75
812.053	7.75
812.796	8.75
813.539	8.75
814.283	7.75
815.026	8.75
815.769	6.75
816.511	9.75
817.254	5.75
817.997	8.75
818.74	7.75
819.482	6.75
820.225	5.75
820.967	4.75
821.71	7.75
822.452	4.75
823.194	7.75
823.936	7.75
824.678	3.75
825.42	8.75
826.162	6.75
826.904	5.75
827.646	6.75
828.388	7.75
829.129	6.75
829.871	5.75
830.612	7.75
831.354	5.75
832.095	4.75
832.836	3.75
833.577	6.75
834.319	5.75
835.06	4.75
835.801	6.75
836.542	4.75
837.282	3.75
838.023	5.75
838.764	6.75
839.504	5.75
840.245	2.75
840.985	6.75
841.726	4.75
842.466	4.75
843.206	4.75
843.946	5.75
844.687	5.75
845.427	2.75
846.166	6.75
846.906	6.75
847.646	5.75
848.386	5.75
849.125	3.75
849.865	5.75
850.605	3.75
851.344	4.75
852.083	3.75
852.823	3.75
853.562	3.75
854.301	4.75
855.04	2.75
855.779	4.75
856.518	3.75
857.257	2.75
857.995	4.75
858.734	4.75
859.473	4.75
860.211	1.75
860.95	1.75
861.688	2.75
862.426	3.75
863.165	1.75
863.903	2.75
864.641	3.75
865.379	1.75
866.117	4.75
866.855	1.75
867.593	2.75
868.33	1.75
869.068	2.75
869.806	0.75
870.543	1.75
871.28	5.75
872.018	1.75
872.755	2.75
873.492	1.75
874.229	-0.25
874.967	2.75
875.703	2.75
876.44	1.75
877.177	1.75
877.914	0.75
878.651	-1.25
879.387	0.75
880.124	3.75
880.86	1.75
881.597	0.75
882.333	0.75
883.069	-0.25
883.806	1.75
884.542	3.75
885.278	0.75
886.014	1.75
886.749	1.75
887.485	2.75
888.221	0.75
888.957	1.75
889.692	0.75
890.428	0.75
891.163	-0.25
891.899	2.75
892.634	0.75
893.369	1.75
894.104	-0.25
894.839	1.75
895.574	2.75
896.309	1.75
897.044	0.75
897.779	1.75
898.514	-0.25
899.248	-0.25
899.983	2.75
900.717	0.75
901.452	1.75
902.186	-1.25
902.92	0.75
903.654	-0.25
904.389	2.75
905.123	-0.25
905.857	0.75
906.59	0.75
907.324	-0.25
908.058	0.75
908.792	-0.25
909.525	-1.25
910.259	-0.25
910.992	1.75
911.726	1.75
912.459	-0.25
913.192	1.75
913.925	-2.25
914.658	1.75
915.391	-0.25
916.124	2.75
916.857	-0.25
917.59	-0.25
918.323	-0.25
919.055	0.75
919.788	0.75
920.521	0.75
921.253	-1.25
921.985	1.75
922.718	-0.25
923.45	1.75
924.182	-1.25
924.914	0.75
925.646	-1.25
926.378	-0.25
927.11	0.75
927.841	-1.25
928.573	-1.25
929.305	0.75
930.036	-0.25
930.768	-0.25
931.499	-2.25
932.23	2.75
932.962	-1.25
933.693	1.75
934.424	1.75
935.155	-0.25
935.886	0.75
936.617	-0.25
937.348	-1.25
938.078	0.75
938.809	-1.25
939.54	-0.25
940.27	0.75
941.001	2.75
941.731	0.75
942.461	1.75
943.191	-0.25
943.922	0.75
944.652	-1.25
945.382	-1.25
946.112	0.75
946.841	0.75
947.571	0.75
948.301	0.75
949.031	-2.25
949.76	0.75
950.49	-1.25
951.219	0.75
951.948	0.75
952.678	-0.25
953.407	0.75
954.136	-1.25
954.865	-0.25
955.594	-1.25
956.323	-0.25
957.052	0.75
957.78	-0.25
958.509	0.75
959.238	0.75
959.966	-0.25
960.695	0.75
961.423	-1.25
962.151	-1.25
962.88	-1.25
963.608	0.75
964.336	-2.25
965.064	-2.25
965.792	-1.25
966.52	0.75
967.247	1.75
967.975	-1.25
968.703	0.75
969.43	-0.25
970.158	-0.25
970.885	-1.25
971.613	-1.25
972.34	-2.25
973.067	-1.25
973.794	-1.25
974.521	-0.25
975.248	-1.25
975.975	-0.25
976.702	0.75
977.429	-0.25
978.156	-1.25
978.882	1.75
979.609	-0.25
980.335	0.75
981.062	0.75
981.788	-1.25
982.514	-0.25
983.24	0.75
983.967	0.75
984.693	0.75
985.419	-1.25
986.144	-0.25
986.87	-1.25
987.596	-0.25
988.322	-0.25
989.047	-0.25
989.773	-2.25
990.498	-2.25
991.224	-1.25
991.949	-0.25
992.674	-1.25
993.399	0.75
994.124	-0.25
994.849	0.75
995.574	-1.25
996.299	1.75
997.024	1.75
997.749	0.75
998.473	-1.25
999.198	-0.25
999.922	0.75
1000.647	0.75
1001.371	3.75
1002.095	-2.25
1002.82	-1.25
1003.544	-0.25
1004.268	2.75
1004.992	3.75
1005.716	3.75
1006.439	6.75
1007.163	4.75
1007.887	5.75
1008.611	-0.25
1009.334	0.75
1010.058	-1.25
1010.781	0.75
1011.504	0.75
1012.228	1.75
1012.951	-1.25
1013.674	-0.25
1014.397	2.75
1015.12	-1.25
