节点500_705_QEPB04081__206__20-48-58-492.txt的数据

Date: Wed Nov 12 20:48:58 CST 2025
User: PC
Spectrometer: QEPB0408
触发模式: 0
积分时间 (秒): 1.000000E-2
Scans to average: 1
启用暗噪声校正: true
启用非线性校正: false
滑动平均宽度: 0
X轴模式: Wavelengths
Number of Pixels in Spectrum: 1044
>>>>>Begin Spectral Data<<<<<
220.843	1.75
221.644	3.75
222.444	6.75
223.244	5.75
224.045	6.75
224.845	7.75
225.645	8.75
226.445	6.75
227.245	5.75
228.045	9.75
228.845	6.75
229.645	7.75
230.444	7.75
231.244	8.75
232.043	7.75
232.843	9.75
233.642	7.75
234.442	8.75
235.241	11.75
236.04	8.75
236.839	12.75
237.638	12.75
238.437	9.75
239.236	12.75
240.035	12.75
240.833	8.75
241.632	13.75
242.43	10.75
243.229	13.75
244.027	9.75
244.826	14.75
245.624	12.75
246.422	11.75
247.22	13.75
248.018	13.75
248.816	17.75
249.614	17.75
250.412	19.75
251.21	15.75
252.007	15.75
252.805	16.75
253.602	16.75
254.4	17.75
255.197	18.75
255.994	20.75
256.791	22.75
257.589	18.75
258.386	20.75
259.183	21.75
259.979	22.75
260.776	24.75
261.573	21.75
262.37	24.75
263.166	21.75
263.963	26.75
264.759	26.75
265.556	26.75
266.352	29.75
267.148	29.75
267.944	27.75
268.74	26.75
269.536	30.75
270.332	29.75
271.128	31.75
271.924	31.75
272.719	34.75
273.515	34.75
274.311	32.75
275.106	34.75
275.901	35.75
276.697	34.75
277.492	34.75
278.287	32.75
279.082	36.75
279.877	34.75
280.672	34.75
281.467	33.75
282.262	33.75
283.056	37.75
283.851	32.75
284.646	33.75
285.44	33.75
286.234	31.75
287.029	35.75
287.823	38.75
288.617	33.75
289.411	31.75
290.205	31.75
290.999	30.75
291.793	32.75
292.587	32.75
293.381	30.75
294.174	30.75
294.968	29.75
295.761	29.75
296.555	25.75
297.348	25.75
298.141	24.75
298.935	26.75
299.728	29.75
300.521	25.75
301.314	23.75
302.107	22.75
302.899	20.75
303.692	21.75
304.485	22.75
305.277	21.75
306.07	19.75
306.862	21.75
307.655	20.75
308.447	20.75
309.239	17.75
310.031	20.75
310.823	18.75
311.615	17.75
312.407	17.75
313.199	14.75
313.991	15.75
314.783	15.75
315.574	16.75
316.366	13.75
317.157	16.75
317.949	13.75
318.74	15.75
319.531	14.75
320.322	13.75
321.113	14.75
321.904	12.75
322.695	13.75
323.486	12.75
324.277	11.75
325.068	11.75
325.858	11.75
326.649	12.75
327.439	13.75
328.23	11.75
329.02	13.75
329.81	11.75
330.6	13.75
331.391	12.75
332.181	13.75
332.971	10.75
333.76	13.75
334.55	14.75
335.34	10.75
336.13	12.75
336.919	12.75
337.709	14.75
338.498	10.75
339.287	9.75
340.077	10.75
340.866	10.75
341.655	10.75
342.444	10.75
343.233	12.75
344.022	11.75
344.811	13.75
345.6	10.75
346.388	13.75
347.177	11.75
347.965	8.75
348.754	11.75
349.542	12.75
350.33	8.75
351.119	10.75
351.907	12.75
352.695	9.75
353.483	9.75
354.271	10.75
355.059	8.75
355.846	9.75
356.634	10.75
357.422	10.75
358.209	10.75
358.997	10.75
359.784	8.75
360.571	9.75
361.359	9.75
362.146	11.75
362.933	8.75
363.72	11.75
364.507	10.75
365.294	10.75
366.081	7.75
366.867	7.75
367.654	12.75
368.44	7.75
369.227	9.75
370.013	10.75
370.8	7.75
371.586	9.75
372.372	8.75
373.158	11.75
373.944	12.75
374.73	9.75
375.516	11.75
376.302	9.75
377.088	13.75
377.873	8.75
378.659	9.75
379.445	9.75
380.23	9.75
381.015	7.75
381.801	10.75
382.586	8.75
383.371	10.75
384.156	10.75
384.941	10.75
385.726	11.75
386.511	9.75
387.296	10.75
388.08	10.75
388.865	14.75
389.649	9.75
390.434	11.75
391.218	10.75
392.003	10.75
392.787	9.75
393.571	13.75
394.355	10.75
395.139	9.75
395.923	12.75
396.707	14.75
397.491	13.75
398.274	12.75
399.058	14.75
399.842	13.75
400.625	11.75
401.408	13.75
402.192	14.75
402.975	14.75
403.758	12.75
404.541	12.75
405.324	17.75
406.107	15.75
406.89	13.75
407.673	13.75
408.456	11.75
409.238	15.75
410.021	14.75
410.803	15.75
411.586	16.75
412.368	13.75
413.151	15.75
413.933	12.75
414.715	17.75
415.497	18.75
416.279	19.75
417.061	21.75
417.843	17.75
418.624	20.75
419.406	19.75
420.188	19.75
420.969	19.75
421.751	21.75
422.532	22.75
423.313	23.75
424.095	25.75
424.876	26.75
425.657	22.75
426.438	26.75
427.219	26.75
428	25.75
428.78	29.75
429.561	29.75
430.342	30.75
431.122	33.75
431.903	35.75
432.683	31.75
433.464	37.75
434.244	34.75
435.024	38.75
435.804	40.75
436.584	42.75
437.364	44.75
438.144	45.75
438.924	49.75
439.704	54.75
440.483	57.75
441.263	59.75
442.042	62.75
442.822	68.75
443.601	73.75
444.38	76.75
445.16	86.75
445.939	92.75
446.718	99.75
447.497	106.75
448.276	114.75
449.054	128.75
449.833	141.75
450.612	153.75
451.391	168.75
452.169	193.75
452.948	207.75
453.726	229.75
454.504	255.75
455.282	289.75
456.061	322.75
456.839	359.75
457.617	395.75
458.395	441.75
459.172	503.75
459.95	544.75
460.728	616.75
461.506	689.75
462.283	771.75
463.061	851.75
463.838	952.75
464.615	1070.75
465.393	1199.75
466.17	1327.75
466.947	1495.75
467.724	1632.75
468.501	1821.75
469.278	2018.75
470.055	2231.75
470.831	2488.75
471.608	2748.75
472.385	3042.75
473.161	3366.75
473.938	3697.75
474.714	4081.75
475.49	4466.75
476.266	4933.75
477.043	5388.75
477.819	5909.75
478.595	6477.75
479.371	7117.75
480.146	7745.75
480.922	8497.75
481.698	9273.75
482.473	10116.75
483.249	11038.75
484.024	12001.75
484.8	13039.75
485.575	14195.75
486.35	15386.75
487.126	16734.75
487.901	18110.75
488.676	19543.75
489.451	21104.75
490.225	22798.75
491	24391.75
491.775	26081.75
492.55	27981.75
493.324	29845.75
494.099	31658.75
494.873	33566.75
495.647	35439.75
496.422	37282.75
497.196	39183.75
497.97	40748.75
498.744	42397.75
499.518	43967.75
500.292	45198.75
501.066	46242.75
501.839	47083.75
502.613	47727.75
503.387	48312.75
504.16	48599.75
504.934	48650.75
505.707	48374.75
506.48	47837.75
507.253	47192.75
508.027	46373.75
508.8	45233.75
509.573	44060.75
510.346	42942.75
511.118	41658.75
511.891	40336.75
512.664	38732.75
513.437	37159.75
514.209	35722.75
514.982	34338.75
515.754	32880.75
516.526	31462.75
517.298	30235.75
518.071	29033.75
518.843	27862.75
519.615	26703.75
520.387	25697.75
521.159	24680.75
521.93	23667.75
522.702	22568.75
523.474	21647.75
524.245	20738.75
525.017	19804.75
525.788	18872.75
526.56	18148.75
527.331	17251.75
528.102	16392.75
528.873	15603.75
529.644	14800.75
530.415	14150.75
531.186	13399.75
531.957	12690.75
532.728	12048.75
533.498	11372.75
534.269	10781.75
535.039	10218.75
535.81	9640.75
536.58	9108.75
537.351	8588.75
538.121	8165.75
538.891	7685.75
539.661	7321.75
540.431	6932.75
541.201	6567.75
541.971	6202.75
542.741	5868.75
543.51	5583.75
544.28	5292.75
545.05	5071.75
545.819	4838.75
546.588	4601.75
547.358	4374.75
548.127	4161.75
548.896	3978.75
549.665	3723.75
550.434	3528.75
551.203	3351.75
551.972	3204.75
552.741	3023.75
553.51	2825.75
554.278	2677.75
555.047	2537.75
555.815	2383.75
556.584	2273.75
557.352	2156.75
558.121	2012.75
558.889	1893.75
559.657	1780.75
560.425	1701.75
561.193	1620.75
561.961	1528.75
562.729	1442.75
563.496	1366.75
564.264	1286.75
565.032	1214.75
565.799	1156.75
566.567	1092.75
567.334	1037.75
568.101	968.75
568.869	910.75
569.636	868.75
570.403	821.75
571.17	785.75
571.937	728.75
572.704	696.75
573.471	652.75
574.237	617.75
575.004	579.75
575.771	541.75
576.537	518.75
577.303	484.75
578.07	458.75
578.836	435.75
579.602	414.75
580.368	393.75
581.134	368.75
581.9	354.75
582.666	332.75
583.432	319.75
584.198	300.75
584.964	292.75
585.729	273.75
586.495	260.75
587.26	242.75
588.025	231.75
588.791	218.75
589.556	211.75
590.321	190.75
591.086	187.75
591.851	184.75
592.616	165.75
593.381	163.75
594.146	151.75
594.911	151.75
595.675	142.75
596.44	138.75
597.204	131.75
597.969	122.75
598.733	119.75
599.497	116.75
600.261	108.75
601.025	102.75
601.79	100.75
602.553	93.75
603.317	93.75
604.081	91.75
604.845	82.75
605.609	84.75
606.372	76.75
607.136	77.75
607.899	77.75
608.662	66.75
609.426	69.75
610.189	64.75
610.952	60.75
611.715	61.75
612.478	57.75
613.241	53.75
614.004	54.75
614.767	53.75
615.529	51.75
616.292	51.75
617.055	46.75
617.817	48.75
618.579	46.75
619.342	46.75
620.104	40.75
620.866	41.75
621.628	39.75
622.39	36.75
623.152	33.75
623.914	33.75
624.676	33.75
625.438	32.75
626.199	31.75
626.961	27.75
627.722	30.75
628.484	29.75
629.245	30.75
630.006	28.75
630.768	28.75
631.529	22.75
632.29	25.75
633.051	21.75
633.812	21.75
634.573	20.75
635.333	23.75
636.094	21.75
636.855	23.75
637.615	20.75
638.376	20.75
639.136	18.75
639.896	17.75
640.657	20.75
641.417	16.75
642.177	18.75
642.937	17.75
643.697	16.75
644.457	17.75
645.216	18.75
645.976	16.75
646.736	13.75
647.495	17.75
648.255	15.75
649.014	14.75
649.774	14.75
650.533	12.75
651.292	13.75
652.051	12.75
652.81	15.75
653.569	16.75
654.328	11.75
655.087	12.75
655.846	12.75
656.604	13.75
657.363	12.75
658.121	13.75
658.88	10.75
659.638	11.75
660.397	11.75
661.155	9.75
661.913	10.75
662.671	9.75
663.429	9.75
664.187	10.75
664.945	8.75
665.703	10.75
666.46	9.75
667.218	8.75
667.976	9.75
668.733	9.75
669.49	10.75
670.248	9.75
671.005	9.75
671.762	8.75
672.519	7.75
673.276	11.75
674.033	7.75
674.79	8.75
675.547	8.75
676.304	8.75
677.06	9.75
677.817	6.75
678.574	10.75
679.33	7.75
680.086	10.75
680.843	5.75
681.599	9.75
682.355	9.75
683.111	8.75
683.867	11.75
684.623	6.75
685.379	7.75
686.135	5.75
686.89	6.75
687.646	8.75
688.402	6.75
689.157	9.75
689.912	8.75
690.668	5.75
691.423	7.75
692.178	7.75
692.933	8.75
693.688	7.75
694.443	9.75
695.198	5.75
695.953	8.75
696.708	7.75
697.462	5.75
698.217	6.75
698.972	6.75
699.726	4.75
700.48	6.75
701.235	7.75
701.989	7.75
702.743	4.75
703.497	6.75
704.251	7.75
705.005	6.75
705.759	8.75
706.513	5.75
707.266	9.75
708.02	8.75
708.774	8.75
709.527	6.75
710.28	7.75
711.034	7.75
711.787	7.75
712.54	8.75
713.293	5.75
714.046	6.75
714.799	6.75
715.552	8.75
716.305	9.75
717.058	8.75
717.81	7.75
718.563	5.75
719.315	8.75
720.068	7.75
720.82	9.75
721.573	5.75
722.325	5.75
723.077	8.75
723.829	10.75
724.581	7.75
725.333	8.75
726.085	4.75
726.836	6.75
727.588	9.75
728.34	9.75
729.091	10.75
729.843	9.75
730.594	8.75
731.346	8.75
732.097	9.75
732.848	8.75
733.599	7.75
734.35	9.75
735.101	9.75
735.852	9.75
736.603	7.75
737.354	8.75
738.104	9.75
738.855	11.75
739.605	8.75
740.356	7.75
741.106	12.75
741.856	11.75
742.607	11.75
743.357	9.75
744.107	6.75
744.857	12.75
745.607	9.75
746.357	9.75
747.106	9.75
747.856	10.75
748.606	9.75
749.355	10.75
750.105	10.75
750.854	11.75
751.603	8.75
752.353	12.75
753.102	10.75
753.851	11.75
754.6	14.75
755.349	9.75
756.098	12.75
756.847	13.75
757.595	13.75
758.344	12.75
759.093	13.75
759.841	9.75
760.589	13.75
761.338	14.75
762.086	14.75
762.834	14.75
763.582	14.75
764.331	11.75
765.079	14.75
765.826	14.75
766.574	12.75
767.322	13.75
768.07	16.75
768.817	15.75
769.565	14.75
770.312	16.75
771.06	13.75
771.807	17.75
772.554	14.75
773.302	16.75
774.049	13.75
774.796	15.75
775.543	15.75
776.29	15.75
777.036	15.75
777.783	16.75
778.53	16.75
779.276	14.75
780.023	18.75
780.769	16.75
781.516	16.75
782.262	14.75
783.008	13.75
783.754	14.75
784.5	15.75
785.246	18.75
785.992	14.75
786.738	13.75
787.484	14.75
788.23	16.75
788.975	14.75
789.721	14.75
790.466	16.75
791.212	15.75
791.957	14.75
792.702	16.75
793.447	17.75
794.193	14.75
794.938	14.75
795.683	13.75
796.427	12.75
797.172	13.75
797.917	13.75
798.662	15.75
799.406	12.75
800.151	12.75
800.895	12.75
801.64	11.75
802.384	10.75
803.128	11.75
803.872	12.75
804.616	8.75
805.36	11.75
806.104	9.75
806.848	9.75
807.592	8.75
808.336	9.75
809.079	10.75
809.823	7.75
810.566	9.75
811.31	7.75
812.053	7.75
812.796	8.75
813.539	8.75
814.283	9.75
815.026	9.75
815.769	4.75
816.511	7.75
817.254	8.75
817.997	7.75
818.74	8.75
819.482	9.75
820.225	7.75
820.967	7.75
821.71	5.75
822.452	6.75
823.194	7.75
823.936	8.75
824.678	2.75
825.42	6.75
826.162	7.75
826.904	6.75
827.646	4.75
828.388	6.75
829.129	6.75
829.871	5.75
830.612	7.75
831.354	4.75
832.095	4.75
832.836	7.75
833.577	5.75
834.319	4.75
835.06	4.75
835.801	5.75
836.542	5.75
837.282	4.75
838.023	5.75
838.764	2.75
839.504	4.75
840.245	5.75
840.985	7.75
841.726	8.75
842.466	3.75
843.206	5.75
843.946	2.75
844.687	4.75
845.427	7.75
846.166	5.75
846.906	3.75
847.646	6.75
848.386	5.75
849.125	3.75
849.865	5.75
850.605	4.75
851.344	5.75
852.083	3.75
852.823	5.75
853.562	4.75
854.301	1.75
855.04	5.75
855.779	6.75
856.518	4.75
857.257	2.75
857.995	1.75
858.734	2.75
859.473	2.75
860.211	4.75
860.95	2.75
861.688	1.75
862.426	3.75
863.165	2.75
863.903	4.75
864.641	0.75
865.379	0.75
866.117	1.75
866.855	3.75
867.593	1.75
868.33	2.75
869.068	1.75
869.806	2.75
870.543	0.75
871.28	4.75
872.018	3.75
872.755	2.75
873.492	2.75
874.229	3.75
874.967	1.75
875.703	0.75
876.44	2.75
877.177	1.75
877.914	0.75
878.651	0.75
879.387	1.75
880.124	-1.25
880.86	1.75
881.597	3.75
882.333	-0.25
883.069	1.75
883.806	0.75
884.542	0.75
885.278	1.75
886.014	2.75
886.749	0.75
887.485	-1.25
888.221	1.75
888.957	-0.25
889.692	1.75
890.428	0.75
891.163	0.75
891.899	1.75
892.634	0.75
893.369	1.75
894.104	1.75
894.839	2.75
895.574	-1.25
896.309	1.75
897.044	-0.25
897.779	2.75
898.514	-1.25
899.248	1.75
899.983	-0.25
900.717	0.75
901.452	0.75
902.186	0.75
902.92	0.75
903.654	0.75
904.389	2.75
905.123	0.75
905.857	-0.25
906.59	0.75
907.324	0.75
908.058	2.75
908.792	-1.25
909.525	1.75
910.259	-0.25
910.992	-0.25
911.726	3.75
912.459	1.75
913.192	-0.25
913.925	-1.25
914.658	-0.25
915.391	0.75
916.124	-0.25
916.857	-0.25
917.59	-0.25
918.323	0.75
919.055	-1.25
919.788	-1.25
920.521	1.75
921.253	0.75
921.985	1.75
922.718	-0.25
923.45	-1.25
924.182	0.75
924.914	-1.25
925.646	0.75
926.378	-0.25
927.11	-0.25
927.841	0.75
928.573	0.75
929.305	-0.25
930.036	-0.25
930.768	-2.25
931.499	-1.25
932.23	0.75
932.962	0.75
933.693	-1.25
934.424	0.75
935.155	-1.25
935.886	0.75
936.617	0.75
937.348	-0.25
938.078	-1.25
938.809	-1.25
939.54	0.75
940.27	0.75
941.001	0.75
941.731	0.75
942.461	-0.25
943.191	0.75
943.922	-2.25
944.652	1.75
945.382	1.75
946.112	-1.25
946.841	0.75
947.571	-0.25
948.301	0.75
949.031	1.75
949.76	0.75
950.49	-0.25
951.219	0.75
951.948	1.75
952.678	2.75
953.407	1.75
954.136	-0.25
954.865	0.75
955.594	0.75
956.323	0.75
957.052	0.75
957.78	-1.25
958.509	-1.25
959.238	-0.25
959.966	0.75
960.695	0.75
961.423	-1.25
962.151	0.75
962.88	0.75
963.608	-1.25
964.336	-1.25
965.064	0.75
965.792	-1.25
966.52	-1.25
967.247	0.75
967.975	-2.25
968.703	-2.25
969.43	0.75
970.158	1.75
970.885	1.75
971.613	-0.25
972.34	-1.25
973.067	1.75
973.794	0.75
974.521	1.75
975.248	1.75
975.975	0.75
976.702	3.75
977.429	-1.25
978.156	-0.25
978.882	-2.25
979.609	-1.25
980.335	-1.25
981.062	2.75
981.788	-0.25
982.514	-1.25
983.24	0.75
983.967	-0.25
984.693	1.75
985.419	0.75
986.144	-1.25
986.87	-0.25
987.596	-2.25
988.322	-0.25
989.047	-2.25
989.773	-0.25
990.498	-1.25
991.224	0.75
991.949	-1.25
992.674	-1.25
993.399	0.75
994.124	-0.25
994.849	1.75
995.574	1.75
996.299	-1.25
997.024	-0.25
997.749	0.75
998.473	2.75
999.198	-3.25
999.922	0.75
1000.647	-0.25
1001.371	4.75
1002.095	-2.25
1002.82	1.75
1003.544	-1.25
1004.268	5.75
1004.992	3.75
1005.716	2.75
1006.439	7.75
1007.163	6.75
1007.887	7.75
1008.611	0.75
1009.334	-0.25
1010.058	1.75
1010.781	-1.25
1011.504	0.75
1012.228	0.75
1012.951	-1.25
1013.674	-3.25
1014.397	-0.25
1015.12	1.75
