节点500_705_QEPB04081__48__20-46-41-285.txt的数据

Date: Wed Nov 12 20:46:41 CST 2025
User: PC
Spectrometer: QEPB0408
触发模式: 0
积分时间 (秒): 1.000000E-2
Scans to average: 1
启用暗噪声校正: true
启用非线性校正: false
滑动平均宽度: 0
X轴模式: Wavelengths
Number of Pixels in Spectrum: 1044
>>>>>Begin Spectral Data<<<<<
220.843	7.88
221.644	4.88
222.444	7.88
223.244	5.88
224.045	7.88
224.845	6.88
225.645	6.88
226.445	6.88
227.245	7.88
228.045	7.88
228.845	5.88
229.645	8.88
230.444	7.88
231.244	8.88
232.043	9.88
232.843	10.88
233.642	9.88
234.442	13.88
235.241	7.88
236.04	9.88
236.839	11.88
237.638	11.88
238.437	12.88
239.236	9.88
240.035	10.88
240.833	14.88
241.632	12.88
242.43	13.88
243.229	13.88
244.027	14.88
244.826	13.88
245.624	15.88
246.422	13.88
247.22	16.88
248.018	13.88
248.816	16.88
249.614	17.88
250.412	15.88
251.21	18.88
252.007	13.88
252.805	17.88
253.602	18.88
254.4	17.88
255.197	20.88
255.994	19.88
256.791	18.88
257.589	22.88
258.386	21.88
259.183	23.88
259.979	24.88
260.776	24.88
261.573	24.88
262.37	25.88
263.166	28.88
263.963	30.88
264.759	30.88
265.556	27.88
266.352	29.88
267.148	29.88
267.944	31.88
268.74	30.88
269.536	30.88
270.332	32.88
271.128	30.88
271.924	36.88
272.719	32.88
273.515	34.88
274.311	34.88
275.106	33.88
275.901	37.88
276.697	37.88
277.492	36.88
278.287	36.88
279.082	37.88
279.877	36.88
280.672	33.88
281.467	40.88
282.262	35.88
283.056	36.88
283.851	35.88
284.646	34.88
285.44	34.88
286.234	32.88
287.029	34.88
287.823	35.88
288.617	35.88
289.411	36.88
290.205	31.88
290.999	33.88
291.793	33.88
292.587	32.88
293.381	30.88
294.174	28.88
294.968	31.88
295.761	29.88
296.555	26.88
297.348	25.88
298.141	28.88
298.935	30.88
299.728	22.88
300.521	25.88
301.314	25.88
302.107	24.88
302.899	24.88
303.692	20.88
304.485	21.88
305.277	20.88
306.07	23.88
306.862	20.88
307.655	20.88
308.447	20.88
309.239	21.88
310.031	18.88
310.823	16.88
311.615	17.88
312.407	16.88
313.199	16.88
313.991	15.88
314.783	17.88
315.574	16.88
316.366	16.88
317.157	14.88
317.949	14.88
318.74	14.88
319.531	14.88
320.322	10.88
321.113	14.88
321.904	13.88
322.695	12.88
323.486	14.88
324.277	10.88
325.068	15.88
325.858	12.88
326.649	14.88
327.439	13.88
328.23	10.88
329.02	11.88
329.81	12.88
330.6	10.88
331.391	13.88
332.181	12.88
332.971	12.88
333.76	12.88
334.55	13.88
335.34	9.88
336.13	10.88
336.919	10.88
337.709	12.88
338.498	10.88
339.287	12.88
340.077	13.88
340.866	10.88
341.655	13.88
342.444	11.88
343.233	11.88
344.022	13.88
344.811	11.88
345.6	11.88
346.388	12.88
347.177	12.88
347.965	9.88
348.754	12.88
349.542	11.88
350.33	11.88
351.119	13.88
351.907	11.88
352.695	10.88
353.483	11.88
354.271	8.88
355.059	9.88
355.846	10.88
356.634	8.88
357.422	12.88
358.209	10.88
358.997	9.88
359.784	8.88
360.571	10.88
361.359	8.88
362.146	8.88
362.933	10.88
363.72	6.88
364.507	11.88
365.294	8.88
366.081	9.88
366.867	8.88
367.654	9.88
368.44	12.88
369.227	9.88
370.013	9.88
370.8	11.88
371.586	9.88
372.372	8.88
373.158	7.88
373.944	8.88
374.73	7.88
375.516	8.88
376.302	7.88
377.088	10.88
377.873	9.88
378.659	9.88
379.445	10.88
380.23	11.88
381.015	9.88
381.801	11.88
382.586	8.88
383.371	8.88
384.156	10.88
384.941	12.88
385.726	9.88
386.511	10.88
387.296	10.88
388.08	10.88
388.865	10.88
389.649	10.88
390.434	9.88
391.218	9.88
392.003	11.88
392.787	9.88
393.571	12.88
394.355	11.88
395.139	12.88
395.923	11.88
396.707	12.88
397.491	14.88
398.274	12.88
399.058	11.88
399.842	13.88
400.625	14.88
401.408	11.88
402.192	12.88
402.975	10.88
403.758	14.88
404.541	13.88
405.324	14.88
406.107	14.88
406.89	17.88
407.673	16.88
408.456	16.88
409.238	16.88
410.021	15.88
410.803	18.88
411.586	16.88
412.368	16.88
413.151	17.88
413.933	17.88
414.715	17.88
415.497	19.88
416.279	18.88
417.061	20.88
417.843	19.88
418.624	21.88
419.406	19.88
420.188	21.88
420.969	20.88
421.751	23.88
422.532	22.88
423.313	19.88
424.095	24.88
424.876	25.88
425.657	25.88
426.438	26.88
427.219	28.88
428	27.88
428.78	27.88
429.561	26.88
430.342	29.88
431.122	30.88
431.903	31.88
432.683	33.88
433.464	37.88
434.244	35.88
435.024	43.88
435.804	38.88
436.584	42.88
437.364	42.88
438.144	46.88
438.924	50.88
439.704	52.88
440.483	52.88
441.263	60.88
442.042	63.88
442.822	65.88
443.601	68.88
444.38	78.88
445.16	81.88
445.939	86.88
446.718	94.88
447.497	100.88
448.276	112.88
449.054	122.88
449.833	132.88
450.612	158.88
451.391	165.88
452.169	181.88
452.948	194.88
453.726	222.88
454.504	241.88
455.282	279.88
456.061	298.88
456.839	339.88
457.617	384.88
458.395	427.88
459.172	469.88
459.95	535.88
460.728	599.88
461.506	662.88
462.283	726.88
463.061	831.88
463.838	930.88
464.615	1029.88
465.393	1152.88
466.17	1279.88
466.947	1445.88
467.724	1609.88
468.501	1795.88
469.278	1997.88
470.055	2216.88
470.831	2454.88
471.608	2731.88
472.385	3003.88
473.161	3347.88
473.938	3688.88
474.714	4076.88
475.49	4533.88
476.266	5017.88
477.043	5465.88
477.819	6023.88
478.595	6615.88
479.371	7284.88
480.146	7984.88
480.922	8735.88
481.698	9594.88
482.473	10526.88
483.249	11495.88
484.024	12465.88
484.8	13662.88
485.575	14871.88
486.35	16197.88
487.126	17618.88
487.901	19086.88
488.676	20699.88
489.451	22364.88
490.225	24149.88
491	25897.88
491.775	27765.88
492.55	29790.88
493.324	31753.88
494.099	33720.88
494.873	35688.88
495.647	37611.88
496.422	39650.88
497.196	41555.88
497.97	43286.88
498.744	44788.88
499.518	46384.88
500.292	47786.88
501.066	48662.88
501.839	49246.88
502.613	49915.88
503.387	50347.88
504.16	50548.88
504.934	50288.88
505.707	49761.88
506.48	49058.88
507.253	48251.88
508.027	47263.88
508.8	45917.88
509.573	44615.88
510.346	43145.88
511.118	41860.88
511.891	40333.88
512.664	38643.88
513.437	37147.88
514.209	35627.88
514.982	34176.88
515.754	32617.88
516.526	31282.88
517.298	30025.88
518.071	28800.88
518.843	27536.88
519.615	26434.88
520.387	25368.88
521.159	24314.88
521.93	23352.88
522.702	22366.88
523.474	21429.88
524.245	20480.88
525.017	19484.88
525.788	18635.88
526.56	17870.88
527.331	17002.88
528.102	16113.88
528.873	15284.88
529.644	14470.88
530.415	13826.88
531.186	13108.88
531.957	12385.88
532.728	11736.88
533.498	11072.88
534.269	10476.88
535.039	9882.88
535.81	9356.88
536.58	8857.88
537.351	8365.88
538.121	7939.88
538.891	7508.88
539.661	7108.88
540.431	6714.88
541.201	6378.88
541.971	6041.88
542.741	5735.88
543.51	5413.88
544.28	5166.88
545.05	4926.88
545.819	4688.88
546.588	4456.88
547.358	4261.88
548.127	4047.88
548.896	3824.88
549.665	3632.88
550.434	3414.88
551.203	3261.88
551.972	3061.88
552.741	2901.88
553.51	2750.88
554.278	2578.88
555.047	2442.88
555.815	2294.88
556.584	2162.88
557.352	2077.88
558.121	1913.88
558.889	1830.88
559.657	1731.88
560.425	1648.88
561.193	1543.88
561.961	1471.88
562.729	1383.88
563.496	1305.88
564.264	1234.88
565.032	1164.88
565.799	1101.88
566.567	1052.88
567.334	981.88
568.101	936.88
568.869	894.88
569.636	850.88
570.403	783.88
571.17	748.88
571.937	704.88
572.704	667.88
573.471	625.88
574.237	606.88
575.004	562.88
575.771	519.88
576.537	497.88
577.303	464.88
578.07	439.88
578.836	413.88
579.602	388.88
580.368	370.88
581.134	357.88
581.9	325.88
582.666	324.88
583.432	305.88
584.198	302.88
584.964	273.88
585.729	266.88
586.495	251.88
587.26	236.88
588.025	225.88
588.791	208.88
589.556	202.88
590.321	194.88
591.086	181.88
591.851	172.88
592.616	160.88
593.381	161.88
594.146	150.88
594.911	142.88
595.675	138.88
596.44	125.88
597.204	125.88
597.969	117.88
598.733	112.88
599.497	108.88
600.261	107.88
601.025	103.88
601.79	97.88
602.553	90.88
603.317	92.88
604.081	86.88
604.845	81.88
605.609	77.88
606.372	75.88
607.136	74.88
607.899	70.88
608.662	68.88
609.426	62.88
610.189	60.88
610.952	58.88
611.715	56.88
612.478	54.88
613.241	55.88
614.004	53.88
614.767	53.88
615.529	46.88
616.292	48.88
617.055	45.88
617.817	41.88
618.579	41.88
619.342	41.88
620.104	37.88
620.866	41.88
621.628	38.88
622.39	35.88
623.152	35.88
623.914	34.88
624.676	31.88
625.438	33.88
626.199	30.88
626.961	29.88
627.722	28.88
628.484	26.88
629.245	29.88
630.006	23.88
630.768	28.88
631.529	26.88
632.29	24.88
633.051	21.88
633.812	19.88
634.573	23.88
635.333	20.88
636.094	22.88
636.855	22.88
637.615	21.88
638.376	21.88
639.136	18.88
639.896	18.88
640.657	16.88
641.417	19.88
642.177	16.88
642.937	13.88
643.697	16.88
644.457	17.88
645.216	16.88
645.976	16.88
646.736	13.88
647.495	16.88
648.255	13.88
649.014	14.88
649.774	14.88
650.533	13.88
651.292	11.88
652.051	15.88
652.81	12.88
653.569	12.88
654.328	9.88
655.087	12.88
655.846	9.88
656.604	10.88
657.363	10.88
658.121	14.88
658.88	9.88
659.638	11.88
660.397	8.88
661.155	10.88
661.913	10.88
662.671	9.88
663.429	11.88
664.187	9.88
664.945	10.88
665.703	10.88
666.46	9.88
667.218	11.88
667.976	8.88
668.733	10.88
669.49	6.88
670.248	8.88
671.005	8.88
671.762	9.88
672.519	9.88
673.276	9.88
674.033	7.88
674.79	7.88
675.547	7.88
676.304	8.88
677.06	5.88
677.817	9.88
678.574	8.88
679.33	9.88
680.086	7.88
680.843	6.88
681.599	6.88
682.355	7.88
683.111	8.88
683.867	6.88
684.623	4.88
685.379	8.88
686.135	6.88
686.89	7.88
687.646	7.88
688.402	8.88
689.157	6.88
689.912	7.88
690.668	5.88
691.423	7.88
692.178	7.88
692.933	8.88
693.688	7.88
694.443	6.88
695.198	6.88
695.953	8.88
696.708	5.88
697.462	6.88
698.217	6.88
698.972	5.88
699.726	7.88
700.48	6.88
701.235	4.88
701.989	6.88
702.743	4.88
703.497	5.88
704.251	7.88
705.005	6.88
705.759	4.88
706.513	8.88
707.266	5.88
708.02	7.88
708.774	6.88
709.527	6.88
710.28	7.88
711.034	4.88
711.787	7.88
712.54	7.88
713.293	8.88
714.046	5.88
714.799	8.88
715.552	8.88
716.305	8.88
717.058	5.88
717.81	9.88
718.563	6.88
719.315	7.88
720.068	7.88
720.82	9.88
721.573	9.88
722.325	7.88
723.077	7.88
723.829	7.88
724.581	7.88
725.333	7.88
726.085	9.88
726.836	8.88
727.588	9.88
728.34	7.88
729.091	9.88
729.843	6.88
730.594	11.88
731.346	7.88
732.097	8.88
732.848	7.88
733.599	7.88
734.35	6.88
735.101	10.88
735.852	9.88
736.603	8.88
737.354	10.88
738.104	9.88
738.855	8.88
739.605	8.88
740.356	10.88
741.106	8.88
741.856	9.88
742.607	10.88
743.357	9.88
744.107	13.88
744.857	10.88
745.607	7.88
746.357	10.88
747.106	10.88
747.856	12.88
748.606	11.88
749.355	9.88
750.105	11.88
750.854	10.88
751.603	11.88
752.353	10.88
753.102	9.88
753.851	10.88
754.6	13.88
755.349	10.88
756.098	10.88
756.847	13.88
757.595	12.88
758.344	13.88
759.093	10.88
759.841	15.88
760.589	14.88
761.338	10.88
762.086	16.88
762.834	13.88
763.582	14.88
764.331	14.88
765.079	15.88
765.826	12.88
766.574	14.88
767.322	16.88
768.07	16.88
768.817	14.88
769.565	14.88
770.312	15.88
771.06	14.88
771.807	14.88
772.554	13.88
773.302	14.88
774.049	16.88
774.796	15.88
775.543	15.88
776.29	17.88
777.036	17.88
777.783	15.88
778.53	17.88
779.276	16.88
780.023	15.88
780.769	17.88
781.516	20.88
782.262	16.88
783.008	15.88
783.754	18.88
784.5	18.88
785.246	17.88
785.992	16.88
786.738	17.88
787.484	18.88
788.23	16.88
788.975	14.88
789.721	13.88
790.466	16.88
791.212	15.88
791.957	17.88
792.702	14.88
793.447	13.88
794.193	14.88
794.938	16.88
795.683	13.88
796.427	14.88
797.172	14.88
797.917	13.88
798.662	10.88
799.406	14.88
800.151	13.88
800.895	11.88
801.64	12.88
802.384	10.88
803.128	11.88
803.872	9.88
804.616	12.88
805.36	9.88
806.104	10.88
806.848	11.88
807.592	8.88
808.336	12.88
809.079	7.88
809.823	12.88
810.566	8.88
811.31	10.88
812.053	9.88
812.796	8.88
813.539	9.88
814.283	9.88
815.026	8.88
815.769	7.88
816.511	8.88
817.254	6.88
817.997	7.88
818.74	5.88
819.482	5.88
820.225	7.88
820.967	7.88
821.71	6.88
822.452	7.88
823.194	6.88
823.936	7.88
824.678	7.88
825.42	10.88
826.162	5.88
826.904	6.88
827.646	7.88
828.388	5.88
829.129	7.88
829.871	5.88
830.612	6.88
831.354	4.88
832.095	7.88
832.836	4.88
833.577	7.88
834.319	5.88
835.06	7.88
835.801	6.88
836.542	5.88
837.282	4.88
838.023	5.88
838.764	4.88
839.504	4.88
840.245	4.88
840.985	6.88
841.726	6.88
842.466	4.88
843.206	2.88
843.946	4.88
844.687	2.88
845.427	5.88
846.166	5.88
846.906	4.88
847.646	5.88
848.386	4.88
849.125	4.88
849.865	2.88
850.605	4.88
851.344	1.88
852.083	4.88
852.823	3.88
853.562	3.88
854.301	3.88
855.04	2.88
855.779	3.88
856.518	6.88
857.257	4.88
857.995	4.88
858.734	0.88
859.473	4.88
860.211	3.88
860.95	2.88
861.688	3.88
862.426	3.88
863.165	4.88
863.903	3.88
864.641	5.88
865.379	1.88
866.117	1.88
866.855	0.88
867.593	1.88
868.33	2.88
869.068	0.88
869.806	0.88
870.543	0.88
871.28	1.88
872.018	1.88
872.755	1.88
873.492	2.88
874.229	0.88
874.967	0.88
875.703	-0.12
876.44	2.88
877.177	1.88
877.914	0.88
878.651	0.88
879.387	-0.12
880.124	4.88
880.86	0.88
881.597	0.88
882.333	1.88
883.069	-0.12
883.806	2.88
884.542	0.88
885.278	1.88
886.014	-0.12
886.749	-0.12
887.485	0.88
888.221	0.88
888.957	2.88
889.692	2.88
890.428	-1.12
891.163	0.88
891.899	-2.12
892.634	2.88
893.369	0.88
894.104	-0.12
894.839	-0.12
895.574	0.88
896.309	-1.12
897.044	1.88
897.779	1.88
898.514	1.88
899.248	-1.12
899.983	1.88
900.717	-0.12
901.452	2.88
902.186	1.88
902.92	0.88
903.654	0.88
904.389	0.88
905.123	1.88
905.857	0.88
906.59	0.88
907.324	0.88
908.058	-1.12
908.792	0.88
909.525	-0.12
910.259	1.88
910.992	-0.12
911.726	3.88
912.459	2.88
913.192	1.88
913.925	-1.12
914.658	-1.12
915.391	0.88
916.124	0.88
916.857	0.88
917.59	0.88
918.323	-0.12
919.055	1.88
919.788	0.88
920.521	1.88
921.253	-0.12
921.985	-0.12
922.718	0.88
923.45	-0.12
924.182	-1.12
924.914	-0.12
925.646	-0.12
926.378	-1.12
927.11	-1.12
927.841	-0.12
928.573	0.88
929.305	-0.12
930.036	-1.12
930.768	-1.12
931.499	-0.12
932.23	0.88
932.962	-0.12
933.693	0.88
934.424	1.88
935.155	1.88
935.886	-1.12
936.617	-0.12
937.348	-2.12
938.078	-0.12
938.809	-1.12
939.54	-0.12
940.27	-0.12
941.001	-1.12
941.731	-1.12
942.461	-0.12
943.191	0.88
943.922	-0.12
944.652	1.88
945.382	-1.12
946.112	-0.12
946.841	-0.12
947.571	0.88
948.301	-1.12
949.031	-1.12
949.76	0.88
950.49	1.88
951.219	-1.12
951.948	0.88
952.678	0.88
953.407	-0.12
954.136	-0.12
954.865	-0.12
955.594	-1.12
956.323	-0.12
957.052	1.88
957.78	0.88
958.509	-1.12
959.238	-0.12
959.966	1.88
960.695	0.88
961.423	-1.12
962.151	-0.12
962.88	-0.12
963.608	-1.12
964.336	-2.12
965.064	-0.12
965.792	-0.12
966.52	-1.12
967.247	-0.12
967.975	-3.12
968.703	-3.12
969.43	0.88
970.158	-1.12
970.885	-0.12
971.613	0.88
972.34	-1.12
973.067	-0.12
973.794	-0.12
974.521	1.88
975.248	-0.12
975.975	-0.12
976.702	0.88
977.429	-0.12
978.156	0.88
978.882	-0.12
979.609	0.88
980.335	0.88
981.062	-1.12
981.788	0.88
982.514	-0.12
983.24	-0.12
983.967	0.88
984.693	-0.12
985.419	-1.12
986.144	-2.12
986.87	-1.12
987.596	0.88
988.322	0.88
989.047	-1.12
989.773	0.88
990.498	0.88
991.224	-0.12
991.949	1.88
992.674	0.88
993.399	-1.12
994.124	0.88
994.849	-0.12
995.574	-1.12
996.299	1.88
997.024	2.88
997.749	-1.12
998.473	-0.12
999.198	0.88
999.922	-1.12
1000.647	1.88
1001.371	4.88
1002.095	-1.12
1002.82	-1.12
1003.544	-2.12
1004.268	3.88
1004.992	4.88
1005.716	6.88
1006.439	5.88
1007.163	4.88
1007.887	5.88
1008.611	0.88
1009.334	1.88
1010.058	-1.12
1010.781	-0.12
1011.504	1.88
1012.228	1.88
1012.951	-1.12
1013.674	-0.12
1014.397	-1.12
1015.12	1.88
