节点500_705_QEPB04081__330__20-50-38-538.txt的数据

Date: Wed Nov 12 20:50:38 CST 2025
User: PC
Spectrometer: QEPB0408
触发模式: 0
积分时间 (秒): 1.000000E-2
Scans to average: 1
启用暗噪声校正: true
启用非线性校正: false
滑动平均宽度: 0
X轴模式: Wavelengths
Number of Pixels in Spectrum: 1044
>>>>>Begin Spectral Data<<<<<
220.843	5
221.644	5
222.444	2
223.244	5
224.045	6
224.845	7
225.645	5
226.445	8
227.245	7
228.045	10
228.845	8
229.645	8
230.444	7
231.244	7
232.043	8
232.843	9
233.642	10
234.442	9
235.241	9
236.04	10
236.839	9
237.638	10
238.437	8
239.236	11
240.035	13
240.833	9
241.632	12
242.43	13
243.229	12
244.027	12
244.826	13
245.624	14
246.422	13
247.22	12
248.018	18
248.816	15
249.614	20
250.412	18
251.21	16
252.007	17
252.805	15
253.602	18
254.4	20
255.197	20
255.994	19
256.791	20
257.589	20
258.386	19
259.183	25
259.979	23
260.776	21
261.573	22
262.37	23
263.166	26
263.963	26
264.759	24
265.556	26
266.352	27
267.148	27
267.944	29
268.74	29
269.536	31
270.332	29
271.128	32
271.924	30
272.719	32
273.515	31
274.311	30
275.106	33
275.901	34
276.697	32
277.492	35
278.287	34
279.082	33
279.877	35
280.672	37
281.467	37
282.262	33
283.056	35
283.851	33
284.646	32
285.44	34
286.234	36
287.029	31
287.823	35
288.617	34
289.411	33
290.205	34
290.999	30
291.793	30
292.587	29
293.381	31
294.174	32
294.968	27
295.761	31
296.555	27
297.348	25
298.141	25
298.935	31
299.728	27
300.521	24
301.314	24
302.107	24
302.899	23
303.692	21
304.485	22
305.277	22
306.07	21
306.862	22
307.655	20
308.447	19
309.239	19
310.031	18
310.823	20
311.615	18
312.407	18
313.199	16
313.991	17
314.783	16
315.574	17
316.366	20
317.157	15
317.949	15
318.74	14
319.531	14
320.322	13
321.113	15
321.904	14
322.695	14
323.486	15
324.277	14
325.068	11
325.858	13
326.649	12
327.439	13
328.23	13
329.02	15
329.81	13
330.6	11
331.391	13
332.181	13
332.971	10
333.76	13
334.55	13
335.34	15
336.13	13
336.919	11
337.709	14
338.498	11
339.287	13
340.077	11
340.866	13
341.655	12
342.444	11
343.233	12
344.022	12
344.811	13
345.6	12
346.388	14
347.177	10
347.965	11
348.754	12
349.542	10
350.33	11
351.119	14
351.907	10
352.695	12
353.483	12
354.271	9
355.059	10
355.846	14
356.634	12
357.422	8
358.209	11
358.997	11
359.784	11
360.571	11
361.359	12
362.146	11
362.933	10
363.72	11
364.507	9
365.294	13
366.081	11
366.867	9
367.654	11
368.44	7
369.227	8
370.013	10
370.8	12
371.586	10
372.372	9
373.158	6
373.944	12
374.73	8
375.516	11
376.302	10
377.088	11
377.873	10
378.659	7
379.445	11
380.23	10
381.015	12
381.801	8
382.586	10
383.371	10
384.156	10
384.941	11
385.726	14
386.511	10
387.296	10
388.08	12
388.865	9
389.649	11
390.434	11
391.218	12
392.003	13
392.787	11
393.571	11
394.355	13
395.139	14
395.923	13
396.707	12
397.491	13
398.274	12
399.058	12
399.842	14
400.625	11
401.408	13
402.192	14
402.975	15
403.758	12
404.541	13
405.324	14
406.107	15
406.89	15
407.673	15
408.456	18
409.238	17
410.021	13
410.803	15
411.586	18
412.368	16
413.151	17
413.933	17
414.715	18
415.497	17
416.279	22
417.061	19
417.843	20
418.624	19
419.406	21
420.188	21
420.969	21
421.751	21
422.532	21
423.313	23
424.095	26
424.876	28
425.657	27
426.438	22
427.219	30
428	26
428.78	27
429.561	28
430.342	29
431.122	28
431.903	33
432.683	33
433.464	35
434.244	35
435.024	41
435.804	39
436.584	44
437.364	48
438.144	45
438.924	47
439.704	54
440.483	57
441.263	63
442.042	65
442.822	71
443.601	76
444.38	82
445.16	87
445.939	95
446.718	102
447.497	115
448.276	120
449.054	131
449.833	142
450.612	161
451.391	183
452.169	197
452.948	216
453.726	246
454.504	267
455.282	301
456.061	337
456.839	369
457.617	414
458.395	459
459.172	518
459.95	572
460.728	643
461.506	704
462.283	797
463.061	894
463.838	988
464.615	1102
465.393	1219
466.17	1365
466.947	1528
467.724	1666
468.501	1852
469.278	2059
470.055	2262
470.831	2491
471.608	2774
472.385	3055
473.161	3375
473.938	3702
474.714	4062
475.49	4450
476.266	4893
477.043	5316
477.819	5804
478.595	6369
479.371	6930
480.146	7600
480.922	8280
481.698	9013
482.473	9826
483.249	10682
484.024	11607
484.8	12590
485.575	13612
486.35	14838
487.126	16063
487.901	17337
488.676	18714
489.451	20212
490.225	21659
491	23227
491.775	24888
492.55	26591
493.324	28305
494.099	30100
494.873	31908
495.647	33683
496.422	35466
497.196	37248
497.97	38861
498.744	40410
499.518	42006
500.292	43338
501.066	44459
501.839	45312
502.613	46138
503.387	46646
504.16	47145
504.934	47178
505.707	47220
506.48	46847
507.253	46432
508.027	45605
508.8	44725
509.573	43608
510.346	42598
511.118	41493
511.891	40201
512.664	38752
513.437	37270
514.209	35939
514.982	34520
515.754	33177
516.526	31847
517.298	30531
518.071	29281
518.843	28109
519.615	26962
520.387	26012
521.159	24961
521.93	23930
522.702	22900
523.474	21897
524.245	20963
525.017	20060
525.788	19203
526.56	18353
527.331	17545
528.102	16691
528.873	15846
529.644	15131
530.415	14441
531.186	13718
531.957	12988
532.728	12316
533.498	11676
534.269	11077
535.039	10467
535.81	9916
536.58	9333
537.351	8859
538.121	8450
538.891	7970
539.661	7474
540.431	7114
541.201	6759
541.971	6394
542.741	6051
543.51	5749
544.28	5465
545.05	5191
545.819	4963
546.588	4751
547.358	4511
548.127	4295
548.896	4065
549.665	3870
550.434	3650
551.203	3468
551.972	3322
552.741	3101
553.51	2926
554.278	2775
555.047	2627
555.815	2467
556.584	2341
557.352	2212
558.121	2087
558.889	1978
559.657	1853
560.425	1770
561.193	1686
561.961	1593
562.729	1491
563.496	1407
564.264	1350
565.032	1267
565.799	1195
566.567	1132
567.334	1077
568.101	1010
568.869	955
569.636	893
570.403	849
571.17	792
571.937	754
572.704	715
573.471	679
574.237	635
575.004	601
575.771	563
576.537	526
577.303	510
578.07	483
578.836	453
579.602	425
580.368	401
581.134	385
581.9	364
582.666	345
583.432	334
584.198	316
584.964	304
585.729	281
586.495	270
587.26	255
588.025	242
588.791	226
589.556	213
590.321	206
591.086	190
591.851	184
592.616	178
593.381	170
594.146	161
594.911	157
595.675	152
596.44	137
597.204	134
597.969	127
598.733	124
599.497	117
600.261	113
601.025	108
601.79	103
602.553	102
603.317	98
604.081	95
604.845	91
605.609	83
606.372	82
607.136	76
607.899	76
608.662	73
609.426	70
610.189	70
610.952	63
611.715	62
612.478	62
613.241	57
614.004	54
614.767	54
615.529	53
616.292	51
617.055	49
617.817	47
618.579	48
619.342	42
620.104	43
620.866	43
621.628	39
622.39	37
623.152	39
623.914	37
624.676	32
625.438	35
626.199	33
626.961	33
627.722	31
628.484	32
629.245	30
630.006	28
630.768	28
631.529	29
632.29	25
633.051	27
633.812	26
634.573	21
635.333	23
636.094	23
636.855	23
637.615	22
638.376	23
639.136	22
639.896	20
640.657	18
641.417	17
642.177	23
642.937	16
643.697	18
644.457	17
645.216	18
645.976	15
646.736	15
647.495	16
648.255	14
649.014	15
649.774	14
650.533	13
651.292	16
652.051	12
652.81	15
653.569	15
654.328	14
655.087	11
655.846	13
656.604	14
657.363	15
658.121	15
658.88	13
659.638	11
660.397	10
661.155	10
661.913	9
662.671	8
663.429	13
664.187	11
664.945	10
665.703	10
666.46	8
667.218	12
667.976	10
668.733	13
669.49	9
670.248	9
671.005	11
671.762	8
672.519	11
673.276	7
674.033	9
674.79	9
675.547	8
676.304	9
677.06	8
677.817	8
678.574	11
679.33	8
680.086	9
680.843	9
681.599	8
682.355	8
683.111	8
683.867	9
684.623	5
685.379	10
686.135	7
686.89	8
687.646	8
688.402	7
689.157	9
689.912	7
690.668	9
691.423	9
692.178	7
692.933	7
693.688	8
694.443	9
695.198	10
695.953	9
696.708	9
697.462	7
698.217	6
698.972	7
699.726	9
700.48	7
701.235	8
701.989	5
702.743	7
703.497	8
704.251	9
705.005	8
705.759	5
706.513	8
707.266	8
708.02	7
708.774	9
709.527	5
710.28	7
711.034	6
711.787	6
712.54	9
713.293	7
714.046	7
714.799	8
715.552	6
716.305	9
717.058	8
717.81	7
718.563	7
719.315	8
720.068	8
720.82	5
721.573	9
722.325	8
723.077	7
723.829	8
724.581	11
725.333	9
726.085	8
726.836	9
727.588	9
728.34	8
729.091	8
729.843	6
730.594	10
731.346	11
732.097	10
732.848	10
733.599	9
734.35	10
735.101	10
735.852	9
736.603	8
737.354	9
738.104	11
738.855	10
739.605	11
740.356	8
741.106	10
741.856	9
742.607	10
743.357	10
744.107	10
744.857	9
745.607	12
746.357	12
747.106	12
747.856	12
748.606	12
749.355	12
750.105	9
750.854	9
751.603	9
752.353	11
753.102	12
753.851	14
754.6	11
755.349	13
756.098	11
756.847	12
757.595	13
758.344	12
759.093	12
759.841	14
760.589	12
761.338	13
762.086	11
762.834	11
763.582	12
764.331	14
765.079	12
765.826	16
766.574	14
767.322	12
768.07	13
768.817	14
769.565	16
770.312	15
771.06	14
771.807	15
772.554	13
773.302	16
774.049	15
774.796	15
775.543	15
776.29	15
777.036	16
777.783	13
778.53	14
779.276	15
780.023	13
780.769	15
781.516	14
782.262	15
783.008	17
783.754	15
784.5	19
785.246	17
785.992	17
786.738	12
787.484	14
788.23	17
788.975	14
789.721	14
790.466	15
791.212	14
791.957	12
792.702	15
793.447	13
794.193	12
794.938	14
795.683	13
796.427	16
797.172	15
797.917	14
798.662	15
799.406	13
800.151	17
800.895	11
801.64	13
802.384	13
803.128	11
803.872	10
804.616	11
805.36	13
806.104	10
806.848	10
807.592	10
808.336	13
809.079	9
809.823	11
810.566	10
811.31	9
812.053	7
812.796	7
813.539	8
814.283	9
815.026	8
815.769	8
816.511	8
817.254	8
817.997	8
818.74	5
819.482	7
820.225	7
820.967	6
821.71	9
822.452	6
823.194	8
823.936	9
824.678	6
825.42	9
826.162	9
826.904	9
827.646	8
828.388	8
829.129	7
829.871	7
830.612	6
831.354	7
832.095	6
832.836	6
833.577	6
834.319	7
835.06	4
835.801	4
836.542	6
837.282	7
838.023	7
838.764	5
839.504	5
840.245	4
840.985	7
841.726	5
842.466	7
843.206	8
843.946	2
844.687	7
845.427	5
846.166	6
846.906	5
847.646	6
848.386	5
849.125	4
849.865	6
850.605	3
851.344	2
852.083	5
852.823	5
853.562	3
854.301	5
855.04	5
855.779	4
856.518	6
857.257	4
857.995	2
858.734	3
859.473	2
860.211	4
860.95	5
861.688	3
862.426	6
863.165	3
863.903	4
864.641	2
865.379	4
866.117	3
866.855	5
867.593	3
868.33	3
869.068	4
869.806	4
870.543	3
871.28	1
872.018	2
872.755	1
873.492	2
874.229	2
874.967	4
875.703	2
876.44	3
877.177	1
877.914	3
878.651	3
879.387	0
880.124	1
880.86	1
881.597	2
882.333	2
883.069	3
883.806	1
884.542	0
885.278	2
886.014	2
886.749	4
887.485	3
888.221	1
888.957	1
889.692	2
890.428	3
891.163	2
891.899	1
892.634	2
893.369	2
894.104	1
894.839	0
895.574	1
896.309	0
897.044	2
897.779	3
898.514	3
899.248	3
899.983	1
900.717	1
901.452	1
902.186	2
902.92	0
903.654	0
904.389	1
905.123	2
905.857	3
906.59	3
907.324	2
908.058	1
908.792	2
909.525	4
910.259	1
910.992	3
911.726	0
912.459	1
913.192	3
913.925	1
914.658	3
915.391	0
916.124	1
916.857	1
917.59	0
918.323	1
919.055	1
919.788	0
920.521	3
921.253	0
921.985	2
922.718	-1
923.45	2
924.182	1
924.914	0
925.646	1
926.378	1
927.11	-2
927.841	-1
928.573	2
929.305	1
930.036	1
930.768	1
931.499	-2
932.23	1
932.962	-1
933.693	-1
934.424	1
935.155	1
935.886	4
936.617	-1
937.348	-1
938.078	1
938.809	2
939.54	0
940.27	-1
941.001	2
941.731	-1
942.461	0
943.191	0
943.922	-1
944.652	-1
945.382	0
946.112	-1
946.841	1
947.571	1
948.301	0
949.031	-1
949.76	1
950.49	0
951.219	0
951.948	-2
952.678	0
953.407	0
954.136	1
954.865	1
955.594	-1
956.323	0
957.052	2
957.78	0
958.509	0
959.238	0
959.966	1
960.695	1
961.423	0
962.151	1
962.88	2
963.608	0
964.336	-1
965.064	0
965.792	0
966.52	-3
967.247	0
967.975	1
968.703	0
969.43	1
970.158	-2
970.885	0
971.613	1
972.34	0
973.067	1
973.794	0
974.521	1
975.248	-1
975.975	2
976.702	0
977.429	0
978.156	0
978.882	-1
979.609	0
980.335	0
981.062	1
981.788	0
982.514	0
983.24	2
983.967	-1
984.693	1
985.419	1
986.144	-2
986.87	1
987.596	1
988.322	1
989.047	-2
989.773	1
990.498	-1
991.224	-1
991.949	0
992.674	3
993.399	1
994.124	-1
994.849	2
995.574	0
996.299	3
997.024	1
997.749	-1
998.473	1
999.198	-2
999.922	0
1000.647	0
1001.371	1
1002.095	0
1002.82	-2
1003.544	-1
1004.268	6
1004.992	2
1005.716	3
1006.439	5
1007.163	6
1007.887	5
1008.611	-1
1009.334	2
1010.058	2
1010.781	1
1011.504	2
1012.228	1
1012.951	-3
1013.674	2
1014.397	1
1015.12	2
