节点500_705_QEPB04081__105__20-47-38-155.txt的数据

Date: Wed Nov 12 20:47:38 CST 2025
User: PC
Spectrometer: QEPB0408
触发模式: 0
积分时间 (秒): 1.000000E-2
Scans to average: 1
启用暗噪声校正: true
启用非线性校正: false
滑动平均宽度: 0
X轴模式: Wavelengths
Number of Pixels in Spectrum: 1044
>>>>>Begin Spectral Data<<<<<
220.843	7.12
221.644	3.12
222.444	6.12
223.244	6.12
224.045	7.12
224.845	7.12
225.645	10.12
226.445	7.12
227.245	8.12
228.045	7.12
228.845	8.12
229.645	10.12
230.444	9.12
231.244	9.12
232.043	9.12
232.843	7.12
233.642	11.12
234.442	9.12
235.241	10.12
236.04	11.12
236.839	10.12
237.638	9.12
238.437	10.12
239.236	14.12
240.035	12.12
240.833	11.12
241.632	12.12
242.43	12.12
243.229	14.12
244.027	11.12
244.826	16.12
245.624	13.12
246.422	14.12
247.22	15.12
248.018	16.12
248.816	16.12
249.614	18.12
250.412	15.12
251.21	15.12
252.007	20.12
252.805	19.12
253.602	18.12
254.4	20.12
255.197	18.12
255.994	22.12
256.791	22.12
257.589	20.12
258.386	23.12
259.183	21.12
259.979	24.12
260.776	26.12
261.573	24.12
262.37	26.12
263.166	27.12
263.963	30.12
264.759	27.12
265.556	29.12
266.352	29.12
267.148	28.12
267.944	30.12
268.74	30.12
269.536	35.12
270.332	34.12
271.128	33.12
271.924	37.12
272.719	36.12
273.515	35.12
274.311	36.12
275.106	35.12
275.901	37.12
276.697	35.12
277.492	35.12
278.287	37.12
279.082	37.12
279.877	35.12
280.672	36.12
281.467	36.12
282.262	35.12
283.056	37.12
283.851	35.12
284.646	37.12
285.44	35.12
286.234	36.12
287.029	38.12
287.823	34.12
288.617	34.12
289.411	33.12
290.205	34.12
290.999	36.12
291.793	31.12
292.587	35.12
293.381	33.12
294.174	30.12
294.968	30.12
295.761	29.12
296.555	27.12
297.348	28.12
298.141	26.12
298.935	31.12
299.728	28.12
300.521	26.12
301.314	25.12
302.107	23.12
302.899	21.12
303.692	24.12
304.485	24.12
305.277	24.12
306.07	24.12
306.862	21.12
307.655	22.12
308.447	24.12
309.239	21.12
310.031	19.12
310.823	21.12
311.615	17.12
312.407	19.12
313.199	19.12
313.991	18.12
314.783	18.12
315.574	17.12
316.366	15.12
317.157	14.12
317.949	14.12
318.74	16.12
319.531	15.12
320.322	17.12
321.113	14.12
321.904	11.12
322.695	14.12
323.486	13.12
324.277	14.12
325.068	12.12
325.858	12.12
326.649	14.12
327.439	12.12
328.23	12.12
329.02	13.12
329.81	10.12
330.6	13.12
331.391	13.12
332.181	12.12
332.971	11.12
333.76	12.12
334.55	14.12
335.34	10.12
336.13	13.12
336.919	13.12
337.709	15.12
338.498	14.12
339.287	12.12
340.077	13.12
340.866	13.12
341.655	11.12
342.444	10.12
343.233	12.12
344.022	14.12
344.811	12.12
345.6	12.12
346.388	10.12
347.177	11.12
347.965	12.12
348.754	14.12
349.542	9.12
350.33	10.12
351.119	13.12
351.907	11.12
352.695	13.12
353.483	13.12
354.271	12.12
355.059	13.12
355.846	12.12
356.634	10.12
357.422	9.12
358.209	11.12
358.997	10.12
359.784	12.12
360.571	11.12
361.359	10.12
362.146	11.12
362.933	10.12
363.72	12.12
364.507	9.12
365.294	10.12
366.081	10.12
366.867	7.12
367.654	10.12
368.44	13.12
369.227	8.12
370.013	10.12
370.8	10.12
371.586	12.12
372.372	10.12
373.158	9.12
373.944	9.12
374.73	10.12
375.516	13.12
376.302	8.12
377.088	8.12
377.873	12.12
378.659	11.12
379.445	10.12
380.23	8.12
381.015	13.12
381.801	14.12
382.586	13.12
383.371	9.12
384.156	9.12
384.941	11.12
385.726	11.12
386.511	12.12
387.296	11.12
388.08	10.12
388.865	14.12
389.649	12.12
390.434	12.12
391.218	12.12
392.003	11.12
392.787	14.12
393.571	13.12
394.355	12.12
395.139	12.12
395.923	10.12
396.707	14.12
397.491	15.12
398.274	11.12
399.058	13.12
399.842	14.12
400.625	13.12
401.408	14.12
402.192	17.12
402.975	17.12
403.758	17.12
404.541	12.12
405.324	16.12
406.107	17.12
406.89	17.12
407.673	19.12
408.456	16.12
409.238	15.12
410.021	14.12
410.803	18.12
411.586	15.12
412.368	21.12
413.151	18.12
413.933	17.12
414.715	17.12
415.497	18.12
416.279	19.12
417.061	19.12
417.843	22.12
418.624	21.12
419.406	20.12
420.188	21.12
420.969	24.12
421.751	22.12
422.532	23.12
423.313	24.12
424.095	23.12
424.876	25.12
425.657	26.12
426.438	27.12
427.219	28.12
428	26.12
428.78	29.12
429.561	31.12
430.342	29.12
431.122	31.12
431.903	34.12
432.683	29.12
433.464	36.12
434.244	37.12
435.024	40.12
435.804	45.12
436.584	43.12
437.364	49.12
438.144	45.12
438.924	51.12
439.704	55.12
440.483	58.12
441.263	60.12
442.042	65.12
442.822	69.12
443.601	72.12
444.38	77.12
445.16	83.12
445.939	90.12
446.718	97.12
447.497	108.12
448.276	120.12
449.054	128.12
449.833	138.12
450.612	147.12
451.391	164.12
452.169	184.12
452.948	207.12
453.726	228.12
454.504	246.12
455.282	282.12
456.061	303.12
456.839	340.12
457.617	388.12
458.395	436.12
459.172	479.12
459.95	534.12
460.728	600.12
461.506	670.12
462.283	755.12
463.061	842.12
463.838	938.12
464.615	1052.12
465.393	1176.12
466.17	1314.12
466.947	1459.12
467.724	1621.12
468.501	1798.12
469.278	2017.12
470.055	2220.12
470.831	2460.12
471.608	2735.12
472.385	3023.12
473.161	3373.12
473.938	3720.12
474.714	4076.12
475.49	4482.12
476.266	4957.12
477.043	5436.12
477.819	5958.12
478.595	6540.12
479.371	7206.12
480.146	7915.12
480.922	8629.12
481.698	9474.12
482.473	10404.12
483.249	11334.12
484.024	12299.12
484.8	13385.12
485.575	14637.12
486.35	15907.12
487.126	17252.12
487.901	18686.12
488.676	20266.12
489.451	21949.12
490.225	23670.12
491	25360.12
491.775	27171.12
492.55	29091.12
493.324	31043.12
494.099	32925.12
494.873	34919.12
495.647	36892.12
496.422	38698.12
497.196	40622.12
497.97	42373.12
498.744	43898.12
499.518	45534.12
500.292	46686.12
501.066	47799.12
501.839	48527.12
502.613	49075.12
503.387	49492.12
504.16	49735.12
504.934	49638.12
505.707	49225.12
506.48	48615.12
507.253	47834.12
508.027	46837.12
508.8	45725.12
509.573	44325.12
510.346	43053.12
511.118	41757.12
511.891	40367.12
512.664	38695.12
513.437	37178.12
514.209	35609.12
514.982	34215.12
515.754	32770.12
516.526	31378.12
517.298	30095.12
518.071	28853.12
518.843	27737.12
519.615	26596.12
520.387	25532.12
521.159	24523.12
521.93	23462.12
522.702	22510.12
523.474	21496.12
524.245	20518.12
525.017	19654.12
525.788	18753.12
526.56	17915.12
527.331	17131.12
528.102	16232.12
528.873	15361.12
529.644	14643.12
530.415	13895.12
531.186	13251.12
531.957	12541.12
532.728	11832.12
533.498	11218.12
534.269	10580.12
535.039	10025.12
535.81	9479.12
536.58	8935.12
537.351	8489.12
538.121	8050.12
538.891	7576.12
539.661	7186.12
540.431	6811.12
541.201	6477.12
541.971	6058.12
542.741	5788.12
543.51	5470.12
544.28	5238.12
545.05	4986.12
545.819	4741.12
546.588	4499.12
547.358	4322.12
548.127	4099.12
548.896	3877.12
549.665	3673.12
550.434	3475.12
551.203	3274.12
551.972	3120.12
552.741	2952.12
553.51	2781.12
554.278	2639.12
555.047	2459.12
555.815	2321.12
556.584	2205.12
557.352	2102.12
558.121	1967.12
558.889	1858.12
559.657	1773.12
560.425	1669.12
561.193	1571.12
561.961	1480.12
562.729	1417.12
563.496	1323.12
564.264	1251.12
565.032	1190.12
565.799	1120.12
566.567	1072.12
567.334	1001.12
568.101	948.12
568.869	907.12
569.636	837.12
570.403	802.12
571.17	757.12
571.937	713.12
572.704	673.12
573.471	648.12
574.237	602.12
575.004	571.12
575.771	530.12
576.537	495.12
577.303	477.12
578.07	453.12
578.836	424.12
579.602	401.12
580.368	378.12
581.134	367.12
581.9	343.12
582.666	324.12
583.432	316.12
584.198	293.12
584.964	283.12
585.729	271.12
586.495	257.12
587.26	234.12
588.025	226.12
588.791	214.12
589.556	204.12
590.321	199.12
591.086	184.12
591.851	173.12
592.616	164.12
593.381	161.12
594.146	150.12
594.911	147.12
595.675	138.12
596.44	135.12
597.204	127.12
597.969	123.12
598.733	117.12
599.497	110.12
600.261	112.12
601.025	101.12
601.79	99.12
602.553	99.12
603.317	93.12
604.081	89.12
604.845	82.12
605.609	86.12
606.372	77.12
607.136	74.12
607.899	73.12
608.662	67.12
609.426	69.12
610.189	62.12
610.952	64.12
611.715	58.12
612.478	56.12
613.241	58.12
614.004	53.12
614.767	49.12
615.529	49.12
616.292	50.12
617.055	49.12
617.817	42.12
618.579	42.12
619.342	39.12
620.104	40.12
620.866	40.12
621.628	38.12
622.39	37.12
623.152	37.12
623.914	36.12
624.676	35.12
625.438	33.12
626.199	31.12
626.961	31.12
627.722	30.12
628.484	30.12
629.245	27.12
630.006	29.12
630.768	26.12
631.529	26.12
632.29	24.12
633.051	22.12
633.812	21.12
634.573	24.12
635.333	24.12
636.094	22.12
636.855	26.12
637.615	19.12
638.376	23.12
639.136	20.12
639.896	20.12
640.657	21.12
641.417	19.12
642.177	17.12
642.937	17.12
643.697	19.12
644.457	18.12
645.216	19.12
645.976	17.12
646.736	18.12
647.495	18.12
648.255	17.12
649.014	15.12
649.774	15.12
650.533	15.12
651.292	14.12
652.051	15.12
652.81	12.12
653.569	11.12
654.328	13.12
655.087	12.12
655.846	13.12
656.604	14.12
657.363	10.12
658.121	12.12
658.88	12.12
659.638	11.12
660.397	13.12
661.155	11.12
661.913	11.12
662.671	12.12
663.429	10.12
664.187	11.12
664.945	8.12
665.703	11.12
666.46	10.12
667.218	12.12
667.976	9.12
668.733	9.12
669.49	10.12
670.248	12.12
671.005	11.12
671.762	10.12
672.519	11.12
673.276	11.12
674.033	9.12
674.79	8.12
675.547	11.12
676.304	9.12
677.06	11.12
677.817	11.12
678.574	8.12
679.33	9.12
680.086	7.12
680.843	7.12
681.599	8.12
682.355	7.12
683.111	9.12
683.867	8.12
684.623	8.12
685.379	8.12
686.135	10.12
686.89	8.12
687.646	7.12
688.402	7.12
689.157	7.12
689.912	9.12
690.668	9.12
691.423	9.12
692.178	9.12
692.933	11.12
693.688	5.12
694.443	10.12
695.198	6.12
695.953	10.12
696.708	8.12
697.462	8.12
698.217	8.12
698.972	4.12
699.726	7.12
700.48	8.12
701.235	9.12
701.989	7.12
702.743	8.12
703.497	9.12
704.251	7.12
705.005	9.12
705.759	9.12
706.513	9.12
707.266	8.12
708.02	7.12
708.774	11.12
709.527	5.12
710.28	8.12
711.034	6.12
711.787	7.12
712.54	5.12
713.293	8.12
714.046	8.12
714.799	8.12
715.552	8.12
716.305	9.12
717.058	6.12
717.81	9.12
718.563	9.12
719.315	6.12
720.068	8.12
720.82	8.12
721.573	8.12
722.325	8.12
723.077	10.12
723.829	10.12
724.581	8.12
725.333	8.12
726.085	10.12
726.836	9.12
727.588	10.12
728.34	9.12
729.091	10.12
729.843	8.12
730.594	9.12
731.346	9.12
732.097	9.12
732.848	7.12
733.599	9.12
734.35	11.12
735.101	9.12
735.852	8.12
736.603	10.12
737.354	12.12
738.104	11.12
738.855	12.12
739.605	9.12
740.356	10.12
741.106	13.12
741.856	10.12
742.607	10.12
743.357	12.12
744.107	11.12
744.857	11.12
745.607	11.12
746.357	13.12
747.106	12.12
747.856	14.12
748.606	12.12
749.355	12.12
750.105	11.12
750.854	11.12
751.603	12.12
752.353	13.12
753.102	10.12
753.851	14.12
754.6	11.12
755.349	14.12
756.098	12.12
756.847	15.12
757.595	13.12
758.344	11.12
759.093	13.12
759.841	12.12
760.589	16.12
761.338	15.12
762.086	13.12
762.834	11.12
763.582	15.12
764.331	14.12
765.079	14.12
765.826	14.12
766.574	14.12
767.322	15.12
768.07	14.12
768.817	15.12
769.565	17.12
770.312	14.12
771.06	16.12
771.807	14.12
772.554	15.12
773.302	15.12
774.049	15.12
774.796	16.12
775.543	17.12
776.29	17.12
777.036	17.12
777.783	17.12
778.53	19.12
779.276	15.12
780.023	16.12
780.769	17.12
781.516	18.12
782.262	17.12
783.008	15.12
783.754	16.12
784.5	15.12
785.246	16.12
785.992	18.12
786.738	15.12
787.484	18.12
788.23	18.12
788.975	17.12
789.721	16.12
790.466	17.12
791.212	16.12
791.957	17.12
792.702	16.12
793.447	14.12
794.193	15.12
794.938	12.12
795.683	11.12
796.427	12.12
797.172	11.12
797.917	12.12
798.662	13.12
799.406	11.12
800.151	12.12
800.895	13.12
801.64	12.12
802.384	10.12
803.128	13.12
803.872	12.12
804.616	13.12
805.36	12.12
806.104	8.12
806.848	11.12
807.592	10.12
808.336	11.12
809.079	11.12
809.823	9.12
810.566	10.12
811.31	11.12
812.053	9.12
812.796	9.12
813.539	10.12
814.283	6.12
815.026	11.12
815.769	7.12
816.511	8.12
817.254	9.12
817.997	7.12
818.74	7.12
819.482	8.12
820.225	10.12
820.967	10.12
821.71	7.12
822.452	8.12
823.194	7.12
823.936	8.12
824.678	9.12
825.42	7.12
826.162	7.12
826.904	8.12
827.646	7.12
828.388	6.12
829.129	7.12
829.871	7.12
830.612	4.12
831.354	6.12
832.095	5.12
832.836	5.12
833.577	7.12
834.319	7.12
835.06	6.12
835.801	7.12
836.542	6.12
837.282	5.12
838.023	7.12
838.764	8.12
839.504	5.12
840.245	6.12
840.985	7.12
841.726	6.12
842.466	7.12
843.206	3.12
843.946	7.12
844.687	5.12
845.427	6.12
846.166	6.12
846.906	5.12
847.646	4.12
848.386	6.12
849.125	4.12
849.865	5.12
850.605	4.12
851.344	6.12
852.083	5.12
852.823	6.12
853.562	1.12
854.301	6.12
855.04	4.12
855.779	2.12
856.518	6.12
857.257	3.12
857.995	6.12
858.734	4.12
859.473	6.12
860.211	4.12
860.95	4.12
861.688	5.12
862.426	3.12
863.165	2.12
863.903	4.12
864.641	0.12
865.379	3.12
866.117	2.12
866.855	3.12
867.593	3.12
868.33	3.12
869.068	4.12
869.806	3.12
870.543	2.12
871.28	1.12
872.018	3.12
872.755	2.12
873.492	1.12
874.229	3.12
874.967	4.12
875.703	2.12
876.44	2.12
877.177	2.12
877.914	3.12
878.651	2.12
879.387	4.12
880.124	2.12
880.86	4.12
881.597	1.12
882.333	-0.88
883.069	2.12
883.806	-0.88
884.542	2.12
885.278	1.12
886.014	2.12
886.749	1.12
887.485	5.12
888.221	2.12
888.957	-0.88
889.692	1.12
890.428	2.12
891.163	0.12
891.899	1.12
892.634	2.12
893.369	1.12
894.104	2.12
894.839	3.12
895.574	1.12
896.309	1.12
897.044	1.12
897.779	1.12
898.514	2.12
899.248	2.12
899.983	1.12
900.717	2.12
901.452	1.12
902.186	0.12
902.92	0.12
903.654	3.12
904.389	-0.88
905.123	1.12
905.857	2.12
906.59	1.12
907.324	2.12
908.058	0.12
908.792	-0.88
909.525	4.12
910.259	0.12
910.992	2.12
911.726	1.12
912.459	0.12
913.192	-0.88
913.925	1.12
914.658	2.12
915.391	1.12
916.124	1.12
916.857	-0.88
917.59	1.12
918.323	0.12
919.055	-1.88
919.788	-0.88
920.521	1.12
921.253	2.12
921.985	-0.88
922.718	0.12
923.45	0.12
924.182	2.12
924.914	2.12
925.646	-0.88
926.378	-1.88
927.11	1.12
927.841	0.12
928.573	2.12
929.305	1.12
930.036	1.12
930.768	-0.88
931.499	0.12
932.23	0.12
932.962	3.12
933.693	0.12
934.424	-0.88
935.155	1.12
935.886	1.12
936.617	0.12
937.348	1.12
938.078	1.12
938.809	1.12
939.54	0.12
940.27	-0.88
941.001	1.12
941.731	1.12
942.461	1.12
943.191	-0.88
943.922	-0.88
944.652	2.12
945.382	-0.88
946.112	1.12
946.841	2.12
947.571	0.12
948.301	0.12
949.031	2.12
949.76	1.12
950.49	0.12
951.219	-0.88
951.948	2.12
952.678	1.12
953.407	2.12
954.136	1.12
954.865	1.12
955.594	0.12
956.323	0.12
957.052	-1.88
957.78	1.12
958.509	0.12
959.238	1.12
959.966	1.12
960.695	-0.88
961.423	2.12
962.151	0.12
962.88	2.12
963.608	0.12
964.336	0.12
965.064	-0.88
965.792	-1.88
966.52	1.12
967.247	1.12
967.975	1.12
968.703	0.12
969.43	0.12
970.158	0.12
970.885	0.12
971.613	-0.88
972.34	1.12
973.067	-0.88
973.794	1.12
974.521	-0.88
975.248	0.12
975.975	2.12
976.702	2.12
977.429	1.12
978.156	1.12
978.882	0.12
979.609	0.12
980.335	1.12
981.062	1.12
981.788	-0.88
982.514	0.12
983.24	1.12
983.967	-0.88
984.693	-1.88
985.419	1.12
986.144	-0.88
986.87	0.12
987.596	-0.88
988.322	-0.88
989.047	0.12
989.773	-0.88
990.498	1.12
991.224	1.12
991.949	-0.88
992.674	0.12
993.399	0.12
994.124	2.12
994.849	1.12
995.574	1.12
996.299	1.12
997.024	-0.88
997.749	1.12
998.473	0.12
999.198	0.12
999.922	0.12
1000.647	-0.88
1001.371	4.12
1002.095	-0.88
1002.82	0.12
1003.544	-2.88
1004.268	6.12
1004.992	4.12
1005.716	6.12
1006.439	7.12
1007.163	6.12
1007.887	5.12
1008.611	0.12
1009.334	0.12
1010.058	-0.88
1010.781	0.12
1011.504	-0.88
1012.228	-1.88
1012.951	-0.88
1013.674	0.12
1014.397	-0.88
1015.12	1.12
