节点500_705_QEPB04081__687__20-55-43-791.txt的数据

Date: Wed Nov 12 20:55:43 CST 2025
User: PC
Spectrometer: QEPB0408
触发模式: 0
积分时间 (秒): 1.000000E-2
Scans to average: 1
启用暗噪声校正: true
启用非线性校正: false
滑动平均宽度: 0
X轴模式: Wavelengths
Number of Pixels in Spectrum: 1044
>>>>>Begin Spectral Data<<<<<
220.843	5.38
221.644	5.38
222.444	4.38
223.244	9.38
224.045	3.38
224.845	7.38
225.645	6.38
226.445	8.38
227.245	6.38
228.045	7.38
228.845	7.38
229.645	9.38
230.444	10.38
231.244	7.38
232.043	7.38
232.843	7.38
233.642	10.38
234.442	8.38
235.241	7.38
236.04	9.38
236.839	11.38
237.638	9.38
238.437	12.38
239.236	10.38
240.035	9.38
240.833	11.38
241.632	10.38
242.43	12.38
243.229	11.38
244.027	11.38
244.826	11.38
245.624	14.38
246.422	11.38
247.22	14.38
248.018	14.38
248.816	13.38
249.614	12.38
250.412	15.38
251.21	14.38
252.007	15.38
252.805	14.38
253.602	17.38
254.4	15.38
255.197	16.38
255.994	17.38
256.791	19.38
257.589	16.38
258.386	17.38
259.183	20.38
259.979	19.38
260.776	20.38
261.573	19.38
262.37	22.38
263.166	22.38
263.963	22.38
264.759	23.38
265.556	18.38
266.352	23.38
267.148	24.38
267.944	24.38
268.74	24.38
269.536	26.38
270.332	27.38
271.128	29.38
271.924	28.38
272.719	30.38
273.515	27.38
274.311	29.38
275.106	29.38
275.901	28.38
276.697	31.38
277.492	31.38
278.287	31.38
279.082	34.38
279.877	29.38
280.672	33.38
281.467	29.38
282.262	31.38
283.056	32.38
283.851	30.38
284.646	30.38
285.44	33.38
286.234	34.38
287.029	30.38
287.823	31.38
288.617	29.38
289.411	32.38
290.205	30.38
290.999	32.38
291.793	32.38
292.587	32.38
293.381	28.38
294.174	29.38
294.968	31.38
295.761	26.38
296.555	24.38
297.348	25.38
298.141	25.38
298.935	27.38
299.728	26.38
300.521	25.38
301.314	23.38
302.107	23.38
302.899	23.38
303.692	21.38
304.485	23.38
305.277	21.38
306.07	22.38
306.862	21.38
307.655	21.38
308.447	23.38
309.239	19.38
310.031	19.38
310.823	17.38
311.615	18.38
312.407	15.38
313.199	18.38
313.991	20.38
314.783	17.38
315.574	17.38
316.366	15.38
317.157	16.38
317.949	15.38
318.74	14.38
319.531	17.38
320.322	15.38
321.113	14.38
321.904	15.38
322.695	12.38
323.486	12.38
324.277	11.38
325.068	13.38
325.858	13.38
326.649	11.38
327.439	14.38
328.23	7.38
329.02	13.38
329.81	12.38
330.6	12.38
331.391	13.38
332.181	12.38
332.971	11.38
333.76	14.38
334.55	10.38
335.34	12.38
336.13	13.38
336.919	12.38
337.709	9.38
338.498	11.38
339.287	11.38
340.077	11.38
340.866	12.38
341.655	11.38
342.444	12.38
343.233	11.38
344.022	11.38
344.811	11.38
345.6	11.38
346.388	11.38
347.177	9.38
347.965	12.38
348.754	13.38
349.542	12.38
350.33	11.38
351.119	7.38
351.907	7.38
352.695	9.38
353.483	9.38
354.271	9.38
355.059	10.38
355.846	12.38
356.634	11.38
357.422	9.38
358.209	11.38
358.997	13.38
359.784	12.38
360.571	11.38
361.359	9.38
362.146	11.38
362.933	10.38
363.72	11.38
364.507	9.38
365.294	9.38
366.081	11.38
366.867	11.38
367.654	10.38
368.44	7.38
369.227	9.38
370.013	10.38
370.8	10.38
371.586	11.38
372.372	11.38
373.158	9.38
373.944	11.38
374.73	10.38
375.516	9.38
376.302	9.38
377.088	11.38
377.873	10.38
378.659	8.38
379.445	7.38
380.23	8.38
381.015	9.38
381.801	10.38
382.586	9.38
383.371	11.38
384.156	10.38
384.941	10.38
385.726	8.38
386.511	10.38
387.296	11.38
388.08	10.38
388.865	10.38
389.649	9.38
390.434	9.38
391.218	12.38
392.003	10.38
392.787	13.38
393.571	11.38
394.355	9.38
395.139	12.38
395.923	9.38
396.707	9.38
397.491	11.38
398.274	14.38
399.058	13.38
399.842	9.38
400.625	12.38
401.408	11.38
402.192	12.38
402.975	8.38
403.758	16.38
404.541	15.38
405.324	15.38
406.107	15.38
406.89	15.38
407.673	17.38
408.456	18.38
409.238	15.38
410.021	15.38
410.803	13.38
411.586	17.38
412.368	16.38
413.151	16.38
413.933	19.38
414.715	15.38
415.497	16.38
416.279	19.38
417.061	18.38
417.843	18.38
418.624	19.38
419.406	17.38
420.188	20.38
420.969	19.38
421.751	22.38
422.532	21.38
423.313	22.38
424.095	20.38
424.876	25.38
425.657	23.38
426.438	25.38
427.219	26.38
428	25.38
428.78	27.38
429.561	31.38
430.342	29.38
431.122	33.38
431.903	31.38
432.683	34.38
433.464	33.38
434.244	37.38
435.024	45.38
435.804	41.38
436.584	45.38
437.364	45.38
438.144	45.38
438.924	48.38
439.704	60.38
440.483	58.38
441.263	64.38
442.042	69.38
442.822	70.38
443.601	72.38
444.38	84.38
445.16	86.38
445.939	101.38
446.718	109.38
447.497	118.38
448.276	133.38
449.054	147.38
449.833	159.38
450.612	172.38
451.391	197.38
452.169	209.38
452.948	232.38
453.726	262.38
454.504	290.38
455.282	324.38
456.061	360.38
456.839	400.38
457.617	451.38
458.395	495.38
459.172	541.38
459.95	610.38
460.728	685.38
461.506	754.38
462.283	827.38
463.061	932.38
463.838	1033.38
464.615	1131.38
465.393	1266.38
466.17	1391.38
466.947	1528.38
467.724	1705.38
468.501	1867.38
469.278	2091.38
470.055	2287.38
470.831	2514.38
471.608	2752.38
472.385	3021.38
473.161	3293.38
473.938	3619.38
474.714	3952.38
475.49	4333.38
476.266	4716.38
477.043	5137.38
477.819	5563.38
478.595	6042.38
479.371	6545.38
480.146	7122.38
480.922	7716.38
481.698	8342.38
482.473	9101.38
483.249	9761.38
484.024	10593.38
484.8	11431.38
485.575	12322.38
486.35	13298.38
487.126	14343.38
487.901	15382.38
488.676	16515.38
489.451	17765.38
490.225	19080.38
491	20371.38
491.775	21747.38
492.55	23256.38
493.324	24634.38
494.099	26120.38
494.873	27781.38
495.647	29322.38
496.422	30891.38
497.196	32428.38
497.97	33992.38
498.744	35467.38
499.518	36977.38
500.292	38299.38
501.066	39426.38
501.839	40451.38
502.613	41336.38
503.387	42158.38
504.16	42774.38
504.934	43193.38
505.707	43509.38
506.48	43407.38
507.253	43247.38
508.027	42989.38
508.8	42483.38
509.573	41750.38
510.346	41101.38
511.118	40368.38
511.891	39350.38
512.664	38152.38
513.437	36942.38
514.209	35698.38
514.982	34497.38
515.754	33269.38
516.526	32031.38
517.298	30801.38
518.071	29725.38
518.843	28586.38
519.615	27359.38
520.387	26254.38
521.159	25331.38
521.93	24240.38
522.702	23297.38
523.474	22282.38
524.245	21481.38
525.017	20555.38
525.788	19701.38
526.56	18832.38
527.331	18156.38
528.102	17259.38
528.873	16439.38
529.644	15629.38
530.415	15013.38
531.186	14290.38
531.957	13593.38
532.728	12916.38
533.498	12294.38
534.269	11663.38
535.039	11032.38
535.81	10459.38
536.58	9918.38
537.351	9342.38
538.121	8904.38
538.891	8439.38
539.661	7962.38
540.431	7523.38
541.201	7190.38
541.971	6818.38
542.741	6406.38
543.51	6111.38
544.28	5800.38
545.05	5546.38
545.819	5302.38
546.588	5038.38
547.358	4795.38
548.127	4568.38
548.896	4330.38
549.665	4115.38
550.434	3906.38
551.203	3719.38
551.972	3537.38
552.741	3327.38
553.51	3149.38
554.278	2984.38
555.047	2804.38
555.815	2672.38
556.584	2536.38
557.352	2382.38
558.121	2254.38
558.889	2133.38
559.657	2011.38
560.425	1911.38
561.193	1811.38
561.961	1720.38
562.729	1612.38
563.496	1538.38
564.264	1455.38
565.032	1379.38
565.799	1303.38
566.567	1226.38
567.334	1148.38
568.101	1102.38
568.869	1040.38
569.636	984.38
570.403	926.38
571.17	866.38
571.937	829.38
572.704	777.38
573.471	733.38
574.237	694.38
575.004	651.38
575.771	610.38
576.537	580.38
577.303	540.38
578.07	521.38
578.836	487.38
579.602	462.38
580.368	440.38
581.134	424.38
581.9	403.38
582.666	379.38
583.432	361.38
584.198	340.38
584.964	323.38
585.729	308.38
586.495	291.38
587.26	280.38
588.025	259.38
588.791	243.38
589.556	235.38
590.321	218.38
591.086	206.38
591.851	200.38
592.616	193.38
593.381	174.38
594.146	178.38
594.911	170.38
595.675	160.38
596.44	151.38
597.204	140.38
597.969	138.38
598.733	132.38
599.497	124.38
600.261	120.38
601.025	114.38
601.79	113.38
602.553	109.38
603.317	101.38
604.081	94.38
604.845	95.38
605.609	92.38
606.372	87.38
607.136	84.38
607.899	83.38
608.662	76.38
609.426	76.38
610.189	66.38
610.952	71.38
611.715	66.38
612.478	63.38
613.241	60.38
614.004	58.38
614.767	55.38
615.529	54.38
616.292	51.38
617.055	50.38
617.817	46.38
618.579	49.38
619.342	46.38
620.104	49.38
620.866	43.38
621.628	42.38
622.39	41.38
623.152	40.38
623.914	35.38
624.676	38.38
625.438	36.38
626.199	33.38
626.961	33.38
627.722	34.38
628.484	31.38
629.245	32.38
630.006	27.38
630.768	29.38
631.529	27.38
632.29	27.38
633.051	27.38
633.812	24.38
634.573	23.38
635.333	26.38
636.094	24.38
636.855	24.38
637.615	22.38
638.376	23.38
639.136	22.38
639.896	21.38
640.657	20.38
641.417	19.38
642.177	19.38
642.937	21.38
643.697	17.38
644.457	18.38
645.216	17.38
645.976	19.38
646.736	15.38
647.495	15.38
648.255	14.38
649.014	14.38
649.774	15.38
650.533	14.38
651.292	12.38
652.051	14.38
652.81	15.38
653.569	14.38
654.328	15.38
655.087	12.38
655.846	12.38
656.604	14.38
657.363	12.38
658.121	13.38
658.88	12.38
659.638	12.38
660.397	14.38
661.155	12.38
661.913	11.38
662.671	12.38
663.429	13.38
664.187	11.38
664.945	9.38
665.703	11.38
666.46	8.38
667.218	9.38
667.976	11.38
668.733	8.38
669.49	8.38
670.248	9.38
671.005	10.38
671.762	9.38
672.519	8.38
673.276	8.38
674.033	9.38
674.79	8.38
675.547	10.38
676.304	10.38
677.06	8.38
677.817	6.38
678.574	8.38
679.33	9.38
680.086	11.38
680.843	9.38
681.599	7.38
682.355	6.38
683.111	7.38
683.867	7.38
684.623	9.38
685.379	8.38
686.135	8.38
686.89	6.38
687.646	7.38
688.402	10.38
689.157	7.38
689.912	7.38
690.668	4.38
691.423	8.38
692.178	8.38
692.933	9.38
693.688	8.38
694.443	7.38
695.198	7.38
695.953	8.38
696.708	6.38
697.462	6.38
698.217	7.38
698.972	9.38
699.726	8.38
700.48	4.38
701.235	10.38
701.989	9.38
702.743	7.38
703.497	7.38
704.251	10.38
705.005	7.38
705.759	7.38
706.513	9.38
707.266	9.38
708.02	9.38
708.774	7.38
709.527	8.38
710.28	5.38
711.034	8.38
711.787	6.38
712.54	9.38
713.293	6.38
714.046	8.38
714.799	8.38
715.552	5.38
716.305	9.38
717.058	9.38
717.81	7.38
718.563	4.38
719.315	7.38
720.068	8.38
720.82	5.38
721.573	10.38
722.325	8.38
723.077	9.38
723.829	7.38
724.581	8.38
725.333	6.38
726.085	10.38
726.836	8.38
727.588	5.38
728.34	7.38
729.091	7.38
729.843	9.38
730.594	10.38
731.346	8.38
732.097	10.38
732.848	6.38
733.599	7.38
734.35	10.38
735.101	7.38
735.852	9.38
736.603	8.38
737.354	11.38
738.104	10.38
738.855	8.38
739.605	8.38
740.356	12.38
741.106	11.38
741.856	7.38
742.607	8.38
743.357	12.38
744.107	8.38
744.857	9.38
745.607	6.38
746.357	10.38
747.106	8.38
747.856	7.38
748.606	9.38
749.355	9.38
750.105	11.38
750.854	11.38
751.603	11.38
752.353	9.38
753.102	11.38
753.851	12.38
754.6	11.38
755.349	10.38
756.098	12.38
756.847	11.38
757.595	11.38
758.344	10.38
759.093	14.38
759.841	11.38
760.589	14.38
761.338	11.38
762.086	12.38
762.834	8.38
763.582	11.38
764.331	11.38
765.079	10.38
765.826	11.38
766.574	12.38
767.322	11.38
768.07	13.38
768.817	12.38
769.565	14.38
770.312	13.38
771.06	15.38
771.807	13.38
772.554	14.38
773.302	8.38
774.049	15.38
774.796	11.38
775.543	15.38
776.29	12.38
777.036	15.38
777.783	9.38
778.53	17.38
779.276	14.38
780.023	13.38
780.769	13.38
781.516	15.38
782.262	14.38
783.008	15.38
783.754	15.38
784.5	17.38
785.246	14.38
785.992	16.38
786.738	15.38
787.484	15.38
788.23	13.38
788.975	16.38
789.721	13.38
790.466	14.38
791.212	11.38
791.957	12.38
792.702	15.38
793.447	13.38
794.193	10.38
794.938	13.38
795.683	13.38
796.427	16.38
797.172	12.38
797.917	11.38
798.662	11.38
799.406	11.38
800.151	13.38
800.895	12.38
801.64	13.38
802.384	11.38
803.128	14.38
803.872	11.38
804.616	10.38
805.36	11.38
806.104	10.38
806.848	11.38
807.592	10.38
808.336	9.38
809.079	10.38
809.823	9.38
810.566	9.38
811.31	9.38
812.053	9.38
812.796	10.38
813.539	9.38
814.283	9.38
815.026	7.38
815.769	6.38
816.511	10.38
817.254	7.38
817.997	8.38
818.74	6.38
819.482	6.38
820.225	6.38
820.967	9.38
821.71	7.38
822.452	6.38
823.194	7.38
823.936	6.38
824.678	7.38
825.42	7.38
826.162	7.38
826.904	5.38
827.646	6.38
828.388	8.38
829.129	6.38
829.871	7.38
830.612	4.38
831.354	8.38
832.095	6.38
832.836	6.38
833.577	7.38
834.319	6.38
835.06	7.38
835.801	5.38
836.542	7.38
837.282	4.38
838.023	4.38
838.764	6.38
839.504	6.38
840.245	6.38
840.985	7.38
841.726	4.38
842.466	6.38
843.206	4.38
843.946	7.38
844.687	3.38
845.427	6.38
846.166	5.38
846.906	4.38
847.646	3.38
848.386	5.38
849.125	2.38
849.865	4.38
850.605	5.38
851.344	4.38
852.083	5.38
852.823	7.38
853.562	5.38
854.301	4.38
855.04	5.38
855.779	4.38
856.518	3.38
857.257	3.38
857.995	2.38
858.734	4.38
859.473	4.38
860.211	4.38
860.95	2.38
861.688	4.38
862.426	4.38
863.165	2.38
863.903	3.38
864.641	5.38
865.379	3.38
866.117	1.38
866.855	4.38
867.593	4.38
868.33	3.38
869.068	4.38
869.806	5.38
870.543	2.38
871.28	2.38
872.018	2.38
872.755	-0.62
873.492	2.38
874.229	2.38
874.967	1.38
875.703	5.38
876.44	2.38
877.177	2.38
877.914	3.38
878.651	3.38
879.387	1.38
880.124	2.38
880.86	3.38
881.597	2.38
882.333	2.38
883.069	4.38
883.806	2.38
884.542	3.38
885.278	1.38
886.014	1.38
886.749	1.38
887.485	0.38
888.221	3.38
888.957	-0.62
889.692	3.38
890.428	1.38
891.163	3.38
891.899	1.38
892.634	1.38
893.369	0.38
894.104	2.38
894.839	1.38
895.574	2.38
896.309	-0.62
897.044	3.38
897.779	1.38
898.514	2.38
899.248	-1.62
899.983	2.38
900.717	2.38
901.452	0.38
902.186	0.38
902.92	1.38
903.654	3.38
904.389	2.38
905.123	0.38
905.857	0.38
906.59	1.38
907.324	2.38
908.058	1.38
908.792	-0.62
909.525	-0.62
910.259	3.38
910.992	0.38
911.726	1.38
912.459	1.38
913.192	-0.62
913.925	2.38
914.658	3.38
915.391	1.38
916.124	2.38
916.857	1.38
917.59	1.38
918.323	0.38
919.055	-0.62
919.788	0.38
920.521	0.38
921.253	1.38
921.985	0.38
922.718	2.38
923.45	-0.62
924.182	0.38
924.914	2.38
925.646	1.38
926.378	0.38
927.11	1.38
927.841	1.38
928.573	0.38
929.305	1.38
930.036	1.38
930.768	1.38
931.499	0.38
932.23	-0.62
932.962	1.38
933.693	2.38
934.424	-0.62
935.155	-0.62
935.886	0.38
936.617	1.38
937.348	1.38
938.078	-0.62
938.809	1.38
939.54	1.38
940.27	3.38
941.001	-0.62
941.731	-0.62
942.461	3.38
943.191	2.38
943.922	1.38
944.652	-0.62
945.382	0.38
946.112	1.38
946.841	1.38
947.571	2.38
948.301	-0.62
949.031	1.38
949.76	1.38
950.49	-0.62
951.219	2.38
951.948	0.38
952.678	1.38
953.407	-0.62
954.136	-1.62
954.865	1.38
955.594	2.38
956.323	0.38
957.052	0.38
957.78	1.38
958.509	1.38
959.238	1.38
959.966	1.38
960.695	-2.62
961.423	1.38
962.151	0.38
962.88	0.38
963.608	0.38
964.336	2.38
965.064	-0.62
965.792	1.38
966.52	1.38
967.247	-1.62
967.975	-0.62
968.703	3.38
969.43	-0.62
970.158	-0.62
970.885	-0.62
971.613	1.38
972.34	2.38
973.067	-0.62
973.794	1.38
974.521	0.38
975.248	0.38
975.975	0.38
976.702	2.38
977.429	1.38
978.156	1.38
978.882	1.38
979.609	1.38
980.335	-0.62
981.062	-0.62
981.788	0.38
982.514	2.38
983.24	2.38
983.967	-0.62
984.693	-0.62
985.419	0.38
986.144	-0.62
986.87	-1.62
987.596	2.38
988.322	-1.62
989.047	1.38
989.773	2.38
990.498	1.38
991.224	1.38
991.949	2.38
992.674	-0.62
993.399	0.38
994.124	2.38
994.849	1.38
995.574	2.38
996.299	3.38
997.024	-0.62
997.749	-0.62
998.473	-0.62
999.198	1.38
999.922	0.38
1000.647	4.38
1001.371	4.38
1002.095	-2.62
1002.82	-1.62
1003.544	-0.62
1004.268	3.38
1004.992	4.38
1005.716	3.38
1006.439	4.38
1007.163	4.38
1007.887	4.38
1008.611	2.38
1009.334	-1.62
1010.058	2.38
1010.781	1.38
1011.504	2.38
1012.228	-0.62
1012.951	0.38
1013.674	-0.62
1014.397	1.38
1015.12	-0.62
