节点500_705_QEPB04081__31__20-46-24-304.txt的数据

Date: Wed Nov 12 20:46:24 CST 2025
User: PC
Spectrometer: QEPB0408
触发模式: 0
积分时间 (秒): 1.000000E-2
Scans to average: 1
启用暗噪声校正: true
启用非线性校正: false
滑动平均宽度: 0
X轴模式: Wavelengths
Number of Pixels in Spectrum: 1044
>>>>>Begin Spectral Data<<<<<
220.843	6.75
221.644	5.75
222.444	7.75
223.244	7.75
224.045	7.75
224.845	6.75
225.645	5.75
226.445	6.75
227.245	7.75
228.045	10.75
228.845	9.75
229.645	10.75
230.444	9.75
231.244	9.75
232.043	8.75
232.843	10.75
233.642	11.75
234.442	8.75
235.241	11.75
236.04	10.75
236.839	8.75
237.638	11.75
238.437	13.75
239.236	12.75
240.035	11.75
240.833	14.75
241.632	16.75
242.43	15.75
243.229	15.75
244.027	12.75
244.826	15.75
245.624	15.75
246.422	13.75
247.22	14.75
248.018	14.75
248.816	16.75
249.614	14.75
250.412	18.75
251.21	16.75
252.007	17.75
252.805	18.75
253.602	19.75
254.4	21.75
255.197	22.75
255.994	22.75
256.791	22.75
257.589	22.75
258.386	23.75
259.183	24.75
259.979	25.75
260.776	24.75
261.573	27.75
262.37	26.75
263.166	27.75
263.963	28.75
264.759	29.75
265.556	30.75
266.352	29.75
267.148	33.75
267.944	30.75
268.74	32.75
269.536	32.75
270.332	31.75
271.128	34.75
271.924	35.75
272.719	37.75
273.515	37.75
274.311	36.75
275.106	36.75
275.901	41.75
276.697	33.75
277.492	36.75
278.287	36.75
279.082	40.75
279.877	36.75
280.672	38.75
281.467	37.75
282.262	35.75
283.056	39.75
283.851	37.75
284.646	35.75
285.44	39.75
286.234	38.75
287.029	38.75
287.823	33.75
288.617	37.75
289.411	34.75
290.205	34.75
290.999	33.75
291.793	31.75
292.587	35.75
293.381	34.75
294.174	32.75
294.968	29.75
295.761	31.75
296.555	27.75
297.348	28.75
298.141	28.75
298.935	29.75
299.728	27.75
300.521	22.75
301.314	27.75
302.107	24.75
302.899	24.75
303.692	25.75
304.485	25.75
305.277	23.75
306.07	24.75
306.862	23.75
307.655	24.75
308.447	24.75
309.239	23.75
310.031	19.75
310.823	20.75
311.615	20.75
312.407	19.75
313.199	18.75
313.991	16.75
314.783	17.75
315.574	18.75
316.366	15.75
317.157	14.75
317.949	15.75
318.74	15.75
319.531	13.75
320.322	13.75
321.113	14.75
321.904	14.75
322.695	13.75
323.486	14.75
324.277	13.75
325.068	12.75
325.858	10.75
326.649	15.75
327.439	12.75
328.23	13.75
329.02	11.75
329.81	11.75
330.6	14.75
331.391	14.75
332.181	11.75
332.971	12.75
333.76	13.75
334.55	11.75
335.34	10.75
336.13	15.75
336.919	13.75
337.709	12.75
338.498	11.75
339.287	12.75
340.077	13.75
340.866	13.75
341.655	12.75
342.444	13.75
343.233	15.75
344.022	12.75
344.811	11.75
345.6	12.75
346.388	11.75
347.177	13.75
347.965	10.75
348.754	10.75
349.542	10.75
350.33	13.75
351.119	10.75
351.907	9.75
352.695	13.75
353.483	9.75
354.271	11.75
355.059	10.75
355.846	11.75
356.634	12.75
357.422	11.75
358.209	12.75
358.997	9.75
359.784	10.75
360.571	11.75
361.359	10.75
362.146	13.75
362.933	11.75
363.72	11.75
364.507	10.75
365.294	9.75
366.081	10.75
366.867	9.75
367.654	11.75
368.44	10.75
369.227	11.75
370.013	9.75
370.8	12.75
371.586	10.75
372.372	8.75
373.158	11.75
373.944	8.75
374.73	12.75
375.516	9.75
376.302	9.75
377.088	9.75
377.873	11.75
378.659	8.75
379.445	8.75
380.23	9.75
381.015	11.75
381.801	13.75
382.586	12.75
383.371	9.75
384.156	10.75
384.941	11.75
385.726	11.75
386.511	10.75
387.296	11.75
388.08	12.75
388.865	11.75
389.649	11.75
390.434	11.75
391.218	11.75
392.003	13.75
392.787	13.75
393.571	14.75
394.355	13.75
395.139	11.75
395.923	13.75
396.707	12.75
397.491	13.75
398.274	13.75
399.058	17.75
399.842	13.75
400.625	14.75
401.408	13.75
402.192	14.75
402.975	17.75
403.758	16.75
404.541	16.75
405.324	16.75
406.107	13.75
406.89	18.75
407.673	17.75
408.456	13.75
409.238	18.75
410.021	19.75
410.803	19.75
411.586	16.75
412.368	19.75
413.151	19.75
413.933	17.75
414.715	23.75
415.497	19.75
416.279	18.75
417.061	21.75
417.843	22.75
418.624	22.75
419.406	22.75
420.188	20.75
420.969	20.75
421.751	24.75
422.532	24.75
423.313	29.75
424.095	23.75
424.876	25.75
425.657	26.75
426.438	26.75
427.219	26.75
428	27.75
428.78	27.75
429.561	29.75
430.342	30.75
431.122	31.75
431.903	31.75
432.683	38.75
433.464	33.75
434.244	39.75
435.024	40.75
435.804	43.75
436.584	45.75
437.364	41.75
438.144	48.75
438.924	47.75
439.704	51.75
440.483	58.75
441.263	57.75
442.042	64.75
442.822	63.75
443.601	72.75
444.38	79.75
445.16	82.75
445.939	87.75
446.718	94.75
447.497	105.75
448.276	111.75
449.054	123.75
449.833	133.75
450.612	146.75
451.391	163.75
452.169	175.75
452.948	195.75
453.726	216.75
454.504	241.75
455.282	273.75
456.061	299.75
456.839	332.75
457.617	375.75
458.395	430.75
459.172	462.75
459.95	526.75
460.728	595.75
461.506	655.75
462.283	724.75
463.061	826.75
463.838	909.75
464.615	1022.75
465.393	1130.75
466.17	1283.75
466.947	1430.75
467.724	1596.75
468.501	1783.75
469.278	1982.75
470.055	2220.75
470.831	2431.75
471.608	2738.75
472.385	3004.75
473.161	3343.75
473.938	3694.75
474.714	4048.75
475.49	4472.75
476.266	4989.75
477.043	5483.75
477.819	6037.75
478.595	6646.75
479.371	7287.75
480.146	7988.75
480.922	8780.75
481.698	9664.75
482.473	10560.75
483.249	11568.75
484.024	12637.75
484.8	13767.75
485.575	14989.75
486.35	16322.75
487.126	17765.75
487.901	19285.75
488.676	20955.75
489.451	22725.75
490.225	24506.75
491	26307.75
491.775	28252.75
492.55	30126.75
493.324	32175.75
494.099	34179.75
494.873	36155.75
495.647	38174.75
496.422	40153.75
497.196	42091.75
497.97	43760.75
498.744	45293.75
499.518	46963.75
500.292	48243.75
501.066	49116.75
501.839	49805.75
502.613	50312.75
503.387	50584.75
504.16	50776.75
504.934	50481.75
505.707	49978.75
506.48	49155.75
507.253	48323.75
508.027	47342.75
508.8	45957.75
509.573	44573.75
510.346	43155.75
511.118	41778.75
511.891	40259.75
512.664	38468.75
513.437	36937.75
514.209	35482.75
514.982	33973.75
515.754	32458.75
516.526	31074.75
517.298	29828.75
518.071	28594.75
518.843	27443.75
519.615	26263.75
520.387	25275.75
521.159	24222.75
521.93	23184.75
522.702	22249.75
523.474	21234.75
524.245	20323.75
525.017	19342.75
525.788	18559.75
526.56	17685.75
527.331	16845.75
528.102	15951.75
528.873	15081.75
529.644	14406.75
530.415	13671.75
531.186	12995.75
531.957	12258.75
532.728	11595.75
533.498	10988.75
534.269	10337.75
535.039	9777.75
535.81	9278.75
536.58	8731.75
537.351	8319.75
538.121	7877.75
538.891	7393.75
539.661	7003.75
540.431	6638.75
541.201	6349.75
541.971	5959.75
542.741	5647.75
543.51	5350.75
544.28	5134.75
545.05	4865.75
545.819	4635.75
546.588	4423.75
547.358	4196.75
548.127	4002.75
548.896	3769.75
549.665	3560.75
550.434	3374.75
551.203	3213.75
551.972	3027.75
552.741	2882.75
553.51	2707.75
554.278	2541.75
555.047	2388.75
555.815	2286.75
556.584	2151.75
557.352	2037.75
558.121	1911.75
558.889	1801.75
559.657	1718.75
560.425	1619.75
561.193	1529.75
561.961	1433.75
562.729	1353.75
563.496	1307.75
564.264	1217.75
565.032	1164.75
565.799	1094.75
566.567	1046.75
567.334	981.75
568.101	929.75
568.869	869.75
569.636	829.75
570.403	774.75
571.17	728.75
571.937	690.75
572.704	661.75
573.471	624.75
574.237	589.75
575.004	546.75
575.771	516.75
576.537	490.75
577.303	462.75
578.07	445.75
578.836	406.75
579.602	390.75
580.368	375.75
581.134	360.75
581.9	337.75
582.666	321.75
583.432	310.75
584.198	289.75
584.964	278.75
585.729	255.75
586.495	248.75
587.26	235.75
588.025	222.75
588.791	209.75
589.556	201.75
590.321	189.75
591.086	181.75
591.851	168.75
592.616	163.75
593.381	154.75
594.146	149.75
594.911	148.75
595.675	134.75
596.44	131.75
597.204	122.75
597.969	122.75
598.733	113.75
599.497	111.75
600.261	102.75
601.025	102.75
601.79	96.75
602.553	90.75
603.317	91.75
604.081	89.75
604.845	82.75
605.609	76.75
606.372	75.75
607.136	67.75
607.899	68.75
608.662	67.75
609.426	59.75
610.189	63.75
610.952	62.75
611.715	57.75
612.478	53.75
613.241	53.75
614.004	52.75
614.767	51.75
615.529	48.75
616.292	48.75
617.055	45.75
617.817	42.75
618.579	40.75
619.342	40.75
620.104	43.75
620.866	39.75
621.628	39.75
622.39	37.75
623.152	35.75
623.914	32.75
624.676	35.75
625.438	35.75
626.199	31.75
626.961	35.75
627.722	30.75
628.484	31.75
629.245	31.75
630.006	27.75
630.768	26.75
631.529	28.75
632.29	26.75
633.051	23.75
633.812	25.75
634.573	25.75
635.333	23.75
636.094	24.75
636.855	22.75
637.615	21.75
638.376	22.75
639.136	22.75
639.896	19.75
640.657	20.75
641.417	17.75
642.177	18.75
642.937	19.75
643.697	19.75
644.457	18.75
645.216	17.75
645.976	16.75
646.736	17.75
647.495	17.75
648.255	17.75
649.014	16.75
649.774	16.75
650.533	13.75
651.292	13.75
652.051	15.75
652.81	16.75
653.569	13.75
654.328	10.75
655.087	14.75
655.846	12.75
656.604	10.75
657.363	9.75
658.121	11.75
658.88	12.75
659.638	11.75
660.397	12.75
661.155	11.75
661.913	13.75
662.671	12.75
663.429	12.75
664.187	10.75
664.945	11.75
665.703	10.75
666.46	9.75
667.218	10.75
667.976	10.75
668.733	11.75
669.49	11.75
670.248	9.75
671.005	8.75
671.762	10.75
672.519	10.75
673.276	10.75
674.033	11.75
674.79	7.75
675.547	10.75
676.304	9.75
677.06	9.75
677.817	8.75
678.574	9.75
679.33	8.75
680.086	8.75
680.843	9.75
681.599	8.75
682.355	10.75
683.111	10.75
683.867	7.75
684.623	11.75
685.379	10.75
686.135	8.75
686.89	8.75
687.646	6.75
688.402	10.75
689.157	7.75
689.912	8.75
690.668	8.75
691.423	8.75
692.178	7.75
692.933	8.75
693.688	9.75
694.443	8.75
695.198	9.75
695.953	8.75
696.708	8.75
697.462	10.75
698.217	8.75
698.972	10.75
699.726	9.75
700.48	8.75
701.235	8.75
701.989	9.75
702.743	10.75
703.497	8.75
704.251	8.75
705.005	9.75
705.759	6.75
706.513	8.75
707.266	7.75
708.02	8.75
708.774	7.75
709.527	6.75
710.28	8.75
711.034	12.75
711.787	6.75
712.54	4.75
713.293	8.75
714.046	7.75
714.799	7.75
715.552	7.75
716.305	9.75
717.058	10.75
717.81	8.75
718.563	8.75
719.315	7.75
720.068	9.75
720.82	9.75
721.573	8.75
722.325	10.75
723.077	9.75
723.829	7.75
724.581	10.75
725.333	9.75
726.085	6.75
726.836	10.75
727.588	8.75
728.34	11.75
729.091	8.75
729.843	11.75
730.594	9.75
731.346	8.75
732.097	9.75
732.848	12.75
733.599	10.75
734.35	9.75
735.101	12.75
735.852	9.75
736.603	10.75
737.354	10.75
738.104	10.75
738.855	11.75
739.605	9.75
740.356	11.75
741.106	8.75
741.856	11.75
742.607	11.75
743.357	11.75
744.107	13.75
744.857	10.75
745.607	11.75
746.357	11.75
747.106	13.75
747.856	10.75
748.606	8.75
749.355	13.75
750.105	12.75
750.854	11.75
751.603	12.75
752.353	11.75
753.102	13.75
753.851	15.75
754.6	14.75
755.349	13.75
756.098	13.75
756.847	12.75
757.595	14.75
758.344	15.75
759.093	13.75
759.841	15.75
760.589	13.75
761.338	12.75
762.086	15.75
762.834	15.75
763.582	15.75
764.331	12.75
765.079	15.75
765.826	15.75
766.574	12.75
767.322	12.75
768.07	14.75
768.817	17.75
769.565	16.75
770.312	14.75
771.06	15.75
771.807	14.75
772.554	16.75
773.302	15.75
774.049	18.75
774.796	18.75
775.543	15.75
776.29	17.75
777.036	17.75
777.783	18.75
778.53	20.75
779.276	15.75
780.023	16.75
780.769	16.75
781.516	19.75
782.262	18.75
783.008	16.75
783.754	18.75
784.5	16.75
785.246	17.75
785.992	18.75
786.738	17.75
787.484	18.75
788.23	19.75
788.975	18.75
789.721	15.75
790.466	15.75
791.212	15.75
791.957	16.75
792.702	16.75
793.447	16.75
794.193	16.75
794.938	14.75
795.683	16.75
796.427	13.75
797.172	14.75
797.917	15.75
798.662	14.75
799.406	15.75
800.151	13.75
800.895	14.75
801.64	11.75
802.384	11.75
803.128	12.75
803.872	11.75
804.616	13.75
805.36	11.75
806.104	13.75
806.848	11.75
807.592	12.75
808.336	10.75
809.079	9.75
809.823	11.75
810.566	11.75
811.31	10.75
812.053	10.75
812.796	10.75
813.539	8.75
814.283	7.75
815.026	8.75
815.769	8.75
816.511	8.75
817.254	9.75
817.997	7.75
818.74	8.75
819.482	8.75
820.225	7.75
820.967	8.75
821.71	7.75
822.452	7.75
823.194	6.75
823.936	7.75
824.678	9.75
825.42	7.75
826.162	7.75
826.904	5.75
827.646	7.75
828.388	7.75
829.129	8.75
829.871	6.75
830.612	6.75
831.354	7.75
832.095	6.75
832.836	5.75
833.577	6.75
834.319	7.75
835.06	6.75
835.801	6.75
836.542	7.75
837.282	5.75
838.023	6.75
838.764	7.75
839.504	6.75
840.245	5.75
840.985	6.75
841.726	5.75
842.466	5.75
843.206	5.75
843.946	6.75
844.687	6.75
845.427	4.75
846.166	5.75
846.906	6.75
847.646	6.75
848.386	6.75
849.125	7.75
849.865	7.75
850.605	6.75
851.344	5.75
852.083	7.75
852.823	4.75
853.562	5.75
854.301	5.75
855.04	4.75
855.779	3.75
856.518	4.75
857.257	4.75
857.995	6.75
858.734	4.75
859.473	5.75
860.211	3.75
860.95	3.75
861.688	3.75
862.426	3.75
863.165	4.75
863.903	2.75
864.641	3.75
865.379	1.75
866.117	3.75
866.855	2.75
867.593	3.75
868.33	2.75
869.068	2.75
869.806	2.75
870.543	3.75
871.28	0.75
872.018	1.75
872.755	2.75
873.492	1.75
874.229	2.75
874.967	3.75
875.703	3.75
876.44	3.75
877.177	3.75
877.914	2.75
878.651	1.75
879.387	0.75
880.124	4.75
880.86	3.75
881.597	5.75
882.333	1.75
883.069	0.75
883.806	2.75
884.542	2.75
885.278	3.75
886.014	3.75
886.749	1.75
887.485	2.75
888.221	2.75
888.957	0.75
889.692	1.75
890.428	2.75
891.163	1.75
891.899	4.75
892.634	1.75
893.369	-0.25
894.104	2.75
894.839	1.75
895.574	0.75
896.309	1.75
897.044	2.75
897.779	1.75
898.514	-0.25
899.248	3.75
899.983	1.75
900.717	-0.25
901.452	1.75
902.186	0.75
902.92	3.75
903.654	0.75
904.389	1.75
905.123	1.75
905.857	0.75
906.59	0.75
907.324	2.75
908.058	1.75
908.792	3.75
909.525	1.75
910.259	1.75
910.992	1.75
911.726	3.75
912.459	-0.25
913.192	2.75
913.925	0.75
914.658	-0.25
915.391	1.75
916.124	-0.25
916.857	-0.25
917.59	1.75
918.323	2.75
919.055	1.75
919.788	2.75
920.521	0.75
921.253	1.75
921.985	0.75
922.718	0.75
923.45	2.75
924.182	0.75
924.914	1.75
925.646	0.75
926.378	-0.25
927.11	-0.25
927.841	-0.25
928.573	0.75
929.305	1.75
930.036	1.75
930.768	3.75
931.499	-0.25
932.23	0.75
932.962	-1.25
933.693	-0.25
934.424	1.75
935.155	1.75
935.886	1.75
936.617	-0.25
937.348	1.75
938.078	0.75
938.809	-0.25
939.54	1.75
940.27	-0.25
941.001	2.75
941.731	1.75
942.461	0.75
943.191	-0.25
943.922	-0.25
944.652	1.75
945.382	-0.25
946.112	-0.25
946.841	1.75
947.571	1.75
948.301	1.75
949.031	-0.25
949.76	-1.25
950.49	0.75
951.219	0.75
951.948	1.75
952.678	-1.25
953.407	2.75
954.136	0.75
954.865	0.75
955.594	-1.25
956.323	1.75
957.052	1.75
957.78	0.75
958.509	1.75
959.238	1.75
959.966	0.75
960.695	-0.25
961.423	1.75
962.151	1.75
962.88	3.75
963.608	1.75
964.336	1.75
965.064	0.75
965.792	-0.25
966.52	-0.25
967.247	1.75
967.975	1.75
968.703	1.75
969.43	-0.25
970.158	1.75
970.885	-1.25
971.613	0.75
972.34	0.75
973.067	0.75
973.794	-0.25
974.521	0.75
975.248	0.75
975.975	3.75
976.702	1.75
977.429	1.75
978.156	2.75
978.882	1.75
979.609	-0.25
980.335	1.75
981.062	0.75
981.788	1.75
982.514	1.75
983.24	0.75
983.967	-0.25
984.693	1.75
985.419	0.75
986.144	1.75
986.87	0.75
987.596	0.75
988.322	0.75
989.047	2.75
989.773	2.75
990.498	0.75
991.224	0.75
991.949	3.75
992.674	-0.25
993.399	2.75
994.124	-0.25
994.849	1.75
995.574	-0.25
996.299	0.75
997.024	2.75
997.749	3.75
998.473	1.75
999.198	0.75
999.922	0.75
1000.647	-2.25
1001.371	3.75
1002.095	-1.25
1002.82	-0.25
1003.544	-0.25
1004.268	5.75
1004.992	4.75
1005.716	3.75
1006.439	4.75
1007.163	4.75
1007.887	6.75
1008.611	2.75
1009.334	1.75
1010.058	-0.25
1010.781	1.75
1011.504	1.75
1012.228	-1.25
1012.951	-0.25
1013.674	0.75
1014.397	-0.25
1015.12	-2.25
