节点500_705_QEPB04081__79__20-47-12-264.txt的数据

Date: Wed Nov 12 20:47:12 CST 2025
User: PC
Spectrometer: QEPB0408
触发模式: 0
积分时间 (秒): 1.000000E-2
Scans to average: 1
启用暗噪声校正: true
启用非线性校正: false
滑动平均宽度: 0
X轴模式: Wavelengths
Number of Pixels in Spectrum: 1044
>>>>>Begin Spectral Data<<<<<
220.843	4.88
221.644	8.88
222.444	4.88
223.244	6.88
224.045	5.88
224.845	9.88
225.645	8.88
226.445	8.88
227.245	7.88
228.045	9.88
228.845	8.88
229.645	5.88
230.444	7.88
231.244	10.88
232.043	8.88
232.843	9.88
233.642	10.88
234.442	11.88
235.241	12.88
236.04	11.88
236.839	13.88
237.638	9.88
238.437	10.88
239.236	15.88
240.035	11.88
240.833	14.88
241.632	11.88
242.43	12.88
243.229	15.88
244.027	14.88
244.826	13.88
245.624	14.88
246.422	18.88
247.22	15.88
248.018	14.88
248.816	17.88
249.614	17.88
250.412	18.88
251.21	18.88
252.007	19.88
252.805	17.88
253.602	20.88
254.4	18.88
255.197	21.88
255.994	22.88
256.791	22.88
257.589	24.88
258.386	21.88
259.183	26.88
259.979	27.88
260.776	22.88
261.573	25.88
262.37	24.88
263.166	27.88
263.963	28.88
264.759	28.88
265.556	28.88
266.352	28.88
267.148	30.88
267.944	29.88
268.74	32.88
269.536	33.88
270.332	33.88
271.128	37.88
271.924	34.88
272.719	37.88
273.515	36.88
274.311	36.88
275.106	33.88
275.901	34.88
276.697	37.88
277.492	33.88
278.287	38.88
279.082	39.88
279.877	36.88
280.672	38.88
281.467	37.88
282.262	37.88
283.056	37.88
283.851	36.88
284.646	38.88
285.44	37.88
286.234	37.88
287.029	37.88
287.823	37.88
288.617	32.88
289.411	36.88
290.205	33.88
290.999	29.88
291.793	34.88
292.587	35.88
293.381	30.88
294.174	33.88
294.968	29.88
295.761	29.88
296.555	27.88
297.348	29.88
298.141	29.88
298.935	31.88
299.728	28.88
300.521	23.88
301.314	26.88
302.107	24.88
302.899	24.88
303.692	24.88
304.485	23.88
305.277	27.88
306.07	21.88
306.862	25.88
307.655	21.88
308.447	23.88
309.239	22.88
310.031	21.88
310.823	18.88
311.615	17.88
312.407	20.88
313.199	17.88
313.991	18.88
314.783	17.88
315.574	14.88
316.366	15.88
317.157	16.88
317.949	17.88
318.74	15.88
319.531	13.88
320.322	14.88
321.113	14.88
321.904	16.88
322.695	13.88
323.486	14.88
324.277	14.88
325.068	12.88
325.858	17.88
326.649	12.88
327.439	12.88
328.23	14.88
329.02	11.88
329.81	11.88
330.6	14.88
331.391	13.88
332.181	12.88
332.971	13.88
333.76	12.88
334.55	13.88
335.34	14.88
336.13	12.88
336.919	15.88
337.709	13.88
338.498	13.88
339.287	13.88
340.077	12.88
340.866	14.88
341.655	10.88
342.444	12.88
343.233	11.88
344.022	12.88
344.811	12.88
345.6	10.88
346.388	11.88
347.177	13.88
347.965	11.88
348.754	12.88
349.542	8.88
350.33	14.88
351.119	11.88
351.907	11.88
352.695	11.88
353.483	12.88
354.271	13.88
355.059	11.88
355.846	12.88
356.634	10.88
357.422	10.88
358.209	10.88
358.997	10.88
359.784	9.88
360.571	11.88
361.359	10.88
362.146	9.88
362.933	11.88
363.72	11.88
364.507	9.88
365.294	10.88
366.081	8.88
366.867	11.88
367.654	9.88
368.44	10.88
369.227	9.88
370.013	11.88
370.8	10.88
371.586	11.88
372.372	11.88
373.158	10.88
373.944	10.88
374.73	11.88
375.516	13.88
376.302	11.88
377.088	12.88
377.873	8.88
378.659	12.88
379.445	10.88
380.23	10.88
381.015	8.88
381.801	11.88
382.586	11.88
383.371	8.88
384.156	13.88
384.941	10.88
385.726	14.88
386.511	11.88
387.296	9.88
388.08	10.88
388.865	13.88
389.649	13.88
390.434	13.88
391.218	15.88
392.003	11.88
392.787	12.88
393.571	14.88
394.355	11.88
395.139	13.88
395.923	13.88
396.707	15.88
397.491	13.88
398.274	14.88
399.058	12.88
399.842	13.88
400.625	14.88
401.408	15.88
402.192	11.88
402.975	15.88
403.758	15.88
404.541	15.88
405.324	14.88
406.107	18.88
406.89	15.88
407.673	15.88
408.456	20.88
409.238	15.88
410.021	18.88
410.803	18.88
411.586	20.88
412.368	18.88
413.151	18.88
413.933	19.88
414.715	20.88
415.497	20.88
416.279	18.88
417.061	19.88
417.843	19.88
418.624	17.88
419.406	22.88
420.188	22.88
420.969	21.88
421.751	23.88
422.532	23.88
423.313	28.88
424.095	26.88
424.876	21.88
425.657	23.88
426.438	27.88
427.219	27.88
428	30.88
428.78	28.88
429.561	30.88
430.342	30.88
431.122	31.88
431.903	35.88
432.683	35.88
433.464	32.88
434.244	39.88
435.024	39.88
435.804	36.88
436.584	44.88
437.364	44.88
438.144	47.88
438.924	50.88
439.704	53.88
440.483	56.88
441.263	57.88
442.042	66.88
442.822	66.88
443.601	77.88
444.38	75.88
445.16	82.88
445.939	89.88
446.718	99.88
447.497	106.88
448.276	120.88
449.054	129.88
449.833	142.88
450.612	154.88
451.391	163.88
452.169	186.88
452.948	202.88
453.726	223.88
454.504	246.88
455.282	273.88
456.061	306.88
456.839	350.88
457.617	388.88
458.395	428.88
459.172	486.88
459.95	532.88
460.728	608.88
461.506	669.88
462.283	751.88
463.061	836.88
463.838	929.88
464.615	1054.88
465.393	1161.88
466.17	1294.88
466.947	1450.88
467.724	1618.88
468.501	1802.88
469.278	2012.88
470.055	2236.88
470.831	2470.88
471.608	2728.88
472.385	3041.88
473.161	3352.88
473.938	3699.88
474.714	4060.88
475.49	4505.88
476.266	4971.88
477.043	5447.88
477.819	5993.88
478.595	6595.88
479.371	7206.88
480.146	7933.88
480.922	8693.88
481.698	9553.88
482.473	10380.88
483.249	11366.88
484.024	12384.88
484.8	13452.88
485.575	14680.88
486.35	16033.88
487.126	17350.88
487.901	18823.88
488.676	20327.88
489.451	22021.88
490.225	23765.88
491	25557.88
491.775	27423.88
492.55	29305.88
493.324	31227.88
494.099	33203.88
494.873	35075.88
495.647	37045.88
496.422	39020.88
497.196	40896.88
497.97	42582.88
498.744	44112.88
499.518	45724.88
500.292	47015.88
501.066	48007.88
501.839	48731.88
502.613	49343.88
503.387	49706.88
504.16	49935.88
504.934	49801.88
505.707	49435.88
506.48	48773.88
507.253	48006.88
508.027	46943.88
508.8	45758.88
509.573	44416.88
510.346	43120.88
511.118	41811.88
511.891	40392.88
512.664	38731.88
513.437	37217.88
514.209	35662.88
514.982	34242.88
515.754	32737.88
516.526	31329.88
517.298	30169.88
518.071	28824.88
518.843	27698.88
519.615	26505.88
520.387	25501.88
521.159	24431.88
521.93	23447.88
522.702	22409.88
523.474	21468.88
524.245	20530.88
525.017	19662.88
525.788	18687.88
526.56	17879.88
527.331	17154.88
528.102	16183.88
528.873	15357.88
529.644	14630.88
530.415	13868.88
531.186	13217.88
531.957	12507.88
532.728	11803.88
533.498	11160.88
534.269	10556.88
535.039	9947.88
535.81	9413.88
536.58	8914.88
537.351	8443.88
538.121	8007.88
538.891	7568.88
539.661	7167.88
540.431	6787.88
541.201	6421.88
541.971	6058.88
542.741	5773.88
543.51	5453.88
544.28	5223.88
545.05	4982.88
545.819	4728.88
546.588	4510.88
547.358	4297.88
548.127	4072.88
548.896	3838.88
549.665	3664.88
550.434	3461.88
551.203	3282.88
551.972	3103.88
552.741	2924.88
553.51	2776.88
554.278	2609.88
555.047	2483.88
555.815	2313.88
556.584	2206.88
557.352	2083.88
558.121	1959.88
558.889	1857.88
559.657	1738.88
560.425	1662.88
561.193	1565.88
561.961	1487.88
562.729	1402.88
563.496	1325.88
564.264	1252.88
565.032	1183.88
565.799	1112.88
566.567	1053.88
567.334	1010.88
568.101	966.88
568.869	893.88
569.636	849.88
570.403	801.88
571.17	750.88
571.937	711.88
572.704	676.88
573.471	642.88
574.237	601.88
575.004	571.88
575.771	525.88
576.537	496.88
577.303	472.88
578.07	450.88
578.836	424.88
579.602	410.88
580.368	374.88
581.134	364.88
581.9	341.88
582.666	335.88
583.432	314.88
584.198	296.88
584.964	275.88
585.729	269.88
586.495	253.88
587.26	234.88
588.025	231.88
588.791	216.88
589.556	198.88
590.321	195.88
591.086	178.88
591.851	182.88
592.616	168.88
593.381	156.88
594.146	153.88
594.911	143.88
595.675	140.88
596.44	137.88
597.204	125.88
597.969	131.88
598.733	111.88
599.497	113.88
600.261	104.88
601.025	105.88
601.79	100.88
602.553	96.88
603.317	86.88
604.081	83.88
604.845	84.88
605.609	79.88
606.372	77.88
607.136	75.88
607.899	70.88
608.662	68.88
609.426	61.88
610.189	61.88
610.952	62.88
611.715	60.88
612.478	57.88
613.241	58.88
614.004	52.88
614.767	49.88
615.529	47.88
616.292	46.88
617.055	47.88
617.817	46.88
618.579	41.88
619.342	45.88
620.104	39.88
620.866	41.88
621.628	40.88
622.39	35.88
623.152	35.88
623.914	35.88
624.676	35.88
625.438	35.88
626.199	32.88
626.961	29.88
627.722	31.88
628.484	30.88
629.245	26.88
630.006	29.88
630.768	27.88
631.529	26.88
632.29	25.88
633.051	23.88
633.812	24.88
634.573	24.88
635.333	22.88
636.094	22.88
636.855	20.88
637.615	25.88
638.376	21.88
639.136	18.88
639.896	18.88
640.657	20.88
641.417	19.88
642.177	20.88
642.937	20.88
643.697	18.88
644.457	17.88
645.216	16.88
645.976	14.88
646.736	18.88
647.495	13.88
648.255	19.88
649.014	18.88
649.774	15.88
650.533	15.88
651.292	17.88
652.051	15.88
652.81	13.88
653.569	16.88
654.328	13.88
655.087	13.88
655.846	12.88
656.604	13.88
657.363	12.88
658.121	12.88
658.88	12.88
659.638	14.88
660.397	11.88
661.155	12.88
661.913	11.88
662.671	10.88
663.429	12.88
664.187	12.88
664.945	11.88
665.703	11.88
666.46	10.88
667.218	11.88
667.976	11.88
668.733	10.88
669.49	9.88
670.248	11.88
671.005	9.88
671.762	11.88
672.519	11.88
673.276	9.88
674.033	9.88
674.79	8.88
675.547	9.88
676.304	11.88
677.06	8.88
677.817	10.88
678.574	10.88
679.33	8.88
680.086	7.88
680.843	7.88
681.599	9.88
682.355	10.88
683.111	9.88
683.867	8.88
684.623	10.88
685.379	8.88
686.135	9.88
686.89	8.88
687.646	9.88
688.402	9.88
689.157	9.88
689.912	8.88
690.668	7.88
691.423	7.88
692.178	6.88
692.933	6.88
693.688	7.88
694.443	4.88
695.198	10.88
695.953	7.88
696.708	9.88
697.462	8.88
698.217	7.88
698.972	6.88
699.726	8.88
700.48	7.88
701.235	10.88
701.989	6.88
702.743	9.88
703.497	7.88
704.251	8.88
705.005	7.88
705.759	6.88
706.513	10.88
707.266	8.88
708.02	7.88
708.774	6.88
709.527	10.88
710.28	6.88
711.034	8.88
711.787	9.88
712.54	7.88
713.293	7.88
714.046	8.88
714.799	8.88
715.552	10.88
716.305	8.88
717.058	5.88
717.81	9.88
718.563	8.88
719.315	9.88
720.068	7.88
720.82	11.88
721.573	8.88
722.325	9.88
723.077	7.88
723.829	8.88
724.581	6.88
725.333	10.88
726.085	8.88
726.836	10.88
727.588	9.88
728.34	8.88
729.091	9.88
729.843	5.88
730.594	10.88
731.346	9.88
732.097	7.88
732.848	11.88
733.599	9.88
734.35	9.88
735.101	8.88
735.852	11.88
736.603	9.88
737.354	11.88
738.104	10.88
738.855	9.88
739.605	10.88
740.356	10.88
741.106	10.88
741.856	13.88
742.607	9.88
743.357	12.88
744.107	11.88
744.857	9.88
745.607	10.88
746.357	11.88
747.106	14.88
747.856	14.88
748.606	11.88
749.355	15.88
750.105	10.88
750.854	12.88
751.603	13.88
752.353	11.88
753.102	12.88
753.851	15.88
754.6	12.88
755.349	11.88
756.098	16.88
756.847	12.88
757.595	12.88
758.344	15.88
759.093	13.88
759.841	15.88
760.589	14.88
761.338	13.88
762.086	13.88
762.834	12.88
763.582	14.88
764.331	13.88
765.079	14.88
765.826	13.88
766.574	15.88
767.322	19.88
768.07	17.88
768.817	15.88
769.565	14.88
770.312	15.88
771.06	16.88
771.807	14.88
772.554	17.88
773.302	14.88
774.049	16.88
774.796	16.88
775.543	18.88
776.29	15.88
777.036	17.88
777.783	18.88
778.53	15.88
779.276	18.88
780.023	17.88
780.769	15.88
781.516	17.88
782.262	16.88
783.008	15.88
783.754	19.88
784.5	16.88
785.246	15.88
785.992	17.88
786.738	19.88
787.484	17.88
788.23	19.88
788.975	15.88
789.721	17.88
790.466	17.88
791.212	15.88
791.957	14.88
792.702	14.88
793.447	16.88
794.193	14.88
794.938	16.88
795.683	16.88
796.427	14.88
797.172	18.88
797.917	15.88
798.662	15.88
799.406	13.88
800.151	13.88
800.895	14.88
801.64	11.88
802.384	13.88
803.128	9.88
803.872	10.88
804.616	13.88
805.36	10.88
806.104	11.88
806.848	11.88
807.592	10.88
808.336	10.88
809.079	11.88
809.823	9.88
810.566	8.88
811.31	12.88
812.053	10.88
812.796	9.88
813.539	11.88
814.283	8.88
815.026	10.88
815.769	9.88
816.511	9.88
817.254	9.88
817.997	6.88
818.74	7.88
819.482	8.88
820.225	9.88
820.967	8.88
821.71	9.88
822.452	8.88
823.194	5.88
823.936	9.88
824.678	6.88
825.42	6.88
826.162	9.88
826.904	6.88
827.646	4.88
828.388	6.88
829.129	7.88
829.871	9.88
830.612	6.88
831.354	10.88
832.095	9.88
832.836	5.88
833.577	5.88
834.319	8.88
835.06	6.88
835.801	8.88
836.542	8.88
837.282	5.88
838.023	5.88
838.764	4.88
839.504	7.88
840.245	6.88
840.985	6.88
841.726	7.88
842.466	4.88
843.206	7.88
843.946	6.88
844.687	6.88
845.427	5.88
846.166	5.88
846.906	3.88
847.646	7.88
848.386	6.88
849.125	3.88
849.865	4.88
850.605	6.88
851.344	5.88
852.083	7.88
852.823	5.88
853.562	7.88
854.301	3.88
855.04	5.88
855.779	3.88
856.518	4.88
857.257	5.88
857.995	4.88
858.734	4.88
859.473	5.88
860.211	3.88
860.95	2.88
861.688	1.88
862.426	6.88
863.165	3.88
863.903	3.88
864.641	2.88
865.379	2.88
866.117	2.88
866.855	3.88
867.593	4.88
868.33	2.88
869.068	1.88
869.806	5.88
870.543	1.88
871.28	3.88
872.018	1.88
872.755	4.88
873.492	4.88
874.229	-0.12
874.967	2.88
875.703	3.88
876.44	4.88
877.177	3.88
877.914	4.88
878.651	3.88
879.387	1.88
880.124	3.88
880.86	3.88
881.597	2.88
882.333	2.88
883.069	3.88
883.806	2.88
884.542	1.88
885.278	3.88
886.014	1.88
886.749	1.88
887.485	0.88
888.221	2.88
888.957	1.88
889.692	0.88
890.428	3.88
891.163	2.88
891.899	2.88
892.634	1.88
893.369	2.88
894.104	1.88
894.839	1.88
895.574	1.88
896.309	1.88
897.044	0.88
897.779	2.88
898.514	1.88
899.248	2.88
899.983	3.88
900.717	0.88
901.452	0.88
902.186	1.88
902.92	2.88
903.654	0.88
904.389	1.88
905.123	-0.12
905.857	0.88
906.59	-0.12
907.324	-0.12
908.058	0.88
908.792	0.88
909.525	1.88
910.259	1.88
910.992	1.88
911.726	1.88
912.459	1.88
913.192	2.88
913.925	-0.12
914.658	-0.12
915.391	1.88
916.124	0.88
916.857	1.88
917.59	1.88
918.323	0.88
919.055	1.88
919.788	-2.12
920.521	1.88
921.253	2.88
921.985	2.88
922.718	1.88
923.45	2.88
924.182	3.88
924.914	0.88
925.646	1.88
926.378	1.88
927.11	0.88
927.841	-1.12
928.573	1.88
929.305	0.88
930.036	0.88
930.768	1.88
931.499	1.88
932.23	1.88
932.962	3.88
933.693	0.88
934.424	1.88
935.155	1.88
935.886	0.88
936.617	1.88
937.348	-0.12
938.078	0.88
938.809	0.88
939.54	1.88
940.27	-0.12
941.001	0.88
941.731	0.88
942.461	-0.12
943.191	2.88
943.922	0.88
944.652	0.88
945.382	-0.12
946.112	0.88
946.841	-1.12
947.571	1.88
948.301	2.88
949.031	-0.12
949.76	0.88
950.49	1.88
951.219	0.88
951.948	0.88
952.678	0.88
953.407	0.88
954.136	-0.12
954.865	0.88
955.594	0.88
956.323	1.88
957.052	-0.12
957.78	0.88
958.509	-0.12
959.238	0.88
959.966	0.88
960.695	5.88
961.423	-0.12
962.151	3.88
962.88	0.88
963.608	-0.12
964.336	0.88
965.064	0.88
965.792	0.88
966.52	-0.12
967.247	0.88
967.975	-0.12
968.703	0.88
969.43	0.88
970.158	1.88
970.885	1.88
971.613	2.88
972.34	0.88
973.067	-0.12
973.794	1.88
974.521	-0.12
975.248	1.88
975.975	2.88
976.702	0.88
977.429	-0.12
978.156	0.88
978.882	0.88
979.609	0.88
980.335	-0.12
981.062	-0.12
981.788	1.88
982.514	1.88
983.24	2.88
983.967	2.88
984.693	-0.12
985.419	0.88
986.144	1.88
986.87	3.88
987.596	-0.12
988.322	2.88
989.047	0.88
989.773	1.88
990.498	-0.12
991.224	0.88
991.949	1.88
992.674	0.88
993.399	1.88
994.124	0.88
994.849	-0.12
995.574	0.88
996.299	-2.12
997.024	0.88
997.749	0.88
998.473	0.88
999.198	-0.12
999.922	0.88
1000.647	-0.12
1001.371	1.88
1002.095	-0.12
1002.82	-2.12
1003.544	-0.12
1004.268	3.88
1004.992	5.88
1005.716	6.88
1006.439	5.88
1007.163	3.88
1007.887	6.88
1008.611	1.88
1009.334	2.88
1010.058	-1.12
1010.781	1.88
1011.504	0.88
1012.228	-0.12
1012.951	-0.12
1013.674	-2.12
1014.397	0.88
1015.12	1.88
