节点500_705_QEPB04081__170__20-48-41-026.txt的数据

Date: Wed Nov 12 20:48:41 CST 2025
User: PC
Spectrometer: QEPB0408
触发模式: 0
积分时间 (秒): 1.000000E-2
Scans to average: 1
启用暗噪声校正: true
启用非线性校正: false
滑动平均宽度: 0
X轴模式: Wavelengths
Number of Pixels in Spectrum: 1044
>>>>>Begin Spectral Data<<<<<
220.843	7
221.644	5
222.444	5
223.244	6
224.045	6
224.845	7
225.645	8
226.445	8
227.245	9
228.045	7
228.845	8
229.645	7
230.444	6
231.244	10
232.043	8
232.843	9
233.642	12
234.442	10
235.241	13
236.04	10
236.839	9
237.638	11
238.437	9
239.236	12
240.035	11
240.833	11
241.632	14
242.43	13
243.229	12
244.027	12
244.826	13
245.624	15
246.422	17
247.22	15
248.018	14
248.816	16
249.614	17
250.412	16
251.21	17
252.007	19
252.805	19
253.602	17
254.4	20
255.197	20
255.994	19
256.791	21
257.589	21
258.386	26
259.183	22
259.979	21
260.776	23
261.573	25
262.37	25
263.166	24
263.963	26
264.759	26
265.556	30
266.352	30
267.148	30
267.944	31
268.74	28
269.536	33
270.332	30
271.128	34
271.924	30
272.719	32
273.515	31
274.311	33
275.106	39
275.901	35
276.697	35
277.492	33
278.287	34
279.082	34
279.877	35
280.672	33
281.467	34
282.262	34
283.056	34
283.851	35
284.646	36
285.44	36
286.234	35
287.029	35
287.823	33
288.617	38
289.411	32
290.205	31
290.999	31
291.793	35
292.587	33
293.381	30
294.174	33
294.968	30
295.761	27
296.555	27
297.348	24
298.141	24
298.935	29
299.728	28
300.521	26
301.314	23
302.107	24
302.899	21
303.692	24
304.485	24
305.277	20
306.07	25
306.862	21
307.655	21
308.447	21
309.239	23
310.031	17
310.823	17
311.615	18
312.407	18
313.199	18
313.991	17
314.783	15
315.574	18
316.366	13
317.157	15
317.949	14
318.74	18
319.531	17
320.322	15
321.113	12
321.904	14
322.695	14
323.486	12
324.277	14
325.068	14
325.858	9
326.649	13
327.439	14
328.23	14
329.02	15
329.81	12
330.6	13
331.391	14
332.181	13
332.971	11
333.76	11
334.55	11
335.34	12
336.13	12
336.919	12
337.709	13
338.498	12
339.287	12
340.077	13
340.866	10
341.655	11
342.444	11
343.233	12
344.022	13
344.811	10
345.6	15
346.388	14
347.177	13
347.965	12
348.754	9
349.542	13
350.33	13
351.119	13
351.907	11
352.695	13
353.483	11
354.271	13
355.059	13
355.846	11
356.634	11
357.422	11
358.209	10
358.997	11
359.784	11
360.571	10
361.359	10
362.146	10
362.933	13
363.72	12
364.507	11
365.294	11
366.081	11
366.867	10
367.654	11
368.44	8
369.227	9
370.013	12
370.8	10
371.586	13
372.372	9
373.158	12
373.944	13
374.73	11
375.516	13
376.302	9
377.088	10
377.873	11
378.659	8
379.445	11
380.23	10
381.015	12
381.801	11
382.586	10
383.371	9
384.156	11
384.941	11
385.726	11
386.511	10
387.296	11
388.08	9
388.865	13
389.649	12
390.434	10
391.218	10
392.003	14
392.787	11
393.571	12
394.355	14
395.139	11
395.923	12
396.707	14
397.491	13
398.274	14
399.058	13
399.842	12
400.625	14
401.408	13
402.192	15
402.975	12
403.758	15
404.541	16
405.324	17
406.107	15
406.89	14
407.673	15
408.456	13
409.238	18
410.021	15
410.803	18
411.586	15
412.368	17
413.151	19
413.933	15
414.715	20
415.497	17
416.279	19
417.061	18
417.843	19
418.624	18
419.406	20
420.188	22
420.969	18
421.751	21
422.532	23
423.313	21
424.095	25
424.876	23
425.657	27
426.438	28
427.219	26
428	27
428.78	29
429.561	31
430.342	32
431.122	29
431.903	34
432.683	32
433.464	35
434.244	39
435.024	38
435.804	42
436.584	43
437.364	43
438.144	43
438.924	49
439.704	55
440.483	57
441.263	61
442.042	65
442.822	72
443.601	79
444.38	81
445.16	85
445.939	89
446.718	100
447.497	109
448.276	121
449.054	130
449.833	135
450.612	150
451.391	171
452.169	187
452.948	214
453.726	231
454.504	258
455.282	287
456.061	320
456.839	349
457.617	396
458.395	439
459.172	499
459.95	548
460.728	601
461.506	681
462.283	761
463.061	859
463.838	955
464.615	1056
465.393	1195
466.17	1320
466.947	1470
467.724	1631
468.501	1816
469.278	2018
470.055	2220
470.831	2494
471.608	2740
472.385	3012
473.161	3348
473.938	3689
474.714	4057
475.49	4465
476.266	4945
477.043	5401
477.819	5917
478.595	6492
479.371	7112
480.146	7798
480.922	8519
481.698	9269
482.473	10209
483.249	11086
484.024	12053
484.8	13122
485.575	14256
486.35	15488
487.126	16790
487.901	18256
488.676	19740
489.451	21272
490.225	22982
491	24662
491.775	26351
492.55	28240
493.324	30090
494.099	31906
494.873	33902
495.647	35754
496.422	37587
497.196	39489
497.97	41151
498.744	42682
499.518	44236
500.292	45588
501.066	46566
501.839	47312
502.613	48020
503.387	48579
504.16	48907
504.934	48884
505.707	48533
506.48	47863
507.253	47372
508.027	46394
508.8	45331
509.573	43999
510.346	42912
511.118	41696
511.891	40316
512.664	38674
513.437	37143
514.209	35700
514.982	34285
515.754	32786
516.526	31414
517.298	30172
518.071	28935
518.843	27735
519.615	26641
520.387	25571
521.159	24579
521.93	23488
522.702	22522
523.474	21605
524.245	20673
525.017	19789
525.788	18833
526.56	18045
527.331	17234
528.102	16323
528.873	15472
529.644	14781
530.415	14027
531.186	13324
531.957	12625
532.728	11979
533.498	11360
534.269	10715
535.039	10152
535.81	9592
536.58	9056
537.351	8574
538.121	8167
538.891	7679
539.661	7306
540.431	6883
541.201	6550
541.971	6181
542.741	5860
543.51	5566
544.28	5267
545.05	5062
545.819	4798
546.588	4558
547.358	4360
548.127	4137
548.896	3938
549.665	3701
550.434	3521
551.203	3352
551.972	3160
552.741	2987
553.51	2817
554.278	2650
555.047	2497
555.815	2385
556.584	2247
557.352	2132
558.121	2000
558.889	1889
559.657	1798
560.425	1701
561.193	1594
561.961	1497
562.729	1423
563.496	1345
564.264	1272
565.032	1215
565.799	1141
566.567	1092
567.334	1025
568.101	970
568.869	918
569.636	866
570.403	819
571.17	776
571.937	723
572.704	693
573.471	646
574.237	617
575.004	579
575.771	532
576.537	512
577.303	490
578.07	458
578.836	443
579.602	409
580.368	386
581.134	369
581.9	347
582.666	337
583.432	316
584.198	305
584.964	283
585.729	271
586.495	255
587.26	246
588.025	235
588.791	218
589.556	203
590.321	195
591.086	189
591.851	177
592.616	168
593.381	161
594.146	153
594.911	150
595.675	145
596.44	132
597.204	133
597.969	129
598.733	122
599.497	110
600.261	110
601.025	111
601.79	100
602.553	95
603.317	90
604.081	89
604.845	82
605.609	78
606.372	81
607.136	77
607.899	73
608.662	67
609.426	65
610.189	67
610.952	62
611.715	57
612.478	58
613.241	58
614.004	56
614.767	53
615.529	48
616.292	47
617.055	47
617.817	44
618.579	45
619.342	40
620.104	41
620.866	41
621.628	41
622.39	38
623.152	38
623.914	37
624.676	35
625.438	33
626.199	36
626.961	31
627.722	28
628.484	31
629.245	26
630.006	25
630.768	25
631.529	26
632.29	28
633.051	23
633.812	23
634.573	20
635.333	20
636.094	24
636.855	22
637.615	21
638.376	20
639.136	19
639.896	21
640.657	20
641.417	19
642.177	20
642.937	19
643.697	17
644.457	13
645.216	16
645.976	17
646.736	17
647.495	15
648.255	13
649.014	14
649.774	14
650.533	13
651.292	15
652.051	13
652.81	15
653.569	16
654.328	12
655.087	14
655.846	11
656.604	13
657.363	11
658.121	12
658.88	10
659.638	9
660.397	8
661.155	13
661.913	11
662.671	13
663.429	10
664.187	11
664.945	11
665.703	8
666.46	11
667.218	10
667.976	10
668.733	10
669.49	11
670.248	9
671.005	10
671.762	9
672.519	6
673.276	9
674.033	9
674.79	7
675.547	9
676.304	8
677.06	11
677.817	10
678.574	10
679.33	10
680.086	9
680.843	8
681.599	8
682.355	9
683.111	6
683.867	8
684.623	9
685.379	8
686.135	9
686.89	6
687.646	10
688.402	8
689.157	8
689.912	8
690.668	5
691.423	9
692.178	8
692.933	8
693.688	7
694.443	9
695.198	8
695.953	3
696.708	8
697.462	10
698.217	7
698.972	9
699.726	8
700.48	10
701.235	5
701.989	11
702.743	5
703.497	10
704.251	8
705.005	8
705.759	9
706.513	8
707.266	7
708.02	10
708.774	8
709.527	7
710.28	8
711.034	8
711.787	9
712.54	6
713.293	8
714.046	8
714.799	9
715.552	8
716.305	9
717.058	5
717.81	8
718.563	8
719.315	7
720.068	7
720.82	7
721.573	9
722.325	9
723.077	8
723.829	8
724.581	6
725.333	9
726.085	10
726.836	9
727.588	9
728.34	8
729.091	8
729.843	10
730.594	8
731.346	9
732.097	7
732.848	10
733.599	11
734.35	8
735.101	9
735.852	10
736.603	10
737.354	8
738.104	9
738.855	9
739.605	10
740.356	13
741.106	12
741.856	12
742.607	12
743.357	10
744.107	9
744.857	10
745.607	11
746.357	11
747.106	15
747.856	10
748.606	11
749.355	15
750.105	14
750.854	11
751.603	10
752.353	14
753.102	11
753.851	10
754.6	11
755.349	13
756.098	10
756.847	14
757.595	12
758.344	10
759.093	16
759.841	15
760.589	14
761.338	14
762.086	14
762.834	15
763.582	14
764.331	15
765.079	10
765.826	13
766.574	13
767.322	18
768.07	16
768.817	18
769.565	14
770.312	13
771.06	14
771.807	14
772.554	17
773.302	16
774.049	15
774.796	15
775.543	18
776.29	16
777.036	15
777.783	18
778.53	16
779.276	16
780.023	15
780.769	16
781.516	16
782.262	15
783.008	17
783.754	16
784.5	17
785.246	14
785.992	15
786.738	18
787.484	13
788.23	16
788.975	15
789.721	19
790.466	13
791.212	17
791.957	15
792.702	14
793.447	17
794.193	13
794.938	16
795.683	13
796.427	13
797.172	14
797.917	16
798.662	14
799.406	12
800.151	13
800.895	13
801.64	11
802.384	11
803.128	10
803.872	14
804.616	12
805.36	12
806.104	14
806.848	10
807.592	10
808.336	11
809.079	13
809.823	11
810.566	10
811.31	8
812.053	9
812.796	8
813.539	11
814.283	8
815.026	9
815.769	9
816.511	10
817.254	6
817.997	9
818.74	9
819.482	8
820.225	8
820.967	5
821.71	8
822.452	6
823.194	8
823.936	9
824.678	9
825.42	8
826.162	6
826.904	8
827.646	7
828.388	8
829.129	5
829.871	7
830.612	9
831.354	7
832.095	7
832.836	7
833.577	6
834.319	6
835.06	5
835.801	8
836.542	6
837.282	6
838.023	5
838.764	4
839.504	7
840.245	6
840.985	3
841.726	6
842.466	7
843.206	6
843.946	3
844.687	5
845.427	2
846.166	6
846.906	5
847.646	3
848.386	6
849.125	5
849.865	4
850.605	5
851.344	5
852.083	6
852.823	5
853.562	6
854.301	4
855.04	3
855.779	3
856.518	4
857.257	5
857.995	5
858.734	2
859.473	4
860.211	3
860.95	4
861.688	5
862.426	4
863.165	3
863.903	1
864.641	3
865.379	1
866.117	4
866.855	2
867.593	5
868.33	3
869.068	1
869.806	3
870.543	3
871.28	4
872.018	3
872.755	1
873.492	1
874.229	2
874.967	0
875.703	1
876.44	3
877.177	1
877.914	4
878.651	2
879.387	3
880.124	4
880.86	2
881.597	3
882.333	1
883.069	2
883.806	1
884.542	0
885.278	3
886.014	2
886.749	3
887.485	1
888.221	2
888.957	0
889.692	1
890.428	2
891.163	1
891.899	-1
892.634	1
893.369	2
894.104	3
894.839	0
895.574	2
896.309	1
897.044	2
897.779	0
898.514	-1
899.248	1
899.983	-1
900.717	1
901.452	1
902.186	1
902.92	2
903.654	2
904.389	0
905.123	0
905.857	0
906.59	3
907.324	-2
908.058	2
908.792	0
909.525	0
910.259	1
910.992	-1
911.726	3
912.459	-1
913.192	2
913.925	0
914.658	0
915.391	2
916.124	0
916.857	1
917.59	2
918.323	0
919.055	2
919.788	-1
920.521	2
921.253	0
921.985	2
922.718	1
923.45	-1
924.182	0
924.914	0
925.646	-1
926.378	-1
927.11	1
927.841	-1
928.573	-1
929.305	1
930.036	-1
930.768	-1
931.499	-1
932.23	1
932.962	1
933.693	0
934.424	1
935.155	1
935.886	1
936.617	1
937.348	0
938.078	-2
938.809	1
939.54	0
940.27	-1
941.001	-1
941.731	-1
942.461	-1
943.191	1
943.922	-1
944.652	2
945.382	1
946.112	1
946.841	-1
947.571	0
948.301	2
949.031	0
949.76	1
950.49	3
951.219	-1
951.948	0
952.678	-3
953.407	1
954.136	2
954.865	-1
955.594	1
956.323	1
957.052	0
957.78	-2
958.509	-1
959.238	0
959.966	-1
960.695	0
961.423	-1
962.151	0
962.88	0
963.608	-1
964.336	0
965.064	2
965.792	1
966.52	-1
967.247	1
967.975	0
968.703	-1
969.43	1
970.158	1
970.885	1
971.613	-1
972.34	1
973.067	-1
973.794	-1
974.521	2
975.248	1
975.975	-1
976.702	1
977.429	-3
978.156	0
978.882	-2
979.609	1
980.335	1
981.062	-1
981.788	1
982.514	0
983.24	1
983.967	1
984.693	0
985.419	1
986.144	1
986.87	1
987.596	-1
988.322	-1
989.047	0
989.773	0
990.498	2
991.224	0
991.949	0
992.674	0
993.399	2
994.124	1
994.849	-2
995.574	2
996.299	0
997.024	0
997.749	0
998.473	1
999.198	2
999.922	0
1000.647	1
1001.371	3
1002.095	-3
1002.82	-1
1003.544	-1
1004.268	7
1004.992	5
1005.716	2
1006.439	5
1007.163	6
1007.887	7
1008.611	1
1009.334	1
1010.058	-1
1010.781	0
1011.504	1
1012.228	1
1012.951	0
1013.674	0
1014.397	1
1015.12	1
