节点500_705_QEPB04081__180__20-48-49-069.txt的数据

Date: Wed Nov 12 20:48:49 CST 2025
User: PC
Spectrometer: QEPB0408
触发模式: 0
积分时间 (秒): 1.000000E-2
Scans to average: 1
启用暗噪声校正: true
启用非线性校正: false
滑动平均宽度: 0
X轴模式: Wavelengths
Number of Pixels in Spectrum: 1044
>>>>>Begin Spectral Data<<<<<
220.843	5.75
221.644	5.75
222.444	2.75
223.244	4.75
224.045	8.75
224.845	8.75
225.645	4.75
226.445	5.75
227.245	7.75
228.045	8.75
228.845	4.75
229.645	9.75
230.444	9.75
231.244	7.75
232.043	9.75
232.843	9.75
233.642	7.75
234.442	8.75
235.241	9.75
236.04	9.75
236.839	8.75
237.638	9.75
238.437	8.75
239.236	10.75
240.035	9.75
240.833	11.75
241.632	11.75
242.43	12.75
243.229	13.75
244.027	14.75
244.826	13.75
245.624	13.75
246.422	13.75
247.22	15.75
248.018	12.75
248.816	15.75
249.614	15.75
250.412	14.75
251.21	15.75
252.007	18.75
252.805	16.75
253.602	21.75
254.4	19.75
255.197	17.75
255.994	20.75
256.791	21.75
257.589	24.75
258.386	23.75
259.183	24.75
259.979	23.75
260.776	22.75
261.573	26.75
262.37	24.75
263.166	23.75
263.963	27.75
264.759	25.75
265.556	28.75
266.352	27.75
267.148	29.75
267.944	29.75
268.74	30.75
269.536	29.75
270.332	33.75
271.128	31.75
271.924	33.75
272.719	30.75
273.515	31.75
274.311	34.75
275.106	35.75
275.901	34.75
276.697	34.75
277.492	34.75
278.287	34.75
279.082	35.75
279.877	36.75
280.672	35.75
281.467	33.75
282.262	34.75
283.056	35.75
283.851	37.75
284.646	33.75
285.44	35.75
286.234	31.75
287.029	35.75
287.823	34.75
288.617	35.75
289.411	32.75
290.205	31.75
290.999	32.75
291.793	31.75
292.587	31.75
293.381	33.75
294.174	28.75
294.968	26.75
295.761	26.75
296.555	27.75
297.348	27.75
298.141	26.75
298.935	29.75
299.728	24.75
300.521	27.75
301.314	28.75
302.107	24.75
302.899	24.75
303.692	21.75
304.485	22.75
305.277	21.75
306.07	21.75
306.862	20.75
307.655	21.75
308.447	22.75
309.239	20.75
310.031	19.75
310.823	17.75
311.615	20.75
312.407	14.75
313.199	19.75
313.991	17.75
314.783	16.75
315.574	15.75
316.366	14.75
317.157	17.75
317.949	15.75
318.74	17.75
319.531	15.75
320.322	14.75
321.113	15.75
321.904	12.75
322.695	14.75
323.486	12.75
324.277	14.75
325.068	13.75
325.858	10.75
326.649	12.75
327.439	12.75
328.23	9.75
329.02	12.75
329.81	11.75
330.6	11.75
331.391	11.75
332.181	10.75
332.971	14.75
333.76	9.75
334.55	15.75
335.34	10.75
336.13	11.75
336.919	11.75
337.709	12.75
338.498	9.75
339.287	10.75
340.077	12.75
340.866	10.75
341.655	13.75
342.444	9.75
343.233	10.75
344.022	11.75
344.811	12.75
345.6	12.75
346.388	10.75
347.177	9.75
347.965	10.75
348.754	9.75
349.542	10.75
350.33	10.75
351.119	8.75
351.907	9.75
352.695	10.75
353.483	10.75
354.271	10.75
355.059	10.75
355.846	10.75
356.634	9.75
357.422	9.75
358.209	10.75
358.997	9.75
359.784	8.75
360.571	11.75
361.359	8.75
362.146	8.75
362.933	11.75
363.72	8.75
364.507	9.75
365.294	8.75
366.081	11.75
366.867	10.75
367.654	10.75
368.44	7.75
369.227	8.75
370.013	11.75
370.8	9.75
371.586	10.75
372.372	8.75
373.158	8.75
373.944	10.75
374.73	9.75
375.516	10.75
376.302	9.75
377.088	9.75
377.873	10.75
378.659	9.75
379.445	6.75
380.23	9.75
381.015	11.75
381.801	10.75
382.586	10.75
383.371	9.75
384.156	12.75
384.941	10.75
385.726	10.75
386.511	9.75
387.296	9.75
388.08	12.75
388.865	12.75
389.649	10.75
390.434	11.75
391.218	13.75
392.003	11.75
392.787	12.75
393.571	11.75
394.355	13.75
395.139	10.75
395.923	13.75
396.707	13.75
397.491	12.75
398.274	16.75
399.058	12.75
399.842	14.75
400.625	12.75
401.408	13.75
402.192	12.75
402.975	14.75
403.758	14.75
404.541	14.75
405.324	13.75
406.107	13.75
406.89	17.75
407.673	11.75
408.456	14.75
409.238	14.75
410.021	17.75
410.803	15.75
411.586	14.75
412.368	17.75
413.151	16.75
413.933	17.75
414.715	19.75
415.497	16.75
416.279	17.75
417.061	22.75
417.843	18.75
418.624	22.75
419.406	18.75
420.188	21.75
420.969	21.75
421.751	21.75
422.532	21.75
423.313	24.75
424.095	24.75
424.876	23.75
425.657	22.75
426.438	24.75
427.219	27.75
428	27.75
428.78	27.75
429.561	32.75
430.342	31.75
431.122	28.75
431.903	33.75
432.683	33.75
433.464	38.75
434.244	37.75
435.024	41.75
435.804	38.75
436.584	43.75
437.364	44.75
438.144	42.75
438.924	46.75
439.704	53.75
440.483	58.75
441.263	56.75
442.042	66.75
442.822	67.75
443.601	74.75
444.38	81.75
445.16	82.75
445.939	96.75
446.718	97.75
447.497	109.75
448.276	115.75
449.054	131.75
449.833	142.75
450.612	155.75
451.391	173.75
452.169	187.75
452.948	217.75
453.726	228.75
454.504	257.75
455.282	283.75
456.061	316.75
456.839	357.75
457.617	398.75
458.395	447.75
459.172	497.75
459.95	550.75
460.728	610.75
461.506	685.75
462.283	762.75
463.061	861.75
463.838	967.75
464.615	1069.75
465.393	1192.75
466.17	1333.75
466.947	1468.75
467.724	1640.75
468.501	1810.75
469.278	2005.75
470.055	2237.75
470.831	2488.75
471.608	2746.75
472.385	3029.75
473.161	3345.75
473.938	3711.75
474.714	4055.75
475.49	4485.75
476.266	4896.75
477.043	5388.75
477.819	5890.75
478.595	6467.75
479.371	7105.75
480.146	7774.75
480.922	8490.75
481.698	9303.75
482.473	10175.75
483.249	11021.75
484.024	12045.75
484.8	13077.75
485.575	14239.75
486.35	15451.75
487.126	16738.75
487.901	18145.75
488.676	19590.75
489.451	21204.75
490.225	22846.75
491	24498.75
491.775	26317.75
492.55	28069.75
493.324	29998.75
494.099	31813.75
494.873	33605.75
495.647	35576.75
496.422	37446.75
497.196	39292.75
497.97	41020.75
498.744	42433.75
499.518	44024.75
500.292	45407.75
501.066	46383.75
501.839	47243.75
502.613	47915.75
503.387	48396.75
504.16	48703.75
504.934	48687.75
505.707	48449.75
506.48	48000.75
507.253	47269.75
508.027	46310.75
508.8	45277.75
509.573	44011.75
510.346	42847.75
511.118	41723.75
511.891	40270.75
512.664	38736.75
513.437	37159.75
514.209	35731.75
514.982	34333.75
515.754	32856.75
516.526	31480.75
517.298	30259.75
518.071	29058.75
518.843	27735.75
519.615	26720.75
520.387	25641.75
521.159	24623.75
521.93	23596.75
522.702	22523.75
523.474	21623.75
524.245	20632.75
525.017	19796.75
525.788	18865.75
526.56	18071.75
527.331	17258.75
528.102	16373.75
528.873	15548.75
529.644	14831.75
530.415	14071.75
531.186	13392.75
531.957	12673.75
532.728	11994.75
533.498	11341.75
534.269	10734.75
535.039	10185.75
535.81	9650.75
536.58	9105.75
537.351	8587.75
538.121	8149.75
538.891	7689.75
539.661	7293.75
540.431	6902.75
541.201	6543.75
541.971	6197.75
542.741	5907.75
543.51	5584.75
544.28	5332.75
545.05	5050.75
545.819	4822.75
546.588	4579.75
547.358	4366.75
548.127	4160.75
548.896	3969.75
549.665	3730.75
550.434	3532.75
551.203	3337.75
551.972	3187.75
552.741	3000.75
553.51	2819.75
554.278	2665.75
555.047	2517.75
555.815	2373.75
556.584	2256.75
557.352	2130.75
558.121	2013.75
558.889	1902.75
559.657	1785.75
560.425	1700.75
561.193	1606.75
561.961	1523.75
562.729	1427.75
563.496	1349.75
564.264	1274.75
565.032	1213.75
565.799	1144.75
566.567	1082.75
567.334	1021.75
568.101	980.75
568.869	910.75
569.636	865.75
570.403	819.75
571.17	776.75
571.937	733.75
572.704	692.75
573.471	644.75
574.237	616.75
575.004	575.75
575.771	543.75
576.537	515.75
577.303	492.75
578.07	462.75
578.836	431.75
579.602	394.75
580.368	384.75
581.134	371.75
581.9	355.75
582.666	330.75
583.432	315.75
584.198	305.75
584.964	288.75
585.729	265.75
586.495	260.75
587.26	243.75
588.025	232.75
588.791	216.75
589.556	206.75
590.321	194.75
591.086	187.75
591.851	183.75
592.616	172.75
593.381	163.75
594.146	155.75
594.911	141.75
595.675	145.75
596.44	136.75
597.204	128.75
597.969	124.75
598.733	117.75
599.497	113.75
600.261	108.75
601.025	101.75
601.79	98.75
602.553	94.75
603.317	93.75
604.081	89.75
604.845	82.75
605.609	75.75
606.372	77.75
607.136	78.75
607.899	71.75
608.662	68.75
609.426	66.75
610.189	65.75
610.952	65.75
611.715	60.75
612.478	54.75
613.241	54.75
614.004	56.75
614.767	53.75
615.529	52.75
616.292	48.75
617.055	44.75
617.817	49.75
618.579	43.75
619.342	44.75
620.104	39.75
620.866	39.75
621.628	34.75
622.39	35.75
623.152	35.75
623.914	34.75
624.676	34.75
625.438	31.75
626.199	33.75
626.961	31.75
627.722	30.75
628.484	30.75
629.245	27.75
630.006	29.75
630.768	27.75
631.529	25.75
632.29	25.75
633.051	25.75
633.812	24.75
634.573	23.75
635.333	23.75
636.094	24.75
636.855	22.75
637.615	22.75
638.376	20.75
639.136	22.75
639.896	18.75
640.657	16.75
641.417	21.75
642.177	20.75
642.937	14.75
643.697	14.75
644.457	17.75
645.216	16.75
645.976	16.75
646.736	14.75
647.495	14.75
648.255	12.75
649.014	13.75
649.774	14.75
650.533	15.75
651.292	12.75
652.051	15.75
652.81	13.75
653.569	10.75
654.328	10.75
655.087	14.75
655.846	12.75
656.604	12.75
657.363	12.75
658.121	11.75
658.88	10.75
659.638	9.75
660.397	10.75
661.155	12.75
661.913	11.75
662.671	10.75
663.429	8.75
664.187	10.75
664.945	9.75
665.703	10.75
666.46	11.75
667.218	11.75
667.976	9.75
668.733	8.75
669.49	7.75
670.248	10.75
671.005	8.75
671.762	8.75
672.519	8.75
673.276	8.75
674.033	8.75
674.79	10.75
675.547	9.75
676.304	7.75
677.06	8.75
677.817	7.75
678.574	8.75
679.33	7.75
680.086	7.75
680.843	8.75
681.599	6.75
682.355	9.75
683.111	7.75
683.867	9.75
684.623	9.75
685.379	6.75
686.135	8.75
686.89	6.75
687.646	8.75
688.402	8.75
689.157	8.75
689.912	7.75
690.668	6.75
691.423	6.75
692.178	7.75
692.933	9.75
693.688	7.75
694.443	6.75
695.198	6.75
695.953	8.75
696.708	5.75
697.462	7.75
698.217	7.75
698.972	6.75
699.726	7.75
700.48	6.75
701.235	8.75
701.989	8.75
702.743	8.75
703.497	7.75
704.251	7.75
705.005	8.75
705.759	8.75
706.513	8.75
707.266	8.75
708.02	8.75
708.774	5.75
709.527	8.75
710.28	6.75
711.034	9.75
711.787	6.75
712.54	6.75
713.293	7.75
714.046	9.75
714.799	9.75
715.552	6.75
716.305	8.75
717.058	6.75
717.81	9.75
718.563	10.75
719.315	6.75
720.068	6.75
720.82	6.75
721.573	7.75
722.325	5.75
723.077	7.75
723.829	9.75
724.581	7.75
725.333	8.75
726.085	7.75
726.836	8.75
727.588	6.75
728.34	8.75
729.091	9.75
729.843	11.75
730.594	9.75
731.346	7.75
732.097	9.75
732.848	9.75
733.599	8.75
734.35	8.75
735.101	7.75
735.852	5.75
736.603	9.75
737.354	6.75
738.104	8.75
738.855	9.75
739.605	8.75
740.356	10.75
741.106	9.75
741.856	10.75
742.607	10.75
743.357	9.75
744.107	10.75
744.857	10.75
745.607	9.75
746.357	10.75
747.106	14.75
747.856	9.75
748.606	8.75
749.355	10.75
750.105	9.75
750.854	11.75
751.603	12.75
752.353	9.75
753.102	12.75
753.851	12.75
754.6	11.75
755.349	11.75
756.098	12.75
756.847	11.75
757.595	12.75
758.344	15.75
759.093	12.75
759.841	11.75
760.589	12.75
761.338	13.75
762.086	14.75
762.834	12.75
763.582	12.75
764.331	12.75
765.079	15.75
765.826	12.75
766.574	15.75
767.322	12.75
768.07	12.75
768.817	11.75
769.565	14.75
770.312	14.75
771.06	14.75
771.807	14.75
772.554	16.75
773.302	13.75
774.049	14.75
774.796	14.75
775.543	14.75
776.29	16.75
777.036	16.75
777.783	16.75
778.53	18.75
779.276	15.75
780.023	14.75
780.769	16.75
781.516	15.75
782.262	15.75
783.008	18.75
783.754	14.75
784.5	18.75
785.246	12.75
785.992	13.75
786.738	16.75
787.484	15.75
788.23	14.75
788.975	13.75
789.721	14.75
790.466	13.75
791.212	15.75
791.957	14.75
792.702	14.75
793.447	14.75
794.193	13.75
794.938	16.75
795.683	15.75
796.427	11.75
797.172	14.75
797.917	12.75
798.662	12.75
799.406	10.75
800.151	11.75
800.895	12.75
801.64	10.75
802.384	12.75
803.128	10.75
803.872	11.75
804.616	10.75
805.36	9.75
806.104	10.75
806.848	9.75
807.592	10.75
808.336	12.75
809.079	10.75
809.823	10.75
810.566	10.75
811.31	11.75
812.053	8.75
812.796	10.75
813.539	8.75
814.283	6.75
815.026	10.75
815.769	7.75
816.511	6.75
817.254	6.75
817.997	7.75
818.74	6.75
819.482	7.75
820.225	8.75
820.967	5.75
821.71	7.75
822.452	6.75
823.194	8.75
823.936	6.75
824.678	7.75
825.42	7.75
826.162	5.75
826.904	7.75
827.646	6.75
828.388	6.75
829.129	7.75
829.871	4.75
830.612	3.75
831.354	5.75
832.095	6.75
832.836	4.75
833.577	7.75
834.319	5.75
835.06	6.75
835.801	4.75
836.542	5.75
837.282	5.75
838.023	7.75
838.764	5.75
839.504	5.75
840.245	5.75
840.985	5.75
841.726	4.75
842.466	2.75
843.206	5.75
843.946	4.75
844.687	5.75
845.427	2.75
846.166	3.75
846.906	4.75
847.646	2.75
848.386	3.75
849.125	4.75
849.865	4.75
850.605	5.75
851.344	3.75
852.083	3.75
852.823	2.75
853.562	2.75
854.301	6.75
855.04	3.75
855.779	1.75
856.518	2.75
857.257	3.75
857.995	3.75
858.734	3.75
859.473	2.75
860.211	4.75
860.95	3.75
861.688	3.75
862.426	2.75
863.165	4.75
863.903	2.75
864.641	4.75
865.379	1.75
866.117	3.75
866.855	2.75
867.593	1.75
868.33	2.75
869.068	4.75
869.806	2.75
870.543	1.75
871.28	2.75
872.018	1.75
872.755	1.75
873.492	2.75
874.229	2.75
874.967	0.75
875.703	2.75
876.44	4.75
877.177	1.75
877.914	1.75
878.651	0.75
879.387	2.75
880.124	1.75
880.86	2.75
881.597	-0.25
882.333	0.75
883.069	2.75
883.806	3.75
884.542	-0.25
885.278	1.75
886.014	2.75
886.749	3.75
887.485	1.75
888.221	1.75
888.957	0.75
889.692	0.75
890.428	2.75
891.163	-0.25
891.899	0.75
892.634	2.75
893.369	-0.25
894.104	3.75
894.839	1.75
895.574	2.75
896.309	1.75
897.044	3.75
897.779	1.75
898.514	0.75
899.248	2.75
899.983	1.75
900.717	0.75
901.452	1.75
902.186	0.75
902.92	0.75
903.654	0.75
904.389	0.75
905.123	0.75
905.857	2.75
906.59	1.75
907.324	1.75
908.058	0.75
908.792	0.75
909.525	2.75
910.259	2.75
910.992	2.75
911.726	0.75
912.459	0.75
913.192	-1.25
913.925	-0.25
914.658	-0.25
915.391	1.75
916.124	-1.25
916.857	3.75
917.59	-2.25
918.323	3.75
919.055	-1.25
919.788	-0.25
920.521	2.75
921.253	0.75
921.985	1.75
922.718	0.75
923.45	0.75
924.182	0.75
924.914	-1.25
925.646	0.75
926.378	0.75
927.11	-0.25
927.841	-1.25
928.573	-1.25
929.305	-0.25
930.036	0.75
930.768	1.75
931.499	0.75
932.23	-1.25
932.962	-0.25
933.693	-0.25
934.424	1.75
935.155	-1.25
935.886	-0.25
936.617	0.75
937.348	-1.25
938.078	-0.25
938.809	1.75
939.54	-0.25
940.27	1.75
941.001	2.75
941.731	1.75
942.461	-1.25
943.191	0.75
943.922	0.75
944.652	0.75
945.382	-0.25
946.112	0.75
946.841	-0.25
947.571	-0.25
948.301	1.75
949.031	-0.25
949.76	1.75
950.49	-0.25
951.219	-0.25
951.948	0.75
952.678	-0.25
953.407	0.75
954.136	0.75
954.865	-0.25
955.594	1.75
956.323	0.75
957.052	1.75
957.78	-0.25
958.509	-0.25
959.238	1.75
959.966	-1.25
960.695	0.75
961.423	-0.25
962.151	1.75
962.88	-1.25
963.608	1.75
964.336	0.75
965.064	0.75
965.792	0.75
966.52	1.75
967.247	-0.25
967.975	1.75
968.703	-1.25
969.43	-0.25
970.158	1.75
970.885	0.75
971.613	1.75
972.34	-0.25
973.067	1.75
973.794	-0.25
974.521	2.75
975.248	0.75
975.975	-0.25
976.702	0.75
977.429	-0.25
978.156	0.75
978.882	1.75
979.609	1.75
980.335	2.75
981.062	-0.25
981.788	-0.25
982.514	0.75
983.24	-0.25
983.967	-1.25
984.693	0.75
985.419	-0.25
986.144	-1.25
986.87	-1.25
987.596	-1.25
988.322	0.75
989.047	0.75
989.773	-0.25
990.498	-1.25
991.224	-0.25
991.949	0.75
992.674	-1.25
993.399	0.75
994.124	1.75
994.849	1.75
995.574	-0.25
996.299	-1.25
997.024	0.75
997.749	0.75
998.473	3.75
999.198	-1.25
999.922	0.75
1000.647	-0.25
1001.371	4.75
1002.095	-2.25
1002.82	-0.25
1003.544	-1.25
1004.268	3.75
1004.992	5.75
1005.716	3.75
1006.439	4.75
1007.163	4.75
1007.887	5.75
1008.611	-1.25
1009.334	1.75
1010.058	1.75
1010.781	-0.25
1011.504	-0.25
1012.228	0.75
1012.951	-0.25
1013.674	-1.25
1014.397	2.75
1015.12	-2.25
