节点500_705_QEPB04081__555__20-53-49-744.txt的数据

Date: Wed Nov 12 20:53:49 CST 2025
User: PC
Spectrometer: QEPB0408
触发模式: 0
积分时间 (秒): 1.000000E-2
Scans to average: 1
启用暗噪声校正: true
启用非线性校正: false
滑动平均宽度: 0
X轴模式: Wavelengths
Number of Pixels in Spectrum: 1044
>>>>>Begin Spectral Data<<<<<
220.843	6.38
221.644	3.38
222.444	5.38
223.244	10.38
224.045	6.38
224.845	8.38
225.645	5.38
226.445	6.38
227.245	6.38
228.045	8.38
228.845	7.38
229.645	9.38
230.444	8.38
231.244	5.38
232.043	9.38
232.843	9.38
233.642	8.38
234.442	9.38
235.241	9.38
236.04	8.38
236.839	11.38
237.638	11.38
238.437	9.38
239.236	10.38
240.035	11.38
240.833	10.38
241.632	10.38
242.43	14.38
243.229	9.38
244.027	11.38
244.826	13.38
245.624	11.38
246.422	14.38
247.22	12.38
248.018	12.38
248.816	12.38
249.614	16.38
250.412	16.38
251.21	14.38
252.007	15.38
252.805	14.38
253.602	17.38
254.4	16.38
255.197	17.38
255.994	17.38
256.791	18.38
257.589	17.38
258.386	18.38
259.183	18.38
259.979	23.38
260.776	20.38
261.573	20.38
262.37	20.38
263.166	24.38
263.963	24.38
264.759	23.38
265.556	20.38
266.352	25.38
267.148	23.38
267.944	25.38
268.74	27.38
269.536	26.38
270.332	27.38
271.128	29.38
271.924	27.38
272.719	30.38
273.515	27.38
274.311	28.38
275.106	28.38
275.901	30.38
276.697	30.38
277.492	30.38
278.287	31.38
279.082	30.38
279.877	30.38
280.672	29.38
281.467	34.38
282.262	34.38
283.056	31.38
283.851	31.38
284.646	31.38
285.44	29.38
286.234	31.38
287.029	30.38
287.823	33.38
288.617	29.38
289.411	30.38
290.205	29.38
290.999	34.38
291.793	33.38
292.587	28.38
293.381	27.38
294.174	29.38
294.968	28.38
295.761	27.38
296.555	26.38
297.348	27.38
298.141	27.38
298.935	31.38
299.728	24.38
300.521	23.38
301.314	23.38
302.107	24.38
302.899	22.38
303.692	20.38
304.485	22.38
305.277	20.38
306.07	24.38
306.862	20.38
307.655	21.38
308.447	23.38
309.239	22.38
310.031	20.38
310.823	22.38
311.615	18.38
312.407	18.38
313.199	17.38
313.991	16.38
314.783	17.38
315.574	18.38
316.366	15.38
317.157	17.38
317.949	14.38
318.74	15.38
319.531	15.38
320.322	10.38
321.113	10.38
321.904	14.38
322.695	15.38
323.486	14.38
324.277	13.38
325.068	12.38
325.858	13.38
326.649	12.38
327.439	15.38
328.23	12.38
329.02	14.38
329.81	11.38
330.6	11.38
331.391	13.38
332.181	11.38
332.971	12.38
333.76	15.38
334.55	12.38
335.34	12.38
336.13	14.38
336.919	13.38
337.709	13.38
338.498	13.38
339.287	11.38
340.077	12.38
340.866	11.38
341.655	11.38
342.444	14.38
343.233	11.38
344.022	10.38
344.811	11.38
345.6	10.38
346.388	11.38
347.177	9.38
347.965	10.38
348.754	12.38
349.542	13.38
350.33	13.38
351.119	9.38
351.907	9.38
352.695	11.38
353.483	10.38
354.271	10.38
355.059	9.38
355.846	9.38
356.634	12.38
357.422	12.38
358.209	12.38
358.997	9.38
359.784	8.38
360.571	8.38
361.359	8.38
362.146	10.38
362.933	7.38
363.72	11.38
364.507	9.38
365.294	10.38
366.081	8.38
366.867	11.38
367.654	9.38
368.44	10.38
369.227	9.38
370.013	8.38
370.8	11.38
371.586	9.38
372.372	10.38
373.158	9.38
373.944	6.38
374.73	11.38
375.516	10.38
376.302	11.38
377.088	11.38
377.873	10.38
378.659	11.38
379.445	9.38
380.23	10.38
381.015	9.38
381.801	12.38
382.586	9.38
383.371	9.38
384.156	11.38
384.941	11.38
385.726	8.38
386.511	9.38
387.296	11.38
388.08	11.38
388.865	12.38
389.649	12.38
390.434	10.38
391.218	11.38
392.003	12.38
392.787	12.38
393.571	13.38
394.355	14.38
395.139	11.38
395.923	8.38
396.707	11.38
397.491	12.38
398.274	12.38
399.058	13.38
399.842	11.38
400.625	13.38
401.408	13.38
402.192	10.38
402.975	13.38
403.758	11.38
404.541	12.38
405.324	15.38
406.107	16.38
406.89	14.38
407.673	17.38
408.456	14.38
409.238	14.38
410.021	17.38
410.803	14.38
411.586	16.38
412.368	17.38
413.151	16.38
413.933	17.38
414.715	17.38
415.497	15.38
416.279	17.38
417.061	18.38
417.843	18.38
418.624	18.38
419.406	16.38
420.188	20.38
420.969	21.38
421.751	20.38
422.532	21.38
423.313	21.38
424.095	21.38
424.876	21.38
425.657	23.38
426.438	23.38
427.219	26.38
428	26.38
428.78	29.38
429.561	30.38
430.342	31.38
431.122	32.38
431.903	33.38
432.683	32.38
433.464	35.38
434.244	35.38
435.024	37.38
435.804	45.38
436.584	45.38
437.364	48.38
438.144	51.38
438.924	49.38
439.704	56.38
440.483	56.38
441.263	66.38
442.042	67.38
442.822	71.38
443.601	79.38
444.38	85.38
445.16	91.38
445.939	98.38
446.718	109.38
447.497	117.38
448.276	125.38
449.054	141.38
449.833	155.38
450.612	174.38
451.391	189.38
452.169	209.38
452.948	233.38
453.726	257.38
454.504	284.38
455.282	314.38
456.061	356.38
456.839	396.38
457.617	441.38
458.395	492.38
459.172	537.38
459.95	600.38
460.728	673.38
461.506	751.38
462.283	825.38
463.061	915.38
463.838	1015.38
464.615	1132.38
465.393	1262.38
466.17	1387.38
466.947	1528.38
467.724	1710.38
468.501	1870.38
469.278	2075.38
470.055	2282.38
470.831	2504.38
471.608	2765.38
472.385	3023.38
473.161	3311.38
473.938	3602.38
474.714	3992.38
475.49	4350.38
476.266	4719.38
477.043	5118.38
477.819	5573.38
478.595	6099.38
479.371	6621.38
480.146	7173.38
480.922	7840.38
481.698	8509.38
482.473	9177.38
483.249	9995.38
484.024	10815.38
484.8	11615.38
485.575	12579.38
486.35	13556.38
487.126	14587.38
487.901	15776.38
488.676	16934.38
489.451	18192.38
490.225	19530.38
491	20964.38
491.775	22267.38
492.55	23821.38
493.324	25328.38
494.099	26920.38
494.873	28486.38
495.647	30103.38
496.422	31688.38
497.196	33434.38
497.97	34883.38
498.744	36352.38
499.518	37932.38
500.292	39261.38
501.066	40368.38
501.839	41312.38
502.613	42236.38
503.387	43033.38
504.16	43547.38
504.934	43972.38
505.707	44221.38
506.48	44189.38
507.253	43900.38
508.027	43561.38
508.8	42933.38
509.573	42207.38
510.346	41459.38
511.118	40596.38
511.891	39562.38
512.664	38298.38
513.437	36937.38
514.209	35813.38
514.982	34624.38
515.754	33224.38
516.526	31955.38
517.298	30681.38
518.071	29623.38
518.843	28485.38
519.615	27267.38
520.387	26200.38
521.159	25185.38
521.93	24199.38
522.702	23144.38
523.474	22205.38
524.245	21327.38
525.017	20467.38
525.788	19579.38
526.56	18770.38
527.331	18043.38
528.102	17130.38
528.873	16311.38
529.644	15570.38
530.415	14820.38
531.186	14201.38
531.957	13470.38
532.728	12777.38
533.498	12144.38
534.269	11514.38
535.039	10952.38
535.81	10388.38
536.58	9827.38
537.351	9302.38
538.121	8799.38
538.891	8329.38
539.661	7864.38
540.431	7451.38
541.201	7080.38
541.971	6703.38
542.741	6337.38
543.51	6029.38
544.28	5702.38
545.05	5480.38
545.819	5209.38
546.588	4960.38
547.358	4742.38
548.127	4503.38
548.896	4269.38
549.665	4046.38
550.434	3867.38
551.203	3660.38
551.972	3486.38
552.741	3272.38
553.51	3092.38
554.278	2926.38
555.047	2783.38
555.815	2641.38
556.584	2500.38
557.352	2354.38
558.121	2206.38
558.889	2112.38
559.657	1999.38
560.425	1875.38
561.193	1795.38
561.961	1699.38
562.729	1595.38
563.496	1500.38
564.264	1424.38
565.032	1346.38
565.799	1275.38
566.567	1201.38
567.334	1129.38
568.101	1077.38
568.869	1017.38
569.636	954.38
570.403	903.38
571.17	857.38
571.937	810.38
572.704	761.38
573.471	718.38
574.237	683.38
575.004	644.38
575.771	609.38
576.537	567.38
577.303	536.38
578.07	507.38
578.836	479.38
579.602	455.38
580.368	431.38
581.134	410.38
581.9	397.38
582.666	367.38
583.432	354.38
584.198	331.38
584.964	318.38
585.729	302.38
586.495	285.38
587.26	271.38
588.025	261.38
588.791	245.38
589.556	230.38
590.321	214.38
591.086	207.38
591.851	198.38
592.616	182.38
593.381	178.38
594.146	171.38
594.911	165.38
595.675	148.38
596.44	153.38
597.204	142.38
597.969	139.38
598.733	129.38
599.497	120.38
600.261	120.38
601.025	115.38
601.79	109.38
602.553	105.38
603.317	97.38
604.081	96.38
604.845	92.38
605.609	89.38
606.372	80.38
607.136	83.38
607.899	80.38
608.662	75.38
609.426	71.38
610.189	67.38
610.952	66.38
611.715	65.38
612.478	62.38
613.241	62.38
614.004	60.38
614.767	57.38
615.529	54.38
616.292	52.38
617.055	49.38
617.817	52.38
618.579	48.38
619.342	46.38
620.104	41.38
620.866	42.38
621.628	41.38
622.39	38.38
623.152	37.38
623.914	39.38
624.676	37.38
625.438	31.38
626.199	37.38
626.961	30.38
627.722	35.38
628.484	31.38
629.245	30.38
630.006	29.38
630.768	27.38
631.529	27.38
632.29	27.38
633.051	27.38
633.812	25.38
634.573	24.38
635.333	25.38
636.094	23.38
636.855	22.38
637.615	19.38
638.376	23.38
639.136	21.38
639.896	20.38
640.657	18.38
641.417	17.38
642.177	19.38
642.937	16.38
643.697	18.38
644.457	17.38
645.216	18.38
645.976	18.38
646.736	17.38
647.495	15.38
648.255	13.38
649.014	17.38
649.774	17.38
650.533	14.38
651.292	17.38
652.051	16.38
652.81	14.38
653.569	12.38
654.328	11.38
655.087	13.38
655.846	12.38
656.604	12.38
657.363	15.38
658.121	13.38
658.88	13.38
659.638	12.38
660.397	11.38
661.155	10.38
661.913	11.38
662.671	11.38
663.429	9.38
664.187	12.38
664.945	11.38
665.703	9.38
666.46	11.38
667.218	13.38
667.976	9.38
668.733	11.38
669.49	12.38
670.248	10.38
671.005	7.38
671.762	11.38
672.519	11.38
673.276	9.38
674.033	9.38
674.79	10.38
675.547	9.38
676.304	9.38
677.06	7.38
677.817	6.38
678.574	10.38
679.33	9.38
680.086	9.38
680.843	6.38
681.599	10.38
682.355	9.38
683.111	6.38
683.867	9.38
684.623	8.38
685.379	8.38
686.135	8.38
686.89	7.38
687.646	10.38
688.402	6.38
689.157	8.38
689.912	7.38
690.668	7.38
691.423	7.38
692.178	6.38
692.933	8.38
693.688	7.38
694.443	7.38
695.198	8.38
695.953	8.38
696.708	10.38
697.462	6.38
698.217	7.38
698.972	8.38
699.726	7.38
700.48	8.38
701.235	9.38
701.989	7.38
702.743	7.38
703.497	10.38
704.251	5.38
705.005	10.38
705.759	7.38
706.513	7.38
707.266	6.38
708.02	9.38
708.774	8.38
709.527	6.38
710.28	7.38
711.034	7.38
711.787	8.38
712.54	7.38
713.293	9.38
714.046	6.38
714.799	7.38
715.552	6.38
716.305	9.38
717.058	8.38
717.81	7.38
718.563	5.38
719.315	7.38
720.068	7.38
720.82	6.38
721.573	8.38
722.325	5.38
723.077	9.38
723.829	8.38
724.581	8.38
725.333	10.38
726.085	6.38
726.836	7.38
727.588	7.38
728.34	7.38
729.091	6.38
729.843	8.38
730.594	5.38
731.346	10.38
732.097	11.38
732.848	9.38
733.599	8.38
734.35	11.38
735.101	7.38
735.852	9.38
736.603	11.38
737.354	9.38
738.104	9.38
738.855	9.38
739.605	9.38
740.356	8.38
741.106	9.38
741.856	10.38
742.607	9.38
743.357	9.38
744.107	10.38
744.857	11.38
745.607	10.38
746.357	8.38
747.106	10.38
747.856	13.38
748.606	9.38
749.355	7.38
750.105	11.38
750.854	10.38
751.603	11.38
752.353	11.38
753.102	10.38
753.851	12.38
754.6	10.38
755.349	13.38
756.098	11.38
756.847	14.38
757.595	11.38
758.344	11.38
759.093	11.38
759.841	9.38
760.589	12.38
761.338	12.38
762.086	10.38
762.834	10.38
763.582	13.38
764.331	13.38
765.079	13.38
765.826	11.38
766.574	13.38
767.322	13.38
768.07	13.38
768.817	10.38
769.565	15.38
770.312	15.38
771.06	13.38
771.807	14.38
772.554	13.38
773.302	14.38
774.049	14.38
774.796	11.38
775.543	13.38
776.29	16.38
777.036	14.38
777.783	13.38
778.53	13.38
779.276	14.38
780.023	17.38
780.769	16.38
781.516	15.38
782.262	12.38
783.008	15.38
783.754	14.38
784.5	15.38
785.246	16.38
785.992	14.38
786.738	15.38
787.484	15.38
788.23	15.38
788.975	14.38
789.721	14.38
790.466	13.38
791.212	12.38
791.957	16.38
792.702	15.38
793.447	11.38
794.193	13.38
794.938	15.38
795.683	13.38
796.427	14.38
797.172	13.38
797.917	12.38
798.662	12.38
799.406	11.38
800.151	13.38
800.895	9.38
801.64	9.38
802.384	10.38
803.128	11.38
803.872	14.38
804.616	13.38
805.36	13.38
806.104	10.38
806.848	10.38
807.592	11.38
808.336	12.38
809.079	9.38
809.823	7.38
810.566	11.38
811.31	8.38
812.053	9.38
812.796	9.38
813.539	7.38
814.283	9.38
815.026	8.38
815.769	9.38
816.511	8.38
817.254	7.38
817.997	9.38
818.74	8.38
819.482	7.38
820.225	6.38
820.967	7.38
821.71	8.38
822.452	10.38
823.194	6.38
823.936	6.38
824.678	6.38
825.42	6.38
826.162	6.38
826.904	6.38
827.646	7.38
828.388	7.38
829.129	8.38
829.871	6.38
830.612	6.38
831.354	6.38
832.095	5.38
832.836	6.38
833.577	8.38
834.319	5.38
835.06	6.38
835.801	7.38
836.542	6.38
837.282	5.38
838.023	4.38
838.764	9.38
839.504	8.38
840.245	6.38
840.985	4.38
841.726	7.38
842.466	4.38
843.206	7.38
843.946	4.38
844.687	5.38
845.427	5.38
846.166	5.38
846.906	4.38
847.646	6.38
848.386	5.38
849.125	7.38
849.865	6.38
850.605	4.38
851.344	4.38
852.083	4.38
852.823	6.38
853.562	5.38
854.301	3.38
855.04	6.38
855.779	4.38
856.518	5.38
857.257	1.38
857.995	5.38
858.734	4.38
859.473	3.38
860.211	6.38
860.95	3.38
861.688	3.38
862.426	5.38
863.165	2.38
863.903	4.38
864.641	5.38
865.379	6.38
866.117	2.38
866.855	5.38
867.593	1.38
868.33	1.38
869.068	3.38
869.806	1.38
870.543	3.38
871.28	2.38
872.018	5.38
872.755	1.38
873.492	1.38
874.229	3.38
874.967	1.38
875.703	1.38
876.44	1.38
877.177	0.38
877.914	3.38
878.651	0.38
879.387	1.38
880.124	2.38
880.86	2.38
881.597	2.38
882.333	2.38
883.069	3.38
883.806	1.38
884.542	0.38
885.278	1.38
886.014	2.38
886.749	-0.62
887.485	1.38
888.221	4.38
888.957	1.38
889.692	-0.62
890.428	0.38
891.163	3.38
891.899	1.38
892.634	0.38
893.369	1.38
894.104	1.38
894.839	1.38
895.574	0.38
896.309	1.38
897.044	3.38
897.779	0.38
898.514	1.38
899.248	3.38
899.983	0.38
900.717	3.38
901.452	0.38
902.186	1.38
902.92	2.38
903.654	-0.62
904.389	2.38
905.123	2.38
905.857	3.38
906.59	1.38
907.324	3.38
908.058	1.38
908.792	-0.62
909.525	3.38
910.259	3.38
910.992	2.38
911.726	0.38
912.459	2.38
913.192	-0.62
913.925	-0.62
914.658	2.38
915.391	3.38
916.124	0.38
916.857	1.38
917.59	2.38
918.323	1.38
919.055	2.38
919.788	-0.62
920.521	2.38
921.253	2.38
921.985	1.38
922.718	1.38
923.45	0.38
924.182	-1.62
924.914	2.38
925.646	1.38
926.378	1.38
927.11	3.38
927.841	0.38
928.573	-0.62
929.305	1.38
930.036	1.38
930.768	0.38
931.499	1.38
932.23	1.38
932.962	-0.62
933.693	1.38
934.424	1.38
935.155	0.38
935.886	3.38
936.617	0.38
937.348	-0.62
938.078	1.38
938.809	-0.62
939.54	0.38
940.27	1.38
941.001	-0.62
941.731	-1.62
942.461	1.38
943.191	-1.62
943.922	1.38
944.652	-1.62
945.382	0.38
946.112	-0.62
946.841	0.38
947.571	1.38
948.301	0.38
949.031	2.38
949.76	0.38
950.49	-0.62
951.219	2.38
951.948	-0.62
952.678	-0.62
953.407	0.38
954.136	0.38
954.865	1.38
955.594	0.38
956.323	-1.62
957.052	-0.62
957.78	1.38
958.509	0.38
959.238	0.38
959.966	1.38
960.695	0.38
961.423	2.38
962.151	1.38
962.88	1.38
963.608	1.38
964.336	0.38
965.064	2.38
965.792	-0.62
966.52	2.38
967.247	-0.62
967.975	-0.62
968.703	3.38
969.43	1.38
970.158	1.38
970.885	1.38
971.613	-0.62
972.34	2.38
973.067	0.38
973.794	-0.62
974.521	-1.62
975.248	0.38
975.975	-0.62
976.702	1.38
977.429	-0.62
978.156	-0.62
978.882	0.38
979.609	1.38
980.335	0.38
981.062	-0.62
981.788	0.38
982.514	0.38
983.24	0.38
983.967	2.38
984.693	0.38
985.419	1.38
986.144	-0.62
986.87	-0.62
987.596	0.38
988.322	2.38
989.047	1.38
989.773	0.38
990.498	2.38
991.224	0.38
991.949	-0.62
992.674	-0.62
993.399	1.38
994.124	1.38
994.849	-0.62
995.574	0.38
996.299	1.38
997.024	1.38
997.749	0.38
998.473	1.38
999.198	2.38
999.922	-0.62
1000.647	0.38
1001.371	3.38
1002.095	-0.62
1002.82	-1.62
1003.544	-3.62
1004.268	6.38
1004.992	4.38
1005.716	3.38
1006.439	5.38
1007.163	5.38
1007.887	6.38
1008.611	0.38
1009.334	0.38
1010.058	4.38
1010.781	1.38
1011.504	-0.62
1012.228	0.38
1012.951	0.38
1013.674	1.38
1014.397	0.38
1015.12	0.38
