节点500_705_QEPB04081__200__20-48-58-481.txt的数据

Date: Wed Nov 12 20:48:58 CST 2025
User: PC
Spectrometer: QEPB0408
触发模式: 0
积分时间 (秒): 1.000000E-2
Scans to average: 1
启用暗噪声校正: true
启用非线性校正: false
滑动平均宽度: 0
X轴模式: Wavelengths
Number of Pixels in Spectrum: 1044
>>>>>Begin Spectral Data<<<<<
220.843	6.88
221.644	4.88
222.444	5.88
223.244	6.88
224.045	2.88
224.845	5.88
225.645	6.88
226.445	5.88
227.245	8.88
228.045	8.88
228.845	7.88
229.645	6.88
230.444	8.88
231.244	6.88
232.043	8.88
232.843	8.88
233.642	9.88
234.442	9.88
235.241	10.88
236.04	10.88
236.839	9.88
237.638	11.88
238.437	10.88
239.236	10.88
240.035	10.88
240.833	11.88
241.632	10.88
242.43	12.88
243.229	13.88
244.027	11.88
244.826	13.88
245.624	13.88
246.422	14.88
247.22	13.88
248.018	13.88
248.816	15.88
249.614	17.88
250.412	14.88
251.21	17.88
252.007	14.88
252.805	20.88
253.602	16.88
254.4	18.88
255.197	19.88
255.994	21.88
256.791	18.88
257.589	20.88
258.386	23.88
259.183	20.88
259.979	21.88
260.776	22.88
261.573	21.88
262.37	24.88
263.166	23.88
263.963	26.88
264.759	24.88
265.556	27.88
266.352	24.88
267.148	26.88
267.944	28.88
268.74	29.88
269.536	30.88
270.332	30.88
271.128	32.88
271.924	30.88
272.719	31.88
273.515	34.88
274.311	31.88
275.106	34.88
275.901	33.88
276.697	32.88
277.492	32.88
278.287	36.88
279.082	32.88
279.877	35.88
280.672	35.88
281.467	37.88
282.262	31.88
283.056	36.88
283.851	30.88
284.646	38.88
285.44	34.88
286.234	34.88
287.029	36.88
287.823	33.88
288.617	34.88
289.411	30.88
290.205	32.88
290.999	32.88
291.793	32.88
292.587	28.88
293.381	28.88
294.174	30.88
294.968	31.88
295.761	24.88
296.555	25.88
297.348	24.88
298.141	25.88
298.935	28.88
299.728	24.88
300.521	24.88
301.314	23.88
302.107	24.88
302.899	19.88
303.692	19.88
304.485	19.88
305.277	23.88
306.07	23.88
306.862	19.88
307.655	19.88
308.447	22.88
309.239	20.88
310.031	21.88
310.823	20.88
311.615	17.88
312.407	16.88
313.199	19.88
313.991	17.88
314.783	17.88
315.574	14.88
316.366	14.88
317.157	15.88
317.949	14.88
318.74	12.88
319.531	14.88
320.322	12.88
321.113	15.88
321.904	12.88
322.695	14.88
323.486	12.88
324.277	12.88
325.068	13.88
325.858	9.88
326.649	11.88
327.439	15.88
328.23	10.88
329.02	10.88
329.81	12.88
330.6	13.88
331.391	11.88
332.181	11.88
332.971	11.88
333.76	12.88
334.55	13.88
335.34	12.88
336.13	12.88
336.919	12.88
337.709	11.88
338.498	10.88
339.287	10.88
340.077	9.88
340.866	11.88
341.655	11.88
342.444	11.88
343.233	10.88
344.022	10.88
344.811	12.88
345.6	12.88
346.388	12.88
347.177	9.88
347.965	11.88
348.754	12.88
349.542	8.88
350.33	9.88
351.119	11.88
351.907	9.88
352.695	10.88
353.483	10.88
354.271	9.88
355.059	10.88
355.846	12.88
356.634	10.88
357.422	9.88
358.209	10.88
358.997	11.88
359.784	9.88
360.571	8.88
361.359	11.88
362.146	10.88
362.933	8.88
363.72	8.88
364.507	9.88
365.294	9.88
366.081	8.88
366.867	10.88
367.654	11.88
368.44	9.88
369.227	8.88
370.013	9.88
370.8	9.88
371.586	9.88
372.372	7.88
373.158	7.88
373.944	9.88
374.73	8.88
375.516	10.88
376.302	10.88
377.088	7.88
377.873	8.88
378.659	9.88
379.445	11.88
380.23	6.88
381.015	10.88
381.801	10.88
382.586	13.88
383.371	11.88
384.156	10.88
384.941	11.88
385.726	10.88
386.511	12.88
387.296	11.88
388.08	9.88
388.865	10.88
389.649	12.88
390.434	12.88
391.218	10.88
392.003	12.88
392.787	9.88
393.571	10.88
394.355	13.88
395.139	10.88
395.923	11.88
396.707	12.88
397.491	11.88
398.274	14.88
399.058	12.88
399.842	12.88
400.625	14.88
401.408	13.88
402.192	10.88
402.975	13.88
403.758	14.88
404.541	14.88
405.324	14.88
406.107	14.88
406.89	13.88
407.673	16.88
408.456	17.88
409.238	16.88
410.021	18.88
410.803	16.88
411.586	18.88
412.368	16.88
413.151	19.88
413.933	18.88
414.715	16.88
415.497	20.88
416.279	18.88
417.061	22.88
417.843	17.88
418.624	22.88
419.406	18.88
420.188	21.88
420.969	23.88
421.751	21.88
422.532	22.88
423.313	25.88
424.095	23.88
424.876	24.88
425.657	21.88
426.438	27.88
427.219	24.88
428	29.88
428.78	26.88
429.561	29.88
430.342	28.88
431.122	30.88
431.903	32.88
432.683	31.88
433.464	36.88
434.244	38.88
435.024	40.88
435.804	39.88
436.584	43.88
437.364	41.88
438.144	51.88
438.924	51.88
439.704	50.88
440.483	55.88
441.263	61.88
442.042	60.88
442.822	63.88
443.601	73.88
444.38	76.88
445.16	88.88
445.939	90.88
446.718	97.88
447.497	106.88
448.276	113.88
449.054	123.88
449.833	149.88
450.612	157.88
451.391	170.88
452.169	182.88
452.948	212.88
453.726	228.88
454.504	260.88
455.282	289.88
456.061	328.88
456.839	350.88
457.617	395.88
458.395	442.88
459.172	495.88
459.95	553.88
460.728	626.88
461.506	683.88
462.283	782.88
463.061	862.88
463.838	959.88
464.615	1068.88
465.393	1177.88
466.17	1330.88
466.947	1473.88
467.724	1638.88
468.501	1817.88
469.278	2019.88
470.055	2234.88
470.831	2484.88
471.608	2746.88
472.385	3035.88
473.161	3378.88
473.938	3726.88
474.714	4067.88
475.49	4468.88
476.266	4931.88
477.043	5380.88
477.819	5897.88
478.595	6484.88
479.371	7091.88
480.146	7742.88
480.922	8496.88
481.698	9278.88
482.473	10122.88
483.249	11046.88
484.024	12013.88
484.8	13068.88
485.575	14192.88
486.35	15394.88
487.126	16745.88
487.901	18086.88
488.676	19567.88
489.451	21222.88
490.225	22801.88
491	24382.88
491.775	26196.88
492.55	27998.88
493.324	29828.88
494.099	31631.88
494.873	33543.88
495.647	35459.88
496.422	37313.88
497.196	39120.88
497.97	40773.88
498.744	42381.88
499.518	43967.88
500.292	45313.88
501.066	46268.88
501.839	47123.88
502.613	47846.88
503.387	48313.88
504.16	48530.88
504.934	48595.88
505.707	48339.88
506.48	47885.88
507.253	47204.88
508.027	46377.88
508.8	45225.88
509.573	44058.88
510.346	42944.88
511.118	41780.88
511.891	40318.88
512.664	38723.88
513.437	37173.88
514.209	35795.88
514.982	34327.88
515.754	32924.88
516.526	31457.88
517.298	30273.88
518.071	29024.88
518.843	27836.88
519.615	26722.88
520.387	25643.88
521.159	24663.88
521.93	23627.88
522.702	22589.88
523.474	21646.88
524.245	20772.88
525.017	19762.88
525.788	18894.88
526.56	18098.88
527.331	17283.88
528.102	16382.88
528.873	15555.88
529.644	14857.88
530.415	14100.88
531.186	13429.88
531.957	12690.88
532.728	11999.88
533.498	11421.88
534.269	10808.88
535.039	10215.88
535.81	9657.88
536.58	9118.88
537.351	8614.88
538.121	8174.88
538.891	7728.88
539.661	7333.88
540.431	6923.88
541.201	6542.88
541.971	6214.88
542.741	5868.88
543.51	5592.88
544.28	5345.88
545.05	5066.88
545.819	4822.88
546.588	4607.88
547.358	4405.88
548.127	4197.88
548.896	3968.88
549.665	3722.88
550.434	3547.88
551.203	3347.88
551.972	3191.88
552.741	3042.88
553.51	2845.88
554.278	2669.88
555.047	2528.88
555.815	2382.88
556.584	2263.88
557.352	2122.88
558.121	2019.88
558.889	1908.88
559.657	1814.88
560.425	1701.88
561.193	1605.88
561.961	1536.88
562.729	1440.88
563.496	1362.88
564.264	1293.88
565.032	1230.88
565.799	1149.88
566.567	1095.88
567.334	1037.88
568.101	982.88
568.869	913.88
569.636	877.88
570.403	823.88
571.17	782.88
571.937	726.88
572.704	701.88
573.471	653.88
574.237	615.88
575.004	583.88
575.771	544.88
576.537	513.88
577.303	481.88
578.07	458.88
578.836	434.88
579.602	408.88
580.368	381.88
581.134	370.88
581.9	357.88
582.666	332.88
583.432	318.88
584.198	302.88
584.964	286.88
585.729	267.88
586.495	260.88
587.26	244.88
588.025	236.88
588.791	219.88
589.556	207.88
590.321	202.88
591.086	189.88
591.851	180.88
592.616	171.88
593.381	162.88
594.146	152.88
594.911	144.88
595.675	142.88
596.44	137.88
597.204	127.88
597.969	120.88
598.733	124.88
599.497	115.88
600.261	107.88
601.025	104.88
601.79	97.88
602.553	98.88
603.317	86.88
604.081	91.88
604.845	88.88
605.609	83.88
606.372	78.88
607.136	72.88
607.899	74.88
608.662	68.88
609.426	68.88
610.189	66.88
610.952	63.88
611.715	62.88
612.478	59.88
613.241	55.88
614.004	53.88
614.767	51.88
615.529	51.88
616.292	49.88
617.055	44.88
617.817	44.88
618.579	47.88
619.342	42.88
620.104	42.88
620.866	38.88
621.628	39.88
622.39	39.88
623.152	34.88
623.914	36.88
624.676	36.88
625.438	31.88
626.199	32.88
626.961	32.88
627.722	27.88
628.484	27.88
629.245	27.88
630.006	25.88
630.768	28.88
631.529	25.88
632.29	26.88
633.051	25.88
633.812	25.88
634.573	21.88
635.333	25.88
636.094	24.88
636.855	22.88
637.615	21.88
638.376	22.88
639.136	21.88
639.896	16.88
640.657	18.88
641.417	19.88
642.177	17.88
642.937	17.88
643.697	17.88
644.457	15.88
645.216	16.88
645.976	15.88
646.736	16.88
647.495	12.88
648.255	15.88
649.014	14.88
649.774	14.88
650.533	14.88
651.292	13.88
652.051	14.88
652.81	10.88
653.569	13.88
654.328	11.88
655.087	12.88
655.846	11.88
656.604	12.88
657.363	13.88
658.121	12.88
658.88	11.88
659.638	12.88
660.397	10.88
661.155	9.88
661.913	9.88
662.671	12.88
663.429	8.88
664.187	9.88
664.945	10.88
665.703	9.88
666.46	10.88
667.218	9.88
667.976	11.88
668.733	9.88
669.49	8.88
670.248	7.88
671.005	8.88
671.762	8.88
672.519	7.88
673.276	6.88
674.033	8.88
674.79	9.88
675.547	9.88
676.304	7.88
677.06	8.88
677.817	7.88
678.574	8.88
679.33	7.88
680.086	7.88
680.843	7.88
681.599	8.88
682.355	9.88
683.111	6.88
683.867	6.88
684.623	9.88
685.379	8.88
686.135	8.88
686.89	5.88
687.646	8.88
688.402	8.88
689.157	5.88
689.912	8.88
690.668	7.88
691.423	9.88
692.178	7.88
692.933	6.88
693.688	5.88
694.443	6.88
695.198	8.88
695.953	9.88
696.708	9.88
697.462	8.88
698.217	4.88
698.972	9.88
699.726	6.88
700.48	9.88
701.235	8.88
701.989	4.88
702.743	7.88
703.497	5.88
704.251	9.88
705.005	6.88
705.759	8.88
706.513	5.88
707.266	7.88
708.02	6.88
708.774	7.88
709.527	6.88
710.28	8.88
711.034	5.88
711.787	5.88
712.54	7.88
713.293	8.88
714.046	6.88
714.799	6.88
715.552	5.88
716.305	9.88
717.058	6.88
717.81	6.88
718.563	7.88
719.315	7.88
720.068	7.88
720.82	7.88
721.573	9.88
722.325	7.88
723.077	9.88
723.829	8.88
724.581	8.88
725.333	9.88
726.085	8.88
726.836	7.88
727.588	7.88
728.34	8.88
729.091	7.88
729.843	7.88
730.594	7.88
731.346	9.88
732.097	7.88
732.848	8.88
733.599	10.88
734.35	8.88
735.101	5.88
735.852	8.88
736.603	11.88
737.354	9.88
738.104	10.88
738.855	8.88
739.605	8.88
740.356	10.88
741.106	9.88
741.856	9.88
742.607	7.88
743.357	7.88
744.107	11.88
744.857	9.88
745.607	10.88
746.357	9.88
747.106	10.88
747.856	11.88
748.606	8.88
749.355	9.88
750.105	12.88
750.854	12.88
751.603	10.88
752.353	10.88
753.102	10.88
753.851	10.88
754.6	12.88
755.349	13.88
756.098	11.88
756.847	12.88
757.595	12.88
758.344	10.88
759.093	10.88
759.841	14.88
760.589	12.88
761.338	10.88
762.086	14.88
762.834	11.88
763.582	16.88
764.331	10.88
765.079	14.88
765.826	11.88
766.574	14.88
767.322	14.88
768.07	13.88
768.817	13.88
769.565	14.88
770.312	16.88
771.06	13.88
771.807	14.88
772.554	13.88
773.302	12.88
774.049	14.88
774.796	16.88
775.543	11.88
776.29	17.88
777.036	13.88
777.783	19.88
778.53	16.88
779.276	15.88
780.023	14.88
780.769	14.88
781.516	15.88
782.262	16.88
783.008	15.88
783.754	13.88
784.5	15.88
785.246	17.88
785.992	14.88
786.738	14.88
787.484	15.88
788.23	16.88
788.975	14.88
789.721	15.88
790.466	16.88
791.212	13.88
791.957	15.88
792.702	15.88
793.447	13.88
794.193	14.88
794.938	12.88
795.683	14.88
796.427	12.88
797.172	13.88
797.917	14.88
798.662	13.88
799.406	13.88
800.151	10.88
800.895	13.88
801.64	14.88
802.384	12.88
803.128	11.88
803.872	10.88
804.616	10.88
805.36	10.88
806.104	14.88
806.848	12.88
807.592	9.88
808.336	10.88
809.079	8.88
809.823	10.88
810.566	9.88
811.31	11.88
812.053	10.88
812.796	8.88
813.539	8.88
814.283	8.88
815.026	9.88
815.769	7.88
816.511	7.88
817.254	9.88
817.997	5.88
818.74	7.88
819.482	8.88
820.225	7.88
820.967	7.88
821.71	7.88
822.452	8.88
823.194	7.88
823.936	5.88
824.678	5.88
825.42	8.88
826.162	9.88
826.904	5.88
827.646	6.88
828.388	7.88
829.129	6.88
829.871	6.88
830.612	5.88
831.354	6.88
832.095	5.88
832.836	8.88
833.577	6.88
834.319	4.88
835.06	5.88
835.801	4.88
836.542	7.88
837.282	7.88
838.023	7.88
838.764	2.88
839.504	6.88
840.245	6.88
840.985	3.88
841.726	6.88
842.466	2.88
843.206	6.88
843.946	4.88
844.687	4.88
845.427	5.88
846.166	4.88
846.906	4.88
847.646	3.88
848.386	2.88
849.125	4.88
849.865	2.88
850.605	6.88
851.344	3.88
852.083	3.88
852.823	3.88
853.562	2.88
854.301	4.88
855.04	3.88
855.779	1.88
856.518	4.88
857.257	3.88
857.995	3.88
858.734	3.88
859.473	4.88
860.211	3.88
860.95	5.88
861.688	4.88
862.426	3.88
863.165	0.88
863.903	1.88
864.641	4.88
865.379	1.88
866.117	1.88
866.855	2.88
867.593	1.88
868.33	1.88
869.068	2.88
869.806	2.88
870.543	2.88
871.28	2.88
872.018	2.88
872.755	1.88
873.492	3.88
874.229	0.88
874.967	2.88
875.703	0.88
876.44	-1.12
877.177	0.88
877.914	1.88
878.651	1.88
879.387	1.88
880.124	1.88
880.86	1.88
881.597	0.88
882.333	1.88
883.069	0.88
883.806	0.88
884.542	0.88
885.278	2.88
886.014	1.88
886.749	1.88
887.485	1.88
888.221	2.88
888.957	1.88
889.692	-1.12
890.428	-1.12
891.163	2.88
891.899	1.88
892.634	-0.12
893.369	1.88
894.104	1.88
894.839	0.88
895.574	1.88
896.309	-1.12
897.044	-0.12
897.779	3.88
898.514	-0.12
899.248	0.88
899.983	-0.12
900.717	-3.12
901.452	0.88
902.186	0.88
902.92	0.88
903.654	2.88
904.389	2.88
905.123	1.88
905.857	-0.12
906.59	4.88
907.324	-0.12
908.058	-0.12
908.792	1.88
909.525	1.88
910.259	0.88
910.992	0.88
911.726	0.88
912.459	2.88
913.192	1.88
913.925	-0.12
914.658	0.88
915.391	2.88
916.124	-0.12
916.857	2.88
917.59	-0.12
918.323	-1.12
919.055	-0.12
919.788	-2.12
920.521	1.88
921.253	-2.12
921.985	-0.12
922.718	2.88
923.45	-0.12
924.182	-0.12
924.914	0.88
925.646	0.88
926.378	0.88
927.11	-0.12
927.841	0.88
928.573	-3.12
929.305	1.88
930.036	0.88
930.768	-0.12
931.499	1.88
932.23	1.88
932.962	-0.12
933.693	0.88
934.424	0.88
935.155	1.88
935.886	-2.12
936.617	-1.12
937.348	-0.12
938.078	-1.12
938.809	-2.12
939.54	-0.12
940.27	0.88
941.001	0.88
941.731	0.88
942.461	-2.12
943.191	0.88
943.922	1.88
944.652	-0.12
945.382	-0.12
946.112	0.88
946.841	1.88
947.571	-0.12
948.301	3.88
949.031	1.88
949.76	-2.12
950.49	0.88
951.219	-0.12
951.948	1.88
952.678	1.88
953.407	-0.12
954.136	1.88
954.865	0.88
955.594	0.88
956.323	-0.12
957.052	-0.12
957.78	1.88
958.509	1.88
959.238	0.88
959.966	-2.12
960.695	0.88
961.423	-0.12
962.151	-1.12
962.88	0.88
963.608	-0.12
964.336	0.88
965.064	1.88
965.792	2.88
966.52	-0.12
967.247	0.88
967.975	0.88
968.703	-1.12
969.43	2.88
970.158	0.88
970.885	-0.12
971.613	0.88
972.34	-0.12
973.067	-0.12
973.794	0.88
974.521	0.88
975.248	-0.12
975.975	-1.12
976.702	0.88
977.429	-1.12
978.156	-1.12
978.882	-1.12
979.609	0.88
980.335	2.88
981.062	1.88
981.788	-0.12
982.514	0.88
983.24	0.88
983.967	0.88
984.693	-1.12
985.419	1.88
986.144	-1.12
986.87	-0.12
987.596	-0.12
988.322	-1.12
989.047	0.88
989.773	-0.12
990.498	0.88
991.224	0.88
991.949	-0.12
992.674	0.88
993.399	0.88
994.124	0.88
994.849	-0.12
995.574	0.88
996.299	-0.12
997.024	0.88
997.749	2.88
998.473	1.88
999.198	-0.12
999.922	2.88
1000.647	-0.12
1001.371	2.88
1002.095	-1.12
1002.82	-0.12
1003.544	-2.12
1004.268	5.88
1004.992	5.88
1005.716	4.88
1006.439	4.88
1007.163	7.88
1007.887	5.88
1008.611	-0.12
1009.334	-1.12
1010.058	1.88
1010.781	1.88
1011.504	0.88
1012.228	-1.12
1012.951	0.88
1013.674	-0.12
1014.397	0.88
1015.12	-1.12
