节点500_705_QEPB04081__695__20-55-50-790.txt的数据

Date: Wed Nov 12 20:55:50 CST 2025
User: PC
Spectrometer: QEPB0408
触发模式: 0
积分时间 (秒): 1.000000E-2
Scans to average: 1
启用暗噪声校正: true
启用非线性校正: false
滑动平均宽度: 0
X轴模式: Wavelengths
Number of Pixels in Spectrum: 1044
>>>>>Begin Spectral Data<<<<<
220.843	5.5
221.644	4.5
222.444	5.5
223.244	5.5
224.045	7.5
224.845	6.5
225.645	7.5
226.445	6.5
227.245	6.5
228.045	7.5
228.845	7.5
229.645	5.5
230.444	7.5
231.244	6.5
232.043	10.5
232.843	10.5
233.642	9.5
234.442	11.5
235.241	11.5
236.04	11.5
236.839	10.5
237.638	10.5
238.437	10.5
239.236	10.5
240.035	11.5
240.833	12.5
241.632	10.5
242.43	13.5
243.229	12.5
244.027	11.5
244.826	11.5
245.624	13.5
246.422	15.5
247.22	12.5
248.018	16.5
248.816	13.5
249.614	15.5
250.412	16.5
251.21	15.5
252.007	15.5
252.805	13.5
253.602	16.5
254.4	17.5
255.197	14.5
255.994	17.5
256.791	17.5
257.589	18.5
258.386	21.5
259.183	19.5
259.979	19.5
260.776	17.5
261.573	22.5
262.37	23.5
263.166	19.5
263.963	22.5
264.759	23.5
265.556	24.5
266.352	22.5
267.148	25.5
267.944	26.5
268.74	25.5
269.536	27.5
270.332	27.5
271.128	29.5
271.924	27.5
272.719	30.5
273.515	28.5
274.311	29.5
275.106	31.5
275.901	29.5
276.697	29.5
277.492	30.5
278.287	31.5
279.082	32.5
279.877	31.5
280.672	33.5
281.467	31.5
282.262	30.5
283.056	30.5
283.851	33.5
284.646	30.5
285.44	27.5
286.234	32.5
287.029	29.5
287.823	31.5
288.617	32.5
289.411	32.5
290.205	29.5
290.999	28.5
291.793	28.5
292.587	29.5
293.381	30.5
294.174	27.5
294.968	26.5
295.761	27.5
296.555	26.5
297.348	26.5
298.141	27.5
298.935	28.5
299.728	24.5
300.521	23.5
301.314	24.5
302.107	21.5
302.899	23.5
303.692	23.5
304.485	24.5
305.277	24.5
306.07	23.5
306.862	23.5
307.655	21.5
308.447	23.5
309.239	20.5
310.031	17.5
310.823	21.5
311.615	17.5
312.407	20.5
313.199	17.5
313.991	19.5
314.783	20.5
315.574	18.5
316.366	15.5
317.157	15.5
317.949	16.5
318.74	17.5
319.531	15.5
320.322	15.5
321.113	16.5
321.904	15.5
322.695	15.5
323.486	12.5
324.277	15.5
325.068	13.5
325.858	13.5
326.649	13.5
327.439	14.5
328.23	14.5
329.02	11.5
329.81	14.5
330.6	12.5
331.391	9.5
332.181	13.5
332.971	10.5
333.76	13.5
334.55	11.5
335.34	12.5
336.13	13.5
336.919	13.5
337.709	13.5
338.498	11.5
339.287	12.5
340.077	13.5
340.866	8.5
341.655	11.5
342.444	11.5
343.233	10.5
344.022	11.5
344.811	10.5
345.6	11.5
346.388	12.5
347.177	14.5
347.965	10.5
348.754	13.5
349.542	10.5
350.33	12.5
351.119	12.5
351.907	14.5
352.695	11.5
353.483	11.5
354.271	12.5
355.059	12.5
355.846	9.5
356.634	11.5
357.422	10.5
358.209	10.5
358.997	11.5
359.784	12.5
360.571	9.5
361.359	9.5
362.146	8.5
362.933	10.5
363.72	12.5
364.507	11.5
365.294	10.5
366.081	8.5
366.867	9.5
367.654	9.5
368.44	11.5
369.227	9.5
370.013	9.5
370.8	7.5
371.586	10.5
372.372	8.5
373.158	10.5
373.944	10.5
374.73	10.5
375.516	10.5
376.302	7.5
377.088	8.5
377.873	7.5
378.659	8.5
379.445	11.5
380.23	11.5
381.015	11.5
381.801	8.5
382.586	11.5
383.371	8.5
384.156	9.5
384.941	10.5
385.726	10.5
386.511	11.5
387.296	12.5
388.08	13.5
388.865	10.5
389.649	12.5
390.434	9.5
391.218	9.5
392.003	11.5
392.787	11.5
393.571	13.5
394.355	12.5
395.139	11.5
395.923	12.5
396.707	10.5
397.491	13.5
398.274	13.5
399.058	12.5
399.842	14.5
400.625	11.5
401.408	14.5
402.192	13.5
402.975	15.5
403.758	11.5
404.541	11.5
405.324	14.5
406.107	16.5
406.89	13.5
407.673	11.5
408.456	15.5
409.238	14.5
410.021	15.5
410.803	15.5
411.586	17.5
412.368	17.5
413.151	15.5
413.933	15.5
414.715	20.5
415.497	18.5
416.279	17.5
417.061	20.5
417.843	19.5
418.624	20.5
419.406	18.5
420.188	19.5
420.969	22.5
421.751	20.5
422.532	21.5
423.313	21.5
424.095	24.5
424.876	24.5
425.657	23.5
426.438	23.5
427.219	26.5
428	26.5
428.78	27.5
429.561	26.5
430.342	28.5
431.122	30.5
431.903	29.5
432.683	30.5
433.464	33.5
434.244	36.5
435.024	41.5
435.804	42.5
436.584	42.5
437.364	45.5
438.144	48.5
438.924	52.5
439.704	58.5
440.483	58.5
441.263	66.5
442.042	73.5
442.822	72.5
443.601	76.5
444.38	84.5
445.16	93.5
445.939	102.5
446.718	110.5
447.497	116.5
448.276	133.5
449.054	149.5
449.833	158.5
450.612	173.5
451.391	184.5
452.169	213.5
452.948	238.5
453.726	268.5
454.504	285.5
455.282	323.5
456.061	357.5
456.839	389.5
457.617	447.5
458.395	495.5
459.172	553.5
459.95	607.5
460.728	689.5
461.506	749.5
462.283	834.5
463.061	927.5
463.838	1032.5
464.615	1130.5
465.393	1267.5
466.17	1394.5
466.947	1540.5
467.724	1718.5
468.501	1896.5
469.278	2075.5
470.055	2266.5
470.831	2501.5
471.608	2740.5
472.385	3021.5
473.161	3298.5
473.938	3601.5
474.714	3941.5
475.49	4311.5
476.266	4695.5
477.043	5139.5
477.819	5541.5
478.595	6004.5
479.371	6539.5
480.146	7093.5
480.922	7703.5
481.698	8365.5
482.473	9020.5
483.249	9801.5
484.024	10539.5
484.8	11399.5
485.575	12261.5
486.35	13170.5
487.126	14266.5
487.901	15343.5
488.676	16486.5
489.451	17709.5
490.225	18996.5
491	20340.5
491.775	21711.5
492.55	23189.5
493.324	24619.5
494.099	26168.5
494.873	27696.5
495.647	29243.5
496.422	30772.5
497.196	32368.5
497.97	33892.5
498.744	35293.5
499.518	36888.5
500.292	38099.5
501.066	39264.5
501.839	40287.5
502.613	41184.5
503.387	42057.5
504.16	42584.5
504.934	43054.5
505.707	43401.5
506.48	43398.5
507.253	43181.5
508.027	42910.5
508.8	42394.5
509.573	41786.5
510.346	41081.5
511.118	40313.5
511.891	39347.5
512.664	38124.5
513.437	36946.5
514.209	35698.5
514.982	34526.5
515.754	33270.5
516.526	32034.5
517.298	30815.5
518.071	29658.5
518.843	28542.5
519.615	27349.5
520.387	26255.5
521.159	25265.5
521.93	24277.5
522.702	23238.5
523.474	22353.5
524.245	21422.5
525.017	20544.5
525.788	19666.5
526.56	18922.5
527.331	18159.5
528.102	17235.5
528.873	16443.5
529.644	15665.5
530.415	14965.5
531.186	14271.5
531.957	13574.5
532.728	12950.5
533.498	12265.5
534.269	11672.5
535.039	11079.5
535.81	10479.5
536.58	9920.5
537.351	9419.5
538.121	8922.5
538.891	8412.5
539.661	7976.5
540.431	7531.5
541.201	7167.5
541.971	6820.5
542.741	6428.5
543.51	6121.5
544.28	5819.5
545.05	5538.5
545.819	5283.5
546.588	5055.5
547.358	4776.5
548.127	4550.5
548.896	4318.5
549.665	4121.5
550.434	3909.5
551.203	3687.5
551.972	3537.5
552.741	3359.5
553.51	3160.5
554.278	2960.5
555.047	2801.5
555.815	2677.5
556.584	2553.5
557.352	2382.5
558.121	2246.5
558.889	2146.5
559.657	2023.5
560.425	1908.5
561.193	1830.5
561.961	1719.5
562.729	1641.5
563.496	1540.5
564.264	1462.5
565.032	1373.5
565.799	1313.5
566.567	1225.5
567.334	1161.5
568.101	1100.5
568.869	1026.5
569.636	980.5
570.403	914.5
571.17	868.5
571.937	835.5
572.704	775.5
573.471	748.5
574.237	693.5
575.004	652.5
575.771	612.5
576.537	584.5
577.303	551.5
578.07	530.5
578.836	489.5
579.602	464.5
580.368	448.5
581.134	425.5
581.9	400.5
582.666	384.5
583.432	365.5
584.198	347.5
584.964	328.5
585.729	312.5
586.495	294.5
587.26	283.5
588.025	260.5
588.791	250.5
589.556	235.5
590.321	221.5
591.086	211.5
591.851	201.5
592.616	189.5
593.381	181.5
594.146	174.5
594.911	164.5
595.675	155.5
596.44	155.5
597.204	143.5
597.969	138.5
598.733	132.5
599.497	126.5
600.261	124.5
601.025	118.5
601.79	113.5
602.553	108.5
603.317	103.5
604.081	98.5
604.845	98.5
605.609	87.5
606.372	91.5
607.136	84.5
607.899	79.5
608.662	75.5
609.426	73.5
610.189	73.5
610.952	67.5
611.715	71.5
612.478	61.5
613.241	60.5
614.004	58.5
614.767	56.5
615.529	53.5
616.292	52.5
617.055	53.5
617.817	49.5
618.579	44.5
619.342	46.5
620.104	45.5
620.866	45.5
621.628	42.5
622.39	41.5
623.152	39.5
623.914	35.5
624.676	39.5
625.438	35.5
626.199	31.5
626.961	34.5
627.722	33.5
628.484	30.5
629.245	31.5
630.006	28.5
630.768	27.5
631.529	28.5
632.29	26.5
633.051	25.5
633.812	24.5
634.573	23.5
635.333	21.5
636.094	23.5
636.855	23.5
637.615	25.5
638.376	19.5
639.136	22.5
639.896	18.5
640.657	20.5
641.417	18.5
642.177	19.5
642.937	19.5
643.697	18.5
644.457	19.5
645.216	17.5
645.976	16.5
646.736	15.5
647.495	15.5
648.255	17.5
649.014	14.5
649.774	15.5
650.533	14.5
651.292	15.5
652.051	14.5
652.81	15.5
653.569	15.5
654.328	13.5
655.087	11.5
655.846	14.5
656.604	13.5
657.363	14.5
658.121	12.5
658.88	14.5
659.638	11.5
660.397	11.5
661.155	11.5
661.913	10.5
662.671	10.5
663.429	10.5
664.187	9.5
664.945	8.5
665.703	9.5
666.46	11.5
667.218	11.5
667.976	10.5
668.733	9.5
669.49	12.5
670.248	11.5
671.005	9.5
671.762	10.5
672.519	7.5
673.276	10.5
674.033	10.5
674.79	6.5
675.547	9.5
676.304	9.5
677.06	10.5
677.817	8.5
678.574	10.5
679.33	9.5
680.086	10.5
680.843	10.5
681.599	9.5
682.355	9.5
683.111	9.5
683.867	8.5
684.623	6.5
685.379	8.5
686.135	7.5
686.89	10.5
687.646	6.5
688.402	7.5
689.157	7.5
689.912	8.5
690.668	8.5
691.423	9.5
692.178	7.5
692.933	7.5
693.688	9.5
694.443	8.5
695.198	8.5
695.953	10.5
696.708	7.5
697.462	10.5
698.217	8.5
698.972	6.5
699.726	7.5
700.48	8.5
701.235	7.5
701.989	7.5
702.743	9.5
703.497	7.5
704.251	7.5
705.005	8.5
705.759	8.5
706.513	7.5
707.266	9.5
708.02	8.5
708.774	6.5
709.527	6.5
710.28	7.5
711.034	6.5
711.787	6.5
712.54	6.5
713.293	7.5
714.046	6.5
714.799	7.5
715.552	8.5
716.305	8.5
717.058	8.5
717.81	5.5
718.563	8.5
719.315	9.5
720.068	8.5
720.82	9.5
721.573	8.5
722.325	11.5
723.077	9.5
723.829	7.5
724.581	8.5
725.333	6.5
726.085	10.5
726.836	9.5
727.588	10.5
728.34	8.5
729.091	8.5
729.843	8.5
730.594	8.5
731.346	9.5
732.097	7.5
732.848	10.5
733.599	8.5
734.35	7.5
735.101	10.5
735.852	8.5
736.603	9.5
737.354	9.5
738.104	8.5
738.855	10.5
739.605	10.5
740.356	9.5
741.106	8.5
741.856	9.5
742.607	9.5
743.357	11.5
744.107	8.5
744.857	10.5
745.607	10.5
746.357	10.5
747.106	11.5
747.856	10.5
748.606	10.5
749.355	11.5
750.105	8.5
750.854	10.5
751.603	10.5
752.353	9.5
753.102	9.5
753.851	9.5
754.6	11.5
755.349	11.5
756.098	11.5
756.847	11.5
757.595	10.5
758.344	11.5
759.093	11.5
759.841	11.5
760.589	14.5
761.338	13.5
762.086	12.5
762.834	10.5
763.582	11.5
764.331	10.5
765.079	15.5
765.826	12.5
766.574	13.5
767.322	14.5
768.07	11.5
768.817	12.5
769.565	11.5
770.312	13.5
771.06	13.5
771.807	13.5
772.554	13.5
773.302	13.5
774.049	15.5
774.796	13.5
775.543	13.5
776.29	14.5
777.036	16.5
777.783	14.5
778.53	16.5
779.276	15.5
780.023	11.5
780.769	15.5
781.516	15.5
782.262	13.5
783.008	14.5
783.754	14.5
784.5	15.5
785.246	15.5
785.992	15.5
786.738	15.5
787.484	13.5
788.23	15.5
788.975	12.5
789.721	12.5
790.466	14.5
791.212	14.5
791.957	13.5
792.702	12.5
793.447	14.5
794.193	14.5
794.938	17.5
795.683	13.5
796.427	13.5
797.172	14.5
797.917	14.5
798.662	15.5
799.406	11.5
800.151	12.5
800.895	10.5
801.64	12.5
802.384	14.5
803.128	9.5
803.872	13.5
804.616	12.5
805.36	11.5
806.104	11.5
806.848	10.5
807.592	11.5
808.336	12.5
809.079	9.5
809.823	9.5
810.566	8.5
811.31	9.5
812.053	8.5
812.796	9.5
813.539	9.5
814.283	7.5
815.026	8.5
815.769	8.5
816.511	7.5
817.254	8.5
817.997	7.5
818.74	9.5
819.482	7.5
820.225	9.5
820.967	8.5
821.71	8.5
822.452	9.5
823.194	7.5
823.936	9.5
824.678	7.5
825.42	8.5
826.162	7.5
826.904	8.5
827.646	6.5
828.388	6.5
829.129	10.5
829.871	7.5
830.612	8.5
831.354	7.5
832.095	7.5
832.836	6.5
833.577	5.5
834.319	8.5
835.06	5.5
835.801	5.5
836.542	5.5
837.282	6.5
838.023	6.5
838.764	5.5
839.504	8.5
840.245	5.5
840.985	7.5
841.726	5.5
842.466	5.5
843.206	5.5
843.946	5.5
844.687	8.5
845.427	6.5
846.166	6.5
846.906	7.5
847.646	3.5
848.386	8.5
849.125	8.5
849.865	4.5
850.605	4.5
851.344	5.5
852.083	7.5
852.823	4.5
853.562	6.5
854.301	3.5
855.04	6.5
855.779	5.5
856.518	4.5
857.257	4.5
857.995	3.5
858.734	5.5
859.473	5.5
860.211	5.5
860.95	6.5
861.688	2.5
862.426	5.5
863.165	2.5
863.903	3.5
864.641	4.5
865.379	5.5
866.117	2.5
866.855	1.5
867.593	5.5
868.33	0.5
869.068	3.5
869.806	2.5
870.543	-0.5
871.28	1.5
872.018	3.5
872.755	2.5
873.492	1.5
874.229	4.5
874.967	1.5
875.703	1.5
876.44	3.5
877.177	2.5
877.914	2.5
878.651	5.5
879.387	2.5
880.124	3.5
880.86	3.5
881.597	4.5
882.333	1.5
883.069	1.5
883.806	0.5
884.542	1.5
885.278	0.5
886.014	0.5
886.749	1.5
887.485	1.5
888.221	3.5
888.957	2.5
889.692	1.5
890.428	0.5
891.163	3.5
891.899	4.5
892.634	0.5
893.369	0.5
894.104	3.5
894.839	2.5
895.574	-0.5
896.309	3.5
897.044	2.5
897.779	2.5
898.514	0.5
899.248	2.5
899.983	1.5
900.717	1.5
901.452	0.5
902.186	1.5
902.92	1.5
903.654	-0.5
904.389	-0.5
905.123	-0.5
905.857	2.5
906.59	1.5
907.324	1.5
908.058	-0.5
908.792	1.5
909.525	0.5
910.259	2.5
910.992	2.5
911.726	2.5
912.459	-0.5
913.192	0.5
913.925	-0.5
914.658	2.5
915.391	-0.5
916.124	1.5
916.857	1.5
917.59	1.5
918.323	1.5
919.055	1.5
919.788	2.5
920.521	2.5
921.253	0.5
921.985	1.5
922.718	0.5
923.45	-0.5
924.182	1.5
924.914	1.5
925.646	-0.5
926.378	-0.5
927.11	0.5
927.841	1.5
928.573	2.5
929.305	-0.5
930.036	1.5
930.768	2.5
931.499	2.5
932.23	2.5
932.962	2.5
933.693	0.5
934.424	-0.5
935.155	1.5
935.886	-1.5
936.617	0.5
937.348	0.5
938.078	1.5
938.809	0.5
939.54	1.5
940.27	0.5
941.001	-0.5
941.731	2.5
942.461	0.5
943.191	2.5
943.922	2.5
944.652	1.5
945.382	2.5
946.112	0.5
946.841	1.5
947.571	-0.5
948.301	-0.5
949.031	1.5
949.76	1.5
950.49	-0.5
951.219	1.5
951.948	2.5
952.678	1.5
953.407	-0.5
954.136	-1.5
954.865	2.5
955.594	-0.5
956.323	1.5
957.052	2.5
957.78	0.5
958.509	1.5
959.238	1.5
959.966	0.5
960.695	0.5
961.423	1.5
962.151	0.5
962.88	1.5
963.608	2.5
964.336	1.5
965.064	0.5
965.792	0.5
966.52	2.5
967.247	1.5
967.975	1.5
968.703	-0.5
969.43	3.5
970.158	0.5
970.885	-0.5
971.613	2.5
972.34	1.5
973.067	-0.5
973.794	1.5
974.521	1.5
975.248	2.5
975.975	1.5
976.702	0.5
977.429	2.5
978.156	2.5
978.882	-0.5
979.609	2.5
980.335	1.5
981.062	3.5
981.788	-0.5
982.514	1.5
983.24	2.5
983.967	1.5
984.693	-2.5
985.419	-1.5
986.144	1.5
986.87	-1.5
987.596	1.5
988.322	2.5
989.047	-2.5
989.773	1.5
990.498	1.5
991.224	3.5
991.949	-0.5
992.674	1.5
993.399	0.5
994.124	-0.5
994.849	2.5
995.574	1.5
996.299	-0.5
997.024	3.5
997.749	-0.5
998.473	1.5
999.198	1.5
999.922	2.5
1000.647	0.5
1001.371	5.5
1002.095	-0.5
1002.82	-0.5
1003.544	-0.5
1004.268	2.5
1004.992	4.5
1005.716	3.5
1006.439	5.5
1007.163	4.5
1007.887	5.5
1008.611	2.5
1009.334	1.5
1010.058	1.5
1010.781	0.5
1011.504	2.5
1012.228	1.5
1012.951	0.5
1013.674	-0.5
1014.397	-2.5
1015.12	-1.5
