节点500_705_QEPB04081__650__20-55-09-829.txt的数据

Date: Wed Nov 12 20:55:09 CST 2025
User: PC
Spectrometer: QEPB0408
触发模式: 0
积分时间 (秒): 1.000000E-2
Scans to average: 1
启用暗噪声校正: true
启用非线性校正: false
滑动平均宽度: 0
X轴模式: Wavelengths
Number of Pixels in Spectrum: 1044
>>>>>Begin Spectral Data<<<<<
220.843	3.88
221.644	4.88
222.444	4.88
223.244	5.88
224.045	4.88
224.845	8.88
225.645	5.88
226.445	4.88
227.245	4.88
228.045	10.88
228.845	5.88
229.645	7.88
230.444	5.88
231.244	7.88
232.043	8.88
232.843	7.88
233.642	7.88
234.442	6.88
235.241	9.88
236.04	7.88
236.839	6.88
237.638	10.88
238.437	10.88
239.236	10.88
240.035	11.88
240.833	8.88
241.632	10.88
242.43	11.88
243.229	10.88
244.027	12.88
244.826	11.88
245.624	11.88
246.422	12.88
247.22	13.88
248.018	14.88
248.816	14.88
249.614	14.88
250.412	14.88
251.21	11.88
252.007	13.88
252.805	15.88
253.602	15.88
254.4	14.88
255.197	18.88
255.994	17.88
256.791	15.88
257.589	17.88
258.386	21.88
259.183	19.88
259.979	19.88
260.776	18.88
261.573	21.88
262.37	21.88
263.166	21.88
263.963	24.88
264.759	22.88
265.556	21.88
266.352	23.88
267.148	22.88
267.944	25.88
268.74	28.88
269.536	24.88
270.332	23.88
271.128	26.88
271.924	28.88
272.719	28.88
273.515	30.88
274.311	26.88
275.106	27.88
275.901	29.88
276.697	31.88
277.492	30.88
278.287	33.88
279.082	30.88
279.877	30.88
280.672	32.88
281.467	30.88
282.262	30.88
283.056	30.88
283.851	29.88
284.646	30.88
285.44	30.88
286.234	31.88
287.029	29.88
287.823	30.88
288.617	28.88
289.411	30.88
290.205	30.88
290.999	28.88
291.793	26.88
292.587	30.88
293.381	29.88
294.174	30.88
294.968	28.88
295.761	26.88
296.555	26.88
297.348	23.88
298.141	26.88
298.935	24.88
299.728	24.88
300.521	24.88
301.314	23.88
302.107	22.88
302.899	22.88
303.692	22.88
304.485	23.88
305.277	19.88
306.07	22.88
306.862	19.88
307.655	22.88
308.447	17.88
309.239	20.88
310.031	21.88
310.823	16.88
311.615	19.88
312.407	18.88
313.199	17.88
313.991	18.88
314.783	18.88
315.574	15.88
316.366	17.88
317.157	15.88
317.949	14.88
318.74	14.88
319.531	12.88
320.322	16.88
321.113	12.88
321.904	12.88
322.695	14.88
323.486	12.88
324.277	14.88
325.068	14.88
325.858	12.88
326.649	15.88
327.439	13.88
328.23	12.88
329.02	11.88
329.81	13.88
330.6	10.88
331.391	10.88
332.181	11.88
332.971	12.88
333.76	12.88
334.55	12.88
335.34	10.88
336.13	14.88
336.919	10.88
337.709	10.88
338.498	13.88
339.287	10.88
340.077	12.88
340.866	13.88
341.655	11.88
342.444	11.88
343.233	10.88
344.022	12.88
344.811	8.88
345.6	12.88
346.388	7.88
347.177	10.88
347.965	10.88
348.754	8.88
349.542	12.88
350.33	8.88
351.119	10.88
351.907	10.88
352.695	8.88
353.483	8.88
354.271	8.88
355.059	8.88
355.846	11.88
356.634	8.88
357.422	9.88
358.209	9.88
358.997	10.88
359.784	8.88
360.571	11.88
361.359	7.88
362.146	9.88
362.933	10.88
363.72	9.88
364.507	11.88
365.294	8.88
366.081	7.88
366.867	7.88
367.654	11.88
368.44	7.88
369.227	7.88
370.013	7.88
370.8	9.88
371.586	7.88
372.372	8.88
373.158	6.88
373.944	10.88
374.73	6.88
375.516	10.88
376.302	10.88
377.088	9.88
377.873	7.88
378.659	9.88
379.445	10.88
380.23	10.88
381.015	8.88
381.801	8.88
382.586	7.88
383.371	10.88
384.156	8.88
384.941	10.88
385.726	8.88
386.511	10.88
387.296	10.88
388.08	7.88
388.865	10.88
389.649	10.88
390.434	9.88
391.218	11.88
392.003	10.88
392.787	11.88
393.571	11.88
394.355	11.88
395.139	12.88
395.923	11.88
396.707	12.88
397.491	11.88
398.274	12.88
399.058	12.88
399.842	12.88
400.625	10.88
401.408	13.88
402.192	12.88
402.975	13.88
403.758	15.88
404.541	12.88
405.324	13.88
406.107	13.88
406.89	15.88
407.673	14.88
408.456	15.88
409.238	16.88
410.021	12.88
410.803	14.88
411.586	16.88
412.368	16.88
413.151	16.88
413.933	14.88
414.715	19.88
415.497	16.88
416.279	17.88
417.061	18.88
417.843	20.88
418.624	16.88
419.406	18.88
420.188	20.88
420.969	21.88
421.751	20.88
422.532	22.88
423.313	24.88
424.095	23.88
424.876	23.88
425.657	24.88
426.438	25.88
427.219	21.88
428	25.88
428.78	28.88
429.561	30.88
430.342	30.88
431.122	31.88
431.903	29.88
432.683	32.88
433.464	33.88
434.244	37.88
435.024	36.88
435.804	40.88
436.584	42.88
437.364	43.88
438.144	48.88
438.924	55.88
439.704	54.88
440.483	62.88
441.263	62.88
442.042	63.88
442.822	70.88
443.601	72.88
444.38	85.88
445.16	91.88
445.939	100.88
446.718	106.88
447.497	112.88
448.276	129.88
449.054	137.88
449.833	157.88
450.612	176.88
451.391	185.88
452.169	209.88
452.948	235.88
453.726	260.88
454.504	290.88
455.282	318.88
456.061	361.88
456.839	393.88
457.617	440.88
458.395	487.88
459.172	544.88
459.95	601.88
460.728	675.88
461.506	748.88
462.283	828.88
463.061	935.88
463.838	1024.88
464.615	1131.88
465.393	1260.88
466.17	1374.88
466.947	1545.88
467.724	1697.88
468.501	1887.88
469.278	2079.88
470.055	2288.88
470.831	2527.88
471.608	2746.88
472.385	3011.88
473.161	3324.88
473.938	3625.88
474.714	3964.88
475.49	4323.88
476.266	4705.88
477.043	5171.88
477.819	5580.88
478.595	6059.88
479.371	6583.88
480.146	7107.88
480.922	7760.88
481.698	8394.88
482.473	9093.88
483.249	9837.88
484.024	10662.88
484.8	11491.88
485.575	12371.88
486.35	13349.88
487.126	14423.88
487.901	15470.88
488.676	16590.88
489.451	17895.88
490.225	19213.88
491	20546.88
491.775	21914.88
492.55	23410.88
493.324	24894.88
494.099	26372.88
494.873	28005.88
495.647	29570.88
496.422	31151.88
497.196	32805.88
497.97	34258.88
498.744	35718.88
499.518	37246.88
500.292	38647.88
501.066	39714.88
501.839	40670.88
502.613	41605.88
503.387	42449.88
504.16	43040.88
504.934	43437.88
505.707	43723.88
506.48	43620.88
507.253	43459.88
508.027	43107.88
508.8	42608.88
509.573	41904.88
510.346	41197.88
511.118	40450.88
511.891	39464.88
512.664	38152.88
513.437	37014.88
514.209	35758.88
514.982	34533.88
515.754	33216.88
516.526	32076.88
517.298	30779.88
518.071	29605.88
518.843	28528.88
519.615	27283.88
520.387	26219.88
521.159	25223.88
521.93	24245.88
522.702	23207.88
523.474	22256.88
524.245	21371.88
525.017	20517.88
525.788	19682.88
526.56	18900.88
527.331	18087.88
528.102	17200.88
528.873	16348.88
529.644	15595.88
530.415	14949.88
531.186	14235.88
531.957	13536.88
532.728	12871.88
533.498	12257.88
534.269	11641.88
535.039	11008.88
535.81	10413.88
536.58	9857.88
537.351	9374.88
538.121	8906.88
538.891	8383.88
539.661	7955.88
540.431	7488.88
541.201	7105.88
541.971	6771.88
542.741	6407.88
543.51	6069.88
544.28	5777.88
545.05	5538.88
545.819	5305.88
546.588	4996.88
547.358	4792.88
548.127	4516.88
548.896	4310.88
549.665	4123.88
550.434	3898.88
551.203	3685.88
551.972	3514.88
552.741	3334.88
553.51	3153.88
554.278	2972.88
555.047	2805.88
555.815	2656.88
556.584	2537.88
557.352	2371.88
558.121	2251.88
558.889	2116.88
559.657	2010.88
560.425	1903.88
561.193	1808.88
561.961	1700.88
562.729	1606.88
563.496	1516.88
564.264	1447.88
565.032	1368.88
565.799	1289.88
566.567	1215.88
567.334	1152.88
568.101	1083.88
568.869	1033.88
569.636	974.88
570.403	919.88
571.17	871.88
571.937	816.88
572.704	774.88
573.471	732.88
574.237	696.88
575.004	651.88
575.771	607.88
576.537	581.88
577.303	538.88
578.07	512.88
578.836	484.88
579.602	457.88
580.368	437.88
581.134	414.88
581.9	395.88
582.666	368.88
583.432	362.88
584.198	344.88
584.964	327.88
585.729	308.88
586.495	290.88
587.26	273.88
588.025	259.88
588.791	250.88
589.556	237.88
590.321	220.88
591.086	209.88
591.851	198.88
592.616	188.88
593.381	182.88
594.146	174.88
594.911	162.88
595.675	162.88
596.44	150.88
597.204	146.88
597.969	139.88
598.733	131.88
599.497	125.88
600.261	115.88
601.025	116.88
601.79	109.88
602.553	102.88
603.317	103.88
604.081	94.88
604.845	92.88
605.609	92.88
606.372	89.88
607.136	81.88
607.899	76.88
608.662	79.88
609.426	74.88
610.189	67.88
610.952	68.88
611.715	64.88
612.478	61.88
613.241	61.88
614.004	59.88
614.767	57.88
615.529	53.88
616.292	54.88
617.055	47.88
617.817	47.88
618.579	48.88
619.342	44.88
620.104	41.88
620.866	39.88
621.628	42.88
622.39	38.88
623.152	40.88
623.914	37.88
624.676	36.88
625.438	33.88
626.199	32.88
626.961	32.88
627.722	32.88
628.484	31.88
629.245	30.88
630.006	30.88
630.768	30.88
631.529	26.88
632.29	28.88
633.051	26.88
633.812	22.88
634.573	26.88
635.333	24.88
636.094	22.88
636.855	20.88
637.615	20.88
638.376	21.88
639.136	19.88
639.896	20.88
640.657	17.88
641.417	22.88
642.177	17.88
642.937	17.88
643.697	18.88
644.457	16.88
645.216	14.88
645.976	17.88
646.736	15.88
647.495	15.88
648.255	14.88
649.014	14.88
649.774	14.88
650.533	14.88
651.292	15.88
652.051	12.88
652.81	13.88
653.569	11.88
654.328	12.88
655.087	12.88
655.846	12.88
656.604	9.88
657.363	10.88
658.121	13.88
658.88	8.88
659.638	10.88
660.397	10.88
661.155	9.88
661.913	10.88
662.671	9.88
663.429	9.88
664.187	11.88
664.945	10.88
665.703	10.88
666.46	8.88
667.218	9.88
667.976	8.88
668.733	10.88
669.49	8.88
670.248	10.88
671.005	10.88
671.762	9.88
672.519	8.88
673.276	8.88
674.033	8.88
674.79	10.88
675.547	9.88
676.304	7.88
677.06	8.88
677.817	7.88
678.574	6.88
679.33	7.88
680.086	5.88
680.843	6.88
681.599	9.88
682.355	8.88
683.111	9.88
683.867	9.88
684.623	8.88
685.379	6.88
686.135	6.88
686.89	7.88
687.646	7.88
688.402	6.88
689.157	6.88
689.912	7.88
690.668	8.88
691.423	7.88
692.178	8.88
692.933	9.88
693.688	7.88
694.443	6.88
695.198	6.88
695.953	5.88
696.708	6.88
697.462	7.88
698.217	7.88
698.972	6.88
699.726	6.88
700.48	6.88
701.235	5.88
701.989	7.88
702.743	7.88
703.497	7.88
704.251	5.88
705.005	8.88
705.759	7.88
706.513	6.88
707.266	8.88
708.02	9.88
708.774	6.88
709.527	6.88
710.28	6.88
711.034	7.88
711.787	7.88
712.54	5.88
713.293	7.88
714.046	6.88
714.799	6.88
715.552	7.88
716.305	4.88
717.058	7.88
717.81	7.88
718.563	6.88
719.315	7.88
720.068	6.88
720.82	6.88
721.573	7.88
722.325	10.88
723.077	7.88
723.829	8.88
724.581	7.88
725.333	8.88
726.085	8.88
726.836	7.88
727.588	6.88
728.34	8.88
729.091	7.88
729.843	6.88
730.594	6.88
731.346	8.88
732.097	7.88
732.848	8.88
733.599	8.88
734.35	5.88
735.101	10.88
735.852	7.88
736.603	8.88
737.354	6.88
738.104	10.88
738.855	7.88
739.605	8.88
740.356	10.88
741.106	6.88
741.856	8.88
742.607	10.88
743.357	8.88
744.107	9.88
744.857	10.88
745.607	12.88
746.357	8.88
747.106	7.88
747.856	7.88
748.606	9.88
749.355	8.88
750.105	9.88
750.854	7.88
751.603	12.88
752.353	10.88
753.102	10.88
753.851	9.88
754.6	11.88
755.349	10.88
756.098	8.88
756.847	11.88
757.595	10.88
758.344	11.88
759.093	10.88
759.841	11.88
760.589	12.88
761.338	14.88
762.086	13.88
762.834	11.88
763.582	12.88
764.331	9.88
765.079	13.88
765.826	12.88
766.574	13.88
767.322	12.88
768.07	13.88
768.817	10.88
769.565	12.88
770.312	14.88
771.06	12.88
771.807	10.88
772.554	12.88
773.302	11.88
774.049	11.88
774.796	11.88
775.543	12.88
776.29	16.88
777.036	12.88
777.783	13.88
778.53	13.88
779.276	14.88
780.023	14.88
780.769	14.88
781.516	13.88
782.262	14.88
783.008	14.88
783.754	14.88
784.5	15.88
785.246	12.88
785.992	13.88
786.738	13.88
787.484	14.88
788.23	15.88
788.975	13.88
789.721	16.88
790.466	13.88
791.212	12.88
791.957	13.88
792.702	12.88
793.447	14.88
794.193	8.88
794.938	13.88
795.683	9.88
796.427	12.88
797.172	14.88
797.917	10.88
798.662	12.88
799.406	10.88
800.151	9.88
800.895	10.88
801.64	12.88
802.384	10.88
803.128	9.88
803.872	10.88
804.616	11.88
805.36	11.88
806.104	10.88
806.848	10.88
807.592	9.88
808.336	7.88
809.079	7.88
809.823	9.88
810.566	11.88
811.31	9.88
812.053	8.88
812.796	8.88
813.539	9.88
814.283	7.88
815.026	7.88
815.769	9.88
816.511	9.88
817.254	9.88
817.997	7.88
818.74	10.88
819.482	7.88
820.225	7.88
820.967	7.88
821.71	6.88
822.452	7.88
823.194	6.88
823.936	8.88
824.678	8.88
825.42	8.88
826.162	8.88
826.904	2.88
827.646	5.88
828.388	4.88
829.129	7.88
829.871	6.88
830.612	5.88
831.354	6.88
832.095	4.88
832.836	5.88
833.577	4.88
834.319	8.88
835.06	5.88
835.801	5.88
836.542	6.88
837.282	5.88
838.023	4.88
838.764	8.88
839.504	4.88
840.245	7.88
840.985	2.88
841.726	4.88
842.466	5.88
843.206	5.88
843.946	4.88
844.687	5.88
845.427	4.88
846.166	2.88
846.906	6.88
847.646	8.88
848.386	4.88
849.125	2.88
849.865	3.88
850.605	4.88
851.344	3.88
852.083	3.88
852.823	4.88
853.562	0.88
854.301	6.88
855.04	1.88
855.779	6.88
856.518	4.88
857.257	2.88
857.995	4.88
858.734	4.88
859.473	2.88
860.211	4.88
860.95	2.88
861.688	3.88
862.426	3.88
863.165	3.88
863.903	2.88
864.641	2.88
865.379	1.88
866.117	4.88
866.855	0.88
867.593	2.88
868.33	2.88
869.068	1.88
869.806	1.88
870.543	2.88
871.28	1.88
872.018	2.88
872.755	2.88
873.492	4.88
874.229	1.88
874.967	2.88
875.703	1.88
876.44	1.88
877.177	1.88
877.914	0.88
878.651	1.88
879.387	2.88
880.124	0.88
880.86	0.88
881.597	1.88
882.333	0.88
883.069	0.88
883.806	1.88
884.542	0.88
885.278	1.88
886.014	-1.12
886.749	0.88
887.485	-0.12
888.221	0.88
888.957	1.88
889.692	0.88
890.428	1.88
891.163	0.88
891.899	-0.12
892.634	2.88
893.369	0.88
894.104	2.88
894.839	1.88
895.574	1.88
896.309	2.88
897.044	2.88
897.779	1.88
898.514	0.88
899.248	0.88
899.983	0.88
900.717	0.88
901.452	-0.12
902.186	0.88
902.92	2.88
903.654	-1.12
904.389	0.88
905.123	0.88
905.857	-0.12
906.59	1.88
907.324	1.88
908.058	-1.12
908.792	-1.12
909.525	-1.12
910.259	1.88
910.992	-0.12
911.726	-1.12
912.459	2.88
913.192	-0.12
913.925	-0.12
914.658	1.88
915.391	1.88
916.124	-0.12
916.857	0.88
917.59	0.88
918.323	-0.12
919.055	0.88
919.788	0.88
920.521	0.88
921.253	1.88
921.985	-0.12
922.718	1.88
923.45	-3.12
924.182	0.88
924.914	1.88
925.646	-0.12
926.378	1.88
927.11	0.88
927.841	-1.12
928.573	-2.12
929.305	0.88
930.036	0.88
930.768	-0.12
931.499	1.88
932.23	-1.12
932.962	0.88
933.693	0.88
934.424	-0.12
935.155	0.88
935.886	-0.12
936.617	0.88
937.348	0.88
938.078	0.88
938.809	0.88
939.54	0.88
940.27	-3.12
941.001	0.88
941.731	-0.12
942.461	-1.12
943.191	2.88
943.922	-1.12
944.652	-1.12
945.382	-1.12
946.112	0.88
946.841	-0.12
947.571	-0.12
948.301	0.88
949.031	-0.12
949.76	-1.12
950.49	0.88
951.219	0.88
951.948	-0.12
952.678	-1.12
953.407	0.88
954.136	-0.12
954.865	-1.12
955.594	0.88
956.323	0.88
957.052	0.88
957.78	-0.12
958.509	-0.12
959.238	-1.12
959.966	-0.12
960.695	0.88
961.423	0.88
962.151	-2.12
962.88	-0.12
963.608	-1.12
964.336	1.88
965.064	0.88
965.792	-1.12
966.52	-1.12
967.247	0.88
967.975	0.88
968.703	-1.12
969.43	-0.12
970.158	1.88
970.885	-1.12
971.613	-0.12
972.34	-1.12
973.067	1.88
973.794	-1.12
974.521	-0.12
975.248	-0.12
975.975	-0.12
976.702	-1.12
977.429	-1.12
978.156	1.88
978.882	1.88
979.609	0.88
980.335	0.88
981.062	-0.12
981.788	0.88
982.514	-1.12
983.24	0.88
983.967	-2.12
984.693	-0.12
985.419	0.88
986.144	-0.12
986.87	0.88
987.596	0.88
988.322	-0.12
989.047	-0.12
989.773	0.88
990.498	1.88
991.224	-0.12
991.949	2.88
992.674	-1.12
993.399	-0.12
994.124	1.88
994.849	-1.12
995.574	0.88
996.299	-0.12
997.024	0.88
997.749	0.88
998.473	-1.12
999.198	2.88
999.922	0.88
1000.647	0.88
1001.371	4.88
1002.095	-1.12
1002.82	0.88
1003.544	-1.12
1004.268	4.88
1004.992	3.88
1005.716	3.88
1006.439	6.88
1007.163	6.88
1007.887	8.88
1008.611	0.88
1009.334	-0.12
1010.058	-0.12
1010.781	-1.12
1011.504	0.88
1012.228	-0.12
1012.951	-1.12
1013.674	-1.12
1014.397	-0.12
1015.12	-1.12
