节点500_705_QEPB04081__371__20-51-13-590.txt的数据

Date: Wed Nov 12 20:51:13 CST 2025
User: PC
Spectrometer: QEPB0408
触发模式: 0
积分时间 (秒): 1.000000E-2
Scans to average: 1
启用暗噪声校正: true
启用非线性校正: false
滑动平均宽度: 0
X轴模式: Wavelengths
Number of Pixels in Spectrum: 1044
>>>>>Begin Spectral Data<<<<<
220.843	6.38
221.644	5.38
222.444	5.38
223.244	5.38
224.045	4.38
224.845	5.38
225.645	8.38
226.445	6.38
227.245	4.38
228.045	7.38
228.845	7.38
229.645	7.38
230.444	7.38
231.244	6.38
232.043	9.38
232.843	8.38
233.642	8.38
234.442	10.38
235.241	9.38
236.04	14.38
236.839	9.38
237.638	13.38
238.437	10.38
239.236	9.38
240.035	14.38
240.833	8.38
241.632	13.38
242.43	11.38
243.229	10.38
244.027	14.38
244.826	15.38
245.624	13.38
246.422	11.38
247.22	13.38
248.018	14.38
248.816	14.38
249.614	13.38
250.412	14.38
251.21	19.38
252.007	15.38
252.805	17.38
253.602	17.38
254.4	17.38
255.197	20.38
255.994	16.38
256.791	20.38
257.589	22.38
258.386	18.38
259.183	22.38
259.979	20.38
260.776	22.38
261.573	24.38
262.37	22.38
263.166	24.38
263.963	21.38
264.759	24.38
265.556	24.38
266.352	24.38
267.148	25.38
267.944	26.38
268.74	27.38
269.536	26.38
270.332	30.38
271.128	31.38
271.924	28.38
272.719	29.38
273.515	29.38
274.311	33.38
275.106	34.38
275.901	33.38
276.697	32.38
277.492	33.38
278.287	30.38
279.082	29.38
279.877	32.38
280.672	32.38
281.467	34.38
282.262	34.38
283.056	34.38
283.851	33.38
284.646	32.38
285.44	32.38
286.234	30.38
287.029	34.38
287.823	32.38
288.617	37.38
289.411	34.38
290.205	29.38
290.999	31.38
291.793	33.38
292.587	30.38
293.381	30.38
294.174	31.38
294.968	29.38
295.761	28.38
296.555	25.38
297.348	26.38
298.141	25.38
298.935	29.38
299.728	24.38
300.521	25.38
301.314	26.38
302.107	25.38
302.899	23.38
303.692	24.38
304.485	21.38
305.277	22.38
306.07	21.38
306.862	22.38
307.655	23.38
308.447	24.38
309.239	21.38
310.031	20.38
310.823	18.38
311.615	15.38
312.407	16.38
313.199	18.38
313.991	17.38
314.783	15.38
315.574	17.38
316.366	13.38
317.157	18.38
317.949	15.38
318.74	12.38
319.531	12.38
320.322	13.38
321.113	14.38
321.904	12.38
322.695	11.38
323.486	12.38
324.277	10.38
325.068	15.38
325.858	11.38
326.649	12.38
327.439	10.38
328.23	12.38
329.02	14.38
329.81	10.38
330.6	11.38
331.391	10.38
332.181	12.38
332.971	10.38
333.76	8.38
334.55	11.38
335.34	7.38
336.13	13.38
336.919	9.38
337.709	8.38
338.498	12.38
339.287	10.38
340.077	14.38
340.866	11.38
341.655	12.38
342.444	11.38
343.233	10.38
344.022	10.38
344.811	11.38
345.6	9.38
346.388	12.38
347.177	11.38
347.965	10.38
348.754	10.38
349.542	14.38
350.33	11.38
351.119	10.38
351.907	11.38
352.695	9.38
353.483	12.38
354.271	10.38
355.059	10.38
355.846	12.38
356.634	10.38
357.422	9.38
358.209	9.38
358.997	11.38
359.784	9.38
360.571	9.38
361.359	12.38
362.146	9.38
362.933	8.38
363.72	8.38
364.507	11.38
365.294	11.38
366.081	7.38
366.867	8.38
367.654	7.38
368.44	9.38
369.227	10.38
370.013	11.38
370.8	7.38
371.586	7.38
372.372	10.38
373.158	9.38
373.944	11.38
374.73	7.38
375.516	8.38
376.302	10.38
377.088	8.38
377.873	11.38
378.659	9.38
379.445	9.38
380.23	9.38
381.015	8.38
381.801	7.38
382.586	10.38
383.371	8.38
384.156	9.38
384.941	9.38
385.726	9.38
386.511	10.38
387.296	12.38
388.08	8.38
388.865	12.38
389.649	11.38
390.434	12.38
391.218	10.38
392.003	12.38
392.787	10.38
393.571	9.38
394.355	11.38
395.139	11.38
395.923	9.38
396.707	12.38
397.491	10.38
398.274	12.38
399.058	14.38
399.842	14.38
400.625	14.38
401.408	10.38
402.192	11.38
402.975	10.38
403.758	14.38
404.541	15.38
405.324	13.38
406.107	13.38
406.89	15.38
407.673	12.38
408.456	13.38
409.238	17.38
410.021	16.38
410.803	17.38
411.586	10.38
412.368	14.38
413.151	17.38
413.933	18.38
414.715	18.38
415.497	16.38
416.279	17.38
417.061	21.38
417.843	21.38
418.624	20.38
419.406	19.38
420.188	19.38
420.969	19.38
421.751	21.38
422.532	21.38
423.313	21.38
424.095	22.38
424.876	26.38
425.657	23.38
426.438	23.38
427.219	26.38
428	26.38
428.78	27.38
429.561	30.38
430.342	32.38
431.122	32.38
431.903	31.38
432.683	31.38
433.464	34.38
434.244	38.38
435.024	39.38
435.804	42.38
436.584	46.38
437.364	46.38
438.144	48.38
438.924	53.38
439.704	54.38
440.483	54.38
441.263	61.38
442.042	64.38
442.822	70.38
443.601	77.38
444.38	81.38
445.16	82.38
445.939	91.38
446.718	104.38
447.497	112.38
448.276	120.38
449.054	136.38
449.833	146.38
450.612	168.38
451.391	177.38
452.169	197.38
452.948	224.38
453.726	240.38
454.504	273.38
455.282	298.38
456.061	336.38
456.839	372.38
457.617	412.38
458.395	465.38
459.172	521.38
459.95	583.38
460.728	640.38
461.506	717.38
462.283	793.38
463.061	891.38
463.838	981.38
464.615	1098.38
465.393	1227.38
466.17	1363.38
466.947	1515.38
467.724	1678.38
468.501	1855.38
469.278	2044.38
470.055	2268.38
470.831	2503.38
471.608	2765.38
472.385	3042.38
473.161	3355.38
473.938	3657.38
474.714	4054.38
475.49	4439.38
476.266	4868.38
477.043	5307.38
477.819	5814.38
478.595	6318.38
479.371	6899.38
480.146	7556.38
480.922	8228.38
481.698	8918.38
482.473	9754.38
483.249	10576.38
484.024	11460.38
484.8	12453.38
485.575	13482.38
486.35	14600.38
487.126	15838.38
487.901	17073.38
488.676	18442.38
489.451	19896.38
490.225	21328.38
491	22895.38
491.775	24533.38
492.55	26212.38
493.324	27901.38
494.099	29648.38
494.873	31515.38
495.647	33216.38
496.422	34950.38
497.196	36636.38
497.97	38348.38
498.744	39753.38
499.518	41431.38
500.292	42813.38
501.066	43863.38
501.839	44705.38
502.613	45526.38
503.387	46249.38
504.16	46645.38
504.934	46702.38
505.707	46776.38
506.48	46525.38
507.253	46025.38
508.027	45415.38
508.8	44529.38
509.573	43475.38
510.346	42472.38
511.118	41460.38
511.891	40265.38
512.664	38711.38
513.437	37330.38
514.209	36057.38
514.982	34598.38
515.754	33279.38
516.526	31872.38
517.298	30612.38
518.071	29402.38
518.843	28251.38
519.615	27175.38
520.387	26025.38
521.159	25016.38
521.93	23962.38
522.702	22987.38
523.474	22035.38
524.245	21143.38
525.017	20231.38
525.788	19336.38
526.56	18539.38
527.331	17742.38
528.102	16830.38
528.873	15954.38
529.644	15297.38
530.415	14467.38
531.186	13834.38
531.957	13093.38
532.728	12422.38
533.498	11799.38
534.269	11188.38
535.039	10572.38
535.81	10036.38
536.58	9463.38
537.351	8967.38
538.121	8487.38
538.891	8015.38
539.661	7601.38
540.431	7192.38
541.201	6837.38
541.971	6471.38
542.741	6112.38
543.51	5798.38
544.28	5522.38
545.05	5275.38
545.819	5028.38
546.588	4784.38
547.358	4563.38
548.127	4312.38
548.896	4112.38
549.665	3897.38
550.434	3691.38
551.203	3490.38
551.972	3331.38
552.741	3136.38
553.51	2977.38
554.278	2792.38
555.047	2654.38
555.815	2519.38
556.584	2380.38
557.352	2238.38
558.121	2114.38
558.889	1997.38
559.657	1894.38
560.425	1784.38
561.193	1682.38
561.961	1598.38
562.729	1511.38
563.496	1420.38
564.264	1344.38
565.032	1278.38
565.799	1215.38
566.567	1149.38
567.334	1098.38
568.101	1028.38
568.869	980.38
569.636	912.38
570.403	845.38
571.17	809.38
571.937	771.38
572.704	729.38
573.471	682.38
574.237	645.38
575.004	608.38
575.771	572.38
576.537	542.38
577.303	511.38
578.07	484.38
578.836	459.38
579.602	430.38
580.368	408.38
581.134	390.38
581.9	371.38
582.666	351.38
583.432	340.38
584.198	313.38
584.964	299.38
585.729	290.38
586.495	266.38
587.26	258.38
588.025	242.38
588.791	230.38
589.556	210.38
590.321	205.38
591.086	196.38
591.851	186.38
592.616	179.38
593.381	172.38
594.146	161.38
594.911	156.38
595.675	148.38
596.44	143.38
597.204	135.38
597.969	130.38
598.733	117.38
599.497	116.38
600.261	109.38
601.025	109.38
601.79	105.38
602.553	101.38
603.317	96.38
604.081	93.38
604.845	88.38
605.609	83.38
606.372	84.38
607.136	79.38
607.899	75.38
608.662	72.38
609.426	67.38
610.189	65.38
610.952	62.38
611.715	65.38
612.478	61.38
613.241	57.38
614.004	55.38
614.767	48.38
615.529	51.38
616.292	52.38
617.055	48.38
617.817	48.38
618.579	44.38
619.342	41.38
620.104	43.38
620.866	41.38
621.628	39.38
622.39	41.38
623.152	34.38
623.914	36.38
624.676	35.38
625.438	34.38
626.199	34.38
626.961	32.38
627.722	29.38
628.484	30.38
629.245	28.38
630.006	30.38
630.768	24.38
631.529	26.38
632.29	26.38
633.051	25.38
633.812	24.38
634.573	24.38
635.333	25.38
636.094	21.38
636.855	22.38
637.615	21.38
638.376	21.38
639.136	19.38
639.896	17.38
640.657	21.38
641.417	18.38
642.177	18.38
642.937	18.38
643.697	15.38
644.457	18.38
645.216	15.38
645.976	14.38
646.736	20.38
647.495	17.38
648.255	13.38
649.014	16.38
649.774	14.38
650.533	12.38
651.292	10.38
652.051	14.38
652.81	14.38
653.569	11.38
654.328	12.38
655.087	11.38
655.846	10.38
656.604	13.38
657.363	12.38
658.121	12.38
658.88	12.38
659.638	10.38
660.397	12.38
661.155	12.38
661.913	10.38
662.671	9.38
663.429	10.38
664.187	10.38
664.945	11.38
665.703	8.38
666.46	10.38
667.218	11.38
667.976	10.38
668.733	10.38
669.49	10.38
670.248	8.38
671.005	9.38
671.762	7.38
672.519	10.38
673.276	9.38
674.033	8.38
674.79	7.38
675.547	8.38
676.304	7.38
677.06	9.38
677.817	8.38
678.574	6.38
679.33	7.38
680.086	5.38
680.843	8.38
681.599	9.38
682.355	8.38
683.111	6.38
683.867	8.38
684.623	10.38
685.379	6.38
686.135	8.38
686.89	9.38
687.646	6.38
688.402	7.38
689.157	6.38
689.912	6.38
690.668	7.38
691.423	8.38
692.178	5.38
692.933	6.38
693.688	7.38
694.443	6.38
695.198	8.38
695.953	8.38
696.708	10.38
697.462	7.38
698.217	5.38
698.972	5.38
699.726	7.38
700.48	8.38
701.235	8.38
701.989	6.38
702.743	8.38
703.497	8.38
704.251	6.38
705.005	6.38
705.759	6.38
706.513	5.38
707.266	7.38
708.02	7.38
708.774	6.38
709.527	6.38
710.28	7.38
711.034	7.38
711.787	7.38
712.54	5.38
713.293	8.38
714.046	7.38
714.799	5.38
715.552	7.38
716.305	7.38
717.058	8.38
717.81	6.38
718.563	9.38
719.315	7.38
720.068	8.38
720.82	7.38
721.573	7.38
722.325	9.38
723.077	7.38
723.829	8.38
724.581	8.38
725.333	7.38
726.085	7.38
726.836	7.38
727.588	6.38
728.34	8.38
729.091	8.38
729.843	8.38
730.594	8.38
731.346	10.38
732.097	6.38
732.848	8.38
733.599	6.38
734.35	7.38
735.101	9.38
735.852	7.38
736.603	9.38
737.354	7.38
738.104	9.38
738.855	9.38
739.605	8.38
740.356	12.38
741.106	9.38
741.856	11.38
742.607	11.38
743.357	10.38
744.107	10.38
744.857	7.38
745.607	11.38
746.357	10.38
747.106	9.38
747.856	11.38
748.606	10.38
749.355	12.38
750.105	10.38
750.854	10.38
751.603	11.38
752.353	10.38
753.102	11.38
753.851	11.38
754.6	12.38
755.349	10.38
756.098	11.38
756.847	10.38
757.595	11.38
758.344	14.38
759.093	9.38
759.841	12.38
760.589	11.38
761.338	10.38
762.086	10.38
762.834	12.38
763.582	12.38
764.331	13.38
765.079	15.38
765.826	12.38
766.574	12.38
767.322	13.38
768.07	12.38
768.817	9.38
769.565	14.38
770.312	14.38
771.06	14.38
771.807	14.38
772.554	15.38
773.302	14.38
774.049	17.38
774.796	14.38
775.543	14.38
776.29	14.38
777.036	14.38
777.783	15.38
778.53	16.38
779.276	15.38
780.023	14.38
780.769	16.38
781.516	15.38
782.262	12.38
783.008	17.38
783.754	17.38
784.5	16.38
785.246	14.38
785.992	14.38
786.738	18.38
787.484	15.38
788.23	15.38
788.975	17.38
789.721	14.38
790.466	13.38
791.212	14.38
791.957	15.38
792.702	13.38
793.447	12.38
794.193	14.38
794.938	12.38
795.683	13.38
796.427	12.38
797.172	12.38
797.917	11.38
798.662	13.38
799.406	11.38
800.151	13.38
800.895	13.38
801.64	10.38
802.384	10.38
803.128	12.38
803.872	8.38
804.616	12.38
805.36	13.38
806.104	11.38
806.848	10.38
807.592	8.38
808.336	10.38
809.079	10.38
809.823	11.38
810.566	10.38
811.31	8.38
812.053	9.38
812.796	9.38
813.539	6.38
814.283	9.38
815.026	7.38
815.769	8.38
816.511	7.38
817.254	7.38
817.997	6.38
818.74	10.38
819.482	6.38
820.225	6.38
820.967	10.38
821.71	6.38
822.452	7.38
823.194	7.38
823.936	6.38
824.678	5.38
825.42	5.38
826.162	6.38
826.904	8.38
827.646	7.38
828.388	7.38
829.129	4.38
829.871	7.38
830.612	7.38
831.354	6.38
832.095	3.38
832.836	7.38
833.577	7.38
834.319	6.38
835.06	5.38
835.801	5.38
836.542	7.38
837.282	4.38
838.023	4.38
838.764	7.38
839.504	5.38
840.245	6.38
840.985	4.38
841.726	8.38
842.466	4.38
843.206	5.38
843.946	7.38
844.687	3.38
845.427	5.38
846.166	5.38
846.906	5.38
847.646	4.38
848.386	1.38
849.125	4.38
849.865	6.38
850.605	4.38
851.344	3.38
852.083	5.38
852.823	3.38
853.562	2.38
854.301	1.38
855.04	4.38
855.779	3.38
856.518	3.38
857.257	2.38
857.995	3.38
858.734	4.38
859.473	4.38
860.211	3.38
860.95	4.38
861.688	3.38
862.426	3.38
863.165	4.38
863.903	3.38
864.641	2.38
865.379	0.38
866.117	3.38
866.855	1.38
867.593	2.38
868.33	2.38
869.068	1.38
869.806	4.38
870.543	0.38
871.28	0.38
872.018	2.38
872.755	0.38
873.492	1.38
874.229	1.38
874.967	2.38
875.703	-1.62
876.44	2.38
877.177	1.38
877.914	0.38
878.651	0.38
879.387	1.38
880.124	0.38
880.86	3.38
881.597	-0.62
882.333	1.38
883.069	0.38
883.806	1.38
884.542	1.38
885.278	0.38
886.014	0.38
886.749	-0.62
887.485	4.38
888.221	-0.62
888.957	0.38
889.692	0.38
890.428	-0.62
891.163	1.38
891.899	0.38
892.634	-1.62
893.369	0.38
894.104	-0.62
894.839	2.38
895.574	0.38
896.309	0.38
897.044	1.38
897.779	0.38
898.514	2.38
899.248	0.38
899.983	-0.62
900.717	0.38
901.452	1.38
902.186	-1.62
902.92	2.38
903.654	2.38
904.389	-0.62
905.123	2.38
905.857	1.38
906.59	0.38
907.324	1.38
908.058	0.38
908.792	-0.62
909.525	0.38
910.259	0.38
910.992	0.38
911.726	1.38
912.459	0.38
913.192	-1.62
913.925	2.38
914.658	-0.62
915.391	-0.62
916.124	1.38
916.857	-0.62
917.59	1.38
918.323	-0.62
919.055	1.38
919.788	-1.62
920.521	-0.62
921.253	0.38
921.985	-1.62
922.718	0.38
923.45	-0.62
924.182	1.38
924.914	-0.62
925.646	-1.62
926.378	1.38
927.11	-1.62
927.841	0.38
928.573	1.38
929.305	-0.62
930.036	-0.62
930.768	-0.62
931.499	1.38
932.23	-1.62
932.962	0.38
933.693	0.38
934.424	-1.62
935.155	-0.62
935.886	-2.62
936.617	-1.62
937.348	1.38
938.078	0.38
938.809	1.38
939.54	0.38
940.27	2.38
941.001	-2.62
941.731	-0.62
942.461	-0.62
943.191	-0.62
943.922	1.38
944.652	-1.62
945.382	1.38
946.112	-1.62
946.841	-1.62
947.571	1.38
948.301	-1.62
949.031	2.38
949.76	-1.62
950.49	1.38
951.219	-0.62
951.948	2.38
952.678	0.38
953.407	-0.62
954.136	-0.62
954.865	-0.62
955.594	-2.62
956.323	0.38
957.052	-1.62
957.78	0.38
958.509	-0.62
959.238	-0.62
959.966	2.38
960.695	-1.62
961.423	0.38
962.151	-1.62
962.88	-0.62
963.608	-0.62
964.336	0.38
965.064	0.38
965.792	1.38
966.52	0.38
967.247	-0.62
967.975	1.38
968.703	2.38
969.43	0.38
970.158	-0.62
970.885	-3.62
971.613	1.38
972.34	-1.62
973.067	0.38
973.794	1.38
974.521	-0.62
975.248	2.38
975.975	-2.62
976.702	0.38
977.429	0.38
978.156	0.38
978.882	1.38
979.609	0.38
980.335	0.38
981.062	0.38
981.788	0.38
982.514	0.38
983.24	-0.62
983.967	-0.62
984.693	0.38
985.419	1.38
986.144	0.38
986.87	-0.62
987.596	1.38
988.322	0.38
989.047	0.38
989.773	-0.62
990.498	-0.62
991.224	-0.62
991.949	1.38
992.674	1.38
993.399	1.38
994.124	1.38
994.849	-0.62
995.574	1.38
996.299	0.38
997.024	-0.62
997.749	-0.62
998.473	-1.62
999.198	-1.62
999.922	-1.62
1000.647	-0.62
1001.371	5.38
1002.095	-0.62
1002.82	-1.62
1003.544	-2.62
1004.268	4.38
1004.992	4.38
1005.716	2.38
1006.439	3.38
1007.163	6.38
1007.887	5.38
1008.611	-0.62
1009.334	-3.62
1010.058	-0.62
1010.781	-2.62
1011.504	1.38
1012.228	0.38
1012.951	0.38
1013.674	-0.62
1014.397	-0.62
1015.12	0.38
