节点500_705_QEPB04081__265__20-49-43-434.txt的数据

Date: Wed Nov 12 20:49:43 CST 2025
User: PC
Spectrometer: QEPB0408
触发模式: 0
积分时间 (秒): 1.000000E-2
Scans to average: 1
启用暗噪声校正: true
启用非线性校正: false
滑动平均宽度: 0
X轴模式: Wavelengths
Number of Pixels in Spectrum: 1044
>>>>>Begin Spectral Data<<<<<
220.843	5.62
221.644	4.62
222.444	7.62
223.244	4.62
224.045	7.62
224.845	4.62
225.645	5.62
226.445	7.62
227.245	7.62
228.045	6.62
228.845	8.62
229.645	6.62
230.444	7.62
231.244	10.62
232.043	8.62
232.843	7.62
233.642	8.62
234.442	9.62
235.241	10.62
236.04	8.62
236.839	10.62
237.638	9.62
238.437	11.62
239.236	11.62
240.035	9.62
240.833	8.62
241.632	10.62
242.43	10.62
243.229	12.62
244.027	11.62
244.826	13.62
245.624	12.62
246.422	13.62
247.22	14.62
248.018	13.62
248.816	16.62
249.614	15.62
250.412	16.62
251.21	16.62
252.007	16.62
252.805	14.62
253.602	19.62
254.4	18.62
255.197	19.62
255.994	16.62
256.791	16.62
257.589	19.62
258.386	23.62
259.183	23.62
259.979	19.62
260.776	22.62
261.573	22.62
262.37	21.62
263.166	25.62
263.963	24.62
264.759	24.62
265.556	26.62
266.352	26.62
267.148	30.62
267.944	29.62
268.74	28.62
269.536	32.62
270.332	30.62
271.128	32.62
271.924	30.62
272.719	30.62
273.515	30.62
274.311	29.62
275.106	32.62
275.901	29.62
276.697	34.62
277.492	33.62
278.287	34.62
279.082	35.62
279.877	33.62
280.672	36.62
281.467	34.62
282.262	37.62
283.056	33.62
283.851	32.62
284.646	32.62
285.44	34.62
286.234	34.62
287.029	33.62
287.823	32.62
288.617	30.62
289.411	35.62
290.205	32.62
290.999	33.62
291.793	29.62
292.587	30.62
293.381	29.62
294.174	30.62
294.968	26.62
295.761	26.62
296.555	26.62
297.348	26.62
298.141	26.62
298.935	29.62
299.728	24.62
300.521	24.62
301.314	20.62
302.107	24.62
302.899	23.62
303.692	23.62
304.485	21.62
305.277	22.62
306.07	19.62
306.862	21.62
307.655	21.62
308.447	19.62
309.239	20.62
310.031	19.62
310.823	19.62
311.615	18.62
312.407	17.62
313.199	18.62
313.991	17.62
314.783	15.62
315.574	14.62
316.366	14.62
317.157	13.62
317.949	14.62
318.74	14.62
319.531	17.62
320.322	15.62
321.113	13.62
321.904	10.62
322.695	12.62
323.486	11.62
324.277	11.62
325.068	11.62
325.858	13.62
326.649	9.62
327.439	11.62
328.23	12.62
329.02	11.62
329.81	11.62
330.6	11.62
331.391	11.62
332.181	12.62
332.971	13.62
333.76	13.62
334.55	11.62
335.34	11.62
336.13	12.62
336.919	14.62
337.709	11.62
338.498	11.62
339.287	12.62
340.077	13.62
340.866	9.62
341.655	13.62
342.444	9.62
343.233	10.62
344.022	12.62
344.811	12.62
345.6	8.62
346.388	9.62
347.177	12.62
347.965	10.62
348.754	9.62
349.542	10.62
350.33	9.62
351.119	6.62
351.907	11.62
352.695	11.62
353.483	6.62
354.271	9.62
355.059	11.62
355.846	9.62
356.634	9.62
357.422	6.62
358.209	9.62
358.997	9.62
359.784	10.62
360.571	10.62
361.359	7.62
362.146	9.62
362.933	8.62
363.72	9.62
364.507	8.62
365.294	9.62
366.081	8.62
366.867	9.62
367.654	10.62
368.44	11.62
369.227	8.62
370.013	7.62
370.8	10.62
371.586	10.62
372.372	7.62
373.158	7.62
373.944	10.62
374.73	11.62
375.516	12.62
376.302	9.62
377.088	9.62
377.873	9.62
378.659	10.62
379.445	9.62
380.23	8.62
381.015	10.62
381.801	8.62
382.586	10.62
383.371	9.62
384.156	10.62
384.941	10.62
385.726	10.62
386.511	10.62
387.296	10.62
388.08	8.62
388.865	10.62
389.649	9.62
390.434	11.62
391.218	8.62
392.003	14.62
392.787	13.62
393.571	13.62
394.355	13.62
395.139	11.62
395.923	13.62
396.707	9.62
397.491	10.62
398.274	14.62
399.058	12.62
399.842	11.62
400.625	10.62
401.408	16.62
402.192	13.62
402.975	13.62
403.758	13.62
404.541	14.62
405.324	13.62
406.107	14.62
406.89	11.62
407.673	15.62
408.456	13.62
409.238	14.62
410.021	12.62
410.803	15.62
411.586	15.62
412.368	17.62
413.151	17.62
413.933	15.62
414.715	17.62
415.497	16.62
416.279	15.62
417.061	13.62
417.843	18.62
418.624	21.62
419.406	19.62
420.188	20.62
420.969	19.62
421.751	23.62
422.532	18.62
423.313	18.62
424.095	23.62
424.876	25.62
425.657	22.62
426.438	24.62
427.219	25.62
428	26.62
428.78	29.62
429.561	29.62
430.342	29.62
431.122	33.62
431.903	32.62
432.683	33.62
433.464	32.62
434.244	37.62
435.024	38.62
435.804	41.62
436.584	44.62
437.364	46.62
438.144	46.62
438.924	50.62
439.704	54.62
440.483	59.62
441.263	62.62
442.042	65.62
442.822	65.62
443.601	76.62
444.38	77.62
445.16	89.62
445.939	93.62
446.718	94.62
447.497	104.62
448.276	126.62
449.054	130.62
449.833	138.62
450.612	158.62
451.391	174.62
452.169	190.62
452.948	212.62
453.726	231.62
454.504	261.62
455.282	292.62
456.061	324.62
456.839	360.62
457.617	407.62
458.395	446.62
459.172	495.62
459.95	553.62
460.728	622.62
461.506	693.62
462.283	787.62
463.061	878.62
463.838	969.62
464.615	1083.62
465.393	1196.62
466.17	1343.62
466.947	1480.62
467.724	1671.62
468.501	1843.62
469.278	2041.62
470.055	2258.62
470.831	2509.62
471.608	2754.62
472.385	3018.62
473.161	3352.62
473.938	3721.62
474.714	4023.62
475.49	4487.62
476.266	4908.62
477.043	5344.62
477.819	5873.62
478.595	6441.62
479.371	7077.62
480.146	7687.62
480.922	8378.62
481.698	9110.62
482.473	9974.62
483.249	10866.62
484.024	11762.62
484.8	12835.62
485.575	13899.62
486.35	15139.62
487.126	16384.62
487.901	17637.62
488.676	19165.62
489.451	20624.62
490.225	22218.62
491	23805.62
491.775	25518.62
492.55	27319.62
493.324	29108.62
494.099	30879.62
494.873	32752.62
495.647	34522.62
496.422	36419.62
497.196	38265.62
497.97	39830.62
498.744	41409.62
499.518	42877.62
500.292	44254.62
501.066	45434.62
501.839	46170.62
502.613	46937.62
503.387	47589.62
504.16	47917.62
504.934	47952.62
505.707	47828.62
506.48	47345.62
507.253	46889.62
508.027	46005.62
508.8	44993.62
509.573	43894.62
510.346	42654.62
511.118	41659.62
511.891	40301.62
512.664	38790.62
513.437	37278.62
514.209	35844.62
514.982	34457.62
515.754	32999.62
516.526	31593.62
517.298	30449.62
518.071	29198.62
518.843	27952.62
519.615	26814.62
520.387	25849.62
521.159	24810.62
521.93	23752.62
522.702	22694.62
523.474	21822.62
524.245	20828.62
525.017	19905.62
525.788	19050.62
526.56	18252.62
527.331	17425.62
528.102	16497.62
528.873	15670.62
529.644	14955.62
530.415	14225.62
531.186	13514.62
531.957	12836.62
532.728	12169.62
533.498	11552.62
534.269	10878.62
535.039	10328.62
535.81	9791.62
536.58	9228.62
537.351	8727.62
538.121	8274.62
538.891	7872.62
539.661	7428.62
540.431	7011.62
541.201	6656.62
541.971	6289.62
542.741	5936.62
543.51	5658.62
544.28	5428.62
545.05	5151.62
545.819	4910.62
546.588	4678.62
547.358	4472.62
548.127	4202.62
548.896	4009.62
549.665	3799.62
550.434	3606.62
551.203	3405.62
551.972	3223.62
552.741	3065.62
553.51	2887.62
554.278	2726.62
555.047	2558.62
555.815	2454.62
556.584	2286.62
557.352	2174.62
558.121	2053.62
558.889	1932.62
559.657	1824.62
560.425	1731.62
561.193	1638.62
561.961	1546.62
562.729	1461.62
563.496	1375.62
564.264	1304.62
565.032	1251.62
565.799	1171.62
566.567	1102.62
567.334	1053.62
568.101	992.62
568.869	922.62
569.636	884.62
570.403	837.62
571.17	787.62
571.937	758.62
572.704	711.62
573.471	662.62
574.237	622.62
575.004	587.62
575.771	561.62
576.537	519.62
577.303	490.62
578.07	470.62
578.836	444.62
579.602	417.62
580.368	400.62
581.134	381.62
581.9	355.62
582.666	345.62
583.432	324.62
584.198	315.62
584.964	287.62
585.729	274.62
586.495	264.62
587.26	247.62
588.025	232.62
588.791	222.62
589.556	210.62
590.321	197.62
591.086	191.62
591.851	177.62
592.616	175.62
593.381	163.62
594.146	159.62
594.911	148.62
595.675	143.62
596.44	141.62
597.204	131.62
597.969	124.62
598.733	118.62
599.497	112.62
600.261	112.62
601.025	105.62
601.79	100.62
602.553	98.62
603.317	96.62
604.081	86.62
604.845	80.62
605.609	80.62
606.372	81.62
607.136	76.62
607.899	74.62
608.662	69.62
609.426	72.62
610.189	68.62
610.952	62.62
611.715	63.62
612.478	58.62
613.241	57.62
614.004	55.62
614.767	51.62
615.529	50.62
616.292	49.62
617.055	47.62
617.817	44.62
618.579	47.62
619.342	39.62
620.104	38.62
620.866	39.62
621.628	39.62
622.39	39.62
623.152	35.62
623.914	35.62
624.676	33.62
625.438	31.62
626.199	30.62
626.961	30.62
627.722	28.62
628.484	30.62
629.245	28.62
630.006	28.62
630.768	26.62
631.529	25.62
632.29	23.62
633.051	25.62
633.812	25.62
634.573	23.62
635.333	20.62
636.094	24.62
636.855	21.62
637.615	21.62
638.376	19.62
639.136	18.62
639.896	17.62
640.657	16.62
641.417	17.62
642.177	17.62
642.937	16.62
643.697	18.62
644.457	16.62
645.216	14.62
645.976	16.62
646.736	14.62
647.495	14.62
648.255	17.62
649.014	17.62
649.774	16.62
650.533	12.62
651.292	14.62
652.051	11.62
652.81	12.62
653.569	15.62
654.328	10.62
655.087	13.62
655.846	11.62
656.604	9.62
657.363	11.62
658.121	11.62
658.88	12.62
659.638	11.62
660.397	12.62
661.155	9.62
661.913	8.62
662.671	9.62
663.429	8.62
664.187	10.62
664.945	9.62
665.703	9.62
666.46	10.62
667.218	9.62
667.976	10.62
668.733	8.62
669.49	12.62
670.248	6.62
671.005	10.62
671.762	9.62
672.519	10.62
673.276	8.62
674.033	6.62
674.79	9.62
675.547	8.62
676.304	6.62
677.06	8.62
677.817	6.62
678.574	8.62
679.33	8.62
680.086	10.62
680.843	9.62
681.599	7.62
682.355	7.62
683.111	7.62
683.867	7.62
684.623	7.62
685.379	8.62
686.135	6.62
686.89	6.62
687.646	7.62
688.402	6.62
689.157	7.62
689.912	6.62
690.668	6.62
691.423	7.62
692.178	6.62
692.933	8.62
693.688	7.62
694.443	6.62
695.198	7.62
695.953	7.62
696.708	7.62
697.462	6.62
698.217	10.62
698.972	8.62
699.726	6.62
700.48	10.62
701.235	7.62
701.989	8.62
702.743	6.62
703.497	3.62
704.251	7.62
705.005	7.62
705.759	8.62
706.513	8.62
707.266	10.62
708.02	6.62
708.774	7.62
709.527	6.62
710.28	9.62
711.034	6.62
711.787	6.62
712.54	7.62
713.293	7.62
714.046	6.62
714.799	9.62
715.552	7.62
716.305	7.62
717.058	8.62
717.81	8.62
718.563	8.62
719.315	6.62
720.068	3.62
720.82	7.62
721.573	7.62
722.325	9.62
723.077	8.62
723.829	6.62
724.581	6.62
725.333	9.62
726.085	6.62
726.836	7.62
727.588	7.62
728.34	8.62
729.091	8.62
729.843	9.62
730.594	7.62
731.346	8.62
732.097	7.62
732.848	8.62
733.599	6.62
734.35	10.62
735.101	9.62
735.852	10.62
736.603	9.62
737.354	8.62
738.104	6.62
738.855	9.62
739.605	8.62
740.356	9.62
741.106	8.62
741.856	11.62
742.607	10.62
743.357	11.62
744.107	9.62
744.857	9.62
745.607	10.62
746.357	7.62
747.106	11.62
747.856	8.62
748.606	7.62
749.355	12.62
750.105	11.62
750.854	10.62
751.603	7.62
752.353	10.62
753.102	9.62
753.851	14.62
754.6	10.62
755.349	12.62
756.098	13.62
756.847	12.62
757.595	11.62
758.344	12.62
759.093	14.62
759.841	10.62
760.589	10.62
761.338	13.62
762.086	11.62
762.834	12.62
763.582	11.62
764.331	15.62
765.079	12.62
765.826	11.62
766.574	13.62
767.322	14.62
768.07	12.62
768.817	14.62
769.565	12.62
770.312	13.62
771.06	10.62
771.807	16.62
772.554	15.62
773.302	16.62
774.049	13.62
774.796	14.62
775.543	15.62
776.29	14.62
777.036	14.62
777.783	13.62
778.53	16.62
779.276	16.62
780.023	13.62
780.769	15.62
781.516	16.62
782.262	15.62
783.008	16.62
783.754	13.62
784.5	14.62
785.246	13.62
785.992	17.62
786.738	13.62
787.484	17.62
788.23	13.62
788.975	13.62
789.721	12.62
790.466	13.62
791.212	14.62
791.957	16.62
792.702	14.62
793.447	14.62
794.193	12.62
794.938	15.62
795.683	15.62
796.427	13.62
797.172	11.62
797.917	12.62
798.662	12.62
799.406	13.62
800.151	14.62
800.895	13.62
801.64	14.62
802.384	10.62
803.128	9.62
803.872	8.62
804.616	11.62
805.36	10.62
806.104	11.62
806.848	9.62
807.592	11.62
808.336	8.62
809.079	9.62
809.823	8.62
810.566	9.62
811.31	9.62
812.053	7.62
812.796	9.62
813.539	10.62
814.283	11.62
815.026	6.62
815.769	8.62
816.511	8.62
817.254	6.62
817.997	7.62
818.74	7.62
819.482	8.62
820.225	8.62
820.967	8.62
821.71	6.62
822.452	3.62
823.194	6.62
823.936	7.62
824.678	7.62
825.42	3.62
826.162	5.62
826.904	5.62
827.646	7.62
828.388	8.62
829.129	8.62
829.871	4.62
830.612	3.62
831.354	6.62
832.095	4.62
832.836	5.62
833.577	6.62
834.319	6.62
835.06	3.62
835.801	7.62
836.542	4.62
837.282	7.62
838.023	5.62
838.764	4.62
839.504	6.62
840.245	6.62
840.985	6.62
841.726	5.62
842.466	2.62
843.206	5.62
843.946	4.62
844.687	3.62
845.427	4.62
846.166	5.62
846.906	6.62
847.646	6.62
848.386	4.62
849.125	5.62
849.865	4.62
850.605	5.62
851.344	3.62
852.083	4.62
852.823	3.62
853.562	4.62
854.301	3.62
855.04	6.62
855.779	4.62
856.518	3.62
857.257	2.62
857.995	3.62
858.734	2.62
859.473	3.62
860.211	5.62
860.95	0.62
861.688	3.62
862.426	3.62
863.165	1.62
863.903	4.62
864.641	2.62
865.379	3.62
866.117	3.62
866.855	2.62
867.593	1.62
868.33	2.62
869.068	3.62
869.806	2.62
870.543	2.62
871.28	3.62
872.018	-1.38
872.755	2.62
873.492	0.62
874.229	1.62
874.967	1.62
875.703	2.62
876.44	1.62
877.177	1.62
877.914	0.62
878.651	0.62
879.387	1.62
880.124	0.62
880.86	-0.38
881.597	1.62
882.333	-0.38
883.069	1.62
883.806	1.62
884.542	0.62
885.278	1.62
886.014	3.62
886.749	1.62
887.485	0.62
888.221	-1.38
888.957	2.62
889.692	1.62
890.428	0.62
891.163	0.62
891.899	3.62
892.634	1.62
893.369	-0.38
894.104	1.62
894.839	0.62
895.574	-1.38
896.309	-0.38
897.044	1.62
897.779	2.62
898.514	-1.38
899.248	0.62
899.983	-0.38
900.717	-1.38
901.452	2.62
902.186	-1.38
902.92	1.62
903.654	0.62
904.389	2.62
905.123	0.62
905.857	1.62
906.59	-0.38
907.324	-1.38
908.058	0.62
908.792	-1.38
909.525	0.62
910.259	-1.38
910.992	-1.38
911.726	-1.38
912.459	0.62
913.192	0.62
913.925	1.62
914.658	1.62
915.391	1.62
916.124	1.62
916.857	0.62
917.59	-0.38
918.323	1.62
919.055	-0.38
919.788	-0.38
920.521	-1.38
921.253	0.62
921.985	0.62
922.718	-1.38
923.45	0.62
924.182	-0.38
924.914	-1.38
925.646	0.62
926.378	0.62
927.11	-0.38
927.841	0.62
928.573	-0.38
929.305	1.62
930.036	0.62
930.768	2.62
931.499	1.62
932.23	0.62
932.962	0.62
933.693	0.62
934.424	0.62
935.155	-1.38
935.886	1.62
936.617	0.62
937.348	0.62
938.078	-0.38
938.809	-0.38
939.54	-0.38
940.27	-0.38
941.001	-1.38
941.731	-0.38
942.461	-1.38
943.191	0.62
943.922	0.62
944.652	-0.38
945.382	1.62
946.112	-0.38
946.841	-1.38
947.571	1.62
948.301	-0.38
949.031	0.62
949.76	-0.38
950.49	1.62
951.219	-0.38
951.948	-0.38
952.678	0.62
953.407	0.62
954.136	-0.38
954.865	-0.38
955.594	-0.38
956.323	0.62
957.052	-1.38
957.78	-1.38
958.509	0.62
959.238	-0.38
959.966	2.62
960.695	0.62
961.423	-1.38
962.151	0.62
962.88	-0.38
963.608	2.62
964.336	0.62
965.064	-0.38
965.792	-1.38
966.52	-0.38
967.247	0.62
967.975	2.62
968.703	1.62
969.43	1.62
970.158	-0.38
970.885	0.62
971.613	-3.38
972.34	0.62
973.067	0.62
973.794	-0.38
974.521	1.62
975.248	0.62
975.975	-0.38
976.702	0.62
977.429	1.62
978.156	0.62
978.882	-0.38
979.609	0.62
980.335	-0.38
981.062	0.62
981.788	-1.38
982.514	0.62
983.24	0.62
983.967	-1.38
984.693	0.62
985.419	-0.38
986.144	-1.38
986.87	-0.38
987.596	-0.38
988.322	0.62
989.047	-1.38
989.773	-0.38
990.498	-0.38
991.224	0.62
991.949	1.62
992.674	-1.38
993.399	-0.38
994.124	-0.38
994.849	-2.38
995.574	-0.38
996.299	-1.38
997.024	2.62
997.749	0.62
998.473	-1.38
999.198	-0.38
999.922	0.62
1000.647	-1.38
1001.371	2.62
1002.095	-1.38
1002.82	-0.38
1003.544	0.62
1004.268	5.62
1004.992	3.62
1005.716	5.62
1006.439	2.62
1007.163	6.62
1007.887	2.62
1008.611	-1.38
1009.334	1.62
1010.058	-3.38
1010.781	-1.38
1011.504	1.62
1012.228	-0.38
1012.951	-0.38
1013.674	-0.38
1014.397	-0.38
1015.12	-0.38
