节点500_705_QEPB04081__91__20-47-24-232.txt的数据

Date: Wed Nov 12 20:47:24 CST 2025
User: PC
Spectrometer: QEPB0408
触发模式: 0
积分时间 (秒): 1.000000E-2
Scans to average: 1
启用暗噪声校正: true
启用非线性校正: false
滑动平均宽度: 0
X轴模式: Wavelengths
Number of Pixels in Spectrum: 1044
>>>>>Begin Spectral Data<<<<<
220.843	6.12
221.644	7.12
222.444	8.12
223.244	7.12
224.045	7.12
224.845	7.12
225.645	5.12
226.445	8.12
227.245	8.12
228.045	8.12
228.845	9.12
229.645	9.12
230.444	9.12
231.244	7.12
232.043	9.12
232.843	9.12
233.642	13.12
234.442	13.12
235.241	10.12
236.04	13.12
236.839	13.12
237.638	9.12
238.437	11.12
239.236	13.12
240.035	11.12
240.833	11.12
241.632	11.12
242.43	13.12
243.229	13.12
244.027	11.12
244.826	12.12
245.624	15.12
246.422	15.12
247.22	15.12
248.018	16.12
248.816	16.12
249.614	15.12
250.412	17.12
251.21	18.12
252.007	15.12
252.805	19.12
253.602	16.12
254.4	19.12
255.197	21.12
255.994	22.12
256.791	20.12
257.589	22.12
258.386	21.12
259.183	22.12
259.979	22.12
260.776	24.12
261.573	25.12
262.37	23.12
263.166	25.12
263.963	29.12
264.759	27.12
265.556	27.12
266.352	30.12
267.148	29.12
267.944	32.12
268.74	34.12
269.536	35.12
270.332	34.12
271.128	29.12
271.924	35.12
272.719	35.12
273.515	33.12
274.311	35.12
275.106	35.12
275.901	35.12
276.697	39.12
277.492	34.12
278.287	38.12
279.082	35.12
279.877	34.12
280.672	39.12
281.467	34.12
282.262	35.12
283.056	35.12
283.851	38.12
284.646	35.12
285.44	33.12
286.234	38.12
287.029	35.12
287.823	34.12
288.617	37.12
289.411	35.12
290.205	31.12
290.999	34.12
291.793	34.12
292.587	33.12
293.381	30.12
294.174	31.12
294.968	29.12
295.761	31.12
296.555	26.12
297.348	27.12
298.141	28.12
298.935	27.12
299.728	25.12
300.521	29.12
301.314	26.12
302.107	25.12
302.899	26.12
303.692	24.12
304.485	23.12
305.277	24.12
306.07	21.12
306.862	25.12
307.655	24.12
308.447	23.12
309.239	23.12
310.031	23.12
310.823	20.12
311.615	17.12
312.407	16.12
313.199	20.12
313.991	19.12
314.783	17.12
315.574	15.12
316.366	15.12
317.157	16.12
317.949	15.12
318.74	17.12
319.531	15.12
320.322	15.12
321.113	13.12
321.904	15.12
322.695	14.12
323.486	12.12
324.277	15.12
325.068	15.12
325.858	12.12
326.649	12.12
327.439	13.12
328.23	14.12
329.02	13.12
329.81	12.12
330.6	12.12
331.391	13.12
332.181	11.12
332.971	11.12
333.76	11.12
334.55	10.12
335.34	11.12
336.13	13.12
336.919	14.12
337.709	12.12
338.498	12.12
339.287	10.12
340.077	13.12
340.866	13.12
341.655	11.12
342.444	13.12
343.233	12.12
344.022	9.12
344.811	15.12
345.6	11.12
346.388	12.12
347.177	11.12
347.965	12.12
348.754	12.12
349.542	11.12
350.33	13.12
351.119	11.12
351.907	11.12
352.695	12.12
353.483	11.12
354.271	11.12
355.059	14.12
355.846	13.12
356.634	11.12
357.422	9.12
358.209	11.12
358.997	12.12
359.784	10.12
360.571	9.12
361.359	9.12
362.146	10.12
362.933	10.12
363.72	8.12
364.507	10.12
365.294	11.12
366.081	11.12
366.867	9.12
367.654	11.12
368.44	10.12
369.227	8.12
370.013	13.12
370.8	11.12
371.586	9.12
372.372	10.12
373.158	11.12
373.944	11.12
374.73	11.12
375.516	9.12
376.302	10.12
377.088	11.12
377.873	8.12
378.659	11.12
379.445	9.12
380.23	10.12
381.015	9.12
381.801	11.12
382.586	14.12
383.371	10.12
384.156	13.12
384.941	11.12
385.726	13.12
386.511	10.12
387.296	9.12
388.08	12.12
388.865	12.12
389.649	11.12
390.434	13.12
391.218	11.12
392.003	12.12
392.787	11.12
393.571	13.12
394.355	11.12
395.139	14.12
395.923	13.12
396.707	14.12
397.491	13.12
398.274	11.12
399.058	12.12
399.842	14.12
400.625	13.12
401.408	15.12
402.192	13.12
402.975	15.12
403.758	17.12
404.541	14.12
405.324	13.12
406.107	17.12
406.89	15.12
407.673	14.12
408.456	17.12
409.238	16.12
410.021	19.12
410.803	16.12
411.586	17.12
412.368	19.12
413.151	16.12
413.933	22.12
414.715	19.12
415.497	18.12
416.279	22.12
417.061	19.12
417.843	16.12
418.624	20.12
419.406	22.12
420.188	22.12
420.969	22.12
421.751	24.12
422.532	22.12
423.313	25.12
424.095	22.12
424.876	25.12
425.657	26.12
426.438	27.12
427.219	28.12
428	27.12
428.78	28.12
429.561	27.12
430.342	31.12
431.122	30.12
431.903	35.12
432.683	34.12
433.464	33.12
434.244	41.12
435.024	38.12
435.804	39.12
436.584	41.12
437.364	47.12
438.144	45.12
438.924	50.12
439.704	51.12
440.483	58.12
441.263	58.12
442.042	66.12
442.822	68.12
443.601	70.12
444.38	79.12
445.16	82.12
445.939	90.12
446.718	99.12
447.497	105.12
448.276	115.12
449.054	134.12
449.833	135.12
450.612	153.12
451.391	165.12
452.169	184.12
452.948	207.12
453.726	228.12
454.504	252.12
455.282	276.12
456.061	313.12
456.839	348.12
457.617	381.12
458.395	435.12
459.172	475.12
459.95	533.12
460.728	595.12
461.506	679.12
462.283	752.12
463.061	833.12
463.838	938.12
464.615	1053.12
465.393	1179.12
466.17	1302.12
466.947	1453.12
467.724	1631.12
468.501	1804.12
469.278	2000.12
470.055	2227.12
470.831	2463.12
471.608	2757.12
472.385	3038.12
473.161	3379.12
473.938	3684.12
474.714	4074.12
475.49	4504.12
476.266	4976.12
477.043	5455.12
477.819	5964.12
478.595	6570.12
479.371	7199.12
480.146	7865.12
480.922	8690.12
481.698	9481.12
482.473	10401.12
483.249	11339.12
484.024	12303.12
484.8	13465.12
485.575	14659.12
486.35	15929.12
487.126	17289.12
487.901	18789.12
488.676	20340.12
489.451	22005.12
490.225	23702.12
491	25427.12
491.775	27275.12
492.55	29240.12
493.324	31115.12
494.099	33001.12
494.873	34937.12
495.647	36936.12
496.422	38888.12
497.196	40751.12
497.97	42438.12
498.744	43939.12
499.518	45600.12
500.292	46907.12
501.066	47831.12
501.839	48651.12
502.613	49160.12
503.387	49646.12
504.16	49857.12
504.934	49700.12
505.707	49220.12
506.48	48674.12
507.253	47912.12
508.027	46866.12
508.8	45721.12
509.573	44494.12
510.346	43068.12
511.118	41885.12
511.891	40370.12
512.664	38688.12
513.437	37149.12
514.209	35705.12
514.982	34164.12
515.754	32685.12
516.526	31375.12
517.298	30091.12
518.071	28863.12
518.843	27738.12
519.615	26592.12
520.387	25516.12
521.159	24465.12
521.93	23446.12
522.702	22470.12
523.474	21468.12
524.245	20562.12
525.017	19617.12
525.788	18720.12
526.56	17912.12
527.331	17126.12
528.102	16173.12
528.873	15367.12
529.644	14608.12
530.415	13931.12
531.186	13235.12
531.957	12483.12
532.728	11791.12
533.498	11225.12
534.269	10582.12
535.039	10011.12
535.81	9488.12
536.58	8921.12
537.351	8387.12
538.121	8018.12
538.891	7566.12
539.661	7177.12
540.431	6778.12
541.201	6473.12
541.971	6115.12
542.741	5782.12
543.51	5514.12
544.28	5193.12
545.05	4989.12
545.819	4740.12
546.588	4518.12
547.358	4308.12
548.127	4094.12
548.896	3853.12
549.665	3648.12
550.434	3467.12
551.203	3282.12
551.972	3107.12
552.741	2940.12
553.51	2782.12
554.278	2612.12
555.047	2469.12
555.815	2328.12
556.584	2212.12
557.352	2064.12
558.121	1976.12
558.889	1860.12
559.657	1736.12
560.425	1656.12
561.193	1571.12
561.961	1481.12
562.729	1415.12
563.496	1329.12
564.264	1257.12
565.032	1184.12
565.799	1112.12
566.567	1063.12
567.334	997.12
568.101	952.12
568.869	898.12
569.636	854.12
570.403	798.12
571.17	777.12
571.937	706.12
572.704	685.12
573.471	632.12
574.237	598.12
575.004	566.12
575.771	532.12
576.537	501.12
577.303	479.12
578.07	448.12
578.836	409.12
579.602	400.12
580.368	380.12
581.134	359.12
581.9	348.12
582.666	327.12
583.432	318.12
584.198	301.12
584.964	283.12
585.729	272.12
586.495	248.12
587.26	235.12
588.025	228.12
588.791	215.12
589.556	203.12
590.321	191.12
591.086	181.12
591.851	179.12
592.616	167.12
593.381	161.12
594.146	153.12
594.911	146.12
595.675	143.12
596.44	136.12
597.204	125.12
597.969	122.12
598.733	117.12
599.497	110.12
600.261	108.12
601.025	100.12
601.79	103.12
602.553	98.12
603.317	91.12
604.081	86.12
604.845	86.12
605.609	81.12
606.372	77.12
607.136	81.12
607.899	69.12
608.662	67.12
609.426	66.12
610.189	62.12
610.952	61.12
611.715	58.12
612.478	56.12
613.241	58.12
614.004	54.12
614.767	51.12
615.529	49.12
616.292	50.12
617.055	46.12
617.817	44.12
618.579	41.12
619.342	45.12
620.104	40.12
620.866	38.12
621.628	38.12
622.39	36.12
623.152	37.12
623.914	34.12
624.676	34.12
625.438	35.12
626.199	31.12
626.961	31.12
627.722	29.12
628.484	28.12
629.245	28.12
630.006	31.12
630.768	28.12
631.529	24.12
632.29	27.12
633.051	23.12
633.812	25.12
634.573	24.12
635.333	24.12
636.094	19.12
636.855	20.12
637.615	19.12
638.376	22.12
639.136	17.12
639.896	19.12
640.657	19.12
641.417	19.12
642.177	15.12
642.937	19.12
643.697	18.12
644.457	21.12
645.216	18.12
645.976	19.12
646.736	17.12
647.495	14.12
648.255	15.12
649.014	14.12
649.774	16.12
650.533	16.12
651.292	15.12
652.051	16.12
652.81	15.12
653.569	13.12
654.328	15.12
655.087	13.12
655.846	13.12
656.604	11.12
657.363	12.12
658.121	11.12
658.88	15.12
659.638	11.12
660.397	15.12
661.155	12.12
661.913	13.12
662.671	9.12
663.429	12.12
664.187	11.12
664.945	9.12
665.703	9.12
666.46	13.12
667.218	11.12
667.976	10.12
668.733	10.12
669.49	12.12
670.248	10.12
671.005	10.12
671.762	8.12
672.519	9.12
673.276	9.12
674.033	8.12
674.79	7.12
675.547	11.12
676.304	8.12
677.06	7.12
677.817	7.12
678.574	7.12
679.33	8.12
680.086	8.12
680.843	10.12
681.599	9.12
682.355	7.12
683.111	7.12
683.867	6.12
684.623	9.12
685.379	9.12
686.135	10.12
686.89	7.12
687.646	9.12
688.402	7.12
689.157	8.12
689.912	11.12
690.668	7.12
691.423	8.12
692.178	8.12
692.933	10.12
693.688	11.12
694.443	8.12
695.198	7.12
695.953	9.12
696.708	7.12
697.462	8.12
698.217	7.12
698.972	7.12
699.726	7.12
700.48	9.12
701.235	9.12
701.989	7.12
702.743	6.12
703.497	8.12
704.251	7.12
705.005	7.12
705.759	10.12
706.513	10.12
707.266	9.12
708.02	8.12
708.774	6.12
709.527	9.12
710.28	8.12
711.034	5.12
711.787	6.12
712.54	7.12
713.293	9.12
714.046	9.12
714.799	7.12
715.552	7.12
716.305	7.12
717.058	12.12
717.81	8.12
718.563	9.12
719.315	10.12
720.068	9.12
720.82	8.12
721.573	7.12
722.325	11.12
723.077	7.12
723.829	8.12
724.581	8.12
725.333	8.12
726.085	12.12
726.836	8.12
727.588	9.12
728.34	11.12
729.091	10.12
729.843	10.12
730.594	9.12
731.346	10.12
732.097	11.12
732.848	10.12
733.599	9.12
734.35	11.12
735.101	10.12
735.852	9.12
736.603	11.12
737.354	11.12
738.104	11.12
738.855	10.12
739.605	9.12
740.356	13.12
741.106	10.12
741.856	12.12
742.607	12.12
743.357	11.12
744.107	12.12
744.857	12.12
745.607	13.12
746.357	13.12
747.106	11.12
747.856	13.12
748.606	13.12
749.355	14.12
750.105	11.12
750.854	12.12
751.603	13.12
752.353	11.12
753.102	14.12
753.851	14.12
754.6	14.12
755.349	14.12
756.098	12.12
756.847	11.12
757.595	11.12
758.344	14.12
759.093	13.12
759.841	13.12
760.589	14.12
761.338	14.12
762.086	15.12
762.834	15.12
763.582	15.12
764.331	14.12
765.079	15.12
765.826	15.12
766.574	15.12
767.322	15.12
768.07	14.12
768.817	16.12
769.565	16.12
770.312	15.12
771.06	18.12
771.807	15.12
772.554	17.12
773.302	17.12
774.049	15.12
774.796	14.12
775.543	17.12
776.29	14.12
777.036	15.12
777.783	19.12
778.53	16.12
779.276	17.12
780.023	16.12
780.769	16.12
781.516	16.12
782.262	17.12
783.008	17.12
783.754	15.12
784.5	17.12
785.246	18.12
785.992	15.12
786.738	15.12
787.484	14.12
788.23	17.12
788.975	18.12
789.721	17.12
790.466	19.12
791.212	18.12
791.957	17.12
792.702	15.12
793.447	17.12
794.193	12.12
794.938	13.12
795.683	15.12
796.427	11.12
797.172	14.12
797.917	14.12
798.662	14.12
799.406	12.12
800.151	13.12
800.895	11.12
801.64	14.12
802.384	12.12
803.128	12.12
803.872	12.12
804.616	10.12
805.36	12.12
806.104	13.12
806.848	9.12
807.592	10.12
808.336	9.12
809.079	9.12
809.823	9.12
810.566	10.12
811.31	11.12
812.053	7.12
812.796	10.12
813.539	10.12
814.283	9.12
815.026	8.12
815.769	9.12
816.511	11.12
817.254	5.12
817.997	9.12
818.74	9.12
819.482	8.12
820.225	7.12
820.967	6.12
821.71	5.12
822.452	11.12
823.194	7.12
823.936	8.12
824.678	8.12
825.42	9.12
826.162	7.12
826.904	6.12
827.646	9.12
828.388	5.12
829.129	8.12
829.871	6.12
830.612	4.12
831.354	8.12
832.095	7.12
832.836	8.12
833.577	7.12
834.319	7.12
835.06	5.12
835.801	9.12
836.542	7.12
837.282	6.12
838.023	6.12
838.764	7.12
839.504	9.12
840.245	6.12
840.985	5.12
841.726	5.12
842.466	6.12
843.206	7.12
843.946	6.12
844.687	5.12
845.427	4.12
846.166	6.12
846.906	6.12
847.646	4.12
848.386	5.12
849.125	7.12
849.865	8.12
850.605	6.12
851.344	1.12
852.083	6.12
852.823	7.12
853.562	5.12
854.301	4.12
855.04	4.12
855.779	3.12
856.518	7.12
857.257	5.12
857.995	5.12
858.734	2.12
859.473	3.12
860.211	3.12
860.95	5.12
861.688	4.12
862.426	4.12
863.165	5.12
863.903	5.12
864.641	5.12
865.379	2.12
866.117	6.12
866.855	3.12
867.593	7.12
868.33	4.12
869.068	2.12
869.806	4.12
870.543	2.12
871.28	3.12
872.018	3.12
872.755	3.12
873.492	1.12
874.229	4.12
874.967	2.12
875.703	3.12
876.44	2.12
877.177	1.12
877.914	0.12
878.651	1.12
879.387	0.12
880.124	1.12
880.86	1.12
881.597	3.12
882.333	0.12
883.069	2.12
883.806	3.12
884.542	2.12
885.278	2.12
886.014	-0.88
886.749	1.12
887.485	2.12
888.221	0.12
888.957	3.12
889.692	3.12
890.428	1.12
891.163	2.12
891.899	-2.88
892.634	1.12
893.369	1.12
894.104	4.12
894.839	0.12
895.574	1.12
896.309	2.12
897.044	0.12
897.779	2.12
898.514	0.12
899.248	4.12
899.983	1.12
900.717	1.12
901.452	2.12
902.186	1.12
902.92	2.12
903.654	-0.88
904.389	2.12
905.123	0.12
905.857	0.12
906.59	1.12
907.324	1.12
908.058	2.12
908.792	2.12
909.525	3.12
910.259	0.12
910.992	1.12
911.726	2.12
912.459	0.12
913.192	-0.88
913.925	-0.88
914.658	0.12
915.391	0.12
916.124	1.12
916.857	1.12
917.59	-2.88
918.323	3.12
919.055	1.12
919.788	-0.88
920.521	1.12
921.253	1.12
921.985	2.12
922.718	1.12
923.45	-0.88
924.182	1.12
924.914	2.12
925.646	0.12
926.378	-0.88
927.11	-0.88
927.841	2.12
928.573	-0.88
929.305	1.12
930.036	0.12
930.768	2.12
931.499	1.12
932.23	-0.88
932.962	1.12
933.693	-1.88
934.424	1.12
935.155	1.12
935.886	-0.88
936.617	0.12
937.348	0.12
938.078	1.12
938.809	1.12
939.54	0.12
940.27	-0.88
941.001	-0.88
941.731	0.12
942.461	-1.88
943.191	2.12
943.922	2.12
944.652	1.12
945.382	1.12
946.112	-0.88
946.841	3.12
947.571	1.12
948.301	1.12
949.031	1.12
949.76	-0.88
950.49	1.12
951.219	-1.88
951.948	1.12
952.678	1.12
953.407	3.12
954.136	1.12
954.865	1.12
955.594	0.12
956.323	2.12
957.052	-1.88
957.78	-0.88
958.509	1.12
959.238	3.12
959.966	0.12
960.695	1.12
961.423	0.12
962.151	-0.88
962.88	1.12
963.608	0.12
964.336	-0.88
965.064	2.12
965.792	0.12
966.52	-0.88
967.247	0.12
967.975	0.12
968.703	-0.88
969.43	0.12
970.158	-1.88
970.885	0.12
971.613	0.12
972.34	1.12
973.067	-0.88
973.794	3.12
974.521	-0.88
975.248	-0.88
975.975	0.12
976.702	-2.88
977.429	-0.88
978.156	2.12
978.882	-0.88
979.609	1.12
980.335	2.12
981.062	3.12
981.788	1.12
982.514	0.12
983.24	0.12
983.967	0.12
984.693	0.12
985.419	0.12
986.144	1.12
986.87	2.12
987.596	-1.88
988.322	2.12
989.047	0.12
989.773	1.12
990.498	1.12
991.224	-0.88
991.949	-0.88
992.674	-0.88
993.399	1.12
994.124	1.12
994.849	2.12
995.574	1.12
996.299	3.12
997.024	1.12
997.749	-0.88
998.473	-0.88
999.198	-0.88
999.922	1.12
1000.647	-0.88
1001.371	2.12
1002.095	0.12
1002.82	-0.88
1003.544	-0.88
1004.268	7.12
1004.992	5.12
1005.716	5.12
1006.439	2.12
1007.163	7.12
1007.887	5.12
1008.611	-0.88
1009.334	1.12
1010.058	2.12
1010.781	1.12
1011.504	0.12
1012.228	0.12
1012.951	0.12
1013.674	-0.88
1014.397	0.12
1015.12	0.12
