节点500_705_QEPB04081__554__20-53-48-754.txt的数据

Date: Wed Nov 12 20:53:48 CST 2025
User: PC
Spectrometer: QEPB0408
触发模式: 0
积分时间 (秒): 1.000000E-2
Scans to average: 1
启用暗噪声校正: true
启用非线性校正: false
滑动平均宽度: 0
X轴模式: Wavelengths
Number of Pixels in Spectrum: 1044
>>>>>Begin Spectral Data<<<<<
220.843	7
221.644	5
222.444	8
223.244	5
224.045	9
224.845	6
225.645	7
226.445	8
227.245	7
228.045	8
228.845	9
229.645	9
230.444	8
231.244	7
232.043	7
232.843	7
233.642	11
234.442	9
235.241	11
236.04	7
236.839	10
237.638	9
238.437	10
239.236	9
240.035	10
240.833	12
241.632	10
242.43	12
243.229	13
244.027	13
244.826	18
245.624	13
246.422	14
247.22	15
248.018	12
248.816	14
249.614	15
250.412	15
251.21	14
252.007	14
252.805	16
253.602	18
254.4	16
255.197	19
255.994	18
256.791	17
257.589	19
258.386	17
259.183	19
259.979	20
260.776	21
261.573	21
262.37	21
263.166	21
263.963	22
264.759	23
265.556	22
266.352	27
267.148	26
267.944	26
268.74	28
269.536	27
270.332	24
271.128	29
271.924	31
272.719	30
273.515	31
274.311	28
275.106	30
275.901	29
276.697	28
277.492	30
278.287	29
279.082	31
279.877	31
280.672	31
281.467	34
282.262	31
283.056	32
283.851	32
284.646	31
285.44	31
286.234	33
287.029	31
287.823	31
288.617	31
289.411	31
290.205	30
290.999	31
291.793	31
292.587	30
293.381	30
294.174	31
294.968	27
295.761	25
296.555	29
297.348	26
298.141	27
298.935	28
299.728	25
300.521	22
301.314	25
302.107	24
302.899	23
303.692	24
304.485	21
305.277	22
306.07	21
306.862	20
307.655	22
308.447	21
309.239	19
310.031	21
310.823	18
311.615	19
312.407	19
313.199	18
313.991	19
314.783	16
315.574	16
316.366	16
317.157	15
317.949	13
318.74	17
319.531	17
320.322	14
321.113	13
321.904	13
322.695	16
323.486	13
324.277	14
325.068	13
325.858	15
326.649	14
327.439	13
328.23	12
329.02	14
329.81	12
330.6	11
331.391	12
332.181	13
332.971	13
333.76	14
334.55	13
335.34	10
336.13	14
336.919	12
337.709	13
338.498	11
339.287	12
340.077	12
340.866	11
341.655	13
342.444	13
343.233	12
344.022	12
344.811	11
345.6	13
346.388	11
347.177	10
347.965	13
348.754	13
349.542	14
350.33	10
351.119	13
351.907	11
352.695	10
353.483	11
354.271	14
355.059	12
355.846	10
356.634	11
357.422	11
358.209	11
358.997	11
359.784	10
360.571	10
361.359	10
362.146	13
362.933	9
363.72	10
364.507	9
365.294	11
366.081	7
366.867	12
367.654	9
368.44	9
369.227	9
370.013	12
370.8	8
371.586	10
372.372	13
373.158	10
373.944	11
374.73	8
375.516	9
376.302	8
377.088	11
377.873	10
378.659	11
379.445	10
380.23	7
381.015	11
381.801	10
382.586	10
383.371	9
384.156	12
384.941	9
385.726	10
386.511	10
387.296	10
388.08	8
388.865	9
389.649	10
390.434	9
391.218	10
392.003	13
392.787	12
393.571	9
394.355	12
395.139	11
395.923	12
396.707	12
397.491	11
398.274	9
399.058	13
399.842	13
400.625	13
401.408	12
402.192	13
402.975	14
403.758	15
404.541	14
405.324	16
406.107	15
406.89	12
407.673	12
408.456	16
409.238	16
410.021	13
410.803	18
411.586	18
412.368	14
413.151	19
413.933	15
414.715	20
415.497	15
416.279	19
417.061	17
417.843	19
418.624	19
419.406	18
420.188	19
420.969	20
421.751	23
422.532	21
423.313	20
424.095	23
424.876	23
425.657	24
426.438	24
427.219	25
428	26
428.78	26
429.561	27
430.342	30
431.122	31
431.903	31
432.683	33
433.464	35
434.244	36
435.024	40
435.804	42
436.584	44
437.364	43
438.144	47
438.924	50
439.704	51
440.483	60
441.263	65
442.042	63
442.822	74
443.601	77
444.38	81
445.16	87
445.939	97
446.718	109
447.497	118
448.276	128
449.054	143
449.833	153
450.612	167
451.391	189
452.169	211
452.948	229
453.726	256
454.504	281
455.282	318
456.061	350
456.839	396
457.617	439
458.395	485
459.172	551
459.95	596
460.728	660
461.506	742
462.283	805
463.061	906
463.838	1011
464.615	1133
465.393	1261
466.17	1385
466.947	1536
467.724	1700
468.501	1879
469.278	2065
470.055	2270
470.831	2490
471.608	2756
472.385	3026
473.161	3298
473.938	3654
474.714	3964
475.49	4327
476.266	4719
477.043	5150
477.819	5610
478.595	6098
479.371	6621
480.146	7205
480.922	7816
481.698	8518
482.473	9211
483.249	9943
484.024	10777
484.8	11669
485.575	12562
486.35	13559
487.126	14597
487.901	15791
488.676	16927
489.451	18183
490.225	19517
491	20859
491.775	22291
492.55	23822
493.324	25304
494.099	26876
494.873	28457
495.647	30089
496.422	31702
497.196	33384
497.97	34929
498.744	36392
499.518	37964
500.292	39290
501.066	40254
501.839	41325
502.613	42238
503.387	43056
504.16	43637
504.934	43959
505.707	44196
506.48	44110
507.253	43867
508.027	43537
508.8	42903
509.573	42267
510.346	41456
511.118	40554
511.891	39620
512.664	38226
513.437	36954
514.209	35763
514.982	34496
515.754	33250
516.526	31984
517.298	30723
518.071	29616
518.843	28475
519.615	27258
520.387	26192
521.159	25232
521.93	24144
522.702	23112
523.474	22259
524.245	21341
525.017	20425
525.788	19605
526.56	18817
527.331	18001
528.102	17133
528.873	16327
529.644	15577
530.415	14886
531.186	14161
531.957	13495
532.728	12799
533.498	12149
534.269	11501
535.039	10922
535.81	10371
536.58	9829
537.351	9294
538.121	8847
538.891	8311
539.661	7882
540.431	7467
541.201	7109
541.971	6725
542.741	6344
543.51	6034
544.28	5748
545.05	5493
545.819	5192
546.588	4976
547.358	4716
548.127	4465
548.896	4278
549.665	4073
550.434	3861
551.203	3669
551.972	3470
552.741	3281
553.51	3113
554.278	2932
555.047	2792
555.815	2629
556.584	2472
557.352	2337
558.121	2215
558.889	2114
559.657	1973
560.425	1888
561.193	1781
561.961	1699
562.729	1596
563.496	1502
564.264	1422
565.032	1341
565.799	1262
566.567	1212
567.334	1151
568.101	1080
568.869	1016
569.636	962
570.403	903
571.17	863
571.937	811
572.704	768
573.471	721
574.237	689
575.004	638
575.771	602
576.537	565
577.303	536
578.07	515
578.836	482
579.602	461
580.368	428
581.134	418
581.9	390
582.666	369
583.432	364
584.198	335
584.964	317
585.729	302
586.495	282
587.26	270
588.025	253
588.791	242
589.556	223
590.321	217
591.086	213
591.851	198
592.616	192
593.381	183
594.146	165
594.911	168
595.675	158
596.44	150
597.204	145
597.969	132
598.733	126
599.497	118
600.261	121
601.025	115
601.79	107
602.553	102
603.317	97
604.081	97
604.845	93
605.609	91
606.372	83
607.136	85
607.899	82
608.662	73
609.426	74
610.189	71
610.952	67
611.715	65
612.478	63
613.241	58
614.004	58
614.767	59
615.529	54
616.292	53
617.055	53
617.817	50
618.579	46
619.342	45
620.104	47
620.866	45
621.628	44
622.39	39
623.152	41
623.914	38
624.676	35
625.438	35
626.199	36
626.961	35
627.722	33
628.484	29
629.245	31
630.006	28
630.768	30
631.529	26
632.29	24
633.051	24
633.812	27
634.573	25
635.333	25
636.094	25
636.855	21
637.615	23
638.376	21
639.136	22
639.896	24
640.657	21
641.417	20
642.177	19
642.937	20
643.697	17
644.457	18
645.216	14
645.976	16
646.736	15
647.495	19
648.255	14
649.014	15
649.774	15
650.533	14
651.292	16
652.051	11
652.81	13
653.569	12
654.328	13
655.087	12
655.846	11
656.604	13
657.363	11
658.121	13
658.88	11
659.638	16
660.397	11
661.155	11
661.913	14
662.671	10
663.429	9
664.187	11
664.945	8
665.703	10
666.46	10
667.218	11
667.976	8
668.733	11
669.49	10
670.248	9
671.005	9
671.762	10
672.519	12
673.276	7
674.033	10
674.79	9
675.547	8
676.304	10
677.06	11
677.817	8
678.574	10
679.33	8
680.086	10
680.843	6
681.599	9
682.355	7
683.111	10
683.867	9
684.623	6
685.379	9
686.135	7
686.89	8
687.646	5
688.402	7
689.157	10
689.912	7
690.668	6
691.423	7
692.178	9
692.933	7
693.688	8
694.443	6
695.198	9
695.953	9
696.708	7
697.462	9
698.217	9
698.972	8
699.726	8
700.48	7
701.235	9
701.989	10
702.743	7
703.497	9
704.251	7
705.005	7
705.759	9
706.513	8
707.266	6
708.02	7
708.774	8
709.527	7
710.28	6
711.034	8
711.787	6
712.54	8
713.293	8
714.046	9
714.799	9
715.552	8
716.305	8
717.058	7
717.81	7
718.563	5
719.315	10
720.068	7
720.82	7
721.573	8
722.325	9
723.077	10
723.829	7
724.581	8
725.333	8
726.085	9
726.836	8
727.588	9
728.34	9
729.091	7
729.843	7
730.594	7
731.346	9
732.097	7
732.848	8
733.599	9
734.35	8
735.101	8
735.852	11
736.603	9
737.354	9
738.104	8
738.855	9
739.605	8
740.356	9
741.106	9
741.856	13
742.607	10
743.357	11
744.107	9
744.857	10
745.607	10
746.357	13
747.106	9
747.856	10
748.606	11
749.355	9
750.105	9
750.854	10
751.603	10
752.353	12
753.102	10
753.851	9
754.6	11
755.349	13
756.098	11
756.847	12
757.595	10
758.344	9
759.093	11
759.841	10
760.589	12
761.338	13
762.086	13
762.834	11
763.582	15
764.331	12
765.079	12
765.826	11
766.574	12
767.322	13
768.07	14
768.817	11
769.565	14
770.312	12
771.06	14
771.807	13
772.554	13
773.302	16
774.049	15
774.796	14
775.543	14
776.29	14
777.036	13
777.783	12
778.53	13
779.276	12
780.023	14
780.769	13
781.516	13
782.262	14
783.008	14
783.754	16
784.5	15
785.246	15
785.992	15
786.738	13
787.484	14
788.23	14
788.975	14
789.721	14
790.466	12
791.212	15
791.957	11
792.702	14
793.447	12
794.193	13
794.938	13
795.683	14
796.427	15
797.172	12
797.917	15
798.662	10
799.406	13
800.151	12
800.895	12
801.64	12
802.384	10
803.128	10
803.872	12
804.616	9
805.36	13
806.104	10
806.848	10
807.592	10
808.336	9
809.079	11
809.823	10
810.566	12
811.31	10
812.053	11
812.796	9
813.539	10
814.283	9
815.026	9
815.769	10
816.511	8
817.254	8
817.997	8
818.74	8
819.482	10
820.225	7
820.967	7
821.71	7
822.452	7
823.194	9
823.936	8
824.678	6
825.42	7
826.162	6
826.904	7
827.646	8
828.388	4
829.129	6
829.871	6
830.612	7
831.354	7
832.095	8
832.836	6
833.577	6
834.319	6
835.06	6
835.801	7
836.542	7
837.282	8
838.023	7
838.764	4
839.504	5
840.245	6
840.985	6
841.726	7
842.466	4
843.206	4
843.946	5
844.687	4
845.427	8
846.166	7
846.906	4
847.646	5
848.386	4
849.125	4
849.865	6
850.605	4
851.344	4
852.083	5
852.823	7
853.562	3
854.301	3
855.04	3
855.779	4
856.518	6
857.257	1
857.995	7
858.734	2
859.473	2
860.211	5
860.95	3
861.688	3
862.426	3
863.165	4
863.903	2
864.641	4
865.379	3
866.117	3
866.855	4
867.593	0
868.33	4
869.068	1
869.806	3
870.543	2
871.28	1
872.018	2
872.755	3
873.492	-1
874.229	2
874.967	1
875.703	4
876.44	2
877.177	2
877.914	4
878.651	2
879.387	2
880.124	3
880.86	1
881.597	0
882.333	1
883.069	3
883.806	2
884.542	1
885.278	0
886.014	4
886.749	0
887.485	4
888.221	0
888.957	0
889.692	2
890.428	2
891.163	3
891.899	2
892.634	1
893.369	1
894.104	0
894.839	3
895.574	2
896.309	3
897.044	1
897.779	0
898.514	3
899.248	1
899.983	2
900.717	-2
901.452	-1
902.186	0
902.92	0
903.654	2
904.389	0
905.123	1
905.857	-1
906.59	0
907.324	1
908.058	1
908.792	3
909.525	0
910.259	1
910.992	1
911.726	-1
912.459	0
913.192	0
913.925	1
914.658	0
915.391	-2
916.124	2
916.857	0
917.59	-1
918.323	-1
919.055	1
919.788	-1
920.521	1
921.253	2
921.985	2
922.718	2
923.45	2
924.182	1
924.914	1
925.646	1
926.378	1
927.11	-2
927.841	2
928.573	3
929.305	1
930.036	-1
930.768	1
931.499	1
932.23	1
932.962	2
933.693	1
934.424	-1
935.155	-1
935.886	1
936.617	2
937.348	0
938.078	-1
938.809	0
939.54	1
940.27	3
941.001	2
941.731	0
942.461	2
943.191	1
943.922	1
944.652	-1
945.382	-1
946.112	-1
946.841	1
947.571	-1
948.301	2
949.031	1
949.76	-1
950.49	2
951.219	2
951.948	-2
952.678	2
953.407	0
954.136	1
954.865	-1
955.594	1
956.323	1
957.052	2
957.78	-1
958.509	1
959.238	0
959.966	-1
960.695	1
961.423	0
962.151	2
962.88	3
963.608	-1
964.336	1
965.064	1
965.792	0
966.52	0
967.247	-3
967.975	2
968.703	0
969.43	2
970.158	-2
970.885	0
971.613	1
972.34	-1
973.067	1
973.794	-1
974.521	2
975.248	3
975.975	-1
976.702	2
977.429	1
978.156	1
978.882	1
979.609	-1
980.335	2
981.062	-1
981.788	1
982.514	1
983.24	1
983.967	1
984.693	1
985.419	1
986.144	-1
986.87	-1
987.596	1
988.322	2
989.047	0
989.773	0
990.498	3
991.224	1
991.949	-1
992.674	1
993.399	-1
994.124	1
994.849	1
995.574	1
996.299	1
997.024	1
997.749	-1
998.473	0
999.198	0
999.922	2
1000.647	0
1001.371	3
1002.095	-1
1002.82	-1
1003.544	-1
1004.268	3
1004.992	5
1005.716	4
1006.439	6
1007.163	5
1007.887	5
1008.611	2
1009.334	-1
1010.058	1
1010.781	0
1011.504	0
1012.228	-1
1012.951	-3
1013.674	0
1014.397	3
1015.12	0
