节点500_705_QEPB04081__142__20-48-14-096.txt的数据

Date: Wed Nov 12 20:48:14 CST 2025
User: PC
Spectrometer: QEPB0408
触发模式: 0
积分时间 (秒): 1.000000E-2
Scans to average: 1
启用暗噪声校正: true
启用非线性校正: false
滑动平均宽度: 0
X轴模式: Wavelengths
Number of Pixels in Spectrum: 1044
>>>>>Begin Spectral Data<<<<<
220.843	5.75
221.644	5.75
222.444	5.75
223.244	7.75
224.045	7.75
224.845	5.75
225.645	9.75
226.445	8.75
227.245	8.75
228.045	6.75
228.845	8.75
229.645	7.75
230.444	9.75
231.244	10.75
232.043	8.75
232.843	8.75
233.642	11.75
234.442	10.75
235.241	12.75
236.04	10.75
236.839	9.75
237.638	12.75
238.437	11.75
239.236	13.75
240.035	12.75
240.833	16.75
241.632	10.75
242.43	13.75
243.229	13.75
244.027	13.75
244.826	13.75
245.624	15.75
246.422	14.75
247.22	15.75
248.018	15.75
248.816	18.75
249.614	15.75
250.412	19.75
251.21	18.75
252.007	19.75
252.805	20.75
253.602	18.75
254.4	19.75
255.197	18.75
255.994	23.75
256.791	25.75
257.589	21.75
258.386	25.75
259.183	23.75
259.979	23.75
260.776	24.75
261.573	28.75
262.37	23.75
263.166	25.75
263.963	27.75
264.759	28.75
265.556	26.75
266.352	27.75
267.148	33.75
267.944	31.75
268.74	32.75
269.536	35.75
270.332	29.75
271.128	31.75
271.924	35.75
272.719	34.75
273.515	34.75
274.311	35.75
275.106	37.75
275.901	35.75
276.697	35.75
277.492	35.75
278.287	35.75
279.082	38.75
279.877	34.75
280.672	35.75
281.467	37.75
282.262	36.75
283.056	36.75
283.851	38.75
284.646	39.75
285.44	31.75
286.234	36.75
287.029	33.75
287.823	36.75
288.617	36.75
289.411	32.75
290.205	33.75
290.999	32.75
291.793	35.75
292.587	33.75
293.381	30.75
294.174	32.75
294.968	30.75
295.761	30.75
296.555	29.75
297.348	28.75
298.141	28.75
298.935	27.75
299.728	29.75
300.521	26.75
301.314	23.75
302.107	25.75
302.899	23.75
303.692	25.75
304.485	19.75
305.277	24.75
306.07	22.75
306.862	23.75
307.655	21.75
308.447	24.75
309.239	23.75
310.031	20.75
310.823	23.75
311.615	19.75
312.407	17.75
313.199	19.75
313.991	17.75
314.783	18.75
315.574	18.75
316.366	17.75
317.157	18.75
317.949	17.75
318.74	15.75
319.531	17.75
320.322	16.75
321.113	15.75
321.904	13.75
322.695	14.75
323.486	14.75
324.277	15.75
325.068	14.75
325.858	12.75
326.649	15.75
327.439	12.75
328.23	11.75
329.02	12.75
329.81	14.75
330.6	12.75
331.391	13.75
332.181	13.75
332.971	11.75
333.76	11.75
334.55	13.75
335.34	11.75
336.13	13.75
336.919	11.75
337.709	13.75
338.498	12.75
339.287	12.75
340.077	11.75
340.866	12.75
341.655	12.75
342.444	13.75
343.233	13.75
344.022	12.75
344.811	12.75
345.6	11.75
346.388	11.75
347.177	12.75
347.965	12.75
348.754	12.75
349.542	11.75
350.33	15.75
351.119	14.75
351.907	10.75
352.695	13.75
353.483	13.75
354.271	12.75
355.059	10.75
355.846	12.75
356.634	14.75
357.422	11.75
358.209	12.75
358.997	12.75
359.784	12.75
360.571	10.75
361.359	10.75
362.146	9.75
362.933	9.75
363.72	10.75
364.507	11.75
365.294	9.75
366.081	9.75
366.867	10.75
367.654	11.75
368.44	11.75
369.227	8.75
370.013	9.75
370.8	10.75
371.586	13.75
372.372	9.75
373.158	11.75
373.944	7.75
374.73	11.75
375.516	10.75
376.302	8.75
377.088	10.75
377.873	10.75
378.659	9.75
379.445	11.75
380.23	11.75
381.015	7.75
381.801	10.75
382.586	11.75
383.371	11.75
384.156	11.75
384.941	13.75
385.726	11.75
386.511	13.75
387.296	12.75
388.08	12.75
388.865	12.75
389.649	13.75
390.434	9.75
391.218	12.75
392.003	13.75
392.787	10.75
393.571	15.75
394.355	11.75
395.139	11.75
395.923	14.75
396.707	12.75
397.491	13.75
398.274	14.75
399.058	13.75
399.842	11.75
400.625	13.75
401.408	12.75
402.192	14.75
402.975	13.75
403.758	15.75
404.541	12.75
405.324	15.75
406.107	14.75
406.89	19.75
407.673	16.75
408.456	17.75
409.238	17.75
410.021	18.75
410.803	17.75
411.586	17.75
412.368	19.75
413.151	19.75
413.933	19.75
414.715	18.75
415.497	17.75
416.279	19.75
417.061	20.75
417.843	23.75
418.624	23.75
419.406	19.75
420.188	25.75
420.969	19.75
421.751	25.75
422.532	24.75
423.313	23.75
424.095	24.75
424.876	23.75
425.657	25.75
426.438	26.75
427.219	30.75
428	26.75
428.78	27.75
429.561	30.75
430.342	28.75
431.122	31.75
431.903	32.75
432.683	35.75
433.464	35.75
434.244	35.75
435.024	39.75
435.804	42.75
436.584	44.75
437.364	46.75
438.144	47.75
438.924	52.75
439.704	51.75
440.483	58.75
441.263	55.75
442.042	69.75
442.822	68.75
443.601	70.75
444.38	76.75
445.16	84.75
445.939	93.75
446.718	103.75
447.497	104.75
448.276	115.75
449.054	129.75
449.833	142.75
450.612	153.75
451.391	175.75
452.169	189.75
452.948	210.75
453.726	236.75
454.504	255.75
455.282	285.75
456.061	320.75
456.839	351.75
457.617	398.75
458.395	427.75
459.172	483.75
459.95	550.75
460.728	615.75
461.506	680.75
462.283	759.75
463.061	849.75
463.838	959.75
464.615	1072.75
465.393	1185.75
466.17	1318.75
466.947	1466.75
467.724	1651.75
468.501	1809.75
469.278	2020.75
470.055	2248.75
470.831	2477.75
471.608	2748.75
472.385	3047.75
473.161	3361.75
473.938	3661.75
474.714	4099.75
475.49	4511.75
476.266	4973.75
477.043	5396.75
477.819	5937.75
478.595	6523.75
479.371	7143.75
480.146	7853.75
480.922	8583.75
481.698	9382.75
482.473	10253.75
483.249	11165.75
484.024	12189.75
484.8	13234.75
485.575	14391.75
486.35	15620.75
487.126	16991.75
487.901	18417.75
488.676	19909.75
489.451	21588.75
490.225	23182.75
491	24958.75
491.775	26695.75
492.55	28604.75
493.324	30492.75
494.099	32380.75
494.873	34267.75
495.647	36202.75
496.422	38185.75
497.196	39894.75
497.97	41616.75
498.744	43195.75
499.518	44723.75
500.292	46109.75
501.066	47197.75
501.839	47853.75
502.613	48479.75
503.387	48915.75
504.16	49200.75
504.934	49142.75
505.707	48983.75
506.48	48284.75
507.253	47627.75
508.027	46667.75
508.8	45512.75
509.573	44263.75
510.346	42983.75
511.118	41832.75
511.891	40364.75
512.664	38777.75
513.437	37180.75
514.209	35765.75
514.982	34369.75
515.754	32854.75
516.526	31457.75
517.298	30221.75
518.071	28975.75
518.843	27799.75
519.615	26673.75
520.387	25713.75
521.159	24649.75
521.93	23563.75
522.702	22579.75
523.474	21604.75
524.245	20657.75
525.017	19720.75
525.788	18870.75
526.56	18055.75
527.331	17261.75
528.102	16302.75
528.873	15494.75
529.644	14732.75
530.415	14059.75
531.186	13369.75
531.957	12596.75
532.728	11916.75
533.498	11301.75
534.269	10694.75
535.039	10103.75
535.81	9547.75
536.58	9004.75
537.351	8518.75
538.121	8095.75
538.891	7677.75
539.661	7284.75
540.431	6867.75
541.201	6547.75
541.971	6177.75
542.741	5878.75
543.51	5541.75
544.28	5282.75
545.05	5022.75
545.819	4801.75
546.588	4552.75
547.358	4370.75
548.127	4131.75
548.896	3909.75
549.665	3712.75
550.434	3528.75
551.203	3323.75
551.972	3159.75
552.741	2987.75
553.51	2795.75
554.278	2651.75
555.047	2495.75
555.815	2366.75
556.584	2238.75
557.352	2118.75
558.121	2005.75
558.889	1877.75
559.657	1777.75
560.425	1683.75
561.193	1593.75
561.961	1507.75
562.729	1420.75
563.496	1349.75
564.264	1274.75
565.032	1214.75
565.799	1142.75
566.567	1069.75
567.334	1019.75
568.101	973.75
568.869	905.75
569.636	857.75
570.403	830.75
571.17	769.75
571.937	728.75
572.704	688.75
573.471	656.75
574.237	608.75
575.004	579.75
575.771	537.75
576.537	510.75
577.303	491.75
578.07	459.75
578.836	433.75
579.602	412.75
580.368	389.75
581.134	375.75
581.9	345.75
582.666	329.75
583.432	317.75
584.198	300.75
584.964	284.75
585.729	277.75
586.495	251.75
587.26	234.75
588.025	232.75
588.791	216.75
589.556	205.75
590.321	196.75
591.086	190.75
591.851	175.75
592.616	171.75
593.381	163.75
594.146	159.75
594.911	148.75
595.675	141.75
596.44	137.75
597.204	126.75
597.969	123.75
598.733	121.75
599.497	115.75
600.261	109.75
601.025	101.75
601.79	100.75
602.553	98.75
603.317	88.75
604.081	88.75
604.845	84.75
605.609	84.75
606.372	80.75
607.136	75.75
607.899	71.75
608.662	69.75
609.426	64.75
610.189	66.75
610.952	62.75
611.715	62.75
612.478	55.75
613.241	55.75
614.004	50.75
614.767	54.75
615.529	50.75
616.292	51.75
617.055	48.75
617.817	46.75
618.579	44.75
619.342	43.75
620.104	45.75
620.866	38.75
621.628	39.75
622.39	36.75
623.152	35.75
623.914	34.75
624.676	36.75
625.438	36.75
626.199	31.75
626.961	32.75
627.722	29.75
628.484	28.75
629.245	31.75
630.006	27.75
630.768	27.75
631.529	27.75
632.29	27.75
633.051	23.75
633.812	25.75
634.573	24.75
635.333	23.75
636.094	23.75
636.855	22.75
637.615	21.75
638.376	18.75
639.136	20.75
639.896	20.75
640.657	20.75
641.417	20.75
642.177	19.75
642.937	18.75
643.697	17.75
644.457	14.75
645.216	16.75
645.976	17.75
646.736	14.75
647.495	13.75
648.255	14.75
649.014	15.75
649.774	16.75
650.533	18.75
651.292	15.75
652.051	14.75
652.81	15.75
653.569	13.75
654.328	13.75
655.087	13.75
655.846	14.75
656.604	12.75
657.363	13.75
658.121	11.75
658.88	11.75
659.638	14.75
660.397	12.75
661.155	10.75
661.913	7.75
662.671	11.75
663.429	13.75
664.187	13.75
664.945	9.75
665.703	12.75
666.46	8.75
667.218	10.75
667.976	10.75
668.733	9.75
669.49	10.75
670.248	8.75
671.005	9.75
671.762	9.75
672.519	11.75
673.276	8.75
674.033	9.75
674.79	9.75
675.547	6.75
676.304	10.75
677.06	8.75
677.817	9.75
678.574	8.75
679.33	9.75
680.086	12.75
680.843	6.75
681.599	10.75
682.355	10.75
683.111	8.75
683.867	10.75
684.623	8.75
685.379	6.75
686.135	6.75
686.89	7.75
687.646	9.75
688.402	9.75
689.157	9.75
689.912	9.75
690.668	10.75
691.423	6.75
692.178	10.75
692.933	10.75
693.688	6.75
694.443	7.75
695.198	8.75
695.953	10.75
696.708	7.75
697.462	8.75
698.217	8.75
698.972	7.75
699.726	10.75
700.48	7.75
701.235	8.75
701.989	9.75
702.743	9.75
703.497	8.75
704.251	10.75
705.005	8.75
705.759	8.75
706.513	7.75
707.266	9.75
708.02	6.75
708.774	9.75
709.527	7.75
710.28	8.75
711.034	7.75
711.787	7.75
712.54	9.75
713.293	8.75
714.046	8.75
714.799	7.75
715.552	8.75
716.305	8.75
717.058	8.75
717.81	8.75
718.563	7.75
719.315	11.75
720.068	8.75
720.82	11.75
721.573	9.75
722.325	7.75
723.077	6.75
723.829	9.75
724.581	10.75
725.333	8.75
726.085	8.75
726.836	8.75
727.588	9.75
728.34	11.75
729.091	9.75
729.843	9.75
730.594	9.75
731.346	11.75
732.097	10.75
732.848	6.75
733.599	13.75
734.35	10.75
735.101	10.75
735.852	10.75
736.603	9.75
737.354	10.75
738.104	8.75
738.855	10.75
739.605	8.75
740.356	10.75
741.106	12.75
741.856	9.75
742.607	13.75
743.357	15.75
744.107	10.75
744.857	11.75
745.607	9.75
746.357	12.75
747.106	11.75
747.856	12.75
748.606	11.75
749.355	10.75
750.105	11.75
750.854	12.75
751.603	12.75
752.353	12.75
753.102	13.75
753.851	11.75
754.6	11.75
755.349	13.75
756.098	13.75
756.847	13.75
757.595	14.75
758.344	11.75
759.093	13.75
759.841	14.75
760.589	16.75
761.338	11.75
762.086	12.75
762.834	14.75
763.582	14.75
764.331	14.75
765.079	14.75
765.826	15.75
766.574	13.75
767.322	13.75
768.07	16.75
768.817	16.75
769.565	16.75
770.312	15.75
771.06	15.75
771.807	14.75
772.554	16.75
773.302	18.75
774.049	17.75
774.796	19.75
775.543	15.75
776.29	17.75
777.036	17.75
777.783	16.75
778.53	17.75
779.276	17.75
780.023	15.75
780.769	16.75
781.516	17.75
782.262	17.75
783.008	17.75
783.754	16.75
784.5	17.75
785.246	16.75
785.992	17.75
786.738	17.75
787.484	15.75
788.23	19.75
788.975	15.75
789.721	15.75
790.466	18.75
791.212	17.75
791.957	16.75
792.702	15.75
793.447	15.75
794.193	14.75
794.938	17.75
795.683	15.75
796.427	17.75
797.172	15.75
797.917	15.75
798.662	12.75
799.406	14.75
800.151	13.75
800.895	12.75
801.64	13.75
802.384	11.75
803.128	11.75
803.872	11.75
804.616	11.75
805.36	11.75
806.104	11.75
806.848	8.75
807.592	11.75
808.336	12.75
809.079	10.75
809.823	12.75
810.566	9.75
811.31	9.75
812.053	10.75
812.796	9.75
813.539	9.75
814.283	10.75
815.026	7.75
815.769	9.75
816.511	9.75
817.254	8.75
817.997	8.75
818.74	8.75
819.482	9.75
820.225	8.75
820.967	8.75
821.71	7.75
822.452	8.75
823.194	7.75
823.936	8.75
824.678	8.75
825.42	7.75
826.162	6.75
826.904	8.75
827.646	7.75
828.388	7.75
829.129	6.75
829.871	6.75
830.612	5.75
831.354	7.75
832.095	6.75
832.836	6.75
833.577	8.75
834.319	5.75
835.06	6.75
835.801	5.75
836.542	7.75
837.282	6.75
838.023	5.75
838.764	6.75
839.504	5.75
840.245	4.75
840.985	6.75
841.726	6.75
842.466	5.75
843.206	6.75
843.946	5.75
844.687	6.75
845.427	8.75
846.166	6.75
846.906	4.75
847.646	6.75
848.386	6.75
849.125	5.75
849.865	3.75
850.605	4.75
851.344	7.75
852.083	2.75
852.823	3.75
853.562	4.75
854.301	5.75
855.04	4.75
855.779	4.75
856.518	4.75
857.257	1.75
857.995	4.75
858.734	4.75
859.473	3.75
860.211	4.75
860.95	4.75
861.688	5.75
862.426	6.75
863.165	4.75
863.903	5.75
864.641	3.75
865.379	6.75
866.117	2.75
866.855	4.75
867.593	3.75
868.33	4.75
869.068	4.75
869.806	1.75
870.543	3.75
871.28	4.75
872.018	2.75
872.755	2.75
873.492	2.75
874.229	3.75
874.967	1.75
875.703	0.75
876.44	-0.25
877.177	3.75
877.914	5.75
878.651	2.75
879.387	7.75
880.124	2.75
880.86	-0.25
881.597	3.75
882.333	-0.25
883.069	2.75
883.806	1.75
884.542	2.75
885.278	-0.25
886.014	1.75
886.749	2.75
887.485	3.75
888.221	1.75
888.957	2.75
889.692	2.75
890.428	4.75
891.163	3.75
891.899	1.75
892.634	3.75
893.369	1.75
894.104	2.75
894.839	2.75
895.574	0.75
896.309	0.75
897.044	2.75
897.779	1.75
898.514	3.75
899.248	3.75
899.983	-0.25
900.717	3.75
901.452	2.75
902.186	0.75
902.92	2.75
903.654	1.75
904.389	1.75
905.123	1.75
905.857	2.75
906.59	-0.25
907.324	3.75
908.058	3.75
908.792	2.75
909.525	1.75
910.259	2.75
910.992	2.75
911.726	0.75
912.459	2.75
913.192	2.75
913.925	3.75
914.658	3.75
915.391	1.75
916.124	1.75
916.857	-1.25
917.59	1.75
918.323	0.75
919.055	0.75
919.788	1.75
920.521	-0.25
921.253	4.75
921.985	-0.25
922.718	1.75
923.45	0.75
924.182	0.75
924.914	0.75
925.646	3.75
926.378	0.75
927.11	3.75
927.841	0.75
928.573	3.75
929.305	-0.25
930.036	1.75
930.768	0.75
931.499	1.75
932.23	2.75
932.962	0.75
933.693	1.75
934.424	-0.25
935.155	1.75
935.886	1.75
936.617	-0.25
937.348	1.75
938.078	0.75
938.809	0.75
939.54	-0.25
940.27	1.75
941.001	-0.25
941.731	-0.25
942.461	1.75
943.191	0.75
943.922	0.75
944.652	0.75
945.382	1.75
946.112	0.75
946.841	-0.25
947.571	1.75
948.301	1.75
949.031	1.75
949.76	2.75
950.49	0.75
951.219	-0.25
951.948	0.75
952.678	2.75
953.407	1.75
954.136	2.75
954.865	1.75
955.594	1.75
956.323	1.75
957.052	-0.25
957.78	1.75
958.509	2.75
959.238	1.75
959.966	0.75
960.695	-0.25
961.423	0.75
962.151	0.75
962.88	1.75
963.608	2.75
964.336	-0.25
965.064	1.75
965.792	-0.25
966.52	1.75
967.247	1.75
967.975	0.75
968.703	-0.25
969.43	0.75
970.158	2.75
970.885	2.75
971.613	0.75
972.34	1.75
973.067	3.75
973.794	-0.25
974.521	-1.25
975.248	2.75
975.975	2.75
976.702	1.75
977.429	-1.25
978.156	2.75
978.882	0.75
979.609	-0.25
980.335	2.75
981.062	4.75
981.788	-0.25
982.514	1.75
983.24	0.75
983.967	0.75
984.693	-0.25
985.419	1.75
986.144	0.75
986.87	1.75
987.596	2.75
988.322	2.75
989.047	-0.25
989.773	-0.25
990.498	2.75
991.224	0.75
991.949	0.75
992.674	1.75
993.399	-0.25
994.124	2.75
994.849	1.75
995.574	1.75
996.299	0.75
997.024	-0.25
997.749	3.75
998.473	1.75
999.198	2.75
999.922	3.75
1000.647	-0.25
1001.371	3.75
1002.095	-0.25
1002.82	-1.25
1003.544	-1.25
1004.268	6.75
1004.992	3.75
1005.716	5.75
1006.439	6.75
1007.163	7.75
1007.887	8.75
1008.611	0.75
1009.334	-0.25
1010.058	1.75
1010.781	-0.25
1011.504	-0.25
1012.228	0.75
1012.951	0.75
1013.674	-0.25
1014.397	-1.25
1015.12	-0.25
