节点500_705_QEPB04081__524__20-53-20-741.txt的数据

Date: Wed Nov 12 20:53:20 CST 2025
User: PC
Spectrometer: QEPB0408
触发模式: 0
积分时间 (秒): 1.000000E-2
Scans to average: 1
启用暗噪声校正: true
启用非线性校正: false
滑动平均宽度: 0
X轴模式: Wavelengths
Number of Pixels in Spectrum: 1044
>>>>>Begin Spectral Data<<<<<
220.843	3.88
221.644	6.88
222.444	6.88
223.244	5.88
224.045	6.88
224.845	4.88
225.645	7.88
226.445	8.88
227.245	6.88
228.045	7.88
228.845	7.88
229.645	4.88
230.444	8.88
231.244	8.88
232.043	7.88
232.843	6.88
233.642	9.88
234.442	8.88
235.241	8.88
236.04	8.88
236.839	9.88
237.638	10.88
238.437	8.88
239.236	8.88
240.035	13.88
240.833	11.88
241.632	10.88
242.43	10.88
243.229	10.88
244.027	10.88
244.826	10.88
245.624	12.88
246.422	14.88
247.22	13.88
248.018	14.88
248.816	14.88
249.614	14.88
250.412	14.88
251.21	13.88
252.007	15.88
252.805	15.88
253.602	17.88
254.4	14.88
255.197	17.88
255.994	17.88
256.791	16.88
257.589	18.88
258.386	17.88
259.183	18.88
259.979	18.88
260.776	22.88
261.573	18.88
262.37	21.88
263.166	21.88
263.963	21.88
264.759	23.88
265.556	22.88
266.352	21.88
267.148	25.88
267.944	25.88
268.74	25.88
269.536	24.88
270.332	26.88
271.128	29.88
271.924	28.88
272.719	28.88
273.515	29.88
274.311	29.88
275.106	28.88
275.901	30.88
276.697	30.88
277.492	34.88
278.287	32.88
279.082	33.88
279.877	30.88
280.672	30.88
281.467	30.88
282.262	31.88
283.056	34.88
283.851	31.88
284.646	34.88
285.44	31.88
286.234	34.88
287.029	30.88
287.823	32.88
288.617	32.88
289.411	30.88
290.205	30.88
290.999	29.88
291.793	29.88
292.587	28.88
293.381	28.88
294.174	29.88
294.968	27.88
295.761	29.88
296.555	24.88
297.348	24.88
298.141	24.88
298.935	31.88
299.728	24.88
300.521	26.88
301.314	25.88
302.107	22.88
302.899	22.88
303.692	19.88
304.485	23.88
305.277	24.88
306.07	22.88
306.862	22.88
307.655	19.88
308.447	21.88
309.239	20.88
310.031	18.88
310.823	21.88
311.615	18.88
312.407	13.88
313.199	19.88
313.991	16.88
314.783	17.88
315.574	13.88
316.366	14.88
317.157	14.88
317.949	15.88
318.74	13.88
319.531	12.88
320.322	12.88
321.113	12.88
321.904	13.88
322.695	12.88
323.486	14.88
324.277	12.88
325.068	12.88
325.858	14.88
326.649	8.88
327.439	12.88
328.23	13.88
329.02	11.88
329.81	11.88
330.6	10.88
331.391	12.88
332.181	11.88
332.971	12.88
333.76	12.88
334.55	11.88
335.34	10.88
336.13	10.88
336.919	10.88
337.709	10.88
338.498	10.88
339.287	12.88
340.077	9.88
340.866	11.88
341.655	10.88
342.444	11.88
343.233	10.88
344.022	8.88
344.811	10.88
345.6	10.88
346.388	11.88
347.177	10.88
347.965	10.88
348.754	9.88
349.542	9.88
350.33	11.88
351.119	9.88
351.907	10.88
352.695	6.88
353.483	9.88
354.271	9.88
355.059	10.88
355.846	10.88
356.634	9.88
357.422	8.88
358.209	9.88
358.997	10.88
359.784	10.88
360.571	9.88
361.359	9.88
362.146	7.88
362.933	9.88
363.72	8.88
364.507	9.88
365.294	10.88
366.081	9.88
366.867	8.88
367.654	7.88
368.44	6.88
369.227	9.88
370.013	10.88
370.8	9.88
371.586	9.88
372.372	8.88
373.158	8.88
373.944	8.88
374.73	8.88
375.516	6.88
376.302	8.88
377.088	9.88
377.873	5.88
378.659	10.88
379.445	8.88
380.23	8.88
381.015	10.88
381.801	8.88
382.586	8.88
383.371	7.88
384.156	9.88
384.941	9.88
385.726	11.88
386.511	11.88
387.296	8.88
388.08	12.88
388.865	7.88
389.649	10.88
390.434	7.88
391.218	10.88
392.003	11.88
392.787	10.88
393.571	9.88
394.355	11.88
395.139	13.88
395.923	10.88
396.707	10.88
397.491	10.88
398.274	10.88
399.058	12.88
399.842	11.88
400.625	9.88
401.408	11.88
402.192	13.88
402.975	11.88
403.758	12.88
404.541	14.88
405.324	11.88
406.107	13.88
406.89	12.88
407.673	14.88
408.456	13.88
409.238	12.88
410.021	14.88
410.803	14.88
411.586	16.88
412.368	14.88
413.151	15.88
413.933	17.88
414.715	14.88
415.497	17.88
416.279	18.88
417.061	14.88
417.843	18.88
418.624	16.88
419.406	16.88
420.188	21.88
420.969	18.88
421.751	17.88
422.532	22.88
423.313	23.88
424.095	22.88
424.876	24.88
425.657	23.88
426.438	22.88
427.219	26.88
428	25.88
428.78	29.88
429.561	25.88
430.342	30.88
431.122	30.88
431.903	28.88
432.683	32.88
433.464	34.88
434.244	36.88
435.024	40.88
435.804	36.88
436.584	45.88
437.364	44.88
438.144	46.88
438.924	50.88
439.704	57.88
440.483	58.88
441.263	63.88
442.042	67.88
442.822	72.88
443.601	76.88
444.38	80.88
445.16	89.88
445.939	101.88
446.718	105.88
447.497	117.88
448.276	125.88
449.054	139.88
449.833	154.88
450.612	164.88
451.391	182.88
452.169	202.88
452.948	228.88
453.726	248.88
454.504	280.88
455.282	308.88
456.061	345.88
456.839	385.88
457.617	435.88
458.395	473.88
459.172	532.88
459.95	595.88
460.728	667.88
461.506	735.88
462.283	822.88
463.061	910.88
463.838	1004.88
464.615	1118.88
465.393	1248.88
466.17	1369.88
466.947	1526.88
467.724	1687.88
468.501	1858.88
469.278	2051.88
470.055	2262.88
470.831	2484.88
471.608	2748.88
472.385	3023.88
473.161	3310.88
473.938	3634.88
474.714	3978.88
475.49	4362.88
476.266	4744.88
477.043	5180.88
477.819	5660.88
478.595	6148.88
479.371	6651.88
480.146	7271.88
480.922	7874.88
481.698	8557.88
482.473	9276.88
483.249	10088.88
484.024	10880.88
484.8	11738.88
485.575	12666.88
486.35	13729.88
487.126	14814.88
487.901	15952.88
488.676	17190.88
489.451	18467.88
490.225	19828.88
491	21247.88
491.775	22644.88
492.55	24249.88
493.324	25822.88
494.099	27384.88
494.873	28973.88
495.647	30701.88
496.422	32256.88
497.196	33931.88
497.97	35528.88
498.744	36931.88
499.518	38497.88
500.292	39848.88
501.066	40970.88
501.839	41917.88
502.613	42790.88
503.387	43613.88
504.16	44214.88
504.934	44558.88
505.707	44646.88
506.48	44480.88
507.253	44221.88
508.027	43919.88
508.8	43218.88
509.573	42445.88
510.346	41526.88
511.118	40791.88
511.891	39735.88
512.664	38262.88
513.437	37036.88
514.209	35784.88
514.982	34465.88
515.754	33138.88
516.526	31867.88
517.298	30608.88
518.071	29525.88
518.843	28370.88
519.615	27181.88
520.387	26237.88
521.159	25124.88
521.93	24044.88
522.702	23107.88
523.474	22142.88
524.245	21218.88
525.017	20414.88
525.788	19526.88
526.56	18716.88
527.331	17962.88
528.102	17008.88
528.873	16231.88
529.644	15449.88
530.415	14775.88
531.186	14103.88
531.957	13405.88
532.728	12742.88
533.498	12066.88
534.269	11438.88
535.039	10829.88
535.81	10258.88
536.58	9737.88
537.351	9163.88
538.121	8736.88
538.891	8217.88
539.661	7816.88
540.431	7342.88
541.201	7027.88
541.971	6700.88
542.741	6293.88
543.51	5962.88
544.28	5696.88
545.05	5381.88
545.819	5147.88
546.588	4936.88
547.358	4672.88
548.127	4475.88
548.896	4223.88
549.665	4033.88
550.434	3838.88
551.203	3642.88
551.972	3427.88
552.741	3269.88
553.51	3068.88
554.278	2908.88
555.047	2759.88
555.815	2601.88
556.584	2467.88
557.352	2325.88
558.121	2188.88
558.889	2086.88
559.657	1960.88
560.425	1853.88
561.193	1760.88
561.961	1672.88
562.729	1569.88
563.496	1496.88
564.264	1413.88
565.032	1334.88
565.799	1255.88
566.567	1185.88
567.334	1120.88
568.101	1057.88
568.869	1004.88
569.636	946.88
570.403	893.88
571.17	833.88
571.937	797.88
572.704	753.88
573.471	711.88
574.237	667.88
575.004	621.88
575.771	596.88
576.537	560.88
577.303	530.88
578.07	509.88
578.836	474.88
579.602	444.88
580.368	428.88
581.134	414.88
581.9	384.88
582.666	368.88
583.432	351.88
584.198	334.88
584.964	314.88
585.729	298.88
586.495	277.88
587.26	266.88
588.025	257.88
588.791	236.88
589.556	222.88
590.321	211.88
591.086	202.88
591.851	196.88
592.616	187.88
593.381	174.88
594.146	172.88
594.911	160.88
595.675	155.88
596.44	150.88
597.204	143.88
597.969	135.88
598.733	126.88
599.497	127.88
600.261	118.88
601.025	110.88
601.79	108.88
602.553	103.88
603.317	98.88
604.081	97.88
604.845	92.88
605.609	87.88
606.372	81.88
607.136	84.88
607.899	74.88
608.662	76.88
609.426	70.88
610.189	71.88
610.952	64.88
611.715	65.88
612.478	60.88
613.241	59.88
614.004	56.88
614.767	55.88
615.529	55.88
616.292	52.88
617.055	48.88
617.817	47.88
618.579	46.88
619.342	47.88
620.104	42.88
620.866	42.88
621.628	42.88
622.39	37.88
623.152	37.88
623.914	34.88
624.676	35.88
625.438	32.88
626.199	32.88
626.961	30.88
627.722	26.88
628.484	31.88
629.245	29.88
630.006	29.88
630.768	27.88
631.529	26.88
632.29	28.88
633.051	24.88
633.812	25.88
634.573	23.88
635.333	23.88
636.094	23.88
636.855	20.88
637.615	21.88
638.376	18.88
639.136	20.88
639.896	20.88
640.657	20.88
641.417	18.88
642.177	14.88
642.937	15.88
643.697	17.88
644.457	17.88
645.216	16.88
645.976	16.88
646.736	14.88
647.495	14.88
648.255	16.88
649.014	16.88
649.774	12.88
650.533	12.88
651.292	12.88
652.051	14.88
652.81	12.88
653.569	15.88
654.328	11.88
655.087	9.88
655.846	14.88
656.604	11.88
657.363	12.88
658.121	14.88
658.88	9.88
659.638	12.88
660.397	11.88
661.155	10.88
661.913	8.88
662.671	10.88
663.429	9.88
664.187	7.88
664.945	12.88
665.703	10.88
666.46	11.88
667.218	7.88
667.976	10.88
668.733	12.88
669.49	7.88
670.248	11.88
671.005	8.88
671.762	10.88
672.519	8.88
673.276	9.88
674.033	7.88
674.79	7.88
675.547	9.88
676.304	8.88
677.06	6.88
677.817	9.88
678.574	6.88
679.33	9.88
680.086	7.88
680.843	8.88
681.599	7.88
682.355	7.88
683.111	7.88
683.867	7.88
684.623	7.88
685.379	8.88
686.135	6.88
686.89	8.88
687.646	4.88
688.402	7.88
689.157	5.88
689.912	6.88
690.668	6.88
691.423	6.88
692.178	6.88
692.933	6.88
693.688	7.88
694.443	7.88
695.198	8.88
695.953	8.88
696.708	5.88
697.462	6.88
698.217	4.88
698.972	7.88
699.726	6.88
700.48	7.88
701.235	8.88
701.989	6.88
702.743	6.88
703.497	7.88
704.251	6.88
705.005	8.88
705.759	5.88
706.513	5.88
707.266	7.88
708.02	8.88
708.774	5.88
709.527	9.88
710.28	7.88
711.034	6.88
711.787	7.88
712.54	6.88
713.293	9.88
714.046	5.88
714.799	7.88
715.552	7.88
716.305	5.88
717.058	8.88
717.81	7.88
718.563	8.88
719.315	4.88
720.068	6.88
720.82	7.88
721.573	5.88
722.325	8.88
723.077	5.88
723.829	6.88
724.581	6.88
725.333	8.88
726.085	7.88
726.836	8.88
727.588	8.88
728.34	6.88
729.091	7.88
729.843	6.88
730.594	6.88
731.346	8.88
732.097	8.88
732.848	7.88
733.599	9.88
734.35	8.88
735.101	9.88
735.852	9.88
736.603	11.88
737.354	8.88
738.104	9.88
738.855	8.88
739.605	9.88
740.356	9.88
741.106	9.88
741.856	10.88
742.607	12.88
743.357	7.88
744.107	7.88
744.857	7.88
745.607	8.88
746.357	8.88
747.106	10.88
747.856	8.88
748.606	9.88
749.355	10.88
750.105	8.88
750.854	9.88
751.603	9.88
752.353	8.88
753.102	11.88
753.851	7.88
754.6	10.88
755.349	8.88
756.098	11.88
756.847	12.88
757.595	10.88
758.344	8.88
759.093	7.88
759.841	9.88
760.589	8.88
761.338	12.88
762.086	10.88
762.834	9.88
763.582	11.88
764.331	11.88
765.079	12.88
765.826	12.88
766.574	12.88
767.322	14.88
768.07	9.88
768.817	13.88
769.565	12.88
770.312	12.88
771.06	13.88
771.807	12.88
772.554	11.88
773.302	11.88
774.049	13.88
774.796	14.88
775.543	12.88
776.29	14.88
777.036	13.88
777.783	15.88
778.53	12.88
779.276	13.88
780.023	14.88
780.769	14.88
781.516	15.88
782.262	16.88
783.008	12.88
783.754	13.88
784.5	15.88
785.246	15.88
785.992	13.88
786.738	15.88
787.484	15.88
788.23	14.88
788.975	11.88
789.721	13.88
790.466	13.88
791.212	11.88
791.957	15.88
792.702	12.88
793.447	12.88
794.193	13.88
794.938	10.88
795.683	12.88
796.427	10.88
797.172	13.88
797.917	10.88
798.662	13.88
799.406	7.88
800.151	11.88
800.895	12.88
801.64	10.88
802.384	14.88
803.128	11.88
803.872	12.88
804.616	11.88
805.36	7.88
806.104	8.88
806.848	7.88
807.592	9.88
808.336	11.88
809.079	11.88
809.823	9.88
810.566	8.88
811.31	9.88
812.053	8.88
812.796	9.88
813.539	6.88
814.283	8.88
815.026	7.88
815.769	10.88
816.511	6.88
817.254	6.88
817.997	6.88
818.74	8.88
819.482	6.88
820.225	6.88
820.967	7.88
821.71	9.88
822.452	7.88
823.194	6.88
823.936	3.88
824.678	7.88
825.42	8.88
826.162	6.88
826.904	8.88
827.646	7.88
828.388	3.88
829.129	6.88
829.871	5.88
830.612	6.88
831.354	6.88
832.095	2.88
832.836	7.88
833.577	4.88
834.319	6.88
835.06	6.88
835.801	5.88
836.542	5.88
837.282	6.88
838.023	5.88
838.764	7.88
839.504	3.88
840.245	5.88
840.985	6.88
841.726	7.88
842.466	5.88
843.206	3.88
843.946	3.88
844.687	2.88
845.427	2.88
846.166	4.88
846.906	4.88
847.646	4.88
848.386	3.88
849.125	3.88
849.865	6.88
850.605	2.88
851.344	4.88
852.083	4.88
852.823	1.88
853.562	3.88
854.301	5.88
855.04	0.88
855.779	3.88
856.518	4.88
857.257	3.88
857.995	2.88
858.734	4.88
859.473	2.88
860.211	2.88
860.95	2.88
861.688	4.88
862.426	3.88
863.165	2.88
863.903	2.88
864.641	1.88
865.379	1.88
866.117	2.88
866.855	1.88
867.593	1.88
868.33	1.88
869.068	1.88
869.806	1.88
870.543	1.88
871.28	2.88
872.018	2.88
872.755	2.88
873.492	1.88
874.229	3.88
874.967	2.88
875.703	0.88
876.44	2.88
877.177	1.88
877.914	2.88
878.651	2.88
879.387	-0.12
880.124	0.88
880.86	1.88
881.597	0.88
882.333	0.88
883.069	1.88
883.806	0.88
884.542	1.88
885.278	2.88
886.014	2.88
886.749	-0.12
887.485	1.88
888.221	0.88
888.957	0.88
889.692	1.88
890.428	0.88
891.163	2.88
891.899	0.88
892.634	1.88
893.369	1.88
894.104	1.88
894.839	0.88
895.574	2.88
896.309	1.88
897.044	1.88
897.779	1.88
898.514	-1.12
899.248	1.88
899.983	1.88
900.717	2.88
901.452	1.88
902.186	-3.12
902.92	2.88
903.654	0.88
904.389	-1.12
905.123	-0.12
905.857	0.88
906.59	0.88
907.324	-0.12
908.058	-0.12
908.792	0.88
909.525	1.88
910.259	0.88
910.992	0.88
911.726	0.88
912.459	1.88
913.192	1.88
913.925	-0.12
914.658	0.88
915.391	0.88
916.124	1.88
916.857	1.88
917.59	-0.12
918.323	-0.12
919.055	0.88
919.788	-0.12
920.521	1.88
921.253	1.88
921.985	-1.12
922.718	-1.12
923.45	1.88
924.182	0.88
924.914	-0.12
925.646	0.88
926.378	-1.12
927.11	0.88
927.841	0.88
928.573	-1.12
929.305	0.88
930.036	0.88
930.768	0.88
931.499	-0.12
932.23	-1.12
932.962	-0.12
933.693	-0.12
934.424	-1.12
935.155	-0.12
935.886	-1.12
936.617	0.88
937.348	-0.12
938.078	-1.12
938.809	0.88
939.54	-1.12
940.27	0.88
941.001	-0.12
941.731	-0.12
942.461	-0.12
943.191	-0.12
943.922	0.88
944.652	-0.12
945.382	-1.12
946.112	0.88
946.841	0.88
947.571	-1.12
948.301	1.88
949.031	-0.12
949.76	-1.12
950.49	0.88
951.219	-0.12
951.948	-1.12
952.678	-2.12
953.407	0.88
954.136	0.88
954.865	-1.12
955.594	-1.12
956.323	-3.12
957.052	0.88
957.78	-1.12
958.509	-0.12
959.238	-0.12
959.966	-1.12
960.695	1.88
961.423	-1.12
962.151	0.88
962.88	-0.12
963.608	0.88
964.336	0.88
965.064	0.88
965.792	2.88
966.52	0.88
967.247	0.88
967.975	1.88
968.703	-0.12
969.43	-0.12
970.158	0.88
970.885	0.88
971.613	-1.12
972.34	0.88
973.067	-0.12
973.794	0.88
974.521	1.88
975.248	0.88
975.975	1.88
976.702	-0.12
977.429	1.88
978.156	0.88
978.882	-0.12
979.609	0.88
980.335	2.88
981.062	0.88
981.788	0.88
982.514	0.88
983.24	1.88
983.967	-0.12
984.693	-1.12
985.419	-0.12
986.144	-1.12
986.87	0.88
987.596	0.88
988.322	0.88
989.047	-1.12
989.773	-0.12
990.498	-0.12
991.224	0.88
991.949	-1.12
992.674	-0.12
993.399	1.88
994.124	-1.12
994.849	-0.12
995.574	0.88
996.299	-1.12
997.024	0.88
997.749	0.88
998.473	-0.12
999.198	0.88
999.922	0.88
1000.647	-0.12
1001.371	2.88
1002.095	0.88
1002.82	-1.12
1003.544	-3.12
1004.268	3.88
1004.992	2.88
1005.716	4.88
1006.439	2.88
1007.163	4.88
1007.887	4.88
1008.611	-1.12
1009.334	-0.12
1010.058	-1.12
1010.781	-0.12
1011.504	-0.12
1012.228	-0.12
1012.951	1.88
1013.674	0.88
1014.397	-3.12
1015.12	0.88
