节点500_705_QEPB04081__132__20-48-05-073.txt的数据

Date: Wed Nov 12 20:48:05 CST 2025
User: PC
Spectrometer: QEPB0408
触发模式: 0
积分时间 (秒): 1.000000E-2
Scans to average: 1
启用暗噪声校正: true
启用非线性校正: false
滑动平均宽度: 0
X轴模式: Wavelengths
Number of Pixels in Spectrum: 1044
>>>>>Begin Spectral Data<<<<<
220.843	5.75
221.644	7.75
222.444	6.75
223.244	7.75
224.045	7.75
224.845	5.75
225.645	5.75
226.445	5.75
227.245	7.75
228.045	5.75
228.845	8.75
229.645	7.75
230.444	7.75
231.244	9.75
232.043	7.75
232.843	6.75
233.642	8.75
234.442	10.75
235.241	10.75
236.04	11.75
236.839	10.75
237.638	9.75
238.437	10.75
239.236	9.75
240.035	13.75
240.833	12.75
241.632	11.75
242.43	13.75
243.229	12.75
244.027	10.75
244.826	15.75
245.624	15.75
246.422	13.75
247.22	14.75
248.018	16.75
248.816	14.75
249.614	16.75
250.412	16.75
251.21	15.75
252.007	19.75
252.805	16.75
253.602	19.75
254.4	16.75
255.197	20.75
255.994	20.75
256.791	19.75
257.589	25.75
258.386	23.75
259.183	23.75
259.979	21.75
260.776	21.75
261.573	24.75
262.37	26.75
263.166	28.75
263.963	26.75
264.759	27.75
265.556	29.75
266.352	26.75
267.148	30.75
267.944	27.75
268.74	31.75
269.536	28.75
270.332	31.75
271.128	34.75
271.924	33.75
272.719	30.75
273.515	36.75
274.311	31.75
275.106	34.75
275.901	33.75
276.697	32.75
277.492	34.75
278.287	36.75
279.082	37.75
279.877	36.75
280.672	36.75
281.467	35.75
282.262	36.75
283.056	33.75
283.851	36.75
284.646	36.75
285.44	36.75
286.234	35.75
287.029	33.75
287.823	36.75
288.617	30.75
289.411	32.75
290.205	33.75
290.999	32.75
291.793	30.75
292.587	28.75
293.381	32.75
294.174	29.75
294.968	27.75
295.761	29.75
296.555	24.75
297.348	30.75
298.141	27.75
298.935	30.75
299.728	24.75
300.521	22.75
301.314	24.75
302.107	25.75
302.899	25.75
303.692	22.75
304.485	22.75
305.277	21.75
306.07	21.75
306.862	23.75
307.655	21.75
308.447	21.75
309.239	21.75
310.031	17.75
310.823	19.75
311.615	19.75
312.407	17.75
313.199	17.75
313.991	17.75
314.783	14.75
315.574	17.75
316.366	17.75
317.157	14.75
317.949	16.75
318.74	13.75
319.531	13.75
320.322	13.75
321.113	17.75
321.904	11.75
322.695	11.75
323.486	15.75
324.277	14.75
325.068	12.75
325.858	14.75
326.649	9.75
327.439	13.75
328.23	10.75
329.02	11.75
329.81	11.75
330.6	11.75
331.391	12.75
332.181	11.75
332.971	13.75
333.76	13.75
334.55	12.75
335.34	10.75
336.13	10.75
336.919	10.75
337.709	12.75
338.498	9.75
339.287	9.75
340.077	12.75
340.866	11.75
341.655	12.75
342.444	12.75
343.233	12.75
344.022	10.75
344.811	12.75
345.6	12.75
346.388	10.75
347.177	9.75
347.965	12.75
348.754	11.75
349.542	10.75
350.33	9.75
351.119	12.75
351.907	11.75
352.695	11.75
353.483	9.75
354.271	11.75
355.059	11.75
355.846	10.75
356.634	10.75
357.422	10.75
358.209	10.75
358.997	10.75
359.784	11.75
360.571	9.75
361.359	10.75
362.146	10.75
362.933	11.75
363.72	11.75
364.507	10.75
365.294	10.75
366.081	8.75
366.867	12.75
367.654	8.75
368.44	9.75
369.227	10.75
370.013	8.75
370.8	8.75
371.586	6.75
372.372	10.75
373.158	10.75
373.944	10.75
374.73	10.75
375.516	9.75
376.302	10.75
377.088	8.75
377.873	10.75
378.659	9.75
379.445	10.75
380.23	12.75
381.015	9.75
381.801	9.75
382.586	8.75
383.371	10.75
384.156	10.75
384.941	11.75
385.726	10.75
386.511	10.75
387.296	12.75
388.08	8.75
388.865	9.75
389.649	10.75
390.434	10.75
391.218	11.75
392.003	9.75
392.787	9.75
393.571	12.75
394.355	11.75
395.139	10.75
395.923	11.75
396.707	13.75
397.491	12.75
398.274	15.75
399.058	14.75
399.842	14.75
400.625	16.75
401.408	12.75
402.192	14.75
402.975	12.75
403.758	15.75
404.541	16.75
405.324	12.75
406.107	16.75
406.89	13.75
407.673	16.75
408.456	16.75
409.238	16.75
410.021	17.75
410.803	17.75
411.586	18.75
412.368	17.75
413.151	16.75
413.933	20.75
414.715	16.75
415.497	21.75
416.279	18.75
417.061	18.75
417.843	16.75
418.624	18.75
419.406	20.75
420.188	20.75
420.969	23.75
421.751	21.75
422.532	18.75
423.313	25.75
424.095	23.75
424.876	26.75
425.657	22.75
426.438	28.75
427.219	26.75
428	24.75
428.78	28.75
429.561	30.75
430.342	32.75
431.122	30.75
431.903	32.75
432.683	37.75
433.464	35.75
434.244	37.75
435.024	39.75
435.804	41.75
436.584	40.75
437.364	44.75
438.144	48.75
438.924	50.75
439.704	53.75
440.483	54.75
441.263	60.75
442.042	64.75
442.822	64.75
443.601	72.75
444.38	75.75
445.16	86.75
445.939	94.75
446.718	97.75
447.497	108.75
448.276	116.75
449.054	129.75
449.833	136.75
450.612	152.75
451.391	176.75
452.169	188.75
452.948	211.75
453.726	227.75
454.504	256.75
455.282	277.75
456.061	309.75
456.839	344.75
457.617	386.75
458.395	436.75
459.172	492.75
459.95	546.75
460.728	604.75
461.506	688.75
462.283	759.75
463.061	850.75
463.838	947.75
464.615	1047.75
465.393	1178.75
466.17	1322.75
466.947	1472.75
467.724	1627.75
468.501	1812.75
469.278	2042.75
470.055	2247.75
470.831	2464.75
471.608	2756.75
472.385	3031.75
473.161	3362.75
473.938	3700.75
474.714	4066.75
475.49	4472.75
476.266	4961.75
477.043	5428.75
477.819	5960.75
478.595	6536.75
479.371	7155.75
480.146	7840.75
480.922	8622.75
481.698	9386.75
482.473	10310.75
483.249	11212.75
484.024	12141.75
484.8	13257.75
485.575	14425.75
486.35	15677.75
487.126	17058.75
487.901	18504.75
488.676	19971.75
489.451	21619.75
490.225	23376.75
491	25024.75
491.775	26807.75
492.55	28753.75
493.324	30535.75
494.099	32386.75
494.873	34341.75
495.647	36388.75
496.422	38286.75
497.196	40053.75
497.97	41837.75
498.744	43341.75
499.518	44946.75
500.292	46218.75
501.066	47274.75
501.839	48014.75
502.613	48662.75
503.387	49076.75
504.16	49367.75
504.934	49228.75
505.707	48970.75
506.48	48380.75
507.253	47669.75
508.027	46681.75
508.8	45602.75
509.573	44300.75
510.346	43096.75
511.118	41901.75
511.891	40399.75
512.664	38849.75
513.437	37193.75
514.209	35763.75
514.982	34269.75
515.754	32814.75
516.526	31478.75
517.298	30201.75
518.071	28984.75
518.843	27813.75
519.615	26654.75
520.387	25538.75
521.159	24562.75
521.93	23607.75
522.702	22530.75
523.474	21610.75
524.245	20634.75
525.017	19698.75
525.788	18827.75
526.56	17976.75
527.331	17205.75
528.102	16327.75
528.873	15456.75
529.644	14732.75
530.415	13997.75
531.186	13332.75
531.957	12608.75
532.728	11954.75
533.498	11289.75
534.269	10689.75
535.039	10121.75
535.81	9549.75
536.58	9010.75
537.351	8528.75
538.121	8074.75
538.891	7632.75
539.661	7276.75
540.431	6858.75
541.201	6490.75
541.971	6171.75
542.741	5818.75
543.51	5528.75
544.28	5257.75
545.05	5040.75
545.819	4801.75
546.588	4563.75
547.358	4350.75
548.127	4134.75
548.896	3917.75
549.665	3677.75
550.434	3502.75
551.203	3304.75
551.972	3150.75
552.741	2977.75
553.51	2806.75
554.278	2664.75
555.047	2484.75
555.815	2360.75
556.584	2215.75
557.352	2116.75
558.121	1986.75
558.889	1877.75
559.657	1779.75
560.425	1676.75
561.193	1584.75
561.961	1505.75
562.729	1423.75
563.496	1335.75
564.264	1263.75
565.032	1201.75
565.799	1134.75
566.567	1093.75
567.334	1014.75
568.101	953.75
568.869	912.75
569.636	853.75
570.403	812.75
571.17	754.75
571.937	717.75
572.704	677.75
573.471	653.75
574.237	611.75
575.004	574.75
575.771	537.75
576.537	506.75
577.303	483.75
578.07	448.75
578.836	423.75
579.602	405.75
580.368	388.75
581.134	369.75
581.9	344.75
582.666	325.75
583.432	319.75
584.198	290.75
584.964	286.75
585.729	275.75
586.495	259.75
587.26	244.75
588.025	235.75
588.791	215.75
589.556	206.75
590.321	193.75
591.086	183.75
591.851	178.75
592.616	166.75
593.381	162.75
594.146	155.75
594.911	146.75
595.675	140.75
596.44	130.75
597.204	133.75
597.969	122.75
598.733	119.75
599.497	116.75
600.261	106.75
601.025	98.75
601.79	99.75
602.553	94.75
603.317	88.75
604.081	86.75
604.845	79.75
605.609	82.75
606.372	81.75
607.136	76.75
607.899	71.75
608.662	66.75
609.426	63.75
610.189	61.75
610.952	62.75
611.715	57.75
612.478	55.75
613.241	53.75
614.004	55.75
614.767	53.75
615.529	48.75
616.292	48.75
617.055	47.75
617.817	47.75
618.579	39.75
619.342	42.75
620.104	43.75
620.866	43.75
621.628	38.75
622.39	37.75
623.152	34.75
623.914	33.75
624.676	32.75
625.438	31.75
626.199	29.75
626.961	33.75
627.722	29.75
628.484	29.75
629.245	28.75
630.006	26.75
630.768	27.75
631.529	26.75
632.29	23.75
633.051	24.75
633.812	22.75
634.573	23.75
635.333	22.75
636.094	24.75
636.855	17.75
637.615	22.75
638.376	19.75
639.136	18.75
639.896	20.75
640.657	19.75
641.417	18.75
642.177	18.75
642.937	17.75
643.697	20.75
644.457	13.75
645.216	16.75
645.976	16.75
646.736	15.75
647.495	14.75
648.255	13.75
649.014	16.75
649.774	12.75
650.533	14.75
651.292	14.75
652.051	15.75
652.81	12.75
653.569	12.75
654.328	11.75
655.087	10.75
655.846	12.75
656.604	9.75
657.363	11.75
658.121	13.75
658.88	14.75
659.638	12.75
660.397	14.75
661.155	10.75
661.913	12.75
662.671	8.75
663.429	8.75
664.187	9.75
664.945	12.75
665.703	6.75
666.46	10.75
667.218	10.75
667.976	9.75
668.733	8.75
669.49	9.75
670.248	9.75
671.005	10.75
671.762	9.75
672.519	9.75
673.276	9.75
674.033	8.75
674.79	9.75
675.547	9.75
676.304	9.75
677.06	9.75
677.817	8.75
678.574	10.75
679.33	8.75
680.086	5.75
680.843	7.75
681.599	7.75
682.355	6.75
683.111	9.75
683.867	7.75
684.623	6.75
685.379	8.75
686.135	7.75
686.89	9.75
687.646	5.75
688.402	8.75
689.157	6.75
689.912	6.75
690.668	6.75
691.423	6.75
692.178	6.75
692.933	6.75
693.688	6.75
694.443	5.75
695.198	4.75
695.953	8.75
696.708	7.75
697.462	5.75
698.217	7.75
698.972	7.75
699.726	7.75
700.48	3.75
701.235	7.75
701.989	8.75
702.743	8.75
703.497	5.75
704.251	7.75
705.005	8.75
705.759	5.75
706.513	7.75
707.266	8.75
708.02	8.75
708.774	6.75
709.527	6.75
710.28	7.75
711.034	7.75
711.787	9.75
712.54	6.75
713.293	9.75
714.046	7.75
714.799	9.75
715.552	5.75
716.305	5.75
717.058	7.75
717.81	7.75
718.563	8.75
719.315	8.75
720.068	6.75
720.82	7.75
721.573	3.75
722.325	7.75
723.077	8.75
723.829	6.75
724.581	9.75
725.333	8.75
726.085	7.75
726.836	8.75
727.588	6.75
728.34	10.75
729.091	8.75
729.843	10.75
730.594	7.75
731.346	8.75
732.097	9.75
732.848	11.75
733.599	10.75
734.35	9.75
735.101	9.75
735.852	8.75
736.603	6.75
737.354	9.75
738.104	8.75
738.855	9.75
739.605	12.75
740.356	11.75
741.106	9.75
741.856	9.75
742.607	10.75
743.357	10.75
744.107	10.75
744.857	10.75
745.607	12.75
746.357	11.75
747.106	12.75
747.856	11.75
748.606	10.75
749.355	13.75
750.105	11.75
750.854	12.75
751.603	11.75
752.353	9.75
753.102	11.75
753.851	10.75
754.6	11.75
755.349	13.75
756.098	11.75
756.847	14.75
757.595	13.75
758.344	13.75
759.093	12.75
759.841	11.75
760.589	13.75
761.338	10.75
762.086	14.75
762.834	12.75
763.582	12.75
764.331	12.75
765.079	14.75
765.826	12.75
766.574	15.75
767.322	14.75
768.07	15.75
768.817	16.75
769.565	13.75
770.312	13.75
771.06	16.75
771.807	15.75
772.554	15.75
773.302	14.75
774.049	14.75
774.796	16.75
775.543	17.75
776.29	14.75
777.036	15.75
777.783	15.75
778.53	17.75
779.276	16.75
780.023	16.75
780.769	16.75
781.516	14.75
782.262	15.75
783.008	17.75
783.754	14.75
784.5	14.75
785.246	14.75
785.992	13.75
786.738	18.75
787.484	14.75
788.23	13.75
788.975	13.75
789.721	15.75
790.466	15.75
791.212	15.75
791.957	12.75
792.702	15.75
793.447	15.75
794.193	10.75
794.938	12.75
795.683	16.75
796.427	12.75
797.172	13.75
797.917	13.75
798.662	10.75
799.406	10.75
800.151	10.75
800.895	11.75
801.64	11.75
802.384	12.75
803.128	13.75
803.872	11.75
804.616	13.75
805.36	9.75
806.104	10.75
806.848	11.75
807.592	9.75
808.336	10.75
809.079	11.75
809.823	7.75
810.566	10.75
811.31	9.75
812.053	10.75
812.796	7.75
813.539	9.75
814.283	8.75
815.026	5.75
815.769	8.75
816.511	8.75
817.254	9.75
817.997	5.75
818.74	9.75
819.482	8.75
820.225	6.75
820.967	6.75
821.71	5.75
822.452	7.75
823.194	6.75
823.936	6.75
824.678	7.75
825.42	5.75
826.162	7.75
826.904	7.75
827.646	8.75
828.388	4.75
829.129	5.75
829.871	6.75
830.612	5.75
831.354	6.75
832.095	4.75
832.836	5.75
833.577	5.75
834.319	7.75
835.06	4.75
835.801	5.75
836.542	6.75
837.282	5.75
838.023	6.75
838.764	4.75
839.504	5.75
840.245	5.75
840.985	5.75
841.726	5.75
842.466	4.75
843.206	6.75
843.946	4.75
844.687	3.75
845.427	5.75
846.166	4.75
846.906	4.75
847.646	5.75
848.386	2.75
849.125	1.75
849.865	3.75
850.605	4.75
851.344	2.75
852.083	7.75
852.823	5.75
853.562	3.75
854.301	6.75
855.04	2.75
855.779	2.75
856.518	2.75
857.257	4.75
857.995	5.75
858.734	2.75
859.473	4.75
860.211	-0.25
860.95	2.75
861.688	2.75
862.426	3.75
863.165	4.75
863.903	2.75
864.641	5.75
865.379	1.75
866.117	3.75
866.855	3.75
867.593	2.75
868.33	3.75
869.068	0.75
869.806	2.75
870.543	0.75
871.28	1.75
872.018	2.75
872.755	0.75
873.492	0.75
874.229	2.75
874.967	2.75
875.703	2.75
876.44	2.75
877.177	1.75
877.914	1.75
878.651	1.75
879.387	-0.25
880.124	1.75
880.86	2.75
881.597	1.75
882.333	2.75
883.069	2.75
883.806	1.75
884.542	1.75
885.278	0.75
886.014	2.75
886.749	-0.25
887.485	1.75
888.221	0.75
888.957	-0.25
889.692	2.75
890.428	-0.25
891.163	-0.25
891.899	1.75
892.634	0.75
893.369	0.75
894.104	-0.25
894.839	-0.25
895.574	-0.25
896.309	0.75
897.044	1.75
897.779	1.75
898.514	0.75
899.248	2.75
899.983	1.75
900.717	0.75
901.452	0.75
902.186	-0.25
902.92	-0.25
903.654	0.75
904.389	-0.25
905.123	2.75
905.857	-0.25
906.59	1.75
907.324	0.75
908.058	0.75
908.792	0.75
909.525	0.75
910.259	-1.25
910.992	1.75
911.726	-0.25
912.459	-1.25
913.192	-1.25
913.925	1.75
914.658	-0.25
915.391	0.75
916.124	-1.25
916.857	0.75
917.59	0.75
918.323	0.75
919.055	1.75
919.788	0.75
920.521	-1.25
921.253	-0.25
921.985	-0.25
922.718	-0.25
923.45	0.75
924.182	0.75
924.914	2.75
925.646	0.75
926.378	1.75
927.11	-0.25
927.841	0.75
928.573	0.75
929.305	-1.25
930.036	-1.25
930.768	-0.25
931.499	0.75
932.23	0.75
932.962	0.75
933.693	0.75
934.424	-0.25
935.155	-0.25
935.886	-1.25
936.617	-1.25
937.348	-1.25
938.078	1.75
938.809	-1.25
939.54	0.75
940.27	-0.25
941.001	0.75
941.731	0.75
942.461	0.75
943.191	-0.25
943.922	1.75
944.652	0.75
945.382	0.75
946.112	-1.25
946.841	0.75
947.571	0.75
948.301	-0.25
949.031	1.75
949.76	-0.25
950.49	-0.25
951.219	-2.25
951.948	1.75
952.678	0.75
953.407	1.75
954.136	-0.25
954.865	0.75
955.594	1.75
956.323	-1.25
957.052	1.75
957.78	0.75
958.509	0.75
959.238	-0.25
959.966	-0.25
960.695	-0.25
961.423	1.75
962.151	0.75
962.88	-1.25
963.608	1.75
964.336	-1.25
965.064	-1.25
965.792	1.75
966.52	-1.25
967.247	1.75
967.975	0.75
968.703	-0.25
969.43	0.75
970.158	-0.25
970.885	-1.25
971.613	0.75
972.34	-1.25
973.067	0.75
973.794	-1.25
974.521	0.75
975.248	-1.25
975.975	-1.25
976.702	2.75
977.429	0.75
978.156	-1.25
978.882	1.75
979.609	-0.25
980.335	-3.25
981.062	-1.25
981.788	1.75
982.514	0.75
983.24	1.75
983.967	2.75
984.693	0.75
985.419	1.75
986.144	-1.25
986.87	0.75
987.596	0.75
988.322	1.75
989.047	0.75
989.773	-0.25
990.498	0.75
991.224	-0.25
991.949	1.75
992.674	0.75
993.399	2.75
994.124	-2.25
994.849	-0.25
995.574	-1.25
996.299	-3.25
997.024	0.75
997.749	0.75
998.473	-0.25
999.198	-0.25
999.922	1.75
1000.647	1.75
1001.371	4.75
1002.095	-1.25
1002.82	-1.25
1003.544	-2.25
1004.268	6.75
1004.992	4.75
1005.716	5.75
1006.439	2.75
1007.163	8.75
1007.887	3.75
1008.611	0.75
1009.334	-0.25
1010.058	-1.25
1010.781	-2.25
1011.504	0.75
1012.228	-2.25
1012.951	0.75
1013.674	0.75
1014.397	-0.25
1015.12	-1.25
