节点500_705_QEPB04081__569__20-54-01-756.txt的数据

Date: Wed Nov 12 20:54:01 CST 2025
User: PC
Spectrometer: QEPB0408
触发模式: 0
积分时间 (秒): 1.000000E-2
Scans to average: 1
启用暗噪声校正: true
启用非线性校正: false
滑动平均宽度: 0
X轴模式: Wavelengths
Number of Pixels in Spectrum: 1044
>>>>>Begin Spectral Data<<<<<
220.843	5.5
221.644	7.5
222.444	4.5
223.244	6.5
224.045	8.5
224.845	6.5
225.645	8.5
226.445	6.5
227.245	5.5
228.045	9.5
228.845	7.5
229.645	9.5
230.444	8.5
231.244	10.5
232.043	10.5
232.843	8.5
233.642	8.5
234.442	12.5
235.241	10.5
236.04	9.5
236.839	11.5
237.638	8.5
238.437	9.5
239.236	10.5
240.035	10.5
240.833	13.5
241.632	9.5
242.43	11.5
243.229	11.5
244.027	13.5
244.826	10.5
245.624	13.5
246.422	13.5
247.22	13.5
248.018	12.5
248.816	12.5
249.614	14.5
250.412	14.5
251.21	14.5
252.007	18.5
252.805	16.5
253.602	16.5
254.4	18.5
255.197	16.5
255.994	17.5
256.791	17.5
257.589	18.5
258.386	20.5
259.183	18.5
259.979	21.5
260.776	21.5
261.573	24.5
262.37	19.5
263.166	22.5
263.963	26.5
264.759	27.5
265.556	25.5
266.352	23.5
267.148	25.5
267.944	26.5
268.74	27.5
269.536	23.5
270.332	26.5
271.128	29.5
271.924	27.5
272.719	28.5
273.515	27.5
274.311	27.5
275.106	31.5
275.901	33.5
276.697	31.5
277.492	30.5
278.287	31.5
279.082	34.5
279.877	30.5
280.672	30.5
281.467	30.5
282.262	30.5
283.056	30.5
283.851	31.5
284.646	32.5
285.44	32.5
286.234	29.5
287.029	30.5
287.823	32.5
288.617	33.5
289.411	30.5
290.205	31.5
290.999	31.5
291.793	32.5
292.587	29.5
293.381	31.5
294.174	27.5
294.968	27.5
295.761	26.5
296.555	25.5
297.348	23.5
298.141	29.5
298.935	27.5
299.728	25.5
300.521	26.5
301.314	24.5
302.107	25.5
302.899	24.5
303.692	23.5
304.485	24.5
305.277	21.5
306.07	23.5
306.862	21.5
307.655	23.5
308.447	22.5
309.239	23.5
310.031	18.5
310.823	20.5
311.615	17.5
312.407	18.5
313.199	18.5
313.991	15.5
314.783	15.5
315.574	14.5
316.366	16.5
317.157	14.5
317.949	16.5
318.74	17.5
319.531	14.5
320.322	14.5
321.113	13.5
321.904	15.5
322.695	14.5
323.486	15.5
324.277	12.5
325.068	12.5
325.858	17.5
326.649	12.5
327.439	13.5
328.23	13.5
329.02	10.5
329.81	13.5
330.6	14.5
331.391	14.5
332.181	12.5
332.971	13.5
333.76	13.5
334.55	11.5
335.34	11.5
336.13	11.5
336.919	8.5
337.709	13.5
338.498	10.5
339.287	11.5
340.077	5.5
340.866	14.5
341.655	12.5
342.444	11.5
343.233	13.5
344.022	8.5
344.811	9.5
345.6	13.5
346.388	13.5
347.177	11.5
347.965	11.5
348.754	11.5
349.542	10.5
350.33	11.5
351.119	12.5
351.907	14.5
352.695	11.5
353.483	6.5
354.271	12.5
355.059	11.5
355.846	12.5
356.634	9.5
357.422	12.5
358.209	10.5
358.997	10.5
359.784	11.5
360.571	10.5
361.359	9.5
362.146	10.5
362.933	10.5
363.72	10.5
364.507	8.5
365.294	12.5
366.081	10.5
366.867	9.5
367.654	9.5
368.44	9.5
369.227	11.5
370.013	9.5
370.8	10.5
371.586	7.5
372.372	10.5
373.158	10.5
373.944	11.5
374.73	8.5
375.516	8.5
376.302	11.5
377.088	10.5
377.873	8.5
378.659	11.5
379.445	11.5
380.23	8.5
381.015	9.5
381.801	11.5
382.586	8.5
383.371	9.5
384.156	11.5
384.941	9.5
385.726	11.5
386.511	11.5
387.296	12.5
388.08	10.5
388.865	10.5
389.649	11.5
390.434	10.5
391.218	11.5
392.003	10.5
392.787	11.5
393.571	13.5
394.355	15.5
395.139	12.5
395.923	11.5
396.707	11.5
397.491	11.5
398.274	12.5
399.058	14.5
399.842	13.5
400.625	15.5
401.408	13.5
402.192	12.5
402.975	13.5
403.758	12.5
404.541	17.5
405.324	15.5
406.107	13.5
406.89	14.5
407.673	14.5
408.456	15.5
409.238	15.5
410.021	12.5
410.803	14.5
411.586	15.5
412.368	19.5
413.151	18.5
413.933	17.5
414.715	18.5
415.497	19.5
416.279	18.5
417.061	20.5
417.843	18.5
418.624	18.5
419.406	18.5
420.188	18.5
420.969	19.5
421.751	19.5
422.532	22.5
423.313	24.5
424.095	23.5
424.876	24.5
425.657	23.5
426.438	26.5
427.219	27.5
428	27.5
428.78	31.5
429.561	26.5
430.342	31.5
431.122	32.5
431.903	33.5
432.683	36.5
433.464	37.5
434.244	34.5
435.024	40.5
435.804	37.5
436.584	45.5
437.364	45.5
438.144	52.5
438.924	50.5
439.704	57.5
440.483	58.5
441.263	62.5
442.042	65.5
442.822	75.5
443.601	76.5
444.38	86.5
445.16	86.5
445.939	99.5
446.718	110.5
447.497	118.5
448.276	128.5
449.054	143.5
449.833	154.5
450.612	175.5
451.391	194.5
452.169	213.5
452.948	232.5
453.726	256.5
454.504	292.5
455.282	312.5
456.061	358.5
456.839	397.5
457.617	433.5
458.395	495.5
459.172	537.5
459.95	601.5
460.728	671.5
461.506	737.5
462.283	837.5
463.061	916.5
463.838	1015.5
464.615	1139.5
465.393	1251.5
466.17	1379.5
466.947	1535.5
467.724	1694.5
468.501	1885.5
469.278	2056.5
470.055	2278.5
470.831	2507.5
471.608	2759.5
472.385	2999.5
473.161	3322.5
473.938	3620.5
474.714	3971.5
475.49	4353.5
476.266	4719.5
477.043	5165.5
477.819	5611.5
478.595	6076.5
479.371	6624.5
480.146	7188.5
480.922	7801.5
481.698	8468.5
482.473	9165.5
483.249	9926.5
484.024	10737.5
484.8	11547.5
485.575	12455.5
486.35	13492.5
487.126	14561.5
487.901	15699.5
488.676	16795.5
489.451	18061.5
490.225	19402.5
491	20770.5
491.775	22155.5
492.55	23601.5
493.324	25108.5
494.099	26715.5
494.873	28291.5
495.647	29862.5
496.422	31547.5
497.196	33147.5
497.97	34725.5
498.744	36121.5
499.518	37659.5
500.292	38959.5
501.066	40115.5
501.839	40997.5
502.613	42044.5
503.387	42784.5
504.16	43409.5
504.934	43636.5
505.707	44049.5
506.48	43913.5
507.253	43692.5
508.027	43393.5
508.8	42798.5
509.573	42095.5
510.346	41358.5
511.118	40490.5
511.891	39532.5
512.664	38128.5
513.437	36967.5
514.209	35805.5
514.982	34477.5
515.754	33241.5
516.526	32001.5
517.298	30750.5
518.071	29632.5
518.843	28451.5
519.615	27232.5
520.387	26250.5
521.159	25226.5
521.93	24173.5
522.702	23137.5
523.474	22292.5
524.245	21321.5
525.017	20442.5
525.788	19630.5
526.56	18891.5
527.331	18007.5
528.102	17127.5
528.873	16354.5
529.644	15580.5
530.415	14857.5
531.186	14196.5
531.957	13463.5
532.728	12838.5
533.498	12169.5
534.269	11545.5
535.039	10985.5
535.81	10404.5
536.58	9834.5
537.351	9346.5
538.121	8824.5
538.891	8366.5
539.661	7869.5
540.431	7436.5
541.201	7120.5
541.971	6746.5
542.741	6378.5
543.51	6038.5
544.28	5779.5
545.05	5479.5
545.819	5249.5
546.588	4997.5
547.358	4780.5
548.127	4522.5
548.896	4292.5
549.665	4060.5
550.434	3867.5
551.203	3669.5
551.972	3482.5
552.741	3296.5
553.51	3107.5
554.278	2949.5
555.047	2780.5
555.815	2629.5
556.584	2508.5
557.352	2365.5
558.121	2237.5
558.889	2098.5
559.657	1982.5
560.425	1884.5
561.193	1791.5
561.961	1688.5
562.729	1602.5
563.496	1505.5
564.264	1414.5
565.032	1362.5
565.799	1284.5
566.567	1210.5
567.334	1149.5
568.101	1090.5
568.869	1033.5
569.636	960.5
570.403	915.5
571.17	867.5
571.937	820.5
572.704	758.5
573.471	730.5
574.237	689.5
575.004	640.5
575.771	598.5
576.537	575.5
577.303	542.5
578.07	513.5
578.836	489.5
579.602	472.5
580.368	436.5
581.134	407.5
581.9	388.5
582.666	382.5
583.432	362.5
584.198	332.5
584.964	319.5
585.729	307.5
586.495	288.5
587.26	272.5
588.025	257.5
588.791	242.5
589.556	235.5
590.321	224.5
591.086	209.5
591.851	199.5
592.616	188.5
593.381	178.5
594.146	169.5
594.911	161.5
595.675	161.5
596.44	153.5
597.204	146.5
597.969	137.5
598.733	129.5
599.497	125.5
600.261	118.5
601.025	114.5
601.79	109.5
602.553	106.5
603.317	103.5
604.081	96.5
604.845	91.5
605.609	86.5
606.372	84.5
607.136	81.5
607.899	75.5
608.662	72.5
609.426	69.5
610.189	73.5
610.952	65.5
611.715	65.5
612.478	63.5
613.241	61.5
614.004	57.5
614.767	56.5
615.529	53.5
616.292	50.5
617.055	50.5
617.817	50.5
618.579	47.5
619.342	48.5
620.104	43.5
620.866	43.5
621.628	41.5
622.39	38.5
623.152	41.5
623.914	38.5
624.676	38.5
625.438	35.5
626.199	33.5
626.961	32.5
627.722	32.5
628.484	31.5
629.245	33.5
630.006	32.5
630.768	28.5
631.529	28.5
632.29	29.5
633.051	29.5
633.812	27.5
634.573	26.5
635.333	26.5
636.094	23.5
636.855	21.5
637.615	21.5
638.376	21.5
639.136	21.5
639.896	20.5
640.657	19.5
641.417	16.5
642.177	18.5
642.937	18.5
643.697	15.5
644.457	15.5
645.216	15.5
645.976	16.5
646.736	16.5
647.495	15.5
648.255	18.5
649.014	15.5
649.774	15.5
650.533	16.5
651.292	15.5
652.051	13.5
652.81	13.5
653.569	13.5
654.328	11.5
655.087	14.5
655.846	12.5
656.604	10.5
657.363	12.5
658.121	15.5
658.88	11.5
659.638	11.5
660.397	11.5
661.155	11.5
661.913	9.5
662.671	15.5
663.429	8.5
664.187	13.5
664.945	11.5
665.703	9.5
666.46	10.5
667.218	10.5
667.976	11.5
668.733	11.5
669.49	10.5
670.248	10.5
671.005	10.5
671.762	11.5
672.519	9.5
673.276	9.5
674.033	8.5
674.79	10.5
675.547	11.5
676.304	8.5
677.06	8.5
677.817	9.5
678.574	8.5
679.33	7.5
680.086	7.5
680.843	10.5
681.599	5.5
682.355	7.5
683.111	8.5
683.867	8.5
684.623	9.5
685.379	10.5
686.135	9.5
686.89	5.5
687.646	10.5
688.402	7.5
689.157	11.5
689.912	6.5
690.668	7.5
691.423	7.5
692.178	7.5
692.933	9.5
693.688	9.5
694.443	8.5
695.198	8.5
695.953	5.5
696.708	9.5
697.462	7.5
698.217	6.5
698.972	6.5
699.726	8.5
700.48	8.5
701.235	7.5
701.989	8.5
702.743	9.5
703.497	5.5
704.251	7.5
705.005	8.5
705.759	9.5
706.513	8.5
707.266	9.5
708.02	9.5
708.774	6.5
709.527	8.5
710.28	9.5
711.034	9.5
711.787	8.5
712.54	8.5
713.293	7.5
714.046	6.5
714.799	8.5
715.552	7.5
716.305	7.5
717.058	8.5
717.81	8.5
718.563	6.5
719.315	7.5
720.068	8.5
720.82	10.5
721.573	7.5
722.325	6.5
723.077	10.5
723.829	9.5
724.581	9.5
725.333	9.5
726.085	8.5
726.836	8.5
727.588	8.5
728.34	7.5
729.091	8.5
729.843	9.5
730.594	11.5
731.346	8.5
732.097	9.5
732.848	8.5
733.599	7.5
734.35	10.5
735.101	9.5
735.852	8.5
736.603	9.5
737.354	9.5
738.104	12.5
738.855	8.5
739.605	7.5
740.356	10.5
741.106	9.5
741.856	8.5
742.607	8.5
743.357	11.5
744.107	11.5
744.857	10.5
745.607	12.5
746.357	9.5
747.106	10.5
747.856	10.5
748.606	11.5
749.355	12.5
750.105	10.5
750.854	7.5
751.603	11.5
752.353	9.5
753.102	11.5
753.851	12.5
754.6	12.5
755.349	9.5
756.098	13.5
756.847	11.5
757.595	14.5
758.344	9.5
759.093	12.5
759.841	9.5
760.589	10.5
761.338	13.5
762.086	10.5
762.834	12.5
763.582	11.5
764.331	11.5
765.079	10.5
765.826	12.5
766.574	14.5
767.322	12.5
768.07	13.5
768.817	11.5
769.565	14.5
770.312	15.5
771.06	13.5
771.807	10.5
772.554	16.5
773.302	13.5
774.049	14.5
774.796	13.5
775.543	13.5
776.29	13.5
777.036	15.5
777.783	15.5
778.53	14.5
779.276	14.5
780.023	14.5
780.769	15.5
781.516	15.5
782.262	16.5
783.008	15.5
783.754	15.5
784.5	16.5
785.246	14.5
785.992	15.5
786.738	13.5
787.484	14.5
788.23	17.5
788.975	12.5
789.721	14.5
790.466	15.5
791.212	15.5
791.957	11.5
792.702	12.5
793.447	17.5
794.193	13.5
794.938	13.5
795.683	16.5
796.427	12.5
797.172	13.5
797.917	12.5
798.662	11.5
799.406	12.5
800.151	12.5
800.895	11.5
801.64	10.5
802.384	10.5
803.128	9.5
803.872	13.5
804.616	10.5
805.36	10.5
806.104	10.5
806.848	11.5
807.592	9.5
808.336	11.5
809.079	9.5
809.823	8.5
810.566	8.5
811.31	11.5
812.053	10.5
812.796	11.5
813.539	9.5
814.283	9.5
815.026	6.5
815.769	8.5
816.511	8.5
817.254	8.5
817.997	7.5
818.74	7.5
819.482	7.5
820.225	7.5
820.967	8.5
821.71	9.5
822.452	7.5
823.194	8.5
823.936	8.5
824.678	6.5
825.42	7.5
826.162	8.5
826.904	7.5
827.646	6.5
828.388	8.5
829.129	7.5
829.871	5.5
830.612	5.5
831.354	5.5
832.095	7.5
832.836	5.5
833.577	7.5
834.319	5.5
835.06	4.5
835.801	5.5
836.542	3.5
837.282	7.5
838.023	5.5
838.764	6.5
839.504	6.5
840.245	4.5
840.985	6.5
841.726	6.5
842.466	6.5
843.206	7.5
843.946	5.5
844.687	5.5
845.427	4.5
846.166	3.5
846.906	5.5
847.646	5.5
848.386	5.5
849.125	3.5
849.865	4.5
850.605	3.5
851.344	3.5
852.083	5.5
852.823	3.5
853.562	6.5
854.301	3.5
855.04	7.5
855.779	4.5
856.518	5.5
857.257	2.5
857.995	4.5
858.734	5.5
859.473	3.5
860.211	3.5
860.95	2.5
861.688	4.5
862.426	3.5
863.165	6.5
863.903	3.5
864.641	2.5
865.379	4.5
866.117	3.5
866.855	6.5
867.593	4.5
868.33	3.5
869.068	4.5
869.806	2.5
870.543	3.5
871.28	2.5
872.018	3.5
872.755	4.5
873.492	2.5
874.229	3.5
874.967	3.5
875.703	2.5
876.44	2.5
877.177	2.5
877.914	2.5
878.651	1.5
879.387	3.5
880.124	2.5
880.86	2.5
881.597	2.5
882.333	2.5
883.069	3.5
883.806	5.5
884.542	1.5
885.278	2.5
886.014	2.5
886.749	2.5
887.485	1.5
888.221	3.5
888.957	3.5
889.692	2.5
890.428	1.5
891.163	3.5
891.899	2.5
892.634	1.5
893.369	1.5
894.104	1.5
894.839	1.5
895.574	1.5
896.309	0.5
897.044	1.5
897.779	1.5
898.514	3.5
899.248	2.5
899.983	1.5
900.717	1.5
901.452	0.5
902.186	0.5
902.92	2.5
903.654	1.5
904.389	2.5
905.123	-0.5
905.857	2.5
906.59	2.5
907.324	0.5
908.058	0.5
908.792	1.5
909.525	-0.5
910.259	1.5
910.992	3.5
911.726	0.5
912.459	0.5
913.192	1.5
913.925	-0.5
914.658	1.5
915.391	-0.5
916.124	0.5
916.857	1.5
917.59	1.5
918.323	-1.5
919.055	0.5
919.788	2.5
920.521	-0.5
921.253	2.5
921.985	1.5
922.718	-0.5
923.45	1.5
924.182	1.5
924.914	2.5
925.646	-1.5
926.378	0.5
927.11	-0.5
927.841	0.5
928.573	-0.5
929.305	-0.5
930.036	3.5
930.768	1.5
931.499	-0.5
932.23	1.5
932.962	1.5
933.693	0.5
934.424	1.5
935.155	1.5
935.886	1.5
936.617	-0.5
937.348	2.5
938.078	0.5
938.809	1.5
939.54	1.5
940.27	-1.5
941.001	1.5
941.731	1.5
942.461	-0.5
943.191	0.5
943.922	1.5
944.652	1.5
945.382	-1.5
946.112	1.5
946.841	1.5
947.571	2.5
948.301	1.5
949.031	1.5
949.76	0.5
950.49	1.5
951.219	0.5
951.948	1.5
952.678	1.5
953.407	0.5
954.136	0.5
954.865	0.5
955.594	-0.5
956.323	3.5
957.052	1.5
957.78	1.5
958.509	1.5
959.238	-0.5
959.966	2.5
960.695	0.5
961.423	-0.5
962.151	1.5
962.88	-0.5
963.608	1.5
964.336	-0.5
965.064	1.5
965.792	2.5
966.52	-1.5
967.247	1.5
967.975	0.5
968.703	0.5
969.43	-0.5
970.158	-0.5
970.885	0.5
971.613	1.5
972.34	-0.5
973.067	1.5
973.794	3.5
974.521	0.5
975.248	-0.5
975.975	-0.5
976.702	-0.5
977.429	-0.5
978.156	-0.5
978.882	2.5
979.609	0.5
980.335	0.5
981.062	-0.5
981.788	1.5
982.514	0.5
983.24	-0.5
983.967	2.5
984.693	0.5
985.419	-1.5
986.144	3.5
986.87	2.5
987.596	3.5
988.322	2.5
989.047	1.5
989.773	-0.5
990.498	1.5
991.224	2.5
991.949	-1.5
992.674	1.5
993.399	0.5
994.124	0.5
994.849	4.5
995.574	-0.5
996.299	1.5
997.024	-1.5
997.749	-1.5
998.473	1.5
999.198	2.5
999.922	2.5
1000.647	0.5
1001.371	4.5
1002.095	-0.5
1002.82	-0.5
1003.544	0.5
1004.268	4.5
1004.992	3.5
1005.716	3.5
1006.439	6.5
1007.163	7.5
1007.887	6.5
1008.611	1.5
1009.334	0.5
1010.058	-0.5
1010.781	0.5
1011.504	1.5
1012.228	1.5
1012.951	-0.5
1013.674	0.5
1014.397	-1.5
1015.12	-2.5
