节点500_705_QEPB04081__622__20-54-47-772.txt的数据

Date: Wed Nov 12 20:54:47 CST 2025
User: PC
Spectrometer: QEPB0408
触发模式: 0
积分时间 (秒): 1.000000E-2
Scans to average: 1
启用暗噪声校正: true
启用非线性校正: false
滑动平均宽度: 0
X轴模式: Wavelengths
Number of Pixels in Spectrum: 1044
>>>>>Begin Spectral Data<<<<<
220.843	2.5
221.644	4.5
222.444	6.5
223.244	7.5
224.045	5.5
224.845	6.5
225.645	5.5
226.445	7.5
227.245	8.5
228.045	8.5
228.845	4.5
229.645	7.5
230.444	9.5
231.244	7.5
232.043	6.5
232.843	6.5
233.642	8.5
234.442	10.5
235.241	9.5
236.04	8.5
236.839	8.5
237.638	8.5
238.437	9.5
239.236	11.5
240.035	10.5
240.833	10.5
241.632	10.5
242.43	11.5
243.229	11.5
244.027	11.5
244.826	12.5
245.624	13.5
246.422	13.5
247.22	14.5
248.018	11.5
248.816	12.5
249.614	14.5
250.412	12.5
251.21	11.5
252.007	16.5
252.805	18.5
253.602	14.5
254.4	16.5
255.197	14.5
255.994	17.5
256.791	18.5
257.589	17.5
258.386	19.5
259.183	18.5
259.979	18.5
260.776	20.5
261.573	20.5
262.37	23.5
263.166	21.5
263.963	22.5
264.759	22.5
265.556	20.5
266.352	24.5
267.148	26.5
267.944	24.5
268.74	26.5
269.536	27.5
270.332	24.5
271.128	29.5
271.924	26.5
272.719	24.5
273.515	25.5
274.311	30.5
275.106	29.5
275.901	30.5
276.697	30.5
277.492	28.5
278.287	32.5
279.082	32.5
279.877	29.5
280.672	32.5
281.467	34.5
282.262	30.5
283.056	31.5
283.851	29.5
284.646	29.5
285.44	29.5
286.234	31.5
287.029	30.5
287.823	31.5
288.617	28.5
289.411	28.5
290.205	28.5
290.999	29.5
291.793	26.5
292.587	28.5
293.381	30.5
294.174	27.5
294.968	27.5
295.761	28.5
296.555	22.5
297.348	24.5
298.141	26.5
298.935	27.5
299.728	25.5
300.521	25.5
301.314	21.5
302.107	23.5
302.899	19.5
303.692	20.5
304.485	22.5
305.277	21.5
306.07	20.5
306.862	18.5
307.655	20.5
308.447	20.5
309.239	21.5
310.031	18.5
310.823	17.5
311.615	17.5
312.407	15.5
313.199	20.5
313.991	17.5
314.783	13.5
315.574	18.5
316.366	13.5
317.157	14.5
317.949	12.5
318.74	14.5
319.531	16.5
320.322	11.5
321.113	12.5
321.904	10.5
322.695	15.5
323.486	12.5
324.277	13.5
325.068	10.5
325.858	10.5
326.649	13.5
327.439	13.5
328.23	12.5
329.02	12.5
329.81	10.5
330.6	11.5
331.391	12.5
332.181	14.5
332.971	9.5
333.76	11.5
334.55	12.5
335.34	11.5
336.13	10.5
336.919	11.5
337.709	13.5
338.498	10.5
339.287	10.5
340.077	8.5
340.866	11.5
341.655	10.5
342.444	10.5
343.233	9.5
344.022	11.5
344.811	11.5
345.6	14.5
346.388	9.5
347.177	10.5
347.965	11.5
348.754	11.5
349.542	12.5
350.33	10.5
351.119	12.5
351.907	7.5
352.695	10.5
353.483	10.5
354.271	10.5
355.059	7.5
355.846	7.5
356.634	11.5
357.422	9.5
358.209	8.5
358.997	10.5
359.784	8.5
360.571	9.5
361.359	9.5
362.146	9.5
362.933	9.5
363.72	9.5
364.507	9.5
365.294	8.5
366.081	9.5
366.867	10.5
367.654	10.5
368.44	8.5
369.227	10.5
370.013	8.5
370.8	9.5
371.586	8.5
372.372	9.5
373.158	10.5
373.944	8.5
374.73	7.5
375.516	7.5
376.302	8.5
377.088	8.5
377.873	11.5
378.659	6.5
379.445	9.5
380.23	8.5
381.015	9.5
381.801	8.5
382.586	9.5
383.371	11.5
384.156	9.5
384.941	11.5
385.726	10.5
386.511	9.5
387.296	9.5
388.08	10.5
388.865	10.5
389.649	10.5
390.434	12.5
391.218	7.5
392.003	12.5
392.787	11.5
393.571	7.5
394.355	10.5
395.139	10.5
395.923	11.5
396.707	12.5
397.491	11.5
398.274	10.5
399.058	11.5
399.842	14.5
400.625	10.5
401.408	13.5
402.192	12.5
402.975	11.5
403.758	14.5
404.541	12.5
405.324	13.5
406.107	14.5
406.89	15.5
407.673	12.5
408.456	12.5
409.238	14.5
410.021	14.5
410.803	17.5
411.586	15.5
412.368	16.5
413.151	16.5
413.933	16.5
414.715	14.5
415.497	15.5
416.279	18.5
417.061	17.5
417.843	20.5
418.624	18.5
419.406	17.5
420.188	20.5
420.969	19.5
421.751	17.5
422.532	20.5
423.313	22.5
424.095	23.5
424.876	22.5
425.657	20.5
426.438	23.5
427.219	28.5
428	26.5
428.78	25.5
429.561	28.5
430.342	26.5
431.122	26.5
431.903	30.5
432.683	30.5
433.464	34.5
434.244	34.5
435.024	40.5
435.804	38.5
436.584	42.5
437.364	46.5
438.144	45.5
438.924	49.5
439.704	54.5
440.483	56.5
441.263	60.5
442.042	67.5
442.822	71.5
443.601	75.5
444.38	85.5
445.16	88.5
445.939	97.5
446.718	109.5
447.497	120.5
448.276	127.5
449.054	142.5
449.833	161.5
450.612	175.5
451.391	193.5
452.169	212.5
452.948	232.5
453.726	261.5
454.504	291.5
455.282	321.5
456.061	354.5
456.839	399.5
457.617	438.5
458.395	490.5
459.172	533.5
459.95	599.5
460.728	671.5
461.506	764.5
462.283	827.5
463.061	934.5
463.838	1020.5
464.615	1125.5
465.393	1254.5
466.17	1389.5
466.947	1545.5
467.724	1697.5
468.501	1875.5
469.278	2056.5
470.055	2282.5
470.831	2510.5
471.608	2761.5
472.385	3012.5
473.161	3309.5
473.938	3625.5
474.714	3946.5
475.49	4322.5
476.266	4730.5
477.043	5138.5
477.819	5552.5
478.595	6066.5
479.371	6575.5
480.146	7127.5
480.922	7754.5
481.698	8406.5
482.473	9122.5
483.249	9890.5
484.024	10654.5
484.8	11474.5
485.575	12396.5
486.35	13400.5
487.126	14429.5
487.901	15513.5
488.676	16671.5
489.451	17873.5
490.225	19185.5
491	20583.5
491.775	21927.5
492.55	23351.5
493.324	24844.5
494.099	26488.5
494.873	28021.5
495.647	29564.5
496.422	31157.5
497.196	32746.5
497.97	34382.5
498.744	35797.5
499.518	37281.5
500.292	38666.5
501.066	39714.5
501.839	40684.5
502.613	41617.5
503.387	42430.5
504.16	42898.5
504.934	43518.5
505.707	43744.5
506.48	43622.5
507.253	43566.5
508.027	43160.5
508.8	42591.5
509.573	41989.5
510.346	41246.5
511.118	40447.5
511.891	39491.5
512.664	38213.5
513.437	36973.5
514.209	35831.5
514.982	34483.5
515.754	33184.5
516.526	31961.5
517.298	30763.5
518.071	29626.5
518.843	28512.5
519.615	27315.5
520.387	26239.5
521.159	25252.5
521.93	24286.5
522.702	23242.5
523.474	22281.5
524.245	21345.5
525.017	20501.5
525.788	19636.5
526.56	18864.5
527.331	18024.5
528.102	17214.5
528.873	16418.5
529.644	15633.5
530.415	14943.5
531.186	14231.5
531.957	13534.5
532.728	12862.5
533.498	12180.5
534.269	11639.5
535.039	11024.5
535.81	10445.5
536.58	9812.5
537.351	9346.5
538.121	8871.5
538.891	8419.5
539.661	7936.5
540.431	7510.5
541.201	7162.5
541.971	6770.5
542.741	6406.5
543.51	6084.5
544.28	5778.5
545.05	5521.5
545.819	5264.5
546.588	5025.5
547.358	4760.5
548.127	4543.5
548.896	4334.5
549.665	4092.5
550.434	3899.5
551.203	3714.5
551.972	3502.5
552.741	3309.5
553.51	3121.5
554.278	2954.5
555.047	2793.5
555.815	2668.5
556.584	2513.5
557.352	2359.5
558.121	2250.5
558.889	2121.5
559.657	1994.5
560.425	1901.5
561.193	1805.5
561.961	1691.5
562.729	1599.5
563.496	1533.5
564.264	1444.5
565.032	1372.5
565.799	1284.5
566.567	1218.5
567.334	1160.5
568.101	1070.5
568.869	1024.5
569.636	979.5
570.403	916.5
571.17	870.5
571.937	818.5
572.704	772.5
573.471	720.5
574.237	690.5
575.004	641.5
575.771	607.5
576.537	581.5
577.303	539.5
578.07	517.5
578.836	490.5
579.602	465.5
580.368	445.5
581.134	409.5
581.9	395.5
582.666	372.5
583.432	353.5
584.198	340.5
584.964	320.5
585.729	301.5
586.495	294.5
587.26	277.5
588.025	258.5
588.791	244.5
589.556	235.5
590.321	217.5
591.086	206.5
591.851	197.5
592.616	194.5
593.381	178.5
594.146	172.5
594.911	168.5
595.675	155.5
596.44	150.5
597.204	141.5
597.969	136.5
598.733	128.5
599.497	123.5
600.261	115.5
601.025	113.5
601.79	115.5
602.553	107.5
603.317	101.5
604.081	94.5
604.845	90.5
605.609	92.5
606.372	87.5
607.136	82.5
607.899	77.5
608.662	74.5
609.426	73.5
610.189	69.5
610.952	68.5
611.715	65.5
612.478	61.5
613.241	60.5
614.004	55.5
614.767	55.5
615.529	55.5
616.292	57.5
617.055	50.5
617.817	48.5
618.579	49.5
619.342	46.5
620.104	47.5
620.866	42.5
621.628	44.5
622.39	34.5
623.152	37.5
623.914	36.5
624.676	35.5
625.438	34.5
626.199	35.5
626.961	34.5
627.722	33.5
628.484	31.5
629.245	28.5
630.006	27.5
630.768	30.5
631.529	28.5
632.29	26.5
633.051	25.5
633.812	23.5
634.573	25.5
635.333	21.5
636.094	20.5
636.855	23.5
637.615	22.5
638.376	18.5
639.136	21.5
639.896	18.5
640.657	18.5
641.417	20.5
642.177	16.5
642.937	15.5
643.697	17.5
644.457	14.5
645.216	17.5
645.976	17.5
646.736	19.5
647.495	16.5
648.255	14.5
649.014	14.5
649.774	13.5
650.533	14.5
651.292	11.5
652.051	15.5
652.81	13.5
653.569	9.5
654.328	10.5
655.087	12.5
655.846	13.5
656.604	11.5
657.363	11.5
658.121	12.5
658.88	9.5
659.638	7.5
660.397	9.5
661.155	10.5
661.913	9.5
662.671	13.5
663.429	10.5
664.187	8.5
664.945	10.5
665.703	9.5
666.46	10.5
667.218	10.5
667.976	9.5
668.733	8.5
669.49	9.5
670.248	9.5
671.005	10.5
671.762	8.5
672.519	10.5
673.276	6.5
674.033	8.5
674.79	9.5
675.547	8.5
676.304	11.5
677.06	10.5
677.817	8.5
678.574	6.5
679.33	8.5
680.086	8.5
680.843	8.5
681.599	9.5
682.355	5.5
683.111	7.5
683.867	8.5
684.623	7.5
685.379	6.5
686.135	7.5
686.89	9.5
687.646	7.5
688.402	6.5
689.157	5.5
689.912	5.5
690.668	7.5
691.423	7.5
692.178	7.5
692.933	8.5
693.688	5.5
694.443	7.5
695.198	4.5
695.953	4.5
696.708	6.5
697.462	6.5
698.217	7.5
698.972	5.5
699.726	8.5
700.48	5.5
701.235	9.5
701.989	5.5
702.743	6.5
703.497	6.5
704.251	8.5
705.005	6.5
705.759	6.5
706.513	5.5
707.266	4.5
708.02	8.5
708.774	8.5
709.527	5.5
710.28	7.5
711.034	6.5
711.787	6.5
712.54	6.5
713.293	5.5
714.046	6.5
714.799	6.5
715.552	6.5
716.305	6.5
717.058	6.5
717.81	9.5
718.563	2.5
719.315	8.5
720.068	6.5
720.82	8.5
721.573	8.5
722.325	8.5
723.077	7.5
723.829	5.5
724.581	7.5
725.333	3.5
726.085	10.5
726.836	7.5
727.588	7.5
728.34	10.5
729.091	7.5
729.843	8.5
730.594	7.5
731.346	7.5
732.097	10.5
732.848	7.5
733.599	6.5
734.35	7.5
735.101	9.5
735.852	10.5
736.603	8.5
737.354	6.5
738.104	9.5
738.855	9.5
739.605	8.5
740.356	9.5
741.106	7.5
741.856	8.5
742.607	8.5
743.357	6.5
744.107	9.5
744.857	8.5
745.607	7.5
746.357	11.5
747.106	7.5
747.856	9.5
748.606	8.5
749.355	8.5
750.105	7.5
750.854	7.5
751.603	10.5
752.353	7.5
753.102	10.5
753.851	10.5
754.6	10.5
755.349	8.5
756.098	11.5
756.847	14.5
757.595	10.5
758.344	8.5
759.093	10.5
759.841	9.5
760.589	12.5
761.338	11.5
762.086	10.5
762.834	11.5
763.582	12.5
764.331	11.5
765.079	10.5
765.826	12.5
766.574	12.5
767.322	13.5
768.07	10.5
768.817	13.5
769.565	10.5
770.312	10.5
771.06	13.5
771.807	11.5
772.554	16.5
773.302	13.5
774.049	12.5
774.796	13.5
775.543	11.5
776.29	14.5
777.036	11.5
777.783	14.5
778.53	14.5
779.276	12.5
780.023	14.5
780.769	13.5
781.516	16.5
782.262	13.5
783.008	16.5
783.754	13.5
784.5	14.5
785.246	13.5
785.992	12.5
786.738	13.5
787.484	12.5
788.23	13.5
788.975	13.5
789.721	11.5
790.466	12.5
791.212	12.5
791.957	11.5
792.702	15.5
793.447	12.5
794.193	13.5
794.938	11.5
795.683	14.5
796.427	9.5
797.172	11.5
797.917	10.5
798.662	9.5
799.406	10.5
800.151	9.5
800.895	10.5
801.64	12.5
802.384	10.5
803.128	11.5
803.872	10.5
804.616	7.5
805.36	9.5
806.104	8.5
806.848	11.5
807.592	9.5
808.336	11.5
809.079	7.5
809.823	10.5
810.566	7.5
811.31	8.5
812.053	8.5
812.796	6.5
813.539	9.5
814.283	8.5
815.026	4.5
815.769	6.5
816.511	7.5
817.254	7.5
817.997	6.5
818.74	7.5
819.482	8.5
820.225	6.5
820.967	8.5
821.71	4.5
822.452	6.5
823.194	7.5
823.936	7.5
824.678	5.5
825.42	7.5
826.162	4.5
826.904	7.5
827.646	8.5
828.388	6.5
829.129	5.5
829.871	6.5
830.612	6.5
831.354	5.5
832.095	6.5
832.836	5.5
833.577	3.5
834.319	2.5
835.06	8.5
835.801	4.5
836.542	9.5
837.282	7.5
838.023	5.5
838.764	5.5
839.504	4.5
840.245	6.5
840.985	6.5
841.726	5.5
842.466	5.5
843.206	5.5
843.946	5.5
844.687	5.5
845.427	7.5
846.166	3.5
846.906	5.5
847.646	5.5
848.386	3.5
849.125	3.5
849.865	2.5
850.605	3.5
851.344	4.5
852.083	4.5
852.823	4.5
853.562	5.5
854.301	2.5
855.04	3.5
855.779	4.5
856.518	3.5
857.257	2.5
857.995	3.5
858.734	2.5
859.473	1.5
860.211	2.5
860.95	5.5
861.688	3.5
862.426	1.5
863.165	4.5
863.903	1.5
864.641	2.5
865.379	0.5
866.117	2.5
866.855	3.5
867.593	3.5
868.33	3.5
869.068	1.5
869.806	3.5
870.543	2.5
871.28	3.5
872.018	0.5
872.755	1.5
873.492	1.5
874.229	-0.5
874.967	1.5
875.703	3.5
876.44	4.5
877.177	2.5
877.914	1.5
878.651	1.5
879.387	-1.5
880.124	-0.5
880.86	2.5
881.597	1.5
882.333	1.5
883.069	1.5
883.806	1.5
884.542	1.5
885.278	-0.5
886.014	1.5
886.749	0.5
887.485	0.5
888.221	0.5
888.957	0.5
889.692	0.5
890.428	-0.5
891.163	1.5
891.899	1.5
892.634	1.5
893.369	1.5
894.104	1.5
894.839	1.5
895.574	-0.5
896.309	-0.5
897.044	-0.5
897.779	-0.5
898.514	-1.5
899.248	0.5
899.983	1.5
900.717	-0.5
901.452	2.5
902.186	-0.5
902.92	-2.5
903.654	1.5
904.389	-1.5
905.123	1.5
905.857	1.5
906.59	1.5
907.324	0.5
908.058	1.5
908.792	1.5
909.525	0.5
910.259	0.5
910.992	-1.5
911.726	1.5
912.459	1.5
913.192	0.5
913.925	0.5
914.658	0.5
915.391	-0.5
916.124	1.5
916.857	0.5
917.59	2.5
918.323	-1.5
919.055	1.5
919.788	0.5
920.521	0.5
921.253	-1.5
921.985	-0.5
922.718	1.5
923.45	2.5
924.182	0.5
924.914	-1.5
925.646	1.5
926.378	0.5
927.11	-0.5
927.841	-0.5
928.573	-0.5
929.305	-1.5
930.036	-0.5
930.768	-1.5
931.499	0.5
932.23	1.5
932.962	1.5
933.693	-1.5
934.424	0.5
935.155	-0.5
935.886	0.5
936.617	0.5
937.348	-2.5
938.078	0.5
938.809	-0.5
939.54	1.5
940.27	-2.5
941.001	-2.5
941.731	-1.5
942.461	-1.5
943.191	1.5
943.922	-1.5
944.652	-2.5
945.382	0.5
946.112	-1.5
946.841	0.5
947.571	0.5
948.301	-1.5
949.031	-1.5
949.76	-1.5
950.49	1.5
951.219	-1.5
951.948	0.5
952.678	1.5
953.407	-0.5
954.136	1.5
954.865	-2.5
955.594	-0.5
956.323	0.5
957.052	1.5
957.78	0.5
958.509	-0.5
959.238	-1.5
959.966	0.5
960.695	-0.5
961.423	0.5
962.151	-1.5
962.88	-0.5
963.608	0.5
964.336	-0.5
965.064	-0.5
965.792	0.5
966.52	0.5
967.247	-0.5
967.975	0.5
968.703	-3.5
969.43	-2.5
970.158	1.5
970.885	1.5
971.613	-1.5
972.34	1.5
973.067	0.5
973.794	-0.5
974.521	0.5
975.248	0.5
975.975	1.5
976.702	-1.5
977.429	0.5
978.156	0.5
978.882	-2.5
979.609	-0.5
980.335	0.5
981.062	-2.5
981.788	0.5
982.514	-1.5
983.24	-0.5
983.967	-0.5
984.693	-3.5
985.419	-1.5
986.144	-1.5
986.87	1.5
987.596	-1.5
988.322	-0.5
989.047	-1.5
989.773	-1.5
990.498	-2.5
991.224	1.5
991.949	-0.5
992.674	0.5
993.399	1.5
994.124	1.5
994.849	2.5
995.574	1.5
996.299	-2.5
997.024	-2.5
997.749	-1.5
998.473	1.5
999.198	1.5
999.922	-0.5
1000.647	2.5
1001.371	2.5
1002.095	0.5
1002.82	-0.5
1003.544	-0.5
1004.268	2.5
1004.992	4.5
1005.716	2.5
1006.439	2.5
1007.163	3.5
1007.887	6.5
1008.611	-1.5
1009.334	1.5
1010.058	-1.5
1010.781	0.5
1011.504	-0.5
1012.228	1.5
1012.951	0.5
1013.674	-2.5
1014.397	-0.5
1015.12	0.5
