节点500_705_QEPB04081__23__20-46-16-335.txt的数据

Date: Wed Nov 12 20:46:16 CST 2025
User: PC
Spectrometer: QEPB0408
触发模式: 0
积分时间 (秒): 1.000000E-2
Scans to average: 1
启用暗噪声校正: true
启用非线性校正: false
滑动平均宽度: 0
X轴模式: Wavelengths
Number of Pixels in Spectrum: 1044
>>>>>Begin Spectral Data<<<<<
220.843	3
221.644	7
222.444	6
223.244	6
224.045	8
224.845	6
225.645	9
226.445	7
227.245	6
228.045	8
228.845	8
229.645	8
230.444	11
231.244	10
232.043	8
232.843	11
233.642	8
234.442	8
235.241	12
236.04	12
236.839	11
237.638	11
238.437	11
239.236	10
240.035	12
240.833	12
241.632	12
242.43	10
243.229	12
244.027	12
244.826	13
245.624	14
246.422	16
247.22	18
248.018	18
248.816	15
249.614	15
250.412	18
251.21	18
252.007	15
252.805	19
253.602	16
254.4	18
255.197	19
255.994	23
256.791	24
257.589	22
258.386	23
259.183	23
259.979	23
260.776	24
261.573	26
262.37	23
263.166	24
263.963	30
264.759	26
265.556	28
266.352	28
267.148	29
267.944	29
268.74	31
269.536	31
270.332	31
271.128	35
271.924	36
272.719	34
273.515	35
274.311	33
275.106	35
275.901	36
276.697	35
277.492	35
278.287	36
279.082	39
279.877	37
280.672	35
281.467	35
282.262	37
283.056	35
283.851	35
284.646	37
285.44	34
286.234	34
287.029	36
287.823	34
288.617	35
289.411	33
290.205	34
290.999	30
291.793	30
292.587	31
293.381	29
294.174	30
294.968	31
295.761	33
296.555	31
297.348	27
298.141	27
298.935	29
299.728	28
300.521	26
301.314	24
302.107	23
302.899	19
303.692	23
304.485	24
305.277	23
306.07	22
306.862	21
307.655	22
308.447	22
309.239	19
310.031	23
310.823	17
311.615	19
312.407	18
313.199	18
313.991	16
314.783	15
315.574	15
316.366	12
317.157	18
317.949	13
318.74	13
319.531	13
320.322	14
321.113	15
321.904	13
322.695	14
323.486	13
324.277	13
325.068	14
325.858	14
326.649	14
327.439	13
328.23	12
329.02	12
329.81	12
330.6	12
331.391	12
332.181	13
332.971	11
333.76	14
334.55	10
335.34	12
336.13	11
336.919	9
337.709	11
338.498	12
339.287	11
340.077	10
340.866	11
341.655	13
342.444	10
343.233	13
344.022	11
344.811	11
345.6	12
346.388	12
347.177	11
347.965	12
348.754	10
349.542	11
350.33	10
351.119	11
351.907	13
352.695	11
353.483	11
354.271	9
355.059	9
355.846	9
356.634	13
357.422	9
358.209	11
358.997	11
359.784	14
360.571	10
361.359	8
362.146	13
362.933	9
363.72	11
364.507	11
365.294	11
366.081	11
366.867	9
367.654	8
368.44	9
369.227	9
370.013	9
370.8	9
371.586	9
372.372	6
373.158	10
373.944	11
374.73	12
375.516	10
376.302	8
377.088	9
377.873	9
378.659	11
379.445	11
380.23	12
381.015	11
381.801	11
382.586	13
383.371	9
384.156	11
384.941	11
385.726	10
386.511	10
387.296	14
388.08	9
388.865	10
389.649	11
390.434	12
391.218	11
392.003	12
392.787	13
393.571	14
394.355	10
395.139	13
395.923	13
396.707	12
397.491	14
398.274	15
399.058	13
399.842	14
400.625	14
401.408	11
402.192	14
402.975	13
403.758	15
404.541	14
405.324	15
406.107	14
406.89	14
407.673	13
408.456	17
409.238	17
410.021	17
410.803	18
411.586	14
412.368	19
413.151	15
413.933	19
414.715	17
415.497	17
416.279	19
417.061	19
417.843	20
418.624	22
419.406	21
420.188	21
420.969	26
421.751	24
422.532	24
423.313	22
424.095	25
424.876	24
425.657	25
426.438	25
427.219	28
428	30
428.78	26
429.561	28
430.342	31
431.122	33
431.903	33
432.683	37
433.464	37
434.244	34
435.024	38
435.804	39
436.584	40
437.364	43
438.144	47
438.924	49
439.704	47
440.483	52
441.263	59
442.042	66
442.822	68
443.601	72
444.38	75
445.16	79
445.939	88
446.718	95
447.497	101
448.276	109
449.054	123
449.833	131
450.612	144
451.391	157
452.169	174
452.948	193
453.726	215
454.504	228
455.282	264
456.061	290
456.839	329
457.617	361
458.395	408
459.172	460
459.95	501
460.728	572
461.506	637
462.283	712
463.061	790
463.838	888
464.615	996
465.393	1109
466.17	1246
466.947	1386
467.724	1548
468.501	1726
469.278	1928
470.055	2142
470.831	2373
471.608	2634
472.385	2911
473.161	3240
473.938	3575
474.714	3970
475.49	4374
476.266	4834
477.043	5311
477.819	5855
478.595	6451
479.371	7082
480.146	7786
480.922	8516
481.698	9368
482.473	10268
483.249	11242
484.024	12234
484.8	13361
485.575	14545
486.35	15891
487.126	17245
487.901	18729
488.676	20288
489.451	22021
490.225	23706
491	25482
491.775	27361
492.55	29312
493.324	31176
494.099	33140
494.873	35139
495.647	37125
496.422	38999
497.196	40874
497.97	42597
498.744	44024
499.518	45605
500.292	46860
501.066	47730
501.839	48350
502.613	48868
503.387	49205
504.16	49357
504.934	49054
505.707	48551
506.48	47749
507.253	46916
508.027	45890
508.8	44625
509.573	43297
510.346	41844
511.118	40527
511.891	39057
512.664	37345
513.437	35853
514.209	34334
514.982	32894
515.754	31544
516.526	30207
517.298	28883
518.071	27742
518.843	26599
519.615	25497
520.387	24478
521.159	23484
521.93	22415
522.702	21489
523.474	20556
524.245	19688
525.017	18792
525.788	17929
526.56	17171
527.331	16379
528.102	15508
528.873	14679
529.644	13926
530.415	13226
531.186	12585
531.957	11928
532.728	11226
533.498	10635
534.269	10034
535.039	9486
535.81	8963
536.58	8482
537.351	8027
538.121	7606
538.891	7201
539.661	6804
540.431	6421
541.201	6105
541.971	5771
542.741	5503
543.51	5190
544.28	4927
545.05	4668
545.819	4470
546.588	4283
547.358	4083
548.127	3870
548.896	3659
549.665	3455
550.434	3277
551.203	3104
551.972	2964
552.741	2790
553.51	2618
554.278	2469
555.047	2317
555.815	2212
556.584	2115
557.352	1963
558.121	1857
558.889	1749
559.657	1664
560.425	1566
561.193	1487
561.961	1402
562.729	1320
563.496	1253
564.264	1182
565.032	1111
565.799	1064
566.567	1002
567.334	936
568.101	903
568.869	838
569.636	807
570.403	749
571.17	719
571.937	667
572.704	631
573.471	601
574.237	570
575.004	532
575.771	500
576.537	473
577.303	439
578.07	426
578.836	404
579.602	377
580.368	355
581.134	343
581.9	319
582.666	309
583.432	291
584.198	280
584.964	263
585.729	248
586.495	243
587.26	227
588.025	216
588.791	201
589.556	194
590.321	178
591.086	172
591.851	162
592.616	162
593.381	150
594.146	145
594.911	139
595.675	131
596.44	131
597.204	120
597.969	115
598.733	109
599.497	105
600.261	103
601.025	94
601.79	93
602.553	90
603.317	86
604.081	84
604.845	78
605.609	76
606.372	73
607.136	71
607.899	69
608.662	67
609.426	62
610.189	60
610.952	59
611.715	58
612.478	55
613.241	55
614.004	48
614.767	47
615.529	49
616.292	45
617.055	46
617.817	43
618.579	42
619.342	42
620.104	38
620.866	40
621.628	34
622.39	35
623.152	36
623.914	35
624.676	31
625.438	29
626.199	28
626.961	29
627.722	29
628.484	30
629.245	28
630.006	27
630.768	24
631.529	25
632.29	25
633.051	22
633.812	19
634.573	24
635.333	19
636.094	22
636.855	20
637.615	19
638.376	19
639.136	17
639.896	19
640.657	19
641.417	17
642.177	18
642.937	15
643.697	18
644.457	17
645.216	17
645.976	15
646.736	17
647.495	14
648.255	14
649.014	15
649.774	14
650.533	15
651.292	14
652.051	14
652.81	15
653.569	12
654.328	13
655.087	12
655.846	13
656.604	14
657.363	15
658.121	10
658.88	12
659.638	11
660.397	13
661.155	13
661.913	12
662.671	10
663.429	11
664.187	10
664.945	11
665.703	11
666.46	9
667.218	10
667.976	10
668.733	10
669.49	9
670.248	10
671.005	12
671.762	9
672.519	7
673.276	9
674.033	9
674.79	11
675.547	10
676.304	10
677.06	9
677.817	9
678.574	8
679.33	9
680.086	9
680.843	8
681.599	8
682.355	8
683.111	8
683.867	9
684.623	8
685.379	8
686.135	7
686.89	8
687.646	7
688.402	8
689.157	7
689.912	8
690.668	9
691.423	8
692.178	10
692.933	6
693.688	6
694.443	7
695.198	9
695.953	9
696.708	6
697.462	9
698.217	7
698.972	7
699.726	6
700.48	6
701.235	10
701.989	6
702.743	7
703.497	5
704.251	8
705.005	9
705.759	7
706.513	7
707.266	6
708.02	7
708.774	7
709.527	7
710.28	6
711.034	8
711.787	8
712.54	9
713.293	8
714.046	7
714.799	10
715.552	8
716.305	6
717.058	9
717.81	9
718.563	8
719.315	9
720.068	8
720.82	5
721.573	7
722.325	11
723.077	7
723.829	9
724.581	9
725.333	12
726.085	5
726.836	7
727.588	10
728.34	10
729.091	10
729.843	8
730.594	6
731.346	12
732.097	9
732.848	9
733.599	12
734.35	6
735.101	9
735.852	11
736.603	11
737.354	10
738.104	10
738.855	10
739.605	9
740.356	10
741.106	9
741.856	12
742.607	8
743.357	12
744.107	9
744.857	11
745.607	10
746.357	11
747.106	12
747.856	13
748.606	10
749.355	11
750.105	13
750.854	15
751.603	13
752.353	14
753.102	11
753.851	12
754.6	13
755.349	13
756.098	12
756.847	12
757.595	13
758.344	16
759.093	13
759.841	12
760.589	14
761.338	15
762.086	14
762.834	12
763.582	16
764.331	13
765.079	16
765.826	15
766.574	16
767.322	14
768.07	13
768.817	14
769.565	13
770.312	13
771.06	15
771.807	14
772.554	15
773.302	14
774.049	17
774.796	16
775.543	14
776.29	15
777.036	15
777.783	15
778.53	15
779.276	18
780.023	16
780.769	19
781.516	17
782.262	17
783.008	19
783.754	18
784.5	16
785.246	16
785.992	18
786.738	14
787.484	17
788.23	14
788.975	17
789.721	15
790.466	16
791.212	16
791.957	16
792.702	15
793.447	17
794.193	17
794.938	11
795.683	15
796.427	13
797.172	14
797.917	12
798.662	14
799.406	12
800.151	12
800.895	14
801.64	12
802.384	13
803.128	11
803.872	12
804.616	11
805.36	10
806.104	13
806.848	10
807.592	10
808.336	9
809.079	10
809.823	9
810.566	10
811.31	11
812.053	10
812.796	7
813.539	6
814.283	7
815.026	9
815.769	7
816.511	7
817.254	7
817.997	8
818.74	10
819.482	6
820.225	7
820.967	6
821.71	7
822.452	7
823.194	8
823.936	8
824.678	8
825.42	7
826.162	7
826.904	8
827.646	8
828.388	4
829.129	6
829.871	7
830.612	7
831.354	7
832.095	6
832.836	5
833.577	6
834.319	8
835.06	5
835.801	6
836.542	8
837.282	5
838.023	6
838.764	7
839.504	5
840.245	7
840.985	5
841.726	6
842.466	3
843.206	5
843.946	5
844.687	7
845.427	3
846.166	3
846.906	4
847.646	4
848.386	5
849.125	5
849.865	4
850.605	6
851.344	3
852.083	4
852.823	5
853.562	5
854.301	5
855.04	5
855.779	5
856.518	3
857.257	4
857.995	6
858.734	5
859.473	3
860.211	3
860.95	2
861.688	5
862.426	2
863.165	1
863.903	3
864.641	2
865.379	3
866.117	4
866.855	4
867.593	4
868.33	5
869.068	2
869.806	6
870.543	3
871.28	3
872.018	2
872.755	2
873.492	4
874.229	2
874.967	5
875.703	1
876.44	3
877.177	1
877.914	1
878.651	1
879.387	0
880.124	2
880.86	1
881.597	1
882.333	1
883.069	3
883.806	2
884.542	1
885.278	-2
886.014	2
886.749	-2
887.485	3
888.221	-1
888.957	2
889.692	1
890.428	3
891.163	2
891.899	1
892.634	1
893.369	0
894.104	1
894.839	3
895.574	1
896.309	3
897.044	2
897.779	2
898.514	0
899.248	0
899.983	1
900.717	3
901.452	2
902.186	0
902.92	2
903.654	2
904.389	2
905.123	2
905.857	0
906.59	1
907.324	1
908.058	0
908.792	3
909.525	0
910.259	1
910.992	0
911.726	3
912.459	3
913.192	1
913.925	1
914.658	0
915.391	0
916.124	1
916.857	0
917.59	0
918.323	2
919.055	0
919.788	0
920.521	-2
921.253	-1
921.985	1
922.718	1
923.45	-1
924.182	-2
924.914	0
925.646	-1
926.378	-1
927.11	1
927.841	-1
928.573	-1
929.305	2
930.036	-1
930.768	-1
931.499	2
932.23	-1
932.962	1
933.693	1
934.424	0
935.155	0
935.886	2
936.617	1
937.348	0
938.078	3
938.809	2
939.54	3
940.27	-1
941.001	-2
941.731	1
942.461	1
943.191	0
943.922	-1
944.652	0
945.382	-1
946.112	0
946.841	0
947.571	-2
948.301	1
949.031	-1
949.76	1
950.49	1
951.219	1
951.948	1
952.678	1
953.407	1
954.136	1
954.865	0
955.594	1
956.323	1
957.052	3
957.78	0
958.509	-1
959.238	1
959.966	-1
960.695	1
961.423	-2
962.151	0
962.88	0
963.608	-2
964.336	-1
965.064	0
965.792	1
966.52	-1
967.247	1
967.975	0
968.703	0
969.43	3
970.158	-1
970.885	2
971.613	0
972.34	1
973.067	2
973.794	1
974.521	2
975.248	-2
975.975	3
976.702	1
977.429	0
978.156	2
978.882	0
979.609	2
980.335	3
981.062	1
981.788	-1
982.514	1
983.24	0
983.967	-1
984.693	1
985.419	1
986.144	-2
986.87	2
987.596	-1
988.322	2
989.047	-1
989.773	0
990.498	1
991.224	1
991.949	3
992.674	-1
993.399	2
994.124	0
994.849	1
995.574	1
996.299	2
997.024	1
997.749	1
998.473	2
999.198	-2
999.922	1
1000.647	2
1001.371	3
1002.095	-1
1002.82	0
1003.544	-1
1004.268	5
1004.992	4
1005.716	6
1006.439	5
1007.163	5
1007.887	6
1008.611	-1
1009.334	1
1010.058	-1
1010.781	0
1011.504	1
1012.228	0
1012.951	-1
1013.674	1
1014.397	-1
1015.12	0
