节点500_705_QEPB04081__88__20-47-21-236.txt的数据

Date: Wed Nov 12 20:47:21 CST 2025
User: PC
Spectrometer: QEPB0408
触发模式: 0
积分时间 (秒): 1.000000E-2
Scans to average: 1
启用暗噪声校正: true
启用非线性校正: false
滑动平均宽度: 0
X轴模式: Wavelengths
Number of Pixels in Spectrum: 1044
>>>>>Begin Spectral Data<<<<<
220.843	2.62
221.644	3.62
222.444	4.62
223.244	7.62
224.045	6.62
224.845	7.62
225.645	5.62
226.445	8.62
227.245	6.62
228.045	8.62
228.845	7.62
229.645	7.62
230.444	10.62
231.244	7.62
232.043	8.62
232.843	9.62
233.642	10.62
234.442	8.62
235.241	9.62
236.04	10.62
236.839	10.62
237.638	10.62
238.437	10.62
239.236	10.62
240.035	12.62
240.833	13.62
241.632	12.62
242.43	11.62
243.229	13.62
244.027	13.62
244.826	15.62
245.624	12.62
246.422	12.62
247.22	13.62
248.018	14.62
248.816	15.62
249.614	16.62
250.412	16.62
251.21	17.62
252.007	18.62
252.805	19.62
253.602	19.62
254.4	18.62
255.197	17.62
255.994	20.62
256.791	18.62
257.589	21.62
258.386	23.62
259.183	21.62
259.979	24.62
260.776	21.62
261.573	24.62
262.37	24.62
263.166	26.62
263.963	25.62
264.759	26.62
265.556	30.62
266.352	29.62
267.148	30.62
267.944	30.62
268.74	28.62
269.536	34.62
270.332	30.62
271.128	30.62
271.924	31.62
272.719	35.62
273.515	36.62
274.311	36.62
275.106	35.62
275.901	35.62
276.697	35.62
277.492	34.62
278.287	36.62
279.082	37.62
279.877	37.62
280.672	34.62
281.467	38.62
282.262	34.62
283.056	37.62
283.851	35.62
284.646	33.62
285.44	36.62
286.234	36.62
287.029	34.62
287.823	34.62
288.617	34.62
289.411	34.62
290.205	32.62
290.999	32.62
291.793	31.62
292.587	32.62
293.381	32.62
294.174	32.62
294.968	28.62
295.761	25.62
296.555	29.62
297.348	24.62
298.141	26.62
298.935	29.62
299.728	25.62
300.521	25.62
301.314	24.62
302.107	23.62
302.899	22.62
303.692	23.62
304.485	21.62
305.277	22.62
306.07	22.62
306.862	21.62
307.655	21.62
308.447	23.62
309.239	20.62
310.031	18.62
310.823	18.62
311.615	16.62
312.407	18.62
313.199	17.62
313.991	17.62
314.783	17.62
315.574	16.62
316.366	18.62
317.157	12.62
317.949	15.62
318.74	16.62
319.531	14.62
320.322	15.62
321.113	11.62
321.904	14.62
322.695	13.62
323.486	12.62
324.277	12.62
325.068	14.62
325.858	12.62
326.649	11.62
327.439	14.62
328.23	13.62
329.02	10.62
329.81	11.62
330.6	12.62
331.391	11.62
332.181	13.62
332.971	14.62
333.76	12.62
334.55	11.62
335.34	9.62
336.13	12.62
336.919	12.62
337.709	10.62
338.498	14.62
339.287	12.62
340.077	11.62
340.866	12.62
341.655	9.62
342.444	11.62
343.233	10.62
344.022	11.62
344.811	10.62
345.6	13.62
346.388	10.62
347.177	11.62
347.965	13.62
348.754	12.62
349.542	11.62
350.33	13.62
351.119	9.62
351.907	11.62
352.695	8.62
353.483	11.62
354.271	10.62
355.059	12.62
355.846	7.62
356.634	9.62
357.422	12.62
358.209	7.62
358.997	10.62
359.784	10.62
360.571	10.62
361.359	8.62
362.146	12.62
362.933	9.62
363.72	9.62
364.507	9.62
365.294	8.62
366.081	11.62
366.867	10.62
367.654	11.62
368.44	9.62
369.227	7.62
370.013	9.62
370.8	7.62
371.586	9.62
372.372	8.62
373.158	9.62
373.944	10.62
374.73	10.62
375.516	9.62
376.302	8.62
377.088	6.62
377.873	8.62
378.659	8.62
379.445	9.62
380.23	8.62
381.015	11.62
381.801	10.62
382.586	10.62
383.371	10.62
384.156	10.62
384.941	12.62
385.726	9.62
386.511	12.62
387.296	10.62
388.08	10.62
388.865	13.62
389.649	12.62
390.434	10.62
391.218	9.62
392.003	12.62
392.787	14.62
393.571	10.62
394.355	13.62
395.139	13.62
395.923	13.62
396.707	15.62
397.491	13.62
398.274	12.62
399.058	10.62
399.842	13.62
400.625	13.62
401.408	16.62
402.192	13.62
402.975	12.62
403.758	13.62
404.541	14.62
405.324	16.62
406.107	16.62
406.89	16.62
407.673	16.62
408.456	16.62
409.238	14.62
410.021	16.62
410.803	19.62
411.586	17.62
412.368	15.62
413.151	15.62
413.933	15.62
414.715	16.62
415.497	17.62
416.279	19.62
417.061	18.62
417.843	17.62
418.624	19.62
419.406	19.62
420.188	19.62
420.969	21.62
421.751	24.62
422.532	23.62
423.313	22.62
424.095	22.62
424.876	25.62
425.657	26.62
426.438	25.62
427.219	23.62
428	28.62
428.78	26.62
429.561	30.62
430.342	30.62
431.122	30.62
431.903	33.62
432.683	34.62
433.464	37.62
434.244	38.62
435.024	41.62
435.804	38.62
436.584	42.62
437.364	45.62
438.144	45.62
438.924	53.62
439.704	50.62
440.483	55.62
441.263	56.62
442.042	65.62
442.822	68.62
443.601	75.62
444.38	77.62
445.16	80.62
445.939	89.62
446.718	95.62
447.497	104.62
448.276	116.62
449.054	126.62
449.833	137.62
450.612	152.62
451.391	168.62
452.169	184.62
452.948	200.62
453.726	222.62
454.504	255.62
455.282	274.62
456.061	307.62
456.839	349.62
457.617	389.62
458.395	432.62
459.172	488.62
459.95	529.62
460.728	601.62
461.506	679.62
462.283	751.62
463.061	847.62
463.838	930.62
464.615	1046.62
465.393	1165.62
466.17	1306.62
466.947	1456.62
467.724	1622.62
468.501	1796.62
469.278	1995.62
470.055	2212.62
470.831	2468.62
471.608	2722.62
472.385	3038.62
473.161	3375.62
473.938	3692.62
474.714	4095.62
475.49	4505.62
476.266	4938.62
477.043	5457.62
477.819	5993.62
478.595	6552.62
479.371	7186.62
480.146	7854.62
480.922	8638.62
481.698	9502.62
482.473	10395.62
483.249	11321.62
484.024	12335.62
484.8	13458.62
485.575	14632.62
486.35	15949.62
487.126	17262.62
487.901	18774.62
488.676	20312.62
489.451	22011.62
490.225	23716.62
491	25485.62
491.775	27324.62
492.55	29212.62
493.324	31155.62
494.099	32990.62
494.873	34964.62
495.647	36922.62
496.422	38894.62
497.196	40790.62
497.97	42491.62
498.744	44080.62
499.518	45722.62
500.292	46878.62
501.066	47867.62
501.839	48681.62
502.613	49223.62
503.387	49670.62
504.16	49895.62
504.934	49798.62
505.707	49331.62
506.48	48664.62
507.253	47997.62
508.027	47034.62
508.8	45793.62
509.573	44500.62
510.346	43190.62
511.118	41881.62
511.891	40360.62
512.664	38722.62
513.437	37108.62
514.209	35624.62
514.982	34207.62
515.754	32702.62
516.526	31315.62
517.298	30092.62
518.071	28819.62
518.843	27739.62
519.615	26545.62
520.387	25506.62
521.159	24474.62
521.93	23433.62
522.702	22474.62
523.474	21433.62
524.245	20546.62
525.017	19571.62
525.788	18758.62
526.56	17944.62
527.331	17108.62
528.102	16175.62
528.873	15370.62
529.644	14615.62
530.415	13891.62
531.186	13191.62
531.957	12501.62
532.728	11809.62
533.498	11218.62
534.269	10578.62
535.039	9994.62
535.81	9477.62
536.58	8931.62
537.351	8450.62
538.121	7992.62
538.891	7593.62
539.661	7166.62
540.431	6749.62
541.201	6432.62
541.971	6070.62
542.741	5749.62
543.51	5478.62
544.28	5206.62
545.05	4996.62
545.819	4744.62
546.588	4512.62
547.358	4285.62
548.127	4082.62
548.896	3832.62
549.665	3660.62
550.434	3472.62
551.203	3291.62
551.972	3118.62
552.741	2945.62
553.51	2766.62
554.278	2606.62
555.047	2457.62
555.815	2321.62
556.584	2212.62
557.352	2074.62
558.121	1965.62
558.889	1836.62
559.657	1745.62
560.425	1655.62
561.193	1559.62
561.961	1498.62
562.729	1400.62
563.496	1319.62
564.264	1257.62
565.032	1179.62
565.799	1131.62
566.567	1060.62
567.334	1006.62
568.101	956.62
568.869	905.62
569.636	853.62
570.403	802.62
571.17	747.62
571.937	716.62
572.704	672.62
573.471	644.62
574.237	605.62
575.004	564.62
575.771	536.62
576.537	500.62
577.303	466.62
578.07	446.62
578.836	425.62
579.602	398.62
580.368	378.62
581.134	364.62
581.9	345.62
582.666	323.62
583.432	309.62
584.198	293.62
584.964	278.62
585.729	264.62
586.495	252.62
587.26	236.62
588.025	226.62
588.791	214.62
589.556	197.62
590.321	195.62
591.086	183.62
591.851	173.62
592.616	165.62
593.381	158.62
594.146	150.62
594.911	142.62
595.675	140.62
596.44	133.62
597.204	123.62
597.969	119.62
598.733	117.62
599.497	113.62
600.261	103.62
601.025	103.62
601.79	99.62
602.553	99.62
603.317	86.62
604.081	85.62
604.845	81.62
605.609	78.62
606.372	75.62
607.136	77.62
607.899	68.62
608.662	70.62
609.426	66.62
610.189	64.62
610.952	59.62
611.715	57.62
612.478	57.62
613.241	59.62
614.004	51.62
614.767	50.62
615.529	51.62
616.292	45.62
617.055	44.62
617.817	46.62
618.579	40.62
619.342	43.62
620.104	40.62
620.866	39.62
621.628	38.62
622.39	38.62
623.152	36.62
623.914	33.62
624.676	32.62
625.438	34.62
626.199	30.62
626.961	29.62
627.722	31.62
628.484	28.62
629.245	26.62
630.006	27.62
630.768	26.62
631.529	27.62
632.29	22.62
633.051	21.62
633.812	26.62
634.573	25.62
635.333	19.62
636.094	23.62
636.855	21.62
637.615	19.62
638.376	23.62
639.136	18.62
639.896	18.62
640.657	18.62
641.417	16.62
642.177	18.62
642.937	18.62
643.697	18.62
644.457	15.62
645.216	16.62
645.976	14.62
646.736	17.62
647.495	14.62
648.255	14.62
649.014	16.62
649.774	16.62
650.533	13.62
651.292	11.62
652.051	11.62
652.81	17.62
653.569	14.62
654.328	14.62
655.087	14.62
655.846	10.62
656.604	11.62
657.363	13.62
658.121	11.62
658.88	12.62
659.638	9.62
660.397	10.62
661.155	11.62
661.913	10.62
662.671	10.62
663.429	10.62
664.187	11.62
664.945	8.62
665.703	9.62
666.46	9.62
667.218	9.62
667.976	11.62
668.733	9.62
669.49	7.62
670.248	8.62
671.005	11.62
671.762	9.62
672.519	10.62
673.276	10.62
674.033	9.62
674.79	10.62
675.547	8.62
676.304	8.62
677.06	9.62
677.817	9.62
678.574	7.62
679.33	9.62
680.086	7.62
680.843	7.62
681.599	9.62
682.355	8.62
683.111	8.62
683.867	10.62
684.623	5.62
685.379	7.62
686.135	9.62
686.89	9.62
687.646	8.62
688.402	5.62
689.157	7.62
689.912	5.62
690.668	9.62
691.423	7.62
692.178	7.62
692.933	8.62
693.688	7.62
694.443	8.62
695.198	6.62
695.953	8.62
696.708	6.62
697.462	9.62
698.217	8.62
698.972	6.62
699.726	7.62
700.48	7.62
701.235	8.62
701.989	6.62
702.743	8.62
703.497	7.62
704.251	10.62
705.005	7.62
705.759	5.62
706.513	8.62
707.266	7.62
708.02	6.62
708.774	6.62
709.527	7.62
710.28	7.62
711.034	7.62
711.787	10.62
712.54	9.62
713.293	6.62
714.046	6.62
714.799	5.62
715.552	8.62
716.305	5.62
717.058	7.62
717.81	7.62
718.563	7.62
719.315	8.62
720.068	9.62
720.82	7.62
721.573	8.62
722.325	5.62
723.077	8.62
723.829	8.62
724.581	8.62
725.333	8.62
726.085	8.62
726.836	7.62
727.588	6.62
728.34	9.62
729.091	9.62
729.843	9.62
730.594	8.62
731.346	6.62
732.097	11.62
732.848	8.62
733.599	11.62
734.35	9.62
735.101	9.62
735.852	8.62
736.603	9.62
737.354	10.62
738.104	9.62
738.855	10.62
739.605	9.62
740.356	9.62
741.106	10.62
741.856	10.62
742.607	11.62
743.357	10.62
744.107	12.62
744.857	10.62
745.607	10.62
746.357	9.62
747.106	11.62
747.856	11.62
748.606	10.62
749.355	10.62
750.105	11.62
750.854	11.62
751.603	10.62
752.353	12.62
753.102	10.62
753.851	12.62
754.6	12.62
755.349	11.62
756.098	11.62
756.847	11.62
757.595	12.62
758.344	14.62
759.093	12.62
759.841	10.62
760.589	13.62
761.338	10.62
762.086	14.62
762.834	15.62
763.582	14.62
764.331	12.62
765.079	16.62
765.826	13.62
766.574	14.62
767.322	15.62
768.07	15.62
768.817	14.62
769.565	14.62
770.312	14.62
771.06	17.62
771.807	17.62
772.554	16.62
773.302	14.62
774.049	16.62
774.796	16.62
775.543	15.62
776.29	19.62
777.036	15.62
777.783	15.62
778.53	16.62
779.276	17.62
780.023	16.62
780.769	16.62
781.516	15.62
782.262	17.62
783.008	18.62
783.754	18.62
784.5	14.62
785.246	16.62
785.992	17.62
786.738	17.62
787.484	14.62
788.23	16.62
788.975	15.62
789.721	14.62
790.466	14.62
791.212	16.62
791.957	14.62
792.702	14.62
793.447	14.62
794.193	12.62
794.938	14.62
795.683	14.62
796.427	14.62
797.172	12.62
797.917	12.62
798.662	10.62
799.406	14.62
800.151	14.62
800.895	14.62
801.64	10.62
802.384	11.62
803.128	9.62
803.872	12.62
804.616	12.62
805.36	12.62
806.104	11.62
806.848	10.62
807.592	11.62
808.336	11.62
809.079	8.62
809.823	9.62
810.566	10.62
811.31	9.62
812.053	10.62
812.796	9.62
813.539	10.62
814.283	7.62
815.026	6.62
815.769	10.62
816.511	6.62
817.254	9.62
817.997	7.62
818.74	7.62
819.482	9.62
820.225	6.62
820.967	8.62
821.71	7.62
822.452	8.62
823.194	4.62
823.936	6.62
824.678	5.62
825.42	6.62
826.162	5.62
826.904	6.62
827.646	5.62
828.388	7.62
829.129	6.62
829.871	9.62
830.612	6.62
831.354	7.62
832.095	4.62
832.836	7.62
833.577	5.62
834.319	6.62
835.06	5.62
835.801	4.62
836.542	2.62
837.282	5.62
838.023	5.62
838.764	6.62
839.504	4.62
840.245	7.62
840.985	6.62
841.726	6.62
842.466	6.62
843.206	7.62
843.946	5.62
844.687	3.62
845.427	5.62
846.166	5.62
846.906	4.62
847.646	3.62
848.386	3.62
849.125	2.62
849.865	5.62
850.605	6.62
851.344	4.62
852.083	5.62
852.823	3.62
853.562	5.62
854.301	5.62
855.04	1.62
855.779	2.62
856.518	6.62
857.257	2.62
857.995	2.62
858.734	3.62
859.473	2.62
860.211	4.62
860.95	2.62
861.688	5.62
862.426	1.62
863.165	4.62
863.903	2.62
864.641	2.62
865.379	2.62
866.117	0.62
866.855	3.62
867.593	1.62
868.33	3.62
869.068	2.62
869.806	0.62
870.543	2.62
871.28	0.62
872.018	4.62
872.755	1.62
873.492	1.62
874.229	2.62
874.967	3.62
875.703	2.62
876.44	1.62
877.177	2.62
877.914	1.62
878.651	-1.38
879.387	2.62
880.124	0.62
880.86	1.62
881.597	1.62
882.333	2.62
883.069	1.62
883.806	-1.38
884.542	2.62
885.278	0.62
886.014	0.62
886.749	1.62
887.485	2.62
888.221	1.62
888.957	2.62
889.692	2.62
890.428	0.62
891.163	0.62
891.899	1.62
892.634	-0.38
893.369	-0.38
894.104	1.62
894.839	2.62
895.574	-0.38
896.309	0.62
897.044	1.62
897.779	1.62
898.514	0.62
899.248	1.62
899.983	1.62
900.717	0.62
901.452	0.62
902.186	2.62
902.92	1.62
903.654	0.62
904.389	-0.38
905.123	0.62
905.857	0.62
906.59	-0.38
907.324	0.62
908.058	1.62
908.792	3.62
909.525	0.62
910.259	0.62
910.992	0.62
911.726	1.62
912.459	2.62
913.192	-1.38
913.925	0.62
914.658	1.62
915.391	0.62
916.124	0.62
916.857	0.62
917.59	-0.38
918.323	-1.38
919.055	0.62
919.788	-1.38
920.521	0.62
921.253	0.62
921.985	-0.38
922.718	-0.38
923.45	-0.38
924.182	-0.38
924.914	0.62
925.646	0.62
926.378	-0.38
927.11	1.62
927.841	0.62
928.573	2.62
929.305	-0.38
930.036	0.62
930.768	-1.38
931.499	1.62
932.23	-0.38
932.962	0.62
933.693	0.62
934.424	1.62
935.155	-0.38
935.886	1.62
936.617	-0.38
937.348	0.62
938.078	0.62
938.809	1.62
939.54	-1.38
940.27	1.62
941.001	0.62
941.731	-0.38
942.461	-0.38
943.191	0.62
943.922	-0.38
944.652	1.62
945.382	-0.38
946.112	-2.38
946.841	-1.38
947.571	-0.38
948.301	-4.38
949.031	-0.38
949.76	0.62
950.49	-0.38
951.219	0.62
951.948	1.62
952.678	0.62
953.407	-1.38
954.136	0.62
954.865	-2.38
955.594	-1.38
956.323	-0.38
957.052	0.62
957.78	1.62
958.509	-0.38
959.238	0.62
959.966	-1.38
960.695	-0.38
961.423	-1.38
962.151	-1.38
962.88	2.62
963.608	2.62
964.336	1.62
965.064	-1.38
965.792	0.62
966.52	1.62
967.247	-1.38
967.975	-0.38
968.703	-0.38
969.43	-0.38
970.158	-0.38
970.885	1.62
971.613	0.62
972.34	-1.38
973.067	0.62
973.794	2.62
974.521	0.62
975.248	-1.38
975.975	-0.38
976.702	1.62
977.429	-1.38
978.156	0.62
978.882	1.62
979.609	-1.38
980.335	-0.38
981.062	-3.38
981.788	-0.38
982.514	1.62
983.24	-1.38
983.967	1.62
984.693	0.62
985.419	-0.38
986.144	-0.38
986.87	0.62
987.596	-1.38
988.322	-1.38
989.047	-0.38
989.773	0.62
990.498	1.62
991.224	0.62
991.949	-0.38
992.674	-2.38
993.399	-0.38
994.124	-1.38
994.849	-0.38
995.574	-0.38
996.299	-1.38
997.024	0.62
997.749	0.62
998.473	-1.38
999.198	-0.38
999.922	-3.38
1000.647	1.62
1001.371	5.62
1002.095	-0.38
1002.82	-1.38
1003.544	-2.38
1004.268	3.62
1004.992	3.62
1005.716	3.62
1006.439	5.62
1007.163	7.62
1007.887	4.62
1008.611	-2.38
1009.334	1.62
1010.058	2.62
1010.781	-0.38
1011.504	0.62
1012.228	-0.38
1012.951	0.62
1013.674	-0.38
1014.397	-1.38
1015.12	-0.38
