节点500_705_QEPB04081__634__20-54-57-774.txt的数据

Date: Wed Nov 12 20:54:57 CST 2025
User: PC
Spectrometer: QEPB0408
触发模式: 0
积分时间 (秒): 1.000000E-2
Scans to average: 1
启用暗噪声校正: true
启用非线性校正: false
滑动平均宽度: 0
X轴模式: Wavelengths
Number of Pixels in Spectrum: 1044
>>>>>Begin Spectral Data<<<<<
220.843	4.75
221.644	4.75
222.444	4.75
223.244	3.75
224.045	3.75
224.845	3.75
225.645	3.75
226.445	2.75
227.245	6.75
228.045	6.75
228.845	6.75
229.645	5.75
230.444	5.75
231.244	6.75
232.043	6.75
232.843	7.75
233.642	7.75
234.442	5.75
235.241	8.75
236.04	10.75
236.839	11.75
237.638	7.75
238.437	10.75
239.236	10.75
240.035	9.75
240.833	10.75
241.632	10.75
242.43	9.75
243.229	7.75
244.027	12.75
244.826	10.75
245.624	12.75
246.422	10.75
247.22	11.75
248.018	12.75
248.816	11.75
249.614	11.75
250.412	16.75
251.21	13.75
252.007	14.75
252.805	15.75
253.602	13.75
254.4	17.75
255.197	16.75
255.994	15.75
256.791	17.75
257.589	16.75
258.386	17.75
259.183	17.75
259.979	19.75
260.776	18.75
261.573	19.75
262.37	20.75
263.166	23.75
263.963	20.75
264.759	22.75
265.556	24.75
266.352	21.75
267.148	23.75
267.944	22.75
268.74	24.75
269.536	26.75
270.332	27.75
271.128	27.75
271.924	26.75
272.719	26.75
273.515	27.75
274.311	31.75
275.106	30.75
275.901	28.75
276.697	33.75
277.492	28.75
278.287	33.75
279.082	31.75
279.877	29.75
280.672	30.75
281.467	31.75
282.262	34.75
283.056	31.75
283.851	31.75
284.646	32.75
285.44	30.75
286.234	31.75
287.029	29.75
287.823	32.75
288.617	29.75
289.411	30.75
290.205	30.75
290.999	29.75
291.793	30.75
292.587	31.75
293.381	28.75
294.174	28.75
294.968	29.75
295.761	26.75
296.555	22.75
297.348	26.75
298.141	25.75
298.935	27.75
299.728	24.75
300.521	24.75
301.314	24.75
302.107	22.75
302.899	21.75
303.692	22.75
304.485	21.75
305.277	24.75
306.07	22.75
306.862	21.75
307.655	21.75
308.447	22.75
309.239	22.75
310.031	20.75
310.823	16.75
311.615	17.75
312.407	19.75
313.199	15.75
313.991	14.75
314.783	16.75
315.574	14.75
316.366	16.75
317.157	14.75
317.949	14.75
318.74	13.75
319.531	12.75
320.322	13.75
321.113	13.75
321.904	13.75
322.695	11.75
323.486	12.75
324.277	13.75
325.068	10.75
325.858	13.75
326.649	12.75
327.439	11.75
328.23	12.75
329.02	13.75
329.81	12.75
330.6	9.75
331.391	10.75
332.181	9.75
332.971	11.75
333.76	9.75
334.55	10.75
335.34	9.75
336.13	10.75
336.919	10.75
337.709	10.75
338.498	12.75
339.287	12.75
340.077	11.75
340.866	10.75
341.655	11.75
342.444	12.75
343.233	10.75
344.022	9.75
344.811	11.75
345.6	5.75
346.388	10.75
347.177	9.75
347.965	11.75
348.754	9.75
349.542	7.75
350.33	12.75
351.119	9.75
351.907	11.75
352.695	9.75
353.483	10.75
354.271	10.75
355.059	9.75
355.846	11.75
356.634	10.75
357.422	10.75
358.209	9.75
358.997	7.75
359.784	9.75
360.571	10.75
361.359	9.75
362.146	8.75
362.933	7.75
363.72	11.75
364.507	8.75
365.294	7.75
366.081	7.75
366.867	10.75
367.654	8.75
368.44	10.75
369.227	10.75
370.013	9.75
370.8	11.75
371.586	10.75
372.372	9.75
373.158	8.75
373.944	5.75
374.73	9.75
375.516	9.75
376.302	9.75
377.088	7.75
377.873	7.75
378.659	9.75
379.445	8.75
380.23	8.75
381.015	8.75
381.801	9.75
382.586	10.75
383.371	6.75
384.156	7.75
384.941	8.75
385.726	7.75
386.511	7.75
387.296	9.75
388.08	10.75
388.865	10.75
389.649	8.75
390.434	11.75
391.218	11.75
392.003	9.75
392.787	10.75
393.571	13.75
394.355	9.75
395.139	10.75
395.923	12.75
396.707	8.75
397.491	11.75
398.274	13.75
399.058	11.75
399.842	13.75
400.625	14.75
401.408	13.75
402.192	10.75
402.975	13.75
403.758	9.75
404.541	14.75
405.324	12.75
406.107	12.75
406.89	12.75
407.673	13.75
408.456	14.75
409.238	14.75
410.021	14.75
410.803	16.75
411.586	14.75
412.368	17.75
413.151	14.75
413.933	14.75
414.715	15.75
415.497	15.75
416.279	18.75
417.061	17.75
417.843	18.75
418.624	14.75
419.406	19.75
420.188	18.75
420.969	18.75
421.751	18.75
422.532	17.75
423.313	22.75
424.095	21.75
424.876	20.75
425.657	21.75
426.438	21.75
427.219	24.75
428	25.75
428.78	28.75
429.561	27.75
430.342	28.75
431.122	30.75
431.903	30.75
432.683	35.75
433.464	36.75
434.244	37.75
435.024	39.75
435.804	38.75
436.584	44.75
437.364	45.75
438.144	46.75
438.924	51.75
439.704	53.75
440.483	58.75
441.263	63.75
442.042	66.75
442.822	71.75
443.601	80.75
444.38	83.75
445.16	91.75
445.939	96.75
446.718	105.75
447.497	117.75
448.276	133.75
449.054	140.75
449.833	158.75
450.612	173.75
451.391	192.75
452.169	209.75
452.948	235.75
453.726	259.75
454.504	293.75
455.282	319.75
456.061	353.75
456.839	395.75
457.617	442.75
458.395	483.75
459.172	548.75
459.95	605.75
460.728	670.75
461.506	738.75
462.283	831.75
463.061	922.75
463.838	1023.75
464.615	1133.75
465.393	1260.75
466.17	1390.75
466.947	1537.75
467.724	1703.75
468.501	1876.75
469.278	2073.75
470.055	2274.75
470.831	2517.75
471.608	2750.75
472.385	3023.75
473.161	3319.75
473.938	3614.75
474.714	3947.75
475.49	4318.75
476.266	4728.75
477.043	5096.75
477.819	5542.75
478.595	6052.75
479.371	6581.75
480.146	7118.75
480.922	7763.75
481.698	8389.75
482.473	9097.75
483.249	9826.75
484.024	10647.75
484.8	11466.75
485.575	12344.75
486.35	13334.75
487.126	14370.75
487.901	15407.75
488.676	16580.75
489.451	17877.75
490.225	19187.75
491	20562.75
491.775	21851.75
492.55	23340.75
493.324	24788.75
494.099	26359.75
494.873	27907.75
495.647	29466.75
496.422	31004.75
497.196	32604.75
497.97	34194.75
498.744	35635.75
499.518	37176.75
500.292	38474.75
501.066	39624.75
501.839	40662.75
502.613	41479.75
503.387	42293.75
504.16	43013.75
504.934	43379.75
505.707	43529.75
506.48	43535.75
507.253	43412.75
508.027	43103.75
508.8	42609.75
509.573	41909.75
510.346	41166.75
511.118	40412.75
511.891	39343.75
512.664	38141.75
513.437	36943.75
514.209	35696.75
514.982	34454.75
515.754	33238.75
516.526	31945.75
517.298	30799.75
518.071	29622.75
518.843	28469.75
519.615	27340.75
520.387	26267.75
521.159	25229.75
521.93	24287.75
522.702	23289.75
523.474	22246.75
524.245	21377.75
525.017	20536.75
525.788	19643.75
526.56	18843.75
527.331	18051.75
528.102	17187.75
528.873	16358.75
529.644	15620.75
530.415	14898.75
531.186	14228.75
531.957	13569.75
532.728	12894.75
533.498	12256.75
534.269	11626.75
535.039	10992.75
535.81	10451.75
536.58	9859.75
537.351	9357.75
538.121	8862.75
538.891	8370.75
539.661	7912.75
540.431	7511.75
541.201	7133.75
541.971	6770.75
542.741	6402.75
543.51	6077.75
544.28	5767.75
545.05	5521.75
545.819	5246.75
546.588	5000.75
547.358	4784.75
548.127	4541.75
548.896	4327.75
549.665	4089.75
550.434	3876.75
551.203	3704.75
551.972	3521.75
552.741	3319.75
553.51	3130.75
554.278	2972.75
555.047	2794.75
555.815	2643.75
556.584	2520.75
557.352	2371.75
558.121	2267.75
558.889	2109.75
559.657	2009.75
560.425	1893.75
561.193	1807.75
561.961	1714.75
562.729	1625.75
563.496	1530.75
564.264	1442.75
565.032	1366.75
565.799	1299.75
566.567	1218.75
567.334	1151.75
568.101	1091.75
568.869	1037.75
569.636	969.75
570.403	909.75
571.17	862.75
571.937	820.75
572.704	773.75
573.471	728.75
574.237	689.75
575.004	650.75
575.771	602.75
576.537	569.75
577.303	557.75
578.07	516.75
578.836	486.75
579.602	462.75
580.368	436.75
581.134	419.75
581.9	395.75
582.666	382.75
583.432	361.75
584.198	338.75
584.964	318.75
585.729	295.75
586.495	289.75
587.26	270.75
588.025	257.75
588.791	240.75
589.556	236.75
590.321	214.75
591.086	202.75
591.851	197.75
592.616	190.75
593.381	175.75
594.146	170.75
594.911	161.75
595.675	155.75
596.44	150.75
597.204	140.75
597.969	136.75
598.733	128.75
599.497	123.75
600.261	118.75
601.025	109.75
601.79	110.75
602.553	103.75
603.317	100.75
604.081	96.75
604.845	95.75
605.609	84.75
606.372	82.75
607.136	81.75
607.899	78.75
608.662	76.75
609.426	71.75
610.189	68.75
610.952	62.75
611.715	66.75
612.478	61.75
613.241	59.75
614.004	58.75
614.767	52.75
615.529	53.75
616.292	52.75
617.055	49.75
617.817	46.75
618.579	46.75
619.342	46.75
620.104	42.75
620.866	40.75
621.628	38.75
622.39	41.75
623.152	39.75
623.914	34.75
624.676	38.75
625.438	31.75
626.199	33.75
626.961	34.75
627.722	30.75
628.484	30.75
629.245	28.75
630.006	29.75
630.768	26.75
631.529	26.75
632.29	26.75
633.051	25.75
633.812	26.75
634.573	22.75
635.333	20.75
636.094	23.75
636.855	21.75
637.615	19.75
638.376	21.75
639.136	20.75
639.896	20.75
640.657	19.75
641.417	17.75
642.177	17.75
642.937	16.75
643.697	17.75
644.457	16.75
645.216	18.75
645.976	17.75
646.736	16.75
647.495	14.75
648.255	16.75
649.014	15.75
649.774	14.75
650.533	14.75
651.292	13.75
652.051	15.75
652.81	11.75
653.569	14.75
654.328	13.75
655.087	12.75
655.846	12.75
656.604	11.75
657.363	11.75
658.121	13.75
658.88	9.75
659.638	11.75
660.397	12.75
661.155	10.75
661.913	9.75
662.671	10.75
663.429	10.75
664.187	10.75
664.945	9.75
665.703	10.75
666.46	10.75
667.218	9.75
667.976	9.75
668.733	9.75
669.49	7.75
670.248	7.75
671.005	10.75
671.762	9.75
672.519	8.75
673.276	8.75
674.033	7.75
674.79	9.75
675.547	9.75
676.304	7.75
677.06	8.75
677.817	7.75
678.574	7.75
679.33	6.75
680.086	8.75
680.843	9.75
681.599	8.75
682.355	8.75
683.111	4.75
683.867	5.75
684.623	7.75
685.379	6.75
686.135	8.75
686.89	6.75
687.646	7.75
688.402	8.75
689.157	8.75
689.912	9.75
690.668	5.75
691.423	9.75
692.178	6.75
692.933	8.75
693.688	6.75
694.443	4.75
695.198	7.75
695.953	5.75
696.708	8.75
697.462	4.75
698.217	7.75
698.972	7.75
699.726	5.75
700.48	8.75
701.235	7.75
701.989	4.75
702.743	8.75
703.497	7.75
704.251	7.75
705.005	7.75
705.759	6.75
706.513	6.75
707.266	6.75
708.02	6.75
708.774	7.75
709.527	9.75
710.28	6.75
711.034	6.75
711.787	5.75
712.54	5.75
713.293	6.75
714.046	6.75
714.799	9.75
715.552	8.75
716.305	7.75
717.058	4.75
717.81	7.75
718.563	6.75
719.315	8.75
720.068	8.75
720.82	3.75
721.573	7.75
722.325	8.75
723.077	8.75
723.829	5.75
724.581	5.75
725.333	8.75
726.085	6.75
726.836	5.75
727.588	9.75
728.34	8.75
729.091	7.75
729.843	9.75
730.594	8.75
731.346	7.75
732.097	8.75
732.848	9.75
733.599	6.75
734.35	8.75
735.101	7.75
735.852	10.75
736.603	7.75
737.354	7.75
738.104	10.75
738.855	8.75
739.605	6.75
740.356	10.75
741.106	8.75
741.856	7.75
742.607	7.75
743.357	9.75
744.107	7.75
744.857	8.75
745.607	7.75
746.357	7.75
747.106	12.75
747.856	6.75
748.606	8.75
749.355	6.75
750.105	8.75
750.854	8.75
751.603	8.75
752.353	11.75
753.102	8.75
753.851	10.75
754.6	10.75
755.349	11.75
756.098	8.75
756.847	8.75
757.595	10.75
758.344	9.75
759.093	10.75
759.841	10.75
760.589	8.75
761.338	10.75
762.086	12.75
762.834	12.75
763.582	11.75
764.331	11.75
765.079	9.75
765.826	9.75
766.574	12.75
767.322	11.75
768.07	13.75
768.817	14.75
769.565	12.75
770.312	12.75
771.06	9.75
771.807	16.75
772.554	11.75
773.302	12.75
774.049	10.75
774.796	12.75
775.543	13.75
776.29	12.75
777.036	13.75
777.783	12.75
778.53	13.75
779.276	12.75
780.023	12.75
780.769	17.75
781.516	14.75
782.262	13.75
783.008	13.75
783.754	12.75
784.5	13.75
785.246	12.75
785.992	12.75
786.738	14.75
787.484	13.75
788.23	12.75
788.975	10.75
789.721	14.75
790.466	13.75
791.212	13.75
791.957	14.75
792.702	11.75
793.447	10.75
794.193	14.75
794.938	13.75
795.683	11.75
796.427	12.75
797.172	11.75
797.917	9.75
798.662	12.75
799.406	10.75
800.151	10.75
800.895	8.75
801.64	10.75
802.384	11.75
803.128	10.75
803.872	10.75
804.616	9.75
805.36	10.75
806.104	9.75
806.848	8.75
807.592	10.75
808.336	10.75
809.079	8.75
809.823	6.75
810.566	8.75
811.31	9.75
812.053	7.75
812.796	10.75
813.539	7.75
814.283	7.75
815.026	8.75
815.769	7.75
816.511	6.75
817.254	6.75
817.997	6.75
818.74	5.75
819.482	7.75
820.225	6.75
820.967	7.75
821.71	5.75
822.452	6.75
823.194	6.75
823.936	9.75
824.678	5.75
825.42	6.75
826.162	3.75
826.904	7.75
827.646	7.75
828.388	6.75
829.129	5.75
829.871	7.75
830.612	7.75
831.354	5.75
832.095	5.75
832.836	4.75
833.577	5.75
834.319	6.75
835.06	4.75
835.801	7.75
836.542	4.75
837.282	6.75
838.023	6.75
838.764	6.75
839.504	5.75
840.245	7.75
840.985	4.75
841.726	5.75
842.466	6.75
843.206	2.75
843.946	2.75
844.687	4.75
845.427	5.75
846.166	4.75
846.906	5.75
847.646	5.75
848.386	3.75
849.125	4.75
849.865	7.75
850.605	5.75
851.344	5.75
852.083	3.75
852.823	2.75
853.562	4.75
854.301	2.75
855.04	3.75
855.779	5.75
856.518	3.75
857.257	3.75
857.995	3.75
858.734	3.75
859.473	2.75
860.211	2.75
860.95	2.75
861.688	2.75
862.426	1.75
863.165	1.75
863.903	1.75
864.641	1.75
865.379	1.75
866.117	3.75
866.855	-0.25
867.593	1.75
868.33	2.75
869.068	0.75
869.806	3.75
870.543	2.75
871.28	4.75
872.018	-0.25
872.755	0.75
873.492	0.75
874.229	2.75
874.967	2.75
875.703	2.75
876.44	0.75
877.177	2.75
877.914	1.75
878.651	2.75
879.387	2.75
880.124	0.75
880.86	2.75
881.597	2.75
882.333	0.75
883.069	1.75
883.806	1.75
884.542	2.75
885.278	0.75
886.014	1.75
886.749	1.75
887.485	-0.25
888.221	-1.25
888.957	0.75
889.692	0.75
890.428	1.75
891.163	-2.25
891.899	0.75
892.634	1.75
893.369	0.75
894.104	-0.25
894.839	1.75
895.574	1.75
896.309	0.75
897.044	0.75
897.779	1.75
898.514	1.75
899.248	0.75
899.983	-0.25
900.717	3.75
901.452	0.75
902.186	-0.25
902.92	0.75
903.654	2.75
904.389	1.75
905.123	0.75
905.857	-0.25
906.59	0.75
907.324	1.75
908.058	-1.25
908.792	-2.25
909.525	2.75
910.259	-1.25
910.992	0.75
911.726	0.75
912.459	0.75
913.192	1.75
913.925	-1.25
914.658	-1.25
915.391	-0.25
916.124	0.75
916.857	0.75
917.59	-0.25
918.323	2.75
919.055	-1.25
919.788	0.75
920.521	-0.25
921.253	2.75
921.985	2.75
922.718	1.75
923.45	1.75
924.182	-0.25
924.914	-1.25
925.646	-1.25
926.378	0.75
927.11	-0.25
927.841	-2.25
928.573	-0.25
929.305	-0.25
930.036	-0.25
930.768	-1.25
931.499	0.75
932.23	-0.25
932.962	-1.25
933.693	0.75
934.424	-1.25
935.155	0.75
935.886	1.75
936.617	-2.25
937.348	0.75
938.078	-1.25
938.809	1.75
939.54	1.75
940.27	-0.25
941.001	-0.25
941.731	-1.25
942.461	0.75
943.191	-0.25
943.922	1.75
944.652	-1.25
945.382	-1.25
946.112	0.75
946.841	-0.25
947.571	0.75
948.301	-0.25
949.031	-1.25
949.76	-1.25
950.49	-2.25
951.219	-1.25
951.948	-0.25
952.678	-0.25
953.407	-0.25
954.136	0.75
954.865	0.75
955.594	-0.25
956.323	0.75
957.052	-0.25
957.78	-1.25
958.509	-1.25
959.238	-1.25
959.966	-1.25
960.695	0.75
961.423	0.75
962.151	0.75
962.88	0.75
963.608	0.75
964.336	-1.25
965.064	-1.25
965.792	-2.25
966.52	-0.25
967.247	-0.25
967.975	-1.25
968.703	-0.25
969.43	-0.25
970.158	-3.25
970.885	-2.25
971.613	-0.25
972.34	-1.25
973.067	-0.25
973.794	0.75
974.521	-1.25
975.248	0.75
975.975	0.75
976.702	-0.25
977.429	0.75
978.156	0.75
978.882	0.75
979.609	0.75
980.335	-1.25
981.062	1.75
981.788	-1.25
982.514	0.75
983.24	0.75
983.967	-1.25
984.693	-1.25
985.419	0.75
986.144	1.75
986.87	-0.25
987.596	-0.25
988.322	0.75
989.047	0.75
989.773	-0.25
990.498	-1.25
991.224	-0.25
991.949	-0.25
992.674	2.75
993.399	-0.25
994.124	1.75
994.849	-1.25
995.574	1.75
996.299	0.75
997.024	-1.25
997.749	-2.25
998.473	1.75
999.198	-1.25
999.922	1.75
1000.647	1.75
1001.371	3.75
1002.095	-1.25
1002.82	-2.25
1003.544	-0.25
1004.268	4.75
1004.992	3.75
1005.716	4.75
1006.439	1.75
1007.163	2.75
1007.887	2.75
1008.611	0.75
1009.334	0.75
1010.058	-1.25
1010.781	-0.25
1011.504	0.75
1012.228	-0.25
1012.951	-1.25
1013.674	1.75
1014.397	-0.25
1015.12	-0.25
