节点500_705_QEPB04081__546__20-53-42-692.txt的数据

Date: Wed Nov 12 20:53:42 CST 2025
User: PC
Spectrometer: QEPB0408
触发模式: 0
积分时间 (秒): 1.000000E-2
Scans to average: 1
启用暗噪声校正: true
启用非线性校正: false
滑动平均宽度: 0
X轴模式: Wavelengths
Number of Pixels in Spectrum: 1044
>>>>>Begin Spectral Data<<<<<
220.843	6.75
221.644	6.75
222.444	5.75
223.244	6.75
224.045	5.75
224.845	7.75
225.645	9.75
226.445	8.75
227.245	8.75
228.045	7.75
228.845	6.75
229.645	5.75
230.444	7.75
231.244	5.75
232.043	5.75
232.843	8.75
233.642	12.75
234.442	10.75
235.241	9.75
236.04	9.75
236.839	9.75
237.638	13.75
238.437	12.75
239.236	9.75
240.035	11.75
240.833	11.75
241.632	10.75
242.43	12.75
243.229	11.75
244.027	12.75
244.826	12.75
245.624	12.75
246.422	11.75
247.22	13.75
248.018	14.75
248.816	13.75
249.614	14.75
250.412	15.75
251.21	13.75
252.007	18.75
252.805	16.75
253.602	19.75
254.4	17.75
255.197	20.75
255.994	16.75
256.791	17.75
257.589	17.75
258.386	19.75
259.183	18.75
259.979	21.75
260.776	21.75
261.573	22.75
262.37	21.75
263.166	20.75
263.963	24.75
264.759	23.75
265.556	25.75
266.352	24.75
267.148	24.75
267.944	24.75
268.74	28.75
269.536	27.75
270.332	27.75
271.128	31.75
271.924	28.75
272.719	28.75
273.515	30.75
274.311	29.75
275.106	30.75
275.901	27.75
276.697	32.75
277.492	27.75
278.287	33.75
279.082	30.75
279.877	33.75
280.672	32.75
281.467	32.75
282.262	31.75
283.056	33.75
283.851	34.75
284.646	33.75
285.44	33.75
286.234	30.75
287.029	31.75
287.823	31.75
288.617	32.75
289.411	29.75
290.205	31.75
290.999	30.75
291.793	30.75
292.587	31.75
293.381	29.75
294.174	29.75
294.968	29.75
295.761	28.75
296.555	26.75
297.348	28.75
298.141	25.75
298.935	30.75
299.728	27.75
300.521	23.75
301.314	24.75
302.107	23.75
302.899	23.75
303.692	22.75
304.485	22.75
305.277	21.75
306.07	22.75
306.862	22.75
307.655	21.75
308.447	22.75
309.239	20.75
310.031	21.75
310.823	20.75
311.615	17.75
312.407	18.75
313.199	19.75
313.991	17.75
314.783	16.75
315.574	18.75
316.366	15.75
317.157	16.75
317.949	16.75
318.74	15.75
319.531	16.75
320.322	16.75
321.113	15.75
321.904	13.75
322.695	14.75
323.486	11.75
324.277	14.75
325.068	15.75
325.858	15.75
326.649	12.75
327.439	13.75
328.23	14.75
329.02	15.75
329.81	15.75
330.6	11.75
331.391	13.75
332.181	11.75
332.971	11.75
333.76	9.75
334.55	11.75
335.34	14.75
336.13	11.75
336.919	13.75
337.709	12.75
338.498	13.75
339.287	14.75
340.077	10.75
340.866	13.75
341.655	13.75
342.444	12.75
343.233	15.75
344.022	13.75
344.811	11.75
345.6	11.75
346.388	11.75
347.177	12.75
347.965	12.75
348.754	12.75
349.542	12.75
350.33	10.75
351.119	11.75
351.907	10.75
352.695	11.75
353.483	10.75
354.271	15.75
355.059	10.75
355.846	10.75
356.634	10.75
357.422	10.75
358.209	11.75
358.997	11.75
359.784	10.75
360.571	10.75
361.359	13.75
362.146	10.75
362.933	9.75
363.72	10.75
364.507	10.75
365.294	10.75
366.081	10.75
366.867	10.75
367.654	9.75
368.44	9.75
369.227	11.75
370.013	8.75
370.8	10.75
371.586	10.75
372.372	9.75
373.158	8.75
373.944	9.75
374.73	11.75
375.516	9.75
376.302	11.75
377.088	9.75
377.873	11.75
378.659	10.75
379.445	10.75
380.23	8.75
381.015	10.75
381.801	12.75
382.586	10.75
383.371	11.75
384.156	10.75
384.941	10.75
385.726	12.75
386.511	10.75
387.296	11.75
388.08	11.75
388.865	10.75
389.649	12.75
390.434	10.75
391.218	10.75
392.003	12.75
392.787	13.75
393.571	12.75
394.355	14.75
395.139	15.75
395.923	9.75
396.707	13.75
397.491	10.75
398.274	12.75
399.058	17.75
399.842	12.75
400.625	13.75
401.408	12.75
402.192	15.75
402.975	12.75
403.758	11.75
404.541	13.75
405.324	9.75
406.107	16.75
406.89	13.75
407.673	15.75
408.456	12.75
409.238	13.75
410.021	17.75
410.803	17.75
411.586	15.75
412.368	15.75
413.151	16.75
413.933	15.75
414.715	19.75
415.497	19.75
416.279	15.75
417.061	18.75
417.843	20.75
418.624	20.75
419.406	19.75
420.188	20.75
420.969	20.75
421.751	22.75
422.532	22.75
423.313	23.75
424.095	23.75
424.876	23.75
425.657	23.75
426.438	24.75
427.219	25.75
428	24.75
428.78	25.75
429.561	28.75
430.342	28.75
431.122	30.75
431.903	30.75
432.683	31.75
433.464	34.75
434.244	40.75
435.024	37.75
435.804	38.75
436.584	46.75
437.364	45.75
438.144	47.75
438.924	51.75
439.704	58.75
440.483	55.75
441.263	62.75
442.042	66.75
442.822	70.75
443.601	77.75
444.38	86.75
445.16	91.75
445.939	97.75
446.718	110.75
447.497	113.75
448.276	125.75
449.054	138.75
449.833	155.75
450.612	175.75
451.391	192.75
452.169	206.75
452.948	231.75
453.726	261.75
454.504	285.75
455.282	314.75
456.061	357.75
456.839	395.75
457.617	443.75
458.395	484.75
459.172	543.75
459.95	611.75
460.728	664.75
461.506	734.75
462.283	824.75
463.061	907.75
463.838	1017.75
464.615	1125.75
465.393	1255.75
466.17	1383.75
466.947	1528.75
467.724	1699.75
468.501	1866.75
469.278	2053.75
470.055	2273.75
470.831	2490.75
471.608	2766.75
472.385	3014.75
473.161	3315.75
473.938	3623.75
474.714	3976.75
475.49	4338.75
476.266	4749.75
477.043	5139.75
477.819	5610.75
478.595	6088.75
479.371	6626.75
480.146	7200.75
480.922	7825.75
481.698	8488.75
482.473	9225.75
483.249	9957.75
484.024	10794.75
484.8	11662.75
485.575	12560.75
486.35	13606.75
487.126	14603.75
487.901	15733.75
488.676	16984.75
489.451	18264.75
490.225	19535.75
491	20933.75
491.775	22384.75
492.55	23871.75
493.324	25360.75
494.099	27005.75
494.873	28669.75
495.647	30240.75
496.422	31774.75
497.196	33571.75
497.97	34972.75
498.744	36397.75
499.518	38083.75
500.292	39376.75
501.066	40346.75
501.839	41364.75
502.613	42413.75
503.387	43094.75
504.16	43742.75
504.934	44005.75
505.707	44260.75
506.48	44239.75
507.253	43861.75
508.027	43598.75
508.8	42995.75
509.573	42303.75
510.346	41440.75
511.118	40643.75
511.891	39559.75
512.664	38218.75
513.437	37031.75
514.209	35775.75
514.982	34497.75
515.754	33255.75
516.526	31955.75
517.298	30662.75
518.071	29591.75
518.843	28438.75
519.615	27259.75
520.387	26216.75
521.159	25198.75
521.93	24183.75
522.702	23096.75
523.474	22207.75
524.245	21298.75
525.017	20481.75
525.788	19596.75
526.56	18786.75
527.331	18020.75
528.102	17136.75
528.873	16294.75
529.644	15527.75
530.415	14858.75
531.186	14149.75
531.957	13463.75
532.728	12803.75
533.498	12138.75
534.269	11519.75
535.039	10895.75
535.81	10329.75
536.58	9743.75
537.351	9243.75
538.121	8773.75
538.891	8293.75
539.661	7850.75
540.431	7427.75
541.201	7083.75
541.971	6719.75
542.741	6353.75
543.51	6036.75
544.28	5712.75
545.05	5466.75
545.819	5191.75
546.588	4939.75
547.358	4730.75
548.127	4491.75
548.896	4265.75
549.665	4041.75
550.434	3848.75
551.203	3653.75
551.972	3468.75
552.741	3302.75
553.51	3099.75
554.278	2932.75
555.047	2763.75
555.815	2621.75
556.584	2472.75
557.352	2343.75
558.121	2215.75
558.889	2094.75
559.657	1976.75
560.425	1879.75
561.193	1801.75
561.961	1692.75
562.729	1587.75
563.496	1507.75
564.264	1450.75
565.032	1349.75
565.799	1275.75
566.567	1203.75
567.334	1146.75
568.101	1074.75
568.869	998.75
569.636	962.75
570.403	884.75
571.17	855.75
571.937	805.75
572.704	776.75
573.471	719.75
574.237	674.75
575.004	633.75
575.771	602.75
576.537	566.75
577.303	534.75
578.07	510.75
578.836	488.75
579.602	456.75
580.368	429.75
581.134	410.75
581.9	392.75
582.666	378.75
583.432	351.75
584.198	330.75
584.964	318.75
585.729	303.75
586.495	281.75
587.26	265.75
588.025	249.75
588.791	239.75
589.556	234.75
590.321	213.75
591.086	206.75
591.851	194.75
592.616	182.75
593.381	179.75
594.146	167.75
594.911	163.75
595.675	155.75
596.44	151.75
597.204	140.75
597.969	134.75
598.733	131.75
599.497	121.75
600.261	117.75
601.025	113.75
601.79	104.75
602.553	101.75
603.317	105.75
604.081	94.75
604.845	89.75
605.609	91.75
606.372	84.75
607.136	83.75
607.899	83.75
608.662	77.75
609.426	73.75
610.189	70.75
610.952	64.75
611.715	63.75
612.478	61.75
613.241	57.75
614.004	57.75
614.767	57.75
615.529	54.75
616.292	50.75
617.055	51.75
617.817	48.75
618.579	48.75
619.342	48.75
620.104	40.75
620.866	41.75
621.628	40.75
622.39	42.75
623.152	38.75
623.914	38.75
624.676	39.75
625.438	34.75
626.199	34.75
626.961	32.75
627.722	33.75
628.484	32.75
629.245	31.75
630.006	28.75
630.768	28.75
631.529	29.75
632.29	28.75
633.051	27.75
633.812	25.75
634.573	27.75
635.333	25.75
636.094	23.75
636.855	24.75
637.615	19.75
638.376	20.75
639.136	22.75
639.896	21.75
640.657	19.75
641.417	19.75
642.177	19.75
642.937	18.75
643.697	19.75
644.457	19.75
645.216	17.75
645.976	15.75
646.736	14.75
647.495	17.75
648.255	14.75
649.014	15.75
649.774	15.75
650.533	15.75
651.292	17.75
652.051	14.75
652.81	13.75
653.569	14.75
654.328	12.75
655.087	14.75
655.846	14.75
656.604	16.75
657.363	13.75
658.121	14.75
658.88	12.75
659.638	14.75
660.397	11.75
661.155	11.75
661.913	11.75
662.671	9.75
663.429	9.75
664.187	11.75
664.945	10.75
665.703	9.75
666.46	10.75
667.218	9.75
667.976	8.75
668.733	9.75
669.49	11.75
670.248	8.75
671.005	10.75
671.762	10.75
672.519	10.75
673.276	11.75
674.033	9.75
674.79	11.75
675.547	8.75
676.304	11.75
677.06	9.75
677.817	8.75
678.574	10.75
679.33	5.75
680.086	8.75
680.843	8.75
681.599	9.75
682.355	8.75
683.111	7.75
683.867	7.75
684.623	8.75
685.379	8.75
686.135	5.75
686.89	7.75
687.646	8.75
688.402	9.75
689.157	10.75
689.912	7.75
690.668	8.75
691.423	10.75
692.178	8.75
692.933	8.75
693.688	8.75
694.443	9.75
695.198	7.75
695.953	6.75
696.708	8.75
697.462	8.75
698.217	6.75
698.972	8.75
699.726	9.75
700.48	8.75
701.235	6.75
701.989	5.75
702.743	6.75
703.497	8.75
704.251	8.75
705.005	7.75
705.759	8.75
706.513	7.75
707.266	7.75
708.02	10.75
708.774	8.75
709.527	6.75
710.28	7.75
711.034	7.75
711.787	7.75
712.54	8.75
713.293	11.75
714.046	8.75
714.799	9.75
715.552	8.75
716.305	7.75
717.058	6.75
717.81	8.75
718.563	8.75
719.315	8.75
720.068	8.75
720.82	8.75
721.573	7.75
722.325	8.75
723.077	8.75
723.829	8.75
724.581	6.75
725.333	6.75
726.085	6.75
726.836	11.75
727.588	10.75
728.34	8.75
729.091	8.75
729.843	7.75
730.594	9.75
731.346	7.75
732.097	7.75
732.848	9.75
733.599	7.75
734.35	8.75
735.101	7.75
735.852	8.75
736.603	9.75
737.354	13.75
738.104	7.75
738.855	9.75
739.605	10.75
740.356	9.75
741.106	11.75
741.856	9.75
742.607	10.75
743.357	10.75
744.107	10.75
744.857	11.75
745.607	10.75
746.357	11.75
747.106	10.75
747.856	10.75
748.606	11.75
749.355	11.75
750.105	11.75
750.854	12.75
751.603	11.75
752.353	10.75
753.102	10.75
753.851	11.75
754.6	13.75
755.349	13.75
756.098	11.75
756.847	11.75
757.595	13.75
758.344	8.75
759.093	12.75
759.841	9.75
760.589	12.75
761.338	12.75
762.086	12.75
762.834	12.75
763.582	11.75
764.331	12.75
765.079	13.75
765.826	11.75
766.574	13.75
767.322	11.75
768.07	14.75
768.817	10.75
769.565	14.75
770.312	13.75
771.06	13.75
771.807	14.75
772.554	11.75
773.302	16.75
774.049	14.75
774.796	12.75
775.543	15.75
776.29	13.75
777.036	17.75
777.783	15.75
778.53	13.75
779.276	13.75
780.023	14.75
780.769	15.75
781.516	12.75
782.262	13.75
783.008	15.75
783.754	15.75
784.5	13.75
785.246	15.75
785.992	15.75
786.738	14.75
787.484	13.75
788.23	15.75
788.975	14.75
789.721	13.75
790.466	14.75
791.212	14.75
791.957	13.75
792.702	13.75
793.447	16.75
794.193	15.75
794.938	13.75
795.683	12.75
796.427	11.75
797.172	14.75
797.917	11.75
798.662	11.75
799.406	12.75
800.151	15.75
800.895	11.75
801.64	12.75
802.384	11.75
803.128	11.75
803.872	11.75
804.616	10.75
805.36	14.75
806.104	12.75
806.848	9.75
807.592	10.75
808.336	11.75
809.079	11.75
809.823	8.75
810.566	10.75
811.31	11.75
812.053	8.75
812.796	9.75
813.539	9.75
814.283	8.75
815.026	8.75
815.769	8.75
816.511	9.75
817.254	8.75
817.997	8.75
818.74	7.75
819.482	10.75
820.225	7.75
820.967	8.75
821.71	8.75
822.452	9.75
823.194	8.75
823.936	6.75
824.678	6.75
825.42	7.75
826.162	7.75
826.904	6.75
827.646	6.75
828.388	8.75
829.129	5.75
829.871	8.75
830.612	7.75
831.354	8.75
832.095	10.75
832.836	5.75
833.577	8.75
834.319	7.75
835.06	5.75
835.801	8.75
836.542	6.75
837.282	6.75
838.023	7.75
838.764	5.75
839.504	6.75
840.245	6.75
840.985	6.75
841.726	6.75
842.466	6.75
843.206	5.75
843.946	5.75
844.687	7.75
845.427	5.75
846.166	5.75
846.906	4.75
847.646	5.75
848.386	5.75
849.125	3.75
849.865	5.75
850.605	5.75
851.344	4.75
852.083	5.75
852.823	6.75
853.562	5.75
854.301	6.75
855.04	5.75
855.779	4.75
856.518	6.75
857.257	6.75
857.995	5.75
858.734	5.75
859.473	3.75
860.211	4.75
860.95	3.75
861.688	3.75
862.426	2.75
863.165	3.75
863.903	4.75
864.641	2.75
865.379	3.75
866.117	1.75
866.855	4.75
867.593	2.75
868.33	4.75
869.068	2.75
869.806	3.75
870.543	4.75
871.28	2.75
872.018	1.75
872.755	-0.25
873.492	2.75
874.229	3.75
874.967	3.75
875.703	4.75
876.44	3.75
877.177	4.75
877.914	2.75
878.651	4.75
879.387	3.75
880.124	2.75
880.86	2.75
881.597	3.75
882.333	2.75
883.069	5.75
883.806	1.75
884.542	2.75
885.278	-0.25
886.014	2.75
886.749	1.75
887.485	1.75
888.221	1.75
888.957	1.75
889.692	1.75
890.428	-0.25
891.163	2.75
891.899	0.75
892.634	0.75
893.369	2.75
894.104	0.75
894.839	3.75
895.574	2.75
896.309	1.75
897.044	1.75
897.779	2.75
898.514	2.75
899.248	0.75
899.983	1.75
900.717	0.75
901.452	2.75
902.186	2.75
902.92	2.75
903.654	1.75
904.389	4.75
905.123	3.75
905.857	1.75
906.59	1.75
907.324	2.75
908.058	1.75
908.792	2.75
909.525	3.75
910.259	-0.25
910.992	1.75
911.726	-0.25
912.459	3.75
913.192	3.75
913.925	1.75
914.658	2.75
915.391	1.75
916.124	-0.25
916.857	2.75
917.59	1.75
918.323	1.75
919.055	0.75
919.788	1.75
920.521	1.75
921.253	1.75
921.985	3.75
922.718	1.75
923.45	0.75
924.182	0.75
924.914	0.75
925.646	0.75
926.378	3.75
927.11	2.75
927.841	1.75
928.573	1.75
929.305	0.75
930.036	0.75
930.768	1.75
931.499	0.75
932.23	2.75
932.962	1.75
933.693	1.75
934.424	-0.25
935.155	2.75
935.886	1.75
936.617	0.75
937.348	0.75
938.078	1.75
938.809	0.75
939.54	1.75
940.27	2.75
941.001	-1.25
941.731	-1.25
942.461	0.75
943.191	1.75
943.922	0.75
944.652	1.75
945.382	0.75
946.112	0.75
946.841	-2.25
947.571	0.75
948.301	1.75
949.031	-0.25
949.76	0.75
950.49	2.75
951.219	0.75
951.948	-0.25
952.678	0.75
953.407	1.75
954.136	1.75
954.865	2.75
955.594	0.75
956.323	2.75
957.052	-1.25
957.78	0.75
958.509	2.75
959.238	1.75
959.966	0.75
960.695	-0.25
961.423	2.75
962.151	-0.25
962.88	1.75
963.608	2.75
964.336	-1.25
965.064	0.75
965.792	1.75
966.52	1.75
967.247	-0.25
967.975	-0.25
968.703	1.75
969.43	-0.25
970.158	1.75
970.885	2.75
971.613	2.75
972.34	3.75
973.067	0.75
973.794	1.75
974.521	2.75
975.248	0.75
975.975	0.75
976.702	1.75
977.429	-0.25
978.156	-0.25
978.882	0.75
979.609	-0.25
980.335	2.75
981.062	2.75
981.788	1.75
982.514	1.75
983.24	0.75
983.967	-0.25
984.693	0.75
985.419	-0.25
986.144	-2.25
986.87	0.75
987.596	0.75
988.322	2.75
989.047	2.75
989.773	-0.25
990.498	0.75
991.224	1.75
991.949	0.75
992.674	2.75
993.399	0.75
994.124	0.75
994.849	0.75
995.574	-0.25
996.299	1.75
997.024	-0.25
997.749	2.75
998.473	1.75
999.198	2.75
999.922	2.75
1000.647	-0.25
1001.371	3.75
1002.095	-2.25
1002.82	-0.25
1003.544	-0.25
1004.268	5.75
1004.992	3.75
1005.716	8.75
1006.439	4.75
1007.163	5.75
1007.887	7.75
1008.611	1.75
1009.334	2.75
1010.058	0.75
1010.781	1.75
1011.504	2.75
1012.228	2.75
1012.951	-0.25
1013.674	-0.25
1014.397	-1.25
1015.12	0.75
