节点500_705_QEPB04081__673__20-55-29-838.txt的数据

Date: Wed Nov 12 20:55:29 CST 2025
User: PC
Spectrometer: QEPB0408
触发模式: 0
积分时间 (秒): 1.000000E-2
Scans to average: 1
启用暗噪声校正: true
启用非线性校正: false
滑动平均宽度: 0
X轴模式: Wavelengths
Number of Pixels in Spectrum: 1044
>>>>>Begin Spectral Data<<<<<
220.843	5.38
221.644	7.38
222.444	5.38
223.244	6.38
224.045	6.38
224.845	7.38
225.645	7.38
226.445	6.38
227.245	6.38
228.045	6.38
228.845	4.38
229.645	10.38
230.444	5.38
231.244	11.38
232.043	6.38
232.843	6.38
233.642	8.38
234.442	10.38
235.241	9.38
236.04	9.38
236.839	9.38
237.638	10.38
238.437	12.38
239.236	11.38
240.035	11.38
240.833	9.38
241.632	9.38
242.43	11.38
243.229	15.38
244.027	11.38
244.826	11.38
245.624	12.38
246.422	12.38
247.22	12.38
248.018	14.38
248.816	16.38
249.614	12.38
250.412	17.38
251.21	15.38
252.007	15.38
252.805	15.38
253.602	15.38
254.4	18.38
255.197	15.38
255.994	19.38
256.791	16.38
257.589	18.38
258.386	21.38
259.183	19.38
259.979	19.38
260.776	20.38
261.573	19.38
262.37	22.38
263.166	21.38
263.963	24.38
264.759	21.38
265.556	22.38
266.352	22.38
267.148	23.38
267.944	25.38
268.74	25.38
269.536	25.38
270.332	25.38
271.128	28.38
271.924	30.38
272.719	30.38
273.515	28.38
274.311	31.38
275.106	31.38
275.901	29.38
276.697	30.38
277.492	28.38
278.287	29.38
279.082	33.38
279.877	31.38
280.672	31.38
281.467	31.38
282.262	33.38
283.056	32.38
283.851	31.38
284.646	30.38
285.44	31.38
286.234	33.38
287.029	31.38
287.823	31.38
288.617	35.38
289.411	29.38
290.205	31.38
290.999	29.38
291.793	28.38
292.587	29.38
293.381	29.38
294.174	28.38
294.968	29.38
295.761	28.38
296.555	28.38
297.348	25.38
298.141	25.38
298.935	28.38
299.728	25.38
300.521	23.38
301.314	25.38
302.107	24.38
302.899	23.38
303.692	22.38
304.485	25.38
305.277	23.38
306.07	24.38
306.862	21.38
307.655	21.38
308.447	20.38
309.239	20.38
310.031	19.38
310.823	18.38
311.615	19.38
312.407	18.38
313.199	15.38
313.991	16.38
314.783	19.38
315.574	16.38
316.366	15.38
317.157	17.38
317.949	15.38
318.74	15.38
319.531	15.38
320.322	12.38
321.113	14.38
321.904	15.38
322.695	14.38
323.486	13.38
324.277	11.38
325.068	14.38
325.858	11.38
326.649	14.38
327.439	12.38
328.23	13.38
329.02	11.38
329.81	13.38
330.6	12.38
331.391	9.38
332.181	13.38
332.971	14.38
333.76	11.38
334.55	11.38
335.34	11.38
336.13	13.38
336.919	11.38
337.709	13.38
338.498	12.38
339.287	11.38
340.077	13.38
340.866	10.38
341.655	12.38
342.444	12.38
343.233	12.38
344.022	10.38
344.811	11.38
345.6	13.38
346.388	11.38
347.177	11.38
347.965	9.38
348.754	11.38
349.542	13.38
350.33	9.38
351.119	13.38
351.907	9.38
352.695	11.38
353.483	9.38
354.271	8.38
355.059	8.38
355.846	7.38
356.634	10.38
357.422	8.38
358.209	10.38
358.997	11.38
359.784	7.38
360.571	11.38
361.359	8.38
362.146	12.38
362.933	10.38
363.72	10.38
364.507	11.38
365.294	8.38
366.081	10.38
366.867	8.38
367.654	8.38
368.44	9.38
369.227	10.38
370.013	11.38
370.8	8.38
371.586	8.38
372.372	7.38
373.158	11.38
373.944	10.38
374.73	10.38
375.516	8.38
376.302	9.38
377.088	8.38
377.873	10.38
378.659	7.38
379.445	8.38
380.23	7.38
381.015	10.38
381.801	10.38
382.586	11.38
383.371	10.38
384.156	11.38
384.941	10.38
385.726	10.38
386.511	9.38
387.296	11.38
388.08	14.38
388.865	12.38
389.649	10.38
390.434	13.38
391.218	11.38
392.003	9.38
392.787	13.38
393.571	13.38
394.355	11.38
395.139	12.38
395.923	14.38
396.707	12.38
397.491	14.38
398.274	12.38
399.058	12.38
399.842	13.38
400.625	13.38
401.408	13.38
402.192	13.38
402.975	16.38
403.758	15.38
404.541	14.38
405.324	15.38
406.107	13.38
406.89	17.38
407.673	16.38
408.456	15.38
409.238	17.38
410.021	14.38
410.803	15.38
411.586	19.38
412.368	17.38
413.151	14.38
413.933	14.38
414.715	15.38
415.497	16.38
416.279	19.38
417.061	19.38
417.843	17.38
418.624	16.38
419.406	22.38
420.188	19.38
420.969	18.38
421.751	24.38
422.532	23.38
423.313	19.38
424.095	23.38
424.876	23.38
425.657	22.38
426.438	24.38
427.219	24.38
428	27.38
428.78	27.38
429.561	27.38
430.342	27.38
431.122	31.38
431.903	34.38
432.683	34.38
433.464	33.38
434.244	35.38
435.024	41.38
435.804	41.38
436.584	44.38
437.364	47.38
438.144	50.38
438.924	54.38
439.704	53.38
440.483	56.38
441.263	67.38
442.042	68.38
442.822	70.38
443.601	80.38
444.38	84.38
445.16	92.38
445.939	100.38
446.718	110.38
447.497	118.38
448.276	132.38
449.054	141.38
449.833	161.38
450.612	167.38
451.391	185.38
452.169	211.38
452.948	231.38
453.726	259.38
454.504	289.38
455.282	319.38
456.061	355.38
456.839	399.38
457.617	450.38
458.395	492.38
459.172	546.38
459.95	606.38
460.728	676.38
461.506	749.38
462.283	834.38
463.061	943.38
463.838	1016.38
464.615	1138.38
465.393	1261.38
466.17	1389.38
466.947	1543.38
467.724	1705.38
468.501	1865.38
469.278	2082.38
470.055	2277.38
470.831	2534.38
471.608	2773.38
472.385	3024.38
473.161	3298.38
473.938	3626.38
474.714	3959.38
475.49	4322.38
476.266	4728.38
477.043	5135.38
477.819	5560.38
478.595	6070.38
479.371	6578.38
480.146	7160.38
480.922	7761.38
481.698	8422.38
482.473	9126.38
483.249	9861.38
484.024	10649.38
484.8	11502.38
485.575	12405.38
486.35	13385.38
487.126	14425.38
487.901	15505.38
488.676	16636.38
489.451	17915.38
490.225	19170.38
491	20487.38
491.775	21868.38
492.55	23356.38
493.324	24811.38
494.099	26367.38
494.873	27957.38
495.647	29479.38
496.422	31150.38
497.196	32719.38
497.97	34283.38
498.744	35680.38
499.518	37195.38
500.292	38587.38
501.066	39705.38
501.839	40664.38
502.613	41562.38
503.387	42400.38
504.16	43062.38
504.934	43407.38
505.707	43758.38
506.48	43643.38
507.253	43453.38
508.027	43163.38
508.8	42603.38
509.573	42015.38
510.346	41290.38
511.118	40522.38
511.891	39556.38
512.664	38246.38
513.437	37075.38
514.209	35868.38
514.982	34615.38
515.754	33304.38
516.526	31949.38
517.298	30814.38
518.071	29757.38
518.843	28593.38
519.615	27373.38
520.387	26361.38
521.159	25326.38
521.93	24290.38
522.702	23302.38
523.474	22325.38
524.245	21435.38
525.017	20493.38
525.788	19711.38
526.56	18968.38
527.331	18145.38
528.102	17284.38
528.873	16488.38
529.644	15684.38
530.415	14995.38
531.186	14294.38
531.957	13594.38
532.728	12908.38
533.498	12231.38
534.269	11642.38
535.039	11034.38
535.81	10462.38
536.58	9892.38
537.351	9362.38
538.121	8881.38
538.891	8384.38
539.661	7987.38
540.431	7560.38
541.201	7186.38
541.971	6797.38
542.741	6417.38
543.51	6112.38
544.28	5804.38
545.05	5543.38
545.819	5271.38
546.588	5045.38
547.358	4784.38
548.127	4550.38
548.896	4332.38
549.665	4100.38
550.434	3907.38
551.203	3708.38
551.972	3512.38
552.741	3340.38
553.51	3144.38
554.278	2975.38
555.047	2813.38
555.815	2674.38
556.584	2546.38
557.352	2378.38
558.121	2268.38
558.889	2146.38
559.657	2020.38
560.425	1904.38
561.193	1815.38
561.961	1710.38
562.729	1625.38
563.496	1529.38
564.264	1455.38
565.032	1368.38
565.799	1301.38
566.567	1225.38
567.334	1164.38
568.101	1099.38
568.869	1029.38
569.636	993.38
570.403	924.38
571.17	863.38
571.937	825.38
572.704	769.38
573.471	730.38
574.237	697.38
575.004	656.38
575.771	615.38
576.537	577.38
577.303	547.38
578.07	518.38
578.836	499.38
579.602	472.38
580.368	440.38
581.134	424.38
581.9	394.38
582.666	376.38
583.432	367.38
584.198	339.38
584.964	319.38
585.729	312.38
586.495	289.38
587.26	274.38
588.025	261.38
588.791	240.38
589.556	232.38
590.321	226.38
591.086	216.38
591.851	201.38
592.616	187.38
593.381	183.38
594.146	171.38
594.911	168.38
595.675	160.38
596.44	155.38
597.204	145.38
597.969	138.38
598.733	134.38
599.497	129.38
600.261	118.38
601.025	117.38
601.79	112.38
602.553	101.38
603.317	101.38
604.081	100.38
604.845	91.38
605.609	89.38
606.372	84.38
607.136	82.38
607.899	79.38
608.662	79.38
609.426	73.38
610.189	71.38
610.952	70.38
611.715	61.38
612.478	62.38
613.241	63.38
614.004	60.38
614.767	60.38
615.529	56.38
616.292	53.38
617.055	49.38
617.817	47.38
618.579	47.38
619.342	49.38
620.104	46.38
620.866	42.38
621.628	45.38
622.39	40.38
623.152	42.38
623.914	37.38
624.676	37.38
625.438	35.38
626.199	34.38
626.961	34.38
627.722	34.38
628.484	31.38
629.245	29.38
630.006	27.38
630.768	27.38
631.529	28.38
632.29	27.38
633.051	26.38
633.812	23.38
634.573	24.38
635.333	23.38
636.094	24.38
636.855	23.38
637.615	21.38
638.376	20.38
639.136	20.38
639.896	21.38
640.657	19.38
641.417	20.38
642.177	16.38
642.937	21.38
643.697	16.38
644.457	17.38
645.216	15.38
645.976	20.38
646.736	19.38
647.495	15.38
648.255	15.38
649.014	18.38
649.774	15.38
650.533	14.38
651.292	14.38
652.051	17.38
652.81	16.38
653.569	15.38
654.328	13.38
655.087	12.38
655.846	16.38
656.604	13.38
657.363	14.38
658.121	11.38
658.88	13.38
659.638	12.38
660.397	10.38
661.155	13.38
661.913	14.38
662.671	12.38
663.429	10.38
664.187	9.38
664.945	11.38
665.703	11.38
666.46	11.38
667.218	10.38
667.976	7.38
668.733	11.38
669.49	9.38
670.248	10.38
671.005	11.38
671.762	8.38
672.519	10.38
673.276	10.38
674.033	10.38
674.79	9.38
675.547	8.38
676.304	9.38
677.06	8.38
677.817	8.38
678.574	7.38
679.33	9.38
680.086	9.38
680.843	10.38
681.599	6.38
682.355	8.38
683.111	8.38
683.867	7.38
684.623	10.38
685.379	8.38
686.135	8.38
686.89	9.38
687.646	8.38
688.402	9.38
689.157	6.38
689.912	7.38
690.668	9.38
691.423	8.38
692.178	7.38
692.933	7.38
693.688	7.38
694.443	8.38
695.198	6.38
695.953	7.38
696.708	5.38
697.462	11.38
698.217	9.38
698.972	9.38
699.726	9.38
700.48	5.38
701.235	7.38
701.989	6.38
702.743	5.38
703.497	8.38
704.251	8.38
705.005	7.38
705.759	6.38
706.513	7.38
707.266	9.38
708.02	7.38
708.774	7.38
709.527	7.38
710.28	6.38
711.034	6.38
711.787	5.38
712.54	6.38
713.293	11.38
714.046	5.38
714.799	8.38
715.552	8.38
716.305	8.38
717.058	8.38
717.81	7.38
718.563	11.38
719.315	7.38
720.068	7.38
720.82	9.38
721.573	7.38
722.325	8.38
723.077	10.38
723.829	8.38
724.581	8.38
725.333	9.38
726.085	9.38
726.836	7.38
727.588	7.38
728.34	8.38
729.091	7.38
729.843	8.38
730.594	8.38
731.346	6.38
732.097	7.38
732.848	8.38
733.599	11.38
734.35	7.38
735.101	8.38
735.852	8.38
736.603	9.38
737.354	7.38
738.104	9.38
738.855	11.38
739.605	10.38
740.356	10.38
741.106	9.38
741.856	8.38
742.607	10.38
743.357	11.38
744.107	10.38
744.857	8.38
745.607	9.38
746.357	11.38
747.106	12.38
747.856	10.38
748.606	11.38
749.355	10.38
750.105	9.38
750.854	12.38
751.603	11.38
752.353	10.38
753.102	11.38
753.851	10.38
754.6	10.38
755.349	8.38
756.098	11.38
756.847	8.38
757.595	11.38
758.344	11.38
759.093	12.38
759.841	13.38
760.589	11.38
761.338	12.38
762.086	11.38
762.834	11.38
763.582	11.38
764.331	11.38
765.079	11.38
765.826	13.38
766.574	11.38
767.322	13.38
768.07	14.38
768.817	11.38
769.565	11.38
770.312	14.38
771.06	12.38
771.807	14.38
772.554	15.38
773.302	13.38
774.049	15.38
774.796	12.38
775.543	15.38
776.29	14.38
777.036	14.38
777.783	14.38
778.53	13.38
779.276	13.38
780.023	14.38
780.769	13.38
781.516	16.38
782.262	13.38
783.008	16.38
783.754	15.38
784.5	14.38
785.246	14.38
785.992	15.38
786.738	14.38
787.484	15.38
788.23	12.38
788.975	13.38
789.721	12.38
790.466	16.38
791.212	14.38
791.957	15.38
792.702	13.38
793.447	11.38
794.193	12.38
794.938	15.38
795.683	15.38
796.427	13.38
797.172	14.38
797.917	12.38
798.662	14.38
799.406	13.38
800.151	11.38
800.895	11.38
801.64	10.38
802.384	12.38
803.128	10.38
803.872	14.38
804.616	14.38
805.36	10.38
806.104	10.38
806.848	12.38
807.592	12.38
808.336	10.38
809.079	11.38
809.823	9.38
810.566	9.38
811.31	11.38
812.053	8.38
812.796	10.38
813.539	12.38
814.283	10.38
815.026	8.38
815.769	10.38
816.511	9.38
817.254	7.38
817.997	9.38
818.74	7.38
819.482	8.38
820.225	8.38
820.967	8.38
821.71	7.38
822.452	8.38
823.194	8.38
823.936	7.38
824.678	8.38
825.42	7.38
826.162	7.38
826.904	9.38
827.646	5.38
828.388	7.38
829.129	7.38
829.871	7.38
830.612	7.38
831.354	6.38
832.095	7.38
832.836	5.38
833.577	5.38
834.319	7.38
835.06	5.38
835.801	5.38
836.542	7.38
837.282	6.38
838.023	5.38
838.764	6.38
839.504	7.38
840.245	6.38
840.985	6.38
841.726	5.38
842.466	4.38
843.206	5.38
843.946	4.38
844.687	4.38
845.427	6.38
846.166	4.38
846.906	6.38
847.646	6.38
848.386	7.38
849.125	7.38
849.865	5.38
850.605	6.38
851.344	4.38
852.083	5.38
852.823	5.38
853.562	3.38
854.301	6.38
855.04	3.38
855.779	4.38
856.518	3.38
857.257	3.38
857.995	6.38
858.734	4.38
859.473	3.38
860.211	5.38
860.95	4.38
861.688	3.38
862.426	2.38
863.165	3.38
863.903	3.38
864.641	3.38
865.379	-0.62
866.117	3.38
866.855	1.38
867.593	3.38
868.33	1.38
869.068	2.38
869.806	4.38
870.543	2.38
871.28	3.38
872.018	2.38
872.755	2.38
873.492	2.38
874.229	2.38
874.967	2.38
875.703	3.38
876.44	3.38
877.177	2.38
877.914	2.38
878.651	3.38
879.387	2.38
880.124	1.38
880.86	1.38
881.597	1.38
882.333	2.38
883.069	3.38
883.806	1.38
884.542	-0.62
885.278	5.38
886.014	1.38
886.749	2.38
887.485	1.38
888.221	1.38
888.957	0.38
889.692	1.38
890.428	2.38
891.163	1.38
891.899	3.38
892.634	1.38
893.369	4.38
894.104	3.38
894.839	1.38
895.574	1.38
896.309	4.38
897.044	0.38
897.779	0.38
898.514	2.38
899.248	2.38
899.983	1.38
900.717	0.38
901.452	1.38
902.186	-0.62
902.92	2.38
903.654	0.38
904.389	2.38
905.123	1.38
905.857	0.38
906.59	2.38
907.324	3.38
908.058	2.38
908.792	0.38
909.525	2.38
910.259	1.38
910.992	3.38
911.726	0.38
912.459	0.38
913.192	2.38
913.925	1.38
914.658	0.38
915.391	1.38
916.124	-0.62
916.857	-0.62
917.59	-0.62
918.323	0.38
919.055	0.38
919.788	-0.62
920.521	2.38
921.253	-0.62
921.985	1.38
922.718	-1.62
923.45	0.38
924.182	0.38
924.914	-0.62
925.646	1.38
926.378	0.38
927.11	1.38
927.841	3.38
928.573	1.38
929.305	2.38
930.036	1.38
930.768	-0.62
931.499	-0.62
932.23	2.38
932.962	1.38
933.693	3.38
934.424	0.38
935.155	-0.62
935.886	-0.62
936.617	-0.62
937.348	3.38
938.078	1.38
938.809	-0.62
939.54	2.38
940.27	-0.62
941.001	1.38
941.731	1.38
942.461	1.38
943.191	0.38
943.922	0.38
944.652	0.38
945.382	1.38
946.112	3.38
946.841	0.38
947.571	-0.62
948.301	1.38
949.031	2.38
949.76	-0.62
950.49	2.38
951.219	1.38
951.948	0.38
952.678	1.38
953.407	3.38
954.136	0.38
954.865	0.38
955.594	1.38
956.323	-0.62
957.052	1.38
957.78	0.38
958.509	2.38
959.238	-0.62
959.966	1.38
960.695	-0.62
961.423	0.38
962.151	2.38
962.88	-1.62
963.608	1.38
964.336	1.38
965.064	1.38
965.792	0.38
966.52	2.38
967.247	1.38
967.975	-0.62
968.703	1.38
969.43	1.38
970.158	0.38
970.885	-0.62
971.613	1.38
972.34	2.38
973.067	3.38
973.794	0.38
974.521	2.38
975.248	-1.62
975.975	0.38
976.702	-0.62
977.429	0.38
978.156	-0.62
978.882	-0.62
979.609	0.38
980.335	1.38
981.062	-1.62
981.788	-0.62
982.514	1.38
983.24	-0.62
983.967	0.38
984.693	1.38
985.419	-0.62
986.144	1.38
986.87	2.38
987.596	0.38
988.322	3.38
989.047	-0.62
989.773	-0.62
990.498	0.38
991.224	0.38
991.949	-1.62
992.674	0.38
993.399	1.38
994.124	-0.62
994.849	1.38
995.574	1.38
996.299	1.38
997.024	-0.62
997.749	0.38
998.473	0.38
999.198	1.38
999.922	2.38
1000.647	-0.62
1001.371	1.38
1002.095	-1.62
1002.82	-0.62
1003.544	-0.62
1004.268	5.38
1004.992	3.38
1005.716	5.38
1006.439	5.38
1007.163	5.38
1007.887	7.38
1008.611	0.38
1009.334	0.38
1010.058	0.38
1010.781	-0.62
1011.504	-0.62
1012.228	2.38
1012.951	1.38
1013.674	0.38
1014.397	-0.62
1015.12	0.38
