节点500_705_QEPB04081__551__20-53-46-727.txt的数据

Date: Wed Nov 12 20:53:46 CST 2025
User: PC
Spectrometer: QEPB0408
触发模式: 0
积分时间 (秒): 1.000000E-2
Scans to average: 1
启用暗噪声校正: true
启用非线性校正: false
滑动平均宽度: 0
X轴模式: Wavelengths
Number of Pixels in Spectrum: 1044
>>>>>Begin Spectral Data<<<<<
220.843	5.5
221.644	4.5
222.444	6.5
223.244	6.5
224.045	8.5
224.845	7.5
225.645	7.5
226.445	7.5
227.245	7.5
228.045	7.5
228.845	7.5
229.645	6.5
230.444	7.5
231.244	8.5
232.043	8.5
232.843	9.5
233.642	10.5
234.442	9.5
235.241	9.5
236.04	10.5
236.839	7.5
237.638	10.5
238.437	10.5
239.236	10.5
240.035	12.5
240.833	11.5
241.632	12.5
242.43	10.5
243.229	13.5
244.027	9.5
244.826	13.5
245.624	15.5
246.422	10.5
247.22	15.5
248.018	15.5
248.816	14.5
249.614	15.5
250.412	11.5
251.21	13.5
252.007	15.5
252.805	16.5
253.602	15.5
254.4	17.5
255.197	16.5
255.994	15.5
256.791	19.5
257.589	18.5
258.386	17.5
259.183	21.5
259.979	19.5
260.776	18.5
261.573	18.5
262.37	25.5
263.166	22.5
263.963	19.5
264.759	24.5
265.556	24.5
266.352	23.5
267.148	25.5
267.944	27.5
268.74	28.5
269.536	28.5
270.332	25.5
271.128	27.5
271.924	29.5
272.719	31.5
273.515	27.5
274.311	32.5
275.106	29.5
275.901	30.5
276.697	29.5
277.492	30.5
278.287	35.5
279.082	29.5
279.877	30.5
280.672	29.5
281.467	33.5
282.262	31.5
283.056	33.5
283.851	32.5
284.646	31.5
285.44	31.5
286.234	29.5
287.029	31.5
287.823	33.5
288.617	31.5
289.411	30.5
290.205	31.5
290.999	31.5
291.793	31.5
292.587	27.5
293.381	30.5
294.174	29.5
294.968	31.5
295.761	25.5
296.555	25.5
297.348	25.5
298.141	29.5
298.935	27.5
299.728	24.5
300.521	29.5
301.314	24.5
302.107	25.5
302.899	22.5
303.692	23.5
304.485	23.5
305.277	19.5
306.07	20.5
306.862	22.5
307.655	20.5
308.447	21.5
309.239	18.5
310.031	21.5
310.823	19.5
311.615	19.5
312.407	18.5
313.199	19.5
313.991	15.5
314.783	16.5
315.574	15.5
316.366	16.5
317.157	15.5
317.949	15.5
318.74	16.5
319.531	16.5
320.322	13.5
321.113	13.5
321.904	13.5
322.695	11.5
323.486	14.5
324.277	13.5
325.068	11.5
325.858	11.5
326.649	11.5
327.439	11.5
328.23	13.5
329.02	13.5
329.81	9.5
330.6	11.5
331.391	10.5
332.181	12.5
332.971	11.5
333.76	11.5
334.55	13.5
335.34	14.5
336.13	13.5
336.919	11.5
337.709	12.5
338.498	14.5
339.287	8.5
340.077	13.5
340.866	8.5
341.655	14.5
342.444	12.5
343.233	12.5
344.022	12.5
344.811	9.5
345.6	13.5
346.388	13.5
347.177	13.5
347.965	10.5
348.754	10.5
349.542	11.5
350.33	9.5
351.119	12.5
351.907	11.5
352.695	11.5
353.483	12.5
354.271	10.5
355.059	12.5
355.846	13.5
356.634	12.5
357.422	9.5
358.209	11.5
358.997	10.5
359.784	9.5
360.571	11.5
361.359	9.5
362.146	9.5
362.933	11.5
363.72	9.5
364.507	10.5
365.294	7.5
366.081	7.5
366.867	8.5
367.654	11.5
368.44	10.5
369.227	11.5
370.013	10.5
370.8	10.5
371.586	10.5
372.372	8.5
373.158	9.5
373.944	10.5
374.73	10.5
375.516	10.5
376.302	13.5
377.088	11.5
377.873	9.5
378.659	8.5
379.445	11.5
380.23	8.5
381.015	9.5
381.801	9.5
382.586	10.5
383.371	11.5
384.156	12.5
384.941	9.5
385.726	10.5
386.511	9.5
387.296	9.5
388.08	9.5
388.865	12.5
389.649	11.5
390.434	11.5
391.218	11.5
392.003	11.5
392.787	10.5
393.571	11.5
394.355	10.5
395.139	13.5
395.923	10.5
396.707	11.5
397.491	12.5
398.274	11.5
399.058	13.5
399.842	13.5
400.625	13.5
401.408	12.5
402.192	16.5
402.975	12.5
403.758	15.5
404.541	11.5
405.324	14.5
406.107	15.5
406.89	19.5
407.673	14.5
408.456	12.5
409.238	15.5
410.021	16.5
410.803	15.5
411.586	16.5
412.368	16.5
413.151	15.5
413.933	19.5
414.715	13.5
415.497	19.5
416.279	17.5
417.061	15.5
417.843	17.5
418.624	19.5
419.406	19.5
420.188	18.5
420.969	19.5
421.751	19.5
422.532	21.5
423.313	20.5
424.095	20.5
424.876	24.5
425.657	23.5
426.438	23.5
427.219	21.5
428	27.5
428.78	25.5
429.561	29.5
430.342	29.5
431.122	29.5
431.903	32.5
432.683	34.5
433.464	36.5
434.244	38.5
435.024	41.5
435.804	41.5
436.584	46.5
437.364	44.5
438.144	47.5
438.924	50.5
439.704	56.5
440.483	60.5
441.263	60.5
442.042	66.5
442.822	72.5
443.601	79.5
444.38	84.5
445.16	89.5
445.939	97.5
446.718	107.5
447.497	120.5
448.276	127.5
449.054	139.5
449.833	154.5
450.612	173.5
451.391	188.5
452.169	207.5
452.948	232.5
453.726	255.5
454.504	279.5
455.282	313.5
456.061	351.5
456.839	386.5
457.617	430.5
458.395	490.5
459.172	538.5
459.95	601.5
460.728	663.5
461.506	734.5
462.283	822.5
463.061	916.5
463.838	1014.5
464.615	1135.5
465.393	1261.5
466.17	1387.5
466.947	1544.5
467.724	1686.5
468.501	1874.5
469.278	2059.5
470.055	2276.5
470.831	2490.5
471.608	2762.5
472.385	3020.5
473.161	3313.5
473.938	3640.5
474.714	3974.5
475.49	4341.5
476.266	4764.5
477.043	5152.5
477.819	5639.5
478.595	6074.5
479.371	6641.5
480.146	7224.5
480.922	7846.5
481.698	8463.5
482.473	9195.5
483.249	9976.5
484.024	10782.5
484.8	11614.5
485.575	12601.5
486.35	13573.5
487.126	14620.5
487.901	15762.5
488.676	16938.5
489.451	18168.5
490.225	19565.5
491	20950.5
491.775	22320.5
492.55	23833.5
493.324	25384.5
494.099	26942.5
494.873	28518.5
495.647	30072.5
496.422	31790.5
497.196	33371.5
497.97	34879.5
498.744	36426.5
499.518	37896.5
500.292	39368.5
501.066	40402.5
501.839	41454.5
502.613	42326.5
503.387	43038.5
504.16	43724.5
504.934	43980.5
505.707	44231.5
506.48	44204.5
507.253	43923.5
508.027	43636.5
508.8	42948.5
509.573	42174.5
510.346	41448.5
511.118	40667.5
511.891	39627.5
512.664	38309.5
513.437	36952.5
514.209	35795.5
514.982	34589.5
515.754	33302.5
516.526	31947.5
517.298	30704.5
518.071	29650.5
518.843	28483.5
519.615	27285.5
520.387	26229.5
521.159	25277.5
521.93	24177.5
522.702	23171.5
523.474	22235.5
524.245	21286.5
525.017	20448.5
525.788	19588.5
526.56	18795.5
527.331	18006.5
528.102	17153.5
528.873	16298.5
529.644	15521.5
530.415	14881.5
531.186	14177.5
531.957	13437.5
532.728	12796.5
533.498	12116.5
534.269	11551.5
535.039	10895.5
535.81	10383.5
536.58	9791.5
537.351	9260.5
538.121	8789.5
538.891	8312.5
539.661	7833.5
540.431	7456.5
541.201	7055.5
541.971	6722.5
542.741	6356.5
543.51	6038.5
544.28	5728.5
545.05	5460.5
545.819	5220.5
546.588	4993.5
547.358	4717.5
548.127	4494.5
548.896	4274.5
549.665	4062.5
550.434	3861.5
551.203	3668.5
551.972	3459.5
552.741	3302.5
553.51	3094.5
554.278	2949.5
555.047	2754.5
555.815	2627.5
556.584	2487.5
557.352	2351.5
558.121	2230.5
558.889	2115.5
559.657	1970.5
560.425	1869.5
561.193	1779.5
561.961	1678.5
562.729	1593.5
563.496	1507.5
564.264	1425.5
565.032	1354.5
565.799	1279.5
566.567	1208.5
567.334	1129.5
568.101	1071.5
568.869	1018.5
569.636	950.5
570.403	901.5
571.17	863.5
571.937	815.5
572.704	763.5
573.471	716.5
574.237	682.5
575.004	643.5
575.771	604.5
576.537	579.5
577.303	534.5
578.07	522.5
578.836	479.5
579.602	456.5
580.368	427.5
581.134	412.5
581.9	389.5
582.666	368.5
583.432	358.5
584.198	330.5
584.964	315.5
585.729	309.5
586.495	287.5
587.26	268.5
588.025	257.5
588.791	245.5
589.556	229.5
590.321	222.5
591.086	207.5
591.851	198.5
592.616	187.5
593.381	183.5
594.146	174.5
594.911	161.5
595.675	157.5
596.44	146.5
597.204	143.5
597.969	135.5
598.733	133.5
599.497	126.5
600.261	114.5
601.025	113.5
601.79	109.5
602.553	108.5
603.317	105.5
604.081	93.5
604.845	90.5
605.609	87.5
606.372	85.5
607.136	81.5
607.899	78.5
608.662	74.5
609.426	70.5
610.189	69.5
610.952	70.5
611.715	64.5
612.478	63.5
613.241	60.5
614.004	58.5
614.767	61.5
615.529	51.5
616.292	49.5
617.055	53.5
617.817	45.5
618.579	47.5
619.342	46.5
620.104	42.5
620.866	42.5
621.628	41.5
622.39	40.5
623.152	39.5
623.914	39.5
624.676	33.5
625.438	35.5
626.199	34.5
626.961	35.5
627.722	32.5
628.484	30.5
629.245	27.5
630.006	28.5
630.768	30.5
631.529	27.5
632.29	29.5
633.051	28.5
633.812	27.5
634.573	23.5
635.333	25.5
636.094	26.5
636.855	25.5
637.615	20.5
638.376	22.5
639.136	19.5
639.896	21.5
640.657	21.5
641.417	22.5
642.177	19.5
642.937	17.5
643.697	18.5
644.457	18.5
645.216	17.5
645.976	14.5
646.736	15.5
647.495	14.5
648.255	15.5
649.014	15.5
649.774	15.5
650.533	15.5
651.292	14.5
652.051	13.5
652.81	13.5
653.569	15.5
654.328	14.5
655.087	13.5
655.846	13.5
656.604	11.5
657.363	13.5
658.121	12.5
658.88	10.5
659.638	12.5
660.397	12.5
661.155	11.5
661.913	14.5
662.671	13.5
663.429	11.5
664.187	11.5
664.945	11.5
665.703	10.5
666.46	9.5
667.218	11.5
667.976	9.5
668.733	9.5
669.49	10.5
670.248	9.5
671.005	11.5
671.762	9.5
672.519	10.5
673.276	10.5
674.033	10.5
674.79	10.5
675.547	7.5
676.304	12.5
677.06	9.5
677.817	9.5
678.574	9.5
679.33	10.5
680.086	9.5
680.843	9.5
681.599	10.5
682.355	5.5
683.111	8.5
683.867	7.5
684.623	7.5
685.379	6.5
686.135	9.5
686.89	9.5
687.646	8.5
688.402	7.5
689.157	6.5
689.912	8.5
690.668	10.5
691.423	10.5
692.178	7.5
692.933	8.5
693.688	7.5
694.443	6.5
695.198	8.5
695.953	7.5
696.708	5.5
697.462	7.5
698.217	8.5
698.972	7.5
699.726	8.5
700.48	8.5
701.235	8.5
701.989	9.5
702.743	7.5
703.497	7.5
704.251	6.5
705.005	7.5
705.759	8.5
706.513	7.5
707.266	4.5
708.02	6.5
708.774	7.5
709.527	5.5
710.28	7.5
711.034	8.5
711.787	6.5
712.54	10.5
713.293	6.5
714.046	7.5
714.799	7.5
715.552	8.5
716.305	8.5
717.058	6.5
717.81	9.5
718.563	6.5
719.315	10.5
720.068	7.5
720.82	8.5
721.573	9.5
722.325	6.5
723.077	8.5
723.829	7.5
724.581	6.5
725.333	7.5
726.085	6.5
726.836	11.5
727.588	7.5
728.34	6.5
729.091	9.5
729.843	8.5
730.594	9.5
731.346	9.5
732.097	9.5
732.848	9.5
733.599	8.5
734.35	9.5
735.101	8.5
735.852	10.5
736.603	8.5
737.354	6.5
738.104	8.5
738.855	9.5
739.605	8.5
740.356	7.5
741.106	10.5
741.856	11.5
742.607	11.5
743.357	8.5
744.107	9.5
744.857	10.5
745.607	9.5
746.357	11.5
747.106	11.5
747.856	10.5
748.606	9.5
749.355	9.5
750.105	11.5
750.854	10.5
751.603	9.5
752.353	10.5
753.102	11.5
753.851	8.5
754.6	9.5
755.349	12.5
756.098	11.5
756.847	11.5
757.595	10.5
758.344	11.5
759.093	10.5
759.841	11.5
760.589	11.5
761.338	11.5
762.086	10.5
762.834	12.5
763.582	11.5
764.331	12.5
765.079	11.5
765.826	13.5
766.574	13.5
767.322	12.5
768.07	13.5
768.817	12.5
769.565	12.5
770.312	10.5
771.06	14.5
771.807	13.5
772.554	15.5
773.302	15.5
774.049	10.5
774.796	12.5
775.543	11.5
776.29	14.5
777.036	14.5
777.783	12.5
778.53	14.5
779.276	15.5
780.023	15.5
780.769	14.5
781.516	15.5
782.262	14.5
783.008	17.5
783.754	17.5
784.5	14.5
785.246	15.5
785.992	16.5
786.738	14.5
787.484	16.5
788.23	13.5
788.975	17.5
789.721	15.5
790.466	14.5
791.212	13.5
791.957	15.5
792.702	15.5
793.447	13.5
794.193	14.5
794.938	13.5
795.683	13.5
796.427	13.5
797.172	12.5
797.917	12.5
798.662	15.5
799.406	12.5
800.151	12.5
800.895	11.5
801.64	11.5
802.384	12.5
803.128	14.5
803.872	11.5
804.616	11.5
805.36	9.5
806.104	10.5
806.848	13.5
807.592	8.5
808.336	9.5
809.079	9.5
809.823	10.5
810.566	8.5
811.31	9.5
812.053	10.5
812.796	10.5
813.539	8.5
814.283	8.5
815.026	7.5
815.769	9.5
816.511	7.5
817.254	8.5
817.997	6.5
818.74	6.5
819.482	9.5
820.225	6.5
820.967	8.5
821.71	5.5
822.452	6.5
823.194	7.5
823.936	8.5
824.678	5.5
825.42	7.5
826.162	7.5
826.904	6.5
827.646	7.5
828.388	7.5
829.129	5.5
829.871	7.5
830.612	7.5
831.354	8.5
832.095	7.5
832.836	5.5
833.577	4.5
834.319	7.5
835.06	5.5
835.801	5.5
836.542	8.5
837.282	5.5
838.023	4.5
838.764	8.5
839.504	6.5
840.245	7.5
840.985	5.5
841.726	5.5
842.466	6.5
843.206	6.5
843.946	5.5
844.687	4.5
845.427	5.5
846.166	4.5
846.906	4.5
847.646	3.5
848.386	5.5
849.125	6.5
849.865	5.5
850.605	7.5
851.344	4.5
852.083	4.5
852.823	5.5
853.562	5.5
854.301	5.5
855.04	3.5
855.779	4.5
856.518	3.5
857.257	4.5
857.995	4.5
858.734	1.5
859.473	3.5
860.211	3.5
860.95	5.5
861.688	3.5
862.426	1.5
863.165	5.5
863.903	2.5
864.641	3.5
865.379	2.5
866.117	2.5
866.855	2.5
867.593	2.5
868.33	2.5
869.068	5.5
869.806	4.5
870.543	2.5
871.28	2.5
872.018	5.5
872.755	2.5
873.492	5.5
874.229	1.5
874.967	-1.5
875.703	3.5
876.44	0.5
877.177	3.5
877.914	2.5
878.651	3.5
879.387	0.5
880.124	0.5
880.86	1.5
881.597	2.5
882.333	2.5
883.069	3.5
883.806	0.5
884.542	-0.5
885.278	1.5
886.014	1.5
886.749	1.5
887.485	1.5
888.221	2.5
888.957	2.5
889.692	1.5
890.428	-0.5
891.163	2.5
891.899	1.5
892.634	-0.5
893.369	1.5
894.104	1.5
894.839	0.5
895.574	0.5
896.309	3.5
897.044	1.5
897.779	0.5
898.514	2.5
899.248	2.5
899.983	1.5
900.717	1.5
901.452	2.5
902.186	0.5
902.92	1.5
903.654	1.5
904.389	1.5
905.123	1.5
905.857	-0.5
906.59	0.5
907.324	-0.5
908.058	-1.5
908.792	1.5
909.525	-2.5
910.259	1.5
910.992	3.5
911.726	-0.5
912.459	1.5
913.192	0.5
913.925	-0.5
914.658	1.5
915.391	-0.5
916.124	0.5
916.857	0.5
917.59	3.5
918.323	-0.5
919.055	1.5
919.788	1.5
920.521	4.5
921.253	-0.5
921.985	1.5
922.718	2.5
923.45	0.5
924.182	1.5
924.914	0.5
925.646	-0.5
926.378	-0.5
927.11	2.5
927.841	-0.5
928.573	-1.5
929.305	1.5
930.036	2.5
930.768	0.5
931.499	3.5
932.23	-0.5
932.962	1.5
933.693	-1.5
934.424	-0.5
935.155	-0.5
935.886	1.5
936.617	2.5
937.348	-0.5
938.078	0.5
938.809	-0.5
939.54	-1.5
940.27	2.5
941.001	2.5
941.731	-0.5
942.461	1.5
943.191	0.5
943.922	2.5
944.652	-2.5
945.382	0.5
946.112	2.5
946.841	0.5
947.571	1.5
948.301	-0.5
949.031	-0.5
949.76	0.5
950.49	1.5
951.219	-1.5
951.948	-0.5
952.678	0.5
953.407	-0.5
954.136	0.5
954.865	1.5
955.594	-0.5
956.323	-0.5
957.052	-0.5
957.78	-0.5
958.509	-0.5
959.238	-0.5
959.966	-0.5
960.695	-1.5
961.423	1.5
962.151	1.5
962.88	1.5
963.608	3.5
964.336	0.5
965.064	1.5
965.792	-0.5
966.52	-0.5
967.247	0.5
967.975	0.5
968.703	0.5
969.43	1.5
970.158	1.5
970.885	-0.5
971.613	2.5
972.34	-0.5
973.067	0.5
973.794	1.5
974.521	0.5
975.248	-0.5
975.975	-2.5
976.702	2.5
977.429	1.5
978.156	-1.5
978.882	-1.5
979.609	-0.5
980.335	0.5
981.062	-0.5
981.788	1.5
982.514	0.5
983.24	1.5
983.967	0.5
984.693	0.5
985.419	0.5
986.144	1.5
986.87	-0.5
987.596	3.5
988.322	1.5
989.047	3.5
989.773	-0.5
990.498	1.5
991.224	1.5
991.949	0.5
992.674	1.5
993.399	0.5
994.124	0.5
994.849	0.5
995.574	0.5
996.299	0.5
997.024	1.5
997.749	0.5
998.473	0.5
999.198	1.5
999.922	2.5
1000.647	-0.5
1001.371	4.5
1002.095	-2.5
1002.82	-0.5
1003.544	-0.5
1004.268	4.5
1004.992	3.5
1005.716	3.5
1006.439	2.5
1007.163	4.5
1007.887	5.5
1008.611	2.5
1009.334	0.5
1010.058	0.5
1010.781	1.5
1011.504	-0.5
1012.228	1.5
1012.951	0.5
1013.674	0.5
1014.397	-1.5
1015.12	-0.5
