节点500_705_QEPB04081__633__20-54-56-784.txt的数据

Date: Wed Nov 12 20:54:56 CST 2025
User: PC
Spectrometer: QEPB0408
触发模式: 0
积分时间 (秒): 1.000000E-2
Scans to average: 1
启用暗噪声校正: true
启用非线性校正: false
滑动平均宽度: 0
X轴模式: Wavelengths
Number of Pixels in Spectrum: 1044
>>>>>Begin Spectral Data<<<<<
220.843	5.5
221.644	5.5
222.444	6.5
223.244	5.5
224.045	6.5
224.845	4.5
225.645	9.5
226.445	9.5
227.245	4.5
228.045	7.5
228.845	7.5
229.645	8.5
230.444	9.5
231.244	7.5
232.043	10.5
232.843	8.5
233.642	10.5
234.442	10.5
235.241	11.5
236.04	9.5
236.839	9.5
237.638	8.5
238.437	9.5
239.236	8.5
240.035	10.5
240.833	11.5
241.632	10.5
242.43	12.5
243.229	11.5
244.027	13.5
244.826	12.5
245.624	11.5
246.422	13.5
247.22	12.5
248.018	14.5
248.816	11.5
249.614	12.5
250.412	17.5
251.21	15.5
252.007	17.5
252.805	15.5
253.602	15.5
254.4	19.5
255.197	17.5
255.994	18.5
256.791	18.5
257.589	18.5
258.386	17.5
259.183	18.5
259.979	20.5
260.776	21.5
261.573	22.5
262.37	20.5
263.166	23.5
263.963	22.5
264.759	25.5
265.556	24.5
266.352	24.5
267.148	23.5
267.944	23.5
268.74	25.5
269.536	27.5
270.332	27.5
271.128	27.5
271.924	27.5
272.719	30.5
273.515	30.5
274.311	29.5
275.106	28.5
275.901	32.5
276.697	29.5
277.492	31.5
278.287	30.5
279.082	32.5
279.877	29.5
280.672	30.5
281.467	31.5
282.262	34.5
283.056	32.5
283.851	30.5
284.646	34.5
285.44	31.5
286.234	34.5
287.029	31.5
287.823	32.5
288.617	28.5
289.411	30.5
290.205	29.5
290.999	31.5
291.793	30.5
292.587	32.5
293.381	27.5
294.174	29.5
294.968	27.5
295.761	24.5
296.555	24.5
297.348	25.5
298.141	26.5
298.935	25.5
299.728	27.5
300.521	25.5
301.314	23.5
302.107	23.5
302.899	24.5
303.692	21.5
304.485	22.5
305.277	21.5
306.07	23.5
306.862	21.5
307.655	21.5
308.447	21.5
309.239	18.5
310.031	19.5
310.823	21.5
311.615	20.5
312.407	17.5
313.199	16.5
313.991	18.5
314.783	20.5
315.574	16.5
316.366	18.5
317.157	16.5
317.949	13.5
318.74	16.5
319.531	16.5
320.322	17.5
321.113	16.5
321.904	11.5
322.695	14.5
323.486	13.5
324.277	13.5
325.068	13.5
325.858	13.5
326.649	14.5
327.439	12.5
328.23	15.5
329.02	14.5
329.81	8.5
330.6	12.5
331.391	14.5
332.181	13.5
332.971	11.5
333.76	14.5
334.55	13.5
335.34	13.5
336.13	13.5
336.919	12.5
337.709	12.5
338.498	13.5
339.287	14.5
340.077	8.5
340.866	12.5
341.655	12.5
342.444	10.5
343.233	11.5
344.022	14.5
344.811	9.5
345.6	12.5
346.388	11.5
347.177	11.5
347.965	9.5
348.754	12.5
349.542	12.5
350.33	10.5
351.119	13.5
351.907	10.5
352.695	14.5
353.483	10.5
354.271	13.5
355.059	11.5
355.846	11.5
356.634	12.5
357.422	10.5
358.209	9.5
358.997	11.5
359.784	10.5
360.571	10.5
361.359	9.5
362.146	11.5
362.933	13.5
363.72	8.5
364.507	11.5
365.294	7.5
366.081	9.5
366.867	9.5
367.654	10.5
368.44	11.5
369.227	10.5
370.013	8.5
370.8	7.5
371.586	7.5
372.372	9.5
373.158	8.5
373.944	10.5
374.73	10.5
375.516	10.5
376.302	8.5
377.088	10.5
377.873	10.5
378.659	9.5
379.445	10.5
380.23	10.5
381.015	11.5
381.801	11.5
382.586	12.5
383.371	9.5
384.156	8.5
384.941	9.5
385.726	11.5
386.511	9.5
387.296	11.5
388.08	12.5
388.865	11.5
389.649	12.5
390.434	10.5
391.218	11.5
392.003	11.5
392.787	11.5
393.571	10.5
394.355	13.5
395.139	11.5
395.923	12.5
396.707	11.5
397.491	12.5
398.274	14.5
399.058	13.5
399.842	14.5
400.625	11.5
401.408	14.5
402.192	13.5
402.975	13.5
403.758	12.5
404.541	13.5
405.324	14.5
406.107	15.5
406.89	13.5
407.673	16.5
408.456	16.5
409.238	15.5
410.021	14.5
410.803	15.5
411.586	20.5
412.368	15.5
413.151	16.5
413.933	16.5
414.715	17.5
415.497	18.5
416.279	15.5
417.061	15.5
417.843	19.5
418.624	18.5
419.406	19.5
420.188	21.5
420.969	19.5
421.751	23.5
422.532	19.5
423.313	20.5
424.095	23.5
424.876	23.5
425.657	26.5
426.438	27.5
427.219	26.5
428	26.5
428.78	28.5
429.561	30.5
430.342	30.5
431.122	31.5
431.903	31.5
432.683	32.5
433.464	34.5
434.244	35.5
435.024	41.5
435.804	39.5
436.584	43.5
437.364	43.5
438.144	50.5
438.924	51.5
439.704	56.5
440.483	60.5
441.263	62.5
442.042	69.5
442.822	71.5
443.601	80.5
444.38	85.5
445.16	88.5
445.939	97.5
446.718	110.5
447.497	121.5
448.276	127.5
449.054	140.5
449.833	163.5
450.612	169.5
451.391	189.5
452.169	210.5
452.948	230.5
453.726	256.5
454.504	285.5
455.282	324.5
456.061	351.5
456.839	394.5
457.617	449.5
458.395	485.5
459.172	539.5
459.95	603.5
460.728	684.5
461.506	750.5
462.283	838.5
463.061	921.5
463.838	1024.5
464.615	1139.5
465.393	1255.5
466.17	1388.5
466.947	1529.5
467.724	1698.5
468.501	1867.5
469.278	2070.5
470.055	2258.5
470.831	2503.5
471.608	2768.5
472.385	3021.5
473.161	3319.5
473.938	3641.5
474.714	3958.5
475.49	4336.5
476.266	4729.5
477.043	5131.5
477.819	5552.5
478.595	6053.5
479.371	6578.5
480.146	7138.5
480.922	7768.5
481.698	8402.5
482.473	9112.5
483.249	9832.5
484.024	10612.5
484.8	11453.5
485.575	12352.5
486.35	13341.5
487.126	14383.5
487.901	15491.5
488.676	16633.5
489.451	17857.5
490.225	19130.5
491	20523.5
491.775	21840.5
492.55	23379.5
493.324	24847.5
494.099	26424.5
494.873	27990.5
495.647	29483.5
496.422	31065.5
497.196	32720.5
497.97	34218.5
498.744	35625.5
499.518	37198.5
500.292	38591.5
501.066	39654.5
501.839	40665.5
502.613	41548.5
503.387	42382.5
504.16	43006.5
504.934	43398.5
505.707	43674.5
506.48	43686.5
507.253	43459.5
508.027	43174.5
508.8	42639.5
509.573	41997.5
510.346	41212.5
511.118	40404.5
511.891	39402.5
512.664	38137.5
513.437	36905.5
514.209	35752.5
514.982	34563.5
515.754	33322.5
516.526	32024.5
517.298	30862.5
518.071	29625.5
518.843	28540.5
519.615	27360.5
520.387	26302.5
521.159	25275.5
521.93	24246.5
522.702	23336.5
523.474	22303.5
524.245	21462.5
525.017	20465.5
525.788	19702.5
526.56	18889.5
527.331	18038.5
528.102	17190.5
528.873	16357.5
529.644	15646.5
530.415	14938.5
531.186	14257.5
531.957	13575.5
532.728	12891.5
533.498	12270.5
534.269	11620.5
535.039	11043.5
535.81	10441.5
536.58	9896.5
537.351	9347.5
538.121	8884.5
538.891	8420.5
539.661	7930.5
540.431	7532.5
541.201	7153.5
541.971	6750.5
542.741	6398.5
543.51	6067.5
544.28	5762.5
545.05	5514.5
545.819	5272.5
546.588	5018.5
547.358	4775.5
548.127	4539.5
548.896	4334.5
549.665	4106.5
550.434	3910.5
551.203	3713.5
551.972	3532.5
552.741	3350.5
553.51	3139.5
554.278	2961.5
555.047	2816.5
555.815	2647.5
556.584	2523.5
557.352	2383.5
558.121	2276.5
558.889	2115.5
559.657	2006.5
560.425	1922.5
561.193	1802.5
561.961	1707.5
562.729	1621.5
563.496	1527.5
564.264	1449.5
565.032	1356.5
565.799	1289.5
566.567	1231.5
567.334	1163.5
568.101	1076.5
568.869	1011.5
569.636	988.5
570.403	919.5
571.17	872.5
571.937	809.5
572.704	778.5
573.471	729.5
574.237	692.5
575.004	645.5
575.771	608.5
576.537	575.5
577.303	552.5
578.07	512.5
578.836	490.5
579.602	464.5
580.368	431.5
581.134	421.5
581.9	389.5
582.666	379.5
583.432	364.5
584.198	348.5
584.964	331.5
585.729	304.5
586.495	294.5
587.26	274.5
588.025	259.5
588.791	243.5
589.556	227.5
590.321	221.5
591.086	209.5
591.851	193.5
592.616	191.5
593.381	177.5
594.146	174.5
594.911	163.5
595.675	158.5
596.44	154.5
597.204	145.5
597.969	136.5
598.733	132.5
599.497	123.5
600.261	118.5
601.025	116.5
601.79	109.5
602.553	104.5
603.317	100.5
604.081	96.5
604.845	95.5
605.609	88.5
606.372	89.5
607.136	89.5
607.899	80.5
608.662	76.5
609.426	79.5
610.189	67.5
610.952	67.5
611.715	65.5
612.478	64.5
613.241	65.5
614.004	57.5
614.767	59.5
615.529	53.5
616.292	52.5
617.055	51.5
617.817	49.5
618.579	49.5
619.342	45.5
620.104	45.5
620.866	44.5
621.628	46.5
622.39	38.5
623.152	37.5
623.914	39.5
624.676	38.5
625.438	35.5
626.199	34.5
626.961	34.5
627.722	31.5
628.484	31.5
629.245	29.5
630.006	27.5
630.768	32.5
631.529	27.5
632.29	27.5
633.051	28.5
633.812	25.5
634.573	26.5
635.333	25.5
636.094	24.5
636.855	24.5
637.615	21.5
638.376	22.5
639.136	20.5
639.896	23.5
640.657	18.5
641.417	21.5
642.177	18.5
642.937	19.5
643.697	17.5
644.457	19.5
645.216	18.5
645.976	17.5
646.736	16.5
647.495	15.5
648.255	14.5
649.014	16.5
649.774	11.5
650.533	17.5
651.292	15.5
652.051	16.5
652.81	14.5
653.569	13.5
654.328	12.5
655.087	13.5
655.846	12.5
656.604	12.5
657.363	13.5
658.121	12.5
658.88	11.5
659.638	11.5
660.397	11.5
661.155	13.5
661.913	7.5
662.671	13.5
663.429	10.5
664.187	10.5
664.945	12.5
665.703	10.5
666.46	13.5
667.218	11.5
667.976	10.5
668.733	8.5
669.49	10.5
670.248	10.5
671.005	8.5
671.762	10.5
672.519	11.5
673.276	10.5
674.033	8.5
674.79	9.5
675.547	9.5
676.304	11.5
677.06	11.5
677.817	9.5
678.574	8.5
679.33	8.5
680.086	7.5
680.843	8.5
681.599	6.5
682.355	5.5
683.111	7.5
683.867	7.5
684.623	8.5
685.379	8.5
686.135	5.5
686.89	7.5
687.646	6.5
688.402	9.5
689.157	8.5
689.912	10.5
690.668	8.5
691.423	10.5
692.178	6.5
692.933	9.5
693.688	7.5
694.443	10.5
695.198	7.5
695.953	8.5
696.708	5.5
697.462	6.5
698.217	8.5
698.972	11.5
699.726	7.5
700.48	8.5
701.235	6.5
701.989	5.5
702.743	5.5
703.497	7.5
704.251	7.5
705.005	6.5
705.759	7.5
706.513	9.5
707.266	6.5
708.02	10.5
708.774	6.5
709.527	10.5
710.28	9.5
711.034	7.5
711.787	7.5
712.54	7.5
713.293	9.5
714.046	7.5
714.799	6.5
715.552	7.5
716.305	5.5
717.058	8.5
717.81	8.5
718.563	7.5
719.315	9.5
720.068	7.5
720.82	8.5
721.573	5.5
722.325	8.5
723.077	7.5
723.829	9.5
724.581	7.5
725.333	6.5
726.085	9.5
726.836	9.5
727.588	8.5
728.34	8.5
729.091	8.5
729.843	9.5
730.594	8.5
731.346	8.5
732.097	6.5
732.848	8.5
733.599	9.5
734.35	9.5
735.101	8.5
735.852	8.5
736.603	8.5
737.354	10.5
738.104	9.5
738.855	7.5
739.605	9.5
740.356	10.5
741.106	7.5
741.856	10.5
742.607	11.5
743.357	10.5
744.107	12.5
744.857	8.5
745.607	11.5
746.357	10.5
747.106	12.5
747.856	9.5
748.606	10.5
749.355	12.5
750.105	9.5
750.854	10.5
751.603	10.5
752.353	11.5
753.102	12.5
753.851	9.5
754.6	9.5
755.349	13.5
756.098	11.5
756.847	9.5
757.595	11.5
758.344	11.5
759.093	10.5
759.841	12.5
760.589	11.5
761.338	11.5
762.086	12.5
762.834	9.5
763.582	12.5
764.331	10.5
765.079	11.5
765.826	12.5
766.574	10.5
767.322	11.5
768.07	13.5
768.817	12.5
769.565	12.5
770.312	14.5
771.06	13.5
771.807	14.5
772.554	12.5
773.302	13.5
774.049	15.5
774.796	15.5
775.543	15.5
776.29	15.5
777.036	11.5
777.783	17.5
778.53	13.5
779.276	14.5
780.023	17.5
780.769	13.5
781.516	14.5
782.262	13.5
783.008	15.5
783.754	15.5
784.5	16.5
785.246	14.5
785.992	14.5
786.738	16.5
787.484	10.5
788.23	14.5
788.975	17.5
789.721	14.5
790.466	14.5
791.212	14.5
791.957	13.5
792.702	12.5
793.447	13.5
794.193	14.5
794.938	15.5
795.683	12.5
796.427	12.5
797.172	12.5
797.917	14.5
798.662	12.5
799.406	14.5
800.151	13.5
800.895	10.5
801.64	11.5
802.384	11.5
803.128	11.5
803.872	12.5
804.616	11.5
805.36	10.5
806.104	10.5
806.848	10.5
807.592	9.5
808.336	11.5
809.079	10.5
809.823	9.5
810.566	8.5
811.31	10.5
812.053	11.5
812.796	7.5
813.539	9.5
814.283	9.5
815.026	8.5
815.769	10.5
816.511	10.5
817.254	7.5
817.997	9.5
818.74	6.5
819.482	9.5
820.225	6.5
820.967	7.5
821.71	7.5
822.452	10.5
823.194	7.5
823.936	5.5
824.678	7.5
825.42	6.5
826.162	9.5
826.904	6.5
827.646	8.5
828.388	6.5
829.129	8.5
829.871	4.5
830.612	8.5
831.354	7.5
832.095	4.5
832.836	7.5
833.577	3.5
834.319	7.5
835.06	5.5
835.801	6.5
836.542	7.5
837.282	6.5
838.023	6.5
838.764	8.5
839.504	6.5
840.245	3.5
840.985	9.5
841.726	5.5
842.466	6.5
843.206	5.5
843.946	5.5
844.687	5.5
845.427	3.5
846.166	5.5
846.906	6.5
847.646	5.5
848.386	3.5
849.125	5.5
849.865	6.5
850.605	7.5
851.344	3.5
852.083	5.5
852.823	5.5
853.562	5.5
854.301	5.5
855.04	5.5
855.779	4.5
856.518	4.5
857.257	4.5
857.995	1.5
858.734	6.5
859.473	3.5
860.211	2.5
860.95	3.5
861.688	2.5
862.426	4.5
863.165	2.5
863.903	4.5
864.641	4.5
865.379	3.5
866.117	3.5
866.855	2.5
867.593	1.5
868.33	3.5
869.068	4.5
869.806	3.5
870.543	3.5
871.28	4.5
872.018	3.5
872.755	2.5
873.492	3.5
874.229	4.5
874.967	1.5
875.703	1.5
876.44	2.5
877.177	2.5
877.914	3.5
878.651	2.5
879.387	1.5
880.124	-0.5
880.86	1.5
881.597	3.5
882.333	2.5
883.069	2.5
883.806	1.5
884.542	1.5
885.278	4.5
886.014	1.5
886.749	5.5
887.485	4.5
888.221	2.5
888.957	3.5
889.692	2.5
890.428	1.5
891.163	1.5
891.899	-0.5
892.634	2.5
893.369	0.5
894.104	4.5
894.839	2.5
895.574	1.5
896.309	1.5
897.044	0.5
897.779	1.5
898.514	1.5
899.248	1.5
899.983	0.5
900.717	-1.5
901.452	-0.5
902.186	2.5
902.92	1.5
903.654	1.5
904.389	2.5
905.123	1.5
905.857	0.5
906.59	1.5
907.324	1.5
908.058	2.5
908.792	1.5
909.525	2.5
910.259	1.5
910.992	1.5
911.726	0.5
912.459	1.5
913.192	2.5
913.925	0.5
914.658	-0.5
915.391	1.5
916.124	-0.5
916.857	2.5
917.59	1.5
918.323	1.5
919.055	0.5
919.788	0.5
920.521	4.5
921.253	-0.5
921.985	-0.5
922.718	2.5
923.45	0.5
924.182	2.5
924.914	-0.5
925.646	-0.5
926.378	0.5
927.11	-0.5
927.841	-0.5
928.573	-0.5
929.305	1.5
930.036	0.5
930.768	1.5
931.499	-0.5
932.23	1.5
932.962	-1.5
933.693	-0.5
934.424	0.5
935.155	2.5
935.886	1.5
936.617	-0.5
937.348	1.5
938.078	0.5
938.809	-0.5
939.54	1.5
940.27	-1.5
941.001	0.5
941.731	1.5
942.461	-0.5
943.191	-0.5
943.922	1.5
944.652	0.5
945.382	1.5
946.112	2.5
946.841	0.5
947.571	-0.5
948.301	-0.5
949.031	-0.5
949.76	2.5
950.49	-1.5
951.219	0.5
951.948	0.5
952.678	1.5
953.407	1.5
954.136	3.5
954.865	0.5
955.594	0.5
956.323	-0.5
957.052	3.5
957.78	0.5
958.509	1.5
959.238	1.5
959.966	-0.5
960.695	-0.5
961.423	0.5
962.151	-0.5
962.88	1.5
963.608	-2.5
964.336	0.5
965.064	-0.5
965.792	-1.5
966.52	0.5
967.247	3.5
967.975	-0.5
968.703	-0.5
969.43	-0.5
970.158	-0.5
970.885	1.5
971.613	-0.5
972.34	1.5
973.067	-0.5
973.794	-0.5
974.521	1.5
975.248	-0.5
975.975	0.5
976.702	0.5
977.429	1.5
978.156	-0.5
978.882	-0.5
979.609	2.5
980.335	-1.5
981.062	1.5
981.788	0.5
982.514	0.5
983.24	1.5
983.967	-0.5
984.693	2.5
985.419	0.5
986.144	0.5
986.87	1.5
987.596	-0.5
988.322	1.5
989.047	1.5
989.773	1.5
990.498	-1.5
991.224	2.5
991.949	-0.5
992.674	-0.5
993.399	0.5
994.124	-0.5
994.849	3.5
995.574	-0.5
996.299	1.5
997.024	-0.5
997.749	3.5
998.473	1.5
999.198	0.5
999.922	-0.5
1000.647	-0.5
1001.371	2.5
1002.095	-0.5
1002.82	0.5
1003.544	-2.5
1004.268	4.5
1004.992	4.5
1005.716	5.5
1006.439	7.5
1007.163	3.5
1007.887	6.5
1008.611	1.5
1009.334	0.5
1010.058	1.5
1010.781	2.5
1011.504	2.5
1012.228	-2.5
1012.951	-0.5
1013.674	0.5
1014.397	1.5
1015.12	-1.5
