节点500_705_QEPB04081__13__20-46-06-371.txt的数据

Date: Wed Nov 12 20:46:06 CST 2025
User: PC
Spectrometer: QEPB0408
触发模式: 0
积分时间 (秒): 1.000000E-2
Scans to average: 1
启用暗噪声校正: true
启用非线性校正: false
滑动平均宽度: 0
X轴模式: Wavelengths
Number of Pixels in Spectrum: 1044
>>>>>Begin Spectral Data<<<<<
220.843	7.88
221.644	4.88
222.444	4.88
223.244	7.88
224.045	6.88
224.845	5.88
225.645	8.88
226.445	5.88
227.245	7.88
228.045	8.88
228.845	6.88
229.645	8.88
230.444	4.88
231.244	9.88
232.043	7.88
232.843	7.88
233.642	9.88
234.442	8.88
235.241	9.88
236.04	11.88
236.839	9.88
237.638	9.88
238.437	9.88
239.236	9.88
240.035	10.88
240.833	11.88
241.632	14.88
242.43	10.88
243.229	11.88
244.027	11.88
244.826	11.88
245.624	13.88
246.422	14.88
247.22	14.88
248.018	13.88
248.816	14.88
249.614	15.88
250.412	14.88
251.21	16.88
252.007	15.88
252.805	19.88
253.602	16.88
254.4	21.88
255.197	19.88
255.994	21.88
256.791	22.88
257.589	21.88
258.386	24.88
259.183	25.88
259.979	25.88
260.776	23.88
261.573	25.88
262.37	25.88
263.166	28.88
263.963	28.88
264.759	29.88
265.556	28.88
266.352	31.88
267.148	27.88
267.944	30.88
268.74	32.88
269.536	33.88
270.332	33.88
271.128	31.88
271.924	36.88
272.719	32.88
273.515	33.88
274.311	33.88
275.106	33.88
275.901	34.88
276.697	35.88
277.492	36.88
278.287	35.88
279.082	37.88
279.877	37.88
280.672	39.88
281.467	39.88
282.262	35.88
283.056	36.88
283.851	36.88
284.646	36.88
285.44	33.88
286.234	33.88
287.029	33.88
287.823	32.88
288.617	36.88
289.411	34.88
290.205	30.88
290.999	33.88
291.793	32.88
292.587	32.88
293.381	34.88
294.174	27.88
294.968	31.88
295.761	28.88
296.555	28.88
297.348	26.88
298.141	26.88
298.935	29.88
299.728	27.88
300.521	26.88
301.314	23.88
302.107	26.88
302.899	24.88
303.692	22.88
304.485	21.88
305.277	19.88
306.07	22.88
306.862	23.88
307.655	19.88
308.447	18.88
309.239	18.88
310.031	21.88
310.823	17.88
311.615	20.88
312.407	16.88
313.199	16.88
313.991	18.88
314.783	16.88
315.574	15.88
316.366	15.88
317.157	15.88
317.949	16.88
318.74	16.88
319.531	14.88
320.322	12.88
321.113	14.88
321.904	11.88
322.695	17.88
323.486	12.88
324.277	12.88
325.068	13.88
325.858	11.88
326.649	12.88
327.439	10.88
328.23	12.88
329.02	12.88
329.81	10.88
330.6	10.88
331.391	14.88
332.181	14.88
332.971	13.88
333.76	12.88
334.55	11.88
335.34	13.88
336.13	10.88
336.919	12.88
337.709	11.88
338.498	11.88
339.287	11.88
340.077	10.88
340.866	10.88
341.655	10.88
342.444	9.88
343.233	9.88
344.022	9.88
344.811	9.88
345.6	12.88
346.388	11.88
347.177	14.88
347.965	10.88
348.754	10.88
349.542	9.88
350.33	8.88
351.119	10.88
351.907	8.88
352.695	8.88
353.483	9.88
354.271	11.88
355.059	12.88
355.846	10.88
356.634	13.88
357.422	11.88
358.209	9.88
358.997	10.88
359.784	12.88
360.571	12.88
361.359	11.88
362.146	9.88
362.933	10.88
363.72	10.88
364.507	10.88
365.294	9.88
366.081	8.88
366.867	7.88
367.654	9.88
368.44	8.88
369.227	7.88
370.013	11.88
370.8	6.88
371.586	10.88
372.372	10.88
373.158	9.88
373.944	10.88
374.73	8.88
375.516	11.88
376.302	12.88
377.088	7.88
377.873	11.88
378.659	10.88
379.445	11.88
380.23	9.88
381.015	10.88
381.801	8.88
382.586	8.88
383.371	10.88
384.156	9.88
384.941	10.88
385.726	10.88
386.511	10.88
387.296	11.88
388.08	9.88
388.865	12.88
389.649	12.88
390.434	12.88
391.218	12.88
392.003	14.88
392.787	10.88
393.571	13.88
394.355	13.88
395.139	12.88
395.923	10.88
396.707	12.88
397.491	13.88
398.274	13.88
399.058	9.88
399.842	14.88
400.625	13.88
401.408	14.88
402.192	15.88
402.975	15.88
403.758	12.88
404.541	14.88
405.324	15.88
406.107	12.88
406.89	16.88
407.673	17.88
408.456	14.88
409.238	18.88
410.021	16.88
410.803	19.88
411.586	18.88
412.368	19.88
413.151	17.88
413.933	17.88
414.715	17.88
415.497	18.88
416.279	19.88
417.061	16.88
417.843	18.88
418.624	20.88
419.406	19.88
420.188	20.88
420.969	23.88
421.751	23.88
422.532	24.88
423.313	22.88
424.095	24.88
424.876	23.88
425.657	25.88
426.438	24.88
427.219	27.88
428	28.88
428.78	25.88
429.561	29.88
430.342	29.88
431.122	30.88
431.903	30.88
432.683	32.88
433.464	37.88
434.244	35.88
435.024	38.88
435.804	37.88
436.584	42.88
437.364	42.88
438.144	47.88
438.924	50.88
439.704	47.88
440.483	53.88
441.263	58.88
442.042	61.88
442.822	65.88
443.601	73.88
444.38	76.88
445.16	77.88
445.939	85.88
446.718	93.88
447.497	106.88
448.276	114.88
449.054	122.88
449.833	135.88
450.612	152.88
451.391	164.88
452.169	177.88
452.948	203.88
453.726	218.88
454.504	249.88
455.282	270.88
456.061	302.88
456.839	334.88
457.617	379.88
458.395	419.88
459.172	462.88
459.95	519.88
460.728	595.88
461.506	652.88
462.283	734.88
463.061	817.88
463.838	925.88
464.615	1026.88
465.393	1150.88
466.17	1293.88
466.947	1443.88
467.724	1598.88
468.501	1770.88
469.278	1968.88
470.055	2205.88
470.831	2448.88
471.608	2745.88
472.385	3042.88
473.161	3360.88
473.938	3724.88
474.714	4111.88
475.49	4527.88
476.266	5024.88
477.043	5510.88
477.819	6082.88
478.595	6702.88
479.371	7300.88
480.146	8058.88
480.922	8859.88
481.698	9693.88
482.473	10681.88
483.249	11686.88
484.024	12704.88
484.8	13912.88
485.575	15156.88
486.35	16501.88
487.126	17940.88
487.901	19451.88
488.676	21161.88
489.451	22827.88
490.225	24707.88
491	26503.88
491.775	28478.88
492.55	30498.88
493.324	32523.88
494.099	34483.88
494.873	36472.88
495.647	38569.88
496.422	40480.88
497.196	42452.88
497.97	44178.88
498.744	45769.88
499.518	47390.88
500.292	48682.88
501.066	49537.88
501.839	50245.88
502.613	50826.88
503.387	51119.88
504.16	51169.88
504.934	50893.88
505.707	50283.88
506.48	49652.88
507.253	48716.88
508.027	47596.88
508.8	46217.88
509.573	44812.88
510.346	43456.88
511.118	41976.88
511.891	40495.88
512.664	38692.88
513.437	37180.88
514.209	35614.88
514.982	34141.88
515.754	32616.88
516.526	31180.88
517.298	29939.88
518.071	28743.88
518.843	27579.88
519.615	26484.88
520.387	25416.88
521.159	24376.88
521.93	23318.88
522.702	22268.88
523.474	21292.88
524.245	20450.88
525.017	19494.88
525.788	18601.88
526.56	17778.88
527.331	16972.88
528.102	16104.88
528.873	15151.88
529.644	14469.88
530.415	13685.88
531.186	13014.88
531.957	12317.88
532.728	11666.88
533.498	11017.88
534.269	10426.88
535.039	9836.88
535.81	9307.88
536.58	8770.88
537.351	8333.88
538.121	7887.88
538.891	7423.88
539.661	7064.88
540.431	6662.88
541.201	6339.88
541.971	5997.88
542.741	5664.88
543.51	5393.88
544.28	5121.88
545.05	4903.88
545.819	4653.88
546.588	4398.88
547.358	4217.88
548.127	3987.88
548.896	3790.88
549.665	3566.88
550.434	3390.88
551.203	3219.88
551.972	3041.88
552.741	2889.88
553.51	2720.88
554.278	2569.88
555.047	2430.88
555.815	2267.88
556.584	2143.88
557.352	2036.88
558.121	1919.88
558.889	1818.88
559.657	1722.88
560.425	1615.88
561.193	1537.88
561.961	1447.88
562.729	1376.88
563.496	1299.88
564.264	1235.88
565.032	1165.88
565.799	1096.88
566.567	1040.88
567.334	986.88
568.101	924.88
568.869	880.88
569.636	819.88
570.403	787.88
571.17	735.88
571.937	694.88
572.704	652.88
573.471	620.88
574.237	588.88
575.004	555.88
575.771	522.88
576.537	495.88
577.303	467.88
578.07	434.88
578.836	415.88
579.602	395.88
580.368	376.88
581.134	359.88
581.9	336.88
582.666	318.88
583.432	308.88
584.198	287.88
584.964	271.88
585.729	259.88
586.495	242.88
587.26	235.88
588.025	221.88
588.791	207.88
589.556	201.88
590.321	187.88
591.086	180.88
591.851	172.88
592.616	164.88
593.381	159.88
594.146	146.88
594.911	138.88
595.675	135.88
596.44	130.88
597.204	120.88
597.969	120.88
598.733	113.88
599.497	108.88
600.261	105.88
601.025	101.88
601.79	92.88
602.553	92.88
603.317	92.88
604.081	88.88
604.845	80.88
605.609	80.88
606.372	73.88
607.136	72.88
607.899	68.88
608.662	65.88
609.426	61.88
610.189	63.88
610.952	57.88
611.715	57.88
612.478	53.88
613.241	52.88
614.004	50.88
614.767	50.88
615.529	50.88
616.292	47.88
617.055	43.88
617.817	45.88
618.579	41.88
619.342	39.88
620.104	41.88
620.866	39.88
621.628	38.88
622.39	34.88
623.152	34.88
623.914	36.88
624.676	29.88
625.438	31.88
626.199	29.88
626.961	30.88
627.722	29.88
628.484	29.88
629.245	24.88
630.006	27.88
630.768	25.88
631.529	23.88
632.29	24.88
633.051	26.88
633.812	23.88
634.573	23.88
635.333	21.88
636.094	22.88
636.855	22.88
637.615	22.88
638.376	18.88
639.136	21.88
639.896	19.88
640.657	19.88
641.417	19.88
642.177	17.88
642.937	15.88
643.697	16.88
644.457	16.88
645.216	16.88
645.976	17.88
646.736	16.88
647.495	13.88
648.255	14.88
649.014	14.88
649.774	16.88
650.533	12.88
651.292	14.88
652.051	13.88
652.81	14.88
653.569	11.88
654.328	14.88
655.087	14.88
655.846	12.88
656.604	9.88
657.363	14.88
658.121	12.88
658.88	11.88
659.638	12.88
660.397	10.88
661.155	12.88
661.913	8.88
662.671	10.88
663.429	12.88
664.187	8.88
664.945	9.88
665.703	10.88
666.46	10.88
667.218	10.88
667.976	9.88
668.733	7.88
669.49	7.88
670.248	8.88
671.005	10.88
671.762	9.88
672.519	8.88
673.276	6.88
674.033	7.88
674.79	8.88
675.547	7.88
676.304	8.88
677.06	9.88
677.817	9.88
678.574	7.88
679.33	9.88
680.086	5.88
680.843	9.88
681.599	9.88
682.355	7.88
683.111	9.88
683.867	6.88
684.623	8.88
685.379	8.88
686.135	6.88
686.89	6.88
687.646	6.88
688.402	9.88
689.157	5.88
689.912	5.88
690.668	6.88
691.423	7.88
692.178	7.88
692.933	5.88
693.688	7.88
694.443	7.88
695.198	6.88
695.953	6.88
696.708	5.88
697.462	6.88
698.217	8.88
698.972	6.88
699.726	9.88
700.48	5.88
701.235	8.88
701.989	7.88
702.743	7.88
703.497	6.88
704.251	7.88
705.005	8.88
705.759	6.88
706.513	9.88
707.266	7.88
708.02	8.88
708.774	7.88
709.527	7.88
710.28	5.88
711.034	6.88
711.787	7.88
712.54	8.88
713.293	7.88
714.046	6.88
714.799	6.88
715.552	7.88
716.305	5.88
717.058	9.88
717.81	9.88
718.563	7.88
719.315	6.88
720.068	9.88
720.82	7.88
721.573	8.88
722.325	8.88
723.077	7.88
723.829	8.88
724.581	9.88
725.333	7.88
726.085	7.88
726.836	7.88
727.588	7.88
728.34	9.88
729.091	5.88
729.843	8.88
730.594	9.88
731.346	10.88
732.097	7.88
732.848	9.88
733.599	9.88
734.35	7.88
735.101	10.88
735.852	9.88
736.603	8.88
737.354	11.88
738.104	9.88
738.855	10.88
739.605	8.88
740.356	9.88
741.106	7.88
741.856	12.88
742.607	10.88
743.357	12.88
744.107	12.88
744.857	8.88
745.607	10.88
746.357	9.88
747.106	10.88
747.856	12.88
748.606	11.88
749.355	11.88
750.105	9.88
750.854	9.88
751.603	13.88
752.353	12.88
753.102	13.88
753.851	12.88
754.6	11.88
755.349	10.88
756.098	13.88
756.847	12.88
757.595	12.88
758.344	12.88
759.093	11.88
759.841	16.88
760.589	13.88
761.338	12.88
762.086	12.88
762.834	14.88
763.582	13.88
764.331	13.88
765.079	13.88
765.826	16.88
766.574	14.88
767.322	15.88
768.07	16.88
768.817	17.88
769.565	12.88
770.312	16.88
771.06	13.88
771.807	14.88
772.554	13.88
773.302	15.88
774.049	16.88
774.796	17.88
775.543	18.88
776.29	16.88
777.036	16.88
777.783	17.88
778.53	14.88
779.276	17.88
780.023	16.88
780.769	14.88
781.516	14.88
782.262	17.88
783.008	18.88
783.754	14.88
784.5	16.88
785.246	15.88
785.992	15.88
786.738	14.88
787.484	15.88
788.23	15.88
788.975	16.88
789.721	17.88
790.466	14.88
791.212	14.88
791.957	14.88
792.702	13.88
793.447	14.88
794.193	14.88
794.938	15.88
795.683	14.88
796.427	13.88
797.172	14.88
797.917	10.88
798.662	10.88
799.406	12.88
800.151	11.88
800.895	14.88
801.64	10.88
802.384	12.88
803.128	10.88
803.872	10.88
804.616	13.88
805.36	13.88
806.104	12.88
806.848	10.88
807.592	10.88
808.336	10.88
809.079	9.88
809.823	9.88
810.566	8.88
811.31	8.88
812.053	9.88
812.796	9.88
813.539	7.88
814.283	9.88
815.026	7.88
815.769	7.88
816.511	10.88
817.254	7.88
817.997	8.88
818.74	8.88
819.482	6.88
820.225	9.88
820.967	6.88
821.71	7.88
822.452	7.88
823.194	5.88
823.936	6.88
824.678	5.88
825.42	8.88
826.162	5.88
826.904	6.88
827.646	6.88
828.388	5.88
829.129	5.88
829.871	6.88
830.612	6.88
831.354	4.88
832.095	4.88
832.836	7.88
833.577	3.88
834.319	5.88
835.06	4.88
835.801	5.88
836.542	4.88
837.282	5.88
838.023	5.88
838.764	5.88
839.504	5.88
840.245	5.88
840.985	3.88
841.726	4.88
842.466	4.88
843.206	4.88
843.946	1.88
844.687	4.88
845.427	6.88
846.166	4.88
846.906	5.88
847.646	4.88
848.386	3.88
849.125	2.88
849.865	4.88
850.605	4.88
851.344	3.88
852.083	4.88
852.823	3.88
853.562	3.88
854.301	5.88
855.04	1.88
855.779	3.88
856.518	4.88
857.257	3.88
857.995	2.88
858.734	3.88
859.473	3.88
860.211	4.88
860.95	3.88
861.688	0.88
862.426	5.88
863.165	5.88
863.903	1.88
864.641	2.88
865.379	1.88
866.117	0.88
866.855	0.88
867.593	4.88
868.33	0.88
869.068	2.88
869.806	0.88
870.543	1.88
871.28	3.88
872.018	3.88
872.755	3.88
873.492	1.88
874.229	2.88
874.967	-0.12
875.703	2.88
876.44	3.88
877.177	1.88
877.914	1.88
878.651	1.88
879.387	-0.12
880.124	2.88
880.86	1.88
881.597	2.88
882.333	2.88
883.069	0.88
883.806	1.88
884.542	-0.12
885.278	1.88
886.014	1.88
886.749	1.88
887.485	0.88
888.221	0.88
888.957	2.88
889.692	-2.12
890.428	1.88
891.163	0.88
891.899	-0.12
892.634	-0.12
893.369	0.88
894.104	-0.12
894.839	0.88
895.574	1.88
896.309	-1.12
897.044	-0.12
897.779	-0.12
898.514	1.88
899.248	1.88
899.983	-0.12
900.717	-0.12
901.452	0.88
902.186	-0.12
902.92	1.88
903.654	-0.12
904.389	0.88
905.123	0.88
905.857	-0.12
906.59	1.88
907.324	-1.12
908.058	1.88
908.792	-1.12
909.525	-0.12
910.259	1.88
910.992	-0.12
911.726	-1.12
912.459	-1.12
913.192	2.88
913.925	0.88
914.658	-0.12
915.391	-1.12
916.124	-0.12
916.857	1.88
917.59	-0.12
918.323	1.88
919.055	0.88
919.788	-1.12
920.521	-0.12
921.253	1.88
921.985	0.88
922.718	-1.12
923.45	0.88
924.182	-1.12
924.914	0.88
925.646	-0.12
926.378	-1.12
927.11	0.88
927.841	-0.12
928.573	-1.12
929.305	-1.12
930.036	-2.12
930.768	1.88
931.499	-1.12
932.23	-0.12
932.962	-1.12
933.693	0.88
934.424	-0.12
935.155	-1.12
935.886	1.88
936.617	-1.12
937.348	-0.12
938.078	1.88
938.809	-0.12
939.54	0.88
940.27	-1.12
941.001	0.88
941.731	-1.12
942.461	0.88
943.191	0.88
943.922	-0.12
944.652	1.88
945.382	0.88
946.112	-0.12
946.841	0.88
947.571	1.88
948.301	-0.12
949.031	-0.12
949.76	-1.12
950.49	1.88
951.219	-3.12
951.948	-1.12
952.678	-2.12
953.407	2.88
954.136	-0.12
954.865	1.88
955.594	2.88
956.323	-1.12
957.052	-0.12
957.78	-1.12
958.509	1.88
959.238	0.88
959.966	-0.12
960.695	1.88
961.423	-0.12
962.151	-0.12
962.88	-1.12
963.608	-1.12
964.336	0.88
965.064	-1.12
965.792	1.88
966.52	-0.12
967.247	0.88
967.975	-1.12
968.703	1.88
969.43	-0.12
970.158	-0.12
970.885	-0.12
971.613	0.88
972.34	-0.12
973.067	-0.12
973.794	0.88
974.521	0.88
975.248	-1.12
975.975	1.88
976.702	-0.12
977.429	0.88
978.156	1.88
978.882	-2.12
979.609	0.88
980.335	-1.12
981.062	-1.12
981.788	1.88
982.514	1.88
983.24	0.88
983.967	2.88
984.693	-1.12
985.419	-0.12
986.144	1.88
986.87	-1.12
987.596	-0.12
988.322	-1.12
989.047	-0.12
989.773	2.88
990.498	1.88
991.224	0.88
991.949	0.88
992.674	-0.12
993.399	-0.12
994.124	-1.12
994.849	1.88
995.574	1.88
996.299	-1.12
997.024	0.88
997.749	-1.12
998.473	-0.12
999.198	-1.12
999.922	0.88
1000.647	-0.12
1001.371	3.88
1002.095	-3.12
1002.82	-1.12
1003.544	0.88
1004.268	2.88
1004.992	3.88
1005.716	2.88
1006.439	0.88
1007.163	1.88
1007.887	4.88
1008.611	-0.12
1009.334	2.88
1010.058	0.88
1010.781	2.88
1011.504	-1.12
1012.228	0.88
1012.951	1.88
1013.674	-2.12
1014.397	0.88
1015.12	-1.12
