节点500_705_QEPB04081__578__20-54-08-783.txt的数据

Date: Wed Nov 12 20:54:08 CST 2025
User: PC
Spectrometer: QEPB0408
触发模式: 0
积分时间 (秒): 1.000000E-2
Scans to average: 1
启用暗噪声校正: true
启用非线性校正: false
滑动平均宽度: 0
X轴模式: Wavelengths
Number of Pixels in Spectrum: 1044
>>>>>Begin Spectral Data<<<<<
220.843	4.25
221.644	6.25
222.444	5.25
223.244	8.25
224.045	8.25
224.845	6.25
225.645	7.25
226.445	5.25
227.245	7.25
228.045	5.25
228.845	6.25
229.645	8.25
230.444	8.25
231.244	8.25
232.043	8.25
232.843	9.25
233.642	9.25
234.442	10.25
235.241	12.25
236.04	6.25
236.839	10.25
237.638	11.25
238.437	11.25
239.236	11.25
240.035	11.25
240.833	11.25
241.632	11.25
242.43	12.25
243.229	10.25
244.027	11.25
244.826	15.25
245.624	13.25
246.422	15.25
247.22	12.25
248.018	13.25
248.816	14.25
249.614	14.25
250.412	12.25
251.21	17.25
252.007	16.25
252.805	15.25
253.602	17.25
254.4	18.25
255.197	17.25
255.994	19.25
256.791	17.25
257.589	21.25
258.386	19.25
259.183	23.25
259.979	21.25
260.776	20.25
261.573	20.25
262.37	23.25
263.166	24.25
263.963	21.25
264.759	26.25
265.556	21.25
266.352	22.25
267.148	27.25
267.944	25.25
268.74	27.25
269.536	25.25
270.332	27.25
271.128	28.25
271.924	27.25
272.719	27.25
273.515	30.25
274.311	28.25
275.106	31.25
275.901	32.25
276.697	31.25
277.492	27.25
278.287	33.25
279.082	31.25
279.877	34.25
280.672	35.25
281.467	31.25
282.262	30.25
283.056	32.25
283.851	27.25
284.646	31.25
285.44	27.25
286.234	30.25
287.029	34.25
287.823	33.25
288.617	32.25
289.411	31.25
290.205	28.25
290.999	27.25
291.793	28.25
292.587	31.25
293.381	26.25
294.174	30.25
294.968	29.25
295.761	28.25
296.555	27.25
297.348	24.25
298.141	26.25
298.935	27.25
299.728	25.25
300.521	24.25
301.314	23.25
302.107	24.25
302.899	24.25
303.692	20.25
304.485	22.25
305.277	20.25
306.07	22.25
306.862	21.25
307.655	20.25
308.447	23.25
309.239	21.25
310.031	22.25
310.823	19.25
311.615	18.25
312.407	21.25
313.199	17.25
313.991	17.25
314.783	16.25
315.574	17.25
316.366	15.25
317.157	17.25
317.949	16.25
318.74	13.25
319.531	13.25
320.322	12.25
321.113	13.25
321.904	16.25
322.695	14.25
323.486	14.25
324.277	15.25
325.068	11.25
325.858	13.25
326.649	11.25
327.439	15.25
328.23	14.25
329.02	13.25
329.81	13.25
330.6	12.25
331.391	14.25
332.181	12.25
332.971	13.25
333.76	12.25
334.55	13.25
335.34	11.25
336.13	10.25
336.919	11.25
337.709	11.25
338.498	10.25
339.287	13.25
340.077	12.25
340.866	14.25
341.655	12.25
342.444	13.25
343.233	12.25
344.022	14.25
344.811	10.25
345.6	11.25
346.388	13.25
347.177	11.25
347.965	12.25
348.754	13.25
349.542	11.25
350.33	13.25
351.119	11.25
351.907	12.25
352.695	11.25
353.483	10.25
354.271	9.25
355.059	9.25
355.846	10.25
356.634	9.25
357.422	10.25
358.209	10.25
358.997	9.25
359.784	9.25
360.571	10.25
361.359	14.25
362.146	9.25
362.933	10.25
363.72	10.25
364.507	10.25
365.294	8.25
366.081	9.25
366.867	10.25
367.654	12.25
368.44	9.25
369.227	9.25
370.013	7.25
370.8	9.25
371.586	12.25
372.372	10.25
373.158	8.25
373.944	9.25
374.73	9.25
375.516	9.25
376.302	12.25
377.088	7.25
377.873	9.25
378.659	8.25
379.445	8.25
380.23	7.25
381.015	9.25
381.801	9.25
382.586	11.25
383.371	10.25
384.156	11.25
384.941	9.25
385.726	12.25
386.511	9.25
387.296	11.25
388.08	12.25
388.865	9.25
389.649	12.25
390.434	11.25
391.218	11.25
392.003	13.25
392.787	11.25
393.571	13.25
394.355	13.25
395.139	11.25
395.923	11.25
396.707	10.25
397.491	14.25
398.274	14.25
399.058	13.25
399.842	13.25
400.625	15.25
401.408	14.25
402.192	12.25
402.975	12.25
403.758	11.25
404.541	17.25
405.324	12.25
406.107	14.25
406.89	14.25
407.673	15.25
408.456	16.25
409.238	17.25
410.021	15.25
410.803	15.25
411.586	18.25
412.368	16.25
413.151	12.25
413.933	18.25
414.715	18.25
415.497	15.25
416.279	17.25
417.061	17.25
417.843	20.25
418.624	19.25
419.406	21.25
420.188	19.25
420.969	21.25
421.751	20.25
422.532	20.25
423.313	20.25
424.095	23.25
424.876	24.25
425.657	26.25
426.438	24.25
427.219	27.25
428	27.25
428.78	31.25
429.561	27.25
430.342	27.25
431.122	30.25
431.903	34.25
432.683	32.25
433.464	31.25
434.244	37.25
435.024	35.25
435.804	42.25
436.584	43.25
437.364	46.25
438.144	47.25
438.924	52.25
439.704	58.25
440.483	59.25
441.263	63.25
442.042	67.25
442.822	71.25
443.601	78.25
444.38	86.25
445.16	90.25
445.939	97.25
446.718	109.25
447.497	121.25
448.276	130.25
449.054	145.25
449.833	153.25
450.612	175.25
451.391	193.25
452.169	207.25
452.948	236.25
453.726	259.25
454.504	282.25
455.282	322.25
456.061	346.25
456.839	395.25
457.617	441.25
458.395	481.25
459.172	536.25
459.95	606.25
460.728	662.25
461.506	738.25
462.283	823.25
463.061	919.25
463.838	1021.25
464.615	1131.25
465.393	1252.25
466.17	1382.25
466.947	1551.25
467.724	1701.25
468.501	1885.25
469.278	2075.25
470.055	2256.25
470.831	2506.25
471.608	2775.25
472.385	3003.25
473.161	3312.25
473.938	3625.25
474.714	3957.25
475.49	4299.25
476.266	4732.25
477.043	5128.25
477.819	5590.25
478.595	6064.25
479.371	6589.25
480.146	7177.25
480.922	7827.25
481.698	8431.25
482.473	9137.25
483.249	9879.25
484.024	10697.25
484.8	11561.25
485.575	12410.25
486.35	13434.25
487.126	14450.25
487.901	15608.25
488.676	16807.25
489.451	17965.25
490.225	19368.25
491	20709.25
491.775	22106.25
492.55	23538.25
493.324	25058.25
494.099	26537.25
494.873	28188.25
495.647	29827.25
496.422	31389.25
497.196	33060.25
497.97	34543.25
498.744	35978.25
499.518	37541.25
500.292	38849.25
501.066	39880.25
501.839	40921.25
502.613	41842.25
503.387	42539.25
504.16	43261.25
504.934	43585.25
505.707	43873.25
506.48	43751.25
507.253	43586.25
508.027	43321.25
508.8	42689.25
509.573	41992.25
510.346	41297.25
511.118	40492.25
511.891	39485.25
512.664	38261.25
513.437	36873.25
514.209	35764.25
514.982	34495.25
515.754	33165.25
516.526	31959.25
517.298	30711.25
518.071	29564.25
518.843	28383.25
519.615	27243.25
520.387	26224.25
521.159	25183.25
521.93	24175.25
522.702	23175.25
523.474	22222.25
524.245	21397.25
525.017	20478.25
525.788	19642.25
526.56	18842.25
527.331	18083.25
528.102	17104.25
528.873	16330.25
529.644	15562.25
530.415	14843.25
531.186	14185.25
531.957	13492.25
532.728	12795.25
533.498	12213.25
534.269	11538.25
535.039	11003.25
535.81	10363.25
536.58	9843.25
537.351	9338.25
538.121	8830.25
538.891	8369.25
539.661	7903.25
540.431	7472.25
541.201	7122.25
541.971	6713.25
542.741	6355.25
543.51	6036.25
544.28	5747.25
545.05	5495.25
545.819	5199.25
546.588	4989.25
547.358	4758.25
548.127	4517.25
548.896	4299.25
549.665	4088.25
550.434	3865.25
551.203	3679.25
551.972	3497.25
552.741	3297.25
553.51	3090.25
554.278	2954.25
555.047	2789.25
555.815	2644.25
556.584	2508.25
557.352	2372.25
558.121	2228.25
558.889	2109.25
559.657	2006.25
560.425	1877.25
561.193	1794.25
561.961	1697.25
562.729	1603.25
563.496	1499.25
564.264	1437.25
565.032	1368.25
565.799	1284.25
566.567	1216.25
567.334	1141.25
568.101	1096.25
568.869	1035.25
569.636	971.25
570.403	913.25
571.17	861.25
571.937	817.25
572.704	769.25
573.471	731.25
574.237	686.25
575.004	653.25
575.771	603.25
576.537	575.25
577.303	531.25
578.07	516.25
578.836	485.25
579.602	450.25
580.368	436.25
581.134	417.25
581.9	396.25
582.666	372.25
583.432	356.25
584.198	339.25
584.964	330.25
585.729	300.25
586.495	284.25
587.26	269.25
588.025	255.25
588.791	249.25
589.556	230.25
590.321	219.25
591.086	207.25
591.851	200.25
592.616	192.25
593.381	179.25
594.146	169.25
594.911	164.25
595.675	157.25
596.44	152.25
597.204	138.25
597.969	133.25
598.733	133.25
599.497	124.25
600.261	120.25
601.025	116.25
601.79	105.25
602.553	109.25
603.317	100.25
604.081	90.25
604.845	90.25
605.609	90.25
606.372	87.25
607.136	85.25
607.899	79.25
608.662	77.25
609.426	73.25
610.189	71.25
610.952	67.25
611.715	67.25
612.478	60.25
613.241	59.25
614.004	59.25
614.767	56.25
615.529	55.25
616.292	51.25
617.055	51.25
617.817	49.25
618.579	47.25
619.342	47.25
620.104	43.25
620.866	47.25
621.628	44.25
622.39	43.25
623.152	37.25
623.914	36.25
624.676	34.25
625.438	34.25
626.199	35.25
626.961	35.25
627.722	31.25
628.484	28.25
629.245	34.25
630.006	31.25
630.768	27.25
631.529	29.25
632.29	27.25
633.051	26.25
633.812	23.25
634.573	24.25
635.333	22.25
636.094	25.25
636.855	24.25
637.615	24.25
638.376	19.25
639.136	22.25
639.896	20.25
640.657	24.25
641.417	21.25
642.177	19.25
642.937	15.25
643.697	17.25
644.457	19.25
645.216	17.25
645.976	19.25
646.736	15.25
647.495	15.25
648.255	16.25
649.014	17.25
649.774	18.25
650.533	15.25
651.292	14.25
652.051	15.25
652.81	14.25
653.569	13.25
654.328	14.25
655.087	12.25
655.846	11.25
656.604	13.25
657.363	12.25
658.121	12.25
658.88	13.25
659.638	9.25
660.397	10.25
661.155	11.25
661.913	11.25
662.671	9.25
663.429	10.25
664.187	10.25
664.945	9.25
665.703	12.25
666.46	10.25
667.218	8.25
667.976	11.25
668.733	10.25
669.49	10.25
670.248	10.25
671.005	12.25
671.762	12.25
672.519	9.25
673.276	8.25
674.033	9.25
674.79	10.25
675.547	9.25
676.304	7.25
677.06	9.25
677.817	9.25
678.574	9.25
679.33	6.25
680.086	10.25
680.843	9.25
681.599	7.25
682.355	7.25
683.111	8.25
683.867	8.25
684.623	8.25
685.379	7.25
686.135	9.25
686.89	9.25
687.646	7.25
688.402	9.25
689.157	5.25
689.912	10.25
690.668	9.25
691.423	8.25
692.178	7.25
692.933	8.25
693.688	7.25
694.443	7.25
695.198	7.25
695.953	9.25
696.708	8.25
697.462	8.25
698.217	9.25
698.972	7.25
699.726	8.25
700.48	8.25
701.235	9.25
701.989	8.25
702.743	8.25
703.497	8.25
704.251	6.25
705.005	8.25
705.759	8.25
706.513	6.25
707.266	7.25
708.02	8.25
708.774	6.25
709.527	4.25
710.28	11.25
711.034	7.25
711.787	9.25
712.54	6.25
713.293	8.25
714.046	6.25
714.799	8.25
715.552	9.25
716.305	8.25
717.058	7.25
717.81	5.25
718.563	7.25
719.315	7.25
720.068	8.25
720.82	9.25
721.573	8.25
722.325	9.25
723.077	6.25
723.829	9.25
724.581	8.25
725.333	10.25
726.085	8.25
726.836	8.25
727.588	8.25
728.34	8.25
729.091	7.25
729.843	10.25
730.594	9.25
731.346	9.25
732.097	8.25
732.848	7.25
733.599	9.25
734.35	10.25
735.101	9.25
735.852	7.25
736.603	11.25
737.354	9.25
738.104	10.25
738.855	10.25
739.605	9.25
740.356	10.25
741.106	11.25
741.856	11.25
742.607	11.25
743.357	9.25
744.107	9.25
744.857	8.25
745.607	9.25
746.357	11.25
747.106	11.25
747.856	10.25
748.606	11.25
749.355	10.25
750.105	12.25
750.854	14.25
751.603	8.25
752.353	11.25
753.102	11.25
753.851	11.25
754.6	13.25
755.349	10.25
756.098	11.25
756.847	11.25
757.595	11.25
758.344	14.25
759.093	12.25
759.841	11.25
760.589	11.25
761.338	14.25
762.086	9.25
762.834	12.25
763.582	12.25
764.331	11.25
765.079	11.25
765.826	13.25
766.574	14.25
767.322	11.25
768.07	15.25
768.817	13.25
769.565	11.25
770.312	13.25
771.06	13.25
771.807	12.25
772.554	11.25
773.302	11.25
774.049	13.25
774.796	15.25
775.543	16.25
776.29	14.25
777.036	13.25
777.783	13.25
778.53	15.25
779.276	14.25
780.023	15.25
780.769	18.25
781.516	13.25
782.262	15.25
783.008	15.25
783.754	14.25
784.5	16.25
785.246	13.25
785.992	18.25
786.738	15.25
787.484	15.25
788.23	17.25
788.975	14.25
789.721	16.25
790.466	11.25
791.212	15.25
791.957	14.25
792.702	14.25
793.447	12.25
794.193	14.25
794.938	15.25
795.683	13.25
796.427	12.25
797.172	13.25
797.917	12.25
798.662	14.25
799.406	14.25
800.151	13.25
800.895	11.25
801.64	13.25
802.384	13.25
803.128	11.25
803.872	11.25
804.616	9.25
805.36	10.25
806.104	11.25
806.848	8.25
807.592	10.25
808.336	8.25
809.079	11.25
809.823	9.25
810.566	8.25
811.31	8.25
812.053	9.25
812.796	10.25
813.539	8.25
814.283	11.25
815.026	9.25
815.769	9.25
816.511	9.25
817.254	6.25
817.997	8.25
818.74	7.25
819.482	9.25
820.225	8.25
820.967	7.25
821.71	9.25
822.452	9.25
823.194	7.25
823.936	10.25
824.678	8.25
825.42	7.25
826.162	7.25
826.904	8.25
827.646	7.25
828.388	10.25
829.129	9.25
829.871	8.25
830.612	9.25
831.354	8.25
832.095	7.25
832.836	7.25
833.577	6.25
834.319	8.25
835.06	6.25
835.801	8.25
836.542	6.25
837.282	7.25
838.023	3.25
838.764	7.25
839.504	5.25
840.245	5.25
840.985	6.25
841.726	7.25
842.466	5.25
843.206	7.25
843.946	6.25
844.687	4.25
845.427	5.25
846.166	6.25
846.906	5.25
847.646	4.25
848.386	3.25
849.125	5.25
849.865	5.25
850.605	3.25
851.344	3.25
852.083	4.25
852.823	5.25
853.562	5.25
854.301	2.25
855.04	5.25
855.779	5.25
856.518	4.25
857.257	5.25
857.995	5.25
858.734	4.25
859.473	4.25
860.211	4.25
860.95	3.25
861.688	3.25
862.426	3.25
863.165	2.25
863.903	4.25
864.641	3.25
865.379	5.25
866.117	3.25
866.855	2.25
867.593	3.25
868.33	3.25
869.068	3.25
869.806	2.25
870.543	1.25
871.28	3.25
872.018	2.25
872.755	4.25
873.492	3.25
874.229	3.25
874.967	4.25
875.703	1.25
876.44	1.25
877.177	-0.75
877.914	3.25
878.651	1.25
879.387	3.25
880.124	4.25
880.86	-0.75
881.597	3.25
882.333	0.25
883.069	1.25
883.806	1.25
884.542	2.25
885.278	3.25
886.014	1.25
886.749	1.25
887.485	1.25
888.221	3.25
888.957	-0.75
889.692	2.25
890.428	3.25
891.163	-0.75
891.899	1.25
892.634	2.25
893.369	3.25
894.104	1.25
894.839	-0.75
895.574	2.25
896.309	-0.75
897.044	2.25
897.779	0.25
898.514	0.25
899.248	1.25
899.983	2.25
900.717	0.25
901.452	1.25
902.186	3.25
902.92	2.25
903.654	0.25
904.389	1.25
905.123	1.25
905.857	2.25
906.59	2.25
907.324	1.25
908.058	4.25
908.792	0.25
909.525	-0.75
910.259	0.25
910.992	2.25
911.726	0.25
912.459	1.25
913.192	-0.75
913.925	-0.75
914.658	3.25
915.391	-0.75
916.124	0.25
916.857	2.25
917.59	0.25
918.323	1.25
919.055	1.25
919.788	0.25
920.521	-0.75
921.253	1.25
921.985	1.25
922.718	-0.75
923.45	-0.75
924.182	-0.75
924.914	-0.75
925.646	3.25
926.378	1.25
927.11	1.25
927.841	0.25
928.573	0.25
929.305	1.25
930.036	1.25
930.768	1.25
931.499	2.25
932.23	0.25
932.962	0.25
933.693	3.25
934.424	2.25
935.155	1.25
935.886	2.25
936.617	1.25
937.348	2.25
938.078	3.25
938.809	1.25
939.54	0.25
940.27	-1.75
941.001	3.25
941.731	0.25
942.461	2.25
943.191	-0.75
943.922	1.25
944.652	1.25
945.382	-0.75
946.112	3.25
946.841	0.25
947.571	-0.75
948.301	0.25
949.031	1.25
949.76	0.25
950.49	-0.75
951.219	2.25
951.948	0.25
952.678	-0.75
953.407	2.25
954.136	-0.75
954.865	1.25
955.594	0.25
956.323	2.25
957.052	0.25
957.78	0.25
958.509	0.25
959.238	-0.75
959.966	1.25
960.695	-0.75
961.423	-0.75
962.151	0.25
962.88	1.25
963.608	3.25
964.336	0.25
965.064	2.25
965.792	1.25
966.52	2.25
967.247	-0.75
967.975	-0.75
968.703	2.25
969.43	3.25
970.158	3.25
970.885	2.25
971.613	1.25
972.34	-0.75
973.067	1.25
973.794	1.25
974.521	1.25
975.248	1.25
975.975	2.25
976.702	0.25
977.429	-0.75
978.156	0.25
978.882	-1.75
979.609	-0.75
980.335	-0.75
981.062	0.25
981.788	-0.75
982.514	1.25
983.24	-0.75
983.967	0.25
984.693	1.25
985.419	-0.75
986.144	0.25
986.87	0.25
987.596	2.25
988.322	0.25
989.047	-0.75
989.773	-0.75
990.498	-0.75
991.224	0.25
991.949	2.25
992.674	1.25
993.399	1.25
994.124	2.25
994.849	0.25
995.574	-0.75
996.299	-0.75
997.024	0.25
997.749	2.25
998.473	-0.75
999.198	0.25
999.922	-0.75
1000.647	2.25
1001.371	4.25
1002.095	-0.75
1002.82	-2.75
1003.544	-0.75
1004.268	5.25
1004.992	3.25
1005.716	6.25
1006.439	3.25
1007.163	6.25
1007.887	5.25
1008.611	2.25
1009.334	0.25
1010.058	1.25
1010.781	2.25
1011.504	0.25
1012.228	0.25
1012.951	0.25
1013.674	-0.75
1014.397	0.25
1015.12	0.25
