节点500_705_QEPB04081__84__20-47-17-263.txt的数据

Date: Wed Nov 12 20:47:17 CST 2025
User: PC
Spectrometer: QEPB0408
触发模式: 0
积分时间 (秒): 1.000000E-2
Scans to average: 1
启用暗噪声校正: true
启用非线性校正: false
滑动平均宽度: 0
X轴模式: Wavelengths
Number of Pixels in Spectrum: 1044
>>>>>Begin Spectral Data<<<<<
220.843	6.25
221.644	4.25
222.444	5.25
223.244	6.25
224.045	4.25
224.845	7.25
225.645	9.25
226.445	6.25
227.245	9.25
228.045	9.25
228.845	9.25
229.645	9.25
230.444	11.25
231.244	6.25
232.043	12.25
232.843	8.25
233.642	10.25
234.442	10.25
235.241	11.25
236.04	10.25
236.839	10.25
237.638	10.25
238.437	12.25
239.236	13.25
240.035	12.25
240.833	12.25
241.632	18.25
242.43	13.25
243.229	13.25
244.027	12.25
244.826	14.25
245.624	15.25
246.422	16.25
247.22	15.25
248.018	15.25
248.816	17.25
249.614	18.25
250.412	17.25
251.21	21.25
252.007	19.25
252.805	20.25
253.602	16.25
254.4	19.25
255.197	21.25
255.994	19.25
256.791	19.25
257.589	23.25
258.386	21.25
259.183	25.25
259.979	23.25
260.776	23.25
261.573	26.25
262.37	27.25
263.166	26.25
263.963	29.25
264.759	27.25
265.556	30.25
266.352	31.25
267.148	31.25
267.944	29.25
268.74	28.25
269.536	32.25
270.332	32.25
271.128	31.25
271.924	34.25
272.719	37.25
273.515	34.25
274.311	32.25
275.106	36.25
275.901	37.25
276.697	33.25
277.492	33.25
278.287	34.25
279.082	36.25
279.877	35.25
280.672	37.25
281.467	34.25
282.262	37.25
283.056	39.25
283.851	38.25
284.646	36.25
285.44	33.25
286.234	37.25
287.029	36.25
287.823	35.25
288.617	34.25
289.411	34.25
290.205	31.25
290.999	35.25
291.793	31.25
292.587	34.25
293.381	31.25
294.174	31.25
294.968	30.25
295.761	29.25
296.555	24.25
297.348	29.25
298.141	24.25
298.935	29.25
299.728	27.25
300.521	26.25
301.314	25.25
302.107	23.25
302.899	23.25
303.692	24.25
304.485	22.25
305.277	23.25
306.07	25.25
306.862	21.25
307.655	22.25
308.447	24.25
309.239	20.25
310.031	19.25
310.823	20.25
311.615	17.25
312.407	16.25
313.199	18.25
313.991	15.25
314.783	19.25
315.574	18.25
316.366	17.25
317.157	18.25
317.949	16.25
318.74	13.25
319.531	15.25
320.322	15.25
321.113	14.25
321.904	13.25
322.695	13.25
323.486	15.25
324.277	13.25
325.068	15.25
325.858	13.25
326.649	11.25
327.439	11.25
328.23	14.25
329.02	12.25
329.81	13.25
330.6	13.25
331.391	12.25
332.181	13.25
332.971	11.25
333.76	13.25
334.55	13.25
335.34	12.25
336.13	10.25
336.919	11.25
337.709	11.25
338.498	14.25
339.287	12.25
340.077	12.25
340.866	11.25
341.655	11.25
342.444	11.25
343.233	10.25
344.022	10.25
344.811	13.25
345.6	12.25
346.388	13.25
347.177	12.25
347.965	11.25
348.754	12.25
349.542	11.25
350.33	11.25
351.119	10.25
351.907	11.25
352.695	11.25
353.483	13.25
354.271	10.25
355.059	10.25
355.846	10.25
356.634	13.25
357.422	10.25
358.209	8.25
358.997	11.25
359.784	13.25
360.571	8.25
361.359	12.25
362.146	9.25
362.933	8.25
363.72	9.25
364.507	10.25
365.294	11.25
366.081	11.25
366.867	10.25
367.654	9.25
368.44	11.25
369.227	11.25
370.013	10.25
370.8	11.25
371.586	10.25
372.372	12.25
373.158	8.25
373.944	9.25
374.73	10.25
375.516	10.25
376.302	10.25
377.088	11.25
377.873	10.25
378.659	11.25
379.445	11.25
380.23	11.25
381.015	11.25
381.801	9.25
382.586	12.25
383.371	11.25
384.156	11.25
384.941	12.25
385.726	9.25
386.511	11.25
387.296	11.25
388.08	11.25
388.865	12.25
389.649	11.25
390.434	12.25
391.218	11.25
392.003	12.25
392.787	13.25
393.571	13.25
394.355	13.25
395.139	11.25
395.923	13.25
396.707	12.25
397.491	11.25
398.274	16.25
399.058	11.25
399.842	11.25
400.625	13.25
401.408	12.25
402.192	14.25
402.975	15.25
403.758	16.25
404.541	17.25
405.324	15.25
406.107	15.25
406.89	18.25
407.673	16.25
408.456	15.25
409.238	17.25
410.021	20.25
410.803	18.25
411.586	18.25
412.368	18.25
413.151	16.25
413.933	20.25
414.715	19.25
415.497	15.25
416.279	19.25
417.061	21.25
417.843	21.25
418.624	19.25
419.406	20.25
420.188	24.25
420.969	25.25
421.751	24.25
422.532	24.25
423.313	22.25
424.095	25.25
424.876	25.25
425.657	24.25
426.438	27.25
427.219	28.25
428	27.25
428.78	31.25
429.561	30.25
430.342	32.25
431.122	30.25
431.903	32.25
432.683	35.25
433.464	38.25
434.244	40.25
435.024	34.25
435.804	43.25
436.584	43.25
437.364	46.25
438.144	48.25
438.924	52.25
439.704	55.25
440.483	54.25
441.263	60.25
442.042	62.25
442.822	66.25
443.601	70.25
444.38	80.25
445.16	84.25
445.939	87.25
446.718	94.25
447.497	110.25
448.276	119.25
449.054	129.25
449.833	137.25
450.612	155.25
451.391	171.25
452.169	185.25
452.948	206.25
453.726	224.25
454.504	247.25
455.282	280.25
456.061	311.25
456.839	354.25
457.617	384.25
458.395	432.25
459.172	488.25
459.95	543.25
460.728	606.25
461.506	678.25
462.283	745.25
463.061	839.25
463.838	946.25
464.615	1048.25
465.393	1178.25
466.17	1298.25
466.947	1447.25
467.724	1623.25
468.501	1793.25
469.278	2013.25
470.055	2215.25
470.831	2463.25
471.608	2746.25
472.385	3026.25
473.161	3352.25
473.938	3676.25
474.714	4084.25
475.49	4493.25
476.266	4948.25
477.043	5454.25
477.819	6003.25
478.595	6565.25
479.371	7211.25
480.146	7918.25
480.922	8661.25
481.698	9495.25
482.473	10369.25
483.249	11315.25
484.024	12344.25
484.8	13494.25
485.575	14647.25
486.35	15955.25
487.126	17288.25
487.901	18720.25
488.676	20294.25
489.451	22042.25
490.225	23745.25
491	25513.25
491.775	27337.25
492.55	29203.25
493.324	31191.25
494.099	33065.25
494.873	35040.25
495.647	37097.25
496.422	38980.25
497.196	40872.25
497.97	42559.25
498.744	44140.25
499.518	45656.25
500.292	46994.25
501.066	47907.25
501.839	48688.25
502.613	49232.25
503.387	49588.25
504.16	49924.25
504.934	49846.25
505.707	49334.25
506.48	48640.25
507.253	47948.25
508.027	46943.25
508.8	45757.25
509.573	44443.25
510.346	43199.25
511.118	41856.25
511.891	40408.25
512.664	38746.25
513.437	37134.25
514.209	35689.25
514.982	34174.25
515.754	32766.25
516.526	31300.25
517.298	30095.25
518.071	28773.25
518.843	27667.25
519.615	26550.25
520.387	25539.25
521.159	24495.25
521.93	23370.25
522.702	22406.25
523.474	21515.25
524.245	20537.25
525.017	19606.25
525.788	18734.25
526.56	17927.25
527.331	17092.25
528.102	16191.25
528.873	15389.25
529.644	14611.25
530.415	13883.25
531.186	13255.25
531.957	12494.25
532.728	11814.25
533.498	11199.25
534.269	10549.25
535.039	9987.25
535.81	9435.25
536.58	8923.25
537.351	8450.25
538.121	8025.25
538.891	7569.25
539.661	7162.25
540.431	6761.25
541.201	6417.25
541.971	6098.25
542.741	5802.25
543.51	5469.25
544.28	5204.25
545.05	4932.25
545.819	4731.25
546.588	4519.25
547.358	4306.25
548.127	4093.25
548.896	3863.25
549.665	3653.25
550.434	3464.25
551.203	3271.25
551.972	3123.25
552.741	2946.25
553.51	2772.25
554.278	2608.25
555.047	2442.25
555.815	2327.25
556.584	2203.25
557.352	2082.25
558.121	1961.25
558.889	1843.25
559.657	1731.25
560.425	1644.25
561.193	1564.25
561.961	1499.25
562.729	1401.25
563.496	1310.25
564.264	1241.25
565.032	1188.25
565.799	1130.25
566.567	1063.25
567.334	1011.25
568.101	954.25
568.869	906.25
569.636	849.25
570.403	793.25
571.17	764.25
571.937	710.25
572.704	676.25
573.471	626.25
574.237	609.25
575.004	560.25
575.771	527.25
576.537	508.25
577.303	475.25
578.07	449.25
578.836	424.25
579.602	401.25
580.368	377.25
581.134	362.25
581.9	346.25
582.666	321.25
583.432	315.25
584.198	295.25
584.964	279.25
585.729	275.25
586.495	250.25
587.26	235.25
588.025	233.25
588.791	214.25
589.556	199.25
590.321	192.25
591.086	184.25
591.851	177.25
592.616	168.25
593.381	159.25
594.146	147.25
594.911	143.25
595.675	146.25
596.44	137.25
597.204	126.25
597.969	124.25
598.733	116.25
599.497	111.25
600.261	107.25
601.025	102.25
601.79	99.25
602.553	91.25
603.317	87.25
604.081	83.25
604.845	82.25
605.609	80.25
606.372	78.25
607.136	73.25
607.899	73.25
608.662	70.25
609.426	66.25
610.189	64.25
610.952	63.25
611.715	58.25
612.478	56.25
613.241	54.25
614.004	53.25
614.767	51.25
615.529	50.25
616.292	49.25
617.055	46.25
617.817	46.25
618.579	40.25
619.342	41.25
620.104	43.25
620.866	42.25
621.628	38.25
622.39	37.25
623.152	31.25
623.914	34.25
624.676	31.25
625.438	32.25
626.199	31.25
626.961	33.25
627.722	30.25
628.484	29.25
629.245	29.25
630.006	28.25
630.768	27.25
631.529	27.25
632.29	23.25
633.051	24.25
633.812	22.25
634.573	23.25
635.333	24.25
636.094	22.25
636.855	26.25
637.615	22.25
638.376	19.25
639.136	19.25
639.896	19.25
640.657	19.25
641.417	15.25
642.177	22.25
642.937	16.25
643.697	18.25
644.457	18.25
645.216	19.25
645.976	16.25
646.736	17.25
647.495	17.25
648.255	16.25
649.014	13.25
649.774	15.25
650.533	12.25
651.292	15.25
652.051	13.25
652.81	11.25
653.569	14.25
654.328	12.25
655.087	15.25
655.846	11.25
656.604	11.25
657.363	11.25
658.121	13.25
658.88	11.25
659.638	11.25
660.397	11.25
661.155	11.25
661.913	10.25
662.671	9.25
663.429	9.25
664.187	9.25
664.945	11.25
665.703	9.25
666.46	9.25
667.218	8.25
667.976	10.25
668.733	11.25
669.49	10.25
670.248	10.25
671.005	10.25
671.762	12.25
672.519	10.25
673.276	11.25
674.033	10.25
674.79	10.25
675.547	11.25
676.304	8.25
677.06	11.25
677.817	10.25
678.574	10.25
679.33	8.25
680.086	10.25
680.843	8.25
681.599	9.25
682.355	7.25
683.111	9.25
683.867	10.25
684.623	9.25
685.379	9.25
686.135	9.25
686.89	6.25
687.646	8.25
688.402	7.25
689.157	11.25
689.912	7.25
690.668	10.25
691.423	8.25
692.178	7.25
692.933	9.25
693.688	8.25
694.443	8.25
695.198	8.25
695.953	7.25
696.708	6.25
697.462	6.25
698.217	9.25
698.972	7.25
699.726	8.25
700.48	8.25
701.235	8.25
701.989	8.25
702.743	6.25
703.497	8.25
704.251	8.25
705.005	9.25
705.759	7.25
706.513	8.25
707.266	8.25
708.02	8.25
708.774	8.25
709.527	10.25
710.28	7.25
711.034	8.25
711.787	7.25
712.54	9.25
713.293	9.25
714.046	8.25
714.799	9.25
715.552	7.25
716.305	10.25
717.058	8.25
717.81	10.25
718.563	10.25
719.315	7.25
720.068	10.25
720.82	6.25
721.573	9.25
722.325	11.25
723.077	9.25
723.829	8.25
724.581	8.25
725.333	9.25
726.085	7.25
726.836	10.25
727.588	8.25
728.34	10.25
729.091	5.25
729.843	9.25
730.594	10.25
731.346	9.25
732.097	9.25
732.848	8.25
733.599	7.25
734.35	10.25
735.101	10.25
735.852	11.25
736.603	9.25
737.354	11.25
738.104	8.25
738.855	11.25
739.605	9.25
740.356	10.25
741.106	10.25
741.856	9.25
742.607	11.25
743.357	11.25
744.107	8.25
744.857	12.25
745.607	10.25
746.357	14.25
747.106	11.25
747.856	11.25
748.606	12.25
749.355	14.25
750.105	9.25
750.854	10.25
751.603	10.25
752.353	12.25
753.102	13.25
753.851	12.25
754.6	15.25
755.349	12.25
756.098	15.25
756.847	10.25
757.595	14.25
758.344	13.25
759.093	15.25
759.841	13.25
760.589	16.25
761.338	13.25
762.086	16.25
762.834	16.25
763.582	14.25
764.331	16.25
765.079	15.25
765.826	16.25
766.574	15.25
767.322	15.25
768.07	16.25
768.817	15.25
769.565	18.25
770.312	16.25
771.06	15.25
771.807	15.25
772.554	14.25
773.302	15.25
774.049	17.25
774.796	15.25
775.543	17.25
776.29	18.25
777.036	15.25
777.783	19.25
778.53	20.25
779.276	17.25
780.023	16.25
780.769	18.25
781.516	18.25
782.262	18.25
783.008	16.25
783.754	16.25
784.5	19.25
785.246	18.25
785.992	16.25
786.738	16.25
787.484	17.25
788.23	17.25
788.975	17.25
789.721	18.25
790.466	16.25
791.212	14.25
791.957	15.25
792.702	15.25
793.447	15.25
794.193	15.25
794.938	11.25
795.683	14.25
796.427	13.25
797.172	13.25
797.917	13.25
798.662	11.25
799.406	14.25
800.151	15.25
800.895	13.25
801.64	12.25
802.384	12.25
803.128	12.25
803.872	14.25
804.616	10.25
805.36	13.25
806.104	13.25
806.848	10.25
807.592	11.25
808.336	9.25
809.079	14.25
809.823	10.25
810.566	10.25
811.31	9.25
812.053	10.25
812.796	9.25
813.539	9.25
814.283	11.25
815.026	10.25
815.769	9.25
816.511	8.25
817.254	8.25
817.997	8.25
818.74	10.25
819.482	9.25
820.225	8.25
820.967	6.25
821.71	9.25
822.452	7.25
823.194	8.25
823.936	8.25
824.678	6.25
825.42	7.25
826.162	7.25
826.904	8.25
827.646	5.25
828.388	8.25
829.129	6.25
829.871	6.25
830.612	6.25
831.354	5.25
832.095	6.25
832.836	6.25
833.577	8.25
834.319	5.25
835.06	7.25
835.801	6.25
836.542	6.25
837.282	7.25
838.023	6.25
838.764	6.25
839.504	6.25
840.245	6.25
840.985	6.25
841.726	5.25
842.466	7.25
843.206	6.25
843.946	6.25
844.687	5.25
845.427	6.25
846.166	4.25
846.906	5.25
847.646	4.25
848.386	5.25
849.125	5.25
849.865	4.25
850.605	4.25
851.344	5.25
852.083	6.25
852.823	5.25
853.562	4.25
854.301	6.25
855.04	5.25
855.779	4.25
856.518	4.25
857.257	3.25
857.995	5.25
858.734	6.25
859.473	3.25
860.211	3.25
860.95	5.25
861.688	3.25
862.426	4.25
863.165	3.25
863.903	4.25
864.641	3.25
865.379	4.25
866.117	1.25
866.855	2.25
867.593	3.25
868.33	6.25
869.068	2.25
869.806	3.25
870.543	2.25
871.28	4.25
872.018	4.25
872.755	1.25
873.492	2.25
874.229	4.25
874.967	1.25
875.703	1.25
876.44	5.25
877.177	4.25
877.914	2.25
878.651	2.25
879.387	3.25
880.124	1.25
880.86	3.25
881.597	2.25
882.333	3.25
883.069	2.25
883.806	2.25
884.542	5.25
885.278	2.25
886.014	2.25
886.749	1.25
887.485	2.25
888.221	2.25
888.957	2.25
889.692	0.25
890.428	1.25
891.163	-0.75
891.899	2.25
892.634	-0.75
893.369	3.25
894.104	5.25
894.839	1.25
895.574	2.25
896.309	3.25
897.044	3.25
897.779	-0.75
898.514	2.25
899.248	0.25
899.983	2.25
900.717	-0.75
901.452	3.25
902.186	3.25
902.92	-0.75
903.654	2.25
904.389	2.25
905.123	1.25
905.857	1.25
906.59	0.25
907.324	0.25
908.058	1.25
908.792	1.25
909.525	1.25
910.259	1.25
910.992	1.25
911.726	1.25
912.459	-0.75
913.192	1.25
913.925	0.25
914.658	1.25
915.391	1.25
916.124	1.25
916.857	1.25
917.59	1.25
918.323	3.25
919.055	2.25
919.788	1.25
920.521	-1.75
921.253	2.25
921.985	1.25
922.718	-0.75
923.45	1.25
924.182	-0.75
924.914	0.25
925.646	1.25
926.378	2.25
927.11	2.25
927.841	1.25
928.573	2.25
929.305	1.25
930.036	2.25
930.768	-0.75
931.499	1.25
932.23	-1.75
932.962	2.25
933.693	-0.75
934.424	-0.75
935.155	1.25
935.886	-0.75
936.617	0.25
937.348	1.25
938.078	4.25
938.809	1.25
939.54	1.25
940.27	2.25
941.001	-0.75
941.731	1.25
942.461	-0.75
943.191	0.25
943.922	1.25
944.652	1.25
945.382	-0.75
946.112	1.25
946.841	0.25
947.571	0.25
948.301	-0.75
949.031	1.25
949.76	1.25
950.49	1.25
951.219	1.25
951.948	0.25
952.678	1.25
953.407	1.25
954.136	-0.75
954.865	0.25
955.594	-0.75
956.323	0.25
957.052	-0.75
957.78	3.25
958.509	-0.75
959.238	-0.75
959.966	0.25
960.695	0.25
961.423	2.25
962.151	1.25
962.88	1.25
963.608	1.25
964.336	0.25
965.064	-1.75
965.792	-0.75
966.52	2.25
967.247	3.25
967.975	1.25
968.703	0.25
969.43	1.25
970.158	0.25
970.885	-0.75
971.613	-0.75
972.34	2.25
973.067	1.25
973.794	0.25
974.521	-0.75
975.248	0.25
975.975	-0.75
976.702	1.25
977.429	3.25
978.156	3.25
978.882	2.25
979.609	0.25
980.335	2.25
981.062	0.25
981.788	1.25
982.514	1.25
983.24	-0.75
983.967	0.25
984.693	0.25
985.419	1.25
986.144	2.25
986.87	0.25
987.596	1.25
988.322	1.25
989.047	-0.75
989.773	1.25
990.498	1.25
991.224	-0.75
991.949	-0.75
992.674	1.25
993.399	0.25
994.124	1.25
994.849	0.25
995.574	1.25
996.299	1.25
997.024	0.25
997.749	2.25
998.473	0.25
999.198	-0.75
999.922	1.25
1000.647	-0.75
1001.371	4.25
1002.095	0.25
1002.82	-1.75
1003.544	-1.75
1004.268	6.25
1004.992	6.25
1005.716	5.25
1006.439	7.25
1007.163	7.25
1007.887	6.25
1008.611	0.25
1009.334	0.25
1010.058	-0.75
1010.781	-1.75
1011.504	0.25
1012.228	2.25
1012.951	0.25
1013.674	1.25
1014.397	-1.75
1015.12	-0.75
