节点500_705_QEPB04081__571__20-54-03-748.txt的数据

Date: Wed Nov 12 20:54:03 CST 2025
User: PC
Spectrometer: QEPB0408
触发模式: 0
积分时间 (秒): 1.000000E-2
Scans to average: 1
启用暗噪声校正: true
启用非线性校正: false
滑动平均宽度: 0
X轴模式: Wavelengths
Number of Pixels in Spectrum: 1044
>>>>>Begin Spectral Data<<<<<
220.843	4.25
221.644	3.25
222.444	6.25
223.244	6.25
224.045	6.25
224.845	8.25
225.645	6.25
226.445	4.25
227.245	9.25
228.045	6.25
228.845	5.25
229.645	10.25
230.444	7.25
231.244	7.25
232.043	6.25
232.843	7.25
233.642	5.25
234.442	8.25
235.241	9.25
236.04	7.25
236.839	8.25
237.638	9.25
238.437	11.25
239.236	9.25
240.035	11.25
240.833	10.25
241.632	10.25
242.43	10.25
243.229	10.25
244.027	11.25
244.826	12.25
245.624	11.25
246.422	13.25
247.22	14.25
248.018	12.25
248.816	14.25
249.614	13.25
250.412	16.25
251.21	17.25
252.007	12.25
252.805	17.25
253.602	16.25
254.4	17.25
255.197	16.25
255.994	18.25
256.791	18.25
257.589	16.25
258.386	17.25
259.183	19.25
259.979	18.25
260.776	20.25
261.573	20.25
262.37	20.25
263.166	23.25
263.963	24.25
264.759	24.25
265.556	22.25
266.352	26.25
267.148	26.25
267.944	25.25
268.74	26.25
269.536	24.25
270.332	27.25
271.128	28.25
271.924	27.25
272.719	26.25
273.515	26.25
274.311	28.25
275.106	32.25
275.901	26.25
276.697	29.25
277.492	29.25
278.287	30.25
279.082	30.25
279.877	32.25
280.672	30.25
281.467	32.25
282.262	29.25
283.056	32.25
283.851	32.25
284.646	33.25
285.44	32.25
286.234	32.25
287.029	33.25
287.823	29.25
288.617	32.25
289.411	31.25
290.205	30.25
290.999	26.25
291.793	31.25
292.587	28.25
293.381	32.25
294.174	28.25
294.968	25.25
295.761	25.25
296.555	26.25
297.348	24.25
298.141	25.25
298.935	27.25
299.728	26.25
300.521	24.25
301.314	23.25
302.107	23.25
302.899	22.25
303.692	23.25
304.485	20.25
305.277	20.25
306.07	20.25
306.862	20.25
307.655	22.25
308.447	23.25
309.239	22.25
310.031	19.25
310.823	18.25
311.615	14.25
312.407	16.25
313.199	20.25
313.991	17.25
314.783	17.25
315.574	14.25
316.366	13.25
317.157	13.25
317.949	14.25
318.74	12.25
319.531	12.25
320.322	13.25
321.113	14.25
321.904	16.25
322.695	13.25
323.486	12.25
324.277	13.25
325.068	12.25
325.858	13.25
326.649	13.25
327.439	13.25
328.23	14.25
329.02	10.25
329.81	12.25
330.6	11.25
331.391	14.25
332.181	11.25
332.971	10.25
333.76	12.25
334.55	9.25
335.34	12.25
336.13	11.25
336.919	12.25
337.709	12.25
338.498	10.25
339.287	13.25
340.077	10.25
340.866	13.25
341.655	9.25
342.444	11.25
343.233	11.25
344.022	10.25
344.811	11.25
345.6	11.25
346.388	8.25
347.177	12.25
347.965	12.25
348.754	9.25
349.542	9.25
350.33	11.25
351.119	9.25
351.907	8.25
352.695	7.25
353.483	10.25
354.271	9.25
355.059	11.25
355.846	10.25
356.634	10.25
357.422	9.25
358.209	10.25
358.997	10.25
359.784	10.25
360.571	8.25
361.359	12.25
362.146	9.25
362.933	8.25
363.72	8.25
364.507	10.25
365.294	7.25
366.081	8.25
366.867	8.25
367.654	9.25
368.44	10.25
369.227	10.25
370.013	7.25
370.8	8.25
371.586	10.25
372.372	7.25
373.158	8.25
373.944	9.25
374.73	8.25
375.516	7.25
376.302	9.25
377.088	8.25
377.873	9.25
378.659	8.25
379.445	9.25
380.23	10.25
381.015	10.25
381.801	10.25
382.586	10.25
383.371	8.25
384.156	12.25
384.941	9.25
385.726	11.25
386.511	11.25
387.296	8.25
388.08	10.25
388.865	9.25
389.649	12.25
390.434	11.25
391.218	7.25
392.003	13.25
392.787	11.25
393.571	11.25
394.355	9.25
395.139	12.25
395.923	10.25
396.707	12.25
397.491	10.25
398.274	14.25
399.058	12.25
399.842	9.25
400.625	11.25
401.408	13.25
402.192	12.25
402.975	12.25
403.758	14.25
404.541	12.25
405.324	12.25
406.107	15.25
406.89	15.25
407.673	13.25
408.456	14.25
409.238	14.25
410.021	14.25
410.803	14.25
411.586	13.25
412.368	14.25
413.151	19.25
413.933	17.25
414.715	17.25
415.497	16.25
416.279	17.25
417.061	14.25
417.843	19.25
418.624	18.25
419.406	18.25
420.188	22.25
420.969	19.25
421.751	21.25
422.532	19.25
423.313	22.25
424.095	23.25
424.876	21.25
425.657	21.25
426.438	22.25
427.219	25.25
428	26.25
428.78	26.25
429.561	28.25
430.342	28.25
431.122	31.25
431.903	31.25
432.683	33.25
433.464	35.25
434.244	39.25
435.024	37.25
435.804	40.25
436.584	45.25
437.364	44.25
438.144	47.25
438.924	49.25
439.704	54.25
440.483	60.25
441.263	61.25
442.042	65.25
442.822	71.25
443.601	74.25
444.38	83.25
445.16	91.25
445.939	97.25
446.718	104.25
447.497	114.25
448.276	127.25
449.054	144.25
449.833	156.25
450.612	168.25
451.391	189.25
452.169	206.25
452.948	234.25
453.726	251.25
454.504	290.25
455.282	311.25
456.061	357.25
456.839	398.25
457.617	439.25
458.395	490.25
459.172	545.25
459.95	604.25
460.728	672.25
461.506	737.25
462.283	822.25
463.061	912.25
463.838	1005.25
464.615	1126.25
465.393	1238.25
466.17	1384.25
466.947	1549.25
467.724	1694.25
468.501	1883.25
469.278	2058.25
470.055	2285.25
470.831	2502.25
471.608	2766.25
472.385	3022.25
473.161	3293.25
473.938	3623.25
474.714	3965.25
475.49	4319.25
476.266	4744.25
477.043	5144.25
477.819	5576.25
478.595	6097.25
479.371	6580.25
480.146	7165.25
480.922	7784.25
481.698	8433.25
482.473	9139.25
483.249	9910.25
484.024	10692.25
484.8	11553.25
485.575	12426.25
486.35	13479.25
487.126	14517.25
487.901	15626.25
488.676	16793.25
489.451	18030.25
490.225	19340.25
491	20704.25
491.775	22130.25
492.55	23580.25
493.324	25059.25
494.099	26741.25
494.873	28214.25
495.647	29875.25
496.422	31436.25
497.196	33121.25
497.97	34703.25
498.744	36087.25
499.518	37621.25
500.292	38949.25
501.066	39993.25
501.839	40984.25
502.613	41945.25
503.387	42769.25
504.16	43299.25
504.934	43666.25
505.707	43943.25
506.48	43945.25
507.253	43674.25
508.027	43403.25
508.8	42686.25
509.573	42032.25
510.346	41275.25
511.118	40508.25
511.891	39426.25
512.664	38207.25
513.437	36916.25
514.209	35682.25
514.982	34465.25
515.754	33213.25
516.526	31984.25
517.298	30730.25
518.071	29582.25
518.843	28409.25
519.615	27278.25
520.387	26195.25
521.159	25230.25
521.93	24178.25
522.702	23161.25
523.474	22196.25
524.245	21381.25
525.017	20459.25
525.788	19577.25
526.56	18840.25
527.331	18006.25
528.102	17144.25
528.873	16381.25
529.644	15629.25
530.415	14897.25
531.186	14176.25
531.957	13479.25
532.728	12851.25
533.498	12142.25
534.269	11579.25
535.039	10968.25
535.81	10386.25
536.58	9844.25
537.351	9337.25
538.121	8811.25
538.891	8329.25
539.661	7897.25
540.431	7486.25
541.201	7110.25
541.971	6738.25
542.741	6364.25
543.51	6029.25
544.28	5764.25
545.05	5500.25
545.819	5220.25
546.588	4996.25
547.358	4738.25
548.127	4488.25
548.896	4263.25
549.665	4073.25
550.434	3865.25
551.203	3660.25
551.972	3464.25
552.741	3294.25
553.51	3111.25
554.278	2928.25
555.047	2794.25
555.815	2632.25
556.584	2494.25
557.352	2374.25
558.121	2225.25
558.889	2101.25
559.657	1992.25
560.425	1885.25
561.193	1792.25
561.961	1693.25
562.729	1596.25
563.496	1499.25
564.264	1431.25
565.032	1348.25
565.799	1282.25
566.567	1233.25
567.334	1142.25
568.101	1076.25
568.869	1022.25
569.636	974.25
570.403	899.25
571.17	859.25
571.937	819.25
572.704	771.25
573.471	721.25
574.237	682.25
575.004	653.25
575.771	606.25
576.537	568.25
577.303	542.25
578.07	506.25
578.836	488.25
579.602	450.25
580.368	434.25
581.134	410.25
581.9	384.25
582.666	378.25
583.432	362.25
584.198	346.25
584.964	324.25
585.729	293.25
586.495	288.25
587.26	268.25
588.025	259.25
588.791	244.25
589.556	228.25
590.321	219.25
591.086	204.25
591.851	197.25
592.616	179.25
593.381	180.25
594.146	170.25
594.911	161.25
595.675	159.25
596.44	146.25
597.204	142.25
597.969	135.25
598.733	128.25
599.497	124.25
600.261	115.25
601.025	114.25
601.79	109.25
602.553	105.25
603.317	95.25
604.081	95.25
604.845	93.25
605.609	85.25
606.372	83.25
607.136	79.25
607.899	78.25
608.662	78.25
609.426	72.25
610.189	72.25
610.952	67.25
611.715	64.25
612.478	61.25
613.241	58.25
614.004	59.25
614.767	53.25
615.529	56.25
616.292	51.25
617.055	46.25
617.817	50.25
618.579	44.25
619.342	44.25
620.104	44.25
620.866	41.25
621.628	42.25
622.39	39.25
623.152	39.25
623.914	32.25
624.676	36.25
625.438	33.25
626.199	32.25
626.961	29.25
627.722	31.25
628.484	31.25
629.245	30.25
630.006	28.25
630.768	29.25
631.529	26.25
632.29	27.25
633.051	24.25
633.812	24.25
634.573	22.25
635.333	25.25
636.094	22.25
636.855	23.25
637.615	22.25
638.376	20.25
639.136	21.25
639.896	20.25
640.657	22.25
641.417	18.25
642.177	17.25
642.937	18.25
643.697	16.25
644.457	17.25
645.216	16.25
645.976	17.25
646.736	14.25
647.495	13.25
648.255	15.25
649.014	13.25
649.774	12.25
650.533	13.25
651.292	14.25
652.051	12.25
652.81	10.25
653.569	15.25
654.328	13.25
655.087	10.25
655.846	11.25
656.604	10.25
657.363	11.25
658.121	9.25
658.88	11.25
659.638	10.25
660.397	8.25
661.155	12.25
661.913	8.25
662.671	12.25
663.429	12.25
664.187	11.25
664.945	12.25
665.703	9.25
666.46	8.25
667.218	8.25
667.976	10.25
668.733	10.25
669.49	10.25
670.248	8.25
671.005	9.25
671.762	9.25
672.519	8.25
673.276	8.25
674.033	9.25
674.79	9.25
675.547	8.25
676.304	8.25
677.06	8.25
677.817	8.25
678.574	8.25
679.33	9.25
680.086	6.25
680.843	10.25
681.599	7.25
682.355	6.25
683.111	8.25
683.867	7.25
684.623	10.25
685.379	8.25
686.135	6.25
686.89	7.25
687.646	9.25
688.402	7.25
689.157	8.25
689.912	7.25
690.668	6.25
691.423	5.25
692.178	8.25
692.933	7.25
693.688	6.25
694.443	7.25
695.198	7.25
695.953	7.25
696.708	7.25
697.462	7.25
698.217	3.25
698.972	8.25
699.726	6.25
700.48	8.25
701.235	6.25
701.989	6.25
702.743	6.25
703.497	5.25
704.251	6.25
705.005	7.25
705.759	7.25
706.513	7.25
707.266	5.25
708.02	7.25
708.774	5.25
709.527	5.25
710.28	7.25
711.034	6.25
711.787	6.25
712.54	8.25
713.293	6.25
714.046	5.25
714.799	7.25
715.552	7.25
716.305	6.25
717.058	6.25
717.81	4.25
718.563	6.25
719.315	6.25
720.068	7.25
720.82	9.25
721.573	7.25
722.325	7.25
723.077	5.25
723.829	6.25
724.581	7.25
725.333	7.25
726.085	7.25
726.836	6.25
727.588	9.25
728.34	8.25
729.091	7.25
729.843	8.25
730.594	8.25
731.346	8.25
732.097	7.25
732.848	7.25
733.599	7.25
734.35	8.25
735.101	8.25
735.852	7.25
736.603	7.25
737.354	7.25
738.104	8.25
738.855	9.25
739.605	9.25
740.356	10.25
741.106	7.25
741.856	9.25
742.607	7.25
743.357	10.25
744.107	10.25
744.857	7.25
745.607	9.25
746.357	8.25
747.106	11.25
747.856	7.25
748.606	7.25
749.355	9.25
750.105	9.25
750.854	9.25
751.603	6.25
752.353	10.25
753.102	7.25
753.851	8.25
754.6	9.25
755.349	11.25
756.098	9.25
756.847	12.25
757.595	10.25
758.344	10.25
759.093	9.25
759.841	10.25
760.589	12.25
761.338	14.25
762.086	7.25
762.834	10.25
763.582	14.25
764.331	12.25
765.079	14.25
765.826	11.25
766.574	11.25
767.322	11.25
768.07	12.25
768.817	13.25
769.565	11.25
770.312	13.25
771.06	10.25
771.807	14.25
772.554	11.25
773.302	10.25
774.049	14.25
774.796	12.25
775.543	13.25
776.29	13.25
777.036	14.25
777.783	12.25
778.53	14.25
779.276	14.25
780.023	14.25
780.769	14.25
781.516	12.25
782.262	14.25
783.008	14.25
783.754	10.25
784.5	14.25
785.246	14.25
785.992	10.25
786.738	13.25
787.484	12.25
788.23	14.25
788.975	12.25
789.721	14.25
790.466	14.25
791.212	12.25
791.957	13.25
792.702	13.25
793.447	13.25
794.193	12.25
794.938	13.25
795.683	11.25
796.427	10.25
797.172	12.25
797.917	11.25
798.662	11.25
799.406	11.25
800.151	13.25
800.895	10.25
801.64	10.25
802.384	13.25
803.128	9.25
803.872	10.25
804.616	8.25
805.36	11.25
806.104	10.25
806.848	8.25
807.592	11.25
808.336	8.25
809.079	9.25
809.823	10.25
810.566	7.25
811.31	9.25
812.053	9.25
812.796	8.25
813.539	7.25
814.283	10.25
815.026	8.25
815.769	7.25
816.511	9.25
817.254	7.25
817.997	7.25
818.74	6.25
819.482	8.25
820.225	4.25
820.967	5.25
821.71	7.25
822.452	8.25
823.194	8.25
823.936	6.25
824.678	6.25
825.42	7.25
826.162	7.25
826.904	5.25
827.646	7.25
828.388	4.25
829.129	7.25
829.871	5.25
830.612	6.25
831.354	5.25
832.095	6.25
832.836	6.25
833.577	5.25
834.319	6.25
835.06	5.25
835.801	8.25
836.542	5.25
837.282	6.25
838.023	4.25
838.764	5.25
839.504	4.25
840.245	4.25
840.985	5.25
841.726	5.25
842.466	4.25
843.206	5.25
843.946	2.25
844.687	4.25
845.427	4.25
846.166	7.25
846.906	4.25
847.646	2.25
848.386	3.25
849.125	4.25
849.865	6.25
850.605	5.25
851.344	6.25
852.083	3.25
852.823	5.25
853.562	2.25
854.301	3.25
855.04	3.25
855.779	3.25
856.518	2.25
857.257	4.25
857.995	3.25
858.734	1.25
859.473	4.25
860.211	3.25
860.95	3.25
861.688	0.25
862.426	5.25
863.165	2.25
863.903	4.25
864.641	3.25
865.379	2.25
866.117	3.25
866.855	1.25
867.593	3.25
868.33	2.25
869.068	3.25
869.806	2.25
870.543	2.25
871.28	1.25
872.018	1.25
872.755	1.25
873.492	2.25
874.229	3.25
874.967	3.25
875.703	0.25
876.44	2.25
877.177	0.25
877.914	0.25
878.651	0.25
879.387	2.25
880.124	1.25
880.86	0.25
881.597	2.25
882.333	2.25
883.069	2.25
883.806	2.25
884.542	0.25
885.278	1.25
886.014	2.25
886.749	2.25
887.485	2.25
888.221	-1.75
888.957	2.25
889.692	0.25
890.428	2.25
891.163	2.25
891.899	1.25
892.634	2.25
893.369	0.25
894.104	2.25
894.839	0.25
895.574	0.25
896.309	1.25
897.044	0.25
897.779	2.25
898.514	1.25
899.248	0.25
899.983	0.25
900.717	1.25
901.452	-1.75
902.186	0.25
902.92	1.25
903.654	0.25
904.389	-0.75
905.123	2.25
905.857	-0.75
906.59	1.25
907.324	1.25
908.058	3.25
908.792	1.25
909.525	0.25
910.259	-1.75
910.992	1.25
911.726	0.25
912.459	-1.75
913.192	0.25
913.925	1.25
914.658	-0.75
915.391	0.25
916.124	0.25
916.857	1.25
917.59	-0.75
918.323	1.25
919.055	0.25
919.788	0.25
920.521	-1.75
921.253	-1.75
921.985	1.25
922.718	-0.75
923.45	0.25
924.182	-0.75
924.914	-2.75
925.646	-0.75
926.378	-1.75
927.11	0.25
927.841	-3.75
928.573	0.25
929.305	-1.75
930.036	-0.75
930.768	1.25
931.499	2.25
932.23	-0.75
932.962	-0.75
933.693	-0.75
934.424	-0.75
935.155	-0.75
935.886	1.25
936.617	-0.75
937.348	0.25
938.078	2.25
938.809	0.25
939.54	0.25
940.27	0.25
941.001	-1.75
941.731	0.25
942.461	-1.75
943.191	-1.75
943.922	-0.75
944.652	1.25
945.382	-0.75
946.112	-1.75
946.841	0.25
947.571	1.25
948.301	-1.75
949.031	-0.75
949.76	-1.75
950.49	0.25
951.219	-1.75
951.948	0.25
952.678	0.25
953.407	0.25
954.136	-2.75
954.865	-1.75
955.594	-0.75
956.323	-1.75
957.052	1.25
957.78	0.25
958.509	-1.75
959.238	0.25
959.966	1.25
960.695	-1.75
961.423	-0.75
962.151	0.25
962.88	-0.75
963.608	0.25
964.336	-1.75
965.064	-2.75
965.792	0.25
966.52	-1.75
967.247	-0.75
967.975	-0.75
968.703	1.25
969.43	-1.75
970.158	0.25
970.885	0.25
971.613	-0.75
972.34	1.25
973.067	0.25
973.794	-1.75
974.521	-1.75
975.248	1.25
975.975	0.25
976.702	-0.75
977.429	-0.75
978.156	-1.75
978.882	1.25
979.609	-0.75
980.335	0.25
981.062	-1.75
981.788	-0.75
982.514	1.25
983.24	0.25
983.967	-0.75
984.693	1.25
985.419	1.25
986.144	2.25
986.87	-0.75
987.596	1.25
988.322	-0.75
989.047	-2.75
989.773	-1.75
990.498	-1.75
991.224	0.25
991.949	1.25
992.674	-1.75
993.399	-1.75
994.124	-1.75
994.849	-0.75
995.574	2.25
996.299	0.25
997.024	0.25
997.749	-2.75
998.473	-1.75
999.198	-0.75
999.922	1.25
1000.647	0.25
1001.371	3.25
1002.095	-1.75
1002.82	1.25
1003.544	-0.75
1004.268	5.25
1004.992	2.25
1005.716	3.25
1006.439	7.25
1007.163	3.25
1007.887	3.25
1008.611	-1.75
1009.334	-0.75
1010.058	-1.75
1010.781	0.25
1011.504	1.25
1012.228	-1.75
1012.951	1.25
1013.674	-1.75
1014.397	-1.75
1015.12	0.25
