节点500_705_QEPB04081__694__20-55-49-780.txt的数据

Date: Wed Nov 12 20:55:49 CST 2025
User: PC
Spectrometer: QEPB0408
触发模式: 0
积分时间 (秒): 1.000000E-2
Scans to average: 1
启用暗噪声校正: true
启用非线性校正: false
滑动平均宽度: 0
X轴模式: Wavelengths
Number of Pixels in Spectrum: 1044
>>>>>Begin Spectral Data<<<<<
220.843	4.75
221.644	4.75
222.444	4.75
223.244	7.75
224.045	3.75
224.845	7.75
225.645	6.75
226.445	6.75
227.245	7.75
228.045	5.75
228.845	7.75
229.645	6.75
230.444	6.75
231.244	9.75
232.043	6.75
232.843	7.75
233.642	6.75
234.442	7.75
235.241	8.75
236.04	11.75
236.839	9.75
237.638	7.75
238.437	10.75
239.236	8.75
240.035	11.75
240.833	11.75
241.632	11.75
242.43	11.75
243.229	10.75
244.027	13.75
244.826	7.75
245.624	10.75
246.422	12.75
247.22	11.75
248.018	14.75
248.816	11.75
249.614	11.75
250.412	14.75
251.21	13.75
252.007	16.75
252.805	15.75
253.602	16.75
254.4	13.75
255.197	15.75
255.994	17.75
256.791	17.75
257.589	15.75
258.386	17.75
259.183	20.75
259.979	19.75
260.776	18.75
261.573	20.75
262.37	20.75
263.166	19.75
263.963	21.75
264.759	20.75
265.556	23.75
266.352	23.75
267.148	26.75
267.944	24.75
268.74	25.75
269.536	25.75
270.332	24.75
271.128	27.75
271.924	22.75
272.719	28.75
273.515	25.75
274.311	30.75
275.106	28.75
275.901	28.75
276.697	30.75
277.492	28.75
278.287	31.75
279.082	30.75
279.877	30.75
280.672	31.75
281.467	29.75
282.262	28.75
283.056	30.75
283.851	33.75
284.646	31.75
285.44	29.75
286.234	30.75
287.029	29.75
287.823	31.75
288.617	30.75
289.411	29.75
290.205	29.75
290.999	30.75
291.793	31.75
292.587	30.75
293.381	32.75
294.174	28.75
294.968	28.75
295.761	25.75
296.555	24.75
297.348	25.75
298.141	24.75
298.935	26.75
299.728	24.75
300.521	23.75
301.314	23.75
302.107	21.75
302.899	24.75
303.692	22.75
304.485	20.75
305.277	26.75
306.07	20.75
306.862	19.75
307.655	21.75
308.447	21.75
309.239	18.75
310.031	18.75
310.823	17.75
311.615	17.75
312.407	17.75
313.199	17.75
313.991	17.75
314.783	14.75
315.574	16.75
316.366	19.75
317.157	14.75
317.949	14.75
318.74	16.75
319.531	14.75
320.322	14.75
321.113	11.75
321.904	13.75
322.695	14.75
323.486	13.75
324.277	10.75
325.068	12.75
325.858	13.75
326.649	12.75
327.439	15.75
328.23	12.75
329.02	11.75
329.81	12.75
330.6	12.75
331.391	10.75
332.181	10.75
332.971	11.75
333.76	9.75
334.55	10.75
335.34	9.75
336.13	11.75
336.919	11.75
337.709	10.75
338.498	12.75
339.287	11.75
340.077	10.75
340.866	10.75
341.655	11.75
342.444	12.75
343.233	12.75
344.022	9.75
344.811	9.75
345.6	11.75
346.388	10.75
347.177	11.75
347.965	8.75
348.754	10.75
349.542	10.75
350.33	9.75
351.119	10.75
351.907	9.75
352.695	10.75
353.483	10.75
354.271	9.75
355.059	10.75
355.846	9.75
356.634	9.75
357.422	9.75
358.209	10.75
358.997	6.75
359.784	9.75
360.571	9.75
361.359	10.75
362.146	6.75
362.933	11.75
363.72	10.75
364.507	10.75
365.294	9.75
366.081	8.75
366.867	9.75
367.654	8.75
368.44	9.75
369.227	10.75
370.013	8.75
370.8	9.75
371.586	9.75
372.372	10.75
373.158	10.75
373.944	8.75
374.73	10.75
375.516	7.75
376.302	9.75
377.088	8.75
377.873	7.75
378.659	8.75
379.445	7.75
380.23	9.75
381.015	6.75
381.801	8.75
382.586	9.75
383.371	8.75
384.156	9.75
384.941	9.75
385.726	10.75
386.511	9.75
387.296	8.75
388.08	10.75
388.865	9.75
389.649	11.75
390.434	10.75
391.218	10.75
392.003	10.75
392.787	12.75
393.571	10.75
394.355	9.75
395.139	11.75
395.923	10.75
396.707	10.75
397.491	13.75
398.274	11.75
399.058	12.75
399.842	13.75
400.625	11.75
401.408	10.75
402.192	14.75
402.975	11.75
403.758	13.75
404.541	11.75
405.324	11.75
406.107	12.75
406.89	10.75
407.673	13.75
408.456	13.75
409.238	12.75
410.021	15.75
410.803	17.75
411.586	15.75
412.368	14.75
413.151	14.75
413.933	17.75
414.715	17.75
415.497	20.75
416.279	17.75
417.061	19.75
417.843	18.75
418.624	16.75
419.406	18.75
420.188	20.75
420.969	20.75
421.751	15.75
422.532	21.75
423.313	20.75
424.095	19.75
424.876	20.75
425.657	22.75
426.438	24.75
427.219	23.75
428	26.75
428.78	25.75
429.561	29.75
430.342	27.75
431.122	28.75
431.903	29.75
432.683	32.75
433.464	35.75
434.244	39.75
435.024	35.75
435.804	40.75
436.584	42.75
437.364	45.75
438.144	50.75
438.924	51.75
439.704	54.75
440.483	60.75
441.263	65.75
442.042	65.75
442.822	74.75
443.601	78.75
444.38	86.75
445.16	92.75
445.939	97.75
446.718	104.75
447.497	114.75
448.276	126.75
449.054	141.75
449.833	157.75
450.612	172.75
451.391	190.75
452.169	213.75
452.948	234.75
453.726	266.75
454.504	290.75
455.282	318.75
456.061	348.75
456.839	400.75
457.617	448.75
458.395	492.75
459.172	544.75
459.95	607.75
460.728	678.75
461.506	749.75
462.283	827.75
463.061	924.75
463.838	1029.75
464.615	1142.75
465.393	1255.75
466.17	1399.75
466.947	1544.75
467.724	1703.75
468.501	1877.75
469.278	2078.75
470.055	2293.75
470.831	2509.75
471.608	2747.75
472.385	2994.75
473.161	3298.75
473.938	3617.75
474.714	3944.75
475.49	4345.75
476.266	4713.75
477.043	5131.75
477.819	5592.75
478.595	6039.75
479.371	6531.75
480.146	7097.75
480.922	7753.75
481.698	8356.75
482.473	9036.75
483.249	9786.75
484.024	10620.75
484.8	11415.75
485.575	12239.75
486.35	13234.75
487.126	14306.75
487.901	15346.75
488.676	16459.75
489.451	17670.75
490.225	19002.75
491	20353.75
491.775	21650.75
492.55	23123.75
493.324	24651.75
494.099	26132.75
494.873	27657.75
495.647	29252.75
496.422	30772.75
497.196	32361.75
497.97	33891.75
498.744	35350.75
499.518	36961.75
500.292	38232.75
501.066	39253.75
501.839	40283.75
502.613	41238.75
503.387	42059.75
504.16	42701.75
504.934	43073.75
505.707	43329.75
506.48	43335.75
507.253	43223.75
508.027	42951.75
508.8	42351.75
509.573	41784.75
510.346	41108.75
511.118	40336.75
511.891	39359.75
512.664	38084.75
513.437	36938.75
514.209	35758.75
514.982	34531.75
515.754	33356.75
516.526	31930.75
517.298	30736.75
518.071	29630.75
518.843	28495.75
519.615	27332.75
520.387	26394.75
521.159	25271.75
521.93	24264.75
522.702	23292.75
523.474	22256.75
524.245	21409.75
525.017	20589.75
525.788	19698.75
526.56	18912.75
527.331	18122.75
528.102	17276.75
528.873	16469.75
529.644	15653.75
530.415	14964.75
531.186	14302.75
531.957	13588.75
532.728	12935.75
533.498	12285.75
534.269	11647.75
535.039	11087.75
535.81	10501.75
536.58	9900.75
537.351	9371.75
538.121	8910.75
538.891	8458.75
539.661	7976.75
540.431	7560.75
541.201	7165.75
541.971	6830.75
542.741	6454.75
543.51	6116.75
544.28	5814.75
545.05	5533.75
545.819	5298.75
546.588	5065.75
547.358	4757.75
548.127	4570.75
548.896	4334.75
549.665	4115.75
550.434	3916.75
551.203	3694.75
551.972	3523.75
552.741	3355.75
553.51	3156.75
554.278	2975.75
555.047	2828.75
555.815	2689.75
556.584	2530.75
557.352	2397.75
558.121	2272.75
558.889	2126.75
559.657	2020.75
560.425	1928.75
561.193	1825.75
561.961	1718.75
562.729	1632.75
563.496	1526.75
564.264	1449.75
565.032	1371.75
565.799	1307.75
566.567	1231.75
567.334	1161.75
568.101	1088.75
568.869	1032.75
569.636	980.75
570.403	927.75
571.17	877.75
571.937	816.75
572.704	783.75
573.471	739.75
574.237	690.75
575.004	655.75
575.771	618.75
576.537	574.75
577.303	554.75
578.07	520.75
578.836	488.75
579.602	457.75
580.368	440.75
581.134	425.75
581.9	395.75
582.666	379.75
583.432	356.75
584.198	342.75
584.964	328.75
585.729	297.75
586.495	286.75
587.26	273.75
588.025	256.75
588.791	237.75
589.556	237.75
590.321	222.75
591.086	221.75
591.851	199.75
592.616	188.75
593.381	186.75
594.146	171.75
594.911	163.75
595.675	159.75
596.44	154.75
597.204	146.75
597.969	139.75
598.733	134.75
599.497	123.75
600.261	122.75
601.025	117.75
601.79	114.75
602.553	108.75
603.317	98.75
604.081	98.75
604.845	95.75
605.609	91.75
606.372	82.75
607.136	78.75
607.899	74.75
608.662	74.75
609.426	70.75
610.189	72.75
610.952	71.75
611.715	64.75
612.478	61.75
613.241	58.75
614.004	60.75
614.767	58.75
615.529	52.75
616.292	50.75
617.055	48.75
617.817	47.75
618.579	46.75
619.342	44.75
620.104	45.75
620.866	41.75
621.628	43.75
622.39	40.75
623.152	37.75
623.914	36.75
624.676	33.75
625.438	32.75
626.199	33.75
626.961	28.75
627.722	30.75
628.484	31.75
629.245	29.75
630.006	29.75
630.768	28.75
631.529	25.75
632.29	24.75
633.051	27.75
633.812	25.75
634.573	24.75
635.333	22.75
636.094	20.75
636.855	24.75
637.615	21.75
638.376	23.75
639.136	23.75
639.896	19.75
640.657	19.75
641.417	16.75
642.177	15.75
642.937	19.75
643.697	14.75
644.457	18.75
645.216	14.75
645.976	17.75
646.736	18.75
647.495	16.75
648.255	15.75
649.014	15.75
649.774	14.75
650.533	13.75
651.292	12.75
652.051	12.75
652.81	17.75
653.569	11.75
654.328	12.75
655.087	13.75
655.846	10.75
656.604	10.75
657.363	12.75
658.121	9.75
658.88	9.75
659.638	10.75
660.397	10.75
661.155	7.75
661.913	12.75
662.671	11.75
663.429	10.75
664.187	10.75
664.945	11.75
665.703	9.75
666.46	12.75
667.218	10.75
667.976	9.75
668.733	8.75
669.49	10.75
670.248	9.75
671.005	10.75
671.762	6.75
672.519	8.75
673.276	8.75
674.033	6.75
674.79	10.75
675.547	9.75
676.304	11.75
677.06	8.75
677.817	8.75
678.574	7.75
679.33	7.75
680.086	8.75
680.843	9.75
681.599	6.75
682.355	9.75
683.111	6.75
683.867	7.75
684.623	8.75
685.379	8.75
686.135	6.75
686.89	6.75
687.646	7.75
688.402	4.75
689.157	9.75
689.912	6.75
690.668	6.75
691.423	4.75
692.178	6.75
692.933	6.75
693.688	7.75
694.443	10.75
695.198	7.75
695.953	6.75
696.708	7.75
697.462	8.75
698.217	6.75
698.972	5.75
699.726	6.75
700.48	6.75
701.235	5.75
701.989	6.75
702.743	5.75
703.497	5.75
704.251	7.75
705.005	7.75
705.759	8.75
706.513	8.75
707.266	5.75
708.02	7.75
708.774	7.75
709.527	4.75
710.28	7.75
711.034	4.75
711.787	7.75
712.54	7.75
713.293	5.75
714.046	7.75
714.799	9.75
715.552	4.75
716.305	8.75
717.058	6.75
717.81	7.75
718.563	6.75
719.315	8.75
720.068	8.75
720.82	10.75
721.573	6.75
722.325	5.75
723.077	7.75
723.829	8.75
724.581	7.75
725.333	8.75
726.085	7.75
726.836	9.75
727.588	7.75
728.34	8.75
729.091	6.75
729.843	8.75
730.594	9.75
731.346	8.75
732.097	6.75
732.848	9.75
733.599	7.75
734.35	5.75
735.101	7.75
735.852	9.75
736.603	7.75
737.354	8.75
738.104	7.75
738.855	8.75
739.605	8.75
740.356	7.75
741.106	9.75
741.856	7.75
742.607	7.75
743.357	9.75
744.107	10.75
744.857	9.75
745.607	10.75
746.357	8.75
747.106	9.75
747.856	8.75
748.606	11.75
749.355	8.75
750.105	10.75
750.854	8.75
751.603	8.75
752.353	9.75
753.102	10.75
753.851	9.75
754.6	9.75
755.349	10.75
756.098	8.75
756.847	13.75
757.595	10.75
758.344	10.75
759.093	10.75
759.841	8.75
760.589	10.75
761.338	12.75
762.086	13.75
762.834	10.75
763.582	10.75
764.331	10.75
765.079	9.75
765.826	11.75
766.574	11.75
767.322	12.75
768.07	15.75
768.817	11.75
769.565	11.75
770.312	14.75
771.06	12.75
771.807	12.75
772.554	15.75
773.302	12.75
774.049	10.75
774.796	13.75
775.543	13.75
776.29	13.75
777.036	12.75
777.783	11.75
778.53	14.75
779.276	13.75
780.023	16.75
780.769	11.75
781.516	13.75
782.262	10.75
783.008	14.75
783.754	15.75
784.5	12.75
785.246	13.75
785.992	12.75
786.738	13.75
787.484	14.75
788.23	10.75
788.975	14.75
789.721	14.75
790.466	12.75
791.212	12.75
791.957	13.75
792.702	12.75
793.447	15.75
794.193	12.75
794.938	11.75
795.683	11.75
796.427	13.75
797.172	12.75
797.917	10.75
798.662	10.75
799.406	11.75
800.151	12.75
800.895	11.75
801.64	9.75
802.384	12.75
803.128	11.75
803.872	12.75
804.616	9.75
805.36	9.75
806.104	8.75
806.848	12.75
807.592	9.75
808.336	11.75
809.079	9.75
809.823	10.75
810.566	9.75
811.31	9.75
812.053	7.75
812.796	8.75
813.539	9.75
814.283	7.75
815.026	6.75
815.769	7.75
816.511	6.75
817.254	8.75
817.997	6.75
818.74	7.75
819.482	8.75
820.225	9.75
820.967	5.75
821.71	8.75
822.452	8.75
823.194	6.75
823.936	6.75
824.678	6.75
825.42	4.75
826.162	9.75
826.904	6.75
827.646	6.75
828.388	6.75
829.129	7.75
829.871	5.75
830.612	4.75
831.354	3.75
832.095	7.75
832.836	3.75
833.577	5.75
834.319	3.75
835.06	5.75
835.801	6.75
836.542	6.75
837.282	4.75
838.023	5.75
838.764	7.75
839.504	2.75
840.245	6.75
840.985	6.75
841.726	3.75
842.466	4.75
843.206	6.75
843.946	8.75
844.687	3.75
845.427	6.75
846.166	1.75
846.906	3.75
847.646	4.75
848.386	5.75
849.125	4.75
849.865	5.75
850.605	6.75
851.344	4.75
852.083	1.75
852.823	4.75
853.562	4.75
854.301	5.75
855.04	2.75
855.779	1.75
856.518	2.75
857.257	2.75
857.995	2.75
858.734	3.75
859.473	5.75
860.211	2.75
860.95	2.75
861.688	4.75
862.426	2.75
863.165	5.75
863.903	0.75
864.641	1.75
865.379	3.75
866.117	1.75
866.855	2.75
867.593	2.75
868.33	2.75
869.068	1.75
869.806	2.75
870.543	2.75
871.28	0.75
872.018	2.75
872.755	0.75
873.492	1.75
874.229	1.75
874.967	1.75
875.703	0.75
876.44	-0.25
877.177	2.75
877.914	0.75
878.651	3.75
879.387	3.75
880.124	2.75
880.86	-0.25
881.597	1.75
882.333	3.75
883.069	1.75
883.806	3.75
884.542	2.75
885.278	0.75
886.014	0.75
886.749	2.75
887.485	0.75
888.221	1.75
888.957	0.75
889.692	0.75
890.428	-1.25
891.163	1.75
891.899	1.75
892.634	-1.25
893.369	1.75
894.104	0.75
894.839	1.75
895.574	0.75
896.309	1.75
897.044	1.75
897.779	0.75
898.514	1.75
899.248	-0.25
899.983	-0.25
900.717	0.75
901.452	1.75
902.186	-0.25
902.92	-1.25
903.654	0.75
904.389	0.75
905.123	-1.25
905.857	-1.25
906.59	1.75
907.324	0.75
908.058	-0.25
908.792	2.75
909.525	0.75
910.259	0.75
910.992	-0.25
911.726	-0.25
912.459	0.75
913.192	-0.25
913.925	-0.25
914.658	1.75
915.391	-0.25
916.124	-2.25
916.857	0.75
917.59	0.75
918.323	0.75
919.055	0.75
919.788	0.75
920.521	-0.25
921.253	1.75
921.985	-1.25
922.718	-0.25
923.45	0.75
924.182	1.75
924.914	0.75
925.646	-0.25
926.378	-0.25
927.11	-1.25
927.841	0.75
928.573	0.75
929.305	-1.25
930.036	0.75
930.768	-1.25
931.499	0.75
932.23	0.75
932.962	0.75
933.693	-0.25
934.424	-1.25
935.155	1.75
935.886	-1.25
936.617	0.75
937.348	-1.25
938.078	-0.25
938.809	0.75
939.54	-1.25
940.27	0.75
941.001	-2.25
941.731	-0.25
942.461	-0.25
943.191	-2.25
943.922	0.75
944.652	-0.25
945.382	2.75
946.112	2.75
946.841	2.75
947.571	-0.25
948.301	-0.25
949.031	-0.25
949.76	-0.25
950.49	-1.25
951.219	-1.25
951.948	0.75
952.678	-0.25
953.407	-3.25
954.136	0.75
954.865	-0.25
955.594	0.75
956.323	1.75
957.052	0.75
957.78	-2.25
958.509	-2.25
959.238	-2.25
959.966	0.75
960.695	-1.25
961.423	-0.25
962.151	-2.25
962.88	0.75
963.608	-1.25
964.336	-0.25
965.064	0.75
965.792	-0.25
966.52	-1.25
967.247	-0.25
967.975	-1.25
968.703	0.75
969.43	2.75
970.158	0.75
970.885	-1.25
971.613	-0.25
972.34	-2.25
973.067	1.75
973.794	-2.25
974.521	-2.25
975.248	-0.25
975.975	-0.25
976.702	-0.25
977.429	0.75
978.156	1.75
978.882	-1.25
979.609	-1.25
980.335	0.75
981.062	0.75
981.788	-0.25
982.514	-0.25
983.24	0.75
983.967	-1.25
984.693	1.75
985.419	-1.25
986.144	-0.25
986.87	-0.25
987.596	0.75
988.322	-0.25
989.047	2.75
989.773	-1.25
990.498	-0.25
991.224	0.75
991.949	0.75
992.674	-0.25
993.399	-1.25
994.124	0.75
994.849	1.75
995.574	-0.25
996.299	-0.25
997.024	-0.25
997.749	1.75
998.473	0.75
999.198	-1.25
999.922	0.75
1000.647	0.75
1001.371	2.75
1002.095	-1.25
1002.82	-0.25
1003.544	-0.25
1004.268	2.75
1004.992	1.75
1005.716	4.75
1006.439	3.75
1007.163	4.75
1007.887	5.75
1008.611	0.75
1009.334	1.75
1010.058	0.75
1010.781	-0.25
1011.504	1.75
1012.228	0.75
1012.951	-1.25
1013.674	-1.25
1014.397	0.75
1015.12	0.75
