节点500_705_QEPB04081__226__20-49-07-473.txt的数据

Date: Wed Nov 12 20:49:07 CST 2025
User: PC
Spectrometer: QEPB0408
触发模式: 0
积分时间 (秒): 1.000000E-2
Scans to average: 1
启用暗噪声校正: true
启用非线性校正: false
滑动平均宽度: 0
X轴模式: Wavelengths
Number of Pixels in Spectrum: 1044
>>>>>Begin Spectral Data<<<<<
220.843	5.5
221.644	3.5
222.444	6.5
223.244	3.5
224.045	5.5
224.845	7.5
225.645	7.5
226.445	8.5
227.245	7.5
228.045	6.5
228.845	6.5
229.645	7.5
230.444	9.5
231.244	7.5
232.043	11.5
232.843	7.5
233.642	10.5
234.442	10.5
235.241	10.5
236.04	11.5
236.839	11.5
237.638	9.5
238.437	11.5
239.236	12.5
240.035	11.5
240.833	13.5
241.632	14.5
242.43	13.5
243.229	13.5
244.027	13.5
244.826	16.5
245.624	12.5
246.422	14.5
247.22	14.5
248.018	14.5
248.816	16.5
249.614	15.5
250.412	15.5
251.21	16.5
252.007	14.5
252.805	17.5
253.602	18.5
254.4	19.5
255.197	15.5
255.994	20.5
256.791	18.5
257.589	22.5
258.386	22.5
259.183	22.5
259.979	21.5
260.776	23.5
261.573	21.5
262.37	21.5
263.166	25.5
263.963	24.5
264.759	23.5
265.556	27.5
266.352	29.5
267.148	27.5
267.944	30.5
268.74	27.5
269.536	31.5
270.332	30.5
271.128	31.5
271.924	30.5
272.719	35.5
273.515	30.5
274.311	33.5
275.106	34.5
275.901	31.5
276.697	35.5
277.492	35.5
278.287	34.5
279.082	35.5
279.877	35.5
280.672	35.5
281.467	34.5
282.262	33.5
283.056	34.5
283.851	33.5
284.646	33.5
285.44	36.5
286.234	32.5
287.029	35.5
287.823	31.5
288.617	35.5
289.411	31.5
290.205	33.5
290.999	30.5
291.793	33.5
292.587	32.5
293.381	30.5
294.174	29.5
294.968	30.5
295.761	26.5
296.555	27.5
297.348	27.5
298.141	28.5
298.935	31.5
299.728	26.5
300.521	26.5
301.314	23.5
302.107	25.5
302.899	21.5
303.692	24.5
304.485	23.5
305.277	23.5
306.07	22.5
306.862	24.5
307.655	23.5
308.447	20.5
309.239	18.5
310.031	21.5
310.823	17.5
311.615	18.5
312.407	15.5
313.199	18.5
313.991	19.5
314.783	13.5
315.574	16.5
316.366	14.5
317.157	16.5
317.949	15.5
318.74	13.5
319.531	15.5
320.322	12.5
321.113	14.5
321.904	10.5
322.695	12.5
323.486	11.5
324.277	12.5
325.068	12.5
325.858	14.5
326.649	13.5
327.439	10.5
328.23	13.5
329.02	11.5
329.81	10.5
330.6	11.5
331.391	10.5
332.181	14.5
332.971	11.5
333.76	13.5
334.55	10.5
335.34	9.5
336.13	12.5
336.919	12.5
337.709	11.5
338.498	11.5
339.287	12.5
340.077	12.5
340.866	10.5
341.655	10.5
342.444	8.5
343.233	11.5
344.022	12.5
344.811	8.5
345.6	11.5
346.388	8.5
347.177	12.5
347.965	10.5
348.754	11.5
349.542	12.5
350.33	12.5
351.119	14.5
351.907	9.5
352.695	10.5
353.483	10.5
354.271	7.5
355.059	9.5
355.846	7.5
356.634	9.5
357.422	8.5
358.209	10.5
358.997	8.5
359.784	12.5
360.571	9.5
361.359	7.5
362.146	11.5
362.933	8.5
363.72	10.5
364.507	7.5
365.294	9.5
366.081	9.5
366.867	9.5
367.654	10.5
368.44	10.5
369.227	9.5
370.013	8.5
370.8	8.5
371.586	8.5
372.372	9.5
373.158	11.5
373.944	9.5
374.73	9.5
375.516	11.5
376.302	9.5
377.088	10.5
377.873	7.5
378.659	8.5
379.445	8.5
380.23	8.5
381.015	11.5
381.801	10.5
382.586	10.5
383.371	7.5
384.156	8.5
384.941	8.5
385.726	10.5
386.511	8.5
387.296	9.5
388.08	8.5
388.865	12.5
389.649	8.5
390.434	10.5
391.218	9.5
392.003	10.5
392.787	12.5
393.571	11.5
394.355	14.5
395.139	12.5
395.923	13.5
396.707	14.5
397.491	12.5
398.274	14.5
399.058	12.5
399.842	13.5
400.625	14.5
401.408	15.5
402.192	11.5
402.975	13.5
403.758	12.5
404.541	14.5
405.324	14.5
406.107	15.5
406.89	12.5
407.673	18.5
408.456	15.5
409.238	16.5
410.021	14.5
410.803	14.5
411.586	14.5
412.368	18.5
413.151	14.5
413.933	17.5
414.715	18.5
415.497	18.5
416.279	20.5
417.061	18.5
417.843	15.5
418.624	21.5
419.406	18.5
420.188	18.5
420.969	20.5
421.751	22.5
422.532	23.5
423.313	23.5
424.095	23.5
424.876	25.5
425.657	23.5
426.438	26.5
427.219	24.5
428	26.5
428.78	30.5
429.561	26.5
430.342	30.5
431.122	32.5
431.903	34.5
432.683	31.5
433.464	34.5
434.244	35.5
435.024	39.5
435.804	41.5
436.584	40.5
437.364	44.5
438.144	46.5
438.924	46.5
439.704	53.5
440.483	57.5
441.263	60.5
442.042	56.5
442.822	68.5
443.601	70.5
444.38	78.5
445.16	82.5
445.939	90.5
446.718	102.5
447.497	108.5
448.276	117.5
449.054	128.5
449.833	139.5
450.612	155.5
451.391	167.5
452.169	188.5
452.948	207.5
453.726	229.5
454.504	254.5
455.282	286.5
456.061	322.5
456.839	351.5
457.617	395.5
458.395	449.5
459.172	500.5
459.95	552.5
460.728	624.5
461.506	688.5
462.283	768.5
463.061	866.5
463.838	957.5
464.615	1063.5
465.393	1196.5
466.17	1338.5
466.947	1475.5
467.724	1636.5
468.501	1829.5
469.278	2008.5
470.055	2248.5
470.831	2494.5
471.608	2756.5
472.385	3054.5
473.161	3362.5
473.938	3688.5
474.714	4069.5
475.49	4452.5
476.266	4910.5
477.043	5398.5
477.819	5870.5
478.595	6451.5
479.371	7074.5
480.146	7749.5
480.922	8473.5
481.698	9237.5
482.473	10044.5
483.249	10987.5
484.024	11964.5
484.8	13009.5
485.575	14110.5
486.35	15426.5
487.126	16608.5
487.901	18063.5
488.676	19453.5
489.451	21059.5
490.225	22623.5
491	24325.5
491.775	26055.5
492.55	27839.5
493.324	29720.5
494.099	31503.5
494.873	33456.5
495.647	35237.5
496.422	37210.5
497.196	38975.5
497.97	40635.5
498.744	42145.5
499.518	43767.5
500.292	45053.5
501.066	46052.5
501.839	46969.5
502.613	47567.5
503.387	48153.5
504.16	48487.5
504.934	48433.5
505.707	48224.5
506.48	47725.5
507.253	47083.5
508.027	46204.5
508.8	45151.5
509.573	44058.5
510.346	42803.5
511.118	41728.5
511.891	40304.5
512.664	38682.5
513.437	37213.5
514.209	35708.5
514.982	34336.5
515.754	32950.5
516.526	31573.5
517.298	30283.5
518.071	29008.5
518.843	27841.5
519.615	26776.5
520.387	25646.5
521.159	24661.5
521.93	23640.5
522.702	22664.5
523.474	21672.5
524.245	20726.5
525.017	19776.5
525.788	18865.5
526.56	18142.5
527.331	17317.5
528.102	16369.5
528.873	15571.5
529.644	14824.5
530.415	14139.5
531.186	13464.5
531.957	12693.5
532.728	12040.5
533.498	11395.5
534.269	10789.5
535.039	10195.5
535.81	9640.5
536.58	9096.5
537.351	8634.5
538.121	8222.5
538.891	7724.5
539.661	7294.5
540.431	6959.5
541.201	6568.5
541.971	6241.5
542.741	5903.5
543.51	5588.5
544.28	5325.5
545.05	5082.5
545.819	4856.5
546.588	4600.5
547.358	4411.5
548.127	4184.5
548.896	3953.5
549.665	3745.5
550.434	3549.5
551.203	3367.5
551.972	3200.5
552.741	3004.5
553.51	2842.5
554.278	2694.5
555.047	2522.5
555.815	2385.5
556.584	2257.5
557.352	2145.5
558.121	2020.5
558.889	1894.5
559.657	1803.5
560.425	1704.5
561.193	1619.5
561.961	1534.5
562.729	1453.5
563.496	1359.5
564.264	1286.5
565.032	1218.5
565.799	1166.5
566.567	1102.5
567.334	1038.5
568.101	985.5
568.869	916.5
569.636	876.5
570.403	810.5
571.17	779.5
571.937	742.5
572.704	689.5
573.471	655.5
574.237	611.5
575.004	574.5
575.771	536.5
576.537	515.5
577.303	487.5
578.07	459.5
578.836	433.5
579.602	412.5
580.368	386.5
581.134	370.5
581.9	345.5
582.666	348.5
583.432	322.5
584.198	306.5
584.964	278.5
585.729	276.5
586.495	256.5
587.26	249.5
588.025	228.5
588.791	217.5
589.556	204.5
590.321	196.5
591.086	189.5
591.851	175.5
592.616	172.5
593.381	166.5
594.146	158.5
594.911	148.5
595.675	142.5
596.44	134.5
597.204	132.5
597.969	125.5
598.733	119.5
599.497	110.5
600.261	109.5
601.025	107.5
601.79	103.5
602.553	92.5
603.317	89.5
604.081	90.5
604.845	84.5
605.609	78.5
606.372	77.5
607.136	73.5
607.899	77.5
608.662	64.5
609.426	69.5
610.189	66.5
610.952	60.5
611.715	59.5
612.478	55.5
613.241	57.5
614.004	55.5
614.767	51.5
615.529	43.5
616.292	46.5
617.055	48.5
617.817	45.5
618.579	47.5
619.342	41.5
620.104	41.5
620.866	40.5
621.628	35.5
622.39	40.5
623.152	36.5
623.914	34.5
624.676	35.5
625.438	33.5
626.199	33.5
626.961	32.5
627.722	30.5
628.484	28.5
629.245	28.5
630.006	27.5
630.768	27.5
631.529	26.5
632.29	25.5
633.051	22.5
633.812	24.5
634.573	21.5
635.333	24.5
636.094	23.5
636.855	20.5
637.615	20.5
638.376	18.5
639.136	20.5
639.896	18.5
640.657	21.5
641.417	19.5
642.177	20.5
642.937	18.5
643.697	18.5
644.457	15.5
645.216	14.5
645.976	16.5
646.736	17.5
647.495	15.5
648.255	12.5
649.014	12.5
649.774	14.5
650.533	13.5
651.292	16.5
652.051	15.5
652.81	12.5
653.569	12.5
654.328	12.5
655.087	15.5
655.846	13.5
656.604	11.5
657.363	13.5
658.121	12.5
658.88	11.5
659.638	11.5
660.397	11.5
661.155	9.5
661.913	11.5
662.671	9.5
663.429	10.5
664.187	10.5
664.945	8.5
665.703	11.5
666.46	11.5
667.218	8.5
667.976	10.5
668.733	9.5
669.49	9.5
670.248	8.5
671.005	11.5
671.762	8.5
672.519	8.5
673.276	9.5
674.033	6.5
674.79	7.5
675.547	6.5
676.304	8.5
677.06	9.5
677.817	8.5
678.574	11.5
679.33	6.5
680.086	7.5
680.843	7.5
681.599	6.5
682.355	10.5
683.111	7.5
683.867	6.5
684.623	5.5
685.379	8.5
686.135	7.5
686.89	8.5
687.646	8.5
688.402	8.5
689.157	7.5
689.912	8.5
690.668	7.5
691.423	8.5
692.178	8.5
692.933	7.5
693.688	9.5
694.443	4.5
695.198	8.5
695.953	6.5
696.708	4.5
697.462	5.5
698.217	8.5
698.972	7.5
699.726	5.5
700.48	11.5
701.235	8.5
701.989	8.5
702.743	6.5
703.497	8.5
704.251	7.5
705.005	5.5
705.759	5.5
706.513	7.5
707.266	7.5
708.02	7.5
708.774	8.5
709.527	6.5
710.28	7.5
711.034	8.5
711.787	9.5
712.54	9.5
713.293	6.5
714.046	5.5
714.799	7.5
715.552	6.5
716.305	7.5
717.058	7.5
717.81	6.5
718.563	8.5
719.315	7.5
720.068	5.5
720.82	7.5
721.573	8.5
722.325	6.5
723.077	6.5
723.829	10.5
724.581	6.5
725.333	9.5
726.085	10.5
726.836	8.5
727.588	8.5
728.34	9.5
729.091	7.5
729.843	9.5
730.594	7.5
731.346	6.5
732.097	8.5
732.848	6.5
733.599	7.5
734.35	10.5
735.101	10.5
735.852	9.5
736.603	10.5
737.354	7.5
738.104	12.5
738.855	10.5
739.605	11.5
740.356	10.5
741.106	8.5
741.856	10.5
742.607	8.5
743.357	11.5
744.107	11.5
744.857	11.5
745.607	9.5
746.357	9.5
747.106	10.5
747.856	10.5
748.606	10.5
749.355	11.5
750.105	9.5
750.854	11.5
751.603	10.5
752.353	12.5
753.102	11.5
753.851	10.5
754.6	9.5
755.349	11.5
756.098	13.5
756.847	10.5
757.595	9.5
758.344	12.5
759.093	12.5
759.841	14.5
760.589	14.5
761.338	14.5
762.086	10.5
762.834	10.5
763.582	14.5
764.331	15.5
765.079	15.5
765.826	10.5
766.574	14.5
767.322	15.5
768.07	14.5
768.817	14.5
769.565	14.5
770.312	14.5
771.06	12.5
771.807	15.5
772.554	16.5
773.302	11.5
774.049	16.5
774.796	15.5
775.543	16.5
776.29	17.5
777.036	12.5
777.783	15.5
778.53	14.5
779.276	15.5
780.023	12.5
780.769	13.5
781.516	16.5
782.262	16.5
783.008	17.5
783.754	17.5
784.5	16.5
785.246	15.5
785.992	15.5
786.738	14.5
787.484	14.5
788.23	14.5
788.975	17.5
789.721	13.5
790.466	16.5
791.212	14.5
791.957	14.5
792.702	13.5
793.447	15.5
794.193	12.5
794.938	14.5
795.683	14.5
796.427	14.5
797.172	14.5
797.917	11.5
798.662	11.5
799.406	13.5
800.151	12.5
800.895	11.5
801.64	10.5
802.384	12.5
803.128	10.5
803.872	12.5
804.616	10.5
805.36	9.5
806.104	9.5
806.848	10.5
807.592	8.5
808.336	7.5
809.079	9.5
809.823	12.5
810.566	6.5
811.31	9.5
812.053	7.5
812.796	9.5
813.539	7.5
814.283	9.5
815.026	9.5
815.769	7.5
816.511	10.5
817.254	8.5
817.997	8.5
818.74	8.5
819.482	8.5
820.225	6.5
820.967	8.5
821.71	8.5
822.452	7.5
823.194	7.5
823.936	5.5
824.678	7.5
825.42	5.5
826.162	5.5
826.904	7.5
827.646	5.5
828.388	6.5
829.129	3.5
829.871	3.5
830.612	5.5
831.354	4.5
832.095	6.5
832.836	5.5
833.577	3.5
834.319	6.5
835.06	5.5
835.801	6.5
836.542	3.5
837.282	4.5
838.023	6.5
838.764	4.5
839.504	4.5
840.245	7.5
840.985	6.5
841.726	4.5
842.466	3.5
843.206	7.5
843.946	4.5
844.687	0.5
845.427	4.5
846.166	7.5
846.906	6.5
847.646	2.5
848.386	6.5
849.125	0.5
849.865	4.5
850.605	3.5
851.344	4.5
852.083	5.5
852.823	4.5
853.562	3.5
854.301	4.5
855.04	3.5
855.779	3.5
856.518	2.5
857.257	1.5
857.995	4.5
858.734	3.5
859.473	3.5
860.211	0.5
860.95	3.5
861.688	2.5
862.426	2.5
863.165	2.5
863.903	0.5
864.641	1.5
865.379	2.5
866.117	3.5
866.855	3.5
867.593	2.5
868.33	2.5
869.068	0.5
869.806	0.5
870.543	1.5
871.28	0.5
872.018	3.5
872.755	1.5
873.492	0.5
874.229	1.5
874.967	2.5
875.703	2.5
876.44	0.5
877.177	2.5
877.914	1.5
878.651	2.5
879.387	2.5
880.124	2.5
880.86	1.5
881.597	-0.5
882.333	3.5
883.069	0.5
883.806	3.5
884.542	2.5
885.278	0.5
886.014	0.5
886.749	2.5
887.485	1.5
888.221	-0.5
888.957	3.5
889.692	1.5
890.428	0.5
891.163	1.5
891.899	0.5
892.634	-0.5
893.369	1.5
894.104	1.5
894.839	1.5
895.574	1.5
896.309	2.5
897.044	1.5
897.779	2.5
898.514	1.5
899.248	1.5
899.983	3.5
900.717	2.5
901.452	1.5
902.186	0.5
902.92	0.5
903.654	-0.5
904.389	1.5
905.123	-1.5
905.857	1.5
906.59	2.5
907.324	-0.5
908.058	1.5
908.792	1.5
909.525	0.5
910.259	3.5
910.992	0.5
911.726	-0.5
912.459	-1.5
913.192	0.5
913.925	2.5
914.658	1.5
915.391	2.5
916.124	0.5
916.857	-1.5
917.59	0.5
918.323	0.5
919.055	0.5
919.788	-2.5
920.521	0.5
921.253	-0.5
921.985	-1.5
922.718	-1.5
923.45	1.5
924.182	-0.5
924.914	-2.5
925.646	2.5
926.378	0.5
927.11	-0.5
927.841	0.5
928.573	-0.5
929.305	1.5
930.036	1.5
930.768	-1.5
931.499	-1.5
932.23	2.5
932.962	0.5
933.693	-2.5
934.424	0.5
935.155	-0.5
935.886	0.5
936.617	-1.5
937.348	-0.5
938.078	-1.5
938.809	0.5
939.54	1.5
940.27	-0.5
941.001	-0.5
941.731	2.5
942.461	1.5
943.191	-0.5
943.922	-0.5
944.652	1.5
945.382	0.5
946.112	-0.5
946.841	0.5
947.571	-0.5
948.301	2.5
949.031	1.5
949.76	-1.5
950.49	1.5
951.219	1.5
951.948	-0.5
952.678	-0.5
953.407	0.5
954.136	-0.5
954.865	-0.5
955.594	3.5
956.323	0.5
957.052	-0.5
957.78	2.5
958.509	0.5
959.238	1.5
959.966	-1.5
960.695	-1.5
961.423	-2.5
962.151	-0.5
962.88	0.5
963.608	1.5
964.336	0.5
965.064	2.5
965.792	-0.5
966.52	2.5
967.247	-0.5
967.975	0.5
968.703	-0.5
969.43	0.5
970.158	-1.5
970.885	1.5
971.613	-0.5
972.34	-1.5
973.067	1.5
973.794	-2.5
974.521	1.5
975.248	-0.5
975.975	1.5
976.702	0.5
977.429	1.5
978.156	-0.5
978.882	-1.5
979.609	1.5
980.335	-0.5
981.062	-0.5
981.788	0.5
982.514	-0.5
983.24	0.5
983.967	0.5
984.693	3.5
985.419	-2.5
986.144	0.5
986.87	-1.5
987.596	-0.5
988.322	0.5
989.047	-1.5
989.773	-1.5
990.498	0.5
991.224	-0.5
991.949	1.5
992.674	0.5
993.399	0.5
994.124	-1.5
994.849	0.5
995.574	-1.5
996.299	-0.5
997.024	0.5
997.749	-0.5
998.473	0.5
999.198	2.5
999.922	0.5
1000.647	1.5
1001.371	4.5
1002.095	-1.5
1002.82	-1.5
1003.544	-1.5
1004.268	3.5
1004.992	3.5
1005.716	3.5
1006.439	3.5
1007.163	5.5
1007.887	3.5
1008.611	0.5
1009.334	0.5
1010.058	-1.5
1010.781	-1.5
1011.504	-1.5
1012.228	1.5
1012.951	0.5
1013.674	-0.5
1014.397	-0.5
1015.12	0.5
