节点500_705_QEPB04081__400__20-51-36-638.txt的数据

Date: Wed Nov 12 20:51:36 CST 2025
User: PC
Spectrometer: QEPB0408
触发模式: 0
积分时间 (秒): 1.000000E-2
Scans to average: 1
启用暗噪声校正: true
启用非线性校正: false
滑动平均宽度: 0
X轴模式: Wavelengths
Number of Pixels in Spectrum: 1044
>>>>>Begin Spectral Data<<<<<
220.843	4.62
221.644	5.62
222.444	5.62
223.244	3.62
224.045	7.62
224.845	9.62
225.645	7.62
226.445	7.62
227.245	5.62
228.045	6.62
228.845	10.62
229.645	7.62
230.444	5.62
231.244	9.62
232.043	9.62
232.843	8.62
233.642	10.62
234.442	8.62
235.241	9.62
236.04	8.62
236.839	10.62
237.638	9.62
238.437	9.62
239.236	10.62
240.035	10.62
240.833	12.62
241.632	9.62
242.43	9.62
243.229	12.62
244.027	9.62
244.826	14.62
245.624	13.62
246.422	13.62
247.22	11.62
248.018	16.62
248.816	13.62
249.614	12.62
250.412	15.62
251.21	16.62
252.007	17.62
252.805	15.62
253.602	13.62
254.4	17.62
255.197	20.62
255.994	17.62
256.791	17.62
257.589	18.62
258.386	18.62
259.183	22.62
259.979	23.62
260.776	20.62
261.573	23.62
262.37	22.62
263.166	24.62
263.963	25.62
264.759	23.62
265.556	25.62
266.352	25.62
267.148	26.62
267.944	30.62
268.74	27.62
269.536	29.62
270.332	26.62
271.128	30.62
271.924	30.62
272.719	30.62
273.515	30.62
274.311	28.62
275.106	31.62
275.901	28.62
276.697	33.62
277.492	30.62
278.287	32.62
279.082	35.62
279.877	34.62
280.672	32.62
281.467	38.62
282.262	33.62
283.056	33.62
283.851	30.62
284.646	33.62
285.44	34.62
286.234	34.62
287.029	34.62
287.823	29.62
288.617	34.62
289.411	30.62
290.205	30.62
290.999	27.62
291.793	32.62
292.587	29.62
293.381	27.62
294.174	29.62
294.968	27.62
295.761	23.62
296.555	24.62
297.348	25.62
298.141	25.62
298.935	28.62
299.728	25.62
300.521	24.62
301.314	21.62
302.107	22.62
302.899	21.62
303.692	23.62
304.485	23.62
305.277	21.62
306.07	23.62
306.862	21.62
307.655	20.62
308.447	21.62
309.239	19.62
310.031	20.62
310.823	17.62
311.615	18.62
312.407	18.62
313.199	18.62
313.991	16.62
314.783	16.62
315.574	16.62
316.366	14.62
317.157	14.62
317.949	15.62
318.74	17.62
319.531	12.62
320.322	10.62
321.113	14.62
321.904	13.62
322.695	12.62
323.486	12.62
324.277	13.62
325.068	14.62
325.858	13.62
326.649	13.62
327.439	10.62
328.23	12.62
329.02	14.62
329.81	10.62
330.6	12.62
331.391	11.62
332.181	10.62
332.971	10.62
333.76	12.62
334.55	12.62
335.34	11.62
336.13	11.62
336.919	9.62
337.709	13.62
338.498	11.62
339.287	10.62
340.077	10.62
340.866	11.62
341.655	13.62
342.444	7.62
343.233	10.62
344.022	8.62
344.811	8.62
345.6	11.62
346.388	7.62
347.177	10.62
347.965	12.62
348.754	9.62
349.542	10.62
350.33	6.62
351.119	12.62
351.907	9.62
352.695	12.62
353.483	10.62
354.271	8.62
355.059	11.62
355.846	8.62
356.634	12.62
357.422	8.62
358.209	8.62
358.997	10.62
359.784	8.62
360.571	8.62
361.359	9.62
362.146	10.62
362.933	9.62
363.72	8.62
364.507	8.62
365.294	8.62
366.081	8.62
366.867	9.62
367.654	8.62
368.44	9.62
369.227	8.62
370.013	9.62
370.8	7.62
371.586	9.62
372.372	10.62
373.158	8.62
373.944	8.62
374.73	9.62
375.516	8.62
376.302	9.62
377.088	8.62
377.873	9.62
378.659	11.62
379.445	9.62
380.23	10.62
381.015	9.62
381.801	10.62
382.586	8.62
383.371	6.62
384.156	7.62
384.941	10.62
385.726	9.62
386.511	8.62
387.296	10.62
388.08	11.62
388.865	10.62
389.649	13.62
390.434	10.62
391.218	12.62
392.003	9.62
392.787	10.62
393.571	10.62
394.355	12.62
395.139	11.62
395.923	13.62
396.707	10.62
397.491	14.62
398.274	12.62
399.058	12.62
399.842	14.62
400.625	12.62
401.408	14.62
402.192	13.62
402.975	15.62
403.758	11.62
404.541	12.62
405.324	13.62
406.107	15.62
406.89	14.62
407.673	16.62
408.456	14.62
409.238	13.62
410.021	14.62
410.803	15.62
411.586	14.62
412.368	15.62
413.151	16.62
413.933	16.62
414.715	18.62
415.497	17.62
416.279	19.62
417.061	19.62
417.843	20.62
418.624	19.62
419.406	17.62
420.188	21.62
420.969	18.62
421.751	20.62
422.532	21.62
423.313	22.62
424.095	23.62
424.876	24.62
425.657	24.62
426.438	25.62
427.219	25.62
428	28.62
428.78	27.62
429.561	25.62
430.342	29.62
431.122	32.62
431.903	32.62
432.683	31.62
433.464	35.62
434.244	34.62
435.024	39.62
435.804	38.62
436.584	42.62
437.364	46.62
438.144	48.62
438.924	50.62
439.704	54.62
440.483	57.62
441.263	58.62
442.042	68.62
442.822	67.62
443.601	71.62
444.38	82.62
445.16	86.62
445.939	92.62
446.718	104.62
447.497	108.62
448.276	125.62
449.054	134.62
449.833	151.62
450.612	168.62
451.391	179.62
452.169	202.62
452.948	219.62
453.726	255.62
454.504	270.62
455.282	307.62
456.061	332.62
456.839	373.62
457.617	422.62
458.395	465.62
459.172	516.62
459.95	591.62
460.728	640.62
461.506	716.62
462.283	800.62
463.061	906.62
463.838	1000.62
464.615	1108.62
465.393	1236.62
466.17	1355.62
466.947	1521.62
467.724	1678.62
468.501	1869.62
469.278	2061.62
470.055	2272.62
470.831	2520.62
471.608	2754.62
472.385	3035.62
473.161	3358.62
473.938	3683.62
474.714	4048.62
475.49	4448.62
476.266	4848.62
477.043	5289.62
477.819	5775.62
478.595	6282.62
479.371	6891.62
480.146	7464.62
480.922	8165.62
481.698	8878.62
482.473	9649.62
483.249	10492.62
484.024	11364.62
484.8	12279.62
485.575	13316.62
486.35	14479.62
487.126	15613.62
487.901	16883.62
488.676	18113.62
489.451	19614.62
490.225	21064.62
491	22526.62
491.775	24152.62
492.55	25819.62
493.324	27486.62
494.099	29261.62
494.873	30890.62
495.647	32637.62
496.422	34436.62
497.196	36102.62
497.97	37751.62
498.744	39223.62
499.518	40822.62
500.292	42290.62
501.066	43290.62
501.839	44168.62
502.613	45010.62
503.387	45767.62
504.16	46193.62
504.934	46301.62
505.707	46369.62
506.48	46144.62
507.253	45743.62
508.027	45131.62
508.8	44352.62
509.573	43364.62
510.346	42419.62
511.118	41405.62
511.891	40204.62
512.664	38773.62
513.437	37347.62
514.209	36061.62
514.982	34655.62
515.754	33280.62
516.526	31950.62
517.298	30643.62
518.071	29526.62
518.843	28360.62
519.615	27128.62
520.387	26039.62
521.159	25079.62
521.93	24056.62
522.702	22995.62
523.474	22080.62
524.245	21202.62
525.017	20286.62
525.788	19420.62
526.56	18607.62
527.331	17783.62
528.102	16886.62
528.873	16077.62
529.644	15269.62
530.415	14614.62
531.186	13891.62
531.957	13187.62
532.728	12516.62
533.498	11846.62
534.269	11258.62
535.039	10666.62
535.81	10074.62
536.58	9518.62
537.351	8985.62
538.121	8540.62
538.891	8096.62
539.661	7632.62
540.431	7222.62
541.201	6893.62
541.971	6501.62
542.741	6150.62
543.51	5845.62
544.28	5556.62
545.05	5308.62
545.819	5032.62
546.588	4821.62
547.358	4593.62
548.127	4369.62
548.896	4150.62
549.665	3944.62
550.434	3726.62
551.203	3535.62
551.972	3381.62
552.741	3185.62
553.51	2989.62
554.278	2825.62
555.047	2668.62
555.815	2517.62
556.584	2404.62
557.352	2239.62
558.121	2147.62
558.889	2030.62
559.657	1897.62
560.425	1795.62
561.193	1735.62
561.961	1627.62
562.729	1532.62
563.496	1430.62
564.264	1371.62
565.032	1299.62
565.799	1230.62
566.567	1159.62
567.334	1096.62
568.101	1023.62
568.869	969.62
569.636	921.62
570.403	861.62
571.17	834.62
571.937	766.62
572.704	739.62
573.471	685.62
574.237	654.62
575.004	613.62
575.771	590.62
576.537	544.62
577.303	510.62
578.07	487.62
578.836	463.62
579.602	432.62
580.368	408.62
581.134	404.62
581.9	373.62
582.666	355.62
583.432	339.62
584.198	326.62
584.964	305.62
585.729	286.62
586.495	274.62
587.26	261.62
588.025	251.62
588.791	234.62
589.556	221.62
590.321	208.62
591.086	192.62
591.851	186.62
592.616	175.62
593.381	168.62
594.146	163.62
594.911	159.62
595.675	150.62
596.44	143.62
597.204	138.62
597.969	134.62
598.733	124.62
599.497	117.62
600.261	112.62
601.025	106.62
601.79	103.62
602.553	100.62
603.317	94.62
604.081	96.62
604.845	87.62
605.609	85.62
606.372	81.62
607.136	77.62
607.899	78.62
608.662	76.62
609.426	71.62
610.189	65.62
610.952	65.62
611.715	63.62
612.478	57.62
613.241	59.62
614.004	56.62
614.767	52.62
615.529	55.62
616.292	48.62
617.055	49.62
617.817	45.62
618.579	42.62
619.342	43.62
620.104	44.62
620.866	42.62
621.628	40.62
622.39	38.62
623.152	36.62
623.914	35.62
624.676	34.62
625.438	32.62
626.199	36.62
626.961	31.62
627.722	31.62
628.484	31.62
629.245	29.62
630.006	28.62
630.768	24.62
631.529	27.62
632.29	28.62
633.051	26.62
633.812	24.62
634.573	23.62
635.333	25.62
636.094	21.62
636.855	22.62
637.615	18.62
638.376	23.62
639.136	20.62
639.896	20.62
640.657	18.62
641.417	18.62
642.177	19.62
642.937	16.62
643.697	16.62
644.457	15.62
645.216	16.62
645.976	15.62
646.736	15.62
647.495	15.62
648.255	16.62
649.014	15.62
649.774	16.62
650.533	15.62
651.292	14.62
652.051	14.62
652.81	10.62
653.569	15.62
654.328	14.62
655.087	12.62
655.846	11.62
656.604	12.62
657.363	13.62
658.121	10.62
658.88	10.62
659.638	8.62
660.397	11.62
661.155	10.62
661.913	12.62
662.671	9.62
663.429	10.62
664.187	12.62
664.945	10.62
665.703	11.62
666.46	12.62
667.218	8.62
667.976	12.62
668.733	10.62
669.49	10.62
670.248	11.62
671.005	10.62
671.762	9.62
672.519	10.62
673.276	8.62
674.033	8.62
674.79	10.62
675.547	8.62
676.304	9.62
677.06	10.62
677.817	10.62
678.574	7.62
679.33	5.62
680.086	7.62
680.843	6.62
681.599	8.62
682.355	8.62
683.111	7.62
683.867	8.62
684.623	10.62
685.379	7.62
686.135	6.62
686.89	9.62
687.646	5.62
688.402	6.62
689.157	9.62
689.912	6.62
690.668	7.62
691.423	8.62
692.178	4.62
692.933	8.62
693.688	6.62
694.443	7.62
695.198	6.62
695.953	6.62
696.708	7.62
697.462	7.62
698.217	5.62
698.972	7.62
699.726	8.62
700.48	6.62
701.235	7.62
701.989	6.62
702.743	6.62
703.497	4.62
704.251	5.62
705.005	8.62
705.759	5.62
706.513	7.62
707.266	9.62
708.02	5.62
708.774	7.62
709.527	8.62
710.28	6.62
711.034	9.62
711.787	5.62
712.54	8.62
713.293	6.62
714.046	6.62
714.799	7.62
715.552	4.62
716.305	7.62
717.058	8.62
717.81	7.62
718.563	6.62
719.315	7.62
720.068	8.62
720.82	10.62
721.573	5.62
722.325	5.62
723.077	7.62
723.829	7.62
724.581	7.62
725.333	9.62
726.085	8.62
726.836	6.62
727.588	8.62
728.34	8.62
729.091	11.62
729.843	6.62
730.594	8.62
731.346	8.62
732.097	11.62
732.848	7.62
733.599	7.62
734.35	9.62
735.101	6.62
735.852	8.62
736.603	10.62
737.354	10.62
738.104	9.62
738.855	7.62
739.605	10.62
740.356	8.62
741.106	9.62
741.856	7.62
742.607	9.62
743.357	8.62
744.107	8.62
744.857	10.62
745.607	7.62
746.357	9.62
747.106	10.62
747.856	11.62
748.606	11.62
749.355	9.62
750.105	8.62
750.854	10.62
751.603	10.62
752.353	11.62
753.102	10.62
753.851	12.62
754.6	10.62
755.349	10.62
756.098	10.62
756.847	11.62
757.595	10.62
758.344	11.62
759.093	12.62
759.841	12.62
760.589	12.62
761.338	12.62
762.086	11.62
762.834	13.62
763.582	11.62
764.331	11.62
765.079	13.62
765.826	11.62
766.574	12.62
767.322	14.62
768.07	14.62
768.817	13.62
769.565	12.62
770.312	13.62
771.06	12.62
771.807	13.62
772.554	14.62
773.302	13.62
774.049	13.62
774.796	12.62
775.543	14.62
776.29	12.62
777.036	15.62
777.783	12.62
778.53	14.62
779.276	12.62
780.023	14.62
780.769	12.62
781.516	16.62
782.262	14.62
783.008	17.62
783.754	13.62
784.5	15.62
785.246	14.62
785.992	16.62
786.738	16.62
787.484	17.62
788.23	14.62
788.975	13.62
789.721	14.62
790.466	14.62
791.212	15.62
791.957	17.62
792.702	13.62
793.447	14.62
794.193	12.62
794.938	14.62
795.683	10.62
796.427	14.62
797.172	10.62
797.917	14.62
798.662	11.62
799.406	10.62
800.151	13.62
800.895	12.62
801.64	10.62
802.384	12.62
803.128	9.62
803.872	11.62
804.616	12.62
805.36	13.62
806.104	12.62
806.848	10.62
807.592	10.62
808.336	10.62
809.079	10.62
809.823	8.62
810.566	7.62
811.31	9.62
812.053	11.62
812.796	7.62
813.539	7.62
814.283	7.62
815.026	9.62
815.769	8.62
816.511	8.62
817.254	8.62
817.997	6.62
818.74	8.62
819.482	7.62
820.225	7.62
820.967	6.62
821.71	8.62
822.452	6.62
823.194	5.62
823.936	6.62
824.678	6.62
825.42	6.62
826.162	9.62
826.904	7.62
827.646	6.62
828.388	5.62
829.129	6.62
829.871	4.62
830.612	6.62
831.354	6.62
832.095	5.62
832.836	6.62
833.577	4.62
834.319	5.62
835.06	5.62
835.801	5.62
836.542	4.62
837.282	5.62
838.023	8.62
838.764	5.62
839.504	4.62
840.245	4.62
840.985	5.62
841.726	5.62
842.466	3.62
843.206	4.62
843.946	4.62
844.687	4.62
845.427	8.62
846.166	7.62
846.906	6.62
847.646	1.62
848.386	6.62
849.125	2.62
849.865	3.62
850.605	4.62
851.344	4.62
852.083	2.62
852.823	3.62
853.562	3.62
854.301	3.62
855.04	4.62
855.779	3.62
856.518	2.62
857.257	5.62
857.995	2.62
858.734	4.62
859.473	2.62
860.211	2.62
860.95	2.62
861.688	1.62
862.426	0.62
863.165	4.62
863.903	2.62
864.641	0.62
865.379	3.62
866.117	3.62
866.855	2.62
867.593	2.62
868.33	1.62
869.068	2.62
869.806	4.62
870.543	0.62
871.28	3.62
872.018	3.62
872.755	2.62
873.492	0.62
874.229	2.62
874.967	1.62
875.703	-0.38
876.44	1.62
877.177	1.62
877.914	2.62
878.651	0.62
879.387	0.62
880.124	0.62
880.86	-0.38
881.597	2.62
882.333	2.62
883.069	1.62
883.806	3.62
884.542	-1.38
885.278	0.62
886.014	1.62
886.749	1.62
887.485	-0.38
888.221	2.62
888.957	1.62
889.692	0.62
890.428	-0.38
891.163	0.62
891.899	1.62
892.634	0.62
893.369	-1.38
894.104	-1.38
894.839	1.62
895.574	-0.38
896.309	1.62
897.044	3.62
897.779	-0.38
898.514	0.62
899.248	0.62
899.983	-0.38
900.717	2.62
901.452	1.62
902.186	-0.38
902.92	1.62
903.654	-1.38
904.389	1.62
905.123	2.62
905.857	1.62
906.59	-0.38
907.324	-1.38
908.058	0.62
908.792	0.62
909.525	1.62
910.259	0.62
910.992	0.62
911.726	1.62
912.459	-0.38
913.192	-0.38
913.925	0.62
914.658	-0.38
915.391	-0.38
916.124	2.62
916.857	-0.38
917.59	0.62
918.323	1.62
919.055	-1.38
919.788	-1.38
920.521	-1.38
921.253	-0.38
921.985	2.62
922.718	1.62
923.45	-1.38
924.182	-1.38
924.914	1.62
925.646	-0.38
926.378	-2.38
927.11	0.62
927.841	-1.38
928.573	1.62
929.305	1.62
930.036	0.62
930.768	0.62
931.499	1.62
932.23	1.62
932.962	-0.38
933.693	-0.38
934.424	-2.38
935.155	-1.38
935.886	0.62
936.617	0.62
937.348	-0.38
938.078	0.62
938.809	0.62
939.54	0.62
940.27	-0.38
941.001	0.62
941.731	1.62
942.461	-0.38
943.191	-0.38
943.922	-0.38
944.652	1.62
945.382	0.62
946.112	1.62
946.841	1.62
947.571	-2.38
948.301	1.62
949.031	0.62
949.76	0.62
950.49	-0.38
951.219	-1.38
951.948	-1.38
952.678	-1.38
953.407	2.62
954.136	1.62
954.865	-0.38
955.594	1.62
956.323	-2.38
957.052	0.62
957.78	0.62
958.509	0.62
959.238	0.62
959.966	-0.38
960.695	-0.38
961.423	0.62
962.151	-1.38
962.88	-0.38
963.608	0.62
964.336	0.62
965.064	2.62
965.792	0.62
966.52	-0.38
967.247	-0.38
967.975	0.62
968.703	-0.38
969.43	-1.38
970.158	0.62
970.885	2.62
971.613	1.62
972.34	-0.38
973.067	0.62
973.794	0.62
974.521	-0.38
975.248	0.62
975.975	0.62
976.702	-0.38
977.429	0.62
978.156	1.62
978.882	1.62
979.609	-0.38
980.335	-1.38
981.062	0.62
981.788	0.62
982.514	-0.38
983.24	-0.38
983.967	-2.38
984.693	-2.38
985.419	-0.38
986.144	-0.38
986.87	-3.38
987.596	1.62
988.322	1.62
989.047	-0.38
989.773	2.62
990.498	-1.38
991.224	-1.38
991.949	0.62
992.674	0.62
993.399	0.62
994.124	-1.38
994.849	1.62
995.574	-1.38
996.299	0.62
997.024	-0.38
997.749	0.62
998.473	0.62
999.198	0.62
999.922	-0.38
1000.647	0.62
1001.371	1.62
1002.095	-1.38
1002.82	-0.38
1003.544	-1.38
1004.268	4.62
1004.992	2.62
1005.716	2.62
1006.439	4.62
1007.163	4.62
1007.887	4.62
1008.611	-1.38
1009.334	-2.38
1010.058	-1.38
1010.781	-0.38
1011.504	0.62
1012.228	-0.38
1012.951	0.62
1013.674	0.62
1014.397	-0.38
1015.12	0.62
