节点500_705_QEPB04081__336__20-50-43-562.txt的数据

Date: Wed Nov 12 20:50:43 CST 2025
User: PC
Spectrometer: QEPB0408
触发模式: 0
积分时间 (秒): 1.000000E-2
Scans to average: 1
启用暗噪声校正: true
启用非线性校正: false
滑动平均宽度: 0
X轴模式: Wavelengths
Number of Pixels in Spectrum: 1044
>>>>>Begin Spectral Data<<<<<
220.843	3.88
221.644	5.88
222.444	6.88
223.244	4.88
224.045	3.88
224.845	6.88
225.645	5.88
226.445	6.88
227.245	7.88
228.045	7.88
228.845	6.88
229.645	7.88
230.444	8.88
231.244	5.88
232.043	6.88
232.843	5.88
233.642	8.88
234.442	10.88
235.241	10.88
236.04	10.88
236.839	10.88
237.638	9.88
238.437	10.88
239.236	11.88
240.035	8.88
240.833	10.88
241.632	8.88
242.43	10.88
243.229	11.88
244.027	15.88
244.826	11.88
245.624	11.88
246.422	16.88
247.22	14.88
248.018	14.88
248.816	13.88
249.614	12.88
250.412	14.88
251.21	16.88
252.007	18.88
252.805	16.88
253.602	17.88
254.4	17.88
255.197	18.88
255.994	19.88
256.791	18.88
257.589	18.88
258.386	19.88
259.183	21.88
259.979	20.88
260.776	22.88
261.573	22.88
262.37	23.88
263.166	23.88
263.963	22.88
264.759	26.88
265.556	26.88
266.352	28.88
267.148	26.88
267.944	27.88
268.74	28.88
269.536	29.88
270.332	30.88
271.128	26.88
271.924	29.88
272.719	31.88
273.515	32.88
274.311	30.88
275.106	33.88
275.901	33.88
276.697	34.88
277.492	33.88
278.287	33.88
279.082	32.88
279.877	35.88
280.672	34.88
281.467	36.88
282.262	33.88
283.056	31.88
283.851	33.88
284.646	36.88
285.44	35.88
286.234	32.88
287.029	32.88
287.823	34.88
288.617	31.88
289.411	31.88
290.205	31.88
290.999	32.88
291.793	32.88
292.587	33.88
293.381	31.88
294.174	30.88
294.968	30.88
295.761	27.88
296.555	25.88
297.348	27.88
298.141	28.88
298.935	25.88
299.728	24.88
300.521	23.88
301.314	23.88
302.107	21.88
302.899	22.88
303.692	18.88
304.485	24.88
305.277	23.88
306.07	22.88
306.862	19.88
307.655	22.88
308.447	19.88
309.239	19.88
310.031	20.88
310.823	18.88
311.615	16.88
312.407	18.88
313.199	14.88
313.991	17.88
314.783	14.88
315.574	14.88
316.366	15.88
317.157	14.88
317.949	14.88
318.74	16.88
319.531	13.88
320.322	13.88
321.113	11.88
321.904	13.88
322.695	17.88
323.486	13.88
324.277	14.88
325.068	12.88
325.858	13.88
326.649	14.88
327.439	9.88
328.23	14.88
329.02	11.88
329.81	12.88
330.6	10.88
331.391	14.88
332.181	12.88
332.971	11.88
333.76	13.88
334.55	10.88
335.34	13.88
336.13	10.88
336.919	10.88
337.709	11.88
338.498	11.88
339.287	11.88
340.077	8.88
340.866	11.88
341.655	9.88
342.444	12.88
343.233	8.88
344.022	10.88
344.811	12.88
345.6	14.88
346.388	9.88
347.177	10.88
347.965	8.88
348.754	11.88
349.542	10.88
350.33	9.88
351.119	12.88
351.907	10.88
352.695	10.88
353.483	9.88
354.271	10.88
355.059	10.88
355.846	10.88
356.634	10.88
357.422	9.88
358.209	9.88
358.997	10.88
359.784	11.88
360.571	8.88
361.359	8.88
362.146	10.88
362.933	8.88
363.72	10.88
364.507	7.88
365.294	8.88
366.081	12.88
366.867	8.88
367.654	9.88
368.44	9.88
369.227	8.88
370.013	10.88
370.8	9.88
371.586	9.88
372.372	7.88
373.158	10.88
373.944	8.88
374.73	9.88
375.516	10.88
376.302	8.88
377.088	8.88
377.873	7.88
378.659	11.88
379.445	11.88
380.23	9.88
381.015	8.88
381.801	7.88
382.586	10.88
383.371	13.88
384.156	10.88
384.941	9.88
385.726	11.88
386.511	11.88
387.296	10.88
388.08	8.88
388.865	9.88
389.649	9.88
390.434	10.88
391.218	9.88
392.003	11.88
392.787	10.88
393.571	9.88
394.355	10.88
395.139	12.88
395.923	12.88
396.707	11.88
397.491	12.88
398.274	12.88
399.058	10.88
399.842	7.88
400.625	14.88
401.408	13.88
402.192	15.88
402.975	14.88
403.758	13.88
404.541	14.88
405.324	12.88
406.107	14.88
406.89	13.88
407.673	11.88
408.456	14.88
409.238	17.88
410.021	14.88
410.803	14.88
411.586	17.88
412.368	14.88
413.151	18.88
413.933	18.88
414.715	16.88
415.497	18.88
416.279	18.88
417.061	17.88
417.843	19.88
418.624	18.88
419.406	19.88
420.188	19.88
420.969	21.88
421.751	20.88
422.532	20.88
423.313	21.88
424.095	24.88
424.876	24.88
425.657	25.88
426.438	25.88
427.219	26.88
428	25.88
428.78	25.88
429.561	29.88
430.342	25.88
431.122	32.88
431.903	29.88
432.683	34.88
433.464	32.88
434.244	35.88
435.024	39.88
435.804	41.88
436.584	42.88
437.364	47.88
438.144	46.88
438.924	46.88
439.704	54.88
440.483	55.88
441.263	63.88
442.042	61.88
442.822	72.88
443.601	71.88
444.38	78.88
445.16	84.88
445.939	98.88
446.718	100.88
447.497	112.88
448.276	120.88
449.054	135.88
449.833	149.88
450.612	162.88
451.391	180.88
452.169	196.88
452.948	215.88
453.726	237.88
454.504	266.88
455.282	296.88
456.061	334.88
456.839	380.88
457.617	417.88
458.395	457.88
459.172	506.88
459.95	577.88
460.728	639.88
461.506	716.88
462.283	794.88
463.061	874.88
463.838	988.88
464.615	1114.88
465.393	1212.88
466.17	1358.88
466.947	1488.88
467.724	1667.88
468.501	1853.88
469.278	2055.88
470.055	2252.88
470.831	2505.88
471.608	2751.88
472.385	3046.88
473.161	3356.88
473.938	3690.88
474.714	4045.88
475.49	4458.88
476.266	4868.88
477.043	5348.88
477.819	5846.88
478.595	6380.88
479.371	6955.88
480.146	7604.88
480.922	8298.88
481.698	9011.88
482.473	9791.88
483.249	10627.88
484.024	11596.88
484.8	12574.88
485.575	13602.88
486.35	14758.88
487.126	16021.88
487.901	17289.88
488.676	18626.88
489.451	20107.88
490.225	21617.88
491	23213.88
491.775	24796.88
492.55	26495.88
493.324	28192.88
494.099	30018.88
494.873	31803.88
495.647	33573.88
496.422	35306.88
497.196	37135.88
497.97	38716.88
498.744	40275.88
499.518	41834.88
500.292	43199.88
501.066	44270.88
501.839	45199.88
502.613	45974.88
503.387	46604.88
504.16	46999.88
504.934	47239.88
505.707	47092.88
506.48	46802.88
507.253	46255.88
508.027	45612.88
508.8	44627.88
509.573	43594.88
510.346	42456.88
511.118	41458.88
511.891	40327.88
512.664	38794.88
513.437	37328.88
514.209	35961.88
514.982	34569.88
515.754	33099.88
516.526	31726.88
517.298	30574.88
518.071	29285.88
518.843	28186.88
519.615	27009.88
520.387	26006.88
521.159	24972.88
521.93	23885.88
522.702	22918.88
523.474	21970.88
524.245	21037.88
525.017	20055.88
525.788	19299.88
526.56	18408.88
527.331	17595.88
528.102	16725.88
528.873	15880.88
529.644	15174.88
530.415	14466.88
531.186	13770.88
531.957	13010.88
532.728	12336.88
533.498	11742.88
534.269	11068.88
535.039	10499.88
535.81	9928.88
536.58	9397.88
537.351	8878.88
538.121	8400.88
538.891	7974.88
539.661	7551.88
540.431	7115.88
541.201	6767.88
541.971	6403.88
542.741	6060.88
543.51	5764.88
544.28	5480.88
545.05	5230.88
545.819	4993.88
546.588	4752.88
547.358	4518.88
548.127	4318.88
548.896	4102.88
549.665	3860.88
550.434	3664.88
551.203	3492.88
551.972	3309.88
552.741	3114.88
553.51	2935.88
554.278	2772.88
555.047	2618.88
555.815	2505.88
556.584	2356.88
557.352	2220.88
558.121	2090.88
558.889	1972.88
559.657	1864.88
560.425	1767.88
561.193	1672.88
561.961	1591.88
562.729	1499.88
563.496	1408.88
564.264	1349.88
565.032	1276.88
565.799	1207.88
566.567	1144.88
567.334	1076.88
568.101	1011.88
568.869	948.88
569.636	902.88
570.403	854.88
571.17	807.88
571.937	752.88
572.704	721.88
573.471	668.88
574.237	640.88
575.004	601.88
575.771	567.88
576.537	533.88
577.303	506.88
578.07	482.88
578.836	451.88
579.602	427.88
580.368	409.88
581.134	387.88
581.9	361.88
582.666	347.88
583.432	328.88
584.198	314.88
584.964	300.88
585.729	275.88
586.495	257.88
587.26	254.88
588.025	242.88
588.791	227.88
589.556	220.88
590.321	203.88
591.086	194.88
591.851	186.88
592.616	178.88
593.381	168.88
594.146	157.88
594.911	154.88
595.675	146.88
596.44	137.88
597.204	134.88
597.969	128.88
598.733	122.88
599.497	117.88
600.261	116.88
601.025	105.88
601.79	103.88
602.553	99.88
603.317	94.88
604.081	90.88
604.845	84.88
605.609	86.88
606.372	79.88
607.136	77.88
607.899	79.88
608.662	73.88
609.426	70.88
610.189	64.88
610.952	63.88
611.715	62.88
612.478	59.88
613.241	57.88
614.004	55.88
614.767	52.88
615.529	53.88
616.292	49.88
617.055	52.88
617.817	45.88
618.579	46.88
619.342	41.88
620.104	45.88
620.866	40.88
621.628	36.88
622.39	37.88
623.152	37.88
623.914	35.88
624.676	35.88
625.438	33.88
626.199	29.88
626.961	33.88
627.722	35.88
628.484	29.88
629.245	27.88
630.006	26.88
630.768	26.88
631.529	25.88
632.29	21.88
633.051	24.88
633.812	24.88
634.573	22.88
635.333	24.88
636.094	21.88
636.855	25.88
637.615	20.88
638.376	23.88
639.136	20.88
639.896	20.88
640.657	21.88
641.417	18.88
642.177	17.88
642.937	14.88
643.697	14.88
644.457	16.88
645.216	13.88
645.976	16.88
646.736	14.88
647.495	16.88
648.255	15.88
649.014	17.88
649.774	16.88
650.533	14.88
651.292	15.88
652.051	14.88
652.81	12.88
653.569	12.88
654.328	13.88
655.087	12.88
655.846	12.88
656.604	12.88
657.363	12.88
658.121	14.88
658.88	11.88
659.638	11.88
660.397	10.88
661.155	10.88
661.913	9.88
662.671	9.88
663.429	8.88
664.187	12.88
664.945	9.88
665.703	10.88
666.46	11.88
667.218	9.88
667.976	8.88
668.733	9.88
669.49	9.88
670.248	11.88
671.005	11.88
671.762	7.88
672.519	8.88
673.276	9.88
674.033	9.88
674.79	7.88
675.547	8.88
676.304	7.88
677.06	7.88
677.817	8.88
678.574	6.88
679.33	8.88
680.086	4.88
680.843	7.88
681.599	8.88
682.355	9.88
683.111	7.88
683.867	7.88
684.623	6.88
685.379	6.88
686.135	6.88
686.89	5.88
687.646	7.88
688.402	6.88
689.157	8.88
689.912	9.88
690.668	6.88
691.423	6.88
692.178	7.88
692.933	8.88
693.688	7.88
694.443	6.88
695.198	8.88
695.953	6.88
696.708	8.88
697.462	9.88
698.217	8.88
698.972	6.88
699.726	6.88
700.48	8.88
701.235	5.88
701.989	6.88
702.743	7.88
703.497	8.88
704.251	5.88
705.005	5.88
705.759	6.88
706.513	4.88
707.266	8.88
708.02	6.88
708.774	6.88
709.527	5.88
710.28	7.88
711.034	7.88
711.787	5.88
712.54	4.88
713.293	9.88
714.046	6.88
714.799	6.88
715.552	5.88
716.305	6.88
717.058	7.88
717.81	9.88
718.563	7.88
719.315	5.88
720.068	8.88
720.82	4.88
721.573	10.88
722.325	10.88
723.077	6.88
723.829	9.88
724.581	7.88
725.333	8.88
726.085	7.88
726.836	9.88
727.588	8.88
728.34	8.88
729.091	9.88
729.843	7.88
730.594	8.88
731.346	7.88
732.097	9.88
732.848	7.88
733.599	6.88
734.35	8.88
735.101	8.88
735.852	9.88
736.603	8.88
737.354	8.88
738.104	6.88
738.855	8.88
739.605	10.88
740.356	8.88
741.106	8.88
741.856	9.88
742.607	9.88
743.357	10.88
744.107	11.88
744.857	9.88
745.607	12.88
746.357	12.88
747.106	8.88
747.856	9.88
748.606	11.88
749.355	11.88
750.105	10.88
750.854	9.88
751.603	9.88
752.353	9.88
753.102	13.88
753.851	9.88
754.6	9.88
755.349	12.88
756.098	9.88
756.847	10.88
757.595	10.88
758.344	9.88
759.093	11.88
759.841	12.88
760.589	12.88
761.338	11.88
762.086	11.88
762.834	12.88
763.582	9.88
764.331	14.88
765.079	12.88
765.826	10.88
766.574	12.88
767.322	12.88
768.07	13.88
768.817	15.88
769.565	14.88
770.312	13.88
771.06	13.88
771.807	15.88
772.554	13.88
773.302	16.88
774.049	15.88
774.796	16.88
775.543	17.88
776.29	13.88
777.036	16.88
777.783	14.88
778.53	14.88
779.276	14.88
780.023	15.88
780.769	15.88
781.516	15.88
782.262	16.88
783.008	14.88
783.754	15.88
784.5	15.88
785.246	13.88
785.992	16.88
786.738	13.88
787.484	17.88
788.23	14.88
788.975	18.88
789.721	16.88
790.466	18.88
791.212	15.88
791.957	15.88
792.702	18.88
793.447	13.88
794.193	12.88
794.938	14.88
795.683	11.88
796.427	12.88
797.172	12.88
797.917	12.88
798.662	12.88
799.406	12.88
800.151	14.88
800.895	11.88
801.64	11.88
802.384	12.88
803.128	10.88
803.872	12.88
804.616	9.88
805.36	10.88
806.104	10.88
806.848	11.88
807.592	10.88
808.336	10.88
809.079	10.88
809.823	9.88
810.566	6.88
811.31	11.88
812.053	9.88
812.796	10.88
813.539	11.88
814.283	7.88
815.026	9.88
815.769	7.88
816.511	9.88
817.254	5.88
817.997	10.88
818.74	8.88
819.482	6.88
820.225	8.88
820.967	6.88
821.71	7.88
822.452	6.88
823.194	7.88
823.936	4.88
824.678	4.88
825.42	8.88
826.162	8.88
826.904	8.88
827.646	8.88
828.388	7.88
829.129	7.88
829.871	4.88
830.612	5.88
831.354	4.88
832.095	6.88
832.836	4.88
833.577	5.88
834.319	7.88
835.06	7.88
835.801	3.88
836.542	4.88
837.282	5.88
838.023	4.88
838.764	3.88
839.504	5.88
840.245	4.88
840.985	5.88
841.726	4.88
842.466	5.88
843.206	5.88
843.946	4.88
844.687	5.88
845.427	3.88
846.166	4.88
846.906	3.88
847.646	5.88
848.386	4.88
849.125	3.88
849.865	4.88
850.605	2.88
851.344	6.88
852.083	3.88
852.823	5.88
853.562	2.88
854.301	4.88
855.04	3.88
855.779	5.88
856.518	4.88
857.257	3.88
857.995	5.88
858.734	1.88
859.473	1.88
860.211	2.88
860.95	3.88
861.688	2.88
862.426	3.88
863.165	4.88
863.903	1.88
864.641	1.88
865.379	3.88
866.117	1.88
866.855	0.88
867.593	2.88
868.33	1.88
869.068	1.88
869.806	3.88
870.543	2.88
871.28	1.88
872.018	3.88
872.755	0.88
873.492	0.88
874.229	2.88
874.967	2.88
875.703	1.88
876.44	3.88
877.177	2.88
877.914	1.88
878.651	1.88
879.387	1.88
880.124	2.88
880.86	1.88
881.597	0.88
882.333	1.88
883.069	0.88
883.806	-0.12
884.542	0.88
885.278	4.88
886.014	1.88
886.749	2.88
887.485	0.88
888.221	0.88
888.957	1.88
889.692	0.88
890.428	0.88
891.163	0.88
891.899	1.88
892.634	-1.12
893.369	1.88
894.104	1.88
894.839	-0.12
895.574	1.88
896.309	0.88
897.044	-1.12
897.779	0.88
898.514	0.88
899.248	0.88
899.983	1.88
900.717	0.88
901.452	-0.12
902.186	-1.12
902.92	2.88
903.654	2.88
904.389	0.88
905.123	-0.12
905.857	-0.12
906.59	0.88
907.324	0.88
908.058	0.88
908.792	-1.12
909.525	-0.12
910.259	2.88
910.992	1.88
911.726	0.88
912.459	-1.12
913.192	1.88
913.925	1.88
914.658	-1.12
915.391	1.88
916.124	1.88
916.857	-1.12
917.59	-1.12
918.323	1.88
919.055	-1.12
919.788	1.88
920.521	1.88
921.253	0.88
921.985	-0.12
922.718	0.88
923.45	0.88
924.182	0.88
924.914	-0.12
925.646	1.88
926.378	0.88
927.11	-1.12
927.841	-1.12
928.573	-1.12
929.305	0.88
930.036	-0.12
930.768	0.88
931.499	-1.12
932.23	0.88
932.962	-1.12
933.693	-1.12
934.424	2.88
935.155	-1.12
935.886	-0.12
936.617	-1.12
937.348	-1.12
938.078	0.88
938.809	-2.12
939.54	1.88
940.27	0.88
941.001	0.88
941.731	-1.12
942.461	1.88
943.191	1.88
943.922	0.88
944.652	2.88
945.382	-1.12
946.112	-1.12
946.841	-0.12
947.571	0.88
948.301	1.88
949.031	-1.12
949.76	-0.12
950.49	2.88
951.219	-0.12
951.948	0.88
952.678	1.88
953.407	-1.12
954.136	0.88
954.865	1.88
955.594	2.88
956.323	-1.12
957.052	0.88
957.78	-1.12
958.509	-0.12
959.238	-1.12
959.966	0.88
960.695	1.88
961.423	0.88
962.151	-0.12
962.88	-1.12
963.608	1.88
964.336	1.88
965.064	-1.12
965.792	0.88
966.52	-1.12
967.247	1.88
967.975	2.88
968.703	1.88
969.43	-1.12
970.158	-1.12
970.885	0.88
971.613	-1.12
972.34	-1.12
973.067	-2.12
973.794	-0.12
974.521	2.88
975.248	0.88
975.975	0.88
976.702	1.88
977.429	1.88
978.156	0.88
978.882	-1.12
979.609	-0.12
980.335	2.88
981.062	-1.12
981.788	-0.12
982.514	-0.12
983.24	0.88
983.967	-1.12
984.693	0.88
985.419	-0.12
986.144	0.88
986.87	0.88
987.596	-0.12
988.322	0.88
989.047	-0.12
989.773	-0.12
990.498	3.88
991.224	-1.12
991.949	1.88
992.674	-2.12
993.399	1.88
994.124	-0.12
994.849	-1.12
995.574	0.88
996.299	-1.12
997.024	-2.12
997.749	-1.12
998.473	0.88
999.198	-0.12
999.922	-1.12
1000.647	0.88
1001.371	1.88
1002.095	-2.12
1002.82	-0.12
1003.544	-1.12
1004.268	3.88
1004.992	3.88
1005.716	4.88
1006.439	1.88
1007.163	3.88
1007.887	2.88
1008.611	-2.12
1009.334	-0.12
1010.058	-1.12
1010.781	-0.12
1011.504	-2.12
1012.228	-0.12
1012.951	0.88
1013.674	0.88
1014.397	-0.12
1015.12	-0.12
