节点500_705_QEPB04081__192__20-48-58-466.txt的数据

Date: Wed Nov 12 20:48:58 CST 2025
User: PC
Spectrometer: QEPB0408
触发模式: 0
积分时间 (秒): 1.000000E-2
Scans to average: 1
启用暗噪声校正: true
启用非线性校正: false
滑动平均宽度: 0
X轴模式: Wavelengths
Number of Pixels in Spectrum: 1044
>>>>>Begin Spectral Data<<<<<
220.843	5.12
221.644	7.12
222.444	7.12
223.244	1.12
224.045	6.12
224.845	6.12
225.645	7.12
226.445	6.12
227.245	6.12
228.045	9.12
228.845	9.12
229.645	10.12
230.444	10.12
231.244	9.12
232.043	8.12
232.843	10.12
233.642	9.12
234.442	11.12
235.241	10.12
236.04	10.12
236.839	9.12
237.638	9.12
238.437	12.12
239.236	11.12
240.035	14.12
240.833	13.12
241.632	13.12
242.43	12.12
243.229	11.12
244.027	13.12
244.826	14.12
245.624	15.12
246.422	16.12
247.22	12.12
248.018	14.12
248.816	16.12
249.614	16.12
250.412	15.12
251.21	18.12
252.007	17.12
252.805	15.12
253.602	19.12
254.4	20.12
255.197	19.12
255.994	17.12
256.791	21.12
257.589	24.12
258.386	23.12
259.183	22.12
259.979	25.12
260.776	24.12
261.573	25.12
262.37	22.12
263.166	31.12
263.963	26.12
264.759	27.12
265.556	30.12
266.352	28.12
267.148	30.12
267.944	31.12
268.74	30.12
269.536	27.12
270.332	32.12
271.128	32.12
271.924	31.12
272.719	32.12
273.515	34.12
274.311	33.12
275.106	35.12
275.901	34.12
276.697	35.12
277.492	36.12
278.287	37.12
279.082	35.12
279.877	35.12
280.672	39.12
281.467	34.12
282.262	35.12
283.056	35.12
283.851	36.12
284.646	33.12
285.44	34.12
286.234	33.12
287.029	33.12
287.823	35.12
288.617	33.12
289.411	29.12
290.205	34.12
290.999	30.12
291.793	32.12
292.587	31.12
293.381	31.12
294.174	30.12
294.968	29.12
295.761	30.12
296.555	29.12
297.348	25.12
298.141	30.12
298.935	28.12
299.728	27.12
300.521	26.12
301.314	26.12
302.107	22.12
302.899	25.12
303.692	24.12
304.485	22.12
305.277	24.12
306.07	22.12
306.862	24.12
307.655	23.12
308.447	21.12
309.239	24.12
310.031	20.12
310.823	18.12
311.615	20.12
312.407	17.12
313.199	16.12
313.991	18.12
314.783	16.12
315.574	15.12
316.366	15.12
317.157	18.12
317.949	14.12
318.74	13.12
319.531	16.12
320.322	15.12
321.113	15.12
321.904	15.12
322.695	15.12
323.486	12.12
324.277	13.12
325.068	12.12
325.858	14.12
326.649	11.12
327.439	11.12
328.23	10.12
329.02	13.12
329.81	11.12
330.6	14.12
331.391	15.12
332.181	14.12
332.971	12.12
333.76	13.12
334.55	13.12
335.34	13.12
336.13	11.12
336.919	13.12
337.709	12.12
338.498	12.12
339.287	12.12
340.077	14.12
340.866	13.12
341.655	14.12
342.444	14.12
343.233	13.12
344.022	13.12
344.811	12.12
345.6	9.12
346.388	13.12
347.177	11.12
347.965	11.12
348.754	11.12
349.542	11.12
350.33	11.12
351.119	10.12
351.907	14.12
352.695	12.12
353.483	11.12
354.271	13.12
355.059	10.12
355.846	11.12
356.634	14.12
357.422	12.12
358.209	10.12
358.997	11.12
359.784	10.12
360.571	8.12
361.359	11.12
362.146	11.12
362.933	10.12
363.72	13.12
364.507	8.12
365.294	7.12
366.081	14.12
366.867	10.12
367.654	9.12
368.44	8.12
369.227	10.12
370.013	11.12
370.8	11.12
371.586	10.12
372.372	11.12
373.158	8.12
373.944	10.12
374.73	11.12
375.516	9.12
376.302	11.12
377.088	10.12
377.873	10.12
378.659	11.12
379.445	9.12
380.23	12.12
381.015	10.12
381.801	9.12
382.586	13.12
383.371	9.12
384.156	11.12
384.941	13.12
385.726	10.12
386.511	11.12
387.296	10.12
388.08	11.12
388.865	12.12
389.649	14.12
390.434	13.12
391.218	12.12
392.003	14.12
392.787	11.12
393.571	15.12
394.355	12.12
395.139	14.12
395.923	13.12
396.707	12.12
397.491	13.12
398.274	14.12
399.058	15.12
399.842	13.12
400.625	13.12
401.408	16.12
402.192	14.12
402.975	12.12
403.758	15.12
404.541	15.12
405.324	15.12
406.107	15.12
406.89	15.12
407.673	15.12
408.456	16.12
409.238	15.12
410.021	18.12
410.803	16.12
411.586	14.12
412.368	17.12
413.151	20.12
413.933	17.12
414.715	21.12
415.497	17.12
416.279	19.12
417.061	19.12
417.843	18.12
418.624	23.12
419.406	23.12
420.188	20.12
420.969	23.12
421.751	22.12
422.532	21.12
423.313	24.12
424.095	23.12
424.876	24.12
425.657	25.12
426.438	24.12
427.219	27.12
428	29.12
428.78	27.12
429.561	29.12
430.342	31.12
431.122	31.12
431.903	31.12
432.683	35.12
433.464	37.12
434.244	40.12
435.024	40.12
435.804	42.12
436.584	42.12
437.364	45.12
438.144	50.12
438.924	52.12
439.704	52.12
440.483	60.12
441.263	59.12
442.042	65.12
442.822	68.12
443.601	71.12
444.38	79.12
445.16	86.12
445.939	91.12
446.718	100.12
447.497	107.12
448.276	120.12
449.054	127.12
449.833	141.12
450.612	152.12
451.391	175.12
452.169	190.12
452.948	211.12
453.726	226.12
454.504	256.12
455.282	292.12
456.061	315.12
456.839	353.12
457.617	392.12
458.395	445.12
459.172	491.12
459.95	559.12
460.728	621.12
461.506	688.12
462.283	763.12
463.061	852.12
463.838	970.12
464.615	1070.12
465.393	1183.12
466.17	1335.12
466.947	1485.12
467.724	1636.12
468.501	1823.12
469.278	2024.12
470.055	2257.12
470.831	2475.12
471.608	2750.12
472.385	3029.12
473.161	3355.12
473.938	3695.12
474.714	4083.12
475.49	4477.12
476.266	4941.12
477.043	5405.12
477.819	5916.12
478.595	6494.12
479.371	7086.12
480.146	7770.12
480.922	8499.12
481.698	9285.12
482.473	10110.12
483.249	11011.12
484.024	11983.12
484.8	13101.12
485.575	14153.12
486.35	15407.12
487.126	16726.12
487.901	18107.12
488.676	19508.12
489.451	21176.12
490.225	22795.12
491	24442.12
491.775	26147.12
492.55	27945.12
493.324	29859.12
494.099	31626.12
494.873	33589.12
495.647	35457.12
496.422	37349.12
497.196	39142.12
497.97	40815.12
498.744	42313.12
499.518	43978.12
500.292	45292.12
501.066	46318.12
501.839	47149.12
502.613	47784.12
503.387	48319.12
504.16	48624.12
504.934	48671.12
505.707	48371.12
506.48	47900.12
507.253	47157.12
508.027	46300.12
508.8	45297.12
509.573	44052.12
510.346	42871.12
511.118	41677.12
511.891	40332.12
512.664	38707.12
513.437	37150.12
514.209	35740.12
514.982	34332.12
515.754	32916.12
516.526	31515.12
517.298	30259.12
518.071	29027.12
518.843	27829.12
519.615	26737.12
520.387	25753.12
521.159	24655.12
521.93	23651.12
522.702	22599.12
523.474	21653.12
524.245	20772.12
525.017	19739.12
525.788	18953.12
526.56	18139.12
527.331	17298.12
528.102	16353.12
528.873	15572.12
529.644	14800.12
530.415	14111.12
531.186	13441.12
531.957	12725.12
532.728	12024.12
533.498	11409.12
534.269	10786.12
535.039	10149.12
535.81	9625.12
536.58	9128.12
537.351	8606.12
538.121	8187.12
538.891	7709.12
539.661	7315.12
540.431	6893.12
541.201	6598.12
541.971	6210.12
542.741	5934.12
543.51	5587.12
544.28	5345.12
545.05	5050.12
545.819	4871.12
546.588	4611.12
547.358	4408.12
548.127	4150.12
548.896	3964.12
549.665	3751.12
550.434	3541.12
551.203	3339.12
551.972	3187.12
552.741	3019.12
553.51	2840.12
554.278	2683.12
555.047	2516.12
555.815	2410.12
556.584	2277.12
557.352	2140.12
558.121	2020.12
558.889	1894.12
559.657	1788.12
560.425	1693.12
561.193	1608.12
561.961	1528.12
562.729	1443.12
563.496	1366.12
564.264	1295.12
565.032	1220.12
565.799	1155.12
566.567	1099.12
567.334	1036.12
568.101	979.12
568.869	924.12
569.636	859.12
570.403	828.12
571.17	766.12
571.937	723.12
572.704	692.12
573.471	659.12
574.237	617.12
575.004	572.12
575.771	548.12
576.537	517.12
577.303	488.12
578.07	457.12
578.836	435.12
579.602	412.12
580.368	386.12
581.134	373.12
581.9	351.12
582.666	340.12
583.432	316.12
584.198	300.12
584.964	289.12
585.729	275.12
586.495	262.12
587.26	245.12
588.025	232.12
588.791	225.12
589.556	209.12
590.321	198.12
591.086	186.12
591.851	182.12
592.616	170.12
593.381	163.12
594.146	157.12
594.911	150.12
595.675	139.12
596.44	131.12
597.204	126.12
597.969	125.12
598.733	116.12
599.497	113.12
600.261	109.12
601.025	105.12
601.79	99.12
602.553	95.12
603.317	91.12
604.081	91.12
604.845	88.12
605.609	82.12
606.372	79.12
607.136	78.12
607.899	74.12
608.662	68.12
609.426	64.12
610.189	64.12
610.952	63.12
611.715	60.12
612.478	58.12
613.241	53.12
614.004	56.12
614.767	54.12
615.529	54.12
616.292	50.12
617.055	48.12
617.817	47.12
618.579	45.12
619.342	46.12
620.104	43.12
620.866	39.12
621.628	38.12
622.39	37.12
623.152	36.12
623.914	34.12
624.676	37.12
625.438	36.12
626.199	33.12
626.961	31.12
627.722	31.12
628.484	32.12
629.245	30.12
630.006	26.12
630.768	27.12
631.529	28.12
632.29	25.12
633.051	27.12
633.812	26.12
634.573	24.12
635.333	23.12
636.094	23.12
636.855	21.12
637.615	24.12
638.376	21.12
639.136	19.12
639.896	22.12
640.657	18.12
641.417	19.12
642.177	16.12
642.937	17.12
643.697	17.12
644.457	16.12
645.216	15.12
645.976	15.12
646.736	15.12
647.495	16.12
648.255	13.12
649.014	15.12
649.774	14.12
650.533	15.12
651.292	14.12
652.051	15.12
652.81	15.12
653.569	16.12
654.328	16.12
655.087	13.12
655.846	15.12
656.604	13.12
657.363	11.12
658.121	12.12
658.88	10.12
659.638	12.12
660.397	12.12
661.155	9.12
661.913	12.12
662.671	10.12
663.429	11.12
664.187	11.12
664.945	10.12
665.703	9.12
666.46	10.12
667.218	10.12
667.976	10.12
668.733	10.12
669.49	10.12
670.248	10.12
671.005	8.12
671.762	8.12
672.519	11.12
673.276	8.12
674.033	9.12
674.79	9.12
675.547	8.12
676.304	10.12
677.06	8.12
677.817	9.12
678.574	7.12
679.33	9.12
680.086	7.12
680.843	11.12
681.599	9.12
682.355	9.12
683.111	8.12
683.867	7.12
684.623	9.12
685.379	7.12
686.135	7.12
686.89	6.12
687.646	7.12
688.402	8.12
689.157	10.12
689.912	10.12
690.668	9.12
691.423	7.12
692.178	9.12
692.933	8.12
693.688	9.12
694.443	6.12
695.198	7.12
695.953	8.12
696.708	8.12
697.462	8.12
698.217	7.12
698.972	7.12
699.726	7.12
700.48	5.12
701.235	9.12
701.989	9.12
702.743	8.12
703.497	9.12
704.251	8.12
705.005	6.12
705.759	8.12
706.513	7.12
707.266	8.12
708.02	7.12
708.774	8.12
709.527	8.12
710.28	9.12
711.034	8.12
711.787	10.12
712.54	8.12
713.293	8.12
714.046	9.12
714.799	8.12
715.552	9.12
716.305	8.12
717.058	9.12
717.81	5.12
718.563	9.12
719.315	9.12
720.068	9.12
720.82	11.12
721.573	8.12
722.325	6.12
723.077	9.12
723.829	7.12
724.581	9.12
725.333	8.12
726.085	10.12
726.836	9.12
727.588	9.12
728.34	9.12
729.091	10.12
729.843	8.12
730.594	11.12
731.346	7.12
732.097	9.12
732.848	10.12
733.599	10.12
734.35	9.12
735.101	8.12
735.852	10.12
736.603	9.12
737.354	12.12
738.104	9.12
738.855	11.12
739.605	9.12
740.356	9.12
741.106	11.12
741.856	11.12
742.607	9.12
743.357	9.12
744.107	11.12
744.857	11.12
745.607	8.12
746.357	13.12
747.106	9.12
747.856	13.12
748.606	10.12
749.355	14.12
750.105	9.12
750.854	10.12
751.603	12.12
752.353	11.12
753.102	13.12
753.851	14.12
754.6	11.12
755.349	12.12
756.098	10.12
756.847	13.12
757.595	10.12
758.344	10.12
759.093	12.12
759.841	11.12
760.589	15.12
761.338	14.12
762.086	14.12
762.834	14.12
763.582	13.12
764.331	11.12
765.079	14.12
765.826	17.12
766.574	15.12
767.322	13.12
768.07	13.12
768.817	15.12
769.565	15.12
770.312	16.12
771.06	13.12
771.807	16.12
772.554	17.12
773.302	14.12
774.049	16.12
774.796	14.12
775.543	16.12
776.29	17.12
777.036	13.12
777.783	17.12
778.53	18.12
779.276	15.12
780.023	19.12
780.769	17.12
781.516	14.12
782.262	16.12
783.008	15.12
783.754	17.12
784.5	15.12
785.246	17.12
785.992	15.12
786.738	18.12
787.484	15.12
788.23	16.12
788.975	17.12
789.721	15.12
790.466	15.12
791.212	13.12
791.957	17.12
792.702	16.12
793.447	13.12
794.193	14.12
794.938	14.12
795.683	16.12
796.427	15.12
797.172	13.12
797.917	13.12
798.662	10.12
799.406	14.12
800.151	14.12
800.895	12.12
801.64	12.12
802.384	9.12
803.128	14.12
803.872	9.12
804.616	10.12
805.36	11.12
806.104	10.12
806.848	10.12
807.592	11.12
808.336	10.12
809.079	10.12
809.823	12.12
810.566	11.12
811.31	10.12
812.053	10.12
812.796	8.12
813.539	7.12
814.283	10.12
815.026	8.12
815.769	10.12
816.511	8.12
817.254	8.12
817.997	6.12
818.74	11.12
819.482	7.12
820.225	6.12
820.967	7.12
821.71	5.12
822.452	8.12
823.194	8.12
823.936	6.12
824.678	9.12
825.42	8.12
826.162	7.12
826.904	6.12
827.646	8.12
828.388	6.12
829.129	5.12
829.871	6.12
830.612	5.12
831.354	3.12
832.095	5.12
832.836	4.12
833.577	8.12
834.319	4.12
835.06	4.12
835.801	6.12
836.542	6.12
837.282	6.12
838.023	4.12
838.764	6.12
839.504	6.12
840.245	7.12
840.985	6.12
841.726	6.12
842.466	5.12
843.206	5.12
843.946	4.12
844.687	3.12
845.427	8.12
846.166	3.12
846.906	6.12
847.646	3.12
848.386	6.12
849.125	6.12
849.865	6.12
850.605	5.12
851.344	5.12
852.083	4.12
852.823	7.12
853.562	4.12
854.301	2.12
855.04	5.12
855.779	5.12
856.518	4.12
857.257	4.12
857.995	5.12
858.734	2.12
859.473	5.12
860.211	5.12
860.95	4.12
861.688	3.12
862.426	1.12
863.165	3.12
863.903	5.12
864.641	2.12
865.379	2.12
866.117	1.12
866.855	3.12
867.593	2.12
868.33	3.12
869.068	3.12
869.806	-0.88
870.543	3.12
871.28	3.12
872.018	2.12
872.755	1.12
873.492	3.12
874.229	3.12
874.967	3.12
875.703	3.12
876.44	-0.88
877.177	2.12
877.914	2.12
878.651	1.12
879.387	4.12
880.124	2.12
880.86	2.12
881.597	0.12
882.333	-0.88
883.069	1.12
883.806	2.12
884.542	3.12
885.278	3.12
886.014	4.12
886.749	-0.88
887.485	1.12
888.221	0.12
888.957	1.12
889.692	4.12
890.428	2.12
891.163	1.12
891.899	2.12
892.634	2.12
893.369	2.12
894.104	0.12
894.839	1.12
895.574	4.12
896.309	2.12
897.044	2.12
897.779	4.12
898.514	3.12
899.248	1.12
899.983	-0.88
900.717	1.12
901.452	3.12
902.186	4.12
902.92	-0.88
903.654	0.12
904.389	1.12
905.123	2.12
905.857	2.12
906.59	1.12
907.324	1.12
908.058	3.12
908.792	0.12
909.525	-0.88
910.259	0.12
910.992	0.12
911.726	0.12
912.459	4.12
913.192	1.12
913.925	-1.88
914.658	2.12
915.391	-0.88
916.124	0.12
916.857	0.12
917.59	2.12
918.323	-0.88
919.055	1.12
919.788	1.12
920.521	0.12
921.253	2.12
921.985	1.12
922.718	0.12
923.45	1.12
924.182	-0.88
924.914	0.12
925.646	1.12
926.378	1.12
927.11	-1.88
927.841	2.12
928.573	-0.88
929.305	-1.88
930.036	2.12
930.768	0.12
931.499	2.12
932.23	3.12
932.962	0.12
933.693	1.12
934.424	2.12
935.155	-0.88
935.886	1.12
936.617	-0.88
937.348	0.12
938.078	-0.88
938.809	0.12
939.54	1.12
940.27	1.12
941.001	1.12
941.731	0.12
942.461	0.12
943.191	2.12
943.922	2.12
944.652	-0.88
945.382	1.12
946.112	0.12
946.841	0.12
947.571	0.12
948.301	0.12
949.031	-0.88
949.76	2.12
950.49	1.12
951.219	1.12
951.948	-0.88
952.678	1.12
953.407	0.12
954.136	-1.88
954.865	4.12
955.594	0.12
956.323	3.12
957.052	2.12
957.78	0.12
958.509	2.12
959.238	0.12
959.966	1.12
960.695	-0.88
961.423	1.12
962.151	0.12
962.88	2.12
963.608	3.12
964.336	-0.88
965.064	1.12
965.792	0.12
966.52	-0.88
967.247	0.12
967.975	-0.88
968.703	0.12
969.43	-0.88
970.158	1.12
970.885	-0.88
971.613	0.12
972.34	0.12
973.067	1.12
973.794	-0.88
974.521	0.12
975.248	2.12
975.975	0.12
976.702	2.12
977.429	-0.88
978.156	-0.88
978.882	0.12
979.609	0.12
980.335	0.12
981.062	-0.88
981.788	2.12
982.514	1.12
983.24	-0.88
983.967	1.12
984.693	0.12
985.419	-0.88
986.144	0.12
986.87	-0.88
987.596	1.12
988.322	1.12
989.047	4.12
989.773	0.12
990.498	-0.88
991.224	-0.88
991.949	0.12
992.674	-0.88
993.399	1.12
994.124	2.12
994.849	2.12
995.574	-0.88
996.299	2.12
997.024	-1.88
997.749	2.12
998.473	1.12
999.198	-0.88
999.922	2.12
1000.647	-0.88
1001.371	4.12
1002.095	0.12
1002.82	-0.88
1003.544	-1.88
1004.268	6.12
1004.992	3.12
1005.716	4.12
1006.439	2.12
1007.163	4.12
1007.887	6.12
1008.611	2.12
1009.334	-0.88
1010.058	-0.88
1010.781	-0.88
1011.504	-0.88
1012.228	1.12
1012.951	-2.88
1013.674	1.12
1014.397	1.12
1015.12	-0.88
