节点500_705_QEPB04081__104__20-47-37-165.txt的数据

Date: Wed Nov 12 20:47:37 CST 2025
User: PC
Spectrometer: QEPB0408
触发模式: 0
积分时间 (秒): 1.000000E-2
Scans to average: 1
启用暗噪声校正: true
启用非线性校正: false
滑动平均宽度: 0
X轴模式: Wavelengths
Number of Pixels in Spectrum: 1044
>>>>>Begin Spectral Data<<<<<
220.843	7.88
221.644	5.88
222.444	5.88
223.244	4.88
224.045	2.88
224.845	4.88
225.645	7.88
226.445	6.88
227.245	9.88
228.045	7.88
228.845	5.88
229.645	10.88
230.444	9.88
231.244	8.88
232.043	8.88
232.843	10.88
233.642	11.88
234.442	8.88
235.241	9.88
236.04	10.88
236.839	13.88
237.638	9.88
238.437	11.88
239.236	10.88
240.035	11.88
240.833	14.88
241.632	10.88
242.43	11.88
243.229	11.88
244.027	14.88
244.826	15.88
245.624	12.88
246.422	14.88
247.22	13.88
248.018	16.88
248.816	16.88
249.614	14.88
250.412	16.88
251.21	17.88
252.007	19.88
252.805	20.88
253.602	22.88
254.4	19.88
255.197	17.88
255.994	21.88
256.791	19.88
257.589	22.88
258.386	22.88
259.183	21.88
259.979	25.88
260.776	24.88
261.573	26.88
262.37	23.88
263.166	27.88
263.963	28.88
264.759	28.88
265.556	29.88
266.352	29.88
267.148	31.88
267.944	32.88
268.74	30.88
269.536	30.88
270.332	29.88
271.128	33.88
271.924	32.88
272.719	35.88
273.515	35.88
274.311	34.88
275.106	35.88
275.901	34.88
276.697	37.88
277.492	34.88
278.287	38.88
279.082	34.88
279.877	37.88
280.672	33.88
281.467	36.88
282.262	35.88
283.056	36.88
283.851	36.88
284.646	32.88
285.44	35.88
286.234	35.88
287.029	34.88
287.823	33.88
288.617	36.88
289.411	36.88
290.205	33.88
290.999	31.88
291.793	29.88
292.587	32.88
293.381	31.88
294.174	31.88
294.968	29.88
295.761	26.88
296.555	25.88
297.348	26.88
298.141	25.88
298.935	29.88
299.728	24.88
300.521	24.88
301.314	25.88
302.107	23.88
302.899	26.88
303.692	24.88
304.485	22.88
305.277	23.88
306.07	21.88
306.862	22.88
307.655	22.88
308.447	19.88
309.239	22.88
310.031	18.88
310.823	20.88
311.615	17.88
312.407	19.88
313.199	15.88
313.991	13.88
314.783	15.88
315.574	15.88
316.366	17.88
317.157	15.88
317.949	14.88
318.74	15.88
319.531	12.88
320.322	14.88
321.113	14.88
321.904	13.88
322.695	12.88
323.486	10.88
324.277	14.88
325.068	10.88
325.858	12.88
326.649	13.88
327.439	11.88
328.23	14.88
329.02	10.88
329.81	13.88
330.6	13.88
331.391	12.88
332.181	13.88
332.971	12.88
333.76	10.88
334.55	10.88
335.34	14.88
336.13	10.88
336.919	10.88
337.709	12.88
338.498	13.88
339.287	13.88
340.077	10.88
340.866	12.88
341.655	8.88
342.444	14.88
343.233	10.88
344.022	12.88
344.811	11.88
345.6	12.88
346.388	10.88
347.177	12.88
347.965	11.88
348.754	12.88
349.542	10.88
350.33	11.88
351.119	12.88
351.907	12.88
352.695	8.88
353.483	10.88
354.271	11.88
355.059	8.88
355.846	10.88
356.634	9.88
357.422	7.88
358.209	8.88
358.997	11.88
359.784	9.88
360.571	9.88
361.359	10.88
362.146	10.88
362.933	9.88
363.72	10.88
364.507	8.88
365.294	9.88
366.081	6.88
366.867	8.88
367.654	10.88
368.44	8.88
369.227	9.88
370.013	8.88
370.8	8.88
371.586	8.88
372.372	10.88
373.158	9.88
373.944	11.88
374.73	9.88
375.516	12.88
376.302	9.88
377.088	9.88
377.873	8.88
378.659	11.88
379.445	9.88
380.23	8.88
381.015	7.88
381.801	10.88
382.586	10.88
383.371	9.88
384.156	11.88
384.941	11.88
385.726	10.88
386.511	10.88
387.296	11.88
388.08	11.88
388.865	9.88
389.649	12.88
390.434	10.88
391.218	10.88
392.003	11.88
392.787	10.88
393.571	8.88
394.355	10.88
395.139	13.88
395.923	13.88
396.707	12.88
397.491	16.88
398.274	15.88
399.058	11.88
399.842	12.88
400.625	14.88
401.408	11.88
402.192	12.88
402.975	13.88
403.758	14.88
404.541	14.88
405.324	14.88
406.107	14.88
406.89	18.88
407.673	16.88
408.456	15.88
409.238	16.88
410.021	17.88
410.803	15.88
411.586	16.88
412.368	18.88
413.151	16.88
413.933	16.88
414.715	18.88
415.497	20.88
416.279	19.88
417.061	17.88
417.843	19.88
418.624	22.88
419.406	20.88
420.188	21.88
420.969	21.88
421.751	23.88
422.532	23.88
423.313	24.88
424.095	26.88
424.876	21.88
425.657	26.88
426.438	24.88
427.219	29.88
428	24.88
428.78	29.88
429.561	28.88
430.342	28.88
431.122	32.88
431.903	33.88
432.683	30.88
433.464	32.88
434.244	38.88
435.024	36.88
435.804	40.88
436.584	42.88
437.364	45.88
438.144	47.88
438.924	47.88
439.704	53.88
440.483	55.88
441.263	55.88
442.042	62.88
442.822	66.88
443.601	71.88
444.38	76.88
445.16	85.88
445.939	90.88
446.718	94.88
447.497	107.88
448.276	116.88
449.054	124.88
449.833	137.88
450.612	153.88
451.391	169.88
452.169	182.88
452.948	204.88
453.726	228.88
454.504	248.88
455.282	285.88
456.061	308.88
456.839	350.88
457.617	389.88
458.395	434.88
459.172	477.88
459.95	539.88
460.728	596.88
461.506	670.88
462.283	752.88
463.061	837.88
463.838	935.88
464.615	1059.88
465.393	1164.88
466.17	1321.88
466.947	1452.88
467.724	1631.88
468.501	1799.88
469.278	2010.88
470.055	2222.88
470.831	2467.88
471.608	2740.88
472.385	3033.88
473.161	3372.88
473.938	3683.88
474.714	4057.88
475.49	4526.88
476.266	4929.88
477.043	5405.88
477.819	5992.88
478.595	6552.88
479.371	7200.88
480.146	7885.88
480.922	8671.88
481.698	9436.88
482.473	10362.88
483.249	11354.88
484.024	12309.88
484.8	13377.88
485.575	14583.88
486.35	15894.88
487.126	17280.88
487.901	18730.88
488.676	20229.88
489.451	21983.88
490.225	23617.88
491	25382.88
491.775	27272.88
492.55	29104.88
493.324	31063.88
494.099	32928.88
494.873	34841.88
495.647	36824.88
496.422	38870.88
497.196	40717.88
497.97	42360.88
498.744	43919.88
499.518	45478.88
500.292	46830.88
501.066	47750.88
501.839	48453.88
502.613	49088.88
503.387	49531.88
504.16	49757.88
504.934	49648.88
505.707	49293.88
506.48	48588.88
507.253	47867.88
508.027	46886.88
508.8	45690.88
509.573	44385.88
510.346	43158.88
511.118	41861.88
511.891	40479.88
512.664	38718.88
513.437	37164.88
514.209	35675.88
514.982	34214.88
515.754	32725.88
516.526	31392.88
517.298	30089.88
518.071	28909.88
518.843	27671.88
519.615	26578.88
520.387	25593.88
521.159	24491.88
521.93	23442.88
522.702	22429.88
523.474	21470.88
524.245	20545.88
525.017	19601.88
525.788	18745.88
526.56	17960.88
527.331	17116.88
528.102	16164.88
528.873	15377.88
529.644	14590.88
530.415	13923.88
531.186	13235.88
531.957	12525.88
532.728	11869.88
533.498	11152.88
534.269	10552.88
535.039	10040.88
535.81	9490.88
536.58	8970.88
537.351	8451.88
538.121	8013.88
538.891	7585.88
539.661	7155.88
540.431	6784.88
541.201	6421.88
541.971	6105.88
542.741	5772.88
543.51	5502.88
544.28	5236.88
545.05	4990.88
545.819	4736.88
546.588	4520.88
547.358	4317.88
548.127	4097.88
548.896	3867.88
549.665	3659.88
550.434	3482.88
551.203	3273.88
551.972	3128.88
552.741	2968.88
553.51	2779.88
554.278	2625.88
555.047	2463.88
555.815	2325.88
556.584	2213.88
557.352	2087.88
558.121	1959.88
558.889	1853.88
559.657	1767.88
560.425	1655.88
561.193	1570.88
561.961	1482.88
562.729	1399.88
563.496	1335.88
564.264	1242.88
565.032	1182.88
565.799	1134.88
566.567	1079.88
567.334	1004.88
568.101	953.88
568.869	898.88
569.636	846.88
570.403	803.88
571.17	753.88
571.937	715.88
572.704	678.88
573.471	643.88
574.237	600.88
575.004	568.88
575.771	542.88
576.537	500.88
577.303	468.88
578.07	452.88
578.836	422.88
579.602	413.88
580.368	378.88
581.134	362.88
581.9	347.88
582.666	323.88
583.432	311.88
584.198	295.88
584.964	280.88
585.729	262.88
586.495	248.88
587.26	237.88
588.025	225.88
588.791	221.88
589.556	204.88
590.321	197.88
591.086	186.88
591.851	174.88
592.616	161.88
593.381	159.88
594.146	151.88
594.911	142.88
595.675	144.88
596.44	133.88
597.204	126.88
597.969	118.88
598.733	119.88
599.497	114.88
600.261	107.88
601.025	101.88
601.79	98.88
602.553	93.88
603.317	87.88
604.081	85.88
604.845	82.88
605.609	79.88
606.372	81.88
607.136	73.88
607.899	70.88
608.662	71.88
609.426	68.88
610.189	65.88
610.952	62.88
611.715	59.88
612.478	56.88
613.241	54.88
614.004	55.88
614.767	50.88
615.529	51.88
616.292	46.88
617.055	45.88
617.817	44.88
618.579	43.88
619.342	41.88
620.104	41.88
620.866	37.88
621.628	34.88
622.39	35.88
623.152	37.88
623.914	37.88
624.676	35.88
625.438	30.88
626.199	32.88
626.961	26.88
627.722	26.88
628.484	30.88
629.245	27.88
630.006	27.88
630.768	28.88
631.529	25.88
632.29	25.88
633.051	22.88
633.812	25.88
634.573	22.88
635.333	24.88
636.094	24.88
636.855	22.88
637.615	20.88
638.376	20.88
639.136	18.88
639.896	17.88
640.657	18.88
641.417	20.88
642.177	18.88
642.937	15.88
643.697	15.88
644.457	14.88
645.216	15.88
645.976	16.88
646.736	14.88
647.495	17.88
648.255	18.88
649.014	16.88
649.774	12.88
650.533	12.88
651.292	13.88
652.051	14.88
652.81	12.88
653.569	13.88
654.328	13.88
655.087	11.88
655.846	10.88
656.604	12.88
657.363	13.88
658.121	11.88
658.88	10.88
659.638	12.88
660.397	9.88
661.155	10.88
661.913	8.88
662.671	8.88
663.429	8.88
664.187	9.88
664.945	12.88
665.703	10.88
666.46	12.88
667.218	11.88
667.976	9.88
668.733	9.88
669.49	7.88
670.248	10.88
671.005	8.88
671.762	11.88
672.519	8.88
673.276	9.88
674.033	9.88
674.79	6.88
675.547	8.88
676.304	7.88
677.06	8.88
677.817	9.88
678.574	5.88
679.33	9.88
680.086	9.88
680.843	9.88
681.599	8.88
682.355	9.88
683.111	9.88
683.867	5.88
684.623	7.88
685.379	7.88
686.135	6.88
686.89	5.88
687.646	6.88
688.402	8.88
689.157	8.88
689.912	7.88
690.668	6.88
691.423	6.88
692.178	9.88
692.933	5.88
693.688	9.88
694.443	6.88
695.198	3.88
695.953	8.88
696.708	7.88
697.462	7.88
698.217	8.88
698.972	5.88
699.726	7.88
700.48	6.88
701.235	7.88
701.989	5.88
702.743	7.88
703.497	6.88
704.251	5.88
705.005	6.88
705.759	7.88
706.513	7.88
707.266	8.88
708.02	8.88
708.774	8.88
709.527	7.88
710.28	8.88
711.034	5.88
711.787	9.88
712.54	8.88
713.293	5.88
714.046	7.88
714.799	6.88
715.552	6.88
716.305	9.88
717.058	8.88
717.81	6.88
718.563	6.88
719.315	9.88
720.068	4.88
720.82	7.88
721.573	8.88
722.325	8.88
723.077	9.88
723.829	7.88
724.581	8.88
725.333	7.88
726.085	9.88
726.836	10.88
727.588	9.88
728.34	10.88
729.091	7.88
729.843	8.88
730.594	11.88
731.346	10.88
732.097	10.88
732.848	7.88
733.599	10.88
734.35	7.88
735.101	11.88
735.852	10.88
736.603	9.88
737.354	10.88
738.104	10.88
738.855	12.88
739.605	11.88
740.356	9.88
741.106	12.88
741.856	10.88
742.607	9.88
743.357	7.88
744.107	12.88
744.857	9.88
745.607	10.88
746.357	10.88
747.106	8.88
747.856	13.88
748.606	8.88
749.355	12.88
750.105	10.88
750.854	10.88
751.603	10.88
752.353	10.88
753.102	10.88
753.851	12.88
754.6	14.88
755.349	11.88
756.098	10.88
756.847	13.88
757.595	11.88
758.344	10.88
759.093	13.88
759.841	13.88
760.589	14.88
761.338	12.88
762.086	15.88
762.834	13.88
763.582	12.88
764.331	9.88
765.079	11.88
765.826	14.88
766.574	14.88
767.322	15.88
768.07	15.88
768.817	13.88
769.565	15.88
770.312	15.88
771.06	16.88
771.807	14.88
772.554	16.88
773.302	15.88
774.049	14.88
774.796	14.88
775.543	14.88
776.29	18.88
777.036	14.88
777.783	17.88
778.53	15.88
779.276	14.88
780.023	17.88
780.769	15.88
781.516	18.88
782.262	14.88
783.008	16.88
783.754	15.88
784.5	17.88
785.246	15.88
785.992	14.88
786.738	18.88
787.484	15.88
788.23	15.88
788.975	15.88
789.721	14.88
790.466	14.88
791.212	16.88
791.957	16.88
792.702	14.88
793.447	14.88
794.193	14.88
794.938	14.88
795.683	13.88
796.427	14.88
797.172	14.88
797.917	13.88
798.662	12.88
799.406	15.88
800.151	10.88
800.895	13.88
801.64	11.88
802.384	10.88
803.128	13.88
803.872	11.88
804.616	8.88
805.36	11.88
806.104	9.88
806.848	11.88
807.592	9.88
808.336	9.88
809.079	9.88
809.823	8.88
810.566	9.88
811.31	9.88
812.053	10.88
812.796	8.88
813.539	8.88
814.283	7.88
815.026	6.88
815.769	9.88
816.511	8.88
817.254	10.88
817.997	6.88
818.74	8.88
819.482	7.88
820.225	5.88
820.967	7.88
821.71	4.88
822.452	4.88
823.194	7.88
823.936	6.88
824.678	6.88
825.42	5.88
826.162	7.88
826.904	8.88
827.646	5.88
828.388	6.88
829.129	6.88
829.871	4.88
830.612	7.88
831.354	5.88
832.095	5.88
832.836	5.88
833.577	5.88
834.319	5.88
835.06	6.88
835.801	5.88
836.542	6.88
837.282	4.88
838.023	0.88
838.764	4.88
839.504	5.88
840.245	4.88
840.985	7.88
841.726	4.88
842.466	3.88
843.206	5.88
843.946	4.88
844.687	3.88
845.427	5.88
846.166	5.88
846.906	7.88
847.646	5.88
848.386	6.88
849.125	4.88
849.865	1.88
850.605	4.88
851.344	2.88
852.083	2.88
852.823	4.88
853.562	3.88
854.301	4.88
855.04	2.88
855.779	4.88
856.518	3.88
857.257	6.88
857.995	3.88
858.734	2.88
859.473	2.88
860.211	2.88
860.95	2.88
861.688	1.88
862.426	5.88
863.165	2.88
863.903	1.88
864.641	2.88
865.379	2.88
866.117	0.88
866.855	0.88
867.593	2.88
868.33	3.88
869.068	-0.12
869.806	1.88
870.543	4.88
871.28	-0.12
872.018	0.88
872.755	2.88
873.492	2.88
874.229	3.88
874.967	3.88
875.703	4.88
876.44	0.88
877.177	2.88
877.914	1.88
878.651	1.88
879.387	0.88
880.124	1.88
880.86	0.88
881.597	0.88
882.333	3.88
883.069	0.88
883.806	0.88
884.542	0.88
885.278	-1.12
886.014	2.88
886.749	0.88
887.485	1.88
888.221	4.88
888.957	3.88
889.692	1.88
890.428	0.88
891.163	-0.12
891.899	0.88
892.634	1.88
893.369	1.88
894.104	0.88
894.839	1.88
895.574	-1.12
896.309	-0.12
897.044	-1.12
897.779	1.88
898.514	-1.12
899.248	0.88
899.983	2.88
900.717	0.88
901.452	-0.12
902.186	0.88
902.92	2.88
903.654	1.88
904.389	-0.12
905.123	3.88
905.857	0.88
906.59	2.88
907.324	0.88
908.058	0.88
908.792	0.88
909.525	0.88
910.259	-1.12
910.992	0.88
911.726	-0.12
912.459	-0.12
913.192	-1.12
913.925	0.88
914.658	-0.12
915.391	0.88
916.124	1.88
916.857	-1.12
917.59	-0.12
918.323	0.88
919.055	1.88
919.788	-0.12
920.521	0.88
921.253	2.88
921.985	0.88
922.718	0.88
923.45	-0.12
924.182	0.88
924.914	-3.12
925.646	0.88
926.378	1.88
927.11	-1.12
927.841	2.88
928.573	-1.12
929.305	0.88
930.036	0.88
930.768	1.88
931.499	-0.12
932.23	-1.12
932.962	-0.12
933.693	-0.12
934.424	0.88
935.155	-0.12
935.886	-0.12
936.617	-2.12
937.348	0.88
938.078	1.88
938.809	0.88
939.54	-0.12
940.27	0.88
941.001	-1.12
941.731	1.88
942.461	-1.12
943.191	1.88
943.922	1.88
944.652	-0.12
945.382	2.88
946.112	1.88
946.841	1.88
947.571	0.88
948.301	-1.12
949.031	0.88
949.76	-0.12
950.49	0.88
951.219	-1.12
951.948	0.88
952.678	-0.12
953.407	-0.12
954.136	0.88
954.865	0.88
955.594	2.88
956.323	-1.12
957.052	1.88
957.78	0.88
958.509	0.88
959.238	2.88
959.966	-0.12
960.695	-0.12
961.423	-1.12
962.151	-1.12
962.88	0.88
963.608	-3.12
964.336	0.88
965.064	-0.12
965.792	1.88
966.52	-0.12
967.247	1.88
967.975	-0.12
968.703	0.88
969.43	1.88
970.158	-0.12
970.885	0.88
971.613	-0.12
972.34	-1.12
973.067	1.88
973.794	0.88
974.521	-0.12
975.248	-1.12
975.975	-0.12
976.702	2.88
977.429	-2.12
978.156	0.88
978.882	0.88
979.609	0.88
980.335	0.88
981.062	0.88
981.788	-0.12
982.514	-1.12
983.24	0.88
983.967	-1.12
984.693	-0.12
985.419	1.88
986.144	-0.12
986.87	0.88
987.596	2.88
988.322	-1.12
989.047	3.88
989.773	-1.12
990.498	1.88
991.224	-0.12
991.949	1.88
992.674	-0.12
993.399	-1.12
994.124	-2.12
994.849	1.88
995.574	2.88
996.299	-0.12
997.024	0.88
997.749	2.88
998.473	-0.12
999.198	-1.12
999.922	-1.12
1000.647	0.88
1001.371	3.88
1002.095	-1.12
1002.82	-2.12
1003.544	-2.12
1004.268	6.88
1004.992	4.88
1005.716	5.88
1006.439	5.88
1007.163	5.88
1007.887	7.88
1008.611	-0.12
1009.334	-1.12
1010.058	-0.12
1010.781	-3.12
1011.504	0.88
1012.228	-1.12
1012.951	0.88
1013.674	0.88
1014.397	-1.12
1015.12	0.88
