节点500_705_QEPB04081__458__20-52-22-793.txt的数据

Date: Wed Nov 12 20:52:22 CST 2025
User: PC
Spectrometer: QEPB0408
触发模式: 0
积分时间 (秒): 1.000000E-2
Scans to average: 1
启用暗噪声校正: true
启用非线性校正: false
滑动平均宽度: 0
X轴模式: Wavelengths
Number of Pixels in Spectrum: 1044
>>>>>Begin Spectral Data<<<<<
220.843	5.38
221.644	5.38
222.444	3.38
223.244	7.38
224.045	6.38
224.845	4.38
225.645	7.38
226.445	5.38
227.245	8.38
228.045	9.38
228.845	7.38
229.645	8.38
230.444	6.38
231.244	8.38
232.043	10.38
232.843	9.38
233.642	9.38
234.442	9.38
235.241	11.38
236.04	8.38
236.839	9.38
237.638	8.38
238.437	11.38
239.236	12.38
240.035	11.38
240.833	10.38
241.632	10.38
242.43	12.38
243.229	12.38
244.027	14.38
244.826	15.38
245.624	12.38
246.422	13.38
247.22	15.38
248.018	14.38
248.816	16.38
249.614	11.38
250.412	12.38
251.21	15.38
252.007	15.38
252.805	17.38
253.602	17.38
254.4	18.38
255.197	18.38
255.994	19.38
256.791	19.38
257.589	20.38
258.386	19.38
259.183	18.38
259.979	21.38
260.776	22.38
261.573	24.38
262.37	24.38
263.166	24.38
263.963	23.38
264.759	22.38
265.556	24.38
266.352	24.38
267.148	27.38
267.944	26.38
268.74	26.38
269.536	27.38
270.332	27.38
271.128	31.38
271.924	30.38
272.719	28.38
273.515	33.38
274.311	31.38
275.106	32.38
275.901	30.38
276.697	35.38
277.492	28.38
278.287	31.38
279.082	30.38
279.877	30.38
280.672	34.38
281.467	33.38
282.262	34.38
283.056	33.38
283.851	35.38
284.646	34.38
285.44	31.38
286.234	29.38
287.029	35.38
287.823	36.38
288.617	34.38
289.411	31.38
290.205	29.38
290.999	31.38
291.793	30.38
292.587	29.38
293.381	28.38
294.174	32.38
294.968	30.38
295.761	27.38
296.555	26.38
297.348	25.38
298.141	28.38
298.935	27.38
299.728	26.38
300.521	23.38
301.314	26.38
302.107	23.38
302.899	24.38
303.692	23.38
304.485	22.38
305.277	23.38
306.07	21.38
306.862	22.38
307.655	22.38
308.447	22.38
309.239	22.38
310.031	22.38
310.823	20.38
311.615	19.38
312.407	18.38
313.199	19.38
313.991	16.38
314.783	15.38
315.574	16.38
316.366	16.38
317.157	16.38
317.949	14.38
318.74	17.38
319.531	14.38
320.322	13.38
321.113	14.38
321.904	15.38
322.695	14.38
323.486	14.38
324.277	15.38
325.068	15.38
325.858	12.38
326.649	11.38
327.439	13.38
328.23	13.38
329.02	12.38
329.81	15.38
330.6	12.38
331.391	11.38
332.181	14.38
332.971	13.38
333.76	11.38
334.55	14.38
335.34	13.38
336.13	12.38
336.919	13.38
337.709	11.38
338.498	9.38
339.287	11.38
340.077	11.38
340.866	11.38
341.655	11.38
342.444	11.38
343.233	14.38
344.022	11.38
344.811	13.38
345.6	11.38
346.388	12.38
347.177	10.38
347.965	8.38
348.754	11.38
349.542	12.38
350.33	11.38
351.119	13.38
351.907	11.38
352.695	11.38
353.483	12.38
354.271	11.38
355.059	12.38
355.846	13.38
356.634	9.38
357.422	9.38
358.209	12.38
358.997	13.38
359.784	11.38
360.571	10.38
361.359	12.38
362.146	12.38
362.933	9.38
363.72	9.38
364.507	12.38
365.294	11.38
366.081	8.38
366.867	8.38
367.654	10.38
368.44	9.38
369.227	9.38
370.013	9.38
370.8	11.38
371.586	10.38
372.372	10.38
373.158	9.38
373.944	9.38
374.73	11.38
375.516	9.38
376.302	7.38
377.088	11.38
377.873	10.38
378.659	11.38
379.445	8.38
380.23	11.38
381.015	11.38
381.801	9.38
382.586	11.38
383.371	10.38
384.156	13.38
384.941	9.38
385.726	12.38
386.511	13.38
387.296	9.38
388.08	12.38
388.865	11.38
389.649	11.38
390.434	10.38
391.218	9.38
392.003	11.38
392.787	10.38
393.571	12.38
394.355	14.38
395.139	12.38
395.923	12.38
396.707	11.38
397.491	14.38
398.274	10.38
399.058	14.38
399.842	9.38
400.625	14.38
401.408	12.38
402.192	15.38
402.975	14.38
403.758	12.38
404.541	19.38
405.324	15.38
406.107	15.38
406.89	14.38
407.673	16.38
408.456	14.38
409.238	15.38
410.021	19.38
410.803	14.38
411.586	17.38
412.368	16.38
413.151	17.38
413.933	17.38
414.715	16.38
415.497	19.38
416.279	18.38
417.061	20.38
417.843	22.38
418.624	18.38
419.406	19.38
420.188	23.38
420.969	18.38
421.751	22.38
422.532	22.38
423.313	22.38
424.095	22.38
424.876	20.38
425.657	26.38
426.438	25.38
427.219	24.38
428	25.38
428.78	30.38
429.561	28.38
430.342	30.38
431.122	27.38
431.903	33.38
432.683	34.38
433.464	34.38
434.244	38.38
435.024	40.38
435.804	43.38
436.584	45.38
437.364	45.38
438.144	47.38
438.924	49.38
439.704	59.38
440.483	59.38
441.263	63.38
442.042	66.38
442.822	69.38
443.601	77.38
444.38	83.38
445.16	91.38
445.939	100.38
446.718	104.38
447.497	115.38
448.276	121.38
449.054	137.38
449.833	148.38
450.612	172.38
451.391	180.38
452.169	203.38
452.948	228.38
453.726	249.38
454.504	283.38
455.282	304.38
456.061	344.38
456.839	382.38
457.617	429.38
458.395	478.38
459.172	529.38
459.95	590.38
460.728	651.38
461.506	724.38
462.283	813.38
463.061	910.38
463.838	1003.38
464.615	1126.38
465.393	1235.38
466.17	1373.38
466.947	1535.38
467.724	1691.38
468.501	1856.38
469.278	2058.38
470.055	2256.38
470.831	2514.38
471.608	2774.38
472.385	3038.38
473.161	3336.38
473.938	3638.38
474.714	4037.38
475.49	4399.38
476.266	4786.38
477.043	5248.38
477.819	5687.38
478.595	6195.38
479.371	6765.38
480.146	7340.38
480.922	8009.38
481.698	8719.38
482.473	9439.38
483.249	10299.38
484.024	11123.38
484.8	12023.38
485.575	13016.38
486.35	13977.38
487.126	15209.38
487.901	16381.38
488.676	17660.38
489.451	18947.38
490.225	20411.38
491	21858.38
491.775	23402.38
492.55	24969.38
493.324	26596.38
494.099	28241.38
494.873	29891.38
495.647	31560.38
496.422	33289.38
497.196	34935.38
497.97	36513.38
498.744	38034.38
499.518	39616.38
500.292	41052.38
501.066	42086.38
501.839	43001.38
502.613	43881.38
503.387	44607.38
504.16	45210.38
504.934	45413.38
505.707	45483.38
506.48	45302.38
507.253	45008.38
508.027	44502.38
508.8	43700.38
509.573	42957.38
510.346	42043.38
511.118	41110.38
511.891	39911.38
512.664	38570.38
513.437	37197.38
514.209	35854.38
514.982	34621.38
515.754	33224.38
516.526	31986.38
517.298	30690.38
518.071	29566.38
518.843	28364.38
519.615	27186.38
520.387	26157.38
521.159	25104.38
521.93	24128.38
522.702	23092.38
523.474	22161.38
524.245	21215.38
525.017	20302.38
525.788	19449.38
526.56	18715.38
527.331	17838.38
528.102	17002.38
528.873	16142.38
529.644	15394.38
530.415	14703.38
531.186	13994.38
531.957	13293.38
532.728	12592.38
533.498	11962.38
534.269	11330.38
535.039	10755.38
535.81	10176.38
536.58	9589.38
537.351	9127.38
538.121	8623.38
538.891	8178.38
539.661	7732.38
540.431	7299.38
541.201	6956.38
541.971	6586.38
542.741	6245.38
543.51	5893.38
544.28	5614.38
545.05	5348.38
545.819	5112.38
546.588	4887.38
547.358	4648.38
548.127	4419.38
548.896	4185.38
549.665	3965.38
550.434	3774.38
551.203	3579.38
551.972	3418.38
552.741	3234.38
553.51	3034.38
554.278	2881.38
555.047	2702.38
555.815	2578.38
556.584	2433.38
557.352	2278.38
558.121	2177.38
558.889	2041.38
559.657	1949.38
560.425	1842.38
561.193	1724.38
561.961	1639.38
562.729	1578.38
563.496	1473.38
564.264	1390.38
565.032	1316.38
565.799	1240.38
566.567	1181.38
567.334	1115.38
568.101	1054.38
568.869	1009.38
569.636	947.38
570.403	885.38
571.17	830.38
571.937	801.38
572.704	739.38
573.471	701.38
574.237	670.38
575.004	621.38
575.771	596.38
576.537	554.38
577.303	522.38
578.07	498.38
578.836	467.38
579.602	439.38
580.368	417.38
581.134	403.38
581.9	376.38
582.666	365.38
583.432	338.38
584.198	325.38
584.964	310.38
585.729	295.38
586.495	280.38
587.26	262.38
588.025	249.38
588.791	235.38
589.556	217.38
590.321	209.38
591.086	203.38
591.851	189.38
592.616	179.38
593.381	173.38
594.146	170.38
594.911	162.38
595.675	149.38
596.44	146.38
597.204	136.38
597.969	133.38
598.733	128.38
599.497	121.38
600.261	121.38
601.025	110.38
601.79	109.38
602.553	99.38
603.317	100.38
604.081	96.38
604.845	93.38
605.609	83.38
606.372	86.38
607.136	79.38
607.899	77.38
608.662	74.38
609.426	69.38
610.189	70.38
610.952	67.38
611.715	66.38
612.478	61.38
613.241	60.38
614.004	59.38
614.767	55.38
615.529	53.38
616.292	52.38
617.055	51.38
617.817	46.38
618.579	45.38
619.342	45.38
620.104	44.38
620.866	42.38
621.628	42.38
622.39	40.38
623.152	40.38
623.914	36.38
624.676	37.38
625.438	35.38
626.199	35.38
626.961	31.38
627.722	31.38
628.484	31.38
629.245	28.38
630.006	31.38
630.768	29.38
631.529	27.38
632.29	25.38
633.051	24.38
633.812	25.38
634.573	26.38
635.333	26.38
636.094	22.38
636.855	23.38
637.615	20.38
638.376	21.38
639.136	23.38
639.896	21.38
640.657	22.38
641.417	20.38
642.177	19.38
642.937	18.38
643.697	17.38
644.457	19.38
645.216	16.38
645.976	16.38
646.736	17.38
647.495	14.38
648.255	17.38
649.014	12.38
649.774	16.38
650.533	17.38
651.292	14.38
652.051	15.38
652.81	14.38
653.569	15.38
654.328	13.38
655.087	13.38
655.846	14.38
656.604	13.38
657.363	11.38
658.121	14.38
658.88	12.38
659.638	15.38
660.397	13.38
661.155	11.38
661.913	9.38
662.671	12.38
663.429	10.38
664.187	10.38
664.945	10.38
665.703	10.38
666.46	9.38
667.218	9.38
667.976	10.38
668.733	9.38
669.49	13.38
670.248	9.38
671.005	8.38
671.762	9.38
672.519	8.38
673.276	9.38
674.033	8.38
674.79	9.38
675.547	10.38
676.304	8.38
677.06	7.38
677.817	9.38
678.574	9.38
679.33	11.38
680.086	8.38
680.843	9.38
681.599	7.38
682.355	9.38
683.111	5.38
683.867	11.38
684.623	8.38
685.379	8.38
686.135	7.38
686.89	9.38
687.646	9.38
688.402	10.38
689.157	8.38
689.912	9.38
690.668	7.38
691.423	8.38
692.178	9.38
692.933	6.38
693.688	8.38
694.443	6.38
695.198	8.38
695.953	8.38
696.708	8.38
697.462	7.38
698.217	5.38
698.972	9.38
699.726	8.38
700.48	10.38
701.235	7.38
701.989	5.38
702.743	7.38
703.497	7.38
704.251	9.38
705.005	9.38
705.759	7.38
706.513	8.38
707.266	6.38
708.02	7.38
708.774	8.38
709.527	6.38
710.28	9.38
711.034	7.38
711.787	8.38
712.54	10.38
713.293	7.38
714.046	7.38
714.799	7.38
715.552	7.38
716.305	8.38
717.058	9.38
717.81	6.38
718.563	9.38
719.315	7.38
720.068	7.38
720.82	9.38
721.573	7.38
722.325	8.38
723.077	7.38
723.829	9.38
724.581	9.38
725.333	5.38
726.085	9.38
726.836	8.38
727.588	7.38
728.34	7.38
729.091	10.38
729.843	11.38
730.594	9.38
731.346	9.38
732.097	10.38
732.848	9.38
733.599	11.38
734.35	7.38
735.101	9.38
735.852	9.38
736.603	8.38
737.354	9.38
738.104	11.38
738.855	11.38
739.605	9.38
740.356	9.38
741.106	8.38
741.856	8.38
742.607	11.38
743.357	11.38
744.107	8.38
744.857	9.38
745.607	11.38
746.357	10.38
747.106	11.38
747.856	10.38
748.606	11.38
749.355	11.38
750.105	11.38
750.854	11.38
751.603	9.38
752.353	11.38
753.102	9.38
753.851	11.38
754.6	13.38
755.349	11.38
756.098	9.38
756.847	13.38
757.595	14.38
758.344	12.38
759.093	11.38
759.841	13.38
760.589	11.38
761.338	10.38
762.086	11.38
762.834	10.38
763.582	12.38
764.331	14.38
765.079	14.38
765.826	12.38
766.574	13.38
767.322	12.38
768.07	12.38
768.817	15.38
769.565	15.38
770.312	15.38
771.06	16.38
771.807	14.38
772.554	13.38
773.302	15.38
774.049	15.38
774.796	15.38
775.543	15.38
776.29	15.38
777.036	15.38
777.783	16.38
778.53	16.38
779.276	14.38
780.023	18.38
780.769	14.38
781.516	19.38
782.262	15.38
783.008	15.38
783.754	15.38
784.5	18.38
785.246	15.38
785.992	13.38
786.738	15.38
787.484	12.38
788.23	14.38
788.975	14.38
789.721	13.38
790.466	15.38
791.212	15.38
791.957	15.38
792.702	15.38
793.447	14.38
794.193	12.38
794.938	13.38
795.683	15.38
796.427	14.38
797.172	12.38
797.917	12.38
798.662	11.38
799.406	12.38
800.151	11.38
800.895	14.38
801.64	14.38
802.384	13.38
803.128	12.38
803.872	13.38
804.616	11.38
805.36	10.38
806.104	13.38
806.848	10.38
807.592	13.38
808.336	11.38
809.079	11.38
809.823	11.38
810.566	9.38
811.31	10.38
812.053	11.38
812.796	7.38
813.539	10.38
814.283	5.38
815.026	10.38
815.769	7.38
816.511	11.38
817.254	8.38
817.997	7.38
818.74	6.38
819.482	10.38
820.225	8.38
820.967	7.38
821.71	7.38
822.452	10.38
823.194	7.38
823.936	8.38
824.678	7.38
825.42	8.38
826.162	7.38
826.904	8.38
827.646	7.38
828.388	8.38
829.129	7.38
829.871	6.38
830.612	6.38
831.354	8.38
832.095	6.38
832.836	8.38
833.577	4.38
834.319	7.38
835.06	10.38
835.801	8.38
836.542	6.38
837.282	7.38
838.023	7.38
838.764	8.38
839.504	5.38
840.245	5.38
840.985	7.38
841.726	6.38
842.466	4.38
843.206	5.38
843.946	6.38
844.687	8.38
845.427	6.38
846.166	9.38
846.906	5.38
847.646	4.38
848.386	5.38
849.125	4.38
849.865	7.38
850.605	5.38
851.344	5.38
852.083	6.38
852.823	3.38
853.562	5.38
854.301	5.38
855.04	4.38
855.779	4.38
856.518	3.38
857.257	4.38
857.995	4.38
858.734	2.38
859.473	7.38
860.211	5.38
860.95	4.38
861.688	6.38
862.426	4.38
863.165	5.38
863.903	4.38
864.641	4.38
865.379	0.38
866.117	4.38
866.855	3.38
867.593	3.38
868.33	2.38
869.068	3.38
869.806	3.38
870.543	2.38
871.28	5.38
872.018	3.38
872.755	0.38
873.492	1.38
874.229	5.38
874.967	3.38
875.703	0.38
876.44	3.38
877.177	4.38
877.914	0.38
878.651	0.38
879.387	1.38
880.124	2.38
880.86	2.38
881.597	2.38
882.333	2.38
883.069	1.38
883.806	2.38
884.542	2.38
885.278	1.38
886.014	1.38
886.749	3.38
887.485	2.38
888.221	3.38
888.957	2.38
889.692	2.38
890.428	2.38
891.163	-0.62
891.899	0.38
892.634	1.38
893.369	-0.62
894.104	1.38
894.839	0.38
895.574	2.38
896.309	2.38
897.044	1.38
897.779	0.38
898.514	0.38
899.248	2.38
899.983	2.38
900.717	2.38
901.452	-0.62
902.186	1.38
902.92	4.38
903.654	2.38
904.389	-0.62
905.123	1.38
905.857	-0.62
906.59	0.38
907.324	2.38
908.058	1.38
908.792	1.38
909.525	2.38
910.259	0.38
910.992	0.38
911.726	1.38
912.459	0.38
913.192	1.38
913.925	1.38
914.658	0.38
915.391	-0.62
916.124	2.38
916.857	2.38
917.59	0.38
918.323	3.38
919.055	0.38
919.788	0.38
920.521	1.38
921.253	0.38
921.985	1.38
922.718	-0.62
923.45	1.38
924.182	0.38
924.914	1.38
925.646	-0.62
926.378	1.38
927.11	-0.62
927.841	0.38
928.573	0.38
929.305	0.38
930.036	0.38
930.768	3.38
931.499	0.38
932.23	-0.62
932.962	1.38
933.693	1.38
934.424	0.38
935.155	-0.62
935.886	1.38
936.617	2.38
937.348	0.38
938.078	1.38
938.809	2.38
939.54	1.38
940.27	0.38
941.001	0.38
941.731	2.38
942.461	-0.62
943.191	1.38
943.922	-1.62
944.652	2.38
945.382	-1.62
946.112	1.38
946.841	0.38
947.571	1.38
948.301	3.38
949.031	-0.62
949.76	2.38
950.49	-0.62
951.219	0.38
951.948	-0.62
952.678	1.38
953.407	1.38
954.136	0.38
954.865	1.38
955.594	3.38
956.323	0.38
957.052	-0.62
957.78	1.38
958.509	3.38
959.238	0.38
959.966	0.38
960.695	-1.62
961.423	-0.62
962.151	1.38
962.88	-0.62
963.608	1.38
964.336	1.38
965.064	1.38
965.792	1.38
966.52	-1.62
967.247	2.38
967.975	-0.62
968.703	-0.62
969.43	0.38
970.158	1.38
970.885	0.38
971.613	1.38
972.34	-0.62
973.067	2.38
973.794	2.38
974.521	2.38
975.248	1.38
975.975	2.38
976.702	1.38
977.429	0.38
978.156	1.38
978.882	-0.62
979.609	0.38
980.335	1.38
981.062	-0.62
981.788	0.38
982.514	0.38
983.24	1.38
983.967	-0.62
984.693	3.38
985.419	-1.62
986.144	-0.62
986.87	0.38
987.596	-0.62
988.322	0.38
989.047	-0.62
989.773	1.38
990.498	-1.62
991.224	1.38
991.949	1.38
992.674	0.38
993.399	2.38
994.124	-0.62
994.849	2.38
995.574	-0.62
996.299	2.38
997.024	-0.62
997.749	-0.62
998.473	1.38
999.198	-0.62
999.922	1.38
1000.647	1.38
1001.371	3.38
1002.095	0.38
1002.82	0.38
1003.544	-1.62
1004.268	5.38
1004.992	3.38
1005.716	4.38
1006.439	4.38
1007.163	7.38
1007.887	6.38
1008.611	-0.62
1009.334	1.38
1010.058	-0.62
1010.781	3.38
1011.504	-0.62
1012.228	1.38
1012.951	-0.62
1013.674	-0.62
1014.397	-0.62
1015.12	-0.62
