节点500_705_QEPB04081__614__20-54-40-775.txt的数据

Date: Wed Nov 12 20:54:40 CST 2025
User: PC
Spectrometer: QEPB0408
触发模式: 0
积分时间 (秒): 1.000000E-2
Scans to average: 1
启用暗噪声校正: true
启用非线性校正: false
滑动平均宽度: 0
X轴模式: Wavelengths
Number of Pixels in Spectrum: 1044
>>>>>Begin Spectral Data<<<<<
220.843	4.25
221.644	6.25
222.444	5.25
223.244	5.25
224.045	6.25
224.845	5.25
225.645	5.25
226.445	9.25
227.245	5.25
228.045	8.25
228.845	7.25
229.645	7.25
230.444	8.25
231.244	6.25
232.043	7.25
232.843	7.25
233.642	11.25
234.442	11.25
235.241	7.25
236.04	9.25
236.839	7.25
237.638	11.25
238.437	11.25
239.236	9.25
240.035	12.25
240.833	11.25
241.632	11.25
242.43	11.25
243.229	15.25
244.027	12.25
244.826	14.25
245.624	13.25
246.422	14.25
247.22	15.25
248.018	13.25
248.816	15.25
249.614	13.25
250.412	13.25
251.21	15.25
252.007	13.25
252.805	18.25
253.602	14.25
254.4	18.25
255.197	16.25
255.994	18.25
256.791	19.25
257.589	18.25
258.386	19.25
259.183	22.25
259.979	21.25
260.776	21.25
261.573	20.25
262.37	23.25
263.166	24.25
263.963	25.25
264.759	23.25
265.556	22.25
266.352	25.25
267.148	23.25
267.944	27.25
268.74	24.25
269.536	27.25
270.332	25.25
271.128	28.25
271.924	31.25
272.719	27.25
273.515	30.25
274.311	31.25
275.106	31.25
275.901	32.25
276.697	33.25
277.492	33.25
278.287	30.25
279.082	29.25
279.877	32.25
280.672	29.25
281.467	33.25
282.262	31.25
283.056	33.25
283.851	34.25
284.646	33.25
285.44	30.25
286.234	33.25
287.029	35.25
287.823	32.25
288.617	31.25
289.411	30.25
290.205	29.25
290.999	29.25
291.793	29.25
292.587	33.25
293.381	29.25
294.174	27.25
294.968	28.25
295.761	28.25
296.555	26.25
297.348	23.25
298.141	25.25
298.935	27.25
299.728	26.25
300.521	25.25
301.314	26.25
302.107	23.25
302.899	23.25
303.692	21.25
304.485	22.25
305.277	22.25
306.07	24.25
306.862	22.25
307.655	24.25
308.447	20.25
309.239	24.25
310.031	21.25
310.823	19.25
311.615	19.25
312.407	18.25
313.199	18.25
313.991	17.25
314.783	18.25
315.574	17.25
316.366	15.25
317.157	15.25
317.949	17.25
318.74	13.25
319.531	13.25
320.322	12.25
321.113	15.25
321.904	14.25
322.695	15.25
323.486	15.25
324.277	14.25
325.068	15.25
325.858	13.25
326.649	12.25
327.439	13.25
328.23	12.25
329.02	11.25
329.81	13.25
330.6	14.25
331.391	11.25
332.181	14.25
332.971	13.25
333.76	9.25
334.55	12.25
335.34	10.25
336.13	12.25
336.919	11.25
337.709	10.25
338.498	12.25
339.287	11.25
340.077	12.25
340.866	12.25
341.655	11.25
342.444	11.25
343.233	11.25
344.022	13.25
344.811	11.25
345.6	11.25
346.388	11.25
347.177	11.25
347.965	11.25
348.754	11.25
349.542	10.25
350.33	12.25
351.119	11.25
351.907	10.25
352.695	8.25
353.483	9.25
354.271	9.25
355.059	13.25
355.846	8.25
356.634	11.25
357.422	11.25
358.209	10.25
358.997	10.25
359.784	9.25
360.571	9.25
361.359	10.25
362.146	10.25
362.933	11.25
363.72	6.25
364.507	12.25
365.294	7.25
366.081	9.25
366.867	11.25
367.654	8.25
368.44	10.25
369.227	10.25
370.013	11.25
370.8	9.25
371.586	11.25
372.372	10.25
373.158	9.25
373.944	9.25
374.73	5.25
375.516	10.25
376.302	8.25
377.088	8.25
377.873	9.25
378.659	11.25
379.445	8.25
380.23	9.25
381.015	10.25
381.801	11.25
382.586	10.25
383.371	9.25
384.156	10.25
384.941	11.25
385.726	10.25
386.511	12.25
387.296	10.25
388.08	12.25
388.865	11.25
389.649	10.25
390.434	11.25
391.218	12.25
392.003	13.25
392.787	9.25
393.571	11.25
394.355	14.25
395.139	10.25
395.923	12.25
396.707	12.25
397.491	12.25
398.274	14.25
399.058	11.25
399.842	15.25
400.625	12.25
401.408	12.25
402.192	14.25
402.975	12.25
403.758	12.25
404.541	15.25
405.324	14.25
406.107	15.25
406.89	15.25
407.673	16.25
408.456	15.25
409.238	15.25
410.021	16.25
410.803	15.25
411.586	15.25
412.368	14.25
413.151	15.25
413.933	19.25
414.715	15.25
415.497	18.25
416.279	19.25
417.061	19.25
417.843	19.25
418.624	22.25
419.406	18.25
420.188	23.25
420.969	20.25
421.751	21.25
422.532	20.25
423.313	19.25
424.095	23.25
424.876	25.25
425.657	22.25
426.438	25.25
427.219	24.25
428	28.25
428.78	27.25
429.561	27.25
430.342	32.25
431.122	31.25
431.903	29.25
432.683	32.25
433.464	38.25
434.244	35.25
435.024	40.25
435.804	40.25
436.584	45.25
437.364	46.25
438.144	49.25
438.924	54.25
439.704	54.25
440.483	51.25
441.263	59.25
442.042	67.25
442.822	74.25
443.601	75.25
444.38	84.25
445.16	90.25
445.939	98.25
446.718	110.25
447.497	120.25
448.276	133.25
449.054	143.25
449.833	156.25
450.612	175.25
451.391	193.25
452.169	214.25
452.948	236.25
453.726	256.25
454.504	283.25
455.282	315.25
456.061	348.25
456.839	392.25
457.617	442.25
458.395	490.25
459.172	549.25
459.95	612.25
460.728	673.25
461.506	744.25
462.283	823.25
463.061	916.25
463.838	1032.25
464.615	1140.25
465.393	1269.25
466.17	1393.25
466.947	1553.25
467.724	1712.25
468.501	1875.25
469.278	2060.25
470.055	2268.25
470.831	2502.25
471.608	2746.25
472.385	3017.25
473.161	3315.25
473.938	3627.25
474.714	3957.25
475.49	4339.25
476.266	4706.25
477.043	5134.25
477.819	5593.25
478.595	6042.25
479.371	6596.25
480.146	7147.25
480.922	7779.25
481.698	8417.25
482.473	9121.25
483.249	9901.25
484.024	10652.25
484.8	11516.25
485.575	12349.25
486.35	13432.25
487.126	14394.25
487.901	15473.25
488.676	16680.25
489.451	17931.25
490.225	19221.25
491	20623.25
491.775	21941.25
492.55	23483.25
493.324	24909.25
494.099	26515.25
494.873	28133.25
495.647	29630.25
496.422	31205.25
497.196	32826.25
497.97	34380.25
498.744	35787.25
499.518	37359.25
500.292	38690.25
501.066	39780.25
501.839	40775.25
502.613	41731.25
503.387	42443.25
504.16	43214.25
504.934	43478.25
505.707	43742.25
506.48	43719.25
507.253	43531.25
508.027	43316.25
508.8	42769.25
509.573	41970.25
510.346	41227.25
511.118	40477.25
511.891	39384.25
512.664	38163.25
513.437	36975.25
514.209	35779.25
514.982	34499.25
515.754	33261.25
516.526	32003.25
517.298	30729.25
518.071	29639.25
518.843	28498.25
519.615	27357.25
520.387	26253.25
521.159	25258.25
521.93	24220.25
522.702	23271.25
523.474	22325.25
524.245	21384.25
525.017	20506.25
525.788	19701.25
526.56	18837.25
527.331	18094.25
528.102	17209.25
528.873	16344.25
529.644	15634.25
530.415	14918.25
531.186	14226.25
531.957	13555.25
532.728	12925.25
533.498	12243.25
534.269	11598.25
535.039	10999.25
535.81	10454.25
536.58	9825.25
537.351	9323.25
538.121	8856.25
538.891	8351.25
539.661	7909.25
540.431	7506.25
541.201	7135.25
541.971	6777.25
542.741	6409.25
543.51	6091.25
544.28	5795.25
545.05	5506.25
545.819	5251.25
546.588	5007.25
547.358	4767.25
548.127	4525.25
548.896	4331.25
549.665	4086.25
550.434	3875.25
551.203	3680.25
551.972	3520.25
552.741	3292.25
553.51	3134.25
554.278	2957.25
555.047	2804.25
555.815	2671.25
556.584	2518.25
557.352	2369.25
558.121	2241.25
558.889	2125.25
559.657	1999.25
560.425	1901.25
561.193	1799.25
561.961	1707.25
562.729	1624.25
563.496	1519.25
564.264	1433.25
565.032	1348.25
565.799	1285.25
566.567	1211.25
567.334	1150.25
568.101	1085.25
568.869	1034.25
569.636	971.25
570.403	904.25
571.17	872.25
571.937	824.25
572.704	783.25
573.471	725.25
574.237	694.25
575.004	645.25
575.771	609.25
576.537	586.25
577.303	550.25
578.07	517.25
578.836	489.25
579.602	456.25
580.368	432.25
581.134	417.25
581.9	395.25
582.666	368.25
583.432	356.25
584.198	346.25
584.964	323.25
585.729	313.25
586.495	288.25
587.26	277.25
588.025	261.25
588.791	244.25
589.556	227.25
590.321	219.25
591.086	211.25
591.851	199.25
592.616	191.25
593.381	188.25
594.146	171.25
594.911	167.25
595.675	156.25
596.44	150.25
597.204	147.25
597.969	139.25
598.733	127.25
599.497	124.25
600.261	118.25
601.025	115.25
601.79	111.25
602.553	108.25
603.317	100.25
604.081	95.25
604.845	92.25
605.609	88.25
606.372	87.25
607.136	83.25
607.899	81.25
608.662	77.25
609.426	74.25
610.189	71.25
610.952	70.25
611.715	66.25
612.478	62.25
613.241	62.25
614.004	59.25
614.767	55.25
615.529	55.25
616.292	53.25
617.055	53.25
617.817	47.25
618.579	49.25
619.342	50.25
620.104	44.25
620.866	43.25
621.628	43.25
622.39	38.25
623.152	40.25
623.914	39.25
624.676	37.25
625.438	34.25
626.199	32.25
626.961	34.25
627.722	34.25
628.484	30.25
629.245	31.25
630.006	30.25
630.768	28.25
631.529	27.25
632.29	27.25
633.051	27.25
633.812	25.25
634.573	25.25
635.333	26.25
636.094	23.25
636.855	24.25
637.615	21.25
638.376	22.25
639.136	21.25
639.896	23.25
640.657	21.25
641.417	21.25
642.177	19.25
642.937	17.25
643.697	20.25
644.457	19.25
645.216	19.25
645.976	18.25
646.736	18.25
647.495	16.25
648.255	15.25
649.014	15.25
649.774	13.25
650.533	13.25
651.292	16.25
652.051	15.25
652.81	18.25
653.569	11.25
654.328	15.25
655.087	14.25
655.846	12.25
656.604	11.25
657.363	14.25
658.121	12.25
658.88	12.25
659.638	11.25
660.397	13.25
661.155	11.25
661.913	12.25
662.671	12.25
663.429	11.25
664.187	9.25
664.945	11.25
665.703	11.25
666.46	8.25
667.218	14.25
667.976	10.25
668.733	11.25
669.49	9.25
670.248	11.25
671.005	9.25
671.762	11.25
672.519	10.25
673.276	10.25
674.033	9.25
674.79	7.25
675.547	7.25
676.304	6.25
677.06	9.25
677.817	9.25
678.574	9.25
679.33	7.25
680.086	10.25
680.843	5.25
681.599	10.25
682.355	8.25
683.111	9.25
683.867	8.25
684.623	7.25
685.379	7.25
686.135	11.25
686.89	8.25
687.646	7.25
688.402	10.25
689.157	7.25
689.912	9.25
690.668	8.25
691.423	7.25
692.178	7.25
692.933	7.25
693.688	10.25
694.443	8.25
695.198	8.25
695.953	9.25
696.708	7.25
697.462	11.25
698.217	9.25
698.972	7.25
699.726	8.25
700.48	6.25
701.235	8.25
701.989	6.25
702.743	7.25
703.497	9.25
704.251	8.25
705.005	7.25
705.759	9.25
706.513	7.25
707.266	10.25
708.02	6.25
708.774	9.25
709.527	5.25
710.28	10.25
711.034	7.25
711.787	8.25
712.54	6.25
713.293	7.25
714.046	8.25
714.799	8.25
715.552	10.25
716.305	9.25
717.058	7.25
717.81	10.25
718.563	3.25
719.315	9.25
720.068	8.25
720.82	5.25
721.573	8.25
722.325	8.25
723.077	10.25
723.829	8.25
724.581	10.25
725.333	8.25
726.085	9.25
726.836	9.25
727.588	11.25
728.34	7.25
729.091	8.25
729.843	8.25
730.594	7.25
731.346	10.25
732.097	8.25
732.848	8.25
733.599	10.25
734.35	9.25
735.101	6.25
735.852	11.25
736.603	8.25
737.354	10.25
738.104	9.25
738.855	9.25
739.605	9.25
740.356	9.25
741.106	8.25
741.856	9.25
742.607	10.25
743.357	10.25
744.107	10.25
744.857	10.25
745.607	10.25
746.357	10.25
747.106	9.25
747.856	9.25
748.606	11.25
749.355	11.25
750.105	10.25
750.854	10.25
751.603	10.25
752.353	9.25
753.102	12.25
753.851	11.25
754.6	11.25
755.349	13.25
756.098	11.25
756.847	9.25
757.595	12.25
758.344	12.25
759.093	13.25
759.841	11.25
760.589	12.25
761.338	13.25
762.086	11.25
762.834	11.25
763.582	11.25
764.331	12.25
765.079	9.25
765.826	13.25
766.574	11.25
767.322	12.25
768.07	13.25
768.817	11.25
769.565	15.25
770.312	14.25
771.06	13.25
771.807	14.25
772.554	14.25
773.302	16.25
774.049	15.25
774.796	14.25
775.543	15.25
776.29	13.25
777.036	15.25
777.783	13.25
778.53	15.25
779.276	11.25
780.023	15.25
780.769	13.25
781.516	12.25
782.262	16.25
783.008	14.25
783.754	11.25
784.5	13.25
785.246	17.25
785.992	13.25
786.738	15.25
787.484	15.25
788.23	13.25
788.975	16.25
789.721	15.25
790.466	15.25
791.212	14.25
791.957	14.25
792.702	15.25
793.447	13.25
794.193	14.25
794.938	14.25
795.683	13.25
796.427	16.25
797.172	9.25
797.917	12.25
798.662	14.25
799.406	12.25
800.151	12.25
800.895	11.25
801.64	13.25
802.384	11.25
803.128	10.25
803.872	11.25
804.616	12.25
805.36	15.25
806.104	11.25
806.848	9.25
807.592	10.25
808.336	9.25
809.079	11.25
809.823	11.25
810.566	7.25
811.31	11.25
812.053	9.25
812.796	9.25
813.539	9.25
814.283	8.25
815.026	9.25
815.769	10.25
816.511	8.25
817.254	8.25
817.997	8.25
818.74	9.25
819.482	7.25
820.225	4.25
820.967	7.25
821.71	9.25
822.452	9.25
823.194	8.25
823.936	8.25
824.678	10.25
825.42	7.25
826.162	7.25
826.904	7.25
827.646	7.25
828.388	6.25
829.129	7.25
829.871	6.25
830.612	8.25
831.354	9.25
832.095	7.25
832.836	4.25
833.577	8.25
834.319	5.25
835.06	6.25
835.801	6.25
836.542	7.25
837.282	6.25
838.023	3.25
838.764	3.25
839.504	6.25
840.245	7.25
840.985	6.25
841.726	6.25
842.466	5.25
843.206	4.25
843.946	6.25
844.687	7.25
845.427	7.25
846.166	7.25
846.906	5.25
847.646	5.25
848.386	5.25
849.125	7.25
849.865	6.25
850.605	8.25
851.344	2.25
852.083	3.25
852.823	7.25
853.562	7.25
854.301	4.25
855.04	5.25
855.779	5.25
856.518	5.25
857.257	5.25
857.995	4.25
858.734	4.25
859.473	4.25
860.211	5.25
860.95	1.25
861.688	5.25
862.426	4.25
863.165	3.25
863.903	3.25
864.641	5.25
865.379	4.25
866.117	3.25
866.855	3.25
867.593	2.25
868.33	3.25
869.068	3.25
869.806	4.25
870.543	2.25
871.28	2.25
872.018	5.25
872.755	4.25
873.492	1.25
874.229	3.25
874.967	2.25
875.703	1.25
876.44	0.25
877.177	2.25
877.914	1.25
878.651	2.25
879.387	1.25
880.124	2.25
880.86	3.25
881.597	-0.75
882.333	3.25
883.069	3.25
883.806	2.25
884.542	1.25
885.278	3.25
886.014	5.25
886.749	2.25
887.485	1.25
888.221	2.25
888.957	1.25
889.692	1.25
890.428	2.25
891.163	3.25
891.899	2.25
892.634	2.25
893.369	2.25
894.104	0.25
894.839	3.25
895.574	0.25
896.309	3.25
897.044	3.25
897.779	0.25
898.514	1.25
899.248	3.25
899.983	2.25
900.717	1.25
901.452	1.25
902.186	0.25
902.92	-0.75
903.654	2.25
904.389	3.25
905.123	3.25
905.857	1.25
906.59	-0.75
907.324	3.25
908.058	2.25
908.792	3.25
909.525	1.25
910.259	2.25
910.992	2.25
911.726	1.25
912.459	0.25
913.192	1.25
913.925	1.25
914.658	2.25
915.391	1.25
916.124	1.25
916.857	1.25
917.59	1.25
918.323	0.25
919.055	3.25
919.788	1.25
920.521	0.25
921.253	4.25
921.985	-0.75
922.718	1.25
923.45	-0.75
924.182	1.25
924.914	2.25
925.646	1.25
926.378	1.25
927.11	1.25
927.841	1.25
928.573	1.25
929.305	1.25
930.036	-0.75
930.768	-0.75
931.499	4.25
932.23	-0.75
932.962	1.25
933.693	0.25
934.424	1.25
935.155	-0.75
935.886	-0.75
936.617	1.25
937.348	1.25
938.078	-0.75
938.809	1.25
939.54	0.25
940.27	1.25
941.001	0.25
941.731	1.25
942.461	4.25
943.191	-2.75
943.922	1.25
944.652	2.25
945.382	2.25
946.112	0.25
946.841	-0.75
947.571	3.25
948.301	0.25
949.031	3.25
949.76	-0.75
950.49	-0.75
951.219	1.25
951.948	1.25
952.678	1.25
953.407	1.25
954.136	3.25
954.865	1.25
955.594	-0.75
956.323	1.25
957.052	1.25
957.78	4.25
958.509	-0.75
959.238	3.25
959.966	2.25
960.695	-0.75
961.423	2.25
962.151	0.25
962.88	2.25
963.608	1.25
964.336	-0.75
965.064	0.25
965.792	0.25
966.52	1.25
967.247	1.25
967.975	2.25
968.703	0.25
969.43	1.25
970.158	2.25
970.885	0.25
971.613	2.25
972.34	-0.75
973.067	0.25
973.794	1.25
974.521	-0.75
975.248	2.25
975.975	3.25
976.702	2.25
977.429	1.25
978.156	-0.75
978.882	-0.75
979.609	-0.75
980.335	1.25
981.062	-0.75
981.788	3.25
982.514	-0.75
983.24	-0.75
983.967	-0.75
984.693	0.25
985.419	3.25
986.144	-0.75
986.87	0.25
987.596	3.25
988.322	0.25
989.047	-0.75
989.773	1.25
990.498	1.25
991.224	-0.75
991.949	0.25
992.674	0.25
993.399	0.25
994.124	0.25
994.849	-1.75
995.574	1.25
996.299	1.25
997.024	1.25
997.749	1.25
998.473	-1.75
999.198	0.25
999.922	-0.75
1000.647	1.25
1001.371	4.25
1002.095	-0.75
1002.82	-0.75
1003.544	-0.75
1004.268	6.25
1004.992	5.25
1005.716	3.25
1006.439	6.25
1007.163	5.25
1007.887	4.25
1008.611	2.25
1009.334	1.25
1010.058	2.25
1010.781	-0.75
1011.504	1.25
1012.228	-0.75
1012.951	0.25
1013.674	-0.75
1014.397	-2.75
1015.12	1.25
