节点500_705_QEPB04081__97__20-47-30-201.txt的数据

Date: Wed Nov 12 20:47:30 CST 2025
User: PC
Spectrometer: QEPB0408
触发模式: 0
积分时间 (秒): 1.000000E-2
Scans to average: 1
启用暗噪声校正: true
启用非线性校正: false
滑动平均宽度: 0
X轴模式: Wavelengths
Number of Pixels in Spectrum: 1044
>>>>>Begin Spectral Data<<<<<
220.843	5.38
221.644	7.38
222.444	7.38
223.244	5.38
224.045	5.38
224.845	8.38
225.645	8.38
226.445	9.38
227.245	8.38
228.045	5.38
228.845	9.38
229.645	7.38
230.444	9.38
231.244	9.38
232.043	9.38
232.843	10.38
233.642	10.38
234.442	10.38
235.241	8.38
236.04	10.38
236.839	12.38
237.638	12.38
238.437	13.38
239.236	11.38
240.035	12.38
240.833	12.38
241.632	10.38
242.43	12.38
243.229	13.38
244.027	13.38
244.826	15.38
245.624	14.38
246.422	17.38
247.22	17.38
248.018	17.38
248.816	15.38
249.614	16.38
250.412	19.38
251.21	17.38
252.007	19.38
252.805	20.38
253.602	19.38
254.4	21.38
255.197	21.38
255.994	22.38
256.791	23.38
257.589	21.38
258.386	22.38
259.183	25.38
259.979	24.38
260.776	23.38
261.573	25.38
262.37	25.38
263.166	28.38
263.963	28.38
264.759	28.38
265.556	29.38
266.352	31.38
267.148	29.38
267.944	31.38
268.74	29.38
269.536	30.38
270.332	34.38
271.128	31.38
271.924	34.38
272.719	35.38
273.515	31.38
274.311	35.38
275.106	35.38
275.901	32.38
276.697	35.38
277.492	36.38
278.287	39.38
279.082	35.38
279.877	32.38
280.672	37.38
281.467	36.38
282.262	38.38
283.056	35.38
283.851	37.38
284.646	37.38
285.44	36.38
286.234	34.38
287.029	32.38
287.823	39.38
288.617	35.38
289.411	35.38
290.205	33.38
290.999	31.38
291.793	33.38
292.587	31.38
293.381	36.38
294.174	30.38
294.968	30.38
295.761	28.38
296.555	29.38
297.348	27.38
298.141	27.38
298.935	29.38
299.728	26.38
300.521	26.38
301.314	28.38
302.107	24.38
302.899	24.38
303.692	23.38
304.485	23.38
305.277	23.38
306.07	24.38
306.862	23.38
307.655	19.38
308.447	21.38
309.239	19.38
310.031	20.38
310.823	19.38
311.615	19.38
312.407	17.38
313.199	18.38
313.991	18.38
314.783	16.38
315.574	14.38
316.366	17.38
317.157	14.38
317.949	16.38
318.74	16.38
319.531	15.38
320.322	14.38
321.113	15.38
321.904	14.38
322.695	17.38
323.486	14.38
324.277	12.38
325.068	14.38
325.858	14.38
326.649	14.38
327.439	15.38
328.23	15.38
329.02	11.38
329.81	14.38
330.6	12.38
331.391	12.38
332.181	10.38
332.971	13.38
333.76	13.38
334.55	14.38
335.34	10.38
336.13	11.38
336.919	12.38
337.709	10.38
338.498	13.38
339.287	14.38
340.077	11.38
340.866	12.38
341.655	13.38
342.444	12.38
343.233	13.38
344.022	12.38
344.811	9.38
345.6	12.38
346.388	11.38
347.177	12.38
347.965	11.38
348.754	13.38
349.542	9.38
350.33	10.38
351.119	11.38
351.907	11.38
352.695	11.38
353.483	11.38
354.271	12.38
355.059	8.38
355.846	15.38
356.634	12.38
357.422	10.38
358.209	10.38
358.997	10.38
359.784	12.38
360.571	9.38
361.359	9.38
362.146	10.38
362.933	10.38
363.72	11.38
364.507	10.38
365.294	10.38
366.081	11.38
366.867	10.38
367.654	9.38
368.44	10.38
369.227	10.38
370.013	10.38
370.8	9.38
371.586	10.38
372.372	11.38
373.158	9.38
373.944	9.38
374.73	8.38
375.516	9.38
376.302	12.38
377.088	10.38
377.873	11.38
378.659	9.38
379.445	9.38
380.23	9.38
381.015	11.38
381.801	11.38
382.586	15.38
383.371	10.38
384.156	14.38
384.941	13.38
385.726	11.38
386.511	10.38
387.296	11.38
388.08	11.38
388.865	11.38
389.649	11.38
390.434	11.38
391.218	12.38
392.003	12.38
392.787	13.38
393.571	13.38
394.355	11.38
395.139	15.38
395.923	12.38
396.707	11.38
397.491	11.38
398.274	11.38
399.058	14.38
399.842	15.38
400.625	15.38
401.408	15.38
402.192	15.38
402.975	15.38
403.758	15.38
404.541	17.38
405.324	16.38
406.107	15.38
406.89	17.38
407.673	17.38
408.456	19.38
409.238	14.38
410.021	15.38
410.803	18.38
411.586	19.38
412.368	16.38
413.151	18.38
413.933	19.38
414.715	19.38
415.497	18.38
416.279	20.38
417.061	18.38
417.843	19.38
418.624	19.38
419.406	25.38
420.188	23.38
420.969	22.38
421.751	21.38
422.532	24.38
423.313	26.38
424.095	22.38
424.876	24.38
425.657	23.38
426.438	26.38
427.219	29.38
428	27.38
428.78	31.38
429.561	26.38
430.342	29.38
431.122	35.38
431.903	31.38
432.683	35.38
433.464	36.38
434.244	38.38
435.024	38.38
435.804	43.38
436.584	45.38
437.364	46.38
438.144	49.38
438.924	49.38
439.704	55.38
440.483	54.38
441.263	60.38
442.042	64.38
442.822	66.38
443.601	73.38
444.38	77.38
445.16	83.38
445.939	91.38
446.718	93.38
447.497	104.38
448.276	115.38
449.054	125.38
449.833	140.38
450.612	158.38
451.391	171.38
452.169	181.38
452.948	208.38
453.726	220.38
454.504	253.38
455.282	282.38
456.061	305.38
456.839	345.38
457.617	374.38
458.395	431.38
459.172	485.38
459.95	538.38
460.728	600.38
461.506	674.38
462.283	749.38
463.061	846.38
463.838	941.38
464.615	1058.38
465.393	1170.38
466.17	1309.38
466.947	1461.38
467.724	1609.38
468.501	1824.38
469.278	1999.38
470.055	2222.38
470.831	2472.38
471.608	2730.38
472.385	3033.38
473.161	3347.38
473.938	3707.38
474.714	4079.38
475.49	4494.38
476.266	4978.38
477.043	5435.38
477.819	5975.38
478.595	6588.38
479.371	7213.38
480.146	7904.38
480.922	8649.38
481.698	9465.38
482.473	10354.38
483.249	11298.38
484.024	12367.38
484.8	13483.38
485.575	14600.38
486.35	15900.38
487.126	17244.38
487.901	18706.38
488.676	20261.38
489.451	21953.38
490.225	23629.38
491	25364.38
491.775	27186.38
492.55	29135.38
493.324	31043.38
494.099	32950.38
494.873	34949.38
495.647	36882.38
496.422	38809.38
497.196	40744.38
497.97	42440.38
498.744	43952.38
499.518	45616.38
500.292	46858.38
501.066	47827.38
501.839	48518.38
502.613	49142.38
503.387	49560.38
504.16	49792.38
504.934	49631.38
505.707	49269.38
506.48	48634.38
507.253	47842.38
508.027	46902.38
508.8	45639.38
509.573	44372.38
510.346	43152.38
511.118	41808.38
511.891	40297.38
512.664	38618.38
513.437	37208.38
514.209	35649.38
514.982	34179.38
515.754	32703.38
516.526	31298.38
517.298	30173.38
518.071	28849.38
518.843	27667.38
519.615	26582.38
520.387	25519.38
521.159	24490.38
521.93	23374.38
522.702	22441.38
523.474	21517.38
524.245	20541.38
525.017	19610.38
525.788	18722.38
526.56	17915.38
527.331	17100.38
528.102	16201.38
528.873	15359.38
529.644	14587.38
530.415	13953.38
531.186	13203.38
531.957	12487.38
532.728	11832.38
533.498	11180.38
534.269	10588.38
535.039	10055.38
535.81	9487.38
536.58	8949.38
537.351	8440.38
538.121	8010.38
538.891	7563.38
539.661	7183.38
540.431	6801.38
541.201	6435.38
541.971	6094.38
542.741	5809.38
543.51	5471.38
544.28	5211.38
545.05	4998.38
545.819	4719.38
546.588	4518.38
547.358	4283.38
548.127	4095.38
548.896	3864.38
549.665	3687.38
550.434	3472.38
551.203	3264.38
551.972	3133.38
552.741	2953.38
553.51	2802.38
554.278	2623.38
555.047	2471.38
555.815	2324.38
556.584	2210.38
557.352	2075.38
558.121	1961.38
558.889	1833.38
559.657	1758.38
560.425	1651.38
561.193	1557.38
561.961	1485.38
562.729	1404.38
563.496	1333.38
564.264	1256.38
565.032	1187.38
565.799	1131.38
566.567	1073.38
567.334	1004.38
568.101	956.38
568.869	907.38
569.636	850.38
570.403	798.38
571.17	751.38
571.937	714.38
572.704	667.38
573.471	641.38
574.237	596.38
575.004	565.38
575.771	535.38
576.537	497.38
577.303	477.38
578.07	453.38
578.836	425.38
579.602	402.38
580.368	385.38
581.134	363.38
581.9	335.38
582.666	330.38
583.432	311.38
584.198	292.38
584.964	277.38
585.729	266.38
586.495	252.38
587.26	243.38
588.025	223.38
588.791	220.38
589.556	199.38
590.321	196.38
591.086	187.38
591.851	179.38
592.616	170.38
593.381	162.38
594.146	152.38
594.911	144.38
595.675	137.38
596.44	136.38
597.204	127.38
597.969	128.38
598.733	114.38
599.497	107.38
600.261	106.38
601.025	104.38
601.79	97.38
602.553	98.38
603.317	92.38
604.081	88.38
604.845	87.38
605.609	79.38
606.372	79.38
607.136	79.38
607.899	74.38
608.662	71.38
609.426	65.38
610.189	65.38
610.952	63.38
611.715	63.38
612.478	55.38
613.241	56.38
614.004	56.38
614.767	51.38
615.529	53.38
616.292	50.38
617.055	47.38
617.817	45.38
618.579	44.38
619.342	44.38
620.104	39.38
620.866	39.38
621.628	40.38
622.39	36.38
623.152	38.38
623.914	33.38
624.676	33.38
625.438	32.38
626.199	32.38
626.961	31.38
627.722	26.38
628.484	28.38
629.245	26.38
630.006	27.38
630.768	29.38
631.529	26.38
632.29	25.38
633.051	24.38
633.812	26.38
634.573	23.38
635.333	25.38
636.094	24.38
636.855	20.38
637.615	24.38
638.376	19.38
639.136	24.38
639.896	22.38
640.657	18.38
641.417	20.38
642.177	17.38
642.937	20.38
643.697	16.38
644.457	17.38
645.216	17.38
645.976	15.38
646.736	18.38
647.495	13.38
648.255	17.38
649.014	16.38
649.774	14.38
650.533	12.38
651.292	13.38
652.051	14.38
652.81	13.38
653.569	14.38
654.328	13.38
655.087	12.38
655.846	13.38
656.604	13.38
657.363	11.38
658.121	11.38
658.88	12.38
659.638	11.38
660.397	12.38
661.155	13.38
661.913	11.38
662.671	13.38
663.429	9.38
664.187	10.38
664.945	11.38
665.703	6.38
666.46	11.38
667.218	10.38
667.976	10.38
668.733	9.38
669.49	7.38
670.248	11.38
671.005	8.38
671.762	9.38
672.519	9.38
673.276	12.38
674.033	8.38
674.79	7.38
675.547	10.38
676.304	8.38
677.06	11.38
677.817	7.38
678.574	10.38
679.33	8.38
680.086	7.38
680.843	9.38
681.599	8.38
682.355	9.38
683.111	10.38
683.867	7.38
684.623	9.38
685.379	8.38
686.135	9.38
686.89	7.38
687.646	7.38
688.402	8.38
689.157	8.38
689.912	5.38
690.668	7.38
691.423	10.38
692.178	7.38
692.933	6.38
693.688	10.38
694.443	7.38
695.198	9.38
695.953	7.38
696.708	6.38
697.462	7.38
698.217	6.38
698.972	9.38
699.726	8.38
700.48	9.38
701.235	8.38
701.989	8.38
702.743	8.38
703.497	10.38
704.251	9.38
705.005	10.38
705.759	8.38
706.513	6.38
707.266	7.38
708.02	7.38
708.774	8.38
709.527	9.38
710.28	7.38
711.034	8.38
711.787	9.38
712.54	6.38
713.293	8.38
714.046	6.38
714.799	8.38
715.552	10.38
716.305	9.38
717.058	9.38
717.81	10.38
718.563	8.38
719.315	8.38
720.068	7.38
720.82	6.38
721.573	7.38
722.325	9.38
723.077	9.38
723.829	9.38
724.581	9.38
725.333	8.38
726.085	9.38
726.836	9.38
727.588	11.38
728.34	9.38
729.091	9.38
729.843	10.38
730.594	10.38
731.346	9.38
732.097	9.38
732.848	8.38
733.599	9.38
734.35	11.38
735.101	10.38
735.852	11.38
736.603	11.38
737.354	9.38
738.104	13.38
738.855	11.38
739.605	10.38
740.356	11.38
741.106	11.38
741.856	11.38
742.607	10.38
743.357	11.38
744.107	9.38
744.857	12.38
745.607	11.38
746.357	11.38
747.106	9.38
747.856	12.38
748.606	10.38
749.355	11.38
750.105	11.38
750.854	11.38
751.603	11.38
752.353	12.38
753.102	13.38
753.851	11.38
754.6	11.38
755.349	14.38
756.098	15.38
756.847	14.38
757.595	13.38
758.344	15.38
759.093	12.38
759.841	15.38
760.589	14.38
761.338	13.38
762.086	13.38
762.834	9.38
763.582	15.38
764.331	16.38
765.079	16.38
765.826	14.38
766.574	17.38
767.322	15.38
768.07	13.38
768.817	15.38
769.565	15.38
770.312	18.38
771.06	15.38
771.807	18.38
772.554	15.38
773.302	15.38
774.049	19.38
774.796	18.38
775.543	15.38
776.29	18.38
777.036	18.38
777.783	18.38
778.53	16.38
779.276	17.38
780.023	16.38
780.769	19.38
781.516	16.38
782.262	16.38
783.008	17.38
783.754	17.38
784.5	18.38
785.246	16.38
785.992	18.38
786.738	16.38
787.484	18.38
788.23	18.38
788.975	18.38
789.721	17.38
790.466	17.38
791.212	13.38
791.957	17.38
792.702	14.38
793.447	15.38
794.193	18.38
794.938	17.38
795.683	14.38
796.427	13.38
797.172	15.38
797.917	14.38
798.662	15.38
799.406	16.38
800.151	13.38
800.895	15.38
801.64	13.38
802.384	12.38
803.128	11.38
803.872	13.38
804.616	9.38
805.36	11.38
806.104	10.38
806.848	10.38
807.592	12.38
808.336	11.38
809.079	7.38
809.823	11.38
810.566	10.38
811.31	9.38
812.053	10.38
812.796	9.38
813.539	8.38
814.283	8.38
815.026	8.38
815.769	10.38
816.511	9.38
817.254	9.38
817.997	8.38
818.74	8.38
819.482	9.38
820.225	10.38
820.967	5.38
821.71	9.38
822.452	8.38
823.194	6.38
823.936	8.38
824.678	9.38
825.42	10.38
826.162	7.38
826.904	6.38
827.646	6.38
828.388	7.38
829.129	7.38
829.871	7.38
830.612	8.38
831.354	8.38
832.095	4.38
832.836	5.38
833.577	6.38
834.319	7.38
835.06	7.38
835.801	6.38
836.542	6.38
837.282	7.38
838.023	8.38
838.764	5.38
839.504	7.38
840.245	2.38
840.985	4.38
841.726	6.38
842.466	5.38
843.206	4.38
843.946	4.38
844.687	2.38
845.427	4.38
846.166	5.38
846.906	4.38
847.646	5.38
848.386	7.38
849.125	5.38
849.865	5.38
850.605	6.38
851.344	3.38
852.083	6.38
852.823	3.38
853.562	3.38
854.301	5.38
855.04	4.38
855.779	5.38
856.518	6.38
857.257	5.38
857.995	4.38
858.734	5.38
859.473	2.38
860.211	2.38
860.95	5.38
861.688	4.38
862.426	3.38
863.165	3.38
863.903	4.38
864.641	1.38
865.379	4.38
866.117	4.38
866.855	5.38
867.593	4.38
868.33	2.38
869.068	5.38
869.806	3.38
870.543	3.38
871.28	3.38
872.018	2.38
872.755	3.38
873.492	5.38
874.229	1.38
874.967	2.38
875.703	3.38
876.44	3.38
877.177	2.38
877.914	3.38
878.651	5.38
879.387	2.38
880.124	3.38
880.86	2.38
881.597	2.38
882.333	1.38
883.069	3.38
883.806	2.38
884.542	1.38
885.278	2.38
886.014	3.38
886.749	2.38
887.485	3.38
888.221	2.38
888.957	2.38
889.692	1.38
890.428	0.38
891.163	1.38
891.899	2.38
892.634	2.38
893.369	0.38
894.104	1.38
894.839	-0.62
895.574	1.38
896.309	1.38
897.044	2.38
897.779	3.38
898.514	2.38
899.248	3.38
899.983	2.38
900.717	1.38
901.452	1.38
902.186	3.38
902.92	2.38
903.654	-0.62
904.389	0.38
905.123	0.38
905.857	0.38
906.59	2.38
907.324	-0.62
908.058	2.38
908.792	1.38
909.525	1.38
910.259	1.38
910.992	-1.62
911.726	-0.62
912.459	1.38
913.192	2.38
913.925	0.38
914.658	-0.62
915.391	1.38
916.124	1.38
916.857	2.38
917.59	1.38
918.323	0.38
919.055	0.38
919.788	2.38
920.521	1.38
921.253	0.38
921.985	2.38
922.718	-0.62
923.45	1.38
924.182	1.38
924.914	0.38
925.646	3.38
926.378	0.38
927.11	1.38
927.841	1.38
928.573	0.38
929.305	0.38
930.036	1.38
930.768	1.38
931.499	0.38
932.23	3.38
932.962	2.38
933.693	-0.62
934.424	2.38
935.155	0.38
935.886	0.38
936.617	2.38
937.348	1.38
938.078	0.38
938.809	1.38
939.54	2.38
940.27	-0.62
941.001	0.38
941.731	1.38
942.461	-0.62
943.191	4.38
943.922	0.38
944.652	2.38
945.382	2.38
946.112	-0.62
946.841	2.38
947.571	0.38
948.301	-0.62
949.031	1.38
949.76	2.38
950.49	0.38
951.219	1.38
951.948	1.38
952.678	0.38
953.407	4.38
954.136	2.38
954.865	0.38
955.594	-0.62
956.323	2.38
957.052	1.38
957.78	-0.62
958.509	1.38
959.238	0.38
959.966	2.38
960.695	3.38
961.423	-0.62
962.151	2.38
962.88	1.38
963.608	1.38
964.336	-0.62
965.064	0.38
965.792	1.38
966.52	-0.62
967.247	1.38
967.975	1.38
968.703	1.38
969.43	3.38
970.158	-0.62
970.885	0.38
971.613	0.38
972.34	2.38
973.067	-0.62
973.794	1.38
974.521	1.38
975.248	0.38
975.975	1.38
976.702	1.38
977.429	0.38
978.156	-1.62
978.882	-2.62
979.609	2.38
980.335	-1.62
981.062	2.38
981.788	1.38
982.514	1.38
983.24	-0.62
983.967	-0.62
984.693	2.38
985.419	-0.62
986.144	0.38
986.87	2.38
987.596	0.38
988.322	2.38
989.047	-1.62
989.773	1.38
990.498	1.38
991.224	0.38
991.949	1.38
992.674	1.38
993.399	1.38
994.124	-0.62
994.849	0.38
995.574	0.38
996.299	0.38
997.024	1.38
997.749	-0.62
998.473	0.38
999.198	1.38
999.922	2.38
1000.647	-0.62
1001.371	3.38
1002.095	-1.62
1002.82	-1.62
1003.544	-0.62
1004.268	8.38
1004.992	5.38
1005.716	6.38
1006.439	5.38
1007.163	4.38
1007.887	8.38
1008.611	2.38
1009.334	-0.62
1010.058	-0.62
1010.781	2.38
1011.504	1.38
1012.228	2.38
1012.951	-0.62
1013.674	1.38
1014.397	0.38
1015.12	-0.62
