节点500_705_QEPB04081__269__20-49-47-428.txt的数据

Date: Wed Nov 12 20:49:47 CST 2025
User: PC
Spectrometer: QEPB0408
触发模式: 0
积分时间 (秒): 1.000000E-2
Scans to average: 1
启用暗噪声校正: true
启用非线性校正: false
滑动平均宽度: 0
X轴模式: Wavelengths
Number of Pixels in Spectrum: 1044
>>>>>Begin Spectral Data<<<<<
220.843	5.5
221.644	5.5
222.444	7.5
223.244	6.5
224.045	8.5
224.845	8.5
225.645	7.5
226.445	5.5
227.245	8.5
228.045	6.5
228.845	7.5
229.645	7.5
230.444	8.5
231.244	6.5
232.043	9.5
232.843	9.5
233.642	10.5
234.442	11.5
235.241	11.5
236.04	11.5
236.839	12.5
237.638	10.5
238.437	11.5
239.236	12.5
240.035	12.5
240.833	13.5
241.632	11.5
242.43	13.5
243.229	11.5
244.027	12.5
244.826	12.5
245.624	12.5
246.422	15.5
247.22	14.5
248.018	16.5
248.816	15.5
249.614	15.5
250.412	15.5
251.21	15.5
252.007	18.5
252.805	18.5
253.602	19.5
254.4	19.5
255.197	21.5
255.994	22.5
256.791	21.5
257.589	19.5
258.386	21.5
259.183	22.5
259.979	22.5
260.776	24.5
261.573	22.5
262.37	25.5
263.166	25.5
263.963	24.5
264.759	26.5
265.556	29.5
266.352	28.5
267.148	28.5
267.944	28.5
268.74	31.5
269.536	31.5
270.332	30.5
271.128	34.5
271.924	31.5
272.719	35.5
273.515	27.5
274.311	36.5
275.106	30.5
275.901	32.5
276.697	35.5
277.492	32.5
278.287	34.5
279.082	35.5
279.877	35.5
280.672	35.5
281.467	34.5
282.262	35.5
283.056	34.5
283.851	35.5
284.646	35.5
285.44	30.5
286.234	33.5
287.029	31.5
287.823	33.5
288.617	33.5
289.411	33.5
290.205	36.5
290.999	33.5
291.793	33.5
292.587	31.5
293.381	31.5
294.174	32.5
294.968	28.5
295.761	28.5
296.555	26.5
297.348	27.5
298.141	27.5
298.935	31.5
299.728	26.5
300.521	27.5
301.314	22.5
302.107	23.5
302.899	23.5
303.692	24.5
304.485	21.5
305.277	23.5
306.07	23.5
306.862	22.5
307.655	22.5
308.447	20.5
309.239	19.5
310.031	19.5
310.823	19.5
311.615	15.5
312.407	19.5
313.199	15.5
313.991	18.5
314.783	17.5
315.574	19.5
316.366	17.5
317.157	15.5
317.949	14.5
318.74	11.5
319.531	15.5
320.322	17.5
321.113	15.5
321.904	16.5
322.695	13.5
323.486	13.5
324.277	14.5
325.068	12.5
325.858	12.5
326.649	13.5
327.439	15.5
328.23	12.5
329.02	13.5
329.81	11.5
330.6	8.5
331.391	14.5
332.181	11.5
332.971	13.5
333.76	11.5
334.55	11.5
335.34	12.5
336.13	11.5
336.919	13.5
337.709	15.5
338.498	14.5
339.287	11.5
340.077	13.5
340.866	11.5
341.655	10.5
342.444	13.5
343.233	13.5
344.022	11.5
344.811	10.5
345.6	13.5
346.388	12.5
347.177	12.5
347.965	11.5
348.754	11.5
349.542	12.5
350.33	12.5
351.119	13.5
351.907	13.5
352.695	9.5
353.483	11.5
354.271	11.5
355.059	11.5
355.846	10.5
356.634	8.5
357.422	12.5
358.209	8.5
358.997	10.5
359.784	12.5
360.571	9.5
361.359	12.5
362.146	10.5
362.933	9.5
363.72	11.5
364.507	9.5
365.294	12.5
366.081	8.5
366.867	11.5
367.654	9.5
368.44	11.5
369.227	10.5
370.013	10.5
370.8	12.5
371.586	8.5
372.372	11.5
373.158	10.5
373.944	10.5
374.73	10.5
375.516	11.5
376.302	11.5
377.088	10.5
377.873	10.5
378.659	11.5
379.445	9.5
380.23	10.5
381.015	11.5
381.801	9.5
382.586	13.5
383.371	8.5
384.156	8.5
384.941	10.5
385.726	12.5
386.511	10.5
387.296	13.5
388.08	13.5
388.865	11.5
389.649	11.5
390.434	11.5
391.218	11.5
392.003	13.5
392.787	9.5
393.571	13.5
394.355	11.5
395.139	14.5
395.923	10.5
396.707	17.5
397.491	13.5
398.274	10.5
399.058	16.5
399.842	15.5
400.625	15.5
401.408	14.5
402.192	14.5
402.975	13.5
403.758	14.5
404.541	14.5
405.324	13.5
406.107	18.5
406.89	15.5
407.673	13.5
408.456	16.5
409.238	17.5
410.021	17.5
410.803	20.5
411.586	18.5
412.368	17.5
413.151	18.5
413.933	20.5
414.715	18.5
415.497	18.5
416.279	18.5
417.061	19.5
417.843	19.5
418.624	17.5
419.406	19.5
420.188	21.5
420.969	20.5
421.751	23.5
422.532	21.5
423.313	24.5
424.095	23.5
424.876	23.5
425.657	27.5
426.438	26.5
427.219	26.5
428	27.5
428.78	28.5
429.561	31.5
430.342	30.5
431.122	32.5
431.903	35.5
432.683	33.5
433.464	31.5
434.244	36.5
435.024	42.5
435.804	40.5
436.584	43.5
437.364	44.5
438.144	50.5
438.924	53.5
439.704	55.5
440.483	59.5
441.263	63.5
442.042	63.5
442.822	68.5
443.601	73.5
444.38	78.5
445.16	87.5
445.939	94.5
446.718	104.5
447.497	106.5
448.276	120.5
449.054	131.5
449.833	149.5
450.612	159.5
451.391	174.5
452.169	196.5
452.948	211.5
453.726	235.5
454.504	259.5
455.282	292.5
456.061	324.5
456.839	366.5
457.617	400.5
458.395	453.5
459.172	501.5
459.95	557.5
460.728	630.5
461.506	702.5
462.283	782.5
463.061	874.5
463.838	981.5
464.615	1083.5
465.393	1192.5
466.17	1344.5
466.947	1500.5
467.724	1627.5
468.501	1837.5
469.278	2030.5
470.055	2259.5
470.831	2496.5
471.608	2756.5
472.385	3056.5
473.161	3364.5
473.938	3681.5
474.714	4056.5
475.49	4468.5
476.266	4900.5
477.043	5377.5
477.819	5882.5
478.595	6390.5
479.371	6996.5
480.146	7665.5
480.922	8359.5
481.698	9130.5
482.473	9954.5
483.249	10881.5
484.024	11752.5
484.8	12807.5
485.575	13858.5
486.35	15059.5
487.126	16305.5
487.901	17698.5
488.676	19117.5
489.451	20595.5
490.225	22137.5
491	23763.5
491.775	25409.5
492.55	27266.5
493.324	28986.5
494.099	30776.5
494.873	32596.5
495.647	34420.5
496.422	36298.5
497.196	38100.5
497.97	39773.5
498.744	41184.5
499.518	42819.5
500.292	44234.5
501.066	45280.5
501.839	46093.5
502.613	46899.5
503.387	47443.5
504.16	47754.5
504.934	47831.5
505.707	47716.5
506.48	47274.5
507.253	46735.5
508.027	45936.5
508.8	45008.5
509.573	43824.5
510.346	42696.5
511.118	41641.5
511.891	40329.5
512.664	38757.5
513.437	37166.5
514.209	35873.5
514.982	34495.5
515.754	33045.5
516.526	31659.5
517.298	30404.5
518.071	29159.5
518.843	28003.5
519.615	26866.5
520.387	25824.5
521.159	24764.5
521.93	23778.5
522.702	22819.5
523.474	21752.5
524.245	20857.5
525.017	19984.5
525.788	19066.5
526.56	18249.5
527.331	17419.5
528.102	16508.5
528.873	15731.5
529.644	14953.5
530.415	14320.5
531.186	13563.5
531.957	12847.5
532.728	12175.5
533.498	11551.5
534.269	10879.5
535.039	10321.5
535.81	9776.5
536.58	9235.5
537.351	8710.5
538.121	8327.5
538.891	7833.5
539.661	7424.5
540.431	6998.5
541.201	6658.5
541.971	6291.5
542.741	5987.5
543.51	5662.5
544.28	5419.5
545.05	5155.5
545.819	4893.5
546.588	4676.5
547.358	4443.5
548.127	4218.5
548.896	3995.5
549.665	3798.5
550.434	3594.5
551.203	3427.5
551.972	3250.5
552.741	3074.5
553.51	2891.5
554.278	2707.5
555.047	2580.5
555.815	2421.5
556.584	2300.5
557.352	2182.5
558.121	2060.5
558.889	1931.5
559.657	1829.5
560.425	1726.5
561.193	1640.5
561.961	1565.5
562.729	1475.5
563.496	1386.5
564.264	1313.5
565.032	1246.5
565.799	1173.5
566.567	1117.5
567.334	1059.5
568.101	998.5
568.869	950.5
569.636	888.5
570.403	847.5
571.17	796.5
571.937	748.5
572.704	710.5
573.471	665.5
574.237	629.5
575.004	597.5
575.771	555.5
576.537	525.5
577.303	506.5
578.07	467.5
578.836	439.5
579.602	419.5
580.368	399.5
581.134	379.5
581.9	352.5
582.666	341.5
583.432	318.5
584.198	311.5
584.964	294.5
585.729	277.5
586.495	266.5
587.26	249.5
588.025	237.5
588.791	227.5
589.556	210.5
590.321	202.5
591.086	196.5
591.851	181.5
592.616	174.5
593.381	169.5
594.146	156.5
594.911	149.5
595.675	143.5
596.44	137.5
597.204	131.5
597.969	123.5
598.733	120.5
599.497	120.5
600.261	115.5
601.025	106.5
601.79	100.5
602.553	97.5
603.317	95.5
604.081	88.5
604.845	90.5
605.609	83.5
606.372	83.5
607.136	75.5
607.899	74.5
608.662	71.5
609.426	69.5
610.189	64.5
610.952	62.5
611.715	58.5
612.478	61.5
613.241	61.5
614.004	52.5
614.767	54.5
615.529	53.5
616.292	52.5
617.055	48.5
617.817	48.5
618.579	47.5
619.342	45.5
620.104	43.5
620.866	38.5
621.628	36.5
622.39	38.5
623.152	34.5
623.914	36.5
624.676	38.5
625.438	35.5
626.199	33.5
626.961	31.5
627.722	30.5
628.484	32.5
629.245	28.5
630.006	28.5
630.768	28.5
631.529	26.5
632.29	27.5
633.051	25.5
633.812	24.5
634.573	24.5
635.333	24.5
636.094	23.5
636.855	19.5
637.615	20.5
638.376	24.5
639.136	20.5
639.896	19.5
640.657	17.5
641.417	19.5
642.177	20.5
642.937	16.5
643.697	18.5
644.457	18.5
645.216	16.5
645.976	18.5
646.736	17.5
647.495	15.5
648.255	15.5
649.014	16.5
649.774	15.5
650.533	13.5
651.292	14.5
652.051	15.5
652.81	14.5
653.569	11.5
654.328	15.5
655.087	10.5
655.846	15.5
656.604	14.5
657.363	12.5
658.121	13.5
658.88	10.5
659.638	12.5
660.397	10.5
661.155	12.5
661.913	12.5
662.671	9.5
663.429	10.5
664.187	11.5
664.945	12.5
665.703	9.5
666.46	11.5
667.218	10.5
667.976	9.5
668.733	9.5
669.49	12.5
670.248	10.5
671.005	9.5
671.762	7.5
672.519	10.5
673.276	10.5
674.033	11.5
674.79	7.5
675.547	11.5
676.304	8.5
677.06	9.5
677.817	9.5
678.574	5.5
679.33	7.5
680.086	11.5
680.843	8.5
681.599	6.5
682.355	9.5
683.111	9.5
683.867	9.5
684.623	8.5
685.379	7.5
686.135	10.5
686.89	7.5
687.646	7.5
688.402	7.5
689.157	9.5
689.912	8.5
690.668	8.5
691.423	8.5
692.178	7.5
692.933	8.5
693.688	9.5
694.443	6.5
695.198	9.5
695.953	11.5
696.708	8.5
697.462	8.5
698.217	6.5
698.972	9.5
699.726	7.5
700.48	5.5
701.235	7.5
701.989	5.5
702.743	7.5
703.497	8.5
704.251	5.5
705.005	7.5
705.759	7.5
706.513	8.5
707.266	7.5
708.02	7.5
708.774	6.5
709.527	6.5
710.28	7.5
711.034	10.5
711.787	9.5
712.54	7.5
713.293	7.5
714.046	8.5
714.799	7.5
715.552	8.5
716.305	8.5
717.058	7.5
717.81	9.5
718.563	7.5
719.315	6.5
720.068	8.5
720.82	7.5
721.573	8.5
722.325	8.5
723.077	11.5
723.829	7.5
724.581	9.5
725.333	8.5
726.085	10.5
726.836	9.5
727.588	7.5
728.34	8.5
729.091	8.5
729.843	10.5
730.594	7.5
731.346	11.5
732.097	9.5
732.848	7.5
733.599	7.5
734.35	8.5
735.101	10.5
735.852	8.5
736.603	9.5
737.354	10.5
738.104	11.5
738.855	6.5
739.605	10.5
740.356	13.5
741.106	13.5
741.856	9.5
742.607	10.5
743.357	11.5
744.107	8.5
744.857	10.5
745.607	10.5
746.357	11.5
747.106	12.5
747.856	11.5
748.606	11.5
749.355	9.5
750.105	10.5
750.854	11.5
751.603	13.5
752.353	10.5
753.102	12.5
753.851	14.5
754.6	11.5
755.349	8.5
756.098	11.5
756.847	13.5
757.595	13.5
758.344	11.5
759.093	13.5
759.841	11.5
760.589	14.5
761.338	15.5
762.086	12.5
762.834	14.5
763.582	13.5
764.331	14.5
765.079	13.5
765.826	12.5
766.574	14.5
767.322	11.5
768.07	14.5
768.817	14.5
769.565	15.5
770.312	15.5
771.06	14.5
771.807	15.5
772.554	13.5
773.302	14.5
774.049	14.5
774.796	17.5
775.543	15.5
776.29	16.5
777.036	14.5
777.783	17.5
778.53	16.5
779.276	19.5
780.023	13.5
780.769	17.5
781.516	13.5
782.262	18.5
783.008	16.5
783.754	15.5
784.5	17.5
785.246	17.5
785.992	18.5
786.738	17.5
787.484	17.5
788.23	17.5
788.975	17.5
789.721	15.5
790.466	17.5
791.212	16.5
791.957	17.5
792.702	15.5
793.447	13.5
794.193	13.5
794.938	13.5
795.683	13.5
796.427	15.5
797.172	14.5
797.917	15.5
798.662	17.5
799.406	11.5
800.151	14.5
800.895	12.5
801.64	14.5
802.384	13.5
803.128	11.5
803.872	13.5
804.616	8.5
805.36	10.5
806.104	10.5
806.848	10.5
807.592	7.5
808.336	9.5
809.079	10.5
809.823	10.5
810.566	12.5
811.31	8.5
812.053	11.5
812.796	10.5
813.539	9.5
814.283	9.5
815.026	8.5
815.769	11.5
816.511	9.5
817.254	6.5
817.997	6.5
818.74	5.5
819.482	6.5
820.225	7.5
820.967	9.5
821.71	9.5
822.452	5.5
823.194	9.5
823.936	7.5
824.678	8.5
825.42	7.5
826.162	7.5
826.904	6.5
827.646	7.5
828.388	10.5
829.129	6.5
829.871	5.5
830.612	10.5
831.354	8.5
832.095	7.5
832.836	6.5
833.577	7.5
834.319	6.5
835.06	7.5
835.801	4.5
836.542	4.5
837.282	7.5
838.023	6.5
838.764	6.5
839.504	5.5
840.245	6.5
840.985	7.5
841.726	4.5
842.466	7.5
843.206	5.5
843.946	7.5
844.687	5.5
845.427	4.5
846.166	5.5
846.906	3.5
847.646	7.5
848.386	4.5
849.125	4.5
849.865	4.5
850.605	4.5
851.344	5.5
852.083	3.5
852.823	6.5
853.562	1.5
854.301	6.5
855.04	8.5
855.779	3.5
856.518	6.5
857.257	5.5
857.995	3.5
858.734	4.5
859.473	3.5
860.211	5.5
860.95	4.5
861.688	6.5
862.426	3.5
863.165	3.5
863.903	4.5
864.641	3.5
865.379	4.5
866.117	4.5
866.855	3.5
867.593	5.5
868.33	3.5
869.068	3.5
869.806	2.5
870.543	3.5
871.28	1.5
872.018	1.5
872.755	4.5
873.492	1.5
874.229	1.5
874.967	1.5
875.703	5.5
876.44	3.5
877.177	3.5
877.914	2.5
878.651	3.5
879.387	2.5
880.124	-0.5
880.86	-0.5
881.597	2.5
882.333	3.5
883.069	1.5
883.806	3.5
884.542	3.5
885.278	3.5
886.014	0.5
886.749	2.5
887.485	1.5
888.221	1.5
888.957	1.5
889.692	1.5
890.428	0.5
891.163	0.5
891.899	2.5
892.634	0.5
893.369	2.5
894.104	2.5
894.839	2.5
895.574	2.5
896.309	2.5
897.044	2.5
897.779	1.5
898.514	2.5
899.248	2.5
899.983	3.5
900.717	0.5
901.452	1.5
902.186	0.5
902.92	1.5
903.654	-0.5
904.389	2.5
905.123	0.5
905.857	1.5
906.59	0.5
907.324	0.5
908.058	0.5
908.792	-0.5
909.525	2.5
910.259	-1.5
910.992	1.5
911.726	3.5
912.459	0.5
913.192	-0.5
913.925	1.5
914.658	2.5
915.391	1.5
916.124	1.5
916.857	0.5
917.59	-0.5
918.323	3.5
919.055	2.5
919.788	0.5
920.521	2.5
921.253	2.5
921.985	-0.5
922.718	0.5
923.45	3.5
924.182	0.5
924.914	2.5
925.646	2.5
926.378	-0.5
927.11	1.5
927.841	-0.5
928.573	-0.5
929.305	1.5
930.036	-0.5
930.768	0.5
931.499	0.5
932.23	2.5
932.962	1.5
933.693	1.5
934.424	0.5
935.155	0.5
935.886	3.5
936.617	-2.5
937.348	-0.5
938.078	3.5
938.809	-0.5
939.54	0.5
940.27	0.5
941.001	1.5
941.731	0.5
942.461	2.5
943.191	-0.5
943.922	1.5
944.652	1.5
945.382	0.5
946.112	2.5
946.841	1.5
947.571	0.5
948.301	1.5
949.031	0.5
949.76	-0.5
950.49	1.5
951.219	0.5
951.948	0.5
952.678	0.5
953.407	2.5
954.136	0.5
954.865	1.5
955.594	0.5
956.323	0.5
957.052	1.5
957.78	2.5
958.509	0.5
959.238	1.5
959.966	2.5
960.695	0.5
961.423	1.5
962.151	2.5
962.88	2.5
963.608	2.5
964.336	-0.5
965.064	0.5
965.792	-1.5
966.52	1.5
967.247	1.5
967.975	0.5
968.703	1.5
969.43	3.5
970.158	-0.5
970.885	1.5
971.613	-0.5
972.34	2.5
973.067	0.5
973.794	0.5
974.521	1.5
975.248	2.5
975.975	1.5
976.702	1.5
977.429	3.5
978.156	1.5
978.882	3.5
979.609	-0.5
980.335	1.5
981.062	1.5
981.788	0.5
982.514	1.5
983.24	0.5
983.967	0.5
984.693	2.5
985.419	-0.5
986.144	2.5
986.87	0.5
987.596	-0.5
988.322	1.5
989.047	0.5
989.773	0.5
990.498	-0.5
991.224	2.5
991.949	0.5
992.674	1.5
993.399	0.5
994.124	-0.5
994.849	1.5
995.574	-0.5
996.299	1.5
997.024	2.5
997.749	2.5
998.473	-0.5
999.198	1.5
999.922	2.5
1000.647	0.5
1001.371	2.5
1002.095	0.5
1002.82	0.5
1003.544	-1.5
1004.268	5.5
1004.992	6.5
1005.716	6.5
1006.439	2.5
1007.163	8.5
1007.887	4.5
1008.611	-0.5
1009.334	2.5
1010.058	0.5
1010.781	1.5
1011.504	0.5
1012.228	-0.5
1012.951	-1.5
1013.674	-0.5
1014.397	-0.5
1015.12	0.5
