节点500_705_QEPB04081__539__20-53-35-728.txt的数据

Date: Wed Nov 12 20:53:35 CST 2025
User: PC
Spectrometer: QEPB0408
触发模式: 0
积分时间 (秒): 1.000000E-2
Scans to average: 1
启用暗噪声校正: true
启用非线性校正: false
滑动平均宽度: 0
X轴模式: Wavelengths
Number of Pixels in Spectrum: 1044
>>>>>Begin Spectral Data<<<<<
220.843	5.25
221.644	7.25
222.444	3.25
223.244	5.25
224.045	5.25
224.845	7.25
225.645	7.25
226.445	6.25
227.245	5.25
228.045	9.25
228.845	9.25
229.645	6.25
230.444	5.25
231.244	6.25
232.043	7.25
232.843	9.25
233.642	7.25
234.442	9.25
235.241	10.25
236.04	8.25
236.839	11.25
237.638	9.25
238.437	10.25
239.236	9.25
240.035	9.25
240.833	12.25
241.632	11.25
242.43	11.25
243.229	12.25
244.027	12.25
244.826	11.25
245.624	12.25
246.422	14.25
247.22	13.25
248.018	13.25
248.816	15.25
249.614	14.25
250.412	15.25
251.21	14.25
252.007	14.25
252.805	15.25
253.602	17.25
254.4	16.25
255.197	19.25
255.994	18.25
256.791	18.25
257.589	20.25
258.386	19.25
259.183	21.25
259.979	21.25
260.776	20.25
261.573	19.25
262.37	21.25
263.166	21.25
263.963	24.25
264.759	23.25
265.556	23.25
266.352	24.25
267.148	26.25
267.944	25.25
268.74	28.25
269.536	31.25
270.332	27.25
271.128	28.25
271.924	28.25
272.719	30.25
273.515	25.25
274.311	30.25
275.106	28.25
275.901	31.25
276.697	32.25
277.492	29.25
278.287	30.25
279.082	32.25
279.877	31.25
280.672	30.25
281.467	33.25
282.262	34.25
283.056	31.25
283.851	35.25
284.646	37.25
285.44	30.25
286.234	29.25
287.029	31.25
287.823	33.25
288.617	30.25
289.411	31.25
290.205	33.25
290.999	32.25
291.793	33.25
292.587	29.25
293.381	30.25
294.174	29.25
294.968	25.25
295.761	30.25
296.555	27.25
297.348	26.25
298.141	26.25
298.935	30.25
299.728	27.25
300.521	25.25
301.314	23.25
302.107	25.25
302.899	24.25
303.692	22.25
304.485	24.25
305.277	22.25
306.07	21.25
306.862	22.25
307.655	22.25
308.447	20.25
309.239	20.25
310.031	22.25
310.823	18.25
311.615	19.25
312.407	19.25
313.199	17.25
313.991	15.25
314.783	17.25
315.574	15.25
316.366	18.25
317.157	14.25
317.949	16.25
318.74	14.25
319.531	17.25
320.322	13.25
321.113	13.25
321.904	15.25
322.695	15.25
323.486	13.25
324.277	14.25
325.068	11.25
325.858	15.25
326.649	13.25
327.439	14.25
328.23	14.25
329.02	14.25
329.81	11.25
330.6	11.25
331.391	11.25
332.181	14.25
332.971	12.25
333.76	13.25
334.55	12.25
335.34	14.25
336.13	13.25
336.919	11.25
337.709	11.25
338.498	14.25
339.287	12.25
340.077	10.25
340.866	10.25
341.655	8.25
342.444	13.25
343.233	11.25
344.022	14.25
344.811	11.25
345.6	14.25
346.388	11.25
347.177	11.25
347.965	11.25
348.754	11.25
349.542	11.25
350.33	14.25
351.119	9.25
351.907	9.25
352.695	10.25
353.483	12.25
354.271	10.25
355.059	10.25
355.846	9.25
356.634	12.25
357.422	10.25
358.209	11.25
358.997	12.25
359.784	10.25
360.571	12.25
361.359	10.25
362.146	11.25
362.933	11.25
363.72	9.25
364.507	10.25
365.294	8.25
366.081	10.25
366.867	9.25
367.654	10.25
368.44	10.25
369.227	10.25
370.013	9.25
370.8	8.25
371.586	8.25
372.372	11.25
373.158	10.25
373.944	10.25
374.73	8.25
375.516	9.25
376.302	11.25
377.088	9.25
377.873	10.25
378.659	9.25
379.445	9.25
380.23	8.25
381.015	10.25
381.801	9.25
382.586	11.25
383.371	9.25
384.156	10.25
384.941	10.25
385.726	13.25
386.511	8.25
387.296	12.25
388.08	10.25
388.865	11.25
389.649	10.25
390.434	11.25
391.218	11.25
392.003	12.25
392.787	12.25
393.571	10.25
394.355	12.25
395.139	13.25
395.923	10.25
396.707	14.25
397.491	14.25
398.274	12.25
399.058	12.25
399.842	13.25
400.625	12.25
401.408	13.25
402.192	12.25
402.975	13.25
403.758	13.25
404.541	16.25
405.324	14.25
406.107	15.25
406.89	16.25
407.673	13.25
408.456	13.25
409.238	14.25
410.021	17.25
410.803	16.25
411.586	17.25
412.368	19.25
413.151	15.25
413.933	16.25
414.715	16.25
415.497	18.25
416.279	15.25
417.061	17.25
417.843	20.25
418.624	17.25
419.406	21.25
420.188	18.25
420.969	21.25
421.751	18.25
422.532	18.25
423.313	22.25
424.095	22.25
424.876	22.25
425.657	24.25
426.438	23.25
427.219	26.25
428	26.25
428.78	28.25
429.561	25.25
430.342	32.25
431.122	30.25
431.903	31.25
432.683	35.25
433.464	37.25
434.244	35.25
435.024	40.25
435.804	40.25
436.584	41.25
437.364	43.25
438.144	51.25
438.924	50.25
439.704	58.25
440.483	57.25
441.263	63.25
442.042	66.25
442.822	72.25
443.601	81.25
444.38	83.25
445.16	92.25
445.939	100.25
446.718	107.25
447.497	114.25
448.276	123.25
449.054	144.25
449.833	157.25
450.612	167.25
451.391	195.25
452.169	207.25
452.948	228.25
453.726	262.25
454.504	275.25
455.282	315.25
456.061	349.25
456.839	384.25
457.617	429.25
458.395	485.25
459.172	538.25
459.95	608.25
460.728	672.25
461.506	746.25
462.283	822.25
463.061	918.25
463.838	1026.25
464.615	1130.25
465.393	1255.25
466.17	1392.25
466.947	1540.25
467.724	1689.25
468.501	1869.25
469.278	2079.25
470.055	2276.25
470.831	2505.25
471.608	2763.25
472.385	3015.25
473.161	3302.25
473.938	3638.25
474.714	3957.25
475.49	4347.25
476.266	4733.25
477.043	5144.25
477.819	5622.25
478.595	6107.25
479.371	6650.25
480.146	7227.25
480.922	7812.25
481.698	8537.25
482.473	9199.25
483.249	9988.25
484.024	10840.25
484.8	11657.25
485.575	12605.25
486.35	13620.25
487.126	14700.25
487.901	15816.25
488.676	16987.25
489.451	18342.25
490.225	19687.25
491	21026.25
491.775	22446.25
492.55	24003.25
493.324	25450.25
494.099	27037.25
494.873	28680.25
495.647	30313.25
496.422	31949.25
497.196	33554.25
497.97	35053.25
498.744	36580.25
499.518	38168.25
500.292	39477.25
501.066	40534.25
501.839	41583.25
502.613	42433.25
503.387	43243.25
504.16	43770.25
504.934	44093.25
505.707	44200.25
506.48	44309.25
507.253	43987.25
508.027	43621.25
508.8	43028.25
509.573	42285.25
510.346	41435.25
511.118	40736.25
511.891	39573.25
512.664	38268.25
513.437	37025.25
514.209	35772.25
514.982	34515.25
515.754	33153.25
516.526	31952.25
517.298	30689.25
518.071	29536.25
518.843	28400.25
519.615	27175.25
520.387	26217.25
521.159	25126.25
521.93	24132.25
522.702	23106.25
523.474	22187.25
524.245	21327.25
525.017	20385.25
525.788	19569.25
526.56	18792.25
527.331	17974.25
528.102	17080.25
528.873	16286.25
529.644	15491.25
530.415	14802.25
531.186	14133.25
531.957	13369.25
532.728	12706.25
533.498	12093.25
534.269	11482.25
535.039	10924.25
535.81	10304.25
536.58	9716.25
537.351	9225.25
538.121	8769.25
538.891	8285.25
539.661	7855.25
540.431	7397.25
541.201	7028.25
541.971	6719.25
542.741	6310.25
543.51	6021.25
544.28	5712.25
545.05	5444.25
545.819	5196.25
546.588	4961.25
547.358	4714.25
548.127	4500.25
548.896	4228.25
549.665	4034.25
550.434	3824.25
551.203	3658.25
551.972	3450.25
552.741	3299.25
553.51	3095.25
554.278	2908.25
555.047	2760.25
555.815	2623.25
556.584	2474.25
557.352	2332.25
558.121	2210.25
558.889	2089.25
559.657	1964.25
560.425	1884.25
561.193	1778.25
561.961	1668.25
562.729	1602.25
563.496	1490.25
564.264	1424.25
565.032	1356.25
565.799	1275.25
566.567	1207.25
567.334	1132.25
568.101	1086.25
568.869	1009.25
569.636	953.25
570.403	908.25
571.17	846.25
571.937	809.25
572.704	763.25
573.471	715.25
574.237	673.25
575.004	633.25
575.771	597.25
576.537	565.25
577.303	545.25
578.07	506.25
578.836	479.25
579.602	447.25
580.368	430.25
581.134	410.25
581.9	393.25
582.666	373.25
583.432	358.25
584.198	335.25
584.964	322.25
585.729	293.25
586.495	286.25
587.26	267.25
588.025	257.25
588.791	243.25
589.556	225.25
590.321	218.25
591.086	205.25
591.851	191.25
592.616	187.25
593.381	179.25
594.146	170.25
594.911	161.25
595.675	156.25
596.44	155.25
597.204	142.25
597.969	131.25
598.733	125.25
599.497	125.25
600.261	119.25
601.025	116.25
601.79	108.25
602.553	104.25
603.317	101.25
604.081	99.25
604.845	92.25
605.609	87.25
606.372	87.25
607.136	79.25
607.899	77.25
608.662	77.25
609.426	72.25
610.189	68.25
610.952	67.25
611.715	61.25
612.478	61.25
613.241	60.25
614.004	57.25
614.767	59.25
615.529	54.25
616.292	54.25
617.055	55.25
617.817	51.25
618.579	47.25
619.342	45.25
620.104	45.25
620.866	41.25
621.628	38.25
622.39	41.25
623.152	37.25
623.914	35.25
624.676	36.25
625.438	35.25
626.199	34.25
626.961	34.25
627.722	34.25
628.484	30.25
629.245	29.25
630.006	30.25
630.768	29.25
631.529	28.25
632.29	27.25
633.051	25.25
633.812	25.25
634.573	25.25
635.333	26.25
636.094	23.25
636.855	22.25
637.615	24.25
638.376	20.25
639.136	22.25
639.896	19.25
640.657	21.25
641.417	20.25
642.177	18.25
642.937	20.25
643.697	15.25
644.457	18.25
645.216	19.25
645.976	16.25
646.736	17.25
647.495	18.25
648.255	14.25
649.014	16.25
649.774	14.25
650.533	14.25
651.292	17.25
652.051	13.25
652.81	13.25
653.569	14.25
654.328	14.25
655.087	13.25
655.846	13.25
656.604	13.25
657.363	13.25
658.121	12.25
658.88	12.25
659.638	16.25
660.397	11.25
661.155	13.25
661.913	9.25
662.671	11.25
663.429	6.25
664.187	12.25
664.945	9.25
665.703	10.25
666.46	11.25
667.218	9.25
667.976	10.25
668.733	10.25
669.49	11.25
670.248	9.25
671.005	9.25
671.762	11.25
672.519	9.25
673.276	9.25
674.033	9.25
674.79	9.25
675.547	9.25
676.304	7.25
677.06	9.25
677.817	9.25
678.574	8.25
679.33	9.25
680.086	7.25
680.843	10.25
681.599	9.25
682.355	7.25
683.111	5.25
683.867	9.25
684.623	9.25
685.379	9.25
686.135	7.25
686.89	8.25
687.646	9.25
688.402	9.25
689.157	8.25
689.912	8.25
690.668	7.25
691.423	9.25
692.178	6.25
692.933	8.25
693.688	8.25
694.443	3.25
695.198	8.25
695.953	9.25
696.708	9.25
697.462	8.25
698.217	10.25
698.972	7.25
699.726	9.25
700.48	7.25
701.235	7.25
701.989	7.25
702.743	7.25
703.497	7.25
704.251	5.25
705.005	6.25
705.759	9.25
706.513	8.25
707.266	7.25
708.02	7.25
708.774	8.25
709.527	9.25
710.28	8.25
711.034	8.25
711.787	6.25
712.54	8.25
713.293	8.25
714.046	8.25
714.799	8.25
715.552	9.25
716.305	9.25
717.058	8.25
717.81	7.25
718.563	8.25
719.315	7.25
720.068	8.25
720.82	6.25
721.573	7.25
722.325	9.25
723.077	8.25
723.829	9.25
724.581	8.25
725.333	7.25
726.085	9.25
726.836	8.25
727.588	9.25
728.34	7.25
729.091	9.25
729.843	9.25
730.594	8.25
731.346	9.25
732.097	9.25
732.848	10.25
733.599	8.25
734.35	10.25
735.101	9.25
735.852	7.25
736.603	9.25
737.354	8.25
738.104	12.25
738.855	9.25
739.605	7.25
740.356	9.25
741.106	7.25
741.856	7.25
742.607	10.25
743.357	9.25
744.107	9.25
744.857	9.25
745.607	9.25
746.357	8.25
747.106	9.25
747.856	11.25
748.606	9.25
749.355	11.25
750.105	12.25
750.854	11.25
751.603	8.25
752.353	12.25
753.102	10.25
753.851	10.25
754.6	10.25
755.349	12.25
756.098	10.25
756.847	10.25
757.595	10.25
758.344	10.25
759.093	11.25
759.841	8.25
760.589	11.25
761.338	12.25
762.086	14.25
762.834	12.25
763.582	11.25
764.331	13.25
765.079	14.25
765.826	9.25
766.574	14.25
767.322	16.25
768.07	14.25
768.817	13.25
769.565	12.25
770.312	14.25
771.06	11.25
771.807	14.25
772.554	13.25
773.302	13.25
774.049	15.25
774.796	14.25
775.543	14.25
776.29	13.25
777.036	14.25
777.783	14.25
778.53	14.25
779.276	15.25
780.023	14.25
780.769	15.25
781.516	17.25
782.262	14.25
783.008	16.25
783.754	14.25
784.5	16.25
785.246	13.25
785.992	13.25
786.738	12.25
787.484	12.25
788.23	16.25
788.975	14.25
789.721	16.25
790.466	17.25
791.212	15.25
791.957	14.25
792.702	12.25
793.447	14.25
794.193	15.25
794.938	12.25
795.683	13.25
796.427	14.25
797.172	15.25
797.917	11.25
798.662	15.25
799.406	12.25
800.151	10.25
800.895	12.25
801.64	12.25
802.384	15.25
803.128	11.25
803.872	10.25
804.616	11.25
805.36	12.25
806.104	10.25
806.848	13.25
807.592	9.25
808.336	10.25
809.079	10.25
809.823	11.25
810.566	9.25
811.31	11.25
812.053	13.25
812.796	8.25
813.539	7.25
814.283	8.25
815.026	9.25
815.769	8.25
816.511	8.25
817.254	6.25
817.997	10.25
818.74	9.25
819.482	9.25
820.225	8.25
820.967	8.25
821.71	7.25
822.452	6.25
823.194	6.25
823.936	7.25
824.678	8.25
825.42	8.25
826.162	7.25
826.904	8.25
827.646	8.25
828.388	7.25
829.129	8.25
829.871	6.25
830.612	7.25
831.354	4.25
832.095	6.25
832.836	6.25
833.577	5.25
834.319	3.25
835.06	9.25
835.801	8.25
836.542	7.25
837.282	5.25
838.023	8.25
838.764	5.25
839.504	5.25
840.245	6.25
840.985	5.25
841.726	5.25
842.466	5.25
843.206	4.25
843.946	5.25
844.687	6.25
845.427	8.25
846.166	6.25
846.906	5.25
847.646	5.25
848.386	7.25
849.125	5.25
849.865	6.25
850.605	5.25
851.344	5.25
852.083	4.25
852.823	2.25
853.562	6.25
854.301	5.25
855.04	4.25
855.779	5.25
856.518	3.25
857.257	3.25
857.995	5.25
858.734	5.25
859.473	3.25
860.211	3.25
860.95	3.25
861.688	5.25
862.426	5.25
863.165	4.25
863.903	4.25
864.641	2.25
865.379	0.25
866.117	3.25
866.855	3.25
867.593	2.25
868.33	3.25
869.068	3.25
869.806	4.25
870.543	0.25
871.28	3.25
872.018	5.25
872.755	3.25
873.492	3.25
874.229	2.25
874.967	3.25
875.703	2.25
876.44	6.25
877.177	3.25
877.914	2.25
878.651	3.25
879.387	2.25
880.124	2.25
880.86	1.25
881.597	2.25
882.333	2.25
883.069	2.25
883.806	1.25
884.542	-1.75
885.278	5.25
886.014	1.25
886.749	0.25
887.485	2.25
888.221	3.25
888.957	0.25
889.692	2.25
890.428	1.25
891.163	3.25
891.899	1.25
892.634	0.25
893.369	1.25
894.104	2.25
894.839	-0.75
895.574	1.25
896.309	2.25
897.044	0.25
897.779	1.25
898.514	-0.75
899.248	1.25
899.983	0.25
900.717	0.25
901.452	2.25
902.186	0.25
902.92	1.25
903.654	1.25
904.389	3.25
905.123	3.25
905.857	-1.75
906.59	1.25
907.324	0.25
908.058	3.25
908.792	0.25
909.525	2.25
910.259	1.25
910.992	1.25
911.726	3.25
912.459	1.25
913.192	2.25
913.925	0.25
914.658	0.25
915.391	1.25
916.124	2.25
916.857	2.25
917.59	0.25
918.323	0.25
919.055	2.25
919.788	1.25
920.521	0.25
921.253	-0.75
921.985	2.25
922.718	-0.75
923.45	-0.75
924.182	0.25
924.914	-0.75
925.646	1.25
926.378	0.25
927.11	2.25
927.841	1.25
928.573	-1.75
929.305	0.25
930.036	-0.75
930.768	0.25
931.499	1.25
932.23	1.25
932.962	1.25
933.693	0.25
934.424	2.25
935.155	2.25
935.886	3.25
936.617	2.25
937.348	2.25
938.078	0.25
938.809	0.25
939.54	0.25
940.27	-1.75
941.001	0.25
941.731	0.25
942.461	2.25
943.191	0.25
943.922	2.25
944.652	0.25
945.382	0.25
946.112	-0.75
946.841	3.25
947.571	0.25
948.301	-0.75
949.031	0.25
949.76	2.25
950.49	-0.75
951.219	-0.75
951.948	-0.75
952.678	-0.75
953.407	3.25
954.136	0.25
954.865	-0.75
955.594	1.25
956.323	2.25
957.052	-0.75
957.78	1.25
958.509	-1.75
959.238	0.25
959.966	0.25
960.695	2.25
961.423	0.25
962.151	0.25
962.88	0.25
963.608	0.25
964.336	2.25
965.064	0.25
965.792	-0.75
966.52	0.25
967.247	0.25
967.975	0.25
968.703	0.25
969.43	1.25
970.158	1.25
970.885	0.25
971.613	1.25
972.34	0.25
973.067	1.25
973.794	0.25
974.521	0.25
975.248	1.25
975.975	1.25
976.702	1.25
977.429	1.25
978.156	-0.75
978.882	1.25
979.609	-0.75
980.335	1.25
981.062	-1.75
981.788	0.25
982.514	0.25
983.24	0.25
983.967	-0.75
984.693	1.25
985.419	0.25
986.144	-0.75
986.87	1.25
987.596	1.25
988.322	3.25
989.047	1.25
989.773	0.25
990.498	0.25
991.224	-0.75
991.949	2.25
992.674	-0.75
993.399	1.25
994.124	1.25
994.849	0.25
995.574	-0.75
996.299	-0.75
997.024	1.25
997.749	0.25
998.473	0.25
999.198	-0.75
999.922	1.25
1000.647	-0.75
1001.371	6.25
1002.095	1.25
1002.82	-0.75
1003.544	-0.75
1004.268	5.25
1004.992	5.25
1005.716	6.25
1006.439	5.25
1007.163	3.25
1007.887	4.25
1008.611	-0.75
1009.334	2.25
1010.058	-1.75
1010.781	0.25
1011.504	-0.75
1012.228	0.25
1012.951	-1.75
1013.674	-1.75
1014.397	-1.75
1015.12	-0.75
