节点500_705_QEPB04081__580__20-54-10-768.txt的数据

Date: Wed Nov 12 20:54:10 CST 2025
User: PC
Spectrometer: QEPB0408
触发模式: 0
积分时间 (秒): 1.000000E-2
Scans to average: 1
启用暗噪声校正: true
启用非线性校正: false
滑动平均宽度: 0
X轴模式: Wavelengths
Number of Pixels in Spectrum: 1044
>>>>>Begin Spectral Data<<<<<
220.843	5.12
221.644	5.12
222.444	6.12
223.244	7.12
224.045	6.12
224.845	3.12
225.645	6.12
226.445	5.12
227.245	7.12
228.045	8.12
228.845	6.12
229.645	9.12
230.444	7.12
231.244	8.12
232.043	8.12
232.843	8.12
233.642	8.12
234.442	12.12
235.241	9.12
236.04	13.12
236.839	9.12
237.638	9.12
238.437	13.12
239.236	14.12
240.035	9.12
240.833	14.12
241.632	11.12
242.43	10.12
243.229	13.12
244.027	8.12
244.826	13.12
245.624	11.12
246.422	13.12
247.22	13.12
248.018	9.12
248.816	15.12
249.614	14.12
250.412	13.12
251.21	19.12
252.007	17.12
252.805	16.12
253.602	14.12
254.4	18.12
255.197	21.12
255.994	15.12
256.791	17.12
257.589	18.12
258.386	21.12
259.183	19.12
259.979	19.12
260.776	20.12
261.573	22.12
262.37	22.12
263.166	26.12
263.963	24.12
264.759	21.12
265.556	25.12
266.352	23.12
267.148	25.12
267.944	24.12
268.74	29.12
269.536	28.12
270.332	28.12
271.128	29.12
271.924	27.12
272.719	28.12
273.515	29.12
274.311	29.12
275.106	29.12
275.901	29.12
276.697	27.12
277.492	31.12
278.287	32.12
279.082	33.12
279.877	29.12
280.672	31.12
281.467	33.12
282.262	31.12
283.056	32.12
283.851	30.12
284.646	31.12
285.44	31.12
286.234	35.12
287.029	30.12
287.823	34.12
288.617	34.12
289.411	28.12
290.205	31.12
290.999	31.12
291.793	29.12
292.587	31.12
293.381	27.12
294.174	27.12
294.968	26.12
295.761	27.12
296.555	27.12
297.348	27.12
298.141	26.12
298.935	27.12
299.728	24.12
300.521	24.12
301.314	23.12
302.107	27.12
302.899	22.12
303.692	23.12
304.485	24.12
305.277	21.12
306.07	22.12
306.862	24.12
307.655	22.12
308.447	21.12
309.239	21.12
310.031	22.12
310.823	19.12
311.615	23.12
312.407	18.12
313.199	21.12
313.991	16.12
314.783	17.12
315.574	19.12
316.366	14.12
317.157	17.12
317.949	13.12
318.74	18.12
319.531	15.12
320.322	13.12
321.113	13.12
321.904	15.12
322.695	14.12
323.486	15.12
324.277	15.12
325.068	15.12
325.858	15.12
326.649	11.12
327.439	10.12
328.23	13.12
329.02	10.12
329.81	13.12
330.6	12.12
331.391	13.12
332.181	12.12
332.971	11.12
333.76	11.12
334.55	9.12
335.34	12.12
336.13	12.12
336.919	12.12
337.709	11.12
338.498	13.12
339.287	11.12
340.077	10.12
340.866	10.12
341.655	13.12
342.444	11.12
343.233	12.12
344.022	11.12
344.811	8.12
345.6	11.12
346.388	12.12
347.177	13.12
347.965	9.12
348.754	12.12
349.542	10.12
350.33	12.12
351.119	12.12
351.907	11.12
352.695	13.12
353.483	9.12
354.271	12.12
355.059	13.12
355.846	9.12
356.634	9.12
357.422	6.12
358.209	11.12
358.997	9.12
359.784	9.12
360.571	12.12
361.359	9.12
362.146	9.12
362.933	9.12
363.72	9.12
364.507	11.12
365.294	10.12
366.081	11.12
366.867	10.12
367.654	11.12
368.44	8.12
369.227	8.12
370.013	8.12
370.8	10.12
371.586	9.12
372.372	8.12
373.158	10.12
373.944	11.12
374.73	8.12
375.516	11.12
376.302	8.12
377.088	9.12
377.873	8.12
378.659	11.12
379.445	8.12
380.23	8.12
381.015	9.12
381.801	10.12
382.586	9.12
383.371	10.12
384.156	13.12
384.941	10.12
385.726	6.12
386.511	13.12
387.296	9.12
388.08	10.12
388.865	12.12
389.649	9.12
390.434	12.12
391.218	8.12
392.003	11.12
392.787	9.12
393.571	11.12
394.355	11.12
395.139	11.12
395.923	11.12
396.707	11.12
397.491	13.12
398.274	10.12
399.058	11.12
399.842	11.12
400.625	11.12
401.408	15.12
402.192	14.12
402.975	12.12
403.758	13.12
404.541	11.12
405.324	14.12
406.107	10.12
406.89	14.12
407.673	11.12
408.456	15.12
409.238	17.12
410.021	15.12
410.803	14.12
411.586	17.12
412.368	15.12
413.151	16.12
413.933	18.12
414.715	15.12
415.497	17.12
416.279	18.12
417.061	16.12
417.843	19.12
418.624	19.12
419.406	18.12
420.188	20.12
420.969	17.12
421.751	20.12
422.532	22.12
423.313	24.12
424.095	22.12
424.876	21.12
425.657	24.12
426.438	21.12
427.219	27.12
428	24.12
428.78	25.12
429.561	28.12
430.342	31.12
431.122	30.12
431.903	31.12
432.683	31.12
433.464	32.12
434.244	36.12
435.024	38.12
435.804	42.12
436.584	42.12
437.364	47.12
438.144	47.12
438.924	52.12
439.704	55.12
440.483	57.12
441.263	59.12
442.042	66.12
442.822	72.12
443.601	76.12
444.38	83.12
445.16	93.12
445.939	100.12
446.718	111.12
447.497	115.12
448.276	128.12
449.054	143.12
449.833	156.12
450.612	173.12
451.391	191.12
452.169	204.12
452.948	235.12
453.726	250.12
454.504	284.12
455.282	320.12
456.061	350.12
456.839	392.12
457.617	435.12
458.395	478.12
459.172	546.12
459.95	598.12
460.728	659.12
461.506	751.12
462.283	828.12
463.061	914.12
463.838	1019.12
464.615	1132.12
465.393	1253.12
466.17	1384.12
466.947	1539.12
467.724	1695.12
468.501	1891.12
469.278	2091.12
470.055	2285.12
470.831	2508.12
471.608	2759.12
472.385	3009.12
473.161	3311.12
473.938	3597.12
474.714	3961.12
475.49	4351.12
476.266	4716.12
477.043	5144.12
477.819	5577.12
478.595	6075.12
479.371	6629.12
480.146	7146.12
480.922	7790.12
481.698	8439.12
482.473	9119.12
483.249	9875.12
484.024	10716.12
484.8	11535.12
485.575	12437.12
486.35	13440.12
487.126	14501.12
487.901	15579.12
488.676	16755.12
489.451	18020.12
490.225	19347.12
491	20654.12
491.775	22072.12
492.55	23525.12
493.324	25078.12
494.099	26555.12
494.873	28212.12
495.647	29867.12
496.422	31321.12
497.196	33061.12
497.97	34540.12
498.744	35969.12
499.518	37454.12
500.292	38865.12
501.066	40012.12
501.839	40903.12
502.613	41873.12
503.387	42603.12
504.16	43326.12
504.934	43599.12
505.707	43941.12
506.48	43873.12
507.253	43625.12
508.027	43317.12
508.8	42739.12
509.573	42063.12
510.346	41285.12
511.118	40472.12
511.891	39570.12
512.664	38260.12
513.437	36992.12
514.209	35816.12
514.982	34473.12
515.754	33189.12
516.526	32040.12
517.298	30734.12
518.071	29638.12
518.843	28546.12
519.615	27203.12
520.387	26214.12
521.159	25261.12
521.93	24174.12
522.702	23282.12
523.474	22217.12
524.245	21338.12
525.017	20494.12
525.788	19589.12
526.56	18845.12
527.331	18055.12
528.102	17226.12
528.873	16347.12
529.644	15541.12
530.415	14918.12
531.186	14238.12
531.957	13509.12
532.728	12871.12
533.498	12207.12
534.269	11589.12
535.039	10973.12
535.81	10393.12
536.58	9806.12
537.351	9325.12
538.121	8839.12
538.891	8353.12
539.661	7923.12
540.431	7513.12
541.201	7081.12
541.971	6769.12
542.741	6350.12
543.51	6047.12
544.28	5787.12
545.05	5482.12
545.819	5225.12
546.588	4991.12
547.358	4746.12
548.127	4511.12
548.896	4296.12
549.665	4098.12
550.434	3881.12
551.203	3671.12
551.972	3480.12
552.741	3325.12
553.51	3139.12
554.278	2953.12
555.047	2793.12
555.815	2644.12
556.584	2520.12
557.352	2358.12
558.121	2239.12
558.889	2102.12
559.657	2009.12
560.425	1882.12
561.193	1803.12
561.961	1720.12
562.729	1617.12
563.496	1524.12
564.264	1439.12
565.032	1358.12
565.799	1291.12
566.567	1228.12
567.334	1144.12
568.101	1081.12
568.869	1026.12
569.636	958.12
570.403	915.12
571.17	866.12
571.937	817.12
572.704	772.12
573.471	720.12
574.237	681.12
575.004	645.12
575.771	607.12
576.537	576.12
577.303	540.12
578.07	513.12
578.836	487.12
579.602	462.12
580.368	436.12
581.134	418.12
581.9	395.12
582.666	383.12
583.432	357.12
584.198	332.12
584.964	323.12
585.729	298.12
586.495	284.12
587.26	273.12
588.025	259.12
588.791	246.12
589.556	227.12
590.321	224.12
591.086	215.12
591.851	193.12
592.616	190.12
593.381	178.12
594.146	174.12
594.911	161.12
595.675	156.12
596.44	149.12
597.204	145.12
597.969	137.12
598.733	129.12
599.497	128.12
600.261	123.12
601.025	114.12
601.79	107.12
602.553	105.12
603.317	97.12
604.081	97.12
604.845	95.12
605.609	85.12
606.372	83.12
607.136	80.12
607.899	83.12
608.662	79.12
609.426	71.12
610.189	74.12
610.952	72.12
611.715	66.12
612.478	63.12
613.241	58.12
614.004	58.12
614.767	56.12
615.529	54.12
616.292	51.12
617.055	53.12
617.817	49.12
618.579	46.12
619.342	48.12
620.104	45.12
620.866	43.12
621.628	40.12
622.39	42.12
623.152	38.12
623.914	38.12
624.676	35.12
625.438	34.12
626.199	35.12
626.961	31.12
627.722	31.12
628.484	31.12
629.245	31.12
630.006	27.12
630.768	28.12
631.529	28.12
632.29	27.12
633.051	26.12
633.812	26.12
634.573	29.12
635.333	23.12
636.094	23.12
636.855	25.12
637.615	24.12
638.376	19.12
639.136	21.12
639.896	20.12
640.657	19.12
641.417	21.12
642.177	19.12
642.937	18.12
643.697	19.12
644.457	19.12
645.216	15.12
645.976	16.12
646.736	16.12
647.495	15.12
648.255	16.12
649.014	17.12
649.774	16.12
650.533	15.12
651.292	15.12
652.051	14.12
652.81	12.12
653.569	14.12
654.328	13.12
655.087	11.12
655.846	14.12
656.604	15.12
657.363	14.12
658.121	13.12
658.88	12.12
659.638	13.12
660.397	9.12
661.155	11.12
661.913	11.12
662.671	14.12
663.429	11.12
664.187	11.12
664.945	12.12
665.703	11.12
666.46	11.12
667.218	10.12
667.976	8.12
668.733	11.12
669.49	9.12
670.248	9.12
671.005	6.12
671.762	9.12
672.519	10.12
673.276	9.12
674.033	7.12
674.79	10.12
675.547	8.12
676.304	9.12
677.06	8.12
677.817	8.12
678.574	8.12
679.33	8.12
680.086	8.12
680.843	8.12
681.599	9.12
682.355	8.12
683.111	8.12
683.867	8.12
684.623	11.12
685.379	9.12
686.135	11.12
686.89	8.12
687.646	10.12
688.402	9.12
689.157	6.12
689.912	8.12
690.668	8.12
691.423	7.12
692.178	9.12
692.933	9.12
693.688	8.12
694.443	10.12
695.198	8.12
695.953	9.12
696.708	6.12
697.462	8.12
698.217	7.12
698.972	8.12
699.726	6.12
700.48	9.12
701.235	8.12
701.989	9.12
702.743	6.12
703.497	4.12
704.251	7.12
705.005	8.12
705.759	8.12
706.513	7.12
707.266	9.12
708.02	6.12
708.774	8.12
709.527	10.12
710.28	7.12
711.034	6.12
711.787	10.12
712.54	8.12
713.293	8.12
714.046	6.12
714.799	9.12
715.552	7.12
716.305	7.12
717.058	7.12
717.81	6.12
718.563	9.12
719.315	3.12
720.068	7.12
720.82	9.12
721.573	9.12
722.325	7.12
723.077	7.12
723.829	7.12
724.581	5.12
725.333	7.12
726.085	7.12
726.836	8.12
727.588	9.12
728.34	8.12
729.091	7.12
729.843	7.12
730.594	8.12
731.346	10.12
732.097	7.12
732.848	11.12
733.599	9.12
734.35	8.12
735.101	5.12
735.852	7.12
736.603	8.12
737.354	9.12
738.104	8.12
738.855	9.12
739.605	9.12
740.356	9.12
741.106	7.12
741.856	9.12
742.607	12.12
743.357	8.12
744.107	12.12
744.857	12.12
745.607	10.12
746.357	10.12
747.106	10.12
747.856	9.12
748.606	9.12
749.355	13.12
750.105	9.12
750.854	11.12
751.603	9.12
752.353	9.12
753.102	11.12
753.851	9.12
754.6	10.12
755.349	9.12
756.098	10.12
756.847	11.12
757.595	10.12
758.344	11.12
759.093	14.12
759.841	13.12
760.589	9.12
761.338	13.12
762.086	12.12
762.834	9.12
763.582	12.12
764.331	13.12
765.079	14.12
765.826	11.12
766.574	12.12
767.322	12.12
768.07	13.12
768.817	12.12
769.565	13.12
770.312	14.12
771.06	13.12
771.807	12.12
772.554	12.12
773.302	12.12
774.049	14.12
774.796	15.12
775.543	16.12
776.29	15.12
777.036	13.12
777.783	15.12
778.53	15.12
779.276	15.12
780.023	15.12
780.769	13.12
781.516	16.12
782.262	14.12
783.008	17.12
783.754	14.12
784.5	14.12
785.246	15.12
785.992	14.12
786.738	14.12
787.484	15.12
788.23	14.12
788.975	15.12
789.721	15.12
790.466	14.12
791.212	13.12
791.957	17.12
792.702	14.12
793.447	16.12
794.193	14.12
794.938	12.12
795.683	14.12
796.427	11.12
797.172	12.12
797.917	11.12
798.662	11.12
799.406	15.12
800.151	12.12
800.895	13.12
801.64	10.12
802.384	11.12
803.128	11.12
803.872	11.12
804.616	12.12
805.36	10.12
806.104	10.12
806.848	10.12
807.592	8.12
808.336	9.12
809.079	8.12
809.823	11.12
810.566	9.12
811.31	11.12
812.053	10.12
812.796	9.12
813.539	9.12
814.283	8.12
815.026	10.12
815.769	8.12
816.511	12.12
817.254	11.12
817.997	7.12
818.74	8.12
819.482	7.12
820.225	12.12
820.967	6.12
821.71	7.12
822.452	9.12
823.194	6.12
823.936	9.12
824.678	6.12
825.42	8.12
826.162	7.12
826.904	6.12
827.646	7.12
828.388	7.12
829.129	5.12
829.871	5.12
830.612	7.12
831.354	4.12
832.095	7.12
832.836	7.12
833.577	5.12
834.319	8.12
835.06	7.12
835.801	5.12
836.542	4.12
837.282	5.12
838.023	4.12
838.764	7.12
839.504	6.12
840.245	7.12
840.985	5.12
841.726	7.12
842.466	4.12
843.206	5.12
843.946	5.12
844.687	6.12
845.427	6.12
846.166	6.12
846.906	7.12
847.646	5.12
848.386	6.12
849.125	6.12
849.865	3.12
850.605	4.12
851.344	5.12
852.083	5.12
852.823	2.12
853.562	5.12
854.301	4.12
855.04	6.12
855.779	5.12
856.518	2.12
857.257	3.12
857.995	6.12
858.734	4.12
859.473	3.12
860.211	3.12
860.95	5.12
861.688	3.12
862.426	3.12
863.165	3.12
863.903	2.12
864.641	2.12
865.379	2.12
866.117	3.12
866.855	3.12
867.593	4.12
868.33	2.12
869.068	3.12
869.806	3.12
870.543	1.12
871.28	4.12
872.018	2.12
872.755	1.12
873.492	3.12
874.229	3.12
874.967	3.12
875.703	0.12
876.44	1.12
877.177	0.12
877.914	2.12
878.651	0.12
879.387	-0.88
880.124	2.12
880.86	2.12
881.597	0.12
882.333	3.12
883.069	2.12
883.806	1.12
884.542	2.12
885.278	0.12
886.014	3.12
886.749	2.12
887.485	3.12
888.221	1.12
888.957	1.12
889.692	2.12
890.428	3.12
891.163	2.12
891.899	-0.88
892.634	0.12
893.369	3.12
894.104	2.12
894.839	2.12
895.574	-0.88
896.309	1.12
897.044	-0.88
897.779	4.12
898.514	-0.88
899.248	-0.88
899.983	4.12
900.717	0.12
901.452	2.12
902.186	0.12
902.92	3.12
903.654	-0.88
904.389	0.12
905.123	3.12
905.857	-0.88
906.59	3.12
907.324	1.12
908.058	1.12
908.792	3.12
909.525	0.12
910.259	-0.88
910.992	-0.88
911.726	3.12
912.459	-0.88
913.192	0.12
913.925	3.12
914.658	1.12
915.391	1.12
916.124	-0.88
916.857	1.12
917.59	1.12
918.323	1.12
919.055	-1.88
919.788	2.12
920.521	-0.88
921.253	0.12
921.985	0.12
922.718	-0.88
923.45	1.12
924.182	-0.88
924.914	-1.88
925.646	0.12
926.378	-0.88
927.11	1.12
927.841	0.12
928.573	1.12
929.305	-1.88
930.036	-1.88
930.768	1.12
931.499	-1.88
932.23	0.12
932.962	-1.88
933.693	-0.88
934.424	1.12
935.155	1.12
935.886	1.12
936.617	1.12
937.348	1.12
938.078	1.12
938.809	-0.88
939.54	0.12
940.27	0.12
941.001	0.12
941.731	1.12
942.461	0.12
943.191	3.12
943.922	-0.88
944.652	-0.88
945.382	-0.88
946.112	-0.88
946.841	0.12
947.571	0.12
948.301	1.12
949.031	1.12
949.76	-0.88
950.49	1.12
951.219	1.12
951.948	-0.88
952.678	-0.88
953.407	1.12
954.136	1.12
954.865	1.12
955.594	1.12
956.323	-0.88
957.052	0.12
957.78	2.12
958.509	0.12
959.238	-0.88
959.966	2.12
960.695	1.12
961.423	2.12
962.151	1.12
962.88	-0.88
963.608	2.12
964.336	-0.88
965.064	-0.88
965.792	1.12
966.52	0.12
967.247	1.12
967.975	-0.88
968.703	1.12
969.43	1.12
970.158	-1.88
970.885	1.12
971.613	-1.88
972.34	1.12
973.067	-0.88
973.794	0.12
974.521	-1.88
975.248	1.12
975.975	1.12
976.702	-0.88
977.429	-1.88
978.156	-0.88
978.882	0.12
979.609	0.12
980.335	1.12
981.062	2.12
981.788	1.12
982.514	0.12
983.24	1.12
983.967	-0.88
984.693	2.12
985.419	1.12
986.144	1.12
986.87	-0.88
987.596	0.12
988.322	1.12
989.047	3.12
989.773	-0.88
990.498	1.12
991.224	0.12
991.949	-0.88
992.674	-0.88
993.399	2.12
994.124	-2.88
994.849	1.12
995.574	-0.88
996.299	-0.88
997.024	1.12
997.749	1.12
998.473	2.12
999.198	0.12
999.922	0.12
1000.647	1.12
1001.371	4.12
1002.095	-2.88
1002.82	-1.88
1003.544	-0.88
1004.268	7.12
1004.992	2.12
1005.716	2.12
1006.439	5.12
1007.163	3.12
1007.887	6.12
1008.611	-0.88
1009.334	1.12
1010.058	-0.88
1010.781	3.12
1011.504	-1.88
1012.228	3.12
1012.951	1.12
1013.674	-1.88
1014.397	1.12
1015.12	1.12
