节点500_705_QEPB04081__566__20-53-58-761.txt的数据

Date: Wed Nov 12 20:53:58 CST 2025
User: PC
Spectrometer: QEPB0408
触发模式: 0
积分时间 (秒): 1.000000E-2
Scans to average: 1
启用暗噪声校正: true
启用非线性校正: false
滑动平均宽度: 0
X轴模式: Wavelengths
Number of Pixels in Spectrum: 1044
>>>>>Begin Spectral Data<<<<<
220.843	4.62
221.644	4.62
222.444	2.62
223.244	6.62
224.045	4.62
224.845	7.62
225.645	5.62
226.445	6.62
227.245	5.62
228.045	7.62
228.845	6.62
229.645	9.62
230.444	5.62
231.244	5.62
232.043	8.62
232.843	6.62
233.642	7.62
234.442	11.62
235.241	7.62
236.04	8.62
236.839	8.62
237.638	11.62
238.437	9.62
239.236	9.62
240.035	10.62
240.833	10.62
241.632	10.62
242.43	10.62
243.229	11.62
244.027	11.62
244.826	11.62
245.624	15.62
246.422	9.62
247.22	11.62
248.018	12.62
248.816	14.62
249.614	12.62
250.412	14.62
251.21	13.62
252.007	14.62
252.805	14.62
253.602	14.62
254.4	16.62
255.197	15.62
255.994	14.62
256.791	18.62
257.589	19.62
258.386	16.62
259.183	21.62
259.979	20.62
260.776	18.62
261.573	17.62
262.37	18.62
263.166	21.62
263.963	21.62
264.759	25.62
265.556	16.62
266.352	26.62
267.148	24.62
267.944	28.62
268.74	26.62
269.536	26.62
270.332	27.62
271.128	25.62
271.924	27.62
272.719	28.62
273.515	26.62
274.311	29.62
275.106	26.62
275.901	33.62
276.697	27.62
277.492	28.62
278.287	32.62
279.082	28.62
279.877	30.62
280.672	28.62
281.467	34.62
282.262	29.62
283.056	32.62
283.851	31.62
284.646	32.62
285.44	33.62
286.234	28.62
287.029	31.62
287.823	32.62
288.617	30.62
289.411	30.62
290.205	27.62
290.999	30.62
291.793	26.62
292.587	29.62
293.381	28.62
294.174	30.62
294.968	28.62
295.761	23.62
296.555	26.62
297.348	27.62
298.141	25.62
298.935	24.62
299.728	24.62
300.521	22.62
301.314	22.62
302.107	21.62
302.899	22.62
303.692	22.62
304.485	23.62
305.277	20.62
306.07	21.62
306.862	22.62
307.655	20.62
308.447	18.62
309.239	20.62
310.031	21.62
310.823	16.62
311.615	18.62
312.407	17.62
313.199	16.62
313.991	16.62
314.783	15.62
315.574	16.62
316.366	15.62
317.157	15.62
317.949	15.62
318.74	14.62
319.531	14.62
320.322	13.62
321.113	16.62
321.904	11.62
322.695	12.62
323.486	12.62
324.277	11.62
325.068	15.62
325.858	11.62
326.649	10.62
327.439	11.62
328.23	10.62
329.02	13.62
329.81	9.62
330.6	12.62
331.391	11.62
332.181	12.62
332.971	10.62
333.76	10.62
334.55	13.62
335.34	12.62
336.13	10.62
336.919	11.62
337.709	13.62
338.498	13.62
339.287	10.62
340.077	9.62
340.866	7.62
341.655	12.62
342.444	10.62
343.233	9.62
344.022	10.62
344.811	9.62
345.6	12.62
346.388	10.62
347.177	10.62
347.965	14.62
348.754	9.62
349.542	11.62
350.33	11.62
351.119	11.62
351.907	9.62
352.695	8.62
353.483	8.62
354.271	7.62
355.059	12.62
355.846	8.62
356.634	9.62
357.422	10.62
358.209	7.62
358.997	10.62
359.784	7.62
360.571	12.62
361.359	10.62
362.146	9.62
362.933	8.62
363.72	7.62
364.507	10.62
365.294	5.62
366.081	10.62
366.867	8.62
367.654	7.62
368.44	8.62
369.227	7.62
370.013	10.62
370.8	8.62
371.586	10.62
372.372	7.62
373.158	9.62
373.944	8.62
374.73	7.62
375.516	11.62
376.302	8.62
377.088	8.62
377.873	11.62
378.659	10.62
379.445	9.62
380.23	6.62
381.015	9.62
381.801	10.62
382.586	8.62
383.371	10.62
384.156	8.62
384.941	9.62
385.726	7.62
386.511	10.62
387.296	10.62
388.08	8.62
388.865	10.62
389.649	8.62
390.434	9.62
391.218	12.62
392.003	10.62
392.787	11.62
393.571	12.62
394.355	11.62
395.139	10.62
395.923	10.62
396.707	13.62
397.491	10.62
398.274	12.62
399.058	12.62
399.842	12.62
400.625	10.62
401.408	12.62
402.192	10.62
402.975	13.62
403.758	14.62
404.541	12.62
405.324	12.62
406.107	14.62
406.89	15.62
407.673	14.62
408.456	15.62
409.238	14.62
410.021	14.62
410.803	13.62
411.586	17.62
412.368	14.62
413.151	13.62
413.933	14.62
414.715	14.62
415.497	16.62
416.279	16.62
417.061	17.62
417.843	16.62
418.624	19.62
419.406	16.62
420.188	16.62
420.969	21.62
421.751	18.62
422.532	20.62
423.313	22.62
424.095	23.62
424.876	20.62
425.657	24.62
426.438	24.62
427.219	25.62
428	26.62
428.78	25.62
429.561	27.62
430.342	32.62
431.122	30.62
431.903	31.62
432.683	32.62
433.464	34.62
434.244	37.62
435.024	37.62
435.804	41.62
436.584	40.62
437.364	44.62
438.144	46.62
438.924	52.62
439.704	53.62
440.483	58.62
441.263	58.62
442.042	64.62
442.822	73.62
443.601	73.62
444.38	80.62
445.16	89.62
445.939	98.62
446.718	105.62
447.497	119.62
448.276	126.62
449.054	140.62
449.833	152.62
450.612	169.62
451.391	189.62
452.169	210.62
452.948	228.62
453.726	253.62
454.504	286.62
455.282	309.62
456.061	350.62
456.839	392.62
457.617	433.62
458.395	474.62
459.172	538.62
459.95	606.62
460.728	670.62
461.506	745.62
462.283	816.62
463.061	913.62
463.838	1024.62
464.615	1117.62
465.393	1250.62
466.17	1399.62
466.947	1520.62
467.724	1694.62
468.501	1891.62
469.278	2054.62
470.055	2279.62
470.831	2502.62
471.608	2747.62
472.385	3015.62
473.161	3298.62
473.938	3636.62
474.714	3952.62
475.49	4351.62
476.266	4743.62
477.043	5149.62
477.819	5622.62
478.595	6078.62
479.371	6602.62
480.146	7212.62
480.922	7826.62
481.698	8446.62
482.473	9188.62
483.249	9940.62
484.024	10698.62
484.8	11595.62
485.575	12494.62
486.35	13493.62
487.126	14552.62
487.901	15654.62
488.676	16875.62
489.451	18063.62
490.225	19448.62
491	20751.62
491.775	22166.62
492.55	23662.62
493.324	25155.62
494.099	26794.62
494.873	28369.62
495.647	29974.62
496.422	31580.62
497.196	33158.62
497.97	34774.62
498.744	36181.62
499.518	37743.62
500.292	39057.62
501.066	40122.62
501.839	41110.62
502.613	42086.62
503.387	42887.62
504.16	43518.62
504.934	43815.62
505.707	44088.62
506.48	43915.62
507.253	43681.62
508.027	43421.62
508.8	42758.62
509.573	42239.62
510.346	41359.62
511.118	40552.62
511.891	39596.62
512.664	38191.62
513.437	36921.62
514.209	35794.62
514.982	34467.62
515.754	33340.62
516.526	32039.62
517.298	30685.62
518.071	29596.62
518.843	28474.62
519.615	27298.62
520.387	26182.62
521.159	25259.62
521.93	24240.62
522.702	23224.62
523.474	22225.62
524.245	21339.62
525.017	20488.62
525.788	19576.62
526.56	18815.62
527.331	18065.62
528.102	17156.62
528.873	16316.62
529.644	15534.62
530.415	14882.62
531.186	14205.62
531.957	13457.62
532.728	12851.62
533.498	12175.62
534.269	11538.62
535.039	10957.62
535.81	10376.62
536.58	9844.62
537.351	9307.62
538.121	8807.62
538.891	8319.62
539.661	7901.62
540.431	7450.62
541.201	7105.62
541.971	6738.62
542.741	6387.62
543.51	6039.62
544.28	5742.62
545.05	5479.62
545.819	5232.62
546.588	5003.62
547.358	4737.62
548.127	4520.62
548.896	4262.62
549.665	4081.62
550.434	3890.62
551.203	3662.62
551.972	3478.62
552.741	3305.62
553.51	3096.62
554.278	2940.62
555.047	2785.62
555.815	2634.62
556.584	2503.62
557.352	2342.62
558.121	2240.62
558.889	2100.62
559.657	1990.62
560.425	1886.62
561.193	1793.62
561.961	1700.62
562.729	1613.62
563.496	1506.62
564.264	1421.62
565.032	1343.62
565.799	1284.62
566.567	1203.62
567.334	1135.62
568.101	1077.62
568.869	1025.62
569.636	964.62
570.403	920.62
571.17	858.62
571.937	806.62
572.704	766.62
573.471	724.62
574.237	677.62
575.004	644.62
575.771	612.62
576.537	573.62
577.303	537.62
578.07	512.62
578.836	483.62
579.602	451.62
580.368	435.62
581.134	413.62
581.9	390.62
582.666	373.62
583.432	349.62
584.198	336.62
584.964	319.62
585.729	302.62
586.495	288.62
587.26	273.62
588.025	257.62
588.791	245.62
589.556	228.62
590.321	214.62
591.086	209.62
591.851	196.62
592.616	192.62
593.381	182.62
594.146	168.62
594.911	159.62
595.675	156.62
596.44	153.62
597.204	140.62
597.969	131.62
598.733	130.62
599.497	121.62
600.261	117.62
601.025	115.62
601.79	106.62
602.553	104.62
603.317	99.62
604.081	101.62
604.845	91.62
605.609	89.62
606.372	85.62
607.136	82.62
607.899	78.62
608.662	79.62
609.426	72.62
610.189	72.62
610.952	66.62
611.715	60.62
612.478	63.62
613.241	61.62
614.004	56.62
614.767	56.62
615.529	52.62
616.292	51.62
617.055	51.62
617.817	42.62
618.579	49.62
619.342	46.62
620.104	48.62
620.866	44.62
621.628	43.62
622.39	38.62
623.152	32.62
623.914	34.62
624.676	36.62
625.438	32.62
626.199	33.62
626.961	30.62
627.722	28.62
628.484	27.62
629.245	30.62
630.006	27.62
630.768	28.62
631.529	26.62
632.29	26.62
633.051	26.62
633.812	24.62
634.573	26.62
635.333	23.62
636.094	22.62
636.855	19.62
637.615	21.62
638.376	19.62
639.136	18.62
639.896	18.62
640.657	18.62
641.417	17.62
642.177	20.62
642.937	18.62
643.697	18.62
644.457	13.62
645.216	16.62
645.976	19.62
646.736	13.62
647.495	14.62
648.255	13.62
649.014	16.62
649.774	14.62
650.533	15.62
651.292	11.62
652.051	11.62
652.81	10.62
653.569	12.62
654.328	11.62
655.087	13.62
655.846	11.62
656.604	10.62
657.363	11.62
658.121	13.62
658.88	11.62
659.638	13.62
660.397	10.62
661.155	10.62
661.913	9.62
662.671	10.62
663.429	10.62
664.187	9.62
664.945	10.62
665.703	10.62
666.46	10.62
667.218	10.62
667.976	10.62
668.733	9.62
669.49	9.62
670.248	8.62
671.005	8.62
671.762	8.62
672.519	11.62
673.276	8.62
674.033	9.62
674.79	8.62
675.547	8.62
676.304	8.62
677.06	9.62
677.817	8.62
678.574	8.62
679.33	10.62
680.086	7.62
680.843	6.62
681.599	10.62
682.355	9.62
683.111	7.62
683.867	8.62
684.623	8.62
685.379	9.62
686.135	10.62
686.89	7.62
687.646	7.62
688.402	9.62
689.157	7.62
689.912	6.62
690.668	8.62
691.423	5.62
692.178	6.62
692.933	7.62
693.688	5.62
694.443	10.62
695.198	6.62
695.953	7.62
696.708	5.62
697.462	7.62
698.217	4.62
698.972	5.62
699.726	6.62
700.48	7.62
701.235	8.62
701.989	8.62
702.743	5.62
703.497	7.62
704.251	5.62
705.005	5.62
705.759	5.62
706.513	6.62
707.266	7.62
708.02	6.62
708.774	7.62
709.527	5.62
710.28	6.62
711.034	5.62
711.787	4.62
712.54	6.62
713.293	7.62
714.046	5.62
714.799	3.62
715.552	7.62
716.305	6.62
717.058	7.62
717.81	7.62
718.563	6.62
719.315	7.62
720.068	6.62
720.82	5.62
721.573	7.62
722.325	7.62
723.077	7.62
723.829	6.62
724.581	8.62
725.333	7.62
726.085	7.62
726.836	9.62
727.588	6.62
728.34	7.62
729.091	8.62
729.843	8.62
730.594	6.62
731.346	6.62
732.097	9.62
732.848	7.62
733.599	9.62
734.35	9.62
735.101	10.62
735.852	7.62
736.603	7.62
737.354	8.62
738.104	7.62
738.855	10.62
739.605	8.62
740.356	8.62
741.106	8.62
741.856	8.62
742.607	9.62
743.357	8.62
744.107	8.62
744.857	10.62
745.607	11.62
746.357	8.62
747.106	9.62
747.856	9.62
748.606	9.62
749.355	10.62
750.105	8.62
750.854	13.62
751.603	8.62
752.353	8.62
753.102	11.62
753.851	10.62
754.6	11.62
755.349	9.62
756.098	8.62
756.847	10.62
757.595	8.62
758.344	8.62
759.093	10.62
759.841	11.62
760.589	12.62
761.338	11.62
762.086	11.62
762.834	11.62
763.582	10.62
764.331	9.62
765.079	9.62
765.826	10.62
766.574	12.62
767.322	13.62
768.07	13.62
768.817	14.62
769.565	14.62
770.312	11.62
771.06	12.62
771.807	9.62
772.554	13.62
773.302	11.62
774.049	13.62
774.796	11.62
775.543	8.62
776.29	12.62
777.036	12.62
777.783	14.62
778.53	13.62
779.276	15.62
780.023	15.62
780.769	11.62
781.516	12.62
782.262	12.62
783.008	16.62
783.754	15.62
784.5	13.62
785.246	14.62
785.992	12.62
786.738	14.62
787.484	13.62
788.23	12.62
788.975	14.62
789.721	13.62
790.466	13.62
791.212	10.62
791.957	10.62
792.702	10.62
793.447	14.62
794.193	11.62
794.938	13.62
795.683	12.62
796.427	14.62
797.172	8.62
797.917	10.62
798.662	11.62
799.406	11.62
800.151	8.62
800.895	10.62
801.64	10.62
802.384	11.62
803.128	11.62
803.872	11.62
804.616	10.62
805.36	9.62
806.104	12.62
806.848	10.62
807.592	10.62
808.336	8.62
809.079	7.62
809.823	9.62
810.566	8.62
811.31	11.62
812.053	9.62
812.796	4.62
813.539	10.62
814.283	7.62
815.026	6.62
815.769	6.62
816.511	8.62
817.254	8.62
817.997	6.62
818.74	7.62
819.482	7.62
820.225	7.62
820.967	5.62
821.71	7.62
822.452	7.62
823.194	8.62
823.936	7.62
824.678	5.62
825.42	5.62
826.162	7.62
826.904	6.62
827.646	6.62
828.388	2.62
829.129	5.62
829.871	4.62
830.612	5.62
831.354	4.62
832.095	4.62
832.836	5.62
833.577	4.62
834.319	4.62
835.06	4.62
835.801	3.62
836.542	5.62
837.282	5.62
838.023	6.62
838.764	5.62
839.504	5.62
840.245	6.62
840.985	5.62
841.726	6.62
842.466	4.62
843.206	5.62
843.946	5.62
844.687	5.62
845.427	6.62
846.166	4.62
846.906	5.62
847.646	5.62
848.386	5.62
849.125	6.62
849.865	2.62
850.605	0.62
851.344	2.62
852.083	7.62
852.823	3.62
853.562	4.62
854.301	3.62
855.04	2.62
855.779	5.62
856.518	2.62
857.257	3.62
857.995	4.62
858.734	5.62
859.473	1.62
860.211	3.62
860.95	2.62
861.688	2.62
862.426	4.62
863.165	1.62
863.903	2.62
864.641	4.62
865.379	1.62
866.117	2.62
866.855	-0.38
867.593	2.62
868.33	2.62
869.068	1.62
869.806	2.62
870.543	0.62
871.28	2.62
872.018	2.62
872.755	1.62
873.492	2.62
874.229	1.62
874.967	1.62
875.703	3.62
876.44	4.62
877.177	1.62
877.914	1.62
878.651	2.62
879.387	3.62
880.124	3.62
880.86	2.62
881.597	1.62
882.333	0.62
883.069	0.62
883.806	0.62
884.542	-0.38
885.278	4.62
886.014	2.62
886.749	-2.38
887.485	5.62
888.221	0.62
888.957	-0.38
889.692	1.62
890.428	-0.38
891.163	1.62
891.899	-0.38
892.634	1.62
893.369	0.62
894.104	2.62
894.839	-1.38
895.574	0.62
896.309	1.62
897.044	2.62
897.779	0.62
898.514	-0.38
899.248	-0.38
899.983	1.62
900.717	-1.38
901.452	1.62
902.186	0.62
902.92	0.62
903.654	-0.38
904.389	0.62
905.123	2.62
905.857	0.62
906.59	0.62
907.324	-1.38
908.058	3.62
908.792	-0.38
909.525	-1.38
910.259	0.62
910.992	-1.38
911.726	0.62
912.459	-0.38
913.192	-1.38
913.925	0.62
914.658	-0.38
915.391	2.62
916.124	0.62
916.857	1.62
917.59	-0.38
918.323	0.62
919.055	1.62
919.788	1.62
920.521	0.62
921.253	0.62
921.985	0.62
922.718	-0.38
923.45	-1.38
924.182	1.62
924.914	2.62
925.646	-1.38
926.378	-0.38
927.11	1.62
927.841	-1.38
928.573	-0.38
929.305	-0.38
930.036	1.62
930.768	-3.38
931.499	0.62
932.23	-1.38
932.962	0.62
933.693	-1.38
934.424	-1.38
935.155	0.62
935.886	-1.38
936.617	0.62
937.348	-2.38
938.078	0.62
938.809	-0.38
939.54	1.62
940.27	-1.38
941.001	0.62
941.731	-1.38
942.461	-2.38
943.191	-0.38
943.922	1.62
944.652	-0.38
945.382	0.62
946.112	-1.38
946.841	-1.38
947.571	-1.38
948.301	1.62
949.031	-0.38
949.76	0.62
950.49	1.62
951.219	-3.38
951.948	0.62
952.678	-1.38
953.407	-0.38
954.136	-0.38
954.865	-1.38
955.594	0.62
956.323	-1.38
957.052	-0.38
957.78	0.62
958.509	-1.38
959.238	0.62
959.966	-1.38
960.695	0.62
961.423	-1.38
962.151	0.62
962.88	-1.38
963.608	-2.38
964.336	0.62
965.064	-0.38
965.792	0.62
966.52	-1.38
967.247	-0.38
967.975	-1.38
968.703	1.62
969.43	0.62
970.158	-1.38
970.885	0.62
971.613	0.62
972.34	0.62
973.067	0.62
973.794	-2.38
974.521	1.62
975.248	-0.38
975.975	0.62
976.702	0.62
977.429	-3.38
978.156	-0.38
978.882	-1.38
979.609	-1.38
980.335	0.62
981.062	1.62
981.788	-0.38
982.514	-0.38
983.24	0.62
983.967	-0.38
984.693	-1.38
985.419	1.62
986.144	-0.38
986.87	-2.38
987.596	-0.38
988.322	0.62
989.047	-1.38
989.773	0.62
990.498	0.62
991.224	1.62
991.949	-0.38
992.674	-0.38
993.399	0.62
994.124	0.62
994.849	-0.38
995.574	-2.38
996.299	-0.38
997.024	-0.38
997.749	1.62
998.473	0.62
999.198	-0.38
999.922	-0.38
1000.647	0.62
1001.371	4.62
1002.095	-0.38
1002.82	-2.38
1003.544	-1.38
1004.268	2.62
1004.992	6.62
1005.716	2.62
1006.439	4.62
1007.163	5.62
1007.887	4.62
1008.611	0.62
1009.334	0.62
1010.058	-1.38
1010.781	0.62
1011.504	-2.38
1012.228	-0.38
1012.951	0.62
1013.674	-2.38
1014.397	1.62
1015.12	-0.38
