节点500_705_QEPB04081__653__20-55-12-820.txt的数据

Date: Wed Nov 12 20:55:12 CST 2025
User: PC
Spectrometer: QEPB0408
触发模式: 0
积分时间 (秒): 1.000000E-2
Scans to average: 1
启用暗噪声校正: true
启用非线性校正: false
滑动平均宽度: 0
X轴模式: Wavelengths
Number of Pixels in Spectrum: 1044
>>>>>Begin Spectral Data<<<<<
220.843	5.88
221.644	4.88
222.444	7.88
223.244	3.88
224.045	3.88
224.845	5.88
225.645	4.88
226.445	7.88
227.245	8.88
228.045	5.88
228.845	7.88
229.645	6.88
230.444	6.88
231.244	7.88
232.043	9.88
232.843	5.88
233.642	8.88
234.442	8.88
235.241	10.88
236.04	8.88
236.839	7.88
237.638	11.88
238.437	11.88
239.236	10.88
240.035	10.88
240.833	10.88
241.632	9.88
242.43	10.88
243.229	12.88
244.027	10.88
244.826	9.88
245.624	12.88
246.422	11.88
247.22	15.88
248.018	9.88
248.816	14.88
249.614	16.88
250.412	13.88
251.21	17.88
252.007	16.88
252.805	15.88
253.602	13.88
254.4	17.88
255.197	15.88
255.994	16.88
256.791	19.88
257.589	17.88
258.386	18.88
259.183	18.88
259.979	17.88
260.776	21.88
261.573	20.88
262.37	21.88
263.166	20.88
263.963	23.88
264.759	20.88
265.556	24.88
266.352	24.88
267.148	23.88
267.944	23.88
268.74	25.88
269.536	28.88
270.332	28.88
271.128	26.88
271.924	26.88
272.719	29.88
273.515	29.88
274.311	30.88
275.106	28.88
275.901	29.88
276.697	28.88
277.492	30.88
278.287	32.88
279.082	29.88
279.877	31.88
280.672	30.88
281.467	29.88
282.262	30.88
283.056	29.88
283.851	33.88
284.646	30.88
285.44	33.88
286.234	30.88
287.029	30.88
287.823	34.88
288.617	32.88
289.411	30.88
290.205	30.88
290.999	28.88
291.793	30.88
292.587	29.88
293.381	27.88
294.174	27.88
294.968	29.88
295.761	27.88
296.555	26.88
297.348	20.88
298.141	23.88
298.935	24.88
299.728	28.88
300.521	24.88
301.314	22.88
302.107	22.88
302.899	24.88
303.692	21.88
304.485	21.88
305.277	19.88
306.07	23.88
306.862	21.88
307.655	23.88
308.447	20.88
309.239	21.88
310.031	20.88
310.823	17.88
311.615	19.88
312.407	15.88
313.199	17.88
313.991	18.88
314.783	17.88
315.574	16.88
316.366	16.88
317.157	14.88
317.949	17.88
318.74	16.88
319.531	14.88
320.322	11.88
321.113	13.88
321.904	14.88
322.695	14.88
323.486	14.88
324.277	13.88
325.068	12.88
325.858	12.88
326.649	12.88
327.439	12.88
328.23	12.88
329.02	10.88
329.81	10.88
330.6	10.88
331.391	14.88
332.181	11.88
332.971	11.88
333.76	10.88
334.55	12.88
335.34	12.88
336.13	13.88
336.919	10.88
337.709	12.88
338.498	12.88
339.287	10.88
340.077	10.88
340.866	10.88
341.655	13.88
342.444	9.88
343.233	10.88
344.022	9.88
344.811	9.88
345.6	12.88
346.388	12.88
347.177	8.88
347.965	11.88
348.754	9.88
349.542	11.88
350.33	12.88
351.119	10.88
351.907	12.88
352.695	10.88
353.483	12.88
354.271	11.88
355.059	12.88
355.846	10.88
356.634	9.88
357.422	9.88
358.209	10.88
358.997	9.88
359.784	8.88
360.571	10.88
361.359	9.88
362.146	9.88
362.933	9.88
363.72	9.88
364.507	9.88
365.294	8.88
366.081	8.88
366.867	10.88
367.654	9.88
368.44	8.88
369.227	7.88
370.013	7.88
370.8	10.88
371.586	9.88
372.372	8.88
373.158	8.88
373.944	10.88
374.73	9.88
375.516	9.88
376.302	9.88
377.088	9.88
377.873	8.88
378.659	8.88
379.445	9.88
380.23	9.88
381.015	10.88
381.801	7.88
382.586	10.88
383.371	6.88
384.156	8.88
384.941	11.88
385.726	10.88
386.511	9.88
387.296	8.88
388.08	12.88
388.865	12.88
389.649	8.88
390.434	10.88
391.218	8.88
392.003	12.88
392.787	10.88
393.571	11.88
394.355	14.88
395.139	9.88
395.923	12.88
396.707	10.88
397.491	9.88
398.274	10.88
399.058	10.88
399.842	12.88
400.625	13.88
401.408	12.88
402.192	14.88
402.975	14.88
403.758	10.88
404.541	14.88
405.324	17.88
406.107	13.88
406.89	13.88
407.673	14.88
408.456	14.88
409.238	17.88
410.021	16.88
410.803	14.88
411.586	17.88
412.368	15.88
413.151	16.88
413.933	16.88
414.715	19.88
415.497	16.88
416.279	16.88
417.061	17.88
417.843	18.88
418.624	18.88
419.406	18.88
420.188	20.88
420.969	23.88
421.751	20.88
422.532	20.88
423.313	20.88
424.095	22.88
424.876	22.88
425.657	24.88
426.438	24.88
427.219	22.88
428	26.88
428.78	25.88
429.561	27.88
430.342	29.88
431.122	32.88
431.903	33.88
432.683	35.88
433.464	35.88
434.244	35.88
435.024	37.88
435.804	38.88
436.584	44.88
437.364	44.88
438.144	47.88
438.924	52.88
439.704	54.88
440.483	59.88
441.263	60.88
442.042	64.88
442.822	73.88
443.601	74.88
444.38	85.88
445.16	94.88
445.939	95.88
446.718	105.88
447.497	119.88
448.276	132.88
449.054	146.88
449.833	153.88
450.612	174.88
451.391	184.88
452.169	209.88
452.948	227.88
453.726	258.88
454.504	289.88
455.282	321.88
456.061	360.88
456.839	402.88
457.617	442.88
458.395	495.88
459.172	545.88
459.95	605.88
460.728	664.88
461.506	748.88
462.283	837.88
463.061	927.88
463.838	1023.88
464.615	1146.88
465.393	1258.88
466.17	1397.88
466.947	1547.88
467.724	1703.88
468.501	1875.88
469.278	2046.88
470.055	2277.88
470.831	2524.88
471.608	2753.88
472.385	3033.88
473.161	3325.88
473.938	3624.88
474.714	3974.88
475.49	4331.88
476.266	4732.88
477.043	5150.88
477.819	5594.88
478.595	6055.88
479.371	6611.88
480.146	7161.88
480.922	7765.88
481.698	8406.88
482.473	9071.88
483.249	9876.88
484.024	10634.88
484.8	11486.88
485.575	12384.88
486.35	13421.88
487.126	14373.88
487.901	15497.88
488.676	16676.88
489.451	17924.88
490.225	19203.88
491	20559.88
491.775	21943.88
492.55	23433.88
493.324	24931.88
494.099	26474.88
494.873	28052.88
495.647	29529.88
496.422	31094.88
497.196	32786.88
497.97	34349.88
498.744	35819.88
499.518	37333.88
500.292	38711.88
501.066	39761.88
501.839	40752.88
502.613	41589.88
503.387	42475.88
504.16	43046.88
504.934	43496.88
505.707	43747.88
506.48	43657.88
507.253	43585.88
508.027	43230.88
508.8	42688.88
509.573	42012.88
510.346	41309.88
511.118	40479.88
511.891	39488.88
512.664	38234.88
513.437	37014.88
514.209	35813.88
514.982	34567.88
515.754	33297.88
516.526	32102.88
517.298	30902.88
518.071	29590.88
518.843	28490.88
519.615	27381.88
520.387	26292.88
521.159	25275.88
521.93	24282.88
522.702	23280.88
523.474	22346.88
524.245	21445.88
525.017	20514.88
525.788	19637.88
526.56	18934.88
527.331	18101.88
528.102	17249.88
528.873	16384.88
529.644	15673.88
530.415	14921.88
531.186	14268.88
531.957	13588.88
532.728	12915.88
533.498	12238.88
534.269	11624.88
535.039	11022.88
535.81	10448.88
536.58	9897.88
537.351	9371.88
538.121	8910.88
538.891	8405.88
539.661	7969.88
540.431	7541.88
541.201	7152.88
541.971	6750.88
542.741	6412.88
543.51	6083.88
544.28	5782.88
545.05	5550.88
545.819	5283.88
546.588	5028.88
547.358	4788.88
548.127	4512.88
548.896	4337.88
549.665	4120.88
550.434	3877.88
551.203	3695.88
551.972	3509.88
552.741	3337.88
553.51	3137.88
554.278	2960.88
555.047	2806.88
555.815	2676.88
556.584	2509.88
557.352	2353.88
558.121	2246.88
558.889	2132.88
559.657	2009.88
560.425	1897.88
561.193	1795.88
561.961	1707.88
562.729	1610.88
563.496	1516.88
564.264	1444.88
565.032	1345.88
565.799	1301.88
566.567	1218.88
567.334	1153.88
568.101	1097.88
568.869	1031.88
569.636	977.88
570.403	919.88
571.17	857.88
571.937	821.88
572.704	772.88
573.471	734.88
574.237	699.88
575.004	641.88
575.771	605.88
576.537	565.88
577.303	545.88
578.07	519.88
578.836	489.88
579.602	457.88
580.368	435.88
581.134	418.88
581.9	394.88
582.666	375.88
583.432	357.88
584.198	341.88
584.964	320.88
585.729	307.88
586.495	292.88
587.26	278.88
588.025	259.88
588.791	244.88
589.556	235.88
590.321	220.88
591.086	208.88
591.851	195.88
592.616	190.88
593.381	182.88
594.146	172.88
594.911	166.88
595.675	156.88
596.44	150.88
597.204	146.88
597.969	139.88
598.733	129.88
599.497	126.88
600.261	121.88
601.025	112.88
601.79	111.88
602.553	108.88
603.317	104.88
604.081	96.88
604.845	93.88
605.609	94.88
606.372	81.88
607.136	83.88
607.899	76.88
608.662	78.88
609.426	78.88
610.189	70.88
610.952	70.88
611.715	61.88
612.478	63.88
613.241	60.88
614.004	55.88
614.767	55.88
615.529	53.88
616.292	54.88
617.055	51.88
617.817	45.88
618.579	46.88
619.342	49.88
620.104	44.88
620.866	41.88
621.628	39.88
622.39	38.88
623.152	39.88
623.914	38.88
624.676	37.88
625.438	36.88
626.199	32.88
626.961	30.88
627.722	31.88
628.484	30.88
629.245	30.88
630.006	26.88
630.768	27.88
631.529	26.88
632.29	25.88
633.051	26.88
633.812	25.88
634.573	23.88
635.333	24.88
636.094	23.88
636.855	22.88
637.615	22.88
638.376	18.88
639.136	20.88
639.896	22.88
640.657	17.88
641.417	18.88
642.177	19.88
642.937	22.88
643.697	19.88
644.457	15.88
645.216	14.88
645.976	16.88
646.736	15.88
647.495	13.88
648.255	15.88
649.014	14.88
649.774	14.88
650.533	12.88
651.292	14.88
652.051	14.88
652.81	14.88
653.569	14.88
654.328	13.88
655.087	11.88
655.846	13.88
656.604	10.88
657.363	11.88
658.121	15.88
658.88	10.88
659.638	9.88
660.397	11.88
661.155	10.88
661.913	9.88
662.671	10.88
663.429	11.88
664.187	11.88
664.945	10.88
665.703	8.88
666.46	10.88
667.218	9.88
667.976	8.88
668.733	10.88
669.49	9.88
670.248	6.88
671.005	12.88
671.762	9.88
672.519	8.88
673.276	9.88
674.033	8.88
674.79	10.88
675.547	7.88
676.304	8.88
677.06	8.88
677.817	9.88
678.574	9.88
679.33	7.88
680.086	7.88
680.843	8.88
681.599	7.88
682.355	8.88
683.111	6.88
683.867	9.88
684.623	8.88
685.379	9.88
686.135	8.88
686.89	9.88
687.646	6.88
688.402	7.88
689.157	8.88
689.912	6.88
690.668	6.88
691.423	7.88
692.178	5.88
692.933	7.88
693.688	7.88
694.443	8.88
695.198	8.88
695.953	10.88
696.708	6.88
697.462	6.88
698.217	7.88
698.972	7.88
699.726	3.88
700.48	6.88
701.235	6.88
701.989	7.88
702.743	7.88
703.497	8.88
704.251	5.88
705.005	6.88
705.759	7.88
706.513	4.88
707.266	9.88
708.02	8.88
708.774	8.88
709.527	6.88
710.28	7.88
711.034	7.88
711.787	5.88
712.54	5.88
713.293	8.88
714.046	6.88
714.799	7.88
715.552	6.88
716.305	7.88
717.058	7.88
717.81	8.88
718.563	5.88
719.315	6.88
720.068	7.88
720.82	8.88
721.573	6.88
722.325	9.88
723.077	8.88
723.829	8.88
724.581	8.88
725.333	7.88
726.085	8.88
726.836	8.88
727.588	4.88
728.34	9.88
729.091	5.88
729.843	7.88
730.594	5.88
731.346	6.88
732.097	9.88
732.848	5.88
733.599	9.88
734.35	7.88
735.101	7.88
735.852	8.88
736.603	7.88
737.354	8.88
738.104	8.88
738.855	9.88
739.605	10.88
740.356	10.88
741.106	10.88
741.856	8.88
742.607	8.88
743.357	4.88
744.107	11.88
744.857	8.88
745.607	8.88
746.357	7.88
747.106	8.88
747.856	8.88
748.606	8.88
749.355	8.88
750.105	10.88
750.854	10.88
751.603	10.88
752.353	9.88
753.102	10.88
753.851	7.88
754.6	9.88
755.349	8.88
756.098	9.88
756.847	10.88
757.595	11.88
758.344	12.88
759.093	11.88
759.841	11.88
760.589	10.88
761.338	9.88
762.086	10.88
762.834	10.88
763.582	10.88
764.331	14.88
765.079	12.88
765.826	13.88
766.574	12.88
767.322	13.88
768.07	10.88
768.817	13.88
769.565	11.88
770.312	11.88
771.06	13.88
771.807	12.88
772.554	13.88
773.302	14.88
774.049	12.88
774.796	12.88
775.543	11.88
776.29	13.88
777.036	12.88
777.783	13.88
778.53	14.88
779.276	12.88
780.023	14.88
780.769	17.88
781.516	14.88
782.262	12.88
783.008	13.88
783.754	11.88
784.5	14.88
785.246	13.88
785.992	15.88
786.738	16.88
787.484	14.88
788.23	16.88
788.975	14.88
789.721	15.88
790.466	14.88
791.212	15.88
791.957	13.88
792.702	15.88
793.447	12.88
794.193	14.88
794.938	12.88
795.683	12.88
796.427	12.88
797.172	12.88
797.917	13.88
798.662	8.88
799.406	14.88
800.151	15.88
800.895	11.88
801.64	12.88
802.384	11.88
803.128	10.88
803.872	9.88
804.616	12.88
805.36	10.88
806.104	9.88
806.848	10.88
807.592	8.88
808.336	10.88
809.079	10.88
809.823	9.88
810.566	8.88
811.31	7.88
812.053	8.88
812.796	7.88
813.539	8.88
814.283	7.88
815.026	7.88
815.769	7.88
816.511	7.88
817.254	7.88
817.997	7.88
818.74	10.88
819.482	8.88
820.225	6.88
820.967	6.88
821.71	4.88
822.452	8.88
823.194	6.88
823.936	7.88
824.678	7.88
825.42	6.88
826.162	7.88
826.904	3.88
827.646	6.88
828.388	7.88
829.129	7.88
829.871	5.88
830.612	6.88
831.354	6.88
832.095	5.88
832.836	5.88
833.577	4.88
834.319	5.88
835.06	7.88
835.801	4.88
836.542	5.88
837.282	3.88
838.023	5.88
838.764	7.88
839.504	5.88
840.245	4.88
840.985	5.88
841.726	6.88
842.466	5.88
843.206	5.88
843.946	4.88
844.687	7.88
845.427	7.88
846.166	4.88
846.906	4.88
847.646	4.88
848.386	5.88
849.125	4.88
849.865	4.88
850.605	4.88
851.344	4.88
852.083	4.88
852.823	2.88
853.562	2.88
854.301	6.88
855.04	3.88
855.779	3.88
856.518	3.88
857.257	5.88
857.995	2.88
858.734	4.88
859.473	3.88
860.211	2.88
860.95	4.88
861.688	2.88
862.426	4.88
863.165	4.88
863.903	3.88
864.641	3.88
865.379	2.88
866.117	1.88
866.855	2.88
867.593	0.88
868.33	2.88
869.068	1.88
869.806	2.88
870.543	5.88
871.28	2.88
872.018	2.88
872.755	0.88
873.492	2.88
874.229	2.88
874.967	2.88
875.703	2.88
876.44	0.88
877.177	1.88
877.914	0.88
878.651	2.88
879.387	1.88
880.124	1.88
880.86	2.88
881.597	0.88
882.333	1.88
883.069	0.88
883.806	-1.12
884.542	0.88
885.278	1.88
886.014	0.88
886.749	1.88
887.485	1.88
888.221	2.88
888.957	0.88
889.692	1.88
890.428	0.88
891.163	1.88
891.899	-0.12
892.634	1.88
893.369	1.88
894.104	-0.12
894.839	4.88
895.574	-0.12
896.309	-1.12
897.044	0.88
897.779	1.88
898.514	2.88
899.248	-1.12
899.983	0.88
900.717	1.88
901.452	-0.12
902.186	-0.12
902.92	0.88
903.654	0.88
904.389	-1.12
905.123	-0.12
905.857	0.88
906.59	0.88
907.324	1.88
908.058	-1.12
908.792	-0.12
909.525	-0.12
910.259	0.88
910.992	-2.12
911.726	-2.12
912.459	-1.12
913.192	-0.12
913.925	3.88
914.658	0.88
915.391	1.88
916.124	1.88
916.857	1.88
917.59	0.88
918.323	-0.12
919.055	-0.12
919.788	1.88
920.521	0.88
921.253	-0.12
921.985	0.88
922.718	0.88
923.45	-0.12
924.182	1.88
924.914	-1.12
925.646	-0.12
926.378	-0.12
927.11	0.88
927.841	-0.12
928.573	-0.12
929.305	-0.12
930.036	-0.12
930.768	1.88
931.499	1.88
932.23	-0.12
932.962	1.88
933.693	1.88
934.424	1.88
935.155	1.88
935.886	1.88
936.617	-0.12
937.348	-1.12
938.078	-1.12
938.809	1.88
939.54	-1.12
940.27	0.88
941.001	-0.12
941.731	-0.12
942.461	-1.12
943.191	-1.12
943.922	1.88
944.652	-0.12
945.382	-0.12
946.112	-1.12
946.841	2.88
947.571	1.88
948.301	0.88
949.031	0.88
949.76	-0.12
950.49	0.88
951.219	-0.12
951.948	0.88
952.678	-1.12
953.407	0.88
954.136	-0.12
954.865	-0.12
955.594	2.88
956.323	0.88
957.052	-0.12
957.78	1.88
958.509	1.88
959.238	-0.12
959.966	-0.12
960.695	-1.12
961.423	0.88
962.151	-1.12
962.88	-0.12
963.608	1.88
964.336	0.88
965.064	-0.12
965.792	1.88
966.52	-0.12
967.247	-0.12
967.975	0.88
968.703	-1.12
969.43	0.88
970.158	3.88
970.885	0.88
971.613	0.88
972.34	-3.12
973.067	0.88
973.794	0.88
974.521	-3.12
975.248	-0.12
975.975	1.88
976.702	0.88
977.429	1.88
978.156	1.88
978.882	-0.12
979.609	0.88
980.335	0.88
981.062	-2.12
981.788	-1.12
982.514	0.88
983.24	1.88
983.967	-0.12
984.693	1.88
985.419	-1.12
986.144	-1.12
986.87	1.88
987.596	-0.12
988.322	0.88
989.047	0.88
989.773	-0.12
990.498	-1.12
991.224	0.88
991.949	0.88
992.674	-0.12
993.399	0.88
994.124	-1.12
994.849	0.88
995.574	1.88
996.299	-1.12
997.024	0.88
997.749	0.88
998.473	1.88
999.198	1.88
999.922	0.88
1000.647	2.88
1001.371	2.88
1002.095	-1.12
1002.82	-1.12
1003.544	-2.12
1004.268	4.88
1004.992	3.88
1005.716	2.88
1006.439	5.88
1007.163	6.88
1007.887	6.88
1008.611	-0.12
1009.334	0.88
1010.058	-1.12
1010.781	0.88
1011.504	0.88
1012.228	0.88
1012.951	-0.12
1013.674	0.88
1014.397	-0.12
1015.12	0.88
