节点500_705_QEPB04081__503__20-53-01-772.txt的数据

Date: Wed Nov 12 20:53:01 CST 2025
User: PC
Spectrometer: QEPB0408
触发模式: 0
积分时间 (秒): 1.000000E-2
Scans to average: 1
启用暗噪声校正: true
启用非线性校正: false
滑动平均宽度: 0
X轴模式: Wavelengths
Number of Pixels in Spectrum: 1044
>>>>>Begin Spectral Data<<<<<
220.843	2.38
221.644	3.38
222.444	4.38
223.244	7.38
224.045	7.38
224.845	3.38
225.645	6.38
226.445	5.38
227.245	5.38
228.045	5.38
228.845	7.38
229.645	8.38
230.444	7.38
231.244	7.38
232.043	8.38
232.843	8.38
233.642	6.38
234.442	9.38
235.241	7.38
236.04	10.38
236.839	7.38
237.638	8.38
238.437	8.38
239.236	11.38
240.035	10.38
240.833	10.38
241.632	10.38
242.43	12.38
243.229	10.38
244.027	12.38
244.826	11.38
245.624	13.38
246.422	11.38
247.22	13.38
248.018	13.38
248.816	11.38
249.614	15.38
250.412	14.38
251.21	13.38
252.007	14.38
252.805	15.38
253.602	16.38
254.4	14.38
255.197	18.38
255.994	14.38
256.791	15.38
257.589	20.38
258.386	16.38
259.183	20.38
259.979	20.38
260.776	19.38
261.573	20.38
262.37	21.38
263.166	21.38
263.963	20.38
264.759	25.38
265.556	23.38
266.352	22.38
267.148	26.38
267.944	22.38
268.74	28.38
269.536	29.38
270.332	26.38
271.128	27.38
271.924	29.38
272.719	29.38
273.515	26.38
274.311	28.38
275.106	28.38
275.901	29.38
276.697	31.38
277.492	31.38
278.287	31.38
279.082	29.38
279.877	33.38
280.672	34.38
281.467	34.38
282.262	32.38
283.056	33.38
283.851	33.38
284.646	31.38
285.44	29.38
286.234	29.38
287.029	30.38
287.823	31.38
288.617	29.38
289.411	30.38
290.205	30.38
290.999	29.38
291.793	31.38
292.587	30.38
293.381	31.38
294.174	29.38
294.968	26.38
295.761	25.38
296.555	27.38
297.348	27.38
298.141	23.38
298.935	28.38
299.728	23.38
300.521	23.38
301.314	24.38
302.107	22.38
302.899	22.38
303.692	21.38
304.485	18.38
305.277	21.38
306.07	19.38
306.862	23.38
307.655	23.38
308.447	18.38
309.239	21.38
310.031	21.38
310.823	18.38
311.615	17.38
312.407	17.38
313.199	18.38
313.991	18.38
314.783	19.38
315.574	14.38
316.366	15.38
317.157	16.38
317.949	16.38
318.74	15.38
319.531	12.38
320.322	16.38
321.113	11.38
321.904	14.38
322.695	12.38
323.486	13.38
324.277	15.38
325.068	13.38
325.858	12.38
326.649	10.38
327.439	11.38
328.23	10.38
329.02	13.38
329.81	10.38
330.6	9.38
331.391	11.38
332.181	12.38
332.971	11.38
333.76	10.38
334.55	10.38
335.34	11.38
336.13	10.38
336.919	12.38
337.709	12.38
338.498	11.38
339.287	10.38
340.077	11.38
340.866	11.38
341.655	10.38
342.444	10.38
343.233	11.38
344.022	10.38
344.811	11.38
345.6	10.38
346.388	12.38
347.177	10.38
347.965	11.38
348.754	8.38
349.542	8.38
350.33	10.38
351.119	12.38
351.907	9.38
352.695	9.38
353.483	9.38
354.271	13.38
355.059	8.38
355.846	9.38
356.634	9.38
357.422	8.38
358.209	9.38
358.997	11.38
359.784	9.38
360.571	8.38
361.359	9.38
362.146	8.38
362.933	6.38
363.72	7.38
364.507	9.38
365.294	8.38
366.081	8.38
366.867	9.38
367.654	11.38
368.44	9.38
369.227	10.38
370.013	6.38
370.8	8.38
371.586	8.38
372.372	11.38
373.158	6.38
373.944	8.38
374.73	9.38
375.516	8.38
376.302	8.38
377.088	8.38
377.873	10.38
378.659	10.38
379.445	6.38
380.23	8.38
381.015	9.38
381.801	9.38
382.586	8.38
383.371	10.38
384.156	8.38
384.941	10.38
385.726	8.38
386.511	9.38
387.296	10.38
388.08	10.38
388.865	8.38
389.649	10.38
390.434	12.38
391.218	8.38
392.003	8.38
392.787	11.38
393.571	11.38
394.355	9.38
395.139	11.38
395.923	11.38
396.707	10.38
397.491	12.38
398.274	9.38
399.058	11.38
399.842	14.38
400.625	12.38
401.408	10.38
402.192	12.38
402.975	12.38
403.758	12.38
404.541	12.38
405.324	12.38
406.107	13.38
406.89	14.38
407.673	12.38
408.456	14.38
409.238	14.38
410.021	16.38
410.803	12.38
411.586	15.38
412.368	16.38
413.151	17.38
413.933	15.38
414.715	18.38
415.497	19.38
416.279	17.38
417.061	18.38
417.843	16.38
418.624	16.38
419.406	18.38
420.188	19.38
420.969	24.38
421.751	18.38
422.532	19.38
423.313	22.38
424.095	22.38
424.876	23.38
425.657	20.38
426.438	24.38
427.219	24.38
428	26.38
428.78	27.38
429.561	28.38
430.342	27.38
431.122	28.38
431.903	31.38
432.683	31.38
433.464	35.38
434.244	38.38
435.024	39.38
435.804	38.38
436.584	45.38
437.364	41.38
438.144	45.38
438.924	48.38
439.704	54.38
440.483	52.38
441.263	62.38
442.042	67.38
442.822	65.38
443.601	77.38
444.38	82.38
445.16	90.38
445.939	97.38
446.718	102.38
447.497	114.38
448.276	122.38
449.054	138.38
449.833	150.38
450.612	165.38
451.391	188.38
452.169	202.38
452.948	229.38
453.726	249.38
454.504	279.38
455.282	307.38
456.061	343.38
456.839	390.38
457.617	426.38
458.395	472.38
459.172	523.38
459.95	588.38
460.728	656.38
461.506	729.38
462.283	828.38
463.061	904.38
463.838	1005.38
464.615	1122.38
465.393	1237.38
466.17	1384.38
466.947	1528.38
467.724	1690.38
468.501	1854.38
469.278	2073.38
470.055	2293.38
470.831	2511.38
471.608	2752.38
472.385	3020.38
473.161	3316.38
473.938	3630.38
474.714	3980.38
475.49	4353.38
476.266	4722.38
477.043	5185.38
477.819	5644.38
478.595	6136.38
479.371	6732.38
480.146	7286.38
480.922	7929.38
481.698	8631.38
482.473	9345.38
483.249	10093.38
484.024	10950.38
484.8	11820.38
485.575	12763.38
486.35	13825.38
487.126	14923.38
487.901	16066.38
488.676	17271.38
489.451	18630.38
490.225	19947.38
491	21437.38
491.775	22894.38
492.55	24421.38
493.324	26037.38
494.099	27635.38
494.873	29344.38
495.647	30905.38
496.422	32662.38
497.196	34259.38
497.97	35847.38
498.744	37324.38
499.518	38929.38
500.292	40323.38
501.066	41254.38
501.839	42300.38
502.613	43109.38
503.387	43790.38
504.16	44424.38
504.934	44793.38
505.707	44915.38
506.48	44729.38
507.253	44421.38
508.027	44006.38
508.8	43338.38
509.573	42538.38
510.346	41723.38
511.118	40797.38
511.891	39730.38
512.664	38348.38
513.437	37070.38
514.209	35783.38
514.982	34514.38
515.754	33143.38
516.526	31963.38
517.298	30700.38
518.071	29455.38
518.843	28257.38
519.615	27137.38
520.387	26142.38
521.159	25124.38
521.93	24024.38
522.702	23093.38
523.474	22119.38
524.245	21152.38
525.017	20325.38
525.788	19433.38
526.56	18729.38
527.331	17884.38
528.102	17023.38
528.873	16125.38
529.644	15431.38
530.415	14724.38
531.186	14045.38
531.957	13329.38
532.728	12660.38
533.498	12014.38
534.269	11408.38
535.039	10789.38
535.81	10216.38
536.58	9640.38
537.351	9184.38
538.121	8665.38
538.891	8210.38
539.661	7746.38
540.431	7384.38
541.201	6988.38
541.971	6647.38
542.741	6251.38
543.51	5928.38
544.28	5670.38
545.05	5393.38
545.819	5109.38
546.588	4903.38
547.358	4670.38
548.127	4431.38
548.896	4204.38
549.665	3997.38
550.434	3806.38
551.203	3615.38
551.972	3410.38
552.741	3251.38
553.51	3054.38
554.278	2888.38
555.047	2727.38
555.815	2586.38
556.584	2463.38
557.352	2301.38
558.121	2202.38
558.889	2058.38
559.657	1950.38
560.425	1848.38
561.193	1751.38
561.961	1644.38
562.729	1575.38
563.496	1489.38
564.264	1400.38
565.032	1319.38
565.799	1264.38
566.567	1179.38
567.334	1120.38
568.101	1065.38
568.869	997.38
569.636	953.38
570.403	894.38
571.17	836.38
571.937	798.38
572.704	748.38
573.471	713.38
574.237	670.38
575.004	629.38
575.771	599.38
576.537	556.38
577.303	533.38
578.07	499.38
578.836	470.38
579.602	453.38
580.368	430.38
581.134	397.38
581.9	380.38
582.666	366.38
583.432	346.38
584.198	320.38
584.964	310.38
585.729	301.38
586.495	282.38
587.26	269.38
588.025	253.38
588.791	238.38
589.556	226.38
590.321	215.38
591.086	200.38
591.851	194.38
592.616	181.38
593.381	176.38
594.146	165.38
594.911	157.38
595.675	161.38
596.44	149.38
597.204	142.38
597.969	136.38
598.733	130.38
599.497	117.38
600.261	113.38
601.025	112.38
601.79	108.38
602.553	99.38
603.317	101.38
604.081	94.38
604.845	94.38
605.609	84.38
606.372	79.38
607.136	80.38
607.899	81.38
608.662	73.38
609.426	70.38
610.189	66.38
610.952	67.38
611.715	61.38
612.478	56.38
613.241	59.38
614.004	56.38
614.767	54.38
615.529	51.38
616.292	48.38
617.055	46.38
617.817	45.38
618.579	49.38
619.342	47.38
620.104	42.38
620.866	41.38
621.628	39.38
622.39	37.38
623.152	39.38
623.914	34.38
624.676	32.38
625.438	34.38
626.199	32.38
626.961	33.38
627.722	30.38
628.484	29.38
629.245	30.38
630.006	30.38
630.768	30.38
631.529	25.38
632.29	26.38
633.051	22.38
633.812	23.38
634.573	24.38
635.333	22.38
636.094	22.38
636.855	22.38
637.615	21.38
638.376	17.38
639.136	19.38
639.896	19.38
640.657	18.38
641.417	18.38
642.177	17.38
642.937	18.38
643.697	17.38
644.457	17.38
645.216	16.38
645.976	14.38
646.736	16.38
647.495	15.38
648.255	14.38
649.014	14.38
649.774	13.38
650.533	13.38
651.292	13.38
652.051	14.38
652.81	13.38
653.569	13.38
654.328	8.38
655.087	11.38
655.846	14.38
656.604	7.38
657.363	12.38
658.121	10.38
658.88	7.38
659.638	7.38
660.397	10.38
661.155	9.38
661.913	9.38
662.671	10.38
663.429	9.38
664.187	7.38
664.945	11.38
665.703	9.38
666.46	12.38
667.218	10.38
667.976	8.38
668.733	9.38
669.49	8.38
670.248	9.38
671.005	9.38
671.762	8.38
672.519	9.38
673.276	10.38
674.033	10.38
674.79	6.38
675.547	7.38
676.304	8.38
677.06	7.38
677.817	7.38
678.574	8.38
679.33	8.38
680.086	4.38
680.843	8.38
681.599	8.38
682.355	7.38
683.111	7.38
683.867	6.38
684.623	9.38
685.379	7.38
686.135	7.38
686.89	8.38
687.646	8.38
688.402	7.38
689.157	4.38
689.912	9.38
690.668	8.38
691.423	8.38
692.178	6.38
692.933	8.38
693.688	8.38
694.443	6.38
695.198	5.38
695.953	7.38
696.708	8.38
697.462	6.38
698.217	5.38
698.972	6.38
699.726	7.38
700.48	8.38
701.235	7.38
701.989	3.38
702.743	8.38
703.497	7.38
704.251	4.38
705.005	8.38
705.759	7.38
706.513	7.38
707.266	8.38
708.02	6.38
708.774	7.38
709.527	6.38
710.28	8.38
711.034	8.38
711.787	6.38
712.54	7.38
713.293	7.38
714.046	3.38
714.799	8.38
715.552	7.38
716.305	6.38
717.058	7.38
717.81	5.38
718.563	7.38
719.315	7.38
720.068	7.38
720.82	5.38
721.573	5.38
722.325	9.38
723.077	6.38
723.829	6.38
724.581	8.38
725.333	5.38
726.085	6.38
726.836	7.38
727.588	7.38
728.34	8.38
729.091	6.38
729.843	8.38
730.594	5.38
731.346	9.38
732.097	8.38
732.848	7.38
733.599	9.38
734.35	7.38
735.101	6.38
735.852	7.38
736.603	6.38
737.354	7.38
738.104	10.38
738.855	8.38
739.605	8.38
740.356	10.38
741.106	7.38
741.856	8.38
742.607	8.38
743.357	9.38
744.107	8.38
744.857	8.38
745.607	8.38
746.357	8.38
747.106	10.38
747.856	9.38
748.606	10.38
749.355	10.38
750.105	9.38
750.854	10.38
751.603	9.38
752.353	8.38
753.102	10.38
753.851	8.38
754.6	8.38
755.349	9.38
756.098	12.38
756.847	10.38
757.595	8.38
758.344	10.38
759.093	11.38
759.841	13.38
760.589	11.38
761.338	12.38
762.086	12.38
762.834	11.38
763.582	14.38
764.331	13.38
765.079	11.38
765.826	12.38
766.574	13.38
767.322	10.38
768.07	11.38
768.817	14.38
769.565	13.38
770.312	9.38
771.06	11.38
771.807	12.38
772.554	12.38
773.302	12.38
774.049	14.38
774.796	9.38
775.543	14.38
776.29	13.38
777.036	12.38
777.783	12.38
778.53	12.38
779.276	15.38
780.023	14.38
780.769	14.38
781.516	14.38
782.262	14.38
783.008	14.38
783.754	14.38
784.5	14.38
785.246	13.38
785.992	15.38
786.738	12.38
787.484	12.38
788.23	14.38
788.975	13.38
789.721	14.38
790.466	15.38
791.212	14.38
791.957	14.38
792.702	12.38
793.447	12.38
794.193	12.38
794.938	13.38
795.683	15.38
796.427	7.38
797.172	10.38
797.917	10.38
798.662	11.38
799.406	12.38
800.151	11.38
800.895	12.38
801.64	11.38
802.384	12.38
803.128	12.38
803.872	10.38
804.616	11.38
805.36	13.38
806.104	11.38
806.848	11.38
807.592	10.38
808.336	10.38
809.079	10.38
809.823	8.38
810.566	10.38
811.31	9.38
812.053	7.38
812.796	9.38
813.539	10.38
814.283	9.38
815.026	7.38
815.769	6.38
816.511	8.38
817.254	6.38
817.997	6.38
818.74	4.38
819.482	6.38
820.225	9.38
820.967	6.38
821.71	6.38
822.452	3.38
823.194	5.38
823.936	6.38
824.678	5.38
825.42	6.38
826.162	6.38
826.904	6.38
827.646	4.38
828.388	4.38
829.129	5.38
829.871	7.38
830.612	7.38
831.354	3.38
832.095	6.38
832.836	6.38
833.577	5.38
834.319	5.38
835.06	6.38
835.801	6.38
836.542	5.38
837.282	5.38
838.023	3.38
838.764	3.38
839.504	4.38
840.245	4.38
840.985	6.38
841.726	4.38
842.466	6.38
843.206	5.38
843.946	5.38
844.687	2.38
845.427	4.38
846.166	4.38
846.906	5.38
847.646	1.38
848.386	7.38
849.125	4.38
849.865	4.38
850.605	1.38
851.344	6.38
852.083	4.38
852.823	2.38
853.562	5.38
854.301	2.38
855.04	4.38
855.779	6.38
856.518	1.38
857.257	2.38
857.995	4.38
858.734	3.38
859.473	2.38
860.211	0.38
860.95	5.38
861.688	1.38
862.426	3.38
863.165	4.38
863.903	1.38
864.641	2.38
865.379	3.38
866.117	2.38
866.855	1.38
867.593	2.38
868.33	2.38
869.068	2.38
869.806	2.38
870.543	3.38
871.28	1.38
872.018	4.38
872.755	2.38
873.492	1.38
874.229	1.38
874.967	4.38
875.703	-0.62
876.44	0.38
877.177	2.38
877.914	1.38
878.651	1.38
879.387	-1.62
880.124	2.38
880.86	0.38
881.597	0.38
882.333	-1.62
883.069	0.38
883.806	0.38
884.542	0.38
885.278	2.38
886.014	-0.62
886.749	4.38
887.485	1.38
888.221	0.38
888.957	0.38
889.692	0.38
890.428	0.38
891.163	0.38
891.899	-0.62
892.634	-2.62
893.369	0.38
894.104	1.38
894.839	0.38
895.574	0.38
896.309	-0.62
897.044	2.38
897.779	0.38
898.514	0.38
899.248	0.38
899.983	2.38
900.717	1.38
901.452	-0.62
902.186	0.38
902.92	0.38
903.654	-0.62
904.389	0.38
905.123	-0.62
905.857	0.38
906.59	0.38
907.324	0.38
908.058	-0.62
908.792	0.38
909.525	2.38
910.259	0.38
910.992	-1.62
911.726	-1.62
912.459	0.38
913.192	-0.62
913.925	0.38
914.658	0.38
915.391	1.38
916.124	1.38
916.857	-1.62
917.59	2.38
918.323	1.38
919.055	-0.62
919.788	-0.62
920.521	2.38
921.253	-1.62
921.985	2.38
922.718	2.38
923.45	1.38
924.182	-0.62
924.914	-2.62
925.646	-0.62
926.378	-0.62
927.11	0.38
927.841	-1.62
928.573	1.38
929.305	1.38
930.036	-1.62
930.768	2.38
931.499	-1.62
932.23	-1.62
932.962	0.38
933.693	-1.62
934.424	0.38
935.155	-1.62
935.886	-0.62
936.617	-1.62
937.348	-1.62
938.078	-0.62
938.809	-1.62
939.54	1.38
940.27	0.38
941.001	-1.62
941.731	0.38
942.461	-1.62
943.191	0.38
943.922	-1.62
944.652	-1.62
945.382	-0.62
946.112	-2.62
946.841	-0.62
947.571	-0.62
948.301	-0.62
949.031	-0.62
949.76	-2.62
950.49	0.38
951.219	-1.62
951.948	0.38
952.678	0.38
953.407	-0.62
954.136	-1.62
954.865	0.38
955.594	2.38
956.323	-1.62
957.052	0.38
957.78	-1.62
958.509	1.38
959.238	1.38
959.966	-2.62
960.695	-0.62
961.423	0.38
962.151	-2.62
962.88	2.38
963.608	-0.62
964.336	-0.62
965.064	-0.62
965.792	-1.62
966.52	0.38
967.247	-1.62
967.975	-0.62
968.703	-0.62
969.43	-3.62
970.158	0.38
970.885	0.38
971.613	-0.62
972.34	0.38
973.067	-1.62
973.794	0.38
974.521	0.38
975.248	-1.62
975.975	-0.62
976.702	-1.62
977.429	-1.62
978.156	0.38
978.882	0.38
979.609	-0.62
980.335	-2.62
981.062	-0.62
981.788	0.38
982.514	-3.62
983.24	1.38
983.967	0.38
984.693	-0.62
985.419	1.38
986.144	-0.62
986.87	-0.62
987.596	-1.62
988.322	-0.62
989.047	-0.62
989.773	0.38
990.498	0.38
991.224	-0.62
991.949	3.38
992.674	0.38
993.399	0.38
994.124	-1.62
994.849	-0.62
995.574	0.38
996.299	0.38
997.024	-1.62
997.749	1.38
998.473	0.38
999.198	-0.62
999.922	-2.62
1000.647	-0.62
1001.371	2.38
1002.095	-0.62
1002.82	-1.62
1003.544	-1.62
1004.268	3.38
1004.992	2.38
1005.716	4.38
1006.439	2.38
1007.163	5.38
1007.887	5.38
1008.611	-2.62
1009.334	1.38
1010.058	-1.62
1010.781	0.38
1011.504	0.38
1012.228	-1.62
1012.951	2.38
1013.674	1.38
1014.397	-0.62
1015.12	-1.62
