节点500_705_QEPB04081__387__20-51-26-609.txt的数据

Date: Wed Nov 12 20:51:26 CST 2025
User: PC
Spectrometer: QEPB0408
触发模式: 0
积分时间 (秒): 1.000000E-2
Scans to average: 1
启用暗噪声校正: true
启用非线性校正: false
滑动平均宽度: 0
X轴模式: Wavelengths
Number of Pixels in Spectrum: 1044
>>>>>Begin Spectral Data<<<<<
220.843	6.25
221.644	6.25
222.444	6.25
223.244	8.25
224.045	7.25
224.845	7.25
225.645	11.25
226.445	6.25
227.245	8.25
228.045	7.25
228.845	8.25
229.645	9.25
230.444	10.25
231.244	11.25
232.043	9.25
232.843	10.25
233.642	8.25
234.442	10.25
235.241	8.25
236.04	11.25
236.839	11.25
237.638	8.25
238.437	11.25
239.236	13.25
240.035	12.25
240.833	14.25
241.632	11.25
242.43	15.25
243.229	13.25
244.027	14.25
244.826	13.25
245.624	16.25
246.422	15.25
247.22	15.25
248.018	18.25
248.816	15.25
249.614	13.25
250.412	14.25
251.21	17.25
252.007	16.25
252.805	17.25
253.602	18.25
254.4	18.25
255.197	18.25
255.994	20.25
256.791	19.25
257.589	19.25
258.386	21.25
259.183	22.25
259.979	21.25
260.776	22.25
261.573	22.25
262.37	25.25
263.166	24.25
263.963	25.25
264.759	27.25
265.556	26.25
266.352	26.25
267.148	27.25
267.944	30.25
268.74	27.25
269.536	29.25
270.332	30.25
271.128	30.25
271.924	30.25
272.719	31.25
273.515	31.25
274.311	31.25
275.106	30.25
275.901	33.25
276.697	34.25
277.492	35.25
278.287	33.25
279.082	34.25
279.877	29.25
280.672	34.25
281.467	31.25
282.262	32.25
283.056	32.25
283.851	33.25
284.646	34.25
285.44	31.25
286.234	31.25
287.029	34.25
287.823	35.25
288.617	35.25
289.411	33.25
290.205	33.25
290.999	33.25
291.793	33.25
292.587	29.25
293.381	30.25
294.174	30.25
294.968	27.25
295.761	27.25
296.555	27.25
297.348	26.25
298.141	27.25
298.935	30.25
299.728	26.25
300.521	24.25
301.314	24.25
302.107	25.25
302.899	23.25
303.692	23.25
304.485	21.25
305.277	24.25
306.07	23.25
306.862	22.25
307.655	19.25
308.447	21.25
309.239	19.25
310.031	24.25
310.823	21.25
311.615	22.25
312.407	18.25
313.199	16.25
313.991	15.25
314.783	16.25
315.574	17.25
316.366	15.25
317.157	17.25
317.949	14.25
318.74	15.25
319.531	13.25
320.322	14.25
321.113	15.25
321.904	14.25
322.695	13.25
323.486	13.25
324.277	13.25
325.068	13.25
325.858	12.25
326.649	13.25
327.439	11.25
328.23	15.25
329.02	10.25
329.81	13.25
330.6	11.25
331.391	13.25
332.181	14.25
332.971	12.25
333.76	14.25
334.55	12.25
335.34	11.25
336.13	13.25
336.919	11.25
337.709	12.25
338.498	9.25
339.287	13.25
340.077	12.25
340.866	11.25
341.655	8.25
342.444	9.25
343.233	12.25
344.022	11.25
344.811	11.25
345.6	11.25
346.388	13.25
347.177	13.25
347.965	11.25
348.754	10.25
349.542	11.25
350.33	10.25
351.119	11.25
351.907	11.25
352.695	10.25
353.483	11.25
354.271	12.25
355.059	11.25
355.846	9.25
356.634	9.25
357.422	9.25
358.209	9.25
358.997	9.25
359.784	12.25
360.571	10.25
361.359	10.25
362.146	11.25
362.933	11.25
363.72	10.25
364.507	8.25
365.294	10.25
366.081	11.25
366.867	8.25
367.654	13.25
368.44	11.25
369.227	11.25
370.013	9.25
370.8	7.25
371.586	10.25
372.372	8.25
373.158	10.25
373.944	11.25
374.73	10.25
375.516	12.25
376.302	10.25
377.088	9.25
377.873	11.25
378.659	7.25
379.445	10.25
380.23	7.25
381.015	10.25
381.801	9.25
382.586	11.25
383.371	11.25
384.156	11.25
384.941	12.25
385.726	9.25
386.511	13.25
387.296	11.25
388.08	10.25
388.865	11.25
389.649	13.25
390.434	10.25
391.218	12.25
392.003	12.25
392.787	14.25
393.571	12.25
394.355	12.25
395.139	9.25
395.923	12.25
396.707	11.25
397.491	14.25
398.274	12.25
399.058	14.25
399.842	14.25
400.625	15.25
401.408	14.25
402.192	14.25
402.975	14.25
403.758	14.25
404.541	14.25
405.324	16.25
406.107	13.25
406.89	14.25
407.673	17.25
408.456	16.25
409.238	16.25
410.021	18.25
410.803	16.25
411.586	16.25
412.368	16.25
413.151	19.25
413.933	17.25
414.715	20.25
415.497	19.25
416.279	18.25
417.061	20.25
417.843	19.25
418.624	19.25
419.406	20.25
420.188	21.25
420.969	21.25
421.751	24.25
422.532	23.25
423.313	23.25
424.095	25.25
424.876	25.25
425.657	25.25
426.438	25.25
427.219	27.25
428	26.25
428.78	26.25
429.561	33.25
430.342	31.25
431.122	34.25
431.903	30.25
432.683	33.25
433.464	35.25
434.244	38.25
435.024	42.25
435.804	44.25
436.584	44.25
437.364	44.25
438.144	50.25
438.924	50.25
439.704	51.25
440.483	58.25
441.263	62.25
442.042	67.25
442.822	71.25
443.601	76.25
444.38	78.25
445.16	91.25
445.939	95.25
446.718	104.25
447.497	111.25
448.276	122.25
449.054	135.25
449.833	147.25
450.612	165.25
451.391	178.25
452.169	203.25
452.948	216.25
453.726	250.25
454.504	277.25
455.282	307.25
456.061	340.25
456.839	379.25
457.617	420.25
458.395	463.25
459.172	519.25
459.95	575.25
460.728	652.25
461.506	728.25
462.283	804.25
463.061	894.25
463.838	996.25
464.615	1116.25
465.393	1240.25
466.17	1368.25
466.947	1517.25
467.724	1670.25
468.501	1853.25
469.278	2047.25
470.055	2270.25
470.831	2529.25
471.608	2790.25
472.385	3028.25
473.161	3362.25
473.938	3683.25
474.714	4057.25
475.49	4442.25
476.266	4855.25
477.043	5312.25
477.819	5797.25
478.595	6347.25
479.371	6871.25
480.146	7528.25
480.922	8211.25
481.698	8909.25
482.473	9658.25
483.249	10548.25
484.024	11452.25
484.8	12376.25
485.575	13342.25
486.35	14503.25
487.126	15679.25
487.901	16898.25
488.676	18287.25
489.451	19651.25
490.225	21165.25
491	22717.25
491.775	24280.25
492.55	25904.25
493.324	27632.25
494.099	29345.25
494.873	31086.25
495.647	32911.25
496.422	34591.25
497.196	36312.25
497.97	37997.25
498.744	39511.25
499.518	41078.25
500.292	42490.25
501.066	43456.25
501.839	44433.25
502.613	45259.25
503.387	45848.25
504.16	46364.25
504.934	46523.25
505.707	46567.25
506.48	46364.25
507.253	45932.25
508.027	45233.25
508.8	44350.25
509.573	43443.25
510.346	42317.25
511.118	41399.25
511.891	40209.25
512.664	38720.25
513.437	37387.25
514.209	36060.25
514.982	34602.25
515.754	33268.25
516.526	31955.25
517.298	30643.25
518.071	29467.25
518.843	28378.25
519.615	27163.25
520.387	26038.25
521.159	25041.25
521.93	23994.25
522.702	22985.25
523.474	22048.25
524.245	21155.25
525.017	20222.25
525.788	19367.25
526.56	18599.25
527.331	17735.25
528.102	16899.25
528.873	16081.25
529.644	15193.25
530.415	14572.25
531.186	13881.25
531.957	13150.25
532.728	12495.25
533.498	11842.25
534.269	11218.25
535.039	10621.25
535.81	10105.25
536.58	9510.25
537.351	9023.25
538.121	8501.25
538.891	8075.25
539.661	7643.25
540.431	7204.25
541.201	6845.25
541.971	6481.25
542.741	6124.25
543.51	5828.25
544.28	5541.25
545.05	5270.25
545.819	4999.25
546.588	4801.25
547.358	4559.25
548.127	4369.25
548.896	4151.25
549.665	3915.25
550.434	3727.25
551.203	3540.25
551.972	3332.25
552.741	3171.25
553.51	2996.25
554.278	2842.25
555.047	2671.25
555.815	2535.25
556.584	2391.25
557.352	2235.25
558.121	2135.25
558.889	2007.25
559.657	1898.25
560.425	1797.25
561.193	1717.25
561.961	1627.25
562.729	1533.25
563.496	1444.25
564.264	1375.25
565.032	1293.25
565.799	1219.25
566.567	1165.25
567.334	1092.25
568.101	1024.25
568.869	969.25
569.636	928.25
570.403	864.25
571.17	821.25
571.937	770.25
572.704	728.25
573.471	698.25
574.237	655.25
575.004	607.25
575.771	574.25
576.537	544.25
577.303	517.25
578.07	490.25
578.836	459.25
579.602	443.25
580.368	423.25
581.134	390.25
581.9	375.25
582.666	349.25
583.432	336.25
584.198	318.25
584.964	304.25
585.729	287.25
586.495	273.25
587.26	267.25
588.025	242.25
588.791	234.25
589.556	219.25
590.321	211.25
591.086	196.25
591.851	190.25
592.616	179.25
593.381	173.25
594.146	164.25
594.911	158.25
595.675	149.25
596.44	144.25
597.204	134.25
597.969	132.25
598.733	125.25
599.497	120.25
600.261	115.25
601.025	109.25
601.79	109.25
602.553	101.25
603.317	98.25
604.081	90.25
604.845	92.25
605.609	85.25
606.372	83.25
607.136	79.25
607.899	77.25
608.662	69.25
609.426	72.25
610.189	67.25
610.952	64.25
611.715	61.25
612.478	60.25
613.241	57.25
614.004	54.25
614.767	58.25
615.529	55.25
616.292	52.25
617.055	49.25
617.817	46.25
618.579	47.25
619.342	43.25
620.104	44.25
620.866	41.25
621.628	40.25
622.39	39.25
623.152	36.25
623.914	37.25
624.676	38.25
625.438	34.25
626.199	34.25
626.961	31.25
627.722	29.25
628.484	29.25
629.245	29.25
630.006	29.25
630.768	28.25
631.529	29.25
632.29	25.25
633.051	24.25
633.812	23.25
634.573	25.25
635.333	24.25
636.094	22.25
636.855	24.25
637.615	22.25
638.376	22.25
639.136	23.25
639.896	18.25
640.657	20.25
641.417	18.25
642.177	23.25
642.937	17.25
643.697	20.25
644.457	15.25
645.216	18.25
645.976	18.25
646.736	16.25
647.495	15.25
648.255	15.25
649.014	15.25
649.774	14.25
650.533	15.25
651.292	15.25
652.051	12.25
652.81	14.25
653.569	13.25
654.328	14.25
655.087	14.25
655.846	12.25
656.604	12.25
657.363	9.25
658.121	14.25
658.88	15.25
659.638	11.25
660.397	12.25
661.155	11.25
661.913	10.25
662.671	11.25
663.429	9.25
664.187	10.25
664.945	9.25
665.703	9.25
666.46	11.25
667.218	10.25
667.976	10.25
668.733	12.25
669.49	8.25
670.248	9.25
671.005	10.25
671.762	9.25
672.519	8.25
673.276	11.25
674.033	8.25
674.79	10.25
675.547	8.25
676.304	8.25
677.06	10.25
677.817	8.25
678.574	8.25
679.33	7.25
680.086	11.25
680.843	9.25
681.599	7.25
682.355	9.25
683.111	8.25
683.867	8.25
684.623	7.25
685.379	7.25
686.135	8.25
686.89	8.25
687.646	8.25
688.402	6.25
689.157	8.25
689.912	8.25
690.668	9.25
691.423	9.25
692.178	8.25
692.933	9.25
693.688	6.25
694.443	10.25
695.198	7.25
695.953	10.25
696.708	9.25
697.462	8.25
698.217	8.25
698.972	8.25
699.726	9.25
700.48	8.25
701.235	6.25
701.989	7.25
702.743	9.25
703.497	8.25
704.251	7.25
705.005	8.25
705.759	7.25
706.513	7.25
707.266	8.25
708.02	7.25
708.774	9.25
709.527	8.25
710.28	9.25
711.034	7.25
711.787	8.25
712.54	8.25
713.293	9.25
714.046	5.25
714.799	9.25
715.552	8.25
716.305	11.25
717.058	6.25
717.81	10.25
718.563	8.25
719.315	7.25
720.068	9.25
720.82	5.25
721.573	9.25
722.325	8.25
723.077	9.25
723.829	8.25
724.581	9.25
725.333	8.25
726.085	6.25
726.836	10.25
727.588	9.25
728.34	9.25
729.091	7.25
729.843	9.25
730.594	11.25
731.346	9.25
732.097	9.25
732.848	10.25
733.599	10.25
734.35	8.25
735.101	11.25
735.852	9.25
736.603	7.25
737.354	9.25
738.104	8.25
738.855	6.25
739.605	9.25
740.356	10.25
741.106	9.25
741.856	11.25
742.607	12.25
743.357	11.25
744.107	10.25
744.857	10.25
745.607	13.25
746.357	9.25
747.106	10.25
747.856	12.25
748.606	9.25
749.355	11.25
750.105	12.25
750.854	13.25
751.603	12.25
752.353	10.25
753.102	10.25
753.851	11.25
754.6	11.25
755.349	13.25
756.098	13.25
756.847	12.25
757.595	13.25
758.344	12.25
759.093	14.25
759.841	13.25
760.589	11.25
761.338	14.25
762.086	11.25
762.834	12.25
763.582	11.25
764.331	15.25
765.079	12.25
765.826	10.25
766.574	14.25
767.322	14.25
768.07	17.25
768.817	15.25
769.565	14.25
770.312	14.25
771.06	16.25
771.807	14.25
772.554	15.25
773.302	15.25
774.049	15.25
774.796	16.25
775.543	15.25
776.29	14.25
777.036	15.25
777.783	15.25
778.53	15.25
779.276	16.25
780.023	13.25
780.769	15.25
781.516	14.25
782.262	18.25
783.008	15.25
783.754	18.25
784.5	15.25
785.246	14.25
785.992	17.25
786.738	15.25
787.484	18.25
788.23	16.25
788.975	15.25
789.721	16.25
790.466	17.25
791.212	14.25
791.957	15.25
792.702	15.25
793.447	11.25
794.193	13.25
794.938	13.25
795.683	10.25
796.427	12.25
797.172	14.25
797.917	14.25
798.662	11.25
799.406	14.25
800.151	14.25
800.895	12.25
801.64	14.25
802.384	14.25
803.128	13.25
803.872	14.25
804.616	10.25
805.36	11.25
806.104	11.25
806.848	10.25
807.592	10.25
808.336	8.25
809.079	9.25
809.823	8.25
810.566	13.25
811.31	11.25
812.053	9.25
812.796	10.25
813.539	8.25
814.283	10.25
815.026	10.25
815.769	8.25
816.511	8.25
817.254	8.25
817.997	9.25
818.74	7.25
819.482	10.25
820.225	7.25
820.967	9.25
821.71	9.25
822.452	6.25
823.194	8.25
823.936	7.25
824.678	9.25
825.42	6.25
826.162	6.25
826.904	6.25
827.646	5.25
828.388	7.25
829.129	5.25
829.871	4.25
830.612	4.25
831.354	7.25
832.095	8.25
832.836	4.25
833.577	6.25
834.319	8.25
835.06	8.25
835.801	6.25
836.542	7.25
837.282	5.25
838.023	5.25
838.764	7.25
839.504	5.25
840.245	7.25
840.985	8.25
841.726	5.25
842.466	6.25
843.206	7.25
843.946	6.25
844.687	7.25
845.427	6.25
846.166	6.25
846.906	7.25
847.646	6.25
848.386	7.25
849.125	5.25
849.865	5.25
850.605	1.25
851.344	5.25
852.083	6.25
852.823	4.25
853.562	4.25
854.301	4.25
855.04	3.25
855.779	3.25
856.518	4.25
857.257	6.25
857.995	7.25
858.734	5.25
859.473	2.25
860.211	4.25
860.95	6.25
861.688	3.25
862.426	5.25
863.165	3.25
863.903	5.25
864.641	5.25
865.379	3.25
866.117	3.25
866.855	1.25
867.593	3.25
868.33	3.25
869.068	5.25
869.806	4.25
870.543	4.25
871.28	3.25
872.018	2.25
872.755	3.25
873.492	3.25
874.229	2.25
874.967	2.25
875.703	2.25
876.44	1.25
877.177	0.25
877.914	2.25
878.651	1.25
879.387	1.25
880.124	-0.75
880.86	0.25
881.597	1.25
882.333	1.25
883.069	1.25
883.806	2.25
884.542	0.25
885.278	1.25
886.014	1.25
886.749	3.25
887.485	-0.75
888.221	1.25
888.957	1.25
889.692	1.25
890.428	2.25
891.163	1.25
891.899	2.25
892.634	-0.75
893.369	1.25
894.104	1.25
894.839	0.25
895.574	2.25
896.309	1.25
897.044	2.25
897.779	2.25
898.514	2.25
899.248	-0.75
899.983	1.25
900.717	3.25
901.452	3.25
902.186	-0.75
902.92	1.25
903.654	-1.75
904.389	2.25
905.123	-0.75
905.857	0.25
906.59	1.25
907.324	2.25
908.058	2.25
908.792	1.25
909.525	1.25
910.259	2.25
910.992	2.25
911.726	2.25
912.459	0.25
913.192	0.25
913.925	1.25
914.658	0.25
915.391	3.25
916.124	1.25
916.857	2.25
917.59	1.25
918.323	1.25
919.055	1.25
919.788	1.25
920.521	1.25
921.253	0.25
921.985	1.25
922.718	-1.75
923.45	2.25
924.182	-1.75
924.914	3.25
925.646	1.25
926.378	1.25
927.11	2.25
927.841	0.25
928.573	1.25
929.305	0.25
930.036	0.25
930.768	1.25
931.499	-0.75
932.23	1.25
932.962	1.25
933.693	0.25
934.424	2.25
935.155	1.25
935.886	3.25
936.617	-0.75
937.348	0.25
938.078	1.25
938.809	0.25
939.54	1.25
940.27	1.25
941.001	2.25
941.731	2.25
942.461	1.25
943.191	3.25
943.922	1.25
944.652	2.25
945.382	-0.75
946.112	0.25
946.841	1.25
947.571	1.25
948.301	2.25
949.031	0.25
949.76	1.25
950.49	-0.75
951.219	0.25
951.948	0.25
952.678	0.25
953.407	1.25
954.136	-0.75
954.865	1.25
955.594	-0.75
956.323	1.25
957.052	3.25
957.78	-1.75
958.509	1.25
959.238	-1.75
959.966	1.25
960.695	0.25
961.423	1.25
962.151	0.25
962.88	-0.75
963.608	1.25
964.336	-1.75
965.064	0.25
965.792	0.25
966.52	-1.75
967.247	1.25
967.975	-0.75
968.703	2.25
969.43	0.25
970.158	0.25
970.885	0.25
971.613	-0.75
972.34	3.25
973.067	1.25
973.794	0.25
974.521	1.25
975.248	0.25
975.975	2.25
976.702	2.25
977.429	1.25
978.156	0.25
978.882	0.25
979.609	0.25
980.335	0.25
981.062	1.25
981.788	1.25
982.514	1.25
983.24	-0.75
983.967	-1.75
984.693	1.25
985.419	-0.75
986.144	3.25
986.87	-1.75
987.596	2.25
988.322	0.25
989.047	2.25
989.773	1.25
990.498	-0.75
991.224	2.25
991.949	2.25
992.674	0.25
993.399	3.25
994.124	-0.75
994.849	2.25
995.574	2.25
996.299	0.25
997.024	2.25
997.749	1.25
998.473	0.25
999.198	1.25
999.922	0.25
1000.647	0.25
1001.371	4.25
1002.095	-0.75
1002.82	-0.75
1003.544	-0.75
1004.268	4.25
1004.992	3.25
1005.716	5.25
1006.439	7.25
1007.163	5.25
1007.887	3.25
1008.611	0.25
1009.334	3.25
1010.058	2.25
1010.781	1.25
1011.504	1.25
1012.228	2.25
1012.951	-0.75
1013.674	-1.75
1014.397	0.25
1015.12	0.25
