节点500_705_QEPB04081__380__20-51-21-594.txt的数据

Date: Wed Nov 12 20:51:21 CST 2025
User: PC
Spectrometer: QEPB0408
触发模式: 0
积分时间 (秒): 1.000000E-2
Scans to average: 1
启用暗噪声校正: true
启用非线性校正: false
滑动平均宽度: 0
X轴模式: Wavelengths
Number of Pixels in Spectrum: 1044
>>>>>Begin Spectral Data<<<<<
220.843	4.25
221.644	5.25
222.444	8.25
223.244	6.25
224.045	6.25
224.845	6.25
225.645	7.25
226.445	5.25
227.245	7.25
228.045	7.25
228.845	7.25
229.645	7.25
230.444	10.25
231.244	9.25
232.043	7.25
232.843	10.25
233.642	10.25
234.442	8.25
235.241	9.25
236.04	10.25
236.839	10.25
237.638	10.25
238.437	11.25
239.236	11.25
240.035	12.25
240.833	15.25
241.632	11.25
242.43	11.25
243.229	10.25
244.027	12.25
244.826	12.25
245.624	12.25
246.422	12.25
247.22	15.25
248.018	14.25
248.816	15.25
249.614	16.25
250.412	13.25
251.21	15.25
252.007	17.25
252.805	17.25
253.602	19.25
254.4	17.25
255.197	19.25
255.994	21.25
256.791	18.25
257.589	22.25
258.386	18.25
259.183	21.25
259.979	22.25
260.776	23.25
261.573	25.25
262.37	21.25
263.166	25.25
263.963	24.25
264.759	26.25
265.556	29.25
266.352	24.25
267.148	29.25
267.944	28.25
268.74	31.25
269.536	29.25
270.332	33.25
271.128	29.25
271.924	30.25
272.719	27.25
273.515	31.25
274.311	33.25
275.106	31.25
275.901	35.25
276.697	35.25
277.492	30.25
278.287	36.25
279.082	36.25
279.877	33.25
280.672	33.25
281.467	34.25
282.262	35.25
283.056	33.25
283.851	32.25
284.646	36.25
285.44	36.25
286.234	33.25
287.029	33.25
287.823	34.25
288.617	33.25
289.411	30.25
290.205	35.25
290.999	32.25
291.793	34.25
292.587	31.25
293.381	30.25
294.174	32.25
294.968	32.25
295.761	29.25
296.555	26.25
297.348	25.25
298.141	28.25
298.935	28.25
299.728	25.25
300.521	27.25
301.314	23.25
302.107	25.25
302.899	20.25
303.692	21.25
304.485	22.25
305.277	26.25
306.07	21.25
306.862	23.25
307.655	21.25
308.447	20.25
309.239	20.25
310.031	20.25
310.823	18.25
311.615	17.25
312.407	18.25
313.199	15.25
313.991	16.25
314.783	15.25
315.574	16.25
316.366	18.25
317.157	16.25
317.949	15.25
318.74	16.25
319.531	14.25
320.322	16.25
321.113	15.25
321.904	14.25
322.695	14.25
323.486	14.25
324.277	16.25
325.068	13.25
325.858	15.25
326.649	11.25
327.439	13.25
328.23	12.25
329.02	13.25
329.81	11.25
330.6	13.25
331.391	15.25
332.181	12.25
332.971	9.25
333.76	14.25
334.55	14.25
335.34	12.25
336.13	9.25
336.919	13.25
337.709	11.25
338.498	12.25
339.287	12.25
340.077	11.25
340.866	12.25
341.655	13.25
342.444	11.25
343.233	11.25
344.022	11.25
344.811	11.25
345.6	13.25
346.388	13.25
347.177	12.25
347.965	13.25
348.754	12.25
349.542	11.25
350.33	10.25
351.119	10.25
351.907	12.25
352.695	13.25
353.483	10.25
354.271	15.25
355.059	9.25
355.846	11.25
356.634	11.25
357.422	12.25
358.209	8.25
358.997	9.25
359.784	9.25
360.571	9.25
361.359	10.25
362.146	11.25
362.933	14.25
363.72	9.25
364.507	8.25
365.294	11.25
366.081	10.25
366.867	10.25
367.654	11.25
368.44	11.25
369.227	11.25
370.013	8.25
370.8	13.25
371.586	10.25
372.372	9.25
373.158	9.25
373.944	8.25
374.73	11.25
375.516	8.25
376.302	11.25
377.088	11.25
377.873	10.25
378.659	8.25
379.445	11.25
380.23	12.25
381.015	8.25
381.801	10.25
382.586	11.25
383.371	8.25
384.156	12.25
384.941	11.25
385.726	14.25
386.511	11.25
387.296	12.25
388.08	11.25
388.865	10.25
389.649	13.25
390.434	12.25
391.218	10.25
392.003	13.25
392.787	10.25
393.571	14.25
394.355	12.25
395.139	12.25
395.923	13.25
396.707	14.25
397.491	12.25
398.274	14.25
399.058	15.25
399.842	15.25
400.625	11.25
401.408	14.25
402.192	14.25
402.975	17.25
403.758	15.25
404.541	13.25
405.324	15.25
406.107	17.25
406.89	14.25
407.673	13.25
408.456	18.25
409.238	16.25
410.021	16.25
410.803	18.25
411.586	16.25
412.368	19.25
413.151	16.25
413.933	20.25
414.715	19.25
415.497	19.25
416.279	20.25
417.061	18.25
417.843	21.25
418.624	23.25
419.406	19.25
420.188	20.25
420.969	22.25
421.751	21.25
422.532	23.25
423.313	24.25
424.095	21.25
424.876	24.25
425.657	24.25
426.438	23.25
427.219	26.25
428	25.25
428.78	28.25
429.561	28.25
430.342	28.25
431.122	32.25
431.903	33.25
432.683	34.25
433.464	38.25
434.244	36.25
435.024	38.25
435.804	44.25
436.584	47.25
437.364	47.25
438.144	50.25
438.924	49.25
439.704	56.25
440.483	57.25
441.263	61.25
442.042	66.25
442.822	71.25
443.601	79.25
444.38	81.25
445.16	92.25
445.939	98.25
446.718	107.25
447.497	115.25
448.276	127.25
449.054	137.25
449.833	148.25
450.612	163.25
451.391	180.25
452.169	200.25
452.948	218.25
453.726	238.25
454.504	271.25
455.282	308.25
456.061	338.25
456.839	371.25
457.617	411.25
458.395	466.25
459.172	518.25
459.95	576.25
460.728	648.25
461.506	710.25
462.283	808.25
463.061	880.25
463.838	990.25
464.615	1099.25
465.393	1225.25
466.17	1359.25
466.947	1507.25
467.724	1680.25
468.501	1862.25
469.278	2059.25
470.055	2269.25
470.831	2531.25
471.608	2787.25
472.385	3041.25
473.161	3320.25
473.938	3685.25
474.714	4064.25
475.49	4431.25
476.266	4870.25
477.043	5315.25
477.819	5794.25
478.595	6294.25
479.371	6897.25
480.146	7522.25
480.922	8218.25
481.698	8936.25
482.473	9703.25
483.249	10575.25
484.024	11457.25
484.8	12424.25
485.575	13422.25
486.35	14527.25
487.126	15772.25
487.901	17023.25
488.676	18354.25
489.451	19768.25
490.225	21206.25
491	22789.25
491.775	24348.25
492.55	26042.25
493.324	27714.25
494.099	29439.25
494.873	31204.25
495.647	32977.25
496.422	34689.25
497.196	36440.25
497.97	38125.25
498.744	39574.25
499.518	41179.25
500.292	42614.25
501.066	43610.25
501.839	44570.25
502.613	45383.25
503.387	46091.25
504.16	46459.25
504.934	46672.25
505.707	46692.25
506.48	46337.25
507.253	45936.25
508.027	45378.25
508.8	44441.25
509.573	43490.25
510.346	42530.25
511.118	41451.25
511.891	40260.25
512.664	38713.25
513.437	37416.25
514.209	36014.25
514.982	34691.25
515.754	33268.25
516.526	31876.25
517.298	30685.25
518.071	29479.25
518.843	28314.25
519.615	27149.25
520.387	26042.25
521.159	25040.25
521.93	24037.25
522.702	22981.25
523.474	22011.25
524.245	21113.25
525.017	20189.25
525.788	19351.25
526.56	18560.25
527.331	17740.25
528.102	16859.25
528.873	16001.25
529.644	15227.25
530.415	14539.25
531.186	13817.25
531.957	13119.25
532.728	12472.25
533.498	11826.25
534.269	11189.25
535.039	10653.25
535.81	10024.25
536.58	9503.25
537.351	8985.25
538.121	8519.25
538.891	8070.25
539.661	7617.25
540.431	7184.25
541.201	6819.25
541.971	6472.25
542.741	6117.25
543.51	5792.25
544.28	5563.25
545.05	5242.25
545.819	5042.25
546.588	4802.25
547.358	4545.25
548.127	4340.25
548.896	4128.25
549.665	3909.25
550.434	3715.25
551.203	3532.25
551.972	3343.25
552.741	3170.25
553.51	2972.25
554.278	2819.25
555.047	2659.25
555.815	2526.25
556.584	2391.25
557.352	2233.25
558.121	2122.25
558.889	1999.25
559.657	1900.25
560.425	1796.25
561.193	1700.25
561.961	1602.25
562.729	1527.25
563.496	1431.25
564.264	1350.25
565.032	1280.25
565.799	1223.25
566.567	1147.25
567.334	1090.25
568.101	1024.25
568.869	975.25
569.636	913.25
570.403	871.25
571.17	817.25
571.937	765.25
572.704	732.25
573.471	683.25
574.237	645.25
575.004	615.25
575.771	580.25
576.537	546.25
577.303	502.25
578.07	498.25
578.836	456.25
579.602	433.25
580.368	411.25
581.134	384.25
581.9	374.25
582.666	352.25
583.432	340.25
584.198	319.25
584.964	302.25
585.729	284.25
586.495	271.25
587.26	256.25
588.025	245.25
588.791	227.25
589.556	217.25
590.321	203.25
591.086	201.25
591.851	184.25
592.616	188.25
593.381	170.25
594.146	161.25
594.911	159.25
595.675	146.25
596.44	147.25
597.204	137.25
597.969	132.25
598.733	124.25
599.497	117.25
600.261	114.25
601.025	113.25
601.79	111.25
602.553	98.25
603.317	96.25
604.081	96.25
604.845	86.25
605.609	82.25
606.372	85.25
607.136	76.25
607.899	76.25
608.662	73.25
609.426	70.25
610.189	66.25
610.952	67.25
611.715	60.25
612.478	61.25
613.241	61.25
614.004	54.25
614.767	52.25
615.529	49.25
616.292	53.25
617.055	51.25
617.817	49.25
618.579	41.25
619.342	47.25
620.104	47.25
620.866	43.25
621.628	39.25
622.39	40.25
623.152	38.25
623.914	34.25
624.676	34.25
625.438	35.25
626.199	33.25
626.961	31.25
627.722	33.25
628.484	30.25
629.245	29.25
630.006	29.25
630.768	25.25
631.529	26.25
632.29	26.25
633.051	23.25
633.812	26.25
634.573	23.25
635.333	23.25
636.094	25.25
636.855	25.25
637.615	21.25
638.376	21.25
639.136	23.25
639.896	21.25
640.657	19.25
641.417	24.25
642.177	18.25
642.937	19.25
643.697	18.25
644.457	19.25
645.216	18.25
645.976	13.25
646.736	16.25
647.495	14.25
648.255	14.25
649.014	16.25
649.774	14.25
650.533	13.25
651.292	13.25
652.051	14.25
652.81	15.25
653.569	11.25
654.328	15.25
655.087	13.25
655.846	14.25
656.604	12.25
657.363	14.25
658.121	14.25
658.88	13.25
659.638	10.25
660.397	12.25
661.155	10.25
661.913	13.25
662.671	9.25
663.429	12.25
664.187	10.25
664.945	11.25
665.703	10.25
666.46	11.25
667.218	11.25
667.976	10.25
668.733	10.25
669.49	11.25
670.248	11.25
671.005	11.25
671.762	10.25
672.519	11.25
673.276	9.25
674.033	11.25
674.79	9.25
675.547	10.25
676.304	11.25
677.06	8.25
677.817	9.25
678.574	8.25
679.33	10.25
680.086	7.25
680.843	7.25
681.599	8.25
682.355	8.25
683.111	11.25
683.867	9.25
684.623	8.25
685.379	7.25
686.135	5.25
686.89	8.25
687.646	8.25
688.402	7.25
689.157	9.25
689.912	9.25
690.668	8.25
691.423	10.25
692.178	9.25
692.933	8.25
693.688	9.25
694.443	9.25
695.198	7.25
695.953	9.25
696.708	9.25
697.462	9.25
698.217	8.25
698.972	7.25
699.726	9.25
700.48	7.25
701.235	9.25
701.989	9.25
702.743	9.25
703.497	7.25
704.251	7.25
705.005	7.25
705.759	8.25
706.513	9.25
707.266	7.25
708.02	10.25
708.774	9.25
709.527	6.25
710.28	9.25
711.034	7.25
711.787	9.25
712.54	7.25
713.293	7.25
714.046	5.25
714.799	9.25
715.552	8.25
716.305	9.25
717.058	10.25
717.81	9.25
718.563	8.25
719.315	9.25
720.068	9.25
720.82	7.25
721.573	8.25
722.325	8.25
723.077	8.25
723.829	7.25
724.581	10.25
725.333	8.25
726.085	6.25
726.836	10.25
727.588	8.25
728.34	9.25
729.091	7.25
729.843	9.25
730.594	11.25
731.346	7.25
732.097	9.25
732.848	9.25
733.599	10.25
734.35	10.25
735.101	9.25
735.852	11.25
736.603	9.25
737.354	9.25
738.104	9.25
738.855	10.25
739.605	9.25
740.356	9.25
741.106	7.25
741.856	9.25
742.607	11.25
743.357	10.25
744.107	9.25
744.857	9.25
745.607	10.25
746.357	10.25
747.106	9.25
747.856	10.25
748.606	11.25
749.355	10.25
750.105	10.25
750.854	13.25
751.603	12.25
752.353	12.25
753.102	11.25
753.851	11.25
754.6	11.25
755.349	11.25
756.098	11.25
756.847	13.25
757.595	11.25
758.344	11.25
759.093	14.25
759.841	11.25
760.589	11.25
761.338	11.25
762.086	15.25
762.834	15.25
763.582	12.25
764.331	14.25
765.079	14.25
765.826	12.25
766.574	15.25
767.322	14.25
768.07	12.25
768.817	13.25
769.565	13.25
770.312	15.25
771.06	15.25
771.807	15.25
772.554	15.25
773.302	14.25
774.049	13.25
774.796	15.25
775.543	17.25
776.29	15.25
777.036	16.25
777.783	13.25
778.53	16.25
779.276	15.25
780.023	16.25
780.769	16.25
781.516	12.25
782.262	15.25
783.008	15.25
783.754	15.25
784.5	17.25
785.246	19.25
785.992	16.25
786.738	15.25
787.484	15.25
788.23	14.25
788.975	16.25
789.721	16.25
790.466	14.25
791.212	15.25
791.957	13.25
792.702	14.25
793.447	14.25
794.193	14.25
794.938	15.25
795.683	13.25
796.427	15.25
797.172	13.25
797.917	10.25
798.662	13.25
799.406	12.25
800.151	14.25
800.895	14.25
801.64	12.25
802.384	10.25
803.128	9.25
803.872	12.25
804.616	10.25
805.36	13.25
806.104	12.25
806.848	11.25
807.592	12.25
808.336	9.25
809.079	11.25
809.823	9.25
810.566	9.25
811.31	10.25
812.053	9.25
812.796	8.25
813.539	8.25
814.283	7.25
815.026	7.25
815.769	10.25
816.511	9.25
817.254	8.25
817.997	8.25
818.74	9.25
819.482	7.25
820.225	7.25
820.967	7.25
821.71	5.25
822.452	9.25
823.194	8.25
823.936	6.25
824.678	8.25
825.42	6.25
826.162	8.25
826.904	8.25
827.646	5.25
828.388	9.25
829.129	6.25
829.871	8.25
830.612	7.25
831.354	5.25
832.095	9.25
832.836	3.25
833.577	5.25
834.319	7.25
835.06	7.25
835.801	8.25
836.542	6.25
837.282	6.25
838.023	5.25
838.764	8.25
839.504	6.25
840.245	4.25
840.985	8.25
841.726	4.25
842.466	6.25
843.206	7.25
843.946	6.25
844.687	7.25
845.427	4.25
846.166	5.25
846.906	6.25
847.646	4.25
848.386	4.25
849.125	6.25
849.865	5.25
850.605	4.25
851.344	6.25
852.083	5.25
852.823	6.25
853.562	5.25
854.301	3.25
855.04	2.25
855.779	4.25
856.518	4.25
857.257	2.25
857.995	3.25
858.734	5.25
859.473	3.25
860.211	6.25
860.95	4.25
861.688	3.25
862.426	4.25
863.165	2.25
863.903	6.25
864.641	3.25
865.379	5.25
866.117	4.25
866.855	3.25
867.593	3.25
868.33	2.25
869.068	1.25
869.806	2.25
870.543	3.25
871.28	4.25
872.018	3.25
872.755	3.25
873.492	0.25
874.229	4.25
874.967	4.25
875.703	-0.75
876.44	4.25
877.177	3.25
877.914	5.25
878.651	2.25
879.387	2.25
880.124	2.25
880.86	2.25
881.597	3.25
882.333	2.25
883.069	3.25
883.806	-0.75
884.542	1.25
885.278	0.25
886.014	-0.75
886.749	2.25
887.485	1.25
888.221	1.25
888.957	2.25
889.692	2.25
890.428	3.25
891.163	2.25
891.899	4.25
892.634	1.25
893.369	2.25
894.104	2.25
894.839	3.25
895.574	-0.75
896.309	1.25
897.044	2.25
897.779	2.25
898.514	3.25
899.248	1.25
899.983	1.25
900.717	2.25
901.452	1.25
902.186	1.25
902.92	3.25
903.654	0.25
904.389	1.25
905.123	0.25
905.857	2.25
906.59	-0.75
907.324	2.25
908.058	-0.75
908.792	0.25
909.525	1.25
910.259	2.25
910.992	2.25
911.726	1.25
912.459	1.25
913.192	3.25
913.925	1.25
914.658	0.25
915.391	2.25
916.124	0.25
916.857	1.25
917.59	0.25
918.323	1.25
919.055	-0.75
919.788	2.25
920.521	2.25
921.253	2.25
921.985	2.25
922.718	1.25
923.45	2.25
924.182	1.25
924.914	2.25
925.646	2.25
926.378	3.25
927.11	2.25
927.841	-0.75
928.573	2.25
929.305	1.25
930.036	2.25
930.768	3.25
931.499	-1.75
932.23	0.25
932.962	1.25
933.693	2.25
934.424	0.25
935.155	-0.75
935.886	2.25
936.617	3.25
937.348	1.25
938.078	-1.75
938.809	0.25
939.54	2.25
940.27	0.25
941.001	-1.75
941.731	-0.75
942.461	0.25
943.191	-0.75
943.922	-0.75
944.652	1.25
945.382	0.25
946.112	1.25
946.841	-0.75
947.571	1.25
948.301	-2.75
949.031	-0.75
949.76	2.25
950.49	-0.75
951.219	-0.75
951.948	2.25
952.678	2.25
953.407	2.25
954.136	0.25
954.865	-0.75
955.594	0.25
956.323	0.25
957.052	-1.75
957.78	1.25
958.509	0.25
959.238	0.25
959.966	0.25
960.695	1.25
961.423	1.25
962.151	-0.75
962.88	0.25
963.608	3.25
964.336	1.25
965.064	2.25
965.792	1.25
966.52	1.25
967.247	1.25
967.975	2.25
968.703	0.25
969.43	0.25
970.158	0.25
970.885	1.25
971.613	-0.75
972.34	1.25
973.067	-0.75
973.794	0.25
974.521	1.25
975.248	3.25
975.975	0.25
976.702	1.25
977.429	3.25
978.156	2.25
978.882	2.25
979.609	-0.75
980.335	1.25
981.062	0.25
981.788	0.25
982.514	-0.75
983.24	1.25
983.967	0.25
984.693	1.25
985.419	2.25
986.144	0.25
986.87	1.25
987.596	2.25
988.322	-0.75
989.047	0.25
989.773	2.25
990.498	1.25
991.224	0.25
991.949	1.25
992.674	0.25
993.399	1.25
994.124	0.25
994.849	-1.75
995.574	-1.75
996.299	0.25
997.024	0.25
997.749	-0.75
998.473	2.25
999.198	0.25
999.922	3.25
1000.647	1.25
1001.371	2.25
1002.095	0.25
1002.82	-1.75
1003.544	0.25
1004.268	2.25
1004.992	3.25
1005.716	7.25
1006.439	2.25
1007.163	6.25
1007.887	5.25
1008.611	1.25
1009.334	1.25
1010.058	-0.75
1010.781	0.25
1011.504	0.25
1012.228	0.25
1012.951	0.25
1013.674	-0.75
1014.397	-0.75
1015.12	0.25
