节点500_705_QEPB04081__413__20-51-47-675.txt的数据

Date: Wed Nov 12 20:51:47 CST 2025
User: PC
Spectrometer: QEPB0408
触发模式: 0
积分时间 (秒): 1.000000E-2
Scans to average: 1
启用暗噪声校正: true
启用非线性校正: false
滑动平均宽度: 0
X轴模式: Wavelengths
Number of Pixels in Spectrum: 1044
>>>>>Begin Spectral Data<<<<<
220.843	6.88
221.644	3.88
222.444	2.88
223.244	4.88
224.045	4.88
224.845	4.88
225.645	6.88
226.445	6.88
227.245	6.88
228.045	7.88
228.845	8.88
229.645	5.88
230.444	6.88
231.244	7.88
232.043	11.88
232.843	6.88
233.642	11.88
234.442	6.88
235.241	9.88
236.04	7.88
236.839	11.88
237.638	12.88
238.437	11.88
239.236	8.88
240.035	10.88
240.833	10.88
241.632	8.88
242.43	10.88
243.229	13.88
244.027	12.88
244.826	12.88
245.624	12.88
246.422	12.88
247.22	14.88
248.018	11.88
248.816	15.88
249.614	15.88
250.412	10.88
251.21	13.88
252.007	17.88
252.805	17.88
253.602	17.88
254.4	18.88
255.197	18.88
255.994	19.88
256.791	17.88
257.589	20.88
258.386	20.88
259.183	22.88
259.979	23.88
260.776	23.88
261.573	20.88
262.37	23.88
263.166	22.88
263.963	21.88
264.759	25.88
265.556	28.88
266.352	27.88
267.148	27.88
267.944	25.88
268.74	27.88
269.536	28.88
270.332	28.88
271.128	30.88
271.924	30.88
272.719	28.88
273.515	30.88
274.311	32.88
275.106	33.88
275.901	31.88
276.697	31.88
277.492	34.88
278.287	30.88
279.082	31.88
279.877	33.88
280.672	32.88
281.467	35.88
282.262	32.88
283.056	34.88
283.851	32.88
284.646	32.88
285.44	33.88
286.234	32.88
287.029	31.88
287.823	32.88
288.617	34.88
289.411	33.88
290.205	30.88
290.999	30.88
291.793	32.88
292.587	32.88
293.381	30.88
294.174	31.88
294.968	28.88
295.761	27.88
296.555	25.88
297.348	24.88
298.141	24.88
298.935	28.88
299.728	23.88
300.521	29.88
301.314	25.88
302.107	26.88
302.899	21.88
303.692	23.88
304.485	23.88
305.277	24.88
306.07	20.88
306.862	20.88
307.655	23.88
308.447	20.88
309.239	20.88
310.031	18.88
310.823	17.88
311.615	19.88
312.407	17.88
313.199	16.88
313.991	16.88
314.783	15.88
315.574	16.88
316.366	15.88
317.157	16.88
317.949	14.88
318.74	13.88
319.531	15.88
320.322	15.88
321.113	18.88
321.904	14.88
322.695	15.88
323.486	14.88
324.277	13.88
325.068	13.88
325.858	12.88
326.649	11.88
327.439	11.88
328.23	11.88
329.02	14.88
329.81	10.88
330.6	13.88
331.391	12.88
332.181	11.88
332.971	12.88
333.76	11.88
334.55	11.88
335.34	11.88
336.13	9.88
336.919	11.88
337.709	12.88
338.498	10.88
339.287	9.88
340.077	12.88
340.866	10.88
341.655	7.88
342.444	10.88
343.233	11.88
344.022	12.88
344.811	10.88
345.6	10.88
346.388	10.88
347.177	9.88
347.965	11.88
348.754	10.88
349.542	10.88
350.33	10.88
351.119	10.88
351.907	8.88
352.695	9.88
353.483	11.88
354.271	9.88
355.059	11.88
355.846	10.88
356.634	8.88
357.422	9.88
358.209	7.88
358.997	10.88
359.784	9.88
360.571	9.88
361.359	8.88
362.146	11.88
362.933	8.88
363.72	8.88
364.507	10.88
365.294	9.88
366.081	9.88
366.867	11.88
367.654	8.88
368.44	10.88
369.227	10.88
370.013	11.88
370.8	9.88
371.586	9.88
372.372	9.88
373.158	8.88
373.944	9.88
374.73	9.88
375.516	7.88
376.302	9.88
377.088	9.88
377.873	10.88
378.659	8.88
379.445	10.88
380.23	5.88
381.015	9.88
381.801	12.88
382.586	8.88
383.371	10.88
384.156	8.88
384.941	11.88
385.726	9.88
386.511	9.88
387.296	11.88
388.08	9.88
388.865	13.88
389.649	11.88
390.434	11.88
391.218	9.88
392.003	9.88
392.787	11.88
393.571	14.88
394.355	11.88
395.139	10.88
395.923	12.88
396.707	11.88
397.491	12.88
398.274	14.88
399.058	12.88
399.842	11.88
400.625	11.88
401.408	12.88
402.192	14.88
402.975	13.88
403.758	12.88
404.541	14.88
405.324	14.88
406.107	16.88
406.89	11.88
407.673	16.88
408.456	16.88
409.238	15.88
410.021	16.88
410.803	13.88
411.586	18.88
412.368	14.88
413.151	15.88
413.933	18.88
414.715	17.88
415.497	18.88
416.279	18.88
417.061	18.88
417.843	17.88
418.624	17.88
419.406	18.88
420.188	19.88
420.969	19.88
421.751	22.88
422.532	23.88
423.313	24.88
424.095	24.88
424.876	26.88
425.657	23.88
426.438	23.88
427.219	25.88
428	25.88
428.78	24.88
429.561	28.88
430.342	30.88
431.122	30.88
431.903	29.88
432.683	29.88
433.464	31.88
434.244	36.88
435.024	39.88
435.804	39.88
436.584	42.88
437.364	42.88
438.144	48.88
438.924	47.88
439.704	53.88
440.483	58.88
441.263	58.88
442.042	68.88
442.822	70.88
443.601	74.88
444.38	80.88
445.16	86.88
445.939	101.88
446.718	103.88
447.497	116.88
448.276	126.88
449.054	136.88
449.833	151.88
450.612	163.88
451.391	175.88
452.169	194.88
452.948	218.88
453.726	245.88
454.504	272.88
455.282	307.88
456.061	334.88
456.839	374.88
457.617	425.88
458.395	473.88
459.172	517.88
459.95	583.88
460.728	647.88
461.506	717.88
462.283	792.88
463.061	896.88
463.838	993.88
464.615	1126.88
465.393	1220.88
466.17	1367.88
466.947	1527.88
467.724	1682.88
468.501	1862.88
469.278	2064.88
470.055	2292.88
470.831	2510.88
471.608	2763.88
472.385	3026.88
473.161	3349.88
473.938	3679.88
474.714	4013.88
475.49	4403.88
476.266	4834.88
477.043	5270.88
477.819	5762.88
478.595	6274.88
479.371	6865.88
480.146	7447.88
480.922	8153.88
481.698	8826.88
482.473	9622.88
483.249	10449.88
484.024	11283.88
484.8	12248.88
485.575	13308.88
486.35	14387.88
487.126	15479.88
487.901	16752.88
488.676	18068.88
489.451	19442.88
490.225	20896.88
491	22434.88
491.775	23895.88
492.55	25609.88
493.324	27325.88
494.099	29019.88
494.873	30723.88
495.647	32441.88
496.422	34174.88
497.196	35916.88
497.97	37509.88
498.744	38941.88
499.518	40554.88
500.292	41962.88
501.066	42927.88
501.839	43887.88
502.613	44853.88
503.387	45517.88
504.16	45902.88
504.934	46179.88
505.707	46180.88
506.48	45968.88
507.253	45538.88
508.027	44996.88
508.8	44169.88
509.573	43302.88
510.346	42216.88
511.118	41370.88
511.891	40153.88
512.664	38756.88
513.437	37329.88
514.209	35989.88
514.982	34598.88
515.754	33214.88
516.526	31984.88
517.298	30621.88
518.071	29431.88
518.843	28343.88
519.615	27129.88
520.387	26026.88
521.159	25137.88
521.93	23924.88
522.702	23056.88
523.474	22000.88
524.245	21142.88
525.017	20249.88
525.788	19364.88
526.56	18592.88
527.331	17760.88
528.102	16875.88
528.873	15996.88
529.644	15295.88
530.415	14579.88
531.186	13881.88
531.957	13163.88
532.728	12517.88
533.498	11864.88
534.269	11236.88
535.039	10601.88
535.81	10072.88
536.58	9493.88
537.351	8997.88
538.121	8534.88
538.891	8100.88
539.661	7645.88
540.431	7243.88
541.201	6877.88
541.971	6544.88
542.741	6154.88
543.51	5823.88
544.28	5567.88
545.05	5282.88
545.819	5052.88
546.588	4829.88
547.358	4576.88
548.127	4362.88
548.896	4167.88
549.665	3927.88
550.434	3724.88
551.203	3552.88
551.972	3352.88
552.741	3175.88
553.51	2986.88
554.278	2823.88
555.047	2669.88
555.815	2552.88
556.584	2409.88
557.352	2238.88
558.121	2121.88
558.889	2023.88
559.657	1916.88
560.425	1816.88
561.193	1725.88
561.961	1610.88
562.729	1518.88
563.496	1450.88
564.264	1373.88
565.032	1304.88
565.799	1215.88
566.567	1152.88
567.334	1102.88
568.101	1032.88
568.869	972.88
569.636	927.88
570.403	866.88
571.17	815.88
571.937	780.88
572.704	731.88
573.471	684.88
574.237	658.88
575.004	609.88
575.771	574.88
576.537	541.88
577.303	510.88
578.07	488.88
578.836	465.88
579.602	432.88
580.368	423.88
581.134	390.88
581.9	372.88
582.666	349.88
583.432	336.88
584.198	319.88
584.964	304.88
585.729	296.88
586.495	276.88
587.26	261.88
588.025	248.88
588.791	230.88
589.556	217.88
590.321	209.88
591.086	199.88
591.851	188.88
592.616	180.88
593.381	171.88
594.146	161.88
594.911	154.88
595.675	157.88
596.44	140.88
597.204	139.88
597.969	127.88
598.733	123.88
599.497	118.88
600.261	117.88
601.025	108.88
601.79	105.88
602.553	108.88
603.317	95.88
604.081	95.88
604.845	85.88
605.609	83.88
606.372	84.88
607.136	77.88
607.899	79.88
608.662	73.88
609.426	64.88
610.189	67.88
610.952	66.88
611.715	63.88
612.478	58.88
613.241	56.88
614.004	52.88
614.767	50.88
615.529	50.88
616.292	48.88
617.055	47.88
617.817	46.88
618.579	43.88
619.342	40.88
620.104	40.88
620.866	41.88
621.628	38.88
622.39	35.88
623.152	37.88
623.914	36.88
624.676	33.88
625.438	33.88
626.199	35.88
626.961	30.88
627.722	32.88
628.484	28.88
629.245	29.88
630.006	28.88
630.768	30.88
631.529	26.88
632.29	26.88
633.051	23.88
633.812	27.88
634.573	26.88
635.333	28.88
636.094	24.88
636.855	25.88
637.615	23.88
638.376	21.88
639.136	19.88
639.896	21.88
640.657	21.88
641.417	16.88
642.177	16.88
642.937	18.88
643.697	17.88
644.457	15.88
645.216	18.88
645.976	16.88
646.736	14.88
647.495	15.88
648.255	17.88
649.014	16.88
649.774	15.88
650.533	12.88
651.292	13.88
652.051	12.88
652.81	14.88
653.569	12.88
654.328	12.88
655.087	14.88
655.846	12.88
656.604	11.88
657.363	11.88
658.121	10.88
658.88	10.88
659.638	12.88
660.397	9.88
661.155	10.88
661.913	10.88
662.671	9.88
663.429	8.88
664.187	11.88
664.945	10.88
665.703	7.88
666.46	9.88
667.218	9.88
667.976	10.88
668.733	8.88
669.49	10.88
670.248	8.88
671.005	8.88
671.762	8.88
672.519	7.88
673.276	8.88
674.033	10.88
674.79	8.88
675.547	7.88
676.304	8.88
677.06	8.88
677.817	7.88
678.574	8.88
679.33	7.88
680.086	5.88
680.843	8.88
681.599	7.88
682.355	8.88
683.111	8.88
683.867	9.88
684.623	10.88
685.379	6.88
686.135	7.88
686.89	9.88
687.646	7.88
688.402	5.88
689.157	8.88
689.912	7.88
690.668	6.88
691.423	4.88
692.178	7.88
692.933	9.88
693.688	9.88
694.443	10.88
695.198	9.88
695.953	8.88
696.708	7.88
697.462	7.88
698.217	7.88
698.972	7.88
699.726	5.88
700.48	8.88
701.235	5.88
701.989	6.88
702.743	12.88
703.497	5.88
704.251	9.88
705.005	5.88
705.759	7.88
706.513	7.88
707.266	8.88
708.02	5.88
708.774	6.88
709.527	7.88
710.28	6.88
711.034	6.88
711.787	6.88
712.54	7.88
713.293	7.88
714.046	7.88
714.799	9.88
715.552	6.88
716.305	11.88
717.058	7.88
717.81	4.88
718.563	8.88
719.315	8.88
720.068	9.88
720.82	7.88
721.573	6.88
722.325	7.88
723.077	6.88
723.829	6.88
724.581	9.88
725.333	9.88
726.085	6.88
726.836	8.88
727.588	10.88
728.34	6.88
729.091	9.88
729.843	9.88
730.594	7.88
731.346	8.88
732.097	8.88
732.848	10.88
733.599	7.88
734.35	9.88
735.101	8.88
735.852	7.88
736.603	9.88
737.354	9.88
738.104	9.88
738.855	8.88
739.605	8.88
740.356	12.88
741.106	10.88
741.856	8.88
742.607	10.88
743.357	12.88
744.107	8.88
744.857	9.88
745.607	9.88
746.357	8.88
747.106	11.88
747.856	10.88
748.606	10.88
749.355	7.88
750.105	11.88
750.854	10.88
751.603	12.88
752.353	9.88
753.102	9.88
753.851	10.88
754.6	11.88
755.349	10.88
756.098	10.88
756.847	10.88
757.595	13.88
758.344	11.88
759.093	12.88
759.841	13.88
760.589	12.88
761.338	11.88
762.086	10.88
762.834	9.88
763.582	13.88
764.331	12.88
765.079	11.88
765.826	12.88
766.574	14.88
767.322	13.88
768.07	15.88
768.817	13.88
769.565	15.88
770.312	16.88
771.06	9.88
771.807	14.88
772.554	16.88
773.302	14.88
774.049	14.88
774.796	14.88
775.543	14.88
776.29	17.88
777.036	12.88
777.783	14.88
778.53	13.88
779.276	14.88
780.023	15.88
780.769	13.88
781.516	16.88
782.262	14.88
783.008	17.88
783.754	15.88
784.5	16.88
785.246	13.88
785.992	14.88
786.738	15.88
787.484	12.88
788.23	13.88
788.975	14.88
789.721	12.88
790.466	14.88
791.212	12.88
791.957	14.88
792.702	15.88
793.447	14.88
794.193	13.88
794.938	12.88
795.683	11.88
796.427	13.88
797.172	17.88
797.917	12.88
798.662	14.88
799.406	12.88
800.151	12.88
800.895	14.88
801.64	12.88
802.384	9.88
803.128	9.88
803.872	10.88
804.616	10.88
805.36	11.88
806.104	10.88
806.848	7.88
807.592	10.88
808.336	8.88
809.079	8.88
809.823	9.88
810.566	7.88
811.31	11.88
812.053	12.88
812.796	9.88
813.539	9.88
814.283	7.88
815.026	9.88
815.769	5.88
816.511	6.88
817.254	7.88
817.997	8.88
818.74	7.88
819.482	5.88
820.225	6.88
820.967	6.88
821.71	6.88
822.452	7.88
823.194	6.88
823.936	9.88
824.678	8.88
825.42	6.88
826.162	5.88
826.904	6.88
827.646	6.88
828.388	5.88
829.129	7.88
829.871	8.88
830.612	6.88
831.354	5.88
832.095	6.88
832.836	7.88
833.577	3.88
834.319	6.88
835.06	5.88
835.801	5.88
836.542	4.88
837.282	5.88
838.023	5.88
838.764	4.88
839.504	6.88
840.245	2.88
840.985	5.88
841.726	5.88
842.466	4.88
843.206	5.88
843.946	5.88
844.687	6.88
845.427	4.88
846.166	7.88
846.906	5.88
847.646	4.88
848.386	5.88
849.125	6.88
849.865	2.88
850.605	7.88
851.344	4.88
852.083	4.88
852.823	3.88
853.562	4.88
854.301	3.88
855.04	1.88
855.779	2.88
856.518	2.88
857.257	2.88
857.995	3.88
858.734	2.88
859.473	4.88
860.211	4.88
860.95	4.88
861.688	3.88
862.426	4.88
863.165	3.88
863.903	0.88
864.641	4.88
865.379	3.88
866.117	4.88
866.855	4.88
867.593	0.88
868.33	2.88
869.068	0.88
869.806	2.88
870.543	1.88
871.28	2.88
872.018	2.88
872.755	2.88
873.492	2.88
874.229	1.88
874.967	2.88
875.703	2.88
876.44	0.88
877.177	1.88
877.914	0.88
878.651	1.88
879.387	1.88
880.124	1.88
880.86	1.88
881.597	-0.12
882.333	0.88
883.069	-0.12
883.806	0.88
884.542	0.88
885.278	0.88
886.014	2.88
886.749	1.88
887.485	0.88
888.221	1.88
888.957	1.88
889.692	1.88
890.428	1.88
891.163	0.88
891.899	0.88
892.634	2.88
893.369	0.88
894.104	1.88
894.839	2.88
895.574	-0.12
896.309	0.88
897.044	1.88
897.779	1.88
898.514	-1.12
899.248	1.88
899.983	-0.12
900.717	-0.12
901.452	1.88
902.186	2.88
902.92	-0.12
903.654	1.88
904.389	-1.12
905.123	0.88
905.857	1.88
906.59	1.88
907.324	0.88
908.058	0.88
908.792	0.88
909.525	2.88
910.259	1.88
910.992	0.88
911.726	0.88
912.459	1.88
913.192	1.88
913.925	0.88
914.658	-1.12
915.391	0.88
916.124	-0.12
916.857	0.88
917.59	0.88
918.323	2.88
919.055	1.88
919.788	-0.12
920.521	-1.12
921.253	-1.12
921.985	1.88
922.718	2.88
923.45	-0.12
924.182	0.88
924.914	1.88
925.646	0.88
926.378	0.88
927.11	0.88
927.841	2.88
928.573	-0.12
929.305	1.88
930.036	0.88
930.768	-1.12
931.499	0.88
932.23	-1.12
932.962	0.88
933.693	0.88
934.424	0.88
935.155	0.88
935.886	1.88
936.617	0.88
937.348	0.88
938.078	0.88
938.809	2.88
939.54	0.88
940.27	0.88
941.001	0.88
941.731	1.88
942.461	-0.12
943.191	-0.12
943.922	-2.12
944.652	1.88
945.382	0.88
946.112	0.88
946.841	-0.12
947.571	-1.12
948.301	-1.12
949.031	0.88
949.76	-0.12
950.49	-0.12
951.219	-0.12
951.948	1.88
952.678	-0.12
953.407	2.88
954.136	2.88
954.865	1.88
955.594	1.88
956.323	0.88
957.052	1.88
957.78	-0.12
958.509	-1.12
959.238	-0.12
959.966	0.88
960.695	3.88
961.423	-0.12
962.151	2.88
962.88	-0.12
963.608	-1.12
964.336	1.88
965.064	0.88
965.792	-0.12
966.52	0.88
967.247	-0.12
967.975	-0.12
968.703	0.88
969.43	1.88
970.158	-2.12
970.885	1.88
971.613	-0.12
972.34	-1.12
973.067	2.88
973.794	2.88
974.521	0.88
975.248	-1.12
975.975	-1.12
976.702	0.88
977.429	-2.12
978.156	-0.12
978.882	-1.12
979.609	-0.12
980.335	-1.12
981.062	-0.12
981.788	-1.12
982.514	-1.12
983.24	-3.12
983.967	2.88
984.693	0.88
985.419	0.88
986.144	-0.12
986.87	-0.12
987.596	-0.12
988.322	-0.12
989.047	-1.12
989.773	-1.12
990.498	-1.12
991.224	-2.12
991.949	0.88
992.674	-0.12
993.399	-0.12
994.124	-1.12
994.849	-1.12
995.574	1.88
996.299	-1.12
997.024	0.88
997.749	-1.12
998.473	0.88
999.198	0.88
999.922	0.88
1000.647	0.88
1001.371	1.88
1002.095	-1.12
1002.82	-1.12
1003.544	-0.12
1004.268	3.88
1004.992	2.88
1005.716	2.88
1006.439	3.88
1007.163	5.88
1007.887	5.88
1008.611	0.88
1009.334	-1.12
1010.058	-1.12
1010.781	-0.12
1011.504	-0.12
1012.228	-0.12
1012.951	0.88
1013.674	-2.12
1014.397	0.88
1015.12	0.88
