节点500_705_QEPB04081__537__20-53-33-735.txt的数据

Date: Wed Nov 12 20:53:33 CST 2025
User: PC
Spectrometer: QEPB0408
触发模式: 0
积分时间 (秒): 1.000000E-2
Scans to average: 1
启用暗噪声校正: true
启用非线性校正: false
滑动平均宽度: 0
X轴模式: Wavelengths
Number of Pixels in Spectrum: 1044
>>>>>Begin Spectral Data<<<<<
220.843	5
221.644	5
222.444	6
223.244	7
224.045	6
224.845	6
225.645	6
226.445	5
227.245	7
228.045	10
228.845	5
229.645	9
230.444	7
231.244	5
232.043	11
232.843	8
233.642	8
234.442	11
235.241	9
236.04	12
236.839	13
237.638	8
238.437	10
239.236	10
240.035	12
240.833	9
241.632	11
242.43	12
243.229	14
244.027	15
244.826	13
245.624	13
246.422	14
247.22	11
248.018	15
248.816	15
249.614	13
250.412	14
251.21	15
252.007	15
252.805	15
253.602	15
254.4	16
255.197	19
255.994	19
256.791	19
257.589	17
258.386	21
259.183	17
259.979	21
260.776	20
261.573	21
262.37	22
263.166	23
263.963	24
264.759	21
265.556	25
266.352	23
267.148	25
267.944	27
268.74	27
269.536	27
270.332	26
271.128	29
271.924	32
272.719	30
273.515	29
274.311	30
275.106	31
275.901	27
276.697	30
277.492	31
278.287	33
279.082	32
279.877	29
280.672	31
281.467	30
282.262	32
283.056	32
283.851	33
284.646	34
285.44	28
286.234	36
287.029	31
287.823	31
288.617	31
289.411	30
290.205	32
290.999	28
291.793	29
292.587	27
293.381	29
294.174	31
294.968	27
295.761	27
296.555	24
297.348	28
298.141	28
298.935	23
299.728	26
300.521	23
301.314	25
302.107	23
302.899	22
303.692	20
304.485	22
305.277	21
306.07	22
306.862	21
307.655	24
308.447	20
309.239	23
310.031	17
310.823	19
311.615	18
312.407	19
313.199	19
313.991	17
314.783	17
315.574	15
316.366	17
317.157	16
317.949	12
318.74	14
319.531	15
320.322	13
321.113	14
321.904	15
322.695	16
323.486	15
324.277	14
325.068	10
325.858	11
326.649	16
327.439	13
328.23	12
329.02	11
329.81	12
330.6	9
331.391	11
332.181	12
332.971	10
333.76	14
334.55	13
335.34	13
336.13	13
336.919	12
337.709	12
338.498	15
339.287	11
340.077	10
340.866	16
341.655	13
342.444	12
343.233	11
344.022	11
344.811	12
345.6	10
346.388	11
347.177	13
347.965	10
348.754	10
349.542	9
350.33	8
351.119	9
351.907	10
352.695	11
353.483	10
354.271	11
355.059	13
355.846	11
356.634	11
357.422	10
358.209	11
358.997	10
359.784	13
360.571	11
361.359	9
362.146	11
362.933	9
363.72	8
364.507	10
365.294	8
366.081	8
366.867	8
367.654	9
368.44	10
369.227	9
370.013	9
370.8	11
371.586	11
372.372	10
373.158	10
373.944	9
374.73	8
375.516	11
376.302	9
377.088	11
377.873	9
378.659	10
379.445	9
380.23	10
381.015	9
381.801	10
382.586	11
383.371	9
384.156	10
384.941	6
385.726	10
386.511	11
387.296	10
388.08	11
388.865	14
389.649	11
390.434	14
391.218	10
392.003	11
392.787	9
393.571	14
394.355	12
395.139	12
395.923	15
396.707	12
397.491	13
398.274	15
399.058	12
399.842	16
400.625	12
401.408	12
402.192	14
402.975	13
403.758	13
404.541	13
405.324	17
406.107	13
406.89	17
407.673	16
408.456	16
409.238	16
410.021	16
410.803	16
411.586	18
412.368	19
413.151	17
413.933	17
414.715	20
415.497	17
416.279	20
417.061	19
417.843	18
418.624	20
419.406	18
420.188	18
420.969	18
421.751	23
422.532	20
423.313	20
424.095	20
424.876	24
425.657	23
426.438	25
427.219	28
428	28
428.78	27
429.561	25
430.342	28
431.122	31
431.903	32
432.683	33
433.464	36
434.244	35
435.024	39
435.804	40
436.584	40
437.364	46
438.144	46
438.924	48
439.704	52
440.483	60
441.263	59
442.042	66
442.822	71
443.601	83
444.38	85
445.16	88
445.939	103
446.718	113
447.497	113
448.276	128
449.054	143
449.833	157
450.612	171
451.391	185
452.169	212
452.948	231
453.726	256
454.504	280
455.282	316
456.061	352
456.839	380
457.617	433
458.395	485
459.172	533
459.95	594
460.728	668
461.506	730
462.283	825
463.061	908
463.838	1015
464.615	1108
465.393	1257
466.17	1378
466.947	1533
467.724	1692
468.501	1863
469.278	2058
470.055	2271
470.831	2512
471.608	2755
472.385	3019
473.161	3324
473.938	3609
474.714	3964
475.49	4373
476.266	4728
477.043	5159
477.819	5615
478.595	6102
479.371	6666
480.146	7196
480.922	7833
481.698	8523
482.473	9225
483.249	10017
484.024	10834
484.8	11735
485.575	12608
486.35	13634
487.126	14713
487.901	15847
488.676	17009
489.451	18360
490.225	19659
491	21051
491.775	22450
492.55	24004
493.324	25566
494.099	27114
494.873	28640
495.647	30339
496.422	31948
497.196	33566
497.97	35176
498.744	36605
499.518	38174
500.292	39528
501.066	40639
501.839	41568
502.613	42389
503.387	43247
504.16	43900
504.934	44182
505.707	44395
506.48	44193
507.253	43943
508.027	43615
508.8	43088
509.573	42151
510.346	41512
511.118	40654
511.891	39577
512.664	38254
513.437	37004
514.209	35779
514.982	34531
515.754	33189
516.526	31943
517.298	30666
518.071	29599
518.843	28380
519.615	27225
520.387	26156
521.159	25128
521.93	24143
522.702	23133
523.474	22175
524.245	21214
525.017	20393
525.788	19568
526.56	18760
527.331	17961
528.102	17131
528.873	16261
529.644	15466
530.415	14813
531.186	14094
531.957	13401
532.728	12774
533.498	12150
534.269	11507
535.039	10870
535.81	10334
536.58	9765
537.351	9217
538.121	8756
538.891	8310
539.661	7843
540.431	7445
541.201	7037
541.971	6686
542.741	6329
543.51	6023
544.28	5728
545.05	5448
545.819	5175
546.588	4938
547.358	4756
548.127	4490
548.896	4251
549.665	4050
550.434	3827
551.203	3642
551.972	3454
552.741	3288
553.51	3093
554.278	2902
555.047	2755
555.815	2620
556.584	2477
557.352	2339
558.121	2212
558.889	2093
559.657	1988
560.425	1868
561.193	1783
561.961	1690
562.729	1596
563.496	1504
564.264	1420
565.032	1342
565.799	1263
566.567	1204
567.334	1134
568.101	1084
568.869	1009
569.636	966
570.403	905
571.17	859
571.937	806
572.704	767
573.471	722
574.237	682
575.004	631
575.771	608
576.537	569
577.303	536
578.07	517
578.836	486
579.602	448
580.368	429
581.134	417
581.9	392
582.666	366
583.432	348
584.198	328
584.964	319
585.729	309
586.495	282
587.26	270
588.025	253
588.791	238
589.556	227
590.321	222
591.086	205
591.851	197
592.616	188
593.381	178
594.146	175
594.911	160
595.675	158
596.44	148
597.204	144
597.969	137
598.733	126
599.497	125
600.261	117
601.025	115
601.79	108
602.553	105
603.317	104
604.081	94
604.845	93
605.609	90
606.372	85
607.136	79
607.899	77
608.662	75
609.426	72
610.189	72
610.952	70
611.715	65
612.478	64
613.241	60
614.004	56
614.767	56
615.529	55
616.292	51
617.055	48
617.817	48
618.579	44
619.342	46
620.104	45
620.866	45
621.628	42
622.39	40
623.152	38
623.914	38
624.676	37
625.438	36
626.199	35
626.961	32
627.722	32
628.484	32
629.245	30
630.006	28
630.768	26
631.529	29
632.29	29
633.051	28
633.812	26
634.573	24
635.333	25
636.094	24
636.855	21
637.615	22
638.376	22
639.136	25
639.896	21
640.657	18
641.417	18
642.177	18
642.937	18
643.697	19
644.457	18
645.216	16
645.976	15
646.736	16
647.495	15
648.255	15
649.014	13
649.774	16
650.533	12
651.292	14
652.051	12
652.81	13
653.569	14
654.328	15
655.087	13
655.846	15
656.604	14
657.363	10
658.121	13
658.88	11
659.638	12
660.397	11
661.155	12
661.913	12
662.671	11
663.429	12
664.187	11
664.945	11
665.703	10
666.46	11
667.218	11
667.976	9
668.733	10
669.49	12
670.248	10
671.005	9
671.762	9
672.519	9
673.276	8
674.033	8
674.79	10
675.547	9
676.304	8
677.06	9
677.817	7
678.574	9
679.33	9
680.086	9
680.843	8
681.599	8
682.355	8
683.111	10
683.867	8
684.623	9
685.379	8
686.135	7
686.89	9
687.646	8
688.402	7
689.157	8
689.912	7
690.668	6
691.423	7
692.178	8
692.933	10
693.688	7
694.443	8
695.198	8
695.953	9
696.708	8
697.462	3
698.217	6
698.972	6
699.726	9
700.48	6
701.235	9
701.989	5
702.743	10
703.497	7
704.251	5
705.005	10
705.759	8
706.513	9
707.266	7
708.02	9
708.774	7
709.527	9
710.28	8
711.034	5
711.787	9
712.54	6
713.293	7
714.046	8
714.799	8
715.552	9
716.305	11
717.058	8
717.81	6
718.563	8
719.315	8
720.068	8
720.82	9
721.573	6
722.325	7
723.077	5
723.829	5
724.581	8
725.333	10
726.085	8
726.836	10
727.588	7
728.34	9
729.091	8
729.843	9
730.594	8
731.346	11
732.097	7
732.848	6
733.599	10
734.35	10
735.101	8
735.852	8
736.603	8
737.354	9
738.104	8
738.855	10
739.605	10
740.356	10
741.106	11
741.856	9
742.607	11
743.357	9
744.107	9
744.857	9
745.607	11
746.357	11
747.106	9
747.856	12
748.606	9
749.355	11
750.105	10
750.854	10
751.603	11
752.353	10
753.102	11
753.851	9
754.6	11
755.349	11
756.098	11
756.847	11
757.595	11
758.344	11
759.093	12
759.841	13
760.589	11
761.338	12
762.086	10
762.834	13
763.582	13
764.331	14
765.079	12
765.826	13
766.574	12
767.322	14
768.07	11
768.817	12
769.565	13
770.312	11
771.06	13
771.807	13
772.554	13
773.302	12
774.049	14
774.796	14
775.543	14
776.29	13
777.036	12
777.783	15
778.53	13
779.276	14
780.023	13
780.769	17
781.516	15
782.262	16
783.008	13
783.754	14
784.5	15
785.246	17
785.992	12
786.738	15
787.484	11
788.23	15
788.975	16
789.721	15
790.466	13
791.212	15
791.957	13
792.702	15
793.447	12
794.193	16
794.938	13
795.683	15
796.427	13
797.172	13
797.917	13
798.662	11
799.406	11
800.151	11
800.895	12
801.64	12
802.384	13
803.128	10
803.872	13
804.616	13
805.36	13
806.104	10
806.848	11
807.592	10
808.336	11
809.079	8
809.823	9
810.566	10
811.31	7
812.053	12
812.796	9
813.539	11
814.283	10
815.026	10
815.769	10
816.511	6
817.254	10
817.997	12
818.74	9
819.482	9
820.225	6
820.967	9
821.71	6
822.452	10
823.194	4
823.936	7
824.678	8
825.42	8
826.162	5
826.904	5
827.646	5
828.388	6
829.129	6
829.871	6
830.612	6
831.354	7
832.095	7
832.836	5
833.577	8
834.319	6
835.06	5
835.801	5
836.542	6
837.282	5
838.023	6
838.764	6
839.504	3
840.245	8
840.985	5
841.726	6
842.466	8
843.206	4
843.946	5
844.687	7
845.427	4
846.166	5
846.906	8
847.646	4
848.386	6
849.125	6
849.865	4
850.605	3
851.344	4
852.083	6
852.823	5
853.562	3
854.301	2
855.04	2
855.779	7
856.518	5
857.257	4
857.995	5
858.734	4
859.473	4
860.211	2
860.95	5
861.688	3
862.426	5
863.165	4
863.903	4
864.641	2
865.379	5
866.117	2
866.855	1
867.593	3
868.33	5
869.068	2
869.806	3
870.543	3
871.28	1
872.018	1
872.755	1
873.492	3
874.229	3
874.967	3
875.703	3
876.44	2
877.177	3
877.914	2
878.651	1
879.387	3
880.124	2
880.86	1
881.597	1
882.333	1
883.069	1
883.806	2
884.542	2
885.278	0
886.014	2
886.749	1
887.485	2
888.221	-2
888.957	1
889.692	2
890.428	2
891.163	2
891.899	1
892.634	2
893.369	0
894.104	0
894.839	2
895.574	1
896.309	3
897.044	2
897.779	1
898.514	0
899.248	-1
899.983	1
900.717	0
901.452	1
902.186	2
902.92	2
903.654	2
904.389	2
905.123	0
905.857	2
906.59	0
907.324	3
908.058	2
908.792	1
909.525	-1
910.259	1
910.992	-1
911.726	1
912.459	1
913.192	0
913.925	0
914.658	1
915.391	1
916.124	0
916.857	1
917.59	2
918.323	2
919.055	2
919.788	1
920.521	2
921.253	0
921.985	0
922.718	-1
923.45	0
924.182	0
924.914	1
925.646	1
926.378	-2
927.11	0
927.841	1
928.573	1
929.305	3
930.036	0
930.768	1
931.499	1
932.23	-1
932.962	1
933.693	2
934.424	0
935.155	0
935.886	1
936.617	2
937.348	-1
938.078	0
938.809	2
939.54	1
940.27	2
941.001	-1
941.731	2
942.461	1
943.191	0
943.922	-1
944.652	2
945.382	2
946.112	0
946.841	1
947.571	4
948.301	0
949.031	1
949.76	0
950.49	2
951.219	1
951.948	0
952.678	2
953.407	2
954.136	0
954.865	-1
955.594	-1
956.323	2
957.052	-1
957.78	3
958.509	0
959.238	1
959.966	-1
960.695	1
961.423	1
962.151	1
962.88	0
963.608	1
964.336	1
965.064	1
965.792	3
966.52	-1
967.247	0
967.975	-1
968.703	1
969.43	1
970.158	1
970.885	0
971.613	1
972.34	1
973.067	2
973.794	1
974.521	1
975.248	-1
975.975	-1
976.702	1
977.429	-1
978.156	1
978.882	2
979.609	1
980.335	0
981.062	0
981.788	0
982.514	0
983.24	0
983.967	0
984.693	1
985.419	0
986.144	0
986.87	-1
987.596	1
988.322	2
989.047	1
989.773	0
990.498	3
991.224	-1
991.949	0
992.674	0
993.399	1
994.124	0
994.849	0
995.574	1
996.299	1
997.024	1
997.749	-1
998.473	2
999.198	1
999.922	-1
1000.647	2
1001.371	4
1002.095	-1
1002.82	0
1003.544	-1
1004.268	6
1004.992	3
1005.716	4
1006.439	7
1007.163	4
1007.887	4
1008.611	0
1009.334	0
1010.058	-1
1010.781	-2
1011.504	-1
1012.228	1
1012.951	0
1013.674	-1
1014.397	-1
1015.12	0
