节点500_705_QEPB04081__419__20-51-52-688.txt的数据

Date: Wed Nov 12 20:51:52 CST 2025
User: PC
Spectrometer: QEPB0408
触发模式: 0
积分时间 (秒): 1.000000E-2
Scans to average: 1
启用暗噪声校正: true
启用非线性校正: false
滑动平均宽度: 0
X轴模式: Wavelengths
Number of Pixels in Spectrum: 1044
>>>>>Begin Spectral Data<<<<<
220.843	5.5
221.644	5.5
222.444	5.5
223.244	5.5
224.045	5.5
224.845	5.5
225.645	8.5
226.445	8.5
227.245	4.5
228.045	8.5
228.845	9.5
229.645	6.5
230.444	8.5
231.244	6.5
232.043	8.5
232.843	8.5
233.642	9.5
234.442	11.5
235.241	8.5
236.04	11.5
236.839	11.5
237.638	12.5
238.437	12.5
239.236	13.5
240.035	11.5
240.833	13.5
241.632	12.5
242.43	10.5
243.229	11.5
244.027	14.5
244.826	13.5
245.624	12.5
246.422	14.5
247.22	15.5
248.018	16.5
248.816	15.5
249.614	15.5
250.412	15.5
251.21	16.5
252.007	17.5
252.805	14.5
253.602	18.5
254.4	15.5
255.197	16.5
255.994	19.5
256.791	17.5
257.589	19.5
258.386	19.5
259.183	21.5
259.979	20.5
260.776	22.5
261.573	20.5
262.37	22.5
263.166	26.5
263.963	27.5
264.759	23.5
265.556	26.5
266.352	27.5
267.148	27.5
267.944	27.5
268.74	30.5
269.536	30.5
270.332	28.5
271.128	30.5
271.924	30.5
272.719	32.5
273.515	31.5
274.311	32.5
275.106	34.5
275.901	30.5
276.697	35.5
277.492	32.5
278.287	35.5
279.082	32.5
279.877	32.5
280.672	33.5
281.467	33.5
282.262	35.5
283.056	35.5
283.851	34.5
284.646	35.5
285.44	35.5
286.234	32.5
287.029	34.5
287.823	38.5
288.617	33.5
289.411	30.5
290.205	32.5
290.999	29.5
291.793	31.5
292.587	30.5
293.381	28.5
294.174	29.5
294.968	32.5
295.761	25.5
296.555	27.5
297.348	26.5
298.141	26.5
298.935	29.5
299.728	25.5
300.521	28.5
301.314	23.5
302.107	24.5
302.899	24.5
303.692	21.5
304.485	22.5
305.277	21.5
306.07	23.5
306.862	23.5
307.655	21.5
308.447	23.5
309.239	18.5
310.031	22.5
310.823	18.5
311.615	20.5
312.407	17.5
313.199	14.5
313.991	15.5
314.783	15.5
315.574	18.5
316.366	17.5
317.157	17.5
317.949	17.5
318.74	14.5
319.531	15.5
320.322	14.5
321.113	14.5
321.904	12.5
322.695	14.5
323.486	12.5
324.277	15.5
325.068	13.5
325.858	14.5
326.649	14.5
327.439	12.5
328.23	12.5
329.02	15.5
329.81	14.5
330.6	13.5
331.391	12.5
332.181	13.5
332.971	15.5
333.76	11.5
334.55	12.5
335.34	13.5
336.13	13.5
336.919	12.5
337.709	12.5
338.498	15.5
339.287	14.5
340.077	11.5
340.866	13.5
341.655	12.5
342.444	9.5
343.233	13.5
344.022	13.5
344.811	13.5
345.6	12.5
346.388	12.5
347.177	13.5
347.965	11.5
348.754	11.5
349.542	11.5
350.33	14.5
351.119	11.5
351.907	8.5
352.695	12.5
353.483	12.5
354.271	12.5
355.059	11.5
355.846	11.5
356.634	9.5
357.422	9.5
358.209	12.5
358.997	9.5
359.784	11.5
360.571	11.5
361.359	9.5
362.146	9.5
362.933	10.5
363.72	9.5
364.507	12.5
365.294	8.5
366.081	9.5
366.867	11.5
367.654	10.5
368.44	9.5
369.227	10.5
370.013	10.5
370.8	9.5
371.586	11.5
372.372	9.5
373.158	9.5
373.944	10.5
374.73	11.5
375.516	11.5
376.302	12.5
377.088	8.5
377.873	11.5
378.659	10.5
379.445	12.5
380.23	10.5
381.015	9.5
381.801	11.5
382.586	11.5
383.371	10.5
384.156	9.5
384.941	11.5
385.726	11.5
386.511	12.5
387.296	13.5
388.08	13.5
388.865	11.5
389.649	11.5
390.434	9.5
391.218	11.5
392.003	14.5
392.787	12.5
393.571	13.5
394.355	14.5
395.139	11.5
395.923	11.5
396.707	13.5
397.491	12.5
398.274	13.5
399.058	14.5
399.842	12.5
400.625	15.5
401.408	13.5
402.192	15.5
402.975	13.5
403.758	12.5
404.541	13.5
405.324	16.5
406.107	15.5
406.89	14.5
407.673	17.5
408.456	15.5
409.238	14.5
410.021	15.5
410.803	17.5
411.586	17.5
412.368	15.5
413.151	17.5
413.933	17.5
414.715	19.5
415.497	18.5
416.279	18.5
417.061	19.5
417.843	20.5
418.624	17.5
419.406	22.5
420.188	20.5
420.969	23.5
421.751	22.5
422.532	24.5
423.313	23.5
424.095	26.5
424.876	25.5
425.657	22.5
426.438	27.5
427.219	25.5
428	27.5
428.78	27.5
429.561	27.5
430.342	30.5
431.122	29.5
431.903	33.5
432.683	31.5
433.464	35.5
434.244	38.5
435.024	39.5
435.804	40.5
436.584	43.5
437.364	43.5
438.144	45.5
438.924	48.5
439.704	55.5
440.483	61.5
441.263	63.5
442.042	66.5
442.822	68.5
443.601	79.5
444.38	81.5
445.16	88.5
445.939	98.5
446.718	103.5
447.497	113.5
448.276	127.5
449.054	136.5
449.833	151.5
450.612	166.5
451.391	182.5
452.169	203.5
452.948	228.5
453.726	239.5
454.504	274.5
455.282	301.5
456.061	338.5
456.839	371.5
457.617	413.5
458.395	471.5
459.172	523.5
459.95	585.5
460.728	647.5
461.506	717.5
462.283	808.5
463.061	896.5
463.838	1003.5
464.615	1124.5
465.393	1229.5
466.17	1375.5
466.947	1509.5
467.724	1695.5
468.501	1853.5
469.278	2054.5
470.055	2265.5
470.831	2491.5
471.608	2766.5
472.385	3029.5
473.161	3347.5
473.938	3668.5
474.714	3998.5
475.49	4435.5
476.266	4845.5
477.043	5252.5
477.819	5754.5
478.595	6280.5
479.371	6820.5
480.146	7441.5
480.922	8103.5
481.698	8854.5
482.473	9596.5
483.249	10419.5
484.024	11314.5
484.8	12219.5
485.575	13250.5
486.35	14350.5
487.126	15481.5
487.901	16708.5
488.676	18028.5
489.451	19441.5
490.225	20839.5
491	22412.5
491.775	23844.5
492.55	25534.5
493.324	27148.5
494.099	28880.5
494.873	30698.5
495.647	32316.5
496.422	34004.5
497.196	35817.5
497.97	37400.5
498.744	38896.5
499.518	40497.5
500.292	41851.5
501.066	42874.5
501.839	43907.5
502.613	44737.5
503.387	45435.5
504.16	46013.5
504.934	46035.5
505.707	46139.5
506.48	45848.5
507.253	45543.5
508.027	44853.5
508.8	44137.5
509.573	43229.5
510.346	42243.5
511.118	41272.5
511.891	40141.5
512.664	38668.5
513.437	37351.5
514.209	35995.5
514.982	34566.5
515.754	33182.5
516.526	31903.5
517.298	30625.5
518.071	29419.5
518.843	28254.5
519.615	27147.5
520.387	26119.5
521.159	25043.5
521.93	24017.5
522.702	23022.5
523.474	22055.5
524.245	21154.5
525.017	20280.5
525.788	19348.5
526.56	18608.5
527.331	17802.5
528.102	16890.5
528.873	16088.5
529.644	15297.5
530.415	14587.5
531.186	13906.5
531.957	13187.5
532.728	12551.5
533.498	11869.5
534.269	11266.5
535.039	10651.5
535.81	10080.5
536.58	9523.5
537.351	9042.5
538.121	8585.5
538.891	8107.5
539.661	7666.5
540.431	7240.5
541.201	6886.5
541.971	6538.5
542.741	6175.5
543.51	5856.5
544.28	5601.5
545.05	5326.5
545.819	5107.5
546.588	4828.5
547.358	4592.5
548.127	4378.5
548.896	4149.5
549.665	3939.5
550.434	3741.5
551.203	3562.5
551.972	3350.5
552.741	3194.5
553.51	2970.5
554.278	2805.5
555.047	2680.5
555.815	2531.5
556.584	2401.5
557.352	2283.5
558.121	2166.5
558.889	2025.5
559.657	1909.5
560.425	1818.5
561.193	1706.5
561.961	1620.5
562.729	1539.5
563.496	1439.5
564.264	1372.5
565.032	1315.5
565.799	1234.5
566.567	1168.5
567.334	1104.5
568.101	1038.5
568.869	991.5
569.636	938.5
570.403	863.5
571.17	813.5
571.937	783.5
572.704	733.5
573.471	701.5
574.237	651.5
575.004	623.5
575.771	581.5
576.537	541.5
577.303	512.5
578.07	489.5
578.836	455.5
579.602	443.5
580.368	412.5
581.134	399.5
581.9	370.5
582.666	357.5
583.432	348.5
584.198	320.5
584.964	302.5
585.729	296.5
586.495	276.5
587.26	262.5
588.025	246.5
588.791	234.5
589.556	227.5
590.321	211.5
591.086	198.5
591.851	189.5
592.616	178.5
593.381	175.5
594.146	157.5
594.911	161.5
595.675	152.5
596.44	141.5
597.204	137.5
597.969	133.5
598.733	122.5
599.497	123.5
600.261	118.5
601.025	111.5
601.79	106.5
602.553	103.5
603.317	96.5
604.081	91.5
604.845	92.5
605.609	85.5
606.372	86.5
607.136	78.5
607.899	76.5
608.662	74.5
609.426	69.5
610.189	72.5
610.952	64.5
611.715	64.5
612.478	63.5
613.241	65.5
614.004	57.5
614.767	55.5
615.529	53.5
616.292	49.5
617.055	50.5
617.817	47.5
618.579	45.5
619.342	48.5
620.104	41.5
620.866	43.5
621.628	40.5
622.39	41.5
623.152	38.5
623.914	35.5
624.676	36.5
625.438	31.5
626.199	32.5
626.961	34.5
627.722	33.5
628.484	29.5
629.245	25.5
630.006	31.5
630.768	26.5
631.529	29.5
632.29	25.5
633.051	27.5
633.812	24.5
634.573	26.5
635.333	25.5
636.094	23.5
636.855	25.5
637.615	22.5
638.376	21.5
639.136	22.5
639.896	23.5
640.657	19.5
641.417	20.5
642.177	18.5
642.937	18.5
643.697	17.5
644.457	18.5
645.216	15.5
645.976	18.5
646.736	17.5
647.495	14.5
648.255	17.5
649.014	14.5
649.774	15.5
650.533	15.5
651.292	13.5
652.051	15.5
652.81	16.5
653.569	15.5
654.328	14.5
655.087	13.5
655.846	15.5
656.604	13.5
657.363	12.5
658.121	10.5
658.88	12.5
659.638	13.5
660.397	13.5
661.155	13.5
661.913	12.5
662.671	11.5
663.429	9.5
664.187	11.5
664.945	11.5
665.703	8.5
666.46	13.5
667.218	11.5
667.976	10.5
668.733	9.5
669.49	9.5
670.248	9.5
671.005	10.5
671.762	11.5
672.519	10.5
673.276	10.5
674.033	9.5
674.79	11.5
675.547	11.5
676.304	5.5
677.06	10.5
677.817	10.5
678.574	9.5
679.33	7.5
680.086	9.5
680.843	7.5
681.599	8.5
682.355	8.5
683.111	8.5
683.867	8.5
684.623	10.5
685.379	8.5
686.135	8.5
686.89	9.5
687.646	9.5
688.402	7.5
689.157	7.5
689.912	5.5
690.668	8.5
691.423	7.5
692.178	8.5
692.933	9.5
693.688	6.5
694.443	8.5
695.198	7.5
695.953	7.5
696.708	7.5
697.462	8.5
698.217	8.5
698.972	8.5
699.726	10.5
700.48	8.5
701.235	6.5
701.989	8.5
702.743	10.5
703.497	6.5
704.251	7.5
705.005	10.5
705.759	8.5
706.513	8.5
707.266	8.5
708.02	8.5
708.774	5.5
709.527	9.5
710.28	6.5
711.034	7.5
711.787	8.5
712.54	8.5
713.293	5.5
714.046	7.5
714.799	7.5
715.552	7.5
716.305	9.5
717.058	9.5
717.81	6.5
718.563	8.5
719.315	8.5
720.068	7.5
720.82	6.5
721.573	6.5
722.325	9.5
723.077	7.5
723.829	7.5
724.581	8.5
725.333	8.5
726.085	9.5
726.836	8.5
727.588	9.5
728.34	11.5
729.091	11.5
729.843	7.5
730.594	9.5
731.346	8.5
732.097	7.5
732.848	7.5
733.599	9.5
734.35	10.5
735.101	8.5
735.852	9.5
736.603	11.5
737.354	9.5
738.104	11.5
738.855	8.5
739.605	10.5
740.356	10.5
741.106	11.5
741.856	11.5
742.607	10.5
743.357	10.5
744.107	9.5
744.857	10.5
745.607	9.5
746.357	10.5
747.106	11.5
747.856	12.5
748.606	9.5
749.355	10.5
750.105	8.5
750.854	12.5
751.603	11.5
752.353	16.5
753.102	11.5
753.851	9.5
754.6	12.5
755.349	8.5
756.098	11.5
756.847	13.5
757.595	9.5
758.344	13.5
759.093	9.5
759.841	13.5
760.589	10.5
761.338	13.5
762.086	13.5
762.834	10.5
763.582	13.5
764.331	12.5
765.079	12.5
765.826	13.5
766.574	14.5
767.322	13.5
768.07	14.5
768.817	13.5
769.565	15.5
770.312	12.5
771.06	17.5
771.807	14.5
772.554	16.5
773.302	14.5
774.049	17.5
774.796	15.5
775.543	16.5
776.29	15.5
777.036	11.5
777.783	15.5
778.53	13.5
779.276	15.5
780.023	14.5
780.769	15.5
781.516	16.5
782.262	15.5
783.008	13.5
783.754	14.5
784.5	13.5
785.246	15.5
785.992	14.5
786.738	16.5
787.484	14.5
788.23	14.5
788.975	14.5
789.721	15.5
790.466	17.5
791.212	15.5
791.957	15.5
792.702	14.5
793.447	16.5
794.193	14.5
794.938	14.5
795.683	15.5
796.427	13.5
797.172	15.5
797.917	14.5
798.662	13.5
799.406	13.5
800.151	14.5
800.895	13.5
801.64	13.5
802.384	13.5
803.128	11.5
803.872	11.5
804.616	10.5
805.36	10.5
806.104	12.5
806.848	9.5
807.592	10.5
808.336	9.5
809.079	10.5
809.823	9.5
810.566	13.5
811.31	11.5
812.053	8.5
812.796	9.5
813.539	9.5
814.283	9.5
815.026	9.5
815.769	8.5
816.511	8.5
817.254	8.5
817.997	6.5
818.74	9.5
819.482	7.5
820.225	7.5
820.967	8.5
821.71	9.5
822.452	9.5
823.194	5.5
823.936	9.5
824.678	6.5
825.42	7.5
826.162	6.5
826.904	9.5
827.646	8.5
828.388	8.5
829.129	7.5
829.871	7.5
830.612	6.5
831.354	7.5
832.095	7.5
832.836	5.5
833.577	7.5
834.319	7.5
835.06	7.5
835.801	6.5
836.542	6.5
837.282	8.5
838.023	7.5
838.764	6.5
839.504	3.5
840.245	5.5
840.985	5.5
841.726	4.5
842.466	6.5
843.206	4.5
843.946	5.5
844.687	4.5
845.427	5.5
846.166	4.5
846.906	4.5
847.646	5.5
848.386	6.5
849.125	4.5
849.865	4.5
850.605	5.5
851.344	4.5
852.083	4.5
852.823	4.5
853.562	5.5
854.301	3.5
855.04	3.5
855.779	7.5
856.518	1.5
857.257	5.5
857.995	3.5
858.734	3.5
859.473	3.5
860.211	2.5
860.95	5.5
861.688	4.5
862.426	5.5
863.165	3.5
863.903	5.5
864.641	3.5
865.379	1.5
866.117	4.5
866.855	4.5
867.593	1.5
868.33	3.5
869.068	3.5
869.806	3.5
870.543	3.5
871.28	3.5
872.018	3.5
872.755	4.5
873.492	2.5
874.229	1.5
874.967	1.5
875.703	3.5
876.44	1.5
877.177	2.5
877.914	1.5
878.651	1.5
879.387	2.5
880.124	2.5
880.86	0.5
881.597	4.5
882.333	5.5
883.069	-0.5
883.806	-0.5
884.542	1.5
885.278	3.5
886.014	3.5
886.749	2.5
887.485	2.5
888.221	2.5
888.957	3.5
889.692	2.5
890.428	4.5
891.163	-0.5
891.899	3.5
892.634	0.5
893.369	-0.5
894.104	0.5
894.839	3.5
895.574	1.5
896.309	1.5
897.044	3.5
897.779	2.5
898.514	0.5
899.248	2.5
899.983	0.5
900.717	2.5
901.452	2.5
902.186	1.5
902.92	0.5
903.654	1.5
904.389	1.5
905.123	3.5
905.857	1.5
906.59	1.5
907.324	-0.5
908.058	1.5
908.792	1.5
909.525	1.5
910.259	1.5
910.992	-0.5
911.726	1.5
912.459	1.5
913.192	0.5
913.925	0.5
914.658	2.5
915.391	0.5
916.124	1.5
916.857	-1.5
917.59	2.5
918.323	3.5
919.055	1.5
919.788	0.5
920.521	-0.5
921.253	1.5
921.985	1.5
922.718	0.5
923.45	-0.5
924.182	2.5
924.914	0.5
925.646	0.5
926.378	0.5
927.11	1.5
927.841	0.5
928.573	1.5
929.305	1.5
930.036	1.5
930.768	1.5
931.499	0.5
932.23	-2.5
932.962	2.5
933.693	0.5
934.424	3.5
935.155	-0.5
935.886	2.5
936.617	1.5
937.348	-1.5
938.078	0.5
938.809	1.5
939.54	0.5
940.27	1.5
941.001	0.5
941.731	-0.5
942.461	0.5
943.191	0.5
943.922	0.5
944.652	2.5
945.382	1.5
946.112	-0.5
946.841	-0.5
947.571	1.5
948.301	1.5
949.031	2.5
949.76	-0.5
950.49	2.5
951.219	-1.5
951.948	1.5
952.678	-0.5
953.407	-0.5
954.136	1.5
954.865	0.5
955.594	0.5
956.323	-0.5
957.052	1.5
957.78	2.5
958.509	1.5
959.238	1.5
959.966	1.5
960.695	1.5
961.423	-0.5
962.151	0.5
962.88	0.5
963.608	0.5
964.336	3.5
965.064	0.5
965.792	2.5
966.52	1.5
967.247	0.5
967.975	1.5
968.703	0.5
969.43	1.5
970.158	1.5
970.885	2.5
971.613	0.5
972.34	0.5
973.067	0.5
973.794	0.5
974.521	0.5
975.248	0.5
975.975	3.5
976.702	0.5
977.429	-0.5
978.156	3.5
978.882	0.5
979.609	0.5
980.335	0.5
981.062	0.5
981.788	1.5
982.514	1.5
983.24	1.5
983.967	-1.5
984.693	1.5
985.419	0.5
986.144	-1.5
986.87	0.5
987.596	1.5
988.322	0.5
989.047	1.5
989.773	3.5
990.498	-0.5
991.224	-0.5
991.949	2.5
992.674	1.5
993.399	1.5
994.124	3.5
994.849	2.5
995.574	0.5
996.299	-0.5
997.024	-0.5
997.749	-0.5
998.473	2.5
999.198	1.5
999.922	-0.5
1000.647	2.5
1001.371	3.5
1002.095	-3.5
1002.82	-0.5
1003.544	-0.5
1004.268	4.5
1004.992	4.5
1005.716	5.5
1006.439	5.5
1007.163	6.5
1007.887	4.5
1008.611	2.5
1009.334	0.5
1010.058	-2.5
1010.781	-0.5
1011.504	0.5
1012.228	1.5
1012.951	-0.5
1013.674	0.5
1014.397	1.5
1015.12	-0.5
