节点500_705_QEPB04081__543__20-53-39-714.txt的数据

Date: Wed Nov 12 20:53:39 CST 2025
User: PC
Spectrometer: QEPB0408
触发模式: 0
积分时间 (秒): 1.000000E-2
Scans to average: 1
启用暗噪声校正: true
启用非线性校正: false
滑动平均宽度: 0
X轴模式: Wavelengths
Number of Pixels in Spectrum: 1044
>>>>>Begin Spectral Data<<<<<
220.843	6
221.644	6
222.444	5
223.244	4
224.045	5
224.845	7
225.645	8
226.445	5
227.245	6
228.045	11
228.845	9
229.645	8
230.444	9
231.244	6
232.043	8
232.843	9
233.642	10
234.442	10
235.241	12
236.04	8
236.839	10
237.638	11
238.437	11
239.236	9
240.035	9
240.833	11
241.632	10
242.43	13
243.229	11
244.027	13
244.826	13
245.624	14
246.422	13
247.22	13
248.018	14
248.816	14
249.614	14
250.412	15
251.21	18
252.007	14
252.805	15
253.602	15
254.4	16
255.197	18
255.994	16
256.791	18
257.589	20
258.386	17
259.183	20
259.979	18
260.776	19
261.573	21
262.37	24
263.166	20
263.963	23
264.759	20
265.556	25
266.352	26
267.148	29
267.944	30
268.74	26
269.536	23
270.332	29
271.128	27
271.924	30
272.719	27
273.515	30
274.311	30
275.106	28
275.901	29
276.697	32
277.492	35
278.287	31
279.082	31
279.877	31
280.672	30
281.467	34
282.262	34
283.056	31
283.851	30
284.646	33
285.44	33
286.234	33
287.029	34
287.823	30
288.617	33
289.411	31
290.205	30
290.999	30
291.793	29
292.587	29
293.381	30
294.174	30
294.968	28
295.761	25
296.555	29
297.348	28
298.141	24
298.935	32
299.728	27
300.521	27
301.314	27
302.107	24
302.899	22
303.692	24
304.485	22
305.277	20
306.07	22
306.862	22
307.655	21
308.447	20
309.239	19
310.031	19
310.823	18
311.615	18
312.407	19
313.199	19
313.991	18
314.783	17
315.574	18
316.366	15
317.157	15
317.949	17
318.74	14
319.531	14
320.322	15
321.113	13
321.904	13
322.695	13
323.486	12
324.277	13
325.068	13
325.858	13
326.649	13
327.439	13
328.23	13
329.02	14
329.81	12
330.6	11
331.391	13
332.181	13
332.971	13
333.76	15
334.55	13
335.34	11
336.13	11
336.919	13
337.709	12
338.498	13
339.287	13
340.077	11
340.866	11
341.655	11
342.444	10
343.233	11
344.022	13
344.811	10
345.6	11
346.388	10
347.177	13
347.965	12
348.754	11
349.542	11
350.33	9
351.119	9
351.907	11
352.695	9
353.483	12
354.271	11
355.059	12
355.846	10
356.634	10
357.422	11
358.209	14
358.997	13
359.784	10
360.571	9
361.359	13
362.146	9
362.933	10
363.72	7
364.507	11
365.294	9
366.081	7
366.867	9
367.654	9
368.44	8
369.227	11
370.013	10
370.8	9
371.586	8
372.372	9
373.158	9
373.944	10
374.73	9
375.516	9
376.302	10
377.088	9
377.873	9
378.659	9
379.445	10
380.23	11
381.015	9
381.801	11
382.586	11
383.371	12
384.156	8
384.941	9
385.726	10
386.511	9
387.296	9
388.08	8
388.865	14
389.649	9
390.434	11
391.218	11
392.003	12
392.787	10
393.571	11
394.355	10
395.139	13
395.923	13
396.707	13
397.491	12
398.274	14
399.058	11
399.842	15
400.625	14
401.408	15
402.192	14
402.975	14
403.758	15
404.541	13
405.324	14
406.107	13
406.89	12
407.673	15
408.456	15
409.238	19
410.021	15
410.803	19
411.586	15
412.368	17
413.151	18
413.933	15
414.715	18
415.497	15
416.279	18
417.061	20
417.843	20
418.624	20
419.406	19
420.188	18
420.969	23
421.751	24
422.532	24
423.313	22
424.095	24
424.876	25
425.657	25
426.438	26
427.219	24
428	27
428.78	25
429.561	28
430.342	30
431.122	31
431.903	31
432.683	36
433.464	34
434.244	39
435.024	37
435.804	39
436.584	43
437.364	43
438.144	49
438.924	51
439.704	55
440.483	55
441.263	63
442.042	67
442.822	71
443.601	74
444.38	83
445.16	92
445.939	97
446.718	109
447.497	116
448.276	122
449.054	142
449.833	153
450.612	170
451.391	191
452.169	209
452.948	232
453.726	255
454.504	282
455.282	315
456.061	353
456.839	390
457.617	433
458.395	482
459.172	541
459.95	598
460.728	684
461.506	736
462.283	820
463.061	914
463.838	1017
464.615	1134
465.393	1261
466.17	1385
466.947	1527
467.724	1698
468.501	1880
469.278	2058
470.055	2275
470.831	2520
471.608	2750
472.385	3023
473.161	3317
473.938	3637
474.714	3954
475.49	4349
476.266	4745
477.043	5174
477.819	5635
478.595	6111
479.371	6654
480.146	7211
480.922	7844
481.698	8500
482.473	9229
483.249	10008
484.024	10797
484.8	11674
485.575	12566
486.35	13597
487.126	14689
487.901	15792
488.676	16972
489.451	18238
490.225	19662
491	20973
491.775	22392
492.55	23908
493.324	25418
494.099	27061
494.873	28644
495.647	30237
496.422	31833
497.196	33499
497.97	35063
498.744	36473
499.518	38076
500.292	39429
501.066	40485
501.839	41482
502.613	42291
503.387	43177
504.16	43756
504.934	44098
505.707	44377
506.48	44227
507.253	43915
508.027	43573
508.8	43070
509.573	42236
510.346	41443
511.118	40614
511.891	39669
512.664	38317
513.437	37081
514.209	35822
514.982	34604
515.754	33224
516.526	31981
517.298	30781
518.071	29572
518.843	28401
519.615	27315
520.387	26156
521.159	25227
521.93	24187
522.702	23101
523.474	22191
524.245	21332
525.017	20437
525.788	19606
526.56	18756
527.331	18007
528.102	17148
528.873	16334
529.644	15574
530.415	14845
531.186	14146
531.957	13466
532.728	12838
533.498	12125
534.269	11497
535.039	10901
535.81	10335
536.58	9813
537.351	9246
538.121	8796
538.891	8280
539.661	7849
540.431	7445
541.201	7077
541.971	6698
542.741	6328
543.51	6023
544.28	5713
545.05	5463
545.819	5229
546.588	4975
547.358	4722
548.127	4475
548.896	4275
549.665	4063
550.434	3854
551.203	3651
551.972	3464
552.741	3276
553.51	3096
554.278	2929
555.047	2763
555.815	2620
556.584	2467
557.352	2342
558.121	2216
558.889	2112
559.657	1990
560.425	1874
561.193	1787
561.961	1699
562.729	1601
563.496	1516
564.264	1413
565.032	1357
565.799	1256
566.567	1205
567.334	1137
568.101	1075
568.869	1012
569.636	954
570.403	908
571.17	845
571.937	801
572.704	774
573.471	717
574.237	666
575.004	639
575.771	604
576.537	565
577.303	539
578.07	511
578.836	475
579.602	456
580.368	425
581.134	409
581.9	391
582.666	368
583.432	355
584.198	337
584.964	316
585.729	299
586.495	281
587.26	270
588.025	257
588.791	246
589.556	229
590.321	219
591.086	208
591.851	203
592.616	186
593.381	180
594.146	170
594.911	166
595.675	155
596.44	152
597.204	142
597.969	137
598.733	130
599.497	123
600.261	124
601.025	113
601.79	111
602.553	105
603.317	99
604.081	97
604.845	90
605.609	89
606.372	89
607.136	84
607.899	77
608.662	75
609.426	75
610.189	68
610.952	69
611.715	65
612.478	61
613.241	63
614.004	58
614.767	53
615.529	50
616.292	53
617.055	52
617.817	48
618.579	47
619.342	45
620.104	43
620.866	43
621.628	41
622.39	39
623.152	39
623.914	39
624.676	39
625.438	36
626.199	33
626.961	31
627.722	33
628.484	32
629.245	28
630.006	29
630.768	29
631.529	28
632.29	25
633.051	24
633.812	24
634.573	24
635.333	22
636.094	22
636.855	23
637.615	22
638.376	24
639.136	22
639.896	18
640.657	19
641.417	22
642.177	20
642.937	18
643.697	19
644.457	17
645.216	15
645.976	19
646.736	15
647.495	15
648.255	16
649.014	18
649.774	15
650.533	17
651.292	13
652.051	15
652.81	13
653.569	14
654.328	13
655.087	13
655.846	15
656.604	14
657.363	10
658.121	10
658.88	14
659.638	13
660.397	14
661.155	10
661.913	10
662.671	10
663.429	9
664.187	9
664.945	10
665.703	10
666.46	9
667.218	12
667.976	12
668.733	11
669.49	9
670.248	8
671.005	11
671.762	9
672.519	9
673.276	12
674.033	7
674.79	9
675.547	9
676.304	7
677.06	8
677.817	8
678.574	7
679.33	4
680.086	9
680.843	8
681.599	7
682.355	7
683.111	8
683.867	9
684.623	7
685.379	8
686.135	8
686.89	8
687.646	9
688.402	8
689.157	10
689.912	8
690.668	9
691.423	6
692.178	6
692.933	6
693.688	7
694.443	9
695.198	6
695.953	6
696.708	8
697.462	4
698.217	7
698.972	8
699.726	9
700.48	8
701.235	8
701.989	6
702.743	6
703.497	9
704.251	7
705.005	7
705.759	9
706.513	8
707.266	8
708.02	6
708.774	9
709.527	8
710.28	11
711.034	7
711.787	5
712.54	8
713.293	8
714.046	8
714.799	9
715.552	9
716.305	8
717.058	6
717.81	9
718.563	7
719.315	8
720.068	7
720.82	6
721.573	7
722.325	6
723.077	6
723.829	8
724.581	7
725.333	6
726.085	7
726.836	8
727.588	8
728.34	9
729.091	8
729.843	7
730.594	9
731.346	9
732.097	11
732.848	11
733.599	7
734.35	9
735.101	7
735.852	10
736.603	8
737.354	7
738.104	9
738.855	8
739.605	9
740.356	7
741.106	9
741.856	8
742.607	9
743.357	9
744.107	9
744.857	8
745.607	9
746.357	10
747.106	11
747.856	6
748.606	11
749.355	9
750.105	10
750.854	8
751.603	12
752.353	13
753.102	11
753.851	9
754.6	12
755.349	13
756.098	10
756.847	13
757.595	8
758.344	11
759.093	13
759.841	11
760.589	11
761.338	10
762.086	11
762.834	11
763.582	10
764.331	12
765.079	14
765.826	12
766.574	13
767.322	13
768.07	15
768.817	11
769.565	11
770.312	16
771.06	14
771.807	15
772.554	11
773.302	14
774.049	15
774.796	15
775.543	15
776.29	14
777.036	14
777.783	17
778.53	14
779.276	16
780.023	14
780.769	15
781.516	15
782.262	13
783.008	15
783.754	12
784.5	13
785.246	14
785.992	15
786.738	14
787.484	15
788.23	12
788.975	15
789.721	13
790.466	12
791.212	14
791.957	12
792.702	17
793.447	13
794.193	11
794.938	12
795.683	14
796.427	14
797.172	11
797.917	13
798.662	12
799.406	13
800.151	13
800.895	11
801.64	11
802.384	11
803.128	12
803.872	13
804.616	9
805.36	10
806.104	11
806.848	14
807.592	9
808.336	12
809.079	9
809.823	10
810.566	11
811.31	10
812.053	11
812.796	10
813.539	10
814.283	10
815.026	9
815.769	8
816.511	8
817.254	9
817.997	8
818.74	6
819.482	7
820.225	6
820.967	7
821.71	8
822.452	9
823.194	7
823.936	8
824.678	7
825.42	6
826.162	9
826.904	8
827.646	5
828.388	5
829.129	6
829.871	7
830.612	7
831.354	5
832.095	6
832.836	5
833.577	5
834.319	6
835.06	8
835.801	5
836.542	7
837.282	6
838.023	5
838.764	7
839.504	6
840.245	5
840.985	6
841.726	4
842.466	5
843.206	6
843.946	3
844.687	5
845.427	7
846.166	6
846.906	7
847.646	5
848.386	5
849.125	5
849.865	4
850.605	6
851.344	3
852.083	4
852.823	5
853.562	3
854.301	3
855.04	5
855.779	3
856.518	4
857.257	3
857.995	4
858.734	4
859.473	4
860.211	4
860.95	3
861.688	5
862.426	4
863.165	1
863.903	3
864.641	2
865.379	3
866.117	1
866.855	4
867.593	4
868.33	6
869.068	4
869.806	3
870.543	2
871.28	5
872.018	4
872.755	5
873.492	2
874.229	2
874.967	1
875.703	3
876.44	0
877.177	1
877.914	3
878.651	1
879.387	2
880.124	2
880.86	2
881.597	1
882.333	1
883.069	2
883.806	2
884.542	2
885.278	1
886.014	1
886.749	3
887.485	1
888.221	3
888.957	1
889.692	2
890.428	1
891.163	1
891.899	1
892.634	2
893.369	0
894.104	0
894.839	3
895.574	1
896.309	1
897.044	0
897.779	-1
898.514	2
899.248	0
899.983	1
900.717	0
901.452	0
902.186	1
902.92	-1
903.654	2
904.389	2
905.123	0
905.857	1
906.59	2
907.324	0
908.058	3
908.792	-1
909.525	1
910.259	-1
910.992	3
911.726	-1
912.459	1
913.192	2
913.925	0
914.658	3
915.391	1
916.124	2
916.857	0
917.59	4
918.323	0
919.055	0
919.788	3
920.521	-1
921.253	3
921.985	1
922.718	-1
923.45	-1
924.182	0
924.914	1
925.646	0
926.378	0
927.11	1
927.841	0
928.573	3
929.305	1
930.036	2
930.768	1
931.499	1
932.23	1
932.962	1
933.693	1
934.424	-1
935.155	2
935.886	-1
936.617	1
937.348	1
938.078	-1
938.809	2
939.54	-2
940.27	2
941.001	1
941.731	2
942.461	-1
943.191	1
943.922	1
944.652	2
945.382	1
946.112	0
946.841	-1
947.571	2
948.301	-1
949.031	2
949.76	2
950.49	2
951.219	-1
951.948	1
952.678	2
953.407	1
954.136	1
954.865	1
955.594	1
956.323	0
957.052	-1
957.78	1
958.509	0
959.238	0
959.966	-1
960.695	-1
961.423	-1
962.151	-1
962.88	-2
963.608	1
964.336	1
965.064	0
965.792	-1
966.52	1
967.247	1
967.975	-3
968.703	-2
969.43	2
970.158	2
970.885	1
971.613	-2
972.34	1
973.067	1
973.794	1
974.521	-2
975.248	0
975.975	0
976.702	0
977.429	0
978.156	0
978.882	0
979.609	0
980.335	0
981.062	1
981.788	1
982.514	-1
983.24	-1
983.967	1
984.693	-2
985.419	-1
986.144	1
986.87	-1
987.596	-1
988.322	1
989.047	0
989.773	1
990.498	0
991.224	1
991.949	-3
992.674	-1
993.399	1
994.124	1
994.849	0
995.574	0
996.299	0
997.024	-1
997.749	2
998.473	0
999.198	0
999.922	0
1000.647	0
1001.371	4
1002.095	-2
1002.82	-1
1003.544	-1
1004.268	3
1004.992	4
1005.716	2
1006.439	4
1007.163	6
1007.887	5
1008.611	1
1009.334	-1
1010.058	1
1010.781	-1
1011.504	1
1012.228	1
1012.951	-2
1013.674	1
1014.397	0
1015.12	1
