节点500_705_QEPB04081__75__20-47-08-266.txt的数据

Date: Wed Nov 12 20:47:08 CST 2025
User: PC
Spectrometer: QEPB0408
触发模式: 0
积分时间 (秒): 1.000000E-2
Scans to average: 1
启用暗噪声校正: true
启用非线性校正: false
滑动平均宽度: 0
X轴模式: Wavelengths
Number of Pixels in Spectrum: 1044
>>>>>Begin Spectral Data<<<<<
220.843	5.12
221.644	6.12
222.444	7.12
223.244	6.12
224.045	7.12
224.845	8.12
225.645	8.12
226.445	6.12
227.245	7.12
228.045	8.12
228.845	9.12
229.645	7.12
230.444	7.12
231.244	7.12
232.043	12.12
232.843	9.12
233.642	11.12
234.442	9.12
235.241	11.12
236.04	13.12
236.839	11.12
237.638	13.12
238.437	10.12
239.236	15.12
240.035	14.12
240.833	10.12
241.632	11.12
242.43	12.12
243.229	13.12
244.027	15.12
244.826	13.12
245.624	16.12
246.422	14.12
247.22	14.12
248.018	16.12
248.816	16.12
249.614	18.12
250.412	17.12
251.21	18.12
252.007	18.12
252.805	19.12
253.602	18.12
254.4	20.12
255.197	20.12
255.994	20.12
256.791	21.12
257.589	22.12
258.386	24.12
259.183	23.12
259.979	24.12
260.776	22.12
261.573	25.12
262.37	28.12
263.166	29.12
263.963	25.12
264.759	27.12
265.556	27.12
266.352	29.12
267.148	27.12
267.944	33.12
268.74	29.12
269.536	33.12
270.332	30.12
271.128	33.12
271.924	35.12
272.719	31.12
273.515	35.12
274.311	31.12
275.106	36.12
275.901	37.12
276.697	35.12
277.492	37.12
278.287	36.12
279.082	38.12
279.877	36.12
280.672	33.12
281.467	38.12
282.262	34.12
283.056	35.12
283.851	36.12
284.646	36.12
285.44	39.12
286.234	36.12
287.029	33.12
287.823	35.12
288.617	37.12
289.411	31.12
290.205	31.12
290.999	34.12
291.793	33.12
292.587	32.12
293.381	32.12
294.174	29.12
294.968	31.12
295.761	27.12
296.555	31.12
297.348	29.12
298.141	28.12
298.935	31.12
299.728	27.12
300.521	24.12
301.314	26.12
302.107	23.12
302.899	23.12
303.692	22.12
304.485	22.12
305.277	22.12
306.07	23.12
306.862	19.12
307.655	23.12
308.447	20.12
309.239	21.12
310.031	21.12
310.823	20.12
311.615	17.12
312.407	18.12
313.199	18.12
313.991	17.12
314.783	17.12
315.574	19.12
316.366	17.12
317.157	16.12
317.949	12.12
318.74	15.12
319.531	17.12
320.322	15.12
321.113	13.12
321.904	14.12
322.695	13.12
323.486	15.12
324.277	13.12
325.068	14.12
325.858	15.12
326.649	16.12
327.439	14.12
328.23	11.12
329.02	14.12
329.81	12.12
330.6	14.12
331.391	10.12
332.181	13.12
332.971	14.12
333.76	11.12
334.55	14.12
335.34	11.12
336.13	13.12
336.919	11.12
337.709	12.12
338.498	9.12
339.287	10.12
340.077	12.12
340.866	9.12
341.655	9.12
342.444	12.12
343.233	13.12
344.022	13.12
344.811	11.12
345.6	12.12
346.388	11.12
347.177	11.12
347.965	12.12
348.754	11.12
349.542	13.12
350.33	11.12
351.119	14.12
351.907	13.12
352.695	11.12
353.483	12.12
354.271	11.12
355.059	13.12
355.846	11.12
356.634	10.12
357.422	8.12
358.209	11.12
358.997	10.12
359.784	11.12
360.571	11.12
361.359	10.12
362.146	11.12
362.933	11.12
363.72	11.12
364.507	11.12
365.294	10.12
366.081	11.12
366.867	7.12
367.654	9.12
368.44	9.12
369.227	10.12
370.013	13.12
370.8	7.12
371.586	11.12
372.372	10.12
373.158	10.12
373.944	10.12
374.73	9.12
375.516	10.12
376.302	11.12
377.088	9.12
377.873	9.12
378.659	7.12
379.445	10.12
380.23	11.12
381.015	9.12
381.801	9.12
382.586	11.12
383.371	10.12
384.156	11.12
384.941	10.12
385.726	11.12
386.511	10.12
387.296	11.12
388.08	11.12
388.865	13.12
389.649	10.12
390.434	10.12
391.218	14.12
392.003	10.12
392.787	13.12
393.571	12.12
394.355	13.12
395.139	12.12
395.923	15.12
396.707	13.12
397.491	13.12
398.274	14.12
399.058	14.12
399.842	15.12
400.625	14.12
401.408	15.12
402.192	15.12
402.975	13.12
403.758	15.12
404.541	16.12
405.324	15.12
406.107	19.12
406.89	15.12
407.673	19.12
408.456	15.12
409.238	15.12
410.021	17.12
410.803	15.12
411.586	17.12
412.368	15.12
413.151	18.12
413.933	18.12
414.715	19.12
415.497	22.12
416.279	21.12
417.061	22.12
417.843	19.12
418.624	21.12
419.406	21.12
420.188	24.12
420.969	21.12
421.751	22.12
422.532	26.12
423.313	23.12
424.095	25.12
424.876	25.12
425.657	24.12
426.438	26.12
427.219	29.12
428	30.12
428.78	27.12
429.561	29.12
430.342	29.12
431.122	29.12
431.903	34.12
432.683	32.12
433.464	37.12
434.244	37.12
435.024	42.12
435.804	42.12
436.584	44.12
437.364	43.12
438.144	45.12
438.924	50.12
439.704	55.12
440.483	57.12
441.263	62.12
442.042	63.12
442.822	67.12
443.601	72.12
444.38	77.12
445.16	80.12
445.939	95.12
446.718	98.12
447.497	105.12
448.276	117.12
449.054	126.12
449.833	136.12
450.612	152.12
451.391	163.12
452.169	183.12
452.948	203.12
453.726	223.12
454.504	243.12
455.282	281.12
456.061	314.12
456.839	342.12
457.617	387.12
458.395	434.12
459.172	482.12
459.95	535.12
460.728	595.12
461.506	682.12
462.283	753.12
463.061	836.12
463.838	945.12
464.615	1052.12
465.393	1171.12
466.17	1311.12
466.947	1454.12
467.724	1621.12
468.501	1800.12
469.278	1981.12
470.055	2227.12
470.831	2467.12
471.608	2747.12
472.385	3025.12
473.161	3345.12
473.938	3687.12
474.714	4091.12
475.49	4524.12
476.266	4975.12
477.043	5472.12
477.819	5963.12
478.595	6585.12
479.371	7194.12
480.146	7907.12
480.922	8700.12
481.698	9488.12
482.473	10365.12
483.249	11377.12
484.024	12375.12
484.8	13463.12
485.575	14662.12
486.35	15967.12
487.126	17372.12
487.901	18787.12
488.676	20387.12
489.451	22064.12
490.225	23823.12
491	25542.12
491.775	27347.12
492.55	29343.12
493.324	31230.12
494.099	33074.12
494.873	35101.12
495.647	37070.12
496.422	39040.12
497.196	40922.12
497.97	42627.12
498.744	44215.12
499.518	45752.12
500.292	47162.12
501.066	47996.12
501.839	48705.12
502.613	49423.12
503.387	49752.12
504.16	49994.12
504.934	49821.12
505.707	49418.12
506.48	48688.12
507.253	48080.12
508.027	46957.12
508.8	45741.12
509.573	44423.12
510.346	43138.12
511.118	41864.12
511.891	40329.12
512.664	38691.12
513.437	37182.12
514.209	35584.12
514.982	34159.12
515.754	32714.12
516.526	31336.12
517.298	30044.12
518.071	28835.12
518.843	27611.12
519.615	26533.12
520.387	25491.12
521.159	24490.12
521.93	23346.12
522.702	22377.12
523.474	21469.12
524.245	20488.12
525.017	19622.12
525.788	18714.12
526.56	17892.12
527.331	17028.12
528.102	16210.12
528.873	15298.12
529.644	14543.12
530.415	13860.12
531.186	13117.12
531.957	12455.12
532.728	11779.12
533.498	11125.12
534.269	10512.12
535.039	9977.12
535.81	9438.12
536.58	8917.12
537.351	8435.12
538.121	7993.12
538.891	7536.12
539.661	7165.12
540.431	6756.12
541.201	6405.12
541.971	6059.12
542.741	5747.12
543.51	5464.12
544.28	5237.12
545.05	4981.12
545.819	4713.12
546.588	4502.12
547.358	4304.12
548.127	4067.12
548.896	3875.12
549.665	3642.12
550.434	3453.12
551.203	3275.12
551.972	3091.12
552.741	2961.12
553.51	2757.12
554.278	2599.12
555.047	2447.12
555.815	2321.12
556.584	2199.12
557.352	2080.12
558.121	1963.12
558.889	1847.12
559.657	1735.12
560.425	1640.12
561.193	1564.12
561.961	1487.12
562.729	1400.12
563.496	1329.12
564.264	1252.12
565.032	1174.12
565.799	1123.12
566.567	1076.12
567.334	998.12
568.101	947.12
568.869	897.12
569.636	849.12
570.403	810.12
571.17	760.12
571.937	713.12
572.704	682.12
573.471	630.12
574.237	609.12
575.004	571.12
575.771	524.12
576.537	495.12
577.303	470.12
578.07	443.12
578.836	420.12
579.602	400.12
580.368	379.12
581.134	366.12
581.9	350.12
582.666	324.12
583.432	305.12
584.198	293.12
584.964	282.12
585.729	270.12
586.495	251.12
587.26	245.12
588.025	228.12
588.791	215.12
589.556	202.12
590.321	189.12
591.086	182.12
591.851	171.12
592.616	167.12
593.381	159.12
594.146	152.12
594.911	148.12
595.675	136.12
596.44	133.12
597.204	126.12
597.969	122.12
598.733	112.12
599.497	108.12
600.261	108.12
601.025	98.12
601.79	100.12
602.553	96.12
603.317	89.12
604.081	86.12
604.845	82.12
605.609	81.12
606.372	73.12
607.136	71.12
607.899	68.12
608.662	68.12
609.426	69.12
610.189	66.12
610.952	62.12
611.715	60.12
612.478	57.12
613.241	58.12
614.004	55.12
614.767	49.12
615.529	53.12
616.292	46.12
617.055	45.12
617.817	42.12
618.579	44.12
619.342	43.12
620.104	43.12
620.866	41.12
621.628	38.12
622.39	36.12
623.152	33.12
623.914	38.12
624.676	32.12
625.438	32.12
626.199	33.12
626.961	31.12
627.722	32.12
628.484	30.12
629.245	27.12
630.006	27.12
630.768	27.12
631.529	26.12
632.29	27.12
633.051	25.12
633.812	25.12
634.573	24.12
635.333	23.12
636.094	21.12
636.855	21.12
637.615	21.12
638.376	19.12
639.136	22.12
639.896	19.12
640.657	18.12
641.417	16.12
642.177	20.12
642.937	19.12
643.697	18.12
644.457	17.12
645.216	16.12
645.976	16.12
646.736	16.12
647.495	17.12
648.255	14.12
649.014	14.12
649.774	14.12
650.533	15.12
651.292	14.12
652.051	14.12
652.81	12.12
653.569	13.12
654.328	15.12
655.087	12.12
655.846	12.12
656.604	12.12
657.363	14.12
658.121	12.12
658.88	10.12
659.638	11.12
660.397	13.12
661.155	10.12
661.913	11.12
662.671	10.12
663.429	8.12
664.187	12.12
664.945	11.12
665.703	12.12
666.46	9.12
667.218	10.12
667.976	8.12
668.733	9.12
669.49	12.12
670.248	10.12
671.005	10.12
671.762	9.12
672.519	8.12
673.276	8.12
674.033	8.12
674.79	9.12
675.547	9.12
676.304	9.12
677.06	9.12
677.817	8.12
678.574	9.12
679.33	7.12
680.086	10.12
680.843	8.12
681.599	9.12
682.355	9.12
683.111	7.12
683.867	8.12
684.623	8.12
685.379	7.12
686.135	7.12
686.89	9.12
687.646	9.12
688.402	8.12
689.157	7.12
689.912	8.12
690.668	9.12
691.423	7.12
692.178	8.12
692.933	9.12
693.688	8.12
694.443	8.12
695.198	8.12
695.953	6.12
696.708	9.12
697.462	9.12
698.217	8.12
698.972	8.12
699.726	8.12
700.48	8.12
701.235	8.12
701.989	8.12
702.743	7.12
703.497	10.12
704.251	6.12
705.005	7.12
705.759	9.12
706.513	8.12
707.266	8.12
708.02	5.12
708.774	5.12
709.527	8.12
710.28	6.12
711.034	8.12
711.787	6.12
712.54	7.12
713.293	8.12
714.046	9.12
714.799	8.12
715.552	9.12
716.305	9.12
717.058	7.12
717.81	8.12
718.563	7.12
719.315	8.12
720.068	7.12
720.82	8.12
721.573	8.12
722.325	6.12
723.077	9.12
723.829	7.12
724.581	9.12
725.333	9.12
726.085	4.12
726.836	11.12
727.588	10.12
728.34	9.12
729.091	9.12
729.843	9.12
730.594	9.12
731.346	7.12
732.097	11.12
732.848	9.12
733.599	10.12
734.35	9.12
735.101	10.12
735.852	9.12
736.603	8.12
737.354	8.12
738.104	10.12
738.855	11.12
739.605	11.12
740.356	11.12
741.106	10.12
741.856	10.12
742.607	13.12
743.357	11.12
744.107	11.12
744.857	11.12
745.607	9.12
746.357	10.12
747.106	12.12
747.856	12.12
748.606	13.12
749.355	12.12
750.105	12.12
750.854	12.12
751.603	11.12
752.353	11.12
753.102	12.12
753.851	13.12
754.6	12.12
755.349	15.12
756.098	13.12
756.847	11.12
757.595	14.12
758.344	13.12
759.093	12.12
759.841	12.12
760.589	15.12
761.338	13.12
762.086	16.12
762.834	15.12
763.582	13.12
764.331	12.12
765.079	14.12
765.826	14.12
766.574	17.12
767.322	14.12
768.07	17.12
768.817	15.12
769.565	16.12
770.312	17.12
771.06	16.12
771.807	15.12
772.554	13.12
773.302	17.12
774.049	14.12
774.796	15.12
775.543	19.12
776.29	16.12
777.036	19.12
777.783	19.12
778.53	17.12
779.276	17.12
780.023	13.12
780.769	17.12
781.516	17.12
782.262	17.12
783.008	19.12
783.754	18.12
784.5	18.12
785.246	17.12
785.992	14.12
786.738	17.12
787.484	19.12
788.23	15.12
788.975	18.12
789.721	15.12
790.466	15.12
791.212	16.12
791.957	15.12
792.702	15.12
793.447	17.12
794.193	11.12
794.938	15.12
795.683	15.12
796.427	15.12
797.172	13.12
797.917	13.12
798.662	14.12
799.406	15.12
800.151	10.12
800.895	11.12
801.64	11.12
802.384	13.12
803.128	12.12
803.872	13.12
804.616	10.12
805.36	11.12
806.104	10.12
806.848	11.12
807.592	10.12
808.336	10.12
809.079	10.12
809.823	8.12
810.566	12.12
811.31	9.12
812.053	12.12
812.796	9.12
813.539	10.12
814.283	10.12
815.026	10.12
815.769	12.12
816.511	8.12
817.254	10.12
817.997	10.12
818.74	6.12
819.482	6.12
820.225	6.12
820.967	7.12
821.71	9.12
822.452	5.12
823.194	6.12
823.936	6.12
824.678	10.12
825.42	9.12
826.162	8.12
826.904	8.12
827.646	7.12
828.388	6.12
829.129	4.12
829.871	5.12
830.612	7.12
831.354	8.12
832.095	3.12
832.836	6.12
833.577	6.12
834.319	3.12
835.06	8.12
835.801	7.12
836.542	8.12
837.282	4.12
838.023	4.12
838.764	5.12
839.504	5.12
840.245	7.12
840.985	6.12
841.726	3.12
842.466	4.12
843.206	4.12
843.946	6.12
844.687	6.12
845.427	3.12
846.166	4.12
846.906	4.12
847.646	6.12
848.386	3.12
849.125	5.12
849.865	6.12
850.605	3.12
851.344	4.12
852.083	2.12
852.823	7.12
853.562	4.12
854.301	5.12
855.04	5.12
855.779	6.12
856.518	5.12
857.257	1.12
857.995	3.12
858.734	4.12
859.473	4.12
860.211	5.12
860.95	3.12
861.688	3.12
862.426	3.12
863.165	4.12
863.903	4.12
864.641	5.12
865.379	1.12
866.117	1.12
866.855	3.12
867.593	3.12
868.33	2.12
869.068	4.12
869.806	3.12
870.543	3.12
871.28	2.12
872.018	3.12
872.755	4.12
873.492	2.12
874.229	2.12
874.967	2.12
875.703	3.12
876.44	2.12
877.177	2.12
877.914	2.12
878.651	2.12
879.387	3.12
880.124	2.12
880.86	3.12
881.597	3.12
882.333	2.12
883.069	3.12
883.806	3.12
884.542	2.12
885.278	2.12
886.014	1.12
886.749	1.12
887.485	1.12
888.221	2.12
888.957	2.12
889.692	2.12
890.428	2.12
891.163	3.12
891.899	1.12
892.634	0.12
893.369	0.12
894.104	1.12
894.839	0.12
895.574	4.12
896.309	0.12
897.044	1.12
897.779	2.12
898.514	2.12
899.248	1.12
899.983	1.12
900.717	-0.88
901.452	2.12
902.186	0.12
902.92	0.12
903.654	0.12
904.389	0.12
905.123	0.12
905.857	3.12
906.59	1.12
907.324	2.12
908.058	-0.88
908.792	1.12
909.525	3.12
910.259	2.12
910.992	2.12
911.726	2.12
912.459	2.12
913.192	1.12
913.925	-1.88
914.658	1.12
915.391	0.12
916.124	3.12
916.857	1.12
917.59	4.12
918.323	0.12
919.055	-1.88
919.788	3.12
920.521	2.12
921.253	1.12
921.985	2.12
922.718	0.12
923.45	1.12
924.182	0.12
924.914	-0.88
925.646	-2.88
926.378	0.12
927.11	-0.88
927.841	0.12
928.573	0.12
929.305	1.12
930.036	0.12
930.768	2.12
931.499	1.12
932.23	2.12
932.962	-0.88
933.693	0.12
934.424	0.12
935.155	0.12
935.886	2.12
936.617	-0.88
937.348	1.12
938.078	1.12
938.809	3.12
939.54	-0.88
940.27	-0.88
941.001	1.12
941.731	-0.88
942.461	1.12
943.191	1.12
943.922	0.12
944.652	0.12
945.382	2.12
946.112	-1.88
946.841	-0.88
947.571	1.12
948.301	1.12
949.031	0.12
949.76	-0.88
950.49	0.12
951.219	0.12
951.948	0.12
952.678	-0.88
953.407	-0.88
954.136	-0.88
954.865	1.12
955.594	1.12
956.323	0.12
957.052	0.12
957.78	1.12
958.509	1.12
959.238	-0.88
959.966	0.12
960.695	0.12
961.423	0.12
962.151	-0.88
962.88	0.12
963.608	-0.88
964.336	0.12
965.064	1.12
965.792	1.12
966.52	2.12
967.247	-0.88
967.975	-0.88
968.703	-0.88
969.43	-0.88
970.158	1.12
970.885	0.12
971.613	1.12
972.34	1.12
973.067	-0.88
973.794	1.12
974.521	-0.88
975.248	1.12
975.975	1.12
976.702	1.12
977.429	1.12
978.156	1.12
978.882	3.12
979.609	-0.88
980.335	1.12
981.062	2.12
981.788	1.12
982.514	1.12
983.24	1.12
983.967	0.12
984.693	1.12
985.419	1.12
986.144	0.12
986.87	-0.88
987.596	3.12
988.322	0.12
989.047	2.12
989.773	0.12
990.498	0.12
991.224	0.12
991.949	-0.88
992.674	1.12
993.399	0.12
994.124	1.12
994.849	-0.88
995.574	1.12
996.299	2.12
997.024	-0.88
997.749	2.12
998.473	0.12
999.198	1.12
999.922	1.12
1000.647	0.12
1001.371	4.12
1002.095	0.12
1002.82	-0.88
1003.544	0.12
1004.268	5.12
1004.992	6.12
1005.716	6.12
1006.439	5.12
1007.163	5.12
1007.887	5.12
1008.611	1.12
1009.334	-0.88
1010.058	1.12
1010.781	1.12
1011.504	3.12
1012.228	0.12
1012.951	-1.88
1013.674	0.12
1014.397	-1.88
1015.12	0.12
