节点500_705_QEPB04081__83__20-47-16-252.txt的数据

Date: Wed Nov 12 20:47:16 CST 2025
User: PC
Spectrometer: QEPB0408
触发模式: 0
积分时间 (秒): 1.000000E-2
Scans to average: 1
启用暗噪声校正: true
启用非线性校正: false
滑动平均宽度: 0
X轴模式: Wavelengths
Number of Pixels in Spectrum: 1044
>>>>>Begin Spectral Data<<<<<
220.843	7.12
221.644	7.12
222.444	4.12
223.244	6.12
224.045	6.12
224.845	8.12
225.645	8.12
226.445	9.12
227.245	9.12
228.045	6.12
228.845	7.12
229.645	8.12
230.444	10.12
231.244	9.12
232.043	7.12
232.843	9.12
233.642	9.12
234.442	11.12
235.241	10.12
236.04	10.12
236.839	11.12
237.638	11.12
238.437	11.12
239.236	12.12
240.035	13.12
240.833	11.12
241.632	12.12
242.43	15.12
243.229	15.12
244.027	16.12
244.826	15.12
245.624	14.12
246.422	15.12
247.22	15.12
248.018	17.12
248.816	15.12
249.614	16.12
250.412	15.12
251.21	18.12
252.007	19.12
252.805	18.12
253.602	21.12
254.4	19.12
255.197	19.12
255.994	20.12
256.791	22.12
257.589	23.12
258.386	25.12
259.183	25.12
259.979	21.12
260.776	26.12
261.573	24.12
262.37	24.12
263.166	27.12
263.963	27.12
264.759	29.12
265.556	27.12
266.352	29.12
267.148	26.12
267.944	31.12
268.74	34.12
269.536	34.12
270.332	31.12
271.128	32.12
271.924	34.12
272.719	34.12
273.515	33.12
274.311	35.12
275.106	33.12
275.901	35.12
276.697	35.12
277.492	36.12
278.287	35.12
279.082	37.12
279.877	38.12
280.672	36.12
281.467	38.12
282.262	34.12
283.056	35.12
283.851	38.12
284.646	33.12
285.44	37.12
286.234	36.12
287.029	34.12
287.823	33.12
288.617	33.12
289.411	35.12
290.205	34.12
290.999	31.12
291.793	30.12
292.587	34.12
293.381	34.12
294.174	31.12
294.968	31.12
295.761	29.12
296.555	29.12
297.348	31.12
298.141	26.12
298.935	31.12
299.728	25.12
300.521	25.12
301.314	26.12
302.107	26.12
302.899	23.12
303.692	19.12
304.485	24.12
305.277	22.12
306.07	22.12
306.862	21.12
307.655	21.12
308.447	21.12
309.239	20.12
310.031	20.12
310.823	17.12
311.615	16.12
312.407	19.12
313.199	17.12
313.991	18.12
314.783	15.12
315.574	17.12
316.366	14.12
317.157	14.12
317.949	14.12
318.74	15.12
319.531	15.12
320.322	13.12
321.113	15.12
321.904	15.12
322.695	12.12
323.486	13.12
324.277	15.12
325.068	17.12
325.858	15.12
326.649	12.12
327.439	14.12
328.23	12.12
329.02	13.12
329.81	12.12
330.6	11.12
331.391	13.12
332.181	14.12
332.971	13.12
333.76	12.12
334.55	13.12
335.34	12.12
336.13	11.12
336.919	13.12
337.709	12.12
338.498	13.12
339.287	15.12
340.077	12.12
340.866	12.12
341.655	13.12
342.444	13.12
343.233	14.12
344.022	12.12
344.811	12.12
345.6	9.12
346.388	11.12
347.177	11.12
347.965	11.12
348.754	11.12
349.542	13.12
350.33	11.12
351.119	9.12
351.907	10.12
352.695	11.12
353.483	11.12
354.271	9.12
355.059	12.12
355.846	10.12
356.634	9.12
357.422	11.12
358.209	10.12
358.997	11.12
359.784	10.12
360.571	8.12
361.359	9.12
362.146	8.12
362.933	10.12
363.72	10.12
364.507	9.12
365.294	11.12
366.081	10.12
366.867	9.12
367.654	10.12
368.44	10.12
369.227	11.12
370.013	9.12
370.8	10.12
371.586	11.12
372.372	8.12
373.158	9.12
373.944	11.12
374.73	11.12
375.516	11.12
376.302	10.12
377.088	8.12
377.873	11.12
378.659	9.12
379.445	11.12
380.23	8.12
381.015	9.12
381.801	11.12
382.586	10.12
383.371	11.12
384.156	12.12
384.941	9.12
385.726	12.12
386.511	12.12
387.296	10.12
388.08	13.12
388.865	13.12
389.649	13.12
390.434	13.12
391.218	14.12
392.003	11.12
392.787	13.12
393.571	13.12
394.355	16.12
395.139	13.12
395.923	12.12
396.707	13.12
397.491	13.12
398.274	13.12
399.058	12.12
399.842	12.12
400.625	16.12
401.408	14.12
402.192	14.12
402.975	13.12
403.758	14.12
404.541	16.12
405.324	16.12
406.107	15.12
406.89	18.12
407.673	18.12
408.456	15.12
409.238	17.12
410.021	20.12
410.803	17.12
411.586	15.12
412.368	21.12
413.151	17.12
413.933	18.12
414.715	17.12
415.497	21.12
416.279	21.12
417.061	22.12
417.843	21.12
418.624	22.12
419.406	20.12
420.188	23.12
420.969	22.12
421.751	22.12
422.532	25.12
423.313	22.12
424.095	25.12
424.876	29.12
425.657	26.12
426.438	27.12
427.219	26.12
428	27.12
428.78	29.12
429.561	27.12
430.342	31.12
431.122	31.12
431.903	34.12
432.683	38.12
433.464	34.12
434.244	37.12
435.024	41.12
435.804	43.12
436.584	43.12
437.364	47.12
438.144	47.12
438.924	50.12
439.704	55.12
440.483	54.12
441.263	59.12
442.042	63.12
442.822	72.12
443.601	71.12
444.38	80.12
445.16	84.12
445.939	95.12
446.718	101.12
447.497	112.12
448.276	117.12
449.054	128.12
449.833	141.12
450.612	150.12
451.391	166.12
452.169	183.12
452.948	202.12
453.726	223.12
454.504	243.12
455.282	277.12
456.061	308.12
456.839	341.12
457.617	389.12
458.395	430.12
459.172	477.12
459.95	534.12
460.728	606.12
461.506	671.12
462.283	748.12
463.061	832.12
463.838	931.12
464.615	1045.12
465.393	1171.12
466.17	1316.12
466.947	1444.12
467.724	1609.12
468.501	1804.12
469.278	2000.12
470.055	2215.12
470.831	2469.12
471.608	2724.12
472.385	3018.12
473.161	3351.12
473.938	3708.12
474.714	4104.12
475.49	4491.12
476.266	4955.12
477.043	5466.12
477.819	5993.12
478.595	6592.12
479.371	7214.12
480.146	7898.12
480.922	8662.12
481.698	9506.12
482.473	10407.12
483.249	11369.12
484.024	12354.12
484.8	13512.12
485.575	14666.12
486.35	15953.12
487.126	17318.12
487.901	18769.12
488.676	20325.12
489.451	22067.12
490.225	23712.12
491	25460.12
491.775	27355.12
492.55	29237.12
493.324	31183.12
494.099	33056.12
494.873	35061.12
495.647	37018.12
496.422	39018.12
497.196	40816.12
497.97	42541.12
498.744	44123.12
499.518	45706.12
500.292	46954.12
501.066	47957.12
501.839	48698.12
502.613	49231.12
503.387	49727.12
504.16	49924.12
504.934	49806.12
505.707	49373.12
506.48	48706.12
507.253	47984.12
508.027	47069.12
508.8	45787.12
509.573	44452.12
510.346	43191.12
511.118	41817.12
511.891	40346.12
512.664	38667.12
513.437	37136.12
514.209	35593.12
514.982	34207.12
515.754	32725.12
516.526	31314.12
517.298	30111.12
518.071	28867.12
518.843	27663.12
519.615	26565.12
520.387	25508.12
521.159	24479.12
521.93	23411.12
522.702	22426.12
523.474	21501.12
524.245	20598.12
525.017	19592.12
525.788	18743.12
526.56	17947.12
527.331	17096.12
528.102	16265.12
528.873	15324.12
529.644	14642.12
530.415	13879.12
531.186	13195.12
531.957	12476.12
532.728	11833.12
533.498	11151.12
534.269	10572.12
535.039	9973.12
535.81	9463.12
536.58	8948.12
537.351	8441.12
538.121	8008.12
538.891	7563.12
539.661	7190.12
540.431	6739.12
541.201	6426.12
541.971	6068.12
542.741	5755.12
543.51	5468.12
544.28	5219.12
545.05	4977.12
545.819	4733.12
546.588	4515.12
547.358	4293.12
548.127	4076.12
548.896	3877.12
549.665	3641.12
550.434	3478.12
551.203	3270.12
551.972	3114.12
552.741	2939.12
553.51	2778.12
554.278	2603.12
555.047	2452.12
555.815	2325.12
556.584	2211.12
557.352	2075.12
558.121	1957.12
558.889	1862.12
559.657	1749.12
560.425	1663.12
561.193	1563.12
561.961	1479.12
562.729	1415.12
563.496	1318.12
564.264	1257.12
565.032	1186.12
565.799	1128.12
566.567	1064.12
567.334	1003.12
568.101	947.12
568.869	888.12
569.636	848.12
570.403	798.12
571.17	754.12
571.937	713.12
572.704	681.12
573.471	648.12
574.237	599.12
575.004	576.12
575.771	538.12
576.537	506.12
577.303	469.12
578.07	448.12
578.836	420.12
579.602	404.12
580.368	378.12
581.134	358.12
581.9	342.12
582.666	327.12
583.432	309.12
584.198	290.12
584.964	275.12
585.729	265.12
586.495	253.12
587.26	235.12
588.025	226.12
588.791	214.12
589.556	204.12
590.321	193.12
591.086	185.12
591.851	175.12
592.616	166.12
593.381	162.12
594.146	149.12
594.911	143.12
595.675	137.12
596.44	130.12
597.204	128.12
597.969	120.12
598.733	117.12
599.497	114.12
600.261	108.12
601.025	104.12
601.79	98.12
602.553	93.12
603.317	92.12
604.081	89.12
604.845	81.12
605.609	79.12
606.372	75.12
607.136	74.12
607.899	70.12
608.662	70.12
609.426	65.12
610.189	64.12
610.952	60.12
611.715	62.12
612.478	59.12
613.241	56.12
614.004	51.12
614.767	51.12
615.529	47.12
616.292	47.12
617.055	48.12
617.817	42.12
618.579	41.12
619.342	43.12
620.104	43.12
620.866	39.12
621.628	38.12
622.39	38.12
623.152	35.12
623.914	36.12
624.676	34.12
625.438	29.12
626.199	32.12
626.961	33.12
627.722	31.12
628.484	29.12
629.245	27.12
630.006	27.12
630.768	26.12
631.529	27.12
632.29	23.12
633.051	26.12
633.812	26.12
634.573	24.12
635.333	24.12
636.094	22.12
636.855	23.12
637.615	21.12
638.376	22.12
639.136	23.12
639.896	20.12
640.657	19.12
641.417	19.12
642.177	19.12
642.937	18.12
643.697	17.12
644.457	18.12
645.216	17.12
645.976	17.12
646.736	15.12
647.495	16.12
648.255	17.12
649.014	14.12
649.774	14.12
650.533	14.12
651.292	15.12
652.051	13.12
652.81	13.12
653.569	14.12
654.328	13.12
655.087	12.12
655.846	12.12
656.604	15.12
657.363	13.12
658.121	12.12
658.88	11.12
659.638	10.12
660.397	14.12
661.155	10.12
661.913	11.12
662.671	13.12
663.429	11.12
664.187	12.12
664.945	11.12
665.703	8.12
666.46	11.12
667.218	13.12
667.976	10.12
668.733	10.12
669.49	7.12
670.248	8.12
671.005	10.12
671.762	9.12
672.519	10.12
673.276	11.12
674.033	8.12
674.79	9.12
675.547	11.12
676.304	9.12
677.06	10.12
677.817	10.12
678.574	8.12
679.33	8.12
680.086	6.12
680.843	11.12
681.599	8.12
682.355	9.12
683.111	8.12
683.867	7.12
684.623	9.12
685.379	6.12
686.135	9.12
686.89	7.12
687.646	10.12
688.402	5.12
689.157	7.12
689.912	7.12
690.668	5.12
691.423	9.12
692.178	8.12
692.933	9.12
693.688	4.12
694.443	9.12
695.198	9.12
695.953	9.12
696.708	7.12
697.462	7.12
698.217	7.12
698.972	9.12
699.726	9.12
700.48	8.12
701.235	7.12
701.989	8.12
702.743	7.12
703.497	7.12
704.251	9.12
705.005	5.12
705.759	6.12
706.513	6.12
707.266	9.12
708.02	8.12
708.774	7.12
709.527	10.12
710.28	5.12
711.034	8.12
711.787	7.12
712.54	10.12
713.293	8.12
714.046	6.12
714.799	9.12
715.552	8.12
716.305	8.12
717.058	9.12
717.81	7.12
718.563	10.12
719.315	8.12
720.068	9.12
720.82	8.12
721.573	8.12
722.325	8.12
723.077	11.12
723.829	9.12
724.581	6.12
725.333	9.12
726.085	8.12
726.836	10.12
727.588	10.12
728.34	8.12
729.091	10.12
729.843	9.12
730.594	12.12
731.346	11.12
732.097	9.12
732.848	10.12
733.599	10.12
734.35	12.12
735.101	10.12
735.852	10.12
736.603	8.12
737.354	11.12
738.104	8.12
738.855	9.12
739.605	10.12
740.356	10.12
741.106	10.12
741.856	8.12
742.607	10.12
743.357	10.12
744.107	11.12
744.857	8.12
745.607	11.12
746.357	13.12
747.106	12.12
747.856	11.12
748.606	12.12
749.355	12.12
750.105	12.12
750.854	12.12
751.603	12.12
752.353	11.12
753.102	13.12
753.851	12.12
754.6	9.12
755.349	12.12
756.098	13.12
756.847	12.12
757.595	12.12
758.344	12.12
759.093	15.12
759.841	12.12
760.589	11.12
761.338	11.12
762.086	14.12
762.834	11.12
763.582	14.12
764.331	17.12
765.079	17.12
765.826	12.12
766.574	15.12
767.322	14.12
768.07	16.12
768.817	15.12
769.565	13.12
770.312	15.12
771.06	15.12
771.807	17.12
772.554	15.12
773.302	17.12
774.049	15.12
774.796	16.12
775.543	17.12
776.29	15.12
777.036	20.12
777.783	15.12
778.53	16.12
779.276	16.12
780.023	16.12
780.769	17.12
781.516	15.12
782.262	18.12
783.008	16.12
783.754	17.12
784.5	15.12
785.246	17.12
785.992	17.12
786.738	17.12
787.484	16.12
788.23	15.12
788.975	16.12
789.721	16.12
790.466	15.12
791.212	14.12
791.957	13.12
792.702	15.12
793.447	15.12
794.193	14.12
794.938	15.12
795.683	11.12
796.427	16.12
797.172	12.12
797.917	15.12
798.662	13.12
799.406	13.12
800.151	14.12
800.895	12.12
801.64	12.12
802.384	13.12
803.128	12.12
803.872	12.12
804.616	14.12
805.36	11.12
806.104	12.12
806.848	10.12
807.592	10.12
808.336	11.12
809.079	11.12
809.823	13.12
810.566	9.12
811.31	7.12
812.053	10.12
812.796	9.12
813.539	10.12
814.283	10.12
815.026	10.12
815.769	10.12
816.511	9.12
817.254	9.12
817.997	7.12
818.74	9.12
819.482	8.12
820.225	9.12
820.967	6.12
821.71	10.12
822.452	8.12
823.194	7.12
823.936	7.12
824.678	7.12
825.42	9.12
826.162	8.12
826.904	9.12
827.646	9.12
828.388	7.12
829.129	6.12
829.871	8.12
830.612	5.12
831.354	8.12
832.095	7.12
832.836	3.12
833.577	6.12
834.319	6.12
835.06	6.12
835.801	6.12
836.542	6.12
837.282	5.12
838.023	1.12
838.764	7.12
839.504	7.12
840.245	8.12
840.985	5.12
841.726	6.12
842.466	8.12
843.206	6.12
843.946	6.12
844.687	5.12
845.427	8.12
846.166	7.12
846.906	5.12
847.646	5.12
848.386	5.12
849.125	4.12
849.865	5.12
850.605	6.12
851.344	5.12
852.083	2.12
852.823	5.12
853.562	6.12
854.301	5.12
855.04	4.12
855.779	3.12
856.518	2.12
857.257	4.12
857.995	4.12
858.734	4.12
859.473	6.12
860.211	5.12
860.95	3.12
861.688	4.12
862.426	3.12
863.165	2.12
863.903	3.12
864.641	2.12
865.379	2.12
866.117	3.12
866.855	4.12
867.593	5.12
868.33	2.12
869.068	3.12
869.806	2.12
870.543	3.12
871.28	1.12
872.018	2.12
872.755	2.12
873.492	3.12
874.229	3.12
874.967	0.12
875.703	1.12
876.44	1.12
877.177	0.12
877.914	1.12
878.651	4.12
879.387	2.12
880.124	3.12
880.86	4.12
881.597	4.12
882.333	1.12
883.069	1.12
883.806	2.12
884.542	2.12
885.278	3.12
886.014	2.12
886.749	2.12
887.485	1.12
888.221	3.12
888.957	1.12
889.692	3.12
890.428	2.12
891.163	-0.88
891.899	2.12
892.634	-0.88
893.369	2.12
894.104	1.12
894.839	1.12
895.574	2.12
896.309	2.12
897.044	3.12
897.779	0.12
898.514	1.12
899.248	2.12
899.983	0.12
900.717	1.12
901.452	0.12
902.186	1.12
902.92	1.12
903.654	0.12
904.389	1.12
905.123	2.12
905.857	2.12
906.59	0.12
907.324	3.12
908.058	1.12
908.792	3.12
909.525	0.12
910.259	1.12
910.992	1.12
911.726	-1.88
912.459	1.12
913.192	1.12
913.925	2.12
914.658	-1.88
915.391	0.12
916.124	0.12
916.857	1.12
917.59	2.12
918.323	1.12
919.055	-0.88
919.788	2.12
920.521	-0.88
921.253	1.12
921.985	0.12
922.718	-1.88
923.45	4.12
924.182	0.12
924.914	0.12
925.646	-0.88
926.378	1.12
927.11	1.12
927.841	1.12
928.573	-0.88
929.305	1.12
930.036	-0.88
930.768	1.12
931.499	-0.88
932.23	0.12
932.962	0.12
933.693	1.12
934.424	-0.88
935.155	0.12
935.886	1.12
936.617	0.12
937.348	0.12
938.078	-1.88
938.809	-0.88
939.54	1.12
940.27	0.12
941.001	2.12
941.731	2.12
942.461	3.12
943.191	2.12
943.922	3.12
944.652	2.12
945.382	1.12
946.112	0.12
946.841	-0.88
947.571	2.12
948.301	0.12
949.031	1.12
949.76	2.12
950.49	-0.88
951.219	1.12
951.948	1.12
952.678	0.12
953.407	-0.88
954.136	-2.88
954.865	1.12
955.594	-0.88
956.323	0.12
957.052	1.12
957.78	-1.88
958.509	0.12
959.238	-0.88
959.966	-0.88
960.695	0.12
961.423	2.12
962.151	1.12
962.88	-2.88
963.608	0.12
964.336	0.12
965.064	-0.88
965.792	1.12
966.52	2.12
967.247	2.12
967.975	-0.88
968.703	0.12
969.43	-0.88
970.158	-0.88
970.885	2.12
971.613	1.12
972.34	1.12
973.067	-1.88
973.794	0.12
974.521	0.12
975.248	3.12
975.975	0.12
976.702	0.12
977.429	0.12
978.156	0.12
978.882	-0.88
979.609	0.12
980.335	1.12
981.062	0.12
981.788	0.12
982.514	1.12
983.24	0.12
983.967	0.12
984.693	-0.88
985.419	0.12
986.144	1.12
986.87	1.12
987.596	1.12
988.322	-0.88
989.047	2.12
989.773	0.12
990.498	-1.88
991.224	1.12
991.949	-0.88
992.674	1.12
993.399	-0.88
994.124	-0.88
994.849	-0.88
995.574	0.12
996.299	1.12
997.024	-0.88
997.749	2.12
998.473	1.12
999.198	-0.88
999.922	1.12
1000.647	0.12
1001.371	3.12
1002.095	-0.88
1002.82	-0.88
1003.544	-0.88
1004.268	5.12
1004.992	5.12
1005.716	7.12
1006.439	7.12
1007.163	3.12
1007.887	4.12
1008.611	0.12
1009.334	-0.88
1010.058	1.12
1010.781	3.12
1011.504	0.12
1012.228	1.12
1012.951	0.12
1013.674	1.12
1014.397	0.12
1015.12	-1.88
