节点500_705_QEPB04081__122__20-47-55-087.txt的数据

Date: Wed Nov 12 20:47:55 CST 2025
User: PC
Spectrometer: QEPB0408
触发模式: 0
积分时间 (秒): 1.000000E-2
Scans to average: 1
启用暗噪声校正: true
启用非线性校正: false
滑动平均宽度: 0
X轴模式: Wavelengths
Number of Pixels in Spectrum: 1044
>>>>>Begin Spectral Data<<<<<
220.843	5.25
221.644	8.25
222.444	4.25
223.244	4.25
224.045	4.25
224.845	6.25
225.645	5.25
226.445	6.25
227.245	4.25
228.045	7.25
228.845	7.25
229.645	6.25
230.444	9.25
231.244	8.25
232.043	9.25
232.843	7.25
233.642	6.25
234.442	9.25
235.241	7.25
236.04	10.25
236.839	11.25
237.638	9.25
238.437	14.25
239.236	10.25
240.035	12.25
240.833	10.25
241.632	13.25
242.43	13.25
243.229	10.25
244.027	14.25
244.826	13.25
245.624	13.25
246.422	12.25
247.22	14.25
248.018	15.25
248.816	15.25
249.614	18.25
250.412	14.25
251.21	16.25
252.007	18.25
252.805	16.25
253.602	21.25
254.4	19.25
255.197	18.25
255.994	19.25
256.791	19.25
257.589	22.25
258.386	22.25
259.183	23.25
259.979	23.25
260.776	25.25
261.573	24.25
262.37	26.25
263.166	23.25
263.963	25.25
264.759	29.25
265.556	28.25
266.352	27.25
267.148	30.25
267.944	29.25
268.74	32.25
269.536	29.25
270.332	30.25
271.128	33.25
271.924	31.25
272.719	34.25
273.515	35.25
274.311	31.25
275.106	34.25
275.901	35.25
276.697	34.25
277.492	32.25
278.287	36.25
279.082	38.25
279.877	33.25
280.672	33.25
281.467	34.25
282.262	33.25
283.056	34.25
283.851	35.25
284.646	36.25
285.44	32.25
286.234	32.25
287.029	35.25
287.823	32.25
288.617	35.25
289.411	33.25
290.205	33.25
290.999	32.25
291.793	36.25
292.587	30.25
293.381	28.25
294.174	30.25
294.968	27.25
295.761	26.25
296.555	24.25
297.348	28.25
298.141	23.25
298.935	29.25
299.728	28.25
300.521	24.25
301.314	26.25
302.107	22.25
302.899	22.25
303.692	21.25
304.485	22.25
305.277	22.25
306.07	22.25
306.862	19.25
307.655	20.25
308.447	22.25
309.239	17.25
310.031	18.25
310.823	19.25
311.615	19.25
312.407	18.25
313.199	17.25
313.991	16.25
314.783	16.25
315.574	16.25
316.366	16.25
317.157	12.25
317.949	13.25
318.74	14.25
319.531	13.25
320.322	15.25
321.113	14.25
321.904	14.25
322.695	13.25
323.486	16.25
324.277	14.25
325.068	14.25
325.858	15.25
326.649	12.25
327.439	16.25
328.23	12.25
329.02	10.25
329.81	8.25
330.6	12.25
331.391	11.25
332.181	13.25
332.971	10.25
333.76	13.25
334.55	11.25
335.34	11.25
336.13	12.25
336.919	11.25
337.709	10.25
338.498	10.25
339.287	13.25
340.077	12.25
340.866	12.25
341.655	12.25
342.444	12.25
343.233	12.25
344.022	10.25
344.811	11.25
345.6	11.25
346.388	12.25
347.177	12.25
347.965	9.25
348.754	10.25
349.542	10.25
350.33	12.25
351.119	9.25
351.907	11.25
352.695	10.25
353.483	9.25
354.271	9.25
355.059	12.25
355.846	9.25
356.634	8.25
357.422	10.25
358.209	9.25
358.997	9.25
359.784	10.25
360.571	7.25
361.359	9.25
362.146	9.25
362.933	9.25
363.72	8.25
364.507	10.25
365.294	9.25
366.081	10.25
366.867	12.25
367.654	11.25
368.44	7.25
369.227	10.25
370.013	7.25
370.8	10.25
371.586	8.25
372.372	11.25
373.158	7.25
373.944	7.25
374.73	9.25
375.516	10.25
376.302	10.25
377.088	7.25
377.873	9.25
378.659	9.25
379.445	9.25
380.23	11.25
381.015	7.25
381.801	11.25
382.586	9.25
383.371	8.25
384.156	11.25
384.941	9.25
385.726	11.25
386.511	9.25
387.296	11.25
388.08	11.25
388.865	10.25
389.649	11.25
390.434	10.25
391.218	11.25
392.003	11.25
392.787	11.25
393.571	14.25
394.355	12.25
395.139	12.25
395.923	13.25
396.707	12.25
397.491	14.25
398.274	15.25
399.058	14.25
399.842	12.25
400.625	13.25
401.408	13.25
402.192	13.25
402.975	14.25
403.758	13.25
404.541	14.25
405.324	13.25
406.107	15.25
406.89	14.25
407.673	16.25
408.456	14.25
409.238	14.25
410.021	16.25
410.803	19.25
411.586	20.25
412.368	16.25
413.151	16.25
413.933	14.25
414.715	18.25
415.497	19.25
416.279	16.25
417.061	19.25
417.843	19.25
418.624	16.25
419.406	16.25
420.188	25.25
420.969	20.25
421.751	20.25
422.532	19.25
423.313	24.25
424.095	22.25
424.876	25.25
425.657	24.25
426.438	26.25
427.219	25.25
428	24.25
428.78	29.25
429.561	30.25
430.342	29.25
431.122	32.25
431.903	31.25
432.683	35.25
433.464	34.25
434.244	37.25
435.024	38.25
435.804	40.25
436.584	42.25
437.364	41.25
438.144	46.25
438.924	50.25
439.704	56.25
440.483	58.25
441.263	60.25
442.042	61.25
442.822	68.25
443.601	68.25
444.38	78.25
445.16	82.25
445.939	92.25
446.718	97.25
447.497	110.25
448.276	116.25
449.054	126.25
449.833	138.25
450.612	153.25
451.391	168.25
452.169	186.25
452.948	212.25
453.726	225.25
454.504	263.25
455.282	288.25
456.061	312.25
456.839	352.25
457.617	383.25
458.395	438.25
459.172	483.25
459.95	546.25
460.728	610.25
461.506	672.25
462.283	757.25
463.061	841.25
463.838	951.25
464.615	1064.25
465.393	1192.25
466.17	1312.25
466.947	1472.25
467.724	1630.25
468.501	1795.25
469.278	1993.25
470.055	2233.25
470.831	2463.25
471.608	2730.25
472.385	3041.25
473.161	3358.25
473.938	3686.25
474.714	4074.25
475.49	4496.25
476.266	4980.25
477.043	5428.25
477.819	5960.25
478.595	6551.25
479.371	7196.25
480.146	7872.25
480.922	8607.25
481.698	9419.25
482.473	10310.25
483.249	11249.25
484.024	12247.25
484.8	13325.25
485.575	14516.25
486.35	15790.25
487.126	17159.25
487.901	18539.25
488.676	20097.25
489.451	21730.25
490.225	23406.25
491	25182.25
491.775	26993.25
492.55	28842.25
493.324	30768.25
494.099	32666.25
494.873	34602.25
495.647	36420.25
496.422	38493.25
497.196	40321.25
497.97	41999.25
498.744	43585.25
499.518	45129.25
500.292	46470.25
501.066	47442.25
501.839	48170.25
502.613	48784.25
503.387	49296.25
504.16	49634.25
504.934	49416.25
505.707	49127.25
506.48	48457.25
507.253	47736.25
508.027	46906.25
508.8	45707.25
509.573	44384.25
510.346	43178.25
511.118	41842.25
511.891	40459.25
512.664	38866.25
513.437	37312.25
514.209	35814.25
514.982	34322.25
515.754	32823.25
516.526	31458.25
517.298	30200.25
518.071	28994.25
518.843	27818.25
519.615	26656.25
520.387	25704.25
521.159	24609.25
521.93	23556.25
522.702	22556.25
523.474	21610.25
524.245	20674.25
525.017	19687.25
525.788	18813.25
526.56	18020.25
527.331	17211.25
528.102	16323.25
528.873	15454.25
529.644	14744.25
530.415	14007.25
531.186	13298.25
531.957	12550.25
532.728	11882.25
533.498	11255.25
534.269	10665.25
535.039	10060.25
535.81	9556.25
536.58	9015.25
537.351	8535.25
538.121	8083.25
538.891	7622.25
539.661	7268.25
540.431	6869.25
541.201	6498.25
541.971	6175.25
542.741	5824.25
543.51	5530.25
544.28	5266.25
545.05	5000.25
545.819	4770.25
546.588	4547.25
547.358	4346.25
548.127	4102.25
548.896	3912.25
549.665	3689.25
550.434	3487.25
551.203	3317.25
551.972	3120.25
552.741	2965.25
553.51	2794.25
554.278	2644.25
555.047	2479.25
555.815	2350.25
556.584	2216.25
557.352	2113.25
558.121	1991.25
558.889	1874.25
559.657	1776.25
560.425	1673.25
561.193	1596.25
561.961	1490.25
562.729	1415.25
563.496	1342.25
564.264	1255.25
565.032	1200.25
565.799	1128.25
566.567	1079.25
567.334	1013.25
568.101	968.25
568.869	897.25
569.636	864.25
570.403	798.25
571.17	762.25
571.937	727.25
572.704	685.25
573.471	650.25
574.237	611.25
575.004	568.25
575.771	531.25
576.537	499.25
577.303	478.25
578.07	455.25
578.836	428.25
579.602	402.25
580.368	386.25
581.134	362.25
581.9	348.25
582.666	334.25
583.432	320.25
584.198	292.25
584.964	284.25
585.729	269.25
586.495	257.25
587.26	237.25
588.025	227.25
588.791	219.25
589.556	208.25
590.321	194.25
591.086	191.25
591.851	181.25
592.616	165.25
593.381	159.25
594.146	150.25
594.911	146.25
595.675	139.25
596.44	134.25
597.204	126.25
597.969	121.25
598.733	116.25
599.497	114.25
600.261	105.25
601.025	106.25
601.79	103.25
602.553	96.25
603.317	90.25
604.081	83.25
604.845	85.25
605.609	79.25
606.372	71.25
607.136	75.25
607.899	69.25
608.662	70.25
609.426	66.25
610.189	63.25
610.952	57.25
611.715	61.25
612.478	58.25
613.241	54.25
614.004	52.25
614.767	51.25
615.529	51.25
616.292	48.25
617.055	45.25
617.817	44.25
618.579	41.25
619.342	44.25
620.104	42.25
620.866	42.25
621.628	36.25
622.39	35.25
623.152	36.25
623.914	32.25
624.676	36.25
625.438	30.25
626.199	29.25
626.961	31.25
627.722	28.25
628.484	28.25
629.245	29.25
630.006	29.25
630.768	26.25
631.529	25.25
632.29	26.25
633.051	26.25
633.812	23.25
634.573	22.25
635.333	22.25
636.094	22.25
636.855	20.25
637.615	20.25
638.376	22.25
639.136	20.25
639.896	18.25
640.657	21.25
641.417	18.25
642.177	15.25
642.937	17.25
643.697	16.25
644.457	15.25
645.216	14.25
645.976	17.25
646.736	17.25
647.495	15.25
648.255	16.25
649.014	14.25
649.774	14.25
650.533	14.25
651.292	14.25
652.051	13.25
652.81	13.25
653.569	10.25
654.328	10.25
655.087	12.25
655.846	14.25
656.604	10.25
657.363	11.25
658.121	12.25
658.88	10.25
659.638	11.25
660.397	10.25
661.155	10.25
661.913	10.25
662.671	10.25
663.429	12.25
664.187	10.25
664.945	10.25
665.703	9.25
666.46	11.25
667.218	10.25
667.976	7.25
668.733	8.25
669.49	6.25
670.248	8.25
671.005	8.25
671.762	5.25
672.519	10.25
673.276	8.25
674.033	9.25
674.79	10.25
675.547	7.25
676.304	7.25
677.06	6.25
677.817	7.25
678.574	6.25
679.33	9.25
680.086	10.25
680.843	10.25
681.599	7.25
682.355	8.25
683.111	9.25
683.867	7.25
684.623	6.25
685.379	8.25
686.135	8.25
686.89	9.25
687.646	8.25
688.402	8.25
689.157	5.25
689.912	9.25
690.668	7.25
691.423	7.25
692.178	7.25
692.933	8.25
693.688	4.25
694.443	7.25
695.198	6.25
695.953	6.25
696.708	8.25
697.462	6.25
698.217	6.25
698.972	7.25
699.726	8.25
700.48	4.25
701.235	7.25
701.989	8.25
702.743	7.25
703.497	7.25
704.251	8.25
705.005	8.25
705.759	4.25
706.513	8.25
707.266	4.25
708.02	7.25
708.774	8.25
709.527	8.25
710.28	11.25
711.034	7.25
711.787	8.25
712.54	5.25
713.293	8.25
714.046	5.25
714.799	8.25
715.552	7.25
716.305	7.25
717.058	8.25
717.81	7.25
718.563	10.25
719.315	10.25
720.068	6.25
720.82	8.25
721.573	7.25
722.325	8.25
723.077	9.25
723.829	6.25
724.581	9.25
725.333	7.25
726.085	7.25
726.836	8.25
727.588	9.25
728.34	6.25
729.091	5.25
729.843	8.25
730.594	5.25
731.346	8.25
732.097	10.25
732.848	8.25
733.599	6.25
734.35	8.25
735.101	9.25
735.852	8.25
736.603	11.25
737.354	7.25
738.104	7.25
738.855	9.25
739.605	8.25
740.356	9.25
741.106	12.25
741.856	8.25
742.607	11.25
743.357	8.25
744.107	9.25
744.857	10.25
745.607	9.25
746.357	10.25
747.106	10.25
747.856	9.25
748.606	12.25
749.355	9.25
750.105	10.25
750.854	13.25
751.603	10.25
752.353	9.25
753.102	11.25
753.851	12.25
754.6	12.25
755.349	12.25
756.098	10.25
756.847	13.25
757.595	12.25
758.344	13.25
759.093	13.25
759.841	14.25
760.589	10.25
761.338	12.25
762.086	14.25
762.834	14.25
763.582	14.25
764.331	11.25
765.079	13.25
765.826	13.25
766.574	12.25
767.322	14.25
768.07	16.25
768.817	13.25
769.565	14.25
770.312	16.25
771.06	14.25
771.807	15.25
772.554	16.25
773.302	13.25
774.049	15.25
774.796	14.25
775.543	19.25
776.29	15.25
777.036	13.25
777.783	16.25
778.53	15.25
779.276	16.25
780.023	15.25
780.769	16.25
781.516	18.25
782.262	14.25
783.008	14.25
783.754	16.25
784.5	18.25
785.246	15.25
785.992	13.25
786.738	18.25
787.484	13.25
788.23	17.25
788.975	14.25
789.721	14.25
790.466	16.25
791.212	13.25
791.957	16.25
792.702	17.25
793.447	14.25
794.193	12.25
794.938	16.25
795.683	15.25
796.427	12.25
797.172	13.25
797.917	13.25
798.662	12.25
799.406	14.25
800.151	12.25
800.895	12.25
801.64	14.25
802.384	10.25
803.128	8.25
803.872	11.25
804.616	9.25
805.36	9.25
806.104	9.25
806.848	8.25
807.592	10.25
808.336	11.25
809.079	10.25
809.823	13.25
810.566	10.25
811.31	10.25
812.053	10.25
812.796	10.25
813.539	9.25
814.283	9.25
815.026	8.25
815.769	7.25
816.511	9.25
817.254	9.25
817.997	6.25
818.74	6.25
819.482	6.25
820.225	7.25
820.967	4.25
821.71	4.25
822.452	5.25
823.194	3.25
823.936	7.25
824.678	7.25
825.42	8.25
826.162	10.25
826.904	6.25
827.646	7.25
828.388	6.25
829.129	5.25
829.871	6.25
830.612	7.25
831.354	6.25
832.095	4.25
832.836	4.25
833.577	5.25
834.319	5.25
835.06	6.25
835.801	5.25
836.542	5.25
837.282	5.25
838.023	7.25
838.764	5.25
839.504	7.25
840.245	3.25
840.985	5.25
841.726	5.25
842.466	4.25
843.206	5.25
843.946	3.25
844.687	4.25
845.427	3.25
846.166	3.25
846.906	3.25
847.646	6.25
848.386	6.25
849.125	4.25
849.865	4.25
850.605	2.25
851.344	6.25
852.083	4.25
852.823	6.25
853.562	4.25
854.301	4.25
855.04	5.25
855.779	2.25
856.518	2.25
857.257	5.25
857.995	4.25
858.734	3.25
859.473	3.25
860.211	3.25
860.95	4.25
861.688	2.25
862.426	3.25
863.165	4.25
863.903	1.25
864.641	3.25
865.379	1.25
866.117	1.25
866.855	2.25
867.593	2.25
868.33	2.25
869.068	3.25
869.806	2.25
870.543	1.25
871.28	0.25
872.018	2.25
872.755	2.25
873.492	3.25
874.229	2.25
874.967	0.25
875.703	1.25
876.44	2.25
877.177	-0.75
877.914	1.25
878.651	4.25
879.387	1.25
880.124	1.25
880.86	1.25
881.597	2.25
882.333	1.25
883.069	2.25
883.806	0.25
884.542	0.25
885.278	-1.75
886.014	2.25
886.749	1.25
887.485	-0.75
888.221	0.25
888.957	2.25
889.692	-0.75
890.428	0.25
891.163	1.25
891.899	-0.75
892.634	0.25
893.369	1.25
894.104	2.25
894.839	0.25
895.574	2.25
896.309	-0.75
897.044	0.25
897.779	2.25
898.514	0.25
899.248	-0.75
899.983	1.25
900.717	-0.75
901.452	-1.75
902.186	0.25
902.92	0.25
903.654	-1.75
904.389	1.25
905.123	-0.75
905.857	-0.75
906.59	-0.75
907.324	0.25
908.058	1.25
908.792	1.25
909.525	0.25
910.259	-0.75
910.992	-0.75
911.726	-0.75
912.459	0.25
913.192	0.25
913.925	0.25
914.658	-1.75
915.391	1.25
916.124	0.25
916.857	0.25
917.59	0.25
918.323	-0.75
919.055	-1.75
919.788	0.25
920.521	1.25
921.253	-0.75
921.985	-1.75
922.718	0.25
923.45	1.25
924.182	-0.75
924.914	-0.75
925.646	-1.75
926.378	0.25
927.11	0.25
927.841	2.25
928.573	0.25
929.305	0.25
930.036	0.25
930.768	0.25
931.499	1.25
932.23	-0.75
932.962	-0.75
933.693	1.25
934.424	0.25
935.155	1.25
935.886	-0.75
936.617	1.25
937.348	-1.75
938.078	0.25
938.809	0.25
939.54	0.25
940.27	-0.75
941.001	-1.75
941.731	0.25
942.461	0.25
943.191	2.25
943.922	0.25
944.652	-1.75
945.382	0.25
946.112	1.25
946.841	2.25
947.571	2.25
948.301	0.25
949.031	0.25
949.76	0.25
950.49	-1.75
951.219	-0.75
951.948	2.25
952.678	-1.75
953.407	-1.75
954.136	1.25
954.865	0.25
955.594	1.25
956.323	0.25
957.052	-1.75
957.78	-0.75
958.509	-1.75
959.238	0.25
959.966	-2.75
960.695	-0.75
961.423	1.25
962.151	-0.75
962.88	-0.75
963.608	-1.75
964.336	2.25
965.064	-1.75
965.792	0.25
966.52	-1.75
967.247	-0.75
967.975	-1.75
968.703	-1.75
969.43	-0.75
970.158	0.25
970.885	1.25
971.613	-0.75
972.34	-0.75
973.067	2.25
973.794	0.25
974.521	2.25
975.248	0.25
975.975	2.25
976.702	0.25
977.429	-1.75
978.156	0.25
978.882	-1.75
979.609	-0.75
980.335	0.25
981.062	-1.75
981.788	-1.75
982.514	-1.75
983.24	0.25
983.967	0.25
984.693	1.25
985.419	-1.75
986.144	-0.75
986.87	0.25
987.596	-1.75
988.322	1.25
989.047	2.25
989.773	-0.75
990.498	0.25
991.224	-1.75
991.949	0.25
992.674	0.25
993.399	0.25
994.124	1.25
994.849	-1.75
995.574	0.25
996.299	-1.75
997.024	0.25
997.749	1.25
998.473	0.25
999.198	-1.75
999.922	-0.75
1000.647	0.25
1001.371	2.25
1002.095	-2.75
1002.82	-1.75
1003.544	0.25
1004.268	2.25
1004.992	2.25
1005.716	5.25
1006.439	4.25
1007.163	6.25
1007.887	5.25
1008.611	0.25
1009.334	-0.75
1010.058	0.25
1010.781	-0.75
1011.504	-1.75
1012.228	-0.75
1012.951	2.25
1013.674	0.25
1014.397	-1.75
1015.12	1.25
