节点500_705_QEPB04081__56__20-46-49-287.txt的数据

Date: Wed Nov 12 20:46:49 CST 2025
User: PC
Spectrometer: QEPB0408
触发模式: 0
积分时间 (秒): 1.000000E-2
Scans to average: 1
启用暗噪声校正: true
启用非线性校正: false
滑动平均宽度: 0
X轴模式: Wavelengths
Number of Pixels in Spectrum: 1044
>>>>>Begin Spectral Data<<<<<
220.843	5.88
221.644	7.88
222.444	5.88
223.244	6.88
224.045	5.88
224.845	6.88
225.645	5.88
226.445	9.88
227.245	7.88
228.045	6.88
228.845	6.88
229.645	7.88
230.444	8.88
231.244	6.88
232.043	9.88
232.843	11.88
233.642	10.88
234.442	10.88
235.241	8.88
236.04	8.88
236.839	11.88
237.638	8.88
238.437	12.88
239.236	12.88
240.035	10.88
240.833	11.88
241.632	12.88
242.43	11.88
243.229	12.88
244.027	14.88
244.826	11.88
245.624	16.88
246.422	13.88
247.22	16.88
248.018	16.88
248.816	17.88
249.614	14.88
250.412	15.88
251.21	14.88
252.007	17.88
252.805	17.88
253.602	19.88
254.4	17.88
255.197	20.88
255.994	18.88
256.791	22.88
257.589	20.88
258.386	23.88
259.183	22.88
259.979	21.88
260.776	26.88
261.573	24.88
262.37	28.88
263.166	28.88
263.963	23.88
264.759	24.88
265.556	28.88
266.352	29.88
267.148	31.88
267.944	30.88
268.74	29.88
269.536	29.88
270.332	32.88
271.128	31.88
271.924	37.88
272.719	34.88
273.515	33.88
274.311	34.88
275.106	34.88
275.901	35.88
276.697	34.88
277.492	38.88
278.287	38.88
279.082	35.88
279.877	37.88
280.672	35.88
281.467	37.88
282.262	30.88
283.056	36.88
283.851	34.88
284.646	34.88
285.44	34.88
286.234	33.88
287.029	33.88
287.823	33.88
288.617	30.88
289.411	32.88
290.205	30.88
290.999	34.88
291.793	32.88
292.587	32.88
293.381	31.88
294.174	28.88
294.968	29.88
295.761	25.88
296.555	27.88
297.348	29.88
298.141	24.88
298.935	30.88
299.728	25.88
300.521	25.88
301.314	25.88
302.107	23.88
302.899	21.88
303.692	18.88
304.485	23.88
305.277	22.88
306.07	23.88
306.862	21.88
307.655	23.88
308.447	22.88
309.239	18.88
310.031	23.88
310.823	17.88
311.615	18.88
312.407	16.88
313.199	17.88
313.991	17.88
314.783	14.88
315.574	15.88
316.366	18.88
317.157	13.88
317.949	18.88
318.74	16.88
319.531	16.88
320.322	13.88
321.113	14.88
321.904	14.88
322.695	12.88
323.486	11.88
324.277	13.88
325.068	12.88
325.858	10.88
326.649	12.88
327.439	13.88
328.23	10.88
329.02	10.88
329.81	12.88
330.6	12.88
331.391	10.88
332.181	14.88
332.971	12.88
333.76	12.88
334.55	11.88
335.34	11.88
336.13	12.88
336.919	12.88
337.709	13.88
338.498	12.88
339.287	9.88
340.077	11.88
340.866	13.88
341.655	12.88
342.444	13.88
343.233	9.88
344.022	11.88
344.811	11.88
345.6	10.88
346.388	12.88
347.177	10.88
347.965	11.88
348.754	11.88
349.542	12.88
350.33	12.88
351.119	13.88
351.907	9.88
352.695	10.88
353.483	11.88
354.271	9.88
355.059	9.88
355.846	9.88
356.634	8.88
357.422	10.88
358.209	11.88
358.997	12.88
359.784	7.88
360.571	9.88
361.359	9.88
362.146	10.88
362.933	8.88
363.72	8.88
364.507	9.88
365.294	10.88
366.081	10.88
366.867	9.88
367.654	10.88
368.44	8.88
369.227	11.88
370.013	10.88
370.8	8.88
371.586	10.88
372.372	8.88
373.158	10.88
373.944	8.88
374.73	12.88
375.516	11.88
376.302	10.88
377.088	10.88
377.873	10.88
378.659	9.88
379.445	11.88
380.23	8.88
381.015	13.88
381.801	9.88
382.586	10.88
383.371	10.88
384.156	10.88
384.941	10.88
385.726	11.88
386.511	10.88
387.296	10.88
388.08	9.88
388.865	11.88
389.649	12.88
390.434	10.88
391.218	12.88
392.003	10.88
392.787	12.88
393.571	11.88
394.355	10.88
395.139	13.88
395.923	11.88
396.707	14.88
397.491	14.88
398.274	14.88
399.058	14.88
399.842	15.88
400.625	12.88
401.408	12.88
402.192	13.88
402.975	14.88
403.758	13.88
404.541	17.88
405.324	17.88
406.107	15.88
406.89	14.88
407.673	16.88
408.456	15.88
409.238	18.88
410.021	16.88
410.803	16.88
411.586	17.88
412.368	17.88
413.151	16.88
413.933	20.88
414.715	19.88
415.497	20.88
416.279	17.88
417.061	20.88
417.843	20.88
418.624	22.88
419.406	22.88
420.188	19.88
420.969	24.88
421.751	23.88
422.532	23.88
423.313	24.88
424.095	24.88
424.876	22.88
425.657	27.88
426.438	26.88
427.219	25.88
428	27.88
428.78	27.88
429.561	29.88
430.342	30.88
431.122	32.88
431.903	30.88
432.683	31.88
433.464	36.88
434.244	38.88
435.024	39.88
435.804	38.88
436.584	39.88
437.364	42.88
438.144	47.88
438.924	49.88
439.704	55.88
440.483	54.88
441.263	56.88
442.042	61.88
442.822	66.88
443.601	70.88
444.38	76.88
445.16	85.88
445.939	86.88
446.718	94.88
447.497	102.88
448.276	109.88
449.054	128.88
449.833	139.88
450.612	150.88
451.391	165.88
452.169	183.88
452.948	203.88
453.726	219.88
454.504	248.88
455.282	276.88
456.061	307.88
456.839	341.88
457.617	379.88
458.395	425.88
459.172	473.88
459.95	536.88
460.728	587.88
461.506	664.88
462.283	743.88
463.061	824.88
463.838	937.88
464.615	1031.88
465.393	1151.88
466.17	1294.88
466.947	1457.88
467.724	1607.88
468.501	1788.88
469.278	2002.88
470.055	2226.88
470.831	2470.88
471.608	2729.88
472.385	3034.88
473.161	3344.88
473.938	3716.88
474.714	4070.88
475.49	4477.88
476.266	4960.88
477.043	5462.88
477.819	5994.88
478.595	6595.88
479.371	7242.88
480.146	7935.88
480.922	8729.88
481.698	9552.88
482.473	10458.88
483.249	11417.88
484.024	12434.88
484.8	13550.88
485.575	14763.88
486.35	16102.88
487.126	17434.88
487.901	19000.88
488.676	20552.88
489.451	22227.88
490.225	23971.88
491	25730.88
491.775	27637.88
492.55	29529.88
493.324	31537.88
494.099	33477.88
494.873	35406.88
495.647	37365.88
496.422	39462.88
497.196	41305.88
497.97	42983.88
498.744	44538.88
499.518	46104.88
500.292	47464.88
501.066	48365.88
501.839	49083.88
502.613	49670.88
503.387	50075.88
504.16	50248.88
504.934	50056.88
505.707	49628.88
506.48	48993.88
507.253	48165.88
508.027	47129.88
508.8	45832.88
509.573	44562.88
510.346	43165.88
511.118	41865.88
511.891	40344.88
512.664	38719.88
513.437	37140.88
514.209	35617.88
514.982	34241.88
515.754	32727.88
516.526	31270.88
517.298	29992.88
518.071	28780.88
518.843	27640.88
519.615	26517.88
520.387	25474.88
521.159	24412.88
521.93	23402.88
522.702	22365.88
523.474	21457.88
524.245	20516.88
525.017	19538.88
525.788	18663.88
526.56	17834.88
527.331	17072.88
528.102	16144.88
528.873	15300.88
529.644	14578.88
530.415	13799.88
531.186	13120.88
531.957	12424.88
532.728	11765.88
533.498	11122.88
534.269	10522.88
535.039	9909.88
535.81	9396.88
536.58	8932.88
537.351	8401.88
538.121	7972.88
538.891	7483.88
539.661	7109.88
540.431	6729.88
541.201	6374.88
541.971	6061.88
542.741	5723.88
543.51	5412.88
544.28	5186.88
545.05	4949.88
545.819	4704.88
546.588	4493.88
547.358	4264.88
548.127	4049.88
548.896	3823.88
549.665	3630.88
550.434	3415.88
551.203	3278.88
551.972	3074.88
552.741	2911.88
553.51	2763.88
554.278	2586.88
555.047	2434.88
555.815	2309.88
556.584	2207.88
557.352	2078.88
558.121	1941.88
558.889	1839.88
559.657	1753.88
560.425	1640.88
561.193	1559.88
561.961	1488.88
562.729	1392.88
563.496	1306.88
564.264	1240.88
565.032	1173.88
565.799	1112.88
566.567	1062.88
567.334	1009.88
568.101	957.88
568.869	889.88
569.636	841.88
570.403	799.88
571.17	741.88
571.937	711.88
572.704	672.88
573.471	631.88
574.237	595.88
575.004	558.88
575.771	534.88
576.537	494.88
577.303	474.88
578.07	444.88
578.836	418.88
579.602	398.88
580.368	371.88
581.134	350.88
581.9	339.88
582.666	324.88
583.432	304.88
584.198	291.88
584.964	277.88
585.729	263.88
586.495	244.88
587.26	243.88
588.025	230.88
588.791	209.88
589.556	205.88
590.321	198.88
591.086	180.88
591.851	173.88
592.616	164.88
593.381	155.88
594.146	150.88
594.911	145.88
595.675	136.88
596.44	131.88
597.204	126.88
597.969	116.88
598.733	110.88
599.497	110.88
600.261	106.88
601.025	101.88
601.79	98.88
602.553	101.88
603.317	90.88
604.081	88.88
604.845	82.88
605.609	78.88
606.372	77.88
607.136	70.88
607.899	69.88
608.662	64.88
609.426	65.88
610.189	61.88
610.952	64.88
611.715	57.88
612.478	54.88
613.241	54.88
614.004	54.88
614.767	51.88
615.529	48.88
616.292	46.88
617.055	46.88
617.817	43.88
618.579	40.88
619.342	41.88
620.104	39.88
620.866	40.88
621.628	38.88
622.39	37.88
623.152	35.88
623.914	36.88
624.676	34.88
625.438	31.88
626.199	33.88
626.961	29.88
627.722	28.88
628.484	27.88
629.245	25.88
630.006	30.88
630.768	27.88
631.529	24.88
632.29	25.88
633.051	24.88
633.812	22.88
634.573	23.88
635.333	22.88
636.094	21.88
636.855	23.88
637.615	19.88
638.376	19.88
639.136	23.88
639.896	18.88
640.657	17.88
641.417	16.88
642.177	20.88
642.937	15.88
643.697	19.88
644.457	14.88
645.216	15.88
645.976	13.88
646.736	16.88
647.495	14.88
648.255	15.88
649.014	13.88
649.774	14.88
650.533	10.88
651.292	14.88
652.051	13.88
652.81	13.88
653.569	14.88
654.328	9.88
655.087	9.88
655.846	11.88
656.604	12.88
657.363	10.88
658.121	11.88
658.88	13.88
659.638	12.88
660.397	12.88
661.155	10.88
661.913	10.88
662.671	6.88
663.429	11.88
664.187	11.88
664.945	9.88
665.703	12.88
666.46	8.88
667.218	7.88
667.976	9.88
668.733	11.88
669.49	10.88
670.248	8.88
671.005	9.88
671.762	8.88
672.519	8.88
673.276	9.88
674.033	10.88
674.79	10.88
675.547	7.88
676.304	5.88
677.06	10.88
677.817	7.88
678.574	10.88
679.33	5.88
680.086	9.88
680.843	8.88
681.599	9.88
682.355	10.88
683.111	6.88
683.867	8.88
684.623	7.88
685.379	6.88
686.135	7.88
686.89	5.88
687.646	7.88
688.402	9.88
689.157	8.88
689.912	5.88
690.668	7.88
691.423	7.88
692.178	6.88
692.933	6.88
693.688	6.88
694.443	9.88
695.198	6.88
695.953	8.88
696.708	7.88
697.462	5.88
698.217	7.88
698.972	8.88
699.726	7.88
700.48	8.88
701.235	5.88
701.989	4.88
702.743	9.88
703.497	6.88
704.251	6.88
705.005	6.88
705.759	8.88
706.513	5.88
707.266	7.88
708.02	5.88
708.774	10.88
709.527	6.88
710.28	6.88
711.034	8.88
711.787	7.88
712.54	7.88
713.293	8.88
714.046	5.88
714.799	7.88
715.552	8.88
716.305	8.88
717.058	7.88
717.81	9.88
718.563	7.88
719.315	8.88
720.068	8.88
720.82	9.88
721.573	11.88
722.325	9.88
723.077	10.88
723.829	8.88
724.581	5.88
725.333	8.88
726.085	6.88
726.836	8.88
727.588	7.88
728.34	8.88
729.091	9.88
729.843	9.88
730.594	8.88
731.346	7.88
732.097	8.88
732.848	10.88
733.599	8.88
734.35	8.88
735.101	7.88
735.852	10.88
736.603	6.88
737.354	9.88
738.104	9.88
738.855	10.88
739.605	10.88
740.356	10.88
741.106	10.88
741.856	10.88
742.607	10.88
743.357	9.88
744.107	12.88
744.857	9.88
745.607	11.88
746.357	11.88
747.106	9.88
747.856	8.88
748.606	11.88
749.355	9.88
750.105	9.88
750.854	12.88
751.603	9.88
752.353	10.88
753.102	11.88
753.851	11.88
754.6	11.88
755.349	11.88
756.098	13.88
756.847	14.88
757.595	10.88
758.344	12.88
759.093	14.88
759.841	13.88
760.589	13.88
761.338	11.88
762.086	12.88
762.834	14.88
763.582	14.88
764.331	14.88
765.079	12.88
765.826	16.88
766.574	13.88
767.322	14.88
768.07	14.88
768.817	16.88
769.565	14.88
770.312	16.88
771.06	18.88
771.807	17.88
772.554	17.88
773.302	14.88
774.049	16.88
774.796	18.88
775.543	16.88
776.29	12.88
777.036	16.88
777.783	15.88
778.53	20.88
779.276	18.88
780.023	16.88
780.769	16.88
781.516	17.88
782.262	18.88
783.008	15.88
783.754	17.88
784.5	17.88
785.246	17.88
785.992	14.88
786.738	14.88
787.484	15.88
788.23	17.88
788.975	15.88
789.721	15.88
790.466	17.88
791.212	16.88
791.957	13.88
792.702	15.88
793.447	12.88
794.193	13.88
794.938	13.88
795.683	12.88
796.427	14.88
797.172	13.88
797.917	13.88
798.662	16.88
799.406	13.88
800.151	12.88
800.895	14.88
801.64	12.88
802.384	12.88
803.128	12.88
803.872	14.88
804.616	10.88
805.36	11.88
806.104	10.88
806.848	10.88
807.592	9.88
808.336	10.88
809.079	8.88
809.823	8.88
810.566	9.88
811.31	10.88
812.053	8.88
812.796	8.88
813.539	7.88
814.283	8.88
815.026	8.88
815.769	8.88
816.511	7.88
817.254	5.88
817.997	9.88
818.74	9.88
819.482	8.88
820.225	7.88
820.967	7.88
821.71	6.88
822.452	3.88
823.194	8.88
823.936	7.88
824.678	5.88
825.42	7.88
826.162	6.88
826.904	6.88
827.646	7.88
828.388	6.88
829.129	6.88
829.871	6.88
830.612	5.88
831.354	4.88
832.095	5.88
832.836	4.88
833.577	4.88
834.319	5.88
835.06	5.88
835.801	5.88
836.542	6.88
837.282	6.88
838.023	5.88
838.764	5.88
839.504	4.88
840.245	5.88
840.985	6.88
841.726	5.88
842.466	3.88
843.206	5.88
843.946	6.88
844.687	6.88
845.427	4.88
846.166	3.88
846.906	6.88
847.646	4.88
848.386	1.88
849.125	5.88
849.865	6.88
850.605	3.88
851.344	4.88
852.083	3.88
852.823	2.88
853.562	3.88
854.301	4.88
855.04	3.88
855.779	2.88
856.518	4.88
857.257	4.88
857.995	4.88
858.734	3.88
859.473	2.88
860.211	4.88
860.95	1.88
861.688	2.88
862.426	2.88
863.165	3.88
863.903	3.88
864.641	1.88
865.379	2.88
866.117	1.88
866.855	4.88
867.593	2.88
868.33	3.88
869.068	3.88
869.806	2.88
870.543	3.88
871.28	2.88
872.018	2.88
872.755	2.88
873.492	2.88
874.229	0.88
874.967	1.88
875.703	2.88
876.44	-0.12
877.177	1.88
877.914	0.88
878.651	3.88
879.387	1.88
880.124	1.88
880.86	2.88
881.597	2.88
882.333	3.88
883.069	1.88
883.806	-1.12
884.542	2.88
885.278	1.88
886.014	0.88
886.749	2.88
887.485	2.88
888.221	0.88
888.957	1.88
889.692	2.88
890.428	-0.12
891.163	1.88
891.899	0.88
892.634	1.88
893.369	1.88
894.104	0.88
894.839	2.88
895.574	2.88
896.309	-0.12
897.044	-1.12
897.779	-1.12
898.514	-1.12
899.248	-0.12
899.983	1.88
900.717	0.88
901.452	0.88
902.186	1.88
902.92	-0.12
903.654	1.88
904.389	-1.12
905.123	-0.12
905.857	-1.12
906.59	0.88
907.324	-0.12
908.058	-0.12
908.792	-0.12
909.525	1.88
910.259	1.88
910.992	0.88
911.726	0.88
912.459	2.88
913.192	0.88
913.925	1.88
914.658	0.88
915.391	1.88
916.124	0.88
916.857	0.88
917.59	-0.12
918.323	2.88
919.055	0.88
919.788	1.88
920.521	-1.12
921.253	2.88
921.985	-0.12
922.718	1.88
923.45	0.88
924.182	-1.12
924.914	0.88
925.646	-0.12
926.378	2.88
927.11	-0.12
927.841	1.88
928.573	-1.12
929.305	-0.12
930.036	0.88
930.768	-2.12
931.499	0.88
932.23	0.88
932.962	0.88
933.693	1.88
934.424	-0.12
935.155	-1.12
935.886	-1.12
936.617	0.88
937.348	-1.12
938.078	0.88
938.809	1.88
939.54	0.88
940.27	1.88
941.001	-1.12
941.731	0.88
942.461	0.88
943.191	-1.12
943.922	-1.12
944.652	1.88
945.382	1.88
946.112	-0.12
946.841	-3.12
947.571	0.88
948.301	-1.12
949.031	2.88
949.76	0.88
950.49	-0.12
951.219	-0.12
951.948	-1.12
952.678	-1.12
953.407	-1.12
954.136	2.88
954.865	0.88
955.594	-1.12
956.323	1.88
957.052	1.88
957.78	0.88
958.509	0.88
959.238	0.88
959.966	0.88
960.695	-1.12
961.423	0.88
962.151	-0.12
962.88	-1.12
963.608	-0.12
964.336	1.88
965.064	0.88
965.792	-0.12
966.52	0.88
967.247	0.88
967.975	-1.12
968.703	0.88
969.43	-1.12
970.158	0.88
970.885	0.88
971.613	0.88
972.34	-0.12
973.067	-0.12
973.794	-0.12
974.521	-0.12
975.248	0.88
975.975	-0.12
976.702	2.88
977.429	0.88
978.156	1.88
978.882	-0.12
979.609	0.88
980.335	0.88
981.062	1.88
981.788	-2.12
982.514	0.88
983.24	0.88
983.967	-0.12
984.693	0.88
985.419	0.88
986.144	-0.12
986.87	1.88
987.596	0.88
988.322	0.88
989.047	0.88
989.773	0.88
990.498	0.88
991.224	1.88
991.949	0.88
992.674	0.88
993.399	-0.12
994.124	0.88
994.849	0.88
995.574	0.88
996.299	-0.12
997.024	-0.12
997.749	2.88
998.473	0.88
999.198	0.88
999.922	-1.12
1000.647	-0.12
1001.371	2.88
1002.095	-1.12
1002.82	-1.12
1003.544	-1.12
1004.268	4.88
1004.992	2.88
1005.716	4.88
1006.439	4.88
1007.163	5.88
1007.887	3.88
1008.611	-1.12
1009.334	-1.12
1010.058	0.88
1010.781	0.88
1011.504	-0.12
1012.228	-1.12
1012.951	0.88
1013.674	-1.12
1014.397	-1.12
1015.12	1.88
