节点500_705_QEPB04081__287__20-50-04-426.txt的数据

Date: Wed Nov 12 20:50:04 CST 2025
User: PC
Spectrometer: QEPB0408
触发模式: 0
积分时间 (秒): 1.000000E-2
Scans to average: 1
启用暗噪声校正: true
启用非线性校正: false
滑动平均宽度: 0
X轴模式: Wavelengths
Number of Pixels in Spectrum: 1044
>>>>>Begin Spectral Data<<<<<
220.843	6.5
221.644	3.5
222.444	6.5
223.244	4.5
224.045	6.5
224.845	8.5
225.645	6.5
226.445	5.5
227.245	8.5
228.045	6.5
228.845	6.5
229.645	9.5
230.444	7.5
231.244	6.5
232.043	6.5
232.843	9.5
233.642	6.5
234.442	7.5
235.241	8.5
236.04	9.5
236.839	8.5
237.638	11.5
238.437	6.5
239.236	11.5
240.035	10.5
240.833	8.5
241.632	14.5
242.43	12.5
243.229	12.5
244.027	12.5
244.826	12.5
245.624	15.5
246.422	13.5
247.22	14.5
248.018	15.5
248.816	12.5
249.614	16.5
250.412	15.5
251.21	18.5
252.007	16.5
252.805	16.5
253.602	17.5
254.4	14.5
255.197	21.5
255.994	17.5
256.791	19.5
257.589	22.5
258.386	19.5
259.183	21.5
259.979	19.5
260.776	24.5
261.573	22.5
262.37	25.5
263.166	26.5
263.963	24.5
264.759	27.5
265.556	28.5
266.352	27.5
267.148	26.5
267.944	27.5
268.74	29.5
269.536	29.5
270.332	31.5
271.128	29.5
271.924	29.5
272.719	32.5
273.515	30.5
274.311	34.5
275.106	32.5
275.901	36.5
276.697	36.5
277.492	33.5
278.287	33.5
279.082	32.5
279.877	34.5
280.672	33.5
281.467	34.5
282.262	35.5
283.056	35.5
283.851	35.5
284.646	35.5
285.44	32.5
286.234	33.5
287.029	34.5
287.823	32.5
288.617	29.5
289.411	34.5
290.205	33.5
290.999	31.5
291.793	30.5
292.587	28.5
293.381	27.5
294.174	29.5
294.968	29.5
295.761	25.5
296.555	31.5
297.348	28.5
298.141	24.5
298.935	30.5
299.728	26.5
300.521	25.5
301.314	23.5
302.107	22.5
302.899	21.5
303.692	23.5
304.485	23.5
305.277	18.5
306.07	22.5
306.862	23.5
307.655	18.5
308.447	23.5
309.239	20.5
310.031	19.5
310.823	20.5
311.615	18.5
312.407	18.5
313.199	18.5
313.991	17.5
314.783	16.5
315.574	15.5
316.366	16.5
317.157	12.5
317.949	15.5
318.74	14.5
319.531	15.5
320.322	13.5
321.113	14.5
321.904	15.5
322.695	10.5
323.486	14.5
324.277	13.5
325.068	12.5
325.858	13.5
326.649	11.5
327.439	14.5
328.23	11.5
329.02	10.5
329.81	10.5
330.6	9.5
331.391	14.5
332.181	9.5
332.971	13.5
333.76	10.5
334.55	11.5
335.34	10.5
336.13	11.5
336.919	13.5
337.709	12.5
338.498	11.5
339.287	10.5
340.077	12.5
340.866	10.5
341.655	9.5
342.444	11.5
343.233	10.5
344.022	14.5
344.811	10.5
345.6	9.5
346.388	11.5
347.177	9.5
347.965	12.5
348.754	10.5
349.542	11.5
350.33	11.5
351.119	8.5
351.907	10.5
352.695	12.5
353.483	11.5
354.271	11.5
355.059	9.5
355.846	8.5
356.634	10.5
357.422	12.5
358.209	7.5
358.997	11.5
359.784	10.5
360.571	10.5
361.359	10.5
362.146	10.5
362.933	9.5
363.72	8.5
364.507	7.5
365.294	10.5
366.081	8.5
366.867	10.5
367.654	8.5
368.44	10.5
369.227	11.5
370.013	11.5
370.8	9.5
371.586	9.5
372.372	6.5
373.158	10.5
373.944	10.5
374.73	10.5
375.516	5.5
376.302	10.5
377.088	8.5
377.873	9.5
378.659	9.5
379.445	8.5
380.23	8.5
381.015	9.5
381.801	10.5
382.586	9.5
383.371	9.5
384.156	10.5
384.941	11.5
385.726	12.5
386.511	9.5
387.296	10.5
388.08	9.5
388.865	10.5
389.649	10.5
390.434	10.5
391.218	8.5
392.003	9.5
392.787	8.5
393.571	13.5
394.355	11.5
395.139	14.5
395.923	14.5
396.707	13.5
397.491	10.5
398.274	13.5
399.058	12.5
399.842	12.5
400.625	13.5
401.408	13.5
402.192	12.5
402.975	15.5
403.758	12.5
404.541	13.5
405.324	15.5
406.107	14.5
406.89	14.5
407.673	14.5
408.456	16.5
409.238	17.5
410.021	17.5
410.803	18.5
411.586	16.5
412.368	14.5
413.151	16.5
413.933	19.5
414.715	17.5
415.497	18.5
416.279	18.5
417.061	17.5
417.843	18.5
418.624	19.5
419.406	23.5
420.188	18.5
420.969	20.5
421.751	20.5
422.532	23.5
423.313	23.5
424.095	24.5
424.876	22.5
425.657	23.5
426.438	26.5
427.219	27.5
428	26.5
428.78	28.5
429.561	28.5
430.342	29.5
431.122	29.5
431.903	32.5
432.683	33.5
433.464	30.5
434.244	38.5
435.024	38.5
435.804	39.5
436.584	41.5
437.364	41.5
438.144	47.5
438.924	47.5
439.704	53.5
440.483	56.5
441.263	59.5
442.042	64.5
442.822	68.5
443.601	76.5
444.38	79.5
445.16	90.5
445.939	93.5
446.718	102.5
447.497	108.5
448.276	116.5
449.054	124.5
449.833	145.5
450.612	154.5
451.391	174.5
452.169	195.5
452.948	212.5
453.726	239.5
454.504	267.5
455.282	293.5
456.061	325.5
456.839	368.5
457.617	414.5
458.395	456.5
459.172	511.5
459.95	564.5
460.728	624.5
461.506	704.5
462.283	788.5
463.061	858.5
463.838	985.5
464.615	1082.5
465.393	1197.5
466.17	1333.5
466.947	1501.5
467.724	1661.5
468.501	1843.5
469.278	2032.5
470.055	2262.5
470.831	2490.5
471.608	2742.5
472.385	3046.5
473.161	3349.5
473.938	3682.5
474.714	4029.5
475.49	4448.5
476.266	4878.5
477.043	5333.5
477.819	5844.5
478.595	6386.5
479.371	6997.5
480.146	7634.5
480.922	8328.5
481.698	9078.5
482.473	9902.5
483.249	10755.5
484.024	11651.5
484.8	12653.5
485.575	13746.5
486.35	14967.5
487.126	16162.5
487.901	17480.5
488.676	18887.5
489.451	20410.5
490.225	21919.5
491	23538.5
491.775	25151.5
492.55	26930.5
493.324	28605.5
494.099	30416.5
494.873	32344.5
495.647	34066.5
496.422	35933.5
497.196	37739.5
497.97	39331.5
498.744	40855.5
499.518	42486.5
500.292	43827.5
501.066	44973.5
501.839	45805.5
502.613	46465.5
503.387	47133.5
504.16	47563.5
504.934	47597.5
505.707	47360.5
506.48	47031.5
507.253	46495.5
508.027	45787.5
508.8	44789.5
509.573	43682.5
510.346	42690.5
511.118	41551.5
511.891	40151.5
512.664	38680.5
513.437	37186.5
514.209	35782.5
514.982	34433.5
515.754	32986.5
516.526	31645.5
517.298	30411.5
518.071	29173.5
518.843	28012.5
519.615	26898.5
520.387	25891.5
521.159	24832.5
521.93	23781.5
522.702	22799.5
523.474	21806.5
524.245	20870.5
525.017	19952.5
525.788	19092.5
526.56	18318.5
527.331	17456.5
528.102	16574.5
528.873	15672.5
529.644	15038.5
530.415	14287.5
531.186	13640.5
531.957	12892.5
532.728	12261.5
533.498	11612.5
534.269	10953.5
535.039	10392.5
535.81	9815.5
536.58	9301.5
537.351	8807.5
538.121	8345.5
538.891	7914.5
539.661	7429.5
540.431	7041.5
541.201	6701.5
541.971	6328.5
542.741	6013.5
543.51	5726.5
544.28	5430.5
545.05	5154.5
545.819	4930.5
546.588	4679.5
547.358	4440.5
548.127	4238.5
548.896	4005.5
549.665	3847.5
550.434	3620.5
551.203	3436.5
551.972	3263.5
552.741	3066.5
553.51	2900.5
554.278	2729.5
555.047	2602.5
555.815	2449.5
556.584	2307.5
557.352	2187.5
558.121	2066.5
558.889	1947.5
559.657	1845.5
560.425	1742.5
561.193	1656.5
561.961	1563.5
562.729	1477.5
563.496	1385.5
564.264	1300.5
565.032	1235.5
565.799	1188.5
566.567	1127.5
567.334	1048.5
568.101	1010.5
568.869	946.5
569.636	907.5
570.403	851.5
571.17	796.5
571.937	743.5
572.704	699.5
573.471	664.5
574.237	626.5
575.004	597.5
575.771	549.5
576.537	518.5
577.303	493.5
578.07	472.5
578.836	448.5
579.602	418.5
580.368	403.5
581.134	377.5
581.9	365.5
582.666	342.5
583.432	328.5
584.198	315.5
584.964	302.5
585.729	275.5
586.495	262.5
587.26	248.5
588.025	233.5
588.791	227.5
589.556	212.5
590.321	201.5
591.086	190.5
591.851	186.5
592.616	174.5
593.381	166.5
594.146	158.5
594.911	154.5
595.675	142.5
596.44	142.5
597.204	130.5
597.969	123.5
598.733	120.5
599.497	114.5
600.261	113.5
601.025	109.5
601.79	104.5
602.553	98.5
603.317	90.5
604.081	88.5
604.845	82.5
605.609	82.5
606.372	78.5
607.136	75.5
607.899	73.5
608.662	72.5
609.426	66.5
610.189	65.5
610.952	63.5
611.715	62.5
612.478	57.5
613.241	53.5
614.004	56.5
614.767	51.5
615.529	53.5
616.292	50.5
617.055	47.5
617.817	47.5
618.579	43.5
619.342	42.5
620.104	42.5
620.866	40.5
621.628	40.5
622.39	38.5
623.152	33.5
623.914	31.5
624.676	33.5
625.438	34.5
626.199	33.5
626.961	32.5
627.722	30.5
628.484	30.5
629.245	30.5
630.006	25.5
630.768	26.5
631.529	24.5
632.29	25.5
633.051	26.5
633.812	24.5
634.573	23.5
635.333	23.5
636.094	24.5
636.855	20.5
637.615	23.5
638.376	19.5
639.136	18.5
639.896	20.5
640.657	18.5
641.417	18.5
642.177	19.5
642.937	16.5
643.697	18.5
644.457	14.5
645.216	15.5
645.976	18.5
646.736	14.5
647.495	16.5
648.255	15.5
649.014	13.5
649.774	13.5
650.533	14.5
651.292	11.5
652.051	12.5
652.81	14.5
653.569	12.5
654.328	14.5
655.087	10.5
655.846	12.5
656.604	10.5
657.363	10.5
658.121	10.5
658.88	12.5
659.638	12.5
660.397	11.5
661.155	12.5
661.913	12.5
662.671	10.5
663.429	11.5
664.187	11.5
664.945	11.5
665.703	11.5
666.46	8.5
667.218	10.5
667.976	8.5
668.733	9.5
669.49	8.5
670.248	10.5
671.005	11.5
671.762	7.5
672.519	8.5
673.276	8.5
674.033	8.5
674.79	8.5
675.547	9.5
676.304	10.5
677.06	7.5
677.817	7.5
678.574	7.5
679.33	8.5
680.086	7.5
680.843	10.5
681.599	9.5
682.355	7.5
683.111	8.5
683.867	8.5
684.623	7.5
685.379	7.5
686.135	7.5
686.89	9.5
687.646	7.5
688.402	7.5
689.157	7.5
689.912	10.5
690.668	7.5
691.423	4.5
692.178	8.5
692.933	8.5
693.688	7.5
694.443	7.5
695.198	6.5
695.953	8.5
696.708	6.5
697.462	7.5
698.217	6.5
698.972	6.5
699.726	5.5
700.48	6.5
701.235	7.5
701.989	7.5
702.743	9.5
703.497	7.5
704.251	6.5
705.005	9.5
705.759	5.5
706.513	8.5
707.266	5.5
708.02	4.5
708.774	8.5
709.527	7.5
710.28	6.5
711.034	9.5
711.787	7.5
712.54	9.5
713.293	6.5
714.046	8.5
714.799	5.5
715.552	8.5
716.305	8.5
717.058	6.5
717.81	8.5
718.563	8.5
719.315	8.5
720.068	7.5
720.82	8.5
721.573	8.5
722.325	6.5
723.077	10.5
723.829	6.5
724.581	7.5
725.333	7.5
726.085	8.5
726.836	9.5
727.588	9.5
728.34	6.5
729.091	7.5
729.843	7.5
730.594	8.5
731.346	8.5
732.097	9.5
732.848	8.5
733.599	9.5
734.35	8.5
735.101	6.5
735.852	7.5
736.603	9.5
737.354	10.5
738.104	6.5
738.855	12.5
739.605	9.5
740.356	10.5
741.106	10.5
741.856	7.5
742.607	10.5
743.357	10.5
744.107	6.5
744.857	12.5
745.607	9.5
746.357	10.5
747.106	9.5
747.856	11.5
748.606	10.5
749.355	10.5
750.105	13.5
750.854	8.5
751.603	10.5
752.353	11.5
753.102	11.5
753.851	11.5
754.6	12.5
755.349	12.5
756.098	11.5
756.847	11.5
757.595	11.5
758.344	14.5
759.093	10.5
759.841	10.5
760.589	11.5
761.338	12.5
762.086	11.5
762.834	11.5
763.582	10.5
764.331	12.5
765.079	14.5
765.826	12.5
766.574	14.5
767.322	12.5
768.07	10.5
768.817	12.5
769.565	15.5
770.312	14.5
771.06	13.5
771.807	16.5
772.554	14.5
773.302	14.5
774.049	15.5
774.796	14.5
775.543	14.5
776.29	15.5
777.036	14.5
777.783	12.5
778.53	15.5
779.276	14.5
780.023	16.5
780.769	14.5
781.516	13.5
782.262	14.5
783.008	12.5
783.754	15.5
784.5	15.5
785.246	17.5
785.992	15.5
786.738	15.5
787.484	16.5
788.23	13.5
788.975	16.5
789.721	15.5
790.466	11.5
791.212	14.5
791.957	12.5
792.702	16.5
793.447	15.5
794.193	13.5
794.938	12.5
795.683	11.5
796.427	11.5
797.172	13.5
797.917	13.5
798.662	12.5
799.406	11.5
800.151	10.5
800.895	12.5
801.64	12.5
802.384	12.5
803.128	16.5
803.872	10.5
804.616	12.5
805.36	10.5
806.104	10.5
806.848	9.5
807.592	12.5
808.336	9.5
809.079	11.5
809.823	8.5
810.566	9.5
811.31	9.5
812.053	8.5
812.796	9.5
813.539	10.5
814.283	9.5
815.026	8.5
815.769	7.5
816.511	7.5
817.254	7.5
817.997	7.5
818.74	5.5
819.482	7.5
820.225	5.5
820.967	7.5
821.71	6.5
822.452	7.5
823.194	6.5
823.936	6.5
824.678	7.5
825.42	4.5
826.162	7.5
826.904	6.5
827.646	8.5
828.388	6.5
829.129	6.5
829.871	7.5
830.612	9.5
831.354	6.5
832.095	7.5
832.836	6.5
833.577	8.5
834.319	4.5
835.06	4.5
835.801	6.5
836.542	4.5
837.282	6.5
838.023	5.5
838.764	5.5
839.504	5.5
840.245	3.5
840.985	6.5
841.726	5.5
842.466	5.5
843.206	5.5
843.946	4.5
844.687	3.5
845.427	5.5
846.166	2.5
846.906	4.5
847.646	4.5
848.386	4.5
849.125	5.5
849.865	4.5
850.605	2.5
851.344	4.5
852.083	7.5
852.823	5.5
853.562	3.5
854.301	2.5
855.04	6.5
855.779	3.5
856.518	6.5
857.257	6.5
857.995	3.5
858.734	2.5
859.473	1.5
860.211	6.5
860.95	3.5
861.688	2.5
862.426	2.5
863.165	1.5
863.903	2.5
864.641	2.5
865.379	3.5
866.117	0.5
866.855	3.5
867.593	0.5
868.33	1.5
869.068	3.5
869.806	2.5
870.543	3.5
871.28	0.5
872.018	2.5
872.755	2.5
873.492	-1.5
874.229	-0.5
874.967	1.5
875.703	4.5
876.44	2.5
877.177	0.5
877.914	1.5
878.651	0.5
879.387	1.5
880.124	1.5
880.86	1.5
881.597	2.5
882.333	-0.5
883.069	2.5
883.806	0.5
884.542	0.5
885.278	2.5
886.014	2.5
886.749	0.5
887.485	-0.5
888.221	0.5
888.957	-1.5
889.692	0.5
890.428	1.5
891.163	-1.5
891.899	-0.5
892.634	0.5
893.369	0.5
894.104	0.5
894.839	-0.5
895.574	1.5
896.309	1.5
897.044	1.5
897.779	0.5
898.514	2.5
899.248	2.5
899.983	0.5
900.717	1.5
901.452	-1.5
902.186	0.5
902.92	-1.5
903.654	0.5
904.389	-0.5
905.123	0.5
905.857	2.5
906.59	-1.5
907.324	-0.5
908.058	1.5
908.792	-0.5
909.525	1.5
910.259	-0.5
910.992	1.5
911.726	1.5
912.459	-1.5
913.192	0.5
913.925	-1.5
914.658	0.5
915.391	0.5
916.124	0.5
916.857	-0.5
917.59	1.5
918.323	0.5
919.055	-0.5
919.788	1.5
920.521	-1.5
921.253	2.5
921.985	-1.5
922.718	-0.5
923.45	2.5
924.182	1.5
924.914	1.5
925.646	0.5
926.378	-3.5
927.11	0.5
927.841	-2.5
928.573	0.5
929.305	-1.5
930.036	1.5
930.768	-1.5
931.499	-0.5
932.23	-3.5
932.962	-1.5
933.693	0.5
934.424	0.5
935.155	-1.5
935.886	-2.5
936.617	-1.5
937.348	0.5
938.078	-0.5
938.809	-0.5
939.54	-0.5
940.27	0.5
941.001	-1.5
941.731	1.5
942.461	1.5
943.191	-1.5
943.922	-0.5
944.652	-0.5
945.382	0.5
946.112	0.5
946.841	-0.5
947.571	-1.5
948.301	0.5
949.031	1.5
949.76	0.5
950.49	-1.5
951.219	0.5
951.948	-1.5
952.678	-0.5
953.407	-1.5
954.136	-2.5
954.865	-1.5
955.594	1.5
956.323	2.5
957.052	-2.5
957.78	-0.5
958.509	-1.5
959.238	-1.5
959.966	0.5
960.695	0.5
961.423	0.5
962.151	0.5
962.88	0.5
963.608	1.5
964.336	1.5
965.064	-1.5
965.792	1.5
966.52	0.5
967.247	-0.5
967.975	0.5
968.703	0.5
969.43	-0.5
970.158	-1.5
970.885	0.5
971.613	2.5
972.34	-1.5
973.067	-1.5
973.794	1.5
974.521	-1.5
975.248	1.5
975.975	-0.5
976.702	-0.5
977.429	-0.5
978.156	-1.5
978.882	-0.5
979.609	0.5
980.335	0.5
981.062	-1.5
981.788	-0.5
982.514	0.5
983.24	-1.5
983.967	0.5
984.693	-1.5
985.419	-2.5
986.144	3.5
986.87	0.5
987.596	1.5
988.322	-2.5
989.047	0.5
989.773	1.5
990.498	0.5
991.224	2.5
991.949	-0.5
992.674	-0.5
993.399	-0.5
994.124	2.5
994.849	0.5
995.574	1.5
996.299	-0.5
997.024	0.5
997.749	-1.5
998.473	-1.5
999.198	0.5
999.922	-1.5
1000.647	-1.5
1001.371	2.5
1002.095	-0.5
1002.82	-0.5
1003.544	-0.5
1004.268	2.5
1004.992	4.5
1005.716	3.5
1006.439	4.5
1007.163	7.5
1007.887	5.5
1008.611	0.5
1009.334	-0.5
1010.058	-1.5
1010.781	0.5
1011.504	-1.5
1012.228	0.5
1012.951	1.5
1013.674	-0.5
1014.397	-1.5
1015.12	-0.5
