节点500_705_QEPB04081__109__20-47-42-137.txt的数据

Date: Wed Nov 12 20:47:42 CST 2025
User: PC
Spectrometer: QEPB0408
触发模式: 0
积分时间 (秒): 1.000000E-2
Scans to average: 1
启用暗噪声校正: true
启用非线性校正: false
滑动平均宽度: 0
X轴模式: Wavelengths
Number of Pixels in Spectrum: 1044
>>>>>Begin Spectral Data<<<<<
220.843	5.25
221.644	5.25
222.444	3.25
223.244	8.25
224.045	8.25
224.845	7.25
225.645	8.25
226.445	7.25
227.245	9.25
228.045	7.25
228.845	8.25
229.645	9.25
230.444	7.25
231.244	6.25
232.043	7.25
232.843	9.25
233.642	7.25
234.442	9.25
235.241	12.25
236.04	7.25
236.839	11.25
237.638	11.25
238.437	11.25
239.236	13.25
240.035	11.25
240.833	12.25
241.632	13.25
242.43	13.25
243.229	11.25
244.027	13.25
244.826	14.25
245.624	17.25
246.422	17.25
247.22	13.25
248.018	16.25
248.816	16.25
249.614	14.25
250.412	19.25
251.21	15.25
252.007	18.25
252.805	17.25
253.602	19.25
254.4	18.25
255.197	18.25
255.994	22.25
256.791	18.25
257.589	26.25
258.386	22.25
259.183	23.25
259.979	25.25
260.776	27.25
261.573	25.25
262.37	28.25
263.166	24.25
263.963	26.25
264.759	26.25
265.556	28.25
266.352	27.25
267.148	31.25
267.944	29.25
268.74	31.25
269.536	31.25
270.332	36.25
271.128	32.25
271.924	32.25
272.719	35.25
273.515	34.25
274.311	34.25
275.106	35.25
275.901	38.25
276.697	39.25
277.492	38.25
278.287	37.25
279.082	37.25
279.877	35.25
280.672	35.25
281.467	39.25
282.262	38.25
283.056	37.25
283.851	35.25
284.646	35.25
285.44	34.25
286.234	35.25
287.029	34.25
287.823	36.25
288.617	36.25
289.411	33.25
290.205	36.25
290.999	32.25
291.793	34.25
292.587	34.25
293.381	32.25
294.174	28.25
294.968	29.25
295.761	27.25
296.555	26.25
297.348	31.25
298.141	26.25
298.935	29.25
299.728	29.25
300.521	24.25
301.314	25.25
302.107	26.25
302.899	24.25
303.692	22.25
304.485	22.25
305.277	23.25
306.07	21.25
306.862	22.25
307.655	22.25
308.447	20.25
309.239	21.25
310.031	18.25
310.823	19.25
311.615	18.25
312.407	18.25
313.199	18.25
313.991	20.25
314.783	17.25
315.574	17.25
316.366	16.25
317.157	16.25
317.949	13.25
318.74	14.25
319.531	13.25
320.322	15.25
321.113	15.25
321.904	15.25
322.695	14.25
323.486	14.25
324.277	11.25
325.068	13.25
325.858	14.25
326.649	11.25
327.439	13.25
328.23	14.25
329.02	13.25
329.81	15.25
330.6	15.25
331.391	13.25
332.181	12.25
332.971	13.25
333.76	11.25
334.55	11.25
335.34	11.25
336.13	11.25
336.919	13.25
337.709	11.25
338.498	14.25
339.287	9.25
340.077	13.25
340.866	13.25
341.655	14.25
342.444	14.25
343.233	10.25
344.022	10.25
344.811	11.25
345.6	10.25
346.388	12.25
347.177	9.25
347.965	10.25
348.754	10.25
349.542	11.25
350.33	12.25
351.119	12.25
351.907	12.25
352.695	10.25
353.483	11.25
354.271	11.25
355.059	9.25
355.846	11.25
356.634	12.25
357.422	10.25
358.209	9.25
358.997	11.25
359.784	10.25
360.571	13.25
361.359	9.25
362.146	11.25
362.933	11.25
363.72	10.25
364.507	9.25
365.294	11.25
366.081	10.25
366.867	8.25
367.654	13.25
368.44	10.25
369.227	8.25
370.013	10.25
370.8	8.25
371.586	10.25
372.372	11.25
373.158	12.25
373.944	11.25
374.73	8.25
375.516	11.25
376.302	8.25
377.088	9.25
377.873	10.25
378.659	11.25
379.445	10.25
380.23	13.25
381.015	10.25
381.801	10.25
382.586	11.25
383.371	10.25
384.156	11.25
384.941	10.25
385.726	12.25
386.511	11.25
387.296	11.25
388.08	12.25
388.865	12.25
389.649	10.25
390.434	13.25
391.218	11.25
392.003	10.25
392.787	11.25
393.571	16.25
394.355	14.25
395.139	12.25
395.923	13.25
396.707	15.25
397.491	14.25
398.274	13.25
399.058	15.25
399.842	15.25
400.625	14.25
401.408	13.25
402.192	16.25
402.975	16.25
403.758	15.25
404.541	15.25
405.324	14.25
406.107	15.25
406.89	17.25
407.673	17.25
408.456	15.25
409.238	16.25
410.021	17.25
410.803	18.25
411.586	18.25
412.368	19.25
413.151	17.25
413.933	20.25
414.715	17.25
415.497	19.25
416.279	23.25
417.061	19.25
417.843	21.25
418.624	19.25
419.406	17.25
420.188	24.25
420.969	22.25
421.751	23.25
422.532	22.25
423.313	22.25
424.095	26.25
424.876	26.25
425.657	24.25
426.438	27.25
427.219	28.25
428	26.25
428.78	26.25
429.561	26.25
430.342	30.25
431.122	32.25
431.903	30.25
432.683	35.25
433.464	36.25
434.244	37.25
435.024	39.25
435.804	38.25
436.584	42.25
437.364	43.25
438.144	48.25
438.924	51.25
439.704	52.25
440.483	58.25
441.263	58.25
442.042	66.25
442.822	65.25
443.601	71.25
444.38	80.25
445.16	86.25
445.939	89.25
446.718	99.25
447.497	107.25
448.276	114.25
449.054	130.25
449.833	141.25
450.612	150.25
451.391	172.25
452.169	184.25
452.948	198.25
453.726	226.25
454.504	252.25
455.282	284.25
456.061	316.25
456.839	351.25
457.617	384.25
458.395	436.25
459.172	480.25
459.95	540.25
460.728	604.25
461.506	673.25
462.283	747.25
463.061	844.25
463.838	930.25
464.615	1063.25
465.393	1189.25
466.17	1313.25
466.947	1465.25
467.724	1624.25
468.501	1801.25
469.278	2013.25
470.055	2241.25
470.831	2471.25
471.608	2723.25
472.385	3010.25
473.161	3349.25
473.938	3690.25
474.714	4106.25
475.49	4489.25
476.266	4937.25
477.043	5436.25
477.819	5978.25
478.595	6581.25
479.371	7191.25
480.146	7895.25
480.922	8663.25
481.698	9503.25
482.473	10360.25
483.249	11321.25
484.024	12302.25
484.8	13415.25
485.575	14567.25
486.35	15902.25
487.126	17201.25
487.901	18674.25
488.676	20249.25
489.451	21895.25
490.225	23508.25
491	25327.25
491.775	27181.25
492.55	29084.25
493.324	30999.25
494.099	32875.25
494.873	34811.25
495.647	36803.25
496.422	38719.25
497.196	40574.25
497.97	42316.25
498.744	43795.25
499.518	45420.25
500.292	46734.25
501.066	47694.25
501.839	48487.25
502.613	49077.25
503.387	49482.25
504.16	49736.25
504.934	49596.25
505.707	49142.25
506.48	48592.25
507.253	47868.25
508.027	46950.25
508.8	45714.25
509.573	44390.25
510.346	43086.25
511.118	41873.25
511.891	40387.25
512.664	38720.25
513.437	37214.25
514.209	35714.25
514.982	34254.25
515.754	32768.25
516.526	31351.25
517.298	30128.25
518.071	28906.25
518.843	27650.25
519.615	26591.25
520.387	25574.25
521.159	24519.25
521.93	23488.25
522.702	22463.25
523.474	21479.25
524.245	20621.25
525.017	19656.25
525.788	18788.25
526.56	17982.25
527.331	17123.25
528.102	16220.25
528.873	15442.25
529.644	14619.25
530.415	13934.25
531.186	13276.25
531.957	12532.25
532.728	11875.25
533.498	11204.25
534.269	10577.25
535.039	10051.25
535.81	9492.25
536.58	8958.25
537.351	8465.25
538.121	8048.25
538.891	7640.25
539.661	7225.25
540.431	6775.25
541.201	6454.25
541.971	6106.25
542.741	5797.25
543.51	5497.25
544.28	5243.25
545.05	4971.25
545.819	4729.25
546.588	4508.25
547.358	4298.25
548.127	4089.25
548.896	3894.25
549.665	3674.25
550.434	3475.25
551.203	3294.25
551.972	3119.25
552.741	2944.25
553.51	2774.25
554.278	2610.25
555.047	2482.25
555.815	2324.25
556.584	2221.25
557.352	2082.25
558.121	1967.25
558.889	1864.25
559.657	1761.25
560.425	1665.25
561.193	1573.25
561.961	1502.25
562.729	1414.25
563.496	1335.25
564.264	1262.25
565.032	1192.25
565.799	1124.25
566.567	1058.25
567.334	1007.25
568.101	950.25
568.869	913.25
569.636	853.25
570.403	800.25
571.17	766.25
571.937	715.25
572.704	686.25
573.471	639.25
574.237	607.25
575.004	575.25
575.771	529.25
576.537	502.25
577.303	473.25
578.07	447.25
578.836	423.25
579.602	397.25
580.368	377.25
581.134	361.25
581.9	347.25
582.666	328.25
583.432	315.25
584.198	292.25
584.964	287.25
585.729	267.25
586.495	246.25
587.26	245.25
588.025	226.25
588.791	212.25
589.556	203.25
590.321	193.25
591.086	181.25
591.851	178.25
592.616	168.25
593.381	155.25
594.146	155.25
594.911	150.25
595.675	135.25
596.44	136.25
597.204	123.25
597.969	122.25
598.733	117.25
599.497	110.25
600.261	107.25
601.025	99.25
601.79	104.25
602.553	93.25
603.317	94.25
604.081	89.25
604.845	84.25
605.609	83.25
606.372	78.25
607.136	75.25
607.899	73.25
608.662	73.25
609.426	66.25
610.189	66.25
610.952	60.25
611.715	61.25
612.478	58.25
613.241	52.25
614.004	55.25
614.767	49.25
615.529	49.25
616.292	50.25
617.055	48.25
617.817	44.25
618.579	41.25
619.342	44.25
620.104	40.25
620.866	39.25
621.628	39.25
622.39	39.25
623.152	37.25
623.914	33.25
624.676	35.25
625.438	33.25
626.199	32.25
626.961	31.25
627.722	31.25
628.484	30.25
629.245	31.25
630.006	27.25
630.768	29.25
631.529	28.25
632.29	24.25
633.051	26.25
633.812	23.25
634.573	24.25
635.333	20.25
636.094	24.25
636.855	23.25
637.615	22.25
638.376	19.25
639.136	21.25
639.896	21.25
640.657	18.25
641.417	19.25
642.177	18.25
642.937	20.25
643.697	17.25
644.457	15.25
645.216	18.25
645.976	17.25
646.736	17.25
647.495	15.25
648.255	16.25
649.014	14.25
649.774	14.25
650.533	17.25
651.292	15.25
652.051	14.25
652.81	13.25
653.569	13.25
654.328	13.25
655.087	11.25
655.846	12.25
656.604	13.25
657.363	12.25
658.121	10.25
658.88	10.25
659.638	11.25
660.397	13.25
661.155	12.25
661.913	13.25
662.671	10.25
663.429	13.25
664.187	10.25
664.945	11.25
665.703	10.25
666.46	12.25
667.218	10.25
667.976	11.25
668.733	10.25
669.49	9.25
670.248	11.25
671.005	11.25
671.762	11.25
672.519	8.25
673.276	9.25
674.033	9.25
674.79	9.25
675.547	10.25
676.304	11.25
677.06	9.25
677.817	8.25
678.574	8.25
679.33	9.25
680.086	12.25
680.843	9.25
681.599	8.25
682.355	10.25
683.111	8.25
683.867	6.25
684.623	6.25
685.379	7.25
686.135	8.25
686.89	7.25
687.646	8.25
688.402	7.25
689.157	9.25
689.912	8.25
690.668	7.25
691.423	9.25
692.178	9.25
692.933	6.25
693.688	8.25
694.443	9.25
695.198	5.25
695.953	7.25
696.708	10.25
697.462	8.25
698.217	8.25
698.972	8.25
699.726	6.25
700.48	7.25
701.235	9.25
701.989	6.25
702.743	8.25
703.497	6.25
704.251	9.25
705.005	8.25
705.759	6.25
706.513	7.25
707.266	7.25
708.02	7.25
708.774	9.25
709.527	9.25
710.28	9.25
711.034	5.25
711.787	8.25
712.54	8.25
713.293	7.25
714.046	9.25
714.799	8.25
715.552	8.25
716.305	8.25
717.058	7.25
717.81	8.25
718.563	7.25
719.315	6.25
720.068	9.25
720.82	11.25
721.573	7.25
722.325	8.25
723.077	9.25
723.829	8.25
724.581	9.25
725.333	9.25
726.085	9.25
726.836	8.25
727.588	10.25
728.34	9.25
729.091	9.25
729.843	9.25
730.594	10.25
731.346	11.25
732.097	9.25
732.848	10.25
733.599	10.25
734.35	7.25
735.101	9.25
735.852	8.25
736.603	8.25
737.354	8.25
738.104	7.25
738.855	10.25
739.605	10.25
740.356	11.25
741.106	9.25
741.856	12.25
742.607	11.25
743.357	12.25
744.107	9.25
744.857	11.25
745.607	11.25
746.357	9.25
747.106	10.25
747.856	11.25
748.606	12.25
749.355	11.25
750.105	13.25
750.854	11.25
751.603	15.25
752.353	12.25
753.102	11.25
753.851	15.25
754.6	12.25
755.349	14.25
756.098	13.25
756.847	15.25
757.595	11.25
758.344	13.25
759.093	14.25
759.841	12.25
760.589	16.25
761.338	17.25
762.086	14.25
762.834	12.25
763.582	14.25
764.331	13.25
765.079	14.25
765.826	14.25
766.574	16.25
767.322	14.25
768.07	15.25
768.817	15.25
769.565	16.25
770.312	14.25
771.06	18.25
771.807	15.25
772.554	17.25
773.302	16.25
774.049	15.25
774.796	18.25
775.543	17.25
776.29	14.25
777.036	19.25
777.783	15.25
778.53	16.25
779.276	18.25
780.023	18.25
780.769	14.25
781.516	19.25
782.262	15.25
783.008	15.25
783.754	17.25
784.5	16.25
785.246	12.25
785.992	17.25
786.738	17.25
787.484	15.25
788.23	15.25
788.975	15.25
789.721	17.25
790.466	14.25
791.212	18.25
791.957	15.25
792.702	15.25
793.447	12.25
794.193	14.25
794.938	13.25
795.683	14.25
796.427	13.25
797.172	14.25
797.917	14.25
798.662	14.25
799.406	13.25
800.151	13.25
800.895	12.25
801.64	13.25
802.384	11.25
803.128	11.25
803.872	12.25
804.616	12.25
805.36	12.25
806.104	11.25
806.848	10.25
807.592	9.25
808.336	12.25
809.079	9.25
809.823	10.25
810.566	8.25
811.31	10.25
812.053	11.25
812.796	10.25
813.539	10.25
814.283	8.25
815.026	10.25
815.769	9.25
816.511	9.25
817.254	10.25
817.997	6.25
818.74	7.25
819.482	8.25
820.225	9.25
820.967	8.25
821.71	9.25
822.452	8.25
823.194	7.25
823.936	6.25
824.678	7.25
825.42	8.25
826.162	9.25
826.904	5.25
827.646	5.25
828.388	7.25
829.129	8.25
829.871	7.25
830.612	7.25
831.354	8.25
832.095	3.25
832.836	8.25
833.577	4.25
834.319	6.25
835.06	7.25
835.801	5.25
836.542	6.25
837.282	5.25
838.023	5.25
838.764	7.25
839.504	4.25
840.245	5.25
840.985	6.25
841.726	6.25
842.466	8.25
843.206	5.25
843.946	6.25
844.687	7.25
845.427	3.25
846.166	6.25
846.906	7.25
847.646	6.25
848.386	6.25
849.125	3.25
849.865	1.25
850.605	6.25
851.344	2.25
852.083	7.25
852.823	8.25
853.562	7.25
854.301	3.25
855.04	8.25
855.779	3.25
856.518	3.25
857.257	6.25
857.995	6.25
858.734	3.25
859.473	3.25
860.211	4.25
860.95	4.25
861.688	2.25
862.426	5.25
863.165	3.25
863.903	3.25
864.641	3.25
865.379	1.25
866.117	3.25
866.855	1.25
867.593	1.25
868.33	3.25
869.068	2.25
869.806	3.25
870.543	4.25
871.28	3.25
872.018	2.25
872.755	1.25
873.492	3.25
874.229	1.25
874.967	3.25
875.703	0.25
876.44	0.25
877.177	2.25
877.914	-0.75
878.651	2.25
879.387	2.25
880.124	1.25
880.86	1.25
881.597	3.25
882.333	2.25
883.069	0.25
883.806	2.25
884.542	2.25
885.278	1.25
886.014	1.25
886.749	3.25
887.485	0.25
888.221	1.25
888.957	0.25
889.692	0.25
890.428	1.25
891.163	2.25
891.899	2.25
892.634	2.25
893.369	3.25
894.104	-0.75
894.839	1.25
895.574	-0.75
896.309	2.25
897.044	0.25
897.779	3.25
898.514	2.25
899.248	1.25
899.983	3.25
900.717	2.25
901.452	2.25
902.186	0.25
902.92	2.25
903.654	1.25
904.389	0.25
905.123	-0.75
905.857	1.25
906.59	1.25
907.324	1.25
908.058	-0.75
908.792	0.25
909.525	0.25
910.259	2.25
910.992	1.25
911.726	2.25
912.459	1.25
913.192	1.25
913.925	1.25
914.658	0.25
915.391	2.25
916.124	0.25
916.857	2.25
917.59	0.25
918.323	2.25
919.055	2.25
919.788	1.25
920.521	1.25
921.253	1.25
921.985	0.25
922.718	2.25
923.45	0.25
924.182	0.25
924.914	0.25
925.646	0.25
926.378	1.25
927.11	0.25
927.841	2.25
928.573	0.25
929.305	2.25
930.036	1.25
930.768	0.25
931.499	1.25
932.23	1.25
932.962	3.25
933.693	-1.75
934.424	-0.75
935.155	-1.75
935.886	-0.75
936.617	1.25
937.348	-0.75
938.078	1.25
938.809	0.25
939.54	0.25
940.27	2.25
941.001	-0.75
941.731	1.25
942.461	-0.75
943.191	0.25
943.922	1.25
944.652	2.25
945.382	0.25
946.112	-0.75
946.841	0.25
947.571	0.25
948.301	2.25
949.031	0.25
949.76	1.25
950.49	1.25
951.219	-0.75
951.948	1.25
952.678	2.25
953.407	-0.75
954.136	0.25
954.865	-1.75
955.594	1.25
956.323	-1.75
957.052	1.25
957.78	2.25
958.509	-0.75
959.238	0.25
959.966	-0.75
960.695	2.25
961.423	1.25
962.151	-0.75
962.88	-0.75
963.608	2.25
964.336	1.25
965.064	0.25
965.792	1.25
966.52	3.25
967.247	1.25
967.975	0.25
968.703	-0.75
969.43	-0.75
970.158	1.25
970.885	-1.75
971.613	-2.75
972.34	1.25
973.067	-0.75
973.794	1.25
974.521	1.25
975.248	1.25
975.975	-0.75
976.702	3.25
977.429	-1.75
978.156	0.25
978.882	0.25
979.609	0.25
980.335	1.25
981.062	0.25
981.788	1.25
982.514	-0.75
983.24	2.25
983.967	0.25
984.693	-0.75
985.419	-0.75
986.144	0.25
986.87	0.25
987.596	-0.75
988.322	1.25
989.047	1.25
989.773	-0.75
990.498	-0.75
991.224	0.25
991.949	0.25
992.674	0.25
993.399	0.25
994.124	2.25
994.849	-0.75
995.574	2.25
996.299	1.25
997.024	1.25
997.749	-0.75
998.473	0.25
999.198	-1.75
999.922	-0.75
1000.647	0.25
1001.371	4.25
1002.095	-2.75
1002.82	1.25
1003.544	-1.75
1004.268	6.25
1004.992	1.25
1005.716	5.25
1006.439	4.25
1007.163	4.25
1007.887	6.25
1008.611	-0.75
1009.334	1.25
1010.058	2.25
1010.781	0.25
1011.504	1.25
1012.228	1.25
1012.951	-0.75
1013.674	-1.75
1014.397	1.25
1015.12	0.25
