节点500_705_QEPB04081__513__20-53-11-756.txt的数据

Date: Wed Nov 12 20:53:11 CST 2025
User: PC
Spectrometer: QEPB0408
触发模式: 0
积分时间 (秒): 1.000000E-2
Scans to average: 1
启用暗噪声校正: true
启用非线性校正: false
滑动平均宽度: 0
X轴模式: Wavelengths
Number of Pixels in Spectrum: 1044
>>>>>Begin Spectral Data<<<<<
220.843	4
221.644	4
222.444	5
223.244	7
224.045	7
224.845	4
225.645	6
226.445	5
227.245	7
228.045	7
228.845	8
229.645	5
230.444	7
231.244	9
232.043	7
232.843	10
233.642	6
234.442	8
235.241	10
236.04	12
236.839	7
237.638	11
238.437	10
239.236	11
240.035	10
240.833	10
241.632	11
242.43	11
243.229	10
244.027	11
244.826	11
245.624	13
246.422	12
247.22	13
248.018	11
248.816	13
249.614	14
250.412	14
251.21	16
252.007	15
252.805	15
253.602	15
254.4	15
255.197	15
255.994	17
256.791	17
257.589	19
258.386	19
259.183	22
259.979	17
260.776	18
261.573	20
262.37	20
263.166	21
263.963	19
264.759	21
265.556	25
266.352	23
267.148	25
267.944	22
268.74	26
269.536	26
270.332	26
271.128	27
271.924	26
272.719	30
273.515	30
274.311	30
275.106	29
275.901	30
276.697	28
277.492	29
278.287	33
279.082	31
279.877	30
280.672	31
281.467	31
282.262	28
283.056	30
283.851	31
284.646	29
285.44	26
286.234	32
287.029	29
287.823	31
288.617	31
289.411	31
290.205	28
290.999	29
291.793	29
292.587	25
293.381	29
294.174	27
294.968	25
295.761	27
296.555	21
297.348	22
298.141	23
298.935	28
299.728	23
300.521	23
301.314	22
302.107	20
302.899	21
303.692	22
304.485	21
305.277	18
306.07	24
306.862	21
307.655	18
308.447	22
309.239	17
310.031	19
310.823	18
311.615	16
312.407	16
313.199	14
313.991	19
314.783	14
315.574	17
316.366	15
317.157	14
317.949	15
318.74	14
319.531	12
320.322	10
321.113	15
321.904	14
322.695	13
323.486	13
324.277	14
325.068	11
325.858	11
326.649	11
327.439	12
328.23	11
329.02	10
329.81	10
330.6	12
331.391	10
332.181	11
332.971	12
333.76	10
334.55	10
335.34	11
336.13	9
336.919	10
337.709	11
338.498	9
339.287	10
340.077	11
340.866	10
341.655	10
342.444	10
343.233	13
344.022	9
344.811	10
345.6	7
346.388	9
347.177	8
347.965	11
348.754	11
349.542	11
350.33	9
351.119	9
351.907	9
352.695	11
353.483	11
354.271	8
355.059	9
355.846	9
356.634	10
357.422	10
358.209	10
358.997	11
359.784	9
360.571	10
361.359	11
362.146	11
362.933	11
363.72	9
364.507	9
365.294	9
366.081	8
366.867	11
367.654	9
368.44	10
369.227	10
370.013	8
370.8	9
371.586	10
372.372	5
373.158	8
373.944	10
374.73	8
375.516	8
376.302	10
377.088	8
377.873	8
378.659	11
379.445	11
380.23	11
381.015	11
381.801	8
382.586	10
383.371	9
384.156	8
384.941	10
385.726	11
386.511	14
387.296	12
388.08	9
388.865	11
389.649	9
390.434	10
391.218	12
392.003	11
392.787	9
393.571	9
394.355	13
395.139	12
395.923	9
396.707	10
397.491	10
398.274	13
399.058	13
399.842	12
400.625	13
401.408	12
402.192	12
402.975	12
403.758	13
404.541	14
405.324	14
406.107	14
406.89	13
407.673	13
408.456	15
409.238	15
410.021	14
410.803	15
411.586	14
412.368	18
413.151	15
413.933	18
414.715	13
415.497	17
416.279	18
417.061	17
417.843	18
418.624	16
419.406	17
420.188	16
420.969	19
421.751	21
422.532	20
423.313	23
424.095	22
424.876	21
425.657	19
426.438	23
427.219	27
428	28
428.78	26
429.561	28
430.342	26
431.122	30
431.903	28
432.683	30
433.464	31
434.244	35
435.024	35
435.804	38
436.584	43
437.364	43
438.144	43
438.924	46
439.704	50
440.483	54
441.263	58
442.042	62
442.822	70
443.601	74
444.38	82
445.16	80
445.939	91
446.718	103
447.497	114
448.276	116
449.054	134
449.833	141
450.612	163
451.391	175
452.169	194
452.948	215
453.726	239
454.504	270
455.282	302
456.061	342
456.839	373
457.617	400
458.395	462
459.172	507
459.95	569
460.728	621
461.506	698
462.283	782
463.061	857
463.838	962
464.615	1060
465.393	1181
466.17	1305
466.947	1443
467.724	1587
468.501	1773
469.278	1954
470.055	2146
470.831	2395
471.608	2607
472.385	2880
473.161	3146
473.938	3429
474.714	3754
475.49	4139
476.266	4510
477.043	4910
477.819	5342
478.595	5832
479.371	6314
480.146	6886
480.922	7529
481.698	8133
482.473	8817
483.249	9564
484.024	10352
484.8	11179
485.575	12054
486.35	13033
487.126	14096
487.901	15165
488.676	16320
489.451	17576
490.225	18858
491	20175
491.775	21553
492.55	23067
493.324	24449
494.099	26005
494.873	27573
495.647	29163
496.422	30755
497.196	32320
497.97	33701
498.744	35142
499.518	36675
500.292	37908
501.066	38887
501.839	39803
502.613	40693
503.387	41370
504.16	41910
504.934	42207
505.707	42432
506.48	42270
507.253	41985
508.027	41613
508.8	41004
509.573	40232
510.346	39425
511.118	38601
511.891	37604
512.664	36313
513.437	35053
514.209	33880
514.982	32608
515.754	31443
516.526	30217
517.298	28994
518.071	27914
518.843	26796
519.615	25733
520.387	24789
521.159	23737
521.93	22763
522.702	21821
523.474	20915
524.245	20078
525.017	19308
525.788	18487
526.56	17723
527.331	16962
528.102	16122
528.873	15308
529.644	14566
530.415	13981
531.186	13308
531.957	12616
532.728	12035
533.498	11427
534.269	10799
535.039	10241
535.81	9688
536.58	9166
537.351	8727
538.121	8254
538.891	7818
539.661	7369
540.431	6966
541.201	6640
541.971	6288
542.741	5933
543.51	5673
544.28	5369
545.05	5125
545.819	4863
546.588	4676
547.358	4428
548.127	4209
548.896	3996
549.665	3810
550.434	3615
551.203	3423
551.972	3249
552.741	3066
553.51	2907
554.278	2723
555.047	2606
555.815	2462
556.584	2346
557.352	2193
558.121	2067
558.889	1959
559.657	1864
560.425	1751
561.193	1664
561.961	1586
562.729	1495
563.496	1396
564.264	1318
565.032	1269
565.799	1195
566.567	1134
567.334	1065
568.101	1005
568.869	947
569.636	897
570.403	824
571.17	802
571.937	751
572.704	716
573.471	668
574.237	639
575.004	593
575.771	558
576.537	534
577.303	506
578.07	479
578.836	441
579.602	427
580.368	403
581.134	386
581.9	367
582.666	352
583.432	328
584.198	313
584.964	295
585.729	282
586.495	266
587.26	249
588.025	242
588.791	227
589.556	214
590.321	205
591.086	193
591.851	185
592.616	175
593.381	164
594.146	165
594.911	150
595.675	151
596.44	141
597.204	126
597.969	129
598.733	119
599.497	115
600.261	107
601.025	107
601.79	100
602.553	100
603.317	92
604.081	90
604.845	88
605.609	79
606.372	78
607.136	79
607.899	73
608.662	69
609.426	69
610.189	66
610.952	66
611.715	61
612.478	63
613.241	56
614.004	56
614.767	54
615.529	51
616.292	51
617.055	47
617.817	45
618.579	47
619.342	41
620.104	38
620.866	42
621.628	43
622.39	38
623.152	35
623.914	31
624.676	36
625.438	35
626.199	34
626.961	30
627.722	27
628.484	29
629.245	28
630.006	28
630.768	24
631.529	24
632.29	27
633.051	26
633.812	26
634.573	23
635.333	24
636.094	23
636.855	22
637.615	22
638.376	20
639.136	19
639.896	16
640.657	18
641.417	22
642.177	16
642.937	17
643.697	15
644.457	17
645.216	17
645.976	16
646.736	15
647.495	14
648.255	15
649.014	14
649.774	14
650.533	17
651.292	11
652.051	15
652.81	13
653.569	12
654.328	14
655.087	13
655.846	12
656.604	12
657.363	13
658.121	9
658.88	8
659.638	10
660.397	11
661.155	13
661.913	11
662.671	11
663.429	9
664.187	10
664.945	10
665.703	8
666.46	11
667.218	9
667.976	9
668.733	9
669.49	8
670.248	10
671.005	7
671.762	10
672.519	8
673.276	7
674.033	9
674.79	9
675.547	10
676.304	7
677.06	8
677.817	11
678.574	7
679.33	8
680.086	9
680.843	8
681.599	6
682.355	7
683.111	9
683.867	7
684.623	7
685.379	8
686.135	9
686.89	6
687.646	7
688.402	7
689.157	5
689.912	9
690.668	6
691.423	9
692.178	8
692.933	8
693.688	8
694.443	8
695.198	7
695.953	7
696.708	9
697.462	8
698.217	7
698.972	6
699.726	6
700.48	6
701.235	5
701.989	6
702.743	7
703.497	6
704.251	7
705.005	7
705.759	7
706.513	7
707.266	5
708.02	6
708.774	7
709.527	8
710.28	7
711.034	6
711.787	9
712.54	9
713.293	6
714.046	6
714.799	8
715.552	6
716.305	8
717.058	7
717.81	6
718.563	9
719.315	8
720.068	7
720.82	7
721.573	7
722.325	7
723.077	5
723.829	6
724.581	8
725.333	8
726.085	9
726.836	8
727.588	8
728.34	8
729.091	8
729.843	9
730.594	6
731.346	8
732.097	8
732.848	9
733.599	8
734.35	8
735.101	10
735.852	6
736.603	11
737.354	8
738.104	8
738.855	9
739.605	10
740.356	10
741.106	8
741.856	10
742.607	8
743.357	10
744.107	9
744.857	9
745.607	10
746.357	6
747.106	11
747.856	11
748.606	7
749.355	8
750.105	10
750.854	9
751.603	8
752.353	11
753.102	11
753.851	10
754.6	13
755.349	12
756.098	11
756.847	12
757.595	11
758.344	8
759.093	10
759.841	11
760.589	10
761.338	11
762.086	11
762.834	13
763.582	13
764.331	11
765.079	12
765.826	13
766.574	12
767.322	11
768.07	11
768.817	14
769.565	13
770.312	13
771.06	11
771.807	14
772.554	13
773.302	13
774.049	14
774.796	14
775.543	14
776.29	14
777.036	14
777.783	14
778.53	14
779.276	14
780.023	13
780.769	15
781.516	15
782.262	14
783.008	15
783.754	15
784.5	15
785.246	15
785.992	14
786.738	16
787.484	12
788.23	12
788.975	11
789.721	15
790.466	15
791.212	13
791.957	14
792.702	14
793.447	12
794.193	11
794.938	15
795.683	13
796.427	12
797.172	15
797.917	12
798.662	13
799.406	11
800.151	10
800.895	12
801.64	13
802.384	12
803.128	11
803.872	11
804.616	9
805.36	8
806.104	11
806.848	9
807.592	10
808.336	11
809.079	11
809.823	8
810.566	6
811.31	9
812.053	7
812.796	9
813.539	8
814.283	10
815.026	8
815.769	8
816.511	8
817.254	8
817.997	6
818.74	4
819.482	9
820.225	7
820.967	8
821.71	6
822.452	7
823.194	6
823.936	6
824.678	7
825.42	9
826.162	6
826.904	6
827.646	5
828.388	6
829.129	6
829.871	3
830.612	7
831.354	7
832.095	8
832.836	9
833.577	6
834.319	5
835.06	5
835.801	6
836.542	7
837.282	7
838.023	5
838.764	5
839.504	6
840.245	5
840.985	4
841.726	7
842.466	5
843.206	5
843.946	7
844.687	4
845.427	5
846.166	3
846.906	6
847.646	5
848.386	5
849.125	5
849.865	5
850.605	5
851.344	3
852.083	5
852.823	5
853.562	5
854.301	4
855.04	2
855.779	4
856.518	3
857.257	4
857.995	4
858.734	3
859.473	5
860.211	0
860.95	5
861.688	4
862.426	3
863.165	3
863.903	1
864.641	1
865.379	1
866.117	4
866.855	2
867.593	3
868.33	0
869.068	3
869.806	4
870.543	1
871.28	3
872.018	4
872.755	1
873.492	3
874.229	3
874.967	5
875.703	3
876.44	1
877.177	1
877.914	2
878.651	4
879.387	3
880.124	3
880.86	1
881.597	0
882.333	3
883.069	3
883.806	1
884.542	1
885.278	2
886.014	2
886.749	2
887.485	2
888.221	2
888.957	0
889.692	1
890.428	2
891.163	1
891.899	3
892.634	0
893.369	1
894.104	0
894.839	1
895.574	1
896.309	1
897.044	0
897.779	2
898.514	0
899.248	1
899.983	-1
900.717	-1
901.452	2
902.186	0
902.92	1
903.654	1
904.389	0
905.123	1
905.857	1
906.59	2
907.324	-1
908.058	0
908.792	1
909.525	-2
910.259	2
910.992	0
911.726	1
912.459	1
913.192	0
913.925	1
914.658	-1
915.391	1
916.124	-2
916.857	1
917.59	0
918.323	-1
919.055	2
919.788	2
920.521	-1
921.253	1
921.985	0
922.718	1
923.45	-1
924.182	0
924.914	0
925.646	1
926.378	1
927.11	0
927.841	2
928.573	1
929.305	-1
930.036	1
930.768	0
931.499	0
932.23	1
932.962	2
933.693	0
934.424	1
935.155	1
935.886	1
936.617	-2
937.348	3
938.078	-1
938.809	1
939.54	1
940.27	0
941.001	-1
941.731	1
942.461	-1
943.191	2
943.922	0
944.652	-1
945.382	0
946.112	0
946.841	0
947.571	1
948.301	2
949.031	1
949.76	1
950.49	1
951.219	-1
951.948	0
952.678	1
953.407	0
954.136	2
954.865	1
955.594	1
956.323	1
957.052	0
957.78	1
958.509	0
959.238	0
959.966	0
960.695	-1
961.423	-1
962.151	3
962.88	1
963.608	1
964.336	1
965.064	2
965.792	-1
966.52	3
967.247	-1
967.975	1
968.703	0
969.43	1
970.158	0
970.885	1
971.613	1
972.34	-1
973.067	1
973.794	2
974.521	-1
975.248	0
975.975	0
976.702	0
977.429	1
978.156	1
978.882	0
979.609	1
980.335	0
981.062	2
981.788	2
982.514	-1
983.24	1
983.967	-2
984.693	-2
985.419	1
986.144	-1
986.87	0
987.596	0
988.322	-1
989.047	1
989.773	-2
990.498	3
991.224	1
991.949	-1
992.674	-1
993.399	0
994.124	-1
994.849	-1
995.574	-2
996.299	0
997.024	3
997.749	-3
998.473	0
999.198	1
999.922	-1
1000.647	0
1001.371	3
1002.095	2
1002.82	-2
1003.544	-1
1004.268	5
1004.992	2
1005.716	6
1006.439	5
1007.163	7
1007.887	3
1008.611	-1
1009.334	1
1010.058	1
1010.781	1
1011.504	0
1012.228	-2
1012.951	0
1013.674	-1
1014.397	-1
1015.12	0
