节点500_705_QEPB04081__349__20-50-53-595.txt的数据

Date: Wed Nov 12 20:50:53 CST 2025
User: PC
Spectrometer: QEPB0408
触发模式: 0
积分时间 (秒): 1.000000E-2
Scans to average: 1
启用暗噪声校正: true
启用非线性校正: false
滑动平均宽度: 0
X轴模式: Wavelengths
Number of Pixels in Spectrum: 1044
>>>>>Begin Spectral Data<<<<<
220.843	6.38
221.644	5.38
222.444	5.38
223.244	5.38
224.045	7.38
224.845	4.38
225.645	8.38
226.445	6.38
227.245	5.38
228.045	9.38
228.845	9.38
229.645	7.38
230.444	7.38
231.244	9.38
232.043	9.38
232.843	10.38
233.642	11.38
234.442	9.38
235.241	10.38
236.04	7.38
236.839	9.38
237.638	10.38
238.437	11.38
239.236	12.38
240.035	11.38
240.833	10.38
241.632	15.38
242.43	9.38
243.229	14.38
244.027	13.38
244.826	11.38
245.624	14.38
246.422	14.38
247.22	13.38
248.018	12.38
248.816	13.38
249.614	15.38
250.412	18.38
251.21	14.38
252.007	18.38
252.805	16.38
253.602	16.38
254.4	17.38
255.197	19.38
255.994	19.38
256.791	17.38
257.589	22.38
258.386	21.38
259.183	20.38
259.979	23.38
260.776	24.38
261.573	23.38
262.37	23.38
263.166	22.38
263.963	25.38
264.759	26.38
265.556	26.38
266.352	27.38
267.148	27.38
267.944	27.38
268.74	29.38
269.536	27.38
270.332	28.38
271.128	30.38
271.924	31.38
272.719	30.38
273.515	32.38
274.311	31.38
275.106	33.38
275.901	32.38
276.697	34.38
277.492	38.38
278.287	35.38
279.082	33.38
279.877	35.38
280.672	30.38
281.467	30.38
282.262	33.38
283.056	34.38
283.851	31.38
284.646	35.38
285.44	36.38
286.234	34.38
287.029	34.38
287.823	31.38
288.617	34.38
289.411	33.38
290.205	33.38
290.999	30.38
291.793	30.38
292.587	30.38
293.381	30.38
294.174	31.38
294.968	29.38
295.761	29.38
296.555	29.38
297.348	28.38
298.141	25.38
298.935	28.38
299.728	27.38
300.521	26.38
301.314	23.38
302.107	23.38
302.899	21.38
303.692	22.38
304.485	24.38
305.277	22.38
306.07	23.38
306.862	21.38
307.655	21.38
308.447	20.38
309.239	23.38
310.031	17.38
310.823	20.38
311.615	18.38
312.407	18.38
313.199	17.38
313.991	15.38
314.783	15.38
315.574	17.38
316.366	18.38
317.157	14.38
317.949	16.38
318.74	17.38
319.531	14.38
320.322	13.38
321.113	13.38
321.904	14.38
322.695	12.38
323.486	14.38
324.277	12.38
325.068	13.38
325.858	17.38
326.649	11.38
327.439	10.38
328.23	11.38
329.02	13.38
329.81	13.38
330.6	14.38
331.391	13.38
332.181	13.38
332.971	11.38
333.76	13.38
334.55	12.38
335.34	11.38
336.13	12.38
336.919	12.38
337.709	10.38
338.498	13.38
339.287	12.38
340.077	13.38
340.866	13.38
341.655	12.38
342.444	11.38
343.233	10.38
344.022	13.38
344.811	14.38
345.6	11.38
346.388	11.38
347.177	11.38
347.965	13.38
348.754	10.38
349.542	12.38
350.33	13.38
351.119	10.38
351.907	9.38
352.695	11.38
353.483	11.38
354.271	11.38
355.059	11.38
355.846	13.38
356.634	10.38
357.422	11.38
358.209	8.38
358.997	11.38
359.784	10.38
360.571	10.38
361.359	12.38
362.146	8.38
362.933	12.38
363.72	10.38
364.507	10.38
365.294	11.38
366.081	10.38
366.867	9.38
367.654	11.38
368.44	11.38
369.227	8.38
370.013	8.38
370.8	10.38
371.586	8.38
372.372	10.38
373.158	9.38
373.944	9.38
374.73	11.38
375.516	10.38
376.302	10.38
377.088	11.38
377.873	9.38
378.659	11.38
379.445	11.38
380.23	8.38
381.015	9.38
381.801	10.38
382.586	8.38
383.371	8.38
384.156	9.38
384.941	9.38
385.726	11.38
386.511	11.38
387.296	11.38
388.08	12.38
388.865	13.38
389.649	11.38
390.434	11.38
391.218	11.38
392.003	11.38
392.787	12.38
393.571	11.38
394.355	11.38
395.139	12.38
395.923	10.38
396.707	12.38
397.491	13.38
398.274	12.38
399.058	13.38
399.842	14.38
400.625	13.38
401.408	14.38
402.192	12.38
402.975	15.38
403.758	14.38
404.541	12.38
405.324	17.38
406.107	16.38
406.89	16.38
407.673	15.38
408.456	16.38
409.238	15.38
410.021	15.38
410.803	15.38
411.586	18.38
412.368	16.38
413.151	15.38
413.933	17.38
414.715	17.38
415.497	19.38
416.279	19.38
417.061	20.38
417.843	19.38
418.624	17.38
419.406	23.38
420.188	21.38
420.969	21.38
421.751	22.38
422.532	21.38
423.313	23.38
424.095	23.38
424.876	26.38
425.657	24.38
426.438	23.38
427.219	29.38
428	27.38
428.78	28.38
429.561	26.38
430.342	31.38
431.122	27.38
431.903	34.38
432.683	34.38
433.464	37.38
434.244	41.38
435.024	38.38
435.804	41.38
436.584	46.38
437.364	43.38
438.144	49.38
438.924	53.38
439.704	54.38
440.483	58.38
441.263	63.38
442.042	65.38
442.822	69.38
443.601	76.38
444.38	81.38
445.16	91.38
445.939	93.38
446.718	104.38
447.497	114.38
448.276	119.38
449.054	136.38
449.833	146.38
450.612	159.38
451.391	179.38
452.169	192.38
452.948	216.38
453.726	245.38
454.504	270.38
455.282	306.38
456.061	330.38
456.839	376.38
457.617	420.38
458.395	462.38
459.172	513.38
459.95	568.38
460.728	639.38
461.506	713.38
462.283	789.38
463.061	883.38
463.838	987.38
464.615	1101.38
465.393	1229.38
466.17	1365.38
466.947	1503.38
467.724	1690.38
468.501	1854.38
469.278	2047.38
470.055	2268.38
470.831	2491.38
471.608	2771.38
472.385	3035.38
473.161	3326.38
473.938	3664.38
474.714	4041.38
475.49	4448.38
476.266	4841.38
477.043	5325.38
477.819	5803.38
478.595	6325.38
479.371	6922.38
480.146	7522.38
480.922	8227.38
481.698	8968.38
482.473	9777.38
483.249	10618.38
484.024	11503.38
484.8	12496.38
485.575	13535.38
486.35	14685.38
487.126	15860.38
487.901	17176.38
488.676	18566.38
489.451	20048.38
490.225	21440.38
491	23042.38
491.775	24627.38
492.55	26345.38
493.324	28104.38
494.099	29849.38
494.873	31631.38
495.647	33398.38
496.422	35098.38
497.196	36912.38
497.97	38481.38
498.744	39931.38
499.518	41620.38
500.292	42977.38
501.066	44048.38
501.839	44970.38
502.613	45757.38
503.387	46410.38
504.16	46859.38
504.934	46971.38
505.707	46934.38
506.48	46599.38
507.253	46126.38
508.027	45458.38
508.8	44540.38
509.573	43551.38
510.346	42491.38
511.118	41460.38
511.891	40243.38
512.664	38802.38
513.437	37329.38
514.209	35884.38
514.982	34514.38
515.754	33166.38
516.526	31832.38
517.298	30570.38
518.071	29314.38
518.843	28181.38
519.615	26966.38
520.387	25938.38
521.159	24935.38
521.93	23888.38
522.702	22910.38
523.474	21951.38
524.245	21036.38
525.017	20106.38
525.788	19258.38
526.56	18411.38
527.331	17651.38
528.102	16741.38
528.873	15920.38
529.644	15160.38
530.415	14483.38
531.186	13736.38
531.957	13023.38
532.728	12371.38
533.498	11767.38
534.269	11084.38
535.039	10506.38
535.81	9931.38
536.58	9390.38
537.351	8905.38
538.121	8457.38
538.891	7957.38
539.661	7562.38
540.431	7116.38
541.201	6769.38
541.971	6451.38
542.741	6065.38
543.51	5771.38
544.28	5521.38
545.05	5240.38
545.819	5003.38
546.588	4734.38
547.358	4519.38
548.127	4321.38
548.896	4100.38
549.665	3881.38
550.434	3674.38
551.203	3489.38
551.972	3315.38
552.741	3127.38
553.51	2951.38
554.278	2803.38
555.047	2635.38
555.815	2508.38
556.584	2362.38
557.352	2230.38
558.121	2095.38
558.889	1996.38
559.657	1869.38
560.425	1786.38
561.193	1685.38
561.961	1594.38
562.729	1508.38
563.496	1434.38
564.264	1336.38
565.032	1263.38
565.799	1192.38
566.567	1141.38
567.334	1073.38
568.101	1017.38
568.869	964.38
569.636	906.38
570.403	848.38
571.17	823.38
571.937	761.38
572.704	732.38
573.471	678.38
574.237	643.38
575.004	603.38
575.771	570.38
576.537	529.38
577.303	512.38
578.07	482.38
578.836	450.38
579.602	425.38
580.368	409.38
581.134	390.38
581.9	372.38
582.666	356.38
583.432	337.38
584.198	310.38
584.964	303.38
585.729	280.38
586.495	271.38
587.26	259.38
588.025	242.38
588.791	227.38
589.556	214.38
590.321	202.38
591.086	193.38
591.851	183.38
592.616	177.38
593.381	166.38
594.146	158.38
594.911	154.38
595.675	149.38
596.44	141.38
597.204	133.38
597.969	134.38
598.733	124.38
599.497	116.38
600.261	111.38
601.025	105.38
601.79	102.38
602.553	99.38
603.317	98.38
604.081	94.38
604.845	89.38
605.609	84.38
606.372	83.38
607.136	79.38
607.899	72.38
608.662	74.38
609.426	72.38
610.189	68.38
610.952	62.38
611.715	64.38
612.478	59.38
613.241	56.38
614.004	58.38
614.767	55.38
615.529	51.38
616.292	49.38
617.055	52.38
617.817	49.38
618.579	43.38
619.342	45.38
620.104	41.38
620.866	41.38
621.628	43.38
622.39	41.38
623.152	35.38
623.914	36.38
624.676	36.38
625.438	33.38
626.199	34.38
626.961	31.38
627.722	30.38
628.484	29.38
629.245	28.38
630.006	28.38
630.768	30.38
631.529	25.38
632.29	26.38
633.051	23.38
633.812	27.38
634.573	25.38
635.333	23.38
636.094	24.38
636.855	23.38
637.615	25.38
638.376	20.38
639.136	21.38
639.896	21.38
640.657	17.38
641.417	19.38
642.177	17.38
642.937	21.38
643.697	17.38
644.457	17.38
645.216	17.38
645.976	17.38
646.736	15.38
647.495	17.38
648.255	14.38
649.014	14.38
649.774	15.38
650.533	16.38
651.292	14.38
652.051	16.38
652.81	14.38
653.569	12.38
654.328	11.38
655.087	11.38
655.846	13.38
656.604	12.38
657.363	14.38
658.121	14.38
658.88	14.38
659.638	14.38
660.397	13.38
661.155	13.38
661.913	13.38
662.671	11.38
663.429	10.38
664.187	10.38
664.945	9.38
665.703	12.38
666.46	9.38
667.218	9.38
667.976	10.38
668.733	9.38
669.49	9.38
670.248	9.38
671.005	10.38
671.762	9.38
672.519	8.38
673.276	10.38
674.033	11.38
674.79	7.38
675.547	10.38
676.304	7.38
677.06	7.38
677.817	9.38
678.574	7.38
679.33	8.38
680.086	6.38
680.843	8.38
681.599	10.38
682.355	10.38
683.111	9.38
683.867	9.38
684.623	7.38
685.379	10.38
686.135	8.38
686.89	10.38
687.646	7.38
688.402	8.38
689.157	7.38
689.912	11.38
690.668	8.38
691.423	5.38
692.178	9.38
692.933	7.38
693.688	9.38
694.443	7.38
695.198	9.38
695.953	7.38
696.708	8.38
697.462	10.38
698.217	6.38
698.972	8.38
699.726	7.38
700.48	8.38
701.235	8.38
701.989	8.38
702.743	7.38
703.497	8.38
704.251	8.38
705.005	8.38
705.759	6.38
706.513	8.38
707.266	7.38
708.02	9.38
708.774	8.38
709.527	9.38
710.28	8.38
711.034	9.38
711.787	10.38
712.54	9.38
713.293	8.38
714.046	7.38
714.799	6.38
715.552	9.38
716.305	5.38
717.058	9.38
717.81	7.38
718.563	8.38
719.315	7.38
720.068	8.38
720.82	8.38
721.573	8.38
722.325	8.38
723.077	11.38
723.829	8.38
724.581	7.38
725.333	5.38
726.085	9.38
726.836	8.38
727.588	7.38
728.34	10.38
729.091	8.38
729.843	9.38
730.594	10.38
731.346	7.38
732.097	11.38
732.848	6.38
733.599	10.38
734.35	9.38
735.101	9.38
735.852	8.38
736.603	9.38
737.354	10.38
738.104	8.38
738.855	9.38
739.605	10.38
740.356	10.38
741.106	11.38
741.856	9.38
742.607	13.38
743.357	9.38
744.107	11.38
744.857	10.38
745.607	10.38
746.357	11.38
747.106	10.38
747.856	10.38
748.606	10.38
749.355	11.38
750.105	11.38
750.854	12.38
751.603	12.38
752.353	9.38
753.102	11.38
753.851	11.38
754.6	11.38
755.349	10.38
756.098	12.38
756.847	12.38
757.595	14.38
758.344	13.38
759.093	9.38
759.841	12.38
760.589	11.38
761.338	10.38
762.086	14.38
762.834	10.38
763.582	13.38
764.331	15.38
765.079	14.38
765.826	12.38
766.574	16.38
767.322	12.38
768.07	15.38
768.817	14.38
769.565	13.38
770.312	13.38
771.06	14.38
771.807	13.38
772.554	15.38
773.302	17.38
774.049	12.38
774.796	15.38
775.543	15.38
776.29	18.38
777.036	17.38
777.783	16.38
778.53	14.38
779.276	13.38
780.023	15.38
780.769	14.38
781.516	15.38
782.262	15.38
783.008	16.38
783.754	17.38
784.5	15.38
785.246	16.38
785.992	15.38
786.738	15.38
787.484	14.38
788.23	16.38
788.975	17.38
789.721	12.38
790.466	17.38
791.212	15.38
791.957	13.38
792.702	14.38
793.447	15.38
794.193	14.38
794.938	14.38
795.683	15.38
796.427	14.38
797.172	15.38
797.917	13.38
798.662	12.38
799.406	17.38
800.151	13.38
800.895	13.38
801.64	12.38
802.384	14.38
803.128	13.38
803.872	10.38
804.616	13.38
805.36	12.38
806.104	11.38
806.848	9.38
807.592	8.38
808.336	10.38
809.079	9.38
809.823	12.38
810.566	9.38
811.31	8.38
812.053	11.38
812.796	8.38
813.539	10.38
814.283	7.38
815.026	9.38
815.769	10.38
816.511	7.38
817.254	6.38
817.997	9.38
818.74	6.38
819.482	10.38
820.225	9.38
820.967	8.38
821.71	9.38
822.452	9.38
823.194	7.38
823.936	9.38
824.678	7.38
825.42	5.38
826.162	6.38
826.904	8.38
827.646	7.38
828.388	7.38
829.129	8.38
829.871	7.38
830.612	7.38
831.354	7.38
832.095	5.38
832.836	7.38
833.577	5.38
834.319	7.38
835.06	6.38
835.801	6.38
836.542	9.38
837.282	4.38
838.023	6.38
838.764	5.38
839.504	3.38
840.245	7.38
840.985	6.38
841.726	5.38
842.466	4.38
843.206	5.38
843.946	6.38
844.687	5.38
845.427	4.38
846.166	5.38
846.906	4.38
847.646	6.38
848.386	3.38
849.125	6.38
849.865	7.38
850.605	6.38
851.344	6.38
852.083	6.38
852.823	4.38
853.562	3.38
854.301	6.38
855.04	2.38
855.779	5.38
856.518	6.38
857.257	7.38
857.995	5.38
858.734	4.38
859.473	4.38
860.211	5.38
860.95	4.38
861.688	4.38
862.426	4.38
863.165	5.38
863.903	2.38
864.641	4.38
865.379	3.38
866.117	3.38
866.855	3.38
867.593	3.38
868.33	5.38
869.068	5.38
869.806	0.38
870.543	4.38
871.28	2.38
872.018	3.38
872.755	3.38
873.492	2.38
874.229	2.38
874.967	4.38
875.703	1.38
876.44	2.38
877.177	3.38
877.914	2.38
878.651	1.38
879.387	1.38
880.124	0.38
880.86	1.38
881.597	3.38
882.333	2.38
883.069	3.38
883.806	2.38
884.542	2.38
885.278	-0.62
886.014	1.38
886.749	3.38
887.485	2.38
888.221	1.38
888.957	2.38
889.692	0.38
890.428	3.38
891.163	2.38
891.899	2.38
892.634	2.38
893.369	2.38
894.104	0.38
894.839	1.38
895.574	2.38
896.309	2.38
897.044	1.38
897.779	0.38
898.514	2.38
899.248	0.38
899.983	2.38
900.717	2.38
901.452	1.38
902.186	2.38
902.92	0.38
903.654	1.38
904.389	1.38
905.123	1.38
905.857	-0.62
906.59	0.38
907.324	3.38
908.058	0.38
908.792	3.38
909.525	3.38
910.259	1.38
910.992	1.38
911.726	-1.62
912.459	2.38
913.192	1.38
913.925	2.38
914.658	0.38
915.391	0.38
916.124	1.38
916.857	-0.62
917.59	2.38
918.323	2.38
919.055	-0.62
919.788	0.38
920.521	1.38
921.253	-0.62
921.985	1.38
922.718	0.38
923.45	-1.62
924.182	1.38
924.914	2.38
925.646	1.38
926.378	-0.62
927.11	1.38
927.841	0.38
928.573	2.38
929.305	-0.62
930.036	1.38
930.768	-2.62
931.499	1.38
932.23	-0.62
932.962	0.38
933.693	0.38
934.424	1.38
935.155	-0.62
935.886	0.38
936.617	-0.62
937.348	0.38
938.078	1.38
938.809	-0.62
939.54	-0.62
940.27	2.38
941.001	1.38
941.731	0.38
942.461	1.38
943.191	-0.62
943.922	1.38
944.652	1.38
945.382	2.38
946.112	0.38
946.841	0.38
947.571	-0.62
948.301	-0.62
949.031	-1.62
949.76	-0.62
950.49	0.38
951.219	-0.62
951.948	-0.62
952.678	2.38
953.407	0.38
954.136	0.38
954.865	3.38
955.594	0.38
956.323	0.38
957.052	1.38
957.78	1.38
958.509	1.38
959.238	-0.62
959.966	0.38
960.695	-0.62
961.423	1.38
962.151	-0.62
962.88	0.38
963.608	0.38
964.336	1.38
965.064	-0.62
965.792	0.38
966.52	1.38
967.247	-0.62
967.975	-0.62
968.703	0.38
969.43	-0.62
970.158	3.38
970.885	-0.62
971.613	2.38
972.34	1.38
973.067	1.38
973.794	0.38
974.521	1.38
975.248	1.38
975.975	1.38
976.702	1.38
977.429	1.38
978.156	1.38
978.882	2.38
979.609	1.38
980.335	1.38
981.062	1.38
981.788	-0.62
982.514	1.38
983.24	2.38
983.967	1.38
984.693	-0.62
985.419	2.38
986.144	-0.62
986.87	1.38
987.596	1.38
988.322	-2.62
989.047	1.38
989.773	0.38
990.498	-0.62
991.224	1.38
991.949	0.38
992.674	2.38
993.399	0.38
994.124	0.38
994.849	1.38
995.574	1.38
996.299	2.38
997.024	0.38
997.749	2.38
998.473	2.38
999.198	0.38
999.922	-1.62
1000.647	-0.62
1001.371	3.38
1002.095	1.38
1002.82	0.38
1003.544	-2.62
1004.268	7.38
1004.992	5.38
1005.716	5.38
1006.439	6.38
1007.163	7.38
1007.887	6.38
1008.611	1.38
1009.334	-0.62
1010.058	2.38
1010.781	-0.62
1011.504	3.38
1012.228	1.38
1012.951	0.38
1013.674	-0.62
1014.397	-0.62
1015.12	-1.62
