节点500_705_QEPB04081__196__20-48-58-476.txt的数据

Date: Wed Nov 12 20:48:58 CST 2025
User: PC
Spectrometer: QEPB0408
触发模式: 0
积分时间 (秒): 1.000000E-2
Scans to average: 1
启用暗噪声校正: true
启用非线性校正: false
滑动平均宽度: 0
X轴模式: Wavelengths
Number of Pixels in Spectrum: 1044
>>>>>Begin Spectral Data<<<<<
220.843	4.88
221.644	4.88
222.444	4.88
223.244	3.88
224.045	6.88
224.845	6.88
225.645	5.88
226.445	5.88
227.245	8.88
228.045	5.88
228.845	6.88
229.645	8.88
230.444	6.88
231.244	8.88
232.043	10.88
232.843	6.88
233.642	10.88
234.442	11.88
235.241	11.88
236.04	9.88
236.839	9.88
237.638	10.88
238.437	10.88
239.236	10.88
240.035	10.88
240.833	13.88
241.632	10.88
242.43	13.88
243.229	9.88
244.027	13.88
244.826	12.88
245.624	14.88
246.422	11.88
247.22	14.88
248.018	14.88
248.816	16.88
249.614	14.88
250.412	15.88
251.21	15.88
252.007	16.88
252.805	18.88
253.602	16.88
254.4	22.88
255.197	17.88
255.994	19.88
256.791	18.88
257.589	20.88
258.386	21.88
259.183	20.88
259.979	24.88
260.776	24.88
261.573	24.88
262.37	25.88
263.166	23.88
263.963	24.88
264.759	28.88
265.556	27.88
266.352	28.88
267.148	24.88
267.944	30.88
268.74	30.88
269.536	31.88
270.332	31.88
271.128	30.88
271.924	32.88
272.719	34.88
273.515	34.88
274.311	34.88
275.106	30.88
275.901	35.88
276.697	37.88
277.492	35.88
278.287	33.88
279.082	33.88
279.877	36.88
280.672	35.88
281.467	35.88
282.262	34.88
283.056	37.88
283.851	34.88
284.646	36.88
285.44	33.88
286.234	34.88
287.029	32.88
287.823	35.88
288.617	34.88
289.411	33.88
290.205	34.88
290.999	30.88
291.793	30.88
292.587	28.88
293.381	30.88
294.174	29.88
294.968	30.88
295.761	27.88
296.555	23.88
297.348	26.88
298.141	27.88
298.935	25.88
299.728	28.88
300.521	26.88
301.314	25.88
302.107	25.88
302.899	24.88
303.692	21.88
304.485	21.88
305.277	22.88
306.07	24.88
306.862	21.88
307.655	21.88
308.447	19.88
309.239	21.88
310.031	20.88
310.823	16.88
311.615	17.88
312.407	16.88
313.199	19.88
313.991	16.88
314.783	16.88
315.574	17.88
316.366	15.88
317.157	15.88
317.949	14.88
318.74	18.88
319.531	12.88
320.322	13.88
321.113	15.88
321.904	12.88
322.695	13.88
323.486	14.88
324.277	14.88
325.068	10.88
325.858	13.88
326.649	10.88
327.439	12.88
328.23	12.88
329.02	14.88
329.81	14.88
330.6	8.88
331.391	11.88
332.181	13.88
332.971	9.88
333.76	9.88
334.55	13.88
335.34	9.88
336.13	12.88
336.919	9.88
337.709	9.88
338.498	12.88
339.287	11.88
340.077	13.88
340.866	12.88
341.655	12.88
342.444	9.88
343.233	11.88
344.022	11.88
344.811	11.88
345.6	12.88
346.388	8.88
347.177	11.88
347.965	11.88
348.754	10.88
349.542	9.88
350.33	9.88
351.119	11.88
351.907	9.88
352.695	11.88
353.483	12.88
354.271	9.88
355.059	12.88
355.846	9.88
356.634	8.88
357.422	9.88
358.209	10.88
358.997	12.88
359.784	11.88
360.571	9.88
361.359	8.88
362.146	7.88
362.933	8.88
363.72	9.88
364.507	10.88
365.294	10.88
366.081	11.88
366.867	7.88
367.654	10.88
368.44	10.88
369.227	9.88
370.013	9.88
370.8	6.88
371.586	10.88
372.372	10.88
373.158	8.88
373.944	9.88
374.73	6.88
375.516	11.88
376.302	7.88
377.088	10.88
377.873	8.88
378.659	8.88
379.445	9.88
380.23	9.88
381.015	12.88
381.801	8.88
382.586	12.88
383.371	9.88
384.156	9.88
384.941	10.88
385.726	12.88
386.511	13.88
387.296	11.88
388.08	8.88
388.865	12.88
389.649	9.88
390.434	11.88
391.218	11.88
392.003	11.88
392.787	11.88
393.571	11.88
394.355	11.88
395.139	13.88
395.923	12.88
396.707	11.88
397.491	12.88
398.274	11.88
399.058	12.88
399.842	15.88
400.625	12.88
401.408	13.88
402.192	12.88
402.975	12.88
403.758	14.88
404.541	16.88
405.324	16.88
406.107	16.88
406.89	13.88
407.673	17.88
408.456	14.88
409.238	15.88
410.021	14.88
410.803	16.88
411.586	17.88
412.368	17.88
413.151	19.88
413.933	16.88
414.715	18.88
415.497	18.88
416.279	18.88
417.061	18.88
417.843	19.88
418.624	19.88
419.406	20.88
420.188	21.88
420.969	22.88
421.751	24.88
422.532	22.88
423.313	21.88
424.095	22.88
424.876	26.88
425.657	21.88
426.438	28.88
427.219	27.88
428	29.88
428.78	27.88
429.561	32.88
430.342	28.88
431.122	32.88
431.903	33.88
432.683	32.88
433.464	34.88
434.244	35.88
435.024	39.88
435.804	40.88
436.584	41.88
437.364	44.88
438.144	44.88
438.924	48.88
439.704	54.88
440.483	54.88
441.263	60.88
442.042	64.88
442.822	69.88
443.601	72.88
444.38	77.88
445.16	86.88
445.939	89.88
446.718	104.88
447.497	112.88
448.276	117.88
449.054	128.88
449.833	140.88
450.612	157.88
451.391	169.88
452.169	186.88
452.948	207.88
453.726	235.88
454.504	258.88
455.282	290.88
456.061	319.88
456.839	358.88
457.617	391.88
458.395	440.88
459.172	492.88
459.95	557.88
460.728	617.88
461.506	683.88
462.283	768.88
463.061	858.88
463.838	962.88
464.615	1062.88
465.393	1182.88
466.17	1307.88
466.947	1479.88
467.724	1653.88
468.501	1812.88
469.278	2022.88
470.055	2234.88
470.831	2504.88
471.608	2762.88
472.385	3027.88
473.161	3359.88
473.938	3706.88
474.714	4077.88
475.49	4473.88
476.266	4916.88
477.043	5394.88
477.819	5898.88
478.595	6481.88
479.371	7093.88
480.146	7769.88
480.922	8480.88
481.698	9272.88
482.473	10112.88
483.249	10971.88
484.024	12009.88
484.8	13019.88
485.575	14134.88
486.35	15384.88
487.126	16744.88
487.901	18112.88
488.676	19555.88
489.451	21139.88
490.225	22782.88
491	24393.88
491.775	26100.88
492.55	28022.88
493.324	29872.88
494.099	31685.88
494.873	33544.88
495.647	35478.88
496.422	37384.88
497.196	39210.88
497.97	40808.88
498.744	42304.88
499.518	43933.88
500.292	45326.88
501.066	46304.88
501.839	47083.88
502.613	47814.88
503.387	48290.88
504.16	48619.88
504.934	48588.88
505.707	48408.88
506.48	47822.88
507.253	47284.88
508.027	46332.88
508.8	45194.88
509.573	44051.88
510.346	42866.88
511.118	41714.88
511.891	40380.88
512.664	38731.88
513.437	37199.88
514.209	35819.88
514.982	34335.88
515.754	32852.88
516.526	31428.88
517.298	30270.88
518.071	29081.88
518.843	27832.88
519.615	26776.88
520.387	25670.88
521.159	24670.88
521.93	23543.88
522.702	22579.88
523.474	21656.88
524.245	20718.88
525.017	19874.88
525.788	18909.88
526.56	18139.88
527.331	17319.88
528.102	16348.88
528.873	15543.88
529.644	14815.88
530.415	14143.88
531.186	13405.88
531.957	12656.88
532.728	12021.88
533.498	11390.88
534.269	10787.88
535.039	10186.88
535.81	9615.88
536.58	9122.88
537.351	8602.88
538.121	8168.88
538.891	7728.88
539.661	7286.88
540.431	6929.88
541.201	6551.88
541.971	6203.88
542.741	5883.88
543.51	5578.88
544.28	5315.88
545.05	5068.88
545.819	4837.88
546.588	4587.88
547.358	4388.88
548.127	4168.88
548.896	3962.88
549.665	3746.88
550.434	3540.88
551.203	3370.88
551.972	3199.88
552.741	3008.88
553.51	2847.88
554.278	2663.88
555.047	2528.88
555.815	2402.88
556.584	2250.88
557.352	2134.88
558.121	2038.88
558.889	1895.88
559.657	1814.88
560.425	1700.88
561.193	1611.88
561.961	1533.88
562.729	1445.88
563.496	1354.88
564.264	1278.88
565.032	1206.88
565.799	1148.88
566.567	1095.88
567.334	1025.88
568.101	974.88
568.869	922.88
569.636	882.88
570.403	821.88
571.17	782.88
571.937	732.88
572.704	692.88
573.471	647.88
574.237	621.88
575.004	573.88
575.771	542.88
576.537	514.88
577.303	483.88
578.07	462.88
578.836	428.88
579.602	403.88
580.368	390.88
581.134	366.88
581.9	357.88
582.666	337.88
583.432	314.88
584.198	302.88
584.964	290.88
585.729	277.88
586.495	262.88
587.26	242.88
588.025	232.88
588.791	215.88
589.556	207.88
590.321	193.88
591.086	187.88
591.851	174.88
592.616	167.88
593.381	163.88
594.146	157.88
594.911	149.88
595.675	144.88
596.44	135.88
597.204	130.88
597.969	121.88
598.733	119.88
599.497	118.88
600.261	108.88
601.025	105.88
601.79	102.88
602.553	102.88
603.317	89.88
604.081	91.88
604.845	86.88
605.609	81.88
606.372	76.88
607.136	75.88
607.899	71.88
608.662	72.88
609.426	65.88
610.189	69.88
610.952	65.88
611.715	59.88
612.478	61.88
613.241	55.88
614.004	50.88
614.767	52.88
615.529	50.88
616.292	49.88
617.055	46.88
617.817	44.88
618.579	42.88
619.342	44.88
620.104	40.88
620.866	39.88
621.628	38.88
622.39	37.88
623.152	31.88
623.914	33.88
624.676	35.88
625.438	32.88
626.199	31.88
626.961	31.88
627.722	34.88
628.484	29.88
629.245	29.88
630.006	29.88
630.768	27.88
631.529	26.88
632.29	23.88
633.051	27.88
633.812	23.88
634.573	23.88
635.333	22.88
636.094	20.88
636.855	23.88
637.615	18.88
638.376	20.88
639.136	19.88
639.896	17.88
640.657	18.88
641.417	16.88
642.177	18.88
642.937	17.88
643.697	17.88
644.457	16.88
645.216	18.88
645.976	15.88
646.736	16.88
647.495	15.88
648.255	15.88
649.014	14.88
649.774	16.88
650.533	14.88
651.292	13.88
652.051	15.88
652.81	13.88
653.569	12.88
654.328	13.88
655.087	13.88
655.846	11.88
656.604	13.88
657.363	12.88
658.121	11.88
658.88	12.88
659.638	12.88
660.397	10.88
661.155	12.88
661.913	9.88
662.671	11.88
663.429	9.88
664.187	10.88
664.945	8.88
665.703	9.88
666.46	10.88
667.218	8.88
667.976	12.88
668.733	10.88
669.49	9.88
670.248	6.88
671.005	9.88
671.762	9.88
672.519	9.88
673.276	10.88
674.033	7.88
674.79	8.88
675.547	6.88
676.304	7.88
677.06	9.88
677.817	6.88
678.574	10.88
679.33	9.88
680.086	7.88
680.843	7.88
681.599	7.88
682.355	8.88
683.111	8.88
683.867	8.88
684.623	8.88
685.379	9.88
686.135	5.88
686.89	6.88
687.646	7.88
688.402	7.88
689.157	7.88
689.912	8.88
690.668	6.88
691.423	7.88
692.178	7.88
692.933	6.88
693.688	5.88
694.443	8.88
695.198	7.88
695.953	6.88
696.708	7.88
697.462	4.88
698.217	6.88
698.972	6.88
699.726	7.88
700.48	6.88
701.235	7.88
701.989	10.88
702.743	6.88
703.497	5.88
704.251	7.88
705.005	5.88
705.759	9.88
706.513	7.88
707.266	9.88
708.02	7.88
708.774	6.88
709.527	8.88
710.28	7.88
711.034	6.88
711.787	7.88
712.54	6.88
713.293	8.88
714.046	10.88
714.799	7.88
715.552	6.88
716.305	7.88
717.058	7.88
717.81	6.88
718.563	8.88
719.315	7.88
720.068	8.88
720.82	7.88
721.573	7.88
722.325	7.88
723.077	6.88
723.829	7.88
724.581	8.88
725.333	9.88
726.085	6.88
726.836	8.88
727.588	8.88
728.34	8.88
729.091	6.88
729.843	8.88
730.594	8.88
731.346	10.88
732.097	6.88
732.848	9.88
733.599	8.88
734.35	10.88
735.101	9.88
735.852	10.88
736.603	11.88
737.354	10.88
738.104	10.88
738.855	10.88
739.605	7.88
740.356	9.88
741.106	10.88
741.856	9.88
742.607	9.88
743.357	8.88
744.107	9.88
744.857	12.88
745.607	11.88
746.357	11.88
747.106	11.88
747.856	11.88
748.606	9.88
749.355	12.88
750.105	11.88
750.854	11.88
751.603	8.88
752.353	11.88
753.102	10.88
753.851	10.88
754.6	10.88
755.349	11.88
756.098	12.88
756.847	14.88
757.595	13.88
758.344	12.88
759.093	12.88
759.841	11.88
760.589	12.88
761.338	12.88
762.086	13.88
762.834	12.88
763.582	9.88
764.331	14.88
765.079	13.88
765.826	14.88
766.574	13.88
767.322	14.88
768.07	15.88
768.817	16.88
769.565	13.88
770.312	13.88
771.06	15.88
771.807	14.88
772.554	14.88
773.302	16.88
774.049	15.88
774.796	13.88
775.543	15.88
776.29	16.88
777.036	13.88
777.783	18.88
778.53	15.88
779.276	16.88
780.023	15.88
780.769	16.88
781.516	15.88
782.262	16.88
783.008	15.88
783.754	14.88
784.5	14.88
785.246	17.88
785.992	14.88
786.738	17.88
787.484	14.88
788.23	16.88
788.975	18.88
789.721	14.88
790.466	15.88
791.212	15.88
791.957	14.88
792.702	13.88
793.447	16.88
794.193	14.88
794.938	14.88
795.683	12.88
796.427	13.88
797.172	14.88
797.917	11.88
798.662	12.88
799.406	10.88
800.151	13.88
800.895	11.88
801.64	11.88
802.384	12.88
803.128	10.88
803.872	13.88
804.616	14.88
805.36	11.88
806.104	8.88
806.848	9.88
807.592	10.88
808.336	10.88
809.079	10.88
809.823	9.88
810.566	8.88
811.31	10.88
812.053	10.88
812.796	7.88
813.539	11.88
814.283	8.88
815.026	9.88
815.769	7.88
816.511	9.88
817.254	8.88
817.997	6.88
818.74	5.88
819.482	6.88
820.225	6.88
820.967	7.88
821.71	8.88
822.452	5.88
823.194	7.88
823.936	9.88
824.678	6.88
825.42	8.88
826.162	7.88
826.904	6.88
827.646	8.88
828.388	6.88
829.129	5.88
829.871	5.88
830.612	5.88
831.354	8.88
832.095	7.88
832.836	5.88
833.577	2.88
834.319	6.88
835.06	6.88
835.801	6.88
836.542	5.88
837.282	6.88
838.023	4.88
838.764	4.88
839.504	6.88
840.245	3.88
840.985	7.88
841.726	4.88
842.466	5.88
843.206	3.88
843.946	2.88
844.687	4.88
845.427	2.88
846.166	4.88
846.906	5.88
847.646	4.88
848.386	4.88
849.125	4.88
849.865	3.88
850.605	2.88
851.344	4.88
852.083	2.88
852.823	4.88
853.562	3.88
854.301	5.88
855.04	4.88
855.779	2.88
856.518	4.88
857.257	4.88
857.995	5.88
858.734	3.88
859.473	6.88
860.211	3.88
860.95	0.88
861.688	2.88
862.426	4.88
863.165	1.88
863.903	2.88
864.641	1.88
865.379	1.88
866.117	3.88
866.855	4.88
867.593	3.88
868.33	3.88
869.068	-1.12
869.806	1.88
870.543	-0.12
871.28	2.88
872.018	2.88
872.755	2.88
873.492	1.88
874.229	1.88
874.967	4.88
875.703	1.88
876.44	2.88
877.177	0.88
877.914	-1.12
878.651	-0.12
879.387	1.88
880.124	0.88
880.86	1.88
881.597	3.88
882.333	-1.12
883.069	0.88
883.806	1.88
884.542	0.88
885.278	2.88
886.014	1.88
886.749	2.88
887.485	0.88
888.221	2.88
888.957	1.88
889.692	-0.12
890.428	0.88
891.163	-0.12
891.899	3.88
892.634	2.88
893.369	1.88
894.104	2.88
894.839	1.88
895.574	-0.12
896.309	-0.12
897.044	0.88
897.779	2.88
898.514	0.88
899.248	2.88
899.983	1.88
900.717	-1.12
901.452	2.88
902.186	1.88
902.92	1.88
903.654	0.88
904.389	-0.12
905.123	0.88
905.857	-1.12
906.59	0.88
907.324	1.88
908.058	0.88
908.792	-0.12
909.525	0.88
910.259	0.88
910.992	-0.12
911.726	2.88
912.459	2.88
913.192	-0.12
913.925	-0.12
914.658	-0.12
915.391	1.88
916.124	0.88
916.857	2.88
917.59	-0.12
918.323	-2.12
919.055	1.88
919.788	-1.12
920.521	3.88
921.253	0.88
921.985	0.88
922.718	-1.12
923.45	1.88
924.182	0.88
924.914	0.88
925.646	-2.12
926.378	0.88
927.11	1.88
927.841	1.88
928.573	-1.12
929.305	-1.12
930.036	-0.12
930.768	-1.12
931.499	0.88
932.23	-2.12
932.962	1.88
933.693	1.88
934.424	0.88
935.155	1.88
935.886	-0.12
936.617	2.88
937.348	-1.12
938.078	0.88
938.809	0.88
939.54	-1.12
940.27	-0.12
941.001	-0.12
941.731	0.88
942.461	-0.12
943.191	-0.12
943.922	-1.12
944.652	0.88
945.382	0.88
946.112	-0.12
946.841	0.88
947.571	-0.12
948.301	-0.12
949.031	-0.12
949.76	-2.12
950.49	-2.12
951.219	0.88
951.948	-1.12
952.678	-0.12
953.407	0.88
954.136	-0.12
954.865	-1.12
955.594	0.88
956.323	-1.12
957.052	0.88
957.78	-1.12
958.509	-0.12
959.238	0.88
959.966	0.88
960.695	-0.12
961.423	-0.12
962.151	1.88
962.88	-0.12
963.608	-2.12
964.336	2.88
965.064	0.88
965.792	-0.12
966.52	1.88
967.247	-1.12
967.975	0.88
968.703	-0.12
969.43	0.88
970.158	-0.12
970.885	2.88
971.613	2.88
972.34	0.88
973.067	-0.12
973.794	-0.12
974.521	2.88
975.248	1.88
975.975	-0.12
976.702	-0.12
977.429	-0.12
978.156	0.88
978.882	-1.12
979.609	2.88
980.335	0.88
981.062	-0.12
981.788	-0.12
982.514	-0.12
983.24	-1.12
983.967	0.88
984.693	-1.12
985.419	0.88
986.144	-0.12
986.87	0.88
987.596	0.88
988.322	0.88
989.047	-1.12
989.773	-1.12
990.498	-0.12
991.224	-0.12
991.949	0.88
992.674	-0.12
993.399	0.88
994.124	-0.12
994.849	-0.12
995.574	0.88
996.299	1.88
997.024	0.88
997.749	0.88
998.473	0.88
999.198	-0.12
999.922	-1.12
1000.647	0.88
1001.371	3.88
1002.095	-0.12
1002.82	-0.12
1003.544	-1.12
1004.268	2.88
1004.992	3.88
1005.716	3.88
1006.439	5.88
1007.163	4.88
1007.887	3.88
1008.611	-0.12
1009.334	0.88
1010.058	0.88
1010.781	1.88
1011.504	0.88
1012.228	-1.12
1012.951	0.88
1013.674	-1.12
1014.397	-0.12
1015.12	-2.12
