节点500_705_QEPB04081__295__20-50-11-403.txt的数据

Date: Wed Nov 12 20:50:11 CST 2025
User: PC
Spectrometer: QEPB0408
触发模式: 0
积分时间 (秒): 1.000000E-2
Scans to average: 1
启用暗噪声校正: true
启用非线性校正: false
滑动平均宽度: 0
X轴模式: Wavelengths
Number of Pixels in Spectrum: 1044
>>>>>Begin Spectral Data<<<<<
220.843	5.88
221.644	4.88
222.444	6.88
223.244	6.88
224.045	6.88
224.845	7.88
225.645	8.88
226.445	7.88
227.245	7.88
228.045	8.88
228.845	7.88
229.645	7.88
230.444	8.88
231.244	8.88
232.043	9.88
232.843	7.88
233.642	10.88
234.442	10.88
235.241	10.88
236.04	10.88
236.839	11.88
237.638	9.88
238.437	12.88
239.236	8.88
240.035	7.88
240.833	11.88
241.632	10.88
242.43	12.88
243.229	11.88
244.027	14.88
244.826	12.88
245.624	12.88
246.422	16.88
247.22	14.88
248.018	16.88
248.816	17.88
249.614	15.88
250.412	14.88
251.21	18.88
252.007	18.88
252.805	18.88
253.602	17.88
254.4	16.88
255.197	18.88
255.994	20.88
256.791	21.88
257.589	21.88
258.386	22.88
259.183	18.88
259.979	22.88
260.776	20.88
261.573	26.88
262.37	23.88
263.166	24.88
263.963	24.88
264.759	24.88
265.556	27.88
266.352	26.88
267.148	28.88
267.944	24.88
268.74	28.88
269.536	30.88
270.332	30.88
271.128	29.88
271.924	29.88
272.719	31.88
273.515	31.88
274.311	32.88
275.106	34.88
275.901	30.88
276.697	30.88
277.492	36.88
278.287	33.88
279.082	34.88
279.877	36.88
280.672	35.88
281.467	34.88
282.262	32.88
283.056	35.88
283.851	30.88
284.646	38.88
285.44	34.88
286.234	36.88
287.029	36.88
287.823	34.88
288.617	35.88
289.411	33.88
290.205	31.88
290.999	30.88
291.793	29.88
292.587	31.88
293.381	31.88
294.174	29.88
294.968	27.88
295.761	28.88
296.555	26.88
297.348	27.88
298.141	28.88
298.935	26.88
299.728	24.88
300.521	24.88
301.314	21.88
302.107	24.88
302.899	21.88
303.692	23.88
304.485	20.88
305.277	24.88
306.07	20.88
306.862	22.88
307.655	23.88
308.447	19.88
309.239	19.88
310.031	21.88
310.823	19.88
311.615	18.88
312.407	17.88
313.199	17.88
313.991	16.88
314.783	19.88
315.574	14.88
316.366	15.88
317.157	14.88
317.949	14.88
318.74	14.88
319.531	17.88
320.322	14.88
321.113	14.88
321.904	14.88
322.695	13.88
323.486	12.88
324.277	14.88
325.068	10.88
325.858	11.88
326.649	14.88
327.439	13.88
328.23	11.88
329.02	14.88
329.81	12.88
330.6	12.88
331.391	13.88
332.181	12.88
332.971	10.88
333.76	10.88
334.55	11.88
335.34	12.88
336.13	12.88
336.919	10.88
337.709	10.88
338.498	12.88
339.287	13.88
340.077	11.88
340.866	12.88
341.655	12.88
342.444	9.88
343.233	10.88
344.022	12.88
344.811	10.88
345.6	12.88
346.388	9.88
347.177	9.88
347.965	12.88
348.754	9.88
349.542	9.88
350.33	12.88
351.119	11.88
351.907	10.88
352.695	11.88
353.483	10.88
354.271	11.88
355.059	10.88
355.846	11.88
356.634	10.88
357.422	10.88
358.209	8.88
358.997	13.88
359.784	10.88
360.571	8.88
361.359	8.88
362.146	10.88
362.933	12.88
363.72	10.88
364.507	10.88
365.294	10.88
366.081	10.88
366.867	8.88
367.654	10.88
368.44	8.88
369.227	6.88
370.013	7.88
370.8	9.88
371.586	12.88
372.372	7.88
373.158	8.88
373.944	8.88
374.73	7.88
375.516	9.88
376.302	8.88
377.088	8.88
377.873	8.88
378.659	10.88
379.445	9.88
380.23	8.88
381.015	11.88
381.801	9.88
382.586	11.88
383.371	11.88
384.156	10.88
384.941	8.88
385.726	10.88
386.511	10.88
387.296	12.88
388.08	10.88
388.865	13.88
389.649	8.88
390.434	10.88
391.218	10.88
392.003	10.88
392.787	10.88
393.571	13.88
394.355	9.88
395.139	12.88
395.923	12.88
396.707	12.88
397.491	12.88
398.274	12.88
399.058	11.88
399.842	12.88
400.625	11.88
401.408	16.88
402.192	11.88
402.975	14.88
403.758	13.88
404.541	14.88
405.324	14.88
406.107	14.88
406.89	14.88
407.673	13.88
408.456	15.88
409.238	15.88
410.021	16.88
410.803	18.88
411.586	14.88
412.368	16.88
413.151	18.88
413.933	15.88
414.715	21.88
415.497	18.88
416.279	17.88
417.061	18.88
417.843	17.88
418.624	19.88
419.406	17.88
420.188	18.88
420.969	23.88
421.751	22.88
422.532	22.88
423.313	24.88
424.095	23.88
424.876	22.88
425.657	25.88
426.438	24.88
427.219	26.88
428	26.88
428.78	24.88
429.561	27.88
430.342	33.88
431.122	33.88
431.903	35.88
432.683	31.88
433.464	33.88
434.244	34.88
435.024	38.88
435.804	42.88
436.584	44.88
437.364	44.88
438.144	46.88
438.924	49.88
439.704	52.88
440.483	55.88
441.263	54.88
442.042	64.88
442.822	65.88
443.601	73.88
444.38	80.88
445.16	84.88
445.939	94.88
446.718	104.88
447.497	110.88
448.276	118.88
449.054	130.88
449.833	146.88
450.612	154.88
451.391	173.88
452.169	192.88
452.948	213.88
453.726	236.88
454.504	264.88
455.282	300.88
456.061	326.88
456.839	367.88
457.617	414.88
458.395	454.88
459.172	515.88
459.95	576.88
460.728	637.88
461.506	693.88
462.283	771.88
463.061	869.88
463.838	974.88
464.615	1075.88
465.393	1211.88
466.17	1351.88
466.947	1488.88
467.724	1669.88
468.501	1854.88
469.278	2042.88
470.055	2234.88
470.831	2495.88
471.608	2758.88
472.385	3054.88
473.161	3352.88
473.938	3672.88
474.714	4060.88
475.49	4473.88
476.266	4850.88
477.043	5342.88
477.819	5849.88
478.595	6388.88
479.371	6972.88
480.146	7634.88
480.922	8338.88
481.698	9066.88
482.473	9886.88
483.249	10734.88
484.024	11678.88
484.8	12660.88
485.575	13730.88
486.35	14919.88
487.126	16117.88
487.901	17445.88
488.676	18872.88
489.451	20377.88
490.225	21836.88
491	23470.88
491.775	25120.88
492.55	26880.88
493.324	28630.88
494.099	30350.88
494.873	32203.88
495.647	34005.88
496.422	35862.88
497.196	37620.88
497.97	39308.88
498.744	40741.88
499.518	42369.88
500.292	43690.88
501.066	44785.88
501.839	45666.88
502.613	46337.88
503.387	46936.88
504.16	47412.88
504.934	47396.88
505.707	47419.88
506.48	47022.88
507.253	46419.88
508.027	45836.88
508.8	44769.88
509.573	43635.88
510.346	42536.88
511.118	41578.88
511.891	40227.88
512.664	38714.88
513.437	37191.88
514.209	35830.88
514.982	34459.88
515.754	33034.88
516.526	31634.88
517.298	30427.88
518.071	29159.88
518.843	28022.88
519.615	26979.88
520.387	25884.88
521.159	24807.88
521.93	23786.88
522.702	22820.88
523.474	21824.88
524.245	20848.88
525.017	19978.88
525.788	19065.88
526.56	18317.88
527.331	17440.88
528.102	16566.88
528.873	15741.88
529.644	15045.88
530.415	14380.88
531.186	13631.88
531.957	12905.88
532.728	12235.88
533.498	11599.88
534.269	10964.88
535.039	10434.88
535.81	9816.88
536.58	9282.88
537.351	8794.88
538.121	8338.88
538.891	7912.88
539.661	7416.88
540.431	7070.88
541.201	6729.88
541.971	6346.88
542.741	6016.88
543.51	5674.88
544.28	5458.88
545.05	5189.88
545.819	4947.88
546.588	4690.88
547.358	4469.88
548.127	4270.88
548.896	4047.88
549.665	3846.88
550.434	3623.88
551.203	3429.88
551.972	3269.88
552.741	3084.88
553.51	2927.88
554.278	2730.88
555.047	2605.88
555.815	2448.88
556.584	2330.88
557.352	2199.88
558.121	2056.88
558.889	1958.88
559.657	1853.88
560.425	1756.88
561.193	1658.88
561.961	1554.88
562.729	1480.88
563.496	1395.88
564.264	1329.88
565.032	1240.88
565.799	1199.88
566.567	1105.88
567.334	1050.88
568.101	991.88
568.869	950.88
569.636	895.88
570.403	834.88
571.17	799.88
571.937	756.88
572.704	712.88
573.471	671.88
574.237	633.88
575.004	597.88
575.771	567.88
576.537	525.88
577.303	500.88
578.07	466.88
578.836	451.88
579.602	416.88
580.368	398.88
581.134	384.88
581.9	355.88
582.666	347.88
583.432	318.88
584.198	310.88
584.964	293.88
585.729	279.88
586.495	268.88
587.26	251.88
588.025	240.88
588.791	227.88
589.556	221.88
590.321	199.88
591.086	189.88
591.851	184.88
592.616	170.88
593.381	171.88
594.146	155.88
594.911	155.88
595.675	146.88
596.44	140.88
597.204	132.88
597.969	120.88
598.733	117.88
599.497	113.88
600.261	108.88
601.025	107.88
601.79	101.88
602.553	98.88
603.317	90.88
604.081	91.88
604.845	84.88
605.609	82.88
606.372	81.88
607.136	75.88
607.899	72.88
608.662	68.88
609.426	66.88
610.189	66.88
610.952	65.88
611.715	60.88
612.478	56.88
613.241	59.88
614.004	54.88
614.767	51.88
615.529	50.88
616.292	46.88
617.055	49.88
617.817	48.88
618.579	45.88
619.342	46.88
620.104	42.88
620.866	43.88
621.628	39.88
622.39	39.88
623.152	39.88
623.914	33.88
624.676	34.88
625.438	34.88
626.199	31.88
626.961	34.88
627.722	31.88
628.484	30.88
629.245	27.88
630.006	27.88
630.768	26.88
631.529	27.88
632.29	25.88
633.051	27.88
633.812	26.88
634.573	22.88
635.333	22.88
636.094	21.88
636.855	20.88
637.615	19.88
638.376	21.88
639.136	20.88
639.896	20.88
640.657	22.88
641.417	19.88
642.177	19.88
642.937	16.88
643.697	15.88
644.457	17.88
645.216	17.88
645.976	14.88
646.736	17.88
647.495	16.88
648.255	14.88
649.014	15.88
649.774	15.88
650.533	11.88
651.292	16.88
652.051	10.88
652.81	12.88
653.569	14.88
654.328	13.88
655.087	12.88
655.846	12.88
656.604	14.88
657.363	12.88
658.121	11.88
658.88	14.88
659.638	9.88
660.397	11.88
661.155	13.88
661.913	12.88
662.671	9.88
663.429	9.88
664.187	9.88
664.945	10.88
665.703	9.88
666.46	10.88
667.218	7.88
667.976	10.88
668.733	9.88
669.49	8.88
670.248	8.88
671.005	11.88
671.762	10.88
672.519	6.88
673.276	7.88
674.033	8.88
674.79	8.88
675.547	9.88
676.304	9.88
677.06	8.88
677.817	9.88
678.574	9.88
679.33	6.88
680.086	9.88
680.843	7.88
681.599	7.88
682.355	10.88
683.111	10.88
683.867	5.88
684.623	7.88
685.379	5.88
686.135	9.88
686.89	8.88
687.646	7.88
688.402	7.88
689.157	10.88
689.912	8.88
690.668	7.88
691.423	7.88
692.178	4.88
692.933	9.88
693.688	10.88
694.443	8.88
695.198	7.88
695.953	7.88
696.708	7.88
697.462	8.88
698.217	8.88
698.972	7.88
699.726	6.88
700.48	9.88
701.235	4.88
701.989	7.88
702.743	8.88
703.497	8.88
704.251	8.88
705.005	9.88
705.759	7.88
706.513	6.88
707.266	9.88
708.02	5.88
708.774	6.88
709.527	9.88
710.28	6.88
711.034	8.88
711.787	7.88
712.54	5.88
713.293	8.88
714.046	6.88
714.799	6.88
715.552	4.88
716.305	8.88
717.058	7.88
717.81	9.88
718.563	10.88
719.315	5.88
720.068	8.88
720.82	8.88
721.573	6.88
722.325	7.88
723.077	8.88
723.829	5.88
724.581	8.88
725.333	9.88
726.085	8.88
726.836	7.88
727.588	6.88
728.34	7.88
729.091	9.88
729.843	8.88
730.594	9.88
731.346	9.88
732.097	6.88
732.848	10.88
733.599	7.88
734.35	9.88
735.101	7.88
735.852	8.88
736.603	10.88
737.354	8.88
738.104	9.88
738.855	8.88
739.605	8.88
740.356	11.88
741.106	8.88
741.856	12.88
742.607	8.88
743.357	10.88
744.107	10.88
744.857	10.88
745.607	10.88
746.357	9.88
747.106	12.88
747.856	7.88
748.606	10.88
749.355	11.88
750.105	10.88
750.854	12.88
751.603	12.88
752.353	13.88
753.102	11.88
753.851	12.88
754.6	10.88
755.349	9.88
756.098	11.88
756.847	12.88
757.595	12.88
758.344	15.88
759.093	7.88
759.841	13.88
760.589	10.88
761.338	13.88
762.086	10.88
762.834	14.88
763.582	13.88
764.331	12.88
765.079	13.88
765.826	14.88
766.574	14.88
767.322	10.88
768.07	12.88
768.817	15.88
769.565	12.88
770.312	14.88
771.06	14.88
771.807	15.88
772.554	12.88
773.302	14.88
774.049	13.88
774.796	14.88
775.543	14.88
776.29	13.88
777.036	13.88
777.783	16.88
778.53	15.88
779.276	17.88
780.023	12.88
780.769	17.88
781.516	14.88
782.262	17.88
783.008	18.88
783.754	16.88
784.5	17.88
785.246	15.88
785.992	16.88
786.738	13.88
787.484	14.88
788.23	15.88
788.975	14.88
789.721	14.88
790.466	14.88
791.212	14.88
791.957	17.88
792.702	14.88
793.447	14.88
794.193	14.88
794.938	10.88
795.683	12.88
796.427	14.88
797.172	13.88
797.917	15.88
798.662	13.88
799.406	14.88
800.151	12.88
800.895	11.88
801.64	10.88
802.384	13.88
803.128	12.88
803.872	12.88
804.616	13.88
805.36	10.88
806.104	11.88
806.848	9.88
807.592	11.88
808.336	8.88
809.079	9.88
809.823	10.88
810.566	10.88
811.31	11.88
812.053	9.88
812.796	9.88
813.539	6.88
814.283	6.88
815.026	8.88
815.769	9.88
816.511	10.88
817.254	8.88
817.997	7.88
818.74	9.88
819.482	10.88
820.225	7.88
820.967	6.88
821.71	8.88
822.452	6.88
823.194	5.88
823.936	6.88
824.678	6.88
825.42	8.88
826.162	5.88
826.904	6.88
827.646	5.88
828.388	7.88
829.129	6.88
829.871	6.88
830.612	6.88
831.354	7.88
832.095	4.88
832.836	5.88
833.577	4.88
834.319	7.88
835.06	6.88
835.801	6.88
836.542	2.88
837.282	4.88
838.023	5.88
838.764	8.88
839.504	4.88
840.245	6.88
840.985	3.88
841.726	6.88
842.466	4.88
843.206	5.88
843.946	3.88
844.687	5.88
845.427	4.88
846.166	5.88
846.906	6.88
847.646	7.88
848.386	5.88
849.125	4.88
849.865	4.88
850.605	6.88
851.344	5.88
852.083	6.88
852.823	3.88
853.562	2.88
854.301	5.88
855.04	3.88
855.779	5.88
856.518	4.88
857.257	4.88
857.995	3.88
858.734	4.88
859.473	2.88
860.211	2.88
860.95	4.88
861.688	4.88
862.426	1.88
863.165	3.88
863.903	1.88
864.641	3.88
865.379	3.88
866.117	5.88
866.855	0.88
867.593	3.88
868.33	1.88
869.068	2.88
869.806	2.88
870.543	2.88
871.28	1.88
872.018	2.88
872.755	0.88
873.492	2.88
874.229	2.88
874.967	0.88
875.703	1.88
876.44	3.88
877.177	1.88
877.914	2.88
878.651	2.88
879.387	1.88
880.124	1.88
880.86	3.88
881.597	1.88
882.333	1.88
883.069	1.88
883.806	2.88
884.542	1.88
885.278	2.88
886.014	2.88
886.749	0.88
887.485	1.88
888.221	1.88
888.957	3.88
889.692	1.88
890.428	2.88
891.163	-1.12
891.899	0.88
892.634	0.88
893.369	1.88
894.104	2.88
894.839	-0.12
895.574	2.88
896.309	2.88
897.044	0.88
897.779	0.88
898.514	1.88
899.248	0.88
899.983	1.88
900.717	1.88
901.452	1.88
902.186	-0.12
902.92	0.88
903.654	1.88
904.389	0.88
905.123	1.88
905.857	-0.12
906.59	-0.12
907.324	-1.12
908.058	0.88
908.792	0.88
909.525	1.88
910.259	2.88
910.992	1.88
911.726	1.88
912.459	1.88
913.192	-0.12
913.925	2.88
914.658	0.88
915.391	1.88
916.124	-1.12
916.857	-0.12
917.59	4.88
918.323	0.88
919.055	1.88
919.788	0.88
920.521	0.88
921.253	2.88
921.985	0.88
922.718	1.88
923.45	-1.12
924.182	0.88
924.914	1.88
925.646	-1.12
926.378	1.88
927.11	0.88
927.841	1.88
928.573	1.88
929.305	0.88
930.036	0.88
930.768	-1.12
931.499	0.88
932.23	-1.12
932.962	3.88
933.693	-1.12
934.424	-0.12
935.155	0.88
935.886	-0.12
936.617	-1.12
937.348	-2.12
938.078	0.88
938.809	-2.12
939.54	0.88
940.27	0.88
941.001	-1.12
941.731	0.88
942.461	0.88
943.191	2.88
943.922	-1.12
944.652	0.88
945.382	-0.12
946.112	-0.12
946.841	0.88
947.571	0.88
948.301	0.88
949.031	2.88
949.76	0.88
950.49	0.88
951.219	0.88
951.948	-0.12
952.678	-0.12
953.407	0.88
954.136	-1.12
954.865	-0.12
955.594	0.88
956.323	0.88
957.052	0.88
957.78	1.88
958.509	-0.12
959.238	0.88
959.966	-1.12
960.695	1.88
961.423	0.88
962.151	-1.12
962.88	0.88
963.608	0.88
964.336	1.88
965.064	-0.12
965.792	0.88
966.52	0.88
967.247	0.88
967.975	1.88
968.703	1.88
969.43	0.88
970.158	-1.12
970.885	0.88
971.613	0.88
972.34	-1.12
973.067	0.88
973.794	1.88
974.521	-0.12
975.248	0.88
975.975	-1.12
976.702	2.88
977.429	-0.12
978.156	2.88
978.882	-1.12
979.609	1.88
980.335	-0.12
981.062	-1.12
981.788	1.88
982.514	0.88
983.24	0.88
983.967	1.88
984.693	-2.12
985.419	-0.12
986.144	0.88
986.87	0.88
987.596	0.88
988.322	1.88
989.047	1.88
989.773	1.88
990.498	0.88
991.224	0.88
991.949	-0.12
992.674	-0.12
993.399	-1.12
994.124	0.88
994.849	-1.12
995.574	3.88
996.299	-0.12
997.024	0.88
997.749	-1.12
998.473	-1.12
999.198	0.88
999.922	-1.12
1000.647	1.88
1001.371	1.88
1002.095	-1.12
1002.82	0.88
1003.544	-2.12
1004.268	5.88
1004.992	4.88
1005.716	3.88
1006.439	4.88
1007.163	5.88
1007.887	5.88
1008.611	-0.12
1009.334	1.88
1010.058	1.88
1010.781	1.88
1011.504	-0.12
1012.228	0.88
1012.951	0.88
1013.674	0.88
1014.397	-0.12
1015.12	-1.12
