节点500_705_QEPB04081__320__20-50-31-466.txt的数据

Date: Wed Nov 12 20:50:31 CST 2025
User: PC
Spectrometer: QEPB0408
触发模式: 0
积分时间 (秒): 1.000000E-2
Scans to average: 1
启用暗噪声校正: true
启用非线性校正: false
滑动平均宽度: 0
X轴模式: Wavelengths
Number of Pixels in Spectrum: 1044
>>>>>Begin Spectral Data<<<<<
220.843	6.38
221.644	8.38
222.444	5.38
223.244	11.38
224.045	7.38
224.845	5.38
225.645	10.38
226.445	7.38
227.245	7.38
228.045	8.38
228.845	8.38
229.645	9.38
230.444	9.38
231.244	10.38
232.043	8.38
232.843	8.38
233.642	9.38
234.442	9.38
235.241	7.38
236.04	11.38
236.839	11.38
237.638	11.38
238.437	11.38
239.236	11.38
240.035	14.38
240.833	13.38
241.632	15.38
242.43	10.38
243.229	14.38
244.027	13.38
244.826	13.38
245.624	15.38
246.422	13.38
247.22	15.38
248.018	17.38
248.816	19.38
249.614	18.38
250.412	17.38
251.21	18.38
252.007	18.38
252.805	17.38
253.602	19.38
254.4	18.38
255.197	20.38
255.994	19.38
256.791	17.38
257.589	23.38
258.386	18.38
259.183	21.38
259.979	24.38
260.776	20.38
261.573	23.38
262.37	24.38
263.166	24.38
263.963	28.38
264.759	26.38
265.556	28.38
266.352	28.38
267.148	27.38
267.944	27.38
268.74	27.38
269.536	30.38
270.332	31.38
271.128	32.38
271.924	31.38
272.719	34.38
273.515	29.38
274.311	35.38
275.106	32.38
275.901	31.38
276.697	35.38
277.492	34.38
278.287	32.38
279.082	35.38
279.877	34.38
280.672	36.38
281.467	34.38
282.262	35.38
283.056	37.38
283.851	35.38
284.646	32.38
285.44	33.38
286.234	37.38
287.029	31.38
287.823	34.38
288.617	34.38
289.411	33.38
290.205	32.38
290.999	31.38
291.793	34.38
292.587	33.38
293.381	29.38
294.174	30.38
294.968	31.38
295.761	27.38
296.555	27.38
297.348	26.38
298.141	28.38
298.935	29.38
299.728	28.38
300.521	25.38
301.314	23.38
302.107	24.38
302.899	22.38
303.692	23.38
304.485	25.38
305.277	21.38
306.07	21.38
306.862	23.38
307.655	22.38
308.447	23.38
309.239	23.38
310.031	18.38
310.823	18.38
311.615	18.38
312.407	18.38
313.199	16.38
313.991	16.38
314.783	16.38
315.574	15.38
316.366	16.38
317.157	15.38
317.949	16.38
318.74	15.38
319.531	13.38
320.322	14.38
321.113	14.38
321.904	14.38
322.695	13.38
323.486	13.38
324.277	13.38
325.068	13.38
325.858	14.38
326.649	14.38
327.439	14.38
328.23	14.38
329.02	13.38
329.81	15.38
330.6	12.38
331.391	11.38
332.181	14.38
332.971	13.38
333.76	11.38
334.55	12.38
335.34	11.38
336.13	12.38
336.919	13.38
337.709	14.38
338.498	14.38
339.287	13.38
340.077	10.38
340.866	13.38
341.655	10.38
342.444	11.38
343.233	12.38
344.022	11.38
344.811	13.38
345.6	9.38
346.388	12.38
347.177	11.38
347.965	13.38
348.754	10.38
349.542	10.38
350.33	9.38
351.119	11.38
351.907	11.38
352.695	11.38
353.483	12.38
354.271	13.38
355.059	12.38
355.846	13.38
356.634	13.38
357.422	9.38
358.209	11.38
358.997	9.38
359.784	8.38
360.571	9.38
361.359	13.38
362.146	10.38
362.933	10.38
363.72	10.38
364.507	11.38
365.294	11.38
366.081	10.38
366.867	10.38
367.654	11.38
368.44	8.38
369.227	9.38
370.013	9.38
370.8	9.38
371.586	11.38
372.372	11.38
373.158	11.38
373.944	9.38
374.73	10.38
375.516	12.38
376.302	10.38
377.088	8.38
377.873	9.38
378.659	10.38
379.445	10.38
380.23	10.38
381.015	8.38
381.801	11.38
382.586	12.38
383.371	11.38
384.156	9.38
384.941	9.38
385.726	10.38
386.511	12.38
387.296	12.38
388.08	9.38
388.865	13.38
389.649	11.38
390.434	10.38
391.218	12.38
392.003	11.38
392.787	12.38
393.571	12.38
394.355	12.38
395.139	13.38
395.923	13.38
396.707	12.38
397.491	10.38
398.274	12.38
399.058	14.38
399.842	13.38
400.625	11.38
401.408	16.38
402.192	12.38
402.975	11.38
403.758	15.38
404.541	16.38
405.324	16.38
406.107	14.38
406.89	16.38
407.673	15.38
408.456	14.38
409.238	15.38
410.021	16.38
410.803	15.38
411.586	20.38
412.368	16.38
413.151	17.38
413.933	18.38
414.715	19.38
415.497	15.38
416.279	18.38
417.061	20.38
417.843	20.38
418.624	19.38
419.406	19.38
420.188	20.38
420.969	21.38
421.751	22.38
422.532	21.38
423.313	25.38
424.095	23.38
424.876	23.38
425.657	25.38
426.438	25.38
427.219	28.38
428	26.38
428.78	30.38
429.561	29.38
430.342	28.38
431.122	32.38
431.903	35.38
432.683	34.38
433.464	37.38
434.244	39.38
435.024	40.38
435.804	39.38
436.584	43.38
437.364	42.38
438.144	46.38
438.924	48.38
439.704	52.38
440.483	60.38
441.263	57.38
442.042	63.38
442.822	71.38
443.601	76.38
444.38	85.38
445.16	86.38
445.939	95.38
446.718	106.38
447.497	110.38
448.276	125.38
449.054	136.38
449.833	147.38
450.612	159.38
451.391	179.38
452.169	196.38
452.948	215.38
453.726	239.38
454.504	270.38
455.282	296.38
456.061	329.38
456.839	367.38
457.617	411.38
458.395	452.38
459.172	513.38
459.95	572.38
460.728	640.38
461.506	707.38
462.283	788.38
463.061	891.38
463.838	990.38
464.615	1093.38
465.393	1219.38
466.17	1347.38
466.947	1509.38
467.724	1658.38
468.501	1838.38
469.278	2043.38
470.055	2262.38
470.831	2495.38
471.608	2779.38
472.385	3054.38
473.161	3366.38
473.938	3693.38
474.714	4044.38
475.49	4442.38
476.266	4869.38
477.043	5334.38
477.819	5828.38
478.595	6387.38
479.371	6955.38
480.146	7623.38
480.922	8306.38
481.698	9061.38
482.473	9865.38
483.249	10764.38
484.024	11635.38
484.8	12648.38
485.575	13703.38
486.35	14864.38
487.126	16116.38
487.901	17418.38
488.676	18759.38
489.451	20256.38
490.225	21805.38
491	23385.38
491.775	25065.38
492.55	26784.38
493.324	28492.38
494.099	30320.38
494.873	32085.38
495.647	33850.38
496.422	35777.38
497.196	37514.38
497.97	39058.38
498.744	40680.38
499.518	42180.38
500.292	43581.38
501.066	44711.38
501.839	45558.38
502.613	46260.38
503.387	46854.38
504.16	47220.38
504.934	47475.38
505.707	47385.38
506.48	46968.38
507.253	46453.38
508.027	45762.38
508.8	44815.38
509.573	43694.38
510.346	42684.38
511.118	41556.38
511.891	40312.38
512.664	38796.38
513.437	37294.38
514.209	35957.38
514.982	34539.38
515.754	33132.38
516.526	31750.38
517.298	30508.38
518.071	29264.38
518.843	28054.38
519.615	26968.38
520.387	25969.38
521.159	24877.38
521.93	23862.38
522.702	22864.38
523.474	21866.38
524.245	20997.38
525.017	20013.38
525.788	19180.38
526.56	18403.38
527.331	17573.38
528.102	16660.38
528.873	15818.38
529.644	15055.38
530.415	14450.38
531.186	13746.38
531.957	12953.38
532.728	12301.38
533.498	11650.38
534.269	11026.38
535.039	10480.38
535.81	9854.38
536.58	9332.38
537.351	8885.38
538.121	8382.38
538.891	7939.38
539.661	7499.38
540.431	7098.38
541.201	6717.38
541.971	6392.38
542.741	6016.38
543.51	5730.38
544.28	5446.38
545.05	5212.38
545.819	4956.38
546.588	4724.38
547.358	4462.38
548.127	4256.38
548.896	4035.38
549.665	3833.38
550.434	3663.38
551.203	3460.38
551.972	3265.38
552.741	3101.38
553.51	2949.38
554.278	2759.38
555.047	2616.38
555.815	2471.38
556.584	2324.38
557.352	2205.38
558.121	2091.38
558.889	1974.38
559.657	1858.38
560.425	1755.38
561.193	1663.38
561.961	1590.38
562.729	1496.38
563.496	1404.38
564.264	1349.38
565.032	1259.38
565.799	1181.38
566.567	1129.38
567.334	1068.38
568.101	1007.38
568.869	954.38
569.636	887.38
570.403	845.38
571.17	794.38
571.937	749.38
572.704	712.38
573.471	667.38
574.237	639.38
575.004	599.38
575.771	552.38
576.537	537.38
577.303	512.38
578.07	469.38
578.836	450.38
579.602	431.38
580.368	403.38
581.134	392.38
581.9	364.38
582.666	339.38
583.432	334.38
584.198	315.38
584.964	303.38
585.729	266.38
586.495	266.38
587.26	253.38
588.025	241.38
588.791	225.38
589.556	216.38
590.321	204.38
591.086	199.38
591.851	186.38
592.616	178.38
593.381	169.38
594.146	164.38
594.911	155.38
595.675	151.38
596.44	140.38
597.204	135.38
597.969	124.38
598.733	126.38
599.497	118.38
600.261	107.38
601.025	106.38
601.79	105.38
602.553	101.38
603.317	97.38
604.081	93.38
604.845	88.38
605.609	89.38
606.372	77.38
607.136	70.38
607.899	76.38
608.662	70.38
609.426	72.38
610.189	69.38
610.952	61.38
611.715	62.38
612.478	61.38
613.241	57.38
614.004	53.38
614.767	52.38
615.529	51.38
616.292	51.38
617.055	47.38
617.817	46.38
618.579	44.38
619.342	41.38
620.104	43.38
620.866	38.38
621.628	39.38
622.39	40.38
623.152	35.38
623.914	37.38
624.676	36.38
625.438	36.38
626.199	31.38
626.961	31.38
627.722	36.38
628.484	28.38
629.245	29.38
630.006	30.38
630.768	26.38
631.529	27.38
632.29	26.38
633.051	26.38
633.812	25.38
634.573	24.38
635.333	21.38
636.094	26.38
636.855	23.38
637.615	22.38
638.376	21.38
639.136	22.38
639.896	19.38
640.657	17.38
641.417	17.38
642.177	18.38
642.937	17.38
643.697	18.38
644.457	18.38
645.216	18.38
645.976	17.38
646.736	16.38
647.495	15.38
648.255	14.38
649.014	14.38
649.774	15.38
650.533	15.38
651.292	15.38
652.051	15.38
652.81	13.38
653.569	12.38
654.328	14.38
655.087	14.38
655.846	10.38
656.604	12.38
657.363	14.38
658.121	13.38
658.88	12.38
659.638	13.38
660.397	11.38
661.155	11.38
661.913	11.38
662.671	13.38
663.429	13.38
664.187	9.38
664.945	12.38
665.703	10.38
666.46	8.38
667.218	11.38
667.976	12.38
668.733	10.38
669.49	11.38
670.248	8.38
671.005	11.38
671.762	9.38
672.519	10.38
673.276	8.38
674.033	8.38
674.79	10.38
675.547	10.38
676.304	12.38
677.06	8.38
677.817	9.38
678.574	8.38
679.33	7.38
680.086	8.38
680.843	9.38
681.599	10.38
682.355	8.38
683.111	7.38
683.867	10.38
684.623	10.38
685.379	11.38
686.135	9.38
686.89	7.38
687.646	10.38
688.402	8.38
689.157	10.38
689.912	7.38
690.668	7.38
691.423	8.38
692.178	9.38
692.933	7.38
693.688	6.38
694.443	10.38
695.198	8.38
695.953	6.38
696.708	6.38
697.462	6.38
698.217	10.38
698.972	7.38
699.726	7.38
700.48	8.38
701.235	7.38
701.989	7.38
702.743	5.38
703.497	8.38
704.251	9.38
705.005	7.38
705.759	7.38
706.513	7.38
707.266	5.38
708.02	5.38
708.774	7.38
709.527	7.38
710.28	8.38
711.034	7.38
711.787	7.38
712.54	8.38
713.293	6.38
714.046	5.38
714.799	11.38
715.552	6.38
716.305	6.38
717.058	9.38
717.81	6.38
718.563	6.38
719.315	6.38
720.068	12.38
720.82	8.38
721.573	9.38
722.325	8.38
723.077	7.38
723.829	10.38
724.581	7.38
725.333	7.38
726.085	7.38
726.836	8.38
727.588	8.38
728.34	9.38
729.091	9.38
729.843	8.38
730.594	10.38
731.346	9.38
732.097	5.38
732.848	9.38
733.599	11.38
734.35	11.38
735.101	9.38
735.852	10.38
736.603	11.38
737.354	8.38
738.104	10.38
738.855	9.38
739.605	10.38
740.356	10.38
741.106	9.38
741.856	13.38
742.607	9.38
743.357	9.38
744.107	13.38
744.857	9.38
745.607	9.38
746.357	7.38
747.106	11.38
747.856	9.38
748.606	11.38
749.355	8.38
750.105	12.38
750.854	11.38
751.603	10.38
752.353	14.38
753.102	11.38
753.851	12.38
754.6	12.38
755.349	15.38
756.098	14.38
756.847	11.38
757.595	12.38
758.344	12.38
759.093	10.38
759.841	11.38
760.589	14.38
761.338	13.38
762.086	13.38
762.834	12.38
763.582	10.38
764.331	13.38
765.079	13.38
765.826	13.38
766.574	15.38
767.322	16.38
768.07	14.38
768.817	15.38
769.565	13.38
770.312	13.38
771.06	12.38
771.807	16.38
772.554	16.38
773.302	13.38
774.049	15.38
774.796	13.38
775.543	16.38
776.29	15.38
777.036	16.38
777.783	15.38
778.53	15.38
779.276	15.38
780.023	13.38
780.769	15.38
781.516	15.38
782.262	19.38
783.008	15.38
783.754	14.38
784.5	17.38
785.246	15.38
785.992	14.38
786.738	16.38
787.484	16.38
788.23	14.38
788.975	15.38
789.721	14.38
790.466	16.38
791.212	13.38
791.957	15.38
792.702	13.38
793.447	14.38
794.193	14.38
794.938	14.38
795.683	16.38
796.427	14.38
797.172	14.38
797.917	14.38
798.662	14.38
799.406	12.38
800.151	13.38
800.895	11.38
801.64	11.38
802.384	15.38
803.128	13.38
803.872	12.38
804.616	13.38
805.36	11.38
806.104	11.38
806.848	8.38
807.592	13.38
808.336	10.38
809.079	11.38
809.823	11.38
810.566	8.38
811.31	10.38
812.053	9.38
812.796	10.38
813.539	8.38
814.283	11.38
815.026	9.38
815.769	10.38
816.511	10.38
817.254	9.38
817.997	11.38
818.74	9.38
819.482	7.38
820.225	9.38
820.967	8.38
821.71	9.38
822.452	8.38
823.194	6.38
823.936	9.38
824.678	7.38
825.42	7.38
826.162	4.38
826.904	6.38
827.646	3.38
828.388	4.38
829.129	7.38
829.871	5.38
830.612	7.38
831.354	7.38
832.095	6.38
832.836	6.38
833.577	6.38
834.319	5.38
835.06	7.38
835.801	5.38
836.542	7.38
837.282	7.38
838.023	6.38
838.764	5.38
839.504	5.38
840.245	5.38
840.985	6.38
841.726	6.38
842.466	6.38
843.206	6.38
843.946	5.38
844.687	6.38
845.427	5.38
846.166	4.38
846.906	4.38
847.646	6.38
848.386	6.38
849.125	4.38
849.865	4.38
850.605	4.38
851.344	5.38
852.083	6.38
852.823	1.38
853.562	3.38
854.301	5.38
855.04	4.38
855.779	5.38
856.518	3.38
857.257	3.38
857.995	6.38
858.734	7.38
859.473	4.38
860.211	3.38
860.95	2.38
861.688	3.38
862.426	5.38
863.165	3.38
863.903	5.38
864.641	2.38
865.379	3.38
866.117	4.38
866.855	0.38
867.593	3.38
868.33	2.38
869.068	2.38
869.806	3.38
870.543	3.38
871.28	4.38
872.018	1.38
872.755	2.38
873.492	1.38
874.229	2.38
874.967	2.38
875.703	1.38
876.44	4.38
877.177	0.38
877.914	1.38
878.651	4.38
879.387	3.38
880.124	2.38
880.86	3.38
881.597	3.38
882.333	3.38
883.069	2.38
883.806	2.38
884.542	0.38
885.278	3.38
886.014	1.38
886.749	2.38
887.485	2.38
888.221	1.38
888.957	0.38
889.692	1.38
890.428	1.38
891.163	3.38
891.899	0.38
892.634	0.38
893.369	1.38
894.104	1.38
894.839	-0.62
895.574	2.38
896.309	3.38
897.044	1.38
897.779	3.38
898.514	2.38
899.248	1.38
899.983	0.38
900.717	2.38
901.452	1.38
902.186	2.38
902.92	1.38
903.654	-1.62
904.389	4.38
905.123	-0.62
905.857	-0.62
906.59	-0.62
907.324	1.38
908.058	-0.62
908.792	2.38
909.525	0.38
910.259	-0.62
910.992	1.38
911.726	2.38
912.459	-0.62
913.192	-0.62
913.925	-0.62
914.658	1.38
915.391	2.38
916.124	1.38
916.857	1.38
917.59	2.38
918.323	1.38
919.055	-0.62
919.788	-0.62
920.521	2.38
921.253	-0.62
921.985	0.38
922.718	0.38
923.45	1.38
924.182	2.38
924.914	1.38
925.646	2.38
926.378	-0.62
927.11	-0.62
927.841	1.38
928.573	2.38
929.305	1.38
930.036	-0.62
930.768	2.38
931.499	1.38
932.23	1.38
932.962	2.38
933.693	-0.62
934.424	0.38
935.155	1.38
935.886	-0.62
936.617	0.38
937.348	0.38
938.078	0.38
938.809	-1.62
939.54	3.38
940.27	2.38
941.001	1.38
941.731	2.38
942.461	3.38
943.191	0.38
943.922	-0.62
944.652	1.38
945.382	0.38
946.112	2.38
946.841	1.38
947.571	0.38
948.301	2.38
949.031	1.38
949.76	2.38
950.49	0.38
951.219	1.38
951.948	1.38
952.678	0.38
953.407	-0.62
954.136	1.38
954.865	3.38
955.594	1.38
956.323	1.38
957.052	1.38
957.78	1.38
958.509	1.38
959.238	0.38
959.966	2.38
960.695	0.38
961.423	3.38
962.151	2.38
962.88	1.38
963.608	1.38
964.336	0.38
965.064	0.38
965.792	1.38
966.52	2.38
967.247	2.38
967.975	-0.62
968.703	-0.62
969.43	1.38
970.158	0.38
970.885	0.38
971.613	0.38
972.34	2.38
973.067	2.38
973.794	2.38
974.521	0.38
975.248	-0.62
975.975	-0.62
976.702	1.38
977.429	1.38
978.156	0.38
978.882	0.38
979.609	0.38
980.335	1.38
981.062	-0.62
981.788	1.38
982.514	-0.62
983.24	4.38
983.967	1.38
984.693	0.38
985.419	-0.62
986.144	1.38
986.87	0.38
987.596	-0.62
988.322	0.38
989.047	0.38
989.773	0.38
990.498	1.38
991.224	-0.62
991.949	3.38
992.674	-0.62
993.399	0.38
994.124	0.38
994.849	1.38
995.574	1.38
996.299	1.38
997.024	1.38
997.749	-0.62
998.473	0.38
999.198	1.38
999.922	3.38
1000.647	-0.62
1001.371	3.38
1002.095	-0.62
1002.82	-1.62
1003.544	-1.62
1004.268	5.38
1004.992	6.38
1005.716	5.38
1006.439	3.38
1007.163	7.38
1007.887	8.38
1008.611	1.38
1009.334	1.38
1010.058	0.38
1010.781	-0.62
1011.504	3.38
1012.228	0.38
1012.951	0.38
1013.674	0.38
1014.397	0.38
1015.12	-0.62
