节点500_705_QEPB04081__629__20-54-52-802.txt的数据

Date: Wed Nov 12 20:54:52 CST 2025
User: PC
Spectrometer: QEPB0408
触发模式: 0
积分时间 (秒): 1.000000E-2
Scans to average: 1
启用暗噪声校正: true
启用非线性校正: false
滑动平均宽度: 0
X轴模式: Wavelengths
Number of Pixels in Spectrum: 1044
>>>>>Begin Spectral Data<<<<<
220.843	4.12
221.644	4.12
222.444	6.12
223.244	4.12
224.045	7.12
224.845	5.12
225.645	7.12
226.445	5.12
227.245	6.12
228.045	7.12
228.845	8.12
229.645	6.12
230.444	9.12
231.244	8.12
232.043	7.12
232.843	7.12
233.642	11.12
234.442	8.12
235.241	12.12
236.04	11.12
236.839	10.12
237.638	11.12
238.437	10.12
239.236	9.12
240.035	11.12
240.833	11.12
241.632	11.12
242.43	10.12
243.229	11.12
244.027	11.12
244.826	15.12
245.624	17.12
246.422	11.12
247.22	13.12
248.018	12.12
248.816	15.12
249.614	18.12
250.412	16.12
251.21	15.12
252.007	13.12
252.805	15.12
253.602	15.12
254.4	16.12
255.197	19.12
255.994	17.12
256.791	16.12
257.589	17.12
258.386	17.12
259.183	19.12
259.979	19.12
260.776	21.12
261.573	19.12
262.37	23.12
263.166	22.12
263.963	23.12
264.759	22.12
265.556	24.12
266.352	25.12
267.148	24.12
267.944	24.12
268.74	26.12
269.536	24.12
270.332	26.12
271.128	24.12
271.924	26.12
272.719	25.12
273.515	29.12
274.311	29.12
275.106	31.12
275.901	30.12
276.697	30.12
277.492	31.12
278.287	29.12
279.082	32.12
279.877	31.12
280.672	31.12
281.467	31.12
282.262	31.12
283.056	32.12
283.851	31.12
284.646	34.12
285.44	33.12
286.234	30.12
287.029	31.12
287.823	29.12
288.617	31.12
289.411	30.12
290.205	31.12
290.999	30.12
291.793	28.12
292.587	33.12
293.381	27.12
294.174	29.12
294.968	32.12
295.761	29.12
296.555	22.12
297.348	25.12
298.141	27.12
298.935	27.12
299.728	24.12
300.521	23.12
301.314	24.12
302.107	25.12
302.899	24.12
303.692	22.12
304.485	22.12
305.277	22.12
306.07	22.12
306.862	23.12
307.655	25.12
308.447	21.12
309.239	17.12
310.031	21.12
310.823	21.12
311.615	17.12
312.407	19.12
313.199	19.12
313.991	16.12
314.783	17.12
315.574	17.12
316.366	17.12
317.157	14.12
317.949	14.12
318.74	15.12
319.531	14.12
320.322	14.12
321.113	15.12
321.904	15.12
322.695	13.12
323.486	13.12
324.277	15.12
325.068	15.12
325.858	11.12
326.649	12.12
327.439	11.12
328.23	14.12
329.02	13.12
329.81	12.12
330.6	11.12
331.391	12.12
332.181	15.12
332.971	13.12
333.76	11.12
334.55	11.12
335.34	13.12
336.13	12.12
336.919	11.12
337.709	10.12
338.498	12.12
339.287	14.12
340.077	11.12
340.866	12.12
341.655	14.12
342.444	11.12
343.233	13.12
344.022	10.12
344.811	9.12
345.6	11.12
346.388	11.12
347.177	11.12
347.965	11.12
348.754	11.12
349.542	12.12
350.33	8.12
351.119	13.12
351.907	12.12
352.695	14.12
353.483	11.12
354.271	10.12
355.059	9.12
355.846	11.12
356.634	9.12
357.422	11.12
358.209	9.12
358.997	12.12
359.784	13.12
360.571	10.12
361.359	10.12
362.146	8.12
362.933	9.12
363.72	11.12
364.507	10.12
365.294	8.12
366.081	9.12
366.867	9.12
367.654	9.12
368.44	11.12
369.227	7.12
370.013	10.12
370.8	8.12
371.586	11.12
372.372	8.12
373.158	10.12
373.944	9.12
374.73	10.12
375.516	9.12
376.302	10.12
377.088	8.12
377.873	6.12
378.659	8.12
379.445	9.12
380.23	8.12
381.015	11.12
381.801	9.12
382.586	10.12
383.371	12.12
384.156	8.12
384.941	11.12
385.726	8.12
386.511	11.12
387.296	11.12
388.08	10.12
388.865	11.12
389.649	11.12
390.434	11.12
391.218	10.12
392.003	11.12
392.787	13.12
393.571	11.12
394.355	12.12
395.139	10.12
395.923	11.12
396.707	12.12
397.491	11.12
398.274	11.12
399.058	13.12
399.842	14.12
400.625	12.12
401.408	14.12
402.192	12.12
402.975	13.12
403.758	12.12
404.541	13.12
405.324	15.12
406.107	14.12
406.89	13.12
407.673	15.12
408.456	16.12
409.238	16.12
410.021	15.12
410.803	15.12
411.586	13.12
412.368	15.12
413.151	17.12
413.933	15.12
414.715	17.12
415.497	20.12
416.279	15.12
417.061	18.12
417.843	19.12
418.624	19.12
419.406	18.12
420.188	23.12
420.969	21.12
421.751	20.12
422.532	21.12
423.313	21.12
424.095	24.12
424.876	24.12
425.657	22.12
426.438	26.12
427.219	26.12
428	27.12
428.78	28.12
429.561	28.12
430.342	29.12
431.122	31.12
431.903	32.12
432.683	33.12
433.464	38.12
434.244	35.12
435.024	40.12
435.804	40.12
436.584	42.12
437.364	47.12
438.144	49.12
438.924	53.12
439.704	55.12
440.483	60.12
441.263	62.12
442.042	64.12
442.822	73.12
443.601	79.12
444.38	82.12
445.16	89.12
445.939	104.12
446.718	108.12
447.497	117.12
448.276	131.12
449.054	145.12
449.833	154.12
450.612	170.12
451.391	188.12
452.169	215.12
452.948	229.12
453.726	259.12
454.504	289.12
455.282	325.12
456.061	355.12
456.839	391.12
457.617	444.12
458.395	491.12
459.172	551.12
459.95	600.12
460.728	671.12
461.506	745.12
462.283	830.12
463.061	931.12
463.838	1028.12
464.615	1134.12
465.393	1254.12
466.17	1388.12
466.947	1540.12
467.724	1703.12
468.501	1870.12
469.278	2064.12
470.055	2276.12
470.831	2506.12
471.608	2765.12
472.385	3005.12
473.161	3311.12
473.938	3617.12
474.714	3954.12
475.49	4310.12
476.266	4702.12
477.043	5129.12
477.819	5560.12
478.595	6066.12
479.371	6571.12
480.146	7120.12
480.922	7733.12
481.698	8380.12
482.473	9093.12
483.249	9827.12
484.024	10631.12
484.8	11446.12
485.575	12368.12
486.35	13313.12
487.126	14403.12
487.901	15488.12
488.676	16600.12
489.451	17846.12
490.225	19176.12
491	20433.12
491.775	21843.12
492.55	23333.12
493.324	24869.12
494.099	26435.12
494.873	27961.12
495.647	29459.12
496.422	31129.12
497.196	32737.12
497.97	34150.12
498.744	35642.12
499.518	37158.12
500.292	38517.12
501.066	39644.12
501.839	40582.12
502.613	41550.12
503.387	42395.12
504.16	43030.12
504.934	43444.12
505.707	43678.12
506.48	43566.12
507.253	43386.12
508.027	43103.12
508.8	42595.12
509.573	41899.12
510.346	41185.12
511.118	40438.12
511.891	39360.12
512.664	38104.12
513.437	36911.12
514.209	35710.12
514.982	34414.12
515.754	33201.12
516.526	31924.12
517.298	30746.12
518.071	29608.12
518.843	28508.12
519.615	27313.12
520.387	26283.12
521.159	25210.12
521.93	24224.12
522.702	23241.12
523.474	22272.12
524.245	21392.12
525.017	20485.12
525.788	19614.12
526.56	18893.12
527.331	18082.12
528.102	17213.12
528.873	16376.12
529.644	15652.12
530.415	14931.12
531.186	14276.12
531.957	13520.12
532.728	12856.12
533.498	12223.12
534.269	11618.12
535.039	10998.12
535.81	10449.12
536.58	9883.12
537.351	9352.12
538.121	8855.12
538.891	8359.12
539.661	7952.12
540.431	7518.12
541.201	7133.12
541.971	6726.12
542.741	6396.12
543.51	6054.12
544.28	5765.12
545.05	5486.12
545.819	5238.12
546.588	5000.12
547.358	4764.12
548.127	4533.12
548.896	4319.12
549.665	4114.12
550.434	3875.12
551.203	3693.12
551.972	3523.12
552.741	3323.12
553.51	3139.12
554.278	2970.12
555.047	2794.12
555.815	2672.12
556.584	2518.12
557.352	2392.12
558.121	2263.12
558.889	2124.12
559.657	2008.12
560.425	1913.12
561.193	1794.12
561.961	1698.12
562.729	1619.12
563.496	1515.12
564.264	1440.12
565.032	1371.12
565.799	1271.12
566.567	1226.12
567.334	1150.12
568.101	1087.12
568.869	1034.12
569.636	968.12
570.403	921.12
571.17	873.12
571.937	812.12
572.704	765.12
573.471	726.12
574.237	694.12
575.004	642.12
575.771	613.12
576.537	575.12
577.303	547.12
578.07	519.12
578.836	486.12
579.602	454.12
580.368	442.12
581.134	423.12
581.9	393.12
582.666	370.12
583.432	360.12
584.198	335.12
584.964	320.12
585.729	307.12
586.495	289.12
587.26	271.12
588.025	259.12
588.791	249.12
589.556	236.12
590.321	215.12
591.086	212.12
591.851	201.12
592.616	187.12
593.381	183.12
594.146	170.12
594.911	163.12
595.675	165.12
596.44	153.12
597.204	143.12
597.969	137.12
598.733	129.12
599.497	122.12
600.261	122.12
601.025	112.12
601.79	111.12
602.553	103.12
603.317	103.12
604.081	98.12
604.845	92.12
605.609	90.12
606.372	86.12
607.136	84.12
607.899	79.12
608.662	79.12
609.426	73.12
610.189	69.12
610.952	66.12
611.715	64.12
612.478	69.12
613.241	62.12
614.004	61.12
614.767	54.12
615.529	54.12
616.292	53.12
617.055	51.12
617.817	48.12
618.579	46.12
619.342	46.12
620.104	47.12
620.866	43.12
621.628	42.12
622.39	40.12
623.152	42.12
623.914	38.12
624.676	38.12
625.438	35.12
626.199	33.12
626.961	33.12
627.722	32.12
628.484	31.12
629.245	30.12
630.006	28.12
630.768	29.12
631.529	28.12
632.29	26.12
633.051	25.12
633.812	25.12
634.573	25.12
635.333	20.12
636.094	22.12
636.855	24.12
637.615	22.12
638.376	21.12
639.136	19.12
639.896	20.12
640.657	21.12
641.417	19.12
642.177	17.12
642.937	17.12
643.697	20.12
644.457	17.12
645.216	16.12
645.976	18.12
646.736	16.12
647.495	16.12
648.255	16.12
649.014	15.12
649.774	13.12
650.533	13.12
651.292	15.12
652.051	14.12
652.81	18.12
653.569	12.12
654.328	12.12
655.087	13.12
655.846	13.12
656.604	14.12
657.363	11.12
658.121	13.12
658.88	13.12
659.638	12.12
660.397	11.12
661.155	11.12
661.913	12.12
662.671	11.12
663.429	9.12
664.187	11.12
664.945	10.12
665.703	11.12
666.46	10.12
667.218	10.12
667.976	8.12
668.733	9.12
669.49	9.12
670.248	10.12
671.005	7.12
671.762	9.12
672.519	12.12
673.276	8.12
674.033	10.12
674.79	8.12
675.547	8.12
676.304	9.12
677.06	6.12
677.817	8.12
678.574	6.12
679.33	9.12
680.086	7.12
680.843	11.12
681.599	10.12
682.355	5.12
683.111	8.12
683.867	9.12
684.623	8.12
685.379	10.12
686.135	8.12
686.89	9.12
687.646	10.12
688.402	9.12
689.157	10.12
689.912	9.12
690.668	9.12
691.423	5.12
692.178	8.12
692.933	8.12
693.688	8.12
694.443	7.12
695.198	6.12
695.953	9.12
696.708	7.12
697.462	7.12
698.217	8.12
698.972	5.12
699.726	6.12
700.48	7.12
701.235	8.12
701.989	9.12
702.743	7.12
703.497	8.12
704.251	7.12
705.005	6.12
705.759	7.12
706.513	8.12
707.266	7.12
708.02	8.12
708.774	8.12
709.527	6.12
710.28	9.12
711.034	8.12
711.787	9.12
712.54	7.12
713.293	10.12
714.046	8.12
714.799	8.12
715.552	7.12
716.305	7.12
717.058	7.12
717.81	7.12
718.563	7.12
719.315	10.12
720.068	9.12
720.82	8.12
721.573	9.12
722.325	8.12
723.077	7.12
723.829	6.12
724.581	9.12
725.333	8.12
726.085	8.12
726.836	6.12
727.588	9.12
728.34	8.12
729.091	8.12
729.843	9.12
730.594	6.12
731.346	5.12
732.097	8.12
732.848	8.12
733.599	9.12
734.35	11.12
735.101	8.12
735.852	7.12
736.603	7.12
737.354	11.12
738.104	8.12
738.855	8.12
739.605	13.12
740.356	9.12
741.106	11.12
741.856	8.12
742.607	8.12
743.357	8.12
744.107	8.12
744.857	10.12
745.607	8.12
746.357	10.12
747.106	8.12
747.856	10.12
748.606	12.12
749.355	11.12
750.105	10.12
750.854	8.12
751.603	10.12
752.353	11.12
753.102	9.12
753.851	10.12
754.6	11.12
755.349	12.12
756.098	11.12
756.847	13.12
757.595	11.12
758.344	12.12
759.093	12.12
759.841	10.12
760.589	14.12
761.338	12.12
762.086	11.12
762.834	13.12
763.582	12.12
764.331	12.12
765.079	12.12
765.826	14.12
766.574	12.12
767.322	12.12
768.07	14.12
768.817	14.12
769.565	13.12
770.312	14.12
771.06	13.12
771.807	12.12
772.554	15.12
773.302	13.12
774.049	11.12
774.796	14.12
775.543	13.12
776.29	17.12
777.036	15.12
777.783	13.12
778.53	13.12
779.276	14.12
780.023	13.12
780.769	14.12
781.516	14.12
782.262	17.12
783.008	13.12
783.754	15.12
784.5	14.12
785.246	15.12
785.992	14.12
786.738	14.12
787.484	14.12
788.23	15.12
788.975	14.12
789.721	11.12
790.466	15.12
791.212	12.12
791.957	15.12
792.702	12.12
793.447	15.12
794.193	15.12
794.938	13.12
795.683	15.12
796.427	14.12
797.172	11.12
797.917	12.12
798.662	14.12
799.406	12.12
800.151	12.12
800.895	13.12
801.64	11.12
802.384	12.12
803.128	12.12
803.872	10.12
804.616	11.12
805.36	12.12
806.104	9.12
806.848	13.12
807.592	8.12
808.336	10.12
809.079	9.12
809.823	11.12
810.566	10.12
811.31	6.12
812.053	8.12
812.796	9.12
813.539	10.12
814.283	8.12
815.026	8.12
815.769	7.12
816.511	8.12
817.254	7.12
817.997	11.12
818.74	10.12
819.482	8.12
820.225	8.12
820.967	7.12
821.71	7.12
822.452	8.12
823.194	9.12
823.936	4.12
824.678	6.12
825.42	6.12
826.162	6.12
826.904	6.12
827.646	9.12
828.388	6.12
829.129	7.12
829.871	8.12
830.612	3.12
831.354	6.12
832.095	6.12
832.836	4.12
833.577	7.12
834.319	8.12
835.06	6.12
835.801	7.12
836.542	6.12
837.282	5.12
838.023	7.12
838.764	6.12
839.504	5.12
840.245	6.12
840.985	6.12
841.726	4.12
842.466	3.12
843.206	5.12
843.946	7.12
844.687	4.12
845.427	5.12
846.166	6.12
846.906	4.12
847.646	6.12
848.386	5.12
849.125	6.12
849.865	5.12
850.605	6.12
851.344	5.12
852.083	3.12
852.823	6.12
853.562	5.12
854.301	3.12
855.04	1.12
855.779	6.12
856.518	4.12
857.257	4.12
857.995	5.12
858.734	4.12
859.473	2.12
860.211	6.12
860.95	4.12
861.688	5.12
862.426	3.12
863.165	3.12
863.903	4.12
864.641	3.12
865.379	2.12
866.117	2.12
866.855	3.12
867.593	4.12
868.33	2.12
869.068	1.12
869.806	4.12
870.543	2.12
871.28	2.12
872.018	3.12
872.755	3.12
873.492	5.12
874.229	2.12
874.967	1.12
875.703	0.12
876.44	1.12
877.177	4.12
877.914	2.12
878.651	2.12
879.387	1.12
880.124	1.12
880.86	3.12
881.597	0.12
882.333	0.12
883.069	2.12
883.806	1.12
884.542	3.12
885.278	3.12
886.014	3.12
886.749	1.12
887.485	2.12
888.221	2.12
888.957	2.12
889.692	0.12
890.428	1.12
891.163	3.12
891.899	2.12
892.634	0.12
893.369	2.12
894.104	1.12
894.839	2.12
895.574	0.12
896.309	2.12
897.044	1.12
897.779	2.12
898.514	-1.88
899.248	0.12
899.983	2.12
900.717	-0.88
901.452	1.12
902.186	-0.88
902.92	2.12
903.654	3.12
904.389	-0.88
905.123	2.12
905.857	0.12
906.59	1.12
907.324	-0.88
908.058	2.12
908.792	3.12
909.525	1.12
910.259	-0.88
910.992	2.12
911.726	3.12
912.459	3.12
913.192	2.12
913.925	1.12
914.658	0.12
915.391	1.12
916.124	1.12
916.857	-1.88
917.59	1.12
918.323	0.12
919.055	1.12
919.788	0.12
920.521	-0.88
921.253	1.12
921.985	-0.88
922.718	-0.88
923.45	-0.88
924.182	0.12
924.914	-0.88
925.646	0.12
926.378	0.12
927.11	-0.88
927.841	0.12
928.573	1.12
929.305	1.12
930.036	2.12
930.768	-1.88
931.499	2.12
932.23	-0.88
932.962	0.12
933.693	2.12
934.424	0.12
935.155	0.12
935.886	0.12
936.617	2.12
937.348	-0.88
938.078	0.12
938.809	2.12
939.54	-0.88
940.27	-0.88
941.001	-0.88
941.731	0.12
942.461	0.12
943.191	3.12
943.922	1.12
944.652	-0.88
945.382	0.12
946.112	0.12
946.841	2.12
947.571	2.12
948.301	3.12
949.031	2.12
949.76	0.12
950.49	-0.88
951.219	-0.88
951.948	0.12
952.678	2.12
953.407	-0.88
954.136	2.12
954.865	-1.88
955.594	2.12
956.323	1.12
957.052	2.12
957.78	2.12
958.509	1.12
959.238	-1.88
959.966	-0.88
960.695	-0.88
961.423	-0.88
962.151	1.12
962.88	-2.88
963.608	1.12
964.336	-0.88
965.064	1.12
965.792	0.12
966.52	0.12
967.247	2.12
967.975	0.12
968.703	-0.88
969.43	-0.88
970.158	1.12
970.885	0.12
971.613	0.12
972.34	-0.88
973.067	-0.88
973.794	0.12
974.521	1.12
975.248	0.12
975.975	0.12
976.702	1.12
977.429	-0.88
978.156	1.12
978.882	-0.88
979.609	0.12
980.335	-0.88
981.062	-1.88
981.788	2.12
982.514	-0.88
983.24	1.12
983.967	0.12
984.693	-0.88
985.419	0.12
986.144	-0.88
986.87	0.12
987.596	-1.88
988.322	0.12
989.047	1.12
989.773	-1.88
990.498	3.12
991.224	0.12
991.949	1.12
992.674	-0.88
993.399	-1.88
994.124	1.12
994.849	1.12
995.574	-0.88
996.299	0.12
997.024	-0.88
997.749	0.12
998.473	1.12
999.198	2.12
999.922	0.12
1000.647	0.12
1001.371	6.12
1002.095	-0.88
1002.82	-2.88
1003.544	-1.88
1004.268	6.12
1004.992	5.12
1005.716	2.12
1006.439	5.12
1007.163	7.12
1007.887	4.12
1008.611	0.12
1009.334	-1.88
1010.058	-0.88
1010.781	-1.88
1011.504	1.12
1012.228	-1.88
1012.951	0.12
1013.674	-0.88
1014.397	-1.88
1015.12	2.12
