节点500_705_QEPB04081__76__20-47-09-262.txt的数据

Date: Wed Nov 12 20:47:09 CST 2025
User: PC
Spectrometer: QEPB0408
触发模式: 0
积分时间 (秒): 1.000000E-2
Scans to average: 1
启用暗噪声校正: true
启用非线性校正: false
滑动平均宽度: 0
X轴模式: Wavelengths
Number of Pixels in Spectrum: 1044
>>>>>Begin Spectral Data<<<<<
220.843	6.25
221.644	6.25
222.444	7.25
223.244	6.25
224.045	8.25
224.845	9.25
225.645	6.25
226.445	6.25
227.245	8.25
228.045	7.25
228.845	8.25
229.645	7.25
230.444	10.25
231.244	8.25
232.043	6.25
232.843	10.25
233.642	8.25
234.442	10.25
235.241	9.25
236.04	11.25
236.839	10.25
237.638	10.25
238.437	11.25
239.236	13.25
240.035	9.25
240.833	11.25
241.632	13.25
242.43	13.25
243.229	12.25
244.027	15.25
244.826	15.25
245.624	15.25
246.422	16.25
247.22	15.25
248.018	18.25
248.816	15.25
249.614	18.25
250.412	14.25
251.21	18.25
252.007	18.25
252.805	17.25
253.602	20.25
254.4	21.25
255.197	19.25
255.994	20.25
256.791	20.25
257.589	24.25
258.386	25.25
259.183	24.25
259.979	26.25
260.776	24.25
261.573	26.25
262.37	25.25
263.166	27.25
263.963	29.25
264.759	29.25
265.556	29.25
266.352	31.25
267.148	31.25
267.944	30.25
268.74	31.25
269.536	34.25
270.332	33.25
271.128	34.25
271.924	35.25
272.719	35.25
273.515	35.25
274.311	35.25
275.106	36.25
275.901	34.25
276.697	36.25
277.492	34.25
278.287	39.25
279.082	36.25
279.877	35.25
280.672	40.25
281.467	39.25
282.262	37.25
283.056	36.25
283.851	36.25
284.646	37.25
285.44	36.25
286.234	35.25
287.029	35.25
287.823	38.25
288.617	36.25
289.411	35.25
290.205	33.25
290.999	33.25
291.793	34.25
292.587	30.25
293.381	30.25
294.174	31.25
294.968	29.25
295.761	28.25
296.555	30.25
297.348	26.25
298.141	27.25
298.935	28.25
299.728	27.25
300.521	24.25
301.314	27.25
302.107	24.25
302.899	24.25
303.692	23.25
304.485	20.25
305.277	22.25
306.07	21.25
306.862	21.25
307.655	21.25
308.447	23.25
309.239	21.25
310.031	18.25
310.823	20.25
311.615	17.25
312.407	17.25
313.199	19.25
313.991	19.25
314.783	15.25
315.574	15.25
316.366	18.25
317.157	17.25
317.949	15.25
318.74	17.25
319.531	14.25
320.322	15.25
321.113	13.25
321.904	17.25
322.695	15.25
323.486	14.25
324.277	13.25
325.068	15.25
325.858	13.25
326.649	10.25
327.439	11.25
328.23	14.25
329.02	13.25
329.81	13.25
330.6	13.25
331.391	15.25
332.181	14.25
332.971	11.25
333.76	13.25
334.55	14.25
335.34	15.25
336.13	11.25
336.919	13.25
337.709	13.25
338.498	10.25
339.287	13.25
340.077	11.25
340.866	15.25
341.655	12.25
342.444	13.25
343.233	11.25
344.022	11.25
344.811	10.25
345.6	9.25
346.388	12.25
347.177	11.25
347.965	13.25
348.754	12.25
349.542	11.25
350.33	10.25
351.119	10.25
351.907	11.25
352.695	10.25
353.483	11.25
354.271	14.25
355.059	9.25
355.846	13.25
356.634	11.25
357.422	12.25
358.209	13.25
358.997	13.25
359.784	11.25
360.571	10.25
361.359	10.25
362.146	11.25
362.933	10.25
363.72	11.25
364.507	9.25
365.294	10.25
366.081	13.25
366.867	10.25
367.654	10.25
368.44	11.25
369.227	10.25
370.013	10.25
370.8	11.25
371.586	10.25
372.372	10.25
373.158	11.25
373.944	10.25
374.73	8.25
375.516	10.25
376.302	9.25
377.088	10.25
377.873	8.25
378.659	9.25
379.445	10.25
380.23	10.25
381.015	11.25
381.801	10.25
382.586	12.25
383.371	9.25
384.156	11.25
384.941	10.25
385.726	11.25
386.511	11.25
387.296	10.25
388.08	12.25
388.865	13.25
389.649	13.25
390.434	12.25
391.218	12.25
392.003	12.25
392.787	12.25
393.571	11.25
394.355	12.25
395.139	15.25
395.923	14.25
396.707	11.25
397.491	12.25
398.274	13.25
399.058	15.25
399.842	16.25
400.625	15.25
401.408	15.25
402.192	13.25
402.975	15.25
403.758	13.25
404.541	16.25
405.324	15.25
406.107	15.25
406.89	15.25
407.673	17.25
408.456	15.25
409.238	18.25
410.021	16.25
410.803	17.25
411.586	17.25
412.368	18.25
413.151	17.25
413.933	17.25
414.715	17.25
415.497	19.25
416.279	21.25
417.061	21.25
417.843	18.25
418.624	19.25
419.406	20.25
420.188	21.25
420.969	22.25
421.751	21.25
422.532	24.25
423.313	25.25
424.095	26.25
424.876	27.25
425.657	24.25
426.438	25.25
427.219	28.25
428	30.25
428.78	27.25
429.561	29.25
430.342	30.25
431.122	33.25
431.903	34.25
432.683	35.25
433.464	36.25
434.244	35.25
435.024	37.25
435.804	41.25
436.584	44.25
437.364	45.25
438.144	49.25
438.924	49.25
439.704	53.25
440.483	60.25
441.263	57.25
442.042	63.25
442.822	68.25
443.601	73.25
444.38	80.25
445.16	83.25
445.939	91.25
446.718	94.25
447.497	104.25
448.276	117.25
449.054	127.25
449.833	140.25
450.612	151.25
451.391	163.25
452.169	184.25
452.948	207.25
453.726	227.25
454.504	256.25
455.282	274.25
456.061	307.25
456.839	351.25
457.617	389.25
458.395	429.25
459.172	480.25
459.95	542.25
460.728	595.25
461.506	670.25
462.283	747.25
463.061	828.25
463.838	932.25
464.615	1050.25
465.393	1163.25
466.17	1307.25
466.947	1464.25
467.724	1614.25
468.501	1788.25
469.278	2009.25
470.055	2230.25
470.831	2469.25
471.608	2724.25
472.385	3020.25
473.161	3358.25
473.938	3705.25
474.714	4080.25
475.49	4526.25
476.266	4969.25
477.043	5456.25
477.819	5977.25
478.595	6595.25
479.371	7187.25
480.146	7900.25
480.922	8685.25
481.698	9487.25
482.473	10410.25
483.249	11347.25
484.024	12357.25
484.8	13485.25
485.575	14666.25
486.35	16006.25
487.126	17416.25
487.901	18805.25
488.676	20348.25
489.451	22073.25
490.225	23804.25
491	25523.25
491.775	27387.25
492.55	29295.25
493.324	31262.25
494.099	33191.25
494.873	35120.25
495.647	37145.25
496.422	39035.25
497.196	40898.25
497.97	42660.25
498.744	44193.25
499.518	45760.25
500.292	47089.25
501.066	48059.25
501.839	48684.25
502.613	49281.25
503.387	49724.25
504.16	50020.25
504.934	49810.25
505.707	49394.25
506.48	48727.25
507.253	47978.25
508.027	46912.25
508.8	45720.25
509.573	44449.25
510.346	43101.25
511.118	41858.25
511.891	40409.25
512.664	38733.25
513.437	37011.25
514.209	35668.25
514.982	34173.25
515.754	32681.25
516.526	31243.25
517.298	30069.25
518.071	28799.25
518.843	27619.25
519.615	26561.25
520.387	25552.25
521.159	24433.25
521.93	23414.25
522.702	22350.25
523.474	21443.25
524.245	20515.25
525.017	19543.25
525.788	18718.25
526.56	17916.25
527.331	17041.25
528.102	16184.25
528.873	15302.25
529.644	14585.25
530.415	13877.25
531.186	13177.25
531.957	12463.25
532.728	11813.25
533.498	11141.25
534.269	10555.25
535.039	9981.25
535.81	9408.25
536.58	8936.25
537.351	8380.25
538.121	8019.25
538.891	7573.25
539.661	7147.25
540.431	6770.25
541.201	6431.25
541.971	6068.25
542.741	5739.25
543.51	5448.25
544.28	5206.25
545.05	4943.25
545.819	4721.25
546.588	4483.25
547.358	4287.25
548.127	4054.25
548.896	3849.25
549.665	3655.25
550.434	3455.25
551.203	3282.25
551.972	3115.25
552.741	2903.25
553.51	2779.25
554.278	2590.25
555.047	2453.25
555.815	2304.25
556.584	2181.25
557.352	2077.25
558.121	1966.25
558.889	1863.25
559.657	1744.25
560.425	1648.25
561.193	1554.25
561.961	1483.25
562.729	1420.25
563.496	1318.25
564.264	1256.25
565.032	1183.25
565.799	1119.25
566.567	1048.25
567.334	1007.25
568.101	948.25
568.869	893.25
569.636	853.25
570.403	807.25
571.17	759.25
571.937	714.25
572.704	678.25
573.471	646.25
574.237	605.25
575.004	569.25
575.771	526.25
576.537	504.25
577.303	466.25
578.07	452.25
578.836	428.25
579.602	407.25
580.368	380.25
581.134	369.25
581.9	338.25
582.666	323.25
583.432	315.25
584.198	292.25
584.964	276.25
585.729	273.25
586.495	259.25
587.26	237.25
588.025	227.25
588.791	214.25
589.556	199.25
590.321	203.25
591.086	181.25
591.851	173.25
592.616	169.25
593.381	162.25
594.146	150.25
594.911	145.25
595.675	137.25
596.44	133.25
597.204	128.25
597.969	123.25
598.733	115.25
599.497	114.25
600.261	103.25
601.025	106.25
601.79	97.25
602.553	92.25
603.317	91.25
604.081	90.25
604.845	81.25
605.609	81.25
606.372	74.25
607.136	74.25
607.899	75.25
608.662	67.25
609.426	66.25
610.189	65.25
610.952	61.25
611.715	61.25
612.478	58.25
613.241	56.25
614.004	51.25
614.767	51.25
615.529	49.25
616.292	49.25
617.055	47.25
617.817	46.25
618.579	41.25
619.342	44.25
620.104	39.25
620.866	40.25
621.628	38.25
622.39	38.25
623.152	38.25
623.914	37.25
624.676	33.25
625.438	34.25
626.199	32.25
626.961	33.25
627.722	29.25
628.484	29.25
629.245	26.25
630.006	26.25
630.768	26.25
631.529	27.25
632.29	29.25
633.051	24.25
633.812	27.25
634.573	22.25
635.333	23.25
636.094	22.25
636.855	22.25
637.615	19.25
638.376	22.25
639.136	20.25
639.896	20.25
640.657	20.25
641.417	19.25
642.177	19.25
642.937	20.25
643.697	18.25
644.457	18.25
645.216	15.25
645.976	16.25
646.736	15.25
647.495	15.25
648.255	17.25
649.014	15.25
649.774	14.25
650.533	16.25
651.292	15.25
652.051	16.25
652.81	12.25
653.569	13.25
654.328	11.25
655.087	13.25
655.846	13.25
656.604	12.25
657.363	14.25
658.121	11.25
658.88	13.25
659.638	10.25
660.397	12.25
661.155	10.25
661.913	12.25
662.671	12.25
663.429	15.25
664.187	12.25
664.945	10.25
665.703	8.25
666.46	12.25
667.218	9.25
667.976	11.25
668.733	11.25
669.49	9.25
670.248	11.25
671.005	9.25
671.762	11.25
672.519	12.25
673.276	9.25
674.033	9.25
674.79	8.25
675.547	11.25
676.304	8.25
677.06	8.25
677.817	9.25
678.574	7.25
679.33	8.25
680.086	9.25
680.843	11.25
681.599	8.25
682.355	10.25
683.111	9.25
683.867	8.25
684.623	9.25
685.379	8.25
686.135	8.25
686.89	7.25
687.646	7.25
688.402	10.25
689.157	9.25
689.912	10.25
690.668	7.25
691.423	8.25
692.178	8.25
692.933	7.25
693.688	9.25
694.443	7.25
695.198	8.25
695.953	8.25
696.708	7.25
697.462	11.25
698.217	6.25
698.972	8.25
699.726	8.25
700.48	8.25
701.235	8.25
701.989	7.25
702.743	6.25
703.497	7.25
704.251	10.25
705.005	8.25
705.759	8.25
706.513	9.25
707.266	7.25
708.02	9.25
708.774	8.25
709.527	8.25
710.28	6.25
711.034	7.25
711.787	7.25
712.54	10.25
713.293	9.25
714.046	7.25
714.799	7.25
715.552	9.25
716.305	8.25
717.058	9.25
717.81	8.25
718.563	8.25
719.315	9.25
720.068	8.25
720.82	8.25
721.573	8.25
722.325	9.25
723.077	9.25
723.829	9.25
724.581	7.25
725.333	8.25
726.085	9.25
726.836	8.25
727.588	9.25
728.34	9.25
729.091	8.25
729.843	7.25
730.594	8.25
731.346	10.25
732.097	11.25
732.848	10.25
733.599	8.25
734.35	11.25
735.101	12.25
735.852	10.25
736.603	10.25
737.354	10.25
738.104	9.25
738.855	9.25
739.605	11.25
740.356	12.25
741.106	14.25
741.856	11.25
742.607	10.25
743.357	12.25
744.107	11.25
744.857	11.25
745.607	10.25
746.357	11.25
747.106	12.25
747.856	9.25
748.606	10.25
749.355	13.25
750.105	14.25
750.854	11.25
751.603	11.25
752.353	11.25
753.102	12.25
753.851	13.25
754.6	13.25
755.349	12.25
756.098	13.25
756.847	13.25
757.595	12.25
758.344	13.25
759.093	13.25
759.841	12.25
760.589	13.25
761.338	11.25
762.086	15.25
762.834	14.25
763.582	15.25
764.331	14.25
765.079	14.25
765.826	13.25
766.574	14.25
767.322	14.25
768.07	15.25
768.817	15.25
769.565	13.25
770.312	15.25
771.06	12.25
771.807	14.25
772.554	15.25
773.302	18.25
774.049	17.25
774.796	17.25
775.543	14.25
776.29	18.25
777.036	17.25
777.783	20.25
778.53	15.25
779.276	18.25
780.023	17.25
780.769	14.25
781.516	16.25
782.262	19.25
783.008	19.25
783.754	17.25
784.5	16.25
785.246	16.25
785.992	13.25
786.738	18.25
787.484	18.25
788.23	16.25
788.975	14.25
789.721	16.25
790.466	14.25
791.212	16.25
791.957	15.25
792.702	15.25
793.447	17.25
794.193	17.25
794.938	11.25
795.683	17.25
796.427	17.25
797.172	16.25
797.917	14.25
798.662	13.25
799.406	12.25
800.151	13.25
800.895	13.25
801.64	14.25
802.384	13.25
803.128	13.25
803.872	10.25
804.616	13.25
805.36	10.25
806.104	13.25
806.848	10.25
807.592	9.25
808.336	10.25
809.079	11.25
809.823	9.25
810.566	9.25
811.31	10.25
812.053	8.25
812.796	11.25
813.539	10.25
814.283	7.25
815.026	7.25
815.769	7.25
816.511	9.25
817.254	7.25
817.997	8.25
818.74	9.25
819.482	7.25
820.225	7.25
820.967	7.25
821.71	8.25
822.452	8.25
823.194	6.25
823.936	8.25
824.678	8.25
825.42	9.25
826.162	7.25
826.904	10.25
827.646	4.25
828.388	8.25
829.129	6.25
829.871	8.25
830.612	3.25
831.354	6.25
832.095	6.25
832.836	6.25
833.577	6.25
834.319	8.25
835.06	5.25
835.801	8.25
836.542	3.25
837.282	6.25
838.023	5.25
838.764	7.25
839.504	6.25
840.245	6.25
840.985	5.25
841.726	5.25
842.466	6.25
843.206	6.25
843.946	4.25
844.687	7.25
845.427	7.25
846.166	5.25
846.906	6.25
847.646	3.25
848.386	3.25
849.125	6.25
849.865	7.25
850.605	4.25
851.344	7.25
852.083	8.25
852.823	5.25
853.562	4.25
854.301	3.25
855.04	5.25
855.779	3.25
856.518	2.25
857.257	4.25
857.995	3.25
858.734	3.25
859.473	4.25
860.211	3.25
860.95	3.25
861.688	3.25
862.426	2.25
863.165	3.25
863.903	3.25
864.641	3.25
865.379	3.25
866.117	3.25
866.855	3.25
867.593	3.25
868.33	4.25
869.068	3.25
869.806	3.25
870.543	3.25
871.28	1.25
872.018	3.25
872.755	3.25
873.492	3.25
874.229	2.25
874.967	3.25
875.703	2.25
876.44	3.25
877.177	2.25
877.914	2.25
878.651	3.25
879.387	2.25
880.124	4.25
880.86	-0.75
881.597	3.25
882.333	-0.75
883.069	1.25
883.806	2.25
884.542	2.25
885.278	3.25
886.014	1.25
886.749	0.25
887.485	3.25
888.221	0.25
888.957	2.25
889.692	1.25
890.428	2.25
891.163	2.25
891.899	2.25
892.634	1.25
893.369	0.25
894.104	1.25
894.839	1.25
895.574	3.25
896.309	2.25
897.044	-0.75
897.779	1.25
898.514	-0.75
899.248	4.25
899.983	-1.75
900.717	3.25
901.452	2.25
902.186	3.25
902.92	1.25
903.654	0.25
904.389	1.25
905.123	2.25
905.857	1.25
906.59	3.25
907.324	-0.75
908.058	2.25
908.792	0.25
909.525	-0.75
910.259	-0.75
910.992	-0.75
911.726	2.25
912.459	-1.75
913.192	0.25
913.925	-0.75
914.658	1.25
915.391	2.25
916.124	-0.75
916.857	0.25
917.59	1.25
918.323	1.25
919.055	3.25
919.788	2.25
920.521	1.25
921.253	-0.75
921.985	2.25
922.718	2.25
923.45	1.25
924.182	3.25
924.914	0.25
925.646	0.25
926.378	1.25
927.11	2.25
927.841	-0.75
928.573	3.25
929.305	0.25
930.036	2.25
930.768	1.25
931.499	2.25
932.23	-0.75
932.962	0.25
933.693	1.25
934.424	2.25
935.155	1.25
935.886	1.25
936.617	-0.75
937.348	-1.75
938.078	2.25
938.809	1.25
939.54	0.25
940.27	-2.75
941.001	2.25
941.731	1.25
942.461	1.25
943.191	2.25
943.922	0.25
944.652	2.25
945.382	1.25
946.112	2.25
946.841	2.25
947.571	-0.75
948.301	1.25
949.031	-0.75
949.76	-0.75
950.49	1.25
951.219	-1.75
951.948	0.25
952.678	0.25
953.407	1.25
954.136	0.25
954.865	2.25
955.594	1.25
956.323	-0.75
957.052	2.25
957.78	1.25
958.509	1.25
959.238	2.25
959.966	-0.75
960.695	1.25
961.423	1.25
962.151	0.25
962.88	2.25
963.608	2.25
964.336	-0.75
965.064	-2.75
965.792	2.25
966.52	0.25
967.247	0.25
967.975	0.25
968.703	-0.75
969.43	1.25
970.158	-0.75
970.885	0.25
971.613	-2.75
972.34	2.25
973.067	-0.75
973.794	1.25
974.521	0.25
975.248	-0.75
975.975	0.25
976.702	0.25
977.429	-0.75
978.156	0.25
978.882	0.25
979.609	0.25
980.335	1.25
981.062	-1.75
981.788	1.25
982.514	1.25
983.24	-0.75
983.967	1.25
984.693	-1.75
985.419	1.25
986.144	0.25
986.87	0.25
987.596	0.25
988.322	1.25
989.047	0.25
989.773	1.25
990.498	-0.75
991.224	1.25
991.949	1.25
992.674	-0.75
993.399	4.25
994.124	-0.75
994.849	0.25
995.574	0.25
996.299	-1.75
997.024	2.25
997.749	1.25
998.473	1.25
999.198	-0.75
999.922	0.25
1000.647	-0.75
1001.371	3.25
1002.095	0.25
1002.82	-0.75
1003.544	-0.75
1004.268	2.25
1004.992	2.25
1005.716	4.25
1006.439	5.25
1007.163	5.25
1007.887	6.25
1008.611	-0.75
1009.334	2.25
1010.058	0.25
1010.781	1.25
1011.504	2.25
1012.228	-0.75
1012.951	-0.75
1013.674	-0.75
1014.397	-0.75
1015.12	0.25
