节点500_705_QEPB04081__367__20-51-09-561.txt的数据

Date: Wed Nov 12 20:51:09 CST 2025
User: PC
Spectrometer: QEPB0408
触发模式: 0
积分时间 (秒): 1.000000E-2
Scans to average: 1
启用暗噪声校正: true
启用非线性校正: false
滑动平均宽度: 0
X轴模式: Wavelengths
Number of Pixels in Spectrum: 1044
>>>>>Begin Spectral Data<<<<<
220.843	4.62
221.644	4.62
222.444	6.62
223.244	5.62
224.045	7.62
224.845	5.62
225.645	8.62
226.445	5.62
227.245	5.62
228.045	7.62
228.845	5.62
229.645	6.62
230.444	5.62
231.244	7.62
232.043	6.62
232.843	10.62
233.642	7.62
234.442	9.62
235.241	9.62
236.04	10.62
236.839	9.62
237.638	10.62
238.437	9.62
239.236	11.62
240.035	9.62
240.833	10.62
241.632	12.62
242.43	12.62
243.229	10.62
244.027	13.62
244.826	14.62
245.624	11.62
246.422	13.62
247.22	14.62
248.018	13.62
248.816	14.62
249.614	14.62
250.412	13.62
251.21	15.62
252.007	15.62
252.805	15.62
253.602	15.62
254.4	15.62
255.197	18.62
255.994	17.62
256.791	20.62
257.589	17.62
258.386	22.62
259.183	20.62
259.979	19.62
260.776	24.62
261.573	20.62
262.37	22.62
263.166	25.62
263.963	26.62
264.759	26.62
265.556	26.62
266.352	24.62
267.148	26.62
267.944	26.62
268.74	28.62
269.536	28.62
270.332	29.62
271.128	30.62
271.924	32.62
272.719	34.62
273.515	30.62
274.311	33.62
275.106	32.62
275.901	33.62
276.697	32.62
277.492	34.62
278.287	35.62
279.082	31.62
279.877	33.62
280.672	37.62
281.467	34.62
282.262	36.62
283.056	34.62
283.851	32.62
284.646	31.62
285.44	34.62
286.234	29.62
287.029	39.62
287.823	32.62
288.617	30.62
289.411	31.62
290.205	29.62
290.999	31.62
291.793	32.62
292.587	30.62
293.381	29.62
294.174	30.62
294.968	30.62
295.761	27.62
296.555	26.62
297.348	22.62
298.141	23.62
298.935	30.62
299.728	26.62
300.521	28.62
301.314	24.62
302.107	26.62
302.899	23.62
303.692	20.62
304.485	27.62
305.277	22.62
306.07	22.62
306.862	23.62
307.655	18.62
308.447	21.62
309.239	20.62
310.031	18.62
310.823	18.62
311.615	17.62
312.407	18.62
313.199	17.62
313.991	18.62
314.783	15.62
315.574	17.62
316.366	13.62
317.157	13.62
317.949	13.62
318.74	12.62
319.531	14.62
320.322	12.62
321.113	15.62
321.904	13.62
322.695	11.62
323.486	14.62
324.277	14.62
325.068	14.62
325.858	10.62
326.649	13.62
327.439	10.62
328.23	11.62
329.02	13.62
329.81	11.62
330.6	12.62
331.391	14.62
332.181	12.62
332.971	11.62
333.76	12.62
334.55	13.62
335.34	10.62
336.13	11.62
336.919	10.62
337.709	10.62
338.498	10.62
339.287	10.62
340.077	10.62
340.866	11.62
341.655	10.62
342.444	11.62
343.233	10.62
344.022	13.62
344.811	9.62
345.6	14.62
346.388	11.62
347.177	10.62
347.965	9.62
348.754	9.62
349.542	13.62
350.33	14.62
351.119	12.62
351.907	13.62
352.695	11.62
353.483	8.62
354.271	9.62
355.059	10.62
355.846	11.62
356.634	10.62
357.422	12.62
358.209	13.62
358.997	10.62
359.784	7.62
360.571	10.62
361.359	9.62
362.146	10.62
362.933	10.62
363.72	10.62
364.507	10.62
365.294	12.62
366.081	9.62
366.867	6.62
367.654	9.62
368.44	10.62
369.227	8.62
370.013	10.62
370.8	10.62
371.586	8.62
372.372	10.62
373.158	7.62
373.944	9.62
374.73	8.62
375.516	7.62
376.302	10.62
377.088	10.62
377.873	10.62
378.659	8.62
379.445	9.62
380.23	12.62
381.015	7.62
381.801	11.62
382.586	11.62
383.371	11.62
384.156	9.62
384.941	11.62
385.726	8.62
386.511	11.62
387.296	8.62
388.08	9.62
388.865	10.62
389.649	11.62
390.434	11.62
391.218	10.62
392.003	10.62
392.787	13.62
393.571	10.62
394.355	13.62
395.139	10.62
395.923	11.62
396.707	11.62
397.491	10.62
398.274	12.62
399.058	12.62
399.842	12.62
400.625	15.62
401.408	13.62
402.192	12.62
402.975	11.62
403.758	13.62
404.541	14.62
405.324	14.62
406.107	12.62
406.89	13.62
407.673	17.62
408.456	16.62
409.238	16.62
410.021	17.62
410.803	12.62
411.586	18.62
412.368	14.62
413.151	16.62
413.933	14.62
414.715	14.62
415.497	21.62
416.279	18.62
417.061	20.62
417.843	18.62
418.624	20.62
419.406	19.62
420.188	22.62
420.969	21.62
421.751	20.62
422.532	22.62
423.313	21.62
424.095	24.62
424.876	23.62
425.657	25.62
426.438	28.62
427.219	25.62
428	28.62
428.78	28.62
429.561	26.62
430.342	29.62
431.122	33.62
431.903	33.62
432.683	32.62
433.464	33.62
434.244	40.62
435.024	38.62
435.804	40.62
436.584	41.62
437.364	44.62
438.144	46.62
438.924	48.62
439.704	51.62
440.483	55.62
441.263	59.62
442.042	65.62
442.822	68.62
443.601	74.62
444.38	83.62
445.16	85.62
445.939	90.62
446.718	99.62
447.497	113.62
448.276	117.62
449.054	136.62
449.833	151.62
450.612	164.62
451.391	179.62
452.169	194.62
452.948	221.62
453.726	243.62
454.504	270.62
455.282	298.62
456.061	339.62
456.839	373.62
457.617	416.62
458.395	462.62
459.172	519.62
459.95	574.62
460.728	646.62
461.506	719.62
462.283	804.62
463.061	889.62
463.838	975.62
464.615	1102.62
465.393	1227.62
466.17	1364.62
466.947	1515.62
467.724	1686.62
468.501	1867.62
469.278	2060.62
470.055	2264.62
470.831	2505.62
471.608	2770.62
472.385	3055.62
473.161	3362.62
473.938	3685.62
474.714	4071.62
475.49	4448.62
476.266	4860.62
477.043	5321.62
477.819	5816.62
478.595	6341.62
479.371	6935.62
480.146	7541.62
480.922	8274.62
481.698	8930.62
482.473	9735.62
483.249	10613.62
484.024	11500.62
484.8	12436.62
485.575	13541.62
486.35	14682.62
487.126	15872.62
487.901	17113.62
488.676	18474.62
489.451	19974.62
490.225	21394.62
491	22914.62
491.775	24562.62
492.55	26202.62
493.324	27937.62
494.099	29668.62
494.873	31454.62
495.647	33222.62
496.422	34899.62
497.196	36657.62
497.97	38310.62
498.744	39897.62
499.518	41522.62
500.292	42823.62
501.066	43827.62
501.839	44786.62
502.613	45671.62
503.387	46309.62
504.16	46757.62
504.934	46922.62
505.707	46907.62
506.48	46602.62
507.253	46213.62
508.027	45422.62
508.8	44588.62
509.573	43584.62
510.346	42533.62
511.118	41520.62
511.891	40290.62
512.664	38807.62
513.437	37323.62
514.209	35960.62
514.982	34719.62
515.754	33280.62
516.526	31876.62
517.298	30654.62
518.071	29420.62
518.843	28202.62
519.615	27096.62
520.387	26016.62
521.159	25002.62
521.93	23973.62
522.702	22974.62
523.474	22059.62
524.245	21162.62
525.017	20181.62
525.788	19291.62
526.56	18511.62
527.331	17708.62
528.102	16837.62
528.873	15946.62
529.644	15221.62
530.415	14546.62
531.186	13856.62
531.957	13059.62
532.728	12432.62
533.498	11744.62
534.269	11190.62
535.039	10589.62
535.81	10006.62
536.58	9440.62
537.351	8971.62
538.121	8496.62
538.891	8028.62
539.661	7588.62
540.431	7170.62
541.201	6796.62
541.971	6443.62
542.741	6107.62
543.51	5785.62
544.28	5530.62
545.05	5262.62
545.819	4994.62
546.588	4777.62
547.358	4556.62
548.127	4322.62
548.896	4107.62
549.665	3888.62
550.434	3700.62
551.203	3504.62
551.972	3321.62
552.741	3158.62
553.51	2956.62
554.278	2779.62
555.047	2650.62
555.815	2512.62
556.584	2366.62
557.352	2243.62
558.121	2091.62
558.889	2023.62
559.657	1873.62
560.425	1792.62
561.193	1702.62
561.961	1593.62
562.729	1524.62
563.496	1434.62
564.264	1354.62
565.032	1267.62
565.799	1216.62
566.567	1150.62
567.334	1073.62
568.101	1032.62
568.869	973.62
569.636	900.62
570.403	871.62
571.17	814.62
571.937	766.62
572.704	719.62
573.471	680.62
574.237	642.62
575.004	602.62
575.771	574.62
576.537	545.62
577.303	510.62
578.07	487.62
578.836	447.62
579.602	428.62
580.368	414.62
581.134	389.62
581.9	369.62
582.666	353.62
583.432	336.62
584.198	317.62
584.964	303.62
585.729	285.62
586.495	266.62
587.26	255.62
588.025	239.62
588.791	228.62
589.556	226.62
590.321	205.62
591.086	194.62
591.851	184.62
592.616	179.62
593.381	172.62
594.146	166.62
594.911	152.62
595.675	150.62
596.44	143.62
597.204	135.62
597.969	128.62
598.733	121.62
599.497	120.62
600.261	113.62
601.025	107.62
601.79	102.62
602.553	97.62
603.317	94.62
604.081	89.62
604.845	90.62
605.609	84.62
606.372	82.62
607.136	75.62
607.899	75.62
608.662	67.62
609.426	67.62
610.189	62.62
610.952	65.62
611.715	62.62
612.478	55.62
613.241	58.62
614.004	57.62
614.767	55.62
615.529	53.62
616.292	50.62
617.055	51.62
617.817	50.62
618.579	44.62
619.342	41.62
620.104	43.62
620.866	42.62
621.628	39.62
622.39	36.62
623.152	38.62
623.914	36.62
624.676	34.62
625.438	31.62
626.199	33.62
626.961	31.62
627.722	29.62
628.484	31.62
629.245	27.62
630.006	29.62
630.768	26.62
631.529	29.62
632.29	26.62
633.051	24.62
633.812	24.62
634.573	24.62
635.333	21.62
636.094	23.62
636.855	22.62
637.615	21.62
638.376	17.62
639.136	21.62
639.896	19.62
640.657	18.62
641.417	19.62
642.177	17.62
642.937	18.62
643.697	17.62
644.457	20.62
645.216	16.62
645.976	16.62
646.736	15.62
647.495	13.62
648.255	14.62
649.014	13.62
649.774	15.62
650.533	14.62
651.292	13.62
652.051	13.62
652.81	13.62
653.569	10.62
654.328	12.62
655.087	16.62
655.846	12.62
656.604	12.62
657.363	12.62
658.121	12.62
658.88	10.62
659.638	12.62
660.397	11.62
661.155	8.62
661.913	12.62
662.671	9.62
663.429	9.62
664.187	11.62
664.945	8.62
665.703	9.62
666.46	7.62
667.218	11.62
667.976	10.62
668.733	10.62
669.49	8.62
670.248	8.62
671.005	8.62
671.762	11.62
672.519	7.62
673.276	11.62
674.033	8.62
674.79	8.62
675.547	10.62
676.304	6.62
677.06	10.62
677.817	9.62
678.574	8.62
679.33	7.62
680.086	6.62
680.843	9.62
681.599	7.62
682.355	9.62
683.111	7.62
683.867	5.62
684.623	8.62
685.379	9.62
686.135	7.62
686.89	6.62
687.646	4.62
688.402	7.62
689.157	9.62
689.912	8.62
690.668	7.62
691.423	6.62
692.178	5.62
692.933	8.62
693.688	7.62
694.443	6.62
695.198	7.62
695.953	6.62
696.708	9.62
697.462	6.62
698.217	9.62
698.972	7.62
699.726	6.62
700.48	6.62
701.235	4.62
701.989	4.62
702.743	9.62
703.497	6.62
704.251	7.62
705.005	8.62
705.759	6.62
706.513	8.62
707.266	4.62
708.02	5.62
708.774	7.62
709.527	7.62
710.28	5.62
711.034	8.62
711.787	7.62
712.54	5.62
713.293	5.62
714.046	6.62
714.799	8.62
715.552	5.62
716.305	9.62
717.058	6.62
717.81	5.62
718.563	6.62
719.315	6.62
720.068	9.62
720.82	6.62
721.573	7.62
722.325	7.62
723.077	8.62
723.829	6.62
724.581	6.62
725.333	9.62
726.085	7.62
726.836	9.62
727.588	6.62
728.34	9.62
729.091	9.62
729.843	8.62
730.594	6.62
731.346	7.62
732.097	7.62
732.848	8.62
733.599	8.62
734.35	8.62
735.101	9.62
735.852	9.62
736.603	8.62
737.354	10.62
738.104	10.62
738.855	6.62
739.605	9.62
740.356	10.62
741.106	9.62
741.856	9.62
742.607	7.62
743.357	9.62
744.107	10.62
744.857	8.62
745.607	9.62
746.357	7.62
747.106	10.62
747.856	9.62
748.606	9.62
749.355	10.62
750.105	9.62
750.854	9.62
751.603	11.62
752.353	11.62
753.102	10.62
753.851	11.62
754.6	9.62
755.349	8.62
756.098	12.62
756.847	12.62
757.595	11.62
758.344	10.62
759.093	12.62
759.841	14.62
760.589	10.62
761.338	10.62
762.086	10.62
762.834	12.62
763.582	12.62
764.331	11.62
765.079	12.62
765.826	12.62
766.574	16.62
767.322	14.62
768.07	17.62
768.817	13.62
769.565	14.62
770.312	13.62
771.06	14.62
771.807	12.62
772.554	11.62
773.302	15.62
774.049	18.62
774.796	12.62
775.543	15.62
776.29	14.62
777.036	14.62
777.783	14.62
778.53	15.62
779.276	11.62
780.023	16.62
780.769	16.62
781.516	13.62
782.262	18.62
783.008	14.62
783.754	14.62
784.5	10.62
785.246	15.62
785.992	15.62
786.738	15.62
787.484	14.62
788.23	14.62
788.975	17.62
789.721	14.62
790.466	13.62
791.212	15.62
791.957	13.62
792.702	13.62
793.447	15.62
794.193	12.62
794.938	14.62
795.683	12.62
796.427	15.62
797.172	12.62
797.917	12.62
798.662	11.62
799.406	14.62
800.151	9.62
800.895	13.62
801.64	12.62
802.384	12.62
803.128	10.62
803.872	12.62
804.616	11.62
805.36	11.62
806.104	8.62
806.848	8.62
807.592	12.62
808.336	9.62
809.079	12.62
809.823	9.62
810.566	6.62
811.31	9.62
812.053	10.62
812.796	9.62
813.539	10.62
814.283	9.62
815.026	10.62
815.769	9.62
816.511	7.62
817.254	9.62
817.997	6.62
818.74	6.62
819.482	7.62
820.225	6.62
820.967	7.62
821.71	5.62
822.452	8.62
823.194	4.62
823.936	7.62
824.678	7.62
825.42	7.62
826.162	4.62
826.904	6.62
827.646	7.62
828.388	5.62
829.129	6.62
829.871	7.62
830.612	6.62
831.354	6.62
832.095	5.62
832.836	5.62
833.577	5.62
834.319	7.62
835.06	5.62
835.801	5.62
836.542	4.62
837.282	5.62
838.023	4.62
838.764	6.62
839.504	5.62
840.245	6.62
840.985	6.62
841.726	6.62
842.466	5.62
843.206	3.62
843.946	7.62
844.687	2.62
845.427	4.62
846.166	5.62
846.906	4.62
847.646	2.62
848.386	5.62
849.125	4.62
849.865	2.62
850.605	4.62
851.344	3.62
852.083	5.62
852.823	2.62
853.562	4.62
854.301	6.62
855.04	3.62
855.779	2.62
856.518	4.62
857.257	2.62
857.995	3.62
858.734	1.62
859.473	4.62
860.211	1.62
860.95	2.62
861.688	4.62
862.426	2.62
863.165	3.62
863.903	3.62
864.641	3.62
865.379	1.62
866.117	3.62
866.855	1.62
867.593	1.62
868.33	2.62
869.068	3.62
869.806	0.62
870.543	2.62
871.28	2.62
872.018	1.62
872.755	2.62
873.492	2.62
874.229	0.62
874.967	1.62
875.703	2.62
876.44	1.62
877.177	0.62
877.914	-0.38
878.651	2.62
879.387	1.62
880.124	-0.38
880.86	1.62
881.597	2.62
882.333	1.62
883.069	-1.38
883.806	2.62
884.542	1.62
885.278	0.62
886.014	2.62
886.749	0.62
887.485	2.62
888.221	0.62
888.957	-0.38
889.692	2.62
890.428	-1.38
891.163	-0.38
891.899	0.62
892.634	1.62
893.369	1.62
894.104	2.62
894.839	0.62
895.574	-1.38
896.309	0.62
897.044	-1.38
897.779	-0.38
898.514	1.62
899.248	-0.38
899.983	-1.38
900.717	0.62
901.452	1.62
902.186	-0.38
902.92	0.62
903.654	2.62
904.389	0.62
905.123	1.62
905.857	1.62
906.59	-0.38
907.324	0.62
908.058	0.62
908.792	-0.38
909.525	-0.38
910.259	2.62
910.992	1.62
911.726	1.62
912.459	-0.38
913.192	0.62
913.925	0.62
914.658	0.62
915.391	0.62
916.124	-0.38
916.857	0.62
917.59	0.62
918.323	0.62
919.055	2.62
919.788	-1.38
920.521	0.62
921.253	1.62
921.985	-1.38
922.718	0.62
923.45	0.62
924.182	0.62
924.914	1.62
925.646	1.62
926.378	0.62
927.11	-1.38
927.841	-0.38
928.573	-1.38
929.305	-1.38
930.036	0.62
930.768	-1.38
931.499	-0.38
932.23	-2.38
932.962	0.62
933.693	0.62
934.424	1.62
935.155	0.62
935.886	-1.38
936.617	-1.38
937.348	-1.38
938.078	1.62
938.809	-1.38
939.54	1.62
940.27	-0.38
941.001	-0.38
941.731	0.62
942.461	0.62
943.191	0.62
943.922	-1.38
944.652	1.62
945.382	-0.38
946.112	-1.38
946.841	-1.38
947.571	0.62
948.301	-0.38
949.031	-1.38
949.76	0.62
950.49	-1.38
951.219	1.62
951.948	-1.38
952.678	0.62
953.407	-1.38
954.136	-0.38
954.865	1.62
955.594	-1.38
956.323	1.62
957.052	-0.38
957.78	-0.38
958.509	1.62
959.238	0.62
959.966	1.62
960.695	-0.38
961.423	0.62
962.151	1.62
962.88	0.62
963.608	-1.38
964.336	0.62
965.064	-0.38
965.792	0.62
966.52	-0.38
967.247	0.62
967.975	-0.38
968.703	1.62
969.43	0.62
970.158	1.62
970.885	0.62
971.613	-0.38
972.34	-0.38
973.067	0.62
973.794	-0.38
974.521	-1.38
975.248	0.62
975.975	-1.38
976.702	0.62
977.429	-1.38
978.156	-1.38
978.882	0.62
979.609	-1.38
980.335	0.62
981.062	0.62
981.788	0.62
982.514	0.62
983.24	-0.38
983.967	0.62
984.693	0.62
985.419	-3.38
986.144	-1.38
986.87	-0.38
987.596	-1.38
988.322	0.62
989.047	0.62
989.773	1.62
990.498	0.62
991.224	-2.38
991.949	0.62
992.674	0.62
993.399	0.62
994.124	-0.38
994.849	-1.38
995.574	-0.38
996.299	-2.38
997.024	-2.38
997.749	-0.38
998.473	-0.38
999.198	0.62
999.922	0.62
1000.647	0.62
1001.371	4.62
1002.095	-1.38
1002.82	-1.38
1003.544	-1.38
1004.268	5.62
1004.992	2.62
1005.716	5.62
1006.439	5.62
1007.163	5.62
1007.887	5.62
1008.611	0.62
1009.334	-0.38
1010.058	-1.38
1010.781	-1.38
1011.504	0.62
1012.228	0.62
1012.951	-1.38
1013.674	0.62
1014.397	0.62
1015.12	-0.38
