节点500_705_QEPB04081__665__20-55-22-815.txt的数据

Date: Wed Nov 12 20:55:22 CST 2025
User: PC
Spectrometer: QEPB0408
触发模式: 0
积分时间 (秒): 1.000000E-2
Scans to average: 1
启用暗噪声校正: true
启用非线性校正: false
滑动平均宽度: 0
X轴模式: Wavelengths
Number of Pixels in Spectrum: 1044
>>>>>Begin Spectral Data<<<<<
220.843	6.62
221.644	6.62
222.444	3.62
223.244	7.62
224.045	6.62
224.845	7.62
225.645	7.62
226.445	6.62
227.245	8.62
228.045	6.62
228.845	7.62
229.645	7.62
230.444	8.62
231.244	7.62
232.043	8.62
232.843	8.62
233.642	10.62
234.442	11.62
235.241	10.62
236.04	8.62
236.839	11.62
237.638	11.62
238.437	11.62
239.236	11.62
240.035	10.62
240.833	13.62
241.632	12.62
242.43	11.62
243.229	12.62
244.027	12.62
244.826	13.62
245.624	11.62
246.422	15.62
247.22	16.62
248.018	16.62
248.816	10.62
249.614	13.62
250.412	16.62
251.21	14.62
252.007	15.62
252.805	16.62
253.602	18.62
254.4	15.62
255.197	17.62
255.994	15.62
256.791	19.62
257.589	18.62
258.386	19.62
259.183	20.62
259.979	21.62
260.776	21.62
261.573	22.62
262.37	23.62
263.166	22.62
263.963	24.62
264.759	24.62
265.556	23.62
266.352	22.62
267.148	27.62
267.944	24.62
268.74	27.62
269.536	25.62
270.332	26.62
271.128	29.62
271.924	26.62
272.719	29.62
273.515	28.62
274.311	28.62
275.106	29.62
275.901	30.62
276.697	30.62
277.492	28.62
278.287	32.62
279.082	31.62
279.877	29.62
280.672	33.62
281.467	28.62
282.262	31.62
283.056	31.62
283.851	32.62
284.646	28.62
285.44	29.62
286.234	32.62
287.029	29.62
287.823	33.62
288.617	33.62
289.411	30.62
290.205	30.62
290.999	32.62
291.793	30.62
292.587	29.62
293.381	30.62
294.174	28.62
294.968	27.62
295.761	26.62
296.555	26.62
297.348	23.62
298.141	23.62
298.935	27.62
299.728	25.62
300.521	25.62
301.314	24.62
302.107	23.62
302.899	24.62
303.692	22.62
304.485	21.62
305.277	22.62
306.07	23.62
306.862	22.62
307.655	22.62
308.447	21.62
309.239	25.62
310.031	22.62
310.823	20.62
311.615	18.62
312.407	17.62
313.199	18.62
313.991	16.62
314.783	18.62
315.574	16.62
316.366	15.62
317.157	15.62
317.949	13.62
318.74	12.62
319.531	15.62
320.322	13.62
321.113	13.62
321.904	15.62
322.695	13.62
323.486	11.62
324.277	15.62
325.068	13.62
325.858	11.62
326.649	14.62
327.439	12.62
328.23	13.62
329.02	12.62
329.81	12.62
330.6	9.62
331.391	13.62
332.181	13.62
332.971	11.62
333.76	14.62
334.55	13.62
335.34	13.62
336.13	11.62
336.919	11.62
337.709	11.62
338.498	13.62
339.287	9.62
340.077	11.62
340.866	11.62
341.655	11.62
342.444	12.62
343.233	13.62
344.022	12.62
344.811	12.62
345.6	10.62
346.388	13.62
347.177	13.62
347.965	13.62
348.754	10.62
349.542	11.62
350.33	11.62
351.119	9.62
351.907	10.62
352.695	10.62
353.483	10.62
354.271	10.62
355.059	10.62
355.846	9.62
356.634	8.62
357.422	9.62
358.209	11.62
358.997	9.62
359.784	10.62
360.571	10.62
361.359	11.62
362.146	12.62
362.933	10.62
363.72	10.62
364.507	8.62
365.294	10.62
366.081	9.62
366.867	10.62
367.654	8.62
368.44	7.62
369.227	9.62
370.013	10.62
370.8	8.62
371.586	10.62
372.372	10.62
373.158	8.62
373.944	9.62
374.73	9.62
375.516	8.62
376.302	8.62
377.088	9.62
377.873	9.62
378.659	11.62
379.445	8.62
380.23	10.62
381.015	8.62
381.801	10.62
382.586	11.62
383.371	7.62
384.156	10.62
384.941	11.62
385.726	8.62
386.511	8.62
387.296	9.62
388.08	12.62
388.865	10.62
389.649	11.62
390.434	10.62
391.218	8.62
392.003	9.62
392.787	12.62
393.571	12.62
394.355	12.62
395.139	9.62
395.923	11.62
396.707	12.62
397.491	14.62
398.274	14.62
399.058	11.62
399.842	13.62
400.625	13.62
401.408	13.62
402.192	11.62
402.975	13.62
403.758	16.62
404.541	14.62
405.324	14.62
406.107	15.62
406.89	15.62
407.673	13.62
408.456	14.62
409.238	14.62
410.021	15.62
410.803	17.62
411.586	14.62
412.368	16.62
413.151	16.62
413.933	15.62
414.715	18.62
415.497	19.62
416.279	16.62
417.061	15.62
417.843	18.62
418.624	17.62
419.406	21.62
420.188	21.62
420.969	21.62
421.751	21.62
422.532	20.62
423.313	23.62
424.095	23.62
424.876	23.62
425.657	26.62
426.438	23.62
427.219	27.62
428	24.62
428.78	29.62
429.561	29.62
430.342	30.62
431.122	30.62
431.903	31.62
432.683	35.62
433.464	35.62
434.244	34.62
435.024	37.62
435.804	39.62
436.584	44.62
437.364	42.62
438.144	47.62
438.924	52.62
439.704	55.62
440.483	61.62
441.263	62.62
442.042	66.62
442.822	75.62
443.601	79.62
444.38	81.62
445.16	93.62
445.939	101.62
446.718	111.62
447.497	116.62
448.276	131.62
449.054	145.62
449.833	158.62
450.612	170.62
451.391	194.62
452.169	210.62
452.948	234.62
453.726	258.62
454.504	286.62
455.282	321.62
456.061	355.62
456.839	394.62
457.617	443.62
458.395	491.62
459.172	548.62
459.95	612.62
460.728	674.62
461.506	745.62
462.283	837.62
463.061	921.62
463.838	1021.62
464.615	1148.62
465.393	1252.62
466.17	1399.62
466.947	1545.62
467.724	1700.62
468.501	1876.62
469.278	2094.62
470.055	2297.62
470.831	2510.62
471.608	2767.62
472.385	2994.62
473.161	3286.62
473.938	3613.62
474.714	3981.62
475.49	4332.62
476.266	4689.62
477.043	5146.62
477.819	5565.62
478.595	6074.62
479.371	6585.62
480.146	7163.62
480.922	7795.62
481.698	8425.62
482.473	9116.62
483.249	9879.62
484.024	10645.62
484.8	11489.62
485.575	12366.62
486.35	13344.62
487.126	14386.62
487.901	15494.62
488.676	16670.62
489.451	17922.62
490.225	19209.62
491	20585.62
491.775	21902.62
492.55	23432.62
493.324	24920.62
494.099	26394.62
494.873	28012.62
495.647	29599.62
496.422	31181.62
497.196	32822.62
497.97	34286.62
498.744	35795.62
499.518	37247.62
500.292	38571.62
501.066	39711.62
501.839	40625.62
502.613	41636.62
503.387	42316.62
504.16	43031.62
504.934	43443.62
505.707	43725.62
506.48	43611.62
507.253	43432.62
508.027	43221.62
508.8	42706.62
509.573	41936.62
510.346	41172.62
511.118	40401.62
511.891	39427.62
512.664	38222.62
513.437	36940.62
514.209	35798.62
514.982	34617.62
515.754	33276.62
516.526	31948.62
517.298	30785.62
518.071	29613.62
518.843	28462.62
519.615	27313.62
520.387	26287.62
521.159	25336.62
521.93	24244.62
522.702	23185.62
523.474	22282.62
524.245	21367.62
525.017	20563.62
525.788	19643.62
526.56	18840.62
527.331	18106.62
528.102	17243.62
528.873	16403.62
529.644	15627.62
530.415	14928.62
531.186	14275.62
531.957	13547.62
532.728	12916.62
533.498	12266.62
534.269	11625.62
535.039	11018.62
535.81	10453.62
536.58	9839.62
537.351	9385.62
538.121	8860.62
538.891	8394.62
539.661	7896.62
540.431	7510.62
541.201	7164.62
541.971	6768.62
542.741	6403.62
543.51	6098.62
544.28	5772.62
545.05	5517.62
545.819	5294.62
546.588	5031.62
547.358	4806.62
548.127	4536.62
548.896	4328.62
549.665	4113.62
550.434	3879.62
551.203	3709.62
551.972	3505.62
552.741	3347.62
553.51	3136.62
554.278	2961.62
555.047	2792.62
555.815	2645.62
556.584	2512.62
557.352	2388.62
558.121	2263.62
558.889	2138.62
559.657	2006.62
560.425	1918.62
561.193	1813.62
561.961	1708.62
562.729	1619.62
563.496	1520.62
564.264	1447.62
565.032	1362.62
565.799	1299.62
566.567	1219.62
567.334	1142.62
568.101	1083.62
568.869	1029.62
569.636	968.62
570.403	904.62
571.17	873.62
571.937	825.62
572.704	771.62
573.471	734.62
574.237	692.62
575.004	658.62
575.771	610.62
576.537	585.62
577.303	546.62
578.07	513.62
578.836	481.62
579.602	462.62
580.368	436.62
581.134	422.62
581.9	391.62
582.666	379.62
583.432	363.62
584.198	337.62
584.964	321.62
585.729	304.62
586.495	294.62
587.26	274.62
588.025	257.62
588.791	246.62
589.556	233.62
590.321	226.62
591.086	208.62
591.851	204.62
592.616	194.62
593.381	185.62
594.146	171.62
594.911	164.62
595.675	164.62
596.44	157.62
597.204	146.62
597.969	139.62
598.733	130.62
599.497	128.62
600.261	119.62
601.025	115.62
601.79	111.62
602.553	109.62
603.317	96.62
604.081	95.62
604.845	97.62
605.609	92.62
606.372	81.62
607.136	83.62
607.899	78.62
608.662	77.62
609.426	74.62
610.189	72.62
610.952	69.62
611.715	63.62
612.478	61.62
613.241	58.62
614.004	61.62
614.767	55.62
615.529	58.62
616.292	51.62
617.055	51.62
617.817	48.62
618.579	50.62
619.342	43.62
620.104	44.62
620.866	42.62
621.628	39.62
622.39	40.62
623.152	40.62
623.914	33.62
624.676	39.62
625.438	35.62
626.199	33.62
626.961	36.62
627.722	31.62
628.484	32.62
629.245	30.62
630.006	29.62
630.768	29.62
631.529	30.62
632.29	28.62
633.051	22.62
633.812	25.62
634.573	26.62
635.333	22.62
636.094	19.62
636.855	21.62
637.615	22.62
638.376	19.62
639.136	23.62
639.896	19.62
640.657	22.62
641.417	16.62
642.177	18.62
642.937	17.62
643.697	16.62
644.457	17.62
645.216	17.62
645.976	15.62
646.736	17.62
647.495	15.62
648.255	15.62
649.014	15.62
649.774	12.62
650.533	16.62
651.292	13.62
652.051	15.62
652.81	12.62
653.569	13.62
654.328	15.62
655.087	13.62
655.846	11.62
656.604	14.62
657.363	9.62
658.121	11.62
658.88	11.62
659.638	11.62
660.397	9.62
661.155	13.62
661.913	8.62
662.671	10.62
663.429	9.62
664.187	11.62
664.945	10.62
665.703	9.62
666.46	12.62
667.218	13.62
667.976	8.62
668.733	11.62
669.49	9.62
670.248	9.62
671.005	7.62
671.762	10.62
672.519	7.62
673.276	9.62
674.033	8.62
674.79	7.62
675.547	7.62
676.304	7.62
677.06	11.62
677.817	8.62
678.574	9.62
679.33	7.62
680.086	6.62
680.843	9.62
681.599	10.62
682.355	9.62
683.111	10.62
683.867	8.62
684.623	7.62
685.379	10.62
686.135	8.62
686.89	8.62
687.646	9.62
688.402	9.62
689.157	5.62
689.912	7.62
690.668	8.62
691.423	8.62
692.178	8.62
692.933	7.62
693.688	6.62
694.443	6.62
695.198	6.62
695.953	7.62
696.708	8.62
697.462	7.62
698.217	5.62
698.972	10.62
699.726	8.62
700.48	8.62
701.235	9.62
701.989	9.62
702.743	7.62
703.497	9.62
704.251	8.62
705.005	7.62
705.759	8.62
706.513	7.62
707.266	8.62
708.02	8.62
708.774	6.62
709.527	9.62
710.28	7.62
711.034	7.62
711.787	5.62
712.54	8.62
713.293	7.62
714.046	7.62
714.799	7.62
715.552	6.62
716.305	5.62
717.058	7.62
717.81	4.62
718.563	6.62
719.315	7.62
720.068	7.62
720.82	9.62
721.573	8.62
722.325	6.62
723.077	9.62
723.829	8.62
724.581	8.62
725.333	7.62
726.085	9.62
726.836	8.62
727.588	8.62
728.34	8.62
729.091	8.62
729.843	8.62
730.594	10.62
731.346	7.62
732.097	9.62
732.848	10.62
733.599	8.62
734.35	8.62
735.101	9.62
735.852	8.62
736.603	11.62
737.354	11.62
738.104	10.62
738.855	9.62
739.605	9.62
740.356	8.62
741.106	10.62
741.856	12.62
742.607	8.62
743.357	10.62
744.107	8.62
744.857	9.62
745.607	11.62
746.357	9.62
747.106	11.62
747.856	7.62
748.606	9.62
749.355	9.62
750.105	7.62
750.854	12.62
751.603	9.62
752.353	12.62
753.102	9.62
753.851	9.62
754.6	13.62
755.349	7.62
756.098	13.62
756.847	14.62
757.595	10.62
758.344	10.62
759.093	10.62
759.841	9.62
760.589	10.62
761.338	13.62
762.086	12.62
762.834	12.62
763.582	12.62
764.331	13.62
765.079	11.62
765.826	10.62
766.574	13.62
767.322	13.62
768.07	10.62
768.817	11.62
769.565	11.62
770.312	10.62
771.06	11.62
771.807	16.62
772.554	13.62
773.302	14.62
774.049	15.62
774.796	13.62
775.543	15.62
776.29	13.62
777.036	14.62
777.783	13.62
778.53	12.62
779.276	16.62
780.023	13.62
780.769	12.62
781.516	12.62
782.262	18.62
783.008	12.62
783.754	15.62
784.5	14.62
785.246	14.62
785.992	14.62
786.738	14.62
787.484	13.62
788.23	14.62
788.975	13.62
789.721	17.62
790.466	14.62
791.212	15.62
791.957	15.62
792.702	14.62
793.447	14.62
794.193	12.62
794.938	12.62
795.683	11.62
796.427	14.62
797.172	13.62
797.917	11.62
798.662	9.62
799.406	11.62
800.151	14.62
800.895	13.62
801.64	8.62
802.384	11.62
803.128	11.62
803.872	12.62
804.616	11.62
805.36	10.62
806.104	10.62
806.848	10.62
807.592	9.62
808.336	10.62
809.079	8.62
809.823	10.62
810.566	7.62
811.31	9.62
812.053	7.62
812.796	11.62
813.539	8.62
814.283	9.62
815.026	8.62
815.769	5.62
816.511	10.62
817.254	6.62
817.997	9.62
818.74	9.62
819.482	9.62
820.225	8.62
820.967	9.62
821.71	6.62
822.452	9.62
823.194	9.62
823.936	8.62
824.678	7.62
825.42	8.62
826.162	5.62
826.904	4.62
827.646	9.62
828.388	5.62
829.129	11.62
829.871	6.62
830.612	6.62
831.354	6.62
832.095	6.62
832.836	6.62
833.577	7.62
834.319	6.62
835.06	9.62
835.801	7.62
836.542	7.62
837.282	5.62
838.023	7.62
838.764	6.62
839.504	5.62
840.245	6.62
840.985	4.62
841.726	3.62
842.466	5.62
843.206	5.62
843.946	6.62
844.687	7.62
845.427	5.62
846.166	6.62
846.906	5.62
847.646	6.62
848.386	4.62
849.125	5.62
849.865	3.62
850.605	6.62
851.344	5.62
852.083	6.62
852.823	5.62
853.562	5.62
854.301	2.62
855.04	3.62
855.779	5.62
856.518	5.62
857.257	3.62
857.995	2.62
858.734	5.62
859.473	5.62
860.211	3.62
860.95	3.62
861.688	5.62
862.426	4.62
863.165	6.62
863.903	4.62
864.641	3.62
865.379	3.62
866.117	2.62
866.855	3.62
867.593	4.62
868.33	3.62
869.068	1.62
869.806	4.62
870.543	2.62
871.28	3.62
872.018	1.62
872.755	4.62
873.492	1.62
874.229	4.62
874.967	3.62
875.703	2.62
876.44	3.62
877.177	1.62
877.914	1.62
878.651	2.62
879.387	1.62
880.124	2.62
880.86	-0.38
881.597	2.62
882.333	3.62
883.069	1.62
883.806	2.62
884.542	1.62
885.278	2.62
886.014	1.62
886.749	2.62
887.485	-0.38
888.221	2.62
888.957	2.62
889.692	0.62
890.428	2.62
891.163	1.62
891.899	3.62
892.634	2.62
893.369	0.62
894.104	1.62
894.839	0.62
895.574	-0.38
896.309	0.62
897.044	2.62
897.779	1.62
898.514	4.62
899.248	1.62
899.983	0.62
900.717	1.62
901.452	2.62
902.186	-1.38
902.92	4.62
903.654	1.62
904.389	1.62
905.123	-0.38
905.857	3.62
906.59	1.62
907.324	-0.38
908.058	2.62
908.792	2.62
909.525	1.62
910.259	-0.38
910.992	1.62
911.726	3.62
912.459	0.62
913.192	2.62
913.925	2.62
914.658	0.62
915.391	0.62
916.124	-0.38
916.857	3.62
917.59	1.62
918.323	1.62
919.055	3.62
919.788	-0.38
920.521	2.62
921.253	2.62
921.985	3.62
922.718	-0.38
923.45	1.62
924.182	-0.38
924.914	-2.38
925.646	0.62
926.378	1.62
927.11	2.62
927.841	-0.38
928.573	2.62
929.305	0.62
930.036	3.62
930.768	-0.38
931.499	1.62
932.23	0.62
932.962	-1.38
933.693	0.62
934.424	1.62
935.155	-0.38
935.886	0.62
936.617	0.62
937.348	1.62
938.078	-0.38
938.809	1.62
939.54	3.62
940.27	-0.38
941.001	1.62
941.731	0.62
942.461	1.62
943.191	2.62
943.922	2.62
944.652	-0.38
945.382	1.62
946.112	0.62
946.841	1.62
947.571	2.62
948.301	2.62
949.031	2.62
949.76	0.62
950.49	-1.38
951.219	1.62
951.948	-0.38
952.678	-0.38
953.407	-0.38
954.136	0.62
954.865	3.62
955.594	-0.38
956.323	-1.38
957.052	0.62
957.78	-0.38
958.509	0.62
959.238	0.62
959.966	1.62
960.695	-2.38
961.423	0.62
962.151	-0.38
962.88	-1.38
963.608	-0.38
964.336	1.62
965.064	1.62
965.792	0.62
966.52	1.62
967.247	1.62
967.975	2.62
968.703	0.62
969.43	1.62
970.158	2.62
970.885	2.62
971.613	-1.38
972.34	3.62
973.067	1.62
973.794	-0.38
974.521	1.62
975.248	0.62
975.975	1.62
976.702	1.62
977.429	-0.38
978.156	1.62
978.882	0.62
979.609	0.62
980.335	0.62
981.062	1.62
981.788	-0.38
982.514	-0.38
983.24	2.62
983.967	-0.38
984.693	1.62
985.419	0.62
986.144	2.62
986.87	-0.38
987.596	1.62
988.322	-0.38
989.047	0.62
989.773	0.62
990.498	-0.38
991.224	-0.38
991.949	0.62
992.674	2.62
993.399	2.62
994.124	0.62
994.849	1.62
995.574	0.62
996.299	1.62
997.024	-0.38
997.749	0.62
998.473	0.62
999.198	2.62
999.922	0.62
1000.647	1.62
1001.371	1.62
1002.095	-0.38
1002.82	-0.38
1003.544	-1.38
1004.268	6.62
1004.992	5.62
1005.716	2.62
1006.439	4.62
1007.163	3.62
1007.887	5.62
1008.611	1.62
1009.334	0.62
1010.058	0.62
1010.781	0.62
1011.504	-1.38
1012.228	1.62
1012.951	-1.38
1013.674	0.62
1014.397	1.62
1015.12	-0.38
