节点500_705_QEPB04081__29__20-46-22-301.txt的数据

Date: Wed Nov 12 20:46:22 CST 2025
User: PC
Spectrometer: QEPB0408
触发模式: 0
积分时间 (秒): 1.000000E-2
Scans to average: 1
启用暗噪声校正: true
启用非线性校正: false
滑动平均宽度: 0
X轴模式: Wavelengths
Number of Pixels in Spectrum: 1044
>>>>>Begin Spectral Data<<<<<
220.843	2.88
221.644	5.88
222.444	6.88
223.244	5.88
224.045	8.88
224.845	3.88
225.645	5.88
226.445	6.88
227.245	5.88
228.045	7.88
228.845	6.88
229.645	8.88
230.444	3.88
231.244	10.88
232.043	8.88
232.843	9.88
233.642	9.88
234.442	7.88
235.241	10.88
236.04	9.88
236.839	12.88
237.638	8.88
238.437	10.88
239.236	10.88
240.035	8.88
240.833	12.88
241.632	11.88
242.43	9.88
243.229	13.88
244.027	13.88
244.826	12.88
245.624	14.88
246.422	15.88
247.22	12.88
248.018	13.88
248.816	15.88
249.614	15.88
250.412	15.88
251.21	17.88
252.007	16.88
252.805	16.88
253.602	20.88
254.4	17.88
255.197	18.88
255.994	18.88
256.791	23.88
257.589	22.88
258.386	24.88
259.183	22.88
259.979	19.88
260.776	23.88
261.573	26.88
262.37	23.88
263.166	27.88
263.963	24.88
264.759	23.88
265.556	28.88
266.352	27.88
267.148	28.88
267.944	28.88
268.74	29.88
269.536	31.88
270.332	31.88
271.128	32.88
271.924	34.88
272.719	31.88
273.515	36.88
274.311	33.88
275.106	32.88
275.901	31.88
276.697	35.88
277.492	34.88
278.287	35.88
279.082	33.88
279.877	33.88
280.672	36.88
281.467	35.88
282.262	35.88
283.056	34.88
283.851	34.88
284.646	36.88
285.44	38.88
286.234	33.88
287.029	33.88
287.823	37.88
288.617	31.88
289.411	31.88
290.205	33.88
290.999	30.88
291.793	33.88
292.587	32.88
293.381	29.88
294.174	29.88
294.968	31.88
295.761	30.88
296.555	22.88
297.348	24.88
298.141	26.88
298.935	26.88
299.728	28.88
300.521	25.88
301.314	21.88
302.107	23.88
302.899	19.88
303.692	21.88
304.485	21.88
305.277	23.88
306.07	22.88
306.862	21.88
307.655	21.88
308.447	18.88
309.239	18.88
310.031	16.88
310.823	20.88
311.615	16.88
312.407	16.88
313.199	13.88
313.991	14.88
314.783	16.88
315.574	19.88
316.366	16.88
317.157	14.88
317.949	14.88
318.74	13.88
319.531	15.88
320.322	11.88
321.113	12.88
321.904	10.88
322.695	14.88
323.486	9.88
324.277	13.88
325.068	13.88
325.858	8.88
326.649	12.88
327.439	10.88
328.23	10.88
329.02	12.88
329.81	11.88
330.6	10.88
331.391	11.88
332.181	11.88
332.971	11.88
333.76	11.88
334.55	10.88
335.34	10.88
336.13	10.88
336.919	11.88
337.709	8.88
338.498	9.88
339.287	11.88
340.077	9.88
340.866	10.88
341.655	11.88
342.444	9.88
343.233	11.88
344.022	12.88
344.811	11.88
345.6	9.88
346.388	7.88
347.177	9.88
347.965	11.88
348.754	10.88
349.542	9.88
350.33	11.88
351.119	8.88
351.907	9.88
352.695	11.88
353.483	9.88
354.271	8.88
355.059	8.88
355.846	8.88
356.634	10.88
357.422	9.88
358.209	10.88
358.997	10.88
359.784	7.88
360.571	8.88
361.359	8.88
362.146	9.88
362.933	9.88
363.72	10.88
364.507	7.88
365.294	8.88
366.081	9.88
366.867	8.88
367.654	9.88
368.44	5.88
369.227	9.88
370.013	9.88
370.8	6.88
371.586	8.88
372.372	7.88
373.158	8.88
373.944	9.88
374.73	7.88
375.516	9.88
376.302	6.88
377.088	9.88
377.873	8.88
378.659	10.88
379.445	8.88
380.23	8.88
381.015	8.88
381.801	8.88
382.586	9.88
383.371	10.88
384.156	8.88
384.941	9.88
385.726	8.88
386.511	9.88
387.296	5.88
388.08	8.88
388.865	8.88
389.649	10.88
390.434	12.88
391.218	9.88
392.003	9.88
392.787	14.88
393.571	12.88
394.355	10.88
395.139	10.88
395.923	12.88
396.707	13.88
397.491	13.88
398.274	11.88
399.058	13.88
399.842	10.88
400.625	11.88
401.408	12.88
402.192	12.88
402.975	14.88
403.758	13.88
404.541	14.88
405.324	13.88
406.107	13.88
406.89	13.88
407.673	14.88
408.456	16.88
409.238	16.88
410.021	17.88
410.803	17.88
411.586	15.88
412.368	17.88
413.151	17.88
413.933	16.88
414.715	18.88
415.497	17.88
416.279	16.88
417.061	17.88
417.843	17.88
418.624	21.88
419.406	19.88
420.188	21.88
420.969	19.88
421.751	22.88
422.532	22.88
423.313	20.88
424.095	22.88
424.876	23.88
425.657	23.88
426.438	24.88
427.219	25.88
428	24.88
428.78	28.88
429.561	27.88
430.342	31.88
431.122	32.88
431.903	30.88
432.683	35.88
433.464	36.88
434.244	32.88
435.024	36.88
435.804	38.88
436.584	43.88
437.364	40.88
438.144	48.88
438.924	48.88
439.704	48.88
440.483	53.88
441.263	60.88
442.042	64.88
442.822	66.88
443.601	72.88
444.38	76.88
445.16	84.88
445.939	88.88
446.718	94.88
447.497	101.88
448.276	112.88
449.054	118.88
449.833	136.88
450.612	150.88
451.391	164.88
452.169	169.88
452.948	198.88
453.726	224.88
454.504	242.88
455.282	267.88
456.061	296.88
456.839	330.88
457.617	372.88
458.395	419.88
459.172	460.88
459.95	521.88
460.728	584.88
461.506	643.88
462.283	728.88
463.061	813.88
463.838	926.88
464.615	1027.88
465.393	1151.88
466.17	1284.88
466.947	1449.88
467.724	1591.88
468.501	1767.88
469.278	1967.88
470.055	2177.88
470.831	2452.88
471.608	2712.88
472.385	3013.88
473.161	3322.88
473.938	3671.88
474.714	4072.88
475.49	4519.88
476.266	4960.88
477.043	5478.88
477.819	6043.88
478.595	6650.88
479.371	7293.88
480.146	7988.88
480.922	8773.88
481.698	9652.88
482.473	10552.88
483.249	11564.88
484.024	12612.88
484.8	13773.88
485.575	14980.88
486.35	16337.88
487.126	17777.88
487.901	19324.88
488.676	20920.88
489.451	22683.88
490.225	24494.88
491	26342.88
491.775	28207.88
492.55	30171.88
493.324	32124.88
494.099	34089.88
494.873	36166.88
495.647	38029.88
496.422	40134.88
497.196	42056.88
497.97	43754.88
498.744	45322.88
499.518	46980.88
500.292	48211.88
501.066	49089.88
501.839	49749.88
502.613	50268.88
503.387	50679.88
504.16	50751.88
504.934	50457.88
505.707	49943.88
506.48	49151.88
507.253	48372.88
508.027	47253.88
508.8	45959.88
509.573	44625.88
510.346	43062.88
511.118	41794.88
511.891	40256.88
512.664	38479.88
513.437	36943.88
514.209	35452.88
514.982	33986.88
515.754	32449.88
516.526	31107.88
517.298	29763.88
518.071	28665.88
518.843	27471.88
519.615	26273.88
520.387	25204.88
521.159	24260.88
521.93	23139.88
522.702	22182.88
523.474	21228.88
524.245	20314.88
525.017	19375.88
525.788	18515.88
526.56	17718.88
527.331	16888.88
528.102	15941.88
528.873	15116.88
529.644	14369.88
530.415	13658.88
531.186	12996.88
531.957	12203.88
532.728	11575.88
533.498	10985.88
534.269	10365.88
535.039	9788.88
535.81	9277.88
536.58	8725.88
537.351	8276.88
538.121	7808.88
538.891	7394.88
539.661	6991.88
540.431	6644.88
541.201	6307.88
541.971	5960.88
542.741	5642.88
543.51	5351.88
544.28	5109.88
545.05	4878.88
545.819	4621.88
546.588	4413.88
547.358	4181.88
548.127	3974.88
548.896	3775.88
549.665	3553.88
550.434	3398.88
551.203	3207.88
551.972	3008.88
552.741	2857.88
553.51	2735.88
554.278	2556.88
555.047	2393.88
555.815	2263.88
556.584	2142.88
557.352	2032.88
558.121	1909.88
558.889	1796.88
559.657	1714.88
560.425	1610.88
561.193	1507.88
561.961	1457.88
562.729	1388.88
563.496	1292.88
564.264	1223.88
565.032	1158.88
565.799	1100.88
566.567	1036.88
567.334	983.88
568.101	925.88
568.869	885.88
569.636	825.88
570.403	784.88
571.17	727.88
571.937	689.88
572.704	652.88
573.471	611.88
574.237	575.88
575.004	549.88
575.771	509.88
576.537	480.88
577.303	464.88
578.07	436.88
578.836	408.88
579.602	381.88
580.368	364.88
581.134	353.88
581.9	339.88
582.666	314.88
583.432	301.88
584.198	292.88
584.964	271.88
585.729	259.88
586.495	244.88
587.26	232.88
588.025	226.88
588.791	205.88
589.556	199.88
590.321	185.88
591.086	176.88
591.851	176.88
592.616	162.88
593.381	151.88
594.146	148.88
594.911	144.88
595.675	138.88
596.44	130.88
597.204	118.88
597.969	123.88
598.733	109.88
599.497	108.88
600.261	100.88
601.025	102.88
601.79	94.88
602.553	91.88
603.317	88.88
604.081	83.88
604.845	80.88
605.609	76.88
606.372	71.88
607.136	71.88
607.899	72.88
608.662	65.88
609.426	60.88
610.189	61.88
610.952	56.88
611.715	55.88
612.478	54.88
613.241	54.88
614.004	51.88
614.767	51.88
615.529	46.88
616.292	44.88
617.055	45.88
617.817	42.88
618.579	41.88
619.342	38.88
620.104	38.88
620.866	37.88
621.628	36.88
622.39	34.88
623.152	34.88
623.914	30.88
624.676	34.88
625.438	32.88
626.199	30.88
626.961	27.88
627.722	28.88
628.484	24.88
629.245	25.88
630.006	24.88
630.768	22.88
631.529	22.88
632.29	22.88
633.051	24.88
633.812	20.88
634.573	24.88
635.333	21.88
636.094	22.88
636.855	17.88
637.615	18.88
638.376	19.88
639.136	15.88
639.896	20.88
640.657	17.88
641.417	20.88
642.177	12.88
642.937	19.88
643.697	15.88
644.457	16.88
645.216	16.88
645.976	13.88
646.736	15.88
647.495	13.88
648.255	12.88
649.014	13.88
649.774	14.88
650.533	15.88
651.292	12.88
652.051	13.88
652.81	13.88
653.569	12.88
654.328	12.88
655.087	14.88
655.846	11.88
656.604	12.88
657.363	11.88
658.121	9.88
658.88	8.88
659.638	11.88
660.397	9.88
661.155	11.88
661.913	7.88
662.671	9.88
663.429	9.88
664.187	8.88
664.945	8.88
665.703	7.88
666.46	9.88
667.218	8.88
667.976	6.88
668.733	9.88
669.49	7.88
670.248	9.88
671.005	6.88
671.762	4.88
672.519	9.88
673.276	8.88
674.033	6.88
674.79	6.88
675.547	6.88
676.304	8.88
677.06	7.88
677.817	6.88
678.574	5.88
679.33	9.88
680.086	7.88
680.843	7.88
681.599	8.88
682.355	7.88
683.111	6.88
683.867	8.88
684.623	7.88
685.379	7.88
686.135	5.88
686.89	7.88
687.646	5.88
688.402	8.88
689.157	5.88
689.912	7.88
690.668	8.88
691.423	4.88
692.178	6.88
692.933	7.88
693.688	6.88
694.443	6.88
695.198	4.88
695.953	7.88
696.708	7.88
697.462	8.88
698.217	7.88
698.972	6.88
699.726	6.88
700.48	4.88
701.235	6.88
701.989	5.88
702.743	7.88
703.497	5.88
704.251	6.88
705.005	6.88
705.759	6.88
706.513	5.88
707.266	8.88
708.02	7.88
708.774	5.88
709.527	5.88
710.28	5.88
711.034	5.88
711.787	6.88
712.54	4.88
713.293	5.88
714.046	6.88
714.799	7.88
715.552	7.88
716.305	6.88
717.058	8.88
717.81	8.88
718.563	7.88
719.315	5.88
720.068	4.88
720.82	7.88
721.573	6.88
722.325	6.88
723.077	7.88
723.829	4.88
724.581	9.88
725.333	4.88
726.085	7.88
726.836	7.88
727.588	9.88
728.34	8.88
729.091	8.88
729.843	8.88
730.594	8.88
731.346	10.88
732.097	9.88
732.848	8.88
733.599	8.88
734.35	7.88
735.101	8.88
735.852	7.88
736.603	7.88
737.354	11.88
738.104	8.88
738.855	10.88
739.605	7.88
740.356	11.88
741.106	8.88
741.856	10.88
742.607	10.88
743.357	8.88
744.107	11.88
744.857	10.88
745.607	11.88
746.357	8.88
747.106	11.88
747.856	11.88
748.606	9.88
749.355	9.88
750.105	9.88
750.854	10.88
751.603	11.88
752.353	9.88
753.102	12.88
753.851	11.88
754.6	11.88
755.349	12.88
756.098	13.88
756.847	11.88
757.595	9.88
758.344	13.88
759.093	11.88
759.841	12.88
760.589	11.88
761.338	11.88
762.086	12.88
762.834	14.88
763.582	12.88
764.331	14.88
765.079	13.88
765.826	12.88
766.574	13.88
767.322	12.88
768.07	13.88
768.817	14.88
769.565	15.88
770.312	16.88
771.06	13.88
771.807	17.88
772.554	15.88
773.302	13.88
774.049	16.88
774.796	13.88
775.543	12.88
776.29	17.88
777.036	14.88
777.783	14.88
778.53	18.88
779.276	15.88
780.023	15.88
780.769	13.88
781.516	14.88
782.262	15.88
783.008	14.88
783.754	17.88
784.5	13.88
785.246	12.88
785.992	15.88
786.738	15.88
787.484	13.88
788.23	16.88
788.975	13.88
789.721	14.88
790.466	13.88
791.212	13.88
791.957	14.88
792.702	11.88
793.447	16.88
794.193	11.88
794.938	14.88
795.683	15.88
796.427	13.88
797.172	12.88
797.917	7.88
798.662	10.88
799.406	12.88
800.151	9.88
800.895	13.88
801.64	12.88
802.384	9.88
803.128	8.88
803.872	11.88
804.616	10.88
805.36	11.88
806.104	11.88
806.848	7.88
807.592	9.88
808.336	9.88
809.079	9.88
809.823	9.88
810.566	9.88
811.31	7.88
812.053	8.88
812.796	6.88
813.539	9.88
814.283	7.88
815.026	7.88
815.769	6.88
816.511	6.88
817.254	4.88
817.997	7.88
818.74	9.88
819.482	5.88
820.225	6.88
820.967	6.88
821.71	6.88
822.452	5.88
823.194	6.88
823.936	4.88
824.678	7.88
825.42	5.88
826.162	4.88
826.904	6.88
827.646	6.88
828.388	5.88
829.129	3.88
829.871	7.88
830.612	4.88
831.354	5.88
832.095	2.88
832.836	5.88
833.577	5.88
834.319	7.88
835.06	5.88
835.801	7.88
836.542	4.88
837.282	4.88
838.023	4.88
838.764	1.88
839.504	4.88
840.245	4.88
840.985	3.88
841.726	3.88
842.466	4.88
843.206	5.88
843.946	4.88
844.687	2.88
845.427	2.88
846.166	3.88
846.906	3.88
847.646	1.88
848.386	2.88
849.125	3.88
849.865	3.88
850.605	3.88
851.344	5.88
852.083	4.88
852.823	1.88
853.562	4.88
854.301	3.88
855.04	2.88
855.779	3.88
856.518	1.88
857.257	0.88
857.995	1.88
858.734	1.88
859.473	3.88
860.211	0.88
860.95	3.88
861.688	1.88
862.426	1.88
863.165	3.88
863.903	-0.12
864.641	0.88
865.379	2.88
866.117	4.88
866.855	0.88
867.593	0.88
868.33	1.88
869.068	1.88
869.806	1.88
870.543	1.88
871.28	1.88
872.018	1.88
872.755	1.88
873.492	0.88
874.229	2.88
874.967	1.88
875.703	2.88
876.44	-0.12
877.177	1.88
877.914	-0.12
878.651	0.88
879.387	-0.12
880.124	-0.12
880.86	-0.12
881.597	3.88
882.333	-0.12
883.069	0.88
883.806	1.88
884.542	-1.12
885.278	1.88
886.014	0.88
886.749	-0.12
887.485	-0.12
888.221	-0.12
888.957	0.88
889.692	-1.12
890.428	0.88
891.163	1.88
891.899	-0.12
892.634	-0.12
893.369	-1.12
894.104	-0.12
894.839	-0.12
895.574	0.88
896.309	0.88
897.044	-1.12
897.779	0.88
898.514	-0.12
899.248	-0.12
899.983	0.88
900.717	-1.12
901.452	-2.12
902.186	0.88
902.92	1.88
903.654	-0.12
904.389	-1.12
905.123	2.88
905.857	0.88
906.59	0.88
907.324	-0.12
908.058	-0.12
908.792	-0.12
909.525	-0.12
910.259	-1.12
910.992	-1.12
911.726	1.88
912.459	-1.12
913.192	-0.12
913.925	-0.12
914.658	-1.12
915.391	-0.12
916.124	-4.12
916.857	0.88
917.59	-1.12
918.323	2.88
919.055	-2.12
919.788	-2.12
920.521	1.88
921.253	-0.12
921.985	-1.12
922.718	-1.12
923.45	-2.12
924.182	-0.12
924.914	-0.12
925.646	-1.12
926.378	-3.12
927.11	0.88
927.841	1.88
928.573	0.88
929.305	-0.12
930.036	-0.12
930.768	-0.12
931.499	-1.12
932.23	-2.12
932.962	0.88
933.693	-0.12
934.424	-1.12
935.155	-0.12
935.886	0.88
936.617	-0.12
937.348	-2.12
938.078	-0.12
938.809	-0.12
939.54	-1.12
940.27	-0.12
941.001	-0.12
941.731	1.88
942.461	-0.12
943.191	-0.12
943.922	-0.12
944.652	2.88
945.382	-2.12
946.112	-0.12
946.841	0.88
947.571	-2.12
948.301	-0.12
949.031	0.88
949.76	0.88
950.49	0.88
951.219	-0.12
951.948	0.88
952.678	0.88
953.407	0.88
954.136	-2.12
954.865	-3.12
955.594	0.88
956.323	0.88
957.052	-0.12
957.78	-2.12
958.509	-1.12
959.238	-2.12
959.966	-1.12
960.695	-0.12
961.423	-1.12
962.151	-2.12
962.88	-2.12
963.608	-3.12
964.336	-0.12
965.064	-1.12
965.792	0.88
966.52	-2.12
967.247	-0.12
967.975	0.88
968.703	0.88
969.43	-0.12
970.158	0.88
970.885	-0.12
971.613	-0.12
972.34	-1.12
973.067	-3.12
973.794	-1.12
974.521	1.88
975.248	-0.12
975.975	-2.12
976.702	0.88
977.429	-4.12
978.156	-0.12
978.882	-2.12
979.609	-0.12
980.335	-1.12
981.062	-2.12
981.788	1.88
982.514	-1.12
983.24	-1.12
983.967	-2.12
984.693	0.88
985.419	1.88
986.144	-2.12
986.87	-1.12
987.596	-2.12
988.322	-0.12
989.047	-1.12
989.773	0.88
990.498	-0.12
991.224	0.88
991.949	-0.12
992.674	-3.12
993.399	-0.12
994.124	-2.12
994.849	-0.12
995.574	-0.12
996.299	-1.12
997.024	-0.12
997.749	-0.12
998.473	1.88
999.198	0.88
999.922	-3.12
1000.647	0.88
1001.371	3.88
1002.095	-1.12
1002.82	-1.12
1003.544	-2.12
1004.268	1.88
1004.992	3.88
1005.716	1.88
1006.439	1.88
1007.163	3.88
1007.887	6.88
1008.611	-0.12
1009.334	-0.12
1010.058	0.88
1010.781	-1.12
1011.504	-1.12
1012.228	-2.12
1012.951	0.88
1013.674	-0.12
1014.397	0.88
1015.12	-1.12
