节点500_705_QEPB04081__178__20-48-48-054.txt的数据

Date: Wed Nov 12 20:48:48 CST 2025
User: PC
Spectrometer: QEPB0408
触发模式: 0
积分时间 (秒): 1.000000E-2
Scans to average: 1
启用暗噪声校正: true
启用非线性校正: false
滑动平均宽度: 0
X轴模式: Wavelengths
Number of Pixels in Spectrum: 1044
>>>>>Begin Spectral Data<<<<<
220.843	6.75
221.644	5.75
222.444	5.75
223.244	6.75
224.045	5.75
224.845	6.75
225.645	5.75
226.445	4.75
227.245	7.75
228.045	6.75
228.845	5.75
229.645	6.75
230.444	10.75
231.244	6.75
232.043	7.75
232.843	9.75
233.642	6.75
234.442	9.75
235.241	9.75
236.04	8.75
236.839	11.75
237.638	7.75
238.437	11.75
239.236	8.75
240.035	12.75
240.833	11.75
241.632	12.75
242.43	11.75
243.229	12.75
244.027	12.75
244.826	13.75
245.624	14.75
246.422	14.75
247.22	14.75
248.018	13.75
248.816	14.75
249.614	16.75
250.412	13.75
251.21	14.75
252.007	17.75
252.805	14.75
253.602	19.75
254.4	18.75
255.197	23.75
255.994	21.75
256.791	20.75
257.589	21.75
258.386	18.75
259.183	24.75
259.979	21.75
260.776	23.75
261.573	25.75
262.37	25.75
263.166	26.75
263.963	27.75
264.759	28.75
265.556	27.75
266.352	25.75
267.148	30.75
267.944	28.75
268.74	28.75
269.536	30.75
270.332	32.75
271.128	30.75
271.924	29.75
272.719	30.75
273.515	32.75
274.311	30.75
275.106	32.75
275.901	30.75
276.697	34.75
277.492	33.75
278.287	37.75
279.082	32.75
279.877	35.75
280.672	35.75
281.467	36.75
282.262	32.75
283.056	35.75
283.851	33.75
284.646	32.75
285.44	34.75
286.234	33.75
287.029	36.75
287.823	32.75
288.617	33.75
289.411	33.75
290.205	32.75
290.999	35.75
291.793	32.75
292.587	31.75
293.381	33.75
294.174	33.75
294.968	27.75
295.761	28.75
296.555	25.75
297.348	25.75
298.141	25.75
298.935	29.75
299.728	25.75
300.521	26.75
301.314	24.75
302.107	23.75
302.899	19.75
303.692	21.75
304.485	21.75
305.277	21.75
306.07	21.75
306.862	22.75
307.655	21.75
308.447	20.75
309.239	21.75
310.031	22.75
310.823	18.75
311.615	17.75
312.407	16.75
313.199	16.75
313.991	18.75
314.783	13.75
315.574	17.75
316.366	13.75
317.157	13.75
317.949	14.75
318.74	16.75
319.531	12.75
320.322	12.75
321.113	15.75
321.904	14.75
322.695	11.75
323.486	13.75
324.277	13.75
325.068	14.75
325.858	14.75
326.649	9.75
327.439	11.75
328.23	12.75
329.02	11.75
329.81	11.75
330.6	11.75
331.391	12.75
332.181	9.75
332.971	12.75
333.76	11.75
334.55	13.75
335.34	12.75
336.13	9.75
336.919	12.75
337.709	10.75
338.498	12.75
339.287	11.75
340.077	12.75
340.866	11.75
341.655	11.75
342.444	12.75
343.233	14.75
344.022	10.75
344.811	13.75
345.6	10.75
346.388	11.75
347.177	8.75
347.965	10.75
348.754	12.75
349.542	10.75
350.33	10.75
351.119	10.75
351.907	8.75
352.695	11.75
353.483	9.75
354.271	10.75
355.059	12.75
355.846	11.75
356.634	10.75
357.422	9.75
358.209	9.75
358.997	10.75
359.784	10.75
360.571	9.75
361.359	11.75
362.146	9.75
362.933	10.75
363.72	11.75
364.507	9.75
365.294	10.75
366.081	6.75
366.867	10.75
367.654	9.75
368.44	8.75
369.227	8.75
370.013	9.75
370.8	9.75
371.586	9.75
372.372	8.75
373.158	9.75
373.944	5.75
374.73	7.75
375.516	7.75
376.302	11.75
377.088	10.75
377.873	8.75
378.659	11.75
379.445	7.75
380.23	10.75
381.015	8.75
381.801	9.75
382.586	10.75
383.371	10.75
384.156	11.75
384.941	7.75
385.726	10.75
386.511	10.75
387.296	9.75
388.08	11.75
388.865	8.75
389.649	12.75
390.434	14.75
391.218	10.75
392.003	11.75
392.787	11.75
393.571	10.75
394.355	11.75
395.139	14.75
395.923	11.75
396.707	11.75
397.491	12.75
398.274	12.75
399.058	13.75
399.842	14.75
400.625	12.75
401.408	11.75
402.192	11.75
402.975	10.75
403.758	10.75
404.541	11.75
405.324	15.75
406.107	16.75
406.89	14.75
407.673	12.75
408.456	13.75
409.238	14.75
410.021	17.75
410.803	18.75
411.586	14.75
412.368	15.75
413.151	17.75
413.933	16.75
414.715	17.75
415.497	18.75
416.279	18.75
417.061	19.75
417.843	22.75
418.624	18.75
419.406	20.75
420.188	23.75
420.969	21.75
421.751	23.75
422.532	22.75
423.313	25.75
424.095	23.75
424.876	24.75
425.657	24.75
426.438	25.75
427.219	28.75
428	25.75
428.78	30.75
429.561	31.75
430.342	32.75
431.122	29.75
431.903	29.75
432.683	32.75
433.464	35.75
434.244	38.75
435.024	37.75
435.804	39.75
436.584	45.75
437.364	42.75
438.144	50.75
438.924	50.75
439.704	51.75
440.483	57.75
441.263	58.75
442.042	63.75
442.822	69.75
443.601	79.75
444.38	80.75
445.16	86.75
445.939	93.75
446.718	97.75
447.497	108.75
448.276	115.75
449.054	126.75
449.833	138.75
450.612	154.75
451.391	169.75
452.169	190.75
452.948	210.75
453.726	225.75
454.504	252.75
455.282	291.75
456.061	317.75
456.839	350.75
457.617	393.75
458.395	443.75
459.172	492.75
459.95	549.75
460.728	612.75
461.506	689.75
462.283	771.75
463.061	858.75
463.838	947.75
464.615	1063.75
465.393	1184.75
466.17	1330.75
466.947	1463.75
467.724	1639.75
468.501	1833.75
469.278	2005.75
470.055	2242.75
470.831	2481.75
471.608	2771.75
472.385	3017.75
473.161	3357.75
473.938	3677.75
474.714	4061.75
475.49	4467.75
476.266	4934.75
477.043	5368.75
477.819	5913.75
478.595	6502.75
479.371	7097.75
480.146	7786.75
480.922	8498.75
481.698	9267.75
482.473	10140.75
483.249	11058.75
484.024	12024.75
484.8	13049.75
485.575	14202.75
486.35	15376.75
487.126	16791.75
487.901	18112.75
488.676	19625.75
489.451	21301.75
490.225	22854.75
491	24511.75
491.775	26332.75
492.55	28137.75
493.324	29943.75
494.099	31843.75
494.873	33695.75
495.647	35594.75
496.422	37486.75
497.196	39348.75
497.97	41001.75
498.744	42472.75
499.518	44065.75
500.292	45442.75
501.066	46396.75
501.839	47230.75
502.613	47933.75
503.387	48467.75
504.16	48744.75
504.934	48695.75
505.707	48433.75
506.48	47925.75
507.253	47313.75
508.027	46394.75
508.8	45306.75
509.573	44060.75
510.346	42827.75
511.118	41669.75
511.891	40235.75
512.664	38705.75
513.437	37183.75
514.209	35688.75
514.982	34310.75
515.754	32808.75
516.526	31429.75
517.298	30240.75
518.071	28956.75
518.843	27751.75
519.615	26669.75
520.387	25630.75
521.159	24659.75
521.93	23578.75
522.702	22546.75
523.474	21632.75
524.245	20655.75
525.017	19735.75
525.788	18874.75
526.56	18034.75
527.331	17223.75
528.102	16312.75
528.873	15546.75
529.644	14792.75
530.415	14072.75
531.186	13435.75
531.957	12669.75
532.728	11993.75
533.498	11382.75
534.269	10705.75
535.039	10153.75
535.81	9622.75
536.58	9061.75
537.351	8578.75
538.121	8126.75
538.891	7689.75
539.661	7295.75
540.431	6883.75
541.201	6561.75
541.971	6209.75
542.741	5875.75
543.51	5555.75
544.28	5308.75
545.05	5054.75
545.819	4824.75
546.588	4602.75
547.358	4365.75
548.127	4127.75
548.896	3924.75
549.665	3731.75
550.434	3545.75
551.203	3343.75
551.972	3183.75
552.741	3010.75
553.51	2811.75
554.278	2665.75
555.047	2511.75
555.815	2393.75
556.584	2264.75
557.352	2116.75
558.121	2023.75
558.889	1881.75
559.657	1786.75
560.425	1709.75
561.193	1610.75
561.961	1534.75
562.729	1441.75
563.496	1352.75
564.264	1266.75
565.032	1215.75
565.799	1160.75
566.567	1077.75
567.334	1022.75
568.101	973.75
568.869	917.75
569.636	868.75
570.403	819.75
571.17	770.75
571.937	729.75
572.704	691.75
573.471	653.75
574.237	616.75
575.004	572.75
575.771	544.75
576.537	510.75
577.303	483.75
578.07	456.75
578.836	435.75
579.602	406.75
580.368	377.75
581.134	371.75
581.9	349.75
582.666	336.75
583.432	320.75
584.198	302.75
584.964	280.75
585.729	271.75
586.495	256.75
587.26	244.75
588.025	226.75
588.791	217.75
589.556	202.75
590.321	192.75
591.086	184.75
591.851	177.75
592.616	173.75
593.381	160.75
594.146	152.75
594.911	148.75
595.675	144.75
596.44	135.75
597.204	128.75
597.969	124.75
598.733	110.75
599.497	113.75
600.261	106.75
601.025	106.75
601.79	95.75
602.553	95.75
603.317	95.75
604.081	87.75
604.845	88.75
605.609	82.75
606.372	78.75
607.136	74.75
607.899	74.75
608.662	65.75
609.426	62.75
610.189	67.75
610.952	60.75
611.715	56.75
612.478	56.75
613.241	57.75
614.004	54.75
614.767	54.75
615.529	48.75
616.292	45.75
617.055	47.75
617.817	46.75
618.579	43.75
619.342	37.75
620.104	39.75
620.866	37.75
621.628	39.75
622.39	36.75
623.152	38.75
623.914	37.75
624.676	34.75
625.438	32.75
626.199	35.75
626.961	30.75
627.722	25.75
628.484	28.75
629.245	28.75
630.006	28.75
630.768	25.75
631.529	26.75
632.29	27.75
633.051	24.75
633.812	25.75
634.573	24.75
635.333	21.75
636.094	22.75
636.855	18.75
637.615	24.75
638.376	20.75
639.136	17.75
639.896	20.75
640.657	18.75
641.417	20.75
642.177	17.75
642.937	18.75
643.697	17.75
644.457	16.75
645.216	16.75
645.976	15.75
646.736	14.75
647.495	17.75
648.255	14.75
649.014	12.75
649.774	14.75
650.533	13.75
651.292	13.75
652.051	12.75
652.81	12.75
653.569	12.75
654.328	12.75
655.087	12.75
655.846	14.75
656.604	12.75
657.363	14.75
658.121	12.75
658.88	10.75
659.638	10.75
660.397	10.75
661.155	10.75
661.913	9.75
662.671	10.75
663.429	9.75
664.187	8.75
664.945	9.75
665.703	9.75
666.46	9.75
667.218	10.75
667.976	11.75
668.733	9.75
669.49	9.75
670.248	10.75
671.005	9.75
671.762	9.75
672.519	8.75
673.276	9.75
674.033	6.75
674.79	8.75
675.547	8.75
676.304	8.75
677.06	3.75
677.817	7.75
678.574	7.75
679.33	6.75
680.086	8.75
680.843	8.75
681.599	6.75
682.355	5.75
683.111	9.75
683.867	6.75
684.623	6.75
685.379	9.75
686.135	5.75
686.89	8.75
687.646	7.75
688.402	6.75
689.157	8.75
689.912	6.75
690.668	7.75
691.423	6.75
692.178	8.75
692.933	5.75
693.688	8.75
694.443	6.75
695.198	7.75
695.953	7.75
696.708	7.75
697.462	4.75
698.217	5.75
698.972	5.75
699.726	9.75
700.48	3.75
701.235	9.75
701.989	6.75
702.743	7.75
703.497	5.75
704.251	6.75
705.005	5.75
705.759	5.75
706.513	8.75
707.266	5.75
708.02	6.75
708.774	7.75
709.527	6.75
710.28	9.75
711.034	8.75
711.787	7.75
712.54	6.75
713.293	7.75
714.046	9.75
714.799	7.75
715.552	8.75
716.305	9.75
717.058	4.75
717.81	8.75
718.563	9.75
719.315	5.75
720.068	6.75
720.82	7.75
721.573	8.75
722.325	7.75
723.077	9.75
723.829	7.75
724.581	4.75
725.333	7.75
726.085	8.75
726.836	8.75
727.588	8.75
728.34	10.75
729.091	8.75
729.843	10.75
730.594	7.75
731.346	7.75
732.097	8.75
732.848	8.75
733.599	11.75
734.35	7.75
735.101	8.75
735.852	9.75
736.603	9.75
737.354	9.75
738.104	9.75
738.855	9.75
739.605	8.75
740.356	10.75
741.106	9.75
741.856	11.75
742.607	12.75
743.357	12.75
744.107	9.75
744.857	9.75
745.607	10.75
746.357	10.75
747.106	10.75
747.856	8.75
748.606	11.75
749.355	11.75
750.105	13.75
750.854	7.75
751.603	11.75
752.353	10.75
753.102	13.75
753.851	10.75
754.6	9.75
755.349	14.75
756.098	11.75
756.847	13.75
757.595	11.75
758.344	10.75
759.093	10.75
759.841	14.75
760.589	13.75
761.338	12.75
762.086	10.75
762.834	12.75
763.582	12.75
764.331	15.75
765.079	12.75
765.826	13.75
766.574	12.75
767.322	15.75
768.07	13.75
768.817	13.75
769.565	13.75
770.312	15.75
771.06	12.75
771.807	16.75
772.554	14.75
773.302	17.75
774.049	15.75
774.796	14.75
775.543	11.75
776.29	16.75
777.036	15.75
777.783	15.75
778.53	16.75
779.276	15.75
780.023	17.75
780.769	14.75
781.516	18.75
782.262	16.75
783.008	14.75
783.754	13.75
784.5	14.75
785.246	15.75
785.992	15.75
786.738	14.75
787.484	16.75
788.23	17.75
788.975	13.75
789.721	12.75
790.466	16.75
791.212	16.75
791.957	12.75
792.702	16.75
793.447	13.75
794.193	12.75
794.938	14.75
795.683	15.75
796.427	10.75
797.172	15.75
797.917	14.75
798.662	10.75
799.406	12.75
800.151	11.75
800.895	13.75
801.64	10.75
802.384	14.75
803.128	10.75
803.872	9.75
804.616	13.75
805.36	9.75
806.104	10.75
806.848	6.75
807.592	10.75
808.336	8.75
809.079	8.75
809.823	11.75
810.566	10.75
811.31	7.75
812.053	8.75
812.796	10.75
813.539	10.75
814.283	8.75
815.026	8.75
815.769	10.75
816.511	6.75
817.254	8.75
817.997	7.75
818.74	8.75
819.482	7.75
820.225	7.75
820.967	7.75
821.71	5.75
822.452	7.75
823.194	5.75
823.936	6.75
824.678	7.75
825.42	7.75
826.162	7.75
826.904	5.75
827.646	3.75
828.388	5.75
829.129	6.75
829.871	5.75
830.612	1.75
831.354	5.75
832.095	4.75
832.836	5.75
833.577	4.75
834.319	5.75
835.06	4.75
835.801	6.75
836.542	8.75
837.282	6.75
838.023	5.75
838.764	8.75
839.504	3.75
840.245	4.75
840.985	5.75
841.726	6.75
842.466	4.75
843.206	3.75
843.946	6.75
844.687	4.75
845.427	4.75
846.166	6.75
846.906	3.75
847.646	5.75
848.386	3.75
849.125	4.75
849.865	2.75
850.605	4.75
851.344	5.75
852.083	5.75
852.823	4.75
853.562	4.75
854.301	4.75
855.04	3.75
855.779	4.75
856.518	4.75
857.257	2.75
857.995	3.75
858.734	2.75
859.473	5.75
860.211	1.75
860.95	1.75
861.688	4.75
862.426	2.75
863.165	3.75
863.903	0.75
864.641	2.75
865.379	1.75
866.117	2.75
866.855	1.75
867.593	2.75
868.33	3.75
869.068	1.75
869.806	2.75
870.543	0.75
871.28	1.75
872.018	1.75
872.755	2.75
873.492	2.75
874.229	2.75
874.967	2.75
875.703	-1.25
876.44	1.75
877.177	4.75
877.914	0.75
878.651	0.75
879.387	0.75
880.124	2.75
880.86	0.75
881.597	-0.25
882.333	3.75
883.069	1.75
883.806	0.75
884.542	0.75
885.278	1.75
886.014	2.75
886.749	1.75
887.485	3.75
888.221	0.75
888.957	-0.25
889.692	0.75
890.428	0.75
891.163	1.75
891.899	0.75
892.634	0.75
893.369	2.75
894.104	-0.25
894.839	0.75
895.574	-0.25
896.309	0.75
897.044	0.75
897.779	-0.25
898.514	2.75
899.248	2.75
899.983	-0.25
900.717	1.75
901.452	0.75
902.186	0.75
902.92	-0.25
903.654	1.75
904.389	2.75
905.123	0.75
905.857	-0.25
906.59	-1.25
907.324	1.75
908.058	1.75
908.792	0.75
909.525	-0.25
910.259	-0.25
910.992	0.75
911.726	0.75
912.459	1.75
913.192	-0.25
913.925	1.75
914.658	0.75
915.391	2.75
916.124	1.75
916.857	0.75
917.59	0.75
918.323	-1.25
919.055	1.75
919.788	-1.25
920.521	-0.25
921.253	2.75
921.985	-0.25
922.718	-0.25
923.45	0.75
924.182	0.75
924.914	0.75
925.646	-0.25
926.378	1.75
927.11	2.75
927.841	0.75
928.573	-0.25
929.305	-1.25
930.036	3.75
930.768	0.75
931.499	0.75
932.23	-0.25
932.962	1.75
933.693	0.75
934.424	-1.25
935.155	0.75
935.886	-2.25
936.617	-1.25
937.348	-2.25
938.078	-1.25
938.809	1.75
939.54	-1.25
940.27	-1.25
941.001	-0.25
941.731	2.75
942.461	1.75
943.191	-0.25
943.922	-1.25
944.652	0.75
945.382	4.75
946.112	0.75
946.841	1.75
947.571	0.75
948.301	-1.25
949.031	-1.25
949.76	0.75
950.49	0.75
951.219	1.75
951.948	-1.25
952.678	-0.25
953.407	-1.25
954.136	0.75
954.865	0.75
955.594	0.75
956.323	-0.25
957.052	0.75
957.78	1.75
958.509	0.75
959.238	-1.25
959.966	-1.25
960.695	0.75
961.423	1.75
962.151	0.75
962.88	0.75
963.608	-0.25
964.336	-1.25
965.064	0.75
965.792	-1.25
966.52	-1.25
967.247	0.75
967.975	-0.25
968.703	0.75
969.43	-1.25
970.158	-0.25
970.885	-1.25
971.613	-0.25
972.34	-1.25
973.067	-1.25
973.794	-0.25
974.521	-2.25
975.248	-0.25
975.975	0.75
976.702	1.75
977.429	-0.25
978.156	-0.25
978.882	0.75
979.609	1.75
980.335	1.75
981.062	-0.25
981.788	0.75
982.514	1.75
983.24	-1.25
983.967	0.75
984.693	-0.25
985.419	-0.25
986.144	0.75
986.87	-0.25
987.596	-0.25
988.322	-0.25
989.047	0.75
989.773	-1.25
990.498	1.75
991.224	0.75
991.949	-2.25
992.674	-1.25
993.399	0.75
994.124	2.75
994.849	0.75
995.574	0.75
996.299	2.75
997.024	-2.25
997.749	1.75
998.473	0.75
999.198	0.75
999.922	0.75
1000.647	-1.25
1001.371	3.75
1002.095	-2.25
1002.82	-0.25
1003.544	-2.25
1004.268	5.75
1004.992	4.75
1005.716	3.75
1006.439	3.75
1007.163	6.75
1007.887	4.75
1008.611	1.75
1009.334	-1.25
1010.058	1.75
1010.781	2.75
1011.504	1.75
1012.228	-0.25
1012.951	1.75
1013.674	0.75
1014.397	-0.25
1015.12	-1.25
