节点500_705_QEPB04081__529__20-53-25-727.txt的数据

Date: Wed Nov 12 20:53:25 CST 2025
User: PC
Spectrometer: QEPB0408
触发模式: 0
积分时间 (秒): 1.000000E-2
Scans to average: 1
启用暗噪声校正: true
启用非线性校正: false
滑动平均宽度: 0
X轴模式: Wavelengths
Number of Pixels in Spectrum: 1044
>>>>>Begin Spectral Data<<<<<
220.843	2.75
221.644	2.75
222.444	5.75
223.244	3.75
224.045	5.75
224.845	7.75
225.645	8.75
226.445	5.75
227.245	6.75
228.045	7.75
228.845	7.75
229.645	5.75
230.444	7.75
231.244	7.75
232.043	8.75
232.843	10.75
233.642	6.75
234.442	9.75
235.241	9.75
236.04	8.75
236.839	9.75
237.638	9.75
238.437	9.75
239.236	8.75
240.035	10.75
240.833	10.75
241.632	12.75
242.43	10.75
243.229	10.75
244.027	11.75
244.826	13.75
245.624	13.75
246.422	12.75
247.22	14.75
248.018	13.75
248.816	11.75
249.614	15.75
250.412	13.75
251.21	14.75
252.007	15.75
252.805	15.75
253.602	16.75
254.4	17.75
255.197	16.75
255.994	17.75
256.791	18.75
257.589	19.75
258.386	17.75
259.183	18.75
259.979	18.75
260.776	20.75
261.573	21.75
262.37	21.75
263.166	20.75
263.963	20.75
264.759	24.75
265.556	24.75
266.352	26.75
267.148	26.75
267.944	27.75
268.74	26.75
269.536	28.75
270.332	27.75
271.128	29.75
271.924	24.75
272.719	31.75
273.515	29.75
274.311	30.75
275.106	30.75
275.901	27.75
276.697	31.75
277.492	29.75
278.287	30.75
279.082	28.75
279.877	29.75
280.672	35.75
281.467	31.75
282.262	31.75
283.056	29.75
283.851	29.75
284.646	28.75
285.44	30.75
286.234	29.75
287.029	31.75
287.823	32.75
288.617	31.75
289.411	32.75
290.205	30.75
290.999	28.75
291.793	27.75
292.587	29.75
293.381	28.75
294.174	27.75
294.968	26.75
295.761	24.75
296.555	24.75
297.348	25.75
298.141	25.75
298.935	29.75
299.728	24.75
300.521	23.75
301.314	25.75
302.107	20.75
302.899	24.75
303.692	23.75
304.485	21.75
305.277	19.75
306.07	18.75
306.862	21.75
307.655	18.75
308.447	21.75
309.239	17.75
310.031	21.75
310.823	18.75
311.615	18.75
312.407	17.75
313.199	14.75
313.991	16.75
314.783	14.75
315.574	14.75
316.366	14.75
317.157	14.75
317.949	14.75
318.74	13.75
319.531	12.75
320.322	11.75
321.113	13.75
321.904	13.75
322.695	15.75
323.486	12.75
324.277	10.75
325.068	11.75
325.858	14.75
326.649	12.75
327.439	11.75
328.23	14.75
329.02	13.75
329.81	12.75
330.6	14.75
331.391	13.75
332.181	9.75
332.971	11.75
333.76	12.75
334.55	10.75
335.34	12.75
336.13	9.75
336.919	9.75
337.709	10.75
338.498	12.75
339.287	12.75
340.077	10.75
340.866	11.75
341.655	11.75
342.444	12.75
343.233	11.75
344.022	10.75
344.811	14.75
345.6	11.75
346.388	10.75
347.177	9.75
347.965	11.75
348.754	9.75
349.542	12.75
350.33	10.75
351.119	9.75
351.907	10.75
352.695	10.75
353.483	9.75
354.271	12.75
355.059	6.75
355.846	10.75
356.634	10.75
357.422	9.75
358.209	9.75
358.997	7.75
359.784	8.75
360.571	7.75
361.359	11.75
362.146	8.75
362.933	7.75
363.72	11.75
364.507	8.75
365.294	9.75
366.081	7.75
366.867	8.75
367.654	9.75
368.44	6.75
369.227	8.75
370.013	7.75
370.8	9.75
371.586	10.75
372.372	7.75
373.158	10.75
373.944	8.75
374.73	8.75
375.516	6.75
376.302	11.75
377.088	9.75
377.873	9.75
378.659	7.75
379.445	8.75
380.23	9.75
381.015	8.75
381.801	10.75
382.586	9.75
383.371	7.75
384.156	7.75
384.941	8.75
385.726	10.75
386.511	9.75
387.296	8.75
388.08	9.75
388.865	8.75
389.649	11.75
390.434	8.75
391.218	10.75
392.003	10.75
392.787	10.75
393.571	10.75
394.355	11.75
395.139	10.75
395.923	11.75
396.707	12.75
397.491	9.75
398.274	10.75
399.058	13.75
399.842	12.75
400.625	10.75
401.408	11.75
402.192	12.75
402.975	11.75
403.758	17.75
404.541	14.75
405.324	13.75
406.107	13.75
406.89	14.75
407.673	14.75
408.456	17.75
409.238	12.75
410.021	12.75
410.803	17.75
411.586	16.75
412.368	13.75
413.151	12.75
413.933	17.75
414.715	16.75
415.497	16.75
416.279	16.75
417.061	18.75
417.843	20.75
418.624	17.75
419.406	19.75
420.188	15.75
420.969	17.75
421.751	22.75
422.532	21.75
423.313	20.75
424.095	23.75
424.876	24.75
425.657	24.75
426.438	21.75
427.219	26.75
428	25.75
428.78	27.75
429.561	27.75
430.342	30.75
431.122	30.75
431.903	30.75
432.683	30.75
433.464	37.75
434.244	33.75
435.024	35.75
435.804	38.75
436.584	41.75
437.364	45.75
438.144	46.75
438.924	48.75
439.704	54.75
440.483	58.75
441.263	59.75
442.042	69.75
442.822	72.75
443.601	77.75
444.38	79.75
445.16	88.75
445.939	100.75
446.718	102.75
447.497	115.75
448.276	127.75
449.054	137.75
449.833	156.75
450.612	169.75
451.391	189.75
452.169	192.75
452.948	234.75
453.726	258.75
454.504	284.75
455.282	312.75
456.061	348.75
456.839	385.75
457.617	429.75
458.395	480.75
459.172	538.75
459.95	602.75
460.728	665.75
461.506	725.75
462.283	817.75
463.061	900.75
463.838	999.75
464.615	1126.75
465.393	1247.75
466.17	1377.75
466.947	1522.75
467.724	1696.75
468.501	1868.75
469.278	2076.75
470.055	2289.75
470.831	2503.75
471.608	2766.75
472.385	3026.75
473.161	3320.75
473.938	3643.75
474.714	3974.75
475.49	4360.75
476.266	4718.75
477.043	5187.75
477.819	5614.75
478.595	6137.75
479.371	6680.75
480.146	7230.75
480.922	7916.75
481.698	8564.75
482.473	9254.75
483.249	10047.75
484.024	10897.75
484.8	11755.75
485.575	12658.75
486.35	13717.75
487.126	14803.75
487.901	15876.75
488.676	17121.75
489.451	18397.75
490.225	19782.75
491	21144.75
491.775	22652.75
492.55	24106.75
493.324	25703.75
494.099	27258.75
494.873	28929.75
495.647	30567.75
496.422	32162.75
497.196	33815.75
497.97	35353.75
498.744	36942.75
499.518	38407.75
500.292	39722.75
501.066	40837.75
501.839	41788.75
502.613	42687.75
503.387	43493.75
504.16	44045.75
504.934	44323.75
505.707	44520.75
506.48	44371.75
507.253	44100.75
508.027	43776.75
508.8	43085.75
509.573	42318.75
510.346	41638.75
511.118	40684.75
511.891	39608.75
512.664	38298.75
513.437	37013.75
514.209	35798.75
514.982	34432.75
515.754	33146.75
516.526	31880.75
517.298	30680.75
518.071	29502.75
518.843	28387.75
519.615	27189.75
520.387	26116.75
521.159	25161.75
521.93	24091.75
522.702	23116.75
523.474	22153.75
524.245	21221.75
525.017	20384.75
525.788	19550.75
526.56	18775.75
527.331	17938.75
528.102	17057.75
528.873	16227.75
529.644	15477.75
530.415	14793.75
531.186	14091.75
531.957	13409.75
532.728	12702.75
533.498	12059.75
534.269	11430.75
535.039	10904.75
535.81	10274.75
536.58	9746.75
537.351	9233.75
538.121	8768.75
538.891	8270.75
539.661	7818.75
540.431	7400.75
541.201	7050.75
541.971	6629.75
542.741	6316.75
543.51	5974.75
544.28	5689.75
545.05	5432.75
545.819	5158.75
546.588	4929.75
547.358	4695.75
548.127	4466.75
548.896	4268.75
549.665	4028.75
550.434	3818.75
551.203	3646.75
551.972	3451.75
552.741	3289.75
553.51	3067.75
554.278	2902.75
555.047	2760.75
555.815	2608.75
556.584	2466.75
557.352	2321.75
558.121	2200.75
558.889	2080.75
559.657	1971.75
560.425	1847.75
561.193	1766.75
561.961	1677.75
562.729	1568.75
563.496	1504.75
564.264	1401.75
565.032	1330.75
565.799	1271.75
566.567	1198.75
567.334	1118.75
568.101	1080.75
568.869	1001.75
569.636	948.75
570.403	902.75
571.17	865.75
571.937	796.75
572.704	759.75
573.471	716.75
574.237	677.75
575.004	629.75
575.771	598.75
576.537	561.75
577.303	530.75
578.07	505.75
578.836	479.75
579.602	452.75
580.368	423.75
581.134	405.75
581.9	384.75
582.666	369.75
583.432	352.75
584.198	335.75
584.964	319.75
585.729	298.75
586.495	286.75
587.26	267.75
588.025	251.75
588.791	237.75
589.556	226.75
590.321	219.75
591.086	213.75
591.851	195.75
592.616	185.75
593.381	173.75
594.146	167.75
594.911	164.75
595.675	154.75
596.44	149.75
597.204	144.75
597.969	138.75
598.733	126.75
599.497	118.75
600.261	123.75
601.025	115.75
601.79	105.75
602.553	101.75
603.317	95.75
604.081	95.75
604.845	88.75
605.609	87.75
606.372	88.75
607.136	78.75
607.899	78.75
608.662	72.75
609.426	71.75
610.189	70.75
610.952	66.75
611.715	62.75
612.478	58.75
613.241	57.75
614.004	60.75
614.767	55.75
615.529	51.75
616.292	54.75
617.055	48.75
617.817	46.75
618.579	43.75
619.342	48.75
620.104	44.75
620.866	42.75
621.628	39.75
622.39	38.75
623.152	38.75
623.914	36.75
624.676	38.75
625.438	35.75
626.199	33.75
626.961	32.75
627.722	31.75
628.484	28.75
629.245	29.75
630.006	28.75
630.768	29.75
631.529	29.75
632.29	27.75
633.051	25.75
633.812	24.75
634.573	22.75
635.333	24.75
636.094	21.75
636.855	22.75
637.615	19.75
638.376	21.75
639.136	19.75
639.896	18.75
640.657	16.75
641.417	20.75
642.177	17.75
642.937	18.75
643.697	17.75
644.457	18.75
645.216	16.75
645.976	16.75
646.736	17.75
647.495	14.75
648.255	15.75
649.014	14.75
649.774	16.75
650.533	12.75
651.292	10.75
652.051	12.75
652.81	11.75
653.569	13.75
654.328	12.75
655.087	10.75
655.846	10.75
656.604	13.75
657.363	12.75
658.121	11.75
658.88	11.75
659.638	13.75
660.397	10.75
661.155	12.75
661.913	10.75
662.671	11.75
663.429	9.75
664.187	7.75
664.945	10.75
665.703	8.75
666.46	8.75
667.218	9.75
667.976	10.75
668.733	10.75
669.49	9.75
670.248	8.75
671.005	7.75
671.762	9.75
672.519	10.75
673.276	6.75
674.033	9.75
674.79	7.75
675.547	8.75
676.304	9.75
677.06	8.75
677.817	6.75
678.574	8.75
679.33	9.75
680.086	6.75
680.843	7.75
681.599	8.75
682.355	8.75
683.111	7.75
683.867	7.75
684.623	8.75
685.379	7.75
686.135	7.75
686.89	7.75
687.646	7.75
688.402	6.75
689.157	9.75
689.912	7.75
690.668	8.75
691.423	6.75
692.178	6.75
692.933	7.75
693.688	7.75
694.443	7.75
695.198	7.75
695.953	8.75
696.708	6.75
697.462	6.75
698.217	8.75
698.972	5.75
699.726	8.75
700.48	6.75
701.235	7.75
701.989	6.75
702.743	7.75
703.497	6.75
704.251	9.75
705.005	7.75
705.759	8.75
706.513	6.75
707.266	7.75
708.02	5.75
708.774	7.75
709.527	7.75
710.28	8.75
711.034	6.75
711.787	6.75
712.54	6.75
713.293	7.75
714.046	7.75
714.799	8.75
715.552	4.75
716.305	7.75
717.058	6.75
717.81	3.75
718.563	9.75
719.315	6.75
720.068	6.75
720.82	7.75
721.573	7.75
722.325	4.75
723.077	6.75
723.829	10.75
724.581	7.75
725.333	5.75
726.085	8.75
726.836	5.75
727.588	9.75
728.34	9.75
729.091	7.75
729.843	8.75
730.594	6.75
731.346	8.75
732.097	6.75
732.848	9.75
733.599	8.75
734.35	9.75
735.101	10.75
735.852	8.75
736.603	10.75
737.354	7.75
738.104	8.75
738.855	8.75
739.605	9.75
740.356	7.75
741.106	8.75
741.856	7.75
742.607	8.75
743.357	10.75
744.107	7.75
744.857	6.75
745.607	7.75
746.357	5.75
747.106	7.75
747.856	10.75
748.606	8.75
749.355	8.75
750.105	9.75
750.854	11.75
751.603	8.75
752.353	9.75
753.102	12.75
753.851	9.75
754.6	10.75
755.349	8.75
756.098	11.75
756.847	9.75
757.595	9.75
758.344	8.75
759.093	9.75
759.841	10.75
760.589	7.75
761.338	10.75
762.086	10.75
762.834	9.75
763.582	9.75
764.331	9.75
765.079	12.75
765.826	12.75
766.574	12.75
767.322	13.75
768.07	12.75
768.817	13.75
769.565	12.75
770.312	14.75
771.06	12.75
771.807	15.75
772.554	13.75
773.302	11.75
774.049	14.75
774.796	14.75
775.543	14.75
776.29	14.75
777.036	14.75
777.783	14.75
778.53	14.75
779.276	15.75
780.023	14.75
780.769	14.75
781.516	15.75
782.262	11.75
783.008	14.75
783.754	11.75
784.5	13.75
785.246	13.75
785.992	10.75
786.738	14.75
787.484	17.75
788.23	12.75
788.975	14.75
789.721	12.75
790.466	13.75
791.212	13.75
791.957	10.75
792.702	13.75
793.447	13.75
794.193	14.75
794.938	12.75
795.683	12.75
796.427	11.75
797.172	12.75
797.917	11.75
798.662	12.75
799.406	11.75
800.151	11.75
800.895	12.75
801.64	9.75
802.384	10.75
803.128	11.75
803.872	8.75
804.616	10.75
805.36	10.75
806.104	11.75
806.848	6.75
807.592	7.75
808.336	8.75
809.079	9.75
809.823	10.75
810.566	9.75
811.31	8.75
812.053	9.75
812.796	10.75
813.539	10.75
814.283	9.75
815.026	9.75
815.769	6.75
816.511	7.75
817.254	6.75
817.997	9.75
818.74	6.75
819.482	4.75
820.225	8.75
820.967	8.75
821.71	6.75
822.452	7.75
823.194	6.75
823.936	7.75
824.678	4.75
825.42	6.75
826.162	5.75
826.904	8.75
827.646	4.75
828.388	5.75
829.129	6.75
829.871	4.75
830.612	8.75
831.354	3.75
832.095	5.75
832.836	6.75
833.577	5.75
834.319	7.75
835.06	4.75
835.801	6.75
836.542	4.75
837.282	4.75
838.023	6.75
838.764	2.75
839.504	3.75
840.245	5.75
840.985	7.75
841.726	5.75
842.466	4.75
843.206	4.75
843.946	3.75
844.687	5.75
845.427	4.75
846.166	2.75
846.906	3.75
847.646	3.75
848.386	4.75
849.125	4.75
849.865	4.75
850.605	3.75
851.344	2.75
852.083	4.75
852.823	4.75
853.562	5.75
854.301	5.75
855.04	2.75
855.779	5.75
856.518	4.75
857.257	4.75
857.995	4.75
858.734	2.75
859.473	2.75
860.211	2.75
860.95	1.75
861.688	0.75
862.426	2.75
863.165	0.75
863.903	3.75
864.641	5.75
865.379	3.75
866.117	3.75
866.855	3.75
867.593	2.75
868.33	2.75
869.068	2.75
869.806	2.75
870.543	0.75
871.28	3.75
872.018	1.75
872.755	0.75
873.492	3.75
874.229	1.75
874.967	4.75
875.703	1.75
876.44	2.75
877.177	1.75
877.914	0.75
878.651	0.75
879.387	0.75
880.124	2.75
880.86	-0.25
881.597	1.75
882.333	-0.25
883.069	2.75
883.806	0.75
884.542	2.75
885.278	2.75
886.014	-0.25
886.749	3.75
887.485	2.75
888.221	0.75
888.957	2.75
889.692	-1.25
890.428	0.75
891.163	1.75
891.899	2.75
892.634	1.75
893.369	0.75
894.104	-0.25
894.839	2.75
895.574	2.75
896.309	0.75
897.044	1.75
897.779	2.75
898.514	-2.25
899.248	0.75
899.983	1.75
900.717	0.75
901.452	0.75
902.186	-0.25
902.92	0.75
903.654	0.75
904.389	0.75
905.123	1.75
905.857	-1.25
906.59	-0.25
907.324	0.75
908.058	1.75
908.792	0.75
909.525	1.75
910.259	-0.25
910.992	-0.25
911.726	0.75
912.459	0.75
913.192	0.75
913.925	-1.25
914.658	1.75
915.391	-0.25
916.124	-1.25
916.857	-0.25
917.59	1.75
918.323	-1.25
919.055	2.75
919.788	-1.25
920.521	-0.25
921.253	1.75
921.985	2.75
922.718	-1.25
923.45	0.75
924.182	1.75
924.914	-0.25
925.646	2.75
926.378	0.75
927.11	0.75
927.841	-0.25
928.573	0.75
929.305	-0.25
930.036	-0.25
930.768	0.75
931.499	-0.25
932.23	0.75
932.962	-2.25
933.693	0.75
934.424	1.75
935.155	-1.25
935.886	0.75
936.617	1.75
937.348	-1.25
938.078	-1.25
938.809	-0.25
939.54	-1.25
940.27	-3.25
941.001	-0.25
941.731	-0.25
942.461	-0.25
943.191	-1.25
943.922	0.75
944.652	0.75
945.382	-2.25
946.112	0.75
946.841	-0.25
947.571	-0.25
948.301	-0.25
949.031	0.75
949.76	-0.25
950.49	-1.25
951.219	-1.25
951.948	-0.25
952.678	-2.25
953.407	1.75
954.136	1.75
954.865	0.75
955.594	1.75
956.323	-2.25
957.052	-0.25
957.78	-2.25
958.509	0.75
959.238	-1.25
959.966	0.75
960.695	-0.25
961.423	-0.25
962.151	0.75
962.88	0.75
963.608	0.75
964.336	-1.25
965.064	-1.25
965.792	-0.25
966.52	0.75
967.247	0.75
967.975	1.75
968.703	0.75
969.43	-0.25
970.158	-1.25
970.885	0.75
971.613	-1.25
972.34	0.75
973.067	-1.25
973.794	0.75
974.521	1.75
975.248	1.75
975.975	0.75
976.702	-1.25
977.429	-0.25
978.156	-0.25
978.882	-0.25
979.609	-1.25
980.335	0.75
981.062	1.75
981.788	1.75
982.514	-0.25
983.24	0.75
983.967	-0.25
984.693	1.75
985.419	-1.25
986.144	0.75
986.87	-1.25
987.596	-2.25
988.322	-0.25
989.047	-1.25
989.773	-0.25
990.498	0.75
991.224	-0.25
991.949	-1.25
992.674	0.75
993.399	1.75
994.124	-1.25
994.849	-0.25
995.574	-2.25
996.299	0.75
997.024	0.75
997.749	0.75
998.473	1.75
999.198	0.75
999.922	-0.25
1000.647	1.75
1001.371	3.75
1002.095	-1.25
1002.82	-0.25
1003.544	-2.25
1004.268	2.75
1004.992	2.75
1005.716	5.75
1006.439	1.75
1007.163	6.75
1007.887	5.75
1008.611	-1.25
1009.334	-0.25
1010.058	1.75
1010.781	0.75
1011.504	-1.25
1012.228	-1.25
1012.951	-0.25
1013.674	-0.25
1014.397	-0.25
1015.12	0.75
