节点500_705_QEPB04081__518__20-53-14-779.txt的数据

Date: Wed Nov 12 20:53:14 CST 2025
User: PC
Spectrometer: QEPB0408
触发模式: 0
积分时间 (秒): 1.000000E-2
Scans to average: 1
启用暗噪声校正: true
启用非线性校正: false
滑动平均宽度: 0
X轴模式: Wavelengths
Number of Pixels in Spectrum: 1044
>>>>>Begin Spectral Data<<<<<
220.843	5.62
221.644	4.62
222.444	3.62
223.244	8.62
224.045	5.62
224.845	5.62
225.645	5.62
226.445	9.62
227.245	6.62
228.045	8.62
228.845	8.62
229.645	9.62
230.444	6.62
231.244	10.62
232.043	8.62
232.843	7.62
233.642	10.62
234.442	8.62
235.241	11.62
236.04	7.62
236.839	9.62
237.638	7.62
238.437	10.62
239.236	12.62
240.035	10.62
240.833	13.62
241.632	10.62
242.43	13.62
243.229	11.62
244.027	13.62
244.826	11.62
245.624	12.62
246.422	12.62
247.22	13.62
248.018	11.62
248.816	12.62
249.614	15.62
250.412	14.62
251.21	15.62
252.007	17.62
252.805	15.62
253.602	16.62
254.4	15.62
255.197	13.62
255.994	21.62
256.791	18.62
257.589	16.62
258.386	19.62
259.183	17.62
259.979	19.62
260.776	22.62
261.573	25.62
262.37	21.62
263.166	23.62
263.963	24.62
264.759	23.62
265.556	22.62
266.352	24.62
267.148	27.62
267.944	27.62
268.74	27.62
269.536	26.62
270.332	28.62
271.128	26.62
271.924	26.62
272.719	29.62
273.515	30.62
274.311	29.62
275.106	29.62
275.901	30.62
276.697	34.62
277.492	31.62
278.287	29.62
279.082	33.62
279.877	34.62
280.672	32.62
281.467	30.62
282.262	31.62
283.056	33.62
283.851	36.62
284.646	31.62
285.44	32.62
286.234	35.62
287.029	31.62
287.823	32.62
288.617	31.62
289.411	33.62
290.205	28.62
290.999	28.62
291.793	31.62
292.587	32.62
293.381	29.62
294.174	29.62
294.968	29.62
295.761	28.62
296.555	26.62
297.348	28.62
298.141	23.62
298.935	25.62
299.728	26.62
300.521	22.62
301.314	26.62
302.107	22.62
302.899	24.62
303.692	21.62
304.485	22.62
305.277	22.62
306.07	23.62
306.862	25.62
307.655	22.62
308.447	22.62
309.239	21.62
310.031	20.62
310.823	19.62
311.615	18.62
312.407	19.62
313.199	18.62
313.991	15.62
314.783	20.62
315.574	14.62
316.366	18.62
317.157	15.62
317.949	15.62
318.74	12.62
319.531	15.62
320.322	12.62
321.113	13.62
321.904	15.62
322.695	14.62
323.486	14.62
324.277	14.62
325.068	12.62
325.858	10.62
326.649	13.62
327.439	13.62
328.23	15.62
329.02	9.62
329.81	11.62
330.6	10.62
331.391	14.62
332.181	12.62
332.971	11.62
333.76	13.62
334.55	11.62
335.34	14.62
336.13	9.62
336.919	11.62
337.709	12.62
338.498	11.62
339.287	9.62
340.077	9.62
340.866	11.62
341.655	11.62
342.444	11.62
343.233	11.62
344.022	12.62
344.811	11.62
345.6	12.62
346.388	13.62
347.177	12.62
347.965	9.62
348.754	10.62
349.542	11.62
350.33	10.62
351.119	11.62
351.907	11.62
352.695	12.62
353.483	10.62
354.271	10.62
355.059	10.62
355.846	11.62
356.634	11.62
357.422	12.62
358.209	10.62
358.997	11.62
359.784	10.62
360.571	11.62
361.359	10.62
362.146	8.62
362.933	11.62
363.72	12.62
364.507	8.62
365.294	10.62
366.081	11.62
366.867	11.62
367.654	9.62
368.44	11.62
369.227	9.62
370.013	9.62
370.8	9.62
371.586	10.62
372.372	8.62
373.158	10.62
373.944	8.62
374.73	11.62
375.516	13.62
376.302	10.62
377.088	10.62
377.873	8.62
378.659	11.62
379.445	7.62
380.23	11.62
381.015	9.62
381.801	8.62
382.586	11.62
383.371	8.62
384.156	8.62
384.941	11.62
385.726	9.62
386.511	8.62
387.296	10.62
388.08	12.62
388.865	10.62
389.649	12.62
390.434	11.62
391.218	10.62
392.003	11.62
392.787	11.62
393.571	12.62
394.355	11.62
395.139	14.62
395.923	14.62
396.707	11.62
397.491	13.62
398.274	11.62
399.058	12.62
399.842	13.62
400.625	15.62
401.408	14.62
402.192	12.62
402.975	14.62
403.758	13.62
404.541	14.62
405.324	15.62
406.107	13.62
406.89	14.62
407.673	13.62
408.456	15.62
409.238	15.62
410.021	14.62
410.803	16.62
411.586	15.62
412.368	18.62
413.151	16.62
413.933	17.62
414.715	17.62
415.497	18.62
416.279	17.62
417.061	19.62
417.843	19.62
418.624	19.62
419.406	21.62
420.188	20.62
420.969	20.62
421.751	24.62
422.532	21.62
423.313	21.62
424.095	25.62
424.876	25.62
425.657	25.62
426.438	26.62
427.219	23.62
428	27.62
428.78	26.62
429.561	27.62
430.342	28.62
431.122	31.62
431.903	35.62
432.683	33.62
433.464	36.62
434.244	38.62
435.024	38.62
435.804	39.62
436.584	44.62
437.364	43.62
438.144	50.62
438.924	51.62
439.704	54.62
440.483	59.62
441.263	60.62
442.042	66.62
442.822	72.62
443.601	74.62
444.38	81.62
445.16	84.62
445.939	101.62
446.718	108.62
447.497	119.62
448.276	126.62
449.054	140.62
449.833	155.62
450.612	172.62
451.391	188.62
452.169	208.62
452.948	231.62
453.726	259.62
454.504	284.62
455.282	317.62
456.061	355.62
456.839	383.62
457.617	437.62
458.395	482.62
459.172	528.62
459.95	601.62
460.728	662.62
461.506	739.62
462.283	806.62
463.061	905.62
463.838	1010.62
464.615	1123.62
465.393	1238.62
466.17	1370.62
466.947	1525.62
467.724	1686.62
468.501	1862.62
469.278	2068.62
470.055	2264.62
470.831	2501.62
471.608	2762.62
472.385	3037.62
473.161	3309.62
473.938	3620.62
474.714	3978.62
475.49	4372.62
476.266	4765.62
477.043	5172.62
477.819	5615.62
478.595	6165.62
479.371	6708.62
480.146	7280.62
480.922	7923.62
481.698	8565.62
482.473	9297.62
483.249	10085.62
484.024	10935.62
484.8	11776.62
485.575	12766.62
486.35	13751.62
487.126	14845.62
487.901	15976.62
488.676	17276.62
489.451	18529.62
490.225	19922.62
491	21321.62
491.775	22742.62
492.55	24299.62
493.324	25890.62
494.099	27442.62
494.873	29038.62
495.647	30743.62
496.422	32405.62
497.196	33964.62
497.97	35548.62
498.744	37096.62
499.518	38594.62
500.292	39960.62
501.066	41068.62
501.839	41967.62
502.613	42899.62
503.387	43676.62
504.16	44197.62
504.934	44489.62
505.707	44681.62
506.48	44538.62
507.253	44297.62
508.027	43851.62
508.8	43161.62
509.573	42401.62
510.346	41540.62
511.118	40788.62
511.891	39729.62
512.664	38357.62
513.437	37075.62
514.209	35737.62
514.982	34447.62
515.754	33108.62
516.526	31831.62
517.298	30602.62
518.071	29472.62
518.843	28332.62
519.615	27203.62
520.387	26075.62
521.159	25129.62
521.93	24072.62
522.702	23040.62
523.474	22078.62
524.245	21242.62
525.017	20371.62
525.788	19509.62
526.56	18642.62
527.331	17873.62
528.102	16973.62
528.873	16130.62
529.644	15404.62
530.415	14739.62
531.186	14023.62
531.957	13294.62
532.728	12719.62
533.498	12031.62
534.269	11450.62
535.039	10823.62
535.81	10207.62
536.58	9697.62
537.351	9177.62
538.121	8712.62
538.891	8248.62
539.661	7759.62
540.431	7361.62
541.201	6984.62
541.971	6634.62
542.741	6269.62
543.51	5953.62
544.28	5683.62
545.05	5390.62
545.819	5170.62
546.588	4911.62
547.358	4671.62
548.127	4437.62
548.896	4222.62
549.665	4014.62
550.434	3807.62
551.203	3598.62
551.972	3427.62
552.741	3246.62
553.51	3073.62
554.278	2895.62
555.047	2729.62
555.815	2597.62
556.584	2451.62
557.352	2326.62
558.121	2194.62
558.889	2066.62
559.657	1965.62
560.425	1855.62
561.193	1759.62
561.961	1683.62
562.729	1582.62
563.496	1496.62
564.264	1403.62
565.032	1333.62
565.799	1267.62
566.567	1184.62
567.334	1128.62
568.101	1063.62
568.869	1010.62
569.636	938.62
570.403	893.62
571.17	850.62
571.937	803.62
572.704	755.62
573.471	714.62
574.237	671.62
575.004	627.62
575.771	599.62
576.537	567.62
577.303	533.62
578.07	502.62
578.836	471.62
579.602	446.62
580.368	426.62
581.134	405.62
581.9	383.62
582.666	362.62
583.432	351.62
584.198	329.62
584.964	316.62
585.729	303.62
586.495	277.62
587.26	265.62
588.025	248.62
588.791	239.62
589.556	223.62
590.321	219.62
591.086	211.62
591.851	195.62
592.616	184.62
593.381	178.62
594.146	168.62
594.911	165.62
595.675	153.62
596.44	146.62
597.204	135.62
597.969	132.62
598.733	126.62
599.497	124.62
600.261	118.62
601.025	116.62
601.79	103.62
602.553	104.62
603.317	100.62
604.081	95.62
604.845	89.62
605.609	89.62
606.372	82.62
607.136	77.62
607.899	81.62
608.662	75.62
609.426	69.62
610.189	69.62
610.952	66.62
611.715	65.62
612.478	63.62
613.241	54.62
614.004	59.62
614.767	53.62
615.529	54.62
616.292	52.62
617.055	52.62
617.817	49.62
618.579	47.62
619.342	42.62
620.104	43.62
620.866	43.62
621.628	43.62
622.39	38.62
623.152	38.62
623.914	35.62
624.676	36.62
625.438	37.62
626.199	31.62
626.961	31.62
627.722	33.62
628.484	32.62
629.245	28.62
630.006	30.62
630.768	30.62
631.529	30.62
632.29	26.62
633.051	26.62
633.812	27.62
634.573	27.62
635.333	22.62
636.094	22.62
636.855	22.62
637.615	19.62
638.376	22.62
639.136	18.62
639.896	21.62
640.657	20.62
641.417	17.62
642.177	20.62
642.937	19.62
643.697	19.62
644.457	15.62
645.216	18.62
645.976	16.62
646.736	16.62
647.495	12.62
648.255	15.62
649.014	17.62
649.774	13.62
650.533	15.62
651.292	12.62
652.051	14.62
652.81	13.62
653.569	15.62
654.328	15.62
655.087	14.62
655.846	11.62
656.604	13.62
657.363	11.62
658.121	13.62
658.88	12.62
659.638	11.62
660.397	11.62
661.155	9.62
661.913	9.62
662.671	10.62
663.429	12.62
664.187	9.62
664.945	12.62
665.703	11.62
666.46	13.62
667.218	9.62
667.976	9.62
668.733	11.62
669.49	10.62
670.248	10.62
671.005	8.62
671.762	7.62
672.519	9.62
673.276	9.62
674.033	10.62
674.79	7.62
675.547	9.62
676.304	8.62
677.06	10.62
677.817	6.62
678.574	8.62
679.33	6.62
680.086	10.62
680.843	8.62
681.599	7.62
682.355	7.62
683.111	9.62
683.867	8.62
684.623	9.62
685.379	9.62
686.135	10.62
686.89	6.62
687.646	7.62
688.402	9.62
689.157	5.62
689.912	8.62
690.668	8.62
691.423	7.62
692.178	9.62
692.933	6.62
693.688	9.62
694.443	8.62
695.198	10.62
695.953	9.62
696.708	9.62
697.462	10.62
698.217	7.62
698.972	8.62
699.726	4.62
700.48	6.62
701.235	8.62
701.989	8.62
702.743	7.62
703.497	5.62
704.251	7.62
705.005	5.62
705.759	7.62
706.513	6.62
707.266	7.62
708.02	9.62
708.774	7.62
709.527	10.62
710.28	10.62
711.034	5.62
711.787	9.62
712.54	7.62
713.293	8.62
714.046	7.62
714.799	8.62
715.552	9.62
716.305	7.62
717.058	11.62
717.81	10.62
718.563	9.62
719.315	7.62
720.068	8.62
720.82	7.62
721.573	9.62
722.325	7.62
723.077	9.62
723.829	6.62
724.581	7.62
725.333	6.62
726.085	8.62
726.836	7.62
727.588	9.62
728.34	8.62
729.091	8.62
729.843	10.62
730.594	8.62
731.346	8.62
732.097	9.62
732.848	8.62
733.599	8.62
734.35	7.62
735.101	8.62
735.852	9.62
736.603	9.62
737.354	7.62
738.104	9.62
738.855	11.62
739.605	8.62
740.356	9.62
741.106	7.62
741.856	11.62
742.607	11.62
743.357	8.62
744.107	11.62
744.857	9.62
745.607	11.62
746.357	9.62
747.106	10.62
747.856	9.62
748.606	10.62
749.355	10.62
750.105	13.62
750.854	8.62
751.603	10.62
752.353	9.62
753.102	10.62
753.851	12.62
754.6	11.62
755.349	11.62
756.098	12.62
756.847	11.62
757.595	11.62
758.344	12.62
759.093	11.62
759.841	11.62
760.589	11.62
761.338	9.62
762.086	13.62
762.834	13.62
763.582	13.62
764.331	13.62
765.079	11.62
765.826	12.62
766.574	13.62
767.322	12.62
768.07	15.62
768.817	14.62
769.565	15.62
770.312	15.62
771.06	14.62
771.807	14.62
772.554	16.62
773.302	15.62
774.049	11.62
774.796	12.62
775.543	11.62
776.29	15.62
777.036	12.62
777.783	17.62
778.53	14.62
779.276	12.62
780.023	15.62
780.769	13.62
781.516	18.62
782.262	14.62
783.008	16.62
783.754	14.62
784.5	12.62
785.246	13.62
785.992	17.62
786.738	15.62
787.484	17.62
788.23	14.62
788.975	13.62
789.721	12.62
790.466	17.62
791.212	15.62
791.957	13.62
792.702	15.62
793.447	13.62
794.193	15.62
794.938	11.62
795.683	13.62
796.427	14.62
797.172	13.62
797.917	13.62
798.662	11.62
799.406	14.62
800.151	11.62
800.895	11.62
801.64	10.62
802.384	9.62
803.128	13.62
803.872	9.62
804.616	11.62
805.36	12.62
806.104	10.62
806.848	8.62
807.592	10.62
808.336	12.62
809.079	11.62
809.823	7.62
810.566	8.62
811.31	13.62
812.053	9.62
812.796	9.62
813.539	8.62
814.283	8.62
815.026	8.62
815.769	7.62
816.511	9.62
817.254	9.62
817.997	6.62
818.74	10.62
819.482	8.62
820.225	9.62
820.967	7.62
821.71	7.62
822.452	6.62
823.194	5.62
823.936	9.62
824.678	9.62
825.42	8.62
826.162	8.62
826.904	6.62
827.646	8.62
828.388	7.62
829.129	8.62
829.871	5.62
830.612	7.62
831.354	6.62
832.095	7.62
832.836	5.62
833.577	9.62
834.319	5.62
835.06	7.62
835.801	6.62
836.542	5.62
837.282	3.62
838.023	5.62
838.764	6.62
839.504	5.62
840.245	6.62
840.985	3.62
841.726	5.62
842.466	7.62
843.206	5.62
843.946	7.62
844.687	6.62
845.427	6.62
846.166	5.62
846.906	8.62
847.646	5.62
848.386	5.62
849.125	6.62
849.865	5.62
850.605	6.62
851.344	4.62
852.083	6.62
852.823	7.62
853.562	3.62
854.301	5.62
855.04	4.62
855.779	6.62
856.518	8.62
857.257	3.62
857.995	4.62
858.734	4.62
859.473	5.62
860.211	5.62
860.95	5.62
861.688	3.62
862.426	2.62
863.165	2.62
863.903	3.62
864.641	3.62
865.379	0.62
866.117	3.62
866.855	1.62
867.593	1.62
868.33	2.62
869.068	1.62
869.806	4.62
870.543	3.62
871.28	2.62
872.018	3.62
872.755	3.62
873.492	3.62
874.229	3.62
874.967	2.62
875.703	3.62
876.44	2.62
877.177	2.62
877.914	3.62
878.651	2.62
879.387	0.62
880.124	3.62
880.86	3.62
881.597	2.62
882.333	5.62
883.069	1.62
883.806	2.62
884.542	2.62
885.278	2.62
886.014	3.62
886.749	2.62
887.485	1.62
888.221	1.62
888.957	1.62
889.692	1.62
890.428	1.62
891.163	2.62
891.899	-0.38
892.634	0.62
893.369	0.62
894.104	1.62
894.839	0.62
895.574	1.62
896.309	3.62
897.044	2.62
897.779	0.62
898.514	2.62
899.248	0.62
899.983	1.62
900.717	-1.38
901.452	0.62
902.186	1.62
902.92	-0.38
903.654	2.62
904.389	0.62
905.123	4.62
905.857	-0.38
906.59	2.62
907.324	-0.38
908.058	0.62
908.792	-0.38
909.525	0.62
910.259	0.62
910.992	0.62
911.726	1.62
912.459	0.62
913.192	0.62
913.925	0.62
914.658	2.62
915.391	1.62
916.124	1.62
916.857	0.62
917.59	-1.38
918.323	2.62
919.055	2.62
919.788	-0.38
920.521	-0.38
921.253	2.62
921.985	-0.38
922.718	1.62
923.45	1.62
924.182	1.62
924.914	0.62
925.646	-0.38
926.378	1.62
927.11	-1.38
927.841	1.62
928.573	-0.38
929.305	1.62
930.036	1.62
930.768	1.62
931.499	1.62
932.23	1.62
932.962	-0.38
933.693	1.62
934.424	2.62
935.155	2.62
935.886	0.62
936.617	2.62
937.348	0.62
938.078	3.62
938.809	2.62
939.54	-0.38
940.27	2.62
941.001	-0.38
941.731	2.62
942.461	0.62
943.191	1.62
943.922	-0.38
944.652	1.62
945.382	0.62
946.112	0.62
946.841	3.62
947.571	0.62
948.301	-0.38
949.031	-0.38
949.76	2.62
950.49	1.62
951.219	-0.38
951.948	-0.38
952.678	2.62
953.407	-0.38
954.136	4.62
954.865	1.62
955.594	-0.38
956.323	-0.38
957.052	0.62
957.78	0.62
958.509	-0.38
959.238	0.62
959.966	-0.38
960.695	1.62
961.423	1.62
962.151	-0.38
962.88	1.62
963.608	0.62
964.336	2.62
965.064	0.62
965.792	2.62
966.52	2.62
967.247	-0.38
967.975	-0.38
968.703	1.62
969.43	-0.38
970.158	-0.38
970.885	0.62
971.613	-1.38
972.34	1.62
973.067	0.62
973.794	-1.38
974.521	2.62
975.248	-0.38
975.975	1.62
976.702	-0.38
977.429	-0.38
978.156	3.62
978.882	1.62
979.609	1.62
980.335	-2.38
981.062	3.62
981.788	3.62
982.514	-0.38
983.24	0.62
983.967	1.62
984.693	1.62
985.419	1.62
986.144	1.62
986.87	1.62
987.596	0.62
988.322	2.62
989.047	0.62
989.773	0.62
990.498	1.62
991.224	0.62
991.949	2.62
992.674	2.62
993.399	0.62
994.124	0.62
994.849	1.62
995.574	-0.38
996.299	1.62
997.024	0.62
997.749	-0.38
998.473	0.62
999.198	1.62
999.922	-1.38
1000.647	0.62
1001.371	3.62
1002.095	-0.38
1002.82	-0.38
1003.544	-1.38
1004.268	7.62
1004.992	5.62
1005.716	4.62
1006.439	4.62
1007.163	5.62
1007.887	5.62
1008.611	1.62
1009.334	-0.38
1010.058	0.62
1010.781	-1.38
1011.504	1.62
1012.228	0.62
1012.951	0.62
1013.674	-1.38
1014.397	-1.38
1015.12	0.62
