节点500_705_QEPB04081__21__20-46-14-341.txt的数据

Date: Wed Nov 12 20:46:14 CST 2025
User: PC
Spectrometer: QEPB0408
触发模式: 0
积分时间 (秒): 1.000000E-2
Scans to average: 1
启用暗噪声校正: true
启用非线性校正: false
滑动平均宽度: 0
X轴模式: Wavelengths
Number of Pixels in Spectrum: 1044
>>>>>Begin Spectral Data<<<<<
220.843	6
221.644	5
222.444	6
223.244	8
224.045	6
224.845	7
225.645	7
226.445	8
227.245	6
228.045	8
228.845	8
229.645	6
230.444	7
231.244	9
232.043	11
232.843	8
233.642	8
234.442	9
235.241	9
236.04	10
236.839	10
237.638	11
238.437	12
239.236	10
240.035	11
240.833	14
241.632	14
242.43	11
243.229	13
244.027	14
244.826	12
245.624	12
246.422	13
247.22	14
248.018	13
248.816	16
249.614	16
250.412	18
251.21	18
252.007	17
252.805	18
253.602	18
254.4	19
255.197	20
255.994	20
256.791	19
257.589	20
258.386	22
259.183	23
259.979	23
260.776	22
261.573	24
262.37	26
263.166	24
263.963	30
264.759	26
265.556	27
266.352	29
267.148	28
267.944	29
268.74	29
269.536	31
270.332	28
271.128	29
271.924	32
272.719	35
273.515	33
274.311	32
275.106	33
275.901	35
276.697	32
277.492	34
278.287	37
279.082	30
279.877	38
280.672	36
281.467	38
282.262	34
283.056	36
283.851	35
284.646	32
285.44	33
286.234	32
287.029	34
287.823	34
288.617	31
289.411	31
290.205	29
290.999	34
291.793	28
292.587	31
293.381	29
294.174	26
294.968	28
295.761	28
296.555	26
297.348	28
298.141	26
298.935	29
299.728	24
300.521	26
301.314	23
302.107	22
302.899	20
303.692	22
304.485	21
305.277	21
306.07	21
306.862	20
307.655	20
308.447	17
309.239	18
310.031	18
310.823	20
311.615	18
312.407	16
313.199	15
313.991	20
314.783	18
315.574	16
316.366	13
317.157	15
317.949	14
318.74	14
319.531	15
320.322	13
321.113	16
321.904	11
322.695	13
323.486	15
324.277	14
325.068	17
325.858	13
326.649	11
327.439	12
328.23	10
329.02	11
329.81	12
330.6	9
331.391	12
332.181	12
332.971	10
333.76	13
334.55	11
335.34	10
336.13	12
336.919	11
337.709	11
338.498	11
339.287	11
340.077	11
340.866	11
341.655	11
342.444	12
343.233	11
344.022	13
344.811	10
345.6	11
346.388	12
347.177	14
347.965	9
348.754	9
349.542	12
350.33	11
351.119	11
351.907	10
352.695	11
353.483	11
354.271	10
355.059	12
355.846	10
356.634	12
357.422	11
358.209	9
358.997	9
359.784	13
360.571	9
361.359	10
362.146	12
362.933	10
363.72	10
364.507	8
365.294	11
366.081	9
366.867	10
367.654	9
368.44	8
369.227	8
370.013	9
370.8	7
371.586	9
372.372	9
373.158	11
373.944	11
374.73	10
375.516	8
376.302	9
377.088	9
377.873	11
378.659	9
379.445	10
380.23	8
381.015	10
381.801	8
382.586	11
383.371	11
384.156	11
384.941	10
385.726	9
386.511	10
387.296	8
388.08	10
388.865	10
389.649	11
390.434	10
391.218	10
392.003	13
392.787	15
393.571	11
394.355	12
395.139	11
395.923	15
396.707	13
397.491	11
398.274	13
399.058	13
399.842	17
400.625	13
401.408	13
402.192	14
402.975	13
403.758	15
404.541	14
405.324	15
406.107	15
406.89	15
407.673	15
408.456	13
409.238	17
410.021	14
410.803	18
411.586	18
412.368	17
413.151	17
413.933	23
414.715	18
415.497	20
416.279	19
417.061	20
417.843	20
418.624	21
419.406	17
420.188	19
420.969	21
421.751	21
422.532	24
423.313	21
424.095	26
424.876	21
425.657	26
426.438	27
427.219	24
428	28
428.78	25
429.561	29
430.342	29
431.122	30
431.903	31
432.683	31
433.464	33
434.244	32
435.024	37
435.804	38
436.584	37
437.364	43
438.144	47
438.924	47
439.704	47
440.483	55
441.263	56
442.042	58
442.822	61
443.601	64
444.38	68
445.16	75
445.939	87
446.718	90
447.497	93
448.276	109
449.054	112
449.833	127
450.612	140
451.391	149
452.169	169
452.948	184
453.726	202
454.504	226
455.282	254
456.061	280
456.839	312
457.617	346
458.395	385
459.172	438
459.95	494
460.728	549
461.506	609
462.283	687
463.061	767
463.838	849
464.615	948
465.393	1071
466.17	1181
466.947	1338
467.724	1470
468.501	1665
469.278	1841
470.055	2057
470.831	2269
471.608	2532
472.385	2800
473.161	3106
473.938	3445
474.714	3814
475.49	4197
476.266	4611
477.043	5126
477.819	5601
478.595	6173
479.371	6759
480.146	7426
480.922	8185
481.698	9016
482.473	9861
483.249	10755
484.024	11749
484.8	12846
485.575	13994
486.35	15256
487.126	16579
487.901	17978
488.676	19526
489.451	21143
490.225	22765
491	24525
491.775	26305
492.55	28114
493.324	29988
494.099	31906
494.873	33734
495.647	35619
496.422	37411
497.196	39242
497.97	40888
498.744	42292
499.518	43809
500.292	45058
501.066	45774
501.839	46408
502.613	46953
503.387	47206
504.16	47416
504.934	47082
505.707	46563
506.48	45935
507.253	45029
508.027	44022
508.8	42775
509.573	41504
510.346	40141
511.118	38834
511.891	37494
512.664	35875
513.437	34378
514.209	32927
514.982	31654
515.754	30198
516.526	28903
517.298	27743
518.071	26600
518.843	25499
519.615	24479
520.387	23498
521.159	22526
521.93	21580
522.702	20608
523.474	19766
524.245	18851
525.017	18063
525.788	17244
526.56	16484
527.331	15667
528.102	14855
528.873	14066
529.644	13407
530.415	12749
531.186	12031
531.957	11427
532.728	10796
533.498	10208
534.269	9623
535.039	9106
535.81	8587
536.58	8122
537.351	7701
538.121	7314
538.891	6913
539.661	6542
540.431	6170
541.201	5840
541.971	5554
542.741	5245
543.51	4987
544.28	4728
545.05	4554
545.819	4302
546.588	4091
547.358	3895
548.127	3727
548.896	3504
549.665	3331
550.434	3163
551.203	2975
551.972	2804
552.741	2661
553.51	2522
554.278	2363
555.047	2234
555.815	2125
556.584	1996
557.352	1898
558.121	1789
558.889	1667
559.657	1584
560.425	1504
561.193	1429
561.961	1344
562.729	1266
563.496	1200
564.264	1129
565.032	1074
565.799	1026
566.567	966
567.334	900
568.101	863
568.869	811
569.636	773
570.403	716
571.17	688
571.937	646
572.704	610
573.471	577
574.237	541
575.004	507
575.771	479
576.537	457
577.303	428
578.07	414
578.836	385
579.602	369
580.368	346
581.134	330
581.9	303
582.666	291
583.432	279
584.198	272
584.964	249
585.729	245
586.495	220
587.26	215
588.025	201
588.791	194
589.556	185
590.321	173
591.086	167
591.851	156
592.616	149
593.381	150
594.146	136
594.911	129
595.675	127
596.44	126
597.204	115
597.969	109
598.733	109
599.497	102
600.261	97
601.025	93
601.79	91
602.553	84
603.317	81
604.081	82
604.845	80
605.609	74
606.372	70
607.136	67
607.899	61
608.662	60
609.426	63
610.189	59
610.952	55
611.715	57
612.478	52
613.241	49
614.004	45
614.767	46
615.529	48
616.292	46
617.055	42
617.817	39
618.579	41
619.342	40
620.104	37
620.866	36
621.628	37
622.39	37
623.152	35
623.914	35
624.676	33
625.438	31
626.199	29
626.961	26
627.722	29
628.484	27
629.245	27
630.006	21
630.768	26
631.529	27
632.29	25
633.051	22
633.812	22
634.573	23
635.333	21
636.094	20
636.855	19
637.615	19
638.376	21
639.136	15
639.896	18
640.657	17
641.417	19
642.177	16
642.937	17
643.697	19
644.457	18
645.216	16
645.976	14
646.736	15
647.495	15
648.255	14
649.014	13
649.774	14
650.533	16
651.292	15
652.051	13
652.81	13
653.569	13
654.328	13
655.087	12
655.846	13
656.604	9
657.363	13
658.121	13
658.88	11
659.638	11
660.397	11
661.155	12
661.913	11
662.671	8
663.429	8
664.187	9
664.945	8
665.703	10
666.46	10
667.218	11
667.976	8
668.733	10
669.49	11
670.248	8
671.005	11
671.762	9
672.519	8
673.276	8
674.033	9
674.79	12
675.547	8
676.304	8
677.06	7
677.817	9
678.574	8
679.33	8
680.086	7
680.843	8
681.599	9
682.355	7
683.111	11
683.867	7
684.623	10
685.379	9
686.135	5
686.89	8
687.646	10
688.402	7
689.157	7
689.912	9
690.668	9
691.423	7
692.178	6
692.933	7
693.688	9
694.443	5
695.198	6
695.953	7
696.708	7
697.462	8
698.217	7
698.972	8
699.726	8
700.48	5
701.235	8
701.989	8
702.743	8
703.497	6
704.251	6
705.005	8
705.759	6
706.513	8
707.266	5
708.02	7
708.774	6
709.527	4
710.28	10
711.034	6
711.787	10
712.54	5
713.293	7
714.046	8
714.799	8
715.552	6
716.305	7
717.058	9
717.81	8
718.563	8
719.315	7
720.068	10
720.82	9
721.573	6
722.325	8
723.077	8
723.829	7
724.581	7
725.333	7
726.085	10
726.836	7
727.588	8
728.34	9
729.091	7
729.843	7
730.594	10
731.346	11
732.097	10
732.848	7
733.599	10
734.35	11
735.101	7
735.852	11
736.603	8
737.354	9
738.104	10
738.855	10
739.605	9
740.356	10
741.106	11
741.856	9
742.607	11
743.357	12
744.107	11
744.857	11
745.607	9
746.357	11
747.106	9
747.856	11
748.606	10
749.355	11
750.105	11
750.854	11
751.603	13
752.353	10
753.102	11
753.851	11
754.6	12
755.349	13
756.098	12
756.847	13
757.595	12
758.344	13
759.093	15
759.841	14
760.589	13
761.338	12
762.086	14
762.834	11
763.582	15
764.331	15
765.079	12
765.826	14
766.574	13
767.322	15
768.07	14
768.817	14
769.565	15
770.312	14
771.06	16
771.807	13
772.554	17
773.302	18
774.049	15
774.796	15
775.543	14
776.29	17
777.036	15
777.783	15
778.53	18
779.276	19
780.023	14
780.769	16
781.516	15
782.262	15
783.008	16
783.754	15
784.5	14
785.246	16
785.992	14
786.738	19
787.484	13
788.23	15
788.975	14
789.721	15
790.466	15
791.212	14
791.957	17
792.702	15
793.447	14
794.193	17
794.938	11
795.683	14
796.427	11
797.172	14
797.917	15
798.662	13
799.406	11
800.151	12
800.895	14
801.64	11
802.384	10
803.128	13
803.872	10
804.616	11
805.36	12
806.104	8
806.848	11
807.592	10
808.336	9
809.079	8
809.823	11
810.566	8
811.31	9
812.053	10
812.796	9
813.539	7
814.283	7
815.026	7
815.769	11
816.511	10
817.254	8
817.997	10
818.74	8
819.482	7
820.225	7
820.967	11
821.71	8
822.452	5
823.194	6
823.936	8
824.678	7
825.42	4
826.162	6
826.904	7
827.646	8
828.388	6
829.129	7
829.871	6
830.612	8
831.354	7
832.095	7
832.836	4
833.577	6
834.319	5
835.06	6
835.801	5
836.542	5
837.282	4
838.023	7
838.764	5
839.504	6
840.245	6
840.985	2
841.726	3
842.466	2
843.206	7
843.946	4
844.687	5
845.427	7
846.166	5
846.906	7
847.646	7
848.386	4
849.125	5
849.865	4
850.605	3
851.344	3
852.083	6
852.823	2
853.562	3
854.301	5
855.04	3
855.779	4
856.518	3
857.257	3
857.995	3
858.734	5
859.473	4
860.211	4
860.95	4
861.688	3
862.426	3
863.165	-1
863.903	3
864.641	3
865.379	1
866.117	3
866.855	4
867.593	3
868.33	3
869.068	1
869.806	3
870.543	5
871.28	2
872.018	2
872.755	1
873.492	3
874.229	1
874.967	3
875.703	4
876.44	1
877.177	1
877.914	3
878.651	1
879.387	1
880.124	2
880.86	4
881.597	1
882.333	2
883.069	2
883.806	2
884.542	3
885.278	1
886.014	4
886.749	0
887.485	3
888.221	0
888.957	3
889.692	0
890.428	0
891.163	2
891.899	2
892.634	1
893.369	0
894.104	2
894.839	2
895.574	2
896.309	0
897.044	-1
897.779	1
898.514	2
899.248	0
899.983	-1
900.717	0
901.452	2
902.186	1
902.92	3
903.654	3
904.389	1
905.123	2
905.857	0
906.59	1
907.324	3
908.058	1
908.792	-1
909.525	2
910.259	1
910.992	1
911.726	2
912.459	1
913.192	0
913.925	1
914.658	0
915.391	1
916.124	2
916.857	0
917.59	2
918.323	0
919.055	-1
919.788	-1
920.521	1
921.253	0
921.985	0
922.718	0
923.45	-1
924.182	0
924.914	-1
925.646	1
926.378	2
927.11	-1
927.841	-1
928.573	-1
929.305	5
930.036	0
930.768	1
931.499	2
932.23	0
932.962	2
933.693	2
934.424	0
935.155	2
935.886	0
936.617	0
937.348	0
938.078	-1
938.809	1
939.54	0
940.27	3
941.001	1
941.731	2
942.461	-1
943.191	0
943.922	-1
944.652	3
945.382	0
946.112	-1
946.841	3
947.571	0
948.301	1
949.031	0
949.76	-1
950.49	-1
951.219	-1
951.948	1
952.678	2
953.407	1
954.136	0
954.865	1
955.594	3
956.323	-1
957.052	1
957.78	0
958.509	0
959.238	1
959.966	1
960.695	2
961.423	-1
962.151	-1
962.88	0
963.608	-1
964.336	1
965.064	0
965.792	0
966.52	2
967.247	2
967.975	-1
968.703	1
969.43	-1
970.158	-1
970.885	2
971.613	-1
972.34	2
973.067	2
973.794	-2
974.521	1
975.248	0
975.975	1
976.702	1
977.429	-2
978.156	1
978.882	-1
979.609	1
980.335	1
981.062	-1
981.788	-1
982.514	1
983.24	1
983.967	1
984.693	2
985.419	2
986.144	0
986.87	-1
987.596	-1
988.322	1
989.047	0
989.773	1
990.498	-1
991.224	1
991.949	-1
992.674	-3
993.399	3
994.124	0
994.849	0
995.574	1
996.299	0
997.024	3
997.749	0
998.473	1
999.198	2
999.922	-1
1000.647	0
1001.371	6
1002.095	-1
1002.82	-1
1003.544	1
1004.268	7
1004.992	6
1005.716	4
1006.439	5
1007.163	4
1007.887	5
1008.611	-1
1009.334	1
1010.058	0
1010.781	-1
1011.504	2
1012.228	2
1012.951	-2
1013.674	-1
1014.397	-1
1015.12	-1
