节点500_705_QEPB04081__477__20-52-39-794.txt的数据

Date: Wed Nov 12 20:52:39 CST 2025
User: PC
Spectrometer: QEPB0408
触发模式: 0
积分时间 (秒): 1.000000E-2
Scans to average: 1
启用暗噪声校正: true
启用非线性校正: false
滑动平均宽度: 0
X轴模式: Wavelengths
Number of Pixels in Spectrum: 1044
>>>>>Begin Spectral Data<<<<<
220.843	6.75
221.644	3.75
222.444	6.75
223.244	6.75
224.045	7.75
224.845	7.75
225.645	3.75
226.445	6.75
227.245	5.75
228.045	8.75
228.845	8.75
229.645	7.75
230.444	9.75
231.244	7.75
232.043	6.75
232.843	8.75
233.642	9.75
234.442	8.75
235.241	8.75
236.04	7.75
236.839	9.75
237.638	10.75
238.437	10.75
239.236	10.75
240.035	10.75
240.833	7.75
241.632	11.75
242.43	12.75
243.229	10.75
244.027	10.75
244.826	11.75
245.624	12.75
246.422	12.75
247.22	13.75
248.018	13.75
248.816	11.75
249.614	16.75
250.412	18.75
251.21	12.75
252.007	13.75
252.805	15.75
253.602	16.75
254.4	16.75
255.197	15.75
255.994	13.75
256.791	17.75
257.589	16.75
258.386	16.75
259.183	22.75
259.979	17.75
260.776	17.75
261.573	20.75
262.37	21.75
263.166	22.75
263.963	23.75
264.759	23.75
265.556	19.75
266.352	23.75
267.148	25.75
267.944	24.75
268.74	23.75
269.536	22.75
270.332	24.75
271.128	25.75
271.924	27.75
272.719	26.75
273.515	27.75
274.311	27.75
275.106	29.75
275.901	28.75
276.697	31.75
277.492	29.75
278.287	29.75
279.082	25.75
279.877	29.75
280.672	28.75
281.467	27.75
282.262	30.75
283.056	27.75
283.851	28.75
284.646	29.75
285.44	27.75
286.234	27.75
287.029	29.75
287.823	27.75
288.617	31.75
289.411	26.75
290.205	25.75
290.999	27.75
291.793	28.75
292.587	26.75
293.381	25.75
294.174	31.75
294.968	26.75
295.761	22.75
296.555	24.75
297.348	21.75
298.141	24.75
298.935	24.75
299.728	24.75
300.521	22.75
301.314	20.75
302.107	21.75
302.899	20.75
303.692	22.75
304.485	18.75
305.277	19.75
306.07	21.75
306.862	17.75
307.655	20.75
308.447	17.75
309.239	18.75
310.031	19.75
310.823	18.75
311.615	18.75
312.407	13.75
313.199	16.75
313.991	13.75
314.783	13.75
315.574	16.75
316.366	16.75
317.157	13.75
317.949	14.75
318.74	11.75
319.531	11.75
320.322	12.75
321.113	13.75
321.904	13.75
322.695	11.75
323.486	10.75
324.277	11.75
325.068	11.75
325.858	13.75
326.649	12.75
327.439	11.75
328.23	10.75
329.02	11.75
329.81	13.75
330.6	10.75
331.391	11.75
332.181	13.75
332.971	11.75
333.76	10.75
334.55	8.75
335.34	12.75
336.13	9.75
336.919	14.75
337.709	10.75
338.498	11.75
339.287	10.75
340.077	9.75
340.866	7.75
341.655	10.75
342.444	9.75
343.233	8.75
344.022	9.75
344.811	10.75
345.6	9.75
346.388	10.75
347.177	10.75
347.965	10.75
348.754	12.75
349.542	12.75
350.33	8.75
351.119	8.75
351.907	10.75
352.695	11.75
353.483	10.75
354.271	10.75
355.059	11.75
355.846	9.75
356.634	7.75
357.422	9.75
358.209	10.75
358.997	10.75
359.784	8.75
360.571	7.75
361.359	12.75
362.146	9.75
362.933	7.75
363.72	9.75
364.507	11.75
365.294	10.75
366.081	8.75
366.867	9.75
367.654	9.75
368.44	8.75
369.227	8.75
370.013	7.75
370.8	9.75
371.586	10.75
372.372	10.75
373.158	6.75
373.944	9.75
374.73	9.75
375.516	9.75
376.302	12.75
377.088	9.75
377.873	10.75
378.659	8.75
379.445	9.75
380.23	8.75
381.015	7.75
381.801	10.75
382.586	11.75
383.371	8.75
384.156	11.75
384.941	9.75
385.726	8.75
386.511	9.75
387.296	8.75
388.08	9.75
388.865	8.75
389.649	11.75
390.434	9.75
391.218	10.75
392.003	13.75
392.787	9.75
393.571	8.75
394.355	10.75
395.139	11.75
395.923	8.75
396.707	11.75
397.491	10.75
398.274	9.75
399.058	11.75
399.842	9.75
400.625	12.75
401.408	11.75
402.192	12.75
402.975	15.75
403.758	12.75
404.541	12.75
405.324	14.75
406.107	13.75
406.89	12.75
407.673	13.75
408.456	13.75
409.238	13.75
410.021	14.75
410.803	17.75
411.586	15.75
412.368	15.75
413.151	13.75
413.933	16.75
414.715	16.75
415.497	14.75
416.279	17.75
417.061	16.75
417.843	16.75
418.624	15.75
419.406	21.75
420.188	19.75
420.969	20.75
421.751	19.75
422.532	21.75
423.313	20.75
424.095	17.75
424.876	22.75
425.657	23.75
426.438	23.75
427.219	23.75
428	22.75
428.78	24.75
429.561	25.75
430.342	24.75
431.122	27.75
431.903	29.75
432.683	33.75
433.464	30.75
434.244	34.75
435.024	34.75
435.804	37.75
436.584	38.75
437.364	43.75
438.144	42.75
438.924	47.75
439.704	48.75
440.483	52.75
441.263	53.75
442.042	63.75
442.822	66.75
443.601	71.75
444.38	70.75
445.16	83.75
445.939	87.75
446.718	96.75
447.497	103.75
448.276	117.75
449.054	119.75
449.833	136.75
450.612	151.75
451.391	163.75
452.169	178.75
452.948	200.75
453.726	223.75
454.504	247.75
455.282	272.75
456.061	307.75
456.839	344.75
457.617	379.75
458.395	426.75
459.172	462.75
459.95	515.75
460.728	592.75
461.506	648.75
462.283	726.75
463.061	811.75
463.838	903.75
464.615	1001.75
465.393	1097.75
466.17	1223.75
466.947	1361.75
467.724	1514.75
468.501	1655.75
469.278	1857.75
470.055	2013.75
470.831	2245.75
471.608	2461.75
472.385	2696.75
473.161	2959.75
473.938	3261.75
474.714	3544.75
475.49	3885.75
476.266	4249.75
477.043	4638.75
477.819	5068.75
478.595	5500.75
479.371	5969.75
480.146	6513.75
480.922	7078.75
481.698	7704.75
482.473	8378.75
483.249	9098.75
484.024	9841.75
484.8	10627.75
485.575	11471.75
486.35	12463.75
487.126	13450.75
487.901	14465.75
488.676	15580.75
489.451	16807.75
490.225	18034.75
491	19316.75
491.775	20663.75
492.55	22013.75
493.324	23453.75
494.099	24887.75
494.873	26392.75
495.647	27919.75
496.422	29404.75
497.196	30876.75
497.97	32388.75
498.744	33565.75
499.518	35076.75
500.292	36251.75
501.066	37190.75
501.839	38035.75
502.613	38873.75
503.387	39432.75
504.16	40027.75
504.934	40175.75
505.707	40346.75
506.48	40193.75
507.253	39871.75
508.027	39486.75
508.8	38889.75
509.573	38091.75
510.346	37383.75
511.118	36565.75
511.891	35529.75
512.664	34215.75
513.437	33150.75
514.209	31967.75
514.982	30746.75
515.754	29578.75
516.526	28401.75
517.298	27299.75
518.071	26212.75
518.843	25176.75
519.615	24176.75
520.387	23272.75
521.159	22415.75
521.93	21371.75
522.702	20502.75
523.474	19614.75
524.245	18892.75
525.017	18057.75
525.788	17301.75
526.56	16579.75
527.331	15872.75
528.102	15109.75
528.873	14338.75
529.644	13668.75
530.415	13089.75
531.186	12463.75
531.957	11814.75
532.728	11238.75
533.498	10674.75
534.269	10132.75
535.039	9581.75
535.81	9057.75
536.58	8553.75
537.351	8154.75
538.121	7706.75
538.891	7309.75
539.661	6886.75
540.431	6546.75
541.201	6178.75
541.971	5877.75
542.741	5542.75
543.51	5288.75
544.28	5014.75
545.05	4745.75
545.819	4555.75
546.588	4338.75
547.358	4142.75
548.127	3930.75
548.896	3738.75
549.665	3552.75
550.434	3368.75
551.203	3207.75
551.972	3014.75
552.741	2877.75
553.51	2708.75
554.278	2534.75
555.047	2415.75
555.815	2314.75
556.584	2164.75
557.352	2054.75
558.121	1932.75
558.889	1835.75
559.657	1730.75
560.425	1628.75
561.193	1550.75
561.961	1473.75
562.729	1377.75
563.496	1304.75
564.264	1235.75
565.032	1171.75
565.799	1108.75
566.567	1050.75
567.334	988.75
568.101	931.75
568.869	891.75
569.636	839.75
570.403	773.75
571.17	752.75
571.937	706.75
572.704	665.75
573.471	630.75
574.237	591.75
575.004	555.75
575.771	520.75
576.537	501.75
577.303	471.75
578.07	437.75
578.836	415.75
579.602	399.75
580.368	383.75
581.134	355.75
581.9	333.75
582.666	327.75
583.432	307.75
584.198	292.75
584.964	271.75
585.729	267.75
586.495	247.75
587.26	234.75
588.025	224.75
588.791	212.75
589.556	200.75
590.321	191.75
591.086	182.75
591.851	169.75
592.616	160.75
593.381	157.75
594.146	152.75
594.911	140.75
595.675	138.75
596.44	132.75
597.204	126.75
597.969	114.75
598.733	114.75
599.497	107.75
600.261	105.75
601.025	103.75
601.79	99.75
602.553	91.75
603.317	85.75
604.081	86.75
604.845	82.75
605.609	77.75
606.372	75.75
607.136	71.75
607.899	68.75
608.662	66.75
609.426	64.75
610.189	61.75
610.952	56.75
611.715	57.75
612.478	55.75
613.241	53.75
614.004	51.75
614.767	51.75
615.529	47.75
616.292	45.75
617.055	42.75
617.817	42.75
618.579	39.75
619.342	43.75
620.104	37.75
620.866	37.75
621.628	37.75
622.39	33.75
623.152	32.75
623.914	33.75
624.676	32.75
625.438	31.75
626.199	32.75
626.961	29.75
627.722	29.75
628.484	27.75
629.245	25.75
630.006	25.75
630.768	26.75
631.529	23.75
632.29	22.75
633.051	21.75
633.812	23.75
634.573	24.75
635.333	24.75
636.094	19.75
636.855	19.75
637.615	20.75
638.376	17.75
639.136	20.75
639.896	15.75
640.657	17.75
641.417	16.75
642.177	18.75
642.937	14.75
643.697	16.75
644.457	14.75
645.216	17.75
645.976	15.75
646.736	16.75
647.495	11.75
648.255	14.75
649.014	14.75
649.774	16.75
650.533	11.75
651.292	13.75
652.051	12.75
652.81	11.75
653.569	12.75
654.328	12.75
655.087	12.75
655.846	12.75
656.604	9.75
657.363	13.75
658.121	12.75
658.88	12.75
659.638	10.75
660.397	15.75
661.155	12.75
661.913	9.75
662.671	9.75
663.429	9.75
664.187	8.75
664.945	11.75
665.703	10.75
666.46	10.75
667.218	9.75
667.976	10.75
668.733	8.75
669.49	9.75
670.248	8.75
671.005	8.75
671.762	8.75
672.519	9.75
673.276	9.75
674.033	9.75
674.79	5.75
675.547	9.75
676.304	7.75
677.06	8.75
677.817	7.75
678.574	6.75
679.33	6.75
680.086	8.75
680.843	10.75
681.599	9.75
682.355	9.75
683.111	5.75
683.867	6.75
684.623	7.75
685.379	7.75
686.135	9.75
686.89	7.75
687.646	7.75
688.402	7.75
689.157	6.75
689.912	8.75
690.668	8.75
691.423	6.75
692.178	8.75
692.933	8.75
693.688	6.75
694.443	7.75
695.198	8.75
695.953	7.75
696.708	9.75
697.462	5.75
698.217	7.75
698.972	7.75
699.726	6.75
700.48	6.75
701.235	7.75
701.989	6.75
702.743	9.75
703.497	9.75
704.251	8.75
705.005	6.75
705.759	6.75
706.513	5.75
707.266	7.75
708.02	9.75
708.774	5.75
709.527	4.75
710.28	6.75
711.034	7.75
711.787	4.75
712.54	9.75
713.293	8.75
714.046	7.75
714.799	6.75
715.552	5.75
716.305	5.75
717.058	8.75
717.81	9.75
718.563	6.75
719.315	9.75
720.068	5.75
720.82	5.75
721.573	6.75
722.325	7.75
723.077	3.75
723.829	7.75
724.581	7.75
725.333	5.75
726.085	7.75
726.836	5.75
727.588	6.75
728.34	8.75
729.091	8.75
729.843	9.75
730.594	6.75
731.346	9.75
732.097	5.75
732.848	8.75
733.599	9.75
734.35	8.75
735.101	9.75
735.852	6.75
736.603	11.75
737.354	9.75
738.104	7.75
738.855	7.75
739.605	8.75
740.356	6.75
741.106	6.75
741.856	8.75
742.607	8.75
743.357	8.75
744.107	7.75
744.857	8.75
745.607	11.75
746.357	10.75
747.106	10.75
747.856	8.75
748.606	9.75
749.355	10.75
750.105	6.75
750.854	9.75
751.603	8.75
752.353	11.75
753.102	8.75
753.851	8.75
754.6	11.75
755.349	11.75
756.098	12.75
756.847	8.75
757.595	9.75
758.344	10.75
759.093	10.75
759.841	11.75
760.589	11.75
761.338	10.75
762.086	10.75
762.834	13.75
763.582	9.75
764.331	11.75
765.079	12.75
765.826	14.75
766.574	11.75
767.322	13.75
768.07	12.75
768.817	14.75
769.565	11.75
770.312	11.75
771.06	11.75
771.807	11.75
772.554	13.75
773.302	14.75
774.049	11.75
774.796	12.75
775.543	11.75
776.29	13.75
777.036	14.75
777.783	12.75
778.53	14.75
779.276	11.75
780.023	12.75
780.769	14.75
781.516	14.75
782.262	15.75
783.008	14.75
783.754	13.75
784.5	15.75
785.246	15.75
785.992	12.75
786.738	15.75
787.484	14.75
788.23	14.75
788.975	13.75
789.721	13.75
790.466	13.75
791.212	13.75
791.957	11.75
792.702	14.75
793.447	13.75
794.193	13.75
794.938	10.75
795.683	11.75
796.427	12.75
797.172	12.75
797.917	10.75
798.662	11.75
799.406	11.75
800.151	13.75
800.895	11.75
801.64	9.75
802.384	12.75
803.128	10.75
803.872	11.75
804.616	9.75
805.36	11.75
806.104	10.75
806.848	8.75
807.592	9.75
808.336	9.75
809.079	8.75
809.823	11.75
810.566	8.75
811.31	9.75
812.053	7.75
812.796	13.75
813.539	8.75
814.283	8.75
815.026	8.75
815.769	5.75
816.511	8.75
817.254	8.75
817.997	7.75
818.74	5.75
819.482	7.75
820.225	6.75
820.967	10.75
821.71	9.75
822.452	7.75
823.194	7.75
823.936	6.75
824.678	5.75
825.42	8.75
826.162	6.75
826.904	6.75
827.646	5.75
828.388	3.75
829.129	7.75
829.871	5.75
830.612	5.75
831.354	3.75
832.095	7.75
832.836	7.75
833.577	4.75
834.319	7.75
835.06	5.75
835.801	6.75
836.542	5.75
837.282	6.75
838.023	5.75
838.764	7.75
839.504	7.75
840.245	5.75
840.985	5.75
841.726	7.75
842.466	2.75
843.206	5.75
843.946	5.75
844.687	5.75
845.427	7.75
846.166	5.75
846.906	5.75
847.646	2.75
848.386	6.75
849.125	1.75
849.865	6.75
850.605	5.75
851.344	3.75
852.083	5.75
852.823	5.75
853.562	2.75
854.301	5.75
855.04	2.75
855.779	3.75
856.518	3.75
857.257	3.75
857.995	2.75
858.734	3.75
859.473	3.75
860.211	3.75
860.95	4.75
861.688	3.75
862.426	4.75
863.165	3.75
863.903	3.75
864.641	0.75
865.379	3.75
866.117	3.75
866.855	3.75
867.593	4.75
868.33	3.75
869.068	1.75
869.806	5.75
870.543	3.75
871.28	2.75
872.018	3.75
872.755	4.75
873.492	0.75
874.229	1.75
874.967	2.75
875.703	2.75
876.44	2.75
877.177	1.75
877.914	3.75
878.651	0.75
879.387	2.75
880.124	4.75
880.86	2.75
881.597	3.75
882.333	2.75
883.069	1.75
883.806	2.75
884.542	-0.25
885.278	3.75
886.014	3.75
886.749	2.75
887.485	3.75
888.221	3.75
888.957	-0.25
889.692	1.75
890.428	2.75
891.163	2.75
891.899	1.75
892.634	2.75
893.369	2.75
894.104	3.75
894.839	1.75
895.574	3.75
896.309	2.75
897.044	1.75
897.779	1.75
898.514	1.75
899.248	1.75
899.983	0.75
900.717	3.75
901.452	3.75
902.186	3.75
902.92	1.75
903.654	0.75
904.389	2.75
905.123	3.75
905.857	-1.25
906.59	1.75
907.324	1.75
908.058	2.75
908.792	0.75
909.525	3.75
910.259	-1.25
910.992	-0.25
911.726	1.75
912.459	-0.25
913.192	-1.25
913.925	1.75
914.658	-2.25
915.391	1.75
916.124	1.75
916.857	2.75
917.59	-1.25
918.323	3.75
919.055	-0.25
919.788	2.75
920.521	0.75
921.253	1.75
921.985	1.75
922.718	1.75
923.45	-0.25
924.182	3.75
924.914	-0.25
925.646	3.75
926.378	1.75
927.11	1.75
927.841	-1.25
928.573	1.75
929.305	1.75
930.036	0.75
930.768	-0.25
931.499	0.75
932.23	0.75
932.962	-0.25
933.693	2.75
934.424	1.75
935.155	2.75
935.886	-0.25
936.617	0.75
937.348	-0.25
938.078	2.75
938.809	-0.25
939.54	2.75
940.27	-0.25
941.001	2.75
941.731	0.75
942.461	1.75
943.191	3.75
943.922	-1.25
944.652	0.75
945.382	1.75
946.112	1.75
946.841	1.75
947.571	-0.25
948.301	1.75
949.031	1.75
949.76	-0.25
950.49	0.75
951.219	0.75
951.948	1.75
952.678	-0.25
953.407	-0.25
954.136	-0.25
954.865	-0.25
955.594	2.75
956.323	2.75
957.052	0.75
957.78	1.75
958.509	0.75
959.238	0.75
959.966	-1.25
960.695	1.75
961.423	0.75
962.151	0.75
962.88	0.75
963.608	0.75
964.336	0.75
965.064	-0.25
965.792	1.75
966.52	0.75
967.247	1.75
967.975	1.75
968.703	-1.25
969.43	1.75
970.158	-1.25
970.885	1.75
971.613	0.75
972.34	1.75
973.067	-0.25
973.794	2.75
974.521	2.75
975.248	0.75
975.975	2.75
976.702	-0.25
977.429	0.75
978.156	2.75
978.882	0.75
979.609	1.75
980.335	0.75
981.062	2.75
981.788	1.75
982.514	1.75
983.24	-0.25
983.967	1.75
984.693	2.75
985.419	2.75
986.144	2.75
986.87	2.75
987.596	1.75
988.322	-0.25
989.047	1.75
989.773	0.75
990.498	3.75
991.224	1.75
991.949	1.75
992.674	-0.25
993.399	1.75
994.124	-0.25
994.849	1.75
995.574	-0.25
996.299	-0.25
997.024	0.75
997.749	1.75
998.473	2.75
999.198	1.75
999.922	2.75
1000.647	0.75
1001.371	3.75
1002.095	-0.25
1002.82	-0.25
1003.544	-1.25
1004.268	6.75
1004.992	2.75
1005.716	3.75
1006.439	6.75
1007.163	6.75
1007.887	5.75
1008.611	0.75
1009.334	0.75
1010.058	1.75
1010.781	3.75
1011.504	2.75
1012.228	-0.25
1012.951	-0.25
1013.674	-1.25
1014.397	1.75
1015.12	-2.25
