节点500_705_QEPB04081__22__20-46-15-333.txt的数据

Date: Wed Nov 12 20:46:15 CST 2025
User: PC
Spectrometer: QEPB0408
触发模式: 0
积分时间 (秒): 1.000000E-2
Scans to average: 1
启用暗噪声校正: true
启用非线性校正: false
滑动平均宽度: 0
X轴模式: Wavelengths
Number of Pixels in Spectrum: 1044
>>>>>Begin Spectral Data<<<<<
220.843	5.88
221.644	4.88
222.444	7.88
223.244	7.88
224.045	4.88
224.845	5.88
225.645	7.88
226.445	6.88
227.245	6.88
228.045	7.88
228.845	6.88
229.645	6.88
230.444	9.88
231.244	7.88
232.043	8.88
232.843	10.88
233.642	7.88
234.442	8.88
235.241	8.88
236.04	9.88
236.839	11.88
237.638	8.88
238.437	9.88
239.236	10.88
240.035	7.88
240.833	12.88
241.632	12.88
242.43	12.88
243.229	13.88
244.027	13.88
244.826	12.88
245.624	14.88
246.422	15.88
247.22	15.88
248.018	15.88
248.816	16.88
249.614	16.88
250.412	16.88
251.21	17.88
252.007	17.88
252.805	17.88
253.602	17.88
254.4	17.88
255.197	20.88
255.994	21.88
256.791	21.88
257.589	18.88
258.386	21.88
259.183	24.88
259.979	20.88
260.776	23.88
261.573	21.88
262.37	25.88
263.166	26.88
263.963	25.88
264.759	28.88
265.556	25.88
266.352	28.88
267.148	26.88
267.944	28.88
268.74	28.88
269.536	29.88
270.332	30.88
271.128	34.88
271.924	33.88
272.719	30.88
273.515	33.88
274.311	35.88
275.106	33.88
275.901	32.88
276.697	34.88
277.492	34.88
278.287	35.88
279.082	35.88
279.877	33.88
280.672	32.88
281.467	33.88
282.262	32.88
283.056	34.88
283.851	36.88
284.646	31.88
285.44	32.88
286.234	33.88
287.029	30.88
287.823	33.88
288.617	30.88
289.411	29.88
290.205	31.88
290.999	32.88
291.793	29.88
292.587	31.88
293.381	26.88
294.174	28.88
294.968	26.88
295.761	24.88
296.555	25.88
297.348	23.88
298.141	26.88
298.935	27.88
299.728	24.88
300.521	23.88
301.314	21.88
302.107	24.88
302.899	22.88
303.692	22.88
304.485	19.88
305.277	19.88
306.07	19.88
306.862	18.88
307.655	23.88
308.447	22.88
309.239	19.88
310.031	20.88
310.823	17.88
311.615	15.88
312.407	14.88
313.199	16.88
313.991	14.88
314.783	14.88
315.574	16.88
316.366	14.88
317.157	17.88
317.949	16.88
318.74	14.88
319.531	13.88
320.322	10.88
321.113	12.88
321.904	14.88
322.695	10.88
323.486	9.88
324.277	10.88
325.068	13.88
325.858	11.88
326.649	13.88
327.439	10.88
328.23	13.88
329.02	14.88
329.81	11.88
330.6	10.88
331.391	10.88
332.181	11.88
332.971	10.88
333.76	10.88
334.55	12.88
335.34	10.88
336.13	10.88
336.919	12.88
337.709	9.88
338.498	10.88
339.287	7.88
340.077	10.88
340.866	10.88
341.655	10.88
342.444	11.88
343.233	10.88
344.022	12.88
344.811	9.88
345.6	8.88
346.388	13.88
347.177	10.88
347.965	8.88
348.754	12.88
349.542	12.88
350.33	10.88
351.119	8.88
351.907	10.88
352.695	9.88
353.483	9.88
354.271	10.88
355.059	13.88
355.846	8.88
356.634	9.88
357.422	10.88
358.209	9.88
358.997	12.88
359.784	6.88
360.571	11.88
361.359	9.88
362.146	11.88
362.933	10.88
363.72	8.88
364.507	7.88
365.294	8.88
366.081	8.88
366.867	8.88
367.654	10.88
368.44	9.88
369.227	8.88
370.013	8.88
370.8	9.88
371.586	7.88
372.372	7.88
373.158	3.88
373.944	9.88
374.73	9.88
375.516	8.88
376.302	10.88
377.088	7.88
377.873	5.88
378.659	10.88
379.445	8.88
380.23	9.88
381.015	9.88
381.801	8.88
382.586	7.88
383.371	10.88
384.156	8.88
384.941	9.88
385.726	11.88
386.511	9.88
387.296	10.88
388.08	8.88
388.865	10.88
389.649	12.88
390.434	12.88
391.218	11.88
392.003	11.88
392.787	11.88
393.571	9.88
394.355	11.88
395.139	11.88
395.923	14.88
396.707	9.88
397.491	12.88
398.274	12.88
399.058	13.88
399.842	13.88
400.625	14.88
401.408	13.88
402.192	14.88
402.975	14.88
403.758	13.88
404.541	12.88
405.324	13.88
406.107	13.88
406.89	12.88
407.673	12.88
408.456	16.88
409.238	14.88
410.021	14.88
410.803	16.88
411.586	16.88
412.368	16.88
413.151	15.88
413.933	15.88
414.715	17.88
415.497	14.88
416.279	18.88
417.061	18.88
417.843	20.88
418.624	17.88
419.406	19.88
420.188	21.88
420.969	24.88
421.751	19.88
422.532	22.88
423.313	20.88
424.095	22.88
424.876	22.88
425.657	23.88
426.438	24.88
427.219	22.88
428	26.88
428.78	27.88
429.561	26.88
430.342	27.88
431.122	30.88
431.903	31.88
432.683	30.88
433.464	32.88
434.244	35.88
435.024	35.88
435.804	34.88
436.584	38.88
437.364	43.88
438.144	43.88
438.924	47.88
439.704	50.88
440.483	49.88
441.263	54.88
442.042	63.88
442.822	64.88
443.601	69.88
444.38	72.88
445.16	75.88
445.939	80.88
446.718	87.88
447.497	97.88
448.276	104.88
449.054	116.88
449.833	123.88
450.612	132.88
451.391	149.88
452.169	170.88
452.948	181.88
453.726	207.88
454.504	229.88
455.282	252.88
456.061	281.88
456.839	312.88
457.617	348.88
458.395	397.88
459.172	440.88
459.95	496.88
460.728	545.88
461.506	614.88
462.283	689.88
463.061	770.88
463.838	874.88
464.615	960.88
465.393	1084.88
466.17	1203.88
466.947	1348.88
467.724	1520.88
468.501	1667.88
469.278	1858.88
470.055	2085.88
470.831	2306.88
471.608	2552.88
472.385	2828.88
473.161	3140.88
473.938	3475.88
474.714	3838.88
475.49	4258.88
476.266	4713.88
477.043	5174.88
477.819	5699.88
478.595	6304.88
479.371	6893.88
480.146	7533.88
480.922	8305.88
481.698	9106.88
482.473	9973.88
483.249	10948.88
484.024	11925.88
484.8	13012.88
485.575	14150.88
486.35	15435.88
487.126	16816.88
487.901	18245.88
488.676	19791.88
489.451	21365.88
490.225	23133.88
491	24873.88
491.775	26677.88
492.55	28495.88
493.324	30491.88
494.099	32320.88
494.873	34250.88
495.647	36114.88
496.422	37966.88
497.196	39848.88
497.97	41388.88
498.744	42923.88
499.518	44452.88
500.292	45655.88
501.066	46445.88
501.839	47081.88
502.613	47667.88
503.387	47905.88
504.16	48087.88
504.934	47815.88
505.707	47257.88
506.48	46499.88
507.253	45673.88
508.027	44612.88
508.8	43351.88
509.573	42087.88
510.346	40748.88
511.118	39423.88
511.891	38001.88
512.664	36462.88
513.437	34827.88
514.209	33546.88
514.982	32036.88
515.754	30643.88
516.526	29283.88
517.298	28177.88
518.071	26953.88
518.843	25921.88
519.615	24798.88
520.387	23871.88
521.159	22893.88
521.93	21866.88
522.702	20955.88
523.474	20008.88
524.245	19155.88
525.017	18292.88
525.788	17456.88
526.56	16710.88
527.331	15920.88
528.102	15061.88
528.873	14281.88
529.644	13567.88
530.415	12882.88
531.186	12234.88
531.957	11521.88
532.728	10933.88
533.498	10335.88
534.269	9770.88
535.039	9225.88
535.81	8718.88
536.58	8241.88
537.351	7817.88
538.121	7400.88
538.891	6975.88
539.661	6616.88
540.431	6253.88
541.201	5963.88
541.971	5649.88
542.741	5316.88
543.51	5031.88
544.28	4841.88
545.05	4565.88
545.819	4352.88
546.588	4184.88
547.358	3952.88
548.127	3748.88
548.896	3564.88
549.665	3375.88
550.434	3206.88
551.203	3026.88
551.972	2871.88
552.741	2702.88
553.51	2568.88
554.278	2409.88
555.047	2264.88
555.815	2133.88
556.584	2021.88
557.352	1901.88
558.121	1804.88
558.889	1698.88
559.657	1615.88
560.425	1527.88
561.193	1441.88
561.961	1362.88
562.729	1291.88
563.496	1218.88
564.264	1149.88
565.032	1090.88
565.799	1037.88
566.567	969.88
567.334	927.88
568.101	868.88
568.869	832.88
569.636	774.88
570.403	736.88
571.17	691.88
571.937	657.88
572.704	622.88
573.471	584.88
574.237	552.88
575.004	520.88
575.771	490.88
576.537	452.88
577.303	426.88
578.07	414.88
578.836	393.88
579.602	367.88
580.368	349.88
581.134	342.88
581.9	313.88
582.666	299.88
583.432	288.88
584.198	269.88
584.964	261.88
585.729	242.88
586.495	231.88
587.26	218.88
588.025	204.88
588.791	192.88
589.556	183.88
590.321	179.88
591.086	167.88
591.851	163.88
592.616	154.88
593.381	145.88
594.146	138.88
594.911	130.88
595.675	129.88
596.44	126.88
597.204	116.88
597.969	108.88
598.733	106.88
599.497	100.88
600.261	98.88
601.025	94.88
601.79	90.88
602.553	88.88
603.317	84.88
604.081	79.88
604.845	74.88
605.609	74.88
606.372	69.88
607.136	68.88
607.899	65.88
608.662	64.88
609.426	65.88
610.189	55.88
610.952	56.88
611.715	51.88
612.478	52.88
613.241	50.88
614.004	46.88
614.767	44.88
615.529	47.88
616.292	43.88
617.055	43.88
617.817	42.88
618.579	40.88
619.342	35.88
620.104	37.88
620.866	33.88
621.628	36.88
622.39	34.88
623.152	30.88
623.914	32.88
624.676	28.88
625.438	27.88
626.199	29.88
626.961	30.88
627.722	30.88
628.484	26.88
629.245	26.88
630.006	22.88
630.768	25.88
631.529	24.88
632.29	23.88
633.051	22.88
633.812	21.88
634.573	19.88
635.333	18.88
636.094	22.88
636.855	21.88
637.615	19.88
638.376	17.88
639.136	17.88
639.896	17.88
640.657	19.88
641.417	18.88
642.177	18.88
642.937	14.88
643.697	17.88
644.457	17.88
645.216	15.88
645.976	16.88
646.736	14.88
647.495	14.88
648.255	15.88
649.014	13.88
649.774	15.88
650.533	10.88
651.292	11.88
652.051	11.88
652.81	14.88
653.569	10.88
654.328	12.88
655.087	14.88
655.846	12.88
656.604	12.88
657.363	10.88
658.121	10.88
658.88	10.88
659.638	12.88
660.397	11.88
661.155	10.88
661.913	10.88
662.671	9.88
663.429	10.88
664.187	8.88
664.945	9.88
665.703	12.88
666.46	12.88
667.218	10.88
667.976	8.88
668.733	9.88
669.49	9.88
670.248	9.88
671.005	6.88
671.762	7.88
672.519	9.88
673.276	8.88
674.033	8.88
674.79	9.88
675.547	7.88
676.304	7.88
677.06	6.88
677.817	8.88
678.574	6.88
679.33	7.88
680.086	8.88
680.843	8.88
681.599	8.88
682.355	6.88
683.111	6.88
683.867	5.88
684.623	6.88
685.379	6.88
686.135	8.88
686.89	6.88
687.646	5.88
688.402	9.88
689.157	7.88
689.912	8.88
690.668	5.88
691.423	6.88
692.178	6.88
692.933	5.88
693.688	7.88
694.443	7.88
695.198	7.88
695.953	7.88
696.708	7.88
697.462	7.88
698.217	6.88
698.972	8.88
699.726	7.88
700.48	8.88
701.235	5.88
701.989	6.88
702.743	6.88
703.497	8.88
704.251	4.88
705.005	6.88
705.759	4.88
706.513	5.88
707.266	7.88
708.02	7.88
708.774	7.88
709.527	6.88
710.28	10.88
711.034	5.88
711.787	5.88
712.54	7.88
713.293	7.88
714.046	7.88
714.799	7.88
715.552	4.88
716.305	7.88
717.058	6.88
717.81	9.88
718.563	8.88
719.315	6.88
720.068	6.88
720.82	7.88
721.573	7.88
722.325	6.88
723.077	8.88
723.829	7.88
724.581	7.88
725.333	9.88
726.085	6.88
726.836	9.88
727.588	9.88
728.34	7.88
729.091	9.88
729.843	4.88
730.594	7.88
731.346	8.88
732.097	8.88
732.848	10.88
733.599	9.88
734.35	8.88
735.101	8.88
735.852	10.88
736.603	7.88
737.354	10.88
738.104	10.88
738.855	9.88
739.605	11.88
740.356	10.88
741.106	7.88
741.856	10.88
742.607	10.88
743.357	8.88
744.107	11.88
744.857	10.88
745.607	10.88
746.357	10.88
747.106	10.88
747.856	8.88
748.606	9.88
749.355	10.88
750.105	10.88
750.854	9.88
751.603	11.88
752.353	13.88
753.102	14.88
753.851	11.88
754.6	10.88
755.349	14.88
756.098	12.88
756.847	10.88
757.595	12.88
758.344	11.88
759.093	12.88
759.841	12.88
760.589	15.88
761.338	10.88
762.086	12.88
762.834	11.88
763.582	11.88
764.331	15.88
765.079	12.88
765.826	15.88
766.574	12.88
767.322	12.88
768.07	13.88
768.817	16.88
769.565	14.88
770.312	14.88
771.06	17.88
771.807	16.88
772.554	16.88
773.302	14.88
774.049	13.88
774.796	18.88
775.543	14.88
776.29	13.88
777.036	15.88
777.783	15.88
778.53	14.88
779.276	17.88
780.023	14.88
780.769	17.88
781.516	16.88
782.262	13.88
783.008	16.88
783.754	14.88
784.5	14.88
785.246	13.88
785.992	16.88
786.738	14.88
787.484	16.88
788.23	14.88
788.975	12.88
789.721	13.88
790.466	14.88
791.212	15.88
791.957	14.88
792.702	14.88
793.447	13.88
794.193	11.88
794.938	13.88
795.683	13.88
796.427	12.88
797.172	9.88
797.917	11.88
798.662	10.88
799.406	14.88
800.151	11.88
800.895	11.88
801.64	14.88
802.384	10.88
803.128	10.88
803.872	11.88
804.616	7.88
805.36	10.88
806.104	9.88
806.848	8.88
807.592	8.88
808.336	8.88
809.079	9.88
809.823	10.88
810.566	6.88
811.31	8.88
812.053	7.88
812.796	6.88
813.539	9.88
814.283	9.88
815.026	9.88
815.769	5.88
816.511	7.88
817.254	8.88
817.997	7.88
818.74	6.88
819.482	5.88
820.225	7.88
820.967	6.88
821.71	4.88
822.452	6.88
823.194	4.88
823.936	7.88
824.678	2.88
825.42	6.88
826.162	5.88
826.904	5.88
827.646	3.88
828.388	6.88
829.129	5.88
829.871	5.88
830.612	5.88
831.354	4.88
832.095	2.88
832.836	6.88
833.577	5.88
834.319	5.88
835.06	7.88
835.801	4.88
836.542	4.88
837.282	4.88
838.023	4.88
838.764	7.88
839.504	5.88
840.245	4.88
840.985	4.88
841.726	5.88
842.466	4.88
843.206	4.88
843.946	7.88
844.687	5.88
845.427	7.88
846.166	1.88
846.906	1.88
847.646	3.88
848.386	5.88
849.125	5.88
849.865	5.88
850.605	4.88
851.344	3.88
852.083	5.88
852.823	6.88
853.562	2.88
854.301	3.88
855.04	1.88
855.779	4.88
856.518	1.88
857.257	3.88
857.995	1.88
858.734	2.88
859.473	3.88
860.211	2.88
860.95	2.88
861.688	2.88
862.426	1.88
863.165	3.88
863.903	1.88
864.641	1.88
865.379	2.88
866.117	3.88
866.855	2.88
867.593	2.88
868.33	1.88
869.068	1.88
869.806	0.88
870.543	3.88
871.28	0.88
872.018	2.88
872.755	3.88
873.492	1.88
874.229	0.88
874.967	2.88
875.703	1.88
876.44	1.88
877.177	3.88
877.914	-1.12
878.651	1.88
879.387	0.88
880.124	3.88
880.86	0.88
881.597	0.88
882.333	4.88
883.069	-0.12
883.806	2.88
884.542	0.88
885.278	1.88
886.014	1.88
886.749	1.88
887.485	2.88
888.221	-1.12
888.957	2.88
889.692	2.88
890.428	0.88
891.163	1.88
891.899	1.88
892.634	2.88
893.369	2.88
894.104	1.88
894.839	-1.12
895.574	-0.12
896.309	2.88
897.044	1.88
897.779	1.88
898.514	-0.12
899.248	-0.12
899.983	3.88
900.717	-1.12
901.452	1.88
902.186	-2.12
902.92	-1.12
903.654	-1.12
904.389	0.88
905.123	-0.12
905.857	-0.12
906.59	0.88
907.324	-0.12
908.058	3.88
908.792	0.88
909.525	-0.12
910.259	-0.12
910.992	-1.12
911.726	1.88
912.459	1.88
913.192	-0.12
913.925	0.88
914.658	-0.12
915.391	-0.12
916.124	0.88
916.857	-1.12
917.59	0.88
918.323	0.88
919.055	1.88
919.788	-1.12
920.521	0.88
921.253	0.88
921.985	0.88
922.718	-0.12
923.45	0.88
924.182	0.88
924.914	1.88
925.646	1.88
926.378	-0.12
927.11	0.88
927.841	-2.12
928.573	-1.12
929.305	-1.12
930.036	-0.12
930.768	-2.12
931.499	0.88
932.23	-2.12
932.962	-1.12
933.693	-0.12
934.424	1.88
935.155	0.88
935.886	-1.12
936.617	0.88
937.348	-1.12
938.078	0.88
938.809	1.88
939.54	0.88
940.27	1.88
941.001	-2.12
941.731	-0.12
942.461	-2.12
943.191	0.88
943.922	0.88
944.652	0.88
945.382	2.88
946.112	-1.12
946.841	-0.12
947.571	-1.12
948.301	2.88
949.031	1.88
949.76	-1.12
950.49	0.88
951.219	-1.12
951.948	0.88
952.678	0.88
953.407	0.88
954.136	0.88
954.865	-1.12
955.594	2.88
956.323	-0.12
957.052	-0.12
957.78	-0.12
958.509	-0.12
959.238	0.88
959.966	-2.12
960.695	1.88
961.423	1.88
962.151	-1.12
962.88	-2.12
963.608	-1.12
964.336	-1.12
965.064	-1.12
965.792	1.88
966.52	-0.12
967.247	0.88
967.975	-1.12
968.703	-1.12
969.43	1.88
970.158	-1.12
970.885	2.88
971.613	-0.12
972.34	1.88
973.067	0.88
973.794	-0.12
974.521	0.88
975.248	3.88
975.975	-2.12
976.702	1.88
977.429	1.88
978.156	-0.12
978.882	-0.12
979.609	-0.12
980.335	1.88
981.062	0.88
981.788	-0.12
982.514	-1.12
983.24	0.88
983.967	0.88
984.693	-0.12
985.419	-0.12
986.144	-0.12
986.87	-2.12
987.596	-0.12
988.322	2.88
989.047	0.88
989.773	2.88
990.498	-0.12
991.224	-2.12
991.949	0.88
992.674	-1.12
993.399	-0.12
994.124	-0.12
994.849	0.88
995.574	0.88
996.299	-1.12
997.024	-0.12
997.749	0.88
998.473	-1.12
999.198	-0.12
999.922	0.88
1000.647	0.88
1001.371	4.88
1002.095	-0.12
1002.82	-1.12
1003.544	-0.12
1004.268	2.88
1004.992	3.88
1005.716	4.88
1006.439	4.88
1007.163	4.88
1007.887	4.88
1008.611	-1.12
1009.334	2.88
1010.058	2.88
1010.781	-1.12
1011.504	-0.12
1012.228	-1.12
1012.951	-0.12
1013.674	-1.12
1014.397	-2.12
1015.12	-0.12
