节点500_705_QEPB04081__103__20-47-36-174.txt的数据

Date: Wed Nov 12 20:47:36 CST 2025
User: PC
Spectrometer: QEPB0408
触发模式: 0
积分时间 (秒): 1.000000E-2
Scans to average: 1
启用暗噪声校正: true
启用非线性校正: false
滑动平均宽度: 0
X轴模式: Wavelengths
Number of Pixels in Spectrum: 1044
>>>>>Begin Spectral Data<<<<<
220.843	5.75
221.644	3.75
222.444	8.75
223.244	6.75
224.045	7.75
224.845	4.75
225.645	4.75
226.445	7.75
227.245	4.75
228.045	7.75
228.845	6.75
229.645	10.75
230.444	7.75
231.244	8.75
232.043	9.75
232.843	6.75
233.642	9.75
234.442	8.75
235.241	7.75
236.04	13.75
236.839	11.75
237.638	8.75
238.437	10.75
239.236	11.75
240.035	10.75
240.833	9.75
241.632	13.75
242.43	13.75
243.229	14.75
244.027	10.75
244.826	11.75
245.624	14.75
246.422	15.75
247.22	13.75
248.018	13.75
248.816	17.75
249.614	13.75
250.412	21.75
251.21	18.75
252.007	14.75
252.805	19.75
253.602	15.75
254.4	21.75
255.197	20.75
255.994	20.75
256.791	20.75
257.589	20.75
258.386	19.75
259.183	22.75
259.979	22.75
260.776	23.75
261.573	23.75
262.37	25.75
263.166	24.75
263.963	29.75
264.759	27.75
265.556	28.75
266.352	30.75
267.148	27.75
267.944	32.75
268.74	30.75
269.536	31.75
270.332	35.75
271.128	29.75
271.924	32.75
272.719	31.75
273.515	31.75
274.311	34.75
275.106	34.75
275.901	34.75
276.697	36.75
277.492	35.75
278.287	33.75
279.082	34.75
279.877	33.75
280.672	36.75
281.467	33.75
282.262	35.75
283.056	33.75
283.851	35.75
284.646	35.75
285.44	35.75
286.234	34.75
287.029	34.75
287.823	33.75
288.617	35.75
289.411	32.75
290.205	32.75
290.999	35.75
291.793	31.75
292.587	33.75
293.381	29.75
294.174	31.75
294.968	27.75
295.761	28.75
296.555	27.75
297.348	28.75
298.141	25.75
298.935	29.75
299.728	25.75
300.521	26.75
301.314	24.75
302.107	20.75
302.899	23.75
303.692	26.75
304.485	21.75
305.277	21.75
306.07	20.75
306.862	20.75
307.655	19.75
308.447	21.75
309.239	19.75
310.031	21.75
310.823	16.75
311.615	20.75
312.407	18.75
313.199	16.75
313.991	18.75
314.783	16.75
315.574	16.75
316.366	16.75
317.157	17.75
317.949	12.75
318.74	14.75
319.531	13.75
320.322	11.75
321.113	14.75
321.904	13.75
322.695	11.75
323.486	13.75
324.277	14.75
325.068	12.75
325.858	12.75
326.649	12.75
327.439	11.75
328.23	14.75
329.02	12.75
329.81	11.75
330.6	13.75
331.391	13.75
332.181	13.75
332.971	10.75
333.76	12.75
334.55	12.75
335.34	12.75
336.13	12.75
336.919	9.75
337.709	12.75
338.498	10.75
339.287	12.75
340.077	10.75
340.866	10.75
341.655	10.75
342.444	12.75
343.233	11.75
344.022	12.75
344.811	9.75
345.6	11.75
346.388	10.75
347.177	13.75
347.965	9.75
348.754	12.75
349.542	12.75
350.33	8.75
351.119	11.75
351.907	8.75
352.695	10.75
353.483	12.75
354.271	9.75
355.059	9.75
355.846	10.75
356.634	13.75
357.422	8.75
358.209	8.75
358.997	9.75
359.784	9.75
360.571	9.75
361.359	8.75
362.146	9.75
362.933	8.75
363.72	10.75
364.507	9.75
365.294	9.75
366.081	8.75
366.867	10.75
367.654	8.75
368.44	10.75
369.227	9.75
370.013	8.75
370.8	8.75
371.586	9.75
372.372	9.75
373.158	7.75
373.944	9.75
374.73	9.75
375.516	10.75
376.302	8.75
377.088	9.75
377.873	10.75
378.659	10.75
379.445	8.75
380.23	8.75
381.015	8.75
381.801	11.75
382.586	9.75
383.371	8.75
384.156	11.75
384.941	9.75
385.726	11.75
386.511	8.75
387.296	8.75
388.08	11.75
388.865	11.75
389.649	9.75
390.434	10.75
391.218	10.75
392.003	12.75
392.787	12.75
393.571	13.75
394.355	11.75
395.139	10.75
395.923	13.75
396.707	12.75
397.491	14.75
398.274	14.75
399.058	13.75
399.842	15.75
400.625	14.75
401.408	14.75
402.192	14.75
402.975	13.75
403.758	14.75
404.541	16.75
405.324	13.75
406.107	14.75
406.89	13.75
407.673	17.75
408.456	15.75
409.238	14.75
410.021	17.75
410.803	16.75
411.586	17.75
412.368	18.75
413.151	14.75
413.933	20.75
414.715	18.75
415.497	16.75
416.279	17.75
417.061	16.75
417.843	19.75
418.624	19.75
419.406	19.75
420.188	22.75
420.969	19.75
421.751	19.75
422.532	23.75
423.313	20.75
424.095	25.75
424.876	24.75
425.657	25.75
426.438	26.75
427.219	24.75
428	27.75
428.78	28.75
429.561	28.75
430.342	28.75
431.122	31.75
431.903	32.75
432.683	34.75
433.464	33.75
434.244	34.75
435.024	39.75
435.804	40.75
436.584	41.75
437.364	42.75
438.144	48.75
438.924	52.75
439.704	54.75
440.483	57.75
441.263	59.75
442.042	59.75
442.822	68.75
443.601	71.75
444.38	78.75
445.16	84.75
445.939	89.75
446.718	97.75
447.497	100.75
448.276	118.75
449.054	125.75
449.833	138.75
450.612	152.75
451.391	165.75
452.169	184.75
452.948	200.75
453.726	222.75
454.504	247.75
455.282	281.75
456.061	310.75
456.839	344.75
457.617	383.75
458.395	424.75
459.172	481.75
459.95	540.75
460.728	603.75
461.506	678.75
462.283	759.75
463.061	841.75
463.838	930.75
464.615	1034.75
465.393	1170.75
466.17	1311.75
466.947	1458.75
467.724	1611.75
468.501	1801.75
469.278	2013.75
470.055	2212.75
470.831	2450.75
471.608	2728.75
472.385	3016.75
473.161	3368.75
473.938	3679.75
474.714	4073.75
475.49	4490.75
476.266	4981.75
477.043	5422.75
477.819	5946.75
478.595	6555.75
479.371	7217.75
480.146	7912.75
480.922	8659.75
481.698	9466.75
482.473	10337.75
483.249	11308.75
484.024	12326.75
484.8	13410.75
485.575	14590.75
486.35	15878.75
487.126	17276.75
487.901	18756.75
488.676	20198.75
489.451	21928.75
490.225	23676.75
491	25365.75
491.775	27163.75
492.55	29113.75
493.324	31015.75
494.099	32927.75
494.873	34940.75
495.647	36763.75
496.422	38784.75
497.196	40682.75
497.97	42302.75
498.744	43887.75
499.518	45472.75
500.292	46724.75
501.066	47752.75
501.839	48486.75
502.613	49084.75
503.387	49484.75
504.16	49789.75
504.934	49608.75
505.707	49301.75
506.48	48658.75
507.253	47943.75
508.027	46945.75
508.8	45616.75
509.573	44386.75
510.346	43128.75
511.118	41818.75
511.891	40421.75
512.664	38675.75
513.437	37179.75
514.209	35697.75
514.982	34247.75
515.754	32682.75
516.526	31383.75
517.298	30161.75
518.071	28867.75
518.843	27683.75
519.615	26534.75
520.387	25554.75
521.159	24521.75
521.93	23467.75
522.702	22487.75
523.474	21463.75
524.245	20478.75
525.017	19634.75
525.788	18721.75
526.56	17918.75
527.331	17075.75
528.102	16174.75
528.873	15344.75
529.644	14656.75
530.415	13915.75
531.186	13181.75
531.957	12512.75
532.728	11870.75
533.498	11217.75
534.269	10566.75
535.039	10010.75
535.81	9507.75
536.58	8940.75
537.351	8487.75
538.121	8032.75
538.891	7568.75
539.661	7173.75
540.431	6772.75
541.201	6450.75
541.971	6086.75
542.741	5785.75
543.51	5475.75
544.28	5246.75
545.05	4952.75
545.819	4730.75
546.588	4518.75
547.358	4283.75
548.127	4076.75
548.896	3854.75
549.665	3667.75
550.434	3472.75
551.203	3285.75
551.972	3128.75
552.741	2950.75
553.51	2780.75
554.278	2608.75
555.047	2465.75
555.815	2324.75
556.584	2216.75
557.352	2091.75
558.121	1981.75
558.889	1855.75
559.657	1747.75
560.425	1657.75
561.193	1576.75
561.961	1489.75
562.729	1413.75
563.496	1344.75
564.264	1245.75
565.032	1188.75
565.799	1127.75
566.567	1048.75
567.334	1013.75
568.101	943.75
568.869	881.75
569.636	847.75
570.403	804.75
571.17	751.75
571.937	721.75
572.704	681.75
573.471	645.75
574.237	612.75
575.004	564.75
575.771	530.75
576.537	501.75
577.303	472.75
578.07	453.75
578.836	424.75
579.602	406.75
580.368	389.75
581.134	353.75
581.9	338.75
582.666	321.75
583.432	316.75
584.198	293.75
584.964	283.75
585.729	266.75
586.495	251.75
587.26	238.75
588.025	227.75
588.791	217.75
589.556	203.75
590.321	189.75
591.086	182.75
591.851	173.75
592.616	169.75
593.381	161.75
594.146	152.75
594.911	144.75
595.675	138.75
596.44	134.75
597.204	124.75
597.969	123.75
598.733	119.75
599.497	113.75
600.261	109.75
601.025	101.75
601.79	99.75
602.553	94.75
603.317	88.75
604.081	84.75
604.845	84.75
605.609	78.75
606.372	74.75
607.136	74.75
607.899	70.75
608.662	69.75
609.426	66.75
610.189	61.75
610.952	61.75
611.715	60.75
612.478	56.75
613.241	57.75
614.004	53.75
614.767	47.75
615.529	49.75
616.292	45.75
617.055	44.75
617.817	42.75
618.579	42.75
619.342	40.75
620.104	41.75
620.866	36.75
621.628	39.75
622.39	38.75
623.152	34.75
623.914	33.75
624.676	35.75
625.438	35.75
626.199	30.75
626.961	30.75
627.722	28.75
628.484	28.75
629.245	26.75
630.006	24.75
630.768	25.75
631.529	25.75
632.29	24.75
633.051	24.75
633.812	25.75
634.573	24.75
635.333	22.75
636.094	22.75
636.855	21.75
637.615	18.75
638.376	18.75
639.136	16.75
639.896	16.75
640.657	21.75
641.417	21.75
642.177	18.75
642.937	14.75
643.697	17.75
644.457	20.75
645.216	17.75
645.976	18.75
646.736	15.75
647.495	17.75
648.255	13.75
649.014	14.75
649.774	14.75
650.533	15.75
651.292	13.75
652.051	12.75
652.81	16.75
653.569	14.75
654.328	13.75
655.087	10.75
655.846	11.75
656.604	10.75
657.363	12.75
658.121	11.75
658.88	10.75
659.638	11.75
660.397	12.75
661.155	11.75
661.913	13.75
662.671	9.75
663.429	8.75
664.187	10.75
664.945	11.75
665.703	9.75
666.46	6.75
667.218	10.75
667.976	8.75
668.733	11.75
669.49	10.75
670.248	8.75
671.005	9.75
671.762	8.75
672.519	7.75
673.276	6.75
674.033	9.75
674.79	7.75
675.547	7.75
676.304	6.75
677.06	7.75
677.817	8.75
678.574	7.75
679.33	7.75
680.086	7.75
680.843	5.75
681.599	9.75
682.355	9.75
683.111	7.75
683.867	6.75
684.623	7.75
685.379	9.75
686.135	8.75
686.89	6.75
687.646	7.75
688.402	4.75
689.157	8.75
689.912	8.75
690.668	9.75
691.423	7.75
692.178	6.75
692.933	8.75
693.688	6.75
694.443	6.75
695.198	5.75
695.953	10.75
696.708	8.75
697.462	7.75
698.217	7.75
698.972	6.75
699.726	7.75
700.48	7.75
701.235	5.75
701.989	9.75
702.743	5.75
703.497	7.75
704.251	6.75
705.005	7.75
705.759	3.75
706.513	8.75
707.266	7.75
708.02	8.75
708.774	6.75
709.527	8.75
710.28	8.75
711.034	7.75
711.787	7.75
712.54	7.75
713.293	6.75
714.046	11.75
714.799	5.75
715.552	8.75
716.305	8.75
717.058	8.75
717.81	7.75
718.563	8.75
719.315	8.75
720.068	7.75
720.82	8.75
721.573	7.75
722.325	6.75
723.077	8.75
723.829	5.75
724.581	9.75
725.333	8.75
726.085	8.75
726.836	6.75
727.588	6.75
728.34	11.75
729.091	8.75
729.843	9.75
730.594	9.75
731.346	7.75
732.097	9.75
732.848	8.75
733.599	8.75
734.35	9.75
735.101	8.75
735.852	11.75
736.603	6.75
737.354	10.75
738.104	10.75
738.855	8.75
739.605	8.75
740.356	10.75
741.106	9.75
741.856	9.75
742.607	10.75
743.357	11.75
744.107	8.75
744.857	11.75
745.607	9.75
746.357	10.75
747.106	9.75
747.856	10.75
748.606	8.75
749.355	10.75
750.105	11.75
750.854	10.75
751.603	11.75
752.353	12.75
753.102	12.75
753.851	10.75
754.6	10.75
755.349	12.75
756.098	10.75
756.847	14.75
757.595	11.75
758.344	10.75
759.093	12.75
759.841	12.75
760.589	15.75
761.338	15.75
762.086	14.75
762.834	14.75
763.582	13.75
764.331	13.75
765.079	13.75
765.826	14.75
766.574	14.75
767.322	12.75
768.07	14.75
768.817	14.75
769.565	14.75
770.312	13.75
771.06	12.75
771.807	14.75
772.554	13.75
773.302	14.75
774.049	17.75
774.796	18.75
775.543	16.75
776.29	16.75
777.036	14.75
777.783	16.75
778.53	15.75
779.276	14.75
780.023	17.75
780.769	14.75
781.516	17.75
782.262	14.75
783.008	13.75
783.754	15.75
784.5	14.75
785.246	17.75
785.992	14.75
786.738	17.75
787.484	14.75
788.23	15.75
788.975	15.75
789.721	17.75
790.466	13.75
791.212	14.75
791.957	16.75
792.702	16.75
793.447	13.75
794.193	14.75
794.938	14.75
795.683	12.75
796.427	12.75
797.172	11.75
797.917	14.75
798.662	14.75
799.406	11.75
800.151	10.75
800.895	14.75
801.64	9.75
802.384	12.75
803.128	12.75
803.872	12.75
804.616	9.75
805.36	9.75
806.104	9.75
806.848	9.75
807.592	8.75
808.336	10.75
809.079	9.75
809.823	9.75
810.566	9.75
811.31	8.75
812.053	10.75
812.796	7.75
813.539	9.75
814.283	8.75
815.026	10.75
815.769	7.75
816.511	5.75
817.254	7.75
817.997	7.75
818.74	8.75
819.482	5.75
820.225	10.75
820.967	7.75
821.71	7.75
822.452	8.75
823.194	8.75
823.936	4.75
824.678	7.75
825.42	4.75
826.162	9.75
826.904	5.75
827.646	5.75
828.388	6.75
829.129	5.75
829.871	2.75
830.612	3.75
831.354	6.75
832.095	4.75
832.836	5.75
833.577	5.75
834.319	5.75
835.06	5.75
835.801	4.75
836.542	5.75
837.282	6.75
838.023	2.75
838.764	6.75
839.504	3.75
840.245	6.75
840.985	5.75
841.726	3.75
842.466	4.75
843.206	7.75
843.946	6.75
844.687	3.75
845.427	4.75
846.166	4.75
846.906	7.75
847.646	4.75
848.386	4.75
849.125	4.75
849.865	4.75
850.605	2.75
851.344	3.75
852.083	3.75
852.823	3.75
853.562	3.75
854.301	2.75
855.04	2.75
855.779	4.75
856.518	5.75
857.257	3.75
857.995	4.75
858.734	1.75
859.473	4.75
860.211	1.75
860.95	2.75
861.688	2.75
862.426	1.75
863.165	2.75
863.903	1.75
864.641	4.75
865.379	2.75
866.117	2.75
866.855	1.75
867.593	2.75
868.33	2.75
869.068	1.75
869.806	2.75
870.543	0.75
871.28	2.75
872.018	2.75
872.755	0.75
873.492	0.75
874.229	1.75
874.967	1.75
875.703	2.75
876.44	1.75
877.177	3.75
877.914	-0.25
878.651	1.75
879.387	1.75
880.124	0.75
880.86	1.75
881.597	0.75
882.333	2.75
883.069	0.75
883.806	0.75
884.542	-0.25
885.278	1.75
886.014	1.75
886.749	-0.25
887.485	4.75
888.221	0.75
888.957	2.75
889.692	-0.25
890.428	-0.25
891.163	0.75
891.899	-1.25
892.634	0.75
893.369	0.75
894.104	0.75
894.839	2.75
895.574	-0.25
896.309	-0.25
897.044	0.75
897.779	1.75
898.514	3.75
899.248	-1.25
899.983	-0.25
900.717	0.75
901.452	-0.25
902.186	0.75
902.92	0.75
903.654	1.75
904.389	-0.25
905.123	0.75
905.857	0.75
906.59	1.75
907.324	1.75
908.058	0.75
908.792	3.75
909.525	0.75
910.259	-1.25
910.992	-0.25
911.726	-0.25
912.459	-1.25
913.192	-0.25
913.925	0.75
914.658	-1.25
915.391	-0.25
916.124	-1.25
916.857	-2.25
917.59	-1.25
918.323	-2.25
919.055	0.75
919.788	0.75
920.521	2.75
921.253	2.75
921.985	-1.25
922.718	0.75
923.45	-1.25
924.182	-3.25
924.914	-1.25
925.646	-1.25
926.378	-1.25
927.11	0.75
927.841	2.75
928.573	0.75
929.305	-0.25
930.036	2.75
930.768	-1.25
931.499	-0.25
932.23	-1.25
932.962	2.75
933.693	-1.25
934.424	-0.25
935.155	-0.25
935.886	0.75
936.617	-1.25
937.348	-2.25
938.078	0.75
938.809	0.75
939.54	-1.25
940.27	0.75
941.001	-1.25
941.731	2.75
942.461	0.75
943.191	0.75
943.922	0.75
944.652	-0.25
945.382	0.75
946.112	-1.25
946.841	-0.25
947.571	-0.25
948.301	0.75
949.031	0.75
949.76	-0.25
950.49	2.75
951.219	-0.25
951.948	-0.25
952.678	-0.25
953.407	-0.25
954.136	0.75
954.865	-1.25
955.594	0.75
956.323	1.75
957.052	-0.25
957.78	2.75
958.509	-0.25
959.238	-1.25
959.966	-0.25
960.695	-1.25
961.423	-0.25
962.151	0.75
962.88	-0.25
963.608	-0.25
964.336	0.75
965.064	-1.25
965.792	0.75
966.52	2.75
967.247	-1.25
967.975	0.75
968.703	-0.25
969.43	0.75
970.158	0.75
970.885	-0.25
971.613	-1.25
972.34	0.75
973.067	0.75
973.794	-0.25
974.521	-0.25
975.248	-0.25
975.975	-1.25
976.702	-0.25
977.429	-1.25
978.156	-1.25
978.882	0.75
979.609	1.75
980.335	0.75
981.062	0.75
981.788	-1.25
982.514	-0.25
983.24	-0.25
983.967	1.75
984.693	0.75
985.419	0.75
986.144	-1.25
986.87	2.75
987.596	1.75
988.322	-1.25
989.047	3.75
989.773	-1.25
990.498	0.75
991.224	-1.25
991.949	1.75
992.674	0.75
993.399	0.75
994.124	-1.25
994.849	-0.25
995.574	-1.25
996.299	-0.25
997.024	-2.25
997.749	-0.25
998.473	-3.25
999.198	-0.25
999.922	0.75
1000.647	1.75
1001.371	4.75
1002.095	-0.25
1002.82	-0.25
1003.544	-1.25
1004.268	4.75
1004.992	4.75
1005.716	5.75
1006.439	1.75
1007.163	7.75
1007.887	6.75
1008.611	1.75
1009.334	0.75
1010.058	1.75
1010.781	1.75
1011.504	0.75
1012.228	0.75
1012.951	0.75
1013.674	-1.25
1014.397	-1.25
1015.12	-1.25
