节点500_705_QEPB04081__205__20-48-58-491.txt的数据

Date: Wed Nov 12 20:48:58 CST 2025
User: PC
Spectrometer: QEPB0408
触发模式: 0
积分时间 (秒): 1.000000E-2
Scans to average: 1
启用暗噪声校正: true
启用非线性校正: false
滑动平均宽度: 0
X轴模式: Wavelengths
Number of Pixels in Spectrum: 1044
>>>>>Begin Spectral Data<<<<<
220.843	4.75
221.644	3.75
222.444	6.75
223.244	4.75
224.045	5.75
224.845	8.75
225.645	8.75
226.445	7.75
227.245	4.75
228.045	8.75
228.845	7.75
229.645	8.75
230.444	9.75
231.244	5.75
232.043	8.75
232.843	6.75
233.642	8.75
234.442	7.75
235.241	10.75
236.04	9.75
236.839	11.75
237.638	10.75
238.437	11.75
239.236	8.75
240.035	13.75
240.833	13.75
241.632	10.75
242.43	12.75
243.229	13.75
244.027	13.75
244.826	14.75
245.624	15.75
246.422	14.75
247.22	16.75
248.018	13.75
248.816	14.75
249.614	15.75
250.412	18.75
251.21	15.75
252.007	16.75
252.805	16.75
253.602	16.75
254.4	17.75
255.197	19.75
255.994	20.75
256.791	21.75
257.589	21.75
258.386	20.75
259.183	23.75
259.979	19.75
260.776	22.75
261.573	24.75
262.37	26.75
263.166	26.75
263.963	25.75
264.759	24.75
265.556	24.75
266.352	27.75
267.148	30.75
267.944	29.75
268.74	29.75
269.536	30.75
270.332	30.75
271.128	30.75
271.924	33.75
272.719	32.75
273.515	31.75
274.311	33.75
275.106	35.75
275.901	37.75
276.697	34.75
277.492	33.75
278.287	34.75
279.082	34.75
279.877	34.75
280.672	35.75
281.467	36.75
282.262	35.75
283.056	37.75
283.851	32.75
284.646	33.75
285.44	35.75
286.234	34.75
287.029	31.75
287.823	33.75
288.617	32.75
289.411	30.75
290.205	30.75
290.999	31.75
291.793	31.75
292.587	29.75
293.381	32.75
294.174	30.75
294.968	29.75
295.761	28.75
296.555	28.75
297.348	29.75
298.141	27.75
298.935	30.75
299.728	25.75
300.521	25.75
301.314	23.75
302.107	23.75
302.899	24.75
303.692	25.75
304.485	22.75
305.277	23.75
306.07	21.75
306.862	21.75
307.655	23.75
308.447	18.75
309.239	20.75
310.031	20.75
310.823	17.75
311.615	19.75
312.407	15.75
313.199	15.75
313.991	17.75
314.783	16.75
315.574	16.75
316.366	17.75
317.157	15.75
317.949	15.75
318.74	14.75
319.531	17.75
320.322	12.75
321.113	14.75
321.904	14.75
322.695	11.75
323.486	13.75
324.277	10.75
325.068	12.75
325.858	13.75
326.649	10.75
327.439	12.75
328.23	14.75
329.02	10.75
329.81	12.75
330.6	10.75
331.391	11.75
332.181	11.75
332.971	10.75
333.76	9.75
334.55	14.75
335.34	10.75
336.13	11.75
336.919	10.75
337.709	10.75
338.498	10.75
339.287	10.75
340.077	11.75
340.866	11.75
341.655	10.75
342.444	12.75
343.233	11.75
344.022	10.75
344.811	12.75
345.6	10.75
346.388	11.75
347.177	10.75
347.965	12.75
348.754	12.75
349.542	8.75
350.33	11.75
351.119	12.75
351.907	10.75
352.695	13.75
353.483	10.75
354.271	10.75
355.059	10.75
355.846	8.75
356.634	9.75
357.422	11.75
358.209	8.75
358.997	10.75
359.784	9.75
360.571	8.75
361.359	9.75
362.146	7.75
362.933	12.75
363.72	12.75
364.507	10.75
365.294	9.75
366.081	7.75
366.867	10.75
367.654	6.75
368.44	10.75
369.227	8.75
370.013	8.75
370.8	7.75
371.586	8.75
372.372	11.75
373.158	10.75
373.944	8.75
374.73	10.75
375.516	9.75
376.302	10.75
377.088	8.75
377.873	9.75
378.659	9.75
379.445	7.75
380.23	12.75
381.015	11.75
381.801	11.75
382.586	9.75
383.371	10.75
384.156	10.75
384.941	10.75
385.726	11.75
386.511	8.75
387.296	10.75
388.08	10.75
388.865	12.75
389.649	11.75
390.434	10.75
391.218	12.75
392.003	11.75
392.787	12.75
393.571	14.75
394.355	9.75
395.139	12.75
395.923	11.75
396.707	11.75
397.491	14.75
398.274	10.75
399.058	14.75
399.842	10.75
400.625	12.75
401.408	13.75
402.192	11.75
402.975	13.75
403.758	13.75
404.541	14.75
405.324	13.75
406.107	13.75
406.89	16.75
407.673	14.75
408.456	13.75
409.238	14.75
410.021	17.75
410.803	12.75
411.586	16.75
412.368	17.75
413.151	15.75
413.933	20.75
414.715	16.75
415.497	16.75
416.279	21.75
417.061	16.75
417.843	17.75
418.624	19.75
419.406	18.75
420.188	17.75
420.969	20.75
421.751	24.75
422.532	20.75
423.313	24.75
424.095	24.75
424.876	24.75
425.657	23.75
426.438	26.75
427.219	28.75
428	27.75
428.78	26.75
429.561	25.75
430.342	30.75
431.122	30.75
431.903	32.75
432.683	32.75
433.464	34.75
434.244	40.75
435.024	41.75
435.804	41.75
436.584	43.75
437.364	44.75
438.144	48.75
438.924	48.75
439.704	52.75
440.483	56.75
441.263	54.75
442.042	63.75
442.822	66.75
443.601	75.75
444.38	84.75
445.16	85.75
445.939	94.75
446.718	98.75
447.497	108.75
448.276	120.75
449.054	132.75
449.833	141.75
450.612	158.75
451.391	172.75
452.169	182.75
452.948	206.75
453.726	235.75
454.504	260.75
455.282	292.75
456.061	317.75
456.839	358.75
457.617	393.75
458.395	442.75
459.172	489.75
459.95	547.75
460.728	618.75
461.506	684.75
462.283	773.75
463.061	873.75
463.838	954.75
464.615	1061.75
465.393	1201.75
466.17	1324.75
466.947	1474.75
467.724	1630.75
468.501	1807.75
469.278	2025.75
470.055	2224.75
470.831	2483.75
471.608	2742.75
472.385	3053.75
473.161	3369.75
473.938	3694.75
474.714	4080.75
475.49	4482.75
476.266	4914.75
477.043	5390.75
477.819	5900.75
478.595	6446.75
479.371	7097.75
480.146	7739.75
480.922	8484.75
481.698	9289.75
482.473	10113.75
483.249	11003.75
484.024	11989.75
484.8	13053.75
485.575	14147.75
486.35	15419.75
487.126	16736.75
487.901	18066.75
488.676	19579.75
489.451	21135.75
490.225	22813.75
491	24433.75
491.775	26176.75
492.55	27975.75
493.324	29810.75
494.099	31593.75
494.873	33628.75
495.647	35412.75
496.422	37424.75
497.196	39116.75
497.97	40860.75
498.744	42395.75
499.518	43875.75
500.292	45235.75
501.066	46256.75
501.839	47137.75
502.613	47758.75
503.387	48331.75
504.16	48619.75
504.934	48557.75
505.707	48376.75
506.48	47910.75
507.253	47201.75
508.027	46345.75
508.8	45200.75
509.573	44056.75
510.346	42884.75
511.118	41674.75
511.891	40280.75
512.664	38744.75
513.437	37245.75
514.209	35753.75
514.982	34291.75
515.754	32875.75
516.526	31486.75
517.298	30286.75
518.071	29019.75
518.843	27851.75
519.615	26696.75
520.387	25711.75
521.159	24667.75
521.93	23632.75
522.702	22578.75
523.474	21624.75
524.245	20696.75
525.017	19718.75
525.788	18898.75
526.56	18111.75
527.331	17310.75
528.102	16393.75
528.873	15557.75
529.644	14804.75
530.415	14134.75
531.186	13427.75
531.957	12660.75
532.728	11995.75
533.498	11384.75
534.269	10784.75
535.039	10188.75
535.81	9612.75
536.58	9102.75
537.351	8609.75
538.121	8144.75
538.891	7741.75
539.661	7334.75
540.431	6910.75
541.201	6575.75
541.971	6214.75
542.741	5859.75
543.51	5583.75
544.28	5307.75
545.05	5071.75
545.819	4817.75
546.588	4595.75
547.358	4389.75
548.127	4177.75
548.896	3951.75
549.665	3739.75
550.434	3537.75
551.203	3363.75
551.972	3191.75
552.741	3030.75
553.51	2832.75
554.278	2696.75
555.047	2541.75
555.815	2374.75
556.584	2256.75
557.352	2132.75
558.121	2013.75
558.889	1908.75
559.657	1786.75
560.425	1704.75
561.193	1612.75
561.961	1526.75
562.729	1431.75
563.496	1361.75
564.264	1290.75
565.032	1212.75
565.799	1152.75
566.567	1090.75
567.334	1038.75
568.101	976.75
568.869	922.75
569.636	867.75
570.403	814.75
571.17	781.75
571.937	725.75
572.704	687.75
573.471	653.75
574.237	620.75
575.004	587.75
575.771	543.75
576.537	504.75
577.303	482.75
578.07	459.75
578.836	428.75
579.602	412.75
580.368	387.75
581.134	376.75
581.9	350.75
582.666	335.75
583.432	318.75
584.198	308.75
584.964	289.75
585.729	268.75
586.495	262.75
587.26	238.75
588.025	224.75
588.791	216.75
589.556	204.75
590.321	198.75
591.086	188.75
591.851	180.75
592.616	171.75
593.381	160.75
594.146	157.75
594.911	140.75
595.675	146.75
596.44	138.75
597.204	127.75
597.969	125.75
598.733	116.75
599.497	117.75
600.261	104.75
601.025	101.75
601.79	103.75
602.553	92.75
603.317	92.75
604.081	87.75
604.845	87.75
605.609	81.75
606.372	78.75
607.136	74.75
607.899	73.75
608.662	74.75
609.426	65.75
610.189	68.75
610.952	62.75
611.715	61.75
612.478	57.75
613.241	55.75
614.004	54.75
614.767	49.75
615.529	50.75
616.292	46.75
617.055	46.75
617.817	45.75
618.579	42.75
619.342	42.75
620.104	43.75
620.866	37.75
621.628	38.75
622.39	36.75
623.152	34.75
623.914	34.75
624.676	32.75
625.438	33.75
626.199	30.75
626.961	31.75
627.722	29.75
628.484	31.75
629.245	27.75
630.006	25.75
630.768	28.75
631.529	25.75
632.29	26.75
633.051	24.75
633.812	23.75
634.573	24.75
635.333	21.75
636.094	22.75
636.855	21.75
637.615	21.75
638.376	21.75
639.136	20.75
639.896	20.75
640.657	17.75
641.417	21.75
642.177	18.75
642.937	16.75
643.697	18.75
644.457	16.75
645.216	16.75
645.976	16.75
646.736	18.75
647.495	15.75
648.255	14.75
649.014	17.75
649.774	16.75
650.533	14.75
651.292	13.75
652.051	11.75
652.81	12.75
653.569	13.75
654.328	14.75
655.087	10.75
655.846	12.75
656.604	10.75
657.363	12.75
658.121	11.75
658.88	11.75
659.638	11.75
660.397	10.75
661.155	11.75
661.913	9.75
662.671	10.75
663.429	9.75
664.187	9.75
664.945	10.75
665.703	8.75
666.46	10.75
667.218	10.75
667.976	10.75
668.733	7.75
669.49	9.75
670.248	8.75
671.005	9.75
671.762	8.75
672.519	7.75
673.276	7.75
674.033	10.75
674.79	10.75
675.547	8.75
676.304	10.75
677.06	7.75
677.817	9.75
678.574	5.75
679.33	12.75
680.086	8.75
680.843	7.75
681.599	9.75
682.355	6.75
683.111	6.75
683.867	7.75
684.623	7.75
685.379	4.75
686.135	7.75
686.89	6.75
687.646	7.75
688.402	9.75
689.157	7.75
689.912	7.75
690.668	5.75
691.423	6.75
692.178	10.75
692.933	7.75
693.688	6.75
694.443	9.75
695.198	7.75
695.953	8.75
696.708	6.75
697.462	6.75
698.217	7.75
698.972	7.75
699.726	8.75
700.48	6.75
701.235	8.75
701.989	5.75
702.743	6.75
703.497	6.75
704.251	5.75
705.005	8.75
705.759	9.75
706.513	9.75
707.266	7.75
708.02	8.75
708.774	8.75
709.527	6.75
710.28	7.75
711.034	6.75
711.787	6.75
712.54	8.75
713.293	7.75
714.046	8.75
714.799	6.75
715.552	7.75
716.305	8.75
717.058	7.75
717.81	9.75
718.563	7.75
719.315	7.75
720.068	5.75
720.82	10.75
721.573	9.75
722.325	9.75
723.077	8.75
723.829	10.75
724.581	10.75
725.333	7.75
726.085	9.75
726.836	6.75
727.588	8.75
728.34	6.75
729.091	7.75
729.843	9.75
730.594	8.75
731.346	6.75
732.097	10.75
732.848	6.75
733.599	10.75
734.35	7.75
735.101	7.75
735.852	10.75
736.603	10.75
737.354	9.75
738.104	8.75
738.855	9.75
739.605	8.75
740.356	8.75
741.106	10.75
741.856	8.75
742.607	9.75
743.357	10.75
744.107	9.75
744.857	9.75
745.607	7.75
746.357	10.75
747.106	9.75
747.856	10.75
748.606	10.75
749.355	12.75
750.105	10.75
750.854	10.75
751.603	11.75
752.353	10.75
753.102	12.75
753.851	12.75
754.6	11.75
755.349	11.75
756.098	12.75
756.847	12.75
757.595	12.75
758.344	12.75
759.093	12.75
759.841	12.75
760.589	12.75
761.338	13.75
762.086	11.75
762.834	13.75
763.582	11.75
764.331	15.75
765.079	10.75
765.826	14.75
766.574	14.75
767.322	14.75
768.07	14.75
768.817	15.75
769.565	12.75
770.312	14.75
771.06	12.75
771.807	14.75
772.554	14.75
773.302	14.75
774.049	16.75
774.796	15.75
775.543	14.75
776.29	15.75
777.036	14.75
777.783	14.75
778.53	16.75
779.276	15.75
780.023	16.75
780.769	16.75
781.516	16.75
782.262	15.75
783.008	17.75
783.754	14.75
784.5	15.75
785.246	18.75
785.992	16.75
786.738	13.75
787.484	15.75
788.23	14.75
788.975	14.75
789.721	13.75
790.466	18.75
791.212	14.75
791.957	15.75
792.702	14.75
793.447	13.75
794.193	13.75
794.938	12.75
795.683	15.75
796.427	15.75
797.172	16.75
797.917	10.75
798.662	12.75
799.406	13.75
800.151	12.75
800.895	12.75
801.64	12.75
802.384	11.75
803.128	10.75
803.872	10.75
804.616	12.75
805.36	10.75
806.104	8.75
806.848	12.75
807.592	10.75
808.336	9.75
809.079	8.75
809.823	9.75
810.566	8.75
811.31	8.75
812.053	8.75
812.796	7.75
813.539	10.75
814.283	9.75
815.026	6.75
815.769	10.75
816.511	7.75
817.254	8.75
817.997	6.75
818.74	7.75
819.482	8.75
820.225	8.75
820.967	7.75
821.71	6.75
822.452	5.75
823.194	7.75
823.936	7.75
824.678	5.75
825.42	6.75
826.162	7.75
826.904	5.75
827.646	8.75
828.388	6.75
829.129	5.75
829.871	4.75
830.612	6.75
831.354	7.75
832.095	6.75
832.836	3.75
833.577	5.75
834.319	5.75
835.06	5.75
835.801	6.75
836.542	5.75
837.282	5.75
838.023	4.75
838.764	2.75
839.504	5.75
840.245	5.75
840.985	6.75
841.726	4.75
842.466	5.75
843.206	4.75
843.946	4.75
844.687	4.75
845.427	5.75
846.166	4.75
846.906	3.75
847.646	5.75
848.386	3.75
849.125	2.75
849.865	5.75
850.605	7.75
851.344	4.75
852.083	3.75
852.823	3.75
853.562	4.75
854.301	3.75
855.04	2.75
855.779	4.75
856.518	3.75
857.257	2.75
857.995	4.75
858.734	2.75
859.473	2.75
860.211	4.75
860.95	2.75
861.688	3.75
862.426	1.75
863.165	2.75
863.903	4.75
864.641	2.75
865.379	3.75
866.117	0.75
866.855	4.75
867.593	4.75
868.33	2.75
869.068	3.75
869.806	-1.25
870.543	2.75
871.28	3.75
872.018	1.75
872.755	1.75
873.492	-1.25
874.229	1.75
874.967	2.75
875.703	2.75
876.44	-0.25
877.177	2.75
877.914	0.75
878.651	1.75
879.387	2.75
880.124	-1.25
880.86	1.75
881.597	2.75
882.333	0.75
883.069	0.75
883.806	-0.25
884.542	-0.25
885.278	0.75
886.014	-0.25
886.749	0.75
887.485	0.75
888.221	-0.25
888.957	0.75
889.692	2.75
890.428	1.75
891.163	0.75
891.899	0.75
892.634	0.75
893.369	0.75
894.104	-0.25
894.839	-0.25
895.574	-0.25
896.309	0.75
897.044	2.75
897.779	0.75
898.514	1.75
899.248	-1.25
899.983	1.75
900.717	1.75
901.452	1.75
902.186	1.75
902.92	-1.25
903.654	2.75
904.389	3.75
905.123	-0.25
905.857	0.75
906.59	-0.25
907.324	1.75
908.058	1.75
908.792	-0.25
909.525	1.75
910.259	-0.25
910.992	0.75
911.726	1.75
912.459	0.75
913.192	2.75
913.925	-0.25
914.658	-0.25
915.391	-1.25
916.124	-0.25
916.857	2.75
917.59	1.75
918.323	0.75
919.055	0.75
919.788	0.75
920.521	0.75
921.253	2.75
921.985	-0.25
922.718	2.75
923.45	0.75
924.182	-1.25
924.914	0.75
925.646	-0.25
926.378	-3.25
927.11	0.75
927.841	-1.25
928.573	-1.25
929.305	-0.25
930.036	-0.25
930.768	-0.25
931.499	-1.25
932.23	0.75
932.962	-1.25
933.693	1.75
934.424	1.75
935.155	1.75
935.886	2.75
936.617	2.75
937.348	0.75
938.078	-1.25
938.809	-0.25
939.54	-2.25
940.27	-0.25
941.001	-2.25
941.731	-0.25
942.461	1.75
943.191	-0.25
943.922	0.75
944.652	0.75
945.382	1.75
946.112	0.75
946.841	0.75
947.571	2.75
948.301	-1.25
949.031	0.75
949.76	-0.25
950.49	-2.25
951.219	-0.25
951.948	0.75
952.678	-2.25
953.407	0.75
954.136	-1.25
954.865	0.75
955.594	-1.25
956.323	1.75
957.052	0.75
957.78	-1.25
958.509	-1.25
959.238	-0.25
959.966	0.75
960.695	-1.25
961.423	-0.25
962.151	-0.25
962.88	-0.25
963.608	2.75
964.336	-1.25
965.064	0.75
965.792	-2.25
966.52	1.75
967.247	0.75
967.975	-0.25
968.703	1.75
969.43	-0.25
970.158	1.75
970.885	0.75
971.613	1.75
972.34	-0.25
973.067	-1.25
973.794	0.75
974.521	-1.25
975.248	1.75
975.975	-0.25
976.702	-0.25
977.429	1.75
978.156	0.75
978.882	-0.25
979.609	-0.25
980.335	0.75
981.062	1.75
981.788	0.75
982.514	0.75
983.24	-2.25
983.967	0.75
984.693	-0.25
985.419	0.75
986.144	1.75
986.87	-0.25
987.596	0.75
988.322	-1.25
989.047	0.75
989.773	0.75
990.498	-0.25
991.224	-0.25
991.949	-0.25
992.674	1.75
993.399	-0.25
994.124	-0.25
994.849	0.75
995.574	-2.25
996.299	0.75
997.024	-1.25
997.749	-0.25
998.473	-0.25
999.198	1.75
999.922	3.75
1000.647	-0.25
1001.371	3.75
1002.095	-1.25
1002.82	-1.25
1003.544	-0.25
1004.268	2.75
1004.992	3.75
1005.716	2.75
1006.439	4.75
1007.163	3.75
1007.887	5.75
1008.611	0.75
1009.334	-0.25
1010.058	0.75
1010.781	0.75
1011.504	0.75
1012.228	0.75
1012.951	-1.25
1013.674	0.75
1014.397	-1.25
1015.12	0.75
