节点500_705_QEPB04081__149__20-48-21-078.txt的数据

Date: Wed Nov 12 20:48:21 CST 2025
User: PC
Spectrometer: QEPB0408
触发模式: 0
积分时间 (秒): 1.000000E-2
Scans to average: 1
启用暗噪声校正: true
启用非线性校正: false
滑动平均宽度: 0
X轴模式: Wavelengths
Number of Pixels in Spectrum: 1044
>>>>>Begin Spectral Data<<<<<
220.843	5.62
221.644	7.62
222.444	2.62
223.244	3.62
224.045	7.62
224.845	6.62
225.645	6.62
226.445	8.62
227.245	10.62
228.045	7.62
228.845	5.62
229.645	7.62
230.444	7.62
231.244	7.62
232.043	7.62
232.843	9.62
233.642	9.62
234.442	9.62
235.241	10.62
236.04	10.62
236.839	12.62
237.638	9.62
238.437	10.62
239.236	12.62
240.035	10.62
240.833	11.62
241.632	12.62
242.43	12.62
243.229	12.62
244.027	14.62
244.826	13.62
245.624	17.62
246.422	15.62
247.22	12.62
248.018	14.62
248.816	15.62
249.614	14.62
250.412	14.62
251.21	16.62
252.007	16.62
252.805	18.62
253.602	19.62
254.4	18.62
255.197	18.62
255.994	18.62
256.791	19.62
257.589	20.62
258.386	21.62
259.183	22.62
259.979	20.62
260.776	22.62
261.573	23.62
262.37	22.62
263.166	26.62
263.963	26.62
264.759	29.62
265.556	27.62
266.352	26.62
267.148	26.62
267.944	27.62
268.74	32.62
269.536	30.62
270.332	33.62
271.128	31.62
271.924	32.62
272.719	31.62
273.515	31.62
274.311	32.62
275.106	36.62
275.901	34.62
276.697	36.62
277.492	34.62
278.287	35.62
279.082	38.62
279.877	32.62
280.672	38.62
281.467	34.62
282.262	34.62
283.056	35.62
283.851	33.62
284.646	36.62
285.44	36.62
286.234	31.62
287.029	33.62
287.823	34.62
288.617	34.62
289.411	34.62
290.205	30.62
290.999	32.62
291.793	34.62
292.587	30.62
293.381	32.62
294.174	31.62
294.968	30.62
295.761	27.62
296.555	25.62
297.348	26.62
298.141	26.62
298.935	26.62
299.728	27.62
300.521	26.62
301.314	28.62
302.107	21.62
302.899	25.62
303.692	22.62
304.485	24.62
305.277	26.62
306.07	19.62
306.862	22.62
307.655	24.62
308.447	21.62
309.239	18.62
310.031	20.62
310.823	17.62
311.615	16.62
312.407	17.62
313.199	14.62
313.991	18.62
314.783	16.62
315.574	15.62
316.366	16.62
317.157	16.62
317.949	14.62
318.74	15.62
319.531	14.62
320.322	15.62
321.113	13.62
321.904	13.62
322.695	11.62
323.486	13.62
324.277	14.62
325.068	12.62
325.858	11.62
326.649	12.62
327.439	13.62
328.23	13.62
329.02	12.62
329.81	12.62
330.6	11.62
331.391	11.62
332.181	8.62
332.971	12.62
333.76	14.62
334.55	11.62
335.34	14.62
336.13	11.62
336.919	10.62
337.709	14.62
338.498	10.62
339.287	13.62
340.077	12.62
340.866	10.62
341.655	10.62
342.444	11.62
343.233	10.62
344.022	11.62
344.811	13.62
345.6	9.62
346.388	12.62
347.177	10.62
347.965	9.62
348.754	10.62
349.542	9.62
350.33	11.62
351.119	10.62
351.907	11.62
352.695	12.62
353.483	10.62
354.271	11.62
355.059	11.62
355.846	10.62
356.634	10.62
357.422	7.62
358.209	9.62
358.997	10.62
359.784	10.62
360.571	8.62
361.359	8.62
362.146	11.62
362.933	8.62
363.72	12.62
364.507	9.62
365.294	10.62
366.081	10.62
366.867	10.62
367.654	9.62
368.44	7.62
369.227	8.62
370.013	9.62
370.8	11.62
371.586	8.62
372.372	11.62
373.158	8.62
373.944	7.62
374.73	9.62
375.516	10.62
376.302	7.62
377.088	12.62
377.873	11.62
378.659	11.62
379.445	7.62
380.23	9.62
381.015	7.62
381.801	8.62
382.586	10.62
383.371	11.62
384.156	11.62
384.941	11.62
385.726	11.62
386.511	9.62
387.296	8.62
388.08	12.62
388.865	10.62
389.649	12.62
390.434	9.62
391.218	12.62
392.003	12.62
392.787	10.62
393.571	11.62
394.355	10.62
395.139	10.62
395.923	13.62
396.707	11.62
397.491	14.62
398.274	13.62
399.058	13.62
399.842	10.62
400.625	14.62
401.408	13.62
402.192	13.62
402.975	13.62
403.758	14.62
404.541	14.62
405.324	13.62
406.107	15.62
406.89	14.62
407.673	15.62
408.456	15.62
409.238	17.62
410.021	19.62
410.803	14.62
411.586	16.62
412.368	17.62
413.151	17.62
413.933	18.62
414.715	22.62
415.497	18.62
416.279	18.62
417.061	19.62
417.843	20.62
418.624	19.62
419.406	19.62
420.188	20.62
420.969	20.62
421.751	19.62
422.532	18.62
423.313	21.62
424.095	23.62
424.876	25.62
425.657	25.62
426.438	27.62
427.219	28.62
428	29.62
428.78	30.62
429.561	26.62
430.342	30.62
431.122	31.62
431.903	32.62
432.683	33.62
433.464	34.62
434.244	39.62
435.024	41.62
435.804	40.62
436.584	41.62
437.364	47.62
438.144	45.62
438.924	51.62
439.704	51.62
440.483	54.62
441.263	56.62
442.042	63.62
442.822	69.62
443.601	71.62
444.38	79.62
445.16	82.62
445.939	92.62
446.718	97.62
447.497	109.62
448.276	118.62
449.054	131.62
449.833	141.62
450.612	152.62
451.391	167.62
452.169	183.62
452.948	207.62
453.726	232.62
454.504	253.62
455.282	282.62
456.061	314.62
456.839	356.62
457.617	395.62
458.395	436.62
459.172	491.62
459.95	539.62
460.728	621.62
461.506	690.62
462.283	781.62
463.061	844.62
463.838	955.62
464.615	1058.62
465.393	1190.62
466.17	1332.62
466.947	1477.62
467.724	1630.62
468.501	1817.62
469.278	2019.62
470.055	2226.62
470.831	2479.62
471.608	2742.62
472.385	3021.62
473.161	3347.62
473.938	3700.62
474.714	4089.62
475.49	4509.62
476.266	4930.62
477.043	5407.62
477.819	5940.62
478.595	6532.62
479.371	7170.62
480.146	7829.62
480.922	8577.62
481.698	9381.62
482.473	10228.62
483.249	11159.62
484.024	12099.62
484.8	13183.62
485.575	14365.62
486.35	15607.62
487.126	16983.62
487.901	18306.62
488.676	19856.62
489.451	21574.62
490.225	23145.62
491	24881.62
491.775	26609.62
492.55	28505.62
493.324	30307.62
494.099	32213.62
494.873	34136.62
495.647	36049.62
496.422	37986.62
497.196	39919.62
497.97	41528.62
498.744	43055.62
499.518	44685.62
500.292	45913.62
501.066	46925.62
501.839	47822.62
502.613	48437.62
503.387	48925.62
504.16	49129.62
504.934	49102.62
505.707	48812.62
506.48	48259.62
507.253	47506.62
508.027	46583.62
508.8	45438.62
509.573	44283.62
510.346	43007.62
511.118	41815.62
511.891	40467.62
512.664	38777.62
513.437	37182.62
514.209	35847.62
514.982	34392.62
515.754	32948.62
516.526	31484.62
517.298	30313.62
518.071	28981.62
518.843	27790.62
519.615	26701.62
520.387	25673.62
521.159	24610.62
521.93	23533.62
522.702	22537.62
523.474	21598.62
524.245	20688.62
525.017	19711.62
525.788	18814.62
526.56	18117.62
527.331	17198.62
528.102	16324.62
528.873	15511.62
529.644	14742.62
530.415	14055.62
531.186	13352.62
531.957	12608.62
532.728	11989.62
533.498	11293.62
534.269	10682.62
535.039	10138.62
535.81	9610.62
536.58	9069.62
537.351	8542.62
538.121	8113.62
538.891	7691.62
539.661	7286.62
540.431	6901.62
541.201	6539.62
541.971	6182.62
542.741	5844.62
543.51	5586.62
544.28	5292.62
545.05	5036.62
545.819	4791.62
546.588	4568.62
547.358	4373.62
548.127	4155.62
548.896	3910.62
549.665	3691.62
550.434	3496.62
551.203	3327.62
551.972	3143.62
552.741	3008.62
553.51	2833.62
554.278	2655.62
555.047	2502.62
555.815	2373.62
556.584	2238.62
557.352	2120.62
558.121	2007.62
558.889	1871.62
559.657	1780.62
560.425	1673.62
561.193	1586.62
561.961	1531.62
562.729	1447.62
563.496	1353.62
564.264	1289.62
565.032	1208.62
565.799	1153.62
566.567	1086.62
567.334	1029.62
568.101	963.62
568.869	906.62
569.636	853.62
570.403	816.62
571.17	781.62
571.937	725.62
572.704	690.62
573.471	640.62
574.237	609.62
575.004	583.62
575.771	536.62
576.537	511.62
577.303	484.62
578.07	457.62
578.836	432.62
579.602	408.62
580.368	390.62
581.134	375.62
581.9	348.62
582.666	327.62
583.432	315.62
584.198	295.62
584.964	287.62
585.729	270.62
586.495	255.62
587.26	242.62
588.025	227.62
588.791	212.62
589.556	209.62
590.321	192.62
591.086	184.62
591.851	175.62
592.616	167.62
593.381	161.62
594.146	157.62
594.911	144.62
595.675	148.62
596.44	133.62
597.204	126.62
597.969	123.62
598.733	120.62
599.497	117.62
600.261	110.62
601.025	100.62
601.79	102.62
602.553	96.62
603.317	95.62
604.081	83.62
604.845	86.62
605.609	83.62
606.372	77.62
607.136	74.62
607.899	69.62
608.662	67.62
609.426	70.62
610.189	64.62
610.952	60.62
611.715	60.62
612.478	59.62
613.241	56.62
614.004	56.62
614.767	53.62
615.529	51.62
616.292	49.62
617.055	47.62
617.817	42.62
618.579	40.62
619.342	43.62
620.104	42.62
620.866	41.62
621.628	39.62
622.39	34.62
623.152	33.62
623.914	34.62
624.676	33.62
625.438	33.62
626.199	31.62
626.961	31.62
627.722	30.62
628.484	30.62
629.245	29.62
630.006	29.62
630.768	26.62
631.529	24.62
632.29	25.62
633.051	26.62
633.812	23.62
634.573	24.62
635.333	21.62
636.094	21.62
636.855	20.62
637.615	21.62
638.376	22.62
639.136	18.62
639.896	20.62
640.657	19.62
641.417	17.62
642.177	19.62
642.937	17.62
643.697	14.62
644.457	14.62
645.216	17.62
645.976	18.62
646.736	13.62
647.495	11.62
648.255	14.62
649.014	14.62
649.774	14.62
650.533	16.62
651.292	13.62
652.051	14.62
652.81	14.62
653.569	11.62
654.328	10.62
655.087	15.62
655.846	11.62
656.604	13.62
657.363	11.62
658.121	16.62
658.88	9.62
659.638	12.62
660.397	8.62
661.155	12.62
661.913	9.62
662.671	11.62
663.429	10.62
664.187	10.62
664.945	9.62
665.703	12.62
666.46	9.62
667.218	12.62
667.976	7.62
668.733	6.62
669.49	8.62
670.248	8.62
671.005	9.62
671.762	7.62
672.519	10.62
673.276	8.62
674.033	10.62
674.79	8.62
675.547	5.62
676.304	8.62
677.06	7.62
677.817	9.62
678.574	7.62
679.33	6.62
680.086	8.62
680.843	8.62
681.599	11.62
682.355	8.62
683.111	6.62
683.867	8.62
684.623	6.62
685.379	10.62
686.135	10.62
686.89	4.62
687.646	7.62
688.402	7.62
689.157	6.62
689.912	6.62
690.668	7.62
691.423	6.62
692.178	7.62
692.933	5.62
693.688	8.62
694.443	7.62
695.198	7.62
695.953	7.62
696.708	6.62
697.462	7.62
698.217	9.62
698.972	5.62
699.726	8.62
700.48	6.62
701.235	8.62
701.989	7.62
702.743	5.62
703.497	5.62
704.251	6.62
705.005	9.62
705.759	8.62
706.513	7.62
707.266	8.62
708.02	7.62
708.774	7.62
709.527	9.62
710.28	9.62
711.034	7.62
711.787	7.62
712.54	9.62
713.293	7.62
714.046	8.62
714.799	6.62
715.552	8.62
716.305	8.62
717.058	7.62
717.81	10.62
718.563	7.62
719.315	9.62
720.068	9.62
720.82	8.62
721.573	10.62
722.325	6.62
723.077	5.62
723.829	8.62
724.581	9.62
725.333	8.62
726.085	5.62
726.836	9.62
727.588	7.62
728.34	8.62
729.091	8.62
729.843	10.62
730.594	9.62
731.346	6.62
732.097	10.62
732.848	10.62
733.599	9.62
734.35	8.62
735.101	9.62
735.852	9.62
736.603	9.62
737.354	9.62
738.104	10.62
738.855	9.62
739.605	10.62
740.356	8.62
741.106	7.62
741.856	10.62
742.607	12.62
743.357	11.62
744.107	9.62
744.857	10.62
745.607	13.62
746.357	10.62
747.106	7.62
747.856	13.62
748.606	11.62
749.355	12.62
750.105	10.62
750.854	11.62
751.603	11.62
752.353	10.62
753.102	11.62
753.851	12.62
754.6	9.62
755.349	13.62
756.098	13.62
756.847	14.62
757.595	11.62
758.344	14.62
759.093	13.62
759.841	13.62
760.589	15.62
761.338	12.62
762.086	12.62
762.834	13.62
763.582	14.62
764.331	12.62
765.079	11.62
765.826	14.62
766.574	13.62
767.322	13.62
768.07	13.62
768.817	16.62
769.565	14.62
770.312	14.62
771.06	13.62
771.807	14.62
772.554	16.62
773.302	13.62
774.049	13.62
774.796	16.62
775.543	13.62
776.29	16.62
777.036	17.62
777.783	14.62
778.53	16.62
779.276	14.62
780.023	17.62
780.769	15.62
781.516	17.62
782.262	18.62
783.008	15.62
783.754	15.62
784.5	16.62
785.246	19.62
785.992	15.62
786.738	13.62
787.484	15.62
788.23	13.62
788.975	14.62
789.721	14.62
790.466	16.62
791.212	16.62
791.957	14.62
792.702	16.62
793.447	15.62
794.193	15.62
794.938	12.62
795.683	11.62
796.427	11.62
797.172	13.62
797.917	14.62
798.662	13.62
799.406	13.62
800.151	12.62
800.895	13.62
801.64	12.62
802.384	8.62
803.128	11.62
803.872	11.62
804.616	11.62
805.36	12.62
806.104	12.62
806.848	12.62
807.592	7.62
808.336	11.62
809.079	7.62
809.823	10.62
810.566	10.62
811.31	8.62
812.053	12.62
812.796	7.62
813.539	8.62
814.283	7.62
815.026	7.62
815.769	7.62
816.511	8.62
817.254	7.62
817.997	7.62
818.74	6.62
819.482	7.62
820.225	6.62
820.967	5.62
821.71	5.62
822.452	8.62
823.194	7.62
823.936	6.62
824.678	7.62
825.42	6.62
826.162	7.62
826.904	7.62
827.646	2.62
828.388	7.62
829.129	4.62
829.871	5.62
830.612	6.62
831.354	6.62
832.095	6.62
832.836	5.62
833.577	4.62
834.319	6.62
835.06	8.62
835.801	8.62
836.542	3.62
837.282	7.62
838.023	2.62
838.764	4.62
839.504	5.62
840.245	4.62
840.985	2.62
841.726	4.62
842.466	3.62
843.206	3.62
843.946	4.62
844.687	5.62
845.427	7.62
846.166	7.62
846.906	4.62
847.646	5.62
848.386	5.62
849.125	3.62
849.865	5.62
850.605	4.62
851.344	6.62
852.083	4.62
852.823	4.62
853.562	5.62
854.301	2.62
855.04	2.62
855.779	4.62
856.518	5.62
857.257	2.62
857.995	3.62
858.734	2.62
859.473	2.62
860.211	3.62
860.95	1.62
861.688	2.62
862.426	3.62
863.165	2.62
863.903	3.62
864.641	4.62
865.379	3.62
866.117	1.62
866.855	3.62
867.593	3.62
868.33	3.62
869.068	2.62
869.806	0.62
870.543	1.62
871.28	2.62
872.018	2.62
872.755	1.62
873.492	2.62
874.229	1.62
874.967	1.62
875.703	2.62
876.44	0.62
877.177	0.62
877.914	1.62
878.651	1.62
879.387	2.62
880.124	4.62
880.86	2.62
881.597	-0.38
882.333	-1.38
883.069	-0.38
883.806	1.62
884.542	2.62
885.278	0.62
886.014	0.62
886.749	1.62
887.485	0.62
888.221	1.62
888.957	0.62
889.692	1.62
890.428	-0.38
891.163	3.62
891.899	1.62
892.634	0.62
893.369	-0.38
894.104	1.62
894.839	3.62
895.574	1.62
896.309	1.62
897.044	2.62
897.779	0.62
898.514	1.62
899.248	2.62
899.983	1.62
900.717	1.62
901.452	1.62
902.186	3.62
902.92	2.62
903.654	1.62
904.389	-0.38
905.123	-0.38
905.857	-2.38
906.59	-0.38
907.324	1.62
908.058	-1.38
908.792	0.62
909.525	-1.38
910.259	1.62
910.992	1.62
911.726	0.62
912.459	1.62
913.192	-3.38
913.925	0.62
914.658	1.62
915.391	-1.38
916.124	-1.38
916.857	-1.38
917.59	1.62
918.323	-1.38
919.055	0.62
919.788	0.62
920.521	0.62
921.253	-0.38
921.985	-0.38
922.718	-1.38
923.45	0.62
924.182	0.62
924.914	1.62
925.646	-0.38
926.378	-2.38
927.11	-0.38
927.841	0.62
928.573	-1.38
929.305	0.62
930.036	0.62
930.768	-1.38
931.499	0.62
932.23	1.62
932.962	1.62
933.693	0.62
934.424	0.62
935.155	0.62
935.886	0.62
936.617	0.62
937.348	0.62
938.078	0.62
938.809	-0.38
939.54	-0.38
940.27	-0.38
941.001	1.62
941.731	-1.38
942.461	0.62
943.191	0.62
943.922	-1.38
944.652	-0.38
945.382	1.62
946.112	-0.38
946.841	-1.38
947.571	0.62
948.301	1.62
949.031	0.62
949.76	1.62
950.49	0.62
951.219	1.62
951.948	-1.38
952.678	1.62
953.407	2.62
954.136	0.62
954.865	-0.38
955.594	-1.38
956.323	1.62
957.052	0.62
957.78	-0.38
958.509	-1.38
959.238	0.62
959.966	0.62
960.695	0.62
961.423	-0.38
962.151	-2.38
962.88	0.62
963.608	-1.38
964.336	0.62
965.064	0.62
965.792	-1.38
966.52	-0.38
967.247	1.62
967.975	0.62
968.703	1.62
969.43	-1.38
970.158	0.62
970.885	-2.38
971.613	0.62
972.34	-0.38
973.067	-1.38
973.794	0.62
974.521	-1.38
975.248	1.62
975.975	1.62
976.702	-0.38
977.429	1.62
978.156	-0.38
978.882	0.62
979.609	-1.38
980.335	1.62
981.062	-1.38
981.788	0.62
982.514	0.62
983.24	-1.38
983.967	-1.38
984.693	-3.38
985.419	0.62
986.144	1.62
986.87	0.62
987.596	-1.38
988.322	-1.38
989.047	2.62
989.773	-1.38
990.498	-0.38
991.224	-0.38
991.949	-0.38
992.674	0.62
993.399	-2.38
994.124	-0.38
994.849	-0.38
995.574	1.62
996.299	0.62
997.024	-1.38
997.749	1.62
998.473	1.62
999.198	0.62
999.922	0.62
1000.647	0.62
1001.371	1.62
1002.095	-1.38
1002.82	-1.38
1003.544	0.62
1004.268	6.62
1004.992	4.62
1005.716	2.62
1006.439	4.62
1007.163	4.62
1007.887	4.62
1008.611	-1.38
1009.334	-1.38
1010.058	-0.38
1010.781	-0.38
1011.504	-0.38
1012.228	0.62
1012.951	-0.38
1013.674	0.62
1014.397	0.62
1015.12	-0.38
