节点500_705_QEPB04081__468__20-52-32-772.txt的数据

Date: Wed Nov 12 20:52:32 CST 2025
User: PC
Spectrometer: QEPB0408
触发模式: 0
积分时间 (秒): 1.000000E-2
Scans to average: 1
启用暗噪声校正: true
启用非线性校正: false
滑动平均宽度: 0
X轴模式: Wavelengths
Number of Pixels in Spectrum: 1044
>>>>>Begin Spectral Data<<<<<
220.843	7.88
221.644	4.88
222.444	5.88
223.244	4.88
224.045	5.88
224.845	6.88
225.645	5.88
226.445	7.88
227.245	6.88
228.045	7.88
228.845	7.88
229.645	8.88
230.444	8.88
231.244	7.88
232.043	10.88
232.843	9.88
233.642	7.88
234.442	10.88
235.241	9.88
236.04	9.88
236.839	8.88
237.638	11.88
238.437	9.88
239.236	9.88
240.035	10.88
240.833	10.88
241.632	12.88
242.43	11.88
243.229	10.88
244.027	12.88
244.826	12.88
245.624	12.88
246.422	12.88
247.22	14.88
248.018	11.88
248.816	11.88
249.614	15.88
250.412	14.88
251.21	12.88
252.007	18.88
252.805	14.88
253.602	16.88
254.4	18.88
255.197	17.88
255.994	17.88
256.791	18.88
257.589	16.88
258.386	22.88
259.183	18.88
259.979	18.88
260.776	18.88
261.573	19.88
262.37	23.88
263.166	23.88
263.963	22.88
264.759	24.88
265.556	22.88
266.352	25.88
267.148	23.88
267.944	24.88
268.74	26.88
269.536	24.88
270.332	27.88
271.128	28.88
271.924	30.88
272.719	31.88
273.515	29.88
274.311	30.88
275.106	29.88
275.901	30.88
276.697	29.88
277.492	31.88
278.287	33.88
279.082	33.88
279.877	33.88
280.672	30.88
281.467	34.88
282.262	28.88
283.056	33.88
283.851	30.88
284.646	30.88
285.44	30.88
286.234	29.88
287.029	32.88
287.823	33.88
288.617	29.88
289.411	30.88
290.205	29.88
290.999	30.88
291.793	30.88
292.587	29.88
293.381	30.88
294.174	28.88
294.968	25.88
295.761	27.88
296.555	25.88
297.348	22.88
298.141	27.88
298.935	29.88
299.728	24.88
300.521	23.88
301.314	24.88
302.107	22.88
302.899	21.88
303.692	23.88
304.485	20.88
305.277	21.88
306.07	22.88
306.862	22.88
307.655	23.88
308.447	21.88
309.239	21.88
310.031	20.88
310.823	16.88
311.615	19.88
312.407	17.88
313.199	17.88
313.991	17.88
314.783	13.88
315.574	17.88
316.366	14.88
317.157	17.88
317.949	14.88
318.74	14.88
319.531	14.88
320.322	14.88
321.113	13.88
321.904	12.88
322.695	12.88
323.486	14.88
324.277	12.88
325.068	13.88
325.858	11.88
326.649	11.88
327.439	11.88
328.23	12.88
329.02	12.88
329.81	11.88
330.6	10.88
331.391	10.88
332.181	12.88
332.971	13.88
333.76	12.88
334.55	10.88
335.34	11.88
336.13	11.88
336.919	10.88
337.709	13.88
338.498	10.88
339.287	9.88
340.077	12.88
340.866	12.88
341.655	10.88
342.444	12.88
343.233	11.88
344.022	10.88
344.811	13.88
345.6	11.88
346.388	10.88
347.177	11.88
347.965	11.88
348.754	10.88
349.542	10.88
350.33	9.88
351.119	10.88
351.907	10.88
352.695	9.88
353.483	9.88
354.271	7.88
355.059	11.88
355.846	10.88
356.634	11.88
357.422	9.88
358.209	8.88
358.997	10.88
359.784	10.88
360.571	8.88
361.359	9.88
362.146	9.88
362.933	9.88
363.72	10.88
364.507	7.88
365.294	10.88
366.081	9.88
366.867	9.88
367.654	9.88
368.44	10.88
369.227	10.88
370.013	8.88
370.8	7.88
371.586	10.88
372.372	5.88
373.158	7.88
373.944	8.88
374.73	9.88
375.516	10.88
376.302	9.88
377.088	8.88
377.873	9.88
378.659	9.88
379.445	7.88
380.23	10.88
381.015	10.88
381.801	10.88
382.586	8.88
383.371	8.88
384.156	9.88
384.941	9.88
385.726	9.88
386.511	11.88
387.296	10.88
388.08	8.88
388.865	10.88
389.649	10.88
390.434	14.88
391.218	12.88
392.003	13.88
392.787	11.88
393.571	8.88
394.355	10.88
395.139	10.88
395.923	11.88
396.707	12.88
397.491	12.88
398.274	13.88
399.058	11.88
399.842	10.88
400.625	12.88
401.408	12.88
402.192	12.88
402.975	14.88
403.758	13.88
404.541	13.88
405.324	11.88
406.107	15.88
406.89	14.88
407.673	16.88
408.456	16.88
409.238	18.88
410.021	14.88
410.803	14.88
411.586	14.88
412.368	15.88
413.151	14.88
413.933	16.88
414.715	17.88
415.497	18.88
416.279	15.88
417.061	19.88
417.843	20.88
418.624	19.88
419.406	18.88
420.188	19.88
420.969	20.88
421.751	21.88
422.532	22.88
423.313	20.88
424.095	22.88
424.876	20.88
425.657	22.88
426.438	27.88
427.219	26.88
428	24.88
428.78	26.88
429.561	28.88
430.342	31.88
431.122	33.88
431.903	32.88
432.683	34.88
433.464	34.88
434.244	38.88
435.024	33.88
435.804	41.88
436.584	42.88
437.364	45.88
438.144	52.88
438.924	48.88
439.704	51.88
440.483	56.88
441.263	60.88
442.042	59.88
442.822	70.88
443.601	75.88
444.38	86.88
445.16	91.88
445.939	96.88
446.718	105.88
447.497	113.88
448.276	125.88
449.054	134.88
449.833	156.88
450.612	166.88
451.391	180.88
452.169	202.88
452.948	225.88
453.726	251.88
454.504	275.88
455.282	311.88
456.061	338.88
456.839	382.88
457.617	423.88
458.395	470.88
459.172	520.88
459.95	584.88
460.728	654.88
461.506	734.88
462.283	811.88
463.061	910.88
463.838	1005.88
464.615	1114.88
465.393	1245.88
466.17	1385.88
466.947	1528.88
467.724	1688.88
468.501	1866.88
469.278	2069.88
470.055	2276.88
470.831	2516.88
471.608	2756.88
472.385	3036.88
473.161	3321.88
473.938	3640.88
474.714	4028.88
475.49	4391.88
476.266	4813.88
477.043	5229.88
477.819	5705.88
478.595	6217.88
479.371	6758.88
480.146	7371.88
480.922	8020.88
481.698	8674.88
482.473	9448.88
483.249	10247.88
484.024	11083.88
484.8	11997.88
485.575	12951.88
486.35	13995.88
487.126	15145.88
487.901	16321.88
488.676	17525.88
489.451	18903.88
490.225	20279.88
491	21758.88
491.775	23264.88
492.55	24876.88
493.324	26419.88
494.099	28125.88
494.873	29843.88
495.647	31360.88
496.422	33059.88
497.196	34841.88
497.97	36369.88
498.744	37849.88
499.518	39513.88
500.292	40858.88
501.066	41941.88
501.839	42761.88
502.613	43655.88
503.387	44480.88
504.16	44989.88
504.934	45275.88
505.707	45439.88
506.48	45223.88
507.253	44858.88
508.027	44425.88
508.8	43707.88
509.573	42804.88
510.346	41987.88
511.118	41028.88
511.891	39934.88
512.664	38518.88
513.437	37143.88
514.209	35959.88
514.982	34552.88
515.754	33242.88
516.526	32004.88
517.298	30670.88
518.071	29515.88
518.843	28347.88
519.615	27228.88
520.387	26179.88
521.159	25083.88
521.93	24113.88
522.702	23146.88
523.474	22090.88
524.245	21248.88
525.017	20353.88
525.788	19496.88
526.56	18732.88
527.331	17907.88
528.102	16988.88
528.873	16152.88
529.644	15422.88
530.415	14684.88
531.186	14002.88
531.957	13316.88
532.728	12614.88
533.498	11987.88
534.269	11377.88
535.039	10774.88
535.81	10218.88
536.58	9603.88
537.351	9141.88
538.121	8663.88
538.891	8194.88
539.661	7763.88
540.431	7319.88
541.201	6949.88
541.971	6597.88
542.741	6247.88
543.51	5935.88
544.28	5640.88
545.05	5391.88
545.819	5156.88
546.588	4889.88
547.358	4643.88
548.127	4427.88
548.896	4231.88
549.665	4004.88
550.434	3787.88
551.203	3595.88
551.972	3428.88
552.741	3240.88
553.51	3064.88
554.278	2888.88
555.047	2712.88
555.815	2572.88
556.584	2453.88
557.352	2311.88
558.121	2156.88
558.889	2040.88
559.657	1932.88
560.425	1841.88
561.193	1750.88
561.961	1645.88
562.729	1562.88
563.496	1468.88
564.264	1385.88
565.032	1306.88
565.799	1246.88
566.567	1177.88
567.334	1120.88
568.101	1033.88
568.869	998.88
569.636	943.88
570.403	896.88
571.17	834.88
571.937	790.88
572.704	745.88
573.471	709.88
574.237	659.88
575.004	628.88
575.771	589.88
576.537	554.88
577.303	526.88
578.07	501.88
578.836	469.88
579.602	439.88
580.368	418.88
581.134	396.88
581.9	377.88
582.666	364.88
583.432	345.88
584.198	330.88
584.964	315.88
585.729	291.88
586.495	272.88
587.26	258.88
588.025	252.88
588.791	236.88
589.556	230.88
590.321	211.88
591.086	200.88
591.851	192.88
592.616	181.88
593.381	176.88
594.146	165.88
594.911	165.88
595.675	147.88
596.44	143.88
597.204	137.88
597.969	134.88
598.733	128.88
599.497	126.88
600.261	116.88
601.025	114.88
601.79	110.88
602.553	101.88
603.317	99.88
604.081	92.88
604.845	93.88
605.609	90.88
606.372	80.88
607.136	76.88
607.899	79.88
608.662	74.88
609.426	71.88
610.189	69.88
610.952	62.88
611.715	61.88
612.478	61.88
613.241	64.88
614.004	57.88
614.767	54.88
615.529	51.88
616.292	51.88
617.055	49.88
617.817	46.88
618.579	49.88
619.342	42.88
620.104	42.88
620.866	42.88
621.628	37.88
622.39	39.88
623.152	37.88
623.914	37.88
624.676	37.88
625.438	33.88
626.199	34.88
626.961	30.88
627.722	31.88
628.484	27.88
629.245	27.88
630.006	30.88
630.768	27.88
631.529	31.88
632.29	25.88
633.051	28.88
633.812	22.88
634.573	23.88
635.333	24.88
636.094	24.88
636.855	19.88
637.615	22.88
638.376	20.88
639.136	19.88
639.896	18.88
640.657	20.88
641.417	16.88
642.177	20.88
642.937	16.88
643.697	15.88
644.457	15.88
645.216	15.88
645.976	17.88
646.736	14.88
647.495	13.88
648.255	16.88
649.014	13.88
649.774	14.88
650.533	13.88
651.292	13.88
652.051	11.88
652.81	12.88
653.569	11.88
654.328	13.88
655.087	13.88
655.846	11.88
656.604	14.88
657.363	12.88
658.121	10.88
658.88	10.88
659.638	10.88
660.397	12.88
661.155	8.88
661.913	10.88
662.671	10.88
663.429	8.88
664.187	13.88
664.945	7.88
665.703	10.88
666.46	11.88
667.218	10.88
667.976	6.88
668.733	9.88
669.49	9.88
670.248	6.88
671.005	9.88
671.762	10.88
672.519	9.88
673.276	9.88
674.033	8.88
674.79	6.88
675.547	6.88
676.304	9.88
677.06	7.88
677.817	7.88
678.574	7.88
679.33	6.88
680.086	9.88
680.843	6.88
681.599	6.88
682.355	10.88
683.111	7.88
683.867	7.88
684.623	7.88
685.379	8.88
686.135	9.88
686.89	7.88
687.646	8.88
688.402	7.88
689.157	6.88
689.912	7.88
690.668	9.88
691.423	4.88
692.178	5.88
692.933	6.88
693.688	6.88
694.443	5.88
695.198	8.88
695.953	9.88
696.708	7.88
697.462	6.88
698.217	9.88
698.972	6.88
699.726	7.88
700.48	6.88
701.235	7.88
701.989	6.88
702.743	7.88
703.497	7.88
704.251	5.88
705.005	6.88
705.759	7.88
706.513	3.88
707.266	7.88
708.02	6.88
708.774	8.88
709.527	4.88
710.28	8.88
711.034	6.88
711.787	8.88
712.54	3.88
713.293	6.88
714.046	10.88
714.799	5.88
715.552	6.88
716.305	7.88
717.058	6.88
717.81	8.88
718.563	6.88
719.315	7.88
720.068	7.88
720.82	5.88
721.573	7.88
722.325	8.88
723.077	8.88
723.829	9.88
724.581	8.88
725.333	9.88
726.085	8.88
726.836	9.88
727.588	7.88
728.34	6.88
729.091	5.88
729.843	8.88
730.594	8.88
731.346	8.88
732.097	8.88
732.848	9.88
733.599	11.88
734.35	8.88
735.101	7.88
735.852	7.88
736.603	8.88
737.354	8.88
738.104	10.88
738.855	8.88
739.605	8.88
740.356	8.88
741.106	12.88
741.856	7.88
742.607	8.88
743.357	7.88
744.107	8.88
744.857	12.88
745.607	8.88
746.357	11.88
747.106	8.88
747.856	8.88
748.606	11.88
749.355	9.88
750.105	9.88
750.854	7.88
751.603	10.88
752.353	11.88
753.102	7.88
753.851	12.88
754.6	9.88
755.349	14.88
756.098	10.88
756.847	11.88
757.595	11.88
758.344	10.88
759.093	13.88
759.841	10.88
760.589	8.88
761.338	11.88
762.086	11.88
762.834	10.88
763.582	10.88
764.331	11.88
765.079	11.88
765.826	12.88
766.574	13.88
767.322	14.88
768.07	12.88
768.817	11.88
769.565	11.88
770.312	13.88
771.06	12.88
771.807	14.88
772.554	12.88
773.302	13.88
774.049	13.88
774.796	15.88
775.543	16.88
776.29	14.88
777.036	12.88
777.783	12.88
778.53	12.88
779.276	14.88
780.023	14.88
780.769	16.88
781.516	14.88
782.262	14.88
783.008	16.88
783.754	15.88
784.5	14.88
785.246	15.88
785.992	15.88
786.738	14.88
787.484	12.88
788.23	14.88
788.975	14.88
789.721	14.88
790.466	12.88
791.212	14.88
791.957	12.88
792.702	15.88
793.447	11.88
794.193	13.88
794.938	13.88
795.683	13.88
796.427	12.88
797.172	14.88
797.917	10.88
798.662	12.88
799.406	11.88
800.151	13.88
800.895	10.88
801.64	12.88
802.384	10.88
803.128	12.88
803.872	10.88
804.616	10.88
805.36	10.88
806.104	9.88
806.848	8.88
807.592	9.88
808.336	9.88
809.079	7.88
809.823	7.88
810.566	10.88
811.31	10.88
812.053	7.88
812.796	10.88
813.539	8.88
814.283	11.88
815.026	8.88
815.769	8.88
816.511	8.88
817.254	7.88
817.997	6.88
818.74	8.88
819.482	9.88
820.225	7.88
820.967	3.88
821.71	5.88
822.452	6.88
823.194	5.88
823.936	7.88
824.678	7.88
825.42	6.88
826.162	4.88
826.904	7.88
827.646	8.88
828.388	8.88
829.129	5.88
829.871	5.88
830.612	6.88
831.354	5.88
832.095	7.88
832.836	3.88
833.577	5.88
834.319	6.88
835.06	3.88
835.801	4.88
836.542	6.88
837.282	8.88
838.023	6.88
838.764	5.88
839.504	4.88
840.245	4.88
840.985	5.88
841.726	5.88
842.466	5.88
843.206	4.88
843.946	5.88
844.687	3.88
845.427	4.88
846.166	6.88
846.906	3.88
847.646	4.88
848.386	3.88
849.125	6.88
849.865	2.88
850.605	2.88
851.344	3.88
852.083	4.88
852.823	6.88
853.562	3.88
854.301	4.88
855.04	4.88
855.779	4.88
856.518	3.88
857.257	3.88
857.995	3.88
858.734	2.88
859.473	4.88
860.211	2.88
860.95	2.88
861.688	3.88
862.426	1.88
863.165	2.88
863.903	1.88
864.641	2.88
865.379	2.88
866.117	2.88
866.855	3.88
867.593	1.88
868.33	2.88
869.068	2.88
869.806	1.88
870.543	1.88
871.28	2.88
872.018	4.88
872.755	3.88
873.492	1.88
874.229	1.88
874.967	2.88
875.703	2.88
876.44	2.88
877.177	0.88
877.914	-1.12
878.651	-1.12
879.387	3.88
880.124	3.88
880.86	2.88
881.597	3.88
882.333	1.88
883.069	0.88
883.806	0.88
884.542	1.88
885.278	-1.12
886.014	0.88
886.749	-0.12
887.485	-0.12
888.221	1.88
888.957	0.88
889.692	1.88
890.428	1.88
891.163	0.88
891.899	0.88
892.634	0.88
893.369	-1.12
894.104	0.88
894.839	1.88
895.574	2.88
896.309	-0.12
897.044	-0.12
897.779	1.88
898.514	-0.12
899.248	-1.12
899.983	-0.12
900.717	1.88
901.452	0.88
902.186	2.88
902.92	0.88
903.654	1.88
904.389	0.88
905.123	0.88
905.857	2.88
906.59	1.88
907.324	0.88
908.058	2.88
908.792	0.88
909.525	1.88
910.259	0.88
910.992	1.88
911.726	0.88
912.459	-0.12
913.192	0.88
913.925	-0.12
914.658	-0.12
915.391	2.88
916.124	-1.12
916.857	0.88
917.59	2.88
918.323	-0.12
919.055	-0.12
919.788	1.88
920.521	0.88
921.253	0.88
921.985	-0.12
922.718	-1.12
923.45	0.88
924.182	-1.12
924.914	0.88
925.646	-1.12
926.378	0.88
927.11	-1.12
927.841	-1.12
928.573	2.88
929.305	1.88
930.036	-0.12
930.768	0.88
931.499	-0.12
932.23	0.88
932.962	-1.12
933.693	0.88
934.424	1.88
935.155	-0.12
935.886	-1.12
936.617	-1.12
937.348	-1.12
938.078	-0.12
938.809	0.88
939.54	0.88
940.27	-1.12
941.001	-0.12
941.731	0.88
942.461	-1.12
943.191	-1.12
943.922	0.88
944.652	-0.12
945.382	-1.12
946.112	0.88
946.841	-1.12
947.571	-0.12
948.301	-1.12
949.031	-0.12
949.76	0.88
950.49	-0.12
951.219	-1.12
951.948	-1.12
952.678	0.88
953.407	0.88
954.136	1.88
954.865	1.88
955.594	-0.12
956.323	1.88
957.052	-1.12
957.78	-1.12
958.509	-1.12
959.238	-1.12
959.966	-1.12
960.695	-0.12
961.423	0.88
962.151	0.88
962.88	0.88
963.608	-1.12
964.336	-1.12
965.064	2.88
965.792	-2.12
966.52	1.88
967.247	1.88
967.975	0.88
968.703	-2.12
969.43	0.88
970.158	-1.12
970.885	-1.12
971.613	2.88
972.34	-1.12
973.067	0.88
973.794	-1.12
974.521	-0.12
975.248	-1.12
975.975	2.88
976.702	-1.12
977.429	0.88
978.156	-0.12
978.882	0.88
979.609	-0.12
980.335	-1.12
981.062	0.88
981.788	-0.12
982.514	0.88
983.24	1.88
983.967	-0.12
984.693	-1.12
985.419	1.88
986.144	0.88
986.87	-0.12
987.596	0.88
988.322	2.88
989.047	-0.12
989.773	-0.12
990.498	0.88
991.224	-1.12
991.949	-1.12
992.674	-0.12
993.399	-0.12
994.124	0.88
994.849	-0.12
995.574	1.88
996.299	-0.12
997.024	0.88
997.749	1.88
998.473	-2.12
999.198	-1.12
999.922	-0.12
1000.647	0.88
1001.371	3.88
1002.095	-2.12
1002.82	-1.12
1003.544	-0.12
1004.268	2.88
1004.992	4.88
1005.716	6.88
1006.439	4.88
1007.163	4.88
1007.887	4.88
1008.611	2.88
1009.334	-0.12
1010.058	0.88
1010.781	-0.12
1011.504	1.88
1012.228	0.88
1012.951	-0.12
1013.674	-1.12
1014.397	0.88
1015.12	-0.12
