节点500_705_QEPB04081__664__20-55-22-799.txt的数据

Date: Wed Nov 12 20:55:22 CST 2025
User: PC
Spectrometer: QEPB0408
触发模式: 0
积分时间 (秒): 1.000000E-2
Scans to average: 1
启用暗噪声校正: true
启用非线性校正: false
滑动平均宽度: 0
X轴模式: Wavelengths
Number of Pixels in Spectrum: 1044
>>>>>Begin Spectral Data<<<<<
220.843	7.5
221.644	5.5
222.444	7.5
223.244	6.5
224.045	4.5
224.845	7.5
225.645	9.5
226.445	5.5
227.245	8.5
228.045	8.5
228.845	8.5
229.645	8.5
230.444	6.5
231.244	10.5
232.043	9.5
232.843	10.5
233.642	7.5
234.442	7.5
235.241	10.5
236.04	8.5
236.839	11.5
237.638	8.5
238.437	9.5
239.236	10.5
240.035	9.5
240.833	11.5
241.632	10.5
242.43	13.5
243.229	13.5
244.027	12.5
244.826	11.5
245.624	13.5
246.422	16.5
247.22	13.5
248.018	14.5
248.816	14.5
249.614	12.5
250.412	15.5
251.21	13.5
252.007	15.5
252.805	14.5
253.602	13.5
254.4	16.5
255.197	18.5
255.994	15.5
256.791	18.5
257.589	19.5
258.386	21.5
259.183	17.5
259.979	19.5
260.776	21.5
261.573	20.5
262.37	20.5
263.166	22.5
263.963	23.5
264.759	22.5
265.556	24.5
266.352	24.5
267.148	25.5
267.944	24.5
268.74	28.5
269.536	26.5
270.332	25.5
271.128	28.5
271.924	27.5
272.719	27.5
273.515	29.5
274.311	29.5
275.106	32.5
275.901	32.5
276.697	31.5
277.492	30.5
278.287	30.5
279.082	30.5
279.877	32.5
280.672	34.5
281.467	29.5
282.262	32.5
283.056	31.5
283.851	31.5
284.646	33.5
285.44	29.5
286.234	33.5
287.029	31.5
287.823	31.5
288.617	33.5
289.411	33.5
290.205	32.5
290.999	33.5
291.793	29.5
292.587	29.5
293.381	31.5
294.174	31.5
294.968	28.5
295.761	26.5
296.555	26.5
297.348	27.5
298.141	27.5
298.935	29.5
299.728	27.5
300.521	24.5
301.314	22.5
302.107	25.5
302.899	21.5
303.692	21.5
304.485	21.5
305.277	21.5
306.07	22.5
306.862	23.5
307.655	21.5
308.447	17.5
309.239	17.5
310.031	21.5
310.823	20.5
311.615	20.5
312.407	19.5
313.199	17.5
313.991	16.5
314.783	15.5
315.574	15.5
316.366	15.5
317.157	15.5
317.949	17.5
318.74	15.5
319.531	16.5
320.322	15.5
321.113	15.5
321.904	12.5
322.695	14.5
323.486	14.5
324.277	13.5
325.068	13.5
325.858	13.5
326.649	12.5
327.439	13.5
328.23	14.5
329.02	10.5
329.81	12.5
330.6	12.5
331.391	13.5
332.181	14.5
332.971	12.5
333.76	12.5
334.55	10.5
335.34	13.5
336.13	16.5
336.919	11.5
337.709	13.5
338.498	11.5
339.287	14.5
340.077	11.5
340.866	9.5
341.655	15.5
342.444	9.5
343.233	10.5
344.022	12.5
344.811	11.5
345.6	12.5
346.388	10.5
347.177	14.5
347.965	10.5
348.754	12.5
349.542	11.5
350.33	7.5
351.119	9.5
351.907	10.5
352.695	12.5
353.483	9.5
354.271	10.5
355.059	10.5
355.846	14.5
356.634	7.5
357.422	12.5
358.209	13.5
358.997	10.5
359.784	10.5
360.571	11.5
361.359	10.5
362.146	11.5
362.933	9.5
363.72	9.5
364.507	6.5
365.294	12.5
366.081	9.5
366.867	11.5
367.654	12.5
368.44	7.5
369.227	9.5
370.013	11.5
370.8	9.5
371.586	9.5
372.372	8.5
373.158	10.5
373.944	10.5
374.73	11.5
375.516	5.5
376.302	7.5
377.088	11.5
377.873	10.5
378.659	8.5
379.445	10.5
380.23	9.5
381.015	9.5
381.801	8.5
382.586	9.5
383.371	11.5
384.156	9.5
384.941	9.5
385.726	9.5
386.511	11.5
387.296	10.5
388.08	11.5
388.865	12.5
389.649	10.5
390.434	9.5
391.218	11.5
392.003	13.5
392.787	9.5
393.571	12.5
394.355	13.5
395.139	14.5
395.923	13.5
396.707	11.5
397.491	15.5
398.274	13.5
399.058	12.5
399.842	13.5
400.625	14.5
401.408	15.5
402.192	13.5
402.975	16.5
403.758	13.5
404.541	14.5
405.324	18.5
406.107	14.5
406.89	15.5
407.673	14.5
408.456	14.5
409.238	14.5
410.021	15.5
410.803	14.5
411.586	17.5
412.368	17.5
413.151	16.5
413.933	17.5
414.715	17.5
415.497	15.5
416.279	18.5
417.061	18.5
417.843	17.5
418.624	20.5
419.406	21.5
420.188	21.5
420.969	17.5
421.751	20.5
422.532	22.5
423.313	21.5
424.095	22.5
424.876	25.5
425.657	22.5
426.438	23.5
427.219	26.5
428	26.5
428.78	29.5
429.561	29.5
430.342	28.5
431.122	31.5
431.903	31.5
432.683	34.5
433.464	35.5
434.244	32.5
435.024	39.5
435.804	40.5
436.584	44.5
437.364	45.5
438.144	47.5
438.924	51.5
439.704	53.5
440.483	61.5
441.263	60.5
442.042	65.5
442.822	72.5
443.601	80.5
444.38	81.5
445.16	89.5
445.939	105.5
446.718	111.5
447.497	120.5
448.276	131.5
449.054	146.5
449.833	159.5
450.612	172.5
451.391	194.5
452.169	212.5
452.948	237.5
453.726	264.5
454.504	282.5
455.282	317.5
456.061	349.5
456.839	399.5
457.617	442.5
458.395	494.5
459.172	553.5
459.95	608.5
460.728	675.5
461.506	744.5
462.283	834.5
463.061	930.5
463.838	1019.5
464.615	1134.5
465.393	1260.5
466.17	1384.5
466.947	1535.5
467.724	1714.5
468.501	1883.5
469.278	2092.5
470.055	2284.5
470.831	2504.5
471.608	2758.5
472.385	3033.5
473.161	3316.5
473.938	3618.5
474.714	3957.5
475.49	4309.5
476.266	4717.5
477.043	5133.5
477.819	5573.5
478.595	6062.5
479.371	6605.5
480.146	7158.5
480.922	7781.5
481.698	8386.5
482.473	9115.5
483.249	9895.5
484.024	10639.5
484.8	11478.5
485.575	12383.5
486.35	13326.5
487.126	14436.5
487.901	15489.5
488.676	16616.5
489.451	17911.5
490.225	19191.5
491	20521.5
491.775	21959.5
492.55	23405.5
493.324	24910.5
494.099	26390.5
494.873	28018.5
495.647	29607.5
496.422	31148.5
497.196	32766.5
497.97	34278.5
498.744	35777.5
499.518	37210.5
500.292	38600.5
501.066	39702.5
501.839	40642.5
502.613	41606.5
503.387	42432.5
504.16	43123.5
504.934	43482.5
505.707	43845.5
506.48	43702.5
507.253	43517.5
508.027	43242.5
508.8	42675.5
509.573	41952.5
510.346	41268.5
511.118	40482.5
511.891	39394.5
512.664	38147.5
513.437	36984.5
514.209	35774.5
514.982	34552.5
515.754	33293.5
516.526	32033.5
517.298	30761.5
518.071	29647.5
518.843	28507.5
519.615	27350.5
520.387	26266.5
521.159	25244.5
521.93	24309.5
522.702	23266.5
523.474	22300.5
524.245	21413.5
525.017	20541.5
525.788	19693.5
526.56	18956.5
527.331	18101.5
528.102	17226.5
528.873	16396.5
529.644	15633.5
530.415	14926.5
531.186	14299.5
531.957	13585.5
532.728	12938.5
533.498	12268.5
534.269	11599.5
535.039	11043.5
535.81	10440.5
536.58	9862.5
537.351	9362.5
538.121	8878.5
538.891	8429.5
539.661	7953.5
540.431	7496.5
541.201	7141.5
541.971	6784.5
542.741	6421.5
543.51	6051.5
544.28	5779.5
545.05	5520.5
545.819	5273.5
546.588	5016.5
547.358	4780.5
548.127	4576.5
548.896	4313.5
549.665	4089.5
550.434	3915.5
551.203	3692.5
551.972	3506.5
552.741	3318.5
553.51	3125.5
554.278	2965.5
555.047	2789.5
555.815	2666.5
556.584	2520.5
557.352	2381.5
558.121	2254.5
558.889	2141.5
559.657	2014.5
560.425	1907.5
561.193	1809.5
561.961	1697.5
562.729	1618.5
563.496	1524.5
564.264	1439.5
565.032	1372.5
565.799	1303.5
566.567	1219.5
567.334	1152.5
568.101	1095.5
568.869	1032.5
569.636	980.5
570.403	916.5
571.17	865.5
571.937	814.5
572.704	773.5
573.471	728.5
574.237	696.5
575.004	653.5
575.771	604.5
576.537	574.5
577.303	548.5
578.07	510.5
578.836	485.5
579.602	457.5
580.368	444.5
581.134	417.5
581.9	395.5
582.666	371.5
583.432	363.5
584.198	335.5
584.964	322.5
585.729	307.5
586.495	289.5
587.26	273.5
588.025	256.5
588.791	246.5
589.556	235.5
590.321	220.5
591.086	207.5
591.851	199.5
592.616	195.5
593.381	178.5
594.146	168.5
594.911	167.5
595.675	161.5
596.44	156.5
597.204	146.5
597.969	139.5
598.733	134.5
599.497	122.5
600.261	125.5
601.025	121.5
601.79	109.5
602.553	103.5
603.317	102.5
604.081	99.5
604.845	93.5
605.609	83.5
606.372	79.5
607.136	81.5
607.899	78.5
608.662	76.5
609.426	74.5
610.189	73.5
610.952	69.5
611.715	68.5
612.478	63.5
613.241	60.5
614.004	59.5
614.767	56.5
615.529	55.5
616.292	51.5
617.055	51.5
617.817	49.5
618.579	46.5
619.342	48.5
620.104	42.5
620.866	43.5
621.628	40.5
622.39	42.5
623.152	38.5
623.914	38.5
624.676	37.5
625.438	35.5
626.199	34.5
626.961	33.5
627.722	32.5
628.484	33.5
629.245	31.5
630.006	28.5
630.768	28.5
631.529	30.5
632.29	27.5
633.051	27.5
633.812	25.5
634.573	26.5
635.333	22.5
636.094	23.5
636.855	23.5
637.615	22.5
638.376	20.5
639.136	20.5
639.896	21.5
640.657	18.5
641.417	21.5
642.177	18.5
642.937	19.5
643.697	20.5
644.457	19.5
645.216	15.5
645.976	19.5
646.736	18.5
647.495	15.5
648.255	18.5
649.014	17.5
649.774	13.5
650.533	19.5
651.292	14.5
652.051	13.5
652.81	15.5
653.569	14.5
654.328	13.5
655.087	14.5
655.846	13.5
656.604	14.5
657.363	11.5
658.121	12.5
658.88	10.5
659.638	11.5
660.397	12.5
661.155	12.5
661.913	12.5
662.671	10.5
663.429	12.5
664.187	9.5
664.945	11.5
665.703	9.5
666.46	9.5
667.218	9.5
667.976	11.5
668.733	8.5
669.49	10.5
670.248	11.5
671.005	12.5
671.762	7.5
672.519	10.5
673.276	9.5
674.033	8.5
674.79	5.5
675.547	10.5
676.304	9.5
677.06	7.5
677.817	9.5
678.574	8.5
679.33	9.5
680.086	8.5
680.843	10.5
681.599	9.5
682.355	7.5
683.111	8.5
683.867	8.5
684.623	9.5
685.379	10.5
686.135	8.5
686.89	9.5
687.646	9.5
688.402	8.5
689.157	8.5
689.912	9.5
690.668	8.5
691.423	7.5
692.178	8.5
692.933	5.5
693.688	9.5
694.443	8.5
695.198	7.5
695.953	9.5
696.708	5.5
697.462	6.5
698.217	6.5
698.972	8.5
699.726	8.5
700.48	8.5
701.235	8.5
701.989	8.5
702.743	6.5
703.497	6.5
704.251	9.5
705.005	7.5
705.759	7.5
706.513	4.5
707.266	8.5
708.02	7.5
708.774	5.5
709.527	7.5
710.28	5.5
711.034	8.5
711.787	7.5
712.54	7.5
713.293	7.5
714.046	8.5
714.799	8.5
715.552	8.5
716.305	8.5
717.058	8.5
717.81	6.5
718.563	9.5
719.315	10.5
720.068	8.5
720.82	8.5
721.573	8.5
722.325	9.5
723.077	8.5
723.829	7.5
724.581	8.5
725.333	9.5
726.085	9.5
726.836	6.5
727.588	9.5
728.34	8.5
729.091	9.5
729.843	9.5
730.594	10.5
731.346	8.5
732.097	7.5
732.848	9.5
733.599	7.5
734.35	7.5
735.101	9.5
735.852	5.5
736.603	10.5
737.354	10.5
738.104	10.5
738.855	8.5
739.605	8.5
740.356	11.5
741.106	9.5
741.856	10.5
742.607	8.5
743.357	8.5
744.107	11.5
744.857	11.5
745.607	11.5
746.357	8.5
747.106	10.5
747.856	9.5
748.606	10.5
749.355	10.5
750.105	13.5
750.854	11.5
751.603	9.5
752.353	9.5
753.102	9.5
753.851	8.5
754.6	11.5
755.349	8.5
756.098	11.5
756.847	10.5
757.595	12.5
758.344	10.5
759.093	10.5
759.841	9.5
760.589	12.5
761.338	11.5
762.086	11.5
762.834	12.5
763.582	14.5
764.331	13.5
765.079	14.5
765.826	10.5
766.574	15.5
767.322	14.5
768.07	12.5
768.817	15.5
769.565	11.5
770.312	11.5
771.06	14.5
771.807	13.5
772.554	11.5
773.302	14.5
774.049	13.5
774.796	18.5
775.543	14.5
776.29	17.5
777.036	14.5
777.783	16.5
778.53	15.5
779.276	16.5
780.023	15.5
780.769	15.5
781.516	15.5
782.262	13.5
783.008	13.5
783.754	13.5
784.5	18.5
785.246	14.5
785.992	16.5
786.738	15.5
787.484	14.5
788.23	14.5
788.975	17.5
789.721	14.5
790.466	13.5
791.212	15.5
791.957	11.5
792.702	11.5
793.447	15.5
794.193	12.5
794.938	14.5
795.683	11.5
796.427	12.5
797.172	14.5
797.917	12.5
798.662	13.5
799.406	11.5
800.151	12.5
800.895	11.5
801.64	12.5
802.384	12.5
803.128	13.5
803.872	12.5
804.616	11.5
805.36	9.5
806.104	11.5
806.848	9.5
807.592	11.5
808.336	10.5
809.079	8.5
809.823	11.5
810.566	9.5
811.31	11.5
812.053	12.5
812.796	11.5
813.539	10.5
814.283	10.5
815.026	8.5
815.769	8.5
816.511	9.5
817.254	10.5
817.997	7.5
818.74	7.5
819.482	7.5
820.225	9.5
820.967	7.5
821.71	8.5
822.452	8.5
823.194	7.5
823.936	7.5
824.678	8.5
825.42	7.5
826.162	6.5
826.904	8.5
827.646	8.5
828.388	3.5
829.129	10.5
829.871	5.5
830.612	8.5
831.354	4.5
832.095	5.5
832.836	7.5
833.577	8.5
834.319	7.5
835.06	6.5
835.801	7.5
836.542	3.5
837.282	5.5
838.023	8.5
838.764	4.5
839.504	7.5
840.245	8.5
840.985	5.5
841.726	5.5
842.466	3.5
843.206	6.5
843.946	4.5
844.687	5.5
845.427	6.5
846.166	5.5
846.906	5.5
847.646	5.5
848.386	6.5
849.125	4.5
849.865	6.5
850.605	3.5
851.344	4.5
852.083	3.5
852.823	6.5
853.562	6.5
854.301	5.5
855.04	5.5
855.779	5.5
856.518	6.5
857.257	3.5
857.995	3.5
858.734	4.5
859.473	3.5
860.211	6.5
860.95	4.5
861.688	4.5
862.426	4.5
863.165	3.5
863.903	5.5
864.641	3.5
865.379	3.5
866.117	3.5
866.855	2.5
867.593	3.5
868.33	4.5
869.068	3.5
869.806	5.5
870.543	2.5
871.28	6.5
872.018	2.5
872.755	1.5
873.492	2.5
874.229	3.5
874.967	1.5
875.703	-0.5
876.44	3.5
877.177	5.5
877.914	-0.5
878.651	4.5
879.387	1.5
880.124	3.5
880.86	1.5
881.597	1.5
882.333	1.5
883.069	1.5
883.806	3.5
884.542	2.5
885.278	3.5
886.014	1.5
886.749	2.5
887.485	1.5
888.221	2.5
888.957	2.5
889.692	3.5
890.428	1.5
891.163	1.5
891.899	1.5
892.634	2.5
893.369	3.5
894.104	1.5
894.839	1.5
895.574	0.5
896.309	2.5
897.044	1.5
897.779	2.5
898.514	3.5
899.248	1.5
899.983	1.5
900.717	2.5
901.452	1.5
902.186	2.5
902.92	2.5
903.654	0.5
904.389	1.5
905.123	2.5
905.857	-0.5
906.59	0.5
907.324	3.5
908.058	2.5
908.792	0.5
909.525	1.5
910.259	1.5
910.992	-0.5
911.726	1.5
912.459	1.5
913.192	-0.5
913.925	1.5
914.658	0.5
915.391	3.5
916.124	2.5
916.857	-0.5
917.59	3.5
918.323	-0.5
919.055	-0.5
919.788	2.5
920.521	1.5
921.253	0.5
921.985	1.5
922.718	0.5
923.45	1.5
924.182	3.5
924.914	-1.5
925.646	1.5
926.378	1.5
927.11	2.5
927.841	-1.5
928.573	0.5
929.305	0.5
930.036	1.5
930.768	1.5
931.499	1.5
932.23	1.5
932.962	0.5
933.693	0.5
934.424	2.5
935.155	2.5
935.886	0.5
936.617	0.5
937.348	-0.5
938.078	-0.5
938.809	-0.5
939.54	1.5
940.27	1.5
941.001	1.5
941.731	2.5
942.461	-1.5
943.191	1.5
943.922	3.5
944.652	-0.5
945.382	1.5
946.112	1.5
946.841	1.5
947.571	-0.5
948.301	-0.5
949.031	-0.5
949.76	2.5
950.49	-0.5
951.219	-0.5
951.948	1.5
952.678	1.5
953.407	0.5
954.136	0.5
954.865	1.5
955.594	0.5
956.323	0.5
957.052	-0.5
957.78	1.5
958.509	1.5
959.238	1.5
959.966	-0.5
960.695	2.5
961.423	-1.5
962.151	1.5
962.88	-0.5
963.608	1.5
964.336	-1.5
965.064	0.5
965.792	0.5
966.52	0.5
967.247	2.5
967.975	1.5
968.703	0.5
969.43	0.5
970.158	-0.5
970.885	-0.5
971.613	1.5
972.34	-1.5
973.067	-1.5
973.794	0.5
974.521	-1.5
975.248	1.5
975.975	2.5
976.702	-1.5
977.429	0.5
978.156	2.5
978.882	-0.5
979.609	1.5
980.335	-0.5
981.062	0.5
981.788	1.5
982.514	1.5
983.24	0.5
983.967	1.5
984.693	1.5
985.419	0.5
986.144	-0.5
986.87	1.5
987.596	0.5
988.322	0.5
989.047	-0.5
989.773	1.5
990.498	1.5
991.224	2.5
991.949	3.5
992.674	-0.5
993.399	0.5
994.124	-0.5
994.849	0.5
995.574	0.5
996.299	0.5
997.024	-0.5
997.749	0.5
998.473	-0.5
999.198	2.5
999.922	3.5
1000.647	2.5
1001.371	3.5
1002.095	-2.5
1002.82	1.5
1003.544	-1.5
1004.268	7.5
1004.992	5.5
1005.716	2.5
1006.439	3.5
1007.163	3.5
1007.887	9.5
1008.611	2.5
1009.334	2.5
1010.058	0.5
1010.781	2.5
1011.504	-0.5
1012.228	1.5
1012.951	1.5
1013.674	-0.5
1014.397	-1.5
1015.12	-0.5
