节点500_705_QEPB04081__443__20-52-11-726.txt的数据

Date: Wed Nov 12 20:52:11 CST 2025
User: PC
Spectrometer: QEPB0408
触发模式: 0
积分时间 (秒): 1.000000E-2
Scans to average: 1
启用暗噪声校正: true
启用非线性校正: false
滑动平均宽度: 0
X轴模式: Wavelengths
Number of Pixels in Spectrum: 1044
>>>>>Begin Spectral Data<<<<<
220.843	4.12
221.644	5.12
222.444	6.12
223.244	6.12
224.045	6.12
224.845	3.12
225.645	8.12
226.445	5.12
227.245	8.12
228.045	7.12
228.845	10.12
229.645	9.12
230.444	8.12
231.244	7.12
232.043	9.12
232.843	10.12
233.642	10.12
234.442	9.12
235.241	9.12
236.04	9.12
236.839	11.12
237.638	11.12
238.437	11.12
239.236	13.12
240.035	13.12
240.833	13.12
241.632	12.12
242.43	13.12
243.229	12.12
244.027	11.12
244.826	13.12
245.624	14.12
246.422	15.12
247.22	13.12
248.018	12.12
248.816	14.12
249.614	16.12
250.412	15.12
251.21	15.12
252.007	18.12
252.805	19.12
253.602	15.12
254.4	20.12
255.197	18.12
255.994	19.12
256.791	18.12
257.589	21.12
258.386	19.12
259.183	21.12
259.979	21.12
260.776	23.12
261.573	24.12
262.37	22.12
263.166	23.12
263.963	25.12
264.759	22.12
265.556	27.12
266.352	27.12
267.148	27.12
267.944	27.12
268.74	27.12
269.536	30.12
270.332	31.12
271.128	31.12
271.924	25.12
272.719	29.12
273.515	31.12
274.311	31.12
275.106	35.12
275.901	30.12
276.697	33.12
277.492	34.12
278.287	32.12
279.082	34.12
279.877	36.12
280.672	32.12
281.467	35.12
282.262	31.12
283.056	34.12
283.851	36.12
284.646	36.12
285.44	33.12
286.234	36.12
287.029	35.12
287.823	32.12
288.617	33.12
289.411	32.12
290.205	31.12
290.999	30.12
291.793	31.12
292.587	29.12
293.381	29.12
294.174	29.12
294.968	27.12
295.761	30.12
296.555	26.12
297.348	26.12
298.141	29.12
298.935	28.12
299.728	28.12
300.521	27.12
301.314	24.12
302.107	25.12
302.899	24.12
303.692	21.12
304.485	23.12
305.277	23.12
306.07	22.12
306.862	21.12
307.655	21.12
308.447	22.12
309.239	21.12
310.031	20.12
310.823	21.12
311.615	21.12
312.407	17.12
313.199	19.12
313.991	16.12
314.783	18.12
315.574	14.12
316.366	16.12
317.157	14.12
317.949	15.12
318.74	17.12
319.531	18.12
320.322	15.12
321.113	14.12
321.904	13.12
322.695	17.12
323.486	14.12
324.277	14.12
325.068	15.12
325.858	13.12
326.649	13.12
327.439	12.12
328.23	14.12
329.02	13.12
329.81	12.12
330.6	10.12
331.391	16.12
332.181	14.12
332.971	12.12
333.76	12.12
334.55	11.12
335.34	13.12
336.13	12.12
336.919	11.12
337.709	12.12
338.498	14.12
339.287	14.12
340.077	11.12
340.866	11.12
341.655	11.12
342.444	12.12
343.233	12.12
344.022	13.12
344.811	13.12
345.6	7.12
346.388	10.12
347.177	13.12
347.965	10.12
348.754	11.12
349.542	14.12
350.33	11.12
351.119	13.12
351.907	11.12
352.695	13.12
353.483	11.12
354.271	12.12
355.059	11.12
355.846	10.12
356.634	10.12
357.422	11.12
358.209	9.12
358.997	11.12
359.784	11.12
360.571	10.12
361.359	12.12
362.146	9.12
362.933	7.12
363.72	10.12
364.507	11.12
365.294	10.12
366.081	10.12
366.867	10.12
367.654	11.12
368.44	11.12
369.227	11.12
370.013	9.12
370.8	10.12
371.586	10.12
372.372	10.12
373.158	16.12
373.944	10.12
374.73	10.12
375.516	10.12
376.302	9.12
377.088	12.12
377.873	10.12
378.659	12.12
379.445	9.12
380.23	10.12
381.015	12.12
381.801	9.12
382.586	9.12
383.371	12.12
384.156	11.12
384.941	12.12
385.726	11.12
386.511	10.12
387.296	11.12
388.08	9.12
388.865	10.12
389.649	10.12
390.434	12.12
391.218	10.12
392.003	11.12
392.787	12.12
393.571	12.12
394.355	12.12
395.139	10.12
395.923	14.12
396.707	12.12
397.491	15.12
398.274	13.12
399.058	12.12
399.842	13.12
400.625	12.12
401.408	13.12
402.192	13.12
402.975	12.12
403.758	15.12
404.541	16.12
405.324	13.12
406.107	14.12
406.89	16.12
407.673	16.12
408.456	14.12
409.238	18.12
410.021	15.12
410.803	17.12
411.586	15.12
412.368	19.12
413.151	17.12
413.933	17.12
414.715	18.12
415.497	19.12
416.279	18.12
417.061	19.12
417.843	19.12
418.624	21.12
419.406	19.12
420.188	22.12
420.969	20.12
421.751	23.12
422.532	21.12
423.313	21.12
424.095	24.12
424.876	23.12
425.657	25.12
426.438	24.12
427.219	27.12
428	27.12
428.78	29.12
429.561	29.12
430.342	29.12
431.122	31.12
431.903	34.12
432.683	33.12
433.464	36.12
434.244	37.12
435.024	38.12
435.804	40.12
436.584	45.12
437.364	46.12
438.144	49.12
438.924	51.12
439.704	56.12
440.483	58.12
441.263	61.12
442.042	66.12
442.822	74.12
443.601	75.12
444.38	81.12
445.16	90.12
445.939	99.12
446.718	103.12
447.497	118.12
448.276	126.12
449.054	135.12
449.833	149.12
450.612	164.12
451.391	187.12
452.169	206.12
452.948	229.12
453.726	252.12
454.504	278.12
455.282	303.12
456.061	344.12
456.839	379.12
457.617	428.12
458.395	474.12
459.172	527.12
459.95	589.12
460.728	658.12
461.506	717.12
462.283	813.12
463.061	901.12
463.838	998.12
464.615	1119.12
465.393	1231.12
466.17	1371.12
466.947	1521.12
467.724	1687.12
468.501	1883.12
469.278	2051.12
470.055	2293.12
470.831	2524.12
471.608	2751.12
472.385	3026.12
473.161	3341.12
473.938	3658.12
474.714	4009.12
475.49	4395.12
476.266	4797.12
477.043	5258.12
477.819	5722.12
478.595	6241.12
479.371	6817.12
480.146	7368.12
480.922	8043.12
481.698	8730.12
482.473	9483.12
483.249	10381.12
484.024	11192.12
484.8	12081.12
485.575	13098.12
486.35	14138.12
487.126	15318.12
487.901	16525.12
488.676	17753.12
489.451	19054.12
490.225	20579.12
491	22017.12
491.775	23557.12
492.55	25172.12
493.324	26806.12
494.099	28496.12
494.873	30159.12
495.647	31880.12
496.422	33515.12
497.196	35256.12
497.97	36847.12
498.744	38349.12
499.518	39935.12
500.292	41219.12
501.066	42306.12
501.839	43330.12
502.613	44221.12
503.387	44889.12
504.16	45358.12
504.934	45659.12
505.707	45837.12
506.48	45441.12
507.253	45144.12
508.027	44636.12
508.8	43895.12
509.573	42997.12
510.346	42150.12
511.118	41209.12
511.891	39999.12
512.664	38557.12
513.437	37269.12
514.209	35884.12
514.982	34650.12
515.754	33207.12
516.526	31973.12
517.298	30641.12
518.071	29546.12
518.843	28323.12
519.615	27191.12
520.387	26117.12
521.159	25086.12
521.93	24071.12
522.702	23076.12
523.474	22055.12
524.245	21244.12
525.017	20355.12
525.788	19453.12
526.56	18673.12
527.331	17915.12
528.102	16968.12
528.873	16161.12
529.644	15396.12
530.415	14638.12
531.186	13966.12
531.957	13256.12
532.728	12595.12
533.498	11926.12
534.269	11323.12
535.039	10697.12
535.81	10147.12
536.58	9580.12
537.351	9101.12
538.121	8627.12
538.891	8186.12
539.661	7750.12
540.431	7325.12
541.201	6963.12
541.971	6548.12
542.741	6201.12
543.51	5895.12
544.28	5611.12
545.05	5339.12
545.819	5087.12
546.588	4846.12
547.358	4655.12
548.127	4413.12
548.896	4186.12
549.665	3972.12
550.434	3774.12
551.203	3580.12
551.972	3394.12
552.741	3206.12
553.51	3026.12
554.278	2866.12
555.047	2702.12
555.815	2575.12
556.584	2436.12
557.352	2282.12
558.121	2158.12
558.889	2032.12
559.657	1934.12
560.425	1833.12
561.193	1737.12
561.961	1650.12
562.729	1550.12
563.496	1459.12
564.264	1383.12
565.032	1309.12
565.799	1250.12
566.567	1180.12
567.334	1112.12
568.101	1044.12
568.869	992.12
569.636	938.12
570.403	886.12
571.17	835.12
571.937	780.12
572.704	733.12
573.471	689.12
574.237	653.12
575.004	624.12
575.771	589.12
576.537	550.12
577.303	519.12
578.07	500.12
578.836	458.12
579.602	439.12
580.368	417.12
581.134	409.12
581.9	375.12
582.666	355.12
583.432	347.12
584.198	322.12
584.964	314.12
585.729	294.12
586.495	279.12
587.26	258.12
588.025	252.12
588.791	237.12
589.556	222.12
590.321	207.12
591.086	204.12
591.851	193.12
592.616	184.12
593.381	177.12
594.146	171.12
594.911	159.12
595.675	147.12
596.44	151.12
597.204	138.12
597.969	129.12
598.733	127.12
599.497	120.12
600.261	119.12
601.025	114.12
601.79	112.12
602.553	97.12
603.317	95.12
604.081	90.12
604.845	91.12
605.609	89.12
606.372	80.12
607.136	79.12
607.899	77.12
608.662	75.12
609.426	70.12
610.189	67.12
610.952	68.12
611.715	66.12
612.478	61.12
613.241	58.12
614.004	59.12
614.767	55.12
615.529	51.12
616.292	52.12
617.055	50.12
617.817	50.12
618.579	45.12
619.342	44.12
620.104	46.12
620.866	40.12
621.628	41.12
622.39	38.12
623.152	37.12
623.914	36.12
624.676	38.12
625.438	37.12
626.199	32.12
626.961	34.12
627.722	32.12
628.484	29.12
629.245	31.12
630.006	27.12
630.768	27.12
631.529	27.12
632.29	25.12
633.051	28.12
633.812	27.12
634.573	24.12
635.333	22.12
636.094	23.12
636.855	22.12
637.615	21.12
638.376	22.12
639.136	18.12
639.896	18.12
640.657	19.12
641.417	21.12
642.177	19.12
642.937	18.12
643.697	18.12
644.457	18.12
645.216	20.12
645.976	16.12
646.736	16.12
647.495	16.12
648.255	15.12
649.014	14.12
649.774	15.12
650.533	15.12
651.292	14.12
652.051	14.12
652.81	15.12
653.569	14.12
654.328	17.12
655.087	13.12
655.846	15.12
656.604	11.12
657.363	15.12
658.121	11.12
658.88	11.12
659.638	10.12
660.397	10.12
661.155	11.12
661.913	10.12
662.671	11.12
663.429	11.12
664.187	11.12
664.945	10.12
665.703	10.12
666.46	11.12
667.218	7.12
667.976	10.12
668.733	11.12
669.49	9.12
670.248	13.12
671.005	9.12
671.762	9.12
672.519	11.12
673.276	7.12
674.033	9.12
674.79	8.12
675.547	8.12
676.304	11.12
677.06	8.12
677.817	8.12
678.574	9.12
679.33	9.12
680.086	10.12
680.843	9.12
681.599	8.12
682.355	11.12
683.111	9.12
683.867	7.12
684.623	8.12
685.379	8.12
686.135	7.12
686.89	8.12
687.646	8.12
688.402	7.12
689.157	8.12
689.912	7.12
690.668	11.12
691.423	7.12
692.178	7.12
692.933	8.12
693.688	6.12
694.443	8.12
695.198	8.12
695.953	9.12
696.708	6.12
697.462	10.12
698.217	8.12
698.972	10.12
699.726	8.12
700.48	8.12
701.235	10.12
701.989	8.12
702.743	9.12
703.497	7.12
704.251	7.12
705.005	9.12
705.759	8.12
706.513	8.12
707.266	6.12
708.02	9.12
708.774	8.12
709.527	9.12
710.28	9.12
711.034	6.12
711.787	6.12
712.54	8.12
713.293	7.12
714.046	7.12
714.799	7.12
715.552	10.12
716.305	6.12
717.058	5.12
717.81	6.12
718.563	9.12
719.315	9.12
720.068	6.12
720.82	11.12
721.573	8.12
722.325	7.12
723.077	6.12
723.829	7.12
724.581	9.12
725.333	8.12
726.085	8.12
726.836	10.12
727.588	8.12
728.34	9.12
729.091	8.12
729.843	8.12
730.594	10.12
731.346	8.12
732.097	7.12
732.848	6.12
733.599	10.12
734.35	9.12
735.101	10.12
735.852	8.12
736.603	9.12
737.354	10.12
738.104	7.12
738.855	9.12
739.605	11.12
740.356	9.12
741.106	11.12
741.856	8.12
742.607	10.12
743.357	10.12
744.107	11.12
744.857	11.12
745.607	10.12
746.357	13.12
747.106	8.12
747.856	11.12
748.606	10.12
749.355	12.12
750.105	11.12
750.854	12.12
751.603	10.12
752.353	10.12
753.102	8.12
753.851	11.12
754.6	15.12
755.349	12.12
756.098	11.12
756.847	10.12
757.595	10.12
758.344	13.12
759.093	12.12
759.841	14.12
760.589	14.12
761.338	13.12
762.086	12.12
762.834	14.12
763.582	11.12
764.331	13.12
765.079	13.12
765.826	9.12
766.574	12.12
767.322	15.12
768.07	13.12
768.817	15.12
769.565	13.12
770.312	12.12
771.06	12.12
771.807	13.12
772.554	15.12
773.302	14.12
774.049	13.12
774.796	15.12
775.543	11.12
776.29	18.12
777.036	15.12
777.783	13.12
778.53	15.12
779.276	14.12
780.023	15.12
780.769	14.12
781.516	17.12
782.262	13.12
783.008	15.12
783.754	17.12
784.5	13.12
785.246	15.12
785.992	13.12
786.738	17.12
787.484	13.12
788.23	18.12
788.975	16.12
789.721	14.12
790.466	17.12
791.212	17.12
791.957	14.12
792.702	15.12
793.447	14.12
794.193	16.12
794.938	14.12
795.683	14.12
796.427	11.12
797.172	15.12
797.917	13.12
798.662	13.12
799.406	15.12
800.151	13.12
800.895	11.12
801.64	13.12
802.384	11.12
803.128	11.12
803.872	11.12
804.616	11.12
805.36	13.12
806.104	10.12
806.848	10.12
807.592	11.12
808.336	8.12
809.079	11.12
809.823	9.12
810.566	9.12
811.31	8.12
812.053	10.12
812.796	11.12
813.539	9.12
814.283	8.12
815.026	9.12
815.769	7.12
816.511	8.12
817.254	9.12
817.997	8.12
818.74	7.12
819.482	8.12
820.225	7.12
820.967	7.12
821.71	5.12
822.452	7.12
823.194	7.12
823.936	10.12
824.678	5.12
825.42	6.12
826.162	5.12
826.904	7.12
827.646	6.12
828.388	7.12
829.129	9.12
829.871	8.12
830.612	7.12
831.354	8.12
832.095	7.12
832.836	4.12
833.577	8.12
834.319	5.12
835.06	8.12
835.801	3.12
836.542	8.12
837.282	7.12
838.023	7.12
838.764	3.12
839.504	5.12
840.245	7.12
840.985	5.12
841.726	5.12
842.466	7.12
843.206	5.12
843.946	5.12
844.687	4.12
845.427	6.12
846.166	2.12
846.906	5.12
847.646	7.12
848.386	3.12
849.125	7.12
849.865	5.12
850.605	5.12
851.344	5.12
852.083	4.12
852.823	5.12
853.562	4.12
854.301	5.12
855.04	4.12
855.779	5.12
856.518	5.12
857.257	6.12
857.995	4.12
858.734	4.12
859.473	3.12
860.211	2.12
860.95	3.12
861.688	5.12
862.426	1.12
863.165	2.12
863.903	4.12
864.641	6.12
865.379	3.12
866.117	3.12
866.855	4.12
867.593	3.12
868.33	6.12
869.068	4.12
869.806	3.12
870.543	4.12
871.28	1.12
872.018	3.12
872.755	1.12
873.492	2.12
874.229	4.12
874.967	1.12
875.703	6.12
876.44	3.12
877.177	4.12
877.914	2.12
878.651	2.12
879.387	2.12
880.124	2.12
880.86	3.12
881.597	2.12
882.333	4.12
883.069	3.12
883.806	3.12
884.542	3.12
885.278	1.12
886.014	3.12
886.749	2.12
887.485	3.12
888.221	3.12
888.957	0.12
889.692	4.12
890.428	1.12
891.163	3.12
891.899	0.12
892.634	0.12
893.369	1.12
894.104	1.12
894.839	3.12
895.574	1.12
896.309	2.12
897.044	2.12
897.779	2.12
898.514	3.12
899.248	1.12
899.983	3.12
900.717	2.12
901.452	2.12
902.186	2.12
902.92	1.12
903.654	1.12
904.389	3.12
905.123	1.12
905.857	2.12
906.59	2.12
907.324	-0.88
908.058	1.12
908.792	1.12
909.525	0.12
910.259	3.12
910.992	2.12
911.726	-0.88
912.459	2.12
913.192	-0.88
913.925	1.12
914.658	2.12
915.391	0.12
916.124	-0.88
916.857	-0.88
917.59	1.12
918.323	0.12
919.055	1.12
919.788	1.12
920.521	2.12
921.253	0.12
921.985	1.12
922.718	2.12
923.45	2.12
924.182	1.12
924.914	2.12
925.646	2.12
926.378	3.12
927.11	0.12
927.841	1.12
928.573	0.12
929.305	0.12
930.036	-0.88
930.768	-0.88
931.499	0.12
932.23	1.12
932.962	2.12
933.693	0.12
934.424	0.12
935.155	2.12
935.886	0.12
936.617	-0.88
937.348	-0.88
938.078	2.12
938.809	0.12
939.54	-0.88
940.27	1.12
941.001	0.12
941.731	1.12
942.461	-0.88
943.191	1.12
943.922	2.12
944.652	1.12
945.382	1.12
946.112	1.12
946.841	-0.88
947.571	2.12
948.301	0.12
949.031	2.12
949.76	1.12
950.49	-0.88
951.219	-0.88
951.948	1.12
952.678	-0.88
953.407	2.12
954.136	1.12
954.865	-0.88
955.594	1.12
956.323	1.12
957.052	1.12
957.78	-0.88
958.509	-0.88
959.238	2.12
959.966	-0.88
960.695	1.12
961.423	0.12
962.151	0.12
962.88	1.12
963.608	1.12
964.336	0.12
965.064	0.12
965.792	1.12
966.52	1.12
967.247	1.12
967.975	-0.88
968.703	1.12
969.43	2.12
970.158	1.12
970.885	-0.88
971.613	1.12
972.34	-1.88
973.067	-0.88
973.794	2.12
974.521	0.12
975.248	1.12
975.975	-0.88
976.702	0.12
977.429	0.12
978.156	2.12
978.882	1.12
979.609	3.12
980.335	1.12
981.062	1.12
981.788	1.12
982.514	2.12
983.24	-0.88
983.967	1.12
984.693	3.12
985.419	1.12
986.144	1.12
986.87	0.12
987.596	0.12
988.322	2.12
989.047	2.12
989.773	3.12
990.498	3.12
991.224	1.12
991.949	2.12
992.674	-1.88
993.399	2.12
994.124	0.12
994.849	-0.88
995.574	-0.88
996.299	0.12
997.024	-0.88
997.749	0.12
998.473	1.12
999.198	-0.88
999.922	0.12
1000.647	0.12
1001.371	3.12
1002.095	-1.88
1002.82	-0.88
1003.544	-0.88
1004.268	8.12
1004.992	4.12
1005.716	6.12
1006.439	6.12
1007.163	4.12
1007.887	6.12
1008.611	0.12
1009.334	-0.88
1010.058	1.12
1010.781	2.12
1011.504	1.12
1012.228	-0.88
1012.951	0.12
1013.674	-0.88
1014.397	0.12
1015.12	1.12
