节点500_705_QEPB04081__249__20-49-27-475.txt的数据

Date: Wed Nov 12 20:49:27 CST 2025
User: PC
Spectrometer: QEPB0408
触发模式: 0
积分时间 (秒): 1.000000E-2
Scans to average: 1
启用暗噪声校正: true
启用非线性校正: false
滑动平均宽度: 0
X轴模式: Wavelengths
Number of Pixels in Spectrum: 1044
>>>>>Begin Spectral Data<<<<<
220.843	5.88
221.644	6.88
222.444	5.88
223.244	4.88
224.045	8.88
224.845	4.88
225.645	5.88
226.445	6.88
227.245	7.88
228.045	8.88
228.845	6.88
229.645	9.88
230.444	9.88
231.244	7.88
232.043	8.88
232.843	12.88
233.642	10.88
234.442	7.88
235.241	10.88
236.04	11.88
236.839	10.88
237.638	10.88
238.437	7.88
239.236	10.88
240.035	13.88
240.833	11.88
241.632	11.88
242.43	11.88
243.229	13.88
244.027	12.88
244.826	16.88
245.624	12.88
246.422	13.88
247.22	16.88
248.018	14.88
248.816	16.88
249.614	15.88
250.412	16.88
251.21	16.88
252.007	13.88
252.805	16.88
253.602	16.88
254.4	18.88
255.197	16.88
255.994	17.88
256.791	21.88
257.589	22.88
258.386	21.88
259.183	21.88
259.979	24.88
260.776	22.88
261.573	25.88
262.37	22.88
263.166	25.88
263.963	24.88
264.759	27.88
265.556	28.88
266.352	27.88
267.148	29.88
267.944	27.88
268.74	27.88
269.536	30.88
270.332	31.88
271.128	29.88
271.924	33.88
272.719	30.88
273.515	32.88
274.311	34.88
275.106	35.88
275.901	36.88
276.697	31.88
277.492	33.88
278.287	30.88
279.082	35.88
279.877	34.88
280.672	30.88
281.467	36.88
282.262	33.88
283.056	36.88
283.851	34.88
284.646	33.88
285.44	35.88
286.234	35.88
287.029	33.88
287.823	38.88
288.617	34.88
289.411	30.88
290.205	31.88
290.999	34.88
291.793	32.88
292.587	30.88
293.381	31.88
294.174	32.88
294.968	32.88
295.761	25.88
296.555	26.88
297.348	24.88
298.141	27.88
298.935	30.88
299.728	25.88
300.521	26.88
301.314	26.88
302.107	23.88
302.899	21.88
303.692	24.88
304.485	20.88
305.277	22.88
306.07	19.88
306.862	21.88
307.655	22.88
308.447	17.88
309.239	24.88
310.031	20.88
310.823	18.88
311.615	18.88
312.407	17.88
313.199	19.88
313.991	16.88
314.783	14.88
315.574	14.88
316.366	14.88
317.157	16.88
317.949	15.88
318.74	12.88
319.531	13.88
320.322	12.88
321.113	14.88
321.904	14.88
322.695	14.88
323.486	14.88
324.277	13.88
325.068	12.88
325.858	13.88
326.649	12.88
327.439	12.88
328.23	11.88
329.02	12.88
329.81	11.88
330.6	12.88
331.391	12.88
332.181	9.88
332.971	9.88
333.76	14.88
334.55	10.88
335.34	10.88
336.13	14.88
336.919	13.88
337.709	11.88
338.498	9.88
339.287	10.88
340.077	13.88
340.866	12.88
341.655	13.88
342.444	11.88
343.233	8.88
344.022	11.88
344.811	11.88
345.6	12.88
346.388	11.88
347.177	9.88
347.965	12.88
348.754	11.88
349.542	14.88
350.33	11.88
351.119	8.88
351.907	7.88
352.695	11.88
353.483	10.88
354.271	9.88
355.059	12.88
355.846	11.88
356.634	10.88
357.422	10.88
358.209	10.88
358.997	10.88
359.784	9.88
360.571	8.88
361.359	10.88
362.146	10.88
362.933	9.88
363.72	8.88
364.507	12.88
365.294	10.88
366.081	8.88
366.867	9.88
367.654	8.88
368.44	8.88
369.227	8.88
370.013	11.88
370.8	6.88
371.586	11.88
372.372	9.88
373.158	6.88
373.944	8.88
374.73	9.88
375.516	10.88
376.302	10.88
377.088	7.88
377.873	9.88
378.659	9.88
379.445	10.88
380.23	9.88
381.015	12.88
381.801	10.88
382.586	10.88
383.371	10.88
384.156	10.88
384.941	9.88
385.726	8.88
386.511	10.88
387.296	11.88
388.08	10.88
388.865	9.88
389.649	12.88
390.434	10.88
391.218	10.88
392.003	11.88
392.787	13.88
393.571	11.88
394.355	11.88
395.139	13.88
395.923	12.88
396.707	13.88
397.491	11.88
398.274	13.88
399.058	9.88
399.842	14.88
400.625	14.88
401.408	12.88
402.192	14.88
402.975	12.88
403.758	12.88
404.541	16.88
405.324	16.88
406.107	14.88
406.89	14.88
407.673	17.88
408.456	16.88
409.238	13.88
410.021	17.88
410.803	16.88
411.586	17.88
412.368	15.88
413.151	16.88
413.933	17.88
414.715	18.88
415.497	19.88
416.279	20.88
417.061	20.88
417.843	20.88
418.624	20.88
419.406	19.88
420.188	20.88
420.969	21.88
421.751	21.88
422.532	24.88
423.313	23.88
424.095	24.88
424.876	23.88
425.657	22.88
426.438	25.88
427.219	27.88
428	27.88
428.78	29.88
429.561	29.88
430.342	26.88
431.122	28.88
431.903	31.88
432.683	32.88
433.464	33.88
434.244	38.88
435.024	38.88
435.804	39.88
436.584	44.88
437.364	42.88
438.144	48.88
438.924	48.88
439.704	53.88
440.483	53.88
441.263	58.88
442.042	66.88
442.822	68.88
443.601	74.88
444.38	75.88
445.16	85.88
445.939	93.88
446.718	100.88
447.497	107.88
448.276	119.88
449.054	133.88
449.833	142.88
450.612	157.88
451.391	170.88
452.169	187.88
452.948	209.88
453.726	230.88
454.504	259.88
455.282	288.88
456.061	321.88
456.839	355.88
457.617	408.88
458.395	446.88
459.172	499.88
459.95	550.88
460.728	620.88
461.506	688.88
462.283	779.88
463.061	871.88
463.838	954.88
464.615	1080.88
465.393	1195.88
466.17	1328.88
466.947	1471.88
467.724	1641.88
468.501	1819.88
469.278	2031.88
470.055	2248.88
470.831	2474.88
471.608	2734.88
472.385	3049.88
473.161	3327.88
473.938	3681.88
474.714	4061.88
475.49	4470.88
476.266	4913.88
477.043	5366.88
477.819	5902.88
478.595	6428.88
479.371	7076.88
480.146	7716.88
480.922	8420.88
481.698	9200.88
482.473	10004.88
483.249	10920.88
484.024	11861.88
484.8	12908.88
485.575	14019.88
486.35	15252.88
487.126	16561.88
487.901	17870.88
488.676	19324.88
489.451	20907.88
490.225	22481.88
491	24155.88
491.775	25874.88
492.55	27659.88
493.324	29533.88
494.099	31250.88
494.873	33122.88
495.647	35008.88
496.422	36835.88
497.196	38643.88
497.97	40280.88
498.744	41823.88
499.518	43415.88
500.292	44797.88
501.066	45771.88
501.839	46644.88
502.613	47323.88
503.387	47963.88
504.16	48233.88
504.934	48237.88
505.707	48054.88
506.48	47559.88
507.253	47021.88
508.027	46167.88
508.8	45049.88
509.573	43941.88
510.346	42843.88
511.118	41737.88
511.891	40312.88
512.664	38726.88
513.437	37149.88
514.209	35750.88
514.982	34342.88
515.754	32927.88
516.526	31588.88
517.298	30311.88
518.071	29024.88
518.843	27930.88
519.615	26774.88
520.387	25695.88
521.159	24723.88
521.93	23657.88
522.702	22624.88
523.474	21647.88
524.245	20813.88
525.017	19821.88
525.788	18983.88
526.56	18154.88
527.331	17319.88
528.102	16449.88
528.873	15584.88
529.644	14872.88
530.415	14182.88
531.186	13481.88
531.957	12733.88
532.728	12073.88
533.498	11433.88
534.269	10813.88
535.039	10263.88
535.81	9728.88
536.58	9160.88
537.351	8691.88
538.121	8228.88
538.891	7759.88
539.661	7348.88
540.431	6966.88
541.201	6619.88
541.971	6247.88
542.741	5917.88
543.51	5594.88
544.28	5370.88
545.05	5109.88
545.819	4864.88
546.588	4654.88
547.358	4440.88
548.127	4200.88
548.896	3972.88
549.665	3781.88
550.434	3557.88
551.203	3386.88
551.972	3188.88
552.741	3025.88
553.51	2820.88
554.278	2701.88
555.047	2573.88
555.815	2420.88
556.584	2282.88
557.352	2156.88
558.121	2035.88
558.889	1918.88
559.657	1810.88
560.425	1714.88
561.193	1623.88
561.961	1545.88
562.729	1461.88
563.496	1367.88
564.264	1295.88
565.032	1227.88
565.799	1155.88
566.567	1096.88
567.334	1054.88
568.101	986.88
568.869	938.88
569.636	880.88
570.403	827.88
571.17	780.88
571.937	728.88
572.704	695.88
573.471	656.88
574.237	627.88
575.004	576.88
575.771	535.88
576.537	517.88
577.303	491.88
578.07	466.88
578.836	438.88
579.602	408.88
580.368	395.88
581.134	376.88
581.9	359.88
582.666	334.88
583.432	317.88
584.198	304.88
584.964	286.88
585.729	272.88
586.495	264.88
587.26	246.88
588.025	235.88
588.791	221.88
589.556	209.88
590.321	197.88
591.086	188.88
591.851	178.88
592.616	174.88
593.381	164.88
594.146	154.88
594.911	152.88
595.675	145.88
596.44	138.88
597.204	129.88
597.969	115.88
598.733	120.88
599.497	118.88
600.261	109.88
601.025	102.88
601.79	102.88
602.553	100.88
603.317	89.88
604.081	87.88
604.845	86.88
605.609	84.88
606.372	81.88
607.136	73.88
607.899	70.88
608.662	67.88
609.426	65.88
610.189	64.88
610.952	63.88
611.715	57.88
612.478	57.88
613.241	54.88
614.004	53.88
614.767	53.88
615.529	50.88
616.292	48.88
617.055	47.88
617.817	43.88
618.579	41.88
619.342	41.88
620.104	41.88
620.866	40.88
621.628	39.88
622.39	39.88
623.152	38.88
623.914	33.88
624.676	35.88
625.438	32.88
626.199	31.88
626.961	29.88
627.722	29.88
628.484	28.88
629.245	27.88
630.006	26.88
630.768	28.88
631.529	27.88
632.29	23.88
633.051	25.88
633.812	22.88
634.573	24.88
635.333	23.88
636.094	23.88
636.855	24.88
637.615	21.88
638.376	21.88
639.136	20.88
639.896	18.88
640.657	21.88
641.417	16.88
642.177	19.88
642.937	19.88
643.697	16.88
644.457	16.88
645.216	18.88
645.976	15.88
646.736	15.88
647.495	14.88
648.255	14.88
649.014	15.88
649.774	13.88
650.533	15.88
651.292	12.88
652.051	14.88
652.81	12.88
653.569	14.88
654.328	12.88
655.087	10.88
655.846	14.88
656.604	10.88
657.363	11.88
658.121	10.88
658.88	11.88
659.638	10.88
660.397	10.88
661.155	11.88
661.913	11.88
662.671	6.88
663.429	9.88
664.187	11.88
664.945	10.88
665.703	9.88
666.46	9.88
667.218	10.88
667.976	9.88
668.733	8.88
669.49	10.88
670.248	10.88
671.005	9.88
671.762	7.88
672.519	7.88
673.276	8.88
674.033	7.88
674.79	11.88
675.547	8.88
676.304	8.88
677.06	7.88
677.817	8.88
678.574	8.88
679.33	9.88
680.086	11.88
680.843	8.88
681.599	7.88
682.355	8.88
683.111	7.88
683.867	7.88
684.623	8.88
685.379	6.88
686.135	7.88
686.89	5.88
687.646	9.88
688.402	5.88
689.157	6.88
689.912	7.88
690.668	7.88
691.423	8.88
692.178	8.88
692.933	6.88
693.688	10.88
694.443	7.88
695.198	8.88
695.953	7.88
696.708	6.88
697.462	7.88
698.217	6.88
698.972	7.88
699.726	6.88
700.48	6.88
701.235	6.88
701.989	7.88
702.743	6.88
703.497	6.88
704.251	5.88
705.005	7.88
705.759	6.88
706.513	8.88
707.266	9.88
708.02	10.88
708.774	5.88
709.527	6.88
710.28	9.88
711.034	5.88
711.787	9.88
712.54	6.88
713.293	8.88
714.046	7.88
714.799	7.88
715.552	6.88
716.305	7.88
717.058	6.88
717.81	4.88
718.563	8.88
719.315	7.88
720.068	8.88
720.82	7.88
721.573	8.88
722.325	10.88
723.077	7.88
723.829	8.88
724.581	8.88
725.333	7.88
726.085	6.88
726.836	8.88
727.588	7.88
728.34	7.88
729.091	9.88
729.843	10.88
730.594	8.88
731.346	7.88
732.097	9.88
732.848	7.88
733.599	8.88
734.35	9.88
735.101	8.88
735.852	8.88
736.603	10.88
737.354	7.88
738.104	10.88
738.855	6.88
739.605	8.88
740.356	11.88
741.106	9.88
741.856	7.88
742.607	9.88
743.357	10.88
744.107	10.88
744.857	10.88
745.607	11.88
746.357	9.88
747.106	10.88
747.856	11.88
748.606	11.88
749.355	11.88
750.105	9.88
750.854	12.88
751.603	10.88
752.353	13.88
753.102	10.88
753.851	12.88
754.6	11.88
755.349	11.88
756.098	12.88
756.847	10.88
757.595	13.88
758.344	12.88
759.093	13.88
759.841	11.88
760.589	11.88
761.338	13.88
762.086	11.88
762.834	14.88
763.582	12.88
764.331	14.88
765.079	15.88
765.826	13.88
766.574	12.88
767.322	14.88
768.07	12.88
768.817	14.88
769.565	16.88
770.312	12.88
771.06	12.88
771.807	10.88
772.554	13.88
773.302	14.88
774.049	14.88
774.796	17.88
775.543	14.88
776.29	17.88
777.036	15.88
777.783	13.88
778.53	16.88
779.276	17.88
780.023	14.88
780.769	16.88
781.516	15.88
782.262	15.88
783.008	16.88
783.754	13.88
784.5	14.88
785.246	14.88
785.992	13.88
786.738	12.88
787.484	16.88
788.23	15.88
788.975	12.88
789.721	14.88
790.466	15.88
791.212	15.88
791.957	15.88
792.702	11.88
793.447	15.88
794.193	15.88
794.938	15.88
795.683	13.88
796.427	16.88
797.172	13.88
797.917	14.88
798.662	13.88
799.406	12.88
800.151	10.88
800.895	11.88
801.64	10.88
802.384	12.88
803.128	12.88
803.872	10.88
804.616	8.88
805.36	10.88
806.104	12.88
806.848	10.88
807.592	11.88
808.336	7.88
809.079	10.88
809.823	11.88
810.566	13.88
811.31	10.88
812.053	6.88
812.796	11.88
813.539	6.88
814.283	6.88
815.026	7.88
815.769	7.88
816.511	8.88
817.254	7.88
817.997	7.88
818.74	9.88
819.482	5.88
820.225	8.88
820.967	6.88
821.71	6.88
822.452	5.88
823.194	5.88
823.936	6.88
824.678	6.88
825.42	6.88
826.162	6.88
826.904	7.88
827.646	6.88
828.388	4.88
829.129	9.88
829.871	5.88
830.612	5.88
831.354	6.88
832.095	5.88
832.836	4.88
833.577	5.88
834.319	8.88
835.06	6.88
835.801	6.88
836.542	5.88
837.282	5.88
838.023	5.88
838.764	5.88
839.504	4.88
840.245	4.88
840.985	7.88
841.726	6.88
842.466	4.88
843.206	4.88
843.946	4.88
844.687	4.88
845.427	5.88
846.166	6.88
846.906	4.88
847.646	3.88
848.386	5.88
849.125	5.88
849.865	4.88
850.605	4.88
851.344	4.88
852.083	3.88
852.823	4.88
853.562	5.88
854.301	5.88
855.04	4.88
855.779	4.88
856.518	1.88
857.257	3.88
857.995	2.88
858.734	1.88
859.473	3.88
860.211	3.88
860.95	3.88
861.688	4.88
862.426	0.88
863.165	2.88
863.903	2.88
864.641	1.88
865.379	4.88
866.117	1.88
866.855	2.88
867.593	0.88
868.33	2.88
869.068	0.88
869.806	3.88
870.543	0.88
871.28	1.88
872.018	2.88
872.755	2.88
873.492	1.88
874.229	2.88
874.967	1.88
875.703	0.88
876.44	2.88
877.177	0.88
877.914	0.88
878.651	4.88
879.387	-1.12
880.124	2.88
880.86	1.88
881.597	-0.12
882.333	2.88
883.069	-0.12
883.806	1.88
884.542	1.88
885.278	-2.12
886.014	-0.12
886.749	1.88
887.485	3.88
888.221	1.88
888.957	1.88
889.692	1.88
890.428	0.88
891.163	2.88
891.899	1.88
892.634	1.88
893.369	1.88
894.104	2.88
894.839	2.88
895.574	1.88
896.309	0.88
897.044	2.88
897.779	1.88
898.514	-1.12
899.248	0.88
899.983	1.88
900.717	-0.12
901.452	-0.12
902.186	0.88
902.92	-0.12
903.654	1.88
904.389	-1.12
905.123	0.88
905.857	0.88
906.59	-0.12
907.324	0.88
908.058	0.88
908.792	0.88
909.525	0.88
910.259	0.88
910.992	-0.12
911.726	1.88
912.459	0.88
913.192	-1.12
913.925	-2.12
914.658	1.88
915.391	1.88
916.124	-2.12
916.857	0.88
917.59	-1.12
918.323	-0.12
919.055	-0.12
919.788	-0.12
920.521	-0.12
921.253	0.88
921.985	0.88
922.718	0.88
923.45	0.88
924.182	-1.12
924.914	-0.12
925.646	2.88
926.378	0.88
927.11	1.88
927.841	1.88
928.573	-1.12
929.305	0.88
930.036	1.88
930.768	0.88
931.499	0.88
932.23	-2.12
932.962	-0.12
933.693	-1.12
934.424	0.88
935.155	-0.12
935.886	-0.12
936.617	-1.12
937.348	-1.12
938.078	2.88
938.809	-1.12
939.54	1.88
940.27	1.88
941.001	-3.12
941.731	0.88
942.461	0.88
943.191	1.88
943.922	-1.12
944.652	1.88
945.382	-0.12
946.112	-0.12
946.841	-0.12
947.571	1.88
948.301	-1.12
949.031	1.88
949.76	1.88
950.49	0.88
951.219	-1.12
951.948	1.88
952.678	-0.12
953.407	0.88
954.136	-1.12
954.865	-1.12
955.594	0.88
956.323	-1.12
957.052	-0.12
957.78	-1.12
958.509	1.88
959.238	2.88
959.966	-1.12
960.695	0.88
961.423	-1.12
962.151	0.88
962.88	-0.12
963.608	-1.12
964.336	0.88
965.064	-1.12
965.792	1.88
966.52	-1.12
967.247	1.88
967.975	-0.12
968.703	-1.12
969.43	-0.12
970.158	-1.12
970.885	-1.12
971.613	-2.12
972.34	-1.12
973.067	-0.12
973.794	-3.12
974.521	0.88
975.248	1.88
975.975	-1.12
976.702	0.88
977.429	1.88
978.156	-0.12
978.882	1.88
979.609	0.88
980.335	-0.12
981.062	0.88
981.788	1.88
982.514	-1.12
983.24	2.88
983.967	-0.12
984.693	2.88
985.419	2.88
986.144	-1.12
986.87	-0.12
987.596	-0.12
988.322	-1.12
989.047	0.88
989.773	1.88
990.498	0.88
991.224	-1.12
991.949	0.88
992.674	-0.12
993.399	-0.12
994.124	1.88
994.849	-1.12
995.574	-0.12
996.299	-1.12
997.024	0.88
997.749	-0.12
998.473	-0.12
999.198	3.88
999.922	-1.12
1000.647	0.88
1001.371	3.88
1002.095	-1.12
1002.82	-1.12
1003.544	-1.12
1004.268	6.88
1004.992	5.88
1005.716	6.88
1006.439	3.88
1007.163	6.88
1007.887	6.88
1008.611	-0.12
1009.334	-0.12
1010.058	1.88
1010.781	0.88
1011.504	0.88
1012.228	-0.12
1012.951	-0.12
1013.674	-0.12
1014.397	-0.12
1015.12	-0.12
