节点500_705_QEPB04081__297__20-50-13-392.txt的数据

Date: Wed Nov 12 20:50:13 CST 2025
User: PC
Spectrometer: QEPB0408
触发模式: 0
积分时间 (秒): 1.000000E-2
Scans to average: 1
启用暗噪声校正: true
启用非线性校正: false
滑动平均宽度: 0
X轴模式: Wavelengths
Number of Pixels in Spectrum: 1044
>>>>>Begin Spectral Data<<<<<
220.843	2.25
221.644	4.25
222.444	6.25
223.244	4.25
224.045	4.25
224.845	5.25
225.645	7.25
226.445	3.25
227.245	5.25
228.045	4.25
228.845	9.25
229.645	5.25
230.444	7.25
231.244	9.25
232.043	7.25
232.843	8.25
233.642	8.25
234.442	9.25
235.241	12.25
236.04	11.25
236.839	11.25
237.638	11.25
238.437	10.25
239.236	8.25
240.035	11.25
240.833	11.25
241.632	12.25
242.43	14.25
243.229	9.25
244.027	10.25
244.826	12.25
245.624	10.25
246.422	13.25
247.22	13.25
248.018	13.25
248.816	14.25
249.614	15.25
250.412	15.25
251.21	14.25
252.007	20.25
252.805	17.25
253.602	16.25
254.4	18.25
255.197	20.25
255.994	19.25
256.791	18.25
257.589	21.25
258.386	17.25
259.183	21.25
259.979	23.25
260.776	24.25
261.573	23.25
262.37	23.25
263.166	24.25
263.963	27.25
264.759	25.25
265.556	25.25
266.352	25.25
267.148	26.25
267.944	27.25
268.74	28.25
269.536	27.25
270.332	30.25
271.128	30.25
271.924	28.25
272.719	31.25
273.515	29.25
274.311	33.25
275.106	31.25
275.901	33.25
276.697	30.25
277.492	35.25
278.287	34.25
279.082	31.25
279.877	30.25
280.672	34.25
281.467	34.25
282.262	34.25
283.056	36.25
283.851	34.25
284.646	36.25
285.44	35.25
286.234	34.25
287.029	32.25
287.823	36.25
288.617	29.25
289.411	33.25
290.205	33.25
290.999	28.25
291.793	30.25
292.587	29.25
293.381	30.25
294.174	29.25
294.968	26.25
295.761	26.25
296.555	25.25
297.348	26.25
298.141	26.25
298.935	29.25
299.728	26.25
300.521	27.25
301.314	22.25
302.107	20.25
302.899	19.25
303.692	23.25
304.485	21.25
305.277	21.25
306.07	22.25
306.862	19.25
307.655	20.25
308.447	21.25
309.239	20.25
310.031	19.25
310.823	18.25
311.615	18.25
312.407	17.25
313.199	18.25
313.991	16.25
314.783	18.25
315.574	17.25
316.366	16.25
317.157	13.25
317.949	14.25
318.74	13.25
319.531	12.25
320.322	16.25
321.113	15.25
321.904	12.25
322.695	13.25
323.486	12.25
324.277	9.25
325.068	12.25
325.858	13.25
326.649	11.25
327.439	11.25
328.23	10.25
329.02	9.25
329.81	10.25
330.6	12.25
331.391	10.25
332.181	11.25
332.971	10.25
333.76	14.25
334.55	12.25
335.34	9.25
336.13	11.25
336.919	8.25
337.709	11.25
338.498	11.25
339.287	13.25
340.077	11.25
340.866	12.25
341.655	10.25
342.444	10.25
343.233	11.25
344.022	12.25
344.811	10.25
345.6	11.25
346.388	12.25
347.177	12.25
347.965	12.25
348.754	10.25
349.542	11.25
350.33	12.25
351.119	13.25
351.907	8.25
352.695	7.25
353.483	10.25
354.271	10.25
355.059	8.25
355.846	7.25
356.634	8.25
357.422	10.25
358.209	10.25
358.997	8.25
359.784	10.25
360.571	8.25
361.359	9.25
362.146	10.25
362.933	8.25
363.72	12.25
364.507	10.25
365.294	12.25
366.081	6.25
366.867	10.25
367.654	9.25
368.44	8.25
369.227	10.25
370.013	8.25
370.8	8.25
371.586	11.25
372.372	7.25
373.158	9.25
373.944	7.25
374.73	10.25
375.516	9.25
376.302	10.25
377.088	9.25
377.873	10.25
378.659	7.25
379.445	9.25
380.23	8.25
381.015	9.25
381.801	9.25
382.586	11.25
383.371	9.25
384.156	8.25
384.941	10.25
385.726	10.25
386.511	8.25
387.296	9.25
388.08	8.25
388.865	11.25
389.649	11.25
390.434	10.25
391.218	7.25
392.003	10.25
392.787	9.25
393.571	10.25
394.355	9.25
395.139	12.25
395.923	13.25
396.707	12.25
397.491	12.25
398.274	11.25
399.058	11.25
399.842	13.25
400.625	12.25
401.408	16.25
402.192	14.25
402.975	12.25
403.758	14.25
404.541	13.25
405.324	15.25
406.107	15.25
406.89	16.25
407.673	17.25
408.456	15.25
409.238	14.25
410.021	17.25
410.803	18.25
411.586	19.25
412.368	17.25
413.151	18.25
413.933	18.25
414.715	16.25
415.497	17.25
416.279	17.25
417.061	17.25
417.843	18.25
418.624	21.25
419.406	17.25
420.188	21.25
420.969	19.25
421.751	22.25
422.532	21.25
423.313	22.25
424.095	21.25
424.876	23.25
425.657	23.25
426.438	24.25
427.219	24.25
428	26.25
428.78	30.25
429.561	30.25
430.342	31.25
431.122	30.25
431.903	34.25
432.683	33.25
433.464	34.25
434.244	39.25
435.024	39.25
435.804	41.25
436.584	43.25
437.364	43.25
438.144	45.25
438.924	52.25
439.704	54.25
440.483	58.25
441.263	58.25
442.042	61.25
442.822	65.25
443.601	72.25
444.38	76.25
445.16	85.25
445.939	89.25
446.718	99.25
447.497	113.25
448.276	123.25
449.054	132.25
449.833	139.25
450.612	162.25
451.391	178.25
452.169	194.25
452.948	216.25
453.726	234.25
454.504	266.25
455.282	301.25
456.061	329.25
456.839	366.25
457.617	411.25
458.395	449.25
459.172	507.25
459.95	568.25
460.728	629.25
461.506	699.25
462.283	768.25
463.061	876.25
463.838	981.25
464.615	1077.25
465.393	1207.25
466.17	1339.25
466.947	1511.25
467.724	1655.25
468.501	1842.25
469.278	2033.25
470.055	2261.25
470.831	2496.25
471.608	2759.25
472.385	3029.25
473.161	3371.25
473.938	3679.25
474.714	4050.25
475.49	4451.25
476.266	4871.25
477.043	5352.25
477.819	5845.25
478.595	6359.25
479.371	6959.25
480.146	7618.25
480.922	8305.25
481.698	9043.25
482.473	9822.25
483.249	10781.25
484.024	11655.25
484.8	12638.25
485.575	13723.25
486.35	14899.25
487.126	16143.25
487.901	17429.25
488.676	18851.25
489.451	20352.25
490.225	21867.25
491	23394.25
491.775	25082.25
492.55	26860.25
493.324	28632.25
494.099	30351.25
494.873	32105.25
495.647	33930.25
496.422	35855.25
497.196	37521.25
497.97	39260.25
498.744	40653.25
499.518	42338.25
500.292	43641.25
501.066	44755.25
501.839	45607.25
502.613	46314.25
503.387	46953.25
504.16	47367.25
504.934	47472.25
505.707	47444.25
506.48	46930.25
507.253	46435.25
508.027	45662.25
508.8	44690.25
509.573	43629.25
510.346	42569.25
511.118	41453.25
511.891	40271.25
512.664	38749.25
513.437	37213.25
514.209	35807.25
514.982	34492.25
515.754	32995.25
516.526	31622.25
517.298	30449.25
518.071	29180.25
518.843	28033.25
519.615	26871.25
520.387	25891.25
521.159	24831.25
521.93	23818.25
522.702	22849.25
523.474	21836.25
524.245	20961.25
525.017	19935.25
525.788	19056.25
526.56	18335.25
527.331	17488.25
528.102	16577.25
528.873	15778.25
529.644	15024.25
530.415	14309.25
531.186	13638.25
531.957	12912.25
532.728	12215.25
533.498	11576.25
534.269	10981.25
535.039	10409.25
535.81	9848.25
536.58	9324.25
537.351	8812.25
538.121	8353.25
538.891	7900.25
539.661	7461.25
540.431	7061.25
541.201	6720.25
541.971	6358.25
542.741	6018.25
543.51	5733.25
544.28	5419.25
545.05	5171.25
545.819	4938.25
546.588	4705.25
547.358	4446.25
548.127	4244.25
548.896	4040.25
549.665	3820.25
550.434	3635.25
551.203	3462.25
551.972	3264.25
552.741	3089.25
553.51	2912.25
554.278	2745.25
555.047	2597.25
555.815	2456.25
556.584	2313.25
557.352	2185.25
558.121	2070.25
558.889	1944.25
559.657	1833.25
560.425	1747.25
561.193	1649.25
561.961	1570.25
562.729	1492.25
563.496	1408.25
564.264	1328.25
565.032	1238.25
565.799	1169.25
566.567	1130.25
567.334	1056.25
568.101	1011.25
568.869	952.25
569.636	891.25
570.403	845.25
571.17	796.25
571.937	751.25
572.704	710.25
573.471	668.25
574.237	628.25
575.004	594.25
575.771	563.25
576.537	527.25
577.303	503.25
578.07	475.25
578.836	442.25
579.602	429.25
580.368	401.25
581.134	386.25
581.9	358.25
582.666	344.25
583.432	320.25
584.198	318.25
584.964	294.25
585.729	284.25
586.495	265.25
587.26	256.25
588.025	239.25
588.791	228.25
589.556	214.25
590.321	202.25
591.086	193.25
591.851	185.25
592.616	175.25
593.381	166.25
594.146	161.25
594.911	155.25
595.675	142.25
596.44	140.25
597.204	131.25
597.969	125.25
598.733	118.25
599.497	116.25
600.261	113.25
601.025	104.25
601.79	106.25
602.553	97.25
603.317	88.25
604.081	86.25
604.845	85.25
605.609	84.25
606.372	82.25
607.136	75.25
607.899	73.25
608.662	69.25
609.426	68.25
610.189	64.25
610.952	65.25
611.715	60.25
612.478	57.25
613.241	55.25
614.004	57.25
614.767	50.25
615.529	50.25
616.292	49.25
617.055	48.25
617.817	40.25
618.579	45.25
619.342	43.25
620.104	43.25
620.866	40.25
621.628	36.25
622.39	36.25
623.152	35.25
623.914	34.25
624.676	36.25
625.438	33.25
626.199	32.25
626.961	30.25
627.722	26.25
628.484	27.25
629.245	29.25
630.006	29.25
630.768	26.25
631.529	27.25
632.29	22.25
633.051	24.25
633.812	22.25
634.573	22.25
635.333	22.25
636.094	21.25
636.855	21.25
637.615	20.25
638.376	20.25
639.136	21.25
639.896	19.25
640.657	21.25
641.417	16.25
642.177	16.25
642.937	14.25
643.697	14.25
644.457	18.25
645.216	17.25
645.976	16.25
646.736	16.25
647.495	16.25
648.255	15.25
649.014	14.25
649.774	13.25
650.533	11.25
651.292	14.25
652.051	12.25
652.81	10.25
653.569	13.25
654.328	14.25
655.087	13.25
655.846	13.25
656.604	10.25
657.363	11.25
658.121	12.25
658.88	12.25
659.638	12.25
660.397	11.25
661.155	10.25
661.913	10.25
662.671	9.25
663.429	10.25
664.187	8.25
664.945	8.25
665.703	9.25
666.46	11.25
667.218	9.25
667.976	7.25
668.733	7.25
669.49	10.25
670.248	9.25
671.005	7.25
671.762	8.25
672.519	5.25
673.276	9.25
674.033	8.25
674.79	6.25
675.547	8.25
676.304	9.25
677.06	7.25
677.817	7.25
678.574	10.25
679.33	8.25
680.086	7.25
680.843	7.25
681.599	7.25
682.355	9.25
683.111	6.25
683.867	8.25
684.623	8.25
685.379	7.25
686.135	8.25
686.89	6.25
687.646	7.25
688.402	7.25
689.157	6.25
689.912	9.25
690.668	6.25
691.423	7.25
692.178	5.25
692.933	8.25
693.688	10.25
694.443	4.25
695.198	7.25
695.953	6.25
696.708	7.25
697.462	7.25
698.217	7.25
698.972	7.25
699.726	4.25
700.48	8.25
701.235	5.25
701.989	6.25
702.743	7.25
703.497	5.25
704.251	7.25
705.005	3.25
705.759	7.25
706.513	4.25
707.266	5.25
708.02	6.25
708.774	7.25
709.527	6.25
710.28	5.25
711.034	5.25
711.787	7.25
712.54	6.25
713.293	7.25
714.046	5.25
714.799	7.25
715.552	6.25
716.305	9.25
717.058	8.25
717.81	7.25
718.563	7.25
719.315	7.25
720.068	9.25
720.82	5.25
721.573	7.25
722.325	4.25
723.077	8.25
723.829	9.25
724.581	7.25
725.333	8.25
726.085	7.25
726.836	8.25
727.588	7.25
728.34	4.25
729.091	8.25
729.843	9.25
730.594	6.25
731.346	9.25
732.097	9.25
732.848	6.25
733.599	8.25
734.35	10.25
735.101	9.25
735.852	8.25
736.603	7.25
737.354	7.25
738.104	10.25
738.855	8.25
739.605	9.25
740.356	8.25
741.106	7.25
741.856	10.25
742.607	8.25
743.357	12.25
744.107	9.25
744.857	10.25
745.607	11.25
746.357	9.25
747.106	9.25
747.856	10.25
748.606	10.25
749.355	8.25
750.105	11.25
750.854	9.25
751.603	11.25
752.353	8.25
753.102	8.25
753.851	11.25
754.6	10.25
755.349	10.25
756.098	12.25
756.847	11.25
757.595	11.25
758.344	12.25
759.093	11.25
759.841	11.25
760.589	10.25
761.338	11.25
762.086	11.25
762.834	14.25
763.582	12.25
764.331	12.25
765.079	13.25
765.826	11.25
766.574	12.25
767.322	13.25
768.07	17.25
768.817	12.25
769.565	15.25
770.312	15.25
771.06	12.25
771.807	16.25
772.554	15.25
773.302	15.25
774.049	12.25
774.796	13.25
775.543	14.25
776.29	15.25
777.036	13.25
777.783	16.25
778.53	14.25
779.276	17.25
780.023	17.25
780.769	15.25
781.516	15.25
782.262	13.25
783.008	16.25
783.754	14.25
784.5	18.25
785.246	16.25
785.992	17.25
786.738	16.25
787.484	12.25
788.23	15.25
788.975	12.25
789.721	12.25
790.466	15.25
791.212	14.25
791.957	13.25
792.702	14.25
793.447	14.25
794.193	12.25
794.938	14.25
795.683	13.25
796.427	11.25
797.172	11.25
797.917	13.25
798.662	12.25
799.406	11.25
800.151	12.25
800.895	12.25
801.64	10.25
802.384	11.25
803.128	11.25
803.872	10.25
804.616	9.25
805.36	11.25
806.104	8.25
806.848	11.25
807.592	12.25
808.336	8.25
809.079	8.25
809.823	9.25
810.566	9.25
811.31	6.25
812.053	10.25
812.796	9.25
813.539	8.25
814.283	9.25
815.026	10.25
815.769	6.25
816.511	11.25
817.254	6.25
817.997	8.25
818.74	6.25
819.482	6.25
820.225	7.25
820.967	7.25
821.71	7.25
822.452	7.25
823.194	7.25
823.936	6.25
824.678	7.25
825.42	8.25
826.162	4.25
826.904	8.25
827.646	5.25
828.388	7.25
829.129	8.25
829.871	6.25
830.612	6.25
831.354	5.25
832.095	8.25
832.836	5.25
833.577	6.25
834.319	6.25
835.06	5.25
835.801	7.25
836.542	5.25
837.282	4.25
838.023	5.25
838.764	4.25
839.504	5.25
840.245	5.25
840.985	8.25
841.726	5.25
842.466	4.25
843.206	3.25
843.946	4.25
844.687	4.25
845.427	2.25
846.166	5.25
846.906	4.25
847.646	5.25
848.386	3.25
849.125	3.25
849.865	3.25
850.605	3.25
851.344	4.25
852.083	6.25
852.823	6.25
853.562	5.25
854.301	3.25
855.04	4.25
855.779	2.25
856.518	1.25
857.257	4.25
857.995	2.25
858.734	4.25
859.473	2.25
860.211	1.25
860.95	5.25
861.688	1.25
862.426	5.25
863.165	3.25
863.903	1.25
864.641	2.25
865.379	3.25
866.117	3.25
866.855	1.25
867.593	5.25
868.33	-0.75
869.068	2.25
869.806	0.25
870.543	1.25
871.28	3.25
872.018	-1.75
872.755	1.25
873.492	2.25
874.229	-0.75
874.967	2.25
875.703	0.25
876.44	4.25
877.177	2.25
877.914	2.25
878.651	3.25
879.387	2.25
880.124	2.25
880.86	-1.75
881.597	0.25
882.333	2.25
883.069	0.25
883.806	0.25
884.542	1.25
885.278	0.25
886.014	-0.75
886.749	2.25
887.485	-1.75
888.221	-0.75
888.957	1.25
889.692	1.25
890.428	2.25
891.163	1.25
891.899	-0.75
892.634	1.25
893.369	0.25
894.104	-1.75
894.839	0.25
895.574	0.25
896.309	2.25
897.044	-1.75
897.779	1.25
898.514	1.25
899.248	1.25
899.983	1.25
900.717	1.25
901.452	1.25
902.186	2.25
902.92	0.25
903.654	1.25
904.389	0.25
905.123	0.25
905.857	-0.75
906.59	0.25
907.324	1.25
908.058	1.25
908.792	2.25
909.525	-0.75
910.259	-0.75
910.992	-0.75
911.726	0.25
912.459	-0.75
913.192	-0.75
913.925	0.25
914.658	-1.75
915.391	0.25
916.124	0.25
916.857	2.25
917.59	-0.75
918.323	0.25
919.055	-1.75
919.788	0.25
920.521	0.25
921.253	-1.75
921.985	1.25
922.718	0.25
923.45	0.25
924.182	2.25
924.914	0.25
925.646	0.25
926.378	0.25
927.11	-0.75
927.841	-1.75
928.573	-0.75
929.305	-0.75
930.036	0.25
930.768	-0.75
931.499	-0.75
932.23	-1.75
932.962	0.25
933.693	-2.75
934.424	-0.75
935.155	0.25
935.886	0.25
936.617	-0.75
937.348	0.25
938.078	2.25
938.809	0.25
939.54	0.25
940.27	-0.75
941.001	-2.75
941.731	0.25
942.461	0.25
943.191	-0.75
943.922	-1.75
944.652	-1.75
945.382	0.25
946.112	-1.75
946.841	0.25
947.571	0.25
948.301	-0.75
949.031	-0.75
949.76	0.25
950.49	-0.75
951.219	-1.75
951.948	-1.75
952.678	0.25
953.407	2.25
954.136	0.25
954.865	-1.75
955.594	-1.75
956.323	-1.75
957.052	-1.75
957.78	-2.75
958.509	-1.75
959.238	0.25
959.966	0.25
960.695	-1.75
961.423	0.25
962.151	-1.75
962.88	1.25
963.608	-0.75
964.336	-0.75
965.064	-0.75
965.792	0.25
966.52	-1.75
967.247	0.25
967.975	-1.75
968.703	-0.75
969.43	1.25
970.158	-1.75
970.885	-0.75
971.613	0.25
972.34	-0.75
973.067	2.25
973.794	0.25
974.521	-0.75
975.248	-0.75
975.975	0.25
976.702	1.25
977.429	-3.75
978.156	1.25
978.882	0.25
979.609	-1.75
980.335	0.25
981.062	0.25
981.788	1.25
982.514	-2.75
983.24	0.25
983.967	-1.75
984.693	0.25
985.419	-0.75
986.144	-2.75
986.87	0.25
987.596	-0.75
988.322	0.25
989.047	-1.75
989.773	-1.75
990.498	0.25
991.224	-1.75
991.949	1.25
992.674	-0.75
993.399	0.25
994.124	-3.75
994.849	-1.75
995.574	0.25
996.299	-2.75
997.024	1.25
997.749	0.25
998.473	-1.75
999.198	0.25
999.922	0.25
1000.647	-1.75
1001.371	2.25
1002.095	-1.75
1002.82	-0.75
1003.544	0.25
1004.268	4.25
1004.992	3.25
1005.716	6.25
1006.439	4.25
1007.163	5.25
1007.887	2.25
1008.611	1.25
1009.334	0.25
1010.058	1.25
1010.781	-1.75
1011.504	2.25
1012.228	0.25
1012.951	1.25
1013.674	0.25
1014.397	0.25
1015.12	-1.75
