节点500_705_QEPB04081__141__20-48-13-086.txt的数据

Date: Wed Nov 12 20:48:13 CST 2025
User: PC
Spectrometer: QEPB0408
触发模式: 0
积分时间 (秒): 1.000000E-2
Scans to average: 1
启用暗噪声校正: true
启用非线性校正: false
滑动平均宽度: 0
X轴模式: Wavelengths
Number of Pixels in Spectrum: 1044
>>>>>Begin Spectral Data<<<<<
220.843	6.25
221.644	4.25
222.444	5.25
223.244	4.25
224.045	8.25
224.845	3.25
225.645	5.25
226.445	5.25
227.245	7.25
228.045	8.25
228.845	5.25
229.645	6.25
230.444	8.25
231.244	8.25
232.043	9.25
232.843	8.25
233.642	9.25
234.442	8.25
235.241	10.25
236.04	11.25
236.839	11.25
237.638	10.25
238.437	9.25
239.236	12.25
240.035	12.25
240.833	12.25
241.632	11.25
242.43	12.25
243.229	13.25
244.027	14.25
244.826	14.25
245.624	12.25
246.422	15.25
247.22	14.25
248.018	15.25
248.816	14.25
249.614	15.25
250.412	16.25
251.21	17.25
252.007	15.25
252.805	18.25
253.602	16.25
254.4	18.25
255.197	17.25
255.994	19.25
256.791	21.25
257.589	21.25
258.386	22.25
259.183	23.25
259.979	20.25
260.776	23.25
261.573	24.25
262.37	26.25
263.166	26.25
263.963	27.25
264.759	29.25
265.556	27.25
266.352	26.25
267.148	25.25
267.944	30.25
268.74	30.25
269.536	31.25
270.332	30.25
271.128	33.25
271.924	31.25
272.719	32.25
273.515	33.25
274.311	33.25
275.106	34.25
275.901	34.25
276.697	36.25
277.492	35.25
278.287	32.25
279.082	39.25
279.877	36.25
280.672	39.25
281.467	32.25
282.262	30.25
283.056	34.25
283.851	33.25
284.646	36.25
285.44	33.25
286.234	31.25
287.029	34.25
287.823	34.25
288.617	34.25
289.411	34.25
290.205	34.25
290.999	32.25
291.793	31.25
292.587	32.25
293.381	29.25
294.174	29.25
294.968	27.25
295.761	28.25
296.555	26.25
297.348	27.25
298.141	29.25
298.935	30.25
299.728	27.25
300.521	25.25
301.314	22.25
302.107	25.25
302.899	22.25
303.692	27.25
304.485	22.25
305.277	20.25
306.07	25.25
306.862	21.25
307.655	22.25
308.447	21.25
309.239	22.25
310.031	20.25
310.823	19.25
311.615	18.25
312.407	17.25
313.199	17.25
313.991	17.25
314.783	15.25
315.574	15.25
316.366	16.25
317.157	17.25
317.949	16.25
318.74	16.25
319.531	14.25
320.322	12.25
321.113	13.25
321.904	11.25
322.695	11.25
323.486	12.25
324.277	11.25
325.068	14.25
325.858	11.25
326.649	13.25
327.439	14.25
328.23	12.25
329.02	12.25
329.81	14.25
330.6	12.25
331.391	11.25
332.181	12.25
332.971	10.25
333.76	12.25
334.55	10.25
335.34	12.25
336.13	13.25
336.919	11.25
337.709	11.25
338.498	13.25
339.287	12.25
340.077	10.25
340.866	9.25
341.655	11.25
342.444	13.25
343.233	11.25
344.022	12.25
344.811	11.25
345.6	10.25
346.388	10.25
347.177	10.25
347.965	14.25
348.754	9.25
349.542	11.25
350.33	10.25
351.119	13.25
351.907	9.25
352.695	10.25
353.483	12.25
354.271	10.25
355.059	10.25
355.846	12.25
356.634	8.25
357.422	10.25
358.209	8.25
358.997	9.25
359.784	7.25
360.571	11.25
361.359	10.25
362.146	7.25
362.933	8.25
363.72	9.25
364.507	10.25
365.294	9.25
366.081	13.25
366.867	8.25
367.654	8.25
368.44	9.25
369.227	9.25
370.013	9.25
370.8	7.25
371.586	8.25
372.372	10.25
373.158	7.25
373.944	7.25
374.73	10.25
375.516	9.25
376.302	8.25
377.088	10.25
377.873	10.25
378.659	10.25
379.445	10.25
380.23	9.25
381.015	8.25
381.801	10.25
382.586	10.25
383.371	10.25
384.156	9.25
384.941	8.25
385.726	11.25
386.511	9.25
387.296	12.25
388.08	9.25
388.865	13.25
389.649	11.25
390.434	11.25
391.218	10.25
392.003	13.25
392.787	12.25
393.571	12.25
394.355	10.25
395.139	11.25
395.923	12.25
396.707	16.25
397.491	10.25
398.274	11.25
399.058	14.25
399.842	10.25
400.625	13.25
401.408	13.25
402.192	15.25
402.975	14.25
403.758	16.25
404.541	16.25
405.324	14.25
406.107	14.25
406.89	13.25
407.673	14.25
408.456	18.25
409.238	17.25
410.021	19.25
410.803	17.25
411.586	16.25
412.368	18.25
413.151	18.25
413.933	17.25
414.715	16.25
415.497	20.25
416.279	20.25
417.061	18.25
417.843	19.25
418.624	20.25
419.406	18.25
420.188	22.25
420.969	19.25
421.751	22.25
422.532	22.25
423.313	25.25
424.095	24.25
424.876	26.25
425.657	25.25
426.438	26.25
427.219	27.25
428	25.25
428.78	27.25
429.561	31.25
430.342	30.25
431.122	31.25
431.903	30.25
432.683	34.25
433.464	36.25
434.244	36.25
435.024	36.25
435.804	44.25
436.584	39.25
437.364	45.25
438.144	44.25
438.924	49.25
439.704	52.25
440.483	54.25
441.263	59.25
442.042	64.25
442.822	66.25
443.601	71.25
444.38	77.25
445.16	85.25
445.939	92.25
446.718	94.25
447.497	106.25
448.276	110.25
449.054	131.25
449.833	145.25
450.612	149.25
451.391	176.25
452.169	183.25
452.948	204.25
453.726	229.25
454.504	257.25
455.282	281.25
456.061	311.25
456.839	350.25
457.617	388.25
458.395	434.25
459.172	490.25
459.95	541.25
460.728	614.25
461.506	667.25
462.283	770.25
463.061	844.25
463.838	957.25
464.615	1057.25
465.393	1191.25
466.17	1326.25
466.947	1481.25
467.724	1639.25
468.501	1813.25
469.278	2010.25
470.055	2221.25
470.831	2468.25
471.608	2732.25
472.385	3016.25
473.161	3365.25
473.938	3694.25
474.714	4057.25
475.49	4506.25
476.266	4921.25
477.043	5399.25
477.819	5936.25
478.595	6516.25
479.371	7147.25
480.146	7828.25
480.922	8551.25
481.698	9391.25
482.473	10230.25
483.249	11158.25
484.024	12161.25
484.8	13257.25
485.575	14426.25
486.35	15716.25
487.126	16981.25
487.901	18404.25
488.676	19945.25
489.451	21626.25
490.225	23196.25
491	24888.25
491.775	26745.25
492.55	28658.25
493.324	30478.25
494.099	32299.25
494.873	34246.25
495.647	36251.25
496.422	38154.25
497.196	40027.25
497.97	41722.25
498.744	43307.25
499.518	44781.25
500.292	46130.25
501.066	47051.25
501.839	47836.25
502.613	48511.25
503.387	48997.25
504.16	49286.25
504.934	49132.25
505.707	48900.25
506.48	48258.25
507.253	47650.25
508.027	46723.25
508.8	45551.25
509.573	44261.25
510.346	43015.25
511.118	41820.25
511.891	40325.25
512.664	38730.25
513.437	37249.25
514.209	35712.25
514.982	34385.25
515.754	32843.25
516.526	31435.25
517.298	30259.25
518.071	28992.25
518.843	27853.25
519.615	26681.25
520.387	25626.25
521.159	24617.25
521.93	23560.25
522.702	22585.25
523.474	21577.25
524.245	20686.25
525.017	19687.25
525.788	18816.25
526.56	18050.25
527.331	17233.25
528.102	16315.25
528.873	15530.25
529.644	14759.25
530.415	14039.25
531.186	13357.25
531.957	12606.25
532.728	11913.25
533.498	11359.25
534.269	10726.25
535.039	10118.25
535.81	9588.25
536.58	9058.25
537.351	8554.25
538.121	8144.25
538.891	7666.25
539.661	7281.25
540.431	6849.25
541.201	6496.25
541.971	6173.25
542.741	5842.25
543.51	5546.25
544.28	5261.25
545.05	5032.25
545.819	4822.25
546.588	4577.25
547.358	4364.25
548.127	4125.25
548.896	3918.25
549.665	3714.25
550.434	3514.25
551.203	3315.25
551.972	3152.25
552.741	2981.25
553.51	2811.25
554.278	2652.25
555.047	2500.25
555.815	2353.25
556.584	2250.25
557.352	2133.25
558.121	1985.25
558.889	1872.25
559.657	1782.25
560.425	1672.25
561.193	1600.25
561.961	1506.25
562.729	1425.25
563.496	1346.25
564.264	1266.25
565.032	1202.25
565.799	1136.25
566.567	1078.25
567.334	1019.25
568.101	982.25
568.869	906.25
569.636	861.25
570.403	819.25
571.17	757.25
571.937	729.25
572.704	683.25
573.471	647.25
574.237	616.25
575.004	570.25
575.771	537.25
576.537	508.25
577.303	484.25
578.07	449.25
578.836	426.25
579.602	397.25
580.368	389.25
581.134	370.25
581.9	350.25
582.666	333.25
583.432	313.25
584.198	303.25
584.964	286.25
585.729	276.25
586.495	253.25
587.26	241.25
588.025	226.25
588.791	218.25
589.556	207.25
590.321	191.25
591.086	188.25
591.851	177.25
592.616	164.25
593.381	162.25
594.146	154.25
594.911	146.25
595.675	136.25
596.44	133.25
597.204	129.25
597.969	122.25
598.733	115.25
599.497	110.25
600.261	108.25
601.025	104.25
601.79	101.25
602.553	96.25
603.317	89.25
604.081	88.25
604.845	83.25
605.609	81.25
606.372	82.25
607.136	74.25
607.899	73.25
608.662	68.25
609.426	67.25
610.189	65.25
610.952	60.25
611.715	59.25
612.478	55.25
613.241	55.25
614.004	52.25
614.767	50.25
615.529	50.25
616.292	49.25
617.055	44.25
617.817	44.25
618.579	42.25
619.342	43.25
620.104	40.25
620.866	42.25
621.628	38.25
622.39	37.25
623.152	37.25
623.914	36.25
624.676	34.25
625.438	35.25
626.199	33.25
626.961	28.25
627.722	29.25
628.484	31.25
629.245	28.25
630.006	26.25
630.768	25.25
631.529	27.25
632.29	26.25
633.051	23.25
633.812	24.25
634.573	24.25
635.333	24.25
636.094	20.25
636.855	22.25
637.615	21.25
638.376	21.25
639.136	20.25
639.896	18.25
640.657	20.25
641.417	21.25
642.177	17.25
642.937	19.25
643.697	16.25
644.457	15.25
645.216	14.25
645.976	15.25
646.736	18.25
647.495	14.25
648.255	14.25
649.014	12.25
649.774	14.25
650.533	12.25
651.292	13.25
652.051	11.25
652.81	12.25
653.569	13.25
654.328	15.25
655.087	12.25
655.846	12.25
656.604	14.25
657.363	14.25
658.121	14.25
658.88	10.25
659.638	12.25
660.397	10.25
661.155	10.25
661.913	9.25
662.671	10.25
663.429	12.25
664.187	11.25
664.945	10.25
665.703	8.25
666.46	10.25
667.218	9.25
667.976	9.25
668.733	7.25
669.49	10.25
670.248	8.25
671.005	6.25
671.762	10.25
672.519	8.25
673.276	9.25
674.033	7.25
674.79	8.25
675.547	9.25
676.304	5.25
677.06	9.25
677.817	5.25
678.574	9.25
679.33	8.25
680.086	8.25
680.843	7.25
681.599	8.25
682.355	9.25
683.111	8.25
683.867	9.25
684.623	7.25
685.379	10.25
686.135	8.25
686.89	6.25
687.646	7.25
688.402	6.25
689.157	10.25
689.912	9.25
690.668	8.25
691.423	6.25
692.178	7.25
692.933	7.25
693.688	9.25
694.443	6.25
695.198	7.25
695.953	7.25
696.708	9.25
697.462	7.25
698.217	4.25
698.972	9.25
699.726	7.25
700.48	7.25
701.235	6.25
701.989	7.25
702.743	7.25
703.497	8.25
704.251	6.25
705.005	5.25
705.759	8.25
706.513	6.25
707.266	6.25
708.02	5.25
708.774	5.25
709.527	7.25
710.28	8.25
711.034	9.25
711.787	6.25
712.54	8.25
713.293	5.25
714.046	6.25
714.799	6.25
715.552	7.25
716.305	6.25
717.058	5.25
717.81	7.25
718.563	7.25
719.315	6.25
720.068	7.25
720.82	8.25
721.573	7.25
722.325	8.25
723.077	7.25
723.829	12.25
724.581	8.25
725.333	7.25
726.085	8.25
726.836	7.25
727.588	6.25
728.34	10.25
729.091	9.25
729.843	9.25
730.594	9.25
731.346	10.25
732.097	7.25
732.848	10.25
733.599	7.25
734.35	9.25
735.101	8.25
735.852	12.25
736.603	9.25
737.354	9.25
738.104	11.25
738.855	8.25
739.605	8.25
740.356	11.25
741.106	10.25
741.856	10.25
742.607	11.25
743.357	11.25
744.107	10.25
744.857	10.25
745.607	11.25
746.357	11.25
747.106	10.25
747.856	7.25
748.606	10.25
749.355	8.25
750.105	10.25
750.854	11.25
751.603	10.25
752.353	12.25
753.102	13.25
753.851	11.25
754.6	11.25
755.349	11.25
756.098	11.25
756.847	10.25
757.595	9.25
758.344	12.25
759.093	10.25
759.841	11.25
760.589	12.25
761.338	11.25
762.086	12.25
762.834	10.25
763.582	15.25
764.331	12.25
765.079	14.25
765.826	12.25
766.574	14.25
767.322	15.25
768.07	13.25
768.817	16.25
769.565	13.25
770.312	16.25
771.06	11.25
771.807	14.25
772.554	15.25
773.302	10.25
774.049	14.25
774.796	12.25
775.543	15.25
776.29	14.25
777.036	17.25
777.783	14.25
778.53	14.25
779.276	14.25
780.023	14.25
780.769	19.25
781.516	16.25
782.262	15.25
783.008	17.25
783.754	17.25
784.5	14.25
785.246	14.25
785.992	15.25
786.738	15.25
787.484	16.25
788.23	14.25
788.975	14.25
789.721	12.25
790.466	16.25
791.212	12.25
791.957	14.25
792.702	16.25
793.447	15.25
794.193	14.25
794.938	14.25
795.683	14.25
796.427	12.25
797.172	17.25
797.917	14.25
798.662	13.25
799.406	15.25
800.151	14.25
800.895	14.25
801.64	11.25
802.384	10.25
803.128	11.25
803.872	10.25
804.616	8.25
805.36	12.25
806.104	9.25
806.848	11.25
807.592	8.25
808.336	9.25
809.079	10.25
809.823	11.25
810.566	8.25
811.31	9.25
812.053	8.25
812.796	8.25
813.539	8.25
814.283	9.25
815.026	9.25
815.769	5.25
816.511	9.25
817.254	8.25
817.997	9.25
818.74	9.25
819.482	5.25
820.225	7.25
820.967	7.25
821.71	6.25
822.452	6.25
823.194	6.25
823.936	7.25
824.678	5.25
825.42	6.25
826.162	6.25
826.904	7.25
827.646	4.25
828.388	7.25
829.129	8.25
829.871	5.25
830.612	5.25
831.354	4.25
832.095	5.25
832.836	4.25
833.577	3.25
834.319	4.25
835.06	6.25
835.801	5.25
836.542	5.25
837.282	4.25
838.023	4.25
838.764	3.25
839.504	4.25
840.245	7.25
840.985	6.25
841.726	3.25
842.466	4.25
843.206	5.25
843.946	1.25
844.687	3.25
845.427	7.25
846.166	6.25
846.906	6.25
847.646	4.25
848.386	5.25
849.125	3.25
849.865	7.25
850.605	4.25
851.344	4.25
852.083	3.25
852.823	3.25
853.562	2.25
854.301	3.25
855.04	3.25
855.779	2.25
856.518	2.25
857.257	1.25
857.995	4.25
858.734	4.25
859.473	2.25
860.211	2.25
860.95	4.25
861.688	2.25
862.426	4.25
863.165	1.25
863.903	2.25
864.641	4.25
865.379	1.25
866.117	3.25
866.855	3.25
867.593	1.25
868.33	1.25
869.068	0.25
869.806	2.25
870.543	1.25
871.28	3.25
872.018	2.25
872.755	1.25
873.492	2.25
874.229	-0.75
874.967	0.25
875.703	-0.75
876.44	2.25
877.177	1.25
877.914	1.25
878.651	1.25
879.387	-0.75
880.124	1.25
880.86	0.25
881.597	0.25
882.333	0.25
883.069	1.25
883.806	1.25
884.542	2.25
885.278	3.25
886.014	1.25
886.749	3.25
887.485	1.25
888.221	-0.75
888.957	1.25
889.692	0.25
890.428	1.25
891.163	2.25
891.899	-0.75
892.634	-0.75
893.369	1.25
894.104	-0.75
894.839	2.25
895.574	0.25
896.309	0.25
897.044	-0.75
897.779	0.25
898.514	-1.75
899.248	3.25
899.983	0.25
900.717	0.25
901.452	1.25
902.186	0.25
902.92	0.25
903.654	-0.75
904.389	0.25
905.123	-0.75
905.857	0.25
906.59	0.25
907.324	0.25
908.058	1.25
908.792	-1.75
909.525	-1.75
910.259	-0.75
910.992	0.25
911.726	0.25
912.459	1.25
913.192	-1.75
913.925	1.25
914.658	-0.75
915.391	0.25
916.124	-0.75
916.857	-0.75
917.59	-0.75
918.323	-0.75
919.055	0.25
919.788	1.25
920.521	-1.75
921.253	-0.75
921.985	0.25
922.718	-1.75
923.45	-0.75
924.182	-1.75
924.914	-1.75
925.646	0.25
926.378	0.25
927.11	-0.75
927.841	-0.75
928.573	0.25
929.305	0.25
930.036	1.25
930.768	0.25
931.499	0.25
932.23	-0.75
932.962	0.25
933.693	0.25
934.424	0.25
935.155	0.25
935.886	0.25
936.617	2.25
937.348	-0.75
938.078	-3.75
938.809	0.25
939.54	-1.75
940.27	-1.75
941.001	-0.75
941.731	-0.75
942.461	-1.75
943.191	-0.75
943.922	-1.75
944.652	0.25
945.382	-0.75
946.112	-0.75
946.841	0.25
947.571	-0.75
948.301	0.25
949.031	1.25
949.76	0.25
950.49	-2.75
951.219	-0.75
951.948	2.25
952.678	-1.75
953.407	0.25
954.136	-2.75
954.865	0.25
955.594	0.25
956.323	-1.75
957.052	1.25
957.78	0.25
958.509	0.25
959.238	-0.75
959.966	-2.75
960.695	0.25
961.423	-1.75
962.151	1.25
962.88	-0.75
963.608	0.25
964.336	-0.75
965.064	-0.75
965.792	-0.75
966.52	0.25
967.247	-0.75
967.975	-1.75
968.703	-0.75
969.43	1.25
970.158	-0.75
970.885	2.25
971.613	0.25
972.34	-0.75
973.067	-0.75
973.794	-1.75
974.521	0.25
975.248	0.25
975.975	0.25
976.702	0.25
977.429	-0.75
978.156	0.25
978.882	0.25
979.609	2.25
980.335	-1.75
981.062	-0.75
981.788	0.25
982.514	-1.75
983.24	-1.75
983.967	-1.75
984.693	-1.75
985.419	0.25
986.144	0.25
986.87	-0.75
987.596	0.25
988.322	-1.75
989.047	-1.75
989.773	-0.75
990.498	-1.75
991.224	-1.75
991.949	-0.75
992.674	-2.75
993.399	-1.75
994.124	1.25
994.849	1.25
995.574	-1.75
996.299	2.25
997.024	1.25
997.749	-0.75
998.473	0.25
999.198	0.25
999.922	0.25
1000.647	0.25
1001.371	5.25
1002.095	-1.75
1002.82	1.25
1003.544	-1.75
1004.268	4.25
1004.992	2.25
1005.716	4.25
1006.439	5.25
1007.163	6.25
1007.887	3.25
1008.611	-0.75
1009.334	1.25
1010.058	-1.75
1010.781	0.25
1011.504	-1.75
1012.228	-0.75
1012.951	-1.75
1013.674	-1.75
1014.397	0.25
1015.12	0.25
