节点500_705_QEPB04081__678__20-55-34-815.txt的数据

Date: Wed Nov 12 20:55:34 CST 2025
User: PC
Spectrometer: QEPB0408
触发模式: 0
积分时间 (秒): 1.000000E-2
Scans to average: 1
启用暗噪声校正: true
启用非线性校正: false
滑动平均宽度: 0
X轴模式: Wavelengths
Number of Pixels in Spectrum: 1044
>>>>>Begin Spectral Data<<<<<
220.843	7.38
221.644	5.38
222.444	6.38
223.244	6.38
224.045	7.38
224.845	8.38
225.645	8.38
226.445	8.38
227.245	8.38
228.045	9.38
228.845	8.38
229.645	6.38
230.444	9.38
231.244	8.38
232.043	8.38
232.843	8.38
233.642	8.38
234.442	8.38
235.241	10.38
236.04	9.38
236.839	9.38
237.638	13.38
238.437	10.38
239.236	9.38
240.035	10.38
240.833	11.38
241.632	12.38
242.43	10.38
243.229	12.38
244.027	12.38
244.826	12.38
245.624	14.38
246.422	14.38
247.22	16.38
248.018	15.38
248.816	15.38
249.614	16.38
250.412	14.38
251.21	13.38
252.007	15.38
252.805	11.38
253.602	17.38
254.4	17.38
255.197	17.38
255.994	16.38
256.791	16.38
257.589	16.38
258.386	19.38
259.183	18.38
259.979	19.38
260.776	18.38
261.573	20.38
262.37	23.38
263.166	20.38
263.963	26.38
264.759	23.38
265.556	22.38
266.352	25.38
267.148	26.38
267.944	26.38
268.74	24.38
269.536	25.38
270.332	25.38
271.128	25.38
271.924	28.38
272.719	29.38
273.515	31.38
274.311	27.38
275.106	28.38
275.901	29.38
276.697	31.38
277.492	30.38
278.287	29.38
279.082	31.38
279.877	30.38
280.672	31.38
281.467	30.38
282.262	33.38
283.056	33.38
283.851	36.38
284.646	33.38
285.44	32.38
286.234	32.38
287.029	35.38
287.823	31.38
288.617	34.38
289.411	31.38
290.205	30.38
290.999	31.38
291.793	30.38
292.587	30.38
293.381	26.38
294.174	29.38
294.968	29.38
295.761	29.38
296.555	27.38
297.348	25.38
298.141	28.38
298.935	27.38
299.728	25.38
300.521	26.38
301.314	26.38
302.107	23.38
302.899	20.38
303.692	24.38
304.485	24.38
305.277	22.38
306.07	23.38
306.862	21.38
307.655	19.38
308.447	22.38
309.239	22.38
310.031	19.38
310.823	18.38
311.615	19.38
312.407	18.38
313.199	18.38
313.991	17.38
314.783	13.38
315.574	17.38
316.366	15.38
317.157	15.38
317.949	15.38
318.74	15.38
319.531	14.38
320.322	17.38
321.113	11.38
321.904	13.38
322.695	15.38
323.486	13.38
324.277	13.38
325.068	10.38
325.858	12.38
326.649	13.38
327.439	11.38
328.23	12.38
329.02	13.38
329.81	14.38
330.6	13.38
331.391	11.38
332.181	14.38
332.971	12.38
333.76	11.38
334.55	11.38
335.34	11.38
336.13	10.38
336.919	11.38
337.709	11.38
338.498	12.38
339.287	11.38
340.077	11.38
340.866	10.38
341.655	11.38
342.444	9.38
343.233	12.38
344.022	9.38
344.811	12.38
345.6	12.38
346.388	11.38
347.177	11.38
347.965	11.38
348.754	13.38
349.542	11.38
350.33	8.38
351.119	13.38
351.907	14.38
352.695	10.38
353.483	10.38
354.271	9.38
355.059	6.38
355.846	10.38
356.634	10.38
357.422	11.38
358.209	11.38
358.997	9.38
359.784	11.38
360.571	11.38
361.359	10.38
362.146	11.38
362.933	11.38
363.72	10.38
364.507	10.38
365.294	9.38
366.081	9.38
366.867	6.38
367.654	9.38
368.44	8.38
369.227	10.38
370.013	10.38
370.8	8.38
371.586	10.38
372.372	8.38
373.158	8.38
373.944	9.38
374.73	10.38
375.516	10.38
376.302	10.38
377.088	9.38
377.873	8.38
378.659	10.38
379.445	9.38
380.23	8.38
381.015	8.38
381.801	9.38
382.586	13.38
383.371	10.38
384.156	11.38
384.941	10.38
385.726	8.38
386.511	10.38
387.296	11.38
388.08	11.38
388.865	11.38
389.649	12.38
390.434	10.38
391.218	11.38
392.003	13.38
392.787	12.38
393.571	11.38
394.355	10.38
395.139	11.38
395.923	12.38
396.707	12.38
397.491	13.38
398.274	14.38
399.058	10.38
399.842	13.38
400.625	11.38
401.408	16.38
402.192	11.38
402.975	13.38
403.758	15.38
404.541	9.38
405.324	15.38
406.107	13.38
406.89	15.38
407.673	13.38
408.456	15.38
409.238	15.38
410.021	15.38
410.803	14.38
411.586	17.38
412.368	16.38
413.151	17.38
413.933	16.38
414.715	17.38
415.497	18.38
416.279	19.38
417.061	18.38
417.843	20.38
418.624	15.38
419.406	19.38
420.188	20.38
420.969	19.38
421.751	21.38
422.532	21.38
423.313	21.38
424.095	23.38
424.876	23.38
425.657	21.38
426.438	24.38
427.219	26.38
428	25.38
428.78	27.38
429.561	26.38
430.342	26.38
431.122	29.38
431.903	31.38
432.683	34.38
433.464	31.38
434.244	35.38
435.024	37.38
435.804	41.38
436.584	46.38
437.364	47.38
438.144	48.38
438.924	49.38
439.704	54.38
440.483	61.38
441.263	61.38
442.042	64.38
442.822	74.38
443.601	81.38
444.38	82.38
445.16	96.38
445.939	102.38
446.718	111.38
447.497	123.38
448.276	136.38
449.054	140.38
449.833	158.38
450.612	172.38
451.391	193.38
452.169	207.38
452.948	238.38
453.726	256.38
454.504	288.38
455.282	316.38
456.061	355.38
456.839	397.38
457.617	440.38
458.395	489.38
459.172	556.38
459.95	603.38
460.728	686.38
461.506	754.38
462.283	831.38
463.061	926.38
463.838	1029.38
464.615	1142.38
465.393	1258.38
466.17	1392.38
466.947	1542.38
467.724	1725.38
468.501	1858.38
469.278	2065.38
470.055	2278.38
470.831	2508.38
471.608	2743.38
472.385	3010.38
473.161	3314.38
473.938	3607.38
474.714	3972.38
475.49	4327.38
476.266	4730.38
477.043	5121.38
477.819	5583.38
478.595	6061.38
479.371	6590.38
480.146	7133.38
480.922	7770.38
481.698	8410.38
482.473	9054.38
483.249	9819.38
484.024	10625.38
484.8	11464.38
485.575	12319.38
486.35	13301.38
487.126	14363.38
487.901	15467.38
488.676	16622.38
489.451	17857.38
490.225	19167.38
491	20486.38
491.775	21854.38
492.55	23250.38
493.324	24849.38
494.099	26328.38
494.873	27930.38
495.647	29517.38
496.422	30970.38
497.196	32660.38
497.97	34196.38
498.744	35589.38
499.518	37233.38
500.292	38517.38
501.066	39583.38
501.839	40566.38
502.613	41627.38
503.387	42343.38
504.16	42930.38
504.934	43378.38
505.707	43604.38
506.48	43564.38
507.253	43462.38
508.027	43164.38
508.8	42591.38
509.573	41848.38
510.346	41153.38
511.118	40457.38
511.891	39474.38
512.664	38304.38
513.437	36971.38
514.209	35769.38
514.982	34579.38
515.754	33227.38
516.526	32005.38
517.298	30761.38
518.071	29711.38
518.843	28497.38
519.615	27368.38
520.387	26327.38
521.159	25288.38
521.93	24291.38
522.702	23313.38
523.474	22328.38
524.245	21455.38
525.017	20536.38
525.788	19685.38
526.56	18883.38
527.331	18127.38
528.102	17324.38
528.873	16405.38
529.644	15668.38
530.415	15015.38
531.186	14289.38
531.957	13582.38
532.728	12909.38
533.498	12266.38
534.269	11667.38
535.039	11014.38
535.81	10484.38
536.58	9912.38
537.351	9364.38
538.121	8918.38
538.891	8397.38
539.661	8023.38
540.431	7517.38
541.201	7180.38
541.971	6828.38
542.741	6432.38
543.51	6098.38
544.28	5803.38
545.05	5518.38
545.819	5306.38
546.588	5001.38
547.358	4788.38
548.127	4547.38
548.896	4315.38
549.665	4095.38
550.434	3930.38
551.203	3692.38
551.972	3522.38
552.741	3347.38
553.51	3138.38
554.278	2968.38
555.047	2793.38
555.815	2674.38
556.584	2526.38
557.352	2369.38
558.121	2258.38
558.889	2151.38
559.657	2019.38
560.425	1924.38
561.193	1814.38
561.961	1719.38
562.729	1626.38
563.496	1523.38
564.264	1446.38
565.032	1369.38
565.799	1300.38
566.567	1236.38
567.334	1158.38
568.101	1099.38
568.869	1045.38
569.636	982.38
570.403	921.38
571.17	866.38
571.937	820.38
572.704	773.38
573.471	736.38
574.237	705.38
575.004	653.38
575.771	607.38
576.537	582.38
577.303	553.38
578.07	524.38
578.836	489.38
579.602	463.38
580.368	436.38
581.134	415.38
581.9	398.38
582.666	380.38
583.432	361.38
584.198	341.38
584.964	323.38
585.729	308.38
586.495	291.38
587.26	276.38
588.025	261.38
588.791	244.38
589.556	233.38
590.321	218.38
591.086	204.38
591.851	201.38
592.616	190.38
593.381	182.38
594.146	172.38
594.911	167.38
595.675	157.38
596.44	151.38
597.204	143.38
597.969	136.38
598.733	138.38
599.497	123.38
600.261	117.38
601.025	116.38
601.79	110.38
602.553	106.38
603.317	98.38
604.081	103.38
604.845	96.38
605.609	89.38
606.372	88.38
607.136	85.38
607.899	79.38
608.662	75.38
609.426	75.38
610.189	72.38
610.952	67.38
611.715	66.38
612.478	61.38
613.241	62.38
614.004	59.38
614.767	59.38
615.529	54.38
616.292	51.38
617.055	50.38
617.817	51.38
618.579	48.38
619.342	48.38
620.104	44.38
620.866	42.38
621.628	39.38
622.39	37.38
623.152	44.38
623.914	37.38
624.676	35.38
625.438	36.38
626.199	34.38
626.961	33.38
627.722	32.38
628.484	31.38
629.245	29.38
630.006	31.38
630.768	28.38
631.529	27.38
632.29	29.38
633.051	27.38
633.812	27.38
634.573	25.38
635.333	22.38
636.094	25.38
636.855	23.38
637.615	21.38
638.376	21.38
639.136	21.38
639.896	21.38
640.657	22.38
641.417	20.38
642.177	18.38
642.937	17.38
643.697	15.38
644.457	18.38
645.216	18.38
645.976	17.38
646.736	17.38
647.495	19.38
648.255	15.38
649.014	18.38
649.774	15.38
650.533	15.38
651.292	12.38
652.051	14.38
652.81	14.38
653.569	15.38
654.328	13.38
655.087	13.38
655.846	13.38
656.604	13.38
657.363	13.38
658.121	13.38
658.88	11.38
659.638	13.38
660.397	11.38
661.155	11.38
661.913	13.38
662.671	10.38
663.429	11.38
664.187	10.38
664.945	12.38
665.703	10.38
666.46	13.38
667.218	12.38
667.976	10.38
668.733	11.38
669.49	8.38
670.248	9.38
671.005	10.38
671.762	10.38
672.519	11.38
673.276	7.38
674.033	9.38
674.79	9.38
675.547	9.38
676.304	9.38
677.06	8.38
677.817	7.38
678.574	7.38
679.33	9.38
680.086	7.38
680.843	6.38
681.599	8.38
682.355	6.38
683.111	9.38
683.867	8.38
684.623	9.38
685.379	9.38
686.135	9.38
686.89	5.38
687.646	10.38
688.402	6.38
689.157	7.38
689.912	8.38
690.668	7.38
691.423	7.38
692.178	7.38
692.933	8.38
693.688	8.38
694.443	7.38
695.198	9.38
695.953	10.38
696.708	9.38
697.462	6.38
698.217	8.38
698.972	6.38
699.726	7.38
700.48	7.38
701.235	8.38
701.989	7.38
702.743	8.38
703.497	7.38
704.251	6.38
705.005	7.38
705.759	5.38
706.513	6.38
707.266	7.38
708.02	8.38
708.774	9.38
709.527	8.38
710.28	6.38
711.034	5.38
711.787	7.38
712.54	8.38
713.293	8.38
714.046	9.38
714.799	9.38
715.552	4.38
716.305	9.38
717.058	8.38
717.81	8.38
718.563	6.38
719.315	8.38
720.068	7.38
720.82	5.38
721.573	8.38
722.325	9.38
723.077	7.38
723.829	9.38
724.581	8.38
725.333	9.38
726.085	8.38
726.836	6.38
727.588	5.38
728.34	9.38
729.091	9.38
729.843	8.38
730.594	10.38
731.346	10.38
732.097	8.38
732.848	8.38
733.599	9.38
734.35	9.38
735.101	11.38
735.852	9.38
736.603	9.38
737.354	7.38
738.104	7.38
738.855	10.38
739.605	9.38
740.356	8.38
741.106	7.38
741.856	9.38
742.607	11.38
743.357	10.38
744.107	9.38
744.857	7.38
745.607	8.38
746.357	9.38
747.106	9.38
747.856	8.38
748.606	9.38
749.355	9.38
750.105	8.38
750.854	12.38
751.603	11.38
752.353	10.38
753.102	12.38
753.851	10.38
754.6	9.38
755.349	10.38
756.098	10.38
756.847	12.38
757.595	10.38
758.344	9.38
759.093	10.38
759.841	11.38
760.589	11.38
761.338	12.38
762.086	11.38
762.834	13.38
763.582	11.38
764.331	7.38
765.079	12.38
765.826	12.38
766.574	13.38
767.322	12.38
768.07	14.38
768.817	13.38
769.565	15.38
770.312	15.38
771.06	15.38
771.807	15.38
772.554	12.38
773.302	14.38
774.049	13.38
774.796	15.38
775.543	15.38
776.29	13.38
777.036	17.38
777.783	14.38
778.53	15.38
779.276	14.38
780.023	13.38
780.769	14.38
781.516	13.38
782.262	15.38
783.008	14.38
783.754	11.38
784.5	15.38
785.246	14.38
785.992	16.38
786.738	18.38
787.484	15.38
788.23	14.38
788.975	12.38
789.721	15.38
790.466	14.38
791.212	14.38
791.957	15.38
792.702	13.38
793.447	13.38
794.193	13.38
794.938	14.38
795.683	14.38
796.427	14.38
797.172	15.38
797.917	13.38
798.662	13.38
799.406	14.38
800.151	12.38
800.895	15.38
801.64	11.38
802.384	13.38
803.128	10.38
803.872	11.38
804.616	11.38
805.36	11.38
806.104	11.38
806.848	11.38
807.592	11.38
808.336	8.38
809.079	11.38
809.823	9.38
810.566	9.38
811.31	9.38
812.053	10.38
812.796	9.38
813.539	9.38
814.283	9.38
815.026	9.38
815.769	8.38
816.511	9.38
817.254	8.38
817.997	8.38
818.74	7.38
819.482	9.38
820.225	8.38
820.967	7.38
821.71	8.38
822.452	6.38
823.194	8.38
823.936	8.38
824.678	6.38
825.42	8.38
826.162	9.38
826.904	6.38
827.646	6.38
828.388	5.38
829.129	7.38
829.871	7.38
830.612	4.38
831.354	7.38
832.095	6.38
832.836	7.38
833.577	7.38
834.319	7.38
835.06	6.38
835.801	8.38
836.542	6.38
837.282	6.38
838.023	4.38
838.764	7.38
839.504	8.38
840.245	8.38
840.985	5.38
841.726	5.38
842.466	3.38
843.206	7.38
843.946	6.38
844.687	6.38
845.427	5.38
846.166	6.38
846.906	6.38
847.646	5.38
848.386	5.38
849.125	5.38
849.865	3.38
850.605	6.38
851.344	7.38
852.083	4.38
852.823	4.38
853.562	5.38
854.301	3.38
855.04	3.38
855.779	5.38
856.518	5.38
857.257	2.38
857.995	2.38
858.734	3.38
859.473	3.38
860.211	3.38
860.95	6.38
861.688	4.38
862.426	4.38
863.165	2.38
863.903	4.38
864.641	2.38
865.379	1.38
866.117	3.38
866.855	4.38
867.593	2.38
868.33	3.38
869.068	3.38
869.806	3.38
870.543	1.38
871.28	4.38
872.018	2.38
872.755	2.38
873.492	1.38
874.229	1.38
874.967	1.38
875.703	3.38
876.44	1.38
877.177	2.38
877.914	2.38
878.651	1.38
879.387	3.38
880.124	1.38
880.86	1.38
881.597	4.38
882.333	1.38
883.069	3.38
883.806	0.38
884.542	1.38
885.278	1.38
886.014	2.38
886.749	1.38
887.485	1.38
888.221	2.38
888.957	1.38
889.692	2.38
890.428	1.38
891.163	1.38
891.899	1.38
892.634	2.38
893.369	3.38
894.104	1.38
894.839	2.38
895.574	2.38
896.309	1.38
897.044	0.38
897.779	1.38
898.514	0.38
899.248	0.38
899.983	-0.62
900.717	1.38
901.452	1.38
902.186	2.38
902.92	1.38
903.654	2.38
904.389	2.38
905.123	1.38
905.857	1.38
906.59	1.38
907.324	2.38
908.058	2.38
908.792	-0.62
909.525	3.38
910.259	1.38
910.992	-0.62
911.726	2.38
912.459	1.38
913.192	0.38
913.925	-0.62
914.658	1.38
915.391	2.38
916.124	3.38
916.857	1.38
917.59	-0.62
918.323	1.38
919.055	2.38
919.788	1.38
920.521	-1.62
921.253	-2.62
921.985	1.38
922.718	-1.62
923.45	2.38
924.182	1.38
924.914	-0.62
925.646	0.38
926.378	-0.62
927.11	1.38
927.841	0.38
928.573	1.38
929.305	-0.62
930.036	1.38
930.768	0.38
931.499	-0.62
932.23	0.38
932.962	0.38
933.693	0.38
934.424	0.38
935.155	1.38
935.886	1.38
936.617	0.38
937.348	1.38
938.078	-0.62
938.809	1.38
939.54	-0.62
940.27	-0.62
941.001	-1.62
941.731	0.38
942.461	2.38
943.191	2.38
943.922	0.38
944.652	-0.62
945.382	-1.62
946.112	-1.62
946.841	-0.62
947.571	1.38
948.301	-0.62
949.031	-0.62
949.76	1.38
950.49	-0.62
951.219	-0.62
951.948	0.38
952.678	-1.62
953.407	2.38
954.136	1.38
954.865	1.38
955.594	1.38
956.323	1.38
957.052	2.38
957.78	-0.62
958.509	3.38
959.238	0.38
959.966	0.38
960.695	-1.62
961.423	1.38
962.151	2.38
962.88	1.38
963.608	3.38
964.336	0.38
965.064	1.38
965.792	-1.62
966.52	1.38
967.247	-0.62
967.975	-0.62
968.703	-1.62
969.43	2.38
970.158	1.38
970.885	0.38
971.613	0.38
972.34	1.38
973.067	-0.62
973.794	1.38
974.521	-1.62
975.248	0.38
975.975	-0.62
976.702	-0.62
977.429	1.38
978.156	1.38
978.882	-0.62
979.609	2.38
980.335	-0.62
981.062	0.38
981.788	-1.62
982.514	1.38
983.24	0.38
983.967	1.38
984.693	-0.62
985.419	0.38
986.144	-0.62
986.87	0.38
987.596	-0.62
988.322	1.38
989.047	-0.62
989.773	2.38
990.498	-0.62
991.224	1.38
991.949	-0.62
992.674	-0.62
993.399	-0.62
994.124	1.38
994.849	1.38
995.574	-0.62
996.299	-0.62
997.024	-0.62
997.749	-1.62
998.473	0.38
999.198	0.38
999.922	2.38
1000.647	-0.62
1001.371	3.38
1002.095	-1.62
1002.82	0.38
1003.544	-2.62
1004.268	4.38
1004.992	2.38
1005.716	4.38
1006.439	1.38
1007.163	4.38
1007.887	5.38
1008.611	-0.62
1009.334	-0.62
1010.058	1.38
1010.781	1.38
1011.504	1.38
1012.228	3.38
1012.951	0.38
1013.674	0.38
1014.397	-0.62
1015.12	0.38
