节点500_705_QEPB04081__354__20-50-57-602.txt的数据

Date: Wed Nov 12 20:50:57 CST 2025
User: PC
Spectrometer: QEPB0408
触发模式: 0
积分时间 (秒): 1.000000E-2
Scans to average: 1
启用暗噪声校正: true
启用非线性校正: false
滑动平均宽度: 0
X轴模式: Wavelengths
Number of Pixels in Spectrum: 1044
>>>>>Begin Spectral Data<<<<<
220.843	5.88
221.644	4.88
222.444	7.88
223.244	4.88
224.045	4.88
224.845	6.88
225.645	7.88
226.445	5.88
227.245	7.88
228.045	6.88
228.845	5.88
229.645	8.88
230.444	9.88
231.244	7.88
232.043	9.88
232.843	7.88
233.642	8.88
234.442	7.88
235.241	9.88
236.04	9.88
236.839	11.88
237.638	6.88
238.437	8.88
239.236	12.88
240.035	9.88
240.833	11.88
241.632	10.88
242.43	12.88
243.229	11.88
244.027	12.88
244.826	13.88
245.624	11.88
246.422	12.88
247.22	13.88
248.018	14.88
248.816	17.88
249.614	14.88
250.412	17.88
251.21	17.88
252.007	14.88
252.805	16.88
253.602	16.88
254.4	16.88
255.197	18.88
255.994	17.88
256.791	16.88
257.589	20.88
258.386	21.88
259.183	22.88
259.979	20.88
260.776	21.88
261.573	23.88
262.37	23.88
263.166	23.88
263.963	23.88
264.759	25.88
265.556	26.88
266.352	26.88
267.148	25.88
267.944	26.88
268.74	27.88
269.536	30.88
270.332	26.88
271.128	31.88
271.924	29.88
272.719	30.88
273.515	30.88
274.311	30.88
275.106	32.88
275.901	32.88
276.697	33.88
277.492	33.88
278.287	32.88
279.082	34.88
279.877	34.88
280.672	34.88
281.467	32.88
282.262	32.88
283.056	32.88
283.851	32.88
284.646	34.88
285.44	31.88
286.234	32.88
287.029	34.88
287.823	35.88
288.617	33.88
289.411	29.88
290.205	30.88
290.999	31.88
291.793	33.88
292.587	30.88
293.381	28.88
294.174	28.88
294.968	30.88
295.761	22.88
296.555	28.88
297.348	29.88
298.141	24.88
298.935	27.88
299.728	28.88
300.521	22.88
301.314	26.88
302.107	24.88
302.899	20.88
303.692	23.88
304.485	21.88
305.277	23.88
306.07	22.88
306.862	24.88
307.655	23.88
308.447	23.88
309.239	19.88
310.031	20.88
310.823	19.88
311.615	16.88
312.407	17.88
313.199	17.88
313.991	16.88
314.783	16.88
315.574	16.88
316.366	15.88
317.157	15.88
317.949	15.88
318.74	14.88
319.531	12.88
320.322	13.88
321.113	13.88
321.904	10.88
322.695	14.88
323.486	13.88
324.277	13.88
325.068	11.88
325.858	12.88
326.649	12.88
327.439	12.88
328.23	13.88
329.02	12.88
329.81	14.88
330.6	10.88
331.391	10.88
332.181	10.88
332.971	10.88
333.76	14.88
334.55	11.88
335.34	9.88
336.13	12.88
336.919	8.88
337.709	11.88
338.498	10.88
339.287	10.88
340.077	11.88
340.866	8.88
341.655	10.88
342.444	10.88
343.233	11.88
344.022	7.88
344.811	10.88
345.6	8.88
346.388	12.88
347.177	10.88
347.965	12.88
348.754	12.88
349.542	10.88
350.33	9.88
351.119	9.88
351.907	10.88
352.695	11.88
353.483	10.88
354.271	10.88
355.059	12.88
355.846	7.88
356.634	9.88
357.422	9.88
358.209	10.88
358.997	12.88
359.784	8.88
360.571	10.88
361.359	8.88
362.146	10.88
362.933	9.88
363.72	8.88
364.507	7.88
365.294	8.88
366.081	10.88
366.867	5.88
367.654	9.88
368.44	8.88
369.227	9.88
370.013	10.88
370.8	9.88
371.586	10.88
372.372	6.88
373.158	8.88
373.944	7.88
374.73	9.88
375.516	11.88
376.302	8.88
377.088	8.88
377.873	10.88
378.659	9.88
379.445	9.88
380.23	9.88
381.015	8.88
381.801	8.88
382.586	8.88
383.371	11.88
384.156	10.88
384.941	9.88
385.726	8.88
386.511	12.88
387.296	8.88
388.08	10.88
388.865	12.88
389.649	9.88
390.434	9.88
391.218	12.88
392.003	12.88
392.787	9.88
393.571	10.88
394.355	12.88
395.139	10.88
395.923	10.88
396.707	13.88
397.491	15.88
398.274	14.88
399.058	12.88
399.842	13.88
400.625	11.88
401.408	15.88
402.192	12.88
402.975	13.88
403.758	11.88
404.541	12.88
405.324	13.88
406.107	14.88
406.89	15.88
407.673	16.88
408.456	12.88
409.238	15.88
410.021	14.88
410.803	15.88
411.586	15.88
412.368	18.88
413.151	14.88
413.933	16.88
414.715	21.88
415.497	14.88
416.279	16.88
417.061	16.88
417.843	19.88
418.624	17.88
419.406	18.88
420.188	22.88
420.969	19.88
421.751	24.88
422.532	21.88
423.313	23.88
424.095	24.88
424.876	21.88
425.657	25.88
426.438	26.88
427.219	26.88
428	25.88
428.78	26.88
429.561	29.88
430.342	28.88
431.122	28.88
431.903	30.88
432.683	32.88
433.464	34.88
434.244	36.88
435.024	39.88
435.804	38.88
436.584	42.88
437.364	45.88
438.144	44.88
438.924	51.88
439.704	52.88
440.483	58.88
441.263	64.88
442.042	64.88
442.822	68.88
443.601	79.88
444.38	80.88
445.16	86.88
445.939	93.88
446.718	102.88
447.497	110.88
448.276	121.88
449.054	132.88
449.833	141.88
450.612	164.88
451.391	177.88
452.169	193.88
452.948	215.88
453.726	243.88
454.504	270.88
455.282	294.88
456.061	331.88
456.839	361.88
457.617	410.88
458.395	465.88
459.172	506.88
459.95	568.88
460.728	636.88
461.506	712.88
462.283	792.88
463.061	892.88
463.838	991.88
464.615	1111.88
465.393	1223.88
466.17	1358.88
466.947	1508.88
467.724	1670.88
468.501	1859.88
469.278	2062.88
470.055	2269.88
470.831	2504.88
471.608	2772.88
472.385	3053.88
473.161	3359.88
473.938	3692.88
474.714	4038.88
475.49	4434.88
476.266	4876.88
477.043	5316.88
477.819	5828.88
478.595	6365.88
479.371	6899.88
480.146	7512.88
480.922	8233.88
481.698	8956.88
482.473	9764.88
483.249	10616.88
484.024	11548.88
484.8	12512.88
485.575	13560.88
486.35	14662.88
487.126	15904.88
487.901	17159.88
488.676	18523.88
489.451	19994.88
490.225	21477.88
491	23032.88
491.775	24648.88
492.55	26372.88
493.324	28003.88
494.099	29788.88
494.873	31540.88
495.647	33318.88
496.422	35043.88
497.196	36892.88
497.97	38520.88
498.744	39919.88
499.518	41588.88
500.292	43029.88
501.066	43893.88
501.839	44920.88
502.613	45750.88
503.387	46427.88
504.16	46879.88
504.934	46942.88
505.707	46886.88
506.48	46587.88
507.253	46083.88
508.027	45530.88
508.8	44573.88
509.573	43472.88
510.346	42480.88
511.118	41470.88
511.891	40253.88
512.664	38689.88
513.437	37326.88
514.209	35950.88
514.982	34517.88
515.754	33183.88
516.526	31830.88
517.298	30584.88
518.071	29376.88
518.843	28170.88
519.615	27020.88
520.387	26023.88
521.159	24976.88
521.93	23940.88
522.702	22892.88
523.474	21954.88
524.245	21018.88
525.017	20177.88
525.788	19272.88
526.56	18461.88
527.331	17646.88
528.102	16764.88
528.873	15928.88
529.644	15183.88
530.415	14476.88
531.186	13759.88
531.957	13002.88
532.728	12390.88
533.498	11752.88
534.269	11103.88
535.039	10523.88
535.81	9938.88
536.58	9468.88
537.351	8903.88
538.121	8472.88
538.891	7974.88
539.661	7556.88
540.431	7176.88
541.201	6766.88
541.971	6445.88
542.741	6076.88
543.51	5786.88
544.28	5501.88
545.05	5216.88
545.819	4991.88
546.588	4776.88
547.358	4526.88
548.127	4293.88
548.896	4104.88
549.665	3884.88
550.434	3670.88
551.203	3486.88
551.972	3310.88
552.741	3123.88
553.51	2943.88
554.278	2781.88
555.047	2613.88
555.815	2480.88
556.584	2354.88
557.352	2212.88
558.121	2100.88
558.889	2000.88
559.657	1871.88
560.425	1782.88
561.193	1684.88
561.961	1607.88
562.729	1500.88
563.496	1422.88
564.264	1338.88
565.032	1269.88
565.799	1199.88
566.567	1143.88
567.334	1068.88
568.101	1016.88
568.869	967.88
569.636	909.88
570.403	864.88
571.17	811.88
571.937	756.88
572.704	713.88
573.471	678.88
574.237	643.88
575.004	609.88
575.771	567.88
576.537	536.88
577.303	503.88
578.07	480.88
578.836	451.88
579.602	427.88
580.368	407.88
581.134	380.88
581.9	361.88
582.666	345.88
583.432	340.88
584.198	317.88
584.964	295.88
585.729	288.88
586.495	264.88
587.26	253.88
588.025	236.88
588.791	228.88
589.556	210.88
590.321	200.88
591.086	191.88
591.851	188.88
592.616	176.88
593.381	167.88
594.146	158.88
594.911	156.88
595.675	148.88
596.44	144.88
597.204	133.88
597.969	127.88
598.733	119.88
599.497	118.88
600.261	111.88
601.025	106.88
601.79	107.88
602.553	97.88
603.317	97.88
604.081	91.88
604.845	87.88
605.609	84.88
606.372	77.88
607.136	79.88
607.899	77.88
608.662	68.88
609.426	69.88
610.189	68.88
610.952	62.88
611.715	65.88
612.478	58.88
613.241	61.88
614.004	55.88
614.767	52.88
615.529	49.88
616.292	50.88
617.055	44.88
617.817	46.88
618.579	47.88
619.342	44.88
620.104	41.88
620.866	41.88
621.628	41.88
622.39	40.88
623.152	35.88
623.914	37.88
624.676	30.88
625.438	36.88
626.199	31.88
626.961	32.88
627.722	31.88
628.484	28.88
629.245	29.88
630.006	27.88
630.768	27.88
631.529	26.88
632.29	25.88
633.051	26.88
633.812	24.88
634.573	22.88
635.333	23.88
636.094	23.88
636.855	22.88
637.615	22.88
638.376	21.88
639.136	20.88
639.896	20.88
640.657	20.88
641.417	20.88
642.177	15.88
642.937	18.88
643.697	19.88
644.457	17.88
645.216	16.88
645.976	16.88
646.736	14.88
647.495	14.88
648.255	13.88
649.014	14.88
649.774	13.88
650.533	13.88
651.292	15.88
652.051	14.88
652.81	11.88
653.569	12.88
654.328	12.88
655.087	12.88
655.846	11.88
656.604	12.88
657.363	13.88
658.121	13.88
658.88	13.88
659.638	12.88
660.397	11.88
661.155	8.88
661.913	10.88
662.671	12.88
663.429	10.88
664.187	10.88
664.945	8.88
665.703	9.88
666.46	9.88
667.218	10.88
667.976	10.88
668.733	9.88
669.49	10.88
670.248	7.88
671.005	9.88
671.762	9.88
672.519	7.88
673.276	10.88
674.033	9.88
674.79	6.88
675.547	6.88
676.304	7.88
677.06	8.88
677.817	8.88
678.574	9.88
679.33	6.88
680.086	8.88
680.843	9.88
681.599	7.88
682.355	9.88
683.111	7.88
683.867	11.88
684.623	8.88
685.379	9.88
686.135	5.88
686.89	7.88
687.646	8.88
688.402	4.88
689.157	7.88
689.912	7.88
690.668	4.88
691.423	7.88
692.178	9.88
692.933	7.88
693.688	9.88
694.443	5.88
695.198	6.88
695.953	9.88
696.708	6.88
697.462	8.88
698.217	9.88
698.972	8.88
699.726	5.88
700.48	7.88
701.235	8.88
701.989	6.88
702.743	7.88
703.497	8.88
704.251	6.88
705.005	3.88
705.759	8.88
706.513	6.88
707.266	9.88
708.02	4.88
708.774	6.88
709.527	8.88
710.28	6.88
711.034	9.88
711.787	7.88
712.54	4.88
713.293	5.88
714.046	7.88
714.799	8.88
715.552	6.88
716.305	8.88
717.058	7.88
717.81	8.88
718.563	9.88
719.315	9.88
720.068	7.88
720.82	9.88
721.573	6.88
722.325	7.88
723.077	7.88
723.829	9.88
724.581	5.88
725.333	9.88
726.085	6.88
726.836	5.88
727.588	5.88
728.34	7.88
729.091	9.88
729.843	8.88
730.594	6.88
731.346	7.88
732.097	10.88
732.848	10.88
733.599	9.88
734.35	8.88
735.101	9.88
735.852	7.88
736.603	9.88
737.354	8.88
738.104	7.88
738.855	9.88
739.605	8.88
740.356	10.88
741.106	9.88
741.856	12.88
742.607	8.88
743.357	10.88
744.107	9.88
744.857	9.88
745.607	12.88
746.357	11.88
747.106	11.88
747.856	9.88
748.606	11.88
749.355	10.88
750.105	8.88
750.854	12.88
751.603	9.88
752.353	11.88
753.102	11.88
753.851	12.88
754.6	10.88
755.349	10.88
756.098	12.88
756.847	9.88
757.595	12.88
758.344	12.88
759.093	12.88
759.841	13.88
760.589	10.88
761.338	13.88
762.086	9.88
762.834	13.88
763.582	10.88
764.331	11.88
765.079	13.88
765.826	9.88
766.574	14.88
767.322	12.88
768.07	12.88
768.817	14.88
769.565	15.88
770.312	14.88
771.06	12.88
771.807	14.88
772.554	14.88
773.302	15.88
774.049	14.88
774.796	12.88
775.543	15.88
776.29	13.88
777.036	14.88
777.783	12.88
778.53	17.88
779.276	13.88
780.023	13.88
780.769	12.88
781.516	16.88
782.262	14.88
783.008	14.88
783.754	16.88
784.5	13.88
785.246	13.88
785.992	15.88
786.738	17.88
787.484	15.88
788.23	16.88
788.975	13.88
789.721	15.88
790.466	12.88
791.212	14.88
791.957	15.88
792.702	15.88
793.447	14.88
794.193	14.88
794.938	14.88
795.683	14.88
796.427	12.88
797.172	12.88
797.917	14.88
798.662	11.88
799.406	13.88
800.151	11.88
800.895	12.88
801.64	11.88
802.384	13.88
803.128	10.88
803.872	8.88
804.616	11.88
805.36	9.88
806.104	11.88
806.848	11.88
807.592	10.88
808.336	8.88
809.079	8.88
809.823	6.88
810.566	6.88
811.31	10.88
812.053	8.88
812.796	8.88
813.539	7.88
814.283	8.88
815.026	8.88
815.769	6.88
816.511	8.88
817.254	9.88
817.997	7.88
818.74	7.88
819.482	9.88
820.225	7.88
820.967	8.88
821.71	7.88
822.452	4.88
823.194	7.88
823.936	7.88
824.678	4.88
825.42	8.88
826.162	6.88
826.904	7.88
827.646	7.88
828.388	6.88
829.129	5.88
829.871	4.88
830.612	6.88
831.354	5.88
832.095	5.88
832.836	6.88
833.577	4.88
834.319	4.88
835.06	4.88
835.801	6.88
836.542	6.88
837.282	7.88
838.023	7.88
838.764	5.88
839.504	5.88
840.245	3.88
840.985	3.88
841.726	6.88
842.466	7.88
843.206	5.88
843.946	4.88
844.687	6.88
845.427	3.88
846.166	5.88
846.906	2.88
847.646	5.88
848.386	4.88
849.125	4.88
849.865	4.88
850.605	3.88
851.344	2.88
852.083	4.88
852.823	5.88
853.562	3.88
854.301	3.88
855.04	5.88
855.779	2.88
856.518	0.88
857.257	5.88
857.995	3.88
858.734	3.88
859.473	5.88
860.211	2.88
860.95	2.88
861.688	2.88
862.426	3.88
863.165	2.88
863.903	2.88
864.641	2.88
865.379	-0.12
866.117	2.88
866.855	0.88
867.593	4.88
868.33	2.88
869.068	0.88
869.806	5.88
870.543	0.88
871.28	2.88
872.018	1.88
872.755	3.88
873.492	1.88
874.229	2.88
874.967	1.88
875.703	0.88
876.44	0.88
877.177	1.88
877.914	2.88
878.651	-0.12
879.387	0.88
880.124	2.88
880.86	2.88
881.597	2.88
882.333	2.88
883.069	2.88
883.806	1.88
884.542	-0.12
885.278	2.88
886.014	1.88
886.749	0.88
887.485	2.88
888.221	2.88
888.957	1.88
889.692	-0.12
890.428	1.88
891.163	0.88
891.899	1.88
892.634	0.88
893.369	-0.12
894.104	2.88
894.839	-1.12
895.574	-0.12
896.309	0.88
897.044	1.88
897.779	0.88
898.514	-1.12
899.248	2.88
899.983	1.88
900.717	2.88
901.452	0.88
902.186	0.88
902.92	0.88
903.654	-2.12
904.389	0.88
905.123	-0.12
905.857	0.88
906.59	0.88
907.324	1.88
908.058	-1.12
908.792	-0.12
909.525	3.88
910.259	-0.12
910.992	2.88
911.726	3.88
912.459	0.88
913.192	-0.12
913.925	-2.12
914.658	1.88
915.391	0.88
916.124	-1.12
916.857	-0.12
917.59	0.88
918.323	1.88
919.055	-0.12
919.788	1.88
920.521	0.88
921.253	-1.12
921.985	1.88
922.718	-0.12
923.45	1.88
924.182	-1.12
924.914	-0.12
925.646	-0.12
926.378	-0.12
927.11	0.88
927.841	-1.12
928.573	-1.12
929.305	1.88
930.036	-2.12
930.768	-0.12
931.499	-0.12
932.23	-0.12
932.962	0.88
933.693	0.88
934.424	2.88
935.155	0.88
935.886	1.88
936.617	-1.12
937.348	-1.12
938.078	2.88
938.809	1.88
939.54	1.88
940.27	-0.12
941.001	-1.12
941.731	-1.12
942.461	-1.12
943.191	-1.12
943.922	0.88
944.652	1.88
945.382	-1.12
946.112	1.88
946.841	1.88
947.571	-0.12
948.301	-0.12
949.031	-0.12
949.76	-0.12
950.49	-0.12
951.219	-0.12
951.948	0.88
952.678	-1.12
953.407	-1.12
954.136	0.88
954.865	-0.12
955.594	0.88
956.323	0.88
957.052	-0.12
957.78	-0.12
958.509	1.88
959.238	0.88
959.966	-1.12
960.695	2.88
961.423	0.88
962.151	1.88
962.88	-0.12
963.608	2.88
964.336	0.88
965.064	-1.12
965.792	-0.12
966.52	0.88
967.247	-0.12
967.975	0.88
968.703	-2.12
969.43	-0.12
970.158	0.88
970.885	2.88
971.613	0.88
972.34	-0.12
973.067	-0.12
973.794	-0.12
974.521	1.88
975.248	-3.12
975.975	0.88
976.702	1.88
977.429	1.88
978.156	-1.12
978.882	-0.12
979.609	0.88
980.335	-0.12
981.062	1.88
981.788	0.88
982.514	-0.12
983.24	0.88
983.967	-1.12
984.693	-0.12
985.419	0.88
986.144	-2.12
986.87	-0.12
987.596	0.88
988.322	-0.12
989.047	-1.12
989.773	-1.12
990.498	-1.12
991.224	-0.12
991.949	-1.12
992.674	-0.12
993.399	-1.12
994.124	-1.12
994.849	-1.12
995.574	-0.12
996.299	-1.12
997.024	-0.12
997.749	0.88
998.473	-2.12
999.198	-0.12
999.922	-1.12
1000.647	0.88
1001.371	3.88
1002.095	-2.12
1002.82	-0.12
1003.544	-2.12
1004.268	3.88
1004.992	4.88
1005.716	2.88
1006.439	1.88
1007.163	4.88
1007.887	4.88
1008.611	1.88
1009.334	1.88
1010.058	1.88
1010.781	1.88
1011.504	4.88
1012.228	1.88
1012.951	0.88
1013.674	-1.12
1014.397	1.88
1015.12	-1.12
