节点500_705_QEPB04081__120__20-47-53-077.txt的数据

Date: Wed Nov 12 20:47:53 CST 2025
User: PC
Spectrometer: QEPB0408
触发模式: 0
积分时间 (秒): 1.000000E-2
Scans to average: 1
启用暗噪声校正: true
启用非线性校正: false
滑动平均宽度: 0
X轴模式: Wavelengths
Number of Pixels in Spectrum: 1044
>>>>>Begin Spectral Data<<<<<
220.843	4.62
221.644	5.62
222.444	2.62
223.244	7.62
224.045	7.62
224.845	7.62
225.645	7.62
226.445	5.62
227.245	4.62
228.045	7.62
228.845	7.62
229.645	5.62
230.444	9.62
231.244	6.62
232.043	8.62
232.843	7.62
233.642	8.62
234.442	9.62
235.241	11.62
236.04	11.62
236.839	12.62
237.638	10.62
238.437	9.62
239.236	11.62
240.035	10.62
240.833	11.62
241.632	12.62
242.43	11.62
243.229	12.62
244.027	13.62
244.826	12.62
245.624	14.62
246.422	14.62
247.22	14.62
248.018	16.62
248.816	16.62
249.614	15.62
250.412	14.62
251.21	14.62
252.007	14.62
252.805	17.62
253.602	19.62
254.4	18.62
255.197	18.62
255.994	20.62
256.791	20.62
257.589	23.62
258.386	21.62
259.183	23.62
259.979	23.62
260.776	22.62
261.573	24.62
262.37	23.62
263.166	26.62
263.963	25.62
264.759	25.62
265.556	25.62
266.352	29.62
267.148	30.62
267.944	28.62
268.74	31.62
269.536	32.62
270.332	33.62
271.128	33.62
271.924	36.62
272.719	34.62
273.515	34.62
274.311	33.62
275.106	35.62
275.901	34.62
276.697	37.62
277.492	35.62
278.287	33.62
279.082	38.62
279.877	36.62
280.672	34.62
281.467	35.62
282.262	34.62
283.056	35.62
283.851	38.62
284.646	34.62
285.44	33.62
286.234	35.62
287.029	32.62
287.823	34.62
288.617	33.62
289.411	33.62
290.205	31.62
290.999	32.62
291.793	31.62
292.587	30.62
293.381	30.62
294.174	29.62
294.968	30.62
295.761	28.62
296.555	29.62
297.348	26.62
298.141	26.62
298.935	27.62
299.728	25.62
300.521	28.62
301.314	25.62
302.107	20.62
302.899	22.62
303.692	21.62
304.485	21.62
305.277	22.62
306.07	21.62
306.862	22.62
307.655	19.62
308.447	22.62
309.239	18.62
310.031	23.62
310.823	19.62
311.615	16.62
312.407	18.62
313.199	15.62
313.991	13.62
314.783	18.62
315.574	13.62
316.366	14.62
317.157	13.62
317.949	11.62
318.74	18.62
319.531	15.62
320.322	14.62
321.113	14.62
321.904	14.62
322.695	12.62
323.486	13.62
324.277	14.62
325.068	12.62
325.858	12.62
326.649	13.62
327.439	15.62
328.23	12.62
329.02	13.62
329.81	9.62
330.6	12.62
331.391	11.62
332.181	9.62
332.971	12.62
333.76	11.62
334.55	11.62
335.34	10.62
336.13	10.62
336.919	10.62
337.709	13.62
338.498	11.62
339.287	11.62
340.077	11.62
340.866	10.62
341.655	10.62
342.444	11.62
343.233	11.62
344.022	11.62
344.811	11.62
345.6	11.62
346.388	12.62
347.177	10.62
347.965	9.62
348.754	10.62
349.542	9.62
350.33	11.62
351.119	11.62
351.907	10.62
352.695	13.62
353.483	14.62
354.271	10.62
355.059	12.62
355.846	10.62
356.634	8.62
357.422	10.62
358.209	10.62
358.997	12.62
359.784	9.62
360.571	10.62
361.359	13.62
362.146	10.62
362.933	9.62
363.72	9.62
364.507	9.62
365.294	11.62
366.081	10.62
366.867	12.62
367.654	6.62
368.44	7.62
369.227	8.62
370.013	10.62
370.8	12.62
371.586	9.62
372.372	8.62
373.158	7.62
373.944	9.62
374.73	10.62
375.516	8.62
376.302	8.62
377.088	10.62
377.873	10.62
378.659	9.62
379.445	12.62
380.23	11.62
381.015	11.62
381.801	10.62
382.586	8.62
383.371	10.62
384.156	8.62
384.941	7.62
385.726	11.62
386.511	11.62
387.296	13.62
388.08	11.62
388.865	10.62
389.649	10.62
390.434	13.62
391.218	11.62
392.003	11.62
392.787	12.62
393.571	14.62
394.355	12.62
395.139	12.62
395.923	13.62
396.707	13.62
397.491	13.62
398.274	12.62
399.058	15.62
399.842	12.62
400.625	14.62
401.408	14.62
402.192	14.62
402.975	13.62
403.758	15.62
404.541	14.62
405.324	18.62
406.107	16.62
406.89	14.62
407.673	13.62
408.456	14.62
409.238	14.62
410.021	17.62
410.803	14.62
411.586	14.62
412.368	16.62
413.151	16.62
413.933	18.62
414.715	18.62
415.497	18.62
416.279	18.62
417.061	21.62
417.843	22.62
418.624	22.62
419.406	20.62
420.188	22.62
420.969	23.62
421.751	22.62
422.532	22.62
423.313	21.62
424.095	22.62
424.876	23.62
425.657	23.62
426.438	24.62
427.219	29.62
428	27.62
428.78	30.62
429.561	26.62
430.342	30.62
431.122	31.62
431.903	31.62
432.683	34.62
433.464	35.62
434.244	39.62
435.024	38.62
435.804	41.62
436.584	45.62
437.364	44.62
438.144	48.62
438.924	51.62
439.704	51.62
440.483	55.62
441.263	60.62
442.042	64.62
442.822	68.62
443.601	73.62
444.38	79.62
445.16	83.62
445.939	89.62
446.718	97.62
447.497	105.62
448.276	123.62
449.054	127.62
449.833	137.62
450.612	148.62
451.391	162.62
452.169	186.62
452.948	204.62
453.726	227.62
454.504	260.62
455.282	278.62
456.061	314.62
456.839	345.62
457.617	389.62
458.395	437.62
459.172	480.62
459.95	548.62
460.728	608.62
461.506	687.62
462.283	756.62
463.061	852.62
463.838	944.62
464.615	1061.62
465.393	1166.62
466.17	1321.62
466.947	1450.62
467.724	1626.62
468.501	1820.62
469.278	2004.62
470.055	2224.62
470.831	2476.62
471.608	2759.62
472.385	3043.62
473.161	3344.62
473.938	3703.62
474.714	4088.62
475.49	4504.62
476.266	4965.62
477.043	5468.62
477.819	5947.62
478.595	6537.62
479.371	7149.62
480.146	7861.62
480.922	8607.62
481.698	9441.62
482.473	10294.62
483.249	11257.62
484.024	12237.62
484.8	13350.62
485.575	14526.62
486.35	15810.62
487.126	17154.62
487.901	18602.62
488.676	20067.62
489.451	21769.62
490.225	23384.62
491	25146.62
491.775	26969.62
492.55	28886.62
493.324	30750.62
494.099	32717.62
494.873	34558.62
495.647	36503.62
496.422	38455.62
497.196	40278.62
497.97	42042.62
498.744	43590.62
499.518	45233.62
500.292	46438.62
501.066	47383.62
501.839	48238.62
502.613	48852.62
503.387	49277.62
504.16	49586.62
504.934	49490.62
505.707	49088.62
506.48	48514.62
507.253	47825.62
508.027	46858.62
508.8	45662.62
509.573	44395.62
510.346	43031.62
511.118	41869.62
511.891	40353.62
512.664	38734.62
513.437	37250.62
514.209	35684.62
514.982	34206.62
515.754	32841.62
516.526	31498.62
517.298	30179.62
518.071	28874.62
518.843	27784.62
519.615	26638.62
520.387	25575.62
521.159	24570.62
521.93	23505.62
522.702	22523.62
523.474	21537.62
524.245	20652.62
525.017	19750.62
525.788	18771.62
526.56	17990.62
527.331	17190.62
528.102	16239.62
528.873	15390.62
529.644	14703.62
530.415	13982.62
531.186	13292.62
531.957	12573.62
532.728	11920.62
533.498	11288.62
534.269	10634.62
535.039	10077.62
535.81	9547.62
536.58	9002.62
537.351	8518.62
538.121	8073.62
538.891	7629.62
539.661	7235.62
540.431	6818.62
541.201	6489.62
541.971	6130.62
542.741	5817.62
543.51	5511.62
544.28	5230.62
545.05	5003.62
545.819	4790.62
546.588	4528.62
547.358	4321.62
548.127	4106.62
548.896	3876.62
549.665	3676.62
550.434	3488.62
551.203	3317.62
551.972	3130.62
552.741	2969.62
553.51	2785.62
554.278	2657.62
555.047	2493.62
555.815	2348.62
556.584	2209.62
557.352	2113.62
558.121	1979.62
558.889	1867.62
559.657	1767.62
560.425	1672.62
561.193	1579.62
561.961	1508.62
562.729	1411.62
563.496	1324.62
564.264	1258.62
565.032	1210.62
565.799	1131.62
566.567	1069.62
567.334	1013.62
568.101	958.62
568.869	894.62
569.636	854.62
570.403	813.62
571.17	759.62
571.937	717.62
572.704	687.62
573.471	644.62
574.237	602.62
575.004	573.62
575.771	538.62
576.537	509.62
577.303	486.62
578.07	451.62
578.836	429.62
579.602	397.62
580.368	381.62
581.134	364.62
581.9	344.62
582.666	327.62
583.432	312.62
584.198	301.62
584.964	277.62
585.729	270.62
586.495	258.62
587.26	239.62
588.025	231.62
588.791	218.62
589.556	197.62
590.321	196.62
591.086	180.62
591.851	179.62
592.616	168.62
593.381	159.62
594.146	155.62
594.911	148.62
595.675	143.62
596.44	133.62
597.204	126.62
597.969	119.62
598.733	116.62
599.497	110.62
600.261	108.62
601.025	101.62
601.79	96.62
602.553	98.62
603.317	88.62
604.081	87.62
604.845	80.62
605.609	78.62
606.372	73.62
607.136	77.62
607.899	71.62
608.662	70.62
609.426	67.62
610.189	64.62
610.952	62.62
611.715	59.62
612.478	54.62
613.241	57.62
614.004	54.62
614.767	49.62
615.529	52.62
616.292	45.62
617.055	46.62
617.817	42.62
618.579	44.62
619.342	43.62
620.104	40.62
620.866	40.62
621.628	39.62
622.39	34.62
623.152	36.62
623.914	34.62
624.676	36.62
625.438	35.62
626.199	31.62
626.961	27.62
627.722	28.62
628.484	27.62
629.245	29.62
630.006	26.62
630.768	26.62
631.529	27.62
632.29	25.62
633.051	22.62
633.812	26.62
634.573	20.62
635.333	21.62
636.094	22.62
636.855	22.62
637.615	19.62
638.376	20.62
639.136	19.62
639.896	20.62
640.657	18.62
641.417	20.62
642.177	17.62
642.937	18.62
643.697	17.62
644.457	15.62
645.216	14.62
645.976	15.62
646.736	15.62
647.495	14.62
648.255	11.62
649.014	14.62
649.774	15.62
650.533	13.62
651.292	11.62
652.051	12.62
652.81	10.62
653.569	14.62
654.328	14.62
655.087	11.62
655.846	12.62
656.604	12.62
657.363	14.62
658.121	9.62
658.88	9.62
659.638	12.62
660.397	12.62
661.155	11.62
661.913	10.62
662.671	11.62
663.429	11.62
664.187	10.62
664.945	10.62
665.703	10.62
666.46	10.62
667.218	11.62
667.976	8.62
668.733	8.62
669.49	10.62
670.248	11.62
671.005	8.62
671.762	7.62
672.519	6.62
673.276	9.62
674.033	9.62
674.79	7.62
675.547	9.62
676.304	8.62
677.06	9.62
677.817	7.62
678.574	9.62
679.33	9.62
680.086	7.62
680.843	8.62
681.599	8.62
682.355	8.62
683.111	10.62
683.867	6.62
684.623	9.62
685.379	6.62
686.135	7.62
686.89	4.62
687.646	7.62
688.402	5.62
689.157	7.62
689.912	8.62
690.668	7.62
691.423	6.62
692.178	7.62
692.933	7.62
693.688	6.62
694.443	6.62
695.198	6.62
695.953	9.62
696.708	7.62
697.462	8.62
698.217	5.62
698.972	8.62
699.726	6.62
700.48	6.62
701.235	9.62
701.989	5.62
702.743	6.62
703.497	7.62
704.251	5.62
705.005	6.62
705.759	6.62
706.513	8.62
707.266	7.62
708.02	6.62
708.774	5.62
709.527	7.62
710.28	9.62
711.034	9.62
711.787	8.62
712.54	7.62
713.293	7.62
714.046	7.62
714.799	6.62
715.552	7.62
716.305	4.62
717.058	8.62
717.81	7.62
718.563	7.62
719.315	7.62
720.068	6.62
720.82	6.62
721.573	9.62
722.325	10.62
723.077	8.62
723.829	7.62
724.581	8.62
725.333	7.62
726.085	10.62
726.836	7.62
727.588	8.62
728.34	8.62
729.091	8.62
729.843	9.62
730.594	7.62
731.346	9.62
732.097	7.62
732.848	10.62
733.599	9.62
734.35	7.62
735.101	11.62
735.852	8.62
736.603	9.62
737.354	11.62
738.104	7.62
738.855	10.62
739.605	9.62
740.356	12.62
741.106	9.62
741.856	12.62
742.607	11.62
743.357	9.62
744.107	10.62
744.857	7.62
745.607	10.62
746.357	9.62
747.106	10.62
747.856	12.62
748.606	10.62
749.355	12.62
750.105	10.62
750.854	11.62
751.603	12.62
752.353	13.62
753.102	13.62
753.851	10.62
754.6	13.62
755.349	13.62
756.098	11.62
756.847	12.62
757.595	11.62
758.344	11.62
759.093	14.62
759.841	14.62
760.589	13.62
761.338	14.62
762.086	10.62
762.834	12.62
763.582	13.62
764.331	15.62
765.079	15.62
765.826	14.62
766.574	14.62
767.322	14.62
768.07	11.62
768.817	12.62
769.565	14.62
770.312	12.62
771.06	14.62
771.807	14.62
772.554	15.62
773.302	14.62
774.049	15.62
774.796	17.62
775.543	14.62
776.29	17.62
777.036	17.62
777.783	17.62
778.53	14.62
779.276	16.62
780.023	14.62
780.769	18.62
781.516	16.62
782.262	14.62
783.008	17.62
783.754	15.62
784.5	15.62
785.246	15.62
785.992	16.62
786.738	16.62
787.484	18.62
788.23	17.62
788.975	15.62
789.721	15.62
790.466	14.62
791.212	14.62
791.957	15.62
792.702	14.62
793.447	13.62
794.193	14.62
794.938	14.62
795.683	14.62
796.427	14.62
797.172	13.62
797.917	11.62
798.662	12.62
799.406	14.62
800.151	12.62
800.895	14.62
801.64	10.62
802.384	11.62
803.128	11.62
803.872	10.62
804.616	11.62
805.36	10.62
806.104	11.62
806.848	6.62
807.592	12.62
808.336	8.62
809.079	9.62
809.823	10.62
810.566	8.62
811.31	10.62
812.053	10.62
812.796	8.62
813.539	6.62
814.283	10.62
815.026	9.62
815.769	8.62
816.511	7.62
817.254	8.62
817.997	8.62
818.74	8.62
819.482	7.62
820.225	6.62
820.967	8.62
821.71	6.62
822.452	7.62
823.194	6.62
823.936	6.62
824.678	4.62
825.42	7.62
826.162	5.62
826.904	7.62
827.646	5.62
828.388	6.62
829.129	7.62
829.871	6.62
830.612	6.62
831.354	6.62
832.095	4.62
832.836	7.62
833.577	4.62
834.319	6.62
835.06	6.62
835.801	5.62
836.542	7.62
837.282	5.62
838.023	5.62
838.764	7.62
839.504	4.62
840.245	6.62
840.985	4.62
841.726	3.62
842.466	4.62
843.206	6.62
843.946	2.62
844.687	5.62
845.427	5.62
846.166	4.62
846.906	4.62
847.646	6.62
848.386	3.62
849.125	6.62
849.865	5.62
850.605	6.62
851.344	4.62
852.083	5.62
852.823	2.62
853.562	6.62
854.301	2.62
855.04	2.62
855.779	3.62
856.518	3.62
857.257	2.62
857.995	3.62
858.734	3.62
859.473	4.62
860.211	2.62
860.95	4.62
861.688	1.62
862.426	5.62
863.165	4.62
863.903	3.62
864.641	2.62
865.379	2.62
866.117	0.62
866.855	2.62
867.593	1.62
868.33	4.62
869.068	1.62
869.806	2.62
870.543	3.62
871.28	2.62
872.018	1.62
872.755	-0.38
873.492	0.62
874.229	0.62
874.967	1.62
875.703	1.62
876.44	0.62
877.177	1.62
877.914	1.62
878.651	2.62
879.387	-0.38
880.124	2.62
880.86	1.62
881.597	1.62
882.333	1.62
883.069	0.62
883.806	-0.38
884.542	-1.38
885.278	0.62
886.014	1.62
886.749	2.62
887.485	2.62
888.221	-1.38
888.957	-0.38
889.692	0.62
890.428	0.62
891.163	1.62
891.899	0.62
892.634	2.62
893.369	-0.38
894.104	0.62
894.839	0.62
895.574	0.62
896.309	0.62
897.044	1.62
897.779	1.62
898.514	1.62
899.248	0.62
899.983	2.62
900.717	2.62
901.452	0.62
902.186	0.62
902.92	-0.38
903.654	-0.38
904.389	-0.38
905.123	0.62
905.857	-0.38
906.59	-0.38
907.324	0.62
908.058	-1.38
908.792	-0.38
909.525	-0.38
910.259	0.62
910.992	1.62
911.726	1.62
912.459	0.62
913.192	0.62
913.925	1.62
914.658	-0.38
915.391	0.62
916.124	0.62
916.857	-0.38
917.59	0.62
918.323	-1.38
919.055	2.62
919.788	-3.38
920.521	0.62
921.253	2.62
921.985	-0.38
922.718	0.62
923.45	2.62
924.182	-1.38
924.914	-0.38
925.646	-1.38
926.378	0.62
927.11	-1.38
927.841	1.62
928.573	-0.38
929.305	-0.38
930.036	0.62
930.768	0.62
931.499	2.62
932.23	-1.38
932.962	0.62
933.693	-1.38
934.424	0.62
935.155	1.62
935.886	-1.38
936.617	1.62
937.348	0.62
938.078	0.62
938.809	-1.38
939.54	-1.38
940.27	0.62
941.001	-1.38
941.731	-0.38
942.461	2.62
943.191	-0.38
943.922	0.62
944.652	0.62
945.382	-0.38
946.112	0.62
946.841	-1.38
947.571	0.62
948.301	0.62
949.031	-0.38
949.76	-2.38
950.49	0.62
951.219	-1.38
951.948	1.62
952.678	0.62
953.407	0.62
954.136	0.62
954.865	0.62
955.594	-0.38
956.323	1.62
957.052	-2.38
957.78	0.62
958.509	-0.38
959.238	-1.38
959.966	-1.38
960.695	1.62
961.423	-1.38
962.151	0.62
962.88	-1.38
963.608	-1.38
964.336	0.62
965.064	-1.38
965.792	0.62
966.52	0.62
967.247	-1.38
967.975	0.62
968.703	-0.38
969.43	-0.38
970.158	1.62
970.885	1.62
971.613	0.62
972.34	0.62
973.067	-1.38
973.794	-2.38
974.521	-1.38
975.248	-2.38
975.975	-2.38
976.702	0.62
977.429	0.62
978.156	1.62
978.882	-0.38
979.609	-1.38
980.335	0.62
981.062	0.62
981.788	0.62
982.514	-0.38
983.24	0.62
983.967	-0.38
984.693	1.62
985.419	0.62
986.144	-0.38
986.87	1.62
987.596	0.62
988.322	-0.38
989.047	0.62
989.773	-0.38
990.498	2.62
991.224	1.62
991.949	-0.38
992.674	0.62
993.399	-0.38
994.124	1.62
994.849	-1.38
995.574	1.62
996.299	-1.38
997.024	0.62
997.749	-1.38
998.473	-0.38
999.198	-0.38
999.922	0.62
1000.647	0.62
1001.371	5.62
1002.095	-1.38
1002.82	-1.38
1003.544	-2.38
1004.268	4.62
1004.992	4.62
1005.716	5.62
1006.439	3.62
1007.163	4.62
1007.887	2.62
1008.611	0.62
1009.334	0.62
1010.058	0.62
1010.781	1.62
1011.504	0.62
1012.228	-0.38
1012.951	-0.38
1013.674	-0.38
1014.397	0.62
1015.12	-0.38
