节点500_705_QEPB04081__11__20-46-04-366.txt的数据

Date: Wed Nov 12 20:46:04 CST 2025
User: PC
Spectrometer: QEPB0408
触发模式: 0
积分时间 (秒): 1.000000E-2
Scans to average: 1
启用暗噪声校正: true
启用非线性校正: false
滑动平均宽度: 0
X轴模式: Wavelengths
Number of Pixels in Spectrum: 1044
>>>>>Begin Spectral Data<<<<<
220.843	9.38
221.644	4.38
222.444	7.38
223.244	6.38
224.045	7.38
224.845	6.38
225.645	5.38
226.445	8.38
227.245	7.38
228.045	7.38
228.845	10.38
229.645	9.38
230.444	10.38
231.244	7.38
232.043	10.38
232.843	8.38
233.642	9.38
234.442	11.38
235.241	11.38
236.04	8.38
236.839	11.38
237.638	12.38
238.437	10.38
239.236	11.38
240.035	11.38
240.833	12.38
241.632	13.38
242.43	15.38
243.229	12.38
244.027	13.38
244.826	15.38
245.624	13.38
246.422	19.38
247.22	13.38
248.018	14.38
248.816	17.38
249.614	15.38
250.412	17.38
251.21	18.38
252.007	18.38
252.805	19.38
253.602	21.38
254.4	20.38
255.197	20.38
255.994	21.38
256.791	23.38
257.589	22.38
258.386	22.38
259.183	25.38
259.979	27.38
260.776	27.38
261.573	27.38
262.37	24.38
263.166	27.38
263.963	29.38
264.759	30.38
265.556	30.38
266.352	28.38
267.148	29.38
267.944	31.38
268.74	35.38
269.536	33.38
270.332	35.38
271.128	33.38
271.924	36.38
272.719	36.38
273.515	35.38
274.311	34.38
275.106	38.38
275.901	35.38
276.697	38.38
277.492	38.38
278.287	40.38
279.082	36.38
279.877	38.38
280.672	36.38
281.467	39.38
282.262	40.38
283.056	36.38
283.851	37.38
284.646	36.38
285.44	37.38
286.234	35.38
287.029	36.38
287.823	34.38
288.617	37.38
289.411	35.38
290.205	38.38
290.999	33.38
291.793	34.38
292.587	36.38
293.381	31.38
294.174	30.38
294.968	29.38
295.761	31.38
296.555	26.38
297.348	28.38
298.141	29.38
298.935	31.38
299.728	26.38
300.521	26.38
301.314	24.38
302.107	23.38
302.899	25.38
303.692	28.38
304.485	18.38
305.277	25.38
306.07	21.38
306.862	21.38
307.655	23.38
308.447	21.38
309.239	21.38
310.031	20.38
310.823	21.38
311.615	19.38
312.407	18.38
313.199	18.38
313.991	17.38
314.783	16.38
315.574	16.38
316.366	15.38
317.157	14.38
317.949	15.38
318.74	14.38
319.531	15.38
320.322	12.38
321.113	19.38
321.904	14.38
322.695	14.38
323.486	12.38
324.277	12.38
325.068	12.38
325.858	14.38
326.649	15.38
327.439	11.38
328.23	12.38
329.02	11.38
329.81	12.38
330.6	14.38
331.391	13.38
332.181	12.38
332.971	14.38
333.76	13.38
334.55	13.38
335.34	11.38
336.13	11.38
336.919	12.38
337.709	12.38
338.498	13.38
339.287	9.38
340.077	11.38
340.866	12.38
341.655	11.38
342.444	13.38
343.233	11.38
344.022	13.38
344.811	14.38
345.6	11.38
346.388	13.38
347.177	11.38
347.965	11.38
348.754	9.38
349.542	10.38
350.33	11.38
351.119	12.38
351.907	11.38
352.695	11.38
353.483	13.38
354.271	12.38
355.059	11.38
355.846	12.38
356.634	12.38
357.422	11.38
358.209	11.38
358.997	11.38
359.784	11.38
360.571	10.38
361.359	11.38
362.146	13.38
362.933	8.38
363.72	13.38
364.507	11.38
365.294	10.38
366.081	9.38
366.867	13.38
367.654	10.38
368.44	10.38
369.227	9.38
370.013	10.38
370.8	10.38
371.586	10.38
372.372	10.38
373.158	11.38
373.944	7.38
374.73	13.38
375.516	8.38
376.302	13.38
377.088	14.38
377.873	12.38
378.659	11.38
379.445	12.38
380.23	13.38
381.015	10.38
381.801	12.38
382.586	10.38
383.371	11.38
384.156	12.38
384.941	10.38
385.726	12.38
386.511	12.38
387.296	12.38
388.08	10.38
388.865	13.38
389.649	14.38
390.434	13.38
391.218	11.38
392.003	12.38
392.787	12.38
393.571	14.38
394.355	13.38
395.139	14.38
395.923	14.38
396.707	13.38
397.491	11.38
398.274	12.38
399.058	16.38
399.842	12.38
400.625	16.38
401.408	14.38
402.192	14.38
402.975	16.38
403.758	13.38
404.541	15.38
405.324	15.38
406.107	15.38
406.89	15.38
407.673	18.38
408.456	15.38
409.238	18.38
410.021	17.38
410.803	18.38
411.586	16.38
412.368	19.38
413.151	18.38
413.933	21.38
414.715	20.38
415.497	17.38
416.279	17.38
417.061	18.38
417.843	20.38
418.624	21.38
419.406	22.38
420.188	22.38
420.969	22.38
421.751	25.38
422.532	26.38
423.313	24.38
424.095	24.38
424.876	24.38
425.657	26.38
426.438	27.38
427.219	29.38
428	28.38
428.78	29.38
429.561	30.38
430.342	31.38
431.122	33.38
431.903	32.38
432.683	35.38
433.464	34.38
434.244	39.38
435.024	42.38
435.804	41.38
436.584	40.38
437.364	45.38
438.144	46.38
438.924	47.38
439.704	52.38
440.483	53.38
441.263	58.38
442.042	63.38
442.822	64.38
443.601	73.38
444.38	80.38
445.16	86.38
445.939	90.38
446.718	93.38
447.497	100.38
448.276	115.38
449.054	124.38
449.833	139.38
450.612	150.38
451.391	166.38
452.169	178.38
452.948	202.38
453.726	221.38
454.504	242.38
455.282	273.38
456.061	302.38
456.839	335.38
457.617	380.38
458.395	416.38
459.172	472.38
459.95	515.38
460.728	585.38
461.506	660.38
462.283	738.38
463.061	831.38
463.838	921.38
464.615	1036.38
465.393	1147.38
466.17	1293.38
466.947	1435.38
467.724	1610.38
468.501	1782.38
469.278	1980.38
470.055	2219.38
470.831	2446.38
471.608	2722.38
472.385	3036.38
473.161	3375.38
473.938	3723.38
474.714	4096.38
475.49	4565.38
476.266	4997.38
477.043	5496.38
477.819	6074.38
478.595	6667.38
479.371	7336.38
480.146	8063.38
480.922	8898.38
481.698	9742.38
482.473	10697.38
483.249	11733.38
484.024	12751.38
484.8	13911.38
485.575	15177.38
486.35	16589.38
487.126	17976.38
487.901	19504.38
488.676	21148.38
489.451	22874.38
490.225	24763.38
491	26616.38
491.775	28518.38
492.55	30527.38
493.324	32548.38
494.099	34556.38
494.873	36539.38
495.647	38636.38
496.422	40612.38
497.196	42549.38
497.97	44267.38
498.744	45871.38
499.518	47425.38
500.292	48802.38
501.066	49615.38
501.839	50157.38
502.613	50751.38
503.387	51068.38
504.16	51218.38
504.934	51044.38
505.707	50463.38
506.48	49622.38
507.253	48764.38
508.027	47597.38
508.8	46225.38
509.573	44894.38
510.346	43444.38
511.118	42070.38
511.891	40500.38
512.664	38791.38
513.437	37204.38
514.209	35566.38
514.982	34160.38
515.754	32647.38
516.526	31262.38
517.298	29990.38
518.071	28729.38
518.843	27581.38
519.615	26383.38
520.387	25436.38
521.159	24364.38
521.93	23402.38
522.702	22316.38
523.474	21344.38
524.245	20463.38
525.017	19492.38
525.788	18597.38
526.56	17785.38
527.331	16929.38
528.102	16036.38
528.873	15246.38
529.644	14467.38
530.415	13715.38
531.186	13032.38
531.957	12332.38
532.728	11662.38
533.498	11046.38
534.269	10408.38
535.039	9840.38
535.81	9319.38
536.58	8791.38
537.351	8326.38
538.121	7908.38
538.891	7439.38
539.661	7044.38
540.431	6642.38
541.201	6294.38
541.971	5985.38
542.741	5673.38
543.51	5363.38
544.28	5114.38
545.05	4887.38
545.819	4639.38
546.588	4390.38
547.358	4229.38
548.127	3995.38
548.896	3782.38
549.665	3602.38
550.434	3404.38
551.203	3208.38
551.972	3048.38
552.741	2876.38
553.51	2709.38
554.278	2605.38
555.047	2408.38
555.815	2292.38
556.584	2142.38
557.352	2028.38
558.121	1924.38
558.889	1831.38
559.657	1709.38
560.425	1627.38
561.193	1535.38
561.961	1450.38
562.729	1371.38
563.496	1295.38
564.264	1223.38
565.032	1160.38
565.799	1100.38
566.567	1038.38
567.334	979.38
568.101	934.38
568.869	874.38
569.636	829.38
570.403	782.38
571.17	729.38
571.937	695.38
572.704	659.38
573.471	628.38
574.237	581.38
575.004	549.38
575.771	514.38
576.537	495.38
577.303	468.38
578.07	443.38
578.836	417.38
579.602	393.38
580.368	360.38
581.134	358.38
581.9	334.38
582.666	322.38
583.432	304.38
584.198	289.38
584.964	273.38
585.729	266.38
586.495	247.38
587.26	236.38
588.025	223.38
588.791	209.38
589.556	198.38
590.321	189.38
591.086	181.38
591.851	171.38
592.616	163.38
593.381	155.38
594.146	149.38
594.911	145.38
595.675	136.38
596.44	132.38
597.204	125.38
597.969	122.38
598.733	113.38
599.497	106.38
600.261	106.38
601.025	101.38
601.79	95.38
602.553	97.38
603.317	87.38
604.081	90.38
604.845	80.38
605.609	80.38
606.372	76.38
607.136	72.38
607.899	70.38
608.662	71.38
609.426	62.38
610.189	62.38
610.952	63.38
611.715	56.38
612.478	57.38
613.241	51.38
614.004	51.38
614.767	50.38
615.529	48.38
616.292	49.38
617.055	46.38
617.817	45.38
618.579	42.38
619.342	44.38
620.104	41.38
620.866	39.38
621.628	39.38
622.39	38.38
623.152	38.38
623.914	37.38
624.676	35.38
625.438	34.38
626.199	29.38
626.961	35.38
627.722	30.38
628.484	27.38
629.245	30.38
630.006	28.38
630.768	26.38
631.529	28.38
632.29	26.38
633.051	26.38
633.812	23.38
634.573	24.38
635.333	23.38
636.094	24.38
636.855	22.38
637.615	23.38
638.376	19.38
639.136	19.38
639.896	19.38
640.657	18.38
641.417	17.38
642.177	17.38
642.937	20.38
643.697	17.38
644.457	20.38
645.216	15.38
645.976	16.38
646.736	18.38
647.495	19.38
648.255	16.38
649.014	15.38
649.774	14.38
650.533	14.38
651.292	13.38
652.051	14.38
652.81	12.38
653.569	13.38
654.328	15.38
655.087	13.38
655.846	14.38
656.604	12.38
657.363	14.38
658.121	13.38
658.88	13.38
659.638	15.38
660.397	11.38
661.155	11.38
661.913	11.38
662.671	13.38
663.429	10.38
664.187	8.38
664.945	9.38
665.703	9.38
666.46	8.38
667.218	11.38
667.976	11.38
668.733	11.38
669.49	10.38
670.248	9.38
671.005	8.38
671.762	9.38
672.519	9.38
673.276	9.38
674.033	6.38
674.79	9.38
675.547	9.38
676.304	6.38
677.06	7.38
677.817	9.38
678.574	9.38
679.33	11.38
680.086	7.38
680.843	8.38
681.599	9.38
682.355	10.38
683.111	8.38
683.867	8.38
684.623	11.38
685.379	7.38
686.135	8.38
686.89	9.38
687.646	7.38
688.402	10.38
689.157	9.38
689.912	8.38
690.668	9.38
691.423	10.38
692.178	5.38
692.933	4.38
693.688	10.38
694.443	8.38
695.198	8.38
695.953	6.38
696.708	8.38
697.462	9.38
698.217	9.38
698.972	7.38
699.726	7.38
700.48	7.38
701.235	7.38
701.989	8.38
702.743	7.38
703.497	7.38
704.251	9.38
705.005	7.38
705.759	9.38
706.513	7.38
707.266	8.38
708.02	8.38
708.774	8.38
709.527	6.38
710.28	12.38
711.034	7.38
711.787	10.38
712.54	9.38
713.293	11.38
714.046	7.38
714.799	9.38
715.552	8.38
716.305	8.38
717.058	9.38
717.81	8.38
718.563	8.38
719.315	7.38
720.068	10.38
720.82	11.38
721.573	9.38
722.325	11.38
723.077	7.38
723.829	9.38
724.581	5.38
725.333	10.38
726.085	9.38
726.836	6.38
727.588	11.38
728.34	10.38
729.091	9.38
729.843	8.38
730.594	8.38
731.346	9.38
732.097	9.38
732.848	9.38
733.599	7.38
734.35	11.38
735.101	8.38
735.852	12.38
736.603	12.38
737.354	11.38
738.104	10.38
738.855	10.38
739.605	10.38
740.356	12.38
741.106	10.38
741.856	12.38
742.607	8.38
743.357	11.38
744.107	11.38
744.857	13.38
745.607	10.38
746.357	11.38
747.106	13.38
747.856	12.38
748.606	13.38
749.355	8.38
750.105	13.38
750.854	13.38
751.603	12.38
752.353	14.38
753.102	11.38
753.851	12.38
754.6	13.38
755.349	11.38
756.098	12.38
756.847	14.38
757.595	12.38
758.344	13.38
759.093	14.38
759.841	16.38
760.589	13.38
761.338	14.38
762.086	14.38
762.834	14.38
763.582	15.38
764.331	14.38
765.079	16.38
765.826	14.38
766.574	16.38
767.322	17.38
768.07	14.38
768.817	18.38
769.565	16.38
770.312	17.38
771.06	18.38
771.807	15.38
772.554	17.38
773.302	15.38
774.049	17.38
774.796	19.38
775.543	17.38
776.29	18.38
777.036	19.38
777.783	17.38
778.53	16.38
779.276	20.38
780.023	15.38
780.769	18.38
781.516	20.38
782.262	19.38
783.008	17.38
783.754	16.38
784.5	17.38
785.246	16.38
785.992	17.38
786.738	18.38
787.484	15.38
788.23	16.38
788.975	16.38
789.721	17.38
790.466	14.38
791.212	17.38
791.957	17.38
792.702	15.38
793.447	18.38
794.193	13.38
794.938	16.38
795.683	15.38
796.427	15.38
797.172	15.38
797.917	13.38
798.662	12.38
799.406	15.38
800.151	13.38
800.895	15.38
801.64	14.38
802.384	13.38
803.128	12.38
803.872	11.38
804.616	13.38
805.36	11.38
806.104	12.38
806.848	10.38
807.592	11.38
808.336	11.38
809.079	9.38
809.823	8.38
810.566	8.38
811.31	12.38
812.053	10.38
812.796	11.38
813.539	10.38
814.283	10.38
815.026	9.38
815.769	6.38
816.511	10.38
817.254	8.38
817.997	8.38
818.74	9.38
819.482	5.38
820.225	8.38
820.967	9.38
821.71	7.38
822.452	6.38
823.194	9.38
823.936	7.38
824.678	3.38
825.42	7.38
826.162	7.38
826.904	7.38
827.646	7.38
828.388	7.38
829.129	6.38
829.871	6.38
830.612	8.38
831.354	4.38
832.095	6.38
832.836	7.38
833.577	6.38
834.319	7.38
835.06	5.38
835.801	6.38
836.542	5.38
837.282	7.38
838.023	5.38
838.764	4.38
839.504	5.38
840.245	3.38
840.985	9.38
841.726	5.38
842.466	7.38
843.206	4.38
843.946	3.38
844.687	4.38
845.427	5.38
846.166	3.38
846.906	5.38
847.646	8.38
848.386	5.38
849.125	4.38
849.865	3.38
850.605	3.38
851.344	4.38
852.083	7.38
852.823	3.38
853.562	3.38
854.301	4.38
855.04	6.38
855.779	4.38
856.518	5.38
857.257	5.38
857.995	6.38
858.734	4.38
859.473	5.38
860.211	2.38
860.95	4.38
861.688	3.38
862.426	3.38
863.165	2.38
863.903	4.38
864.641	3.38
865.379	1.38
866.117	4.38
866.855	2.38
867.593	5.38
868.33	2.38
869.068	1.38
869.806	3.38
870.543	2.38
871.28	1.38
872.018	3.38
872.755	2.38
873.492	2.38
874.229	0.38
874.967	3.38
875.703	-0.62
876.44	3.38
877.177	1.38
877.914	2.38
878.651	3.38
879.387	-0.62
880.124	2.38
880.86	2.38
881.597	2.38
882.333	2.38
883.069	1.38
883.806	1.38
884.542	3.38
885.278	2.38
886.014	2.38
886.749	2.38
887.485	3.38
888.221	1.38
888.957	1.38
889.692	0.38
890.428	2.38
891.163	2.38
891.899	3.38
892.634	0.38
893.369	2.38
894.104	1.38
894.839	3.38
895.574	2.38
896.309	1.38
897.044	1.38
897.779	1.38
898.514	-0.62
899.248	3.38
899.983	3.38
900.717	2.38
901.452	3.38
902.186	2.38
902.92	3.38
903.654	0.38
904.389	2.38
905.123	-0.62
905.857	1.38
906.59	4.38
907.324	1.38
908.058	1.38
908.792	0.38
909.525	1.38
910.259	0.38
910.992	1.38
911.726	1.38
912.459	1.38
913.192	2.38
913.925	-0.62
914.658	1.38
915.391	1.38
916.124	-0.62
916.857	1.38
917.59	0.38
918.323	1.38
919.055	0.38
919.788	1.38
920.521	1.38
921.253	1.38
921.985	2.38
922.718	2.38
923.45	1.38
924.182	0.38
924.914	1.38
925.646	1.38
926.378	1.38
927.11	0.38
927.841	2.38
928.573	1.38
929.305	0.38
930.036	2.38
930.768	1.38
931.499	0.38
932.23	-0.62
932.962	0.38
933.693	0.38
934.424	-0.62
935.155	-0.62
935.886	0.38
936.617	-0.62
937.348	3.38
938.078	2.38
938.809	1.38
939.54	0.38
940.27	1.38
941.001	2.38
941.731	3.38
942.461	-0.62
943.191	4.38
943.922	0.38
944.652	-2.62
945.382	0.38
946.112	1.38
946.841	0.38
947.571	0.38
948.301	1.38
949.031	-0.62
949.76	0.38
950.49	-1.62
951.219	-0.62
951.948	0.38
952.678	0.38
953.407	1.38
954.136	0.38
954.865	1.38
955.594	2.38
956.323	1.38
957.052	2.38
957.78	1.38
958.509	5.38
959.238	0.38
959.966	0.38
960.695	1.38
961.423	-0.62
962.151	-0.62
962.88	-1.62
963.608	2.38
964.336	-0.62
965.064	0.38
965.792	-0.62
966.52	0.38
967.247	3.38
967.975	-1.62
968.703	0.38
969.43	2.38
970.158	-0.62
970.885	0.38
971.613	-1.62
972.34	-0.62
973.067	0.38
973.794	-0.62
974.521	1.38
975.248	-0.62
975.975	1.38
976.702	1.38
977.429	0.38
978.156	1.38
978.882	0.38
979.609	0.38
980.335	0.38
981.062	-0.62
981.788	0.38
982.514	0.38
983.24	-0.62
983.967	1.38
984.693	-0.62
985.419	0.38
986.144	2.38
986.87	-0.62
987.596	2.38
988.322	3.38
989.047	1.38
989.773	3.38
990.498	1.38
991.224	3.38
991.949	-0.62
992.674	1.38
993.399	1.38
994.124	2.38
994.849	0.38
995.574	1.38
996.299	0.38
997.024	1.38
997.749	0.38
998.473	3.38
999.198	-0.62
999.922	2.38
1000.647	-0.62
1001.371	5.38
1002.095	0.38
1002.82	0.38
1003.544	-1.62
1004.268	4.38
1004.992	5.38
1005.716	3.38
1006.439	3.38
1007.163	3.38
1007.887	6.38
1008.611	1.38
1009.334	0.38
1010.058	2.38
1010.781	1.38
1011.504	-0.62
1012.228	0.38
1012.951	-1.62
1013.674	1.38
1014.397	-0.62
1015.12	-3.62
