节点500_705_QEPB04081__116__20-47-49-106.txt的数据

Date: Wed Nov 12 20:47:49 CST 2025
User: PC
Spectrometer: QEPB0408
触发模式: 0
积分时间 (秒): 1.000000E-2
Scans to average: 1
启用暗噪声校正: true
启用非线性校正: false
滑动平均宽度: 0
X轴模式: Wavelengths
Number of Pixels in Spectrum: 1044
>>>>>Begin Spectral Data<<<<<
220.843	4.75
221.644	5.75
222.444	5.75
223.244	5.75
224.045	6.75
224.845	6.75
225.645	5.75
226.445	5.75
227.245	6.75
228.045	8.75
228.845	8.75
229.645	6.75
230.444	6.75
231.244	9.75
232.043	10.75
232.843	9.75
233.642	9.75
234.442	10.75
235.241	9.75
236.04	9.75
236.839	10.75
237.638	11.75
238.437	10.75
239.236	10.75
240.035	13.75
240.833	12.75
241.632	11.75
242.43	11.75
243.229	11.75
244.027	10.75
244.826	11.75
245.624	13.75
246.422	14.75
247.22	13.75
248.018	14.75
248.816	17.75
249.614	16.75
250.412	14.75
251.21	18.75
252.007	16.75
252.805	17.75
253.602	17.75
254.4	17.75
255.197	20.75
255.994	19.75
256.791	18.75
257.589	22.75
258.386	22.75
259.183	19.75
259.979	23.75
260.776	24.75
261.573	24.75
262.37	26.75
263.166	25.75
263.963	24.75
264.759	29.75
265.556	29.75
266.352	28.75
267.148	28.75
267.944	30.75
268.74	29.75
269.536	26.75
270.332	32.75
271.128	34.75
271.924	34.75
272.719	32.75
273.515	30.75
274.311	33.75
275.106	34.75
275.901	35.75
276.697	35.75
277.492	36.75
278.287	34.75
279.082	36.75
279.877	36.75
280.672	33.75
281.467	37.75
282.262	37.75
283.056	31.75
283.851	36.75
284.646	35.75
285.44	35.75
286.234	34.75
287.029	31.75
287.823	35.75
288.617	33.75
289.411	35.75
290.205	32.75
290.999	34.75
291.793	31.75
292.587	30.75
293.381	30.75
294.174	28.75
294.968	31.75
295.761	25.75
296.555	28.75
297.348	24.75
298.141	29.75
298.935	30.75
299.728	26.75
300.521	24.75
301.314	22.75
302.107	23.75
302.899	22.75
303.692	21.75
304.485	23.75
305.277	21.75
306.07	20.75
306.862	20.75
307.655	22.75
308.447	19.75
309.239	20.75
310.031	19.75
310.823	18.75
311.615	19.75
312.407	17.75
313.199	19.75
313.991	19.75
314.783	15.75
315.574	16.75
316.366	16.75
317.157	14.75
317.949	16.75
318.74	14.75
319.531	16.75
320.322	15.75
321.113	14.75
321.904	13.75
322.695	14.75
323.486	11.75
324.277	15.75
325.068	13.75
325.858	13.75
326.649	14.75
327.439	13.75
328.23	12.75
329.02	13.75
329.81	11.75
330.6	11.75
331.391	12.75
332.181	12.75
332.971	10.75
333.76	13.75
334.55	12.75
335.34	11.75
336.13	9.75
336.919	10.75
337.709	15.75
338.498	12.75
339.287	10.75
340.077	12.75
340.866	11.75
341.655	8.75
342.444	11.75
343.233	10.75
344.022	11.75
344.811	12.75
345.6	10.75
346.388	10.75
347.177	14.75
347.965	10.75
348.754	8.75
349.542	12.75
350.33	9.75
351.119	11.75
351.907	12.75
352.695	10.75
353.483	10.75
354.271	9.75
355.059	11.75
355.846	12.75
356.634	11.75
357.422	11.75
358.209	11.75
358.997	11.75
359.784	8.75
360.571	10.75
361.359	14.75
362.146	12.75
362.933	7.75
363.72	7.75
364.507	8.75
365.294	9.75
366.081	10.75
366.867	8.75
367.654	8.75
368.44	10.75
369.227	8.75
370.013	11.75
370.8	9.75
371.586	9.75
372.372	9.75
373.158	7.75
373.944	9.75
374.73	9.75
375.516	10.75
376.302	9.75
377.088	10.75
377.873	10.75
378.659	8.75
379.445	9.75
380.23	11.75
381.015	11.75
381.801	10.75
382.586	11.75
383.371	10.75
384.156	10.75
384.941	12.75
385.726	10.75
386.511	10.75
387.296	10.75
388.08	12.75
388.865	11.75
389.649	9.75
390.434	13.75
391.218	10.75
392.003	8.75
392.787	10.75
393.571	9.75
394.355	14.75
395.139	11.75
395.923	13.75
396.707	10.75
397.491	11.75
398.274	13.75
399.058	12.75
399.842	13.75
400.625	14.75
401.408	13.75
402.192	13.75
402.975	13.75
403.758	16.75
404.541	12.75
405.324	14.75
406.107	15.75
406.89	17.75
407.673	14.75
408.456	14.75
409.238	13.75
410.021	19.75
410.803	15.75
411.586	16.75
412.368	18.75
413.151	16.75
413.933	16.75
414.715	18.75
415.497	15.75
416.279	16.75
417.061	18.75
417.843	19.75
418.624	23.75
419.406	21.75
420.188	21.75
420.969	20.75
421.751	21.75
422.532	24.75
423.313	22.75
424.095	23.75
424.876	25.75
425.657	25.75
426.438	25.75
427.219	29.75
428	26.75
428.78	29.75
429.561	29.75
430.342	29.75
431.122	29.75
431.903	34.75
432.683	33.75
433.464	37.75
434.244	34.75
435.024	37.75
435.804	40.75
436.584	42.75
437.364	45.75
438.144	44.75
438.924	48.75
439.704	53.75
440.483	57.75
441.263	57.75
442.042	64.75
442.822	67.75
443.601	68.75
444.38	77.75
445.16	82.75
445.939	91.75
446.718	92.75
447.497	101.75
448.276	118.75
449.054	125.75
449.833	136.75
450.612	153.75
451.391	164.75
452.169	188.75
452.948	205.75
453.726	222.75
454.504	255.75
455.282	280.75
456.061	311.75
456.839	349.75
457.617	388.75
458.395	435.75
459.172	482.75
459.95	544.75
460.728	603.75
461.506	674.75
462.283	761.75
463.061	847.75
463.838	939.75
464.615	1056.75
465.393	1173.75
466.17	1297.75
466.947	1462.75
467.724	1624.75
468.501	1811.75
469.278	2014.75
470.055	2247.75
470.831	2474.75
471.608	2735.75
472.385	3021.75
473.161	3365.75
473.938	3718.75
474.714	4097.75
475.49	4514.75
476.266	4933.75
477.043	5448.75
477.819	5964.75
478.595	6560.75
479.371	7190.75
480.146	7921.75
480.922	8642.75
481.698	9434.75
482.473	10300.75
483.249	11264.75
484.024	12257.75
484.8	13374.75
485.575	14526.75
486.35	15797.75
487.126	17209.75
487.901	18647.75
488.676	20134.75
489.451	21862.75
490.225	23524.75
491	25266.75
491.775	27060.75
492.55	28920.75
493.324	30886.75
494.099	32692.75
494.873	34711.75
495.647	36631.75
496.422	38642.75
497.196	40461.75
497.97	42153.75
498.744	43774.75
499.518	45305.75
500.292	46561.75
501.066	47555.75
501.839	48339.75
502.613	48896.75
503.387	49427.75
504.16	49679.75
504.934	49464.75
505.707	49130.75
506.48	48537.75
507.253	47831.75
508.027	46895.75
508.8	45700.75
509.573	44478.75
510.346	43148.75
511.118	41884.75
511.891	40449.75
512.664	38783.75
513.437	37268.75
514.209	35736.75
514.982	34240.75
515.754	32857.75
516.526	31452.75
517.298	30120.75
518.071	28909.75
518.843	27766.75
519.615	26625.75
520.387	25609.75
521.159	24574.75
521.93	23550.75
522.702	22553.75
523.474	21590.75
524.245	20604.75
525.017	19644.75
525.788	18826.75
526.56	17996.75
527.331	17191.75
528.102	16227.75
528.873	15451.75
529.644	14669.75
530.415	13982.75
531.186	13272.75
531.957	12534.75
532.728	11874.75
533.498	11250.75
534.269	10671.75
535.039	10054.75
535.81	9495.75
536.58	8973.75
537.351	8519.75
538.121	8066.75
538.891	7589.75
539.661	7191.75
540.431	6789.75
541.201	6468.75
541.971	6142.75
542.741	5815.75
543.51	5498.75
544.28	5262.75
545.05	4992.75
545.819	4767.75
546.588	4537.75
547.358	4334.75
548.127	4132.75
548.896	3854.75
549.665	3678.75
550.434	3495.75
551.203	3318.75
551.972	3120.75
552.741	2956.75
553.51	2791.75
554.278	2635.75
555.047	2481.75
555.815	2345.75
556.584	2218.75
557.352	2091.75
558.121	1980.75
558.889	1867.75
559.657	1770.75
560.425	1667.75
561.193	1570.75
561.961	1509.75
562.729	1407.75
563.496	1341.75
564.264	1271.75
565.032	1194.75
565.799	1134.75
566.567	1071.75
567.334	1000.75
568.101	941.75
568.869	891.75
569.636	841.75
570.403	803.75
571.17	768.75
571.937	721.75
572.704	676.75
573.471	645.75
574.237	599.75
575.004	565.75
575.771	534.75
576.537	496.75
577.303	481.75
578.07	451.75
578.836	421.75
579.602	405.75
580.368	380.75
581.134	370.75
581.9	344.75
582.666	329.75
583.432	314.75
584.198	295.75
584.964	282.75
585.729	270.75
586.495	251.75
587.26	247.75
588.025	226.75
588.791	217.75
589.556	204.75
590.321	198.75
591.086	187.75
591.851	169.75
592.616	166.75
593.381	157.75
594.146	153.75
594.911	143.75
595.675	137.75
596.44	132.75
597.204	125.75
597.969	121.75
598.733	118.75
599.497	109.75
600.261	105.75
601.025	103.75
601.79	96.75
602.553	93.75
603.317	93.75
604.081	83.75
604.845	82.75
605.609	80.75
606.372	78.75
607.136	75.75
607.899	71.75
608.662	66.75
609.426	70.75
610.189	61.75
610.952	63.75
611.715	60.75
612.478	58.75
613.241	55.75
614.004	53.75
614.767	53.75
615.529	50.75
616.292	50.75
617.055	44.75
617.817	41.75
618.579	43.75
619.342	38.75
620.104	44.75
620.866	39.75
621.628	38.75
622.39	39.75
623.152	35.75
623.914	34.75
624.676	34.75
625.438	32.75
626.199	31.75
626.961	27.75
627.722	28.75
628.484	26.75
629.245	28.75
630.006	26.75
630.768	24.75
631.529	26.75
632.29	25.75
633.051	23.75
633.812	25.75
634.573	24.75
635.333	22.75
636.094	22.75
636.855	23.75
637.615	20.75
638.376	18.75
639.136	18.75
639.896	18.75
640.657	19.75
641.417	18.75
642.177	17.75
642.937	17.75
643.697	15.75
644.457	14.75
645.216	14.75
645.976	14.75
646.736	14.75
647.495	14.75
648.255	13.75
649.014	12.75
649.774	16.75
650.533	10.75
651.292	16.75
652.051	15.75
652.81	13.75
653.569	11.75
654.328	13.75
655.087	11.75
655.846	10.75
656.604	15.75
657.363	11.75
658.121	11.75
658.88	12.75
659.638	7.75
660.397	10.75
661.155	9.75
661.913	11.75
662.671	10.75
663.429	10.75
664.187	9.75
664.945	8.75
665.703	9.75
666.46	7.75
667.218	10.75
667.976	10.75
668.733	8.75
669.49	10.75
670.248	8.75
671.005	8.75
671.762	10.75
672.519	9.75
673.276	8.75
674.033	10.75
674.79	9.75
675.547	5.75
676.304	9.75
677.06	10.75
677.817	8.75
678.574	5.75
679.33	5.75
680.086	9.75
680.843	9.75
681.599	7.75
682.355	8.75
683.111	8.75
683.867	6.75
684.623	8.75
685.379	8.75
686.135	7.75
686.89	8.75
687.646	9.75
688.402	7.75
689.157	9.75
689.912	6.75
690.668	7.75
691.423	6.75
692.178	6.75
692.933	9.75
693.688	7.75
694.443	8.75
695.198	7.75
695.953	7.75
696.708	11.75
697.462	3.75
698.217	8.75
698.972	7.75
699.726	7.75
700.48	6.75
701.235	8.75
701.989	9.75
702.743	7.75
703.497	8.75
704.251	7.75
705.005	7.75
705.759	5.75
706.513	7.75
707.266	7.75
708.02	7.75
708.774	7.75
709.527	6.75
710.28	5.75
711.034	6.75
711.787	8.75
712.54	7.75
713.293	7.75
714.046	9.75
714.799	8.75
715.552	6.75
716.305	8.75
717.058	5.75
717.81	6.75
718.563	8.75
719.315	5.75
720.068	9.75
720.82	8.75
721.573	9.75
722.325	9.75
723.077	7.75
723.829	7.75
724.581	6.75
725.333	9.75
726.085	8.75
726.836	7.75
727.588	8.75
728.34	5.75
729.091	8.75
729.843	8.75
730.594	9.75
731.346	5.75
732.097	7.75
732.848	8.75
733.599	7.75
734.35	10.75
735.101	9.75
735.852	10.75
736.603	9.75
737.354	8.75
738.104	10.75
738.855	8.75
739.605	12.75
740.356	8.75
741.106	9.75
741.856	10.75
742.607	8.75
743.357	11.75
744.107	9.75
744.857	10.75
745.607	9.75
746.357	10.75
747.106	10.75
747.856	10.75
748.606	13.75
749.355	11.75
750.105	10.75
750.854	7.75
751.603	13.75
752.353	14.75
753.102	10.75
753.851	11.75
754.6	10.75
755.349	13.75
756.098	12.75
756.847	12.75
757.595	13.75
758.344	13.75
759.093	10.75
759.841	11.75
760.589	12.75
761.338	12.75
762.086	13.75
762.834	13.75
763.582	12.75
764.331	13.75
765.079	14.75
765.826	14.75
766.574	16.75
767.322	13.75
768.07	13.75
768.817	14.75
769.565	15.75
770.312	13.75
771.06	17.75
771.807	15.75
772.554	13.75
773.302	18.75
774.049	17.75
774.796	14.75
775.543	14.75
776.29	16.75
777.036	17.75
777.783	16.75
778.53	18.75
779.276	16.75
780.023	16.75
780.769	15.75
781.516	19.75
782.262	19.75
783.008	18.75
783.754	14.75
784.5	15.75
785.246	14.75
785.992	16.75
786.738	14.75
787.484	13.75
788.23	16.75
788.975	15.75
789.721	16.75
790.466	12.75
791.212	12.75
791.957	14.75
792.702	14.75
793.447	16.75
794.193	14.75
794.938	13.75
795.683	15.75
796.427	14.75
797.172	10.75
797.917	11.75
798.662	14.75
799.406	10.75
800.151	11.75
800.895	10.75
801.64	14.75
802.384	10.75
803.128	11.75
803.872	14.75
804.616	11.75
805.36	10.75
806.104	9.75
806.848	11.75
807.592	8.75
808.336	10.75
809.079	12.75
809.823	8.75
810.566	7.75
811.31	7.75
812.053	6.75
812.796	10.75
813.539	6.75
814.283	6.75
815.026	5.75
815.769	8.75
816.511	9.75
817.254	6.75
817.997	7.75
818.74	7.75
819.482	6.75
820.225	6.75
820.967	7.75
821.71	8.75
822.452	6.75
823.194	10.75
823.936	6.75
824.678	9.75
825.42	5.75
826.162	6.75
826.904	7.75
827.646	5.75
828.388	4.75
829.129	6.75
829.871	5.75
830.612	6.75
831.354	4.75
832.095	5.75
832.836	8.75
833.577	7.75
834.319	7.75
835.06	6.75
835.801	5.75
836.542	5.75
837.282	4.75
838.023	6.75
838.764	5.75
839.504	5.75
840.245	4.75
840.985	5.75
841.726	5.75
842.466	2.75
843.206	1.75
843.946	4.75
844.687	5.75
845.427	4.75
846.166	3.75
846.906	3.75
847.646	2.75
848.386	6.75
849.125	2.75
849.865	4.75
850.605	1.75
851.344	6.75
852.083	3.75
852.823	4.75
853.562	5.75
854.301	4.75
855.04	4.75
855.779	3.75
856.518	4.75
857.257	5.75
857.995	4.75
858.734	2.75
859.473	3.75
860.211	3.75
860.95	2.75
861.688	5.75
862.426	4.75
863.165	4.75
863.903	5.75
864.641	2.75
865.379	2.75
866.117	5.75
866.855	2.75
867.593	0.75
868.33	3.75
869.068	4.75
869.806	1.75
870.543	2.75
871.28	2.75
872.018	1.75
872.755	4.75
873.492	3.75
874.229	1.75
874.967	0.75
875.703	0.75
876.44	1.75
877.177	1.75
877.914	0.75
878.651	-1.25
879.387	4.75
880.124	0.75
880.86	0.75
881.597	0.75
882.333	1.75
883.069	2.75
883.806	1.75
884.542	-1.25
885.278	-0.25
886.014	0.75
886.749	1.75
887.485	0.75
888.221	1.75
888.957	-0.25
889.692	2.75
890.428	0.75
891.163	2.75
891.899	2.75
892.634	-1.25
893.369	-0.25
894.104	1.75
894.839	1.75
895.574	-0.25
896.309	0.75
897.044	2.75
897.779	-1.25
898.514	0.75
899.248	2.75
899.983	0.75
900.717	1.75
901.452	-1.25
902.186	2.75
902.92	-0.25
903.654	0.75
904.389	1.75
905.123	0.75
905.857	0.75
906.59	0.75
907.324	-1.25
908.058	1.75
908.792	1.75
909.525	2.75
910.259	-0.25
910.992	3.75
911.726	1.75
912.459	2.75
913.192	0.75
913.925	0.75
914.658	-2.25
915.391	-1.25
916.124	-1.25
916.857	2.75
917.59	0.75
918.323	0.75
919.055	0.75
919.788	0.75
920.521	1.75
921.253	0.75
921.985	-1.25
922.718	1.75
923.45	1.75
924.182	-0.25
924.914	2.75
925.646	1.75
926.378	-0.25
927.11	-0.25
927.841	-1.25
928.573	-0.25
929.305	0.75
930.036	-0.25
930.768	0.75
931.499	-0.25
932.23	2.75
932.962	-0.25
933.693	1.75
934.424	-1.25
935.155	0.75
935.886	-1.25
936.617	-0.25
937.348	-0.25
938.078	-1.25
938.809	0.75
939.54	-0.25
940.27	-1.25
941.001	-1.25
941.731	1.75
942.461	0.75
943.191	-0.25
943.922	-0.25
944.652	-0.25
945.382	-0.25
946.112	0.75
946.841	0.75
947.571	1.75
948.301	1.75
949.031	1.75
949.76	-0.25
950.49	-1.25
951.219	1.75
951.948	-0.25
952.678	1.75
953.407	-1.25
954.136	-1.25
954.865	0.75
955.594	-0.25
956.323	2.75
957.052	-0.25
957.78	-2.25
958.509	-0.25
959.238	-1.25
959.966	0.75
960.695	-1.25
961.423	0.75
962.151	0.75
962.88	0.75
963.608	0.75
964.336	-0.25
965.064	1.75
965.792	0.75
966.52	-1.25
967.247	1.75
967.975	-1.25
968.703	-0.25
969.43	-1.25
970.158	-2.25
970.885	-0.25
971.613	-0.25
972.34	-0.25
973.067	0.75
973.794	-0.25
974.521	0.75
975.248	-1.25
975.975	-1.25
976.702	0.75
977.429	2.75
978.156	-1.25
978.882	-0.25
979.609	-1.25
980.335	0.75
981.062	-1.25
981.788	-0.25
982.514	1.75
983.24	-0.25
983.967	-0.25
984.693	-1.25
985.419	-0.25
986.144	-0.25
986.87	1.75
987.596	1.75
988.322	0.75
989.047	0.75
989.773	-0.25
990.498	-1.25
991.224	-0.25
991.949	-1.25
992.674	1.75
993.399	-0.25
994.124	0.75
994.849	-0.25
995.574	0.75
996.299	0.75
997.024	-0.25
997.749	-0.25
998.473	0.75
999.198	-0.25
999.922	-1.25
1000.647	-1.25
1001.371	4.75
1002.095	-0.25
1002.82	-1.25
1003.544	-0.25
1004.268	1.75
1004.992	4.75
1005.716	3.75
1006.439	2.75
1007.163	3.75
1007.887	5.75
1008.611	0.75
1009.334	0.75
1010.058	-3.25
1010.781	0.75
1011.504	-1.25
1012.228	1.75
1012.951	-1.25
1013.674	-1.25
1014.397	1.75
1015.12	-2.25
