节点500_705_QEPB04081__628__20-54-51-811.txt的数据

Date: Wed Nov 12 20:54:51 CST 2025
User: PC
Spectrometer: QEPB0408
触发模式: 0
积分时间 (秒): 1.000000E-2
Scans to average: 1
启用暗噪声校正: true
启用非线性校正: false
滑动平均宽度: 0
X轴模式: Wavelengths
Number of Pixels in Spectrum: 1044
>>>>>Begin Spectral Data<<<<<
220.843	6
221.644	5
222.444	6
223.244	8
224.045	10
224.845	6
225.645	8
226.445	7
227.245	5
228.045	5
228.845	6
229.645	7
230.444	10
231.244	7
232.043	8
232.843	10
233.642	9
234.442	7
235.241	8
236.04	10
236.839	9
237.638	8
238.437	10
239.236	11
240.035	12
240.833	10
241.632	12
242.43	12
243.229	14
244.027	11
244.826	13
245.624	10
246.422	12
247.22	13
248.018	13
248.816	13
249.614	12
250.412	14
251.21	17
252.007	13
252.805	15
253.602	15
254.4	19
255.197	18
255.994	18
256.791	16
257.589	18
258.386	19
259.183	20
259.979	20
260.776	20
261.573	22
262.37	20
263.166	23
263.963	24
264.759	23
265.556	23
266.352	26
267.148	26
267.944	25
268.74	26
269.536	27
270.332	27
271.128	26
271.924	29
272.719	31
273.515	30
274.311	30
275.106	31
275.901	31
276.697	33
277.492	31
278.287	32
279.082	32
279.877	32
280.672	30
281.467	31
282.262	31
283.056	34
283.851	33
284.646	32
285.44	31
286.234	33
287.029	33
287.823	31
288.617	33
289.411	33
290.205	31
290.999	30
291.793	30
292.587	31
293.381	30
294.174	27
294.968	30
295.761	28
296.555	25
297.348	27
298.141	26
298.935	28
299.728	22
300.521	24
301.314	23
302.107	24
302.899	21
303.692	21
304.485	25
305.277	26
306.07	22
306.862	21
307.655	22
308.447	20
309.239	19
310.031	23
310.823	18
311.615	19
312.407	18
313.199	17
313.991	17
314.783	15
315.574	17
316.366	17
317.157	14
317.949	14
318.74	13
319.531	13
320.322	14
321.113	15
321.904	17
322.695	14
323.486	14
324.277	12
325.068	12
325.858	13
326.649	13
327.439	14
328.23	15
329.02	12
329.81	13
330.6	12
331.391	12
332.181	13
332.971	11
333.76	11
334.55	13
335.34	12
336.13	11
336.919	12
337.709	14
338.498	12
339.287	10
340.077	15
340.866	8
341.655	13
342.444	10
343.233	10
344.022	12
344.811	11
345.6	12
346.388	11
347.177	12
347.965	13
348.754	13
349.542	11
350.33	10
351.119	11
351.907	10
352.695	11
353.483	10
354.271	8
355.059	10
355.846	9
356.634	11
357.422	11
358.209	11
358.997	9
359.784	10
360.571	10
361.359	10
362.146	10
362.933	11
363.72	10
364.507	12
365.294	11
366.081	9
366.867	9
367.654	12
368.44	8
369.227	9
370.013	8
370.8	11
371.586	10
372.372	11
373.158	8
373.944	8
374.73	8
375.516	11
376.302	10
377.088	11
377.873	10
378.659	10
379.445	9
380.23	11
381.015	9
381.801	9
382.586	8
383.371	10
384.156	11
384.941	9
385.726	10
386.511	8
387.296	9
388.08	7
388.865	14
389.649	9
390.434	8
391.218	12
392.003	11
392.787	11
393.571	11
394.355	11
395.139	10
395.923	13
396.707	13
397.491	12
398.274	10
399.058	12
399.842	15
400.625	14
401.408	12
402.192	13
402.975	13
403.758	17
404.541	15
405.324	15
406.107	14
406.89	14
407.673	16
408.456	15
409.238	17
410.021	13
410.803	16
411.586	14
412.368	16
413.151	15
413.933	18
414.715	18
415.497	19
416.279	19
417.061	18
417.843	20
418.624	19
419.406	20
420.188	21
420.969	21
421.751	22
422.532	23
423.313	20
424.095	25
424.876	23
425.657	21
426.438	23
427.219	27
428	26
428.78	29
429.561	28
430.342	29
431.122	31
431.903	32
432.683	33
433.464	33
434.244	36
435.024	40
435.804	40
436.584	42
437.364	45
438.144	48
438.924	51
439.704	55
440.483	57
441.263	64
442.042	67
442.822	69
443.601	77
444.38	84
445.16	90
445.939	98
446.718	105
447.497	117
448.276	133
449.054	139
449.833	160
450.612	172
451.391	195
452.169	211
452.948	232
453.726	268
454.504	287
455.282	322
456.061	356
456.839	395
457.617	440
458.395	487
459.172	546
459.95	597
460.728	672
461.506	743
462.283	831
463.061	932
463.838	1041
464.615	1141
465.393	1255
466.17	1386
466.947	1545
467.724	1702
468.501	1868
469.278	2057
470.055	2269
470.831	2508
471.608	2733
472.385	3014
473.161	3299
473.938	3598
474.714	3960
475.49	4315
476.266	4722
477.043	5104
477.819	5574
478.595	6055
479.371	6546
480.146	7160
480.922	7781
481.698	8398
482.473	9118
483.249	9854
484.024	10638
484.8	11485
485.575	12386
486.35	13342
487.126	14395
487.901	15478
488.676	16645
489.451	17862
490.225	19146
491	20529
491.775	21837
492.55	23372
493.324	24819
494.099	26409
494.873	27951
495.647	29511
496.422	31088
497.196	32710
497.97	34205
498.744	35647
499.518	37211
500.292	38571
501.066	39627
501.839	40663
502.613	41603
503.387	42343
504.16	42951
504.934	43411
505.707	43671
506.48	43608
507.253	43508
508.027	43148
508.8	42555
509.573	41830
510.346	41196
511.118	40382
511.891	39404
512.664	38141
513.437	36938
514.209	35758
514.982	34488
515.754	33234
516.526	31911
517.298	30740
518.071	29607
518.843	28504
519.615	27377
520.387	26200
521.159	25270
521.93	24229
522.702	23253
523.474	22286
524.245	21361
525.017	20490
525.788	19635
526.56	18866
527.331	18116
528.102	17168
528.873	16388
529.644	15656
530.415	14927
531.186	14276
531.957	13499
532.728	12836
533.498	12226
534.269	11583
535.039	10988
535.81	10421
536.58	9845
537.351	9346
538.121	8867
538.891	8378
539.661	7939
540.431	7529
541.201	7133
541.971	6762
542.741	6417
543.51	6078
544.28	5788
545.05	5504
545.819	5234
546.588	5016
547.358	4774
548.127	4526
548.896	4321
549.665	4088
550.434	3894
551.203	3681
551.972	3515
552.741	3328
553.51	3130
554.278	2981
555.047	2809
555.815	2653
556.584	2522
557.352	2378
558.121	2247
558.889	2124
559.657	2012
560.425	1895
561.193	1791
561.961	1705
562.729	1588
563.496	1515
564.264	1455
565.032	1370
565.799	1278
566.567	1215
567.334	1144
568.101	1086
568.869	1044
569.636	973
570.403	911
571.17	871
571.937	820
572.704	771
573.471	734
574.237	685
575.004	640
575.771	608
576.537	585
577.303	544
578.07	520
578.836	487
579.602	461
580.368	444
581.134	413
581.9	399
582.666	376
583.432	358
584.198	337
584.964	327
585.729	309
586.495	287
587.26	271
588.025	261
588.791	246
589.556	237
590.321	223
591.086	212
591.851	199
592.616	191
593.381	180
594.146	173
594.911	170
595.675	154
596.44	147
597.204	141
597.969	138
598.733	133
599.497	123
600.261	120
601.025	113
601.79	112
602.553	102
603.317	99
604.081	101
604.845	91
605.609	93
606.372	84
607.136	82
607.899	80
608.662	75
609.426	71
610.189	69
610.952	67
611.715	64
612.478	60
613.241	58
614.004	55
614.767	58
615.529	53
616.292	54
617.055	49
617.817	48
618.579	46
619.342	47
620.104	42
620.866	45
621.628	40
622.39	39
623.152	36
623.914	39
624.676	35
625.438	35
626.199	35
626.961	30
627.722	31
628.484	31
629.245	31
630.006	28
630.768	29
631.529	27
632.29	27
633.051	24
633.812	24
634.573	25
635.333	20
636.094	29
636.855	23
637.615	24
638.376	24
639.136	19
639.896	19
640.657	19
641.417	21
642.177	19
642.937	18
643.697	16
644.457	18
645.216	17
645.976	14
646.736	17
647.495	19
648.255	17
649.014	17
649.774	16
650.533	11
651.292	15
652.051	15
652.81	18
653.569	12
654.328	14
655.087	15
655.846	12
656.604	14
657.363	12
658.121	13
658.88	11
659.638	13
660.397	12
661.155	12
661.913	8
662.671	10
663.429	10
664.187	13
664.945	10
665.703	10
666.46	10
667.218	9
667.976	11
668.733	11
669.49	8
670.248	10
671.005	10
671.762	9
672.519	11
673.276	9
674.033	9
674.79	8
675.547	11
676.304	9
677.06	9
677.817	8
678.574	9
679.33	10
680.086	9
680.843	9
681.599	8
682.355	10
683.111	8
683.867	6
684.623	6
685.379	6
686.135	10
686.89	5
687.646	10
688.402	7
689.157	10
689.912	8
690.668	6
691.423	9
692.178	9
692.933	6
693.688	6
694.443	8
695.198	7
695.953	8
696.708	9
697.462	9
698.217	7
698.972	7
699.726	9
700.48	8
701.235	10
701.989	8
702.743	7
703.497	6
704.251	8
705.005	8
705.759	7
706.513	7
707.266	8
708.02	6
708.774	6
709.527	8
710.28	9
711.034	8
711.787	7
712.54	9
713.293	7
714.046	9
714.799	7
715.552	12
716.305	10
717.058	8
717.81	7
718.563	6
719.315	7
720.068	6
720.82	10
721.573	11
722.325	10
723.077	9
723.829	8
724.581	7
725.333	7
726.085	8
726.836	7
727.588	8
728.34	9
729.091	7
729.843	9
730.594	8
731.346	11
732.097	10
732.848	7
733.599	10
734.35	6
735.101	10
735.852	12
736.603	9
737.354	11
738.104	8
738.855	11
739.605	7
740.356	8
741.106	10
741.856	9
742.607	12
743.357	9
744.107	10
744.857	11
745.607	7
746.357	11
747.106	10
747.856	9
748.606	9
749.355	9
750.105	10
750.854	10
751.603	7
752.353	8
753.102	9
753.851	14
754.6	11
755.349	15
756.098	9
756.847	11
757.595	12
758.344	12
759.093	12
759.841	12
760.589	10
761.338	11
762.086	12
762.834	10
763.582	9
764.331	11
765.079	14
765.826	12
766.574	11
767.322	12
768.07	12
768.817	14
769.565	13
770.312	11
771.06	15
771.807	11
772.554	11
773.302	14
774.049	13
774.796	13
775.543	14
776.29	13
777.036	15
777.783	16
778.53	16
779.276	15
780.023	13
780.769	16
781.516	13
782.262	17
783.008	16
783.754	16
784.5	15
785.246	15
785.992	13
786.738	17
787.484	14
788.23	14
788.975	14
789.721	11
790.466	14
791.212	13
791.957	12
792.702	12
793.447	13
794.193	11
794.938	12
795.683	16
796.427	14
797.172	13
797.917	13
798.662	15
799.406	12
800.151	11
800.895	11
801.64	11
802.384	11
803.128	10
803.872	10
804.616	10
805.36	11
806.104	11
806.848	10
807.592	11
808.336	12
809.079	9
809.823	11
810.566	9
811.31	9
812.053	8
812.796	10
813.539	6
814.283	8
815.026	12
815.769	7
816.511	8
817.254	8
817.997	7
818.74	8
819.482	8
820.225	7
820.967	7
821.71	8
822.452	11
823.194	7
823.936	7
824.678	9
825.42	7
826.162	7
826.904	6
827.646	6
828.388	9
829.129	7
829.871	7
830.612	7
831.354	7
832.095	5
832.836	7
833.577	5
834.319	6
835.06	5
835.801	5
836.542	7
837.282	6
838.023	7
838.764	6
839.504	6
840.245	6
840.985	4
841.726	7
842.466	7
843.206	6
843.946	4
844.687	3
845.427	4
846.166	4
846.906	3
847.646	3
848.386	6
849.125	5
849.865	5
850.605	5
851.344	5
852.083	4
852.823	5
853.562	4
854.301	5
855.04	3
855.779	6
856.518	4
857.257	4
857.995	5
858.734	5
859.473	5
860.211	4
860.95	4
861.688	4
862.426	4
863.165	2
863.903	3
864.641	3
865.379	2
866.117	2
866.855	3
867.593	2
868.33	3
869.068	0
869.806	3
870.543	1
871.28	4
872.018	2
872.755	2
873.492	3
874.229	2
874.967	0
875.703	0
876.44	1
877.177	0
877.914	3
878.651	2
879.387	4
880.124	1
880.86	3
881.597	2
882.333	0
883.069	3
883.806	1
884.542	3
885.278	1
886.014	3
886.749	1
887.485	1
888.221	0
888.957	3
889.692	1
890.428	1
891.163	2
891.899	0
892.634	0
893.369	1
894.104	1
894.839	1
895.574	1
896.309	0
897.044	0
897.779	3
898.514	1
899.248	-1
899.983	4
900.717	1
901.452	1
902.186	0
902.92	1
903.654	1
904.389	1
905.123	3
905.857	-2
906.59	0
907.324	-1
908.058	-2
908.792	1
909.525	3
910.259	2
910.992	1
911.726	1
912.459	0
913.192	0
913.925	1
914.658	0
915.391	1
916.124	1
916.857	1
917.59	2
918.323	2
919.055	1
919.788	1
920.521	2
921.253	2
921.985	2
922.718	-1
923.45	1
924.182	0
924.914	1
925.646	-2
926.378	-1
927.11	-1
927.841	1
928.573	-1
929.305	3
930.036	0
930.768	2
931.499	0
932.23	-2
932.962	1
933.693	1
934.424	-2
935.155	2
935.886	1
936.617	2
937.348	0
938.078	1
938.809	-2
939.54	1
940.27	1
941.001	-1
941.731	3
942.461	2
943.191	-1
943.922	1
944.652	-1
945.382	1
946.112	-4
946.841	1
947.571	-2
948.301	0
949.031	0
949.76	2
950.49	2
951.219	-1
951.948	1
952.678	-1
953.407	0
954.136	-1
954.865	2
955.594	-1
956.323	0
957.052	1
957.78	0
958.509	0
959.238	1
959.966	-2
960.695	-1
961.423	1
962.151	3
962.88	0
963.608	1
964.336	0
965.064	2
965.792	-1
966.52	2
967.247	0
967.975	1
968.703	-2
969.43	2
970.158	0
970.885	-1
971.613	-2
972.34	3
973.067	2
973.794	1
974.521	-1
975.248	1
975.975	1
976.702	2
977.429	-1
978.156	1
978.882	-1
979.609	2
980.335	0
981.062	0
981.788	0
982.514	1
983.24	0
983.967	-1
984.693	-1
985.419	0
986.144	0
986.87	1
987.596	-2
988.322	2
989.047	3
989.773	0
990.498	1
991.224	2
991.949	3
992.674	4
993.399	2
994.124	1
994.849	0
995.574	0
996.299	2
997.024	0
997.749	0
998.473	2
999.198	-2
999.922	0
1000.647	2
1001.371	3
1002.095	0
1002.82	-2
1003.544	-1
1004.268	4
1004.992	3
1005.716	7
1006.439	1
1007.163	5
1007.887	5
1008.611	1
1009.334	1
1010.058	0
1010.781	-1
1011.504	3
1012.228	1
1012.951	0
1013.674	-1
1014.397	0
1015.12	1
