节点500_705_QEPB04081__179__20-48-49-051.txt的数据

Date: Wed Nov 12 20:48:49 CST 2025
User: PC
Spectrometer: QEPB0408
触发模式: 0
积分时间 (秒): 1.000000E-2
Scans to average: 1
启用暗噪声校正: true
启用非线性校正: false
滑动平均宽度: 0
X轴模式: Wavelengths
Number of Pixels in Spectrum: 1044
>>>>>Begin Spectral Data<<<<<
220.843	5.5
221.644	3.5
222.444	3.5
223.244	4.5
224.045	5.5
224.845	7.5
225.645	9.5
226.445	4.5
227.245	6.5
228.045	7.5
228.845	7.5
229.645	7.5
230.444	6.5
231.244	8.5
232.043	8.5
232.843	9.5
233.642	6.5
234.442	10.5
235.241	6.5
236.04	11.5
236.839	7.5
237.638	10.5
238.437	12.5
239.236	10.5
240.035	12.5
240.833	10.5
241.632	13.5
242.43	17.5
243.229	10.5
244.027	13.5
244.826	10.5
245.624	13.5
246.422	14.5
247.22	15.5
248.018	16.5
248.816	12.5
249.614	16.5
250.412	15.5
251.21	17.5
252.007	16.5
252.805	16.5
253.602	18.5
254.4	19.5
255.197	16.5
255.994	20.5
256.791	21.5
257.589	20.5
258.386	23.5
259.183	21.5
259.979	22.5
260.776	22.5
261.573	25.5
262.37	26.5
263.166	25.5
263.963	25.5
264.759	24.5
265.556	28.5
266.352	27.5
267.148	31.5
267.944	29.5
268.74	29.5
269.536	29.5
270.332	32.5
271.128	32.5
271.924	30.5
272.719	34.5
273.515	32.5
274.311	33.5
275.106	33.5
275.901	32.5
276.697	35.5
277.492	34.5
278.287	37.5
279.082	34.5
279.877	36.5
280.672	36.5
281.467	32.5
282.262	32.5
283.056	33.5
283.851	34.5
284.646	35.5
285.44	36.5
286.234	35.5
287.029	31.5
287.823	35.5
288.617	34.5
289.411	33.5
290.205	33.5
290.999	33.5
291.793	33.5
292.587	33.5
293.381	29.5
294.174	30.5
294.968	31.5
295.761	31.5
296.555	25.5
297.348	25.5
298.141	25.5
298.935	25.5
299.728	25.5
300.521	25.5
301.314	24.5
302.107	24.5
302.899	22.5
303.692	22.5
304.485	18.5
305.277	22.5
306.07	18.5
306.862	23.5
307.655	22.5
308.447	21.5
309.239	19.5
310.031	21.5
310.823	19.5
311.615	18.5
312.407	18.5
313.199	18.5
313.991	15.5
314.783	14.5
315.574	18.5
316.366	17.5
317.157	14.5
317.949	14.5
318.74	14.5
319.531	13.5
320.322	13.5
321.113	12.5
321.904	14.5
322.695	15.5
323.486	14.5
324.277	14.5
325.068	14.5
325.858	14.5
326.649	11.5
327.439	12.5
328.23	12.5
329.02	12.5
329.81	10.5
330.6	10.5
331.391	12.5
332.181	13.5
332.971	10.5
333.76	11.5
334.55	11.5
335.34	11.5
336.13	11.5
336.919	12.5
337.709	10.5
338.498	12.5
339.287	11.5
340.077	12.5
340.866	10.5
341.655	11.5
342.444	11.5
343.233	10.5
344.022	13.5
344.811	10.5
345.6	11.5
346.388	10.5
347.177	11.5
347.965	11.5
348.754	11.5
349.542	9.5
350.33	11.5
351.119	9.5
351.907	8.5
352.695	8.5
353.483	8.5
354.271	9.5
355.059	10.5
355.846	9.5
356.634	10.5
357.422	10.5
358.209	9.5
358.997	8.5
359.784	10.5
360.571	12.5
361.359	11.5
362.146	9.5
362.933	8.5
363.72	10.5
364.507	11.5
365.294	9.5
366.081	12.5
366.867	10.5
367.654	10.5
368.44	10.5
369.227	9.5
370.013	10.5
370.8	10.5
371.586	6.5
372.372	10.5
373.158	10.5
373.944	9.5
374.73	12.5
375.516	9.5
376.302	10.5
377.088	11.5
377.873	6.5
378.659	11.5
379.445	10.5
380.23	8.5
381.015	8.5
381.801	10.5
382.586	11.5
383.371	9.5
384.156	10.5
384.941	9.5
385.726	7.5
386.511	10.5
387.296	9.5
388.08	12.5
388.865	12.5
389.649	8.5
390.434	13.5
391.218	10.5
392.003	12.5
392.787	10.5
393.571	12.5
394.355	10.5
395.139	13.5
395.923	13.5
396.707	13.5
397.491	13.5
398.274	8.5
399.058	13.5
399.842	14.5
400.625	15.5
401.408	16.5
402.192	14.5
402.975	14.5
403.758	16.5
404.541	14.5
405.324	11.5
406.107	13.5
406.89	15.5
407.673	13.5
408.456	17.5
409.238	15.5
410.021	14.5
410.803	16.5
411.586	17.5
412.368	17.5
413.151	19.5
413.933	18.5
414.715	19.5
415.497	19.5
416.279	16.5
417.061	18.5
417.843	18.5
418.624	21.5
419.406	18.5
420.188	23.5
420.969	21.5
421.751	21.5
422.532	23.5
423.313	25.5
424.095	27.5
424.876	23.5
425.657	23.5
426.438	24.5
427.219	26.5
428	25.5
428.78	28.5
429.561	28.5
430.342	28.5
431.122	28.5
431.903	34.5
432.683	32.5
433.464	34.5
434.244	36.5
435.024	38.5
435.804	39.5
436.584	44.5
437.364	44.5
438.144	44.5
438.924	48.5
439.704	53.5
440.483	58.5
441.263	61.5
442.042	63.5
442.822	66.5
443.601	76.5
444.38	74.5
445.16	86.5
445.939	92.5
446.718	102.5
447.497	108.5
448.276	116.5
449.054	135.5
449.833	142.5
450.612	152.5
451.391	172.5
452.169	186.5
452.948	207.5
453.726	227.5
454.504	260.5
455.282	289.5
456.061	317.5
456.839	354.5
457.617	392.5
458.395	443.5
459.172	487.5
459.95	551.5
460.728	624.5
461.506	685.5
462.283	764.5
463.061	852.5
463.838	953.5
464.615	1059.5
465.393	1179.5
466.17	1331.5
466.947	1460.5
467.724	1644.5
468.501	1810.5
469.278	2010.5
470.055	2240.5
470.831	2489.5
471.608	2763.5
472.385	3045.5
473.161	3351.5
473.938	3677.5
474.714	4065.5
475.49	4458.5
476.266	4914.5
477.043	5398.5
477.819	5907.5
478.595	6522.5
479.371	7109.5
480.146	7754.5
480.922	8523.5
481.698	9285.5
482.473	10154.5
483.249	11086.5
484.024	12033.5
484.8	13093.5
485.575	14210.5
486.35	15457.5
487.126	16776.5
487.901	18093.5
488.676	19592.5
489.451	21293.5
490.225	22867.5
491	24534.5
491.775	26310.5
492.55	28067.5
493.324	29939.5
494.099	31761.5
494.873	33701.5
495.647	35580.5
496.422	37478.5
497.196	39326.5
497.97	41009.5
498.744	42497.5
499.518	44084.5
500.292	45465.5
501.066	46450.5
501.839	47275.5
502.613	47803.5
503.387	48385.5
504.16	48654.5
504.934	48694.5
505.707	48480.5
506.48	47911.5
507.253	47230.5
508.027	46350.5
508.8	45308.5
509.573	43982.5
510.346	42932.5
511.118	41717.5
511.891	40330.5
512.664	38783.5
513.437	37119.5
514.209	35698.5
514.982	34225.5
515.754	32872.5
516.526	31488.5
517.298	30200.5
518.071	29029.5
518.843	27854.5
519.615	26725.5
520.387	25601.5
521.159	24636.5
521.93	23562.5
522.702	22578.5
523.474	21631.5
524.245	20662.5
525.017	19730.5
525.788	18873.5
526.56	18062.5
527.331	17252.5
528.102	16317.5
528.873	15506.5
529.644	14816.5
530.415	14063.5
531.186	13383.5
531.957	12676.5
532.728	11992.5
533.498	11346.5
534.269	10692.5
535.039	10162.5
535.81	9596.5
536.58	9065.5
537.351	8592.5
538.121	8187.5
538.891	7694.5
539.661	7294.5
540.431	6901.5
541.201	6573.5
541.971	6182.5
542.741	5838.5
543.51	5579.5
544.28	5314.5
545.05	5028.5
545.819	4826.5
546.588	4590.5
547.358	4373.5
548.127	4134.5
548.896	3954.5
549.665	3723.5
550.434	3542.5
551.203	3360.5
551.972	3181.5
552.741	3014.5
553.51	2831.5
554.278	2647.5
555.047	2520.5
555.815	2367.5
556.584	2236.5
557.352	2130.5
558.121	2020.5
558.889	1881.5
559.657	1784.5
560.425	1686.5
561.193	1613.5
561.961	1520.5
562.729	1421.5
563.496	1336.5
564.264	1294.5
565.032	1204.5
565.799	1152.5
566.567	1090.5
567.334	1039.5
568.101	972.5
568.869	926.5
569.636	873.5
570.403	826.5
571.17	774.5
571.937	724.5
572.704	685.5
573.471	661.5
574.237	614.5
575.004	583.5
575.771	551.5
576.537	518.5
577.303	476.5
578.07	458.5
578.836	431.5
579.602	409.5
580.368	394.5
581.134	367.5
581.9	345.5
582.666	333.5
583.432	320.5
584.198	298.5
584.964	280.5
585.729	272.5
586.495	258.5
587.26	239.5
588.025	235.5
588.791	224.5
589.556	216.5
590.321	196.5
591.086	188.5
591.851	182.5
592.616	169.5
593.381	164.5
594.146	157.5
594.911	144.5
595.675	141.5
596.44	142.5
597.204	126.5
597.969	122.5
598.733	116.5
599.497	112.5
600.261	104.5
601.025	101.5
601.79	98.5
602.553	94.5
603.317	95.5
604.081	89.5
604.845	82.5
605.609	85.5
606.372	78.5
607.136	74.5
607.899	68.5
608.662	67.5
609.426	66.5
610.189	60.5
610.952	63.5
611.715	59.5
612.478	56.5
613.241	53.5
614.004	54.5
614.767	51.5
615.529	48.5
616.292	48.5
617.055	45.5
617.817	42.5
618.579	41.5
619.342	40.5
620.104	42.5
620.866	41.5
621.628	38.5
622.39	35.5
623.152	32.5
623.914	31.5
624.676	34.5
625.438	30.5
626.199	32.5
626.961	31.5
627.722	28.5
628.484	28.5
629.245	29.5
630.006	26.5
630.768	25.5
631.529	29.5
632.29	23.5
633.051	24.5
633.812	23.5
634.573	22.5
635.333	21.5
636.094	22.5
636.855	22.5
637.615	21.5
638.376	22.5
639.136	18.5
639.896	21.5
640.657	18.5
641.417	17.5
642.177	16.5
642.937	15.5
643.697	16.5
644.457	16.5
645.216	18.5
645.976	17.5
646.736	17.5
647.495	18.5
648.255	16.5
649.014	16.5
649.774	12.5
650.533	13.5
651.292	14.5
652.051	13.5
652.81	12.5
653.569	13.5
654.328	13.5
655.087	14.5
655.846	13.5
656.604	13.5
657.363	12.5
658.121	11.5
658.88	9.5
659.638	11.5
660.397	10.5
661.155	12.5
661.913	12.5
662.671	10.5
663.429	9.5
664.187	9.5
664.945	9.5
665.703	11.5
666.46	8.5
667.218	11.5
667.976	10.5
668.733	9.5
669.49	10.5
670.248	7.5
671.005	7.5
671.762	8.5
672.519	10.5
673.276	10.5
674.033	8.5
674.79	10.5
675.547	7.5
676.304	8.5
677.06	8.5
677.817	8.5
678.574	9.5
679.33	10.5
680.086	7.5
680.843	7.5
681.599	8.5
682.355	7.5
683.111	9.5
683.867	7.5
684.623	10.5
685.379	8.5
686.135	8.5
686.89	9.5
687.646	9.5
688.402	9.5
689.157	6.5
689.912	5.5
690.668	8.5
691.423	10.5
692.178	7.5
692.933	4.5
693.688	7.5
694.443	6.5
695.198	7.5
695.953	7.5
696.708	5.5
697.462	6.5
698.217	4.5
698.972	3.5
699.726	9.5
700.48	8.5
701.235	5.5
701.989	7.5
702.743	8.5
703.497	6.5
704.251	7.5
705.005	6.5
705.759	8.5
706.513	7.5
707.266	9.5
708.02	7.5
708.774	7.5
709.527	4.5
710.28	6.5
711.034	6.5
711.787	8.5
712.54	9.5
713.293	6.5
714.046	8.5
714.799	8.5
715.552	10.5
716.305	6.5
717.058	5.5
717.81	7.5
718.563	8.5
719.315	7.5
720.068	8.5
720.82	8.5
721.573	7.5
722.325	7.5
723.077	8.5
723.829	6.5
724.581	8.5
725.333	8.5
726.085	6.5
726.836	8.5
727.588	8.5
728.34	10.5
729.091	10.5
729.843	6.5
730.594	9.5
731.346	8.5
732.097	9.5
732.848	8.5
733.599	10.5
734.35	10.5
735.101	9.5
735.852	8.5
736.603	7.5
737.354	9.5
738.104	9.5
738.855	8.5
739.605	8.5
740.356	8.5
741.106	10.5
741.856	9.5
742.607	11.5
743.357	12.5
744.107	9.5
744.857	11.5
745.607	11.5
746.357	9.5
747.106	11.5
747.856	9.5
748.606	9.5
749.355	11.5
750.105	8.5
750.854	9.5
751.603	10.5
752.353	11.5
753.102	9.5
753.851	12.5
754.6	13.5
755.349	8.5
756.098	10.5
756.847	13.5
757.595	10.5
758.344	12.5
759.093	11.5
759.841	11.5
760.589	13.5
761.338	15.5
762.086	14.5
762.834	11.5
763.582	10.5
764.331	13.5
765.079	14.5
765.826	12.5
766.574	11.5
767.322	11.5
768.07	13.5
768.817	13.5
769.565	15.5
770.312	13.5
771.06	16.5
771.807	15.5
772.554	14.5
773.302	12.5
774.049	16.5
774.796	17.5
775.543	14.5
776.29	14.5
777.036	16.5
777.783	15.5
778.53	17.5
779.276	17.5
780.023	16.5
780.769	17.5
781.516	17.5
782.262	15.5
783.008	16.5
783.754	14.5
784.5	14.5
785.246	16.5
785.992	14.5
786.738	16.5
787.484	14.5
788.23	12.5
788.975	14.5
789.721	14.5
790.466	15.5
791.212	15.5
791.957	14.5
792.702	15.5
793.447	15.5
794.193	13.5
794.938	16.5
795.683	12.5
796.427	14.5
797.172	11.5
797.917	13.5
798.662	12.5
799.406	14.5
800.151	13.5
800.895	10.5
801.64	12.5
802.384	11.5
803.128	12.5
803.872	10.5
804.616	10.5
805.36	12.5
806.104	10.5
806.848	11.5
807.592	10.5
808.336	10.5
809.079	9.5
809.823	7.5
810.566	9.5
811.31	8.5
812.053	7.5
812.796	6.5
813.539	6.5
814.283	9.5
815.026	7.5
815.769	8.5
816.511	9.5
817.254	8.5
817.997	9.5
818.74	9.5
819.482	7.5
820.225	7.5
820.967	7.5
821.71	4.5
822.452	7.5
823.194	7.5
823.936	5.5
824.678	7.5
825.42	7.5
826.162	6.5
826.904	5.5
827.646	4.5
828.388	8.5
829.129	5.5
829.871	7.5
830.612	6.5
831.354	5.5
832.095	6.5
832.836	6.5
833.577	6.5
834.319	5.5
835.06	6.5
835.801	6.5
836.542	5.5
837.282	5.5
838.023	4.5
838.764	7.5
839.504	5.5
840.245	5.5
840.985	5.5
841.726	4.5
842.466	6.5
843.206	4.5
843.946	6.5
844.687	4.5
845.427	4.5
846.166	5.5
846.906	1.5
847.646	6.5
848.386	4.5
849.125	3.5
849.865	4.5
850.605	2.5
851.344	4.5
852.083	3.5
852.823	4.5
853.562	6.5
854.301	3.5
855.04	3.5
855.779	3.5
856.518	3.5
857.257	1.5
857.995	3.5
858.734	4.5
859.473	3.5
860.211	3.5
860.95	3.5
861.688	3.5
862.426	3.5
863.165	2.5
863.903	5.5
864.641	3.5
865.379	2.5
866.117	1.5
866.855	0.5
867.593	2.5
868.33	2.5
869.068	2.5
869.806	4.5
870.543	2.5
871.28	1.5
872.018	0.5
872.755	2.5
873.492	1.5
874.229	2.5
874.967	3.5
875.703	2.5
876.44	1.5
877.177	3.5
877.914	0.5
878.651	0.5
879.387	1.5
880.124	1.5
880.86	2.5
881.597	2.5
882.333	1.5
883.069	3.5
883.806	1.5
884.542	0.5
885.278	1.5
886.014	1.5
886.749	1.5
887.485	0.5
888.221	0.5
888.957	1.5
889.692	0.5
890.428	2.5
891.163	-0.5
891.899	1.5
892.634	-0.5
893.369	-0.5
894.104	1.5
894.839	0.5
895.574	1.5
896.309	0.5
897.044	3.5
897.779	1.5
898.514	-0.5
899.248	-0.5
899.983	-1.5
900.717	0.5
901.452	-0.5
902.186	0.5
902.92	1.5
903.654	1.5
904.389	0.5
905.123	-0.5
905.857	2.5
906.59	2.5
907.324	1.5
908.058	0.5
908.792	0.5
909.525	1.5
910.259	-0.5
910.992	0.5
911.726	0.5
912.459	0.5
913.192	0.5
913.925	-1.5
914.658	0.5
915.391	0.5
916.124	-0.5
916.857	2.5
917.59	-1.5
918.323	1.5
919.055	-0.5
919.788	0.5
920.521	0.5
921.253	-2.5
921.985	1.5
922.718	-1.5
923.45	0.5
924.182	0.5
924.914	0.5
925.646	-1.5
926.378	0.5
927.11	1.5
927.841	-0.5
928.573	-0.5
929.305	0.5
930.036	0.5
930.768	-0.5
931.499	-0.5
932.23	0.5
932.962	1.5
933.693	-0.5
934.424	0.5
935.155	-0.5
935.886	0.5
936.617	1.5
937.348	-0.5
938.078	0.5
938.809	0.5
939.54	1.5
940.27	-1.5
941.001	0.5
941.731	-1.5
942.461	-1.5
943.191	1.5
943.922	0.5
944.652	1.5
945.382	-0.5
946.112	-0.5
946.841	0.5
947.571	-0.5
948.301	-1.5
949.031	-0.5
949.76	-0.5
950.49	-0.5
951.219	0.5
951.948	0.5
952.678	0.5
953.407	-0.5
954.136	-1.5
954.865	-1.5
955.594	0.5
956.323	1.5
957.052	0.5
957.78	1.5
958.509	-0.5
959.238	-1.5
959.966	0.5
960.695	0.5
961.423	-0.5
962.151	0.5
962.88	0.5
963.608	0.5
964.336	-0.5
965.064	0.5
965.792	-0.5
966.52	0.5
967.247	-0.5
967.975	0.5
968.703	0.5
969.43	-0.5
970.158	-0.5
970.885	2.5
971.613	-0.5
972.34	-0.5
973.067	-1.5
973.794	0.5
974.521	-1.5
975.248	1.5
975.975	0.5
976.702	-0.5
977.429	1.5
978.156	-0.5
978.882	0.5
979.609	1.5
980.335	-1.5
981.062	1.5
981.788	-0.5
982.514	1.5
983.24	-1.5
983.967	0.5
984.693	2.5
985.419	0.5
986.144	-0.5
986.87	-0.5
987.596	0.5
988.322	-0.5
989.047	-1.5
989.773	0.5
990.498	-0.5
991.224	1.5
991.949	0.5
992.674	0.5
993.399	-2.5
994.124	1.5
994.849	-0.5
995.574	-0.5
996.299	0.5
997.024	-1.5
997.749	-2.5
998.473	0.5
999.198	0.5
999.922	1.5
1000.647	-0.5
1001.371	2.5
1002.095	-0.5
1002.82	0.5
1003.544	-1.5
1004.268	4.5
1004.992	2.5
1005.716	5.5
1006.439	3.5
1007.163	6.5
1007.887	4.5
1008.611	-2.5
1009.334	1.5
1010.058	-1.5
1010.781	-1.5
1011.504	-1.5
1012.228	1.5
1012.951	-0.5
1013.674	0.5
1014.397	0.5
1015.12	-1.5
