节点500_705_QEPB04081__283__20-50-00-430.txt的数据

Date: Wed Nov 12 20:50:00 CST 2025
User: PC
Spectrometer: QEPB0408
触发模式: 0
积分时间 (秒): 1.000000E-2
Scans to average: 1
启用暗噪声校正: true
启用非线性校正: false
滑动平均宽度: 0
X轴模式: Wavelengths
Number of Pixels in Spectrum: 1044
>>>>>Begin Spectral Data<<<<<
220.843	6.88
221.644	3.88
222.444	5.88
223.244	3.88
224.045	5.88
224.845	6.88
225.645	4.88
226.445	8.88
227.245	8.88
228.045	5.88
228.845	7.88
229.645	9.88
230.444	6.88
231.244	6.88
232.043	10.88
232.843	6.88
233.642	8.88
234.442	8.88
235.241	7.88
236.04	10.88
236.839	10.88
237.638	10.88
238.437	10.88
239.236	10.88
240.035	11.88
240.833	12.88
241.632	11.88
242.43	10.88
243.229	12.88
244.027	12.88
244.826	12.88
245.624	14.88
246.422	15.88
247.22	14.88
248.018	14.88
248.816	13.88
249.614	15.88
250.412	16.88
251.21	16.88
252.007	14.88
252.805	15.88
253.602	14.88
254.4	20.88
255.197	19.88
255.994	17.88
256.791	18.88
257.589	22.88
258.386	20.88
259.183	22.88
259.979	20.88
260.776	21.88
261.573	21.88
262.37	26.88
263.166	26.88
263.963	24.88
264.759	24.88
265.556	26.88
266.352	30.88
267.148	25.88
267.944	27.88
268.74	32.88
269.536	27.88
270.332	30.88
271.128	30.88
271.924	31.88
272.719	32.88
273.515	31.88
274.311	35.88
275.106	34.88
275.901	35.88
276.697	32.88
277.492	33.88
278.287	34.88
279.082	34.88
279.877	34.88
280.672	36.88
281.467	33.88
282.262	35.88
283.056	33.88
283.851	32.88
284.646	34.88
285.44	34.88
286.234	32.88
287.029	31.88
287.823	33.88
288.617	34.88
289.411	30.88
290.205	34.88
290.999	30.88
291.793	30.88
292.587	33.88
293.381	30.88
294.174	29.88
294.968	27.88
295.761	28.88
296.555	26.88
297.348	27.88
298.141	28.88
298.935	30.88
299.728	28.88
300.521	25.88
301.314	26.88
302.107	22.88
302.899	22.88
303.692	22.88
304.485	20.88
305.277	21.88
306.07	23.88
306.862	22.88
307.655	19.88
308.447	23.88
309.239	19.88
310.031	19.88
310.823	19.88
311.615	18.88
312.407	17.88
313.199	16.88
313.991	17.88
314.783	17.88
315.574	18.88
316.366	15.88
317.157	14.88
317.949	17.88
318.74	14.88
319.531	13.88
320.322	14.88
321.113	11.88
321.904	14.88
322.695	12.88
323.486	14.88
324.277	13.88
325.068	11.88
325.858	13.88
326.649	12.88
327.439	10.88
328.23	13.88
329.02	12.88
329.81	14.88
330.6	9.88
331.391	11.88
332.181	10.88
332.971	12.88
333.76	11.88
334.55	12.88
335.34	12.88
336.13	11.88
336.919	10.88
337.709	10.88
338.498	12.88
339.287	14.88
340.077	9.88
340.866	13.88
341.655	11.88
342.444	11.88
343.233	10.88
344.022	11.88
344.811	10.88
345.6	10.88
346.388	12.88
347.177	9.88
347.965	9.88
348.754	10.88
349.542	9.88
350.33	9.88
351.119	9.88
351.907	9.88
352.695	10.88
353.483	13.88
354.271	10.88
355.059	13.88
355.846	11.88
356.634	9.88
357.422	9.88
358.209	9.88
358.997	9.88
359.784	11.88
360.571	8.88
361.359	13.88
362.146	11.88
362.933	8.88
363.72	8.88
364.507	7.88
365.294	8.88
366.081	8.88
366.867	9.88
367.654	11.88
368.44	11.88
369.227	9.88
370.013	7.88
370.8	9.88
371.586	8.88
372.372	7.88
373.158	9.88
373.944	11.88
374.73	10.88
375.516	7.88
376.302	10.88
377.088	11.88
377.873	8.88
378.659	10.88
379.445	10.88
380.23	9.88
381.015	8.88
381.801	9.88
382.586	12.88
383.371	8.88
384.156	12.88
384.941	9.88
385.726	10.88
386.511	12.88
387.296	9.88
388.08	11.88
388.865	10.88
389.649	9.88
390.434	11.88
391.218	9.88
392.003	12.88
392.787	12.88
393.571	10.88
394.355	10.88
395.139	13.88
395.923	14.88
396.707	12.88
397.491	12.88
398.274	13.88
399.058	12.88
399.842	13.88
400.625	13.88
401.408	13.88
402.192	11.88
402.975	14.88
403.758	11.88
404.541	14.88
405.324	11.88
406.107	14.88
406.89	14.88
407.673	13.88
408.456	14.88
409.238	14.88
410.021	14.88
410.803	17.88
411.586	18.88
412.368	16.88
413.151	17.88
413.933	16.88
414.715	17.88
415.497	15.88
416.279	18.88
417.061	19.88
417.843	20.88
418.624	18.88
419.406	19.88
420.188	20.88
420.969	22.88
421.751	22.88
422.532	22.88
423.313	25.88
424.095	23.88
424.876	25.88
425.657	25.88
426.438	25.88
427.219	28.88
428	27.88
428.78	28.88
429.561	29.88
430.342	29.88
431.122	29.88
431.903	32.88
432.683	34.88
433.464	35.88
434.244	37.88
435.024	38.88
435.804	40.88
436.584	43.88
437.364	41.88
438.144	45.88
438.924	52.88
439.704	51.88
440.483	56.88
441.263	60.88
442.042	64.88
442.822	71.88
443.601	72.88
444.38	78.88
445.16	85.88
445.939	94.88
446.718	104.88
447.497	115.88
448.276	124.88
449.054	133.88
449.833	140.88
450.612	160.88
451.391	174.88
452.169	193.88
452.948	214.88
453.726	237.88
454.504	271.88
455.282	281.88
456.061	326.88
456.839	358.88
457.617	401.88
458.395	453.88
459.172	508.88
459.95	560.88
460.728	631.88
461.506	700.88
462.283	791.88
463.061	875.88
463.838	969.88
464.615	1089.88
465.393	1206.88
466.17	1343.88
466.947	1493.88
467.724	1658.88
468.501	1832.88
469.278	2051.88
470.055	2248.88
470.831	2490.88
471.608	2744.88
472.385	3031.88
473.161	3374.88
473.938	3698.88
474.714	4041.88
475.49	4446.88
476.266	4900.88
477.043	5329.88
477.819	5865.88
478.595	6391.88
479.371	6987.88
480.146	7615.88
480.922	8318.88
481.698	9104.88
482.473	9918.88
483.249	10776.88
484.024	11699.88
484.8	12702.88
485.575	13758.88
486.35	14932.88
487.126	16210.88
487.901	17501.88
488.676	18953.88
489.451	20434.88
490.225	21975.88
491	23581.88
491.775	25273.88
492.55	26994.88
493.324	28767.88
494.099	30546.88
494.873	32384.88
495.647	34123.88
496.422	36029.88
497.196	37847.88
497.97	39435.88
498.744	40947.88
499.518	42564.88
500.292	43903.88
501.066	44930.88
501.839	45825.88
502.613	46529.88
503.387	47153.88
504.16	47603.88
504.934	47572.88
505.707	47526.88
506.48	47092.88
507.253	46532.88
508.027	45806.88
508.8	44786.88
509.573	43705.88
510.346	42622.88
511.118	41640.88
511.891	40251.88
512.664	38752.88
513.437	37240.88
514.209	35866.88
514.982	34470.88
515.754	33018.88
516.526	31578.88
517.298	30465.88
518.071	29183.88
518.843	28012.88
519.615	26868.88
520.387	25812.88
521.159	24802.88
521.93	23726.88
522.702	22783.88
523.474	21777.88
524.245	20870.88
525.017	19934.88
525.788	19038.88
526.56	18275.88
527.331	17444.88
528.102	16565.88
528.873	15756.88
529.644	15030.88
530.415	14316.88
531.186	13598.88
531.957	12921.88
532.728	12240.88
533.498	11557.88
534.269	10957.88
535.039	10374.88
535.81	9833.88
536.58	9261.88
537.351	8762.88
538.121	8327.88
538.891	7884.88
539.661	7467.88
540.431	7021.88
541.201	6707.88
541.971	6335.88
542.741	5982.88
543.51	5675.88
544.28	5418.88
545.05	5154.88
545.819	4923.88
546.588	4691.88
547.358	4474.88
548.127	4238.88
548.896	4025.88
549.665	3811.88
550.434	3609.88
551.203	3430.88
551.972	3263.88
552.741	3084.88
553.51	2897.88
554.278	2734.88
555.047	2589.88
555.815	2446.88
556.584	2323.88
557.352	2175.88
558.121	2057.88
558.889	1942.88
559.657	1848.88
560.425	1737.88
561.193	1647.88
561.961	1570.88
562.729	1469.88
563.496	1402.88
564.264	1302.88
565.032	1249.88
565.799	1175.88
566.567	1128.88
567.334	1060.88
568.101	1002.88
568.869	940.88
569.636	895.88
570.403	841.88
571.17	792.88
571.937	745.88
572.704	707.88
573.471	669.88
574.237	629.88
575.004	588.88
575.771	553.88
576.537	524.88
577.303	496.88
578.07	479.88
578.836	439.88
579.602	420.88
580.368	398.88
581.134	381.88
581.9	355.88
582.666	338.88
583.432	324.88
584.198	316.88
584.964	292.88
585.729	282.88
586.495	267.88
587.26	254.88
588.025	241.88
588.791	225.88
589.556	213.88
590.321	198.88
591.086	191.88
591.851	182.88
592.616	170.88
593.381	160.88
594.146	159.88
594.911	150.88
595.675	143.88
596.44	140.88
597.204	130.88
597.969	129.88
598.733	122.88
599.497	117.88
600.261	108.88
601.025	108.88
601.79	101.88
602.553	100.88
603.317	89.88
604.081	86.88
604.845	88.88
605.609	84.88
606.372	80.88
607.136	71.88
607.899	74.88
608.662	72.88
609.426	71.88
610.189	63.88
610.952	61.88
611.715	60.88
612.478	58.88
613.241	56.88
614.004	52.88
614.767	57.88
615.529	51.88
616.292	48.88
617.055	44.88
617.817	44.88
618.579	42.88
619.342	45.88
620.104	39.88
620.866	38.88
621.628	40.88
622.39	40.88
623.152	36.88
623.914	31.88
624.676	30.88
625.438	32.88
626.199	32.88
626.961	32.88
627.722	30.88
628.484	29.88
629.245	29.88
630.006	28.88
630.768	28.88
631.529	27.88
632.29	25.88
633.051	23.88
633.812	22.88
634.573	21.88
635.333	22.88
636.094	22.88
636.855	22.88
637.615	21.88
638.376	21.88
639.136	17.88
639.896	19.88
640.657	20.88
641.417	20.88
642.177	17.88
642.937	18.88
643.697	15.88
644.457	17.88
645.216	18.88
645.976	14.88
646.736	15.88
647.495	14.88
648.255	14.88
649.014	13.88
649.774	14.88
650.533	15.88
651.292	14.88
652.051	13.88
652.81	13.88
653.569	13.88
654.328	13.88
655.087	10.88
655.846	10.88
656.604	12.88
657.363	13.88
658.121	13.88
658.88	8.88
659.638	9.88
660.397	13.88
661.155	11.88
661.913	8.88
662.671	9.88
663.429	11.88
664.187	9.88
664.945	12.88
665.703	9.88
666.46	8.88
667.218	9.88
667.976	9.88
668.733	8.88
669.49	10.88
670.248	9.88
671.005	8.88
671.762	7.88
672.519	9.88
673.276	9.88
674.033	10.88
674.79	9.88
675.547	6.88
676.304	8.88
677.06	7.88
677.817	8.88
678.574	9.88
679.33	6.88
680.086	6.88
680.843	6.88
681.599	11.88
682.355	7.88
683.111	10.88
683.867	5.88
684.623	8.88
685.379	6.88
686.135	7.88
686.89	7.88
687.646	6.88
688.402	8.88
689.157	8.88
689.912	8.88
690.668	9.88
691.423	6.88
692.178	8.88
692.933	6.88
693.688	7.88
694.443	8.88
695.198	5.88
695.953	8.88
696.708	7.88
697.462	6.88
698.217	5.88
698.972	5.88
699.726	8.88
700.48	4.88
701.235	7.88
701.989	7.88
702.743	4.88
703.497	5.88
704.251	5.88
705.005	7.88
705.759	3.88
706.513	8.88
707.266	6.88
708.02	7.88
708.774	10.88
709.527	8.88
710.28	9.88
711.034	6.88
711.787	8.88
712.54	6.88
713.293	7.88
714.046	7.88
714.799	5.88
715.552	6.88
716.305	7.88
717.058	7.88
717.81	7.88
718.563	5.88
719.315	9.88
720.068	7.88
720.82	8.88
721.573	10.88
722.325	7.88
723.077	2.88
723.829	5.88
724.581	11.88
725.333	8.88
726.085	8.88
726.836	7.88
727.588	6.88
728.34	9.88
729.091	9.88
729.843	9.88
730.594	7.88
731.346	9.88
732.097	10.88
732.848	6.88
733.599	9.88
734.35	10.88
735.101	6.88
735.852	11.88
736.603	10.88
737.354	10.88
738.104	8.88
738.855	10.88
739.605	8.88
740.356	9.88
741.106	6.88
741.856	10.88
742.607	10.88
743.357	11.88
744.107	10.88
744.857	9.88
745.607	10.88
746.357	11.88
747.106	11.88
747.856	9.88
748.606	10.88
749.355	11.88
750.105	11.88
750.854	9.88
751.603	10.88
752.353	10.88
753.102	9.88
753.851	11.88
754.6	13.88
755.349	11.88
756.098	9.88
756.847	13.88
757.595	10.88
758.344	12.88
759.093	11.88
759.841	10.88
760.589	13.88
761.338	11.88
762.086	12.88
762.834	13.88
763.582	12.88
764.331	13.88
765.079	14.88
765.826	13.88
766.574	13.88
767.322	14.88
768.07	12.88
768.817	14.88
769.565	13.88
770.312	13.88
771.06	14.88
771.807	17.88
772.554	15.88
773.302	15.88
774.049	15.88
774.796	14.88
775.543	13.88
776.29	15.88
777.036	14.88
777.783	17.88
778.53	17.88
779.276	15.88
780.023	15.88
780.769	14.88
781.516	14.88
782.262	14.88
783.008	16.88
783.754	17.88
784.5	14.88
785.246	14.88
785.992	14.88
786.738	16.88
787.484	15.88
788.23	16.88
788.975	14.88
789.721	14.88
790.466	15.88
791.212	15.88
791.957	12.88
792.702	14.88
793.447	10.88
794.193	17.88
794.938	14.88
795.683	15.88
796.427	12.88
797.172	13.88
797.917	11.88
798.662	12.88
799.406	12.88
800.151	13.88
800.895	12.88
801.64	16.88
802.384	9.88
803.128	12.88
803.872	11.88
804.616	10.88
805.36	11.88
806.104	10.88
806.848	10.88
807.592	7.88
808.336	9.88
809.079	12.88
809.823	9.88
810.566	9.88
811.31	6.88
812.053	12.88
812.796	10.88
813.539	10.88
814.283	8.88
815.026	8.88
815.769	8.88
816.511	6.88
817.254	8.88
817.997	9.88
818.74	9.88
819.482	8.88
820.225	8.88
820.967	6.88
821.71	7.88
822.452	9.88
823.194	7.88
823.936	7.88
824.678	6.88
825.42	7.88
826.162	7.88
826.904	6.88
827.646	6.88
828.388	5.88
829.129	5.88
829.871	6.88
830.612	5.88
831.354	6.88
832.095	6.88
832.836	4.88
833.577	5.88
834.319	6.88
835.06	6.88
835.801	8.88
836.542	4.88
837.282	7.88
838.023	6.88
838.764	4.88
839.504	6.88
840.245	5.88
840.985	5.88
841.726	4.88
842.466	5.88
843.206	5.88
843.946	6.88
844.687	6.88
845.427	3.88
846.166	5.88
846.906	6.88
847.646	4.88
848.386	2.88
849.125	4.88
849.865	6.88
850.605	5.88
851.344	3.88
852.083	3.88
852.823	4.88
853.562	4.88
854.301	4.88
855.04	4.88
855.779	2.88
856.518	7.88
857.257	1.88
857.995	5.88
858.734	2.88
859.473	3.88
860.211	3.88
860.95	0.88
861.688	2.88
862.426	2.88
863.165	3.88
863.903	1.88
864.641	2.88
865.379	3.88
866.117	0.88
866.855	4.88
867.593	1.88
868.33	2.88
869.068	2.88
869.806	1.88
870.543	3.88
871.28	0.88
872.018	2.88
872.755	2.88
873.492	3.88
874.229	2.88
874.967	2.88
875.703	0.88
876.44	1.88
877.177	1.88
877.914	0.88
878.651	0.88
879.387	2.88
880.124	-0.12
880.86	1.88
881.597	-0.12
882.333	1.88
883.069	1.88
883.806	1.88
884.542	2.88
885.278	-0.12
886.014	1.88
886.749	2.88
887.485	0.88
888.221	3.88
888.957	1.88
889.692	-0.12
890.428	2.88
891.163	2.88
891.899	1.88
892.634	0.88
893.369	1.88
894.104	0.88
894.839	3.88
895.574	1.88
896.309	-0.12
897.044	2.88
897.779	-0.12
898.514	0.88
899.248	1.88
899.983	2.88
900.717	-1.12
901.452	0.88
902.186	1.88
902.92	0.88
903.654	-0.12
904.389	0.88
905.123	1.88
905.857	1.88
906.59	-0.12
907.324	0.88
908.058	1.88
908.792	-1.12
909.525	-0.12
910.259	-1.12
910.992	1.88
911.726	-2.12
912.459	0.88
913.192	1.88
913.925	2.88
914.658	0.88
915.391	0.88
916.124	1.88
916.857	-1.12
917.59	-0.12
918.323	1.88
919.055	0.88
919.788	0.88
920.521	0.88
921.253	1.88
921.985	1.88
922.718	0.88
923.45	-0.12
924.182	-1.12
924.914	0.88
925.646	1.88
926.378	0.88
927.11	0.88
927.841	-1.12
928.573	-2.12
929.305	-0.12
930.036	2.88
930.768	-1.12
931.499	0.88
932.23	0.88
932.962	-1.12
933.693	2.88
934.424	0.88
935.155	0.88
935.886	0.88
936.617	1.88
937.348	-1.12
938.078	-0.12
938.809	0.88
939.54	-1.12
940.27	0.88
941.001	-1.12
941.731	-2.12
942.461	-0.12
943.191	1.88
943.922	-0.12
944.652	2.88
945.382	-0.12
946.112	-1.12
946.841	-1.12
947.571	-1.12
948.301	0.88
949.031	-0.12
949.76	0.88
950.49	-0.12
951.219	1.88
951.948	-0.12
952.678	-0.12
953.407	-1.12
954.136	-0.12
954.865	1.88
955.594	-3.12
956.323	0.88
957.052	1.88
957.78	-0.12
958.509	0.88
959.238	0.88
959.966	2.88
960.695	1.88
961.423	0.88
962.151	0.88
962.88	-1.12
963.608	0.88
964.336	0.88
965.064	-0.12
965.792	-0.12
966.52	2.88
967.247	0.88
967.975	0.88
968.703	-1.12
969.43	-0.12
970.158	1.88
970.885	0.88
971.613	-1.12
972.34	-0.12
973.067	-0.12
973.794	1.88
974.521	0.88
975.248	0.88
975.975	0.88
976.702	-0.12
977.429	-0.12
978.156	-0.12
978.882	-0.12
979.609	0.88
980.335	0.88
981.062	-1.12
981.788	-0.12
982.514	0.88
983.24	0.88
983.967	0.88
984.693	-1.12
985.419	-0.12
986.144	0.88
986.87	0.88
987.596	-0.12
988.322	-1.12
989.047	0.88
989.773	0.88
990.498	-1.12
991.224	0.88
991.949	0.88
992.674	1.88
993.399	0.88
994.124	0.88
994.849	1.88
995.574	0.88
996.299	0.88
997.024	-0.12
997.749	-1.12
998.473	0.88
999.198	-1.12
999.922	1.88
1000.647	0.88
1001.371	4.88
1002.095	-1.12
1002.82	-3.12
1003.544	-0.12
1004.268	2.88
1004.992	4.88
1005.716	4.88
1006.439	5.88
1007.163	6.88
1007.887	3.88
1008.611	1.88
1009.334	0.88
1010.058	-1.12
1010.781	-0.12
1011.504	0.88
1012.228	1.88
1012.951	0.88
1013.674	-1.12
1014.397	0.88
1015.12	-1.12
