节点500_705_QEPB04081__674__20-55-30-827.txt的数据

Date: Wed Nov 12 20:55:30 CST 2025
User: PC
Spectrometer: QEPB0408
触发模式: 0
积分时间 (秒): 1.000000E-2
Scans to average: 1
启用暗噪声校正: true
启用非线性校正: false
滑动平均宽度: 0
X轴模式: Wavelengths
Number of Pixels in Spectrum: 1044
>>>>>Begin Spectral Data<<<<<
220.843	6.75
221.644	5.75
222.444	5.75
223.244	3.75
224.045	6.75
224.845	3.75
225.645	6.75
226.445	6.75
227.245	6.75
228.045	3.75
228.845	6.75
229.645	6.75
230.444	6.75
231.244	7.75
232.043	9.75
232.843	9.75
233.642	10.75
234.442	9.75
235.241	9.75
236.04	10.75
236.839	7.75
237.638	8.75
238.437	9.75
239.236	8.75
240.035	9.75
240.833	9.75
241.632	11.75
242.43	10.75
243.229	13.75
244.027	12.75
244.826	13.75
245.624	10.75
246.422	13.75
247.22	14.75
248.018	10.75
248.816	13.75
249.614	12.75
250.412	13.75
251.21	15.75
252.007	14.75
252.805	17.75
253.602	14.75
254.4	14.75
255.197	15.75
255.994	18.75
256.791	17.75
257.589	16.75
258.386	17.75
259.183	18.75
259.979	19.75
260.776	20.75
261.573	17.75
262.37	20.75
263.166	23.75
263.963	24.75
264.759	23.75
265.556	23.75
266.352	24.75
267.148	23.75
267.944	26.75
268.74	24.75
269.536	24.75
270.332	26.75
271.128	26.75
271.924	27.75
272.719	27.75
273.515	29.75
274.311	28.75
275.106	29.75
275.901	30.75
276.697	30.75
277.492	29.75
278.287	31.75
279.082	30.75
279.877	29.75
280.672	33.75
281.467	30.75
282.262	27.75
283.056	35.75
283.851	29.75
284.646	31.75
285.44	32.75
286.234	32.75
287.029	33.75
287.823	33.75
288.617	30.75
289.411	30.75
290.205	28.75
290.999	30.75
291.793	27.75
292.587	26.75
293.381	28.75
294.174	27.75
294.968	25.75
295.761	24.75
296.555	27.75
297.348	25.75
298.141	23.75
298.935	26.75
299.728	23.75
300.521	27.75
301.314	21.75
302.107	23.75
302.899	21.75
303.692	22.75
304.485	22.75
305.277	21.75
306.07	21.75
306.862	22.75
307.655	22.75
308.447	19.75
309.239	21.75
310.031	20.75
310.823	17.75
311.615	16.75
312.407	14.75
313.199	16.75
313.991	16.75
314.783	14.75
315.574	15.75
316.366	15.75
317.157	15.75
317.949	15.75
318.74	13.75
319.531	17.75
320.322	12.75
321.113	16.75
321.904	10.75
322.695	12.75
323.486	14.75
324.277	10.75
325.068	13.75
325.858	10.75
326.649	11.75
327.439	12.75
328.23	8.75
329.02	13.75
329.81	11.75
330.6	11.75
331.391	10.75
332.181	9.75
332.971	11.75
333.76	12.75
334.55	8.75
335.34	9.75
336.13	11.75
336.919	12.75
337.709	10.75
338.498	9.75
339.287	12.75
340.077	8.75
340.866	11.75
341.655	10.75
342.444	11.75
343.233	11.75
344.022	9.75
344.811	9.75
345.6	9.75
346.388	10.75
347.177	10.75
347.965	8.75
348.754	9.75
349.542	10.75
350.33	10.75
351.119	8.75
351.907	8.75
352.695	9.75
353.483	10.75
354.271	10.75
355.059	8.75
355.846	9.75
356.634	8.75
357.422	9.75
358.209	8.75
358.997	9.75
359.784	11.75
360.571	7.75
361.359	11.75
362.146	11.75
362.933	9.75
363.72	10.75
364.507	10.75
365.294	8.75
366.081	10.75
366.867	8.75
367.654	8.75
368.44	7.75
369.227	7.75
370.013	8.75
370.8	6.75
371.586	9.75
372.372	7.75
373.158	9.75
373.944	9.75
374.73	8.75
375.516	9.75
376.302	7.75
377.088	9.75
377.873	8.75
378.659	9.75
379.445	8.75
380.23	7.75
381.015	8.75
381.801	7.75
382.586	11.75
383.371	9.75
384.156	10.75
384.941	10.75
385.726	10.75
386.511	8.75
387.296	9.75
388.08	7.75
388.865	10.75
389.649	8.75
390.434	10.75
391.218	12.75
392.003	10.75
392.787	8.75
393.571	9.75
394.355	11.75
395.139	10.75
395.923	10.75
396.707	10.75
397.491	10.75
398.274	12.75
399.058	12.75
399.842	11.75
400.625	14.75
401.408	13.75
402.192	13.75
402.975	12.75
403.758	11.75
404.541	12.75
405.324	13.75
406.107	12.75
406.89	14.75
407.673	13.75
408.456	10.75
409.238	14.75
410.021	13.75
410.803	17.75
411.586	14.75
412.368	12.75
413.151	16.75
413.933	16.75
414.715	18.75
415.497	14.75
416.279	15.75
417.061	17.75
417.843	17.75
418.624	19.75
419.406	17.75
420.188	19.75
420.969	19.75
421.751	21.75
422.532	19.75
423.313	21.75
424.095	20.75
424.876	20.75
425.657	24.75
426.438	22.75
427.219	24.75
428	25.75
428.78	22.75
429.561	25.75
430.342	27.75
431.122	31.75
431.903	33.75
432.683	30.75
433.464	34.75
434.244	34.75
435.024	40.75
435.804	40.75
436.584	40.75
437.364	44.75
438.144	50.75
438.924	53.75
439.704	52.75
440.483	57.75
441.263	62.75
442.042	62.75
442.822	77.75
443.601	73.75
444.38	83.75
445.16	90.75
445.939	100.75
446.718	109.75
447.497	113.75
448.276	133.75
449.054	140.75
449.833	162.75
450.612	173.75
451.391	187.75
452.169	210.75
452.948	232.75
453.726	256.75
454.504	288.75
455.282	322.75
456.061	354.75
456.839	399.75
457.617	436.75
458.395	489.75
459.172	552.75
459.95	606.75
460.728	672.75
461.506	743.75
462.283	826.75
463.061	928.75
463.838	1034.75
464.615	1148.75
465.393	1256.75
466.17	1388.75
466.947	1548.75
467.724	1709.75
468.501	1885.75
469.278	2074.75
470.055	2258.75
470.831	2509.75
471.608	2735.75
472.385	3005.75
473.161	3331.75
473.938	3619.75
474.714	3974.75
475.49	4326.75
476.266	4703.75
477.043	5126.75
477.819	5587.75
478.595	6026.75
479.371	6566.75
480.146	7134.75
480.922	7731.75
481.698	8416.75
482.473	9091.75
483.249	9825.75
484.024	10629.75
484.8	11460.75
485.575	12356.75
486.35	13329.75
487.126	14393.75
487.901	15454.75
488.676	16601.75
489.451	17838.75
490.225	19113.75
491	20484.75
491.775	21832.75
492.55	23328.75
493.324	24766.75
494.099	26334.75
494.873	27874.75
495.647	29496.75
496.422	31049.75
497.196	32665.75
497.97	34168.75
498.744	35549.75
499.518	37133.75
500.292	38534.75
501.066	39472.75
501.839	40583.75
502.613	41495.75
503.387	42296.75
504.16	42875.75
504.934	43308.75
505.707	43591.75
506.48	43483.75
507.253	43379.75
508.027	43064.75
508.8	42573.75
509.573	41838.75
510.346	41191.75
511.118	40298.75
511.891	39392.75
512.664	38110.75
513.437	36934.75
514.209	35813.75
514.982	34552.75
515.754	33295.75
516.526	32013.75
517.298	30760.75
518.071	29668.75
518.843	28526.75
519.615	27376.75
520.387	26260.75
521.159	25278.75
521.93	24152.75
522.702	23186.75
523.474	22306.75
524.245	21393.75
525.017	20508.75
525.788	19633.75
526.56	18869.75
527.331	18100.75
528.102	17224.75
528.873	16397.75
529.644	15639.75
530.415	14927.75
531.186	14270.75
531.957	13561.75
532.728	12878.75
533.498	12255.75
534.269	11620.75
535.039	11039.75
535.81	10422.75
536.58	9871.75
537.351	9363.75
538.121	8891.75
538.891	8402.75
539.661	7959.75
540.431	7511.75
541.201	7136.75
541.971	6795.75
542.741	6395.75
543.51	6122.75
544.28	5806.75
545.05	5542.75
545.819	5253.75
546.588	5030.75
547.358	4789.75
548.127	4524.75
548.896	4336.75
549.665	4121.75
550.434	3915.75
551.203	3694.75
551.972	3530.75
552.741	3344.75
553.51	3157.75
554.278	2979.75
555.047	2805.75
555.815	2665.75
556.584	2520.75
557.352	2376.75
558.121	2233.75
558.889	2143.75
559.657	2004.75
560.425	1906.75
561.193	1809.75
561.961	1708.75
562.729	1625.75
563.496	1519.75
564.264	1454.75
565.032	1366.75
565.799	1285.75
566.567	1224.75
567.334	1154.75
568.101	1092.75
568.869	1033.75
569.636	980.75
570.403	917.75
571.17	858.75
571.937	818.75
572.704	773.75
573.471	736.75
574.237	688.75
575.004	650.75
575.771	606.75
576.537	573.75
577.303	557.75
578.07	520.75
578.836	489.75
579.602	459.75
580.368	438.75
581.134	410.75
581.9	387.75
582.666	385.75
583.432	363.75
584.198	340.75
584.964	319.75
585.729	303.75
586.495	286.75
587.26	272.75
588.025	260.75
588.791	235.75
589.556	232.75
590.321	217.75
591.086	209.75
591.851	196.75
592.616	188.75
593.381	181.75
594.146	171.75
594.911	161.75
595.675	162.75
596.44	147.75
597.204	141.75
597.969	139.75
598.733	128.75
599.497	122.75
600.261	119.75
601.025	112.75
601.79	109.75
602.553	104.75
603.317	98.75
604.081	95.75
604.845	95.75
605.609	87.75
606.372	84.75
607.136	78.75
607.899	77.75
608.662	74.75
609.426	69.75
610.189	68.75
610.952	66.75
611.715	64.75
612.478	64.75
613.241	58.75
614.004	58.75
614.767	54.75
615.529	53.75
616.292	52.75
617.055	49.75
617.817	48.75
618.579	49.75
619.342	44.75
620.104	44.75
620.866	41.75
621.628	40.75
622.39	39.75
623.152	38.75
623.914	35.75
624.676	35.75
625.438	33.75
626.199	30.75
626.961	32.75
627.722	29.75
628.484	30.75
629.245	30.75
630.006	28.75
630.768	27.75
631.529	25.75
632.29	26.75
633.051	24.75
633.812	24.75
634.573	25.75
635.333	21.75
636.094	23.75
636.855	21.75
637.615	18.75
638.376	18.75
639.136	21.75
639.896	21.75
640.657	18.75
641.417	21.75
642.177	18.75
642.937	17.75
643.697	15.75
644.457	16.75
645.216	14.75
645.976	16.75
646.736	15.75
647.495	16.75
648.255	15.75
649.014	14.75
649.774	14.75
650.533	13.75
651.292	11.75
652.051	14.75
652.81	12.75
653.569	11.75
654.328	13.75
655.087	10.75
655.846	13.75
656.604	11.75
657.363	11.75
658.121	10.75
658.88	11.75
659.638	11.75
660.397	12.75
661.155	9.75
661.913	11.75
662.671	9.75
663.429	9.75
664.187	13.75
664.945	9.75
665.703	9.75
666.46	10.75
667.218	8.75
667.976	8.75
668.733	10.75
669.49	8.75
670.248	12.75
671.005	9.75
671.762	9.75
672.519	7.75
673.276	6.75
674.033	8.75
674.79	9.75
675.547	8.75
676.304	6.75
677.06	12.75
677.817	6.75
678.574	6.75
679.33	5.75
680.086	8.75
680.843	8.75
681.599	7.75
682.355	8.75
683.111	8.75
683.867	7.75
684.623	8.75
685.379	7.75
686.135	6.75
686.89	10.75
687.646	6.75
688.402	7.75
689.157	5.75
689.912	8.75
690.668	7.75
691.423	6.75
692.178	9.75
692.933	6.75
693.688	7.75
694.443	6.75
695.198	7.75
695.953	8.75
696.708	7.75
697.462	8.75
698.217	4.75
698.972	7.75
699.726	5.75
700.48	7.75
701.235	5.75
701.989	6.75
702.743	7.75
703.497	6.75
704.251	7.75
705.005	4.75
705.759	5.75
706.513	6.75
707.266	6.75
708.02	8.75
708.774	8.75
709.527	8.75
710.28	8.75
711.034	6.75
711.787	6.75
712.54	7.75
713.293	6.75
714.046	6.75
714.799	10.75
715.552	9.75
716.305	6.75
717.058	7.75
717.81	5.75
718.563	6.75
719.315	8.75
720.068	7.75
720.82	10.75
721.573	6.75
722.325	6.75
723.077	8.75
723.829	6.75
724.581	4.75
725.333	7.75
726.085	8.75
726.836	7.75
727.588	7.75
728.34	8.75
729.091	5.75
729.843	6.75
730.594	8.75
731.346	7.75
732.097	8.75
732.848	7.75
733.599	8.75
734.35	7.75
735.101	7.75
735.852	8.75
736.603	9.75
737.354	7.75
738.104	6.75
738.855	8.75
739.605	7.75
740.356	9.75
741.106	10.75
741.856	8.75
742.607	7.75
743.357	6.75
744.107	9.75
744.857	9.75
745.607	9.75
746.357	9.75
747.106	10.75
747.856	8.75
748.606	9.75
749.355	8.75
750.105	10.75
750.854	9.75
751.603	10.75
752.353	9.75
753.102	10.75
753.851	7.75
754.6	10.75
755.349	10.75
756.098	11.75
756.847	10.75
757.595	8.75
758.344	7.75
759.093	7.75
759.841	9.75
760.589	10.75
761.338	10.75
762.086	14.75
762.834	8.75
763.582	11.75
764.331	11.75
765.079	11.75
765.826	11.75
766.574	12.75
767.322	12.75
768.07	9.75
768.817	12.75
769.565	12.75
770.312	13.75
771.06	12.75
771.807	12.75
772.554	13.75
773.302	10.75
774.049	13.75
774.796	14.75
775.543	12.75
776.29	14.75
777.036	16.75
777.783	13.75
778.53	11.75
779.276	16.75
780.023	12.75
780.769	13.75
781.516	12.75
782.262	12.75
783.008	13.75
783.754	13.75
784.5	14.75
785.246	13.75
785.992	14.75
786.738	15.75
787.484	17.75
788.23	13.75
788.975	14.75
789.721	14.75
790.466	10.75
791.212	13.75
791.957	11.75
792.702	12.75
793.447	13.75
794.193	15.75
794.938	10.75
795.683	14.75
796.427	12.75
797.172	12.75
797.917	12.75
798.662	9.75
799.406	10.75
800.151	11.75
800.895	10.75
801.64	10.75
802.384	11.75
803.128	8.75
803.872	10.75
804.616	9.75
805.36	11.75
806.104	10.75
806.848	10.75
807.592	8.75
808.336	8.75
809.079	7.75
809.823	8.75
810.566	10.75
811.31	7.75
812.053	9.75
812.796	6.75
813.539	9.75
814.283	8.75
815.026	7.75
815.769	6.75
816.511	7.75
817.254	8.75
817.997	6.75
818.74	7.75
819.482	6.75
820.225	8.75
820.967	7.75
821.71	8.75
822.452	6.75
823.194	5.75
823.936	7.75
824.678	7.75
825.42	7.75
826.162	4.75
826.904	5.75
827.646	7.75
828.388	4.75
829.129	5.75
829.871	5.75
830.612	6.75
831.354	6.75
832.095	7.75
832.836	6.75
833.577	6.75
834.319	6.75
835.06	7.75
835.801	5.75
836.542	4.75
837.282	4.75
838.023	7.75
838.764	4.75
839.504	4.75
840.245	5.75
840.985	5.75
841.726	6.75
842.466	7.75
843.206	2.75
843.946	2.75
844.687	4.75
845.427	4.75
846.166	2.75
846.906	7.75
847.646	3.75
848.386	3.75
849.125	4.75
849.865	3.75
850.605	5.75
851.344	4.75
852.083	5.75
852.823	3.75
853.562	3.75
854.301	6.75
855.04	2.75
855.779	4.75
856.518	0.75
857.257	3.75
857.995	2.75
858.734	2.75
859.473	5.75
860.211	2.75
860.95	4.75
861.688	1.75
862.426	1.75
863.165	5.75
863.903	0.75
864.641	2.75
865.379	1.75
866.117	4.75
866.855	3.75
867.593	3.75
868.33	3.75
869.068	2.75
869.806	2.75
870.543	1.75
871.28	2.75
872.018	2.75
872.755	1.75
873.492	1.75
874.229	0.75
874.967	3.75
875.703	3.75
876.44	3.75
877.177	1.75
877.914	1.75
878.651	0.75
879.387	0.75
880.124	0.75
880.86	1.75
881.597	-0.25
882.333	0.75
883.069	1.75
883.806	1.75
884.542	0.75
885.278	0.75
886.014	2.75
886.749	-0.25
887.485	0.75
888.221	0.75
888.957	1.75
889.692	-0.25
890.428	0.75
891.163	-1.25
891.899	1.75
892.634	0.75
893.369	0.75
894.104	0.75
894.839	-0.25
895.574	3.75
896.309	0.75
897.044	-0.25
897.779	2.75
898.514	1.75
899.248	0.75
899.983	-1.25
900.717	-0.25
901.452	0.75
902.186	-0.25
902.92	0.75
903.654	-0.25
904.389	-1.25
905.123	2.75
905.857	-1.25
906.59	0.75
907.324	-0.25
908.058	0.75
908.792	0.75
909.525	1.75
910.259	1.75
910.992	0.75
911.726	0.75
912.459	0.75
913.192	-0.25
913.925	0.75
914.658	0.75
915.391	0.75
916.124	-1.25
916.857	3.75
917.59	-0.25
918.323	-0.25
919.055	-0.25
919.788	-1.25
920.521	2.75
921.253	-1.25
921.985	0.75
922.718	-0.25
923.45	0.75
924.182	0.75
924.914	-2.25
925.646	2.75
926.378	-0.25
927.11	0.75
927.841	-0.25
928.573	-0.25
929.305	-1.25
930.036	-2.25
930.768	-0.25
931.499	-0.25
932.23	-1.25
932.962	0.75
933.693	-1.25
934.424	2.75
935.155	-1.25
935.886	-0.25
936.617	0.75
937.348	1.75
938.078	-0.25
938.809	0.75
939.54	-0.25
940.27	1.75
941.001	-0.25
941.731	-1.25
942.461	0.75
943.191	0.75
943.922	-0.25
944.652	0.75
945.382	1.75
946.112	0.75
946.841	-1.25
947.571	-0.25
948.301	-0.25
949.031	1.75
949.76	0.75
950.49	-0.25
951.219	-0.25
951.948	-1.25
952.678	-1.25
953.407	-1.25
954.136	-1.25
954.865	0.75
955.594	-0.25
956.323	-0.25
957.052	-0.25
957.78	-1.25
958.509	0.75
959.238	-1.25
959.966	-0.25
960.695	1.75
961.423	0.75
962.151	-0.25
962.88	-2.25
963.608	0.75
964.336	-0.25
965.064	1.75
965.792	1.75
966.52	-0.25
967.247	-1.25
967.975	-0.25
968.703	0.75
969.43	0.75
970.158	-0.25
970.885	-1.25
971.613	-3.25
972.34	1.75
973.067	0.75
973.794	0.75
974.521	-0.25
975.248	-2.25
975.975	0.75
976.702	-0.25
977.429	0.75
978.156	-0.25
978.882	1.75
979.609	-0.25
980.335	-3.25
981.062	2.75
981.788	-0.25
982.514	-0.25
983.24	0.75
983.967	0.75
984.693	-1.25
985.419	-0.25
986.144	0.75
986.87	0.75
987.596	-0.25
988.322	1.75
989.047	0.75
989.773	-0.25
990.498	0.75
991.224	-0.25
991.949	-2.25
992.674	0.75
993.399	-1.25
994.124	0.75
994.849	0.75
995.574	0.75
996.299	-1.25
997.024	-2.25
997.749	-1.25
998.473	1.75
999.198	-2.25
999.922	-0.25
1000.647	-1.25
1001.371	2.75
1002.095	-2.25
1002.82	0.75
1003.544	0.75
1004.268	4.75
1004.992	4.75
1005.716	2.75
1006.439	1.75
1007.163	1.75
1007.887	6.75
1008.611	1.75
1009.334	0.75
1010.058	1.75
1010.781	0.75
1011.504	-1.25
1012.228	0.75
1012.951	-1.25
1013.674	-0.25
1014.397	-0.25
1015.12	-0.25
