节点500_705_QEPB04081__144__20-48-16-089.txt的数据

Date: Wed Nov 12 20:48:16 CST 2025
User: PC
Spectrometer: QEPB0408
触发模式: 0
积分时间 (秒): 1.000000E-2
Scans to average: 1
启用暗噪声校正: true
启用非线性校正: false
滑动平均宽度: 0
X轴模式: Wavelengths
Number of Pixels in Spectrum: 1044
>>>>>Begin Spectral Data<<<<<
220.843	6.38
221.644	6.38
222.444	4.38
223.244	6.38
224.045	6.38
224.845	6.38
225.645	6.38
226.445	3.38
227.245	8.38
228.045	9.38
228.845	8.38
229.645	9.38
230.444	8.38
231.244	6.38
232.043	5.38
232.843	6.38
233.642	7.38
234.442	10.38
235.241	10.38
236.04	10.38
236.839	10.38
237.638	10.38
238.437	10.38
239.236	8.38
240.035	10.38
240.833	11.38
241.632	11.38
242.43	14.38
243.229	13.38
244.027	15.38
244.826	13.38
245.624	14.38
246.422	14.38
247.22	13.38
248.018	16.38
248.816	15.38
249.614	16.38
250.412	15.38
251.21	14.38
252.007	19.38
252.805	17.38
253.602	17.38
254.4	20.38
255.197	19.38
255.994	23.38
256.791	20.38
257.589	25.38
258.386	20.38
259.183	23.38
259.979	20.38
260.776	25.38
261.573	25.38
262.37	24.38
263.166	26.38
263.963	26.38
264.759	26.38
265.556	26.38
266.352	25.38
267.148	29.38
267.944	28.38
268.74	28.38
269.536	33.38
270.332	27.38
271.128	32.38
271.924	32.38
272.719	31.38
273.515	33.38
274.311	33.38
275.106	34.38
275.901	31.38
276.697	34.38
277.492	34.38
278.287	35.38
279.082	35.38
279.877	36.38
280.672	34.38
281.467	36.38
282.262	32.38
283.056	35.38
283.851	37.38
284.646	34.38
285.44	33.38
286.234	30.38
287.029	30.38
287.823	38.38
288.617	30.38
289.411	32.38
290.205	35.38
290.999	33.38
291.793	33.38
292.587	32.38
293.381	32.38
294.174	30.38
294.968	31.38
295.761	28.38
296.555	25.38
297.348	28.38
298.141	26.38
298.935	31.38
299.728	25.38
300.521	23.38
301.314	26.38
302.107	25.38
302.899	21.38
303.692	21.38
304.485	21.38
305.277	24.38
306.07	20.38
306.862	23.38
307.655	19.38
308.447	22.38
309.239	20.38
310.031	21.38
310.823	18.38
311.615	17.38
312.407	18.38
313.199	17.38
313.991	16.38
314.783	16.38
315.574	13.38
316.366	15.38
317.157	15.38
317.949	12.38
318.74	17.38
319.531	14.38
320.322	13.38
321.113	14.38
321.904	14.38
322.695	13.38
323.486	12.38
324.277	14.38
325.068	11.38
325.858	14.38
326.649	8.38
327.439	11.38
328.23	13.38
329.02	13.38
329.81	13.38
330.6	10.38
331.391	11.38
332.181	12.38
332.971	13.38
333.76	10.38
334.55	11.38
335.34	10.38
336.13	11.38
336.919	12.38
337.709	12.38
338.498	10.38
339.287	9.38
340.077	10.38
340.866	10.38
341.655	8.38
342.444	11.38
343.233	12.38
344.022	8.38
344.811	11.38
345.6	12.38
346.388	12.38
347.177	10.38
347.965	11.38
348.754	10.38
349.542	13.38
350.33	12.38
351.119	8.38
351.907	10.38
352.695	11.38
353.483	10.38
354.271	10.38
355.059	11.38
355.846	11.38
356.634	10.38
357.422	10.38
358.209	7.38
358.997	9.38
359.784	11.38
360.571	10.38
361.359	10.38
362.146	10.38
362.933	9.38
363.72	9.38
364.507	8.38
365.294	12.38
366.081	9.38
366.867	11.38
367.654	8.38
368.44	8.38
369.227	7.38
370.013	10.38
370.8	9.38
371.586	9.38
372.372	7.38
373.158	10.38
373.944	10.38
374.73	10.38
375.516	11.38
376.302	10.38
377.088	8.38
377.873	12.38
378.659	13.38
379.445	8.38
380.23	14.38
381.015	7.38
381.801	9.38
382.586	9.38
383.371	7.38
384.156	11.38
384.941	8.38
385.726	11.38
386.511	8.38
387.296	11.38
388.08	12.38
388.865	11.38
389.649	10.38
390.434	11.38
391.218	11.38
392.003	10.38
392.787	9.38
393.571	11.38
394.355	12.38
395.139	13.38
395.923	12.38
396.707	11.38
397.491	12.38
398.274	13.38
399.058	13.38
399.842	12.38
400.625	9.38
401.408	15.38
402.192	10.38
402.975	15.38
403.758	12.38
404.541	16.38
405.324	12.38
406.107	12.38
406.89	13.38
407.673	13.38
408.456	17.38
409.238	16.38
410.021	17.38
410.803	17.38
411.586	14.38
412.368	17.38
413.151	18.38
413.933	18.38
414.715	17.38
415.497	18.38
416.279	18.38
417.061	19.38
417.843	22.38
418.624	18.38
419.406	20.38
420.188	20.38
420.969	21.38
421.751	21.38
422.532	20.38
423.313	21.38
424.095	23.38
424.876	26.38
425.657	25.38
426.438	26.38
427.219	29.38
428	24.38
428.78	26.38
429.561	31.38
430.342	28.38
431.122	31.38
431.903	31.38
432.683	33.38
433.464	33.38
434.244	38.38
435.024	36.38
435.804	41.38
436.584	41.38
437.364	43.38
438.144	46.38
438.924	49.38
439.704	51.38
440.483	57.38
441.263	59.38
442.042	59.38
442.822	67.38
443.601	73.38
444.38	77.38
445.16	84.38
445.939	91.38
446.718	99.38
447.497	105.38
448.276	115.38
449.054	126.38
449.833	138.38
450.612	153.38
451.391	166.38
452.169	185.38
452.948	207.38
453.726	225.38
454.504	251.38
455.282	282.38
456.061	314.38
456.839	352.38
457.617	392.38
458.395	441.38
459.172	498.38
459.95	548.38
460.728	608.38
461.506	672.38
462.283	767.38
463.061	853.38
463.838	951.38
464.615	1059.38
465.393	1185.38
466.17	1331.38
466.947	1466.38
467.724	1644.38
468.501	1827.38
469.278	2028.38
470.055	2236.38
470.831	2480.38
471.608	2751.38
472.385	3039.38
473.161	3365.38
473.938	3715.38
474.714	4073.38
475.49	4502.38
476.266	4939.38
477.043	5414.38
477.819	5960.38
478.595	6545.38
479.371	7158.38
480.146	7801.38
480.922	8546.38
481.698	9387.38
482.473	10230.38
483.249	11137.38
484.024	12135.38
484.8	13204.38
485.575	14379.38
486.35	15660.38
487.126	16988.38
487.901	18441.38
488.676	19901.38
489.451	21546.38
490.225	23260.38
491	24915.38
491.775	26706.38
492.55	28575.38
493.324	30432.38
494.099	32242.38
494.873	34221.38
495.647	36217.38
496.422	38067.38
497.196	39908.38
497.97	41575.38
498.744	43069.38
499.518	44704.38
500.292	46005.38
501.066	47105.38
501.839	47799.38
502.613	48428.38
503.387	48971.38
504.16	49153.38
504.934	49080.38
505.707	48891.38
506.48	48238.38
507.253	47619.38
508.027	46629.38
508.8	45619.38
509.573	44231.38
510.346	43086.38
511.118	41801.38
511.891	40469.38
512.664	38862.38
513.437	37165.38
514.209	35699.38
514.982	34353.38
515.754	32884.38
516.526	31467.38
517.298	30270.38
518.071	29008.38
518.843	27764.38
519.615	26667.38
520.387	25609.38
521.159	24590.38
521.93	23582.38
522.702	22577.38
523.474	21635.38
524.245	20704.38
525.017	19753.38
525.788	18847.38
526.56	18013.38
527.331	17218.38
528.102	16311.38
528.873	15465.38
529.644	14730.38
530.415	14038.38
531.186	13315.38
531.957	12611.38
532.728	11959.38
533.498	11317.38
534.269	10689.38
535.039	10091.38
535.81	9569.38
536.58	9022.38
537.351	8537.38
538.121	8152.38
538.891	7693.38
539.661	7280.38
540.431	6875.38
541.201	6521.38
541.971	6178.38
542.741	5842.38
543.51	5577.38
544.28	5279.38
545.05	5034.38
545.819	4791.38
546.588	4566.38
547.358	4325.38
548.127	4123.38
548.896	3908.38
549.665	3715.38
550.434	3528.38
551.203	3347.38
551.972	3163.38
552.741	2988.38
553.51	2813.38
554.278	2657.38
555.047	2490.38
555.815	2371.38
556.584	2249.38
557.352	2106.38
558.121	1998.38
558.889	1868.38
559.657	1776.38
560.425	1671.38
561.193	1583.38
561.961	1497.38
562.729	1429.38
563.496	1352.38
564.264	1271.38
565.032	1203.38
565.799	1139.38
566.567	1086.38
567.334	1033.38
568.101	971.38
568.869	908.38
569.636	861.38
570.403	815.38
571.17	770.38
571.937	731.38
572.704	690.38
573.471	650.38
574.237	613.38
575.004	575.38
575.771	535.38
576.537	506.38
577.303	486.38
578.07	451.38
578.836	422.38
579.602	398.38
580.368	381.38
581.134	373.38
581.9	347.38
582.666	332.38
583.432	313.38
584.198	294.38
584.964	279.38
585.729	272.38
586.495	254.38
587.26	241.38
588.025	231.38
588.791	217.38
589.556	210.38
590.321	199.38
591.086	184.38
591.851	182.38
592.616	170.38
593.381	160.38
594.146	153.38
594.911	147.38
595.675	142.38
596.44	132.38
597.204	126.38
597.969	121.38
598.733	119.38
599.497	114.38
600.261	100.38
601.025	97.38
601.79	98.38
602.553	97.38
603.317	90.38
604.081	90.38
604.845	86.38
605.609	78.38
606.372	77.38
607.136	72.38
607.899	72.38
608.662	68.38
609.426	64.38
610.189	64.38
610.952	60.38
611.715	62.38
612.478	57.38
613.241	53.38
614.004	54.38
614.767	55.38
615.529	49.38
616.292	46.38
617.055	45.38
617.817	44.38
618.579	46.38
619.342	43.38
620.104	38.38
620.866	38.38
621.628	39.38
622.39	38.38
623.152	35.38
623.914	32.38
624.676	33.38
625.438	33.38
626.199	30.38
626.961	32.38
627.722	28.38
628.484	28.38
629.245	28.38
630.006	25.38
630.768	26.38
631.529	25.38
632.29	25.38
633.051	25.38
633.812	23.38
634.573	24.38
635.333	20.38
636.094	23.38
636.855	21.38
637.615	18.38
638.376	19.38
639.136	20.38
639.896	19.38
640.657	16.38
641.417	18.38
642.177	16.38
642.937	17.38
643.697	18.38
644.457	14.38
645.216	18.38
645.976	15.38
646.736	15.38
647.495	15.38
648.255	15.38
649.014	12.38
649.774	10.38
650.533	13.38
651.292	12.38
652.051	13.38
652.81	12.38
653.569	11.38
654.328	13.38
655.087	12.38
655.846	12.38
656.604	11.38
657.363	10.38
658.121	12.38
658.88	10.38
659.638	11.38
660.397	13.38
661.155	10.38
661.913	8.38
662.671	9.38
663.429	12.38
664.187	9.38
664.945	10.38
665.703	11.38
666.46	8.38
667.218	8.38
667.976	8.38
668.733	12.38
669.49	10.38
670.248	11.38
671.005	8.38
671.762	9.38
672.519	12.38
673.276	9.38
674.033	10.38
674.79	7.38
675.547	7.38
676.304	10.38
677.06	5.38
677.817	7.38
678.574	8.38
679.33	9.38
680.086	7.38
680.843	6.38
681.599	6.38
682.355	7.38
683.111	10.38
683.867	7.38
684.623	6.38
685.379	6.38
686.135	6.38
686.89	6.38
687.646	6.38
688.402	6.38
689.157	6.38
689.912	4.38
690.668	5.38
691.423	4.38
692.178	9.38
692.933	6.38
693.688	9.38
694.443	9.38
695.198	7.38
695.953	6.38
696.708	7.38
697.462	6.38
698.217	7.38
698.972	4.38
699.726	8.38
700.48	5.38
701.235	9.38
701.989	7.38
702.743	6.38
703.497	7.38
704.251	9.38
705.005	6.38
705.759	9.38
706.513	6.38
707.266	6.38
708.02	8.38
708.774	6.38
709.527	7.38
710.28	7.38
711.034	7.38
711.787	7.38
712.54	9.38
713.293	7.38
714.046	6.38
714.799	8.38
715.552	7.38
716.305	5.38
717.058	8.38
717.81	6.38
718.563	7.38
719.315	6.38
720.068	8.38
720.82	8.38
721.573	6.38
722.325	6.38
723.077	6.38
723.829	7.38
724.581	7.38
725.333	9.38
726.085	9.38
726.836	8.38
727.588	8.38
728.34	10.38
729.091	8.38
729.843	8.38
730.594	6.38
731.346	9.38
732.097	7.38
732.848	8.38
733.599	9.38
734.35	7.38
735.101	10.38
735.852	7.38
736.603	8.38
737.354	10.38
738.104	8.38
738.855	9.38
739.605	10.38
740.356	9.38
741.106	8.38
741.856	9.38
742.607	8.38
743.357	10.38
744.107	10.38
744.857	10.38
745.607	8.38
746.357	10.38
747.106	11.38
747.856	11.38
748.606	11.38
749.355	14.38
750.105	12.38
750.854	11.38
751.603	14.38
752.353	10.38
753.102	13.38
753.851	13.38
754.6	9.38
755.349	13.38
756.098	12.38
756.847	11.38
757.595	12.38
758.344	12.38
759.093	12.38
759.841	13.38
760.589	12.38
761.338	12.38
762.086	15.38
762.834	13.38
763.582	11.38
764.331	13.38
765.079	11.38
765.826	15.38
766.574	14.38
767.322	12.38
768.07	14.38
768.817	16.38
769.565	11.38
770.312	14.38
771.06	14.38
771.807	17.38
772.554	13.38
773.302	15.38
774.049	17.38
774.796	14.38
775.543	16.38
776.29	16.38
777.036	15.38
777.783	14.38
778.53	15.38
779.276	14.38
780.023	16.38
780.769	15.38
781.516	16.38
782.262	16.38
783.008	17.38
783.754	15.38
784.5	14.38
785.246	15.38
785.992	15.38
786.738	15.38
787.484	18.38
788.23	16.38
788.975	14.38
789.721	15.38
790.466	14.38
791.212	16.38
791.957	16.38
792.702	14.38
793.447	12.38
794.193	14.38
794.938	13.38
795.683	12.38
796.427	14.38
797.172	10.38
797.917	10.38
798.662	12.38
799.406	11.38
800.151	10.38
800.895	12.38
801.64	13.38
802.384	11.38
803.128	8.38
803.872	9.38
804.616	10.38
805.36	10.38
806.104	13.38
806.848	12.38
807.592	8.38
808.336	10.38
809.079	9.38
809.823	9.38
810.566	8.38
811.31	12.38
812.053	9.38
812.796	8.38
813.539	6.38
814.283	7.38
815.026	7.38
815.769	7.38
816.511	8.38
817.254	7.38
817.997	8.38
818.74	8.38
819.482	7.38
820.225	7.38
820.967	8.38
821.71	8.38
822.452	6.38
823.194	5.38
823.936	7.38
824.678	6.38
825.42	4.38
826.162	8.38
826.904	5.38
827.646	4.38
828.388	8.38
829.129	5.38
829.871	6.38
830.612	6.38
831.354	5.38
832.095	6.38
832.836	6.38
833.577	3.38
834.319	3.38
835.06	6.38
835.801	6.38
836.542	6.38
837.282	5.38
838.023	7.38
838.764	4.38
839.504	5.38
840.245	5.38
840.985	5.38
841.726	3.38
842.466	4.38
843.206	2.38
843.946	4.38
844.687	4.38
845.427	3.38
846.166	2.38
846.906	4.38
847.646	3.38
848.386	4.38
849.125	5.38
849.865	2.38
850.605	2.38
851.344	2.38
852.083	4.38
852.823	5.38
853.562	4.38
854.301	3.38
855.04	3.38
855.779	2.38
856.518	5.38
857.257	2.38
857.995	4.38
858.734	3.38
859.473	2.38
860.211	4.38
860.95	2.38
861.688	2.38
862.426	4.38
863.165	4.38
863.903	2.38
864.641	1.38
865.379	1.38
866.117	2.38
866.855	3.38
867.593	0.38
868.33	2.38
869.068	0.38
869.806	-0.62
870.543	-0.62
871.28	0.38
872.018	3.38
872.755	2.38
873.492	2.38
874.229	2.38
874.967	2.38
875.703	0.38
876.44	0.38
877.177	2.38
877.914	-1.62
878.651	1.38
879.387	0.38
880.124	1.38
880.86	1.38
881.597	1.38
882.333	-0.62
883.069	2.38
883.806	2.38
884.542	2.38
885.278	0.38
886.014	0.38
886.749	0.38
887.485	3.38
888.221	0.38
888.957	1.38
889.692	2.38
890.428	-0.62
891.163	0.38
891.899	3.38
892.634	-1.62
893.369	0.38
894.104	-1.62
894.839	0.38
895.574	3.38
896.309	0.38
897.044	-0.62
897.779	-1.62
898.514	2.38
899.248	1.38
899.983	0.38
900.717	1.38
901.452	-1.62
902.186	0.38
902.92	-1.62
903.654	-0.62
904.389	0.38
905.123	1.38
905.857	-0.62
906.59	-1.62
907.324	-0.62
908.058	0.38
908.792	0.38
909.525	1.38
910.259	0.38
910.992	3.38
911.726	-0.62
912.459	0.38
913.192	1.38
913.925	1.38
914.658	0.38
915.391	2.38
916.124	0.38
916.857	0.38
917.59	1.38
918.323	-1.62
919.055	-0.62
919.788	0.38
920.521	-0.62
921.253	-0.62
921.985	-1.62
922.718	0.38
923.45	0.38
924.182	0.38
924.914	-0.62
925.646	-1.62
926.378	0.38
927.11	-0.62
927.841	-0.62
928.573	0.38
929.305	-1.62
930.036	-1.62
930.768	-0.62
931.499	1.38
932.23	-2.62
932.962	0.38
933.693	0.38
934.424	0.38
935.155	0.38
935.886	-1.62
936.617	-0.62
937.348	1.38
938.078	-0.62
938.809	-2.62
939.54	-0.62
940.27	2.38
941.001	1.38
941.731	0.38
942.461	-0.62
943.191	1.38
943.922	1.38
944.652	-1.62
945.382	0.38
946.112	-2.62
946.841	0.38
947.571	-1.62
948.301	-1.62
949.031	-1.62
949.76	-1.62
950.49	-1.62
951.219	-1.62
951.948	-3.62
952.678	-0.62
953.407	-1.62
954.136	0.38
954.865	-0.62
955.594	0.38
956.323	1.38
957.052	-3.62
957.78	0.38
958.509	-0.62
959.238	-1.62
959.966	-0.62
960.695	-1.62
961.423	0.38
962.151	-1.62
962.88	0.38
963.608	-0.62
964.336	1.38
965.064	0.38
965.792	-1.62
966.52	1.38
967.247	-1.62
967.975	1.38
968.703	-1.62
969.43	-1.62
970.158	-0.62
970.885	-1.62
971.613	-1.62
972.34	-0.62
973.067	1.38
973.794	-1.62
974.521	-1.62
975.248	-0.62
975.975	-2.62
976.702	0.38
977.429	-1.62
978.156	-1.62
978.882	-0.62
979.609	-1.62
980.335	0.38
981.062	-2.62
981.788	-0.62
982.514	-0.62
983.24	-0.62
983.967	-1.62
984.693	-1.62
985.419	0.38
986.144	-0.62
986.87	-1.62
987.596	1.38
988.322	-1.62
989.047	-0.62
989.773	0.38
990.498	-0.62
991.224	0.38
991.949	0.38
992.674	0.38
993.399	-1.62
994.124	0.38
994.849	-1.62
995.574	-0.62
996.299	0.38
997.024	-0.62
997.749	0.38
998.473	-0.62
999.198	0.38
999.922	-0.62
1000.647	0.38
1001.371	2.38
1002.095	0.38
1002.82	0.38
1003.544	-1.62
1004.268	3.38
1004.992	4.38
1005.716	3.38
1006.439	5.38
1007.163	4.38
1007.887	5.38
1008.611	0.38
1009.334	-1.62
1010.058	1.38
1010.781	1.38
1011.504	0.38
1012.228	-0.62
1012.951	-0.62
1013.674	0.38
1014.397	-1.62
1015.12	0.38
