节点500_705_QEPB04081__25__20-46-18-334.txt的数据

Date: Wed Nov 12 20:46:18 CST 2025
User: PC
Spectrometer: QEPB0408
触发模式: 0
积分时间 (秒): 1.000000E-2
Scans to average: 1
启用暗噪声校正: true
启用非线性校正: false
滑动平均宽度: 0
X轴模式: Wavelengths
Number of Pixels in Spectrum: 1044
>>>>>Begin Spectral Data<<<<<
220.843	2.62
221.644	5.62
222.444	6.62
223.244	3.62
224.045	8.62
224.845	3.62
225.645	7.62
226.445	4.62
227.245	5.62
228.045	7.62
228.845	4.62
229.645	6.62
230.444	7.62
231.244	8.62
232.043	5.62
232.843	8.62
233.642	9.62
234.442	11.62
235.241	11.62
236.04	10.62
236.839	11.62
237.638	10.62
238.437	10.62
239.236	12.62
240.035	12.62
240.833	12.62
241.632	11.62
242.43	12.62
243.229	13.62
244.027	14.62
244.826	14.62
245.624	13.62
246.422	15.62
247.22	10.62
248.018	16.62
248.816	14.62
249.614	17.62
250.412	14.62
251.21	18.62
252.007	19.62
252.805	19.62
253.602	19.62
254.4	18.62
255.197	16.62
255.994	19.62
256.791	17.62
257.589	22.62
258.386	22.62
259.183	22.62
259.979	21.62
260.776	22.62
261.573	25.62
262.37	26.62
263.166	25.62
263.963	24.62
264.759	26.62
265.556	29.62
266.352	25.62
267.148	29.62
267.944	29.62
268.74	30.62
269.536	33.62
270.332	30.62
271.128	32.62
271.924	33.62
272.719	31.62
273.515	35.62
274.311	34.62
275.106	31.62
275.901	34.62
276.697	35.62
277.492	30.62
278.287	32.62
279.082	38.62
279.877	33.62
280.672	33.62
281.467	38.62
282.262	35.62
283.056	34.62
283.851	33.62
284.646	34.62
285.44	36.62
286.234	35.62
287.029	31.62
287.823	30.62
288.617	32.62
289.411	33.62
290.205	32.62
290.999	29.62
291.793	30.62
292.587	29.62
293.381	32.62
294.174	29.62
294.968	27.62
295.761	32.62
296.555	27.62
297.348	27.62
298.141	25.62
298.935	28.62
299.728	26.62
300.521	21.62
301.314	23.62
302.107	20.62
302.899	20.62
303.692	22.62
304.485	20.62
305.277	22.62
306.07	21.62
306.862	22.62
307.655	21.62
308.447	20.62
309.239	22.62
310.031	15.62
310.823	18.62
311.615	18.62
312.407	16.62
313.199	17.62
313.991	13.62
314.783	14.62
315.574	16.62
316.366	15.62
317.157	15.62
317.949	14.62
318.74	12.62
319.531	14.62
320.322	14.62
321.113	13.62
321.904	12.62
322.695	13.62
323.486	13.62
324.277	10.62
325.068	13.62
325.858	14.62
326.649	8.62
327.439	12.62
328.23	10.62
329.02	10.62
329.81	9.62
330.6	9.62
331.391	13.62
332.181	13.62
332.971	13.62
333.76	11.62
334.55	9.62
335.34	12.62
336.13	10.62
336.919	11.62
337.709	11.62
338.498	12.62
339.287	13.62
340.077	8.62
340.866	11.62
341.655	10.62
342.444	11.62
343.233	10.62
344.022	13.62
344.811	13.62
345.6	10.62
346.388	9.62
347.177	12.62
347.965	11.62
348.754	9.62
349.542	10.62
350.33	10.62
351.119	12.62
351.907	12.62
352.695	9.62
353.483	11.62
354.271	8.62
355.059	9.62
355.846	10.62
356.634	12.62
357.422	10.62
358.209	9.62
358.997	10.62
359.784	9.62
360.571	9.62
361.359	9.62
362.146	11.62
362.933	10.62
363.72	11.62
364.507	8.62
365.294	8.62
366.081	8.62
366.867	11.62
367.654	9.62
368.44	11.62
369.227	11.62
370.013	9.62
370.8	11.62
371.586	9.62
372.372	12.62
373.158	9.62
373.944	10.62
374.73	9.62
375.516	8.62
376.302	11.62
377.088	7.62
377.873	12.62
378.659	11.62
379.445	10.62
380.23	10.62
381.015	8.62
381.801	10.62
382.586	9.62
383.371	10.62
384.156	10.62
384.941	7.62
385.726	12.62
386.511	10.62
387.296	9.62
388.08	9.62
388.865	11.62
389.649	11.62
390.434	11.62
391.218	14.62
392.003	12.62
392.787	9.62
393.571	13.62
394.355	12.62
395.139	14.62
395.923	12.62
396.707	13.62
397.491	12.62
398.274	12.62
399.058	11.62
399.842	12.62
400.625	14.62
401.408	14.62
402.192	14.62
402.975	15.62
403.758	12.62
404.541	15.62
405.324	13.62
406.107	17.62
406.89	17.62
407.673	15.62
408.456	14.62
409.238	13.62
410.021	16.62
410.803	17.62
411.586	18.62
412.368	17.62
413.151	13.62
413.933	20.62
414.715	17.62
415.497	19.62
416.279	19.62
417.061	19.62
417.843	19.62
418.624	17.62
419.406	23.62
420.188	20.62
420.969	20.62
421.751	18.62
422.532	20.62
423.313	26.62
424.095	21.62
424.876	23.62
425.657	24.62
426.438	26.62
427.219	26.62
428	25.62
428.78	30.62
429.561	28.62
430.342	30.62
431.122	29.62
431.903	30.62
432.683	35.62
433.464	37.62
434.244	35.62
435.024	36.62
435.804	40.62
436.584	41.62
437.364	42.62
438.144	45.62
438.924	46.62
439.704	55.62
440.483	54.62
441.263	52.62
442.042	62.62
442.822	64.62
443.601	66.62
444.38	74.62
445.16	82.62
445.939	82.62
446.718	92.62
447.497	99.62
448.276	110.62
449.054	119.62
449.833	132.62
450.612	143.62
451.391	154.62
452.169	174.62
452.948	191.62
453.726	205.62
454.504	237.62
455.282	268.62
456.061	296.62
456.839	328.62
457.617	362.62
458.395	395.62
459.172	453.62
459.95	502.62
460.728	562.62
461.506	644.62
462.283	707.62
463.061	796.62
463.838	882.62
464.615	1001.62
465.393	1107.62
466.17	1235.62
466.947	1389.62
467.724	1555.62
468.501	1715.62
469.278	1910.62
470.055	2133.62
470.831	2372.62
471.608	2631.62
472.385	2921.62
473.161	3236.62
473.938	3563.62
474.714	3936.62
475.49	4364.62
476.266	4820.62
477.043	5311.62
477.819	5852.62
478.595	6426.62
479.371	7026.62
480.146	7739.62
480.922	8509.62
481.698	9364.62
482.473	10279.62
483.249	11252.62
484.024	12225.62
484.8	13374.62
485.575	14480.62
486.35	15880.62
487.126	17215.62
487.901	18733.62
488.676	20338.62
489.451	21961.62
490.225	23697.62
491	25469.62
491.775	27357.62
492.55	29282.62
493.324	31229.62
494.099	33100.62
494.873	35124.62
495.647	37041.62
496.422	39002.62
497.196	40816.62
497.97	42493.62
498.744	44016.62
499.518	45573.62
500.292	46827.62
501.066	47570.62
501.839	48263.62
502.613	48769.62
503.387	49091.62
504.16	49328.62
504.934	48987.62
505.707	48434.62
506.48	47710.62
507.253	46932.62
508.027	45851.62
508.8	44507.62
509.573	43259.62
510.346	41876.62
511.118	40496.62
511.891	39009.62
512.664	37409.62
513.437	35881.62
514.209	34345.62
514.982	32967.62
515.754	31456.62
516.526	30102.62
517.298	28781.62
518.071	27705.62
518.843	26554.62
519.615	25500.62
520.387	24507.62
521.159	23501.62
521.93	22496.62
522.702	21485.62
523.474	20587.62
524.245	19713.62
525.017	18763.62
525.788	17936.62
526.56	17148.62
527.331	16379.62
528.102	15490.62
528.873	14644.62
529.644	13953.62
530.415	13232.62
531.186	12544.62
531.957	11874.62
532.728	11275.62
533.498	10618.62
534.269	10056.62
535.039	9455.62
535.81	8971.62
536.58	8501.62
537.351	8012.62
538.121	7600.62
538.891	7219.62
539.661	6796.62
540.431	6439.62
541.201	6100.62
541.971	5746.62
542.741	5448.62
543.51	5201.62
544.28	4958.62
545.05	4712.62
545.819	4486.62
546.588	4287.62
547.358	4080.62
548.127	3849.62
548.896	3651.62
549.665	3474.62
550.434	3277.62
551.203	3102.62
551.972	2946.62
552.741	2782.62
553.51	2611.62
554.278	2449.62
555.047	2319.62
555.815	2199.62
556.584	2095.62
557.352	1988.62
558.121	1861.62
558.889	1753.62
559.657	1650.62
560.425	1565.62
561.193	1477.62
561.961	1401.62
562.729	1323.62
563.496	1262.62
564.264	1178.62
565.032	1118.62
565.799	1072.62
566.567	993.62
567.334	959.62
568.101	889.62
568.869	854.62
569.636	790.62
570.403	749.62
571.17	711.62
571.937	671.62
572.704	632.62
573.471	601.62
574.237	569.62
575.004	538.62
575.771	505.62
576.537	476.62
577.303	448.62
578.07	423.62
578.836	396.62
579.602	373.62
580.368	361.62
581.134	344.62
581.9	324.62
582.666	302.62
583.432	293.62
584.198	273.62
584.964	256.62
585.729	249.62
586.495	240.62
587.26	223.62
588.025	212.62
588.791	203.62
589.556	182.62
590.321	180.62
591.086	175.62
591.851	170.62
592.616	152.62
593.381	152.62
594.146	142.62
594.911	138.62
595.675	128.62
596.44	125.62
597.204	119.62
597.969	110.62
598.733	109.62
599.497	108.62
600.261	99.62
601.025	93.62
601.79	94.62
602.553	86.62
603.317	81.62
604.081	82.62
604.845	76.62
605.609	76.62
606.372	74.62
607.136	69.62
607.899	69.62
608.662	65.62
609.426	63.62
610.189	59.62
610.952	57.62
611.715	58.62
612.478	55.62
613.241	49.62
614.004	47.62
614.767	47.62
615.529	51.62
616.292	44.62
617.055	45.62
617.817	43.62
618.579	39.62
619.342	40.62
620.104	37.62
620.866	38.62
621.628	37.62
622.39	36.62
623.152	34.62
623.914	34.62
624.676	32.62
625.438	32.62
626.199	30.62
626.961	28.62
627.722	29.62
628.484	29.62
629.245	26.62
630.006	25.62
630.768	22.62
631.529	25.62
632.29	23.62
633.051	23.62
633.812	22.62
634.573	24.62
635.333	21.62
636.094	22.62
636.855	18.62
637.615	21.62
638.376	19.62
639.136	18.62
639.896	17.62
640.657	21.62
641.417	17.62
642.177	14.62
642.937	17.62
643.697	15.62
644.457	14.62
645.216	15.62
645.976	14.62
646.736	13.62
647.495	14.62
648.255	14.62
649.014	14.62
649.774	15.62
650.533	11.62
651.292	12.62
652.051	13.62
652.81	12.62
653.569	11.62
654.328	11.62
655.087	13.62
655.846	13.62
656.604	10.62
657.363	10.62
658.121	11.62
658.88	10.62
659.638	11.62
660.397	11.62
661.155	8.62
661.913	11.62
662.671	9.62
663.429	11.62
664.187	10.62
664.945	7.62
665.703	9.62
666.46	6.62
667.218	6.62
667.976	10.62
668.733	9.62
669.49	11.62
670.248	8.62
671.005	10.62
671.762	8.62
672.519	10.62
673.276	9.62
674.033	10.62
674.79	7.62
675.547	9.62
676.304	9.62
677.06	8.62
677.817	7.62
678.574	8.62
679.33	9.62
680.086	7.62
680.843	8.62
681.599	7.62
682.355	7.62
683.111	9.62
683.867	7.62
684.623	6.62
685.379	6.62
686.135	8.62
686.89	6.62
687.646	6.62
688.402	6.62
689.157	8.62
689.912	5.62
690.668	6.62
691.423	7.62
692.178	7.62
692.933	7.62
693.688	5.62
694.443	5.62
695.198	6.62
695.953	8.62
696.708	8.62
697.462	6.62
698.217	8.62
698.972	5.62
699.726	7.62
700.48	4.62
701.235	7.62
701.989	7.62
702.743	6.62
703.497	4.62
704.251	8.62
705.005	7.62
705.759	6.62
706.513	6.62
707.266	6.62
708.02	5.62
708.774	6.62
709.527	7.62
710.28	6.62
711.034	7.62
711.787	4.62
712.54	7.62
713.293	5.62
714.046	6.62
714.799	3.62
715.552	4.62
716.305	9.62
717.058	6.62
717.81	10.62
718.563	9.62
719.315	8.62
720.068	8.62
720.82	6.62
721.573	8.62
722.325	10.62
723.077	6.62
723.829	9.62
724.581	8.62
725.333	8.62
726.085	7.62
726.836	9.62
727.588	10.62
728.34	8.62
729.091	9.62
729.843	8.62
730.594	8.62
731.346	9.62
732.097	8.62
732.848	7.62
733.599	7.62
734.35	10.62
735.101	8.62
735.852	10.62
736.603	5.62
737.354	9.62
738.104	11.62
738.855	9.62
739.605	11.62
740.356	10.62
741.106	10.62
741.856	10.62
742.607	10.62
743.357	9.62
744.107	9.62
744.857	11.62
745.607	10.62
746.357	11.62
747.106	10.62
747.856	12.62
748.606	10.62
749.355	10.62
750.105	10.62
750.854	11.62
751.603	9.62
752.353	11.62
753.102	10.62
753.851	12.62
754.6	12.62
755.349	12.62
756.098	11.62
756.847	10.62
757.595	13.62
758.344	12.62
759.093	11.62
759.841	13.62
760.589	11.62
761.338	11.62
762.086	13.62
762.834	16.62
763.582	17.62
764.331	13.62
765.079	11.62
765.826	13.62
766.574	15.62
767.322	13.62
768.07	14.62
768.817	16.62
769.565	16.62
770.312	13.62
771.06	12.62
771.807	13.62
772.554	13.62
773.302	15.62
774.049	16.62
774.796	14.62
775.543	18.62
776.29	15.62
777.036	17.62
777.783	16.62
778.53	13.62
779.276	17.62
780.023	14.62
780.769	18.62
781.516	18.62
782.262	14.62
783.008	16.62
783.754	14.62
784.5	18.62
785.246	18.62
785.992	14.62
786.738	13.62
787.484	18.62
788.23	15.62
788.975	17.62
789.721	15.62
790.466	15.62
791.212	16.62
791.957	15.62
792.702	14.62
793.447	12.62
794.193	14.62
794.938	14.62
795.683	11.62
796.427	11.62
797.172	14.62
797.917	14.62
798.662	14.62
799.406	13.62
800.151	11.62
800.895	12.62
801.64	12.62
802.384	9.62
803.128	10.62
803.872	11.62
804.616	9.62
805.36	10.62
806.104	9.62
806.848	8.62
807.592	10.62
808.336	10.62
809.079	10.62
809.823	8.62
810.566	7.62
811.31	9.62
812.053	8.62
812.796	6.62
813.539	6.62
814.283	8.62
815.026	5.62
815.769	9.62
816.511	9.62
817.254	8.62
817.997	9.62
818.74	7.62
819.482	8.62
820.225	6.62
820.967	7.62
821.71	7.62
822.452	7.62
823.194	8.62
823.936	5.62
824.678	5.62
825.42	7.62
826.162	5.62
826.904	9.62
827.646	6.62
828.388	6.62
829.129	7.62
829.871	5.62
830.612	7.62
831.354	4.62
832.095	6.62
832.836	6.62
833.577	6.62
834.319	7.62
835.06	3.62
835.801	5.62
836.542	5.62
837.282	4.62
838.023	3.62
838.764	4.62
839.504	6.62
840.245	5.62
840.985	6.62
841.726	2.62
842.466	9.62
843.206	7.62
843.946	3.62
844.687	4.62
845.427	6.62
846.166	5.62
846.906	4.62
847.646	6.62
848.386	2.62
849.125	5.62
849.865	4.62
850.605	3.62
851.344	3.62
852.083	4.62
852.823	4.62
853.562	6.62
854.301	3.62
855.04	2.62
855.779	2.62
856.518	5.62
857.257	3.62
857.995	0.62
858.734	2.62
859.473	2.62
860.211	3.62
860.95	1.62
861.688	2.62
862.426	3.62
863.165	4.62
863.903	2.62
864.641	1.62
865.379	3.62
866.117	1.62
866.855	2.62
867.593	2.62
868.33	1.62
869.068	1.62
869.806	2.62
870.543	0.62
871.28	0.62
872.018	1.62
872.755	1.62
873.492	3.62
874.229	2.62
874.967	2.62
875.703	3.62
876.44	1.62
877.177	1.62
877.914	0.62
878.651	0.62
879.387	0.62
880.124	2.62
880.86	0.62
881.597	-0.38
882.333	-0.38
883.069	3.62
883.806	2.62
884.542	1.62
885.278	-0.38
886.014	1.62
886.749	2.62
887.485	0.62
888.221	1.62
888.957	-0.38
889.692	0.62
890.428	0.62
891.163	-0.38
891.899	0.62
892.634	0.62
893.369	0.62
894.104	0.62
894.839	1.62
895.574	2.62
896.309	0.62
897.044	0.62
897.779	0.62
898.514	-0.38
899.248	1.62
899.983	1.62
900.717	2.62
901.452	0.62
902.186	-1.38
902.92	1.62
903.654	0.62
904.389	1.62
905.123	1.62
905.857	2.62
906.59	0.62
907.324	-0.38
908.058	1.62
908.792	-1.38
909.525	2.62
910.259	-0.38
910.992	1.62
911.726	-0.38
912.459	1.62
913.192	-1.38
913.925	1.62
914.658	0.62
915.391	0.62
916.124	0.62
916.857	-0.38
917.59	0.62
918.323	0.62
919.055	-0.38
919.788	1.62
920.521	-0.38
921.253	1.62
921.985	0.62
922.718	0.62
923.45	-0.38
924.182	-1.38
924.914	0.62
925.646	-0.38
926.378	-0.38
927.11	-0.38
927.841	-1.38
928.573	-1.38
929.305	-0.38
930.036	3.62
930.768	-0.38
931.499	-1.38
932.23	0.62
932.962	-0.38
933.693	1.62
934.424	-0.38
935.155	-1.38
935.886	1.62
936.617	1.62
937.348	0.62
938.078	0.62
938.809	0.62
939.54	1.62
940.27	-0.38
941.001	1.62
941.731	0.62
942.461	0.62
943.191	-1.38
943.922	0.62
944.652	1.62
945.382	-0.38
946.112	-0.38
946.841	-0.38
947.571	-1.38
948.301	-0.38
949.031	1.62
949.76	-0.38
950.49	1.62
951.219	0.62
951.948	-0.38
952.678	1.62
953.407	0.62
954.136	-1.38
954.865	1.62
955.594	0.62
956.323	2.62
957.052	-0.38
957.78	0.62
958.509	-1.38
959.238	0.62
959.966	1.62
960.695	0.62
961.423	-0.38
962.151	2.62
962.88	-1.38
963.608	0.62
964.336	0.62
965.064	-1.38
965.792	-1.38
966.52	-1.38
967.247	0.62
967.975	0.62
968.703	-1.38
969.43	-0.38
970.158	-1.38
970.885	0.62
971.613	0.62
972.34	1.62
973.067	1.62
973.794	1.62
974.521	-1.38
975.248	0.62
975.975	0.62
976.702	1.62
977.429	1.62
978.156	0.62
978.882	-2.38
979.609	1.62
980.335	-1.38
981.062	0.62
981.788	1.62
982.514	-0.38
983.24	-0.38
983.967	0.62
984.693	-1.38
985.419	0.62
986.144	0.62
986.87	0.62
987.596	0.62
988.322	-0.38
989.047	-0.38
989.773	1.62
990.498	0.62
991.224	-1.38
991.949	0.62
992.674	0.62
993.399	-1.38
994.124	2.62
994.849	-1.38
995.574	-1.38
996.299	0.62
997.024	0.62
997.749	-0.38
998.473	0.62
999.198	1.62
999.922	-0.38
1000.647	-1.38
1001.371	3.62
1002.095	-0.38
1002.82	0.62
1003.544	-3.38
1004.268	4.62
1004.992	3.62
1005.716	4.62
1006.439	4.62
1007.163	4.62
1007.887	5.62
1008.611	0.62
1009.334	1.62
1010.058	2.62
1010.781	-1.38
1011.504	0.62
1012.228	0.62
1012.951	-0.38
1013.674	1.62
1014.397	-1.38
1015.12	-0.38
