节点500_705_QEPB04081__475__20-52-37-799.txt的数据

Date: Wed Nov 12 20:52:37 CST 2025
User: PC
Spectrometer: QEPB0408
触发模式: 0
积分时间 (秒): 1.000000E-2
Scans to average: 1
启用暗噪声校正: true
启用非线性校正: false
滑动平均宽度: 0
X轴模式: Wavelengths
Number of Pixels in Spectrum: 1044
>>>>>Begin Spectral Data<<<<<
220.843	4.88
221.644	3.88
222.444	4.88
223.244	3.88
224.045	7.88
224.845	7.88
225.645	6.88
226.445	7.88
227.245	7.88
228.045	8.88
228.845	5.88
229.645	7.88
230.444	7.88
231.244	9.88
232.043	8.88
232.843	6.88
233.642	7.88
234.442	10.88
235.241	6.88
236.04	10.88
236.839	10.88
237.638	9.88
238.437	10.88
239.236	10.88
240.035	9.88
240.833	11.88
241.632	12.88
242.43	13.88
243.229	12.88
244.027	14.88
244.826	12.88
245.624	10.88
246.422	14.88
247.22	14.88
248.018	12.88
248.816	12.88
249.614	11.88
250.412	16.88
251.21	14.88
252.007	16.88
252.805	14.88
253.602	15.88
254.4	17.88
255.197	17.88
255.994	17.88
256.791	17.88
257.589	17.88
258.386	19.88
259.183	19.88
259.979	20.88
260.776	19.88
261.573	23.88
262.37	21.88
263.166	21.88
263.963	23.88
264.759	24.88
265.556	23.88
266.352	22.88
267.148	28.88
267.944	28.88
268.74	26.88
269.536	28.88
270.332	26.88
271.128	32.88
271.924	28.88
272.719	31.88
273.515	28.88
274.311	30.88
275.106	30.88
275.901	28.88
276.697	32.88
277.492	33.88
278.287	31.88
279.082	31.88
279.877	30.88
280.672	30.88
281.467	32.88
282.262	34.88
283.056	31.88
283.851	30.88
284.646	33.88
285.44	33.88
286.234	30.88
287.029	34.88
287.823	32.88
288.617	33.88
289.411	30.88
290.205	30.88
290.999	31.88
291.793	28.88
292.587	32.88
293.381	27.88
294.174	29.88
294.968	28.88
295.761	26.88
296.555	26.88
297.348	25.88
298.141	26.88
298.935	29.88
299.728	24.88
300.521	25.88
301.314	23.88
302.107	24.88
302.899	23.88
303.692	20.88
304.485	19.88
305.277	23.88
306.07	24.88
306.862	22.88
307.655	20.88
308.447	20.88
309.239	23.88
310.031	16.88
310.823	19.88
311.615	17.88
312.407	16.88
313.199	17.88
313.991	20.88
314.783	18.88
315.574	16.88
316.366	17.88
317.157	14.88
317.949	15.88
318.74	14.88
319.531	13.88
320.322	15.88
321.113	15.88
321.904	17.88
322.695	13.88
323.486	14.88
324.277	11.88
325.068	13.88
325.858	14.88
326.649	11.88
327.439	11.88
328.23	11.88
329.02	11.88
329.81	12.88
330.6	12.88
331.391	10.88
332.181	11.88
332.971	9.88
333.76	10.88
334.55	11.88
335.34	11.88
336.13	13.88
336.919	11.88
337.709	10.88
338.498	12.88
339.287	12.88
340.077	7.88
340.866	14.88
341.655	14.88
342.444	11.88
343.233	12.88
344.022	9.88
344.811	11.88
345.6	12.88
346.388	11.88
347.177	10.88
347.965	10.88
348.754	10.88
349.542	13.88
350.33	9.88
351.119	13.88
351.907	11.88
352.695	10.88
353.483	11.88
354.271	9.88
355.059	9.88
355.846	12.88
356.634	11.88
357.422	9.88
358.209	8.88
358.997	8.88
359.784	9.88
360.571	10.88
361.359	9.88
362.146	8.88
362.933	7.88
363.72	10.88
364.507	10.88
365.294	8.88
366.081	7.88
366.867	10.88
367.654	10.88
368.44	10.88
369.227	10.88
370.013	9.88
370.8	7.88
371.586	7.88
372.372	10.88
373.158	8.88
373.944	10.88
374.73	7.88
375.516	10.88
376.302	8.88
377.088	9.88
377.873	8.88
378.659	10.88
379.445	8.88
380.23	8.88
381.015	8.88
381.801	9.88
382.586	8.88
383.371	10.88
384.156	9.88
384.941	10.88
385.726	7.88
386.511	8.88
387.296	9.88
388.08	11.88
388.865	10.88
389.649	8.88
390.434	9.88
391.218	10.88
392.003	9.88
392.787	14.88
393.571	12.88
394.355	12.88
395.139	14.88
395.923	12.88
396.707	7.88
397.491	11.88
398.274	9.88
399.058	10.88
399.842	12.88
400.625	11.88
401.408	15.88
402.192	13.88
402.975	13.88
403.758	14.88
404.541	16.88
405.324	12.88
406.107	12.88
406.89	14.88
407.673	17.88
408.456	13.88
409.238	13.88
410.021	14.88
410.803	13.88
411.586	14.88
412.368	14.88
413.151	17.88
413.933	18.88
414.715	19.88
415.497	18.88
416.279	18.88
417.061	17.88
417.843	20.88
418.624	19.88
419.406	21.88
420.188	21.88
420.969	21.88
421.751	20.88
422.532	22.88
423.313	23.88
424.095	23.88
424.876	21.88
425.657	23.88
426.438	22.88
427.219	23.88
428	23.88
428.78	30.88
429.561	28.88
430.342	30.88
431.122	36.88
431.903	31.88
432.683	32.88
433.464	32.88
434.244	38.88
435.024	40.88
435.804	41.88
436.584	44.88
437.364	44.88
438.144	47.88
438.924	49.88
439.704	52.88
440.483	61.88
441.263	60.88
442.042	64.88
442.822	72.88
443.601	74.88
444.38	78.88
445.16	93.88
445.939	97.88
446.718	103.88
447.497	113.88
448.276	131.88
449.054	134.88
449.833	150.88
450.612	162.88
451.391	179.88
452.169	205.88
452.948	224.88
453.726	259.88
454.504	278.88
455.282	309.88
456.061	341.88
456.839	382.88
457.617	430.88
458.395	476.88
459.172	525.88
459.95	593.88
460.728	661.88
461.506	735.88
462.283	813.88
463.061	895.88
463.838	1002.88
464.615	1124.88
465.393	1237.88
466.17	1367.88
466.947	1536.88
467.724	1687.88
468.501	1873.88
469.278	2052.88
470.055	2280.88
470.831	2510.88
471.608	2766.88
472.385	3026.88
473.161	3316.88
473.938	3650.88
474.714	3993.88
475.49	4396.88
476.266	4794.88
477.043	5191.88
477.819	5694.88
478.595	6209.88
479.371	6730.88
480.146	7316.88
480.922	7986.88
481.698	8666.88
482.473	9424.88
483.249	10237.88
484.024	11108.88
484.8	11949.88
485.575	12942.88
486.35	13998.88
487.126	15122.88
487.901	16328.88
488.676	17579.88
489.451	18911.88
490.225	20318.88
491	21747.88
491.775	23189.88
492.55	24842.88
493.324	26404.88
494.099	28033.88
494.873	29700.88
495.647	31347.88
496.422	33104.88
497.196	34810.88
497.97	36301.88
498.744	37885.88
499.518	39490.88
500.292	40725.88
501.066	41867.88
501.839	42801.88
502.613	43737.88
503.387	44414.88
504.16	44905.88
504.934	45266.88
505.707	45377.88
506.48	45153.88
507.253	44819.88
508.027	44404.88
508.8	43653.88
509.573	42877.88
510.346	41964.88
511.118	41003.88
511.891	39897.88
512.664	38538.88
513.437	37183.88
514.209	35909.88
514.982	34541.88
515.754	33258.88
516.526	32003.88
517.298	30731.88
518.071	29524.88
518.843	28405.88
519.615	27197.88
520.387	26111.88
521.159	25118.88
521.93	24081.88
522.702	23062.88
523.474	22183.88
524.245	21274.88
525.017	20386.88
525.788	19468.88
526.56	18741.88
527.331	17877.88
528.102	17004.88
528.873	16152.88
529.644	15374.88
530.415	14734.88
531.186	14038.88
531.957	13317.88
532.728	12628.88
533.498	11990.88
534.269	11396.88
535.039	10780.88
535.81	10235.88
536.58	9629.88
537.351	9095.88
538.121	8668.88
538.891	8211.88
539.661	7764.88
540.431	7316.88
541.201	6982.88
541.971	6624.88
542.741	6240.88
543.51	5919.88
544.28	5665.88
545.05	5374.88
545.819	5111.88
546.588	4880.88
547.358	4657.88
548.127	4445.88
548.896	4203.88
549.665	4007.88
550.434	3803.88
551.203	3607.88
551.972	3444.88
552.741	3210.88
553.51	3048.88
554.278	2877.88
555.047	2711.88
555.815	2588.88
556.584	2440.88
557.352	2292.88
558.121	2180.88
558.889	2061.88
559.657	1926.88
560.425	1857.88
561.193	1758.88
561.961	1660.88
562.729	1552.88
563.496	1478.88
564.264	1379.88
565.032	1324.88
565.799	1260.88
566.567	1179.88
567.334	1112.88
568.101	1063.88
568.869	1004.88
569.636	957.88
570.403	887.88
571.17	833.88
571.937	792.88
572.704	747.88
573.471	699.88
574.237	667.88
575.004	629.88
575.771	592.88
576.537	554.88
577.303	527.88
578.07	500.88
578.836	465.88
579.602	442.88
580.368	424.88
581.134	404.88
581.9	388.88
582.666	354.88
583.432	343.88
584.198	331.88
584.964	316.88
585.729	296.88
586.495	273.88
587.26	269.88
588.025	249.88
588.791	239.88
589.556	220.88
590.321	213.88
591.086	199.88
591.851	195.88
592.616	184.88
593.381	172.88
594.146	168.88
594.911	158.88
595.675	153.88
596.44	146.88
597.204	135.88
597.969	135.88
598.733	128.88
599.497	123.88
600.261	115.88
601.025	110.88
601.79	108.88
602.553	99.88
603.317	105.88
604.081	90.88
604.845	90.88
605.609	83.88
606.372	83.88
607.136	77.88
607.899	73.88
608.662	71.88
609.426	70.88
610.189	64.88
610.952	69.88
611.715	64.88
612.478	64.88
613.241	58.88
614.004	58.88
614.767	57.88
615.529	51.88
616.292	49.88
617.055	49.88
617.817	47.88
618.579	43.88
619.342	44.88
620.104	41.88
620.866	41.88
621.628	40.88
622.39	36.88
623.152	38.88
623.914	38.88
624.676	35.88
625.438	35.88
626.199	34.88
626.961	30.88
627.722	34.88
628.484	30.88
629.245	29.88
630.006	27.88
630.768	26.88
631.529	23.88
632.29	26.88
633.051	24.88
633.812	22.88
634.573	25.88
635.333	20.88
636.094	25.88
636.855	22.88
637.615	24.88
638.376	19.88
639.136	18.88
639.896	20.88
640.657	16.88
641.417	18.88
642.177	18.88
642.937	18.88
643.697	18.88
644.457	17.88
645.216	17.88
645.976	13.88
646.736	15.88
647.495	16.88
648.255	17.88
649.014	15.88
649.774	12.88
650.533	12.88
651.292	14.88
652.051	15.88
652.81	11.88
653.569	10.88
654.328	10.88
655.087	13.88
655.846	11.88
656.604	13.88
657.363	10.88
658.121	13.88
658.88	9.88
659.638	12.88
660.397	9.88
661.155	13.88
661.913	9.88
662.671	10.88
663.429	10.88
664.187	9.88
664.945	10.88
665.703	7.88
666.46	11.88
667.218	8.88
667.976	7.88
668.733	7.88
669.49	8.88
670.248	9.88
671.005	10.88
671.762	6.88
672.519	9.88
673.276	7.88
674.033	10.88
674.79	9.88
675.547	7.88
676.304	10.88
677.06	8.88
677.817	8.88
678.574	8.88
679.33	7.88
680.086	6.88
680.843	8.88
681.599	8.88
682.355	9.88
683.111	6.88
683.867	8.88
684.623	8.88
685.379	10.88
686.135	8.88
686.89	6.88
687.646	7.88
688.402	8.88
689.157	9.88
689.912	7.88
690.668	5.88
691.423	8.88
692.178	8.88
692.933	7.88
693.688	8.88
694.443	6.88
695.198	6.88
695.953	7.88
696.708	6.88
697.462	8.88
698.217	4.88
698.972	7.88
699.726	7.88
700.48	6.88
701.235	8.88
701.989	6.88
702.743	7.88
703.497	6.88
704.251	6.88
705.005	8.88
705.759	8.88
706.513	7.88
707.266	6.88
708.02	7.88
708.774	7.88
709.527	5.88
710.28	4.88
711.034	6.88
711.787	6.88
712.54	6.88
713.293	5.88
714.046	7.88
714.799	8.88
715.552	5.88
716.305	5.88
717.058	8.88
717.81	8.88
718.563	8.88
719.315	8.88
720.068	7.88
720.82	8.88
721.573	4.88
722.325	8.88
723.077	7.88
723.829	5.88
724.581	9.88
725.333	7.88
726.085	10.88
726.836	10.88
727.588	8.88
728.34	8.88
729.091	3.88
729.843	8.88
730.594	9.88
731.346	8.88
732.097	7.88
732.848	7.88
733.599	6.88
734.35	7.88
735.101	9.88
735.852	7.88
736.603	8.88
737.354	7.88
738.104	9.88
738.855	8.88
739.605	8.88
740.356	9.88
741.106	8.88
741.856	11.88
742.607	10.88
743.357	4.88
744.107	11.88
744.857	10.88
745.607	8.88
746.357	8.88
747.106	8.88
747.856	10.88
748.606	9.88
749.355	10.88
750.105	10.88
750.854	10.88
751.603	11.88
752.353	9.88
753.102	7.88
753.851	9.88
754.6	10.88
755.349	8.88
756.098	11.88
756.847	12.88
757.595	9.88
758.344	11.88
759.093	13.88
759.841	12.88
760.589	9.88
761.338	12.88
762.086	11.88
762.834	8.88
763.582	14.88
764.331	11.88
765.079	13.88
765.826	11.88
766.574	13.88
767.322	14.88
768.07	9.88
768.817	14.88
769.565	13.88
770.312	12.88
771.06	14.88
771.807	11.88
772.554	15.88
773.302	11.88
774.049	13.88
774.796	16.88
775.543	16.88
776.29	14.88
777.036	13.88
777.783	12.88
778.53	15.88
779.276	16.88
780.023	16.88
780.769	14.88
781.516	14.88
782.262	14.88
783.008	14.88
783.754	17.88
784.5	17.88
785.246	16.88
785.992	14.88
786.738	15.88
787.484	14.88
788.23	15.88
788.975	13.88
789.721	14.88
790.466	16.88
791.212	14.88
791.957	13.88
792.702	14.88
793.447	14.88
794.193	14.88
794.938	10.88
795.683	13.88
796.427	11.88
797.172	11.88
797.917	10.88
798.662	12.88
799.406	14.88
800.151	11.88
800.895	9.88
801.64	13.88
802.384	12.88
803.128	10.88
803.872	10.88
804.616	10.88
805.36	10.88
806.104	7.88
806.848	11.88
807.592	9.88
808.336	8.88
809.079	10.88
809.823	8.88
810.566	12.88
811.31	8.88
812.053	5.88
812.796	7.88
813.539	7.88
814.283	9.88
815.026	7.88
815.769	8.88
816.511	5.88
817.254	6.88
817.997	8.88
818.74	6.88
819.482	8.88
820.225	6.88
820.967	4.88
821.71	7.88
822.452	6.88
823.194	5.88
823.936	8.88
824.678	6.88
825.42	7.88
826.162	8.88
826.904	6.88
827.646	8.88
828.388	7.88
829.129	7.88
829.871	6.88
830.612	7.88
831.354	6.88
832.095	7.88
832.836	6.88
833.577	5.88
834.319	5.88
835.06	6.88
835.801	4.88
836.542	6.88
837.282	5.88
838.023	4.88
838.764	6.88
839.504	5.88
840.245	5.88
840.985	3.88
841.726	5.88
842.466	4.88
843.206	5.88
843.946	5.88
844.687	4.88
845.427	4.88
846.166	4.88
846.906	4.88
847.646	3.88
848.386	3.88
849.125	5.88
849.865	6.88
850.605	2.88
851.344	4.88
852.083	5.88
852.823	3.88
853.562	3.88
854.301	5.88
855.04	3.88
855.779	2.88
856.518	3.88
857.257	2.88
857.995	4.88
858.734	1.88
859.473	2.88
860.211	3.88
860.95	3.88
861.688	2.88
862.426	2.88
863.165	3.88
863.903	2.88
864.641	2.88
865.379	2.88
866.117	-0.12
866.855	1.88
867.593	2.88
868.33	4.88
869.068	2.88
869.806	1.88
870.543	2.88
871.28	0.88
872.018	2.88
872.755	1.88
873.492	2.88
874.229	0.88
874.967	0.88
875.703	1.88
876.44	2.88
877.177	1.88
877.914	0.88
878.651	1.88
879.387	1.88
880.124	0.88
880.86	0.88
881.597	-0.12
882.333	2.88
883.069	-0.12
883.806	2.88
884.542	1.88
885.278	1.88
886.014	2.88
886.749	0.88
887.485	0.88
888.221	2.88
888.957	-0.12
889.692	1.88
890.428	-1.12
891.163	1.88
891.899	-1.12
892.634	1.88
893.369	0.88
894.104	2.88
894.839	0.88
895.574	0.88
896.309	1.88
897.044	1.88
897.779	0.88
898.514	2.88
899.248	0.88
899.983	3.88
900.717	0.88
901.452	0.88
902.186	1.88
902.92	-1.12
903.654	2.88
904.389	-1.12
905.123	1.88
905.857	1.88
906.59	1.88
907.324	0.88
908.058	-1.12
908.792	0.88
909.525	-0.12
910.259	0.88
910.992	-0.12
911.726	-1.12
912.459	0.88
913.192	0.88
913.925	0.88
914.658	2.88
915.391	-0.12
916.124	1.88
916.857	-0.12
917.59	1.88
918.323	-0.12
919.055	1.88
919.788	1.88
920.521	1.88
921.253	-1.12
921.985	0.88
922.718	-1.12
923.45	-0.12
924.182	-1.12
924.914	0.88
925.646	0.88
926.378	1.88
927.11	-2.12
927.841	0.88
928.573	-0.12
929.305	0.88
930.036	0.88
930.768	1.88
931.499	0.88
932.23	-1.12
932.962	-0.12
933.693	1.88
934.424	0.88
935.155	1.88
935.886	-1.12
936.617	-1.12
937.348	-0.12
938.078	2.88
938.809	0.88
939.54	-0.12
940.27	-0.12
941.001	-2.12
941.731	1.88
942.461	-0.12
943.191	2.88
943.922	-1.12
944.652	-1.12
945.382	2.88
946.112	-1.12
946.841	0.88
947.571	1.88
948.301	1.88
949.031	0.88
949.76	-2.12
950.49	1.88
951.219	0.88
951.948	0.88
952.678	0.88
953.407	0.88
954.136	0.88
954.865	-0.12
955.594	-1.12
956.323	1.88
957.052	-0.12
957.78	0.88
958.509	1.88
959.238	-0.12
959.966	-0.12
960.695	0.88
961.423	-0.12
962.151	-2.12
962.88	1.88
963.608	-0.12
964.336	-1.12
965.064	-0.12
965.792	-1.12
966.52	-0.12
967.247	-2.12
967.975	2.88
968.703	-0.12
969.43	0.88
970.158	1.88
970.885	-1.12
971.613	0.88
972.34	-0.12
973.067	-0.12
973.794	-0.12
974.521	-0.12
975.248	-2.12
975.975	-0.12
976.702	0.88
977.429	-1.12
978.156	1.88
978.882	-0.12
979.609	-2.12
980.335	0.88
981.062	-1.12
981.788	1.88
982.514	-1.12
983.24	-0.12
983.967	-1.12
984.693	1.88
985.419	-0.12
986.144	-0.12
986.87	0.88
987.596	-1.12
988.322	0.88
989.047	-0.12
989.773	0.88
990.498	1.88
991.224	-1.12
991.949	-1.12
992.674	0.88
993.399	0.88
994.124	-0.12
994.849	-1.12
995.574	0.88
996.299	-0.12
997.024	0.88
997.749	-0.12
998.473	-1.12
999.198	0.88
999.922	-1.12
1000.647	-0.12
1001.371	2.88
1002.095	-1.12
1002.82	-1.12
1003.544	-3.12
1004.268	3.88
1004.992	3.88
1005.716	1.88
1006.439	5.88
1007.163	5.88
1007.887	8.88
1008.611	0.88
1009.334	-0.12
1010.058	0.88
1010.781	-0.12
1011.504	0.88
1012.228	-0.12
1012.951	1.88
1013.674	0.88
1014.397	-1.12
1015.12	0.88
