节点500_705_QEPB04081__348__20-50-52-589.txt的数据

Date: Wed Nov 12 20:50:52 CST 2025
User: PC
Spectrometer: QEPB0408
触发模式: 0
积分时间 (秒): 1.000000E-2
Scans to average: 1
启用暗噪声校正: true
启用非线性校正: false
滑动平均宽度: 0
X轴模式: Wavelengths
Number of Pixels in Spectrum: 1044
>>>>>Begin Spectral Data<<<<<
220.843	3.38
221.644	5.38
222.444	5.38
223.244	4.38
224.045	7.38
224.845	5.38
225.645	5.38
226.445	4.38
227.245	9.38
228.045	7.38
228.845	6.38
229.645	8.38
230.444	7.38
231.244	9.38
232.043	7.38
232.843	5.38
233.642	9.38
234.442	8.38
235.241	10.38
236.04	7.38
236.839	9.38
237.638	11.38
238.437	9.38
239.236	11.38
240.035	9.38
240.833	11.38
241.632	11.38
242.43	12.38
243.229	13.38
244.027	10.38
244.826	12.38
245.624	11.38
246.422	12.38
247.22	14.38
248.018	12.38
248.816	13.38
249.614	14.38
250.412	14.38
251.21	14.38
252.007	16.38
252.805	14.38
253.602	16.38
254.4	16.38
255.197	16.38
255.994	15.38
256.791	20.38
257.589	19.38
258.386	20.38
259.183	20.38
259.979	24.38
260.776	23.38
261.573	25.38
262.37	24.38
263.166	20.38
263.963	24.38
264.759	25.38
265.556	29.38
266.352	27.38
267.148	24.38
267.944	27.38
268.74	28.38
269.536	33.38
270.332	31.38
271.128	30.38
271.924	28.38
272.719	29.38
273.515	31.38
274.311	29.38
275.106	33.38
275.901	33.38
276.697	33.38
277.492	30.38
278.287	32.38
279.082	37.38
279.877	33.38
280.672	32.38
281.467	32.38
282.262	33.38
283.056	32.38
283.851	31.38
284.646	33.38
285.44	34.38
286.234	33.38
287.029	33.38
287.823	33.38
288.617	32.38
289.411	32.38
290.205	32.38
290.999	29.38
291.793	28.38
292.587	31.38
293.381	29.38
294.174	29.38
294.968	31.38
295.761	30.38
296.555	28.38
297.348	24.38
298.141	29.38
298.935	28.38
299.728	26.38
300.521	25.38
301.314	23.38
302.107	25.38
302.899	22.38
303.692	21.38
304.485	21.38
305.277	21.38
306.07	23.38
306.862	24.38
307.655	20.38
308.447	20.38
309.239	20.38
310.031	20.38
310.823	18.38
311.615	17.38
312.407	17.38
313.199	16.38
313.991	16.38
314.783	17.38
315.574	16.38
316.366	14.38
317.157	17.38
317.949	11.38
318.74	15.38
319.531	12.38
320.322	13.38
321.113	12.38
321.904	13.38
322.695	10.38
323.486	12.38
324.277	12.38
325.068	11.38
325.858	15.38
326.649	12.38
327.439	13.38
328.23	13.38
329.02	11.38
329.81	12.38
330.6	14.38
331.391	12.38
332.181	13.38
332.971	8.38
333.76	11.38
334.55	11.38
335.34	11.38
336.13	12.38
336.919	10.38
337.709	12.38
338.498	12.38
339.287	10.38
340.077	11.38
340.866	7.38
341.655	9.38
342.444	11.38
343.233	12.38
344.022	11.38
344.811	9.38
345.6	10.38
346.388	9.38
347.177	13.38
347.965	12.38
348.754	9.38
349.542	10.38
350.33	8.38
351.119	9.38
351.907	9.38
352.695	9.38
353.483	10.38
354.271	11.38
355.059	12.38
355.846	9.38
356.634	9.38
357.422	8.38
358.209	10.38
358.997	10.38
359.784	9.38
360.571	7.38
361.359	8.38
362.146	10.38
362.933	9.38
363.72	9.38
364.507	9.38
365.294	7.38
366.081	11.38
366.867	10.38
367.654	9.38
368.44	11.38
369.227	8.38
370.013	8.38
370.8	8.38
371.586	9.38
372.372	11.38
373.158	8.38
373.944	6.38
374.73	9.38
375.516	10.38
376.302	7.38
377.088	7.38
377.873	9.38
378.659	8.38
379.445	9.38
380.23	8.38
381.015	10.38
381.801	9.38
382.586	10.38
383.371	9.38
384.156	9.38
384.941	10.38
385.726	8.38
386.511	12.38
387.296	8.38
388.08	9.38
388.865	9.38
389.649	11.38
390.434	9.38
391.218	12.38
392.003	9.38
392.787	10.38
393.571	10.38
394.355	11.38
395.139	8.38
395.923	12.38
396.707	12.38
397.491	11.38
398.274	14.38
399.058	12.38
399.842	11.38
400.625	14.38
401.408	14.38
402.192	12.38
402.975	13.38
403.758	16.38
404.541	10.38
405.324	16.38
406.107	15.38
406.89	17.38
407.673	15.38
408.456	13.38
409.238	15.38
410.021	15.38
410.803	16.38
411.586	17.38
412.368	13.38
413.151	15.38
413.933	16.38
414.715	16.38
415.497	17.38
416.279	19.38
417.061	20.38
417.843	17.38
418.624	18.38
419.406	19.38
420.188	19.38
420.969	20.38
421.751	19.38
422.532	24.38
423.313	22.38
424.095	22.38
424.876	22.38
425.657	24.38
426.438	24.38
427.219	26.38
428	28.38
428.78	28.38
429.561	28.38
430.342	29.38
431.122	27.38
431.903	30.38
432.683	32.38
433.464	34.38
434.244	37.38
435.024	42.38
435.804	42.38
436.584	40.38
437.364	47.38
438.144	44.38
438.924	53.38
439.704	55.38
440.483	55.38
441.263	62.38
442.042	62.38
442.822	69.38
443.601	73.38
444.38	84.38
445.16	89.38
445.939	92.38
446.718	109.38
447.497	113.38
448.276	126.38
449.054	138.38
449.833	145.38
450.612	164.38
451.391	178.38
452.169	205.38
452.948	208.38
453.726	241.38
454.504	271.38
455.282	298.38
456.061	329.38
456.839	371.38
457.617	422.38
458.395	461.38
459.172	517.38
459.95	575.38
460.728	634.38
461.506	708.38
462.283	791.38
463.061	880.38
463.838	986.38
464.615	1091.38
465.393	1220.38
466.17	1351.38
466.947	1505.38
467.724	1684.38
468.501	1847.38
469.278	2053.38
470.055	2266.38
470.831	2525.38
471.608	2755.38
472.385	3052.38
473.161	3367.38
473.938	3688.38
474.714	4047.38
475.49	4436.38
476.266	4875.38
477.043	5318.38
477.819	5806.38
478.595	6352.38
479.371	6940.38
480.146	7530.38
480.922	8263.38
481.698	8986.38
482.473	9824.38
483.249	10680.38
484.024	11559.38
484.8	12503.38
485.575	13535.38
486.35	14721.38
487.126	15900.38
487.901	17147.38
488.676	18605.38
489.451	20000.38
490.225	21546.38
491	23066.38
491.775	24686.38
492.55	26348.38
493.324	28076.38
494.099	29864.38
494.873	31625.38
495.647	33392.38
496.422	35185.38
497.196	36913.38
497.97	38552.38
498.744	40034.38
499.518	41676.38
500.292	43050.38
501.066	44099.38
501.839	44931.38
502.613	45751.38
503.387	46502.38
504.16	46900.38
504.934	47016.38
505.707	46892.38
506.48	46641.38
507.253	46225.38
508.027	45510.38
508.8	44554.38
509.573	43565.38
510.346	42461.38
511.118	41479.38
511.891	40295.38
512.664	38769.38
513.437	37323.38
514.209	35929.38
514.982	34623.38
515.754	33249.38
516.526	31741.38
517.298	30525.38
518.071	29370.38
518.843	28182.38
519.615	27099.38
520.387	25967.38
521.159	24990.38
521.93	23906.38
522.702	22889.38
523.474	21976.38
524.245	21020.38
525.017	20096.38
525.788	19258.38
526.56	18428.38
527.331	17698.38
528.102	16666.38
528.873	15869.38
529.644	15171.38
530.415	14476.38
531.186	13790.38
531.957	13020.38
532.728	12371.38
533.498	11747.38
534.269	11112.38
535.039	10525.38
535.81	9935.38
536.58	9407.38
537.351	8917.38
538.121	8415.38
538.891	7986.38
539.661	7551.38
540.431	7149.38
541.201	6800.38
541.971	6439.38
542.741	6058.38
543.51	5769.38
544.28	5488.38
545.05	5246.38
545.819	4983.38
546.588	4747.38
547.358	4528.38
548.127	4320.38
548.896	4122.38
549.665	3876.38
550.434	3693.38
551.203	3499.38
551.972	3293.38
552.741	3135.38
553.51	2945.38
554.278	2784.38
555.047	2631.38
555.815	2491.38
556.584	2347.38
557.352	2235.38
558.121	2081.38
558.889	1977.38
559.657	1877.38
560.425	1785.38
561.193	1679.38
561.961	1603.38
562.729	1520.38
563.496	1420.38
564.264	1339.38
565.032	1271.38
565.799	1211.38
566.567	1136.38
567.334	1066.38
568.101	1016.38
568.869	955.38
569.636	912.38
570.403	854.38
571.17	803.38
571.937	761.38
572.704	721.38
573.471	684.38
574.237	627.38
575.004	604.38
575.771	571.38
576.537	535.38
577.303	510.38
578.07	486.38
578.836	453.38
579.602	425.38
580.368	410.38
581.134	389.38
581.9	373.38
582.666	351.38
583.432	329.38
584.198	310.38
584.964	300.38
585.729	288.38
586.495	268.38
587.26	253.38
588.025	243.38
588.791	224.38
589.556	213.38
590.321	200.38
591.086	200.38
591.851	185.38
592.616	179.38
593.381	168.38
594.146	157.38
594.911	153.38
595.675	146.38
596.44	142.38
597.204	135.38
597.969	129.38
598.733	123.38
599.497	117.38
600.261	109.38
601.025	109.38
601.79	106.38
602.553	97.38
603.317	91.38
604.081	92.38
604.845	84.38
605.609	85.38
606.372	82.38
607.136	74.38
607.899	75.38
608.662	69.38
609.426	68.38
610.189	66.38
610.952	59.38
611.715	65.38
612.478	62.38
613.241	55.38
614.004	53.38
614.767	50.38
615.529	53.38
616.292	47.38
617.055	51.38
617.817	43.38
618.579	44.38
619.342	44.38
620.104	42.38
620.866	43.38
621.628	38.38
622.39	40.38
623.152	38.38
623.914	33.38
624.676	34.38
625.438	32.38
626.199	34.38
626.961	30.38
627.722	29.38
628.484	31.38
629.245	29.38
630.006	29.38
630.768	26.38
631.529	27.38
632.29	26.38
633.051	22.38
633.812	25.38
634.573	24.38
635.333	23.38
636.094	21.38
636.855	19.38
637.615	19.38
638.376	21.38
639.136	22.38
639.896	17.38
640.657	16.38
641.417	15.38
642.177	15.38
642.937	18.38
643.697	17.38
644.457	17.38
645.216	14.38
645.976	17.38
646.736	12.38
647.495	15.38
648.255	15.38
649.014	13.38
649.774	14.38
650.533	14.38
651.292	14.38
652.051	10.38
652.81	15.38
653.569	15.38
654.328	8.38
655.087	14.38
655.846	13.38
656.604	12.38
657.363	13.38
658.121	12.38
658.88	9.38
659.638	11.38
660.397	9.38
661.155	9.38
661.913	10.38
662.671	11.38
663.429	7.38
664.187	12.38
664.945	9.38
665.703	8.38
666.46	9.38
667.218	10.38
667.976	9.38
668.733	9.38
669.49	9.38
670.248	8.38
671.005	10.38
671.762	8.38
672.519	7.38
673.276	7.38
674.033	9.38
674.79	9.38
675.547	7.38
676.304	6.38
677.06	9.38
677.817	9.38
678.574	8.38
679.33	5.38
680.086	7.38
680.843	8.38
681.599	8.38
682.355	9.38
683.111	8.38
683.867	6.38
684.623	7.38
685.379	7.38
686.135	7.38
686.89	8.38
687.646	9.38
688.402	7.38
689.157	6.38
689.912	6.38
690.668	7.38
691.423	8.38
692.178	7.38
692.933	9.38
693.688	7.38
694.443	6.38
695.198	8.38
695.953	5.38
696.708	8.38
697.462	5.38
698.217	7.38
698.972	8.38
699.726	8.38
700.48	7.38
701.235	5.38
701.989	4.38
702.743	7.38
703.497	8.38
704.251	8.38
705.005	5.38
705.759	6.38
706.513	7.38
707.266	6.38
708.02	7.38
708.774	7.38
709.527	9.38
710.28	6.38
711.034	5.38
711.787	4.38
712.54	5.38
713.293	6.38
714.046	7.38
714.799	7.38
715.552	7.38
716.305	5.38
717.058	6.38
717.81	8.38
718.563	8.38
719.315	6.38
720.068	8.38
720.82	8.38
721.573	10.38
722.325	5.38
723.077	7.38
723.829	8.38
724.581	7.38
725.333	7.38
726.085	8.38
726.836	6.38
727.588	7.38
728.34	7.38
729.091	8.38
729.843	5.38
730.594	7.38
731.346	7.38
732.097	8.38
732.848	10.38
733.599	8.38
734.35	7.38
735.101	8.38
735.852	8.38
736.603	7.38
737.354	6.38
738.104	7.38
738.855	9.38
739.605	9.38
740.356	8.38
741.106	10.38
741.856	12.38
742.607	10.38
743.357	9.38
744.107	7.38
744.857	9.38
745.607	9.38
746.357	9.38
747.106	12.38
747.856	8.38
748.606	9.38
749.355	10.38
750.105	7.38
750.854	9.38
751.603	11.38
752.353	12.38
753.102	12.38
753.851	9.38
754.6	14.38
755.349	11.38
756.098	12.38
756.847	10.38
757.595	11.38
758.344	14.38
759.093	11.38
759.841	12.38
760.589	10.38
761.338	14.38
762.086	14.38
762.834	11.38
763.582	13.38
764.331	13.38
765.079	14.38
765.826	14.38
766.574	14.38
767.322	13.38
768.07	12.38
768.817	15.38
769.565	13.38
770.312	12.38
771.06	12.38
771.807	13.38
772.554	16.38
773.302	14.38
774.049	14.38
774.796	12.38
775.543	15.38
776.29	15.38
777.036	18.38
777.783	14.38
778.53	17.38
779.276	15.38
780.023	16.38
780.769	14.38
781.516	16.38
782.262	14.38
783.008	15.38
783.754	12.38
784.5	14.38
785.246	16.38
785.992	14.38
786.738	18.38
787.484	12.38
788.23	15.38
788.975	15.38
789.721	17.38
790.466	12.38
791.212	14.38
791.957	13.38
792.702	14.38
793.447	14.38
794.193	12.38
794.938	12.38
795.683	14.38
796.427	13.38
797.172	14.38
797.917	11.38
798.662	12.38
799.406	14.38
800.151	11.38
800.895	11.38
801.64	11.38
802.384	12.38
803.128	10.38
803.872	11.38
804.616	12.38
805.36	11.38
806.104	10.38
806.848	10.38
807.592	10.38
808.336	12.38
809.079	8.38
809.823	7.38
810.566	9.38
811.31	9.38
812.053	7.38
812.796	9.38
813.539	11.38
814.283	8.38
815.026	10.38
815.769	8.38
816.511	8.38
817.254	8.38
817.997	9.38
818.74	7.38
819.482	8.38
820.225	8.38
820.967	7.38
821.71	8.38
822.452	4.38
823.194	7.38
823.936	6.38
824.678	4.38
825.42	7.38
826.162	4.38
826.904	7.38
827.646	6.38
828.388	8.38
829.129	3.38
829.871	7.38
830.612	7.38
831.354	6.38
832.095	6.38
832.836	3.38
833.577	5.38
834.319	7.38
835.06	4.38
835.801	7.38
836.542	4.38
837.282	6.38
838.023	4.38
838.764	6.38
839.504	5.38
840.245	5.38
840.985	6.38
841.726	4.38
842.466	4.38
843.206	6.38
843.946	3.38
844.687	4.38
845.427	4.38
846.166	5.38
846.906	2.38
847.646	3.38
848.386	5.38
849.125	4.38
849.865	7.38
850.605	4.38
851.344	4.38
852.083	6.38
852.823	5.38
853.562	4.38
854.301	4.38
855.04	3.38
855.779	2.38
856.518	3.38
857.257	3.38
857.995	4.38
858.734	3.38
859.473	1.38
860.211	3.38
860.95	3.38
861.688	3.38
862.426	2.38
863.165	3.38
863.903	3.38
864.641	3.38
865.379	2.38
866.117	0.38
866.855	1.38
867.593	1.38
868.33	2.38
869.068	0.38
869.806	1.38
870.543	1.38
871.28	2.38
872.018	1.38
872.755	1.38
873.492	-0.62
874.229	1.38
874.967	3.38
875.703	0.38
876.44	2.38
877.177	1.38
877.914	1.38
878.651	1.38
879.387	0.38
880.124	-1.62
880.86	1.38
881.597	1.38
882.333	-0.62
883.069	0.38
883.806	0.38
884.542	0.38
885.278	1.38
886.014	0.38
886.749	-1.62
887.485	0.38
888.221	-0.62
888.957	2.38
889.692	2.38
890.428	2.38
891.163	2.38
891.899	1.38
892.634	1.38
893.369	-0.62
894.104	1.38
894.839	0.38
895.574	1.38
896.309	1.38
897.044	1.38
897.779	-0.62
898.514	-1.62
899.248	0.38
899.983	2.38
900.717	-1.62
901.452	0.38
902.186	0.38
902.92	0.38
903.654	-2.62
904.389	1.38
905.123	0.38
905.857	-1.62
906.59	0.38
907.324	-0.62
908.058	0.38
908.792	1.38
909.525	0.38
910.259	-0.62
910.992	0.38
911.726	-0.62
912.459	-2.62
913.192	0.38
913.925	1.38
914.658	0.38
915.391	-0.62
916.124	-0.62
916.857	1.38
917.59	-0.62
918.323	-2.62
919.055	-1.62
919.788	-1.62
920.521	0.38
921.253	-1.62
921.985	-0.62
922.718	0.38
923.45	0.38
924.182	2.38
924.914	-0.62
925.646	1.38
926.378	0.38
927.11	0.38
927.841	-0.62
928.573	1.38
929.305	0.38
930.036	1.38
930.768	0.38
931.499	-1.62
932.23	0.38
932.962	-0.62
933.693	0.38
934.424	1.38
935.155	0.38
935.886	-0.62
936.617	0.38
937.348	-0.62
938.078	1.38
938.809	-1.62
939.54	2.38
940.27	1.38
941.001	-0.62
941.731	0.38
942.461	-3.62
943.191	0.38
943.922	-1.62
944.652	-1.62
945.382	1.38
946.112	-0.62
946.841	-0.62
947.571	-1.62
948.301	1.38
949.031	-0.62
949.76	0.38
950.49	0.38
951.219	-0.62
951.948	-0.62
952.678	-0.62
953.407	0.38
954.136	-1.62
954.865	-1.62
955.594	1.38
956.323	-0.62
957.052	1.38
957.78	-0.62
958.509	0.38
959.238	-1.62
959.966	-1.62
960.695	0.38
961.423	1.38
962.151	0.38
962.88	-1.62
963.608	-0.62
964.336	1.38
965.064	-0.62
965.792	1.38
966.52	0.38
967.247	1.38
967.975	1.38
968.703	1.38
969.43	3.38
970.158	0.38
970.885	-0.62
971.613	1.38
972.34	-0.62
973.067	-0.62
973.794	-0.62
974.521	0.38
975.248	-0.62
975.975	0.38
976.702	0.38
977.429	-1.62
978.156	-0.62
978.882	0.38
979.609	-0.62
980.335	0.38
981.062	-0.62
981.788	0.38
982.514	-0.62
983.24	-0.62
983.967	-0.62
984.693	1.38
985.419	1.38
986.144	-0.62
986.87	1.38
987.596	-0.62
988.322	0.38
989.047	0.38
989.773	1.38
990.498	1.38
991.224	-0.62
991.949	-0.62
992.674	-3.62
993.399	0.38
994.124	0.38
994.849	-1.62
995.574	-1.62
996.299	1.38
997.024	0.38
997.749	-1.62
998.473	-1.62
999.198	-0.62
999.922	1.38
1000.647	0.38
1001.371	4.38
1002.095	-1.62
1002.82	-1.62
1003.544	-2.62
1004.268	5.38
1004.992	2.38
1005.716	4.38
1006.439	3.38
1007.163	4.38
1007.887	7.38
1008.611	-1.62
1009.334	0.38
1010.058	-0.62
1010.781	0.38
1011.504	0.38
1012.228	-0.62
1012.951	-0.62
1013.674	1.38
1014.397	0.38
1015.12	0.38
