节点500_705_QEPB04081__18__20-46-11-353.txt的数据

Date: Wed Nov 12 20:46:11 CST 2025
User: PC
Spectrometer: QEPB0408
触发模式: 0
积分时间 (秒): 1.000000E-2
Scans to average: 1
启用暗噪声校正: true
启用非线性校正: false
滑动平均宽度: 0
X轴模式: Wavelengths
Number of Pixels in Spectrum: 1044
>>>>>Begin Spectral Data<<<<<
220.843	5
221.644	7
222.444	6
223.244	10
224.045	6
224.845	6
225.645	6
226.445	10
227.245	9
228.045	7
228.845	11
229.645	7
230.444	10
231.244	8
232.043	11
232.843	9
233.642	9
234.442	10
235.241	10
236.04	12
236.839	11
237.638	12
238.437	12
239.236	14
240.035	10
240.833	12
241.632	14
242.43	14
243.229	15
244.027	13
244.826	14
245.624	15
246.422	17
247.22	15
248.018	17
248.816	16
249.614	19
250.412	21
251.21	16
252.007	16
252.805	21
253.602	19
254.4	21
255.197	23
255.994	19
256.791	20
257.589	22
258.386	24
259.183	26
259.979	25
260.776	24
261.573	26
262.37	28
263.166	30
263.963	29
264.759	30
265.556	28
266.352	31
267.148	34
267.944	33
268.74	32
269.536	36
270.332	36
271.128	37
271.924	33
272.719	34
273.515	39
274.311	39
275.106	39
275.901	35
276.697	36
277.492	41
278.287	36
279.082	36
279.877	42
280.672	40
281.467	36
282.262	38
283.056	35
283.851	39
284.646	38
285.44	36
286.234	37
287.029	35
287.823	37
288.617	35
289.411	35
290.205	34
290.999	33
291.793	35
292.587	30
293.381	34
294.174	33
294.968	31
295.761	28
296.555	27
297.348	26
298.141	26
298.935	31
299.728	27
300.521	25
301.314	23
302.107	24
302.899	24
303.692	24
304.485	23
305.277	22
306.07	22
306.862	24
307.655	19
308.447	22
309.239	22
310.031	20
310.823	19
311.615	18
312.407	19
313.199	19
313.991	15
314.783	18
315.574	18
316.366	14
317.157	15
317.949	15
318.74	15
319.531	16
320.322	15
321.113	15
321.904	17
322.695	16
323.486	15
324.277	13
325.068	13
325.858	14
326.649	15
327.439	14
328.23	14
329.02	13
329.81	14
330.6	13
331.391	11
332.181	12
332.971	14
333.76	14
334.55	12
335.34	13
336.13	14
336.919	13
337.709	11
338.498	14
339.287	15
340.077	12
340.866	11
341.655	11
342.444	11
343.233	12
344.022	14
344.811	12
345.6	10
346.388	13
347.177	10
347.965	11
348.754	14
349.542	12
350.33	11
351.119	11
351.907	8
352.695	11
353.483	11
354.271	14
355.059	12
355.846	12
356.634	10
357.422	13
358.209	10
358.997	10
359.784	10
360.571	13
361.359	11
362.146	10
362.933	10
363.72	10
364.507	12
365.294	12
366.081	7
366.867	12
367.654	8
368.44	11
369.227	12
370.013	9
370.8	9
371.586	9
372.372	12
373.158	6
373.944	12
374.73	10
375.516	7
376.302	11
377.088	11
377.873	13
378.659	9
379.445	10
380.23	9
381.015	10
381.801	12
382.586	10
383.371	9
384.156	11
384.941	9
385.726	11
386.511	11
387.296	13
388.08	15
388.865	14
389.649	12
390.434	14
391.218	12
392.003	11
392.787	13
393.571	14
394.355	13
395.139	14
395.923	13
396.707	15
397.491	12
398.274	12
399.058	14
399.842	15
400.625	16
401.408	15
402.192	16
402.975	16
403.758	15
404.541	15
405.324	16
406.107	19
406.89	15
407.673	16
408.456	18
409.238	16
410.021	17
410.803	15
411.586	19
412.368	19
413.151	19
413.933	18
414.715	20
415.497	19
416.279	15
417.061	20
417.843	20
418.624	18
419.406	22
420.188	22
420.969	24
421.751	23
422.532	23
423.313	26
424.095	23
424.876	26
425.657	26
426.438	26
427.219	27
428	28
428.78	31
429.561	31
430.342	32
431.122	30
431.903	34
432.683	37
433.464	36
434.244	35
435.024	39
435.804	43
436.584	42
437.364	45
438.144	48
438.924	50
439.704	58
440.483	57
441.263	58
442.042	63
442.822	64
443.601	72
444.38	75
445.16	86
445.939	90
446.718	98
447.497	105
448.276	117
449.054	126
449.833	137
450.612	145
451.391	163
452.169	182
452.948	199
453.726	223
454.504	252
455.282	278
456.061	312
456.839	339
457.617	377
458.395	418
459.172	463
459.95	520
460.728	589
461.506	663
462.283	729
463.061	829
463.838	929
464.615	1034
465.393	1159
466.17	1278
466.947	1447
467.724	1602
468.501	1787
469.278	2001
470.055	2202
470.831	2463
471.608	2721
472.385	3020
473.161	3354
473.938	3702
474.714	4106
475.49	4530
476.266	5001
477.043	5494
477.819	6090
478.595	6647
479.371	7355
480.146	8050
480.922	8846
481.698	9711
482.473	10694
483.249	11632
484.024	12733
484.8	13909
485.575	15126
486.35	16432
487.126	17937
487.901	19437
488.676	21087
489.451	22823
490.225	24668
491	26464
491.775	28351
492.55	30400
493.324	32386
494.099	34389
494.873	36491
495.647	38454
496.422	40477
497.196	42452
497.97	44165
498.744	45747
499.518	47225
500.292	48551
501.066	49379
501.839	50076
502.613	50669
503.387	51010
504.16	51087
504.934	50816
505.707	50349
506.48	49485
507.253	48640
508.027	47571
508.8	46241
509.573	44775
510.346	43402
511.118	41970
511.891	40357
512.664	38746
513.437	37153
514.209	35622
514.982	34071
515.754	32618
516.526	31300
517.298	30047
518.071	28739
518.843	27540
519.615	26374
520.387	25327
521.159	24413
521.93	23248
522.702	22326
523.474	21361
524.245	20428
525.017	19519
525.788	18610
526.56	17784
527.331	16938
528.102	16052
528.873	15203
529.644	14454
530.415	13719
531.186	13075
531.957	12346
532.728	11656
533.498	11046
534.269	10418
535.039	9790
535.81	9315
536.58	8749
537.351	8313
538.121	7865
538.891	7484
539.661	7065
540.431	6671
541.201	6335
541.971	5989
542.741	5679
543.51	5373
544.28	5124
545.05	4892
545.819	4658
546.588	4448
547.358	4214
548.127	3991
548.896	3789
549.665	3580
550.434	3383
551.203	3235
551.972	3054
552.741	2876
553.51	2719
554.278	2548
555.047	2400
555.815	2273
556.584	2161
557.352	2037
558.121	1934
558.889	1825
559.657	1721
560.425	1632
561.193	1544
561.961	1466
562.729	1371
563.496	1302
564.264	1222
565.032	1156
565.799	1099
566.567	1042
567.334	983
568.101	933
568.869	872
569.636	826
570.403	783
571.17	752
571.937	688
572.704	663
573.471	635
574.237	578
575.004	557
575.771	520
576.537	492
577.303	465
578.07	445
578.836	413
579.602	391
580.368	374
581.134	358
581.9	337
582.666	321
583.432	310
584.198	291
584.964	269
585.729	261
586.495	255
587.26	232
588.025	227
588.791	211
589.556	201
590.321	191
591.086	177
591.851	173
592.616	158
593.381	154
594.146	148
594.911	144
595.675	133
596.44	131
597.204	126
597.969	114
598.733	113
599.497	110
600.261	102
601.025	99
601.79	97
602.553	92
603.317	86
604.081	85
604.845	84
605.609	78
606.372	75
607.136	73
607.899	68
608.662	67
609.426	63
610.189	59
610.952	61
611.715	55
612.478	56
613.241	54
614.004	52
614.767	51
615.529	50
616.292	50
617.055	46
617.817	45
618.579	41
619.342	47
620.104	43
620.866	38
621.628	38
622.39	35
623.152	33
623.914	35
624.676	33
625.438	33
626.199	31
626.961	29
627.722	31
628.484	27
629.245	26
630.006	26
630.768	24
631.529	27
632.29	26
633.051	24
633.812	24
634.573	19
635.333	23
636.094	22
636.855	18
637.615	22
638.376	19
639.136	20
639.896	18
640.657	24
641.417	21
642.177	20
642.937	17
643.697	16
644.457	16
645.216	17
645.976	17
646.736	13
647.495	19
648.255	15
649.014	15
649.774	17
650.533	11
651.292	14
652.051	13
652.81	12
653.569	14
654.328	12
655.087	16
655.846	14
656.604	15
657.363	11
658.121	13
658.88	14
659.638	9
660.397	14
661.155	11
661.913	11
662.671	12
663.429	13
664.187	10
664.945	10
665.703	10
666.46	11
667.218	8
667.976	11
668.733	11
669.49	9
670.248	11
671.005	10
671.762	10
672.519	8
673.276	10
674.033	10
674.79	11
675.547	8
676.304	10
677.06	11
677.817	9
678.574	9
679.33	8
680.086	10
680.843	10
681.599	8
682.355	10
683.111	5
683.867	7
684.623	10
685.379	9
686.135	9
686.89	11
687.646	10
688.402	7
689.157	9
689.912	8
690.668	6
691.423	9
692.178	7
692.933	8
693.688	6
694.443	11
695.198	9
695.953	8
696.708	7
697.462	7
698.217	7
698.972	9
699.726	8
700.48	8
701.235	8
701.989	8
702.743	7
703.497	9
704.251	7
705.005	8
705.759	8
706.513	7
707.266	7
708.02	7
708.774	4
709.527	9
710.28	6
711.034	8
711.787	8
712.54	8
713.293	7
714.046	7
714.799	9
715.552	8
716.305	9
717.058	9
717.81	9
718.563	10
719.315	9
720.068	10
720.82	8
721.573	9
722.325	8
723.077	11
723.829	8
724.581	11
725.333	9
726.085	10
726.836	11
727.588	7
728.34	7
729.091	11
729.843	9
730.594	12
731.346	10
732.097	9
732.848	10
733.599	11
734.35	11
735.101	8
735.852	9
736.603	11
737.354	10
738.104	14
738.855	13
739.605	13
740.356	10
741.106	10
741.856	11
742.607	10
743.357	12
744.107	11
744.857	12
745.607	12
746.357	11
747.106	11
747.856	10
748.606	13
749.355	12
750.105	13
750.854	15
751.603	13
752.353	13
753.102	12
753.851	12
754.6	15
755.349	14
756.098	14
756.847	14
757.595	15
758.344	12
759.093	13
759.841	13
760.589	16
761.338	13
762.086	14
762.834	15
763.582	14
764.331	15
765.079	16
765.826	13
766.574	15
767.322	15
768.07	17
768.817	15
769.565	18
770.312	17
771.06	16
771.807	18
772.554	15
773.302	17
774.049	20
774.796	18
775.543	19
776.29	17
777.036	15
777.783	15
778.53	20
779.276	15
780.023	16
780.769	21
781.516	17
782.262	16
783.008	17
783.754	16
784.5	16
785.246	19
785.992	18
786.738	17
787.484	18
788.23	18
788.975	14
789.721	15
790.466	17
791.212	17
791.957	17
792.702	17
793.447	16
794.193	14
794.938	15
795.683	15
796.427	15
797.172	15
797.917	12
798.662	13
799.406	14
800.151	15
800.895	15
801.64	15
802.384	16
803.128	11
803.872	11
804.616	11
805.36	10
806.104	11
806.848	10
807.592	12
808.336	10
809.079	11
809.823	10
810.566	12
811.31	11
812.053	11
812.796	10
813.539	8
814.283	11
815.026	12
815.769	7
816.511	9
817.254	11
817.997	10
818.74	10
819.482	9
820.225	6
820.967	7
821.71	10
822.452	6
823.194	9
823.936	6
824.678	8
825.42	7
826.162	7
826.904	8
827.646	6
828.388	8
829.129	6
829.871	4
830.612	7
831.354	7
832.095	7
832.836	5
833.577	5
834.319	6
835.06	5
835.801	8
836.542	5
837.282	7
838.023	6
838.764	7
839.504	6
840.245	6
840.985	6
841.726	6
842.466	5
843.206	4
843.946	6
844.687	6
845.427	3
846.166	7
846.906	5
847.646	5
848.386	6
849.125	5
849.865	5
850.605	5
851.344	5
852.083	6
852.823	4
853.562	6
854.301	2
855.04	6
855.779	4
856.518	6
857.257	5
857.995	4
858.734	3
859.473	5
860.211	3
860.95	3
861.688	4
862.426	4
863.165	4
863.903	5
864.641	3
865.379	4
866.117	3
866.855	2
867.593	4
868.33	2
869.068	1
869.806	4
870.543	4
871.28	3
872.018	2
872.755	2
873.492	2
874.229	4
874.967	2
875.703	2
876.44	2
877.177	1
877.914	2
878.651	2
879.387	4
880.124	5
880.86	2
881.597	4
882.333	-1
883.069	1
883.806	1
884.542	1
885.278	1
886.014	0
886.749	2
887.485	1
888.221	4
888.957	0
889.692	-1
890.428	2
891.163	-1
891.899	3
892.634	-1
893.369	4
894.104	3
894.839	1
895.574	2
896.309	0
897.044	1
897.779	2
898.514	-1
899.248	0
899.983	1
900.717	1
901.452	-1
902.186	3
902.92	1
903.654	3
904.389	-1
905.123	1
905.857	2
906.59	-1
907.324	3
908.058	3
908.792	0
909.525	1
910.259	-1
910.992	1
911.726	1
912.459	0
913.192	-1
913.925	0
914.658	2
915.391	-1
916.124	2
916.857	1
917.59	0
918.323	2
919.055	-1
919.788	1
920.521	0
921.253	2
921.985	2
922.718	-1
923.45	0
924.182	-1
924.914	1
925.646	0
926.378	3
927.11	1
927.841	0
928.573	0
929.305	1
930.036	-1
930.768	1
931.499	0
932.23	1
932.962	0
933.693	1
934.424	0
935.155	-1
935.886	0
936.617	2
937.348	0
938.078	0
938.809	0
939.54	0
940.27	2
941.001	0
941.731	1
942.461	0
943.191	1
943.922	2
944.652	0
945.382	1
946.112	2
946.841	0
947.571	0
948.301	1
949.031	0
949.76	-1
950.49	0
951.219	1
951.948	-1
952.678	1
953.407	-1
954.136	2
954.865	-1
955.594	1
956.323	0
957.052	1
957.78	1
958.509	2
959.238	1
959.966	1
960.695	1
961.423	1
962.151	1
962.88	2
963.608	0
964.336	0
965.064	0
965.792	-1
966.52	-1
967.247	1
967.975	1
968.703	0
969.43	0
970.158	1
970.885	1
971.613	1
972.34	1
973.067	2
973.794	2
974.521	1
975.248	-1
975.975	1
976.702	-2
977.429	1
978.156	-1
978.882	2
979.609	-1
980.335	2
981.062	1
981.788	1
982.514	2
983.24	3
983.967	2
984.693	2
985.419	2
986.144	0
986.87	0
987.596	-1
988.322	1
989.047	1
989.773	0
990.498	2
991.224	0
991.949	1
992.674	-1
993.399	1
994.124	0
994.849	-2
995.574	-1
996.299	1
997.024	0
997.749	2
998.473	-1
999.198	1
999.922	4
1000.647	0
1001.371	4
1002.095	-1
1002.82	-1
1003.544	-3
1004.268	7
1004.992	5
1005.716	6
1006.439	5
1007.163	8
1007.887	5
1008.611	2
1009.334	1
1010.058	1
1010.781	0
1011.504	-1
1012.228	2
1012.951	1
1013.674	0
1014.397	-1
1015.12	1
