节点500_705_QEPB04081__279__20-49-57-419.txt的数据

Date: Wed Nov 12 20:49:57 CST 2025
User: PC
Spectrometer: QEPB0408
触发模式: 0
积分时间 (秒): 1.000000E-2
Scans to average: 1
启用暗噪声校正: true
启用非线性校正: false
滑动平均宽度: 0
X轴模式: Wavelengths
Number of Pixels in Spectrum: 1044
>>>>>Begin Spectral Data<<<<<
220.843	6.12
221.644	5.12
222.444	7.12
223.244	6.12
224.045	7.12
224.845	8.12
225.645	6.12
226.445	6.12
227.245	6.12
228.045	7.12
228.845	10.12
229.645	8.12
230.444	11.12
231.244	11.12
232.043	8.12
232.843	11.12
233.642	11.12
234.442	12.12
235.241	7.12
236.04	10.12
236.839	13.12
237.638	13.12
238.437	12.12
239.236	9.12
240.035	9.12
240.833	10.12
241.632	14.12
242.43	13.12
243.229	11.12
244.027	13.12
244.826	12.12
245.624	15.12
246.422	13.12
247.22	15.12
248.018	16.12
248.816	15.12
249.614	16.12
250.412	18.12
251.21	17.12
252.007	18.12
252.805	19.12
253.602	19.12
254.4	18.12
255.197	24.12
255.994	20.12
256.791	19.12
257.589	20.12
258.386	17.12
259.183	23.12
259.979	26.12
260.776	22.12
261.573	25.12
262.37	26.12
263.166	26.12
263.963	27.12
264.759	30.12
265.556	26.12
266.352	27.12
267.148	27.12
267.944	28.12
268.74	31.12
269.536	28.12
270.332	27.12
271.128	31.12
271.924	33.12
272.719	33.12
273.515	31.12
274.311	35.12
275.106	33.12
275.901	33.12
276.697	36.12
277.492	35.12
278.287	36.12
279.082	31.12
279.877	34.12
280.672	34.12
281.467	33.12
282.262	36.12
283.056	33.12
283.851	34.12
284.646	34.12
285.44	33.12
286.234	35.12
287.029	34.12
287.823	31.12
288.617	33.12
289.411	33.12
290.205	34.12
290.999	33.12
291.793	34.12
292.587	33.12
293.381	33.12
294.174	29.12
294.968	34.12
295.761	31.12
296.555	27.12
297.348	28.12
298.141	27.12
298.935	29.12
299.728	28.12
300.521	24.12
301.314	25.12
302.107	24.12
302.899	22.12
303.692	22.12
304.485	26.12
305.277	25.12
306.07	24.12
306.862	22.12
307.655	21.12
308.447	23.12
309.239	22.12
310.031	20.12
310.823	18.12
311.615	21.12
312.407	17.12
313.199	17.12
313.991	21.12
314.783	16.12
315.574	16.12
316.366	16.12
317.157	15.12
317.949	14.12
318.74	15.12
319.531	15.12
320.322	17.12
321.113	15.12
321.904	13.12
322.695	16.12
323.486	15.12
324.277	13.12
325.068	14.12
325.858	13.12
326.649	13.12
327.439	14.12
328.23	12.12
329.02	13.12
329.81	12.12
330.6	11.12
331.391	12.12
332.181	10.12
332.971	13.12
333.76	12.12
334.55	12.12
335.34	12.12
336.13	11.12
336.919	13.12
337.709	12.12
338.498	14.12
339.287	13.12
340.077	12.12
340.866	11.12
341.655	12.12
342.444	13.12
343.233	12.12
344.022	13.12
344.811	10.12
345.6	11.12
346.388	13.12
347.177	12.12
347.965	11.12
348.754	13.12
349.542	11.12
350.33	11.12
351.119	10.12
351.907	9.12
352.695	10.12
353.483	10.12
354.271	10.12
355.059	13.12
355.846	11.12
356.634	11.12
357.422	11.12
358.209	9.12
358.997	9.12
359.784	9.12
360.571	9.12
361.359	9.12
362.146	12.12
362.933	10.12
363.72	12.12
364.507	9.12
365.294	11.12
366.081	10.12
366.867	11.12
367.654	12.12
368.44	8.12
369.227	10.12
370.013	9.12
370.8	11.12
371.586	11.12
372.372	10.12
373.158	9.12
373.944	10.12
374.73	9.12
375.516	10.12
376.302	8.12
377.088	12.12
377.873	9.12
378.659	13.12
379.445	9.12
380.23	10.12
381.015	10.12
381.801	11.12
382.586	11.12
383.371	12.12
384.156	11.12
384.941	11.12
385.726	13.12
386.511	13.12
387.296	14.12
388.08	12.12
388.865	13.12
389.649	11.12
390.434	13.12
391.218	10.12
392.003	12.12
392.787	11.12
393.571	12.12
394.355	10.12
395.139	16.12
395.923	15.12
396.707	12.12
397.491	16.12
398.274	12.12
399.058	10.12
399.842	13.12
400.625	12.12
401.408	13.12
402.192	15.12
402.975	12.12
403.758	15.12
404.541	15.12
405.324	13.12
406.107	14.12
406.89	13.12
407.673	15.12
408.456	19.12
409.238	16.12
410.021	17.12
410.803	15.12
411.586	14.12
412.368	19.12
413.151	18.12
413.933	20.12
414.715	19.12
415.497	21.12
416.279	19.12
417.061	21.12
417.843	19.12
418.624	21.12
419.406	21.12
420.188	21.12
420.969	22.12
421.751	20.12
422.532	21.12
423.313	25.12
424.095	24.12
424.876	25.12
425.657	26.12
426.438	25.12
427.219	28.12
428	27.12
428.78	28.12
429.561	30.12
430.342	28.12
431.122	31.12
431.903	35.12
432.683	35.12
433.464	33.12
434.244	38.12
435.024	37.12
435.804	39.12
436.584	43.12
437.364	49.12
438.144	49.12
438.924	50.12
439.704	53.12
440.483	55.12
441.263	57.12
442.042	70.12
442.822	68.12
443.601	75.12
444.38	78.12
445.16	85.12
445.939	93.12
446.718	102.12
447.497	109.12
448.276	125.12
449.054	137.12
449.833	144.12
450.612	155.12
451.391	173.12
452.169	191.12
452.948	218.12
453.726	241.12
454.504	266.12
455.282	299.12
456.061	327.12
456.839	363.12
457.617	399.12
458.395	449.12
459.172	491.12
459.95	567.12
460.728	625.12
461.506	705.12
462.283	779.12
463.061	868.12
463.838	981.12
464.615	1085.12
465.393	1206.12
466.17	1338.12
466.947	1492.12
467.724	1635.12
468.501	1836.12
469.278	2037.12
470.055	2261.12
470.831	2476.12
471.608	2756.12
472.385	3052.12
473.161	3351.12
473.938	3696.12
474.714	4038.12
475.49	4453.12
476.266	4895.12
477.043	5344.12
477.819	5849.12
478.595	6397.12
479.371	6997.12
480.146	7610.12
480.922	8341.12
481.698	9103.12
482.473	9925.12
483.249	10746.12
484.024	11730.12
484.8	12634.12
485.575	13782.12
486.35	14981.12
487.126	16245.12
487.901	17558.12
488.676	18927.12
489.451	20462.12
490.225	22042.12
491	23659.12
491.775	25291.12
492.55	27056.12
493.324	28826.12
494.099	30505.12
494.873	32400.12
495.647	34199.12
496.422	36150.12
497.196	37869.12
497.97	39523.12
498.744	41047.12
499.518	42564.12
500.292	43976.12
501.066	44983.12
501.839	45850.12
502.613	46575.12
503.387	47219.12
504.16	47653.12
504.934	47696.12
505.707	47574.12
506.48	47150.12
507.253	46601.12
508.027	45842.12
508.8	44795.12
509.573	43775.12
510.346	42690.12
511.118	41533.12
511.891	40208.12
512.664	38754.12
513.437	37236.12
514.209	35783.12
514.982	34498.12
515.754	33003.12
516.526	31690.12
517.298	30354.12
518.071	29137.12
518.843	28028.12
519.615	26896.12
520.387	25876.12
521.159	24780.12
521.93	23751.12
522.702	22835.12
523.474	21863.12
524.245	20904.12
525.017	19961.12
525.788	19041.12
526.56	18263.12
527.331	17416.12
528.102	16522.12
528.873	15735.12
529.644	14995.12
530.415	14271.12
531.186	13583.12
531.957	12845.12
532.728	12198.12
533.498	11532.12
534.269	10899.12
535.039	10370.12
535.81	9789.12
536.58	9266.12
537.351	8781.12
538.121	8298.12
538.891	7827.12
539.661	7451.12
540.431	7022.12
541.201	6648.12
541.971	6303.12
542.741	6004.12
543.51	5693.12
544.28	5404.12
545.05	5167.12
545.819	4908.12
546.588	4685.12
547.358	4451.12
548.127	4253.12
548.896	4021.12
549.665	3826.12
550.434	3640.12
551.203	3425.12
551.972	3236.12
552.741	3081.12
553.51	2898.12
554.278	2728.12
555.047	2581.12
555.815	2431.12
556.584	2302.12
557.352	2176.12
558.121	2057.12
558.889	1943.12
559.657	1817.12
560.425	1743.12
561.193	1665.12
561.961	1550.12
562.729	1476.12
563.496	1377.12
564.264	1303.12
565.032	1243.12
565.799	1177.12
566.567	1114.12
567.334	1057.12
568.101	998.12
568.869	931.12
569.636	880.12
570.403	845.12
571.17	790.12
571.937	751.12
572.704	708.12
573.471	666.12
574.237	634.12
575.004	591.12
575.771	552.12
576.537	521.12
577.303	503.12
578.07	477.12
578.836	445.12
579.602	426.12
580.368	402.12
581.134	384.12
581.9	359.12
582.666	345.12
583.432	321.12
584.198	313.12
584.964	286.12
585.729	279.12
586.495	265.12
587.26	248.12
588.025	237.12
588.791	223.12
589.556	207.12
590.321	198.12
591.086	194.12
591.851	187.12
592.616	176.12
593.381	168.12
594.146	155.12
594.911	153.12
595.675	142.12
596.44	142.12
597.204	136.12
597.969	127.12
598.733	122.12
599.497	117.12
600.261	115.12
601.025	113.12
601.79	101.12
602.553	98.12
603.317	95.12
604.081	90.12
604.845	89.12
605.609	85.12
606.372	83.12
607.136	78.12
607.899	76.12
608.662	69.12
609.426	72.12
610.189	65.12
610.952	64.12
611.715	65.12
612.478	59.12
613.241	54.12
614.004	58.12
614.767	51.12
615.529	52.12
616.292	50.12
617.055	47.12
617.817	49.12
618.579	47.12
619.342	42.12
620.104	42.12
620.866	38.12
621.628	37.12
622.39	40.12
623.152	35.12
623.914	36.12
624.676	34.12
625.438	31.12
626.199	35.12
626.961	32.12
627.722	29.12
628.484	29.12
629.245	26.12
630.006	28.12
630.768	27.12
631.529	25.12
632.29	27.12
633.051	25.12
633.812	25.12
634.573	24.12
635.333	22.12
636.094	23.12
636.855	24.12
637.615	22.12
638.376	23.12
639.136	20.12
639.896	18.12
640.657	20.12
641.417	19.12
642.177	21.12
642.937	19.12
643.697	19.12
644.457	15.12
645.216	19.12
645.976	16.12
646.736	14.12
647.495	17.12
648.255	15.12
649.014	14.12
649.774	13.12
650.533	15.12
651.292	14.12
652.051	14.12
652.81	14.12
653.569	13.12
654.328	16.12
655.087	14.12
655.846	15.12
656.604	12.12
657.363	11.12
658.121	11.12
658.88	11.12
659.638	11.12
660.397	11.12
661.155	10.12
661.913	11.12
662.671	9.12
663.429	13.12
664.187	11.12
664.945	12.12
665.703	12.12
666.46	10.12
667.218	12.12
667.976	11.12
668.733	10.12
669.49	12.12
670.248	10.12
671.005	10.12
671.762	10.12
672.519	14.12
673.276	8.12
674.033	9.12
674.79	7.12
675.547	9.12
676.304	9.12
677.06	9.12
677.817	9.12
678.574	9.12
679.33	10.12
680.086	9.12
680.843	8.12
681.599	9.12
682.355	6.12
683.111	9.12
683.867	8.12
684.623	9.12
685.379	10.12
686.135	8.12
686.89	6.12
687.646	8.12
688.402	10.12
689.157	10.12
689.912	6.12
690.668	10.12
691.423	7.12
692.178	9.12
692.933	9.12
693.688	9.12
694.443	10.12
695.198	6.12
695.953	8.12
696.708	7.12
697.462	10.12
698.217	8.12
698.972	9.12
699.726	7.12
700.48	8.12
701.235	7.12
701.989	8.12
702.743	6.12
703.497	8.12
704.251	7.12
705.005	8.12
705.759	8.12
706.513	7.12
707.266	8.12
708.02	9.12
708.774	10.12
709.527	7.12
710.28	10.12
711.034	10.12
711.787	8.12
712.54	7.12
713.293	7.12
714.046	8.12
714.799	9.12
715.552	7.12
716.305	8.12
717.058	9.12
717.81	8.12
718.563	7.12
719.315	9.12
720.068	7.12
720.82	8.12
721.573	9.12
722.325	8.12
723.077	9.12
723.829	9.12
724.581	11.12
725.333	6.12
726.085	8.12
726.836	10.12
727.588	8.12
728.34	10.12
729.091	9.12
729.843	12.12
730.594	9.12
731.346	8.12
732.097	11.12
732.848	10.12
733.599	8.12
734.35	10.12
735.101	9.12
735.852	9.12
736.603	9.12
737.354	10.12
738.104	9.12
738.855	8.12
739.605	13.12
740.356	10.12
741.106	10.12
741.856	10.12
742.607	10.12
743.357	10.12
744.107	9.12
744.857	9.12
745.607	11.12
746.357	13.12
747.106	12.12
747.856	11.12
748.606	10.12
749.355	11.12
750.105	13.12
750.854	11.12
751.603	11.12
752.353	11.12
753.102	12.12
753.851	12.12
754.6	13.12
755.349	12.12
756.098	12.12
756.847	14.12
757.595	14.12
758.344	15.12
759.093	12.12
759.841	10.12
760.589	11.12
761.338	13.12
762.086	11.12
762.834	14.12
763.582	15.12
764.331	12.12
765.079	13.12
765.826	15.12
766.574	16.12
767.322	13.12
768.07	13.12
768.817	12.12
769.565	15.12
770.312	14.12
771.06	15.12
771.807	15.12
772.554	16.12
773.302	15.12
774.049	14.12
774.796	17.12
775.543	15.12
776.29	15.12
777.036	15.12
777.783	14.12
778.53	16.12
779.276	17.12
780.023	18.12
780.769	18.12
781.516	15.12
782.262	16.12
783.008	15.12
783.754	16.12
784.5	16.12
785.246	19.12
785.992	15.12
786.738	16.12
787.484	14.12
788.23	15.12
788.975	14.12
789.721	19.12
790.466	17.12
791.212	18.12
791.957	14.12
792.702	16.12
793.447	15.12
794.193	13.12
794.938	14.12
795.683	15.12
796.427	12.12
797.172	13.12
797.917	13.12
798.662	14.12
799.406	14.12
800.151	14.12
800.895	11.12
801.64	13.12
802.384	11.12
803.128	15.12
803.872	10.12
804.616	12.12
805.36	12.12
806.104	10.12
806.848	9.12
807.592	10.12
808.336	10.12
809.079	12.12
809.823	10.12
810.566	9.12
811.31	9.12
812.053	12.12
812.796	11.12
813.539	9.12
814.283	9.12
815.026	9.12
815.769	7.12
816.511	7.12
817.254	9.12
817.997	8.12
818.74	6.12
819.482	9.12
820.225	7.12
820.967	9.12
821.71	7.12
822.452	8.12
823.194	6.12
823.936	7.12
824.678	6.12
825.42	10.12
826.162	7.12
826.904	8.12
827.646	8.12
828.388	4.12
829.129	6.12
829.871	8.12
830.612	7.12
831.354	7.12
832.095	6.12
832.836	6.12
833.577	7.12
834.319	5.12
835.06	7.12
835.801	8.12
836.542	6.12
837.282	6.12
838.023	4.12
838.764	4.12
839.504	8.12
840.245	6.12
840.985	9.12
841.726	6.12
842.466	5.12
843.206	5.12
843.946	7.12
844.687	6.12
845.427	5.12
846.166	4.12
846.906	3.12
847.646	5.12
848.386	5.12
849.125	6.12
849.865	3.12
850.605	6.12
851.344	6.12
852.083	3.12
852.823	5.12
853.562	3.12
854.301	3.12
855.04	5.12
855.779	3.12
856.518	6.12
857.257	2.12
857.995	5.12
858.734	2.12
859.473	3.12
860.211	5.12
860.95	4.12
861.688	2.12
862.426	5.12
863.165	4.12
863.903	3.12
864.641	3.12
865.379	2.12
866.117	5.12
866.855	4.12
867.593	5.12
868.33	1.12
869.068	3.12
869.806	3.12
870.543	3.12
871.28	2.12
872.018	3.12
872.755	3.12
873.492	1.12
874.229	4.12
874.967	2.12
875.703	2.12
876.44	2.12
877.177	2.12
877.914	3.12
878.651	3.12
879.387	2.12
880.124	3.12
880.86	1.12
881.597	1.12
882.333	2.12
883.069	2.12
883.806	2.12
884.542	2.12
885.278	2.12
886.014	6.12
886.749	5.12
887.485	1.12
888.221	1.12
888.957	2.12
889.692	0.12
890.428	-0.88
891.163	-0.88
891.899	4.12
892.634	-0.88
893.369	2.12
894.104	1.12
894.839	3.12
895.574	1.12
896.309	2.12
897.044	4.12
897.779	2.12
898.514	2.12
899.248	1.12
899.983	0.12
900.717	0.12
901.452	-0.88
902.186	3.12
902.92	3.12
903.654	0.12
904.389	3.12
905.123	2.12
905.857	2.12
906.59	0.12
907.324	3.12
908.058	1.12
908.792	0.12
909.525	1.12
910.259	-0.88
910.992	1.12
911.726	1.12
912.459	0.12
913.192	1.12
913.925	1.12
914.658	-0.88
915.391	-0.88
916.124	1.12
916.857	2.12
917.59	0.12
918.323	3.12
919.055	-0.88
919.788	2.12
920.521	0.12
921.253	2.12
921.985	3.12
922.718	0.12
923.45	1.12
924.182	2.12
924.914	1.12
925.646	0.12
926.378	-0.88
927.11	3.12
927.841	0.12
928.573	1.12
929.305	0.12
930.036	0.12
930.768	-1.88
931.499	2.12
932.23	0.12
932.962	1.12
933.693	-0.88
934.424	-0.88
935.155	0.12
935.886	0.12
936.617	1.12
937.348	0.12
938.078	1.12
938.809	1.12
939.54	-0.88
940.27	0.12
941.001	0.12
941.731	1.12
942.461	0.12
943.191	2.12
943.922	-0.88
944.652	1.12
945.382	2.12
946.112	1.12
946.841	0.12
947.571	2.12
948.301	-0.88
949.031	1.12
949.76	0.12
950.49	-0.88
951.219	0.12
951.948	1.12
952.678	0.12
953.407	0.12
954.136	-0.88
954.865	-1.88
955.594	0.12
956.323	1.12
957.052	1.12
957.78	1.12
958.509	0.12
959.238	0.12
959.966	3.12
960.695	2.12
961.423	2.12
962.151	0.12
962.88	0.12
963.608	-0.88
964.336	0.12
965.064	-1.88
965.792	1.12
966.52	1.12
967.247	1.12
967.975	0.12
968.703	1.12
969.43	-0.88
970.158	2.12
970.885	-0.88
971.613	1.12
972.34	2.12
973.067	1.12
973.794	1.12
974.521	0.12
975.248	2.12
975.975	-0.88
976.702	0.12
977.429	0.12
978.156	-1.88
978.882	0.12
979.609	2.12
980.335	-0.88
981.062	3.12
981.788	1.12
982.514	2.12
983.24	1.12
983.967	-0.88
984.693	0.12
985.419	-0.88
986.144	1.12
986.87	-0.88
987.596	2.12
988.322	-0.88
989.047	-0.88
989.773	0.12
990.498	-0.88
991.224	2.12
991.949	0.12
992.674	2.12
993.399	-0.88
994.124	1.12
994.849	1.12
995.574	3.12
996.299	-0.88
997.024	-0.88
997.749	-0.88
998.473	1.12
999.198	0.12
999.922	1.12
1000.647	-0.88
1001.371	2.12
1002.095	-2.88
1002.82	-1.88
1003.544	-0.88
1004.268	3.12
1004.992	4.12
1005.716	4.12
1006.439	4.12
1007.163	6.12
1007.887	6.12
1008.611	2.12
1009.334	2.12
1010.058	2.12
1010.781	3.12
1011.504	1.12
1012.228	-0.88
1012.951	2.12
1013.674	1.12
1014.397	-0.88
1015.12	1.12
