节点500_705_QEPB04081__36__20-46-29-282.txt的数据

Date: Wed Nov 12 20:46:29 CST 2025
User: PC
Spectrometer: QEPB0408
触发模式: 0
积分时间 (秒): 1.000000E-2
Scans to average: 1
启用暗噪声校正: true
启用非线性校正: false
滑动平均宽度: 0
X轴模式: Wavelengths
Number of Pixels in Spectrum: 1044
>>>>>Begin Spectral Data<<<<<
220.843	5.12
221.644	5.12
222.444	3.12
223.244	5.12
224.045	6.12
224.845	7.12
225.645	8.12
226.445	7.12
227.245	7.12
228.045	9.12
228.845	9.12
229.645	10.12
230.444	7.12
231.244	8.12
232.043	7.12
232.843	8.12
233.642	9.12
234.442	10.12
235.241	9.12
236.04	8.12
236.839	9.12
237.638	10.12
238.437	12.12
239.236	11.12
240.035	10.12
240.833	9.12
241.632	12.12
242.43	14.12
243.229	14.12
244.027	14.12
244.826	14.12
245.624	14.12
246.422	15.12
247.22	16.12
248.018	16.12
248.816	15.12
249.614	15.12
250.412	17.12
251.21	17.12
252.007	20.12
252.805	17.12
253.602	19.12
254.4	18.12
255.197	20.12
255.994	22.12
256.791	21.12
257.589	21.12
258.386	23.12
259.183	25.12
259.979	25.12
260.776	24.12
261.573	27.12
262.37	24.12
263.166	29.12
263.963	26.12
264.759	27.12
265.556	32.12
266.352	30.12
267.148	28.12
267.944	29.12
268.74	31.12
269.536	30.12
270.332	33.12
271.128	33.12
271.924	32.12
272.719	35.12
273.515	33.12
274.311	32.12
275.106	37.12
275.901	36.12
276.697	36.12
277.492	37.12
278.287	38.12
279.082	37.12
279.877	35.12
280.672	36.12
281.467	35.12
282.262	37.12
283.056	34.12
283.851	35.12
284.646	40.12
285.44	35.12
286.234	33.12
287.029	33.12
287.823	31.12
288.617	32.12
289.411	31.12
290.205	34.12
290.999	34.12
291.793	33.12
292.587	34.12
293.381	32.12
294.174	30.12
294.968	31.12
295.761	29.12
296.555	27.12
297.348	26.12
298.141	28.12
298.935	29.12
299.728	24.12
300.521	24.12
301.314	24.12
302.107	25.12
302.899	21.12
303.692	21.12
304.485	20.12
305.277	22.12
306.07	21.12
306.862	23.12
307.655	22.12
308.447	21.12
309.239	20.12
310.031	17.12
310.823	21.12
311.615	17.12
312.407	18.12
313.199	15.12
313.991	14.12
314.783	18.12
315.574	17.12
316.366	14.12
317.157	14.12
317.949	13.12
318.74	15.12
319.531	12.12
320.322	15.12
321.113	11.12
321.904	12.12
322.695	12.12
323.486	10.12
324.277	16.12
325.068	12.12
325.858	12.12
326.649	11.12
327.439	13.12
328.23	15.12
329.02	11.12
329.81	11.12
330.6	9.12
331.391	12.12
332.181	11.12
332.971	11.12
333.76	10.12
334.55	13.12
335.34	12.12
336.13	12.12
336.919	9.12
337.709	10.12
338.498	11.12
339.287	12.12
340.077	11.12
340.866	12.12
341.655	13.12
342.444	11.12
343.233	8.12
344.022	10.12
344.811	11.12
345.6	12.12
346.388	12.12
347.177	9.12
347.965	11.12
348.754	13.12
349.542	10.12
350.33	11.12
351.119	11.12
351.907	11.12
352.695	12.12
353.483	10.12
354.271	11.12
355.059	12.12
355.846	10.12
356.634	10.12
357.422	10.12
358.209	9.12
358.997	10.12
359.784	9.12
360.571	10.12
361.359	9.12
362.146	10.12
362.933	10.12
363.72	7.12
364.507	9.12
365.294	8.12
366.081	10.12
366.867	10.12
367.654	10.12
368.44	6.12
369.227	13.12
370.013	10.12
370.8	8.12
371.586	10.12
372.372	7.12
373.158	9.12
373.944	10.12
374.73	12.12
375.516	8.12
376.302	10.12
377.088	11.12
377.873	8.12
378.659	8.12
379.445	9.12
380.23	10.12
381.015	8.12
381.801	8.12
382.586	9.12
383.371	10.12
384.156	8.12
384.941	9.12
385.726	10.12
386.511	10.12
387.296	10.12
388.08	11.12
388.865	9.12
389.649	11.12
390.434	8.12
391.218	9.12
392.003	12.12
392.787	13.12
393.571	12.12
394.355	11.12
395.139	12.12
395.923	14.12
396.707	12.12
397.491	12.12
398.274	12.12
399.058	12.12
399.842	14.12
400.625	13.12
401.408	13.12
402.192	14.12
402.975	11.12
403.758	14.12
404.541	14.12
405.324	18.12
406.107	17.12
406.89	15.12
407.673	15.12
408.456	16.12
409.238	14.12
410.021	18.12
410.803	15.12
411.586	17.12
412.368	14.12
413.151	16.12
413.933	18.12
414.715	18.12
415.497	17.12
416.279	21.12
417.061	17.12
417.843	19.12
418.624	16.12
419.406	21.12
420.188	22.12
420.969	21.12
421.751	22.12
422.532	21.12
423.313	21.12
424.095	23.12
424.876	25.12
425.657	26.12
426.438	26.12
427.219	29.12
428	25.12
428.78	28.12
429.561	28.12
430.342	31.12
431.122	33.12
431.903	36.12
432.683	36.12
433.464	35.12
434.244	38.12
435.024	39.12
435.804	40.12
436.584	39.12
437.364	43.12
438.144	47.12
438.924	45.12
439.704	51.12
440.483	57.12
441.263	57.12
442.042	64.12
442.822	66.12
443.601	71.12
444.38	73.12
445.16	79.12
445.939	86.12
446.718	96.12
447.497	105.12
448.276	113.12
449.054	123.12
449.833	137.12
450.612	148.12
451.391	162.12
452.169	175.12
452.948	200.12
453.726	218.12
454.504	242.12
455.282	271.12
456.061	299.12
456.839	338.12
457.617	379.12
458.395	422.12
459.172	475.12
459.95	517.12
460.728	582.12
461.506	654.12
462.283	736.12
463.061	824.12
463.838	919.12
464.615	1031.12
465.393	1151.12
466.17	1279.12
466.947	1434.12
467.724	1598.12
468.501	1782.12
469.278	1987.12
470.055	2194.12
470.831	2445.12
471.608	2715.12
472.385	3008.12
473.161	3351.12
473.938	3707.12
474.714	4069.12
475.49	4512.12
476.266	4980.12
477.043	5467.12
477.819	5996.12
478.595	6646.12
479.371	7275.12
480.146	8011.12
480.922	8826.12
481.698	9618.12
482.473	10539.12
483.249	11542.12
484.024	12606.12
484.8	13747.12
485.575	14965.12
486.35	16311.12
487.126	17802.12
487.901	19297.12
488.676	20943.12
489.451	22612.12
490.225	24470.12
491	26230.12
491.775	28213.12
492.55	30094.12
493.324	32109.12
494.099	34124.12
494.873	36136.12
495.647	38156.12
496.422	40140.12
497.196	42076.12
497.97	43694.12
498.744	45294.12
499.518	46942.12
500.292	48099.12
501.066	49139.12
501.839	49786.12
502.613	50377.12
503.387	50643.12
504.16	50837.12
504.934	50583.12
505.707	49969.12
506.48	49216.12
507.253	48324.12
508.027	47326.12
508.8	46004.12
509.573	44514.12
510.346	43193.12
511.118	41750.12
511.891	40423.12
512.664	38575.12
513.437	37075.12
514.209	35412.12
514.982	34003.12
515.754	32498.12
516.526	31178.12
517.298	29856.12
518.071	28654.12
518.843	27532.12
519.615	26409.12
520.387	25338.12
521.159	24262.12
521.93	23221.12
522.702	22303.12
523.474	21280.12
524.245	20362.12
525.017	19443.12
525.788	18579.12
526.56	17703.12
527.331	16930.12
528.102	16000.12
528.873	15194.12
529.644	14400.12
530.415	13693.12
531.186	12967.12
531.957	12308.12
532.728	11643.12
533.498	10983.12
534.269	10397.12
535.039	9796.12
535.81	9249.12
536.58	8735.12
537.351	8282.12
538.121	7869.12
538.891	7458.12
539.661	7058.12
540.431	6642.12
541.201	6307.12
541.971	5972.12
542.741	5664.12
543.51	5365.12
544.28	5148.12
545.05	4893.12
545.819	4637.12
546.588	4407.12
547.358	4208.12
548.127	4025.12
548.896	3808.12
549.665	3584.12
550.434	3395.12
551.203	3215.12
551.972	3026.12
552.741	2875.12
553.51	2691.12
554.278	2559.12
555.047	2395.12
555.815	2262.12
556.584	2164.12
557.352	2037.12
558.121	1908.12
558.889	1809.12
559.657	1718.12
560.425	1625.12
561.193	1532.12
561.961	1454.12
562.729	1362.12
563.496	1292.12
564.264	1218.12
565.032	1148.12
565.799	1088.12
566.567	1034.12
567.334	985.12
568.101	934.12
568.869	876.12
569.636	831.12
570.403	785.12
571.17	727.12
571.937	692.12
572.704	662.12
573.471	628.12
574.237	576.12
575.004	547.12
575.771	519.12
576.537	488.12
577.303	460.12
578.07	441.12
578.836	413.12
579.602	393.12
580.368	375.12
581.134	355.12
581.9	335.12
582.666	314.12
583.432	307.12
584.198	287.12
584.964	273.12
585.729	260.12
586.495	242.12
587.26	236.12
588.025	216.12
588.791	213.12
589.556	203.12
590.321	194.12
591.086	179.12
591.851	174.12
592.616	166.12
593.381	155.12
594.146	153.12
594.911	143.12
595.675	136.12
596.44	132.12
597.204	124.12
597.969	121.12
598.733	110.12
599.497	105.12
600.261	106.12
601.025	99.12
601.79	95.12
602.553	91.12
603.317	91.12
604.081	82.12
604.845	82.12
605.609	78.12
606.372	77.12
607.136	71.12
607.899	69.12
608.662	64.12
609.426	67.12
610.189	63.12
610.952	59.12
611.715	58.12
612.478	57.12
613.241	51.12
614.004	54.12
614.767	49.12
615.529	48.12
616.292	51.12
617.055	43.12
617.817	41.12
618.579	45.12
619.342	42.12
620.104	40.12
620.866	38.12
621.628	36.12
622.39	37.12
623.152	39.12
623.914	34.12
624.676	32.12
625.438	35.12
626.199	32.12
626.961	27.12
627.722	27.12
628.484	27.12
629.245	25.12
630.006	28.12
630.768	27.12
631.529	25.12
632.29	27.12
633.051	25.12
633.812	25.12
634.573	26.12
635.333	20.12
636.094	23.12
636.855	21.12
637.615	20.12
638.376	18.12
639.136	20.12
639.896	22.12
640.657	18.12
641.417	19.12
642.177	15.12
642.937	17.12
643.697	16.12
644.457	14.12
645.216	14.12
645.976	14.12
646.736	16.12
647.495	14.12
648.255	17.12
649.014	11.12
649.774	14.12
650.533	16.12
651.292	14.12
652.051	13.12
652.81	11.12
653.569	12.12
654.328	12.12
655.087	11.12
655.846	12.12
656.604	10.12
657.363	13.12
658.121	12.12
658.88	12.12
659.638	12.12
660.397	10.12
661.155	14.12
661.913	10.12
662.671	10.12
663.429	10.12
664.187	11.12
664.945	11.12
665.703	8.12
666.46	11.12
667.218	7.12
667.976	10.12
668.733	8.12
669.49	9.12
670.248	10.12
671.005	7.12
671.762	10.12
672.519	10.12
673.276	10.12
674.033	9.12
674.79	7.12
675.547	6.12
676.304	8.12
677.06	9.12
677.817	9.12
678.574	8.12
679.33	7.12
680.086	6.12
680.843	7.12
681.599	8.12
682.355	6.12
683.111	9.12
683.867	7.12
684.623	7.12
685.379	9.12
686.135	8.12
686.89	7.12
687.646	8.12
688.402	7.12
689.157	8.12
689.912	9.12
690.668	5.12
691.423	6.12
692.178	6.12
692.933	7.12
693.688	7.12
694.443	9.12
695.198	5.12
695.953	6.12
696.708	5.12
697.462	10.12
698.217	5.12
698.972	7.12
699.726	5.12
700.48	5.12
701.235	6.12
701.989	7.12
702.743	4.12
703.497	5.12
704.251	8.12
705.005	6.12
705.759	7.12
706.513	5.12
707.266	7.12
708.02	9.12
708.774	4.12
709.527	7.12
710.28	6.12
711.034	7.12
711.787	7.12
712.54	6.12
713.293	5.12
714.046	7.12
714.799	8.12
715.552	7.12
716.305	5.12
717.058	7.12
717.81	8.12
718.563	8.12
719.315	8.12
720.068	8.12
720.82	8.12
721.573	8.12
722.325	7.12
723.077	7.12
723.829	8.12
724.581	8.12
725.333	8.12
726.085	8.12
726.836	6.12
727.588	7.12
728.34	6.12
729.091	5.12
729.843	9.12
730.594	9.12
731.346	9.12
732.097	11.12
732.848	9.12
733.599	9.12
734.35	10.12
735.101	11.12
735.852	8.12
736.603	8.12
737.354	7.12
738.104	8.12
738.855	10.12
739.605	10.12
740.356	8.12
741.106	9.12
741.856	11.12
742.607	9.12
743.357	11.12
744.107	13.12
744.857	10.12
745.607	9.12
746.357	11.12
747.106	12.12
747.856	11.12
748.606	12.12
749.355	11.12
750.105	8.12
750.854	11.12
751.603	12.12
752.353	11.12
753.102	10.12
753.851	14.12
754.6	13.12
755.349	12.12
756.098	11.12
756.847	12.12
757.595	13.12
758.344	13.12
759.093	13.12
759.841	12.12
760.589	11.12
761.338	16.12
762.086	10.12
762.834	14.12
763.582	14.12
764.331	14.12
765.079	13.12
765.826	13.12
766.574	16.12
767.322	12.12
768.07	14.12
768.817	15.12
769.565	14.12
770.312	16.12
771.06	13.12
771.807	15.12
772.554	18.12
773.302	12.12
774.049	13.12
774.796	16.12
775.543	15.12
776.29	18.12
777.036	17.12
777.783	16.12
778.53	16.12
779.276	16.12
780.023	14.12
780.769	15.12
781.516	15.12
782.262	11.12
783.008	20.12
783.754	16.12
784.5	14.12
785.246	16.12
785.992	17.12
786.738	14.12
787.484	16.12
788.23	15.12
788.975	16.12
789.721	17.12
790.466	14.12
791.212	14.12
791.957	14.12
792.702	14.12
793.447	14.12
794.193	10.12
794.938	15.12
795.683	13.12
796.427	11.12
797.172	14.12
797.917	12.12
798.662	14.12
799.406	12.12
800.151	12.12
800.895	13.12
801.64	11.12
802.384	11.12
803.128	14.12
803.872	11.12
804.616	10.12
805.36	10.12
806.104	11.12
806.848	9.12
807.592	10.12
808.336	12.12
809.079	9.12
809.823	9.12
810.566	9.12
811.31	8.12
812.053	9.12
812.796	10.12
813.539	8.12
814.283	7.12
815.026	9.12
815.769	4.12
816.511	6.12
817.254	9.12
817.997	7.12
818.74	6.12
819.482	6.12
820.225	6.12
820.967	6.12
821.71	6.12
822.452	4.12
823.194	5.12
823.936	6.12
824.678	7.12
825.42	5.12
826.162	7.12
826.904	5.12
827.646	4.12
828.388	5.12
829.129	7.12
829.871	4.12
830.612	7.12
831.354	6.12
832.095	4.12
832.836	5.12
833.577	5.12
834.319	6.12
835.06	2.12
835.801	6.12
836.542	3.12
837.282	4.12
838.023	6.12
838.764	4.12
839.504	4.12
840.245	3.12
840.985	5.12
841.726	6.12
842.466	6.12
843.206	7.12
843.946	4.12
844.687	5.12
845.427	6.12
846.166	4.12
846.906	5.12
847.646	1.12
848.386	4.12
849.125	2.12
849.865	6.12
850.605	4.12
851.344	3.12
852.083	2.12
852.823	2.12
853.562	4.12
854.301	3.12
855.04	2.12
855.779	2.12
856.518	2.12
857.257	3.12
857.995	4.12
858.734	2.12
859.473	-0.88
860.211	3.12
860.95	2.12
861.688	2.12
862.426	6.12
863.165	1.12
863.903	4.12
864.641	4.12
865.379	0.12
866.117	-0.88
866.855	0.12
867.593	2.12
868.33	2.12
869.068	4.12
869.806	0.12
870.543	2.12
871.28	3.12
872.018	0.12
872.755	2.12
873.492	2.12
874.229	2.12
874.967	2.12
875.703	3.12
876.44	2.12
877.177	1.12
877.914	-0.88
878.651	1.12
879.387	-0.88
880.124	3.12
880.86	1.12
881.597	-1.88
882.333	0.12
883.069	0.12
883.806	2.12
884.542	0.12
885.278	1.12
886.014	1.12
886.749	3.12
887.485	1.12
888.221	0.12
888.957	1.12
889.692	-1.88
890.428	0.12
891.163	1.12
891.899	-1.88
892.634	0.12
893.369	0.12
894.104	3.12
894.839	-0.88
895.574	1.12
896.309	0.12
897.044	2.12
897.779	-0.88
898.514	-1.88
899.248	1.12
899.983	1.12
900.717	-1.88
901.452	-0.88
902.186	0.12
902.92	0.12
903.654	2.12
904.389	2.12
905.123	-1.88
905.857	1.12
906.59	0.12
907.324	0.12
908.058	2.12
908.792	1.12
909.525	-1.88
910.259	1.12
910.992	-1.88
911.726	1.12
912.459	0.12
913.192	1.12
913.925	-1.88
914.658	1.12
915.391	-1.88
916.124	2.12
916.857	-0.88
917.59	-1.88
918.323	0.12
919.055	1.12
919.788	0.12
920.521	1.12
921.253	0.12
921.985	-1.88
922.718	0.12
923.45	2.12
924.182	0.12
924.914	-0.88
925.646	2.12
926.378	-0.88
927.11	0.12
927.841	1.12
928.573	0.12
929.305	-0.88
930.036	-1.88
930.768	1.12
931.499	-1.88
932.23	0.12
932.962	-1.88
933.693	-1.88
934.424	1.12
935.155	-1.88
935.886	0.12
936.617	0.12
937.348	-0.88
938.078	0.12
938.809	0.12
939.54	1.12
940.27	1.12
941.001	1.12
941.731	-1.88
942.461	1.12
943.191	1.12
943.922	-3.88
944.652	2.12
945.382	0.12
946.112	0.12
946.841	0.12
947.571	0.12
948.301	0.12
949.031	-2.88
949.76	-0.88
950.49	-1.88
951.219	0.12
951.948	0.12
952.678	-0.88
953.407	0.12
954.136	-1.88
954.865	0.12
955.594	1.12
956.323	-2.88
957.052	0.12
957.78	-0.88
958.509	0.12
959.238	1.12
959.966	0.12
960.695	-1.88
961.423	-0.88
962.151	0.12
962.88	-1.88
963.608	0.12
964.336	1.12
965.064	0.12
965.792	1.12
966.52	-0.88
967.247	1.12
967.975	-0.88
968.703	1.12
969.43	0.12
970.158	-1.88
970.885	-0.88
971.613	-0.88
972.34	0.12
973.067	0.12
973.794	-0.88
974.521	1.12
975.248	-0.88
975.975	0.12
976.702	-0.88
977.429	1.12
978.156	-1.88
978.882	-1.88
979.609	2.12
980.335	-0.88
981.062	-1.88
981.788	-1.88
982.514	1.12
983.24	-0.88
983.967	0.12
984.693	0.12
985.419	1.12
986.144	0.12
986.87	-1.88
987.596	0.12
988.322	1.12
989.047	0.12
989.773	1.12
990.498	-0.88
991.224	-0.88
991.949	-1.88
992.674	-0.88
993.399	0.12
994.124	-0.88
994.849	0.12
995.574	3.12
996.299	1.12
997.024	1.12
997.749	-0.88
998.473	0.12
999.198	-1.88
999.922	1.12
1000.647	-2.88
1001.371	3.12
1002.095	-1.88
1002.82	0.12
1003.544	-0.88
1004.268	4.12
1004.992	3.12
1005.716	5.12
1006.439	5.12
1007.163	4.12
1007.887	4.12
1008.611	1.12
1009.334	1.12
1010.058	-0.88
1010.781	1.12
1011.504	-0.88
1012.228	2.12
1012.951	-0.88
1013.674	-0.88
1014.397	2.12
1015.12	-0.88
