节点500_705_QEPB04081__613__20-54-39-778.txt的数据

Date: Wed Nov 12 20:54:39 CST 2025
User: PC
Spectrometer: QEPB0408
触发模式: 0
积分时间 (秒): 1.000000E-2
Scans to average: 1
启用暗噪声校正: true
启用非线性校正: false
滑动平均宽度: 0
X轴模式: Wavelengths
Number of Pixels in Spectrum: 1044
>>>>>Begin Spectral Data<<<<<
220.843	4.12
221.644	4.12
222.444	5.12
223.244	5.12
224.045	5.12
224.845	5.12
225.645	6.12
226.445	8.12
227.245	5.12
228.045	8.12
228.845	7.12
229.645	10.12
230.444	7.12
231.244	9.12
232.043	12.12
232.843	6.12
233.642	11.12
234.442	10.12
235.241	11.12
236.04	8.12
236.839	7.12
237.638	11.12
238.437	10.12
239.236	9.12
240.035	10.12
240.833	12.12
241.632	12.12
242.43	11.12
243.229	13.12
244.027	12.12
244.826	12.12
245.624	11.12
246.422	14.12
247.22	13.12
248.018	14.12
248.816	12.12
249.614	14.12
250.412	13.12
251.21	15.12
252.007	15.12
252.805	15.12
253.602	15.12
254.4	17.12
255.197	18.12
255.994	18.12
256.791	19.12
257.589	18.12
258.386	22.12
259.183	20.12
259.979	21.12
260.776	22.12
261.573	21.12
262.37	22.12
263.166	21.12
263.963	22.12
264.759	24.12
265.556	23.12
266.352	27.12
267.148	24.12
267.944	26.12
268.74	22.12
269.536	25.12
270.332	28.12
271.128	28.12
271.924	29.12
272.719	25.12
273.515	28.12
274.311	29.12
275.106	30.12
275.901	31.12
276.697	33.12
277.492	31.12
278.287	37.12
279.082	31.12
279.877	31.12
280.672	33.12
281.467	30.12
282.262	30.12
283.056	31.12
283.851	33.12
284.646	33.12
285.44	31.12
286.234	32.12
287.029	33.12
287.823	31.12
288.617	33.12
289.411	31.12
290.205	30.12
290.999	26.12
291.793	31.12
292.587	29.12
293.381	30.12
294.174	28.12
294.968	28.12
295.761	25.12
296.555	25.12
297.348	27.12
298.141	23.12
298.935	26.12
299.728	26.12
300.521	21.12
301.314	25.12
302.107	21.12
302.899	23.12
303.692	20.12
304.485	22.12
305.277	22.12
306.07	23.12
306.862	22.12
307.655	21.12
308.447	22.12
309.239	21.12
310.031	20.12
310.823	18.12
311.615	19.12
312.407	17.12
313.199	15.12
313.991	20.12
314.783	18.12
315.574	16.12
316.366	15.12
317.157	14.12
317.949	14.12
318.74	14.12
319.531	14.12
320.322	16.12
321.113	12.12
321.904	14.12
322.695	14.12
323.486	12.12
324.277	12.12
325.068	11.12
325.858	14.12
326.649	15.12
327.439	12.12
328.23	12.12
329.02	12.12
329.81	13.12
330.6	14.12
331.391	13.12
332.181	14.12
332.971	11.12
333.76	9.12
334.55	11.12
335.34	9.12
336.13	11.12
336.919	13.12
337.709	14.12
338.498	12.12
339.287	14.12
340.077	14.12
340.866	10.12
341.655	11.12
342.444	13.12
343.233	13.12
344.022	11.12
344.811	12.12
345.6	11.12
346.388	13.12
347.177	11.12
347.965	12.12
348.754	12.12
349.542	10.12
350.33	11.12
351.119	11.12
351.907	12.12
352.695	10.12
353.483	12.12
354.271	12.12
355.059	10.12
355.846	7.12
356.634	12.12
357.422	9.12
358.209	11.12
358.997	10.12
359.784	8.12
360.571	8.12
361.359	10.12
362.146	11.12
362.933	12.12
363.72	9.12
364.507	10.12
365.294	10.12
366.081	7.12
366.867	10.12
367.654	11.12
368.44	10.12
369.227	10.12
370.013	10.12
370.8	8.12
371.586	7.12
372.372	11.12
373.158	10.12
373.944	10.12
374.73	10.12
375.516	7.12
376.302	10.12
377.088	9.12
377.873	7.12
378.659	10.12
379.445	11.12
380.23	8.12
381.015	12.12
381.801	11.12
382.586	10.12
383.371	8.12
384.156	9.12
384.941	11.12
385.726	11.12
386.511	12.12
387.296	10.12
388.08	10.12
388.865	11.12
389.649	9.12
390.434	9.12
391.218	10.12
392.003	12.12
392.787	12.12
393.571	10.12
394.355	12.12
395.139	10.12
395.923	13.12
396.707	12.12
397.491	12.12
398.274	12.12
399.058	12.12
399.842	15.12
400.625	13.12
401.408	12.12
402.192	12.12
402.975	14.12
403.758	14.12
404.541	13.12
405.324	12.12
406.107	11.12
406.89	14.12
407.673	15.12
408.456	13.12
409.238	16.12
410.021	15.12
410.803	15.12
411.586	15.12
412.368	18.12
413.151	17.12
413.933	21.12
414.715	17.12
415.497	19.12
416.279	19.12
417.061	19.12
417.843	17.12
418.624	20.12
419.406	21.12
420.188	19.12
420.969	21.12
421.751	23.12
422.532	22.12
423.313	18.12
424.095	24.12
424.876	22.12
425.657	24.12
426.438	26.12
427.219	24.12
428	26.12
428.78	30.12
429.561	28.12
430.342	29.12
431.122	30.12
431.903	35.12
432.683	34.12
433.464	36.12
434.244	37.12
435.024	38.12
435.804	40.12
436.584	43.12
437.364	45.12
438.144	48.12
438.924	54.12
439.704	55.12
440.483	58.12
441.263	57.12
442.042	68.12
442.822	70.12
443.601	78.12
444.38	86.12
445.16	91.12
445.939	100.12
446.718	105.12
447.497	118.12
448.276	130.12
449.054	144.12
449.833	158.12
450.612	173.12
451.391	191.12
452.169	209.12
452.948	237.12
453.726	266.12
454.504	286.12
455.282	313.12
456.061	349.12
456.839	389.12
457.617	440.12
458.395	494.12
459.172	537.12
459.95	616.12
460.728	672.12
461.506	740.12
462.283	823.12
463.061	926.12
463.838	1030.12
464.615	1126.12
465.393	1251.12
466.17	1392.12
466.947	1550.12
467.724	1702.12
468.501	1869.12
469.278	2082.12
470.055	2283.12
470.831	2514.12
471.608	2743.12
472.385	3013.12
473.161	3320.12
473.938	3627.12
474.714	3953.12
475.49	4318.12
476.266	4723.12
477.043	5143.12
477.819	5583.12
478.595	6079.12
479.371	6573.12
480.146	7146.12
480.922	7781.12
481.698	8457.12
482.473	9137.12
483.249	9872.12
484.024	10652.12
484.8	11488.12
485.575	12418.12
486.35	13367.12
487.126	14429.12
487.901	15546.12
488.676	16701.12
489.451	17882.12
490.225	19303.12
491	20605.12
491.775	21972.12
492.55	23376.12
493.324	24949.12
494.099	26499.12
494.873	28118.12
495.647	29610.12
496.422	31216.12
497.196	32792.12
497.97	34376.12
498.744	35798.12
499.518	37448.12
500.292	38747.12
501.066	39859.12
501.839	40838.12
502.613	41717.12
503.387	42469.12
504.16	43097.12
504.934	43507.12
505.707	43793.12
506.48	43712.12
507.253	43557.12
508.027	43251.12
508.8	42699.12
509.573	41866.12
510.346	41289.12
511.118	40431.12
511.891	39475.12
512.664	38191.12
513.437	36967.12
514.209	35764.12
514.982	34441.12
515.754	33259.12
516.526	32029.12
517.298	30810.12
518.071	29636.12
518.843	28503.12
519.615	27262.12
520.387	26243.12
521.159	25241.12
521.93	24219.12
522.702	23207.12
523.474	22279.12
524.245	21344.12
525.017	20452.12
525.788	19706.12
526.56	18923.12
527.331	18069.12
528.102	17157.12
528.873	16355.12
529.644	15578.12
530.415	14909.12
531.186	14280.12
531.957	13560.12
532.728	12888.12
533.498	12203.12
534.269	11605.12
535.039	10980.12
535.81	10436.12
536.58	9834.12
537.351	9351.12
538.121	8863.12
538.891	8363.12
539.661	7930.12
540.431	7477.12
541.201	7116.12
541.971	6765.12
542.741	6380.12
543.51	6087.12
544.28	5784.12
545.05	5504.12
545.819	5260.12
546.588	5031.12
547.358	4794.12
548.127	4522.12
548.896	4323.12
549.665	4086.12
550.434	3894.12
551.203	3679.12
551.972	3498.12
552.741	3332.12
553.51	3137.12
554.278	2949.12
555.047	2811.12
555.815	2666.12
556.584	2502.12
557.352	2371.12
558.121	2236.12
558.889	2124.12
559.657	2016.12
560.425	1895.12
561.193	1799.12
561.961	1715.12
562.729	1619.12
563.496	1523.12
564.264	1438.12
565.032	1356.12
565.799	1290.12
566.567	1231.12
567.334	1147.12
568.101	1098.12
568.869	1033.12
569.636	958.12
570.403	913.12
571.17	864.12
571.937	816.12
572.704	769.12
573.471	732.12
574.237	690.12
575.004	651.12
575.771	605.12
576.537	576.12
577.303	537.12
578.07	521.12
578.836	486.12
579.602	465.12
580.368	442.12
581.134	419.12
581.9	395.12
582.666	377.12
583.432	355.12
584.198	336.12
584.964	320.12
585.729	306.12
586.495	297.12
587.26	276.12
588.025	260.12
588.791	248.12
589.556	230.12
590.321	226.12
591.086	205.12
591.851	201.12
592.616	189.12
593.381	180.12
594.146	168.12
594.911	167.12
595.675	161.12
596.44	150.12
597.204	143.12
597.969	139.12
598.733	131.12
599.497	126.12
600.261	118.12
601.025	108.12
601.79	110.12
602.553	107.12
603.317	105.12
604.081	96.12
604.845	91.12
605.609	91.12
606.372	85.12
607.136	82.12
607.899	81.12
608.662	73.12
609.426	72.12
610.189	69.12
610.952	65.12
611.715	63.12
612.478	61.12
613.241	62.12
614.004	60.12
614.767	53.12
615.529	54.12
616.292	51.12
617.055	49.12
617.817	50.12
618.579	46.12
619.342	46.12
620.104	42.12
620.866	42.12
621.628	43.12
622.39	39.12
623.152	40.12
623.914	37.12
624.676	34.12
625.438	35.12
626.199	33.12
626.961	31.12
627.722	29.12
628.484	31.12
629.245	32.12
630.006	27.12
630.768	30.12
631.529	26.12
632.29	27.12
633.051	25.12
633.812	24.12
634.573	26.12
635.333	26.12
636.094	24.12
636.855	22.12
637.615	23.12
638.376	25.12
639.136	19.12
639.896	21.12
640.657	19.12
641.417	20.12
642.177	21.12
642.937	17.12
643.697	15.12
644.457	17.12
645.216	19.12
645.976	15.12
646.736	18.12
647.495	16.12
648.255	16.12
649.014	15.12
649.774	16.12
650.533	14.12
651.292	12.12
652.051	12.12
652.81	13.12
653.569	14.12
654.328	15.12
655.087	13.12
655.846	15.12
656.604	11.12
657.363	14.12
658.121	14.12
658.88	11.12
659.638	11.12
660.397	12.12
661.155	11.12
661.913	10.12
662.671	12.12
663.429	11.12
664.187	11.12
664.945	12.12
665.703	8.12
666.46	12.12
667.218	9.12
667.976	9.12
668.733	13.12
669.49	11.12
670.248	10.12
671.005	8.12
671.762	8.12
672.519	9.12
673.276	11.12
674.033	9.12
674.79	9.12
675.547	9.12
676.304	8.12
677.06	8.12
677.817	10.12
678.574	10.12
679.33	9.12
680.086	9.12
680.843	8.12
681.599	9.12
682.355	9.12
683.111	11.12
683.867	9.12
684.623	11.12
685.379	8.12
686.135	8.12
686.89	8.12
687.646	6.12
688.402	7.12
689.157	8.12
689.912	9.12
690.668	7.12
691.423	7.12
692.178	8.12
692.933	9.12
693.688	8.12
694.443	9.12
695.198	7.12
695.953	8.12
696.708	8.12
697.462	8.12
698.217	8.12
698.972	9.12
699.726	9.12
700.48	5.12
701.235	8.12
701.989	8.12
702.743	7.12
703.497	7.12
704.251	8.12
705.005	6.12
705.759	7.12
706.513	9.12
707.266	11.12
708.02	9.12
708.774	8.12
709.527	8.12
710.28	7.12
711.034	7.12
711.787	8.12
712.54	8.12
713.293	8.12
714.046	7.12
714.799	8.12
715.552	8.12
716.305	10.12
717.058	8.12
717.81	8.12
718.563	6.12
719.315	9.12
720.068	5.12
720.82	8.12
721.573	8.12
722.325	6.12
723.077	9.12
723.829	8.12
724.581	8.12
725.333	8.12
726.085	7.12
726.836	8.12
727.588	9.12
728.34	7.12
729.091	7.12
729.843	10.12
730.594	8.12
731.346	8.12
732.097	8.12
732.848	7.12
733.599	9.12
734.35	7.12
735.101	8.12
735.852	10.12
736.603	9.12
737.354	9.12
738.104	9.12
738.855	10.12
739.605	9.12
740.356	9.12
741.106	9.12
741.856	7.12
742.607	13.12
743.357	10.12
744.107	10.12
744.857	8.12
745.607	10.12
746.357	8.12
747.106	8.12
747.856	10.12
748.606	10.12
749.355	10.12
750.105	9.12
750.854	12.12
751.603	11.12
752.353	12.12
753.102	11.12
753.851	9.12
754.6	10.12
755.349	8.12
756.098	10.12
756.847	12.12
757.595	10.12
758.344	12.12
759.093	10.12
759.841	10.12
760.589	9.12
761.338	10.12
762.086	11.12
762.834	9.12
763.582	11.12
764.331	15.12
765.079	12.12
765.826	15.12
766.574	13.12
767.322	15.12
768.07	13.12
768.817	14.12
769.565	12.12
770.312	11.12
771.06	14.12
771.807	13.12
772.554	15.12
773.302	12.12
774.049	12.12
774.796	15.12
775.543	13.12
776.29	14.12
777.036	14.12
777.783	13.12
778.53	13.12
779.276	12.12
780.023	15.12
780.769	13.12
781.516	13.12
782.262	13.12
783.008	15.12
783.754	15.12
784.5	16.12
785.246	14.12
785.992	14.12
786.738	14.12
787.484	14.12
788.23	14.12
788.975	11.12
789.721	14.12
790.466	14.12
791.212	12.12
791.957	15.12
792.702	12.12
793.447	14.12
794.193	11.12
794.938	10.12
795.683	12.12
796.427	12.12
797.172	15.12
797.917	12.12
798.662	11.12
799.406	11.12
800.151	12.12
800.895	11.12
801.64	11.12
802.384	11.12
803.128	11.12
803.872	10.12
804.616	12.12
805.36	11.12
806.104	9.12
806.848	11.12
807.592	10.12
808.336	6.12
809.079	8.12
809.823	8.12
810.566	9.12
811.31	9.12
812.053	7.12
812.796	8.12
813.539	8.12
814.283	9.12
815.026	8.12
815.769	11.12
816.511	8.12
817.254	7.12
817.997	6.12
818.74	9.12
819.482	6.12
820.225	6.12
820.967	8.12
821.71	7.12
822.452	7.12
823.194	4.12
823.936	9.12
824.678	7.12
825.42	6.12
826.162	9.12
826.904	6.12
827.646	5.12
828.388	7.12
829.129	6.12
829.871	8.12
830.612	6.12
831.354	5.12
832.095	4.12
832.836	5.12
833.577	5.12
834.319	3.12
835.06	8.12
835.801	5.12
836.542	3.12
837.282	6.12
838.023	6.12
838.764	2.12
839.504	6.12
840.245	3.12
840.985	4.12
841.726	5.12
842.466	6.12
843.206	5.12
843.946	6.12
844.687	4.12
845.427	4.12
846.166	6.12
846.906	3.12
847.646	5.12
848.386	4.12
849.125	5.12
849.865	4.12
850.605	5.12
851.344	4.12
852.083	6.12
852.823	6.12
853.562	6.12
854.301	4.12
855.04	3.12
855.779	3.12
856.518	3.12
857.257	5.12
857.995	3.12
858.734	0.12
859.473	4.12
860.211	3.12
860.95	4.12
861.688	7.12
862.426	2.12
863.165	2.12
863.903	4.12
864.641	2.12
865.379	3.12
866.117	2.12
866.855	2.12
867.593	2.12
868.33	4.12
869.068	3.12
869.806	4.12
870.543	3.12
871.28	2.12
872.018	1.12
872.755	3.12
873.492	-0.88
874.229	3.12
874.967	2.12
875.703	0.12
876.44	3.12
877.177	2.12
877.914	1.12
878.651	3.12
879.387	0.12
880.124	1.12
880.86	2.12
881.597	2.12
882.333	3.12
883.069	2.12
883.806	2.12
884.542	2.12
885.278	1.12
886.014	3.12
886.749	2.12
887.485	2.12
888.221	1.12
888.957	1.12
889.692	1.12
890.428	1.12
891.163	1.12
891.899	1.12
892.634	2.12
893.369	0.12
894.104	2.12
894.839	0.12
895.574	3.12
896.309	2.12
897.044	1.12
897.779	2.12
898.514	1.12
899.248	3.12
899.983	0.12
900.717	1.12
901.452	0.12
902.186	1.12
902.92	1.12
903.654	1.12
904.389	1.12
905.123	3.12
905.857	0.12
906.59	1.12
907.324	2.12
908.058	3.12
908.792	1.12
909.525	1.12
910.259	3.12
910.992	-0.88
911.726	0.12
912.459	1.12
913.192	0.12
913.925	3.12
914.658	1.12
915.391	0.12
916.124	-1.88
916.857	0.12
917.59	1.12
918.323	0.12
919.055	1.12
919.788	1.12
920.521	3.12
921.253	-0.88
921.985	2.12
922.718	1.12
923.45	-2.88
924.182	1.12
924.914	1.12
925.646	1.12
926.378	-0.88
927.11	1.12
927.841	1.12
928.573	1.12
929.305	1.12
930.036	0.12
930.768	1.12
931.499	-0.88
932.23	-0.88
932.962	1.12
933.693	-0.88
934.424	1.12
935.155	1.12
935.886	-0.88
936.617	0.12
937.348	0.12
938.078	2.12
938.809	0.12
939.54	-0.88
940.27	1.12
941.001	-0.88
941.731	1.12
942.461	0.12
943.191	0.12
943.922	1.12
944.652	0.12
945.382	0.12
946.112	-1.88
946.841	2.12
947.571	-0.88
948.301	2.12
949.031	1.12
949.76	0.12
950.49	0.12
951.219	0.12
951.948	0.12
952.678	1.12
953.407	-0.88
954.136	0.12
954.865	0.12
955.594	0.12
956.323	0.12
957.052	3.12
957.78	1.12
958.509	0.12
959.238	1.12
959.966	-0.88
960.695	2.12
961.423	0.12
962.151	0.12
962.88	-1.88
963.608	-0.88
964.336	-0.88
965.064	-1.88
965.792	3.12
966.52	0.12
967.247	1.12
967.975	1.12
968.703	1.12
969.43	1.12
970.158	-0.88
970.885	-0.88
971.613	0.12
972.34	1.12
973.067	1.12
973.794	-0.88
974.521	0.12
975.248	-0.88
975.975	-0.88
976.702	0.12
977.429	1.12
978.156	0.12
978.882	-1.88
979.609	2.12
980.335	3.12
981.062	0.12
981.788	0.12
982.514	-1.88
983.24	-0.88
983.967	-0.88
984.693	1.12
985.419	-0.88
986.144	1.12
986.87	1.12
987.596	-0.88
988.322	2.12
989.047	3.12
989.773	1.12
990.498	0.12
991.224	2.12
991.949	1.12
992.674	-1.88
993.399	-0.88
994.124	1.12
994.849	-0.88
995.574	1.12
996.299	0.12
997.024	-0.88
997.749	1.12
998.473	-0.88
999.198	1.12
999.922	2.12
1000.647	0.12
1001.371	2.12
1002.095	-0.88
1002.82	0.12
1003.544	1.12
1004.268	4.12
1004.992	2.12
1005.716	3.12
1006.439	8.12
1007.163	3.12
1007.887	4.12
1008.611	1.12
1009.334	2.12
1010.058	1.12
1010.781	0.12
1011.504	0.12
1012.228	0.12
1012.951	-0.88
1013.674	-0.88
1014.397	-0.88
1015.12	0.12
