节点500_705_QEPB04081__516__20-53-13-774.txt的数据

Date: Wed Nov 12 20:53:13 CST 2025
User: PC
Spectrometer: QEPB0408
触发模式: 0
积分时间 (秒): 1.000000E-2
Scans to average: 1
启用暗噪声校正: true
启用非线性校正: false
滑动平均宽度: 0
X轴模式: Wavelengths
Number of Pixels in Spectrum: 1044
>>>>>Begin Spectral Data<<<<<
220.843	7
221.644	6
222.444	6
223.244	6
224.045	7
224.845	7
225.645	9
226.445	9
227.245	8
228.045	9
228.845	8
229.645	7
230.444	8
231.244	8
232.043	9
232.843	9
233.642	10
234.442	11
235.241	10
236.04	9
236.839	13
237.638	11
238.437	14
239.236	13
240.035	13
240.833	14
241.632	11
242.43	15
243.229	13
244.027	12
244.826	13
245.624	12
246.422	15
247.22	17
248.018	13
248.816	15
249.614	16
250.412	16
251.21	14
252.007	17
252.805	16
253.602	18
254.4	18
255.197	22
255.994	19
256.791	18
257.589	20
258.386	23
259.183	22
259.979	20
260.776	23
261.573	23
262.37	21
263.166	24
263.963	26
264.759	23
265.556	23
266.352	28
267.148	26
267.944	27
268.74	30
269.536	27
270.332	27
271.128	28
271.924	30
272.719	32
273.515	30
274.311	29
275.106	31
275.901	30
276.697	34
277.492	34
278.287	32
279.082	34
279.877	32
280.672	32
281.467	32
282.262	32
283.056	32
283.851	33
284.646	33
285.44	32
286.234	32
287.029	34
287.823	35
288.617	30
289.411	34
290.205	32
290.999	30
291.793	32
292.587	30
293.381	31
294.174	31
294.968	26
295.761	28
296.555	30
297.348	28
298.141	28
298.935	29
299.728	28
300.521	25
301.314	26
302.107	22
302.899	23
303.692	21
304.485	25
305.277	22
306.07	22
306.862	23
307.655	22
308.447	20
309.239	22
310.031	21
310.823	19
311.615	19
312.407	20
313.199	19
313.991	16
314.783	17
315.574	15
316.366	17
317.157	16
317.949	16
318.74	15
319.531	12
320.322	14
321.113	12
321.904	16
322.695	16
323.486	14
324.277	14
325.068	12
325.858	15
326.649	14
327.439	13
328.23	13
329.02	13
329.81	14
330.6	14
331.391	16
332.181	14
332.971	14
333.76	13
334.55	11
335.34	15
336.13	12
336.919	11
337.709	12
338.498	14
339.287	14
340.077	11
340.866	13
341.655	11
342.444	12
343.233	14
344.022	12
344.811	12
345.6	11
346.388	12
347.177	13
347.965	12
348.754	11
349.542	14
350.33	10
351.119	13
351.907	14
352.695	15
353.483	10
354.271	11
355.059	11
355.846	12
356.634	10
357.422	10
358.209	11
358.997	9
359.784	12
360.571	8
361.359	14
362.146	11
362.933	9
363.72	9
364.507	12
365.294	9
366.081	9
366.867	11
367.654	11
368.44	9
369.227	11
370.013	9
370.8	11
371.586	11
372.372	7
373.158	11
373.944	9
374.73	11
375.516	10
376.302	11
377.088	11
377.873	11
378.659	12
379.445	12
380.23	12
381.015	10
381.801	11
382.586	14
383.371	10
384.156	11
384.941	10
385.726	11
386.511	15
387.296	11
388.08	14
388.865	12
389.649	11
390.434	14
391.218	10
392.003	10
392.787	10
393.571	12
394.355	12
395.139	15
395.923	13
396.707	12
397.491	15
398.274	13
399.058	16
399.842	12
400.625	12
401.408	14
402.192	14
402.975	15
403.758	14
404.541	16
405.324	14
406.107	13
406.89	19
407.673	13
408.456	19
409.238	15
410.021	19
410.803	18
411.586	14
412.368	18
413.151	20
413.933	19
414.715	19
415.497	16
416.279	19
417.061	19
417.843	19
418.624	19
419.406	20
420.188	20
420.969	24
421.751	18
422.532	23
423.313	22
424.095	25
424.876	25
425.657	24
426.438	26
427.219	28
428	28
428.78	31
429.561	31
430.342	29
431.122	30
431.903	32
432.683	36
433.464	36
434.244	40
435.024	35
435.804	43
436.584	46
437.364	43
438.144	50
438.924	54
439.704	58
440.483	57
441.263	63
442.042	68
442.822	70
443.601	79
444.38	86
445.16	93
445.939	101
446.718	108
447.497	114
448.276	129
449.054	142
449.833	149
450.612	167
451.391	187
452.169	207
452.948	227
453.726	248
454.504	286
455.282	312
456.061	353
456.839	380
457.617	426
458.395	483
459.172	538
459.95	597
460.728	669
461.506	736
462.283	820
463.061	898
463.838	1002
464.615	1136
465.393	1249
466.17	1376
466.947	1522
467.724	1693
468.501	1873
469.278	2056
470.055	2254
470.831	2511
471.608	2729
472.385	2994
473.161	3331
473.938	3633
474.714	3968
475.49	4345
476.266	4727
477.043	5213
477.819	5600
478.595	6130
479.371	6660
480.146	7277
480.922	7854
481.698	8570
482.473	9286
483.249	10075
484.024	10906
484.8	11774
485.575	12710
486.35	13735
487.126	14824
487.901	15979
488.676	17243
489.451	18486
490.225	19876
491	21260
491.775	22725
492.55	24271
493.324	25821
494.099	27417
494.873	29106
495.647	30649
496.422	32343
497.196	34044
497.97	35547
498.744	36999
499.518	38590
500.292	39893
501.066	41028
501.839	41928
502.613	42889
503.387	43547
504.16	44204
504.934	44635
505.707	44635
506.48	44482
507.253	44303
508.027	43841
508.8	43108
509.573	42359
510.346	41503
511.118	40779
511.891	39663
512.664	38343
513.437	36940
514.209	35764
514.982	34383
515.754	33146
516.526	31895
517.298	30571
518.071	29450
518.843	28255
519.615	27098
520.387	26159
521.159	25067
521.93	23981
522.702	23036
523.474	22052
524.245	21173
525.017	20340
525.788	19427
526.56	18681
527.331	17915
528.102	17055
528.873	16084
529.644	15429
530.415	14707
531.186	14090
531.957	13328
532.728	12656
533.498	12029
534.269	11392
535.039	10821
535.81	10228
536.58	9688
537.351	9130
538.121	8724
538.891	8218
539.661	7790
540.431	7329
541.201	6979
541.971	6629
542.741	6273
543.51	5948
544.28	5651
545.05	5387
545.819	5144
546.588	4899
547.358	4686
548.127	4460
548.896	4203
549.665	4002
550.434	3809
551.203	3600
551.972	3429
552.741	3247
553.51	3046
554.278	2895
555.047	2741
555.815	2561
556.584	2440
557.352	2314
558.121	2192
558.889	2060
559.657	1970
560.425	1844
561.193	1760
561.961	1669
562.729	1562
563.496	1497
564.264	1414
565.032	1346
565.799	1252
566.567	1185
567.334	1120
568.101	1056
568.869	1006
569.636	952
570.403	897
571.17	840
571.937	796
572.704	757
573.471	720
574.237	673
575.004	626
575.771	589
576.537	561
577.303	536
578.07	507
578.836	478
579.602	443
580.368	422
581.134	411
581.9	384
582.666	373
583.432	350
584.198	332
584.964	311
585.729	302
586.495	279
587.26	273
588.025	250
588.791	241
589.556	224
590.321	218
591.086	202
591.851	197
592.616	189
593.381	183
594.146	174
594.911	161
595.675	161
596.44	155
597.204	139
597.969	133
598.733	129
599.497	128
600.261	116
601.025	109
601.79	109
602.553	104
603.317	100
604.081	96
604.845	96
605.609	84
606.372	83
607.136	83
607.899	73
608.662	72
609.426	72
610.189	66
610.952	66
611.715	67
612.478	66
613.241	59
614.004	58
614.767	55
615.529	55
616.292	53
617.055	51
617.817	48
618.579	48
619.342	46
620.104	46
620.866	44
621.628	41
622.39	41
623.152	39
623.914	40
624.676	34
625.438	37
626.199	35
626.961	32
627.722	32
628.484	32
629.245	32
630.006	31
630.768	27
631.529	29
632.29	27
633.051	25
633.812	24
634.573	28
635.333	26
636.094	24
636.855	23
637.615	22
638.376	24
639.136	25
639.896	21
640.657	20
641.417	20
642.177	17
642.937	21
643.697	19
644.457	16
645.216	19
645.976	17
646.736	16
647.495	18
648.255	18
649.014	16
649.774	16
650.533	13
651.292	16
652.051	14
652.81	17
653.569	14
654.328	14
655.087	12
655.846	13
656.604	10
657.363	13
658.121	12
658.88	13
659.638	13
660.397	14
661.155	15
661.913	12
662.671	12
663.429	11
664.187	9
664.945	12
665.703	11
666.46	12
667.218	14
667.976	10
668.733	13
669.49	10
670.248	10
671.005	10
671.762	9
672.519	9
673.276	10
674.033	9
674.79	12
675.547	10
676.304	11
677.06	9
677.817	9
678.574	8
679.33	9
680.086	10
680.843	9
681.599	10
682.355	8
683.111	10
683.867	9
684.623	6
685.379	12
686.135	10
686.89	10
687.646	8
688.402	9
689.157	8
689.912	10
690.668	9
691.423	9
692.178	9
692.933	10
693.688	10
694.443	8
695.198	9
695.953	8
696.708	8
697.462	8
698.217	9
698.972	11
699.726	7
700.48	12
701.235	7
701.989	9
702.743	9
703.497	10
704.251	7
705.005	12
705.759	8
706.513	9
707.266	7
708.02	10
708.774	7
709.527	8
710.28	8
711.034	9
711.787	8
712.54	8
713.293	8
714.046	7
714.799	10
715.552	10
716.305	9
717.058	9
717.81	9
718.563	9
719.315	10
720.068	10
720.82	8
721.573	8
722.325	8
723.077	8
723.829	11
724.581	7
725.333	10
726.085	10
726.836	8
727.588	8
728.34	10
729.091	12
729.843	9
730.594	9
731.346	10
732.097	10
732.848	9
733.599	10
734.35	10
735.101	10
735.852	9
736.603	9
737.354	7
738.104	10
738.855	10
739.605	11
740.356	11
741.106	11
741.856	10
742.607	10
743.357	10
744.107	12
744.857	10
745.607	10
746.357	13
747.106	11
747.856	13
748.606	14
749.355	11
750.105	13
750.854	10
751.603	10
752.353	12
753.102	13
753.851	11
754.6	13
755.349	11
756.098	10
756.847	12
757.595	13
758.344	11
759.093	14
759.841	14
760.589	15
761.338	12
762.086	14
762.834	13
763.582	12
764.331	12
765.079	12
765.826	14
766.574	13
767.322	14
768.07	13
768.817	14
769.565	14
770.312	13
771.06	15
771.807	14
772.554	17
773.302	16
774.049	16
774.796	18
775.543	16
776.29	15
777.036	17
777.783	17
778.53	13
779.276	14
780.023	15
780.769	16
781.516	16
782.262	14
783.008	16
783.754	19
784.5	14
785.246	17
785.992	16
786.738	14
787.484	14
788.23	16
788.975	17
789.721	13
790.466	17
791.212	14
791.957	14
792.702	15
793.447	15
794.193	16
794.938	17
795.683	13
796.427	13
797.172	16
797.917	13
798.662	13
799.406	15
800.151	14
800.895	12
801.64	12
802.384	13
803.128	14
803.872	14
804.616	13
805.36	11
806.104	15
806.848	10
807.592	10
808.336	14
809.079	11
809.823	10
810.566	7
811.31	10
812.053	10
812.796	10
813.539	12
814.283	8
815.026	7
815.769	8
816.511	10
817.254	8
817.997	9
818.74	9
819.482	7
820.225	11
820.967	6
821.71	8
822.452	9
823.194	6
823.936	7
824.678	7
825.42	7
826.162	7
826.904	8
827.646	11
828.388	7
829.129	7
829.871	7
830.612	8
831.354	8
832.095	9
832.836	8
833.577	9
834.319	8
835.06	9
835.801	9
836.542	6
837.282	6
838.023	5
838.764	6
839.504	10
840.245	5
840.985	5
841.726	8
842.466	6
843.206	7
843.946	6
844.687	8
845.427	8
846.166	5
846.906	8
847.646	7
848.386	8
849.125	6
849.865	6
850.605	6
851.344	5
852.083	6
852.823	4
853.562	4
854.301	4
855.04	4
855.779	4
856.518	5
857.257	7
857.995	3
858.734	7
859.473	6
860.211	5
860.95	6
861.688	4
862.426	6
863.165	4
863.903	4
864.641	5
865.379	4
866.117	4
866.855	4
867.593	4
868.33	4
869.068	2
869.806	4
870.543	3
871.28	5
872.018	5
872.755	3
873.492	4
874.229	2
874.967	3
875.703	2
876.44	5
877.177	-1
877.914	3
878.651	3
879.387	2
880.124	0
880.86	1
881.597	4
882.333	3
883.069	2
883.806	3
884.542	2
885.278	4
886.014	0
886.749	3
887.485	2
888.221	0
888.957	2
889.692	2
890.428	2
891.163	1
891.899	-1
892.634	3
893.369	3
894.104	2
894.839	3
895.574	3
896.309	1
897.044	3
897.779	4
898.514	4
899.248	3
899.983	3
900.717	3
901.452	3
902.186	2
902.92	3
903.654	3
904.389	0
905.123	2
905.857	0
906.59	3
907.324	3
908.058	2
908.792	1
909.525	2
910.259	2
910.992	1
911.726	4
912.459	3
913.192	1
913.925	1
914.658	2
915.391	1
916.124	-1
916.857	3
917.59	0
918.323	2
919.055	2
919.788	3
920.521	3
921.253	3
921.985	0
922.718	2
923.45	2
924.182	4
924.914	3
925.646	3
926.378	0
927.11	0
927.841	3
928.573	1
929.305	2
930.036	1
930.768	2
931.499	2
932.23	1
932.962	4
933.693	3
934.424	2
935.155	1
935.886	0
936.617	2
937.348	-1
938.078	1
938.809	1
939.54	2
940.27	1
941.001	2
941.731	0
942.461	2
943.191	2
943.922	0
944.652	0
945.382	1
946.112	2
946.841	2
947.571	2
948.301	2
949.031	1
949.76	0
950.49	1
951.219	1
951.948	-1
952.678	3
953.407	2
954.136	3
954.865	3
955.594	3
956.323	1
957.052	2
957.78	1
958.509	2
959.238	1
959.966	3
960.695	2
961.423	0
962.151	1
962.88	-2
963.608	1
964.336	1
965.064	1
965.792	0
966.52	1
967.247	2
967.975	1
968.703	0
969.43	2
970.158	1
970.885	2
971.613	2
972.34	0
973.067	2
973.794	1
974.521	2
975.248	3
975.975	2
976.702	0
977.429	3
978.156	0
978.882	1
979.609	3
980.335	1
981.062	0
981.788	1
982.514	3
983.24	4
983.967	-1
984.693	2
985.419	1
986.144	2
986.87	1
987.596	-2
988.322	4
989.047	3
989.773	1
990.498	1
991.224	-2
991.949	1
992.674	0
993.399	1
994.124	2
994.849	1
995.574	3
996.299	2
997.024	2
997.749	2
998.473	2
999.198	3
999.922	0
1000.647	2
1001.371	4
1002.095	-1
1002.82	-2
1003.544	-2
1004.268	4
1004.992	6
1005.716	7
1006.439	4
1007.163	8
1007.887	8
1008.611	3
1009.334	0
1010.058	1
1010.781	2
1011.504	0
1012.228	0
1012.951	2
1013.674	-1
1014.397	0
1015.12	0
