节点500_705_QEPB04081__393__20-51-31-614.txt的数据

Date: Wed Nov 12 20:51:31 CST 2025
User: PC
Spectrometer: QEPB0408
触发模式: 0
积分时间 (秒): 1.000000E-2
Scans to average: 1
启用暗噪声校正: true
启用非线性校正: false
滑动平均宽度: 0
X轴模式: Wavelengths
Number of Pixels in Spectrum: 1044
>>>>>Begin Spectral Data<<<<<
220.843	6.88
221.644	5.88
222.444	5.88
223.244	5.88
224.045	4.88
224.845	5.88
225.645	4.88
226.445	4.88
227.245	7.88
228.045	9.88
228.845	7.88
229.645	7.88
230.444	8.88
231.244	6.88
232.043	8.88
232.843	5.88
233.642	10.88
234.442	8.88
235.241	8.88
236.04	11.88
236.839	10.88
237.638	10.88
238.437	9.88
239.236	11.88
240.035	10.88
240.833	12.88
241.632	11.88
242.43	10.88
243.229	10.88
244.027	12.88
244.826	11.88
245.624	10.88
246.422	12.88
247.22	13.88
248.018	13.88
248.816	16.88
249.614	12.88
250.412	14.88
251.21	18.88
252.007	13.88
252.805	16.88
253.602	17.88
254.4	19.88
255.197	19.88
255.994	21.88
256.791	19.88
257.589	18.88
258.386	22.88
259.183	22.88
259.979	18.88
260.776	23.88
261.573	22.88
262.37	23.88
263.166	22.88
263.963	23.88
264.759	26.88
265.556	25.88
266.352	22.88
267.148	26.88
267.944	26.88
268.74	26.88
269.536	30.88
270.332	29.88
271.128	27.88
271.924	29.88
272.719	30.88
273.515	32.88
274.311	29.88
275.106	31.88
275.901	31.88
276.697	34.88
277.492	35.88
278.287	33.88
279.082	31.88
279.877	34.88
280.672	34.88
281.467	32.88
282.262	31.88
283.056	32.88
283.851	33.88
284.646	32.88
285.44	29.88
286.234	35.88
287.029	33.88
287.823	31.88
288.617	31.88
289.411	29.88
290.205	31.88
290.999	33.88
291.793	30.88
292.587	32.88
293.381	29.88
294.174	33.88
294.968	26.88
295.761	26.88
296.555	26.88
297.348	23.88
298.141	25.88
298.935	26.88
299.728	24.88
300.521	22.88
301.314	24.88
302.107	22.88
302.899	21.88
303.692	19.88
304.485	22.88
305.277	20.88
306.07	21.88
306.862	21.88
307.655	20.88
308.447	20.88
309.239	18.88
310.031	19.88
310.823	18.88
311.615	18.88
312.407	18.88
313.199	15.88
313.991	17.88
314.783	17.88
315.574	15.88
316.366	16.88
317.157	17.88
317.949	12.88
318.74	16.88
319.531	16.88
320.322	12.88
321.113	14.88
321.904	12.88
322.695	14.88
323.486	13.88
324.277	11.88
325.068	12.88
325.858	9.88
326.649	14.88
327.439	10.88
328.23	10.88
329.02	15.88
329.81	10.88
330.6	11.88
331.391	13.88
332.181	13.88
332.971	13.88
333.76	12.88
334.55	12.88
335.34	12.88
336.13	10.88
336.919	11.88
337.709	10.88
338.498	11.88
339.287	11.88
340.077	10.88
340.866	11.88
341.655	12.88
342.444	12.88
343.233	14.88
344.022	10.88
344.811	15.88
345.6	7.88
346.388	12.88
347.177	8.88
347.965	10.88
348.754	11.88
349.542	12.88
350.33	9.88
351.119	12.88
351.907	11.88
352.695	8.88
353.483	13.88
354.271	8.88
355.059	11.88
355.846	7.88
356.634	8.88
357.422	11.88
358.209	10.88
358.997	8.88
359.784	8.88
360.571	9.88
361.359	9.88
362.146	9.88
362.933	9.88
363.72	10.88
364.507	8.88
365.294	8.88
366.081	8.88
366.867	8.88
367.654	8.88
368.44	11.88
369.227	8.88
370.013	8.88
370.8	8.88
371.586	8.88
372.372	9.88
373.158	9.88
373.944	8.88
374.73	10.88
375.516	11.88
376.302	9.88
377.088	5.88
377.873	11.88
378.659	9.88
379.445	10.88
380.23	11.88
381.015	10.88
381.801	10.88
382.586	10.88
383.371	10.88
384.156	8.88
384.941	10.88
385.726	10.88
386.511	12.88
387.296	10.88
388.08	9.88
388.865	9.88
389.649	9.88
390.434	12.88
391.218	11.88
392.003	9.88
392.787	11.88
393.571	9.88
394.355	11.88
395.139	12.88
395.923	10.88
396.707	11.88
397.491	11.88
398.274	12.88
399.058	14.88
399.842	13.88
400.625	13.88
401.408	14.88
402.192	11.88
402.975	13.88
403.758	14.88
404.541	12.88
405.324	14.88
406.107	14.88
406.89	13.88
407.673	15.88
408.456	14.88
409.238	16.88
410.021	15.88
410.803	16.88
411.586	16.88
412.368	15.88
413.151	15.88
413.933	19.88
414.715	17.88
415.497	18.88
416.279	18.88
417.061	20.88
417.843	19.88
418.624	19.88
419.406	19.88
420.188	22.88
420.969	20.88
421.751	20.88
422.532	21.88
423.313	22.88
424.095	24.88
424.876	24.88
425.657	23.88
426.438	25.88
427.219	26.88
428	25.88
428.78	25.88
429.561	29.88
430.342	29.88
431.122	31.88
431.903	34.88
432.683	33.88
433.464	31.88
434.244	35.88
435.024	38.88
435.804	38.88
436.584	40.88
437.364	43.88
438.144	47.88
438.924	51.88
439.704	55.88
440.483	56.88
441.263	61.88
442.042	62.88
442.822	67.88
443.601	76.88
444.38	81.88
445.16	88.88
445.939	95.88
446.718	103.88
447.497	112.88
448.276	121.88
449.054	133.88
449.833	145.88
450.612	164.88
451.391	181.88
452.169	201.88
452.948	222.88
453.726	246.88
454.504	270.88
455.282	307.88
456.061	336.88
456.839	374.88
457.617	424.88
458.395	472.88
459.172	513.88
459.95	590.88
460.728	648.88
461.506	725.88
462.283	801.88
463.061	889.88
463.838	994.88
464.615	1100.88
465.393	1236.88
466.17	1367.88
466.947	1517.88
467.724	1679.88
468.501	1865.88
469.278	2062.88
470.055	2281.88
470.831	2510.88
471.608	2778.88
472.385	3053.88
473.161	3380.88
473.938	3678.88
474.714	4033.88
475.49	4432.88
476.266	4836.88
477.043	5278.88
477.819	5785.88
478.595	6323.88
479.371	6854.88
480.146	7516.88
480.922	8198.88
481.698	8893.88
482.473	9650.88
483.249	10541.88
484.024	11396.88
484.8	12340.88
485.575	13326.88
486.35	14522.88
487.126	15666.88
487.901	16929.88
488.676	18218.88
489.451	19714.88
490.225	21105.88
491	22633.88
491.775	24202.88
492.55	25870.88
493.324	27521.88
494.099	29292.88
494.873	31032.88
495.647	32794.88
496.422	34493.88
497.196	36234.88
497.97	37834.88
498.744	39343.88
499.518	41026.88
500.292	42405.88
501.066	43332.88
501.839	44337.88
502.613	45103.88
503.387	45858.88
504.16	46290.88
504.934	46483.88
505.707	46586.88
506.48	46174.88
507.253	45834.88
508.027	45261.88
508.8	44355.88
509.573	43409.88
510.346	42405.88
511.118	41460.88
511.891	40160.88
512.664	38861.88
513.437	37410.88
514.209	36067.88
514.982	34579.88
515.754	33263.88
516.526	31942.88
517.298	30745.88
518.071	29568.88
518.843	28309.88
519.615	27192.88
520.387	26121.88
521.159	25049.88
521.93	24018.88
522.702	23027.88
523.474	22036.88
524.245	21093.88
525.017	20205.88
525.788	19409.88
526.56	18622.88
527.331	17807.88
528.102	16859.88
528.873	16022.88
529.644	15282.88
530.415	14580.88
531.186	13871.88
531.957	13161.88
532.728	12492.88
533.498	11872.88
534.269	11233.88
535.039	10604.88
535.81	10049.88
536.58	9530.88
537.351	9025.88
538.121	8532.88
538.891	8060.88
539.661	7629.88
540.431	7211.88
541.201	6872.88
541.971	6494.88
542.741	6154.88
543.51	5818.88
544.28	5570.88
545.05	5308.88
545.819	5056.88
546.588	4814.88
547.358	4579.88
548.127	4343.88
548.896	4144.88
549.665	3921.88
550.434	3730.88
551.203	3525.88
551.972	3354.88
552.741	3174.88
553.51	2999.88
554.278	2814.88
555.047	2679.88
555.815	2520.88
556.584	2388.88
557.352	2269.88
558.121	2159.88
558.889	2013.88
559.657	1910.88
560.425	1809.88
561.193	1708.88
561.961	1608.88
562.729	1521.88
563.496	1454.88
564.264	1366.88
565.032	1282.88
565.799	1224.88
566.567	1149.88
567.334	1082.88
568.101	1030.88
568.869	972.88
569.636	917.88
570.403	862.88
571.17	825.88
571.937	778.88
572.704	728.88
573.471	692.88
574.237	654.88
575.004	613.88
575.771	577.88
576.537	546.88
577.303	519.88
578.07	497.88
578.836	454.88
579.602	431.88
580.368	420.88
581.134	396.88
581.9	375.88
582.666	363.88
583.432	333.88
584.198	322.88
584.964	300.88
585.729	289.88
586.495	280.88
587.26	256.88
588.025	246.88
588.791	233.88
589.556	224.88
590.321	206.88
591.086	196.88
591.851	186.88
592.616	175.88
593.381	168.88
594.146	163.88
594.911	156.88
595.675	147.88
596.44	142.88
597.204	142.88
597.969	128.88
598.733	122.88
599.497	118.88
600.261	114.88
601.025	112.88
601.79	103.88
602.553	102.88
603.317	93.88
604.081	91.88
604.845	87.88
605.609	85.88
606.372	81.88
607.136	78.88
607.899	74.88
608.662	75.88
609.426	71.88
610.189	67.88
610.952	66.88
611.715	63.88
612.478	60.88
613.241	57.88
614.004	54.88
614.767	52.88
615.529	53.88
616.292	48.88
617.055	47.88
617.817	46.88
618.579	46.88
619.342	46.88
620.104	40.88
620.866	39.88
621.628	39.88
622.39	37.88
623.152	39.88
623.914	39.88
624.676	34.88
625.438	32.88
626.199	34.88
626.961	30.88
627.722	30.88
628.484	27.88
629.245	26.88
630.006	24.88
630.768	26.88
631.529	26.88
632.29	26.88
633.051	24.88
633.812	25.88
634.573	23.88
635.333	25.88
636.094	22.88
636.855	21.88
637.615	21.88
638.376	20.88
639.136	18.88
639.896	21.88
640.657	21.88
641.417	18.88
642.177	15.88
642.937	16.88
643.697	19.88
644.457	19.88
645.216	17.88
645.976	17.88
646.736	15.88
647.495	13.88
648.255	16.88
649.014	14.88
649.774	15.88
650.533	12.88
651.292	13.88
652.051	12.88
652.81	13.88
653.569	14.88
654.328	12.88
655.087	13.88
655.846	11.88
656.604	12.88
657.363	12.88
658.121	12.88
658.88	12.88
659.638	11.88
660.397	11.88
661.155	9.88
661.913	9.88
662.671	11.88
663.429	11.88
664.187	10.88
664.945	9.88
665.703	6.88
666.46	8.88
667.218	6.88
667.976	10.88
668.733	10.88
669.49	11.88
670.248	9.88
671.005	10.88
671.762	8.88
672.519	6.88
673.276	8.88
674.033	12.88
674.79	7.88
675.547	6.88
676.304	9.88
677.06	9.88
677.817	8.88
678.574	6.88
679.33	6.88
680.086	8.88
680.843	6.88
681.599	6.88
682.355	6.88
683.111	10.88
683.867	8.88
684.623	10.88
685.379	8.88
686.135	8.88
686.89	6.88
687.646	6.88
688.402	6.88
689.157	6.88
689.912	8.88
690.668	8.88
691.423	9.88
692.178	8.88
692.933	9.88
693.688	7.88
694.443	6.88
695.198	5.88
695.953	6.88
696.708	5.88
697.462	7.88
698.217	8.88
698.972	5.88
699.726	7.88
700.48	7.88
701.235	9.88
701.989	6.88
702.743	8.88
703.497	7.88
704.251	6.88
705.005	4.88
705.759	9.88
706.513	7.88
707.266	8.88
708.02	7.88
708.774	7.88
709.527	4.88
710.28	5.88
711.034	8.88
711.787	7.88
712.54	8.88
713.293	7.88
714.046	8.88
714.799	8.88
715.552	7.88
716.305	5.88
717.058	6.88
717.81	7.88
718.563	9.88
719.315	6.88
720.068	6.88
720.82	9.88
721.573	7.88
722.325	8.88
723.077	8.88
723.829	8.88
724.581	7.88
725.333	7.88
726.085	7.88
726.836	7.88
727.588	4.88
728.34	7.88
729.091	9.88
729.843	7.88
730.594	7.88
731.346	6.88
732.097	8.88
732.848	7.88
733.599	7.88
734.35	10.88
735.101	10.88
735.852	10.88
736.603	9.88
737.354	7.88
738.104	10.88
738.855	9.88
739.605	5.88
740.356	4.88
741.106	10.88
741.856	9.88
742.607	9.88
743.357	10.88
744.107	10.88
744.857	9.88
745.607	11.88
746.357	8.88
747.106	11.88
747.856	9.88
748.606	10.88
749.355	9.88
750.105	9.88
750.854	10.88
751.603	7.88
752.353	10.88
753.102	9.88
753.851	13.88
754.6	9.88
755.349	10.88
756.098	12.88
756.847	11.88
757.595	11.88
758.344	9.88
759.093	10.88
759.841	12.88
760.589	12.88
761.338	7.88
762.086	10.88
762.834	11.88
763.582	12.88
764.331	12.88
765.079	12.88
765.826	15.88
766.574	18.88
767.322	12.88
768.07	10.88
768.817	14.88
769.565	10.88
770.312	12.88
771.06	13.88
771.807	12.88
772.554	15.88
773.302	17.88
774.049	14.88
774.796	13.88
775.543	12.88
776.29	15.88
777.036	13.88
777.783	15.88
778.53	14.88
779.276	15.88
780.023	13.88
780.769	14.88
781.516	13.88
782.262	13.88
783.008	14.88
783.754	15.88
784.5	15.88
785.246	17.88
785.992	14.88
786.738	15.88
787.484	13.88
788.23	16.88
788.975	13.88
789.721	16.88
790.466	14.88
791.212	14.88
791.957	14.88
792.702	12.88
793.447	14.88
794.193	13.88
794.938	14.88
795.683	13.88
796.427	11.88
797.172	14.88
797.917	11.88
798.662	12.88
799.406	10.88
800.151	10.88
800.895	14.88
801.64	12.88
802.384	13.88
803.128	12.88
803.872	13.88
804.616	10.88
805.36	10.88
806.104	9.88
806.848	7.88
807.592	11.88
808.336	10.88
809.079	9.88
809.823	8.88
810.566	8.88
811.31	8.88
812.053	9.88
812.796	8.88
813.539	8.88
814.283	8.88
815.026	9.88
815.769	5.88
816.511	7.88
817.254	5.88
817.997	8.88
818.74	6.88
819.482	7.88
820.225	7.88
820.967	6.88
821.71	7.88
822.452	5.88
823.194	6.88
823.936	6.88
824.678	5.88
825.42	4.88
826.162	8.88
826.904	7.88
827.646	5.88
828.388	4.88
829.129	5.88
829.871	7.88
830.612	7.88
831.354	4.88
832.095	4.88
832.836	7.88
833.577	8.88
834.319	5.88
835.06	8.88
835.801	7.88
836.542	4.88
837.282	5.88
838.023	5.88
838.764	5.88
839.504	6.88
840.245	7.88
840.985	5.88
841.726	4.88
842.466	3.88
843.206	3.88
843.946	4.88
844.687	6.88
845.427	4.88
846.166	4.88
846.906	2.88
847.646	4.88
848.386	4.88
849.125	5.88
849.865	4.88
850.605	4.88
851.344	2.88
852.083	3.88
852.823	4.88
853.562	4.88
854.301	2.88
855.04	2.88
855.779	2.88
856.518	2.88
857.257	4.88
857.995	2.88
858.734	1.88
859.473	2.88
860.211	3.88
860.95	4.88
861.688	2.88
862.426	5.88
863.165	1.88
863.903	3.88
864.641	4.88
865.379	2.88
866.117	2.88
866.855	-0.12
867.593	1.88
868.33	4.88
869.068	0.88
869.806	2.88
870.543	1.88
871.28	3.88
872.018	0.88
872.755	3.88
873.492	2.88
874.229	1.88
874.967	3.88
875.703	2.88
876.44	2.88
877.177	0.88
877.914	0.88
878.651	2.88
879.387	0.88
880.124	3.88
880.86	1.88
881.597	1.88
882.333	1.88
883.069	2.88
883.806	2.88
884.542	0.88
885.278	1.88
886.014	2.88
886.749	-1.12
887.485	1.88
888.221	-0.12
888.957	2.88
889.692	0.88
890.428	2.88
891.163	0.88
891.899	1.88
892.634	2.88
893.369	1.88
894.104	0.88
894.839	-0.12
895.574	-0.12
896.309	0.88
897.044	-1.12
897.779	0.88
898.514	1.88
899.248	0.88
899.983	0.88
900.717	-0.12
901.452	-0.12
902.186	-1.12
902.92	-0.12
903.654	0.88
904.389	-1.12
905.123	-1.12
905.857	-1.12
906.59	1.88
907.324	-0.12
908.058	1.88
908.792	0.88
909.525	-2.12
910.259	0.88
910.992	0.88
911.726	1.88
912.459	0.88
913.192	0.88
913.925	-0.12
914.658	-1.12
915.391	-0.12
916.124	1.88
916.857	-0.12
917.59	1.88
918.323	-0.12
919.055	-1.12
919.788	-1.12
920.521	2.88
921.253	-1.12
921.985	-0.12
922.718	0.88
923.45	0.88
924.182	1.88
924.914	-1.12
925.646	0.88
926.378	-0.12
927.11	-0.12
927.841	2.88
928.573	-0.12
929.305	0.88
930.036	-0.12
930.768	0.88
931.499	1.88
932.23	1.88
932.962	1.88
933.693	-0.12
934.424	-0.12
935.155	-1.12
935.886	-0.12
936.617	1.88
937.348	1.88
938.078	-0.12
938.809	1.88
939.54	-0.12
940.27	2.88
941.001	0.88
941.731	0.88
942.461	-1.12
943.191	1.88
943.922	0.88
944.652	-0.12
945.382	-1.12
946.112	0.88
946.841	0.88
947.571	0.88
948.301	0.88
949.031	-1.12
949.76	-1.12
950.49	0.88
951.219	-1.12
951.948	1.88
952.678	-1.12
953.407	-0.12
954.136	-1.12
954.865	-1.12
955.594	0.88
956.323	-0.12
957.052	1.88
957.78	0.88
958.509	0.88
959.238	-0.12
959.966	-0.12
960.695	1.88
961.423	1.88
962.151	-1.12
962.88	-1.12
963.608	2.88
964.336	-0.12
965.064	2.88
965.792	0.88
966.52	0.88
967.247	-1.12
967.975	2.88
968.703	-1.12
969.43	0.88
970.158	0.88
970.885	1.88
971.613	-2.12
972.34	-0.12
973.067	1.88
973.794	0.88
974.521	0.88
975.248	-1.12
975.975	-0.12
976.702	1.88
977.429	0.88
978.156	-1.12
978.882	0.88
979.609	-0.12
980.335	0.88
981.062	1.88
981.788	-0.12
982.514	-0.12
983.24	0.88
983.967	-0.12
984.693	-0.12
985.419	0.88
986.144	-0.12
986.87	-0.12
987.596	-0.12
988.322	0.88
989.047	-1.12
989.773	0.88
990.498	-1.12
991.224	-0.12
991.949	2.88
992.674	-0.12
993.399	1.88
994.124	0.88
994.849	-1.12
995.574	0.88
996.299	-1.12
997.024	0.88
997.749	1.88
998.473	-0.12
999.198	-1.12
999.922	-0.12
1000.647	0.88
1001.371	1.88
1002.095	-2.12
1002.82	-0.12
1003.544	-1.12
1004.268	6.88
1004.992	2.88
1005.716	2.88
1006.439	6.88
1007.163	4.88
1007.887	3.88
1008.611	-1.12
1009.334	-0.12
1010.058	1.88
1010.781	-0.12
1011.504	-1.12
1012.228	-0.12
1012.951	0.88
1013.674	0.88
1014.397	0.88
1015.12	-1.12
