节点500_705_QEPB04081__467__20-52-31-778.txt的数据

Date: Wed Nov 12 20:52:31 CST 2025
User: PC
Spectrometer: QEPB0408
触发模式: 0
积分时间 (秒): 1.000000E-2
Scans to average: 1
启用暗噪声校正: true
启用非线性校正: false
滑动平均宽度: 0
X轴模式: Wavelengths
Number of Pixels in Spectrum: 1044
>>>>>Begin Spectral Data<<<<<
220.843	4.12
221.644	4.12
222.444	7.12
223.244	7.12
224.045	7.12
224.845	6.12
225.645	5.12
226.445	6.12
227.245	5.12
228.045	8.12
228.845	9.12
229.645	9.12
230.444	11.12
231.244	9.12
232.043	10.12
232.843	11.12
233.642	10.12
234.442	10.12
235.241	8.12
236.04	8.12
236.839	13.12
237.638	10.12
238.437	9.12
239.236	9.12
240.035	10.12
240.833	11.12
241.632	11.12
242.43	14.12
243.229	12.12
244.027	15.12
244.826	13.12
245.624	14.12
246.422	10.12
247.22	14.12
248.018	15.12
248.816	13.12
249.614	16.12
250.412	15.12
251.21	15.12
252.007	14.12
252.805	15.12
253.602	16.12
254.4	16.12
255.197	17.12
255.994	20.12
256.791	16.12
257.589	19.12
258.386	19.12
259.183	20.12
259.979	22.12
260.776	23.12
261.573	22.12
262.37	24.12
263.166	24.12
263.963	25.12
264.759	24.12
265.556	24.12
266.352	24.12
267.148	26.12
267.944	25.12
268.74	27.12
269.536	25.12
270.332	28.12
271.128	28.12
271.924	30.12
272.719	27.12
273.515	30.12
274.311	34.12
275.106	30.12
275.901	31.12
276.697	33.12
277.492	32.12
278.287	33.12
279.082	31.12
279.877	33.12
280.672	35.12
281.467	35.12
282.262	32.12
283.056	35.12
283.851	31.12
284.646	35.12
285.44	31.12
286.234	33.12
287.029	30.12
287.823	34.12
288.617	30.12
289.411	31.12
290.205	35.12
290.999	32.12
291.793	33.12
292.587	27.12
293.381	32.12
294.174	30.12
294.968	29.12
295.761	27.12
296.555	25.12
297.348	29.12
298.141	26.12
298.935	28.12
299.728	24.12
300.521	22.12
301.314	26.12
302.107	22.12
302.899	22.12
303.692	23.12
304.485	25.12
305.277	22.12
306.07	20.12
306.862	21.12
307.655	21.12
308.447	22.12
309.239	20.12
310.031	21.12
310.823	18.12
311.615	20.12
312.407	19.12
313.199	20.12
313.991	17.12
314.783	15.12
315.574	15.12
316.366	14.12
317.157	15.12
317.949	13.12
318.74	16.12
319.531	15.12
320.322	15.12
321.113	13.12
321.904	15.12
322.695	14.12
323.486	14.12
324.277	13.12
325.068	14.12
325.858	15.12
326.649	11.12
327.439	14.12
328.23	15.12
329.02	17.12
329.81	12.12
330.6	12.12
331.391	12.12
332.181	11.12
332.971	12.12
333.76	10.12
334.55	11.12
335.34	14.12
336.13	9.12
336.919	14.12
337.709	11.12
338.498	13.12
339.287	13.12
340.077	10.12
340.866	13.12
341.655	11.12
342.444	12.12
343.233	11.12
344.022	11.12
344.811	11.12
345.6	8.12
346.388	12.12
347.177	11.12
347.965	12.12
348.754	11.12
349.542	11.12
350.33	11.12
351.119	10.12
351.907	13.12
352.695	11.12
353.483	13.12
354.271	9.12
355.059	9.12
355.846	11.12
356.634	10.12
357.422	10.12
358.209	11.12
358.997	9.12
359.784	10.12
360.571	7.12
361.359	12.12
362.146	7.12
362.933	10.12
363.72	9.12
364.507	10.12
365.294	9.12
366.081	10.12
366.867	9.12
367.654	10.12
368.44	10.12
369.227	10.12
370.013	10.12
370.8	11.12
371.586	11.12
372.372	10.12
373.158	8.12
373.944	8.12
374.73	9.12
375.516	8.12
376.302	10.12
377.088	8.12
377.873	9.12
378.659	11.12
379.445	9.12
380.23	8.12
381.015	11.12
381.801	9.12
382.586	11.12
383.371	11.12
384.156	12.12
384.941	9.12
385.726	13.12
386.511	11.12
387.296	13.12
388.08	10.12
388.865	10.12
389.649	12.12
390.434	13.12
391.218	11.12
392.003	12.12
392.787	13.12
393.571	11.12
394.355	13.12
395.139	11.12
395.923	10.12
396.707	14.12
397.491	13.12
398.274	11.12
399.058	13.12
399.842	14.12
400.625	11.12
401.408	13.12
402.192	14.12
402.975	11.12
403.758	14.12
404.541	14.12
405.324	13.12
406.107	15.12
406.89	15.12
407.673	13.12
408.456	17.12
409.238	17.12
410.021	19.12
410.803	16.12
411.586	14.12
412.368	17.12
413.151	18.12
413.933	17.12
414.715	17.12
415.497	16.12
416.279	18.12
417.061	17.12
417.843	19.12
418.624	18.12
419.406	20.12
420.188	19.12
420.969	24.12
421.751	19.12
422.532	25.12
423.313	20.12
424.095	24.12
424.876	26.12
425.657	25.12
426.438	26.12
427.219	28.12
428	26.12
428.78	28.12
429.561	29.12
430.342	29.12
431.122	32.12
431.903	31.12
432.683	37.12
433.464	35.12
434.244	39.12
435.024	37.12
435.804	41.12
436.584	44.12
437.364	43.12
438.144	47.12
438.924	51.12
439.704	58.12
440.483	57.12
441.263	62.12
442.042	67.12
442.822	67.12
443.601	76.12
444.38	82.12
445.16	89.12
445.939	96.12
446.718	109.12
447.497	115.12
448.276	124.12
449.054	136.12
449.833	150.12
450.612	173.12
451.391	182.12
452.169	206.12
452.948	221.12
453.726	253.12
454.504	283.12
455.282	307.12
456.061	345.12
456.839	382.12
457.617	435.12
458.395	469.12
459.172	529.12
459.95	601.12
460.728	659.12
461.506	736.12
462.283	810.12
463.061	900.12
463.838	1005.12
464.615	1124.12
465.393	1247.12
466.17	1367.12
466.947	1543.12
467.724	1683.12
468.501	1871.12
469.278	2076.12
470.055	2274.12
470.831	2503.12
471.608	2752.12
472.385	3042.12
473.161	3339.12
473.938	3661.12
474.714	4004.12
475.49	4395.12
476.266	4784.12
477.043	5251.12
477.819	5712.12
478.595	6197.12
479.371	6773.12
480.146	7379.12
480.922	7996.12
481.698	8701.12
482.473	9464.12
483.249	10244.12
484.024	11072.12
484.8	12013.12
485.575	12954.12
486.35	14043.12
487.126	15153.12
487.901	16319.12
488.676	17611.12
489.451	18984.12
490.225	20364.12
491	21784.12
491.775	23278.12
492.55	24885.12
493.324	26489.12
494.099	28138.12
494.873	29803.12
495.647	31497.12
496.422	33165.12
497.196	34930.12
497.97	36421.12
498.744	38007.12
499.518	39583.12
500.292	40949.12
501.066	42024.12
501.839	42966.12
502.613	43885.12
503.387	44604.12
504.16	45114.12
504.934	45314.12
505.707	45505.12
506.48	45308.12
507.253	44936.12
508.027	44490.12
508.8	43782.12
509.573	42984.12
510.346	42013.12
511.118	41092.12
511.891	40008.12
512.664	38573.12
513.437	37278.12
514.209	35960.12
514.982	34589.12
515.754	33289.12
516.526	31991.12
517.298	30778.12
518.071	29574.12
518.843	28433.12
519.615	27225.12
520.387	26156.12
521.159	25120.12
521.93	24116.12
522.702	23141.12
523.474	22162.12
524.245	21214.12
525.017	20354.12
525.788	19509.12
526.56	18707.12
527.331	17990.12
528.102	17012.12
528.873	16171.12
529.644	15436.12
530.415	14715.12
531.186	14040.12
531.957	13293.12
532.728	12649.12
533.498	11997.12
534.269	11432.12
535.039	10812.12
535.81	10211.12
536.58	9671.12
537.351	9169.12
538.121	8674.12
538.891	8195.12
539.661	7726.12
540.431	7305.12
541.201	6987.12
541.971	6614.12
542.741	6226.12
543.51	5944.12
544.28	5660.12
545.05	5399.12
545.819	5150.12
546.588	4903.12
547.358	4652.12
548.127	4400.12
548.896	4211.12
549.665	3984.12
550.434	3801.12
551.203	3571.12
551.972	3415.12
552.741	3244.12
553.51	3050.12
554.278	2860.12
555.047	2733.12
555.815	2591.12
556.584	2458.12
557.352	2315.12
558.121	2168.12
558.889	2060.12
559.657	1938.12
560.425	1831.12
561.193	1750.12
561.961	1649.12
562.729	1559.12
563.496	1474.12
564.264	1385.12
565.032	1325.12
565.799	1243.12
566.567	1185.12
567.334	1111.12
568.101	1050.12
568.869	996.12
569.636	949.12
570.403	885.12
571.17	834.12
571.937	799.12
572.704	743.12
573.471	712.12
574.237	651.12
575.004	632.12
575.771	600.12
576.537	556.12
577.303	528.12
578.07	497.12
578.836	472.12
579.602	446.12
580.368	421.12
581.134	404.12
581.9	385.12
582.666	366.12
583.432	348.12
584.198	337.12
584.964	316.12
585.729	293.12
586.495	283.12
587.26	259.12
588.025	253.12
588.791	237.12
589.556	228.12
590.321	218.12
591.086	199.12
591.851	195.12
592.616	177.12
593.381	177.12
594.146	169.12
594.911	159.12
595.675	158.12
596.44	141.12
597.204	139.12
597.969	133.12
598.733	125.12
599.497	125.12
600.261	119.12
601.025	116.12
601.79	107.12
602.553	105.12
603.317	100.12
604.081	95.12
604.845	93.12
605.609	87.12
606.372	86.12
607.136	77.12
607.899	79.12
608.662	73.12
609.426	72.12
610.189	69.12
610.952	66.12
611.715	62.12
612.478	61.12
613.241	58.12
614.004	59.12
614.767	55.12
615.529	56.12
616.292	52.12
617.055	51.12
617.817	48.12
618.579	43.12
619.342	43.12
620.104	45.12
620.866	42.12
621.628	42.12
622.39	40.12
623.152	37.12
623.914	36.12
624.676	35.12
625.438	34.12
626.199	34.12
626.961	33.12
627.722	32.12
628.484	33.12
629.245	31.12
630.006	28.12
630.768	27.12
631.529	28.12
632.29	25.12
633.051	26.12
633.812	25.12
634.573	22.12
635.333	25.12
636.094	23.12
636.855	22.12
637.615	22.12
638.376	22.12
639.136	21.12
639.896	20.12
640.657	22.12
641.417	18.12
642.177	18.12
642.937	18.12
643.697	17.12
644.457	19.12
645.216	18.12
645.976	15.12
646.736	14.12
647.495	13.12
648.255	18.12
649.014	14.12
649.774	16.12
650.533	14.12
651.292	13.12
652.051	11.12
652.81	14.12
653.569	17.12
654.328	15.12
655.087	13.12
655.846	13.12
656.604	13.12
657.363	14.12
658.121	14.12
658.88	12.12
659.638	10.12
660.397	14.12
661.155	13.12
661.913	11.12
662.671	13.12
663.429	9.12
664.187	12.12
664.945	12.12
665.703	10.12
666.46	12.12
667.218	9.12
667.976	8.12
668.733	10.12
669.49	10.12
670.248	8.12
671.005	10.12
671.762	9.12
672.519	9.12
673.276	11.12
674.033	9.12
674.79	8.12
675.547	9.12
676.304	10.12
677.06	7.12
677.817	8.12
678.574	8.12
679.33	8.12
680.086	9.12
680.843	9.12
681.599	7.12
682.355	10.12
683.111	7.12
683.867	9.12
684.623	7.12
685.379	9.12
686.135	6.12
686.89	9.12
687.646	9.12
688.402	9.12
689.157	7.12
689.912	8.12
690.668	7.12
691.423	7.12
692.178	10.12
692.933	7.12
693.688	8.12
694.443	8.12
695.198	8.12
695.953	8.12
696.708	7.12
697.462	8.12
698.217	9.12
698.972	9.12
699.726	6.12
700.48	8.12
701.235	8.12
701.989	8.12
702.743	10.12
703.497	4.12
704.251	8.12
705.005	7.12
705.759	7.12
706.513	9.12
707.266	8.12
708.02	8.12
708.774	5.12
709.527	7.12
710.28	7.12
711.034	7.12
711.787	9.12
712.54	9.12
713.293	9.12
714.046	7.12
714.799	9.12
715.552	6.12
716.305	6.12
717.058	7.12
717.81	7.12
718.563	9.12
719.315	7.12
720.068	8.12
720.82	9.12
721.573	7.12
722.325	8.12
723.077	7.12
723.829	7.12
724.581	9.12
725.333	8.12
726.085	7.12
726.836	7.12
727.588	10.12
728.34	9.12
729.091	6.12
729.843	10.12
730.594	10.12
731.346	10.12
732.097	10.12
732.848	12.12
733.599	10.12
734.35	8.12
735.101	9.12
735.852	7.12
736.603	9.12
737.354	9.12
738.104	7.12
738.855	10.12
739.605	9.12
740.356	11.12
741.106	11.12
741.856	11.12
742.607	7.12
743.357	10.12
744.107	9.12
744.857	13.12
745.607	10.12
746.357	9.12
747.106	9.12
747.856	9.12
748.606	12.12
749.355	10.12
750.105	11.12
750.854	13.12
751.603	11.12
752.353	11.12
753.102	10.12
753.851	12.12
754.6	10.12
755.349	10.12
756.098	12.12
756.847	11.12
757.595	11.12
758.344	11.12
759.093	10.12
759.841	13.12
760.589	10.12
761.338	12.12
762.086	11.12
762.834	13.12
763.582	13.12
764.331	14.12
765.079	12.12
765.826	13.12
766.574	11.12
767.322	14.12
768.07	12.12
768.817	15.12
769.565	11.12
770.312	13.12
771.06	14.12
771.807	14.12
772.554	9.12
773.302	13.12
774.049	15.12
774.796	14.12
775.543	15.12
776.29	15.12
777.036	11.12
777.783	15.12
778.53	11.12
779.276	15.12
780.023	17.12
780.769	17.12
781.516	15.12
782.262	15.12
783.008	13.12
783.754	12.12
784.5	15.12
785.246	19.12
785.992	13.12
786.738	16.12
787.484	18.12
788.23	11.12
788.975	15.12
789.721	17.12
790.466	15.12
791.212	16.12
791.957	15.12
792.702	12.12
793.447	14.12
794.193	13.12
794.938	13.12
795.683	17.12
796.427	13.12
797.172	14.12
797.917	13.12
798.662	16.12
799.406	11.12
800.151	15.12
800.895	13.12
801.64	11.12
802.384	13.12
803.128	11.12
803.872	13.12
804.616	11.12
805.36	11.12
806.104	10.12
806.848	11.12
807.592	10.12
808.336	12.12
809.079	13.12
809.823	9.12
810.566	10.12
811.31	12.12
812.053	10.12
812.796	11.12
813.539	11.12
814.283	10.12
815.026	8.12
815.769	10.12
816.511	11.12
817.254	10.12
817.997	10.12
818.74	10.12
819.482	6.12
820.225	8.12
820.967	9.12
821.71	9.12
822.452	7.12
823.194	5.12
823.936	7.12
824.678	6.12
825.42	6.12
826.162	8.12
826.904	8.12
827.646	7.12
828.388	5.12
829.129	6.12
829.871	6.12
830.612	7.12
831.354	9.12
832.095	7.12
832.836	8.12
833.577	6.12
834.319	7.12
835.06	7.12
835.801	7.12
836.542	6.12
837.282	8.12
838.023	5.12
838.764	5.12
839.504	8.12
840.245	8.12
840.985	8.12
841.726	5.12
842.466	4.12
843.206	6.12
843.946	6.12
844.687	6.12
845.427	4.12
846.166	6.12
846.906	6.12
847.646	3.12
848.386	8.12
849.125	5.12
849.865	6.12
850.605	6.12
851.344	4.12
852.083	4.12
852.823	4.12
853.562	3.12
854.301	5.12
855.04	4.12
855.779	7.12
856.518	4.12
857.257	7.12
857.995	4.12
858.734	4.12
859.473	5.12
860.211	4.12
860.95	5.12
861.688	4.12
862.426	6.12
863.165	3.12
863.903	2.12
864.641	2.12
865.379	3.12
866.117	5.12
866.855	3.12
867.593	4.12
868.33	3.12
869.068	2.12
869.806	5.12
870.543	2.12
871.28	3.12
872.018	5.12
872.755	3.12
873.492	2.12
874.229	2.12
874.967	1.12
875.703	4.12
876.44	2.12
877.177	3.12
877.914	-0.88
878.651	2.12
879.387	1.12
880.124	3.12
880.86	3.12
881.597	0.12
882.333	1.12
883.069	1.12
883.806	3.12
884.542	1.12
885.278	4.12
886.014	2.12
886.749	1.12
887.485	4.12
888.221	1.12
888.957	0.12
889.692	1.12
890.428	3.12
891.163	1.12
891.899	1.12
892.634	2.12
893.369	2.12
894.104	1.12
894.839	1.12
895.574	3.12
896.309	1.12
897.044	1.12
897.779	3.12
898.514	2.12
899.248	3.12
899.983	1.12
900.717	0.12
901.452	0.12
902.186	0.12
902.92	-0.88
903.654	1.12
904.389	-0.88
905.123	1.12
905.857	2.12
906.59	-0.88
907.324	1.12
908.058	3.12
908.792	1.12
909.525	2.12
910.259	2.12
910.992	1.12
911.726	-0.88
912.459	-0.88
913.192	-0.88
913.925	3.12
914.658	2.12
915.391	1.12
916.124	1.12
916.857	0.12
917.59	1.12
918.323	2.12
919.055	2.12
919.788	1.12
920.521	2.12
921.253	-0.88
921.985	2.12
922.718	2.12
923.45	-0.88
924.182	2.12
924.914	0.12
925.646	-0.88
926.378	1.12
927.11	0.12
927.841	1.12
928.573	-0.88
929.305	3.12
930.036	0.12
930.768	1.12
931.499	2.12
932.23	0.12
932.962	2.12
933.693	-0.88
934.424	-0.88
935.155	0.12
935.886	1.12
936.617	1.12
937.348	-0.88
938.078	1.12
938.809	0.12
939.54	0.12
940.27	3.12
941.001	0.12
941.731	0.12
942.461	1.12
943.191	0.12
943.922	1.12
944.652	1.12
945.382	-0.88
946.112	0.12
946.841	1.12
947.571	0.12
948.301	1.12
949.031	0.12
949.76	0.12
950.49	3.12
951.219	1.12
951.948	1.12
952.678	-0.88
953.407	0.12
954.136	2.12
954.865	0.12
955.594	1.12
956.323	-0.88
957.052	1.12
957.78	-0.88
958.509	1.12
959.238	3.12
959.966	0.12
960.695	0.12
961.423	0.12
962.151	0.12
962.88	0.12
963.608	1.12
964.336	1.12
965.064	0.12
965.792	1.12
966.52	1.12
967.247	1.12
967.975	1.12
968.703	-1.88
969.43	0.12
970.158	-0.88
970.885	1.12
971.613	0.12
972.34	2.12
973.067	1.12
973.794	1.12
974.521	1.12
975.248	-1.88
975.975	0.12
976.702	1.12
977.429	1.12
978.156	1.12
978.882	1.12
979.609	1.12
980.335	-1.88
981.062	2.12
981.788	-2.88
982.514	0.12
983.24	2.12
983.967	-0.88
984.693	0.12
985.419	1.12
986.144	2.12
986.87	-0.88
987.596	-0.88
988.322	1.12
989.047	-0.88
989.773	2.12
990.498	1.12
991.224	1.12
991.949	1.12
992.674	0.12
993.399	-1.88
994.124	-0.88
994.849	-1.88
995.574	0.12
996.299	0.12
997.024	1.12
997.749	0.12
998.473	2.12
999.198	-0.88
999.922	-0.88
1000.647	0.12
1001.371	3.12
1002.095	-0.88
1002.82	0.12
1003.544	-0.88
1004.268	5.12
1004.992	2.12
1005.716	4.12
1006.439	4.12
1007.163	5.12
1007.887	6.12
1008.611	2.12
1009.334	1.12
1010.058	0.12
1010.781	1.12
1011.504	0.12
1012.228	2.12
1012.951	-0.88
1013.674	-0.88
1014.397	0.12
1015.12	0.12
