节点500_705_QEPB04081__231__20-49-11-470.txt的数据

Date: Wed Nov 12 20:49:11 CST 2025
User: PC
Spectrometer: QEPB0408
触发模式: 0
积分时间 (秒): 1.000000E-2
Scans to average: 1
启用暗噪声校正: true
启用非线性校正: false
滑动平均宽度: 0
X轴模式: Wavelengths
Number of Pixels in Spectrum: 1044
>>>>>Begin Spectral Data<<<<<
220.843	5.88
221.644	2.88
222.444	5.88
223.244	5.88
224.045	6.88
224.845	5.88
225.645	6.88
226.445	6.88
227.245	6.88
228.045	7.88
228.845	6.88
229.645	8.88
230.444	7.88
231.244	8.88
232.043	9.88
232.843	7.88
233.642	9.88
234.442	9.88
235.241	8.88
236.04	9.88
236.839	10.88
237.638	10.88
238.437	9.88
239.236	8.88
240.035	9.88
240.833	11.88
241.632	10.88
242.43	11.88
243.229	12.88
244.027	11.88
244.826	14.88
245.624	14.88
246.422	12.88
247.22	15.88
248.018	14.88
248.816	15.88
249.614	16.88
250.412	15.88
251.21	17.88
252.007	15.88
252.805	20.88
253.602	16.88
254.4	22.88
255.197	18.88
255.994	20.88
256.791	18.88
257.589	21.88
258.386	19.88
259.183	20.88
259.979	22.88
260.776	23.88
261.573	21.88
262.37	24.88
263.166	23.88
263.963	29.88
264.759	26.88
265.556	28.88
266.352	28.88
267.148	31.88
267.944	27.88
268.74	28.88
269.536	29.88
270.332	29.88
271.128	32.88
271.924	38.88
272.719	34.88
273.515	32.88
274.311	32.88
275.106	32.88
275.901	32.88
276.697	33.88
277.492	36.88
278.287	31.88
279.082	35.88
279.877	32.88
280.672	37.88
281.467	40.88
282.262	34.88
283.056	35.88
283.851	37.88
284.646	33.88
285.44	32.88
286.234	30.88
287.029	34.88
287.823	33.88
288.617	36.88
289.411	30.88
290.205	33.88
290.999	33.88
291.793	30.88
292.587	31.88
293.381	29.88
294.174	26.88
294.968	29.88
295.761	27.88
296.555	27.88
297.348	27.88
298.141	25.88
298.935	26.88
299.728	26.88
300.521	25.88
301.314	21.88
302.107	26.88
302.899	25.88
303.692	21.88
304.485	22.88
305.277	23.88
306.07	21.88
306.862	19.88
307.655	22.88
308.447	19.88
309.239	21.88
310.031	19.88
310.823	19.88
311.615	18.88
312.407	15.88
313.199	19.88
313.991	17.88
314.783	14.88
315.574	14.88
316.366	15.88
317.157	13.88
317.949	15.88
318.74	15.88
319.531	14.88
320.322	14.88
321.113	15.88
321.904	13.88
322.695	12.88
323.486	13.88
324.277	10.88
325.068	12.88
325.858	10.88
326.649	13.88
327.439	12.88
328.23	10.88
329.02	14.88
329.81	8.88
330.6	13.88
331.391	15.88
332.181	13.88
332.971	10.88
333.76	10.88
334.55	10.88
335.34	13.88
336.13	14.88
336.919	13.88
337.709	13.88
338.498	14.88
339.287	10.88
340.077	12.88
340.866	10.88
341.655	13.88
342.444	9.88
343.233	12.88
344.022	11.88
344.811	9.88
345.6	10.88
346.388	10.88
347.177	11.88
347.965	11.88
348.754	10.88
349.542	10.88
350.33	12.88
351.119	9.88
351.907	10.88
352.695	9.88
353.483	9.88
354.271	9.88
355.059	10.88
355.846	9.88
356.634	9.88
357.422	11.88
358.209	8.88
358.997	10.88
359.784	7.88
360.571	10.88
361.359	11.88
362.146	6.88
362.933	10.88
363.72	10.88
364.507	9.88
365.294	8.88
366.081	8.88
366.867	7.88
367.654	10.88
368.44	7.88
369.227	7.88
370.013	9.88
370.8	8.88
371.586	9.88
372.372	10.88
373.158	9.88
373.944	8.88
374.73	8.88
375.516	10.88
376.302	10.88
377.088	9.88
377.873	8.88
378.659	7.88
379.445	9.88
380.23	9.88
381.015	8.88
381.801	10.88
382.586	11.88
383.371	9.88
384.156	9.88
384.941	10.88
385.726	9.88
386.511	13.88
387.296	8.88
388.08	9.88
388.865	11.88
389.649	9.88
390.434	11.88
391.218	11.88
392.003	12.88
392.787	13.88
393.571	11.88
394.355	14.88
395.139	11.88
395.923	11.88
396.707	11.88
397.491	12.88
398.274	15.88
399.058	14.88
399.842	11.88
400.625	14.88
401.408	17.88
402.192	14.88
402.975	10.88
403.758	12.88
404.541	14.88
405.324	15.88
406.107	16.88
406.89	16.88
407.673	14.88
408.456	13.88
409.238	16.88
410.021	18.88
410.803	16.88
411.586	14.88
412.368	14.88
413.151	18.88
413.933	16.88
414.715	18.88
415.497	20.88
416.279	17.88
417.061	18.88
417.843	17.88
418.624	19.88
419.406	21.88
420.188	20.88
420.969	19.88
421.751	17.88
422.532	22.88
423.313	21.88
424.095	24.88
424.876	24.88
425.657	22.88
426.438	24.88
427.219	24.88
428	28.88
428.78	24.88
429.561	28.88
430.342	29.88
431.122	30.88
431.903	33.88
432.683	36.88
433.464	34.88
434.244	38.88
435.024	40.88
435.804	41.88
436.584	43.88
437.364	42.88
438.144	49.88
438.924	49.88
439.704	55.88
440.483	53.88
441.263	61.88
442.042	62.88
442.822	70.88
443.601	73.88
444.38	79.88
445.16	84.88
445.939	93.88
446.718	100.88
447.497	108.88
448.276	117.88
449.054	128.88
449.833	139.88
450.612	158.88
451.391	172.88
452.169	195.88
452.948	210.88
453.726	241.88
454.504	257.88
455.282	284.88
456.061	314.88
456.839	356.88
457.617	401.88
458.395	438.88
459.172	494.88
459.95	555.88
460.728	621.88
461.506	691.88
462.283	766.88
463.061	864.88
463.838	965.88
464.615	1065.88
465.393	1199.88
466.17	1345.88
466.947	1481.88
467.724	1631.88
468.501	1825.88
469.278	2028.88
470.055	2253.88
470.831	2472.88
471.608	2782.88
472.385	3029.88
473.161	3359.88
473.938	3694.88
474.714	4031.88
475.49	4495.88
476.266	4876.88
477.043	5384.88
477.819	5881.88
478.595	6448.88
479.371	7056.88
480.146	7715.88
480.922	8455.88
481.698	9219.88
482.473	10049.88
483.249	10997.88
484.024	11915.88
484.8	12944.88
485.575	14085.88
486.35	15324.88
487.126	16582.88
487.901	18023.88
488.676	19436.88
489.451	20986.88
490.225	22645.88
491	24284.88
491.775	25957.88
492.55	27810.88
493.324	29684.88
494.099	31438.88
494.873	33360.88
495.647	35125.88
496.422	37044.88
497.196	38894.88
497.97	40593.88
498.744	42091.88
499.518	43660.88
500.292	45019.88
501.066	46027.88
501.839	46800.88
502.613	47550.88
503.387	48087.88
504.16	48432.88
504.934	48393.88
505.707	48165.88
506.48	47733.88
507.253	47050.88
508.027	46194.88
508.8	45218.88
509.573	44098.88
510.346	42835.88
511.118	41700.88
511.891	40331.88
512.664	38732.88
513.437	37144.88
514.209	35784.88
514.982	34386.88
515.754	32856.88
516.526	31496.88
517.298	30248.88
518.071	29061.88
518.843	27860.88
519.615	26757.88
520.387	25732.88
521.159	24708.88
521.93	23705.88
522.702	22608.88
523.474	21697.88
524.245	20734.88
525.017	19806.88
525.788	18897.88
526.56	18080.88
527.331	17314.88
528.102	16365.88
528.873	15561.88
529.644	14801.88
530.415	14146.88
531.186	13461.88
531.957	12721.88
532.728	12076.88
533.498	11402.88
534.269	10838.88
535.039	10224.88
535.81	9623.88
536.58	9122.88
537.351	8623.88
538.121	8178.88
538.891	7730.88
539.661	7358.88
540.431	6942.88
541.201	6609.88
541.971	6254.88
542.741	5901.88
543.51	5589.88
544.28	5324.88
545.05	5054.88
545.819	4851.88
546.588	4634.88
547.358	4402.88
548.127	4165.88
548.896	3950.88
549.665	3744.88
550.434	3541.88
551.203	3370.88
551.972	3199.88
552.741	3009.88
553.51	2838.88
554.278	2678.88
555.047	2535.88
555.815	2391.88
556.584	2269.88
557.352	2144.88
558.121	2014.88
558.889	1899.88
559.657	1795.88
560.425	1709.88
561.193	1613.88
561.961	1526.88
562.729	1443.88
563.496	1372.88
564.264	1291.88
565.032	1216.88
565.799	1159.88
566.567	1091.88
567.334	1029.88
568.101	988.88
568.869	923.88
569.636	866.88
570.403	810.88
571.17	781.88
571.937	737.88
572.704	698.88
573.471	670.88
574.237	621.88
575.004	584.88
575.771	548.88
576.537	511.88
577.303	489.88
578.07	460.88
578.836	439.88
579.602	415.88
580.368	390.88
581.134	371.88
581.9	353.88
582.666	336.88
583.432	317.88
584.198	309.88
584.964	285.88
585.729	268.88
586.495	258.88
587.26	241.88
588.025	232.88
588.791	222.88
589.556	206.88
590.321	196.88
591.086	186.88
591.851	186.88
592.616	171.88
593.381	163.88
594.146	153.88
594.911	151.88
595.675	140.88
596.44	134.88
597.204	130.88
597.969	119.88
598.733	122.88
599.497	117.88
600.261	107.88
601.025	105.88
601.79	98.88
602.553	97.88
603.317	90.88
604.081	86.88
604.845	86.88
605.609	79.88
606.372	78.88
607.136	78.88
607.899	68.88
608.662	72.88
609.426	66.88
610.189	66.88
610.952	60.88
611.715	61.88
612.478	54.88
613.241	56.88
614.004	52.88
614.767	51.88
615.529	49.88
616.292	50.88
617.055	48.88
617.817	42.88
618.579	42.88
619.342	45.88
620.104	43.88
620.866	41.88
621.628	41.88
622.39	36.88
623.152	37.88
623.914	33.88
624.676	36.88
625.438	32.88
626.199	29.88
626.961	31.88
627.722	29.88
628.484	32.88
629.245	30.88
630.006	29.88
630.768	26.88
631.529	27.88
632.29	25.88
633.051	22.88
633.812	24.88
634.573	21.88
635.333	22.88
636.094	22.88
636.855	21.88
637.615	18.88
638.376	20.88
639.136	20.88
639.896	18.88
640.657	19.88
641.417	18.88
642.177	15.88
642.937	17.88
643.697	16.88
644.457	17.88
645.216	18.88
645.976	14.88
646.736	13.88
647.495	15.88
648.255	17.88
649.014	14.88
649.774	13.88
650.533	14.88
651.292	14.88
652.051	12.88
652.81	12.88
653.569	11.88
654.328	14.88
655.087	11.88
655.846	11.88
656.604	10.88
657.363	10.88
658.121	13.88
658.88	9.88
659.638	12.88
660.397	10.88
661.155	9.88
661.913	9.88
662.671	10.88
663.429	11.88
664.187	8.88
664.945	10.88
665.703	7.88
666.46	9.88
667.218	8.88
667.976	10.88
668.733	10.88
669.49	7.88
670.248	10.88
671.005	7.88
671.762	9.88
672.519	7.88
673.276	8.88
674.033	10.88
674.79	8.88
675.547	8.88
676.304	6.88
677.06	5.88
677.817	7.88
678.574	10.88
679.33	7.88
680.086	6.88
680.843	7.88
681.599	5.88
682.355	6.88
683.111	8.88
683.867	7.88
684.623	8.88
685.379	7.88
686.135	7.88
686.89	6.88
687.646	7.88
688.402	8.88
689.157	8.88
689.912	7.88
690.668	6.88
691.423	8.88
692.178	5.88
692.933	6.88
693.688	8.88
694.443	5.88
695.198	7.88
695.953	6.88
696.708	6.88
697.462	7.88
698.217	6.88
698.972	10.88
699.726	6.88
700.48	8.88
701.235	6.88
701.989	8.88
702.743	7.88
703.497	8.88
704.251	6.88
705.005	8.88
705.759	8.88
706.513	7.88
707.266	7.88
708.02	8.88
708.774	6.88
709.527	8.88
710.28	8.88
711.034	7.88
711.787	8.88
712.54	9.88
713.293	5.88
714.046	7.88
714.799	7.88
715.552	9.88
716.305	7.88
717.058	10.88
717.81	8.88
718.563	8.88
719.315	7.88
720.068	8.88
720.82	7.88
721.573	8.88
722.325	9.88
723.077	6.88
723.829	8.88
724.581	8.88
725.333	7.88
726.085	7.88
726.836	9.88
727.588	7.88
728.34	7.88
729.091	9.88
729.843	8.88
730.594	8.88
731.346	7.88
732.097	8.88
732.848	10.88
733.599	9.88
734.35	10.88
735.101	7.88
735.852	10.88
736.603	8.88
737.354	6.88
738.104	12.88
738.855	8.88
739.605	10.88
740.356	10.88
741.106	9.88
741.856	9.88
742.607	5.88
743.357	10.88
744.107	8.88
744.857	12.88
745.607	8.88
746.357	10.88
747.106	7.88
747.856	6.88
748.606	12.88
749.355	9.88
750.105	11.88
750.854	13.88
751.603	10.88
752.353	13.88
753.102	10.88
753.851	12.88
754.6	9.88
755.349	10.88
756.098	14.88
756.847	10.88
757.595	12.88
758.344	9.88
759.093	12.88
759.841	15.88
760.589	11.88
761.338	11.88
762.086	11.88
762.834	12.88
763.582	13.88
764.331	10.88
765.079	12.88
765.826	14.88
766.574	12.88
767.322	14.88
768.07	14.88
768.817	14.88
769.565	12.88
770.312	13.88
771.06	12.88
771.807	13.88
772.554	12.88
773.302	15.88
774.049	13.88
774.796	16.88
775.543	15.88
776.29	12.88
777.036	16.88
777.783	17.88
778.53	13.88
779.276	15.88
780.023	17.88
780.769	17.88
781.516	13.88
782.262	16.88
783.008	16.88
783.754	16.88
784.5	15.88
785.246	15.88
785.992	16.88
786.738	15.88
787.484	14.88
788.23	15.88
788.975	14.88
789.721	16.88
790.466	14.88
791.212	13.88
791.957	16.88
792.702	11.88
793.447	16.88
794.193	14.88
794.938	14.88
795.683	17.88
796.427	12.88
797.172	13.88
797.917	10.88
798.662	13.88
799.406	10.88
800.151	12.88
800.895	12.88
801.64	11.88
802.384	11.88
803.128	10.88
803.872	12.88
804.616	11.88
805.36	11.88
806.104	9.88
806.848	10.88
807.592	10.88
808.336	8.88
809.079	10.88
809.823	9.88
810.566	9.88
811.31	10.88
812.053	7.88
812.796	10.88
813.539	9.88
814.283	7.88
815.026	6.88
815.769	5.88
816.511	6.88
817.254	6.88
817.997	7.88
818.74	7.88
819.482	7.88
820.225	9.88
820.967	5.88
821.71	6.88
822.452	4.88
823.194	6.88
823.936	6.88
824.678	5.88
825.42	7.88
826.162	4.88
826.904	7.88
827.646	6.88
828.388	6.88
829.129	4.88
829.871	7.88
830.612	6.88
831.354	7.88
832.095	5.88
832.836	8.88
833.577	3.88
834.319	7.88
835.06	5.88
835.801	6.88
836.542	5.88
837.282	3.88
838.023	3.88
838.764	6.88
839.504	5.88
840.245	5.88
840.985	4.88
841.726	4.88
842.466	5.88
843.206	5.88
843.946	4.88
844.687	5.88
845.427	4.88
846.166	5.88
846.906	7.88
847.646	5.88
848.386	2.88
849.125	4.88
849.865	6.88
850.605	2.88
851.344	3.88
852.083	5.88
852.823	3.88
853.562	5.88
854.301	5.88
855.04	1.88
855.779	5.88
856.518	2.88
857.257	1.88
857.995	3.88
858.734	3.88
859.473	3.88
860.211	4.88
860.95	2.88
861.688	1.88
862.426	3.88
863.165	2.88
863.903	0.88
864.641	1.88
865.379	3.88
866.117	3.88
866.855	2.88
867.593	3.88
868.33	1.88
869.068	0.88
869.806	4.88
870.543	1.88
871.28	2.88
872.018	2.88
872.755	-0.12
873.492	2.88
874.229	0.88
874.967	2.88
875.703	2.88
876.44	1.88
877.177	0.88
877.914	1.88
878.651	2.88
879.387	1.88
880.124	2.88
880.86	-1.12
881.597	1.88
882.333	1.88
883.069	-0.12
883.806	1.88
884.542	2.88
885.278	-0.12
886.014	0.88
886.749	1.88
887.485	1.88
888.221	0.88
888.957	2.88
889.692	0.88
890.428	1.88
891.163	2.88
891.899	0.88
892.634	-0.12
893.369	2.88
894.104	2.88
894.839	1.88
895.574	-0.12
896.309	1.88
897.044	-0.12
897.779	-0.12
898.514	1.88
899.248	-1.12
899.983	2.88
900.717	-1.12
901.452	2.88
902.186	-1.12
902.92	-1.12
903.654	0.88
904.389	-1.12
905.123	1.88
905.857	2.88
906.59	0.88
907.324	1.88
908.058	0.88
908.792	2.88
909.525	1.88
910.259	2.88
910.992	-0.12
911.726	-0.12
912.459	-1.12
913.192	-0.12
913.925	-0.12
914.658	0.88
915.391	1.88
916.124	-1.12
916.857	1.88
917.59	-1.12
918.323	0.88
919.055	0.88
919.788	0.88
920.521	-0.12
921.253	-1.12
921.985	0.88
922.718	-1.12
923.45	-0.12
924.182	-0.12
924.914	-0.12
925.646	1.88
926.378	2.88
927.11	0.88
927.841	0.88
928.573	0.88
929.305	0.88
930.036	0.88
930.768	-0.12
931.499	0.88
932.23	-2.12
932.962	-0.12
933.693	-1.12
934.424	1.88
935.155	-0.12
935.886	-0.12
936.617	0.88
937.348	1.88
938.078	1.88
938.809	-1.12
939.54	-0.12
940.27	0.88
941.001	-1.12
941.731	1.88
942.461	0.88
943.191	1.88
943.922	-2.12
944.652	1.88
945.382	0.88
946.112	-1.12
946.841	1.88
947.571	-0.12
948.301	1.88
949.031	-1.12
949.76	-1.12
950.49	-1.12
951.219	-0.12
951.948	0.88
952.678	0.88
953.407	-0.12
954.136	0.88
954.865	-0.12
955.594	0.88
956.323	1.88
957.052	2.88
957.78	-0.12
958.509	0.88
959.238	1.88
959.966	-3.12
960.695	0.88
961.423	-0.12
962.151	0.88
962.88	0.88
963.608	-1.12
964.336	0.88
965.064	-0.12
965.792	-0.12
966.52	-0.12
967.247	-0.12
967.975	-1.12
968.703	-0.12
969.43	1.88
970.158	-1.12
970.885	0.88
971.613	-1.12
972.34	-1.12
973.067	-1.12
973.794	0.88
974.521	-0.12
975.248	-1.12
975.975	1.88
976.702	-0.12
977.429	0.88
978.156	-0.12
978.882	-1.12
979.609	-1.12
980.335	-1.12
981.062	0.88
981.788	0.88
982.514	0.88
983.24	1.88
983.967	-1.12
984.693	1.88
985.419	0.88
986.144	-1.12
986.87	-0.12
987.596	-1.12
988.322	-0.12
989.047	-2.12
989.773	-0.12
990.498	-1.12
991.224	0.88
991.949	-0.12
992.674	-1.12
993.399	0.88
994.124	0.88
994.849	-1.12
995.574	-1.12
996.299	-1.12
997.024	0.88
997.749	-1.12
998.473	0.88
999.198	-0.12
999.922	-1.12
1000.647	0.88
1001.371	2.88
1002.095	-1.12
1002.82	-1.12
1003.544	-2.12
1004.268	4.88
1004.992	1.88
1005.716	4.88
1006.439	6.88
1007.163	4.88
1007.887	4.88
1008.611	0.88
1009.334	2.88
1010.058	0.88
1010.781	-1.12
1011.504	0.88
1012.228	1.88
1012.951	1.88
1013.674	-2.12
1014.397	1.88
1015.12	-0.12
