节点500_705_QEPB04081__273__20-49-51-422.txt的数据

Date: Wed Nov 12 20:49:51 CST 2025
User: PC
Spectrometer: QEPB0408
触发模式: 0
积分时间 (秒): 1.000000E-2
Scans to average: 1
启用暗噪声校正: true
启用非线性校正: false
滑动平均宽度: 0
X轴模式: Wavelengths
Number of Pixels in Spectrum: 1044
>>>>>Begin Spectral Data<<<<<
220.843	6
221.644	8
222.444	8
223.244	6
224.045	8
224.845	6
225.645	6
226.445	7
227.245	8
228.045	8
228.845	8
229.645	7
230.444	9
231.244	10
232.043	9
232.843	7
233.642	9
234.442	10
235.241	10
236.04	11
236.839	11
237.638	13
238.437	12
239.236	9
240.035	11
240.833	11
241.632	13
242.43	12
243.229	13
244.027	13
244.826	15
245.624	15
246.422	11
247.22	14
248.018	15
248.816	13
249.614	17
250.412	18
251.21	16
252.007	19
252.805	19
253.602	17
254.4	17
255.197	20
255.994	19
256.791	17
257.589	24
258.386	20
259.183	25
259.979	22
260.776	20
261.573	24
262.37	24
263.166	25
263.963	25
264.759	24
265.556	25
266.352	28
267.148	28
267.944	27
268.74	30
269.536	29
270.332	29
271.128	29
271.924	33
272.719	34
273.515	33
274.311	35
275.106	34
275.901	34
276.697	35
277.492	31
278.287	40
279.082	32
279.877	35
280.672	37
281.467	36
282.262	35
283.056	33
283.851	36
284.646	32
285.44	32
286.234	35
287.029	35
287.823	35
288.617	32
289.411	32
290.205	31
290.999	31
291.793	33
292.587	33
293.381	27
294.174	30
294.968	31
295.761	30
296.555	27
297.348	29
298.141	26
298.935	34
299.728	25
300.521	23
301.314	28
302.107	23
302.899	25
303.692	23
304.485	24
305.277	25
306.07	24
306.862	23
307.655	21
308.447	21
309.239	22
310.031	22
310.823	21
311.615	18
312.407	16
313.199	19
313.991	17
314.783	18
315.574	16
316.366	17
317.157	17
317.949	16
318.74	17
319.531	14
320.322	15
321.113	15
321.904	13
322.695	12
323.486	11
324.277	14
325.068	12
325.858	14
326.649	13
327.439	13
328.23	16
329.02	13
329.81	12
330.6	12
331.391	13
332.181	15
332.971	13
333.76	12
334.55	13
335.34	12
336.13	12
336.919	12
337.709	8
338.498	11
339.287	11
340.077	13
340.866	14
341.655	11
342.444	11
343.233	11
344.022	12
344.811	12
345.6	12
346.388	12
347.177	11
347.965	11
348.754	11
349.542	10
350.33	13
351.119	11
351.907	9
352.695	10
353.483	11
354.271	10
355.059	9
355.846	11
356.634	9
357.422	10
358.209	11
358.997	13
359.784	11
360.571	13
361.359	9
362.146	10
362.933	11
363.72	11
364.507	11
365.294	10
366.081	11
366.867	9
367.654	9
368.44	11
369.227	11
370.013	10
370.8	8
371.586	11
372.372	8
373.158	11
373.944	13
374.73	10
375.516	11
376.302	10
377.088	11
377.873	9
378.659	12
379.445	9
380.23	11
381.015	11
381.801	12
382.586	12
383.371	10
384.156	9
384.941	11
385.726	11
386.511	13
387.296	9
388.08	11
388.865	10
389.649	13
390.434	14
391.218	11
392.003	13
392.787	13
393.571	11
394.355	12
395.139	10
395.923	15
396.707	15
397.491	15
398.274	13
399.058	11
399.842	13
400.625	12
401.408	13
402.192	15
402.975	18
403.758	12
404.541	15
405.324	16
406.107	13
406.89	17
407.673	14
408.456	15
409.238	16
410.021	14
410.803	17
411.586	15
412.368	17
413.151	16
413.933	18
414.715	21
415.497	19
416.279	19
417.061	19
417.843	22
418.624	22
419.406	23
420.188	19
420.969	22
421.751	23
422.532	22
423.313	24
424.095	24
424.876	25
425.657	28
426.438	24
427.219	27
428	27
428.78	29
429.561	32
430.342	30
431.122	29
431.903	33
432.683	31
433.464	32
434.244	37
435.024	39
435.804	40
436.584	43
437.364	46
438.144	51
438.924	51
439.704	55
440.483	59
441.263	60
442.042	63
442.822	68
443.601	76
444.38	79
445.16	83
445.939	96
446.718	103
447.497	110
448.276	125
449.054	131
449.833	146
450.612	164
451.391	177
452.169	190
452.948	213
453.726	241
454.504	261
455.282	291
456.061	329
456.839	359
457.617	404
458.395	454
459.172	503
459.95	561
460.728	617
461.506	702
462.283	778
463.061	876
463.838	982
464.615	1084
465.393	1206
466.17	1336
466.947	1499
467.724	1659
468.501	1842
469.278	2032
470.055	2242
470.831	2476
471.608	2741
472.385	3033
473.161	3356
473.938	3670
474.714	4035
475.49	4459
476.266	4857
477.043	5363
477.819	5842
478.595	6430
479.371	7016
480.146	7645
480.922	8344
481.698	9118
482.473	9947
483.249	10815
484.024	11754
484.8	12719
485.575	13825
486.35	15017
487.126	16273
487.901	17576
488.676	19078
489.451	20571
490.225	22113
491	23697
491.775	25371
492.55	27190
493.324	28932
494.099	30691
494.873	32567
495.647	34306
496.422	36288
497.196	38030
497.97	39696
498.744	41162
499.518	42719
500.292	44162
501.066	45153
501.839	45987
502.613	46636
503.387	47283
504.16	47681
504.934	47803
505.707	47684
506.48	47190
507.253	46727
508.027	45862
508.8	44901
509.573	43856
510.346	42632
511.118	41558
511.891	40223
512.664	38633
513.437	37275
514.209	35899
514.982	34420
515.754	32966
516.526	31673
517.298	30371
518.071	29182
518.843	27987
519.615	26853
520.387	25817
521.159	24771
521.93	23755
522.702	22767
523.474	21790
524.245	20842
525.017	19866
525.788	19052
526.56	18247
527.331	17407
528.102	16549
528.873	15713
529.644	14983
530.415	14241
531.186	13582
531.957	12859
532.728	12215
533.498	11518
534.269	10927
535.039	10354
535.81	9793
536.58	9241
537.351	8739
538.121	8311
538.891	7844
539.661	7423
540.431	7027
541.201	6656
541.971	6297
542.741	5958
543.51	5683
544.28	5387
545.05	5122
545.819	4894
546.588	4688
547.358	4455
548.127	4239
548.896	3999
549.665	3789
550.434	3624
551.203	3400
551.972	3259
552.741	3087
553.51	2885
554.278	2717
555.047	2575
555.815	2448
556.584	2306
557.352	2162
558.121	2053
558.889	1945
559.657	1834
560.425	1739
561.193	1638
561.961	1577
562.729	1471
563.496	1383
564.264	1321
565.032	1250
565.799	1175
566.567	1117
567.334	1048
568.101	986
568.869	957
569.636	883
570.403	829
571.17	786
571.937	755
572.704	706
573.471	662
574.237	628
575.004	592
575.771	547
576.537	517
577.303	502
578.07	479
578.836	443
579.602	417
580.368	398
581.134	383
581.9	363
582.666	340
583.432	328
584.198	304
584.964	302
585.729	281
586.495	261
587.26	251
588.025	239
588.791	219
589.556	211
590.321	203
591.086	192
591.851	182
592.616	176
593.381	169
594.146	156
594.911	151
595.675	148
596.44	140
597.204	135
597.969	123
598.733	126
599.497	116
600.261	111
601.025	106
601.79	104
602.553	99
603.317	89
604.081	91
604.845	82
605.609	81
606.372	76
607.136	78
607.899	73
608.662	72
609.426	66
610.189	68
610.952	65
611.715	61
612.478	59
613.241	57
614.004	52
614.767	49
615.529	47
616.292	47
617.055	48
617.817	45
618.579	47
619.342	45
620.104	44
620.866	37
621.628	36
622.39	37
623.152	36
623.914	35
624.676	35
625.438	34
626.199	33
626.961	33
627.722	31
628.484	30
629.245	28
630.006	28
630.768	25
631.529	27
632.29	29
633.051	28
633.812	25
634.573	25
635.333	23
636.094	21
636.855	22
637.615	20
638.376	21
639.136	21
639.896	20
640.657	21
641.417	17
642.177	19
642.937	18
643.697	20
644.457	17
645.216	17
645.976	18
646.736	15
647.495	16
648.255	12
649.014	16
649.774	15
650.533	15
651.292	14
652.051	11
652.81	17
653.569	15
654.328	15
655.087	16
655.846	13
656.604	12
657.363	12
658.121	12
658.88	13
659.638	9
660.397	13
661.155	10
661.913	12
662.671	11
663.429	11
664.187	12
664.945	13
665.703	9
666.46	11
667.218	11
667.976	10
668.733	11
669.49	10
670.248	9
671.005	10
671.762	10
672.519	9
673.276	7
674.033	8
674.79	11
675.547	9
676.304	10
677.06	11
677.817	9
678.574	10
679.33	7
680.086	11
680.843	8
681.599	8
682.355	8
683.111	9
683.867	8
684.623	8
685.379	9
686.135	9
686.89	8
687.646	8
688.402	8
689.157	8
689.912	9
690.668	9
691.423	8
692.178	9
692.933	10
693.688	8
694.443	6
695.198	7
695.953	8
696.708	7
697.462	10
698.217	7
698.972	8
699.726	9
700.48	9
701.235	5
701.989	8
702.743	5
703.497	9
704.251	7
705.005	9
705.759	8
706.513	3
707.266	9
708.02	8
708.774	9
709.527	8
710.28	8
711.034	6
711.787	8
712.54	9
713.293	8
714.046	8
714.799	9
715.552	8
716.305	7
717.058	8
717.81	4
718.563	8
719.315	10
720.068	7
720.82	7
721.573	10
722.325	9
723.077	9
723.829	9
724.581	9
725.333	10
726.085	10
726.836	7
727.588	9
728.34	9
729.091	8
729.843	7
730.594	8
731.346	9
732.097	9
732.848	8
733.599	6
734.35	9
735.101	8
735.852	11
736.603	8
737.354	10
738.104	12
738.855	9
739.605	11
740.356	9
741.106	10
741.856	12
742.607	10
743.357	9
744.107	9
744.857	10
745.607	13
746.357	11
747.106	12
747.856	8
748.606	9
749.355	10
750.105	10
750.854	12
751.603	11
752.353	11
753.102	10
753.851	11
754.6	13
755.349	11
756.098	13
756.847	12
757.595	15
758.344	12
759.093	12
759.841	11
760.589	14
761.338	11
762.086	12
762.834	14
763.582	13
764.331	13
765.079	18
765.826	13
766.574	13
767.322	15
768.07	16
768.817	15
769.565	13
770.312	14
771.06	11
771.807	14
772.554	15
773.302	14
774.049	18
774.796	15
775.543	15
776.29	15
777.036	18
777.783	15
778.53	16
779.276	17
780.023	17
780.769	13
781.516	17
782.262	18
783.008	15
783.754	19
784.5	15
785.246	17
785.992	18
786.738	15
787.484	18
788.23	16
788.975	16
789.721	17
790.466	14
791.212	16
791.957	13
792.702	16
793.447	14
794.193	14
794.938	13
795.683	12
796.427	14
797.172	13
797.917	15
798.662	16
799.406	12
800.151	12
800.895	11
801.64	14
802.384	11
803.128	12
803.872	12
804.616	10
805.36	12
806.104	13
806.848	11
807.592	11
808.336	9
809.079	9
809.823	9
810.566	12
811.31	13
812.053	10
812.796	6
813.539	10
814.283	11
815.026	8
815.769	10
816.511	8
817.254	8
817.997	8
818.74	8
819.482	7
820.225	10
820.967	9
821.71	7
822.452	5
823.194	9
823.936	6
824.678	7
825.42	9
826.162	7
826.904	7
827.646	7
828.388	6
829.129	6
829.871	7
830.612	6
831.354	5
832.095	8
832.836	1
833.577	6
834.319	8
835.06	8
835.801	6
836.542	5
837.282	7
838.023	5
838.764	5
839.504	3
840.245	7
840.985	4
841.726	5
842.466	7
843.206	7
843.946	6
844.687	7
845.427	6
846.166	5
846.906	4
847.646	6
848.386	4
849.125	5
849.865	5
850.605	3
851.344	7
852.083	5
852.823	5
853.562	5
854.301	5
855.04	5
855.779	5
856.518	6
857.257	3
857.995	3
858.734	4
859.473	2
860.211	6
860.95	3
861.688	6
862.426	5
863.165	3
863.903	4
864.641	2
865.379	5
866.117	5
866.855	3
867.593	3
868.33	3
869.068	3
869.806	3
870.543	3
871.28	5
872.018	4
872.755	5
873.492	2
874.229	2
874.967	3
875.703	5
876.44	3
877.177	-1
877.914	3
878.651	2
879.387	2
880.124	3
880.86	2
881.597	4
882.333	1
883.069	3
883.806	2
884.542	1
885.278	0
886.014	1
886.749	1
887.485	0
888.221	2
888.957	3
889.692	3
890.428	3
891.163	0
891.899	2
892.634	1
893.369	2
894.104	2
894.839	1
895.574	2
896.309	1
897.044	3
897.779	0
898.514	2
899.248	-1
899.983	2
900.717	1
901.452	0
902.186	2
902.92	2
903.654	-2
904.389	1
905.123	-1
905.857	0
906.59	1
907.324	-1
908.058	-1
908.792	0
909.525	2
910.259	0
910.992	4
911.726	1
912.459	-1
913.192	1
913.925	-1
914.658	2
915.391	1
916.124	-1
916.857	1
917.59	-2
918.323	1
919.055	1
919.788	2
920.521	1
921.253	1
921.985	5
922.718	-1
923.45	2
924.182	-1
924.914	0
925.646	-1
926.378	-1
927.11	0
927.841	-2
928.573	1
929.305	1
930.036	0
930.768	1
931.499	1
932.23	1
932.962	-1
933.693	-2
934.424	2
935.155	-1
935.886	-1
936.617	0
937.348	-1
938.078	1
938.809	0
939.54	-1
940.27	-2
941.001	-1
941.731	0
942.461	1
943.191	1
943.922	0
944.652	1
945.382	0
946.112	3
946.841	0
947.571	1
948.301	1
949.031	-1
949.76	1
950.49	-1
951.219	-2
951.948	0
952.678	1
953.407	1
954.136	-1
954.865	1
955.594	0
956.323	2
957.052	0
957.78	-1
958.509	1
959.238	2
959.966	1
960.695	2
961.423	-1
962.151	0
962.88	2
963.608	2
964.336	-1
965.064	0
965.792	-1
966.52	0
967.247	-1
967.975	-2
968.703	0
969.43	0
970.158	-1
970.885	3
971.613	-1
972.34	0
973.067	-1
973.794	0
974.521	0
975.248	-1
975.975	0
976.702	-1
977.429	1
978.156	1
978.882	1
979.609	2
980.335	1
981.062	-1
981.788	0
982.514	1
983.24	1
983.967	-1
984.693	2
985.419	-1
986.144	0
986.87	-1
987.596	2
988.322	2
989.047	0
989.773	1
990.498	0
991.224	0
991.949	0
992.674	0
993.399	1
994.124	-1
994.849	2
995.574	0
996.299	1
997.024	-1
997.749	-1
998.473	0
999.198	-1
999.922	2
1000.647	-1
1001.371	2
1002.095	-1
1002.82	-1
1003.544	0
1004.268	5
1004.992	4
1005.716	3
1006.439	6
1007.163	5
1007.887	6
1008.611	-1
1009.334	1
1010.058	0
1010.781	1
1011.504	1
1012.228	2
1012.951	2
1013.674	0
1014.397	-2
1015.12	0
