节点500_705_QEPB04081__364__20-51-06-570.txt的数据

Date: Wed Nov 12 20:51:06 CST 2025
User: PC
Spectrometer: QEPB0408
触发模式: 0
积分时间 (秒): 1.000000E-2
Scans to average: 1
启用暗噪声校正: true
启用非线性校正: false
滑动平均宽度: 0
X轴模式: Wavelengths
Number of Pixels in Spectrum: 1044
>>>>>Begin Spectral Data<<<<<
220.843	3.88
221.644	6.88
222.444	3.88
223.244	5.88
224.045	7.88
224.845	6.88
225.645	5.88
226.445	5.88
227.245	8.88
228.045	6.88
228.845	7.88
229.645	5.88
230.444	5.88
231.244	8.88
232.043	7.88
232.843	8.88
233.642	8.88
234.442	11.88
235.241	8.88
236.04	8.88
236.839	9.88
237.638	8.88
238.437	12.88
239.236	10.88
240.035	9.88
240.833	10.88
241.632	9.88
242.43	12.88
243.229	12.88
244.027	11.88
244.826	14.88
245.624	12.88
246.422	14.88
247.22	12.88
248.018	15.88
248.816	14.88
249.614	16.88
250.412	14.88
251.21	15.88
252.007	15.88
252.805	15.88
253.602	16.88
254.4	15.88
255.197	16.88
255.994	18.88
256.791	21.88
257.589	20.88
258.386	22.88
259.183	21.88
259.979	21.88
260.776	19.88
261.573	22.88
262.37	23.88
263.166	23.88
263.963	25.88
264.759	22.88
265.556	25.88
266.352	25.88
267.148	26.88
267.944	29.88
268.74	28.88
269.536	29.88
270.332	26.88
271.128	31.88
271.924	28.88
272.719	29.88
273.515	30.88
274.311	33.88
275.106	32.88
275.901	32.88
276.697	33.88
277.492	35.88
278.287	36.88
279.082	31.88
279.877	32.88
280.672	31.88
281.467	34.88
282.262	34.88
283.056	31.88
283.851	33.88
284.646	36.88
285.44	33.88
286.234	30.88
287.029	32.88
287.823	33.88
288.617	34.88
289.411	32.88
290.205	30.88
290.999	30.88
291.793	33.88
292.587	30.88
293.381	30.88
294.174	29.88
294.968	28.88
295.761	29.88
296.555	26.88
297.348	27.88
298.141	25.88
298.935	25.88
299.728	24.88
300.521	26.88
301.314	24.88
302.107	21.88
302.899	21.88
303.692	21.88
304.485	20.88
305.277	22.88
306.07	21.88
306.862	20.88
307.655	18.88
308.447	20.88
309.239	19.88
310.031	16.88
310.823	17.88
311.615	18.88
312.407	18.88
313.199	14.88
313.991	13.88
314.783	13.88
315.574	17.88
316.366	16.88
317.157	15.88
317.949	11.88
318.74	12.88
319.531	15.88
320.322	15.88
321.113	12.88
321.904	13.88
322.695	11.88
323.486	12.88
324.277	14.88
325.068	12.88
325.858	12.88
326.649	14.88
327.439	12.88
328.23	14.88
329.02	9.88
329.81	13.88
330.6	14.88
331.391	10.88
332.181	12.88
332.971	9.88
333.76	13.88
334.55	10.88
335.34	11.88
336.13	12.88
336.919	10.88
337.709	9.88
338.498	10.88
339.287	10.88
340.077	13.88
340.866	11.88
341.655	10.88
342.444	12.88
343.233	12.88
344.022	12.88
344.811	10.88
345.6	11.88
346.388	9.88
347.177	9.88
347.965	8.88
348.754	9.88
349.542	8.88
350.33	9.88
351.119	9.88
351.907	11.88
352.695	12.88
353.483	11.88
354.271	9.88
355.059	10.88
355.846	7.88
356.634	12.88
357.422	6.88
358.209	8.88
358.997	11.88
359.784	11.88
360.571	8.88
361.359	10.88
362.146	8.88
362.933	10.88
363.72	9.88
364.507	12.88
365.294	8.88
366.081	8.88
366.867	7.88
367.654	7.88
368.44	8.88
369.227	9.88
370.013	7.88
370.8	10.88
371.586	8.88
372.372	8.88
373.158	8.88
373.944	8.88
374.73	7.88
375.516	8.88
376.302	9.88
377.088	10.88
377.873	9.88
378.659	10.88
379.445	9.88
380.23	9.88
381.015	8.88
381.801	8.88
382.586	10.88
383.371	9.88
384.156	9.88
384.941	12.88
385.726	11.88
386.511	11.88
387.296	9.88
388.08	9.88
388.865	11.88
389.649	10.88
390.434	13.88
391.218	12.88
392.003	10.88
392.787	10.88
393.571	13.88
394.355	10.88
395.139	11.88
395.923	13.88
396.707	13.88
397.491	13.88
398.274	12.88
399.058	12.88
399.842	14.88
400.625	11.88
401.408	14.88
402.192	14.88
402.975	11.88
403.758	12.88
404.541	11.88
405.324	18.88
406.107	14.88
406.89	17.88
407.673	15.88
408.456	14.88
409.238	12.88
410.021	16.88
410.803	16.88
411.586	18.88
412.368	15.88
413.151	15.88
413.933	17.88
414.715	16.88
415.497	16.88
416.279	18.88
417.061	19.88
417.843	22.88
418.624	18.88
419.406	18.88
420.188	20.88
420.969	18.88
421.751	21.88
422.532	21.88
423.313	22.88
424.095	20.88
424.876	24.88
425.657	23.88
426.438	25.88
427.219	24.88
428	26.88
428.78	26.88
429.561	29.88
430.342	29.88
431.122	33.88
431.903	29.88
432.683	37.88
433.464	32.88
434.244	34.88
435.024	37.88
435.804	40.88
436.584	41.88
437.364	44.88
438.144	46.88
438.924	50.88
439.704	51.88
440.483	58.88
441.263	60.88
442.042	64.88
442.822	71.88
443.601	73.88
444.38	82.88
445.16	82.88
445.939	92.88
446.718	101.88
447.497	108.88
448.276	119.88
449.054	136.88
449.833	151.88
450.612	158.88
451.391	182.88
452.169	190.88
452.948	219.88
453.726	240.88
454.504	273.88
455.282	292.88
456.061	336.88
456.839	362.88
457.617	413.88
458.395	462.88
459.172	504.88
459.95	565.88
460.728	636.88
461.506	714.88
462.283	779.88
463.061	878.88
463.838	985.88
464.615	1095.88
465.393	1217.88
466.17	1354.88
466.947	1498.88
467.724	1659.88
468.501	1833.88
469.278	2042.88
470.055	2248.88
470.831	2473.88
471.608	2744.88
472.385	3033.88
473.161	3306.88
473.938	3642.88
474.714	3975.88
475.49	4393.88
476.266	4790.88
477.043	5269.88
477.819	5746.88
478.595	6236.88
479.371	6857.88
480.146	7465.88
480.922	8171.88
481.698	8871.88
482.473	9603.88
483.249	10455.88
484.024	11402.88
484.8	12351.88
485.575	13328.88
486.35	14475.88
487.126	15698.88
487.901	16940.88
488.676	18243.88
489.451	19680.88
490.225	21177.88
491	22695.88
491.775	24309.88
492.55	25936.88
493.324	27611.88
494.099	29353.88
494.873	31194.88
495.647	32807.88
496.422	34649.88
497.196	36400.88
497.97	38014.88
498.744	39458.88
499.518	41046.88
500.292	42433.88
501.066	43439.88
501.839	44362.88
502.613	45153.88
503.387	45751.88
504.16	46150.88
504.934	46313.88
505.707	46315.88
506.48	46116.88
507.253	45590.88
508.027	45015.88
508.8	44064.88
509.573	43024.88
510.346	42079.88
511.118	41007.88
511.891	39893.88
512.664	38404.88
513.437	36926.88
514.209	35552.88
514.982	34250.88
515.754	32914.88
516.526	31493.88
517.298	30274.88
518.071	29116.88
518.843	27974.88
519.615	26762.88
520.387	25740.88
521.159	24686.88
521.93	23664.88
522.702	22721.88
523.474	21847.88
524.245	20823.88
525.017	20045.88
525.788	19099.88
526.56	18263.88
527.331	17467.88
528.102	16615.88
528.873	15778.88
529.644	15038.88
530.415	14341.88
531.186	13606.88
531.957	12931.88
532.728	12297.88
533.498	11644.88
534.269	11025.88
535.039	10428.88
535.81	9883.88
536.58	9342.88
537.351	8856.88
538.121	8345.88
538.891	7920.88
539.661	7494.88
540.431	7087.88
541.201	6775.88
541.971	6376.88
542.741	6050.88
543.51	5723.88
544.28	5477.88
545.05	5208.88
545.819	4954.88
546.588	4745.88
547.358	4521.88
548.127	4289.88
548.896	4075.88
549.665	3871.88
550.434	3657.88
551.203	3488.88
551.972	3297.88
552.741	3112.88
553.51	2946.88
554.278	2776.88
555.047	2620.88
555.815	2479.88
556.584	2356.88
557.352	2190.88
558.121	2072.88
558.889	1976.88
559.657	1884.88
560.425	1767.88
561.193	1670.88
561.961	1582.88
562.729	1488.88
563.496	1415.88
564.264	1330.88
565.032	1271.88
565.799	1197.88
566.567	1125.88
567.334	1069.88
568.101	1003.88
568.869	954.88
569.636	894.88
570.403	851.88
571.17	800.88
571.937	755.88
572.704	718.88
573.471	679.88
574.237	636.88
575.004	598.88
575.771	569.88
576.537	534.88
577.303	506.88
578.07	481.88
578.836	450.88
579.602	427.88
580.368	408.88
581.134	376.88
581.9	366.88
582.666	353.88
583.432	328.88
584.198	312.88
584.964	300.88
585.729	283.88
586.495	260.88
587.26	252.88
588.025	237.88
588.791	228.88
589.556	216.88
590.321	208.88
591.086	191.88
591.851	187.88
592.616	178.88
593.381	169.88
594.146	161.88
594.911	153.88
595.675	147.88
596.44	138.88
597.204	130.88
597.969	133.88
598.733	122.88
599.497	119.88
600.261	113.88
601.025	107.88
601.79	109.88
602.553	99.88
603.317	89.88
604.081	90.88
604.845	86.88
605.609	83.88
606.372	76.88
607.136	76.88
607.899	73.88
608.662	71.88
609.426	66.88
610.189	68.88
610.952	66.88
611.715	58.88
612.478	60.88
613.241	56.88
614.004	52.88
614.767	53.88
615.529	55.88
616.292	48.88
617.055	46.88
617.817	45.88
618.579	46.88
619.342	41.88
620.104	42.88
620.866	39.88
621.628	38.88
622.39	35.88
623.152	38.88
623.914	34.88
624.676	33.88
625.438	36.88
626.199	31.88
626.961	27.88
627.722	30.88
628.484	28.88
629.245	29.88
630.006	29.88
630.768	26.88
631.529	24.88
632.29	26.88
633.051	26.88
633.812	24.88
634.573	25.88
635.333	23.88
636.094	21.88
636.855	20.88
637.615	20.88
638.376	21.88
639.136	20.88
639.896	17.88
640.657	20.88
641.417	19.88
642.177	18.88
642.937	18.88
643.697	18.88
644.457	16.88
645.216	15.88
645.976	16.88
646.736	14.88
647.495	14.88
648.255	14.88
649.014	13.88
649.774	13.88
650.533	15.88
651.292	15.88
652.051	9.88
652.81	14.88
653.569	12.88
654.328	13.88
655.087	14.88
655.846	11.88
656.604	12.88
657.363	11.88
658.121	10.88
658.88	13.88
659.638	12.88
660.397	9.88
661.155	11.88
661.913	12.88
662.671	12.88
663.429	11.88
664.187	10.88
664.945	8.88
665.703	9.88
666.46	10.88
667.218	10.88
667.976	11.88
668.733	9.88
669.49	8.88
670.248	8.88
671.005	7.88
671.762	10.88
672.519	7.88
673.276	8.88
674.033	7.88
674.79	8.88
675.547	8.88
676.304	9.88
677.06	7.88
677.817	10.88
678.574	8.88
679.33	6.88
680.086	8.88
680.843	8.88
681.599	9.88
682.355	8.88
683.111	8.88
683.867	8.88
684.623	8.88
685.379	9.88
686.135	9.88
686.89	9.88
687.646	9.88
688.402	8.88
689.157	8.88
689.912	7.88
690.668	8.88
691.423	7.88
692.178	6.88
692.933	7.88
693.688	7.88
694.443	6.88
695.198	6.88
695.953	6.88
696.708	7.88
697.462	6.88
698.217	8.88
698.972	5.88
699.726	6.88
700.48	8.88
701.235	7.88
701.989	6.88
702.743	5.88
703.497	8.88
704.251	8.88
705.005	9.88
705.759	7.88
706.513	5.88
707.266	8.88
708.02	6.88
708.774	6.88
709.527	6.88
710.28	6.88
711.034	5.88
711.787	5.88
712.54	8.88
713.293	9.88
714.046	7.88
714.799	9.88
715.552	6.88
716.305	7.88
717.058	6.88
717.81	9.88
718.563	9.88
719.315	9.88
720.068	7.88
720.82	7.88
721.573	9.88
722.325	8.88
723.077	10.88
723.829	7.88
724.581	9.88
725.333	7.88
726.085	7.88
726.836	8.88
727.588	9.88
728.34	7.88
729.091	8.88
729.843	7.88
730.594	8.88
731.346	7.88
732.097	8.88
732.848	9.88
733.599	8.88
734.35	8.88
735.101	9.88
735.852	9.88
736.603	8.88
737.354	9.88
738.104	10.88
738.855	5.88
739.605	10.88
740.356	8.88
741.106	10.88
741.856	10.88
742.607	12.88
743.357	9.88
744.107	9.88
744.857	9.88
745.607	8.88
746.357	11.88
747.106	13.88
747.856	11.88
748.606	11.88
749.355	10.88
750.105	9.88
750.854	12.88
751.603	10.88
752.353	11.88
753.102	10.88
753.851	11.88
754.6	12.88
755.349	12.88
756.098	13.88
756.847	14.88
757.595	11.88
758.344	8.88
759.093	13.88
759.841	12.88
760.589	10.88
761.338	13.88
762.086	11.88
762.834	12.88
763.582	11.88
764.331	14.88
765.079	11.88
765.826	12.88
766.574	14.88
767.322	12.88
768.07	11.88
768.817	14.88
769.565	13.88
770.312	12.88
771.06	12.88
771.807	14.88
772.554	15.88
773.302	16.88
774.049	14.88
774.796	14.88
775.543	13.88
776.29	13.88
777.036	17.88
777.783	14.88
778.53	14.88
779.276	14.88
780.023	14.88
780.769	14.88
781.516	15.88
782.262	16.88
783.008	11.88
783.754	14.88
784.5	15.88
785.246	14.88
785.992	12.88
786.738	14.88
787.484	15.88
788.23	14.88
788.975	14.88
789.721	14.88
790.466	13.88
791.212	14.88
791.957	12.88
792.702	13.88
793.447	11.88
794.193	12.88
794.938	12.88
795.683	13.88
796.427	12.88
797.172	11.88
797.917	13.88
798.662	11.88
799.406	10.88
800.151	14.88
800.895	8.88
801.64	11.88
802.384	12.88
803.128	10.88
803.872	11.88
804.616	10.88
805.36	12.88
806.104	8.88
806.848	12.88
807.592	5.88
808.336	9.88
809.079	8.88
809.823	7.88
810.566	9.88
811.31	11.88
812.053	6.88
812.796	10.88
813.539	10.88
814.283	8.88
815.026	11.88
815.769	8.88
816.511	7.88
817.254	7.88
817.997	10.88
818.74	9.88
819.482	6.88
820.225	6.88
820.967	7.88
821.71	8.88
822.452	6.88
823.194	7.88
823.936	9.88
824.678	6.88
825.42	5.88
826.162	2.88
826.904	7.88
827.646	6.88
828.388	7.88
829.129	7.88
829.871	4.88
830.612	9.88
831.354	5.88
832.095	6.88
832.836	6.88
833.577	5.88
834.319	4.88
835.06	5.88
835.801	3.88
836.542	6.88
837.282	3.88
838.023	5.88
838.764	5.88
839.504	6.88
840.245	3.88
840.985	3.88
841.726	6.88
842.466	4.88
843.206	4.88
843.946	4.88
844.687	4.88
845.427	2.88
846.166	7.88
846.906	2.88
847.646	4.88
848.386	2.88
849.125	2.88
849.865	2.88
850.605	0.88
851.344	4.88
852.083	2.88
852.823	5.88
853.562	5.88
854.301	4.88
855.04	4.88
855.779	4.88
856.518	3.88
857.257	4.88
857.995	4.88
858.734	2.88
859.473	2.88
860.211	3.88
860.95	1.88
861.688	4.88
862.426	3.88
863.165	1.88
863.903	2.88
864.641	2.88
865.379	3.88
866.117	2.88
866.855	1.88
867.593	2.88
868.33	2.88
869.068	3.88
869.806	-0.12
870.543	2.88
871.28	2.88
872.018	-0.12
872.755	2.88
873.492	2.88
874.229	4.88
874.967	0.88
875.703	0.88
876.44	4.88
877.177	-0.12
877.914	1.88
878.651	0.88
879.387	3.88
880.124	2.88
880.86	2.88
881.597	2.88
882.333	0.88
883.069	-0.12
883.806	-0.12
884.542	-0.12
885.278	1.88
886.014	0.88
886.749	0.88
887.485	0.88
888.221	2.88
888.957	-0.12
889.692	0.88
890.428	1.88
891.163	0.88
891.899	1.88
892.634	-0.12
893.369	-0.12
894.104	2.88
894.839	-1.12
895.574	0.88
896.309	0.88
897.044	0.88
897.779	-0.12
898.514	1.88
899.248	2.88
899.983	0.88
900.717	-0.12
901.452	1.88
902.186	1.88
902.92	1.88
903.654	0.88
904.389	1.88
905.123	-0.12
905.857	1.88
906.59	1.88
907.324	-0.12
908.058	1.88
908.792	0.88
909.525	-0.12
910.259	-1.12
910.992	1.88
911.726	0.88
912.459	2.88
913.192	2.88
913.925	1.88
914.658	-0.12
915.391	1.88
916.124	-1.12
916.857	1.88
917.59	-0.12
918.323	1.88
919.055	0.88
919.788	0.88
920.521	0.88
921.253	-1.12
921.985	1.88
922.718	1.88
923.45	0.88
924.182	-1.12
924.914	-2.12
925.646	-0.12
926.378	-1.12
927.11	1.88
927.841	-0.12
928.573	0.88
929.305	-0.12
930.036	-0.12
930.768	0.88
931.499	1.88
932.23	2.88
932.962	0.88
933.693	-1.12
934.424	2.88
935.155	0.88
935.886	0.88
936.617	0.88
937.348	-2.12
938.078	-0.12
938.809	-0.12
939.54	-1.12
940.27	-0.12
941.001	2.88
941.731	1.88
942.461	0.88
943.191	-0.12
943.922	-1.12
944.652	0.88
945.382	0.88
946.112	-0.12
946.841	-1.12
947.571	0.88
948.301	-1.12
949.031	-1.12
949.76	2.88
950.49	0.88
951.219	-2.12
951.948	0.88
952.678	0.88
953.407	1.88
954.136	-0.12
954.865	1.88
955.594	1.88
956.323	-1.12
957.052	0.88
957.78	0.88
958.509	-1.12
959.238	-1.12
959.966	-0.12
960.695	-1.12
961.423	-1.12
962.151	0.88
962.88	-0.12
963.608	1.88
964.336	-0.12
965.064	1.88
965.792	-0.12
966.52	0.88
967.247	0.88
967.975	-0.12
968.703	1.88
969.43	2.88
970.158	-1.12
970.885	-0.12
971.613	-0.12
972.34	1.88
973.067	-1.12
973.794	0.88
974.521	-1.12
975.248	-1.12
975.975	0.88
976.702	2.88
977.429	0.88
978.156	2.88
978.882	-0.12
979.609	1.88
980.335	-0.12
981.062	0.88
981.788	-0.12
982.514	-2.12
983.24	-0.12
983.967	-3.12
984.693	1.88
985.419	-1.12
986.144	-0.12
986.87	1.88
987.596	-1.12
988.322	-0.12
989.047	-1.12
989.773	2.88
990.498	0.88
991.224	0.88
991.949	-0.12
992.674	0.88
993.399	0.88
994.124	0.88
994.849	0.88
995.574	0.88
996.299	-0.12
997.024	0.88
997.749	-0.12
998.473	2.88
999.198	1.88
999.922	-1.12
1000.647	2.88
1001.371	1.88
1002.095	0.88
1002.82	-0.12
1003.544	-3.12
1004.268	2.88
1004.992	3.88
1005.716	4.88
1006.439	4.88
1007.163	4.88
1007.887	5.88
1008.611	-1.12
1009.334	1.88
1010.058	0.88
1010.781	-0.12
1011.504	-0.12
1012.228	-3.12
1012.951	-0.12
1013.674	1.88
1014.397	-2.12
1015.12	0.88
