节点500_705_QEPB04081__424__20-51-55-704.txt的数据

Date: Wed Nov 12 20:51:55 CST 2025
User: PC
Spectrometer: QEPB0408
触发模式: 0
积分时间 (秒): 1.000000E-2
Scans to average: 1
启用暗噪声校正: true
启用非线性校正: false
滑动平均宽度: 0
X轴模式: Wavelengths
Number of Pixels in Spectrum: 1044
>>>>>Begin Spectral Data<<<<<
220.843	6.25
221.644	6.25
222.444	6.25
223.244	5.25
224.045	6.25
224.845	6.25
225.645	6.25
226.445	8.25
227.245	9.25
228.045	7.25
228.845	11.25
229.645	5.25
230.444	6.25
231.244	9.25
232.043	9.25
232.843	9.25
233.642	9.25
234.442	7.25
235.241	8.25
236.04	10.25
236.839	9.25
237.638	13.25
238.437	10.25
239.236	12.25
240.035	8.25
240.833	13.25
241.632	12.25
242.43	11.25
243.229	11.25
244.027	15.25
244.826	12.25
245.624	13.25
246.422	13.25
247.22	14.25
248.018	15.25
248.816	15.25
249.614	16.25
250.412	13.25
251.21	17.25
252.007	15.25
252.805	16.25
253.602	17.25
254.4	17.25
255.197	18.25
255.994	19.25
256.791	18.25
257.589	21.25
258.386	23.25
259.183	19.25
259.979	23.25
260.776	22.25
261.573	23.25
262.37	26.25
263.166	26.25
263.963	26.25
264.759	24.25
265.556	23.25
266.352	27.25
267.148	26.25
267.944	28.25
268.74	27.25
269.536	26.25
270.332	28.25
271.128	27.25
271.924	32.25
272.719	30.25
273.515	33.25
274.311	28.25
275.106	35.25
275.901	31.25
276.697	33.25
277.492	34.25
278.287	34.25
279.082	34.25
279.877	34.25
280.672	35.25
281.467	36.25
282.262	34.25
283.056	36.25
283.851	36.25
284.646	33.25
285.44	34.25
286.234	33.25
287.029	31.25
287.823	30.25
288.617	35.25
289.411	31.25
290.205	33.25
290.999	34.25
291.793	32.25
292.587	29.25
293.381	29.25
294.174	29.25
294.968	31.25
295.761	28.25
296.555	26.25
297.348	25.25
298.141	26.25
298.935	29.25
299.728	26.25
300.521	24.25
301.314	25.25
302.107	23.25
302.899	24.25
303.692	22.25
304.485	22.25
305.277	22.25
306.07	20.25
306.862	24.25
307.655	26.25
308.447	22.25
309.239	20.25
310.031	19.25
310.823	18.25
311.615	17.25
312.407	19.25
313.199	16.25
313.991	18.25
314.783	17.25
315.574	14.25
316.366	18.25
317.157	13.25
317.949	15.25
318.74	14.25
319.531	13.25
320.322	12.25
321.113	13.25
321.904	13.25
322.695	15.25
323.486	13.25
324.277	13.25
325.068	14.25
325.858	15.25
326.649	11.25
327.439	13.25
328.23	12.25
329.02	15.25
329.81	15.25
330.6	14.25
331.391	12.25
332.181	16.25
332.971	13.25
333.76	15.25
334.55	11.25
335.34	12.25
336.13	13.25
336.919	12.25
337.709	11.25
338.498	11.25
339.287	11.25
340.077	12.25
340.866	11.25
341.655	10.25
342.444	13.25
343.233	14.25
344.022	9.25
344.811	13.25
345.6	12.25
346.388	13.25
347.177	11.25
347.965	11.25
348.754	11.25
349.542	12.25
350.33	11.25
351.119	10.25
351.907	10.25
352.695	10.25
353.483	8.25
354.271	8.25
355.059	10.25
355.846	10.25
356.634	13.25
357.422	9.25
358.209	10.25
358.997	10.25
359.784	10.25
360.571	10.25
361.359	9.25
362.146	9.25
362.933	11.25
363.72	10.25
364.507	9.25
365.294	9.25
366.081	12.25
366.867	12.25
367.654	11.25
368.44	9.25
369.227	10.25
370.013	11.25
370.8	11.25
371.586	11.25
372.372	10.25
373.158	12.25
373.944	10.25
374.73	10.25
375.516	10.25
376.302	8.25
377.088	11.25
377.873	11.25
378.659	13.25
379.445	10.25
380.23	13.25
381.015	8.25
381.801	12.25
382.586	13.25
383.371	9.25
384.156	12.25
384.941	10.25
385.726	11.25
386.511	9.25
387.296	10.25
388.08	12.25
388.865	12.25
389.649	12.25
390.434	12.25
391.218	13.25
392.003	14.25
392.787	9.25
393.571	12.25
394.355	10.25
395.139	14.25
395.923	11.25
396.707	13.25
397.491	10.25
398.274	14.25
399.058	12.25
399.842	13.25
400.625	15.25
401.408	14.25
402.192	12.25
402.975	13.25
403.758	13.25
404.541	15.25
405.324	15.25
406.107	14.25
406.89	15.25
407.673	14.25
408.456	16.25
409.238	15.25
410.021	14.25
410.803	18.25
411.586	15.25
412.368	19.25
413.151	15.25
413.933	18.25
414.715	18.25
415.497	16.25
416.279	20.25
417.061	20.25
417.843	20.25
418.624	18.25
419.406	19.25
420.188	23.25
420.969	22.25
421.751	21.25
422.532	23.25
423.313	23.25
424.095	22.25
424.876	21.25
425.657	21.25
426.438	23.25
427.219	25.25
428	26.25
428.78	27.25
429.561	31.25
430.342	28.25
431.122	33.25
431.903	29.25
432.683	33.25
433.464	35.25
434.244	39.25
435.024	40.25
435.804	40.25
436.584	43.25
437.364	44.25
438.144	51.25
438.924	49.25
439.704	56.25
440.483	59.25
441.263	61.25
442.042	69.25
442.822	72.25
443.601	78.25
444.38	78.25
445.16	93.25
445.939	102.25
446.718	103.25
447.497	115.25
448.276	123.25
449.054	132.25
449.833	149.25
450.612	162.25
451.391	189.25
452.169	202.25
452.948	228.25
453.726	250.25
454.504	276.25
455.282	301.25
456.061	342.25
456.839	380.25
457.617	425.25
458.395	469.25
459.172	532.25
459.95	584.25
460.728	654.25
461.506	716.25
462.283	805.25
463.061	903.25
463.838	998.25
464.615	1116.25
465.393	1226.25
466.17	1379.25
466.947	1525.25
467.724	1690.25
468.501	1871.25
469.278	2053.25
470.055	2280.25
470.831	2515.25
471.608	2761.25
472.385	3033.25
473.161	3326.25
473.938	3677.25
474.714	4030.25
475.49	4414.25
476.266	4823.25
477.043	5284.25
477.819	5711.25
478.595	6273.25
479.371	6821.25
480.146	7427.25
480.922	8145.25
481.698	8827.25
482.473	9572.25
483.249	10406.25
484.024	11290.25
484.8	12220.25
485.575	13202.25
486.35	14297.25
487.126	15515.25
487.901	16746.25
488.676	17995.25
489.451	19382.25
490.225	20787.25
491	22284.25
491.775	23904.25
492.55	25530.25
493.324	27113.25
494.099	28810.25
494.873	30573.25
495.647	32261.25
496.422	33926.25
497.196	35671.25
497.97	37240.25
498.744	38755.25
499.518	40434.25
500.292	41796.25
501.066	42842.25
501.839	43733.25
502.613	44633.25
503.387	45266.25
504.16	45803.25
504.934	45998.25
505.707	46057.25
506.48	45817.25
507.253	45445.25
508.027	44966.25
508.8	44101.25
509.573	43158.25
510.346	42264.25
511.118	41218.25
511.891	40081.25
512.664	38661.25
513.437	37241.25
514.209	36011.25
514.982	34640.25
515.754	33266.25
516.526	31893.25
517.298	30662.25
518.071	29465.25
518.843	28335.25
519.615	27154.25
520.387	26065.25
521.159	25041.25
521.93	23979.25
522.702	23014.25
523.474	22040.25
524.245	21139.25
525.017	20250.25
525.788	19435.25
526.56	18585.25
527.331	17841.25
528.102	16900.25
528.873	16057.25
529.644	15298.25
530.415	14628.25
531.186	13915.25
531.957	13205.25
532.728	12531.25
533.498	11889.25
534.269	11280.25
535.039	10663.25
535.81	10134.25
536.58	9567.25
537.351	9044.25
538.121	8585.25
538.891	8111.25
539.661	7660.25
540.431	7198.25
541.201	6946.25
541.971	6569.25
542.741	6178.25
543.51	5866.25
544.28	5588.25
545.05	5303.25
545.819	5070.25
546.588	4873.25
547.358	4592.25
548.127	4367.25
548.896	4161.25
549.665	3939.25
550.434	3746.25
551.203	3539.25
551.972	3369.25
552.741	3177.25
553.51	2989.25
554.278	2848.25
555.047	2672.25
555.815	2536.25
556.584	2410.25
557.352	2271.25
558.121	2147.25
558.889	2027.25
559.657	1927.25
560.425	1811.25
561.193	1707.25
561.961	1631.25
562.729	1529.25
563.496	1458.25
564.264	1383.25
565.032	1307.25
565.799	1223.25
566.567	1154.25
567.334	1096.25
568.101	1040.25
568.869	997.25
569.636	935.25
570.403	870.25
571.17	823.25
571.937	779.25
572.704	736.25
573.471	695.25
574.237	667.25
575.004	616.25
575.771	578.25
576.537	557.25
577.303	521.25
578.07	495.25
578.836	465.25
579.602	435.25
580.368	422.25
581.134	399.25
581.9	373.25
582.666	357.25
583.432	342.25
584.198	324.25
584.964	307.25
585.729	295.25
586.495	274.25
587.26	260.25
588.025	247.25
588.791	238.25
589.556	220.25
590.321	211.25
591.086	196.25
591.851	194.25
592.616	178.25
593.381	172.25
594.146	166.25
594.911	161.25
595.675	146.25
596.44	142.25
597.204	139.25
597.969	134.25
598.733	124.25
599.497	115.25
600.261	113.25
601.025	109.25
601.79	102.25
602.553	101.25
603.317	96.25
604.081	92.25
604.845	90.25
605.609	85.25
606.372	80.25
607.136	77.25
607.899	76.25
608.662	73.25
609.426	71.25
610.189	66.25
610.952	64.25
611.715	59.25
612.478	63.25
613.241	59.25
614.004	56.25
614.767	54.25
615.529	49.25
616.292	50.25
617.055	48.25
617.817	47.25
618.579	48.25
619.342	46.25
620.104	46.25
620.866	41.25
621.628	44.25
622.39	39.25
623.152	37.25
623.914	36.25
624.676	34.25
625.438	33.25
626.199	35.25
626.961	32.25
627.722	34.25
628.484	32.25
629.245	30.25
630.006	29.25
630.768	27.25
631.529	26.25
632.29	25.25
633.051	24.25
633.812	23.25
634.573	27.25
635.333	24.25
636.094	25.25
636.855	24.25
637.615	21.25
638.376	23.25
639.136	21.25
639.896	21.25
640.657	20.25
641.417	19.25
642.177	16.25
642.937	18.25
643.697	19.25
644.457	15.25
645.216	15.25
645.976	17.25
646.736	20.25
647.495	17.25
648.255	14.25
649.014	16.25
649.774	12.25
650.533	18.25
651.292	15.25
652.051	13.25
652.81	15.25
653.569	14.25
654.328	13.25
655.087	13.25
655.846	15.25
656.604	10.25
657.363	11.25
658.121	15.25
658.88	14.25
659.638	13.25
660.397	10.25
661.155	11.25
661.913	10.25
662.671	14.25
663.429	10.25
664.187	11.25
664.945	11.25
665.703	10.25
666.46	12.25
667.218	10.25
667.976	10.25
668.733	11.25
669.49	10.25
670.248	12.25
671.005	8.25
671.762	9.25
672.519	10.25
673.276	9.25
674.033	10.25
674.79	10.25
675.547	7.25
676.304	10.25
677.06	8.25
677.817	9.25
678.574	10.25
679.33	10.25
680.086	7.25
680.843	9.25
681.599	9.25
682.355	9.25
683.111	10.25
683.867	8.25
684.623	10.25
685.379	9.25
686.135	8.25
686.89	9.25
687.646	7.25
688.402	11.25
689.157	8.25
689.912	7.25
690.668	7.25
691.423	5.25
692.178	8.25
692.933	7.25
693.688	7.25
694.443	9.25
695.198	7.25
695.953	8.25
696.708	8.25
697.462	11.25
698.217	9.25
698.972	11.25
699.726	9.25
700.48	7.25
701.235	8.25
701.989	8.25
702.743	6.25
703.497	7.25
704.251	8.25
705.005	7.25
705.759	8.25
706.513	8.25
707.266	6.25
708.02	8.25
708.774	9.25
709.527	6.25
710.28	8.25
711.034	9.25
711.787	9.25
712.54	7.25
713.293	8.25
714.046	6.25
714.799	8.25
715.552	9.25
716.305	6.25
717.058	8.25
717.81	10.25
718.563	8.25
719.315	10.25
720.068	7.25
720.82	8.25
721.573	10.25
722.325	10.25
723.077	10.25
723.829	7.25
724.581	9.25
725.333	8.25
726.085	10.25
726.836	8.25
727.588	7.25
728.34	8.25
729.091	8.25
729.843	7.25
730.594	7.25
731.346	10.25
732.097	7.25
732.848	9.25
733.599	11.25
734.35	7.25
735.101	11.25
735.852	8.25
736.603	8.25
737.354	11.25
738.104	6.25
738.855	10.25
739.605	7.25
740.356	10.25
741.106	10.25
741.856	10.25
742.607	9.25
743.357	9.25
744.107	11.25
744.857	9.25
745.607	10.25
746.357	12.25
747.106	10.25
747.856	11.25
748.606	10.25
749.355	10.25
750.105	10.25
750.854	11.25
751.603	8.25
752.353	12.25
753.102	13.25
753.851	12.25
754.6	14.25
755.349	11.25
756.098	11.25
756.847	10.25
757.595	12.25
758.344	13.25
759.093	11.25
759.841	13.25
760.589	13.25
761.338	11.25
762.086	13.25
762.834	11.25
763.582	14.25
764.331	13.25
765.079	12.25
765.826	13.25
766.574	12.25
767.322	14.25
768.07	13.25
768.817	15.25
769.565	13.25
770.312	15.25
771.06	15.25
771.807	15.25
772.554	15.25
773.302	15.25
774.049	12.25
774.796	14.25
775.543	15.25
776.29	17.25
777.036	17.25
777.783	16.25
778.53	15.25
779.276	14.25
780.023	18.25
780.769	16.25
781.516	16.25
782.262	15.25
783.008	16.25
783.754	16.25
784.5	14.25
785.246	14.25
785.992	13.25
786.738	13.25
787.484	17.25
788.23	15.25
788.975	16.25
789.721	15.25
790.466	14.25
791.212	17.25
791.957	14.25
792.702	15.25
793.447	13.25
794.193	15.25
794.938	13.25
795.683	12.25
796.427	12.25
797.172	14.25
797.917	13.25
798.662	12.25
799.406	13.25
800.151	13.25
800.895	14.25
801.64	12.25
802.384	11.25
803.128	15.25
803.872	12.25
804.616	11.25
805.36	11.25
806.104	11.25
806.848	9.25
807.592	13.25
808.336	13.25
809.079	11.25
809.823	11.25
810.566	10.25
811.31	8.25
812.053	11.25
812.796	9.25
813.539	11.25
814.283	8.25
815.026	9.25
815.769	10.25
816.511	8.25
817.254	8.25
817.997	7.25
818.74	7.25
819.482	10.25
820.225	6.25
820.967	9.25
821.71	8.25
822.452	9.25
823.194	7.25
823.936	8.25
824.678	6.25
825.42	8.25
826.162	7.25
826.904	9.25
827.646	7.25
828.388	7.25
829.129	8.25
829.871	7.25
830.612	4.25
831.354	6.25
832.095	7.25
832.836	6.25
833.577	7.25
834.319	7.25
835.06	9.25
835.801	6.25
836.542	7.25
837.282	5.25
838.023	6.25
838.764	9.25
839.504	5.25
840.245	9.25
840.985	6.25
841.726	3.25
842.466	7.25
843.206	4.25
843.946	6.25
844.687	6.25
845.427	5.25
846.166	8.25
846.906	2.25
847.646	6.25
848.386	6.25
849.125	6.25
849.865	2.25
850.605	5.25
851.344	4.25
852.083	5.25
852.823	5.25
853.562	6.25
854.301	4.25
855.04	5.25
855.779	4.25
856.518	2.25
857.257	3.25
857.995	4.25
858.734	4.25
859.473	4.25
860.211	3.25
860.95	3.25
861.688	3.25
862.426	3.25
863.165	5.25
863.903	4.25
864.641	4.25
865.379	5.25
866.117	5.25
866.855	2.25
867.593	2.25
868.33	3.25
869.068	2.25
869.806	3.25
870.543	2.25
871.28	1.25
872.018	5.25
872.755	3.25
873.492	3.25
874.229	2.25
874.967	4.25
875.703	4.25
876.44	0.25
877.177	3.25
877.914	2.25
878.651	1.25
879.387	0.25
880.124	3.25
880.86	5.25
881.597	3.25
882.333	1.25
883.069	1.25
883.806	3.25
884.542	2.25
885.278	0.25
886.014	1.25
886.749	2.25
887.485	2.25
888.221	2.25
888.957	1.25
889.692	2.25
890.428	0.25
891.163	0.25
891.899	2.25
892.634	-0.75
893.369	0.25
894.104	-0.75
894.839	0.25
895.574	2.25
896.309	2.25
897.044	0.25
897.779	2.25
898.514	3.25
899.248	1.25
899.983	3.25
900.717	1.25
901.452	-0.75
902.186	0.25
902.92	0.25
903.654	-0.75
904.389	0.25
905.123	0.25
905.857	1.25
906.59	1.25
907.324	3.25
908.058	-1.75
908.792	0.25
909.525	1.25
910.259	-1.75
910.992	3.25
911.726	2.25
912.459	-1.75
913.192	2.25
913.925	2.25
914.658	1.25
915.391	2.25
916.124	1.25
916.857	-1.75
917.59	0.25
918.323	2.25
919.055	0.25
919.788	0.25
920.521	1.25
921.253	0.25
921.985	1.25
922.718	3.25
923.45	1.25
924.182	-0.75
924.914	1.25
925.646	-0.75
926.378	2.25
927.11	2.25
927.841	0.25
928.573	0.25
929.305	0.25
930.036	0.25
930.768	0.25
931.499	-0.75
932.23	0.25
932.962	2.25
933.693	1.25
934.424	-0.75
935.155	1.25
935.886	-0.75
936.617	2.25
937.348	1.25
938.078	3.25
938.809	1.25
939.54	0.25
940.27	1.25
941.001	0.25
941.731	3.25
942.461	-0.75
943.191	1.25
943.922	2.25
944.652	0.25
945.382	3.25
946.112	1.25
946.841	3.25
947.571	-0.75
948.301	0.25
949.031	-1.75
949.76	-0.75
950.49	3.25
951.219	-0.75
951.948	2.25
952.678	1.25
953.407	1.25
954.136	1.25
954.865	0.25
955.594	0.25
956.323	0.25
957.052	2.25
957.78	0.25
958.509	-0.75
959.238	2.25
959.966	1.25
960.695	1.25
961.423	2.25
962.151	-1.75
962.88	1.25
963.608	2.25
964.336	-0.75
965.064	0.25
965.792	1.25
966.52	1.25
967.247	1.25
967.975	0.25
968.703	0.25
969.43	2.25
970.158	-0.75
970.885	2.25
971.613	2.25
972.34	2.25
973.067	1.25
973.794	1.25
974.521	1.25
975.248	2.25
975.975	1.25
976.702	4.25
977.429	1.25
978.156	-0.75
978.882	1.25
979.609	-0.75
980.335	1.25
981.062	1.25
981.788	2.25
982.514	1.25
983.24	1.25
983.967	1.25
984.693	1.25
985.419	1.25
986.144	-0.75
986.87	1.25
987.596	-0.75
988.322	1.25
989.047	1.25
989.773	-0.75
990.498	0.25
991.224	1.25
991.949	2.25
992.674	0.25
993.399	0.25
994.124	1.25
994.849	1.25
995.574	0.25
996.299	1.25
997.024	2.25
997.749	1.25
998.473	-0.75
999.198	1.25
999.922	1.25
1000.647	1.25
1001.371	4.25
1002.095	-0.75
1002.82	-1.75
1003.544	-2.75
1004.268	3.25
1004.992	6.25
1005.716	5.25
1006.439	2.25
1007.163	5.25
1007.887	6.25
1008.611	2.25
1009.334	-1.75
1010.058	0.25
1010.781	0.25
1011.504	0.25
1012.228	1.25
1012.951	1.25
1013.674	1.25
1014.397	-0.75
1015.12	-0.75
