节点500_705_QEPB04081__332__20-50-40-529.txt的数据

Date: Wed Nov 12 20:50:40 CST 2025
User: PC
Spectrometer: QEPB0408
触发模式: 0
积分时间 (秒): 1.000000E-2
Scans to average: 1
启用暗噪声校正: true
启用非线性校正: false
滑动平均宽度: 0
X轴模式: Wavelengths
Number of Pixels in Spectrum: 1044
>>>>>Begin Spectral Data<<<<<
220.843	5.88
221.644	4.88
222.444	6.88
223.244	6.88
224.045	6.88
224.845	5.88
225.645	5.88
226.445	5.88
227.245	5.88
228.045	5.88
228.845	8.88
229.645	7.88
230.444	7.88
231.244	7.88
232.043	8.88
232.843	7.88
233.642	8.88
234.442	10.88
235.241	10.88
236.04	8.88
236.839	8.88
237.638	9.88
238.437	11.88
239.236	8.88
240.035	11.88
240.833	10.88
241.632	10.88
242.43	12.88
243.229	10.88
244.027	14.88
244.826	14.88
245.624	14.88
246.422	14.88
247.22	11.88
248.018	16.88
248.816	12.88
249.614	15.88
250.412	13.88
251.21	16.88
252.007	18.88
252.805	17.88
253.602	19.88
254.4	16.88
255.197	18.88
255.994	18.88
256.791	18.88
257.589	20.88
258.386	19.88
259.183	21.88
259.979	21.88
260.776	22.88
261.573	23.88
262.37	22.88
263.166	27.88
263.963	23.88
264.759	27.88
265.556	28.88
266.352	27.88
267.148	30.88
267.944	30.88
268.74	28.88
269.536	27.88
270.332	27.88
271.128	32.88
271.924	31.88
272.719	32.88
273.515	32.88
274.311	31.88
275.106	32.88
275.901	32.88
276.697	34.88
277.492	32.88
278.287	34.88
279.082	33.88
279.877	34.88
280.672	35.88
281.467	34.88
282.262	31.88
283.056	34.88
283.851	32.88
284.646	33.88
285.44	28.88
286.234	36.88
287.029	34.88
287.823	34.88
288.617	33.88
289.411	32.88
290.205	32.88
290.999	33.88
291.793	30.88
292.587	27.88
293.381	30.88
294.174	29.88
294.968	29.88
295.761	29.88
296.555	26.88
297.348	25.88
298.141	25.88
298.935	30.88
299.728	24.88
300.521	22.88
301.314	27.88
302.107	25.88
302.899	21.88
303.692	22.88
304.485	21.88
305.277	20.88
306.07	24.88
306.862	25.88
307.655	21.88
308.447	21.88
309.239	20.88
310.031	19.88
310.823	20.88
311.615	18.88
312.407	16.88
313.199	16.88
313.991	15.88
314.783	18.88
315.574	12.88
316.366	15.88
317.157	14.88
317.949	17.88
318.74	17.88
319.531	14.88
320.322	14.88
321.113	13.88
321.904	12.88
322.695	13.88
323.486	12.88
324.277	15.88
325.068	11.88
325.858	11.88
326.649	11.88
327.439	12.88
328.23	12.88
329.02	11.88
329.81	11.88
330.6	10.88
331.391	14.88
332.181	12.88
332.971	10.88
333.76	14.88
334.55	11.88
335.34	11.88
336.13	12.88
336.919	10.88
337.709	11.88
338.498	10.88
339.287	10.88
340.077	10.88
340.866	9.88
341.655	9.88
342.444	9.88
343.233	13.88
344.022	11.88
344.811	9.88
345.6	10.88
346.388	12.88
347.177	11.88
347.965	10.88
348.754	10.88
349.542	9.88
350.33	13.88
351.119	11.88
351.907	8.88
352.695	11.88
353.483	9.88
354.271	10.88
355.059	10.88
355.846	10.88
356.634	9.88
357.422	10.88
358.209	10.88
358.997	9.88
359.784	11.88
360.571	10.88
361.359	10.88
362.146	10.88
362.933	9.88
363.72	9.88
364.507	9.88
365.294	7.88
366.081	9.88
366.867	6.88
367.654	8.88
368.44	10.88
369.227	12.88
370.013	9.88
370.8	10.88
371.586	9.88
372.372	6.88
373.158	12.88
373.944	8.88
374.73	9.88
375.516	9.88
376.302	10.88
377.088	11.88
377.873	10.88
378.659	10.88
379.445	9.88
380.23	7.88
381.015	10.88
381.801	8.88
382.586	11.88
383.371	12.88
384.156	8.88
384.941	9.88
385.726	11.88
386.511	10.88
387.296	10.88
388.08	8.88
388.865	13.88
389.649	9.88
390.434	11.88
391.218	11.88
392.003	12.88
392.787	11.88
393.571	11.88
394.355	9.88
395.139	9.88
395.923	14.88
396.707	11.88
397.491	12.88
398.274	14.88
399.058	12.88
399.842	14.88
400.625	9.88
401.408	14.88
402.192	12.88
402.975	14.88
403.758	13.88
404.541	15.88
405.324	16.88
406.107	15.88
406.89	15.88
407.673	14.88
408.456	16.88
409.238	14.88
410.021	14.88
410.803	15.88
411.586	17.88
412.368	14.88
413.151	18.88
413.933	16.88
414.715	18.88
415.497	17.88
416.279	18.88
417.061	18.88
417.843	17.88
418.624	19.88
419.406	17.88
420.188	21.88
420.969	22.88
421.751	20.88
422.532	23.88
423.313	21.88
424.095	24.88
424.876	23.88
425.657	24.88
426.438	23.88
427.219	24.88
428	28.88
428.78	25.88
429.561	28.88
430.342	33.88
431.122	29.88
431.903	30.88
432.683	30.88
433.464	33.88
434.244	33.88
435.024	41.88
435.804	41.88
436.584	40.88
437.364	46.88
438.144	48.88
438.924	48.88
439.704	51.88
440.483	59.88
441.263	62.88
442.042	60.88
442.822	66.88
443.601	73.88
444.38	82.88
445.16	88.88
445.939	95.88
446.718	104.88
447.497	107.88
448.276	123.88
449.054	131.88
449.833	146.88
450.612	158.88
451.391	174.88
452.169	192.88
452.948	215.88
453.726	238.88
454.504	266.88
455.282	301.88
456.061	331.88
456.839	369.88
457.617	417.88
458.395	460.88
459.172	526.88
459.95	569.88
460.728	644.88
461.506	702.88
462.283	790.88
463.061	879.88
463.838	977.88
464.615	1088.88
465.393	1219.88
466.17	1353.88
466.947	1511.88
467.724	1658.88
468.501	1854.88
469.278	2045.88
470.055	2259.88
470.831	2500.88
471.608	2773.88
472.385	3049.88
473.161	3332.88
473.938	3676.88
474.714	4047.88
475.49	4453.88
476.266	4858.88
477.043	5348.88
477.819	5832.88
478.595	6345.88
479.371	6956.88
480.146	7597.88
480.922	8275.88
481.698	9035.88
482.473	9775.88
483.249	10666.88
484.024	11531.88
484.8	12569.88
485.575	13637.88
486.35	14793.88
487.126	15970.88
487.901	17316.88
488.676	18679.88
489.451	20154.88
490.225	21590.88
491	23208.88
491.775	24907.88
492.55	26600.88
493.324	28245.88
494.099	30064.88
494.873	31854.88
495.647	33578.88
496.422	35406.88
497.196	37179.88
497.97	38761.88
498.744	40303.88
499.518	41917.88
500.292	43313.88
501.066	44316.88
501.839	45219.88
502.613	46037.88
503.387	46685.88
504.16	47108.88
504.934	47112.88
505.707	47147.88
506.48	46870.88
507.253	46250.88
508.027	45578.88
508.8	44587.88
509.573	43543.88
510.346	42514.88
511.118	41489.88
511.891	40201.88
512.664	38855.88
513.437	37286.88
514.209	35904.88
514.982	34551.88
515.754	33114.88
516.526	31796.88
517.298	30558.88
518.071	29235.88
518.843	28147.88
519.615	27009.88
520.387	25996.88
521.159	24889.88
521.93	23888.88
522.702	22897.88
523.474	21932.88
524.245	21033.88
525.017	20082.88
525.788	19241.88
526.56	18413.88
527.331	17578.88
528.102	16656.88
528.873	15856.88
529.644	15115.88
530.415	14415.88
531.186	13738.88
531.957	12994.88
532.728	12365.88
533.498	11649.88
534.269	11077.88
535.039	10488.88
535.81	9904.88
536.58	9354.88
537.351	8874.88
538.121	8431.88
538.891	7946.88
539.661	7513.88
540.431	7168.88
541.201	6744.88
541.971	6377.88
542.741	6062.88
543.51	5755.88
544.28	5500.88
545.05	5206.88
545.819	4978.88
546.588	4725.88
547.358	4530.88
548.127	4252.88
548.896	4057.88
549.665	3879.88
550.434	3648.88
551.203	3452.88
551.972	3304.88
552.741	3093.88
553.51	2957.88
554.278	2788.88
555.047	2609.88
555.815	2475.88
556.584	2342.88
557.352	2202.88
558.121	2112.88
558.889	1974.88
559.657	1866.88
560.425	1768.88
561.193	1689.88
561.961	1596.88
562.729	1489.88
563.496	1415.88
564.264	1338.88
565.032	1266.88
565.799	1194.88
566.567	1130.88
567.334	1060.88
568.101	1009.88
568.869	956.88
569.636	904.88
570.403	852.88
571.17	806.88
571.937	760.88
572.704	721.88
573.471	684.88
574.237	634.88
575.004	605.88
575.771	569.88
576.537	536.88
577.303	509.88
578.07	481.88
578.836	453.88
579.602	419.88
580.368	412.88
581.134	382.88
581.9	364.88
582.666	350.88
583.432	334.88
584.198	317.88
584.964	295.88
585.729	285.88
586.495	265.88
587.26	260.88
588.025	241.88
588.791	224.88
589.556	218.88
590.321	203.88
591.086	191.88
591.851	187.88
592.616	175.88
593.381	165.88
594.146	160.88
594.911	152.88
595.675	149.88
596.44	138.88
597.204	138.88
597.969	129.88
598.733	125.88
599.497	118.88
600.261	109.88
601.025	110.88
601.79	107.88
602.553	99.88
603.317	91.88
604.081	91.88
604.845	86.88
605.609	84.88
606.372	82.88
607.136	78.88
607.899	77.88
608.662	72.88
609.426	68.88
610.189	67.88
610.952	62.88
611.715	61.88
612.478	62.88
613.241	55.88
614.004	55.88
614.767	50.88
615.529	50.88
616.292	53.88
617.055	45.88
617.817	46.88
618.579	42.88
619.342	44.88
620.104	42.88
620.866	41.88
621.628	41.88
622.39	39.88
623.152	36.88
623.914	40.88
624.676	35.88
625.438	33.88
626.199	33.88
626.961	31.88
627.722	31.88
628.484	30.88
629.245	28.88
630.006	27.88
630.768	25.88
631.529	27.88
632.29	24.88
633.051	25.88
633.812	21.88
634.573	26.88
635.333	21.88
636.094	23.88
636.855	23.88
637.615	20.88
638.376	22.88
639.136	22.88
639.896	19.88
640.657	22.88
641.417	18.88
642.177	17.88
642.937	18.88
643.697	17.88
644.457	19.88
645.216	15.88
645.976	13.88
646.736	15.88
647.495	13.88
648.255	15.88
649.014	12.88
649.774	15.88
650.533	10.88
651.292	10.88
652.051	12.88
652.81	14.88
653.569	12.88
654.328	13.88
655.087	13.88
655.846	9.88
656.604	10.88
657.363	13.88
658.121	10.88
658.88	11.88
659.638	9.88
660.397	9.88
661.155	11.88
661.913	10.88
662.671	11.88
663.429	11.88
664.187	11.88
664.945	8.88
665.703	9.88
666.46	8.88
667.218	8.88
667.976	10.88
668.733	11.88
669.49	9.88
670.248	8.88
671.005	10.88
671.762	10.88
672.519	8.88
673.276	7.88
674.033	8.88
674.79	10.88
675.547	10.88
676.304	6.88
677.06	8.88
677.817	7.88
678.574	6.88
679.33	8.88
680.086	7.88
680.843	8.88
681.599	6.88
682.355	9.88
683.111	8.88
683.867	7.88
684.623	6.88
685.379	8.88
686.135	9.88
686.89	6.88
687.646	8.88
688.402	7.88
689.157	8.88
689.912	6.88
690.668	7.88
691.423	7.88
692.178	5.88
692.933	7.88
693.688	8.88
694.443	7.88
695.198	10.88
695.953	6.88
696.708	9.88
697.462	5.88
698.217	7.88
698.972	6.88
699.726	8.88
700.48	6.88
701.235	5.88
701.989	8.88
702.743	7.88
703.497	6.88
704.251	8.88
705.005	6.88
705.759	7.88
706.513	4.88
707.266	6.88
708.02	7.88
708.774	6.88
709.527	7.88
710.28	5.88
711.034	7.88
711.787	7.88
712.54	6.88
713.293	9.88
714.046	6.88
714.799	7.88
715.552	7.88
716.305	7.88
717.058	10.88
717.81	6.88
718.563	6.88
719.315	5.88
720.068	7.88
720.82	8.88
721.573	9.88
722.325	8.88
723.077	7.88
723.829	8.88
724.581	9.88
725.333	8.88
726.085	7.88
726.836	8.88
727.588	8.88
728.34	6.88
729.091	7.88
729.843	8.88
730.594	7.88
731.346	10.88
732.097	9.88
732.848	9.88
733.599	8.88
734.35	8.88
735.101	9.88
735.852	7.88
736.603	7.88
737.354	6.88
738.104	9.88
738.855	9.88
739.605	8.88
740.356	12.88
741.106	9.88
741.856	10.88
742.607	10.88
743.357	8.88
744.107	10.88
744.857	10.88
745.607	10.88
746.357	11.88
747.106	9.88
747.856	10.88
748.606	9.88
749.355	12.88
750.105	12.88
750.854	11.88
751.603	9.88
752.353	11.88
753.102	9.88
753.851	8.88
754.6	13.88
755.349	9.88
756.098	10.88
756.847	9.88
757.595	11.88
758.344	10.88
759.093	14.88
759.841	12.88
760.589	11.88
761.338	12.88
762.086	11.88
762.834	12.88
763.582	11.88
764.331	12.88
765.079	12.88
765.826	13.88
766.574	11.88
767.322	14.88
768.07	14.88
768.817	12.88
769.565	14.88
770.312	14.88
771.06	14.88
771.807	12.88
772.554	14.88
773.302	13.88
774.049	14.88
774.796	17.88
775.543	14.88
776.29	15.88
777.036	14.88
777.783	15.88
778.53	14.88
779.276	17.88
780.023	12.88
780.769	14.88
781.516	16.88
782.262	16.88
783.008	12.88
783.754	14.88
784.5	16.88
785.246	17.88
785.992	14.88
786.738	14.88
787.484	12.88
788.23	16.88
788.975	13.88
789.721	18.88
790.466	13.88
791.212	16.88
791.957	12.88
792.702	12.88
793.447	16.88
794.193	12.88
794.938	11.88
795.683	11.88
796.427	13.88
797.172	15.88
797.917	12.88
798.662	13.88
799.406	14.88
800.151	12.88
800.895	13.88
801.64	8.88
802.384	12.88
803.128	12.88
803.872	11.88
804.616	12.88
805.36	11.88
806.104	10.88
806.848	10.88
807.592	9.88
808.336	9.88
809.079	8.88
809.823	10.88
810.566	9.88
811.31	9.88
812.053	8.88
812.796	8.88
813.539	7.88
814.283	10.88
815.026	10.88
815.769	6.88
816.511	9.88
817.254	4.88
817.997	8.88
818.74	7.88
819.482	7.88
820.225	7.88
820.967	8.88
821.71	7.88
822.452	6.88
823.194	7.88
823.936	8.88
824.678	6.88
825.42	9.88
826.162	5.88
826.904	8.88
827.646	5.88
828.388	4.88
829.129	6.88
829.871	6.88
830.612	6.88
831.354	4.88
832.095	3.88
832.836	5.88
833.577	5.88
834.319	7.88
835.06	5.88
835.801	5.88
836.542	7.88
837.282	2.88
838.023	6.88
838.764	5.88
839.504	2.88
840.245	4.88
840.985	5.88
841.726	4.88
842.466	5.88
843.206	5.88
843.946	2.88
844.687	2.88
845.427	6.88
846.166	3.88
846.906	5.88
847.646	7.88
848.386	3.88
849.125	4.88
849.865	5.88
850.605	5.88
851.344	3.88
852.083	5.88
852.823	5.88
853.562	2.88
854.301	4.88
855.04	4.88
855.779	3.88
856.518	3.88
857.257	4.88
857.995	4.88
858.734	3.88
859.473	4.88
860.211	3.88
860.95	3.88
861.688	3.88
862.426	2.88
863.165	5.88
863.903	3.88
864.641	2.88
865.379	2.88
866.117	1.88
866.855	1.88
867.593	2.88
868.33	2.88
869.068	2.88
869.806	2.88
870.543	2.88
871.28	2.88
872.018	2.88
872.755	-1.12
873.492	2.88
874.229	1.88
874.967	0.88
875.703	2.88
876.44	2.88
877.177	3.88
877.914	-0.12
878.651	3.88
879.387	2.88
880.124	2.88
880.86	1.88
881.597	2.88
882.333	0.88
883.069	3.88
883.806	-0.12
884.542	2.88
885.278	1.88
886.014	0.88
886.749	0.88
887.485	1.88
888.221	0.88
888.957	0.88
889.692	2.88
890.428	-0.12
891.163	2.88
891.899	1.88
892.634	0.88
893.369	1.88
894.104	1.88
894.839	-0.12
895.574	2.88
896.309	0.88
897.044	-0.12
897.779	0.88
898.514	1.88
899.248	0.88
899.983	1.88
900.717	-1.12
901.452	0.88
902.186	2.88
902.92	1.88
903.654	-0.12
904.389	1.88
905.123	1.88
905.857	-0.12
906.59	0.88
907.324	2.88
908.058	0.88
908.792	1.88
909.525	-0.12
910.259	-0.12
910.992	2.88
911.726	-0.12
912.459	2.88
913.192	0.88
913.925	-0.12
914.658	-0.12
915.391	0.88
916.124	-0.12
916.857	-1.12
917.59	-0.12
918.323	1.88
919.055	1.88
919.788	1.88
920.521	-0.12
921.253	0.88
921.985	-1.12
922.718	1.88
923.45	0.88
924.182	0.88
924.914	0.88
925.646	1.88
926.378	-0.12
927.11	0.88
927.841	-0.12
928.573	-0.12
929.305	0.88
930.036	0.88
930.768	0.88
931.499	1.88
932.23	-1.12
932.962	0.88
933.693	0.88
934.424	1.88
935.155	0.88
935.886	0.88
936.617	-0.12
937.348	0.88
938.078	0.88
938.809	-0.12
939.54	-1.12
940.27	-0.12
941.001	-1.12
941.731	0.88
942.461	0.88
943.191	1.88
943.922	0.88
944.652	0.88
945.382	0.88
946.112	2.88
946.841	-1.12
947.571	-0.12
948.301	-0.12
949.031	1.88
949.76	-0.12
950.49	-0.12
951.219	-0.12
951.948	0.88
952.678	0.88
953.407	-0.12
954.136	0.88
954.865	-0.12
955.594	0.88
956.323	-1.12
957.052	-0.12
957.78	0.88
958.509	-2.12
959.238	-0.12
959.966	-0.12
960.695	-1.12
961.423	-1.12
962.151	0.88
962.88	1.88
963.608	-2.12
964.336	1.88
965.064	-0.12
965.792	0.88
966.52	0.88
967.247	2.88
967.975	2.88
968.703	-0.12
969.43	2.88
970.158	-1.12
970.885	0.88
971.613	1.88
972.34	-0.12
973.067	1.88
973.794	-1.12
974.521	-2.12
975.248	-0.12
975.975	0.88
976.702	-1.12
977.429	-1.12
978.156	0.88
978.882	-0.12
979.609	1.88
980.335	0.88
981.062	-0.12
981.788	0.88
982.514	1.88
983.24	0.88
983.967	0.88
984.693	0.88
985.419	-0.12
986.144	-1.12
986.87	1.88
987.596	0.88
988.322	1.88
989.047	0.88
989.773	0.88
990.498	1.88
991.224	1.88
991.949	-0.12
992.674	0.88
993.399	-0.12
994.124	0.88
994.849	-0.12
995.574	-0.12
996.299	-0.12
997.024	-0.12
997.749	0.88
998.473	-1.12
999.198	0.88
999.922	0.88
1000.647	-1.12
1001.371	2.88
1002.095	1.88
1002.82	-3.12
1003.544	-0.12
1004.268	4.88
1004.992	5.88
1005.716	6.88
1006.439	4.88
1007.163	5.88
1007.887	5.88
1008.611	-2.12
1009.334	-1.12
1010.058	2.88
1010.781	-1.12
1011.504	0.88
1012.228	-0.12
1012.951	0.88
1013.674	-0.12
1014.397	-1.12
1015.12	-1.12
