节点500_705_QEPB04081__26__20-46-19-323.txt的数据

Date: Wed Nov 12 20:46:19 CST 2025
User: PC
Spectrometer: QEPB0408
触发模式: 0
积分时间 (秒): 1.000000E-2
Scans to average: 1
启用暗噪声校正: true
启用非线性校正: false
滑动平均宽度: 0
X轴模式: Wavelengths
Number of Pixels in Spectrum: 1044
>>>>>Begin Spectral Data<<<<<
220.843	8.38
221.644	4.38
222.444	7.38
223.244	8.38
224.045	6.38
224.845	6.38
225.645	5.38
226.445	7.38
227.245	3.38
228.045	8.38
228.845	6.38
229.645	10.38
230.444	6.38
231.244	8.38
232.043	9.38
232.843	11.38
233.642	5.38
234.442	11.38
235.241	10.38
236.04	9.38
236.839	9.38
237.638	11.38
238.437	13.38
239.236	9.38
240.035	11.38
240.833	13.38
241.632	12.38
242.43	15.38
243.229	15.38
244.027	15.38
244.826	13.38
245.624	16.38
246.422	15.38
247.22	17.38
248.018	15.38
248.816	14.38
249.614	19.38
250.412	19.38
251.21	16.38
252.007	16.38
252.805	19.38
253.602	19.38
254.4	19.38
255.197	22.38
255.994	21.38
256.791	22.38
257.589	23.38
258.386	23.38
259.183	23.38
259.979	24.38
260.776	24.38
261.573	24.38
262.37	27.38
263.166	26.38
263.963	28.38
264.759	26.38
265.556	28.38
266.352	31.38
267.148	28.38
267.944	28.38
268.74	35.38
269.536	33.38
270.332	34.38
271.128	34.38
271.924	32.38
272.719	33.38
273.515	34.38
274.311	39.38
275.106	37.38
275.901	37.38
276.697	36.38
277.492	40.38
278.287	38.38
279.082	37.38
279.877	39.38
280.672	38.38
281.467	37.38
282.262	36.38
283.056	37.38
283.851	35.38
284.646	31.38
285.44	36.38
286.234	33.38
287.029	40.38
287.823	33.38
288.617	34.38
289.411	35.38
290.205	35.38
290.999	34.38
291.793	33.38
292.587	33.38
293.381	32.38
294.174	30.38
294.968	28.38
295.761	29.38
296.555	26.38
297.348	30.38
298.141	28.38
298.935	30.38
299.728	27.38
300.521	25.38
301.314	24.38
302.107	25.38
302.899	23.38
303.692	21.38
304.485	21.38
305.277	23.38
306.07	23.38
306.862	18.38
307.655	22.38
308.447	20.38
309.239	22.38
310.031	18.38
310.823	19.38
311.615	19.38
312.407	21.38
313.199	15.38
313.991	18.38
314.783	15.38
315.574	18.38
316.366	15.38
317.157	14.38
317.949	16.38
318.74	16.38
319.531	13.38
320.322	12.38
321.113	14.38
321.904	14.38
322.695	12.38
323.486	12.38
324.277	13.38
325.068	15.38
325.858	11.38
326.649	12.38
327.439	12.38
328.23	10.38
329.02	10.38
329.81	14.38
330.6	13.38
331.391	12.38
332.181	14.38
332.971	11.38
333.76	13.38
334.55	15.38
335.34	12.38
336.13	12.38
336.919	13.38
337.709	10.38
338.498	13.38
339.287	11.38
340.077	11.38
340.866	11.38
341.655	12.38
342.444	11.38
343.233	13.38
344.022	13.38
344.811	11.38
345.6	10.38
346.388	11.38
347.177	11.38
347.965	14.38
348.754	14.38
349.542	11.38
350.33	11.38
351.119	14.38
351.907	11.38
352.695	9.38
353.483	11.38
354.271	10.38
355.059	12.38
355.846	11.38
356.634	12.38
357.422	12.38
358.209	11.38
358.997	8.38
359.784	8.38
360.571	12.38
361.359	9.38
362.146	9.38
362.933	10.38
363.72	8.38
364.507	11.38
365.294	12.38
366.081	11.38
366.867	11.38
367.654	8.38
368.44	12.38
369.227	7.38
370.013	11.38
370.8	10.38
371.586	9.38
372.372	7.38
373.158	9.38
373.944	11.38
374.73	11.38
375.516	10.38
376.302	11.38
377.088	11.38
377.873	11.38
378.659	9.38
379.445	11.38
380.23	10.38
381.015	10.38
381.801	9.38
382.586	9.38
383.371	9.38
384.156	9.38
384.941	11.38
385.726	10.38
386.511	10.38
387.296	13.38
388.08	11.38
388.865	10.38
389.649	11.38
390.434	12.38
391.218	11.38
392.003	11.38
392.787	10.38
393.571	11.38
394.355	16.38
395.139	13.38
395.923	12.38
396.707	13.38
397.491	13.38
398.274	14.38
399.058	17.38
399.842	16.38
400.625	13.38
401.408	15.38
402.192	15.38
402.975	14.38
403.758	16.38
404.541	15.38
405.324	15.38
406.107	13.38
406.89	13.38
407.673	16.38
408.456	15.38
409.238	15.38
410.021	17.38
410.803	19.38
411.586	18.38
412.368	18.38
413.151	18.38
413.933	17.38
414.715	19.38
415.497	18.38
416.279	19.38
417.061	19.38
417.843	18.38
418.624	21.38
419.406	19.38
420.188	21.38
420.969	21.38
421.751	23.38
422.532	25.38
423.313	21.38
424.095	23.38
424.876	23.38
425.657	27.38
426.438	26.38
427.219	27.38
428	28.38
428.78	26.38
429.561	30.38
430.342	31.38
431.122	33.38
431.903	35.38
432.683	33.38
433.464	38.38
434.244	36.38
435.024	36.38
435.804	41.38
436.584	44.38
437.364	45.38
438.144	49.38
438.924	50.38
439.704	53.38
440.483	54.38
441.263	60.38
442.042	62.38
442.822	66.38
443.601	71.38
444.38	78.38
445.16	82.38
445.939	90.38
446.718	95.38
447.497	103.38
448.276	113.38
449.054	123.38
449.833	132.38
450.612	146.38
451.391	163.38
452.169	174.38
452.948	193.38
453.726	220.38
454.504	235.38
455.282	269.38
456.061	295.38
456.839	333.38
457.617	367.38
458.395	418.38
459.172	467.38
459.95	513.38
460.728	581.38
461.506	656.38
462.283	717.38
463.061	809.38
463.838	914.38
464.615	997.38
465.393	1140.38
466.17	1269.38
466.947	1422.38
467.724	1585.38
468.501	1747.38
469.278	1956.38
470.055	2187.38
470.831	2417.38
471.608	2676.38
472.385	2956.38
473.161	3288.38
473.938	3631.38
474.714	4014.38
475.49	4430.38
476.266	4886.38
477.043	5383.38
477.819	5958.38
478.595	6535.38
479.371	7174.38
480.146	7874.38
480.922	8668.38
481.698	9509.38
482.473	10472.38
483.249	11407.38
484.024	12415.38
484.8	13549.38
485.575	14783.38
486.35	16106.38
487.126	17541.38
487.901	18978.38
488.676	20551.38
489.451	22355.38
490.225	24091.38
491	25927.38
491.775	27815.38
492.55	29732.38
493.324	31719.38
494.099	33680.38
494.873	35646.38
495.647	37624.38
496.422	39554.38
497.196	41459.38
497.97	43129.38
498.744	44637.38
499.518	46364.38
500.292	47607.38
501.066	48397.38
501.839	48996.38
502.613	49583.38
503.387	49887.38
504.16	50094.38
504.934	49716.38
505.707	49271.38
506.48	48496.38
507.253	47574.38
508.027	46539.38
508.8	45301.38
509.573	43885.38
510.346	42507.38
511.118	41021.38
511.891	39572.38
512.664	37925.38
513.437	36361.38
514.209	34850.38
514.982	33443.38
515.754	31967.38
516.526	30619.38
517.298	29294.38
518.071	28187.38
518.843	27048.38
519.615	25843.38
520.387	24837.38
521.159	23854.38
521.93	22863.38
522.702	21866.38
523.474	20959.38
524.245	19956.38
525.017	19098.38
525.788	18190.38
526.56	17410.38
527.331	16566.38
528.102	15690.38
528.873	14902.38
529.644	14158.38
530.415	13418.38
531.186	12764.38
531.957	12053.38
532.728	11427.38
533.498	10788.38
534.269	10203.38
535.039	9632.38
535.81	9081.38
536.58	8642.38
537.351	8166.38
538.121	7707.38
538.891	7322.38
539.661	6909.38
540.431	6544.38
541.201	6227.38
541.971	5893.38
542.741	5576.38
543.51	5275.38
544.28	5004.38
545.05	4799.38
545.819	4553.38
546.588	4323.38
547.358	4139.38
548.127	3913.38
548.896	3707.38
549.665	3539.38
550.434	3326.38
551.203	3150.38
551.972	2971.38
552.741	2813.38
553.51	2640.38
554.278	2538.38
555.047	2373.38
555.815	2246.38
556.584	2118.38
557.352	1994.38
558.121	1901.38
558.889	1787.38
559.657	1678.38
560.425	1576.38
561.193	1506.38
561.961	1425.38
562.729	1353.38
563.496	1294.38
564.264	1201.38
565.032	1139.38
565.799	1076.38
566.567	1012.38
567.334	967.38
568.101	921.38
568.869	866.38
569.636	821.38
570.403	762.38
571.17	713.38
571.937	692.38
572.704	649.38
573.471	608.38
574.237	580.38
575.004	538.38
575.771	518.38
576.537	472.38
577.303	457.38
578.07	423.38
578.836	397.38
579.602	385.38
580.368	360.38
581.134	352.38
581.9	327.38
582.666	316.38
583.432	304.38
584.198	287.38
584.964	265.38
585.729	253.38
586.495	242.38
587.26	231.38
588.025	216.38
588.791	205.38
589.556	196.38
590.321	184.38
591.086	178.38
591.851	173.38
592.616	160.38
593.381	155.38
594.146	148.38
594.911	145.38
595.675	133.38
596.44	132.38
597.204	122.38
597.969	117.38
598.733	112.38
599.497	105.38
600.261	104.38
601.025	96.38
601.79	92.38
602.553	88.38
603.317	89.38
604.081	83.38
604.845	79.38
605.609	78.38
606.372	73.38
607.136	74.38
607.899	70.38
608.662	65.38
609.426	62.38
610.189	64.38
610.952	62.38
611.715	56.38
612.478	58.38
613.241	53.38
614.004	51.38
614.767	51.38
615.529	51.38
616.292	45.38
617.055	46.38
617.817	43.38
618.579	43.38
619.342	40.38
620.104	39.38
620.866	40.38
621.628	36.38
622.39	38.38
623.152	34.38
623.914	31.38
624.676	32.38
625.438	34.38
626.199	31.38
626.961	35.38
627.722	28.38
628.484	25.38
629.245	29.38
630.006	26.38
630.768	28.38
631.529	27.38
632.29	25.38
633.051	26.38
633.812	19.38
634.573	25.38
635.333	23.38
636.094	22.38
636.855	21.38
637.615	19.38
638.376	20.38
639.136	19.38
639.896	19.38
640.657	19.38
641.417	19.38
642.177	15.38
642.937	17.38
643.697	19.38
644.457	17.38
645.216	16.38
645.976	15.38
646.736	17.38
647.495	17.38
648.255	14.38
649.014	17.38
649.774	16.38
650.533	14.38
651.292	15.38
652.051	14.38
652.81	15.38
653.569	13.38
654.328	15.38
655.087	13.38
655.846	14.38
656.604	12.38
657.363	12.38
658.121	13.38
658.88	13.38
659.638	11.38
660.397	11.38
661.155	10.38
661.913	11.38
662.671	10.38
663.429	11.38
664.187	13.38
664.945	10.38
665.703	11.38
666.46	7.38
667.218	10.38
667.976	10.38
668.733	10.38
669.49	10.38
670.248	9.38
671.005	8.38
671.762	10.38
672.519	11.38
673.276	8.38
674.033	9.38
674.79	9.38
675.547	7.38
676.304	9.38
677.06	8.38
677.817	9.38
678.574	8.38
679.33	8.38
680.086	8.38
680.843	9.38
681.599	6.38
682.355	8.38
683.111	12.38
683.867	9.38
684.623	7.38
685.379	8.38
686.135	7.38
686.89	9.38
687.646	8.38
688.402	8.38
689.157	8.38
689.912	8.38
690.668	7.38
691.423	9.38
692.178	8.38
692.933	8.38
693.688	9.38
694.443	9.38
695.198	6.38
695.953	7.38
696.708	9.38
697.462	7.38
698.217	8.38
698.972	9.38
699.726	9.38
700.48	7.38
701.235	8.38
701.989	6.38
702.743	7.38
703.497	9.38
704.251	6.38
705.005	10.38
705.759	7.38
706.513	9.38
707.266	9.38
708.02	8.38
708.774	7.38
709.527	7.38
710.28	7.38
711.034	8.38
711.787	8.38
712.54	8.38
713.293	9.38
714.046	8.38
714.799	8.38
715.552	9.38
716.305	6.38
717.058	8.38
717.81	10.38
718.563	8.38
719.315	10.38
720.068	7.38
720.82	8.38
721.573	11.38
722.325	8.38
723.077	11.38
723.829	6.38
724.581	8.38
725.333	8.38
726.085	8.38
726.836	9.38
727.588	8.38
728.34	12.38
729.091	10.38
729.843	9.38
730.594	9.38
731.346	8.38
732.097	9.38
732.848	10.38
733.599	9.38
734.35	10.38
735.101	10.38
735.852	11.38
736.603	9.38
737.354	9.38
738.104	9.38
738.855	10.38
739.605	9.38
740.356	10.38
741.106	11.38
741.856	10.38
742.607	9.38
743.357	8.38
744.107	11.38
744.857	11.38
745.607	12.38
746.357	13.38
747.106	10.38
747.856	13.38
748.606	9.38
749.355	13.38
750.105	13.38
750.854	13.38
751.603	12.38
752.353	13.38
753.102	13.38
753.851	15.38
754.6	14.38
755.349	13.38
756.098	12.38
756.847	15.38
757.595	11.38
758.344	14.38
759.093	13.38
759.841	14.38
760.589	15.38
761.338	12.38
762.086	15.38
762.834	15.38
763.582	16.38
764.331	14.38
765.079	14.38
765.826	15.38
766.574	16.38
767.322	14.38
768.07	15.38
768.817	15.38
769.565	15.38
770.312	16.38
771.06	17.38
771.807	15.38
772.554	17.38
773.302	15.38
774.049	16.38
774.796	18.38
775.543	14.38
776.29	16.38
777.036	16.38
777.783	14.38
778.53	19.38
779.276	18.38
780.023	17.38
780.769	18.38
781.516	19.38
782.262	18.38
783.008	17.38
783.754	15.38
784.5	14.38
785.246	20.38
785.992	15.38
786.738	18.38
787.484	15.38
788.23	15.38
788.975	15.38
789.721	15.38
790.466	14.38
791.212	15.38
791.957	15.38
792.702	16.38
793.447	17.38
794.193	15.38
794.938	13.38
795.683	14.38
796.427	13.38
797.172	13.38
797.917	14.38
798.662	14.38
799.406	15.38
800.151	13.38
800.895	14.38
801.64	11.38
802.384	12.38
803.128	12.38
803.872	13.38
804.616	10.38
805.36	12.38
806.104	12.38
806.848	12.38
807.592	10.38
808.336	10.38
809.079	11.38
809.823	11.38
810.566	10.38
811.31	7.38
812.053	10.38
812.796	8.38
813.539	10.38
814.283	9.38
815.026	8.38
815.769	9.38
816.511	8.38
817.254	7.38
817.997	9.38
818.74	8.38
819.482	8.38
820.225	6.38
820.967	8.38
821.71	7.38
822.452	7.38
823.194	5.38
823.936	8.38
824.678	9.38
825.42	8.38
826.162	7.38
826.904	6.38
827.646	8.38
828.388	6.38
829.129	7.38
829.871	5.38
830.612	4.38
831.354	7.38
832.095	6.38
832.836	4.38
833.577	5.38
834.319	7.38
835.06	4.38
835.801	6.38
836.542	6.38
837.282	6.38
838.023	7.38
838.764	8.38
839.504	5.38
840.245	7.38
840.985	4.38
841.726	3.38
842.466	5.38
843.206	4.38
843.946	4.38
844.687	3.38
845.427	6.38
846.166	4.38
846.906	7.38
847.646	3.38
848.386	5.38
849.125	5.38
849.865	5.38
850.605	7.38
851.344	6.38
852.083	4.38
852.823	2.38
853.562	4.38
854.301	4.38
855.04	2.38
855.779	5.38
856.518	4.38
857.257	3.38
857.995	5.38
858.734	4.38
859.473	4.38
860.211	6.38
860.95	1.38
861.688	4.38
862.426	3.38
863.165	3.38
863.903	2.38
864.641	4.38
865.379	4.38
866.117	0.38
866.855	3.38
867.593	1.38
868.33	4.38
869.068	4.38
869.806	2.38
870.543	2.38
871.28	3.38
872.018	2.38
872.755	2.38
873.492	1.38
874.229	1.38
874.967	1.38
875.703	3.38
876.44	3.38
877.177	2.38
877.914	-0.62
878.651	3.38
879.387	5.38
880.124	5.38
880.86	2.38
881.597	3.38
882.333	2.38
883.069	3.38
883.806	3.38
884.542	-0.62
885.278	2.38
886.014	4.38
886.749	1.38
887.485	4.38
888.221	3.38
888.957	4.38
889.692	1.38
890.428	0.38
891.163	1.38
891.899	3.38
892.634	1.38
893.369	1.38
894.104	0.38
894.839	2.38
895.574	-0.62
896.309	3.38
897.044	1.38
897.779	1.38
898.514	-0.62
899.248	1.38
899.983	0.38
900.717	2.38
901.452	0.38
902.186	-0.62
902.92	2.38
903.654	2.38
904.389	2.38
905.123	1.38
905.857	3.38
906.59	-0.62
907.324	2.38
908.058	3.38
908.792	1.38
909.525	2.38
910.259	0.38
910.992	0.38
911.726	0.38
912.459	0.38
913.192	1.38
913.925	1.38
914.658	0.38
915.391	1.38
916.124	1.38
916.857	3.38
917.59	0.38
918.323	1.38
919.055	0.38
919.788	1.38
920.521	0.38
921.253	3.38
921.985	-0.62
922.718	0.38
923.45	-1.62
924.182	0.38
924.914	2.38
925.646	1.38
926.378	0.38
927.11	1.38
927.841	1.38
928.573	-0.62
929.305	2.38
930.036	0.38
930.768	2.38
931.499	1.38
932.23	-0.62
932.962	3.38
933.693	1.38
934.424	1.38
935.155	1.38
935.886	-1.62
936.617	0.38
937.348	-0.62
938.078	0.38
938.809	0.38
939.54	-0.62
940.27	2.38
941.001	1.38
941.731	1.38
942.461	0.38
943.191	3.38
943.922	1.38
944.652	0.38
945.382	0.38
946.112	0.38
946.841	2.38
947.571	-2.62
948.301	1.38
949.031	0.38
949.76	0.38
950.49	1.38
951.219	-0.62
951.948	1.38
952.678	-0.62
953.407	2.38
954.136	0.38
954.865	0.38
955.594	2.38
956.323	0.38
957.052	2.38
957.78	0.38
958.509	0.38
959.238	1.38
959.966	1.38
960.695	-0.62
961.423	-0.62
962.151	-0.62
962.88	1.38
963.608	0.38
964.336	-0.62
965.064	-1.62
965.792	2.38
966.52	0.38
967.247	0.38
967.975	2.38
968.703	3.38
969.43	1.38
970.158	-0.62
970.885	1.38
971.613	2.38
972.34	2.38
973.067	2.38
973.794	1.38
974.521	0.38
975.248	-0.62
975.975	1.38
976.702	0.38
977.429	-0.62
978.156	-0.62
978.882	-1.62
979.609	2.38
980.335	1.38
981.062	-0.62
981.788	1.38
982.514	-1.62
983.24	3.38
983.967	1.38
984.693	2.38
985.419	1.38
986.144	1.38
986.87	0.38
987.596	2.38
988.322	1.38
989.047	0.38
989.773	2.38
990.498	-0.62
991.224	-2.62
991.949	1.38
992.674	-0.62
993.399	3.38
994.124	0.38
994.849	0.38
995.574	0.38
996.299	3.38
997.024	1.38
997.749	0.38
998.473	-0.62
999.198	0.38
999.922	0.38
1000.647	1.38
1001.371	3.38
1002.095	0.38
1002.82	-1.62
1003.544	-1.62
1004.268	5.38
1004.992	5.38
1005.716	6.38
1006.439	7.38
1007.163	3.38
1007.887	6.38
1008.611	1.38
1009.334	0.38
1010.058	1.38
1010.781	0.38
1011.504	0.38
1012.228	-1.62
1012.951	-0.62
1013.674	-0.62
1014.397	-0.62
1015.12	1.38
