节点500_705_QEPB04081__259__20-49-37-424.txt的数据

Date: Wed Nov 12 20:49:37 CST 2025
User: PC
Spectrometer: QEPB0408
触发模式: 0
积分时间 (秒): 1.000000E-2
Scans to average: 1
启用暗噪声校正: true
启用非线性校正: false
滑动平均宽度: 0
X轴模式: Wavelengths
Number of Pixels in Spectrum: 1044
>>>>>Begin Spectral Data<<<<<
220.843	5.25
221.644	4.25
222.444	5.25
223.244	5.25
224.045	5.25
224.845	5.25
225.645	5.25
226.445	6.25
227.245	7.25
228.045	8.25
228.845	6.25
229.645	10.25
230.444	7.25
231.244	9.25
232.043	8.25
232.843	7.25
233.642	10.25
234.442	8.25
235.241	9.25
236.04	9.25
236.839	12.25
237.638	11.25
238.437	9.25
239.236	12.25
240.035	11.25
240.833	10.25
241.632	12.25
242.43	11.25
243.229	12.25
244.027	12.25
244.826	13.25
245.624	15.25
246.422	17.25
247.22	16.25
248.018	14.25
248.816	16.25
249.614	18.25
250.412	16.25
251.21	14.25
252.007	16.25
252.805	19.25
253.602	16.25
254.4	18.25
255.197	14.25
255.994	18.25
256.791	18.25
257.589	18.25
258.386	24.25
259.183	20.25
259.979	21.25
260.776	21.25
261.573	23.25
262.37	23.25
263.166	23.25
263.963	26.25
264.759	27.25
265.556	25.25
266.352	25.25
267.148	29.25
267.944	30.25
268.74	30.25
269.536	33.25
270.332	30.25
271.128	31.25
271.924	31.25
272.719	28.25
273.515	34.25
274.311	33.25
275.106	32.25
275.901	33.25
276.697	35.25
277.492	32.25
278.287	34.25
279.082	36.25
279.877	33.25
280.672	37.25
281.467	35.25
282.262	33.25
283.056	35.25
283.851	32.25
284.646	35.25
285.44	30.25
286.234	35.25
287.029	35.25
287.823	34.25
288.617	33.25
289.411	32.25
290.205	29.25
290.999	33.25
291.793	36.25
292.587	32.25
293.381	32.25
294.174	32.25
294.968	28.25
295.761	23.25
296.555	26.25
297.348	25.25
298.141	25.25
298.935	30.25
299.728	25.25
300.521	25.25
301.314	21.25
302.107	22.25
302.899	24.25
303.692	24.25
304.485	24.25
305.277	26.25
306.07	22.25
306.862	22.25
307.655	21.25
308.447	20.25
309.239	18.25
310.031	20.25
310.823	18.25
311.615	20.25
312.407	17.25
313.199	17.25
313.991	14.25
314.783	17.25
315.574	16.25
316.366	16.25
317.157	15.25
317.949	16.25
318.74	13.25
319.531	17.25
320.322	12.25
321.113	11.25
321.904	11.25
322.695	12.25
323.486	13.25
324.277	13.25
325.068	14.25
325.858	11.25
326.649	12.25
327.439	13.25
328.23	11.25
329.02	13.25
329.81	10.25
330.6	12.25
331.391	12.25
332.181	10.25
332.971	10.25
333.76	12.25
334.55	11.25
335.34	12.25
336.13	13.25
336.919	10.25
337.709	9.25
338.498	10.25
339.287	10.25
340.077	14.25
340.866	11.25
341.655	10.25
342.444	8.25
343.233	9.25
344.022	12.25
344.811	10.25
345.6	12.25
346.388	10.25
347.177	12.25
347.965	13.25
348.754	12.25
349.542	12.25
350.33	12.25
351.119	10.25
351.907	8.25
352.695	11.25
353.483	10.25
354.271	8.25
355.059	10.25
355.846	9.25
356.634	10.25
357.422	8.25
358.209	7.25
358.997	10.25
359.784	11.25
360.571	9.25
361.359	8.25
362.146	9.25
362.933	7.25
363.72	9.25
364.507	8.25
365.294	8.25
366.081	10.25
366.867	9.25
367.654	12.25
368.44	9.25
369.227	9.25
370.013	10.25
370.8	6.25
371.586	9.25
372.372	12.25
373.158	11.25
373.944	9.25
374.73	10.25
375.516	10.25
376.302	7.25
377.088	9.25
377.873	8.25
378.659	10.25
379.445	9.25
380.23	9.25
381.015	13.25
381.801	11.25
382.586	9.25
383.371	9.25
384.156	7.25
384.941	13.25
385.726	9.25
386.511	9.25
387.296	10.25
388.08	10.25
388.865	13.25
389.649	12.25
390.434	12.25
391.218	10.25
392.003	11.25
392.787	13.25
393.571	10.25
394.355	9.25
395.139	9.25
395.923	13.25
396.707	11.25
397.491	12.25
398.274	12.25
399.058	10.25
399.842	14.25
400.625	10.25
401.408	14.25
402.192	14.25
402.975	13.25
403.758	10.25
404.541	14.25
405.324	13.25
406.107	16.25
406.89	16.25
407.673	14.25
408.456	16.25
409.238	14.25
410.021	13.25
410.803	16.25
411.586	14.25
412.368	18.25
413.151	19.25
413.933	19.25
414.715	19.25
415.497	15.25
416.279	20.25
417.061	18.25
417.843	16.25
418.624	16.25
419.406	16.25
420.188	20.25
420.969	23.25
421.751	21.25
422.532	24.25
423.313	19.25
424.095	25.25
424.876	20.25
425.657	24.25
426.438	25.25
427.219	24.25
428	23.25
428.78	27.25
429.561	32.25
430.342	28.25
431.122	32.25
431.903	32.25
432.683	30.25
433.464	34.25
434.244	33.25
435.024	36.25
435.804	39.25
436.584	42.25
437.364	46.25
438.144	47.25
438.924	47.25
439.704	52.25
440.483	57.25
441.263	58.25
442.042	60.25
442.822	67.25
443.601	71.25
444.38	78.25
445.16	85.25
445.939	94.25
446.718	102.25
447.497	104.25
448.276	118.25
449.054	129.25
449.833	147.25
450.612	158.25
451.391	170.25
452.169	194.25
452.948	208.25
453.726	241.25
454.504	257.25
455.282	291.25
456.061	329.25
456.839	362.25
457.617	402.25
458.395	446.25
459.172	502.25
459.95	555.25
460.728	617.25
461.506	704.25
462.283	770.25
463.061	865.25
463.838	969.25
464.615	1066.25
465.393	1205.25
466.17	1338.25
466.947	1479.25
467.724	1651.25
468.501	1829.25
469.278	2034.25
470.055	2244.25
470.831	2481.25
471.608	2738.25
472.385	3015.25
473.161	3354.25
473.938	3698.25
474.714	4061.25
475.49	4463.25
476.266	4902.25
477.043	5329.25
477.819	5875.25
478.595	6454.25
479.371	7032.25
480.146	7667.25
480.922	8410.25
481.698	9168.25
482.473	10015.25
483.249	10936.25
484.024	11870.25
484.8	12839.25
485.575	13890.25
486.35	15158.25
487.126	16418.25
487.901	17765.25
488.676	19138.25
489.451	20771.25
490.225	22314.25
491	24028.25
491.775	25659.25
492.55	27405.25
493.324	29221.25
494.099	30999.25
494.873	32883.25
495.647	34749.25
496.422	36568.25
497.196	38336.25
497.97	40087.25
498.744	41564.25
499.518	43189.25
500.292	44478.25
501.066	45520.25
501.839	46450.25
502.613	47071.25
503.387	47636.25
504.16	48034.25
504.934	48029.25
505.707	47888.25
506.48	47358.25
507.253	46882.25
508.027	46088.25
508.8	45039.25
509.573	43878.25
510.346	42776.25
511.118	41721.25
511.891	40261.25
512.664	38642.25
513.437	37198.25
514.209	35769.25
514.982	34406.25
515.754	32942.25
516.526	31570.25
517.298	30370.25
518.071	29081.25
518.843	27865.25
519.615	26841.25
520.387	25764.25
521.159	24735.25
521.93	23698.25
522.702	22664.25
523.474	21744.25
524.245	20746.25
525.017	19913.25
525.788	18998.25
526.56	18185.25
527.331	17392.25
528.102	16454.25
528.873	15669.25
529.644	14898.25
530.415	14206.25
531.186	13536.25
531.957	12807.25
532.728	12118.25
533.498	11455.25
534.269	10841.25
535.039	10288.25
535.81	9699.25
536.58	9201.25
537.351	8716.25
538.121	8255.25
538.891	7819.25
539.661	7371.25
540.431	6986.25
541.201	6656.25
541.971	6289.25
542.741	5952.25
543.51	5623.25
544.28	5402.25
545.05	5133.25
545.819	4898.25
546.588	4645.25
547.358	4440.25
548.127	4217.25
548.896	4002.25
549.665	3798.25
550.434	3598.25
551.203	3385.25
551.972	3229.25
552.741	3057.25
553.51	2871.25
554.278	2726.25
555.047	2560.25
555.815	2433.25
556.584	2296.25
557.352	2158.25
558.121	2053.25
558.889	1925.25
559.657	1818.25
560.425	1714.25
561.193	1644.25
561.961	1548.25
562.729	1454.25
563.496	1378.25
564.264	1308.25
565.032	1240.25
565.799	1167.25
566.567	1094.25
567.334	1049.25
568.101	995.25
568.869	938.25
569.636	881.25
570.403	841.25
571.17	788.25
571.937	744.25
572.704	698.25
573.471	662.25
574.237	617.25
575.004	579.25
575.771	562.25
576.537	523.25
577.303	494.25
578.07	467.25
578.836	434.25
579.602	419.25
580.368	391.25
581.134	381.25
581.9	360.25
582.666	343.25
583.432	327.25
584.198	307.25
584.964	294.25
585.729	276.25
586.495	258.25
587.26	253.25
588.025	236.25
588.791	220.25
589.556	206.25
590.321	203.25
591.086	192.25
591.851	185.25
592.616	171.25
593.381	164.25
594.146	159.25
594.911	151.25
595.675	139.25
596.44	136.25
597.204	132.25
597.969	123.25
598.733	119.25
599.497	117.25
600.261	112.25
601.025	105.25
601.79	99.25
602.553	101.25
603.317	95.25
604.081	89.25
604.845	83.25
605.609	80.25
606.372	79.25
607.136	70.25
607.899	77.25
608.662	70.25
609.426	66.25
610.189	64.25
610.952	59.25
611.715	62.25
612.478	60.25
613.241	57.25
614.004	53.25
614.767	51.25
615.529	53.25
616.292	48.25
617.055	47.25
617.817	44.25
618.579	42.25
619.342	40.25
620.104	42.25
620.866	44.25
621.628	39.25
622.39	40.25
623.152	36.25
623.914	35.25
624.676	31.25
625.438	32.25
626.199	31.25
626.961	31.25
627.722	30.25
628.484	29.25
629.245	28.25
630.006	27.25
630.768	26.25
631.529	26.25
632.29	24.25
633.051	26.25
633.812	24.25
634.573	23.25
635.333	24.25
636.094	23.25
636.855	19.25
637.615	21.25
638.376	19.25
639.136	21.25
639.896	19.25
640.657	17.25
641.417	19.25
642.177	18.25
642.937	18.25
643.697	16.25
644.457	17.25
645.216	18.25
645.976	14.25
646.736	17.25
647.495	15.25
648.255	14.25
649.014	14.25
649.774	13.25
650.533	14.25
651.292	14.25
652.051	14.25
652.81	13.25
653.569	16.25
654.328	14.25
655.087	13.25
655.846	12.25
656.604	12.25
657.363	10.25
658.121	11.25
658.88	12.25
659.638	12.25
660.397	11.25
661.155	14.25
661.913	9.25
662.671	9.25
663.429	9.25
664.187	8.25
664.945	9.25
665.703	8.25
666.46	12.25
667.218	8.25
667.976	9.25
668.733	10.25
669.49	8.25
670.248	7.25
671.005	9.25
671.762	7.25
672.519	8.25
673.276	9.25
674.033	10.25
674.79	10.25
675.547	7.25
676.304	7.25
677.06	11.25
677.817	9.25
678.574	8.25
679.33	7.25
680.086	8.25
680.843	10.25
681.599	7.25
682.355	8.25
683.111	8.25
683.867	8.25
684.623	8.25
685.379	6.25
686.135	8.25
686.89	6.25
687.646	8.25
688.402	7.25
689.157	8.25
689.912	7.25
690.668	7.25
691.423	9.25
692.178	7.25
692.933	6.25
693.688	9.25
694.443	5.25
695.198	7.25
695.953	6.25
696.708	6.25
697.462	6.25
698.217	3.25
698.972	8.25
699.726	5.25
700.48	6.25
701.235	6.25
701.989	4.25
702.743	7.25
703.497	7.25
704.251	8.25
705.005	8.25
705.759	5.25
706.513	8.25
707.266	6.25
708.02	7.25
708.774	6.25
709.527	6.25
710.28	6.25
711.034	9.25
711.787	6.25
712.54	5.25
713.293	7.25
714.046	5.25
714.799	6.25
715.552	7.25
716.305	8.25
717.058	9.25
717.81	4.25
718.563	6.25
719.315	6.25
720.068	9.25
720.82	8.25
721.573	7.25
722.325	8.25
723.077	6.25
723.829	7.25
724.581	7.25
725.333	8.25
726.085	7.25
726.836	7.25
727.588	6.25
728.34	6.25
729.091	8.25
729.843	7.25
730.594	9.25
731.346	10.25
732.097	8.25
732.848	10.25
733.599	9.25
734.35	8.25
735.101	8.25
735.852	9.25
736.603	8.25
737.354	9.25
738.104	10.25
738.855	9.25
739.605	9.25
740.356	13.25
741.106	9.25
741.856	8.25
742.607	10.25
743.357	12.25
744.107	9.25
744.857	9.25
745.607	8.25
746.357	11.25
747.106	7.25
747.856	10.25
748.606	11.25
749.355	11.25
750.105	12.25
750.854	13.25
751.603	9.25
752.353	11.25
753.102	12.25
753.851	13.25
754.6	12.25
755.349	12.25
756.098	12.25
756.847	10.25
757.595	12.25
758.344	11.25
759.093	12.25
759.841	11.25
760.589	13.25
761.338	13.25
762.086	11.25
762.834	14.25
763.582	12.25
764.331	15.25
765.079	12.25
765.826	14.25
766.574	14.25
767.322	14.25
768.07	16.25
768.817	13.25
769.565	11.25
770.312	14.25
771.06	11.25
771.807	14.25
772.554	15.25
773.302	14.25
774.049	16.25
774.796	15.25
775.543	16.25
776.29	14.25
777.036	17.25
777.783	14.25
778.53	16.25
779.276	16.25
780.023	15.25
780.769	17.25
781.516	16.25
782.262	15.25
783.008	16.25
783.754	14.25
784.5	16.25
785.246	13.25
785.992	16.25
786.738	14.25
787.484	15.25
788.23	15.25
788.975	14.25
789.721	16.25
790.466	12.25
791.212	18.25
791.957	14.25
792.702	14.25
793.447	13.25
794.193	16.25
794.938	13.25
795.683	13.25
796.427	17.25
797.172	13.25
797.917	14.25
798.662	11.25
799.406	14.25
800.151	12.25
800.895	11.25
801.64	11.25
802.384	13.25
803.128	11.25
803.872	11.25
804.616	11.25
805.36	10.25
806.104	12.25
806.848	8.25
807.592	9.25
808.336	11.25
809.079	8.25
809.823	10.25
810.566	8.25
811.31	9.25
812.053	8.25
812.796	10.25
813.539	9.25
814.283	7.25
815.026	7.25
815.769	9.25
816.511	5.25
817.254	7.25
817.997	7.25
818.74	7.25
819.482	6.25
820.225	6.25
820.967	6.25
821.71	5.25
822.452	5.25
823.194	7.25
823.936	8.25
824.678	4.25
825.42	8.25
826.162	7.25
826.904	7.25
827.646	7.25
828.388	7.25
829.129	7.25
829.871	5.25
830.612	7.25
831.354	4.25
832.095	6.25
832.836	5.25
833.577	4.25
834.319	5.25
835.06	6.25
835.801	5.25
836.542	4.25
837.282	6.25
838.023	7.25
838.764	7.25
839.504	1.25
840.245	5.25
840.985	6.25
841.726	5.25
842.466	4.25
843.206	8.25
843.946	6.25
844.687	4.25
845.427	4.25
846.166	4.25
846.906	3.25
847.646	7.25
848.386	5.25
849.125	5.25
849.865	3.25
850.605	6.25
851.344	1.25
852.083	4.25
852.823	2.25
853.562	2.25
854.301	2.25
855.04	4.25
855.779	4.25
856.518	2.25
857.257	5.25
857.995	1.25
858.734	4.25
859.473	3.25
860.211	2.25
860.95	2.25
861.688	4.25
862.426	5.25
863.165	3.25
863.903	3.25
864.641	3.25
865.379	0.25
866.117	2.25
866.855	2.25
867.593	2.25
868.33	2.25
869.068	1.25
869.806	1.25
870.543	1.25
871.28	0.25
872.018	4.25
872.755	4.25
873.492	1.25
874.229	0.25
874.967	4.25
875.703	3.25
876.44	1.25
877.177	0.25
877.914	-0.75
878.651	2.25
879.387	3.25
880.124	1.25
880.86	2.25
881.597	0.25
882.333	1.25
883.069	2.25
883.806	1.25
884.542	1.25
885.278	0.25
886.014	1.25
886.749	0.25
887.485	1.25
888.221	0.25
888.957	1.25
889.692	2.25
890.428	3.25
891.163	1.25
891.899	1.25
892.634	3.25
893.369	1.25
894.104	1.25
894.839	2.25
895.574	2.25
896.309	2.25
897.044	1.25
897.779	1.25
898.514	1.25
899.248	0.25
899.983	3.25
900.717	1.25
901.452	2.25
902.186	0.25
902.92	-0.75
903.654	2.25
904.389	0.25
905.123	1.25
905.857	-0.75
906.59	1.25
907.324	0.25
908.058	0.25
908.792	2.25
909.525	1.25
910.259	2.25
910.992	0.25
911.726	0.25
912.459	-0.75
913.192	0.25
913.925	-0.75
914.658	0.25
915.391	1.25
916.124	0.25
916.857	0.25
917.59	1.25
918.323	-1.75
919.055	1.25
919.788	-0.75
920.521	1.25
921.253	0.25
921.985	-0.75
922.718	2.25
923.45	-0.75
924.182	1.25
924.914	1.25
925.646	-0.75
926.378	1.25
927.11	-1.75
927.841	1.25
928.573	1.25
929.305	1.25
930.036	1.25
930.768	-0.75
931.499	-0.75
932.23	0.25
932.962	1.25
933.693	-0.75
934.424	1.25
935.155	-0.75
935.886	-0.75
936.617	-1.75
937.348	-0.75
938.078	-1.75
938.809	0.25
939.54	0.25
940.27	1.25
941.001	-1.75
941.731	-0.75
942.461	0.25
943.191	1.25
943.922	-0.75
944.652	-2.75
945.382	2.25
946.112	0.25
946.841	2.25
947.571	1.25
948.301	-0.75
949.031	1.25
949.76	2.25
950.49	1.25
951.219	-0.75
951.948	1.25
952.678	1.25
953.407	0.25
954.136	3.25
954.865	1.25
955.594	1.25
956.323	-1.75
957.052	1.25
957.78	0.25
958.509	-0.75
959.238	0.25
959.966	0.25
960.695	0.25
961.423	0.25
962.151	0.25
962.88	-0.75
963.608	0.25
964.336	-0.75
965.064	-1.75
965.792	4.25
966.52	-1.75
967.247	0.25
967.975	0.25
968.703	0.25
969.43	0.25
970.158	0.25
970.885	0.25
971.613	-0.75
972.34	-1.75
973.067	-1.75
973.794	0.25
974.521	-0.75
975.248	-1.75
975.975	1.25
976.702	3.25
977.429	0.25
978.156	0.25
978.882	-1.75
979.609	-0.75
980.335	-1.75
981.062	0.25
981.788	1.25
982.514	0.25
983.24	1.25
983.967	1.25
984.693	-0.75
985.419	-0.75
986.144	-0.75
986.87	1.25
987.596	-1.75
988.322	1.25
989.047	-0.75
989.773	-1.75
990.498	0.25
991.224	0.25
991.949	1.25
992.674	-0.75
993.399	-1.75
994.124	0.25
994.849	-0.75
995.574	-0.75
996.299	-0.75
997.024	-0.75
997.749	-1.75
998.473	-0.75
999.198	-1.75
999.922	-0.75
1000.647	-0.75
1001.371	4.25
1002.095	-0.75
1002.82	0.25
1003.544	-1.75
1004.268	6.25
1004.992	2.25
1005.716	2.25
1006.439	5.25
1007.163	2.25
1007.887	4.25
1008.611	-0.75
1009.334	1.25
1010.058	-0.75
1010.781	0.25
1011.504	0.25
1012.228	0.25
1012.951	0.25
1013.674	-2.75
1014.397	1.25
1015.12	-0.75
