节点500_705_QEPB04081__218__20-49-00-485.txt的数据

Date: Wed Nov 12 20:49:00 CST 2025
User: PC
Spectrometer: QEPB0408
触发模式: 0
积分时间 (秒): 1.000000E-2
Scans to average: 1
启用暗噪声校正: true
启用非线性校正: false
滑动平均宽度: 0
X轴模式: Wavelengths
Number of Pixels in Spectrum: 1044
>>>>>Begin Spectral Data<<<<<
220.843	5.62
221.644	3.62
222.444	7.62
223.244	5.62
224.045	7.62
224.845	7.62
225.645	3.62
226.445	8.62
227.245	5.62
228.045	5.62
228.845	6.62
229.645	7.62
230.444	9.62
231.244	6.62
232.043	9.62
232.843	9.62
233.642	8.62
234.442	10.62
235.241	7.62
236.04	10.62
236.839	12.62
237.638	12.62
238.437	9.62
239.236	13.62
240.035	12.62
240.833	10.62
241.632	10.62
242.43	12.62
243.229	10.62
244.027	13.62
244.826	12.62
245.624	11.62
246.422	12.62
247.22	12.62
248.018	14.62
248.816	14.62
249.614	18.62
250.412	17.62
251.21	14.62
252.007	16.62
252.805	18.62
253.602	16.62
254.4	19.62
255.197	20.62
255.994	18.62
256.791	22.62
257.589	21.62
258.386	22.62
259.183	21.62
259.979	19.62
260.776	20.62
261.573	22.62
262.37	26.62
263.166	24.62
263.963	28.62
264.759	26.62
265.556	27.62
266.352	29.62
267.148	30.62
267.944	28.62
268.74	31.62
269.536	32.62
270.332	30.62
271.128	30.62
271.924	30.62
272.719	30.62
273.515	34.62
274.311	32.62
275.106	35.62
275.901	34.62
276.697	32.62
277.492	35.62
278.287	34.62
279.082	34.62
279.877	35.62
280.672	34.62
281.467	35.62
282.262	34.62
283.056	35.62
283.851	34.62
284.646	37.62
285.44	34.62
286.234	37.62
287.029	36.62
287.823	34.62
288.617	30.62
289.411	35.62
290.205	28.62
290.999	33.62
291.793	32.62
292.587	32.62
293.381	30.62
294.174	29.62
294.968	29.62
295.761	28.62
296.555	25.62
297.348	24.62
298.141	25.62
298.935	27.62
299.728	24.62
300.521	25.62
301.314	25.62
302.107	26.62
302.899	21.62
303.692	22.62
304.485	23.62
305.277	23.62
306.07	24.62
306.862	23.62
307.655	20.62
308.447	20.62
309.239	21.62
310.031	17.62
310.823	16.62
311.615	17.62
312.407	17.62
313.199	16.62
313.991	17.62
314.783	16.62
315.574	17.62
316.366	15.62
317.157	14.62
317.949	13.62
318.74	13.62
319.531	14.62
320.322	14.62
321.113	13.62
321.904	12.62
322.695	13.62
323.486	13.62
324.277	12.62
325.068	13.62
325.858	13.62
326.649	12.62
327.439	10.62
328.23	11.62
329.02	13.62
329.81	12.62
330.6	12.62
331.391	12.62
332.181	12.62
332.971	9.62
333.76	13.62
334.55	10.62
335.34	12.62
336.13	10.62
336.919	12.62
337.709	11.62
338.498	11.62
339.287	11.62
340.077	12.62
340.866	12.62
341.655	6.62
342.444	10.62
343.233	9.62
344.022	13.62
344.811	11.62
345.6	10.62
346.388	8.62
347.177	10.62
347.965	8.62
348.754	10.62
349.542	14.62
350.33	9.62
351.119	8.62
351.907	11.62
352.695	10.62
353.483	9.62
354.271	10.62
355.059	9.62
355.846	9.62
356.634	9.62
357.422	10.62
358.209	8.62
358.997	11.62
359.784	10.62
360.571	7.62
361.359	14.62
362.146	8.62
362.933	10.62
363.72	10.62
364.507	9.62
365.294	8.62
366.081	8.62
366.867	9.62
367.654	10.62
368.44	9.62
369.227	8.62
370.013	10.62
370.8	10.62
371.586	8.62
372.372	9.62
373.158	8.62
373.944	9.62
374.73	9.62
375.516	8.62
376.302	8.62
377.088	10.62
377.873	11.62
378.659	11.62
379.445	9.62
380.23	10.62
381.015	10.62
381.801	8.62
382.586	10.62
383.371	8.62
384.156	9.62
384.941	11.62
385.726	10.62
386.511	9.62
387.296	11.62
388.08	12.62
388.865	8.62
389.649	9.62
390.434	11.62
391.218	9.62
392.003	11.62
392.787	9.62
393.571	10.62
394.355	12.62
395.139	10.62
395.923	10.62
396.707	13.62
397.491	11.62
398.274	14.62
399.058	11.62
399.842	12.62
400.625	14.62
401.408	13.62
402.192	14.62
402.975	12.62
403.758	10.62
404.541	11.62
405.324	13.62
406.107	14.62
406.89	15.62
407.673	16.62
408.456	15.62
409.238	12.62
410.021	17.62
410.803	16.62
411.586	17.62
412.368	17.62
413.151	16.62
413.933	18.62
414.715	17.62
415.497	18.62
416.279	19.62
417.061	19.62
417.843	18.62
418.624	22.62
419.406	21.62
420.188	21.62
420.969	22.62
421.751	20.62
422.532	19.62
423.313	23.62
424.095	25.62
424.876	21.62
425.657	25.62
426.438	24.62
427.219	25.62
428	27.62
428.78	26.62
429.561	27.62
430.342	27.62
431.122	31.62
431.903	32.62
432.683	31.62
433.464	34.62
434.244	39.62
435.024	38.62
435.804	40.62
436.584	41.62
437.364	42.62
438.144	46.62
438.924	47.62
439.704	56.62
440.483	54.62
441.263	54.62
442.042	63.62
442.822	65.62
443.601	75.62
444.38	76.62
445.16	86.62
445.939	88.62
446.718	98.62
447.497	105.62
448.276	111.62
449.054	134.62
449.833	140.62
450.612	152.62
451.391	172.62
452.169	182.62
452.948	204.62
453.726	224.62
454.504	256.62
455.282	289.62
456.061	316.62
456.839	360.62
457.617	393.62
458.395	446.62
459.172	495.62
459.95	558.62
460.728	618.62
461.506	679.62
462.283	766.62
463.061	851.62
463.838	963.62
464.615	1071.62
465.393	1189.62
466.17	1314.62
466.947	1464.62
467.724	1654.62
468.501	1822.62
469.278	2013.62
470.055	2246.62
470.831	2480.62
471.608	2738.62
472.385	3018.62
473.161	3353.62
473.938	3708.62
474.714	4075.62
475.49	4489.62
476.266	4926.62
477.043	5393.62
477.819	5928.62
478.595	6457.62
479.371	7054.62
480.146	7767.62
480.922	8483.62
481.698	9241.62
482.473	10124.62
483.249	11028.62
484.024	12015.62
484.8	13015.62
485.575	14116.62
486.35	15408.62
487.126	16652.62
487.901	18025.62
488.676	19505.62
489.451	21074.62
490.225	22767.62
491	24385.62
491.775	26109.62
492.55	28006.62
493.324	29849.62
494.099	31634.62
494.873	33496.62
495.647	35408.62
496.422	37312.62
497.196	39121.62
497.97	40792.62
498.744	42363.62
499.518	43952.62
500.292	45217.62
501.066	46242.62
501.839	46999.62
502.613	47821.62
503.387	48255.62
504.16	48554.62
504.934	48561.62
505.707	48382.62
506.48	47800.62
507.253	47168.62
508.027	46344.62
508.8	45251.62
509.573	44034.62
510.346	42872.62
511.118	41680.62
511.891	40293.62
512.664	38752.62
513.437	37221.62
514.209	35682.62
514.982	34398.62
515.754	32946.62
516.526	31469.62
517.298	30266.62
518.071	29053.62
518.843	27865.62
519.615	26749.62
520.387	25743.62
521.159	24683.62
521.93	23531.62
522.702	22581.62
523.474	21670.62
524.245	20684.62
525.017	19802.62
525.788	18891.62
526.56	18101.62
527.331	17243.62
528.102	16371.62
528.873	15551.62
529.644	14805.62
530.415	14149.62
531.186	13387.62
531.957	12728.62
532.728	12055.62
533.498	11404.62
534.269	10776.62
535.039	10222.62
535.81	9606.62
536.58	9134.62
537.351	8642.62
538.121	8200.62
538.891	7742.62
539.661	7296.62
540.431	6900.62
541.201	6581.62
541.971	6244.62
542.741	5914.62
543.51	5582.62
544.28	5327.62
545.05	5094.62
545.819	4826.62
546.588	4629.62
547.358	4412.62
548.127	4169.62
548.896	3940.62
549.665	3770.62
550.434	3549.62
551.203	3371.62
551.972	3169.62
552.741	3020.62
553.51	2824.62
554.278	2663.62
555.047	2530.62
555.815	2396.62
556.584	2272.62
557.352	2119.62
558.121	2015.62
558.889	1904.62
559.657	1801.62
560.425	1712.62
561.193	1615.62
561.961	1539.62
562.729	1442.62
563.496	1358.62
564.264	1287.62
565.032	1212.62
565.799	1152.62
566.567	1095.62
567.334	1036.62
568.101	975.62
568.869	923.62
569.636	870.62
570.403	818.62
571.17	790.62
571.937	730.62
572.704	698.62
573.471	651.62
574.237	622.62
575.004	582.62
575.771	546.62
576.537	505.62
577.303	488.62
578.07	458.62
578.836	437.62
579.602	410.62
580.368	384.62
581.134	375.62
581.9	349.62
582.666	339.62
583.432	316.62
584.198	298.62
584.964	288.62
585.729	270.62
586.495	260.62
587.26	243.62
588.025	233.62
588.791	219.62
589.556	210.62
590.321	199.62
591.086	186.62
591.851	178.62
592.616	166.62
593.381	166.62
594.146	160.62
594.911	145.62
595.675	141.62
596.44	138.62
597.204	127.62
597.969	120.62
598.733	121.62
599.497	115.62
600.261	107.62
601.025	106.62
601.79	99.62
602.553	96.62
603.317	91.62
604.081	86.62
604.845	87.62
605.609	83.62
606.372	74.62
607.136	77.62
607.899	70.62
608.662	65.62
609.426	70.62
610.189	64.62
610.952	62.62
611.715	61.62
612.478	57.62
613.241	55.62
614.004	52.62
614.767	52.62
615.529	53.62
616.292	47.62
617.055	45.62
617.817	47.62
618.579	41.62
619.342	42.62
620.104	40.62
620.866	40.62
621.628	39.62
622.39	37.62
623.152	36.62
623.914	32.62
624.676	34.62
625.438	34.62
626.199	31.62
626.961	32.62
627.722	27.62
628.484	27.62
629.245	26.62
630.006	30.62
630.768	24.62
631.529	27.62
632.29	28.62
633.051	26.62
633.812	20.62
634.573	23.62
635.333	22.62
636.094	21.62
636.855	22.62
637.615	21.62
638.376	23.62
639.136	21.62
639.896	21.62
640.657	19.62
641.417	17.62
642.177	18.62
642.937	19.62
643.697	16.62
644.457	17.62
645.216	18.62
645.976	14.62
646.736	15.62
647.495	13.62
648.255	14.62
649.014	13.62
649.774	13.62
650.533	15.62
651.292	11.62
652.051	13.62
652.81	13.62
653.569	12.62
654.328	15.62
655.087	10.62
655.846	13.62
656.604	10.62
657.363	11.62
658.121	11.62
658.88	11.62
659.638	10.62
660.397	11.62
661.155	10.62
661.913	10.62
662.671	9.62
663.429	9.62
664.187	9.62
664.945	10.62
665.703	8.62
666.46	10.62
667.218	9.62
667.976	9.62
668.733	9.62
669.49	9.62
670.248	10.62
671.005	7.62
671.762	8.62
672.519	8.62
673.276	10.62
674.033	9.62
674.79	7.62
675.547	9.62
676.304	10.62
677.06	8.62
677.817	7.62
678.574	9.62
679.33	9.62
680.086	6.62
680.843	9.62
681.599	8.62
682.355	9.62
683.111	8.62
683.867	7.62
684.623	7.62
685.379	6.62
686.135	8.62
686.89	7.62
687.646	9.62
688.402	7.62
689.157	7.62
689.912	8.62
690.668	7.62
691.423	7.62
692.178	9.62
692.933	5.62
693.688	8.62
694.443	7.62
695.198	4.62
695.953	8.62
696.708	6.62
697.462	5.62
698.217	6.62
698.972	6.62
699.726	10.62
700.48	7.62
701.235	7.62
701.989	6.62
702.743	6.62
703.497	10.62
704.251	9.62
705.005	7.62
705.759	6.62
706.513	5.62
707.266	8.62
708.02	8.62
708.774	7.62
709.527	6.62
710.28	7.62
711.034	5.62
711.787	5.62
712.54	5.62
713.293	7.62
714.046	4.62
714.799	8.62
715.552	6.62
716.305	7.62
717.058	8.62
717.81	6.62
718.563	8.62
719.315	8.62
720.068	6.62
720.82	7.62
721.573	5.62
722.325	9.62
723.077	7.62
723.829	6.62
724.581	7.62
725.333	6.62
726.085	7.62
726.836	9.62
727.588	6.62
728.34	10.62
729.091	7.62
729.843	8.62
730.594	8.62
731.346	9.62
732.097	8.62
732.848	9.62
733.599	8.62
734.35	7.62
735.101	11.62
735.852	7.62
736.603	9.62
737.354	10.62
738.104	5.62
738.855	10.62
739.605	10.62
740.356	11.62
741.106	9.62
741.856	9.62
742.607	9.62
743.357	8.62
744.107	10.62
744.857	8.62
745.607	12.62
746.357	9.62
747.106	9.62
747.856	10.62
748.606	11.62
749.355	9.62
750.105	13.62
750.854	12.62
751.603	10.62
752.353	10.62
753.102	10.62
753.851	11.62
754.6	13.62
755.349	12.62
756.098	16.62
756.847	10.62
757.595	13.62
758.344	14.62
759.093	12.62
759.841	9.62
760.589	13.62
761.338	10.62
762.086	12.62
762.834	12.62
763.582	13.62
764.331	12.62
765.079	13.62
765.826	15.62
766.574	13.62
767.322	15.62
768.07	14.62
768.817	16.62
769.565	13.62
770.312	12.62
771.06	14.62
771.807	14.62
772.554	15.62
773.302	16.62
774.049	13.62
774.796	14.62
775.543	14.62
776.29	16.62
777.036	17.62
777.783	17.62
778.53	18.62
779.276	16.62
780.023	17.62
780.769	15.62
781.516	14.62
782.262	16.62
783.008	12.62
783.754	12.62
784.5	13.62
785.246	16.62
785.992	14.62
786.738	14.62
787.484	14.62
788.23	16.62
788.975	15.62
789.721	16.62
790.466	14.62
791.212	13.62
791.957	12.62
792.702	13.62
793.447	14.62
794.193	14.62
794.938	12.62
795.683	14.62
796.427	15.62
797.172	13.62
797.917	11.62
798.662	14.62
799.406	11.62
800.151	12.62
800.895	13.62
801.64	11.62
802.384	12.62
803.128	12.62
803.872	8.62
804.616	10.62
805.36	11.62
806.104	11.62
806.848	8.62
807.592	8.62
808.336	10.62
809.079	10.62
809.823	10.62
810.566	7.62
811.31	7.62
812.053	9.62
812.796	7.62
813.539	9.62
814.283	10.62
815.026	8.62
815.769	8.62
816.511	6.62
817.254	7.62
817.997	8.62
818.74	7.62
819.482	6.62
820.225	8.62
820.967	6.62
821.71	6.62
822.452	7.62
823.194	7.62
823.936	7.62
824.678	5.62
825.42	9.62
826.162	4.62
826.904	7.62
827.646	5.62
828.388	7.62
829.129	6.62
829.871	6.62
830.612	4.62
831.354	6.62
832.095	6.62
832.836	4.62
833.577	4.62
834.319	8.62
835.06	5.62
835.801	6.62
836.542	4.62
837.282	6.62
838.023	5.62
838.764	6.62
839.504	5.62
840.245	7.62
840.985	5.62
841.726	6.62
842.466	5.62
843.206	5.62
843.946	5.62
844.687	5.62
845.427	4.62
846.166	5.62
846.906	6.62
847.646	2.62
848.386	3.62
849.125	4.62
849.865	3.62
850.605	6.62
851.344	3.62
852.083	4.62
852.823	4.62
853.562	3.62
854.301	3.62
855.04	3.62
855.779	3.62
856.518	4.62
857.257	2.62
857.995	5.62
858.734	2.62
859.473	3.62
860.211	4.62
860.95	3.62
861.688	5.62
862.426	5.62
863.165	2.62
863.903	2.62
864.641	2.62
865.379	4.62
866.117	2.62
866.855	2.62
867.593	1.62
868.33	3.62
869.068	4.62
869.806	0.62
870.543	0.62
871.28	2.62
872.018	0.62
872.755	1.62
873.492	4.62
874.229	-0.38
874.967	2.62
875.703	2.62
876.44	0.62
877.177	1.62
877.914	2.62
878.651	0.62
879.387	1.62
880.124	-1.38
880.86	1.62
881.597	-0.38
882.333	1.62
883.069	3.62
883.806	1.62
884.542	1.62
885.278	-0.38
886.014	0.62
886.749	0.62
887.485	2.62
888.221	-0.38
888.957	2.62
889.692	0.62
890.428	1.62
891.163	2.62
891.899	0.62
892.634	1.62
893.369	1.62
894.104	0.62
894.839	0.62
895.574	-0.38
896.309	-0.38
897.044	2.62
897.779	0.62
898.514	0.62
899.248	2.62
899.983	0.62
900.717	2.62
901.452	1.62
902.186	1.62
902.92	0.62
903.654	-0.38
904.389	0.62
905.123	1.62
905.857	-0.38
906.59	0.62
907.324	0.62
908.058	-0.38
908.792	2.62
909.525	0.62
910.259	0.62
910.992	2.62
911.726	-0.38
912.459	0.62
913.192	1.62
913.925	0.62
914.658	0.62
915.391	-0.38
916.124	-1.38
916.857	-0.38
917.59	-0.38
918.323	-0.38
919.055	0.62
919.788	0.62
920.521	1.62
921.253	0.62
921.985	-0.38
922.718	1.62
923.45	-1.38
924.182	0.62
924.914	-1.38
925.646	-1.38
926.378	-0.38
927.11	0.62
927.841	0.62
928.573	-0.38
929.305	-1.38
930.036	-0.38
930.768	1.62
931.499	-0.38
932.23	0.62
932.962	2.62
933.693	2.62
934.424	0.62
935.155	-0.38
935.886	0.62
936.617	1.62
937.348	-0.38
938.078	-1.38
938.809	-0.38
939.54	0.62
940.27	-1.38
941.001	-0.38
941.731	0.62
942.461	-0.38
943.191	0.62
943.922	-1.38
944.652	-0.38
945.382	-1.38
946.112	-0.38
946.841	0.62
947.571	-0.38
948.301	0.62
949.031	1.62
949.76	2.62
950.49	-1.38
951.219	-0.38
951.948	1.62
952.678	-0.38
953.407	1.62
954.136	1.62
954.865	-0.38
955.594	-3.38
956.323	1.62
957.052	-0.38
957.78	0.62
958.509	-1.38
959.238	0.62
959.966	-0.38
960.695	-0.38
961.423	1.62
962.151	1.62
962.88	-0.38
963.608	0.62
964.336	-0.38
965.064	1.62
965.792	0.62
966.52	-0.38
967.247	1.62
967.975	-0.38
968.703	-0.38
969.43	1.62
970.158	-1.38
970.885	-1.38
971.613	1.62
972.34	1.62
973.067	-1.38
973.794	-1.38
974.521	0.62
975.248	-0.38
975.975	-1.38
976.702	0.62
977.429	0.62
978.156	-0.38
978.882	-0.38
979.609	-0.38
980.335	0.62
981.062	1.62
981.788	-0.38
982.514	1.62
983.24	-0.38
983.967	1.62
984.693	0.62
985.419	0.62
986.144	0.62
986.87	0.62
987.596	-0.38
988.322	-0.38
989.047	0.62
989.773	-0.38
990.498	-0.38
991.224	1.62
991.949	-0.38
992.674	-0.38
993.399	-0.38
994.124	0.62
994.849	-1.38
995.574	1.62
996.299	0.62
997.024	1.62
997.749	2.62
998.473	-1.38
999.198	0.62
999.922	-1.38
1000.647	0.62
1001.371	3.62
1002.095	-0.38
1002.82	-0.38
1003.544	-1.38
1004.268	2.62
1004.992	3.62
1005.716	5.62
1006.439	5.62
1007.163	5.62
1007.887	4.62
1008.611	-2.38
1009.334	-0.38
1010.058	-2.38
1010.781	-0.38
1011.504	-0.38
1012.228	-0.38
1012.951	-1.38
1013.674	0.62
1014.397	-1.38
1015.12	0.62
