节点500_705_QEPB04081__43__20-46-36-294.txt的数据

Date: Wed Nov 12 20:46:36 CST 2025
User: PC
Spectrometer: QEPB0408
触发模式: 0
积分时间 (秒): 1.000000E-2
Scans to average: 1
启用暗噪声校正: true
启用非线性校正: false
滑动平均宽度: 0
X轴模式: Wavelengths
Number of Pixels in Spectrum: 1044
>>>>>Begin Spectral Data<<<<<
220.843	7.75
221.644	6.75
222.444	9.75
223.244	7.75
224.045	9.75
224.845	7.75
225.645	5.75
226.445	8.75
227.245	6.75
228.045	9.75
228.845	9.75
229.645	8.75
230.444	5.75
231.244	8.75
232.043	10.75
232.843	8.75
233.642	9.75
234.442	10.75
235.241	11.75
236.04	11.75
236.839	11.75
237.638	12.75
238.437	11.75
239.236	11.75
240.035	13.75
240.833	12.75
241.632	14.75
242.43	11.75
243.229	12.75
244.027	16.75
244.826	15.75
245.624	15.75
246.422	13.75
247.22	16.75
248.018	15.75
248.816	15.75
249.614	17.75
250.412	15.75
251.21	18.75
252.007	19.75
252.805	21.75
253.602	22.75
254.4	20.75
255.197	20.75
255.994	21.75
256.791	22.75
257.589	22.75
258.386	24.75
259.183	26.75
259.979	25.75
260.776	27.75
261.573	26.75
262.37	27.75
263.166	26.75
263.963	28.75
264.759	30.75
265.556	30.75
266.352	30.75
267.148	29.75
267.944	35.75
268.74	32.75
269.536	34.75
270.332	31.75
271.128	35.75
271.924	33.75
272.719	35.75
273.515	36.75
274.311	35.75
275.106	37.75
275.901	36.75
276.697	36.75
277.492	35.75
278.287	37.75
279.082	36.75
279.877	39.75
280.672	40.75
281.467	39.75
282.262	35.75
283.056	37.75
283.851	36.75
284.646	38.75
285.44	34.75
286.234	37.75
287.029	38.75
287.823	38.75
288.617	37.75
289.411	37.75
290.205	30.75
290.999	32.75
291.793	34.75
292.587	31.75
293.381	31.75
294.174	32.75
294.968	34.75
295.761	29.75
296.555	25.75
297.348	27.75
298.141	28.75
298.935	31.75
299.728	25.75
300.521	26.75
301.314	24.75
302.107	23.75
302.899	20.75
303.692	22.75
304.485	23.75
305.277	22.75
306.07	26.75
306.862	23.75
307.655	22.75
308.447	21.75
309.239	21.75
310.031	18.75
310.823	19.75
311.615	20.75
312.407	16.75
313.199	19.75
313.991	19.75
314.783	17.75
315.574	17.75
316.366	13.75
317.157	14.75
317.949	16.75
318.74	14.75
319.531	15.75
320.322	12.75
321.113	14.75
321.904	13.75
322.695	14.75
323.486	15.75
324.277	13.75
325.068	13.75
325.858	13.75
326.649	15.75
327.439	14.75
328.23	11.75
329.02	13.75
329.81	13.75
330.6	13.75
331.391	13.75
332.181	13.75
332.971	12.75
333.76	14.75
334.55	11.75
335.34	10.75
336.13	12.75
336.919	12.75
337.709	13.75
338.498	11.75
339.287	14.75
340.077	11.75
340.866	11.75
341.655	10.75
342.444	12.75
343.233	12.75
344.022	11.75
344.811	12.75
345.6	12.75
346.388	11.75
347.177	10.75
347.965	14.75
348.754	9.75
349.542	11.75
350.33	12.75
351.119	11.75
351.907	10.75
352.695	13.75
353.483	11.75
354.271	12.75
355.059	12.75
355.846	11.75
356.634	11.75
357.422	11.75
358.209	13.75
358.997	12.75
359.784	11.75
360.571	11.75
361.359	13.75
362.146	9.75
362.933	12.75
363.72	11.75
364.507	8.75
365.294	10.75
366.081	9.75
366.867	11.75
367.654	9.75
368.44	12.75
369.227	9.75
370.013	12.75
370.8	10.75
371.586	9.75
372.372	9.75
373.158	10.75
373.944	10.75
374.73	12.75
375.516	13.75
376.302	9.75
377.088	10.75
377.873	12.75
378.659	9.75
379.445	11.75
380.23	10.75
381.015	12.75
381.801	11.75
382.586	11.75
383.371	12.75
384.156	12.75
384.941	11.75
385.726	13.75
386.511	10.75
387.296	15.75
388.08	14.75
388.865	11.75
389.649	15.75
390.434	14.75
391.218	12.75
392.003	13.75
392.787	13.75
393.571	13.75
394.355	12.75
395.139	11.75
395.923	13.75
396.707	15.75
397.491	14.75
398.274	15.75
399.058	12.75
399.842	17.75
400.625	13.75
401.408	15.75
402.192	16.75
402.975	12.75
403.758	16.75
404.541	17.75
405.324	14.75
406.107	17.75
406.89	15.75
407.673	19.75
408.456	18.75
409.238	17.75
410.021	16.75
410.803	19.75
411.586	19.75
412.368	19.75
413.151	19.75
413.933	17.75
414.715	21.75
415.497	19.75
416.279	16.75
417.061	18.75
417.843	19.75
418.624	19.75
419.406	20.75
420.188	22.75
420.969	23.75
421.751	24.75
422.532	23.75
423.313	25.75
424.095	24.75
424.876	25.75
425.657	26.75
426.438	26.75
427.219	26.75
428	27.75
428.78	30.75
429.561	31.75
430.342	33.75
431.122	34.75
431.903	34.75
432.683	31.75
433.464	36.75
434.244	40.75
435.024	40.75
435.804	42.75
436.584	42.75
437.364	47.75
438.144	43.75
438.924	52.75
439.704	51.75
440.483	57.75
441.263	61.75
442.042	63.75
442.822	69.75
443.601	72.75
444.38	75.75
445.16	80.75
445.939	90.75
446.718	98.75
447.497	108.75
448.276	113.75
449.054	128.75
449.833	138.75
450.612	146.75
451.391	169.75
452.169	186.75
452.948	204.75
453.726	219.75
454.504	238.75
455.282	271.75
456.061	304.75
456.839	343.75
457.617	387.75
458.395	428.75
459.172	478.75
459.95	523.75
460.728	591.75
461.506	665.75
462.283	740.75
463.061	832.75
463.838	921.75
464.615	1020.75
465.393	1163.75
466.17	1288.75
466.947	1443.75
467.724	1605.75
468.501	1792.75
469.278	1999.75
470.055	2205.75
470.831	2470.75
471.608	2750.75
472.385	3033.75
473.161	3366.75
473.938	3680.75
474.714	4073.75
475.49	4545.75
476.266	4989.75
477.043	5452.75
477.819	6023.75
478.595	6607.75
479.371	7260.75
480.146	8003.75
480.922	8780.75
481.698	9631.75
482.473	10529.75
483.249	11522.75
484.024	12596.75
484.8	13719.75
485.575	14935.75
486.35	16191.75
487.126	17687.75
487.901	19148.75
488.676	20802.75
489.451	22553.75
490.225	24267.75
491	26091.75
491.775	28002.75
492.55	29970.75
493.324	31949.75
494.099	33873.75
494.873	35860.75
495.647	37916.75
496.422	39917.75
497.196	41702.75
497.97	43513.75
498.744	45078.75
499.518	46607.75
500.292	47972.75
501.066	48792.75
501.839	49507.75
502.613	50147.75
503.387	50456.75
504.16	50641.75
504.934	50410.75
505.707	49884.75
506.48	49144.75
507.253	48293.75
508.027	47245.75
508.8	46041.75
509.573	44674.75
510.346	43209.75
511.118	41898.75
511.891	40394.75
512.664	38688.75
513.437	37052.75
514.209	35529.75
514.982	34006.75
515.754	32600.75
516.526	31246.75
517.298	29980.75
518.071	28690.75
518.843	27576.75
519.615	26495.75
520.387	25394.75
521.159	24384.75
521.93	23333.75
522.702	22341.75
523.474	21357.75
524.245	20454.75
525.017	19534.75
525.788	18599.75
526.56	17787.75
527.331	17002.75
528.102	16086.75
528.873	15309.75
529.644	14476.75
530.415	13796.75
531.186	13061.75
531.957	12384.75
532.728	11655.75
533.498	11018.75
534.269	10470.75
535.039	9924.75
535.81	9377.75
536.58	8820.75
537.351	8356.75
538.121	7908.75
538.891	7498.75
539.661	7101.75
540.431	6702.75
541.201	6385.75
541.971	6009.75
542.741	5682.75
543.51	5407.75
544.28	5153.75
545.05	4916.75
545.819	4644.75
546.588	4454.75
547.358	4247.75
548.127	3990.75
548.896	3798.75
549.665	3599.75
550.434	3401.75
551.203	3249.75
551.972	3047.75
552.741	2910.75
553.51	2729.75
554.278	2558.75
555.047	2432.75
555.815	2289.75
556.584	2173.75
557.352	2042.75
558.121	1934.75
558.889	1835.75
559.657	1723.75
560.425	1636.75
561.193	1551.75
561.961	1455.75
562.729	1381.75
563.496	1297.75
564.264	1229.75
565.032	1178.75
565.799	1102.75
566.567	1047.75
567.334	986.75
568.101	933.75
568.869	877.75
569.636	830.75
570.403	787.75
571.17	734.75
571.937	697.75
572.704	669.75
573.471	627.75
574.237	588.75
575.004	556.75
575.771	524.75
576.537	498.75
577.303	461.75
578.07	439.75
578.836	421.75
579.602	397.75
580.368	375.75
581.134	357.75
581.9	338.75
582.666	322.75
583.432	310.75
584.198	293.75
584.964	278.75
585.729	266.75
586.495	251.75
587.26	237.75
588.025	223.75
588.791	211.75
589.556	198.75
590.321	198.75
591.086	181.75
591.851	175.75
592.616	167.75
593.381	164.75
594.146	148.75
594.911	145.75
595.675	137.75
596.44	129.75
597.204	125.75
597.969	118.75
598.733	113.75
599.497	110.75
600.261	109.75
601.025	99.75
601.79	94.75
602.553	95.75
603.317	90.75
604.081	85.75
604.845	81.75
605.609	79.75
606.372	76.75
607.136	68.75
607.899	65.75
608.662	67.75
609.426	64.75
610.189	61.75
610.952	60.75
611.715	60.75
612.478	56.75
613.241	55.75
614.004	50.75
614.767	57.75
615.529	45.75
616.292	48.75
617.055	48.75
617.817	43.75
618.579	44.75
619.342	41.75
620.104	40.75
620.866	40.75
621.628	36.75
622.39	39.75
623.152	35.75
623.914	33.75
624.676	35.75
625.438	36.75
626.199	30.75
626.961	29.75
627.722	32.75
628.484	29.75
629.245	30.75
630.006	27.75
630.768	23.75
631.529	29.75
632.29	26.75
633.051	25.75
633.812	25.75
634.573	23.75
635.333	23.75
636.094	25.75
636.855	19.75
637.615	23.75
638.376	19.75
639.136	20.75
639.896	16.75
640.657	19.75
641.417	19.75
642.177	19.75
642.937	17.75
643.697	19.75
644.457	16.75
645.216	17.75
645.976	17.75
646.736	16.75
647.495	17.75
648.255	17.75
649.014	14.75
649.774	13.75
650.533	12.75
651.292	14.75
652.051	14.75
652.81	13.75
653.569	13.75
654.328	12.75
655.087	12.75
655.846	14.75
656.604	11.75
657.363	13.75
658.121	14.75
658.88	12.75
659.638	11.75
660.397	11.75
661.155	12.75
661.913	10.75
662.671	10.75
663.429	9.75
664.187	13.75
664.945	11.75
665.703	12.75
666.46	11.75
667.218	12.75
667.976	10.75
668.733	8.75
669.49	10.75
670.248	10.75
671.005	12.75
671.762	11.75
672.519	9.75
673.276	9.75
674.033	10.75
674.79	8.75
675.547	7.75
676.304	10.75
677.06	8.75
677.817	8.75
678.574	9.75
679.33	9.75
680.086	8.75
680.843	9.75
681.599	10.75
682.355	9.75
683.111	10.75
683.867	9.75
684.623	10.75
685.379	7.75
686.135	8.75
686.89	8.75
687.646	8.75
688.402	8.75
689.157	10.75
689.912	5.75
690.668	9.75
691.423	8.75
692.178	9.75
692.933	9.75
693.688	8.75
694.443	8.75
695.198	7.75
695.953	6.75
696.708	8.75
697.462	5.75
698.217	8.75
698.972	9.75
699.726	11.75
700.48	9.75
701.235	6.75
701.989	8.75
702.743	7.75
703.497	10.75
704.251	6.75
705.005	9.75
705.759	8.75
706.513	7.75
707.266	8.75
708.02	7.75
708.774	8.75
709.527	8.75
710.28	6.75
711.034	9.75
711.787	9.75
712.54	6.75
713.293	8.75
714.046	9.75
714.799	10.75
715.552	8.75
716.305	9.75
717.058	8.75
717.81	9.75
718.563	7.75
719.315	9.75
720.068	10.75
720.82	6.75
721.573	8.75
722.325	8.75
723.077	10.75
723.829	7.75
724.581	9.75
725.333	10.75
726.085	8.75
726.836	11.75
727.588	9.75
728.34	9.75
729.091	6.75
729.843	11.75
730.594	8.75
731.346	11.75
732.097	10.75
732.848	10.75
733.599	10.75
734.35	9.75
735.101	8.75
735.852	11.75
736.603	10.75
737.354	11.75
738.104	9.75
738.855	10.75
739.605	12.75
740.356	10.75
741.106	10.75
741.856	11.75
742.607	10.75
743.357	13.75
744.107	13.75
744.857	13.75
745.607	12.75
746.357	9.75
747.106	14.75
747.856	13.75
748.606	11.75
749.355	15.75
750.105	12.75
750.854	11.75
751.603	12.75
752.353	13.75
753.102	13.75
753.851	14.75
754.6	14.75
755.349	12.75
756.098	13.75
756.847	11.75
757.595	13.75
758.344	12.75
759.093	14.75
759.841	13.75
760.589	12.75
761.338	15.75
762.086	12.75
762.834	13.75
763.582	15.75
764.331	14.75
765.079	14.75
765.826	14.75
766.574	13.75
767.322	18.75
768.07	18.75
768.817	12.75
769.565	16.75
770.312	18.75
771.06	15.75
771.807	18.75
772.554	16.75
773.302	15.75
774.049	15.75
774.796	15.75
775.543	18.75
776.29	17.75
777.036	16.75
777.783	16.75
778.53	18.75
779.276	19.75
780.023	17.75
780.769	18.75
781.516	16.75
782.262	20.75
783.008	18.75
783.754	20.75
784.5	18.75
785.246	19.75
785.992	16.75
786.738	15.75
787.484	15.75
788.23	17.75
788.975	16.75
789.721	17.75
790.466	15.75
791.212	18.75
791.957	14.75
792.702	15.75
793.447	17.75
794.193	15.75
794.938	16.75
795.683	14.75
796.427	13.75
797.172	13.75
797.917	13.75
798.662	14.75
799.406	11.75
800.151	15.75
800.895	11.75
801.64	14.75
802.384	11.75
803.128	13.75
803.872	11.75
804.616	11.75
805.36	11.75
806.104	12.75
806.848	11.75
807.592	8.75
808.336	11.75
809.079	10.75
809.823	9.75
810.566	10.75
811.31	11.75
812.053	9.75
812.796	9.75
813.539	10.75
814.283	9.75
815.026	11.75
815.769	10.75
816.511	9.75
817.254	6.75
817.997	8.75
818.74	8.75
819.482	8.75
820.225	10.75
820.967	9.75
821.71	8.75
822.452	7.75
823.194	10.75
823.936	9.75
824.678	6.75
825.42	6.75
826.162	7.75
826.904	9.75
827.646	8.75
828.388	8.75
829.129	6.75
829.871	5.75
830.612	6.75
831.354	6.75
832.095	6.75
832.836	7.75
833.577	6.75
834.319	6.75
835.06	4.75
835.801	5.75
836.542	5.75
837.282	8.75
838.023	7.75
838.764	6.75
839.504	5.75
840.245	5.75
840.985	4.75
841.726	5.75
842.466	5.75
843.206	10.75
843.946	4.75
844.687	5.75
845.427	5.75
846.166	5.75
846.906	6.75
847.646	7.75
848.386	3.75
849.125	7.75
849.865	5.75
850.605	3.75
851.344	6.75
852.083	6.75
852.823	8.75
853.562	4.75
854.301	4.75
855.04	5.75
855.779	4.75
856.518	4.75
857.257	5.75
857.995	3.75
858.734	4.75
859.473	4.75
860.211	7.75
860.95	4.75
861.688	2.75
862.426	4.75
863.165	2.75
863.903	3.75
864.641	2.75
865.379	4.75
866.117	3.75
866.855	4.75
867.593	5.75
868.33	2.75
869.068	1.75
869.806	2.75
870.543	4.75
871.28	3.75
872.018	3.75
872.755	4.75
873.492	2.75
874.229	2.75
874.967	1.75
875.703	4.75
876.44	3.75
877.177	3.75
877.914	2.75
878.651	2.75
879.387	3.75
880.124	2.75
880.86	2.75
881.597	2.75
882.333	1.75
883.069	2.75
883.806	2.75
884.542	5.75
885.278	5.75
886.014	3.75
886.749	2.75
887.485	2.75
888.221	3.75
888.957	1.75
889.692	3.75
890.428	3.75
891.163	1.75
891.899	1.75
892.634	-0.25
893.369	1.75
894.104	3.75
894.839	0.75
895.574	1.75
896.309	2.75
897.044	1.75
897.779	1.75
898.514	3.75
899.248	1.75
899.983	2.75
900.717	2.75
901.452	2.75
902.186	2.75
902.92	0.75
903.654	1.75
904.389	2.75
905.123	2.75
905.857	1.75
906.59	0.75
907.324	1.75
908.058	1.75
908.792	3.75
909.525	0.75
910.259	0.75
910.992	2.75
911.726	1.75
912.459	2.75
913.192	1.75
913.925	0.75
914.658	1.75
915.391	-1.25
916.124	3.75
916.857	-0.25
917.59	-0.25
918.323	2.75
919.055	0.75
919.788	3.75
920.521	-0.25
921.253	1.75
921.985	3.75
922.718	1.75
923.45	-0.25
924.182	-0.25
924.914	1.75
925.646	1.75
926.378	3.75
927.11	1.75
927.841	-0.25
928.573	1.75
929.305	0.75
930.036	2.75
930.768	-0.25
931.499	3.75
932.23	2.75
932.962	0.75
933.693	1.75
934.424	1.75
935.155	-0.25
935.886	1.75
936.617	0.75
937.348	0.75
938.078	1.75
938.809	2.75
939.54	-0.25
940.27	2.75
941.001	2.75
941.731	-2.25
942.461	0.75
943.191	-1.25
943.922	1.75
944.652	3.75
945.382	-1.25
946.112	0.75
946.841	1.75
947.571	2.75
948.301	2.75
949.031	2.75
949.76	1.75
950.49	-1.25
951.219	2.75
951.948	-1.25
952.678	1.75
953.407	2.75
954.136	2.75
954.865	-0.25
955.594	0.75
956.323	2.75
957.052	1.75
957.78	2.75
958.509	1.75
959.238	0.75
959.966	0.75
960.695	0.75
961.423	1.75
962.151	-0.25
962.88	3.75
963.608	1.75
964.336	0.75
965.064	1.75
965.792	1.75
966.52	1.75
967.247	0.75
967.975	2.75
968.703	2.75
969.43	1.75
970.158	3.75
970.885	2.75
971.613	1.75
972.34	1.75
973.067	2.75
973.794	0.75
974.521	1.75
975.248	0.75
975.975	1.75
976.702	1.75
977.429	1.75
978.156	2.75
978.882	4.75
979.609	0.75
980.335	1.75
981.062	3.75
981.788	2.75
982.514	1.75
983.24	1.75
983.967	0.75
984.693	0.75
985.419	0.75
986.144	-0.25
986.87	-1.25
987.596	0.75
988.322	1.75
989.047	0.75
989.773	1.75
990.498	-1.25
991.224	2.75
991.949	-2.25
992.674	0.75
993.399	0.75
994.124	3.75
994.849	1.75
995.574	-1.25
996.299	0.75
997.024	0.75
997.749	1.75
998.473	0.75
999.198	-0.25
999.922	0.75
1000.647	1.75
1001.371	3.75
1002.095	-2.25
1002.82	-0.25
1003.544	0.75
1004.268	3.75
1004.992	7.75
1005.716	4.75
1006.439	6.75
1007.163	6.75
1007.887	3.75
1008.611	1.75
1009.334	1.75
1010.058	3.75
1010.781	-1.25
1011.504	1.75
1012.228	2.75
1012.951	-0.25
1013.674	-0.25
1014.397	-1.25
1015.12	-0.25
