节点500_705_QEPB04081__304__20-50-18-422.txt的数据

Date: Wed Nov 12 20:50:18 CST 2025
User: PC
Spectrometer: QEPB0408
触发模式: 0
积分时间 (秒): 1.000000E-2
Scans to average: 1
启用暗噪声校正: true
启用非线性校正: false
滑动平均宽度: 0
X轴模式: Wavelengths
Number of Pixels in Spectrum: 1044
>>>>>Begin Spectral Data<<<<<
220.843	6.88
221.644	3.88
222.444	6.88
223.244	1.88
224.045	5.88
224.845	5.88
225.645	6.88
226.445	6.88
227.245	7.88
228.045	7.88
228.845	6.88
229.645	8.88
230.444	6.88
231.244	9.88
232.043	7.88
232.843	8.88
233.642	10.88
234.442	9.88
235.241	8.88
236.04	8.88
236.839	9.88
237.638	9.88
238.437	12.88
239.236	12.88
240.035	10.88
240.833	10.88
241.632	12.88
242.43	11.88
243.229	14.88
244.027	14.88
244.826	12.88
245.624	12.88
246.422	13.88
247.22	15.88
248.018	13.88
248.816	14.88
249.614	12.88
250.412	17.88
251.21	15.88
252.007	16.88
252.805	14.88
253.602	14.88
254.4	17.88
255.197	18.88
255.994	20.88
256.791	21.88
257.589	19.88
258.386	21.88
259.183	20.88
259.979	22.88
260.776	26.88
261.573	21.88
262.37	24.88
263.166	23.88
263.963	23.88
264.759	27.88
265.556	26.88
266.352	28.88
267.148	27.88
267.944	29.88
268.74	27.88
269.536	28.88
270.332	31.88
271.128	30.88
271.924	31.88
272.719	33.88
273.515	30.88
274.311	30.88
275.106	30.88
275.901	32.88
276.697	33.88
277.492	34.88
278.287	32.88
279.082	29.88
279.877	34.88
280.672	32.88
281.467	34.88
282.262	33.88
283.056	33.88
283.851	34.88
284.646	33.88
285.44	33.88
286.234	32.88
287.029	32.88
287.823	33.88
288.617	31.88
289.411	31.88
290.205	29.88
290.999	32.88
291.793	30.88
292.587	30.88
293.381	30.88
294.174	33.88
294.968	29.88
295.761	26.88
296.555	26.88
297.348	27.88
298.141	28.88
298.935	26.88
299.728	26.88
300.521	24.88
301.314	22.88
302.107	22.88
302.899	24.88
303.692	20.88
304.485	22.88
305.277	21.88
306.07	22.88
306.862	19.88
307.655	22.88
308.447	20.88
309.239	20.88
310.031	21.88
310.823	19.88
311.615	18.88
312.407	17.88
313.199	17.88
313.991	17.88
314.783	16.88
315.574	16.88
316.366	16.88
317.157	14.88
317.949	15.88
318.74	13.88
319.531	17.88
320.322	12.88
321.113	12.88
321.904	13.88
322.695	12.88
323.486	13.88
324.277	9.88
325.068	12.88
325.858	12.88
326.649	12.88
327.439	12.88
328.23	9.88
329.02	13.88
329.81	11.88
330.6	12.88
331.391	13.88
332.181	14.88
332.971	12.88
333.76	11.88
334.55	11.88
335.34	12.88
336.13	12.88
336.919	11.88
337.709	9.88
338.498	12.88
339.287	10.88
340.077	11.88
340.866	10.88
341.655	10.88
342.444	10.88
343.233	9.88
344.022	14.88
344.811	12.88
345.6	12.88
346.388	10.88
347.177	9.88
347.965	10.88
348.754	11.88
349.542	13.88
350.33	10.88
351.119	10.88
351.907	13.88
352.695	11.88
353.483	12.88
354.271	8.88
355.059	11.88
355.846	10.88
356.634	8.88
357.422	8.88
358.209	10.88
358.997	9.88
359.784	8.88
360.571	10.88
361.359	9.88
362.146	10.88
362.933	12.88
363.72	10.88
364.507	9.88
365.294	9.88
366.081	8.88
366.867	9.88
367.654	7.88
368.44	10.88
369.227	6.88
370.013	9.88
370.8	9.88
371.586	12.88
372.372	10.88
373.158	10.88
373.944	9.88
374.73	8.88
375.516	10.88
376.302	8.88
377.088	8.88
377.873	9.88
378.659	8.88
379.445	11.88
380.23	8.88
381.015	9.88
381.801	11.88
382.586	9.88
383.371	9.88
384.156	11.88
384.941	9.88
385.726	10.88
386.511	11.88
387.296	10.88
388.08	7.88
388.865	13.88
389.649	12.88
390.434	10.88
391.218	12.88
392.003	9.88
392.787	9.88
393.571	10.88
394.355	13.88
395.139	9.88
395.923	12.88
396.707	10.88
397.491	10.88
398.274	14.88
399.058	12.88
399.842	12.88
400.625	13.88
401.408	12.88
402.192	13.88
402.975	13.88
403.758	12.88
404.541	10.88
405.324	13.88
406.107	13.88
406.89	14.88
407.673	13.88
408.456	12.88
409.238	14.88
410.021	12.88
410.803	14.88
411.586	16.88
412.368	15.88
413.151	15.88
413.933	18.88
414.715	17.88
415.497	21.88
416.279	18.88
417.061	18.88
417.843	22.88
418.624	21.88
419.406	20.88
420.188	20.88
420.969	19.88
421.751	20.88
422.532	23.88
423.313	23.88
424.095	21.88
424.876	26.88
425.657	24.88
426.438	26.88
427.219	29.88
428	24.88
428.78	29.88
429.561	28.88
430.342	29.88
431.122	30.88
431.903	31.88
432.683	34.88
433.464	34.88
434.244	36.88
435.024	37.88
435.804	43.88
436.584	43.88
437.364	43.88
438.144	44.88
438.924	47.88
439.704	53.88
440.483	58.88
441.263	61.88
442.042	64.88
442.822	69.88
443.601	73.88
444.38	78.88
445.16	84.88
445.939	91.88
446.718	104.88
447.497	113.88
448.276	125.88
449.054	136.88
449.833	144.88
450.612	163.88
451.391	174.88
452.169	184.88
452.948	212.88
453.726	241.88
454.504	256.88
455.282	286.88
456.061	325.88
456.839	365.88
457.617	405.88
458.395	458.88
459.172	508.88
459.95	561.88
460.728	630.88
461.506	713.88
462.283	781.88
463.061	876.88
463.838	973.88
464.615	1079.88
465.393	1206.88
466.17	1349.88
466.947	1490.88
467.724	1654.88
468.501	1841.88
469.278	2052.88
470.055	2261.88
470.831	2498.88
471.608	2744.88
472.385	3036.88
473.161	3348.88
473.938	3680.88
474.714	4059.88
475.49	4466.88
476.266	4858.88
477.043	5338.88
477.819	5841.88
478.595	6403.88
479.371	6976.88
480.146	7636.88
480.922	8309.88
481.698	9081.88
482.473	9897.88
483.249	10729.88
484.024	11687.88
484.8	12697.88
485.575	13736.88
486.35	14877.88
487.126	16144.88
487.901	17456.88
488.676	18808.88
489.451	20368.88
490.225	21832.88
491	23475.88
491.775	25120.88
492.55	26834.88
493.324	28594.88
494.099	30313.88
494.873	32155.88
495.647	33947.88
496.422	35904.88
497.196	37548.88
497.97	39291.88
498.744	40676.88
499.518	42285.88
500.292	43636.88
501.066	44750.88
501.839	45621.88
502.613	46303.88
503.387	46960.88
504.16	47358.88
504.934	47440.88
505.707	47339.88
506.48	47007.88
507.253	46484.88
508.027	45739.88
508.8	44690.88
509.573	43760.88
510.346	42643.88
511.118	41615.88
511.891	40210.88
512.664	38752.88
513.437	37178.88
514.209	35842.88
514.982	34525.88
515.754	33043.88
516.526	31722.88
517.298	30415.88
518.071	29216.88
518.843	28024.88
519.615	26906.88
520.387	25925.88
521.159	24894.88
521.93	23802.88
522.702	22823.88
523.474	21867.88
524.245	20882.88
525.017	19963.88
525.788	19102.88
526.56	18337.88
527.331	17498.88
528.102	16581.88
528.873	15740.88
529.644	15040.88
530.415	14377.88
531.186	13637.88
531.957	12918.88
532.728	12271.88
533.498	11595.88
534.269	11008.88
535.039	10385.88
535.81	9820.88
536.58	9293.88
537.351	8808.88
538.121	8356.88
538.891	7872.88
539.661	7514.88
540.431	7046.88
541.201	6731.88
541.971	6359.88
542.741	6046.88
543.51	5726.88
544.28	5435.88
545.05	5170.88
545.819	4934.88
546.588	4690.88
547.358	4501.88
548.127	4250.88
548.896	4061.88
549.665	3844.88
550.434	3618.88
551.203	3422.88
551.972	3273.88
552.741	3086.88
553.51	2916.88
554.278	2748.88
555.047	2604.88
555.815	2456.88
556.584	2316.88
557.352	2188.88
558.121	2083.88
558.889	1953.88
559.657	1841.88
560.425	1740.88
561.193	1665.88
561.961	1575.88
562.729	1487.88
563.496	1398.88
564.264	1325.88
565.032	1233.88
565.799	1172.88
566.567	1120.88
567.334	1070.88
568.101	1010.88
568.869	945.88
569.636	895.88
570.403	844.88
571.17	812.88
571.937	749.88
572.704	711.88
573.471	666.88
574.237	639.88
575.004	606.88
575.771	558.88
576.537	528.88
577.303	505.88
578.07	476.88
578.836	450.88
579.602	417.88
580.368	404.88
581.134	379.88
581.9	362.88
582.666	336.88
583.432	328.88
584.198	310.88
584.964	296.88
585.729	281.88
586.495	262.88
587.26	252.88
588.025	229.88
588.791	223.88
589.556	216.88
590.321	199.88
591.086	190.88
591.851	176.88
592.616	174.88
593.381	166.88
594.146	154.88
594.911	150.88
595.675	149.88
596.44	137.88
597.204	133.88
597.969	126.88
598.733	120.88
599.497	119.88
600.261	112.88
601.025	107.88
601.79	106.88
602.553	94.88
603.317	92.88
604.081	90.88
604.845	88.88
605.609	87.88
606.372	81.88
607.136	74.88
607.899	70.88
608.662	69.88
609.426	68.88
610.189	67.88
610.952	60.88
611.715	62.88
612.478	57.88
613.241	55.88
614.004	52.88
614.767	50.88
615.529	50.88
616.292	50.88
617.055	46.88
617.817	48.88
618.579	47.88
619.342	43.88
620.104	40.88
620.866	39.88
621.628	38.88
622.39	38.88
623.152	39.88
623.914	32.88
624.676	33.88
625.438	33.88
626.199	31.88
626.961	33.88
627.722	30.88
628.484	29.88
629.245	25.88
630.006	27.88
630.768	28.88
631.529	24.88
632.29	26.88
633.051	24.88
633.812	23.88
634.573	23.88
635.333	24.88
636.094	25.88
636.855	21.88
637.615	20.88
638.376	18.88
639.136	19.88
639.896	19.88
640.657	18.88
641.417	20.88
642.177	16.88
642.937	18.88
643.697	16.88
644.457	14.88
645.216	19.88
645.976	16.88
646.736	13.88
647.495	13.88
648.255	13.88
649.014	15.88
649.774	13.88
650.533	12.88
651.292	13.88
652.051	13.88
652.81	14.88
653.569	11.88
654.328	12.88
655.087	11.88
655.846	12.88
656.604	13.88
657.363	12.88
658.121	10.88
658.88	9.88
659.638	11.88
660.397	11.88
661.155	11.88
661.913	10.88
662.671	11.88
663.429	9.88
664.187	10.88
664.945	11.88
665.703	11.88
666.46	11.88
667.218	10.88
667.976	8.88
668.733	12.88
669.49	8.88
670.248	7.88
671.005	7.88
671.762	6.88
672.519	8.88
673.276	8.88
674.033	9.88
674.79	10.88
675.547	8.88
676.304	10.88
677.06	8.88
677.817	10.88
678.574	6.88
679.33	9.88
680.086	8.88
680.843	5.88
681.599	9.88
682.355	6.88
683.111	8.88
683.867	8.88
684.623	8.88
685.379	7.88
686.135	9.88
686.89	6.88
687.646	6.88
688.402	7.88
689.157	8.88
689.912	8.88
690.668	7.88
691.423	7.88
692.178	6.88
692.933	6.88
693.688	8.88
694.443	8.88
695.198	8.88
695.953	7.88
696.708	7.88
697.462	7.88
698.217	5.88
698.972	7.88
699.726	7.88
700.48	7.88
701.235	7.88
701.989	4.88
702.743	7.88
703.497	4.88
704.251	6.88
705.005	5.88
705.759	5.88
706.513	7.88
707.266	5.88
708.02	7.88
708.774	9.88
709.527	7.88
710.28	8.88
711.034	8.88
711.787	8.88
712.54	7.88
713.293	8.88
714.046	7.88
714.799	5.88
715.552	6.88
716.305	6.88
717.058	7.88
717.81	7.88
718.563	5.88
719.315	7.88
720.068	9.88
720.82	6.88
721.573	7.88
722.325	6.88
723.077	6.88
723.829	8.88
724.581	8.88
725.333	8.88
726.085	8.88
726.836	7.88
727.588	5.88
728.34	11.88
729.091	10.88
729.843	8.88
730.594	7.88
731.346	6.88
732.097	8.88
732.848	8.88
733.599	9.88
734.35	6.88
735.101	7.88
735.852	11.88
736.603	9.88
737.354	7.88
738.104	5.88
738.855	9.88
739.605	8.88
740.356	8.88
741.106	9.88
741.856	10.88
742.607	10.88
743.357	9.88
744.107	9.88
744.857	12.88
745.607	9.88
746.357	11.88
747.106	11.88
747.856	9.88
748.606	9.88
749.355	10.88
750.105	10.88
750.854	9.88
751.603	9.88
752.353	10.88
753.102	10.88
753.851	11.88
754.6	13.88
755.349	12.88
756.098	9.88
756.847	13.88
757.595	13.88
758.344	11.88
759.093	13.88
759.841	12.88
760.589	8.88
761.338	13.88
762.086	10.88
762.834	12.88
763.582	13.88
764.331	12.88
765.079	12.88
765.826	12.88
766.574	12.88
767.322	11.88
768.07	12.88
768.817	12.88
769.565	16.88
770.312	12.88
771.06	13.88
771.807	12.88
772.554	14.88
773.302	13.88
774.049	17.88
774.796	14.88
775.543	16.88
776.29	12.88
777.036	13.88
777.783	15.88
778.53	12.88
779.276	15.88
780.023	16.88
780.769	15.88
781.516	13.88
782.262	15.88
783.008	14.88
783.754	14.88
784.5	14.88
785.246	14.88
785.992	14.88
786.738	16.88
787.484	14.88
788.23	18.88
788.975	14.88
789.721	18.88
790.466	13.88
791.212	16.88
791.957	16.88
792.702	15.88
793.447	16.88
794.193	14.88
794.938	14.88
795.683	13.88
796.427	13.88
797.172	10.88
797.917	12.88
798.662	12.88
799.406	13.88
800.151	12.88
800.895	11.88
801.64	10.88
802.384	11.88
803.128	11.88
803.872	10.88
804.616	10.88
805.36	13.88
806.104	10.88
806.848	8.88
807.592	10.88
808.336	11.88
809.079	11.88
809.823	9.88
810.566	10.88
811.31	8.88
812.053	10.88
812.796	8.88
813.539	9.88
814.283	8.88
815.026	6.88
815.769	11.88
816.511	8.88
817.254	8.88
817.997	8.88
818.74	5.88
819.482	6.88
820.225	5.88
820.967	6.88
821.71	7.88
822.452	7.88
823.194	6.88
823.936	5.88
824.678	7.88
825.42	6.88
826.162	9.88
826.904	5.88
827.646	5.88
828.388	7.88
829.129	6.88
829.871	5.88
830.612	5.88
831.354	5.88
832.095	6.88
832.836	5.88
833.577	5.88
834.319	3.88
835.06	5.88
835.801	6.88
836.542	4.88
837.282	6.88
838.023	5.88
838.764	5.88
839.504	4.88
840.245	6.88
840.985	2.88
841.726	5.88
842.466	4.88
843.206	4.88
843.946	4.88
844.687	2.88
845.427	4.88
846.166	3.88
846.906	3.88
847.646	4.88
848.386	8.88
849.125	3.88
849.865	3.88
850.605	4.88
851.344	5.88
852.083	2.88
852.823	2.88
853.562	4.88
854.301	2.88
855.04	5.88
855.779	3.88
856.518	4.88
857.257	4.88
857.995	2.88
858.734	4.88
859.473	1.88
860.211	3.88
860.95	1.88
861.688	2.88
862.426	2.88
863.165	4.88
863.903	4.88
864.641	2.88
865.379	2.88
866.117	1.88
866.855	1.88
867.593	3.88
868.33	2.88
869.068	2.88
869.806	4.88
870.543	3.88
871.28	2.88
872.018	3.88
872.755	3.88
873.492	0.88
874.229	1.88
874.967	0.88
875.703	2.88
876.44	2.88
877.177	1.88
877.914	1.88
878.651	0.88
879.387	0.88
880.124	0.88
880.86	-0.12
881.597	0.88
882.333	2.88
883.069	1.88
883.806	0.88
884.542	0.88
885.278	3.88
886.014	1.88
886.749	2.88
887.485	-1.12
888.221	1.88
888.957	1.88
889.692	2.88
890.428	2.88
891.163	0.88
891.899	-0.12
892.634	0.88
893.369	0.88
894.104	1.88
894.839	-0.12
895.574	-0.12
896.309	1.88
897.044	2.88
897.779	-0.12
898.514	0.88
899.248	1.88
899.983	-0.12
900.717	1.88
901.452	-1.12
902.186	-0.12
902.92	1.88
903.654	1.88
904.389	1.88
905.123	-1.12
905.857	0.88
906.59	0.88
907.324	0.88
908.058	-0.12
908.792	-2.12
909.525	1.88
910.259	-1.12
910.992	0.88
911.726	1.88
912.459	1.88
913.192	0.88
913.925	-0.12
914.658	1.88
915.391	0.88
916.124	1.88
916.857	2.88
917.59	-0.12
918.323	0.88
919.055	2.88
919.788	2.88
920.521	0.88
921.253	-0.12
921.985	-1.12
922.718	-0.12
923.45	1.88
924.182	0.88
924.914	0.88
925.646	-1.12
926.378	-1.12
927.11	-0.12
927.841	0.88
928.573	-0.12
929.305	0.88
930.036	-0.12
930.768	1.88
931.499	-0.12
932.23	0.88
932.962	-2.12
933.693	-0.12
934.424	-0.12
935.155	0.88
935.886	-0.12
936.617	-1.12
937.348	0.88
938.078	0.88
938.809	-0.12
939.54	1.88
940.27	-3.12
941.001	0.88
941.731	0.88
942.461	-0.12
943.191	-2.12
943.922	2.88
944.652	1.88
945.382	-2.12
946.112	2.88
946.841	1.88
947.571	-0.12
948.301	0.88
949.031	-1.12
949.76	-0.12
950.49	0.88
951.219	-0.12
951.948	-0.12
952.678	-0.12
953.407	-0.12
954.136	-0.12
954.865	0.88
955.594	-1.12
956.323	1.88
957.052	0.88
957.78	0.88
958.509	-2.12
959.238	-1.12
959.966	-1.12
960.695	-0.12
961.423	-0.12
962.151	-1.12
962.88	-0.12
963.608	-0.12
964.336	-2.12
965.064	0.88
965.792	0.88
966.52	-2.12
967.247	1.88
967.975	-1.12
968.703	0.88
969.43	0.88
970.158	-0.12
970.885	0.88
971.613	-2.12
972.34	2.88
973.067	-0.12
973.794	0.88
974.521	-0.12
975.248	-0.12
975.975	0.88
976.702	-1.12
977.429	0.88
978.156	0.88
978.882	-0.12
979.609	1.88
980.335	-1.12
981.062	0.88
981.788	0.88
982.514	0.88
983.24	1.88
983.967	-1.12
984.693	0.88
985.419	-1.12
986.144	-0.12
986.87	0.88
987.596	0.88
988.322	-1.12
989.047	0.88
989.773	-0.12
990.498	-0.12
991.224	0.88
991.949	0.88
992.674	-1.12
993.399	-1.12
994.124	-0.12
994.849	-0.12
995.574	-1.12
996.299	0.88
997.024	0.88
997.749	-0.12
998.473	0.88
999.198	-0.12
999.922	0.88
1000.647	1.88
1001.371	2.88
1002.095	-2.12
1002.82	0.88
1003.544	-0.12
1004.268	3.88
1004.992	2.88
1005.716	2.88
1006.439	5.88
1007.163	5.88
1007.887	7.88
1008.611	0.88
1009.334	-0.12
1010.058	-2.12
1010.781	1.88
1011.504	0.88
1012.228	0.88
1012.951	0.88
1013.674	-2.12
1014.397	-1.12
1015.12	0.88
