节点500_705_QEPB04081__549__20-53-44-719.txt的数据

Date: Wed Nov 12 20:53:44 CST 2025
User: PC
Spectrometer: QEPB0408
触发模式: 0
积分时间 (秒): 1.000000E-2
Scans to average: 1
启用暗噪声校正: true
启用非线性校正: false
滑动平均宽度: 0
X轴模式: Wavelengths
Number of Pixels in Spectrum: 1044
>>>>>Begin Spectral Data<<<<<
220.843	5.12
221.644	6.12
222.444	6.12
223.244	6.12
224.045	7.12
224.845	5.12
225.645	8.12
226.445	5.12
227.245	9.12
228.045	9.12
228.845	6.12
229.645	6.12
230.444	9.12
231.244	7.12
232.043	6.12
232.843	7.12
233.642	10.12
234.442	10.12
235.241	11.12
236.04	11.12
236.839	11.12
237.638	10.12
238.437	7.12
239.236	11.12
240.035	13.12
240.833	13.12
241.632	10.12
242.43	10.12
243.229	14.12
244.027	12.12
244.826	14.12
245.624	11.12
246.422	11.12
247.22	15.12
248.018	11.12
248.816	15.12
249.614	15.12
250.412	17.12
251.21	13.12
252.007	16.12
252.805	15.12
253.602	14.12
254.4	17.12
255.197	16.12
255.994	16.12
256.791	19.12
257.589	17.12
258.386	22.12
259.183	19.12
259.979	19.12
260.776	19.12
261.573	21.12
262.37	21.12
263.166	24.12
263.963	23.12
264.759	24.12
265.556	25.12
266.352	24.12
267.148	24.12
267.944	27.12
268.74	26.12
269.536	27.12
270.332	28.12
271.128	28.12
271.924	28.12
272.719	29.12
273.515	28.12
274.311	33.12
275.106	31.12
275.901	29.12
276.697	30.12
277.492	35.12
278.287	29.12
279.082	34.12
279.877	31.12
280.672	34.12
281.467	30.12
282.262	32.12
283.056	31.12
283.851	31.12
284.646	33.12
285.44	30.12
286.234	30.12
287.029	34.12
287.823	31.12
288.617	32.12
289.411	31.12
290.205	31.12
290.999	28.12
291.793	29.12
292.587	30.12
293.381	30.12
294.174	28.12
294.968	26.12
295.761	25.12
296.555	26.12
297.348	26.12
298.141	30.12
298.935	26.12
299.728	24.12
300.521	24.12
301.314	21.12
302.107	22.12
302.899	23.12
303.692	25.12
304.485	24.12
305.277	22.12
306.07	21.12
306.862	21.12
307.655	25.12
308.447	22.12
309.239	23.12
310.031	22.12
310.823	19.12
311.615	18.12
312.407	18.12
313.199	17.12
313.991	16.12
314.783	18.12
315.574	16.12
316.366	16.12
317.157	15.12
317.949	16.12
318.74	15.12
319.531	16.12
320.322	15.12
321.113	15.12
321.904	14.12
322.695	13.12
323.486	13.12
324.277	15.12
325.068	13.12
325.858	12.12
326.649	13.12
327.439	14.12
328.23	12.12
329.02	12.12
329.81	12.12
330.6	13.12
331.391	13.12
332.181	12.12
332.971	12.12
333.76	13.12
334.55	11.12
335.34	9.12
336.13	14.12
336.919	11.12
337.709	15.12
338.498	13.12
339.287	9.12
340.077	12.12
340.866	11.12
341.655	11.12
342.444	12.12
343.233	10.12
344.022	13.12
344.811	11.12
345.6	11.12
346.388	11.12
347.177	13.12
347.965	10.12
348.754	11.12
349.542	10.12
350.33	12.12
351.119	10.12
351.907	11.12
352.695	11.12
353.483	11.12
354.271	8.12
355.059	12.12
355.846	11.12
356.634	11.12
357.422	9.12
358.209	8.12
358.997	9.12
359.784	11.12
360.571	10.12
361.359	9.12
362.146	8.12
362.933	10.12
363.72	11.12
364.507	12.12
365.294	8.12
366.081	9.12
366.867	9.12
367.654	10.12
368.44	10.12
369.227	8.12
370.013	8.12
370.8	11.12
371.586	10.12
372.372	10.12
373.158	10.12
373.944	12.12
374.73	8.12
375.516	9.12
376.302	10.12
377.088	8.12
377.873	8.12
378.659	9.12
379.445	12.12
380.23	10.12
381.015	9.12
381.801	11.12
382.586	12.12
383.371	8.12
384.156	10.12
384.941	10.12
385.726	10.12
386.511	10.12
387.296	9.12
388.08	12.12
388.865	11.12
389.649	11.12
390.434	9.12
391.218	10.12
392.003	11.12
392.787	10.12
393.571	12.12
394.355	12.12
395.139	13.12
395.923	13.12
396.707	14.12
397.491	13.12
398.274	12.12
399.058	12.12
399.842	14.12
400.625	11.12
401.408	14.12
402.192	13.12
402.975	16.12
403.758	14.12
404.541	14.12
405.324	14.12
406.107	14.12
406.89	16.12
407.673	17.12
408.456	11.12
409.238	18.12
410.021	14.12
410.803	15.12
411.586	15.12
412.368	16.12
413.151	19.12
413.933	15.12
414.715	19.12
415.497	20.12
416.279	19.12
417.061	17.12
417.843	18.12
418.624	19.12
419.406	19.12
420.188	16.12
420.969	20.12
421.751	25.12
422.532	21.12
423.313	21.12
424.095	27.12
424.876	21.12
425.657	26.12
426.438	21.12
427.219	23.12
428	26.12
428.78	26.12
429.561	31.12
430.342	28.12
431.122	32.12
431.903	37.12
432.683	35.12
433.464	36.12
434.244	36.12
435.024	39.12
435.804	43.12
436.584	43.12
437.364	47.12
438.144	49.12
438.924	52.12
439.704	53.12
440.483	59.12
441.263	59.12
442.042	65.12
442.822	73.12
443.601	79.12
444.38	88.12
445.16	90.12
445.939	100.12
446.718	104.12
447.497	120.12
448.276	130.12
449.054	140.12
449.833	162.12
450.612	171.12
451.391	189.12
452.169	203.12
452.948	231.12
453.726	257.12
454.504	289.12
455.282	312.12
456.061	349.12
456.839	390.12
457.617	443.12
458.395	481.12
459.172	541.12
459.95	588.12
460.728	669.12
461.506	747.12
462.283	836.12
463.061	917.12
463.838	1016.12
464.615	1138.12
465.393	1254.12
466.17	1393.12
466.947	1547.12
467.724	1707.12
468.501	1856.12
469.278	2064.12
470.055	2289.12
470.831	2516.12
471.608	2754.12
472.385	3034.12
473.161	3302.12
473.938	3628.12
474.714	3971.12
475.49	4363.12
476.266	4729.12
477.043	5148.12
477.819	5602.12
478.595	6081.12
479.371	6609.12
480.146	7219.12
480.922	7826.12
481.698	8524.12
482.473	9189.12
483.249	9930.12
484.024	10812.12
484.8	11641.12
485.575	12578.12
486.35	13603.12
487.126	14640.12
487.901	15752.12
488.676	16924.12
489.451	18253.12
490.225	19550.12
491	20981.12
491.775	22272.12
492.55	23850.12
493.324	25335.12
494.099	26925.12
494.873	28574.12
495.647	30178.12
496.422	31770.12
497.196	33506.12
497.97	35003.12
498.744	36484.12
499.518	37984.12
500.292	39308.12
501.066	40452.12
501.839	41356.12
502.613	42346.12
503.387	43046.12
504.16	43605.12
504.934	44148.12
505.707	44224.12
506.48	44223.12
507.253	43924.12
508.027	43515.12
508.8	43003.12
509.573	42232.12
510.346	41500.12
511.118	40667.12
511.891	39566.12
512.664	38299.12
513.437	37079.12
514.209	35856.12
514.982	34555.12
515.754	33252.12
516.526	31969.12
517.298	30710.12
518.071	29503.12
518.843	28412.12
519.615	27298.12
520.387	26160.12
521.159	25182.12
521.93	24164.12
522.702	23179.12
523.474	22264.12
524.245	21372.12
525.017	20438.12
525.788	19636.12
526.56	18771.12
527.331	18057.12
528.102	17154.12
528.873	16318.12
529.644	15543.12
530.415	14833.12
531.186	14152.12
531.957	13441.12
532.728	12776.12
533.498	12121.12
534.269	11529.12
535.039	10918.12
535.81	10375.12
536.58	9796.12
537.351	9294.12
538.121	8789.12
538.891	8327.12
539.661	7890.12
540.431	7446.12
541.201	7072.12
541.971	6701.12
542.741	6341.12
543.51	6041.12
544.28	5705.12
545.05	5451.12
545.819	5214.12
546.588	4998.12
547.358	4739.12
548.127	4495.12
548.896	4262.12
549.665	4070.12
550.434	3858.12
551.203	3651.12
551.972	3515.12
552.741	3278.12
553.51	3099.12
554.278	2927.12
555.047	2783.12
555.815	2619.12
556.584	2492.12
557.352	2341.12
558.121	2218.12
558.889	2092.12
559.657	1987.12
560.425	1877.12
561.193	1779.12
561.961	1679.12
562.729	1584.12
563.496	1499.12
564.264	1418.12
565.032	1350.12
565.799	1272.12
566.567	1196.12
567.334	1134.12
568.101	1076.12
568.869	1021.12
569.636	948.12
570.403	905.12
571.17	849.12
571.937	808.12
572.704	759.12
573.471	720.12
574.237	690.12
575.004	646.12
575.771	603.12
576.537	563.12
577.303	543.12
578.07	512.12
578.836	479.12
579.602	460.12
580.368	438.12
581.134	415.12
581.9	391.12
582.666	369.12
583.432	359.12
584.198	331.12
584.964	316.12
585.729	305.12
586.495	285.12
587.26	270.12
588.025	257.12
588.791	243.12
589.556	229.12
590.321	218.12
591.086	208.12
591.851	195.12
592.616	190.12
593.381	181.12
594.146	171.12
594.911	161.12
595.675	157.12
596.44	151.12
597.204	145.12
597.969	136.12
598.733	130.12
599.497	129.12
600.261	122.12
601.025	118.12
601.79	114.12
602.553	105.12
603.317	100.12
604.081	97.12
604.845	88.12
605.609	88.12
606.372	83.12
607.136	82.12
607.899	76.12
608.662	81.12
609.426	74.12
610.189	69.12
610.952	67.12
611.715	65.12
612.478	59.12
613.241	62.12
614.004	58.12
614.767	54.12
615.529	51.12
616.292	51.12
617.055	52.12
617.817	47.12
618.579	48.12
619.342	45.12
620.104	46.12
620.866	40.12
621.628	42.12
622.39	40.12
623.152	38.12
623.914	38.12
624.676	33.12
625.438	35.12
626.199	31.12
626.961	34.12
627.722	32.12
628.484	29.12
629.245	31.12
630.006	30.12
630.768	30.12
631.529	27.12
632.29	25.12
633.051	27.12
633.812	22.12
634.573	26.12
635.333	24.12
636.094	26.12
636.855	21.12
637.615	20.12
638.376	23.12
639.136	21.12
639.896	22.12
640.657	16.12
641.417	18.12
642.177	20.12
642.937	19.12
643.697	18.12
644.457	18.12
645.216	16.12
645.976	16.12
646.736	17.12
647.495	15.12
648.255	16.12
649.014	15.12
649.774	15.12
650.533	17.12
651.292	15.12
652.051	15.12
652.81	12.12
653.569	11.12
654.328	12.12
655.087	18.12
655.846	11.12
656.604	12.12
657.363	12.12
658.121	11.12
658.88	11.12
659.638	13.12
660.397	11.12
661.155	10.12
661.913	12.12
662.671	12.12
663.429	9.12
664.187	9.12
664.945	11.12
665.703	11.12
666.46	10.12
667.218	11.12
667.976	9.12
668.733	12.12
669.49	11.12
670.248	8.12
671.005	10.12
671.762	9.12
672.519	10.12
673.276	10.12
674.033	7.12
674.79	8.12
675.547	9.12
676.304	11.12
677.06	9.12
677.817	11.12
678.574	8.12
679.33	9.12
680.086	9.12
680.843	8.12
681.599	9.12
682.355	8.12
683.111	10.12
683.867	9.12
684.623	8.12
685.379	6.12
686.135	7.12
686.89	6.12
687.646	10.12
688.402	7.12
689.157	8.12
689.912	8.12
690.668	9.12
691.423	8.12
692.178	8.12
692.933	7.12
693.688	8.12
694.443	6.12
695.198	6.12
695.953	6.12
696.708	8.12
697.462	8.12
698.217	8.12
698.972	6.12
699.726	6.12
700.48	8.12
701.235	7.12
701.989	6.12
702.743	8.12
703.497	10.12
704.251	8.12
705.005	7.12
705.759	7.12
706.513	9.12
707.266	8.12
708.02	7.12
708.774	10.12
709.527	6.12
710.28	9.12
711.034	6.12
711.787	6.12
712.54	5.12
713.293	8.12
714.046	9.12
714.799	8.12
715.552	8.12
716.305	7.12
717.058	11.12
717.81	9.12
718.563	6.12
719.315	5.12
720.068	6.12
720.82	8.12
721.573	8.12
722.325	7.12
723.077	9.12
723.829	7.12
724.581	11.12
725.333	6.12
726.085	9.12
726.836	10.12
727.588	7.12
728.34	9.12
729.091	7.12
729.843	8.12
730.594	8.12
731.346	9.12
732.097	8.12
732.848	10.12
733.599	8.12
734.35	9.12
735.101	6.12
735.852	8.12
736.603	8.12
737.354	7.12
738.104	10.12
738.855	11.12
739.605	9.12
740.356	9.12
741.106	10.12
741.856	10.12
742.607	10.12
743.357	9.12
744.107	8.12
744.857	10.12
745.607	9.12
746.357	9.12
747.106	9.12
747.856	9.12
748.606	8.12
749.355	12.12
750.105	11.12
750.854	9.12
751.603	8.12
752.353	7.12
753.102	10.12
753.851	10.12
754.6	11.12
755.349	10.12
756.098	10.12
756.847	12.12
757.595	11.12
758.344	12.12
759.093	10.12
759.841	11.12
760.589	12.12
761.338	11.12
762.086	13.12
762.834	12.12
763.582	11.12
764.331	10.12
765.079	13.12
765.826	11.12
766.574	9.12
767.322	16.12
768.07	14.12
768.817	13.12
769.565	14.12
770.312	11.12
771.06	15.12
771.807	11.12
772.554	12.12
773.302	13.12
774.049	14.12
774.796	13.12
775.543	14.12
776.29	15.12
777.036	14.12
777.783	14.12
778.53	14.12
779.276	16.12
780.023	18.12
780.769	16.12
781.516	15.12
782.262	17.12
783.008	13.12
783.754	15.12
784.5	15.12
785.246	15.12
785.992	13.12
786.738	16.12
787.484	14.12
788.23	15.12
788.975	17.12
789.721	15.12
790.466	19.12
791.212	15.12
791.957	14.12
792.702	13.12
793.447	14.12
794.193	16.12
794.938	10.12
795.683	13.12
796.427	16.12
797.172	16.12
797.917	12.12
798.662	12.12
799.406	11.12
800.151	12.12
800.895	14.12
801.64	13.12
802.384	12.12
803.128	11.12
803.872	10.12
804.616	12.12
805.36	14.12
806.104	12.12
806.848	10.12
807.592	11.12
808.336	10.12
809.079	9.12
809.823	11.12
810.566	10.12
811.31	11.12
812.053	8.12
812.796	8.12
813.539	11.12
814.283	10.12
815.026	10.12
815.769	8.12
816.511	7.12
817.254	10.12
817.997	6.12
818.74	8.12
819.482	9.12
820.225	8.12
820.967	8.12
821.71	7.12
822.452	8.12
823.194	7.12
823.936	7.12
824.678	8.12
825.42	5.12
826.162	8.12
826.904	5.12
827.646	3.12
828.388	7.12
829.129	7.12
829.871	9.12
830.612	8.12
831.354	9.12
832.095	6.12
832.836	4.12
833.577	6.12
834.319	6.12
835.06	7.12
835.801	5.12
836.542	6.12
837.282	7.12
838.023	7.12
838.764	6.12
839.504	6.12
840.245	5.12
840.985	5.12
841.726	7.12
842.466	5.12
843.206	5.12
843.946	6.12
844.687	4.12
845.427	6.12
846.166	3.12
846.906	5.12
847.646	5.12
848.386	5.12
849.125	6.12
849.865	4.12
850.605	5.12
851.344	5.12
852.083	4.12
852.823	4.12
853.562	6.12
854.301	4.12
855.04	4.12
855.779	5.12
856.518	3.12
857.257	4.12
857.995	5.12
858.734	7.12
859.473	4.12
860.211	3.12
860.95	4.12
861.688	5.12
862.426	3.12
863.165	2.12
863.903	4.12
864.641	3.12
865.379	1.12
866.117	3.12
866.855	3.12
867.593	2.12
868.33	3.12
869.068	3.12
869.806	2.12
870.543	2.12
871.28	2.12
872.018	4.12
872.755	2.12
873.492	3.12
874.229	3.12
874.967	4.12
875.703	3.12
876.44	2.12
877.177	1.12
877.914	-0.88
878.651	2.12
879.387	1.12
880.124	3.12
880.86	3.12
881.597	0.12
882.333	2.12
883.069	2.12
883.806	2.12
884.542	3.12
885.278	1.12
886.014	2.12
886.749	2.12
887.485	1.12
888.221	4.12
888.957	2.12
889.692	3.12
890.428	-0.88
891.163	2.12
891.899	1.12
892.634	1.12
893.369	1.12
894.104	-0.88
894.839	0.12
895.574	1.12
896.309	3.12
897.044	1.12
897.779	2.12
898.514	3.12
899.248	0.12
899.983	1.12
900.717	-0.88
901.452	0.12
902.186	2.12
902.92	0.12
903.654	4.12
904.389	1.12
905.123	1.12
905.857	2.12
906.59	1.12
907.324	1.12
908.058	1.12
908.792	1.12
909.525	0.12
910.259	1.12
910.992	2.12
911.726	1.12
912.459	1.12
913.192	-1.88
913.925	0.12
914.658	1.12
915.391	1.12
916.124	2.12
916.857	-0.88
917.59	0.12
918.323	1.12
919.055	2.12
919.788	-0.88
920.521	0.12
921.253	1.12
921.985	-1.88
922.718	2.12
923.45	-1.88
924.182	-0.88
924.914	2.12
925.646	0.12
926.378	1.12
927.11	-0.88
927.841	1.12
928.573	1.12
929.305	1.12
930.036	0.12
930.768	-0.88
931.499	2.12
932.23	-0.88
932.962	1.12
933.693	1.12
934.424	1.12
935.155	-0.88
935.886	0.12
936.617	2.12
937.348	-0.88
938.078	0.12
938.809	2.12
939.54	0.12
940.27	0.12
941.001	1.12
941.731	1.12
942.461	0.12
943.191	0.12
943.922	2.12
944.652	0.12
945.382	1.12
946.112	2.12
946.841	1.12
947.571	1.12
948.301	0.12
949.031	0.12
949.76	-0.88
950.49	0.12
951.219	2.12
951.948	1.12
952.678	-0.88
953.407	1.12
954.136	-0.88
954.865	2.12
955.594	3.12
956.323	-0.88
957.052	0.12
957.78	2.12
958.509	1.12
959.238	0.12
959.966	0.12
960.695	0.12
961.423	1.12
962.151	0.12
962.88	2.12
963.608	-0.88
964.336	0.12
965.064	-0.88
965.792	2.12
966.52	2.12
967.247	-1.88
967.975	0.12
968.703	0.12
969.43	1.12
970.158	1.12
970.885	0.12
971.613	1.12
972.34	2.12
973.067	1.12
973.794	1.12
974.521	1.12
975.248	0.12
975.975	0.12
976.702	2.12
977.429	0.12
978.156	1.12
978.882	1.12
979.609	1.12
980.335	2.12
981.062	-0.88
981.788	0.12
982.514	-0.88
983.24	1.12
983.967	0.12
984.693	-0.88
985.419	2.12
986.144	1.12
986.87	3.12
987.596	2.12
988.322	-0.88
989.047	0.12
989.773	1.12
990.498	-0.88
991.224	1.12
991.949	1.12
992.674	-0.88
993.399	-1.88
994.124	0.12
994.849	0.12
995.574	1.12
996.299	1.12
997.024	0.12
997.749	0.12
998.473	0.12
999.198	2.12
999.922	1.12
1000.647	0.12
1001.371	4.12
1002.095	-1.88
1002.82	-1.88
1003.544	0.12
1004.268	5.12
1004.992	6.12
1005.716	4.12
1006.439	5.12
1007.163	3.12
1007.887	5.12
1008.611	-2.88
1009.334	0.12
1010.058	1.12
1010.781	2.12
1011.504	0.12
1012.228	-0.88
1012.951	0.12
1013.674	1.12
1014.397	-0.88
1015.12	-0.88
