节点500_705_QEPB04081__449__20-52-16-716.txt的数据

Date: Wed Nov 12 20:52:16 CST 2025
User: PC
Spectrometer: QEPB0408
触发模式: 0
积分时间 (秒): 1.000000E-2
Scans to average: 1
启用暗噪声校正: true
启用非线性校正: false
滑动平均宽度: 0
X轴模式: Wavelengths
Number of Pixels in Spectrum: 1044
>>>>>Begin Spectral Data<<<<<
220.843	5.62
221.644	6.62
222.444	6.62
223.244	4.62
224.045	5.62
224.845	7.62
225.645	6.62
226.445	9.62
227.245	5.62
228.045	8.62
228.845	7.62
229.645	4.62
230.444	10.62
231.244	6.62
232.043	10.62
232.843	7.62
233.642	8.62
234.442	8.62
235.241	11.62
236.04	10.62
236.839	9.62
237.638	10.62
238.437	10.62
239.236	12.62
240.035	9.62
240.833	13.62
241.632	11.62
242.43	12.62
243.229	12.62
244.027	12.62
244.826	13.62
245.624	15.62
246.422	13.62
247.22	16.62
248.018	15.62
248.816	15.62
249.614	17.62
250.412	15.62
251.21	19.62
252.007	14.62
252.805	17.62
253.602	16.62
254.4	18.62
255.197	18.62
255.994	20.62
256.791	19.62
257.589	19.62
258.386	20.62
259.183	23.62
259.979	23.62
260.776	19.62
261.573	23.62
262.37	20.62
263.166	25.62
263.963	25.62
264.759	23.62
265.556	26.62
266.352	28.62
267.148	28.62
267.944	29.62
268.74	24.62
269.536	30.62
270.332	29.62
271.128	28.62
271.924	32.62
272.719	26.62
273.515	29.62
274.311	31.62
275.106	33.62
275.901	30.62
276.697	36.62
277.492	33.62
278.287	31.62
279.082	33.62
279.877	34.62
280.672	34.62
281.467	34.62
282.262	33.62
283.056	34.62
283.851	33.62
284.646	35.62
285.44	33.62
286.234	30.62
287.029	33.62
287.823	30.62
288.617	34.62
289.411	31.62
290.205	33.62
290.999	29.62
291.793	29.62
292.587	29.62
293.381	31.62
294.174	31.62
294.968	31.62
295.761	29.62
296.555	31.62
297.348	26.62
298.141	27.62
298.935	30.62
299.728	28.62
300.521	26.62
301.314	27.62
302.107	24.62
302.899	25.62
303.692	20.62
304.485	23.62
305.277	23.62
306.07	19.62
306.862	19.62
307.655	23.62
308.447	20.62
309.239	23.62
310.031	21.62
310.823	18.62
311.615	21.62
312.407	19.62
313.199	16.62
313.991	18.62
314.783	13.62
315.574	19.62
316.366	16.62
317.157	15.62
317.949	14.62
318.74	17.62
319.531	15.62
320.322	14.62
321.113	15.62
321.904	14.62
322.695	15.62
323.486	14.62
324.277	11.62
325.068	13.62
325.858	12.62
326.649	15.62
327.439	11.62
328.23	12.62
329.02	11.62
329.81	12.62
330.6	13.62
331.391	13.62
332.181	15.62
332.971	12.62
333.76	15.62
334.55	12.62
335.34	13.62
336.13	14.62
336.919	10.62
337.709	14.62
338.498	11.62
339.287	13.62
340.077	12.62
340.866	11.62
341.655	12.62
342.444	11.62
343.233	11.62
344.022	9.62
344.811	10.62
345.6	11.62
346.388	12.62
347.177	11.62
347.965	10.62
348.754	13.62
349.542	11.62
350.33	9.62
351.119	14.62
351.907	9.62
352.695	10.62
353.483	8.62
354.271	11.62
355.059	10.62
355.846	11.62
356.634	12.62
357.422	7.62
358.209	9.62
358.997	10.62
359.784	10.62
360.571	11.62
361.359	11.62
362.146	10.62
362.933	10.62
363.72	11.62
364.507	9.62
365.294	12.62
366.081	10.62
366.867	10.62
367.654	9.62
368.44	8.62
369.227	10.62
370.013	8.62
370.8	9.62
371.586	9.62
372.372	8.62
373.158	9.62
373.944	9.62
374.73	10.62
375.516	10.62
376.302	11.62
377.088	11.62
377.873	7.62
378.659	10.62
379.445	9.62
380.23	11.62
381.015	11.62
381.801	11.62
382.586	11.62
383.371	11.62
384.156	8.62
384.941	10.62
385.726	12.62
386.511	13.62
387.296	11.62
388.08	9.62
388.865	12.62
389.649	12.62
390.434	13.62
391.218	12.62
392.003	11.62
392.787	12.62
393.571	12.62
394.355	11.62
395.139	12.62
395.923	11.62
396.707	13.62
397.491	10.62
398.274	13.62
399.058	13.62
399.842	14.62
400.625	10.62
401.408	12.62
402.192	14.62
402.975	12.62
403.758	12.62
404.541	16.62
405.324	16.62
406.107	14.62
406.89	15.62
407.673	15.62
408.456	15.62
409.238	16.62
410.021	17.62
410.803	18.62
411.586	15.62
412.368	17.62
413.151	19.62
413.933	18.62
414.715	19.62
415.497	18.62
416.279	18.62
417.061	20.62
417.843	22.62
418.624	22.62
419.406	19.62
420.188	21.62
420.969	21.62
421.751	23.62
422.532	22.62
423.313	23.62
424.095	25.62
424.876	24.62
425.657	26.62
426.438	27.62
427.219	25.62
428	27.62
428.78	27.62
429.561	32.62
430.342	29.62
431.122	33.62
431.903	34.62
432.683	33.62
433.464	39.62
434.244	39.62
435.024	38.62
435.804	42.62
436.584	43.62
437.364	49.62
438.144	47.62
438.924	49.62
439.704	53.62
440.483	62.62
441.263	61.62
442.042	67.62
442.822	68.62
443.601	77.62
444.38	83.62
445.16	88.62
445.939	95.62
446.718	104.62
447.497	113.62
448.276	125.62
449.054	135.62
449.833	156.62
450.612	167.62
451.391	187.62
452.169	201.62
452.948	234.62
453.726	247.62
454.504	275.62
455.282	305.62
456.061	341.62
456.839	385.62
457.617	425.62
458.395	473.62
459.172	526.62
459.95	598.62
460.728	653.62
461.506	735.62
462.283	813.62
463.061	910.62
463.838	1010.62
464.615	1107.62
465.393	1241.62
466.17	1376.62
466.947	1528.62
467.724	1685.62
468.501	1849.62
469.278	2053.62
470.055	2279.62
470.831	2491.62
471.608	2770.62
472.385	3039.62
473.161	3311.62
473.938	3679.62
474.714	4013.62
475.49	4403.62
476.266	4792.62
477.043	5208.62
477.819	5708.62
478.595	6204.62
479.371	6776.62
480.146	7362.62
480.922	8037.62
481.698	8709.62
482.473	9472.62
483.249	10274.62
484.024	11145.62
484.8	12044.62
485.575	13066.62
486.35	14092.62
487.126	15244.62
487.901	16494.62
488.676	17728.62
489.451	19091.62
490.225	20509.62
491	21985.62
491.775	23499.62
492.55	25037.62
493.324	26663.62
494.099	28292.62
494.873	30051.62
495.647	31754.62
496.422	33381.62
497.196	35128.62
497.97	36704.62
498.744	38144.62
499.518	39704.62
500.292	41116.62
501.066	42165.62
501.839	43241.62
502.613	44024.62
503.387	44684.62
504.16	45257.62
504.934	45532.62
505.707	45613.62
506.48	45369.62
507.253	45056.62
508.027	44576.62
508.8	43756.62
509.573	42930.62
510.346	42061.62
511.118	41100.62
511.891	39993.62
512.664	38577.62
513.437	37232.62
514.209	35924.62
514.982	34580.62
515.754	33327.62
516.526	31904.62
517.298	30651.62
518.071	29494.62
518.843	28358.62
519.615	27181.62
520.387	26098.62
521.159	25135.62
521.93	24056.62
522.702	23098.62
523.474	22088.62
524.245	21240.62
525.017	20336.62
525.788	19444.62
526.56	18655.62
527.331	17850.62
528.102	16965.62
528.873	16128.62
529.644	15346.62
530.415	14668.62
531.186	13951.62
531.957	13302.62
532.728	12637.62
533.498	11940.62
534.269	11338.62
535.039	10751.62
535.81	10169.62
536.58	9655.62
537.351	9124.62
538.121	8639.62
538.891	8156.62
539.661	7687.62
540.431	7302.62
541.201	6957.62
541.971	6556.62
542.741	6240.62
543.51	5894.62
544.28	5644.62
545.05	5355.62
545.819	5111.62
546.588	4872.62
547.358	4663.62
548.127	4412.62
548.896	4189.62
549.665	3971.62
550.434	3793.62
551.203	3566.62
551.972	3405.62
552.741	3207.62
553.51	3021.62
554.278	2872.62
555.047	2709.62
555.815	2561.62
556.584	2424.62
557.352	2287.62
558.121	2178.62
558.889	2049.62
559.657	1942.62
560.425	1825.62
561.193	1744.62
561.961	1655.62
562.729	1544.62
563.496	1465.62
564.264	1392.62
565.032	1309.62
565.799	1242.62
566.567	1180.62
567.334	1126.62
568.101	1037.62
568.869	1000.62
569.636	940.62
570.403	886.62
571.17	834.62
571.937	785.62
572.704	755.62
573.471	699.62
574.237	661.62
575.004	620.62
575.771	586.62
576.537	556.62
577.303	514.62
578.07	500.62
578.836	467.62
579.602	438.62
580.368	420.62
581.134	394.62
581.9	378.62
582.666	368.62
583.432	346.62
584.198	326.62
584.964	313.62
585.729	299.62
586.495	280.62
587.26	269.62
588.025	245.62
588.791	231.62
589.556	220.62
590.321	209.62
591.086	198.62
591.851	195.62
592.616	183.62
593.381	171.62
594.146	169.62
594.911	158.62
595.675	155.62
596.44	147.62
597.204	142.62
597.969	133.62
598.733	125.62
599.497	123.62
600.261	118.62
601.025	110.62
601.79	108.62
602.553	102.62
603.317	96.62
604.081	94.62
604.845	90.62
605.609	91.62
606.372	86.62
607.136	79.62
607.899	82.62
608.662	71.62
609.426	76.62
610.189	68.62
610.952	67.62
611.715	63.62
612.478	61.62
613.241	61.62
614.004	59.62
614.767	58.62
615.529	51.62
616.292	50.62
617.055	50.62
617.817	49.62
618.579	49.62
619.342	45.62
620.104	45.62
620.866	45.62
621.628	42.62
622.39	39.62
623.152	36.62
623.914	35.62
624.676	36.62
625.438	34.62
626.199	35.62
626.961	31.62
627.722	30.62
628.484	33.62
629.245	30.62
630.006	28.62
630.768	29.62
631.529	26.62
632.29	26.62
633.051	27.62
633.812	24.62
634.573	24.62
635.333	24.62
636.094	22.62
636.855	22.62
637.615	21.62
638.376	23.62
639.136	20.62
639.896	19.62
640.657	22.62
641.417	19.62
642.177	19.62
642.937	16.62
643.697	18.62
644.457	18.62
645.216	18.62
645.976	17.62
646.736	15.62
647.495	15.62
648.255	17.62
649.014	14.62
649.774	14.62
650.533	16.62
651.292	14.62
652.051	10.62
652.81	18.62
653.569	15.62
654.328	10.62
655.087	16.62
655.846	14.62
656.604	11.62
657.363	11.62
658.121	14.62
658.88	11.62
659.638	11.62
660.397	10.62
661.155	11.62
661.913	14.62
662.671	12.62
663.429	12.62
664.187	10.62
664.945	9.62
665.703	9.62
666.46	10.62
667.218	9.62
667.976	11.62
668.733	10.62
669.49	11.62
670.248	10.62
671.005	10.62
671.762	9.62
672.519	9.62
673.276	10.62
674.033	9.62
674.79	11.62
675.547	7.62
676.304	9.62
677.06	10.62
677.817	10.62
678.574	10.62
679.33	9.62
680.086	9.62
680.843	8.62
681.599	10.62
682.355	7.62
683.111	4.62
683.867	9.62
684.623	8.62
685.379	10.62
686.135	7.62
686.89	8.62
687.646	8.62
688.402	7.62
689.157	10.62
689.912	7.62
690.668	8.62
691.423	7.62
692.178	8.62
692.933	10.62
693.688	8.62
694.443	10.62
695.198	7.62
695.953	9.62
696.708	7.62
697.462	8.62
698.217	7.62
698.972	6.62
699.726	9.62
700.48	5.62
701.235	9.62
701.989	10.62
702.743	7.62
703.497	8.62
704.251	8.62
705.005	7.62
705.759	7.62
706.513	7.62
707.266	7.62
708.02	8.62
708.774	7.62
709.527	7.62
710.28	9.62
711.034	7.62
711.787	6.62
712.54	11.62
713.293	7.62
714.046	8.62
714.799	7.62
715.552	8.62
716.305	8.62
717.058	10.62
717.81	6.62
718.563	6.62
719.315	10.62
720.068	8.62
720.82	7.62
721.573	8.62
722.325	7.62
723.077	10.62
723.829	8.62
724.581	8.62
725.333	10.62
726.085	10.62
726.836	10.62
727.588	9.62
728.34	9.62
729.091	9.62
729.843	9.62
730.594	11.62
731.346	6.62
732.097	11.62
732.848	8.62
733.599	10.62
734.35	9.62
735.101	10.62
735.852	8.62
736.603	10.62
737.354	10.62
738.104	8.62
738.855	9.62
739.605	9.62
740.356	8.62
741.106	8.62
741.856	7.62
742.607	10.62
743.357	11.62
744.107	9.62
744.857	11.62
745.607	7.62
746.357	9.62
747.106	10.62
747.856	10.62
748.606	11.62
749.355	10.62
750.105	11.62
750.854	9.62
751.603	9.62
752.353	9.62
753.102	10.62
753.851	11.62
754.6	9.62
755.349	12.62
756.098	12.62
756.847	12.62
757.595	13.62
758.344	11.62
759.093	10.62
759.841	13.62
760.589	11.62
761.338	10.62
762.086	13.62
762.834	11.62
763.582	14.62
764.331	13.62
765.079	12.62
765.826	15.62
766.574	13.62
767.322	13.62
768.07	15.62
768.817	12.62
769.565	14.62
770.312	13.62
771.06	13.62
771.807	14.62
772.554	14.62
773.302	15.62
774.049	16.62
774.796	15.62
775.543	15.62
776.29	13.62
777.036	18.62
777.783	17.62
778.53	17.62
779.276	17.62
780.023	16.62
780.769	16.62
781.516	15.62
782.262	14.62
783.008	14.62
783.754	16.62
784.5	16.62
785.246	15.62
785.992	15.62
786.738	16.62
787.484	16.62
788.23	16.62
788.975	15.62
789.721	14.62
790.466	16.62
791.212	12.62
791.957	14.62
792.702	14.62
793.447	14.62
794.193	14.62
794.938	15.62
795.683	14.62
796.427	15.62
797.172	10.62
797.917	14.62
798.662	14.62
799.406	13.62
800.151	12.62
800.895	13.62
801.64	12.62
802.384	12.62
803.128	11.62
803.872	9.62
804.616	11.62
805.36	12.62
806.104	14.62
806.848	11.62
807.592	11.62
808.336	10.62
809.079	9.62
809.823	8.62
810.566	9.62
811.31	9.62
812.053	9.62
812.796	10.62
813.539	8.62
814.283	10.62
815.026	9.62
815.769	10.62
816.511	8.62
817.254	8.62
817.997	6.62
818.74	7.62
819.482	9.62
820.225	5.62
820.967	9.62
821.71	6.62
822.452	8.62
823.194	6.62
823.936	6.62
824.678	7.62
825.42	6.62
826.162	5.62
826.904	7.62
827.646	6.62
828.388	6.62
829.129	7.62
829.871	7.62
830.612	7.62
831.354	5.62
832.095	5.62
832.836	9.62
833.577	7.62
834.319	4.62
835.06	8.62
835.801	3.62
836.542	6.62
837.282	8.62
838.023	4.62
838.764	6.62
839.504	7.62
840.245	6.62
840.985	4.62
841.726	7.62
842.466	6.62
843.206	4.62
843.946	5.62
844.687	3.62
845.427	7.62
846.166	5.62
846.906	5.62
847.646	6.62
848.386	3.62
849.125	7.62
849.865	4.62
850.605	6.62
851.344	6.62
852.083	5.62
852.823	5.62
853.562	3.62
854.301	5.62
855.04	5.62
855.779	4.62
856.518	4.62
857.257	3.62
857.995	3.62
858.734	5.62
859.473	3.62
860.211	4.62
860.95	3.62
861.688	6.62
862.426	2.62
863.165	5.62
863.903	5.62
864.641	2.62
865.379	4.62
866.117	2.62
866.855	3.62
867.593	4.62
868.33	2.62
869.068	5.62
869.806	3.62
870.543	5.62
871.28	3.62
872.018	3.62
872.755	1.62
873.492	4.62
874.229	3.62
874.967	2.62
875.703	4.62
876.44	1.62
877.177	0.62
877.914	0.62
878.651	2.62
879.387	2.62
880.124	1.62
880.86	3.62
881.597	1.62
882.333	3.62
883.069	1.62
883.806	1.62
884.542	2.62
885.278	0.62
886.014	2.62
886.749	2.62
887.485	2.62
888.221	1.62
888.957	1.62
889.692	2.62
890.428	2.62
891.163	2.62
891.899	1.62
892.634	3.62
893.369	-0.38
894.104	1.62
894.839	2.62
895.574	1.62
896.309	1.62
897.044	3.62
897.779	1.62
898.514	2.62
899.248	1.62
899.983	1.62
900.717	1.62
901.452	-1.38
902.186	1.62
902.92	2.62
903.654	2.62
904.389	2.62
905.123	3.62
905.857	3.62
906.59	0.62
907.324	2.62
908.058	2.62
908.792	1.62
909.525	1.62
910.259	1.62
910.992	2.62
911.726	0.62
912.459	1.62
913.192	0.62
913.925	1.62
914.658	1.62
915.391	-0.38
916.124	1.62
916.857	1.62
917.59	1.62
918.323	3.62
919.055	1.62
919.788	3.62
920.521	0.62
921.253	1.62
921.985	0.62
922.718	1.62
923.45	2.62
924.182	-0.38
924.914	-0.38
925.646	2.62
926.378	-0.38
927.11	-0.38
927.841	3.62
928.573	-0.38
929.305	-0.38
930.036	1.62
930.768	1.62
931.499	-0.38
932.23	-0.38
932.962	2.62
933.693	0.62
934.424	-0.38
935.155	3.62
935.886	-0.38
936.617	-0.38
937.348	1.62
938.078	1.62
938.809	2.62
939.54	1.62
940.27	1.62
941.001	0.62
941.731	0.62
942.461	1.62
943.191	-0.38
943.922	0.62
944.652	0.62
945.382	3.62
946.112	0.62
946.841	-0.38
947.571	1.62
948.301	0.62
949.031	-0.38
949.76	3.62
950.49	-0.38
951.219	-1.38
951.948	0.62
952.678	1.62
953.407	1.62
954.136	0.62
954.865	0.62
955.594	-0.38
956.323	1.62
957.052	2.62
957.78	1.62
958.509	0.62
959.238	-2.38
959.966	1.62
960.695	0.62
961.423	3.62
962.151	-0.38
962.88	0.62
963.608	2.62
964.336	-2.38
965.064	1.62
965.792	0.62
966.52	1.62
967.247	1.62
967.975	2.62
968.703	1.62
969.43	2.62
970.158	-0.38
970.885	-2.38
971.613	-0.38
972.34	2.62
973.067	1.62
973.794	-0.38
974.521	1.62
975.248	0.62
975.975	0.62
976.702	0.62
977.429	1.62
978.156	1.62
978.882	-0.38
979.609	-0.38
980.335	3.62
981.062	3.62
981.788	-1.38
982.514	0.62
983.24	2.62
983.967	-0.38
984.693	-0.38
985.419	-0.38
986.144	-1.38
986.87	1.62
987.596	-0.38
988.322	-0.38
989.047	1.62
989.773	-0.38
990.498	1.62
991.224	2.62
991.949	1.62
992.674	1.62
993.399	-0.38
994.124	0.62
994.849	-1.38
995.574	0.62
996.299	1.62
997.024	-0.38
997.749	0.62
998.473	1.62
999.198	0.62
999.922	0.62
1000.647	0.62
1001.371	5.62
1002.095	0.62
1002.82	-2.38
1003.544	-1.38
1004.268	5.62
1004.992	4.62
1005.716	2.62
1006.439	6.62
1007.163	5.62
1007.887	8.62
1008.611	-0.38
1009.334	0.62
1010.058	1.62
1010.781	0.62
1011.504	1.62
1012.228	-0.38
1012.951	-1.38
1013.674	2.62
1014.397	-2.38
1015.12	-1.38
