节点500_705_QEPB04081__246__20-49-25-461.txt的数据

Date: Wed Nov 12 20:49:25 CST 2025
User: PC
Spectrometer: QEPB0408
触发模式: 0
积分时间 (秒): 1.000000E-2
Scans to average: 1
启用暗噪声校正: true
启用非线性校正: false
滑动平均宽度: 0
X轴模式: Wavelengths
Number of Pixels in Spectrum: 1044
>>>>>Begin Spectral Data<<<<<
220.843	5.5
221.644	4.5
222.444	5.5
223.244	4.5
224.045	7.5
224.845	8.5
225.645	7.5
226.445	4.5
227.245	6.5
228.045	7.5
228.845	6.5
229.645	7.5
230.444	8.5
231.244	6.5
232.043	7.5
232.843	8.5
233.642	11.5
234.442	8.5
235.241	8.5
236.04	10.5
236.839	8.5
237.638	9.5
238.437	10.5
239.236	10.5
240.035	10.5
240.833	9.5
241.632	13.5
242.43	10.5
243.229	13.5
244.027	11.5
244.826	13.5
245.624	12.5
246.422	14.5
247.22	15.5
248.018	15.5
248.816	14.5
249.614	12.5
250.412	17.5
251.21	14.5
252.007	17.5
252.805	17.5
253.602	19.5
254.4	19.5
255.197	19.5
255.994	17.5
256.791	23.5
257.589	20.5
258.386	21.5
259.183	22.5
259.979	22.5
260.776	20.5
261.573	26.5
262.37	23.5
263.166	26.5
263.963	25.5
264.759	24.5
265.556	28.5
266.352	26.5
267.148	29.5
267.944	27.5
268.74	29.5
269.536	29.5
270.332	30.5
271.128	30.5
271.924	31.5
272.719	31.5
273.515	35.5
274.311	34.5
275.106	32.5
275.901	37.5
276.697	34.5
277.492	33.5
278.287	34.5
279.082	35.5
279.877	36.5
280.672	34.5
281.467	37.5
282.262	35.5
283.056	32.5
283.851	36.5
284.646	32.5
285.44	31.5
286.234	31.5
287.029	34.5
287.823	33.5
288.617	34.5
289.411	30.5
290.205	29.5
290.999	33.5
291.793	28.5
292.587	30.5
293.381	30.5
294.174	28.5
294.968	30.5
295.761	27.5
296.555	26.5
297.348	27.5
298.141	26.5
298.935	27.5
299.728	24.5
300.521	26.5
301.314	23.5
302.107	23.5
302.899	24.5
303.692	22.5
304.485	23.5
305.277	23.5
306.07	21.5
306.862	21.5
307.655	20.5
308.447	18.5
309.239	22.5
310.031	24.5
310.823	17.5
311.615	20.5
312.407	17.5
313.199	19.5
313.991	17.5
314.783	16.5
315.574	17.5
316.366	15.5
317.157	15.5
317.949	15.5
318.74	13.5
319.531	14.5
320.322	13.5
321.113	14.5
321.904	12.5
322.695	10.5
323.486	14.5
324.277	11.5
325.068	13.5
325.858	11.5
326.649	13.5
327.439	11.5
328.23	11.5
329.02	12.5
329.81	11.5
330.6	13.5
331.391	12.5
332.181	13.5
332.971	12.5
333.76	12.5
334.55	13.5
335.34	10.5
336.13	13.5
336.919	10.5
337.709	9.5
338.498	12.5
339.287	9.5
340.077	11.5
340.866	12.5
341.655	10.5
342.444	10.5
343.233	11.5
344.022	10.5
344.811	12.5
345.6	12.5
346.388	10.5
347.177	11.5
347.965	14.5
348.754	8.5
349.542	9.5
350.33	10.5
351.119	10.5
351.907	10.5
352.695	8.5
353.483	9.5
354.271	10.5
355.059	10.5
355.846	10.5
356.634	10.5
357.422	9.5
358.209	9.5
358.997	10.5
359.784	11.5
360.571	10.5
361.359	11.5
362.146	9.5
362.933	10.5
363.72	11.5
364.507	11.5
365.294	9.5
366.081	10.5
366.867	8.5
367.654	9.5
368.44	9.5
369.227	7.5
370.013	12.5
370.8	9.5
371.586	8.5
372.372	10.5
373.158	8.5
373.944	8.5
374.73	9.5
375.516	10.5
376.302	11.5
377.088	8.5
377.873	10.5
378.659	8.5
379.445	8.5
380.23	9.5
381.015	9.5
381.801	10.5
382.586	8.5
383.371	9.5
384.156	10.5
384.941	12.5
385.726	10.5
386.511	8.5
387.296	12.5
388.08	11.5
388.865	12.5
389.649	10.5
390.434	9.5
391.218	10.5
392.003	9.5
392.787	10.5
393.571	12.5
394.355	10.5
395.139	14.5
395.923	12.5
396.707	14.5
397.491	10.5
398.274	14.5
399.058	12.5
399.842	11.5
400.625	13.5
401.408	13.5
402.192	14.5
402.975	14.5
403.758	14.5
404.541	14.5
405.324	14.5
406.107	12.5
406.89	12.5
407.673	16.5
408.456	13.5
409.238	14.5
410.021	16.5
410.803	17.5
411.586	17.5
412.368	17.5
413.151	18.5
413.933	18.5
414.715	16.5
415.497	19.5
416.279	18.5
417.061	19.5
417.843	18.5
418.624	19.5
419.406	23.5
420.188	18.5
420.969	18.5
421.751	21.5
422.532	21.5
423.313	23.5
424.095	22.5
424.876	25.5
425.657	25.5
426.438	26.5
427.219	29.5
428	27.5
428.78	27.5
429.561	26.5
430.342	28.5
431.122	29.5
431.903	29.5
432.683	37.5
433.464	38.5
434.244	36.5
435.024	41.5
435.804	43.5
436.584	41.5
437.364	46.5
438.144	45.5
438.924	53.5
439.704	51.5
440.483	53.5
441.263	58.5
442.042	62.5
442.822	68.5
443.601	73.5
444.38	76.5
445.16	87.5
445.939	90.5
446.718	100.5
447.497	112.5
448.276	121.5
449.054	134.5
449.833	141.5
450.612	155.5
451.391	174.5
452.169	191.5
452.948	215.5
453.726	232.5
454.504	260.5
455.282	288.5
456.061	323.5
456.839	352.5
457.617	390.5
458.395	442.5
459.172	494.5
459.95	564.5
460.728	614.5
461.506	689.5
462.283	756.5
463.061	856.5
463.838	953.5
464.615	1068.5
465.393	1197.5
466.17	1332.5
466.947	1490.5
467.724	1638.5
468.501	1847.5
469.278	2028.5
470.055	2249.5
470.831	2468.5
471.608	2730.5
472.385	3035.5
473.161	3344.5
473.938	3682.5
474.714	4055.5
475.49	4457.5
476.266	4878.5
477.043	5371.5
477.819	5869.5
478.595	6423.5
479.371	7039.5
480.146	7701.5
480.922	8431.5
481.698	9183.5
482.473	10051.5
483.249	10907.5
484.024	11894.5
484.8	12949.5
485.575	14005.5
486.35	15235.5
487.126	16602.5
487.901	17898.5
488.676	19373.5
489.451	20881.5
490.225	22495.5
491	24101.5
491.775	25788.5
492.55	27586.5
493.324	29464.5
494.099	31168.5
494.873	33128.5
495.647	34971.5
496.422	36885.5
497.196	38744.5
497.97	40324.5
498.744	41899.5
499.518	43514.5
500.292	44806.5
501.066	45822.5
501.839	46584.5
502.613	47291.5
503.387	47850.5
504.16	48205.5
504.934	48239.5
505.707	48074.5
506.48	47554.5
507.253	46928.5
508.027	46137.5
508.8	45050.5
509.573	43946.5
510.346	42838.5
511.118	41658.5
511.891	40256.5
512.664	38672.5
513.437	37145.5
514.209	35732.5
514.982	34316.5
515.754	32909.5
516.526	31496.5
517.298	30258.5
518.071	29040.5
518.843	27981.5
519.615	26708.5
520.387	25740.5
521.159	24645.5
521.93	23625.5
522.702	22621.5
523.474	21685.5
524.245	20724.5
525.017	19743.5
525.788	18928.5
526.56	18144.5
527.331	17355.5
528.102	16406.5
528.873	15606.5
529.644	14883.5
530.415	14191.5
531.186	13447.5
531.957	12748.5
532.728	12080.5
533.498	11420.5
534.269	10830.5
535.039	10254.5
535.81	9691.5
536.58	9152.5
537.351	8674.5
538.121	8198.5
538.891	7768.5
539.661	7328.5
540.431	6944.5
541.201	6578.5
541.971	6250.5
542.741	5929.5
543.51	5622.5
544.28	5345.5
545.05	5107.5
545.819	4862.5
546.588	4618.5
547.358	4405.5
548.127	4182.5
548.896	3958.5
549.665	3761.5
550.434	3550.5
551.203	3378.5
551.972	3193.5
552.741	3043.5
553.51	2860.5
554.278	2693.5
555.047	2546.5
555.815	2402.5
556.584	2294.5
557.352	2137.5
558.121	2018.5
558.889	1926.5
559.657	1808.5
560.425	1698.5
561.193	1619.5
561.961	1533.5
562.729	1447.5
563.496	1353.5
564.264	1299.5
565.032	1224.5
565.799	1160.5
566.567	1104.5
567.334	1037.5
568.101	985.5
568.869	935.5
569.636	872.5
570.403	820.5
571.17	786.5
571.937	740.5
572.704	697.5
573.471	656.5
574.237	607.5
575.004	588.5
575.771	543.5
576.537	518.5
577.303	495.5
578.07	466.5
578.836	436.5
579.602	415.5
580.368	393.5
581.134	364.5
581.9	352.5
582.666	330.5
583.432	315.5
584.198	301.5
584.964	288.5
585.729	270.5
586.495	259.5
587.26	242.5
588.025	235.5
588.791	224.5
589.556	207.5
590.321	203.5
591.086	187.5
591.851	179.5
592.616	174.5
593.381	161.5
594.146	153.5
594.911	146.5
595.675	144.5
596.44	133.5
597.204	129.5
597.969	124.5
598.733	120.5
599.497	114.5
600.261	109.5
601.025	106.5
601.79	100.5
602.553	96.5
603.317	89.5
604.081	91.5
604.845	85.5
605.609	81.5
606.372	79.5
607.136	81.5
607.899	71.5
608.662	71.5
609.426	65.5
610.189	65.5
610.952	62.5
611.715	59.5
612.478	58.5
613.241	59.5
614.004	53.5
614.767	51.5
615.529	52.5
616.292	49.5
617.055	49.5
617.817	45.5
618.579	43.5
619.342	41.5
620.104	38.5
620.866	42.5
621.628	36.5
622.39	42.5
623.152	34.5
623.914	37.5
624.676	35.5
625.438	33.5
626.199	35.5
626.961	32.5
627.722	31.5
628.484	29.5
629.245	27.5
630.006	25.5
630.768	25.5
631.529	26.5
632.29	24.5
633.051	24.5
633.812	24.5
634.573	27.5
635.333	24.5
636.094	23.5
636.855	22.5
637.615	23.5
638.376	22.5
639.136	23.5
639.896	18.5
640.657	20.5
641.417	16.5
642.177	17.5
642.937	18.5
643.697	16.5
644.457	14.5
645.216	14.5
645.976	15.5
646.736	13.5
647.495	14.5
648.255	11.5
649.014	14.5
649.774	15.5
650.533	14.5
651.292	12.5
652.051	13.5
652.81	11.5
653.569	12.5
654.328	13.5
655.087	12.5
655.846	11.5
656.604	12.5
657.363	12.5
658.121	11.5
658.88	13.5
659.638	8.5
660.397	9.5
661.155	8.5
661.913	10.5
662.671	9.5
663.429	8.5
664.187	10.5
664.945	11.5
665.703	10.5
666.46	10.5
667.218	8.5
667.976	9.5
668.733	7.5
669.49	8.5
670.248	9.5
671.005	10.5
671.762	9.5
672.519	10.5
673.276	7.5
674.033	6.5
674.79	7.5
675.547	9.5
676.304	6.5
677.06	10.5
677.817	7.5
678.574	8.5
679.33	7.5
680.086	6.5
680.843	6.5
681.599	9.5
682.355	8.5
683.111	8.5
683.867	8.5
684.623	7.5
685.379	9.5
686.135	6.5
686.89	8.5
687.646	6.5
688.402	7.5
689.157	7.5
689.912	7.5
690.668	7.5
691.423	8.5
692.178	8.5
692.933	9.5
693.688	6.5
694.443	5.5
695.198	8.5
695.953	6.5
696.708	7.5
697.462	9.5
698.217	4.5
698.972	9.5
699.726	7.5
700.48	7.5
701.235	8.5
701.989	6.5
702.743	8.5
703.497	7.5
704.251	7.5
705.005	5.5
705.759	10.5
706.513	8.5
707.266	5.5
708.02	6.5
708.774	4.5
709.527	6.5
710.28	8.5
711.034	5.5
711.787	6.5
712.54	8.5
713.293	6.5
714.046	7.5
714.799	7.5
715.552	7.5
716.305	5.5
717.058	9.5
717.81	6.5
718.563	6.5
719.315	9.5
720.068	6.5
720.82	8.5
721.573	8.5
722.325	7.5
723.077	7.5
723.829	10.5
724.581	8.5
725.333	8.5
726.085	7.5
726.836	7.5
727.588	10.5
728.34	8.5
729.091	6.5
729.843	9.5
730.594	7.5
731.346	10.5
732.097	6.5
732.848	8.5
733.599	9.5
734.35	8.5
735.101	8.5
735.852	9.5
736.603	10.5
737.354	9.5
738.104	11.5
738.855	9.5
739.605	11.5
740.356	9.5
741.106	9.5
741.856	13.5
742.607	8.5
743.357	9.5
744.107	8.5
744.857	11.5
745.607	11.5
746.357	12.5
747.106	10.5
747.856	9.5
748.606	8.5
749.355	9.5
750.105	8.5
750.854	14.5
751.603	11.5
752.353	8.5
753.102	9.5
753.851	10.5
754.6	11.5
755.349	13.5
756.098	11.5
756.847	10.5
757.595	11.5
758.344	15.5
759.093	11.5
759.841	12.5
760.589	11.5
761.338	13.5
762.086	12.5
762.834	8.5
763.582	14.5
764.331	12.5
765.079	14.5
765.826	12.5
766.574	13.5
767.322	16.5
768.07	12.5
768.817	16.5
769.565	13.5
770.312	14.5
771.06	13.5
771.807	14.5
772.554	15.5
773.302	16.5
774.049	13.5
774.796	13.5
775.543	14.5
776.29	14.5
777.036	15.5
777.783	14.5
778.53	14.5
779.276	17.5
780.023	15.5
780.769	14.5
781.516	14.5
782.262	12.5
783.008	16.5
783.754	18.5
784.5	18.5
785.246	16.5
785.992	17.5
786.738	16.5
787.484	11.5
788.23	18.5
788.975	15.5
789.721	11.5
790.466	15.5
791.212	14.5
791.957	14.5
792.702	14.5
793.447	14.5
794.193	13.5
794.938	13.5
795.683	11.5
796.427	10.5
797.172	10.5
797.917	11.5
798.662	13.5
799.406	13.5
800.151	11.5
800.895	13.5
801.64	14.5
802.384	9.5
803.128	12.5
803.872	12.5
804.616	12.5
805.36	10.5
806.104	10.5
806.848	9.5
807.592	9.5
808.336	8.5
809.079	7.5
809.823	10.5
810.566	10.5
811.31	8.5
812.053	7.5
812.796	7.5
813.539	9.5
814.283	9.5
815.026	9.5
815.769	8.5
816.511	7.5
817.254	5.5
817.997	7.5
818.74	9.5
819.482	5.5
820.225	6.5
820.967	8.5
821.71	4.5
822.452	7.5
823.194	7.5
823.936	9.5
824.678	1.5
825.42	5.5
826.162	6.5
826.904	3.5
827.646	7.5
828.388	5.5
829.129	5.5
829.871	6.5
830.612	6.5
831.354	7.5
832.095	6.5
832.836	4.5
833.577	6.5
834.319	4.5
835.06	6.5
835.801	3.5
836.542	6.5
837.282	5.5
838.023	4.5
838.764	5.5
839.504	4.5
840.245	3.5
840.985	5.5
841.726	5.5
842.466	4.5
843.206	2.5
843.946	3.5
844.687	2.5
845.427	6.5
846.166	4.5
846.906	6.5
847.646	3.5
848.386	4.5
849.125	3.5
849.865	4.5
850.605	6.5
851.344	5.5
852.083	5.5
852.823	2.5
853.562	2.5
854.301	4.5
855.04	-0.5
855.779	2.5
856.518	1.5
857.257	4.5
857.995	2.5
858.734	2.5
859.473	3.5
860.211	2.5
860.95	4.5
861.688	3.5
862.426	1.5
863.165	4.5
863.903	3.5
864.641	1.5
865.379	5.5
866.117	1.5
866.855	2.5
867.593	3.5
868.33	1.5
869.068	1.5
869.806	2.5
870.543	1.5
871.28	2.5
872.018	2.5
872.755	1.5
873.492	4.5
874.229	1.5
874.967	1.5
875.703	1.5
876.44	0.5
877.177	1.5
877.914	-1.5
878.651	0.5
879.387	2.5
880.124	0.5
880.86	1.5
881.597	1.5
882.333	-0.5
883.069	0.5
883.806	2.5
884.542	-1.5
885.278	2.5
886.014	0.5
886.749	-0.5
887.485	1.5
888.221	0.5
888.957	2.5
889.692	-0.5
890.428	2.5
891.163	1.5
891.899	1.5
892.634	1.5
893.369	0.5
894.104	2.5
894.839	-0.5
895.574	2.5
896.309	1.5
897.044	1.5
897.779	1.5
898.514	-1.5
899.248	0.5
899.983	0.5
900.717	0.5
901.452	2.5
902.186	1.5
902.92	2.5
903.654	1.5
904.389	0.5
905.123	1.5
905.857	-1.5
906.59	1.5
907.324	1.5
908.058	1.5
908.792	-1.5
909.525	-1.5
910.259	0.5
910.992	0.5
911.726	-0.5
912.459	0.5
913.192	0.5
913.925	2.5
914.658	0.5
915.391	0.5
916.124	-2.5
916.857	-1.5
917.59	2.5
918.323	-2.5
919.055	0.5
919.788	1.5
920.521	1.5
921.253	0.5
921.985	0.5
922.718	-1.5
923.45	-1.5
924.182	1.5
924.914	0.5
925.646	1.5
926.378	0.5
927.11	-1.5
927.841	0.5
928.573	-0.5
929.305	0.5
930.036	-0.5
930.768	0.5
931.499	1.5
932.23	0.5
932.962	-1.5
933.693	-1.5
934.424	-0.5
935.155	-0.5
935.886	-1.5
936.617	0.5
937.348	-2.5
938.078	-0.5
938.809	0.5
939.54	0.5
940.27	-1.5
941.001	0.5
941.731	0.5
942.461	-1.5
943.191	-0.5
943.922	-0.5
944.652	-1.5
945.382	-0.5
946.112	-0.5
946.841	-0.5
947.571	-0.5
948.301	-0.5
949.031	-0.5
949.76	-1.5
950.49	-0.5
951.219	0.5
951.948	0.5
952.678	-1.5
953.407	0.5
954.136	0.5
954.865	-2.5
955.594	-0.5
956.323	-1.5
957.052	-0.5
957.78	1.5
958.509	-0.5
959.238	0.5
959.966	-1.5
960.695	1.5
961.423	-2.5
962.151	0.5
962.88	2.5
963.608	-3.5
964.336	0.5
965.064	-3.5
965.792	-2.5
966.52	-1.5
967.247	-0.5
967.975	-0.5
968.703	-1.5
969.43	0.5
970.158	-2.5
970.885	0.5
971.613	-0.5
972.34	0.5
973.067	-0.5
973.794	0.5
974.521	2.5
975.248	0.5
975.975	1.5
976.702	1.5
977.429	0.5
978.156	0.5
978.882	-1.5
979.609	-1.5
980.335	-1.5
981.062	-1.5
981.788	0.5
982.514	1.5
983.24	0.5
983.967	0.5
984.693	0.5
985.419	0.5
986.144	-1.5
986.87	0.5
987.596	0.5
988.322	-1.5
989.047	-1.5
989.773	1.5
990.498	0.5
991.224	-1.5
991.949	1.5
992.674	-1.5
993.399	-0.5
994.124	-0.5
994.849	-1.5
995.574	-0.5
996.299	-0.5
997.024	1.5
997.749	0.5
998.473	0.5
999.198	-1.5
999.922	0.5
1000.647	1.5
1001.371	4.5
1002.095	-0.5
1002.82	-1.5
1003.544	-1.5
1004.268	3.5
1004.992	4.5
1005.716	5.5
1006.439	3.5
1007.163	6.5
1007.887	4.5
1008.611	-0.5
1009.334	-1.5
1010.058	-1.5
1010.781	-1.5
1011.504	-0.5
1012.228	-0.5
1012.951	1.5
1013.674	-1.5
1014.397	-0.5
1015.12	-0.5
