节点500_705_QEPB04081__441__20-52-10-719.txt的数据

Date: Wed Nov 12 20:52:10 CST 2025
User: PC
Spectrometer: QEPB0408
触发模式: 0
积分时间 (秒): 1.000000E-2
Scans to average: 1
启用暗噪声校正: true
启用非线性校正: false
滑动平均宽度: 0
X轴模式: Wavelengths
Number of Pixels in Spectrum: 1044
>>>>>Begin Spectral Data<<<<<
220.843	7
221.644	6
222.444	6
223.244	6
224.045	4
224.845	7
225.645	7
226.445	6
227.245	8
228.045	6
228.845	7
229.645	6
230.444	10
231.244	7
232.043	9
232.843	10
233.642	9
234.442	11
235.241	9
236.04	10
236.839	9
237.638	11
238.437	13
239.236	14
240.035	11
240.833	11
241.632	9
242.43	11
243.229	11
244.027	13
244.826	14
245.624	12
246.422	14
247.22	14
248.018	16
248.816	15
249.614	16
250.412	17
251.21	13
252.007	13
252.805	16
253.602	16
254.4	17
255.197	18
255.994	20
256.791	16
257.589	19
258.386	20
259.183	22
259.979	22
260.776	23
261.573	23
262.37	24
263.166	23
263.963	24
264.759	22
265.556	26
266.352	24
267.148	26
267.944	28
268.74	27
269.536	27
270.332	29
271.128	29
271.924	32
272.719	31
273.515	31
274.311	30
275.106	30
275.901	34
276.697	32
277.492	37
278.287	34
279.082	31
279.877	34
280.672	30
281.467	33
282.262	31
283.056	35
283.851	33
284.646	31
285.44	35
286.234	33
287.029	35
287.823	33
288.617	30
289.411	31
290.205	32
290.999	31
291.793	33
292.587	32
293.381	30
294.174	30
294.968	29
295.761	29
296.555	27
297.348	29
298.141	26
298.935	29
299.728	27
300.521	25
301.314	24
302.107	22
302.899	24
303.692	26
304.485	26
305.277	24
306.07	26
306.862	22
307.655	21
308.447	21
309.239	19
310.031	17
310.823	19
311.615	18
312.407	19
313.199	19
313.991	18
314.783	18
315.574	14
316.366	16
317.157	14
317.949	20
318.74	12
319.531	15
320.322	12
321.113	13
321.904	13
322.695	12
323.486	11
324.277	13
325.068	14
325.858	13
326.649	16
327.439	12
328.23	12
329.02	13
329.81	14
330.6	11
331.391	14
332.181	11
332.971	11
333.76	12
334.55	11
335.34	13
336.13	11
336.919	12
337.709	14
338.498	13
339.287	13
340.077	10
340.866	12
341.655	12
342.444	12
343.233	13
344.022	12
344.811	11
345.6	12
346.388	10
347.177	10
347.965	12
348.754	11
349.542	10
350.33	11
351.119	10
351.907	10
352.695	11
353.483	11
354.271	11
355.059	9
355.846	13
356.634	10
357.422	10
358.209	10
358.997	10
359.784	10
360.571	8
361.359	12
362.146	9
362.933	12
363.72	11
364.507	7
365.294	10
366.081	9
366.867	10
367.654	10
368.44	8
369.227	10
370.013	9
370.8	10
371.586	10
372.372	8
373.158	10
373.944	11
374.73	9
375.516	10
376.302	10
377.088	8
377.873	9
378.659	7
379.445	9
380.23	11
381.015	10
381.801	10
382.586	9
383.371	11
384.156	9
384.941	9
385.726	12
386.511	13
387.296	11
388.08	10
388.865	11
389.649	11
390.434	11
391.218	13
392.003	12
392.787	14
393.571	11
394.355	11
395.139	12
395.923	10
396.707	13
397.491	11
398.274	12
399.058	14
399.842	12
400.625	14
401.408	12
402.192	13
402.975	15
403.758	12
404.541	13
405.324	14
406.107	15
406.89	16
407.673	15
408.456	15
409.238	16
410.021	17
410.803	15
411.586	16
412.368	19
413.151	17
413.933	16
414.715	17
415.497	21
416.279	19
417.061	20
417.843	20
418.624	18
419.406	19
420.188	21
420.969	22
421.751	21
422.532	21
423.313	22
424.095	26
424.876	25
425.657	27
426.438	24
427.219	29
428	27
428.78	30
429.561	31
430.342	32
431.122	31
431.903	30
432.683	32
433.464	37
434.244	38
435.024	38
435.804	40
436.584	43
437.364	46
438.144	49
438.924	50
439.704	53
440.483	57
441.263	62
442.042	65
442.822	70
443.601	75
444.38	78
445.16	88
445.939	99
446.718	106
447.497	114
448.276	127
449.054	137
449.833	153
450.612	163
451.391	183
452.169	202
452.948	228
453.726	245
454.504	277
455.282	303
456.061	343
456.839	382
457.617	427
458.395	464
459.172	521
459.95	593
460.728	650
461.506	724
462.283	801
463.061	893
463.838	1008
464.615	1112
465.393	1227
466.17	1375
466.947	1527
467.724	1686
468.501	1854
469.278	2084
470.055	2271
470.831	2511
471.608	2762
472.385	3041
473.161	3346
473.938	3650
474.714	4034
475.49	4410
476.266	4803
477.043	5259
477.819	5713
478.595	6248
479.371	6800
480.146	7385
480.922	8026
481.698	8765
482.473	9487
483.249	10300
484.024	11191
484.8	12102
485.575	13065
486.35	14176
487.126	15303
487.901	16470
488.676	17828
489.451	19121
490.225	20551
491	22025
491.775	23534
492.55	25146
493.324	26801
494.099	28423
494.873	30176
495.647	31844
496.422	33514
497.196	35293
497.97	36893
498.744	38399
499.518	40022
500.292	41341
501.066	42327
501.839	43288
502.613	44061
503.387	44854
504.16	45406
504.934	45621
505.707	45737
506.48	45557
507.253	45156
508.027	44693
508.8	43950
509.573	43031
510.346	42093
511.118	41160
511.891	40014
512.664	38605
513.437	37160
514.209	35910
514.982	34694
515.754	33240
516.526	31969
517.298	30603
518.071	29487
518.843	28330
519.615	27175
520.387	26105
521.159	25068
521.93	24043
522.702	23025
523.474	22111
524.245	21187
525.017	20287
525.788	19468
526.56	18664
527.331	17867
528.102	16963
528.873	16118
529.644	15401
530.415	14715
531.186	13973
531.957	13269
532.728	12590
533.498	11969
534.269	11308
535.039	10742
535.81	10160
536.58	9565
537.351	9103
538.121	8598
538.891	8158
539.661	7661
540.431	7309
541.201	6972
541.971	6541
542.741	6216
543.51	5886
544.28	5635
545.05	5331
545.819	5133
546.588	4850
547.358	4634
548.127	4386
548.896	4194
549.665	3971
550.434	3760
551.203	3586
551.972	3373
552.741	3212
553.51	3014
554.278	2863
555.047	2689
555.815	2549
556.584	2425
557.352	2281
558.121	2162
558.889	2040
559.657	1936
560.425	1836
561.193	1748
561.961	1657
562.729	1545
563.496	1469
564.264	1375
565.032	1309
565.799	1237
566.567	1174
567.334	1097
568.101	1052
568.869	991
569.636	932
570.403	887
571.17	826
571.937	797
572.704	741
573.471	700
574.237	656
575.004	619
575.771	586
576.537	552
577.303	515
578.07	493
578.836	467
579.602	438
580.368	409
581.134	400
581.9	382
582.666	360
583.432	342
584.198	328
584.964	312
585.729	294
586.495	278
587.26	260
588.025	244
588.791	232
589.556	222
590.321	213
591.086	205
591.851	190
592.616	182
593.381	172
594.146	158
594.911	163
595.675	151
596.44	146
597.204	138
597.969	131
598.733	125
599.497	123
600.261	115
601.025	110
601.79	108
602.553	105
603.317	97
604.081	96
604.845	93
605.609	85
606.372	85
607.136	81
607.899	75
608.662	69
609.426	71
610.189	69
610.952	66
611.715	65
612.478	63
613.241	59
614.004	58
614.767	55
615.529	55
616.292	51
617.055	47
617.817	49
618.579	42
619.342	46
620.104	43
620.866	42
621.628	41
622.39	39
623.152	39
623.914	35
624.676	36
625.438	35
626.199	33
626.961	32
627.722	34
628.484	32
629.245	32
630.006	29
630.768	28
631.529	26
632.29	28
633.051	24
633.812	24
634.573	23
635.333	24
636.094	23
636.855	22
637.615	23
638.376	18
639.136	20
639.896	18
640.657	19
641.417	18
642.177	19
642.937	19
643.697	19
644.457	18
645.216	18
645.976	17
646.736	17
647.495	14
648.255	18
649.014	15
649.774	16
650.533	19
651.292	14
652.051	13
652.81	16
653.569	15
654.328	15
655.087	14
655.846	11
656.604	13
657.363	13
658.121	12
658.88	14
659.638	10
660.397	15
661.155	12
661.913	11
662.671	12
663.429	13
664.187	9
664.945	7
665.703	10
666.46	9
667.218	10
667.976	11
668.733	11
669.49	11
670.248	12
671.005	9
671.762	9
672.519	7
673.276	11
674.033	11
674.79	8
675.547	9
676.304	7
677.06	11
677.817	9
678.574	10
679.33	9
680.086	10
680.843	9
681.599	9
682.355	10
683.111	10
683.867	9
684.623	11
685.379	6
686.135	8
686.89	6
687.646	5
688.402	8
689.157	7
689.912	9
690.668	9
691.423	9
692.178	7
692.933	9
693.688	9
694.443	6
695.198	6
695.953	8
696.708	8
697.462	8
698.217	8
698.972	7
699.726	8
700.48	8
701.235	7
701.989	7
702.743	8
703.497	8
704.251	6
705.005	8
705.759	9
706.513	7
707.266	8
708.02	7
708.774	7
709.527	6
710.28	5
711.034	8
711.787	8
712.54	6
713.293	9
714.046	9
714.799	8
715.552	7
716.305	8
717.058	7
717.81	10
718.563	8
719.315	9
720.068	7
720.82	8
721.573	8
722.325	8
723.077	7
723.829	8
724.581	9
725.333	10
726.085	10
726.836	8
727.588	9
728.34	8
729.091	9
729.843	9
730.594	8
731.346	11
732.097	6
732.848	10
733.599	8
734.35	8
735.101	9
735.852	7
736.603	9
737.354	10
738.104	9
738.855	9
739.605	9
740.356	11
741.106	12
741.856	11
742.607	10
743.357	9
744.107	14
744.857	8
745.607	9
746.357	11
747.106	9
747.856	12
748.606	9
749.355	10
750.105	10
750.854	12
751.603	10
752.353	11
753.102	12
753.851	11
754.6	11
755.349	9
756.098	13
756.847	13
757.595	11
758.344	15
759.093	14
759.841	10
760.589	12
761.338	11
762.086	13
762.834	11
763.582	12
764.331	13
765.079	14
765.826	15
766.574	14
767.322	13
768.07	15
768.817	13
769.565	14
770.312	14
771.06	14
771.807	15
772.554	14
773.302	15
774.049	13
774.796	14
775.543	15
776.29	15
777.036	13
777.783	15
778.53	14
779.276	15
780.023	15
780.769	15
781.516	17
782.262	14
783.008	15
783.754	15
784.5	15
785.246	14
785.992	15
786.738	18
787.484	15
788.23	18
788.975	12
789.721	15
790.466	15
791.212	13
791.957	14
792.702	14
793.447	14
794.193	17
794.938	13
795.683	14
796.427	11
797.172	12
797.917	12
798.662	12
799.406	13
800.151	11
800.895	13
801.64	12
802.384	12
803.128	11
803.872	10
804.616	12
805.36	10
806.104	11
806.848	11
807.592	12
808.336	10
809.079	11
809.823	10
810.566	10
811.31	10
812.053	10
812.796	9
813.539	11
814.283	5
815.026	9
815.769	9
816.511	7
817.254	6
817.997	9
818.74	6
819.482	10
820.225	8
820.967	8
821.71	7
822.452	6
823.194	4
823.936	8
824.678	6
825.42	8
826.162	7
826.904	7
827.646	7
828.388	7
829.129	9
829.871	6
830.612	6
831.354	4
832.095	5
832.836	9
833.577	6
834.319	6
835.06	6
835.801	6
836.542	8
837.282	6
838.023	5
838.764	7
839.504	5
840.245	6
840.985	5
841.726	5
842.466	5
843.206	6
843.946	6
844.687	5
845.427	6
846.166	5
846.906	6
847.646	3
848.386	5
849.125	4
849.865	3
850.605	4
851.344	3
852.083	7
852.823	3
853.562	7
854.301	8
855.04	4
855.779	6
856.518	5
857.257	4
857.995	5
858.734	5
859.473	5
860.211	3
860.95	8
861.688	3
862.426	4
863.165	4
863.903	4
864.641	3
865.379	3
866.117	4
866.855	4
867.593	2
868.33	3
869.068	4
869.806	2
870.543	2
871.28	2
872.018	2
872.755	3
873.492	4
874.229	1
874.967	1
875.703	4
876.44	1
877.177	2
877.914	-1
878.651	3
879.387	1
880.124	3
880.86	-1
881.597	3
882.333	2
883.069	2
883.806	2
884.542	1
885.278	3
886.014	0
886.749	1
887.485	2
888.221	2
888.957	1
889.692	1
890.428	2
891.163	5
891.899	1
892.634	1
893.369	-1
894.104	1
894.839	2
895.574	-1
896.309	3
897.044	2
897.779	2
898.514	2
899.248	0
899.983	2
900.717	-1
901.452	-1
902.186	2
902.92	0
903.654	1
904.389	1
905.123	3
905.857	1
906.59	2
907.324	0
908.058	3
908.792	0
909.525	-1
910.259	2
910.992	2
911.726	2
912.459	1
913.192	-2
913.925	1
914.658	-1
915.391	-1
916.124	-1
916.857	2
917.59	2
918.323	2
919.055	3
919.788	1
920.521	1
921.253	1
921.985	0
922.718	0
923.45	0
924.182	0
924.914	-1
925.646	2
926.378	0
927.11	2
927.841	2
928.573	2
929.305	-1
930.036	3
930.768	3
931.499	-1
932.23	2
932.962	0
933.693	1
934.424	0
935.155	2
935.886	2
936.617	1
937.348	1
938.078	2
938.809	1
939.54	1
940.27	1
941.001	0
941.731	-1
942.461	-1
943.191	3
943.922	1
944.652	1
945.382	1
946.112	-1
946.841	1
947.571	0
948.301	-1
949.031	0
949.76	-3
950.49	1
951.219	-1
951.948	2
952.678	-2
953.407	0
954.136	0
954.865	2
955.594	-1
956.323	1
957.052	3
957.78	-2
958.509	-1
959.238	3
959.966	0
960.695	3
961.423	1
962.151	3
962.88	1
963.608	-2
964.336	-2
965.064	-1
965.792	-1
966.52	-1
967.247	1
967.975	0
968.703	-2
969.43	2
970.158	-1
970.885	-1
971.613	0
972.34	-1
973.067	-1
973.794	1
974.521	0
975.248	0
975.975	0
976.702	-1
977.429	0
978.156	2
978.882	-1
979.609	3
980.335	-1
981.062	1
981.788	0
982.514	1
983.24	3
983.967	1
984.693	-1
985.419	-2
986.144	0
986.87	1
987.596	0
988.322	-1
989.047	1
989.773	1
990.498	-3
991.224	1
991.949	1
992.674	1
993.399	1
994.124	3
994.849	-1
995.574	0
996.299	-2
997.024	0
997.749	0
998.473	1
999.198	-1
999.922	2
1000.647	1
1001.371	3
1002.095	-1
1002.82	-2
1003.544	-2
1004.268	4
1004.992	4
1005.716	3
1006.439	3
1007.163	5
1007.887	5
1008.611	1
1009.334	1
1010.058	2
1010.781	0
1011.504	1
1012.228	0
1012.951	2
1013.674	0
1014.397	1
1015.12	-1
