节点500_705_QEPB04081__409__20-51-44-674.txt的数据

Date: Wed Nov 12 20:51:44 CST 2025
User: PC
Spectrometer: QEPB0408
触发模式: 0
积分时间 (秒): 1.000000E-2
Scans to average: 1
启用暗噪声校正: true
启用非线性校正: false
滑动平均宽度: 0
X轴模式: Wavelengths
Number of Pixels in Spectrum: 1044
>>>>>Begin Spectral Data<<<<<
220.843	7.88
221.644	5.88
222.444	5.88
223.244	6.88
224.045	6.88
224.845	4.88
225.645	7.88
226.445	7.88
227.245	6.88
228.045	7.88
228.845	6.88
229.645	7.88
230.444	6.88
231.244	8.88
232.043	8.88
232.843	9.88
233.642	7.88
234.442	8.88
235.241	10.88
236.04	9.88
236.839	10.88
237.638	11.88
238.437	12.88
239.236	8.88
240.035	12.88
240.833	11.88
241.632	9.88
242.43	14.88
243.229	12.88
244.027	12.88
244.826	11.88
245.624	12.88
246.422	13.88
247.22	13.88
248.018	14.88
248.816	13.88
249.614	15.88
250.412	14.88
251.21	12.88
252.007	15.88
252.805	16.88
253.602	17.88
254.4	18.88
255.197	17.88
255.994	19.88
256.791	18.88
257.589	18.88
258.386	17.88
259.183	22.88
259.979	20.88
260.776	25.88
261.573	24.88
262.37	22.88
263.166	24.88
263.963	23.88
264.759	24.88
265.556	26.88
266.352	23.88
267.148	26.88
267.944	25.88
268.74	27.88
269.536	30.88
270.332	29.88
271.128	33.88
271.924	30.88
272.719	30.88
273.515	32.88
274.311	30.88
275.106	31.88
275.901	30.88
276.697	29.88
277.492	32.88
278.287	31.88
279.082	33.88
279.877	31.88
280.672	33.88
281.467	33.88
282.262	32.88
283.056	33.88
283.851	32.88
284.646	34.88
285.44	35.88
286.234	29.88
287.029	29.88
287.823	30.88
288.617	30.88
289.411	28.88
290.205	32.88
290.999	30.88
291.793	33.88
292.587	31.88
293.381	29.88
294.174	29.88
294.968	29.88
295.761	26.88
296.555	27.88
297.348	25.88
298.141	27.88
298.935	27.88
299.728	26.88
300.521	24.88
301.314	22.88
302.107	23.88
302.899	24.88
303.692	21.88
304.485	21.88
305.277	20.88
306.07	23.88
306.862	21.88
307.655	20.88
308.447	20.88
309.239	18.88
310.031	19.88
310.823	18.88
311.615	18.88
312.407	21.88
313.199	17.88
313.991	17.88
314.783	17.88
315.574	16.88
316.366	14.88
317.157	17.88
317.949	16.88
318.74	15.88
319.531	16.88
320.322	13.88
321.113	13.88
321.904	13.88
322.695	12.88
323.486	11.88
324.277	11.88
325.068	13.88
325.858	12.88
326.649	13.88
327.439	11.88
328.23	12.88
329.02	12.88
329.81	13.88
330.6	10.88
331.391	12.88
332.181	11.88
332.971	13.88
333.76	10.88
334.55	11.88
335.34	11.88
336.13	10.88
336.919	10.88
337.709	12.88
338.498	12.88
339.287	11.88
340.077	10.88
340.866	11.88
341.655	12.88
342.444	13.88
343.233	10.88
344.022	10.88
344.811	9.88
345.6	9.88
346.388	9.88
347.177	10.88
347.965	12.88
348.754	12.88
349.542	9.88
350.33	11.88
351.119	9.88
351.907	9.88
352.695	10.88
353.483	8.88
354.271	9.88
355.059	8.88
355.846	7.88
356.634	10.88
357.422	9.88
358.209	9.88
358.997	8.88
359.784	11.88
360.571	8.88
361.359	9.88
362.146	9.88
362.933	8.88
363.72	10.88
364.507	6.88
365.294	9.88
366.081	7.88
366.867	10.88
367.654	9.88
368.44	8.88
369.227	12.88
370.013	7.88
370.8	10.88
371.586	9.88
372.372	9.88
373.158	8.88
373.944	7.88
374.73	8.88
375.516	7.88
376.302	11.88
377.088	9.88
377.873	7.88
378.659	10.88
379.445	8.88
380.23	7.88
381.015	10.88
381.801	9.88
382.586	9.88
383.371	6.88
384.156	8.88
384.941	10.88
385.726	12.88
386.511	10.88
387.296	9.88
388.08	10.88
388.865	8.88
389.649	10.88
390.434	9.88
391.218	10.88
392.003	10.88
392.787	10.88
393.571	11.88
394.355	7.88
395.139	10.88
395.923	8.88
396.707	8.88
397.491	10.88
398.274	10.88
399.058	12.88
399.842	12.88
400.625	13.88
401.408	13.88
402.192	12.88
402.975	16.88
403.758	12.88
404.541	16.88
405.324	13.88
406.107	12.88
406.89	14.88
407.673	14.88
408.456	18.88
409.238	16.88
410.021	18.88
410.803	15.88
411.586	17.88
412.368	15.88
413.151	17.88
413.933	14.88
414.715	17.88
415.497	16.88
416.279	20.88
417.061	17.88
417.843	18.88
418.624	18.88
419.406	22.88
420.188	22.88
420.969	19.88
421.751	22.88
422.532	21.88
423.313	21.88
424.095	23.88
424.876	24.88
425.657	23.88
426.438	24.88
427.219	25.88
428	26.88
428.78	26.88
429.561	27.88
430.342	30.88
431.122	30.88
431.903	35.88
432.683	35.88
433.464	36.88
434.244	34.88
435.024	38.88
435.804	40.88
436.584	44.88
437.364	43.88
438.144	49.88
438.924	46.88
439.704	55.88
440.483	55.88
441.263	60.88
442.042	62.88
442.822	68.88
443.601	72.88
444.38	80.88
445.16	89.88
445.939	94.88
446.718	101.88
447.497	110.88
448.276	123.88
449.054	140.88
449.833	151.88
450.612	166.88
451.391	184.88
452.169	201.88
452.948	224.88
453.726	248.88
454.504	277.88
455.282	310.88
456.061	341.88
456.839	378.88
457.617	418.88
458.395	467.88
459.172	519.88
459.95	580.88
460.728	661.88
461.506	734.88
462.283	808.88
463.061	886.88
463.838	989.88
464.615	1120.88
465.393	1230.88
466.17	1372.88
466.947	1525.88
467.724	1704.88
468.501	1879.88
469.278	2082.88
470.055	2298.88
470.831	2530.88
471.608	2787.88
472.385	3070.88
473.161	3375.88
473.938	3701.88
474.714	4064.88
475.49	4442.88
476.266	4855.88
477.043	5345.88
477.819	5801.88
478.595	6316.88
479.371	6883.88
480.146	7544.88
480.922	8182.88
481.698	8908.88
482.473	9673.88
483.249	10541.88
484.024	11441.88
484.8	12321.88
485.575	13394.88
486.35	14478.88
487.126	15718.88
487.901	16952.88
488.676	18209.88
489.451	19674.88
490.225	21078.88
491	22594.88
491.775	24114.88
492.55	25793.88
493.324	27521.88
494.099	29174.88
494.873	31002.88
495.647	32676.88
496.422	34466.88
497.196	36187.88
497.97	37861.88
498.744	39314.88
499.518	40977.88
500.292	42277.88
501.066	43354.88
501.839	44362.88
502.613	45143.88
503.387	45905.88
504.16	46340.88
504.934	46462.88
505.707	46622.88
506.48	46361.88
507.253	45871.88
508.027	45390.88
508.8	44543.88
509.573	43558.88
510.346	42661.88
511.118	41564.88
511.891	40381.88
512.664	38959.88
513.437	37659.88
514.209	36247.88
514.982	34879.88
515.754	33490.88
516.526	32193.88
517.298	30856.88
518.071	29675.88
518.843	28535.88
519.615	27324.88
520.387	26216.88
521.159	25215.88
521.93	24214.88
522.702	23181.88
523.474	22207.88
524.245	21277.88
525.017	20391.88
525.788	19557.88
526.56	18724.88
527.331	17923.88
528.102	17018.88
528.873	16210.88
529.644	15408.88
530.415	14694.88
531.186	14003.88
531.957	13259.88
532.728	12569.88
533.498	11934.88
534.269	11315.88
535.039	10704.88
535.81	10135.88
536.58	9600.88
537.351	9078.88
538.121	8598.88
538.891	8118.88
539.661	7714.88
540.431	7278.88
541.201	6898.88
541.971	6547.88
542.741	6217.88
543.51	5884.88
544.28	5628.88
545.05	5330.88
545.819	5099.88
546.588	4849.88
547.358	4615.88
548.127	4385.88
548.896	4190.88
549.665	3967.88
550.434	3776.88
551.203	3550.88
551.972	3391.88
552.741	3201.88
553.51	3031.88
554.278	2842.88
555.047	2690.88
555.815	2549.88
556.584	2408.88
557.352	2281.88
558.121	2160.88
558.889	2030.88
559.657	1913.88
560.425	1820.88
561.193	1720.88
561.961	1634.88
562.729	1541.88
563.496	1463.88
564.264	1367.88
565.032	1312.88
565.799	1237.88
566.567	1167.88
567.334	1115.88
568.101	1046.88
568.869	985.88
569.636	928.88
570.403	878.88
571.17	833.88
571.937	781.88
572.704	738.88
573.471	691.88
574.237	653.88
575.004	629.88
575.771	582.88
576.537	544.88
577.303	517.88
578.07	499.88
578.836	463.88
579.602	439.88
580.368	412.88
581.134	403.88
581.9	370.88
582.666	359.88
583.432	339.88
584.198	325.88
584.964	304.88
585.729	292.88
586.495	277.88
587.26	260.88
588.025	243.88
588.791	235.88
589.556	220.88
590.321	210.88
591.086	203.88
591.851	193.88
592.616	179.88
593.381	173.88
594.146	163.88
594.911	154.88
595.675	154.88
596.44	144.88
597.204	140.88
597.969	125.88
598.733	129.88
599.497	123.88
600.261	110.88
601.025	105.88
601.79	103.88
602.553	98.88
603.317	101.88
604.081	92.88
604.845	87.88
605.609	86.88
606.372	82.88
607.136	75.88
607.899	74.88
608.662	73.88
609.426	70.88
610.189	69.88
610.952	66.88
611.715	60.88
612.478	62.88
613.241	56.88
614.004	57.88
614.767	53.88
615.529	51.88
616.292	52.88
617.055	44.88
617.817	48.88
618.579	46.88
619.342	43.88
620.104	42.88
620.866	40.88
621.628	39.88
622.39	37.88
623.152	38.88
623.914	37.88
624.676	33.88
625.438	34.88
626.199	30.88
626.961	33.88
627.722	33.88
628.484	28.88
629.245	25.88
630.006	26.88
630.768	27.88
631.529	26.88
632.29	25.88
633.051	21.88
633.812	23.88
634.573	25.88
635.333	25.88
636.094	23.88
636.855	17.88
637.615	19.88
638.376	22.88
639.136	18.88
639.896	17.88
640.657	18.88
641.417	19.88
642.177	18.88
642.937	19.88
643.697	17.88
644.457	17.88
645.216	16.88
645.976	13.88
646.736	16.88
647.495	13.88
648.255	16.88
649.014	15.88
649.774	13.88
650.533	14.88
651.292	14.88
652.051	14.88
652.81	13.88
653.569	10.88
654.328	12.88
655.087	14.88
655.846	12.88
656.604	10.88
657.363	13.88
658.121	14.88
658.88	8.88
659.638	12.88
660.397	10.88
661.155	12.88
661.913	9.88
662.671	9.88
663.429	13.88
664.187	10.88
664.945	11.88
665.703	8.88
666.46	9.88
667.218	10.88
667.976	9.88
668.733	9.88
669.49	9.88
670.248	8.88
671.005	9.88
671.762	8.88
672.519	7.88
673.276	7.88
674.033	6.88
674.79	7.88
675.547	7.88
676.304	7.88
677.06	6.88
677.817	9.88
678.574	8.88
679.33	8.88
680.086	7.88
680.843	8.88
681.599	5.88
682.355	7.88
683.111	8.88
683.867	7.88
684.623	6.88
685.379	8.88
686.135	7.88
686.89	7.88
687.646	7.88
688.402	9.88
689.157	6.88
689.912	4.88
690.668	7.88
691.423	5.88
692.178	7.88
692.933	7.88
693.688	4.88
694.443	10.88
695.198	5.88
695.953	6.88
696.708	4.88
697.462	4.88
698.217	8.88
698.972	6.88
699.726	7.88
700.48	5.88
701.235	8.88
701.989	5.88
702.743	6.88
703.497	5.88
704.251	7.88
705.005	9.88
705.759	6.88
706.513	6.88
707.266	7.88
708.02	7.88
708.774	5.88
709.527	8.88
710.28	7.88
711.034	10.88
711.787	8.88
712.54	6.88
713.293	7.88
714.046	8.88
714.799	8.88
715.552	5.88
716.305	7.88
717.058	8.88
717.81	8.88
718.563	8.88
719.315	6.88
720.068	8.88
720.82	6.88
721.573	7.88
722.325	5.88
723.077	10.88
723.829	5.88
724.581	9.88
725.333	4.88
726.085	8.88
726.836	10.88
727.588	7.88
728.34	7.88
729.091	6.88
729.843	8.88
730.594	7.88
731.346	9.88
732.097	6.88
732.848	7.88
733.599	8.88
734.35	10.88
735.101	8.88
735.852	9.88
736.603	7.88
737.354	6.88
738.104	9.88
738.855	8.88
739.605	10.88
740.356	10.88
741.106	12.88
741.856	8.88
742.607	11.88
743.357	8.88
744.107	9.88
744.857	10.88
745.607	6.88
746.357	8.88
747.106	7.88
747.856	12.88
748.606	9.88
749.355	9.88
750.105	9.88
750.854	9.88
751.603	11.88
752.353	9.88
753.102	11.88
753.851	10.88
754.6	11.88
755.349	10.88
756.098	12.88
756.847	12.88
757.595	7.88
758.344	11.88
759.093	11.88
759.841	11.88
760.589	12.88
761.338	12.88
762.086	12.88
762.834	11.88
763.582	9.88
764.331	12.88
765.079	11.88
765.826	10.88
766.574	12.88
767.322	13.88
768.07	13.88
768.817	12.88
769.565	12.88
770.312	13.88
771.06	13.88
771.807	14.88
772.554	15.88
773.302	14.88
774.049	12.88
774.796	15.88
775.543	12.88
776.29	16.88
777.036	14.88
777.783	17.88
778.53	16.88
779.276	13.88
780.023	12.88
780.769	14.88
781.516	16.88
782.262	12.88
783.008	10.88
783.754	16.88
784.5	16.88
785.246	14.88
785.992	14.88
786.738	15.88
787.484	15.88
788.23	13.88
788.975	12.88
789.721	14.88
790.466	13.88
791.212	14.88
791.957	15.88
792.702	14.88
793.447	14.88
794.193	14.88
794.938	14.88
795.683	13.88
796.427	15.88
797.172	13.88
797.917	14.88
798.662	13.88
799.406	12.88
800.151	13.88
800.895	10.88
801.64	13.88
802.384	10.88
803.128	7.88
803.872	10.88
804.616	12.88
805.36	10.88
806.104	8.88
806.848	9.88
807.592	9.88
808.336	9.88
809.079	8.88
809.823	9.88
810.566	11.88
811.31	9.88
812.053	7.88
812.796	10.88
813.539	11.88
814.283	8.88
815.026	8.88
815.769	8.88
816.511	4.88
817.254	9.88
817.997	7.88
818.74	8.88
819.482	6.88
820.225	9.88
820.967	7.88
821.71	7.88
822.452	7.88
823.194	7.88
823.936	5.88
824.678	7.88
825.42	6.88
826.162	7.88
826.904	6.88
827.646	8.88
828.388	8.88
829.129	8.88
829.871	5.88
830.612	5.88
831.354	4.88
832.095	3.88
832.836	4.88
833.577	6.88
834.319	4.88
835.06	6.88
835.801	4.88
836.542	5.88
837.282	5.88
838.023	3.88
838.764	7.88
839.504	2.88
840.245	6.88
840.985	5.88
841.726	6.88
842.466	5.88
843.206	5.88
843.946	3.88
844.687	7.88
845.427	6.88
846.166	6.88
846.906	3.88
847.646	7.88
848.386	4.88
849.125	5.88
849.865	6.88
850.605	3.88
851.344	3.88
852.083	4.88
852.823	5.88
853.562	4.88
854.301	6.88
855.04	4.88
855.779	0.88
856.518	1.88
857.257	3.88
857.995	4.88
858.734	2.88
859.473	4.88
860.211	4.88
860.95	1.88
861.688	3.88
862.426	2.88
863.165	3.88
863.903	3.88
864.641	1.88
865.379	2.88
866.117	3.88
866.855	4.88
867.593	4.88
868.33	3.88
869.068	2.88
869.806	3.88
870.543	2.88
871.28	0.88
872.018	-0.12
872.755	1.88
873.492	0.88
874.229	0.88
874.967	0.88
875.703	0.88
876.44	-1.12
877.177	0.88
877.914	2.88
878.651	1.88
879.387	1.88
880.124	0.88
880.86	1.88
881.597	2.88
882.333	0.88
883.069	0.88
883.806	-0.12
884.542	0.88
885.278	0.88
886.014	2.88
886.749	1.88
887.485	1.88
888.221	0.88
888.957	0.88
889.692	2.88
890.428	-1.12
891.163	1.88
891.899	-1.12
892.634	-0.12
893.369	0.88
894.104	2.88
894.839	0.88
895.574	2.88
896.309	0.88
897.044	1.88
897.779	2.88
898.514	0.88
899.248	-0.12
899.983	1.88
900.717	0.88
901.452	0.88
902.186	0.88
902.92	0.88
903.654	-1.12
904.389	0.88
905.123	0.88
905.857	-0.12
906.59	-2.12
907.324	-0.12
908.058	0.88
908.792	2.88
909.525	1.88
910.259	-1.12
910.992	0.88
911.726	-0.12
912.459	2.88
913.192	1.88
913.925	-0.12
914.658	-1.12
915.391	1.88
916.124	0.88
916.857	-2.12
917.59	1.88
918.323	-0.12
919.055	0.88
919.788	2.88
920.521	-0.12
921.253	0.88
921.985	1.88
922.718	2.88
923.45	-0.12
924.182	-0.12
924.914	-0.12
925.646	0.88
926.378	2.88
927.11	0.88
927.841	0.88
928.573	1.88
929.305	1.88
930.036	-0.12
930.768	-0.12
931.499	0.88
932.23	0.88
932.962	0.88
933.693	2.88
934.424	-0.12
935.155	0.88
935.886	-1.12
936.617	-0.12
937.348	1.88
938.078	-0.12
938.809	-0.12
939.54	0.88
940.27	2.88
941.001	-1.12
941.731	0.88
942.461	0.88
943.191	0.88
943.922	-0.12
944.652	-2.12
945.382	-0.12
946.112	-2.12
946.841	1.88
947.571	-0.12
948.301	-0.12
949.031	1.88
949.76	-0.12
950.49	0.88
951.219	-1.12
951.948	-0.12
952.678	0.88
953.407	-1.12
954.136	-1.12
954.865	-2.12
955.594	-0.12
956.323	-1.12
957.052	0.88
957.78	2.88
958.509	-2.12
959.238	0.88
959.966	0.88
960.695	-1.12
961.423	1.88
962.151	-0.12
962.88	2.88
963.608	0.88
964.336	-0.12
965.064	-0.12
965.792	-0.12
966.52	0.88
967.247	-1.12
967.975	0.88
968.703	0.88
969.43	-2.12
970.158	2.88
970.885	1.88
971.613	2.88
972.34	1.88
973.067	-0.12
973.794	-0.12
974.521	0.88
975.248	1.88
975.975	-2.12
976.702	-0.12
977.429	-0.12
978.156	-2.12
978.882	1.88
979.609	-0.12
980.335	-0.12
981.062	-1.12
981.788	0.88
982.514	-1.12
983.24	-3.12
983.967	-0.12
984.693	-0.12
985.419	-1.12
986.144	-0.12
986.87	0.88
987.596	1.88
988.322	-0.12
989.047	1.88
989.773	2.88
990.498	0.88
991.224	-1.12
991.949	0.88
992.674	0.88
993.399	0.88
994.124	-2.12
994.849	2.88
995.574	-1.12
996.299	1.88
997.024	-0.12
997.749	-1.12
998.473	1.88
999.198	0.88
999.922	-1.12
1000.647	-0.12
1001.371	0.88
1002.095	-2.12
1002.82	-1.12
1003.544	-1.12
1004.268	5.88
1004.992	3.88
1005.716	6.88
1006.439	4.88
1007.163	2.88
1007.887	5.88
1008.611	-0.12
1009.334	-1.12
1010.058	-0.12
1010.781	0.88
1011.504	0.88
1012.228	0.88
1012.951	0.88
1013.674	0.88
1014.397	0.88
1015.12	0.88
