节点500_705_QEPB04081__693__20-55-48-788.txt的数据

Date: Wed Nov 12 20:55:48 CST 2025
User: PC
Spectrometer: QEPB0408
触发模式: 0
积分时间 (秒): 1.000000E-2
Scans to average: 1
启用暗噪声校正: true
启用非线性校正: false
滑动平均宽度: 0
X轴模式: Wavelengths
Number of Pixels in Spectrum: 1044
>>>>>Begin Spectral Data<<<<<
220.843	5.62
221.644	6.62
222.444	3.62
223.244	4.62
224.045	8.62
224.845	6.62
225.645	8.62
226.445	7.62
227.245	6.62
228.045	6.62
228.845	5.62
229.645	5.62
230.444	7.62
231.244	7.62
232.043	11.62
232.843	7.62
233.642	11.62
234.442	10.62
235.241	12.62
236.04	10.62
236.839	10.62
237.638	9.62
238.437	8.62
239.236	12.62
240.035	9.62
240.833	12.62
241.632	10.62
242.43	11.62
243.229	9.62
244.027	12.62
244.826	11.62
245.624	12.62
246.422	14.62
247.22	11.62
248.018	11.62
248.816	13.62
249.614	12.62
250.412	17.62
251.21	15.62
252.007	15.62
252.805	15.62
253.602	16.62
254.4	17.62
255.197	15.62
255.994	19.62
256.791	19.62
257.589	18.62
258.386	22.62
259.183	16.62
259.979	23.62
260.776	18.62
261.573	19.62
262.37	23.62
263.166	21.62
263.963	24.62
264.759	23.62
265.556	21.62
266.352	23.62
267.148	25.62
267.944	27.62
268.74	24.62
269.536	27.62
270.332	27.62
271.128	26.62
271.924	30.62
272.719	28.62
273.515	30.62
274.311	27.62
275.106	29.62
275.901	31.62
276.697	28.62
277.492	31.62
278.287	27.62
279.082	31.62
279.877	30.62
280.672	33.62
281.467	26.62
282.262	31.62
283.056	33.62
283.851	32.62
284.646	32.62
285.44	31.62
286.234	31.62
287.029	28.62
287.823	32.62
288.617	31.62
289.411	28.62
290.205	30.62
290.999	31.62
291.793	30.62
292.587	30.62
293.381	27.62
294.174	27.62
294.968	27.62
295.761	27.62
296.555	27.62
297.348	26.62
298.141	28.62
298.935	26.62
299.728	26.62
300.521	21.62
301.314	25.62
302.107	20.62
302.899	21.62
303.692	22.62
304.485	24.62
305.277	23.62
306.07	23.62
306.862	21.62
307.655	21.62
308.447	16.62
309.239	21.62
310.031	23.62
310.823	19.62
311.615	18.62
312.407	16.62
313.199	18.62
313.991	17.62
314.783	18.62
315.574	16.62
316.366	15.62
317.157	16.62
317.949	15.62
318.74	16.62
319.531	14.62
320.322	14.62
321.113	16.62
321.904	15.62
322.695	14.62
323.486	14.62
324.277	13.62
325.068	13.62
325.858	13.62
326.649	12.62
327.439	13.62
328.23	11.62
329.02	15.62
329.81	13.62
330.6	13.62
331.391	12.62
332.181	11.62
332.971	11.62
333.76	12.62
334.55	12.62
335.34	12.62
336.13	14.62
336.919	12.62
337.709	12.62
338.498	10.62
339.287	9.62
340.077	11.62
340.866	11.62
341.655	15.62
342.444	11.62
343.233	11.62
344.022	13.62
344.811	11.62
345.6	13.62
346.388	11.62
347.177	11.62
347.965	12.62
348.754	9.62
349.542	13.62
350.33	14.62
351.119	11.62
351.907	8.62
352.695	9.62
353.483	8.62
354.271	10.62
355.059	11.62
355.846	10.62
356.634	11.62
357.422	9.62
358.209	12.62
358.997	11.62
359.784	12.62
360.571	9.62
361.359	11.62
362.146	8.62
362.933	7.62
363.72	9.62
364.507	12.62
365.294	10.62
366.081	10.62
366.867	8.62
367.654	10.62
368.44	7.62
369.227	10.62
370.013	11.62
370.8	7.62
371.586	8.62
372.372	9.62
373.158	8.62
373.944	7.62
374.73	9.62
375.516	9.62
376.302	6.62
377.088	10.62
377.873	9.62
378.659	8.62
379.445	10.62
380.23	7.62
381.015	8.62
381.801	10.62
382.586	11.62
383.371	10.62
384.156	11.62
384.941	7.62
385.726	9.62
386.511	11.62
387.296	11.62
388.08	9.62
388.865	9.62
389.649	10.62
390.434	11.62
391.218	10.62
392.003	10.62
392.787	10.62
393.571	11.62
394.355	12.62
395.139	9.62
395.923	11.62
396.707	12.62
397.491	13.62
398.274	12.62
399.058	11.62
399.842	15.62
400.625	15.62
401.408	13.62
402.192	14.62
402.975	15.62
403.758	15.62
404.541	14.62
405.324	14.62
406.107	13.62
406.89	19.62
407.673	14.62
408.456	17.62
409.238	15.62
410.021	15.62
410.803	17.62
411.586	17.62
412.368	15.62
413.151	15.62
413.933	18.62
414.715	17.62
415.497	15.62
416.279	18.62
417.061	17.62
417.843	17.62
418.624	17.62
419.406	19.62
420.188	21.62
420.969	19.62
421.751	24.62
422.532	23.62
423.313	20.62
424.095	19.62
424.876	23.62
425.657	24.62
426.438	23.62
427.219	25.62
428	26.62
428.78	26.62
429.561	27.62
430.342	29.62
431.122	31.62
431.903	34.62
432.683	31.62
433.464	36.62
434.244	39.62
435.024	40.62
435.804	38.62
436.584	44.62
437.364	45.62
438.144	51.62
438.924	50.62
439.704	56.62
440.483	60.62
441.263	67.62
442.042	70.62
442.822	73.62
443.601	76.62
444.38	88.62
445.16	94.62
445.939	103.62
446.718	110.62
447.497	118.62
448.276	134.62
449.054	143.62
449.833	161.62
450.612	172.62
451.391	193.62
452.169	211.62
452.948	236.62
453.726	262.62
454.504	289.62
455.282	327.62
456.061	363.62
456.839	389.62
457.617	444.62
458.395	497.62
459.172	549.62
459.95	614.62
460.728	674.62
461.506	753.62
462.283	841.62
463.061	940.62
463.838	1022.62
464.615	1140.62
465.393	1265.62
466.17	1386.62
466.947	1554.62
467.724	1713.62
468.501	1893.62
469.278	2060.62
470.055	2283.62
470.831	2501.62
471.608	2760.62
472.385	3037.62
473.161	3308.62
473.938	3620.62
474.714	3944.62
475.49	4316.62
476.266	4736.62
477.043	5141.62
477.819	5579.62
478.595	6050.62
479.371	6523.62
480.146	7129.62
480.922	7725.62
481.698	8372.62
482.473	9052.62
483.249	9773.62
484.024	10565.62
484.8	11434.62
485.575	12309.62
486.35	13254.62
487.126	14317.62
487.901	15373.62
488.676	16526.62
489.451	17790.62
490.225	19006.62
491	20379.62
491.775	21708.62
492.55	23168.62
493.324	24621.62
494.099	26157.62
494.873	27777.62
495.647	29288.62
496.422	30855.62
497.196	32447.62
497.97	33959.62
498.744	35499.62
499.518	36932.62
500.292	38266.62
501.066	39299.62
501.839	40386.62
502.613	41265.62
503.387	42069.62
504.16	42735.62
504.934	43207.62
505.707	43482.62
506.48	43471.62
507.253	43339.62
508.027	42991.62
508.8	42427.62
509.573	41874.62
510.346	41144.62
511.118	40375.62
511.891	39471.62
512.664	38195.62
513.437	36964.62
514.209	35768.62
514.982	34584.62
515.754	33292.62
516.526	32095.62
517.298	30860.62
518.071	29708.62
518.843	28613.62
519.615	27393.62
520.387	26321.62
521.159	25364.62
521.93	24286.62
522.702	23358.62
523.474	22357.62
524.245	21438.62
525.017	20639.62
525.788	19792.62
526.56	18950.62
527.331	18204.62
528.102	17351.62
528.873	16384.62
529.644	15722.62
530.415	15025.62
531.186	14335.62
531.957	13643.62
532.728	12934.62
533.498	12280.62
534.269	11673.62
535.039	11121.62
535.81	10491.62
536.58	9941.62
537.351	9397.62
538.121	8939.62
538.891	8459.62
539.661	7995.62
540.431	7551.62
541.201	7202.62
541.971	6823.62
542.741	6453.62
543.51	6121.62
544.28	5826.62
545.05	5539.62
545.819	5294.62
546.588	5061.62
547.358	4809.62
548.127	4547.62
548.896	4343.62
549.665	4143.62
550.434	3929.62
551.203	3705.62
551.972	3545.62
552.741	3352.62
553.51	3166.62
554.278	3001.62
555.047	2825.62
555.815	2662.62
556.584	2531.62
557.352	2382.62
558.121	2265.62
558.889	2141.62
559.657	2021.62
560.425	1921.62
561.193	1823.62
561.961	1723.62
562.729	1624.62
563.496	1555.62
564.264	1475.62
565.032	1376.62
565.799	1309.62
566.567	1233.62
567.334	1167.62
568.101	1103.62
568.869	1020.62
569.636	978.62
570.403	923.62
571.17	875.62
571.937	836.62
572.704	782.62
573.471	739.62
574.237	691.62
575.004	664.62
575.771	613.62
576.537	580.62
577.303	544.62
578.07	521.62
578.836	486.62
579.602	451.62
580.368	441.62
581.134	431.62
581.9	398.62
582.666	387.62
583.432	365.62
584.198	340.62
584.964	329.62
585.729	314.62
586.495	294.62
587.26	276.62
588.025	263.62
588.791	244.62
589.556	232.62
590.321	220.62
591.086	212.62
591.851	202.62
592.616	187.62
593.381	180.62
594.146	177.62
594.911	162.62
595.675	157.62
596.44	155.62
597.204	149.62
597.969	138.62
598.733	131.62
599.497	128.62
600.261	125.62
601.025	111.62
601.79	112.62
602.553	103.62
603.317	105.62
604.081	96.62
604.845	96.62
605.609	93.62
606.372	89.62
607.136	80.62
607.899	78.62
608.662	77.62
609.426	75.62
610.189	68.62
610.952	70.62
611.715	69.62
612.478	63.62
613.241	62.62
614.004	58.62
614.767	57.62
615.529	57.62
616.292	53.62
617.055	52.62
617.817	51.62
618.579	45.62
619.342	44.62
620.104	45.62
620.866	45.62
621.628	40.62
622.39	41.62
623.152	39.62
623.914	40.62
624.676	38.62
625.438	38.62
626.199	33.62
626.961	32.62
627.722	33.62
628.484	31.62
629.245	28.62
630.006	28.62
630.768	30.62
631.529	26.62
632.29	28.62
633.051	24.62
633.812	25.62
634.573	24.62
635.333	26.62
636.094	23.62
636.855	25.62
637.615	22.62
638.376	22.62
639.136	19.62
639.896	19.62
640.657	19.62
641.417	19.62
642.177	19.62
642.937	21.62
643.697	19.62
644.457	19.62
645.216	16.62
645.976	16.62
646.736	16.62
647.495	16.62
648.255	17.62
649.014	15.62
649.774	15.62
650.533	13.62
651.292	13.62
652.051	15.62
652.81	13.62
653.569	14.62
654.328	12.62
655.087	12.62
655.846	13.62
656.604	13.62
657.363	14.62
658.121	11.62
658.88	12.62
659.638	10.62
660.397	10.62
661.155	9.62
661.913	11.62
662.671	11.62
663.429	9.62
664.187	12.62
664.945	11.62
665.703	11.62
666.46	10.62
667.218	11.62
667.976	10.62
668.733	11.62
669.49	8.62
670.248	10.62
671.005	9.62
671.762	8.62
672.519	8.62
673.276	11.62
674.033	9.62
674.79	9.62
675.547	9.62
676.304	7.62
677.06	11.62
677.817	9.62
678.574	6.62
679.33	10.62
680.086	7.62
680.843	8.62
681.599	9.62
682.355	8.62
683.111	7.62
683.867	6.62
684.623	8.62
685.379	6.62
686.135	10.62
686.89	5.62
687.646	5.62
688.402	10.62
689.157	7.62
689.912	9.62
690.668	8.62
691.423	7.62
692.178	7.62
692.933	8.62
693.688	9.62
694.443	6.62
695.198	9.62
695.953	7.62
696.708	8.62
697.462	8.62
698.217	7.62
698.972	7.62
699.726	7.62
700.48	8.62
701.235	7.62
701.989	7.62
702.743	9.62
703.497	8.62
704.251	7.62
705.005	6.62
705.759	8.62
706.513	8.62
707.266	7.62
708.02	7.62
708.774	6.62
709.527	5.62
710.28	8.62
711.034	7.62
711.787	6.62
712.54	7.62
713.293	5.62
714.046	6.62
714.799	8.62
715.552	9.62
716.305	8.62
717.058	6.62
717.81	6.62
718.563	7.62
719.315	7.62
720.068	9.62
720.82	8.62
721.573	7.62
722.325	9.62
723.077	8.62
723.829	7.62
724.581	6.62
725.333	6.62
726.085	7.62
726.836	7.62
727.588	8.62
728.34	7.62
729.091	9.62
729.843	9.62
730.594	8.62
731.346	9.62
732.097	7.62
732.848	9.62
733.599	8.62
734.35	8.62
735.101	10.62
735.852	7.62
736.603	8.62
737.354	8.62
738.104	8.62
738.855	9.62
739.605	10.62
740.356	10.62
741.106	7.62
741.856	9.62
742.607	8.62
743.357	12.62
744.107	9.62
744.857	9.62
745.607	9.62
746.357	11.62
747.106	11.62
747.856	12.62
748.606	12.62
749.355	10.62
750.105	9.62
750.854	10.62
751.603	9.62
752.353	12.62
753.102	10.62
753.851	10.62
754.6	11.62
755.349	9.62
756.098	11.62
756.847	9.62
757.595	11.62
758.344	9.62
759.093	11.62
759.841	11.62
760.589	10.62
761.338	11.62
762.086	10.62
762.834	13.62
763.582	12.62
764.331	12.62
765.079	13.62
765.826	10.62
766.574	13.62
767.322	11.62
768.07	16.62
768.817	14.62
769.565	11.62
770.312	14.62
771.06	15.62
771.807	12.62
772.554	13.62
773.302	11.62
774.049	14.62
774.796	11.62
775.543	15.62
776.29	13.62
777.036	16.62
777.783	15.62
778.53	14.62
779.276	15.62
780.023	14.62
780.769	15.62
781.516	13.62
782.262	15.62
783.008	14.62
783.754	13.62
784.5	15.62
785.246	13.62
785.992	12.62
786.738	15.62
787.484	13.62
788.23	12.62
788.975	17.62
789.721	15.62
790.466	14.62
791.212	13.62
791.957	14.62
792.702	13.62
793.447	14.62
794.193	15.62
794.938	14.62
795.683	13.62
796.427	13.62
797.172	11.62
797.917	13.62
798.662	13.62
799.406	12.62
800.151	13.62
800.895	11.62
801.64	9.62
802.384	11.62
803.128	11.62
803.872	11.62
804.616	9.62
805.36	12.62
806.104	11.62
806.848	11.62
807.592	10.62
808.336	10.62
809.079	9.62
809.823	10.62
810.566	10.62
811.31	9.62
812.053	10.62
812.796	8.62
813.539	10.62
814.283	9.62
815.026	9.62
815.769	7.62
816.511	9.62
817.254	9.62
817.997	8.62
818.74	6.62
819.482	9.62
820.225	8.62
820.967	7.62
821.71	7.62
822.452	6.62
823.194	6.62
823.936	7.62
824.678	8.62
825.42	8.62
826.162	5.62
826.904	6.62
827.646	8.62
828.388	6.62
829.129	5.62
829.871	5.62
830.612	6.62
831.354	7.62
832.095	4.62
832.836	4.62
833.577	6.62
834.319	6.62
835.06	8.62
835.801	5.62
836.542	6.62
837.282	6.62
838.023	6.62
838.764	5.62
839.504	6.62
840.245	5.62
840.985	7.62
841.726	5.62
842.466	7.62
843.206	4.62
843.946	4.62
844.687	5.62
845.427	5.62
846.166	5.62
846.906	6.62
847.646	6.62
848.386	3.62
849.125	1.62
849.865	8.62
850.605	3.62
851.344	6.62
852.083	3.62
852.823	4.62
853.562	5.62
854.301	6.62
855.04	5.62
855.779	6.62
856.518	5.62
857.257	5.62
857.995	3.62
858.734	5.62
859.473	4.62
860.211	3.62
860.95	6.62
861.688	1.62
862.426	4.62
863.165	3.62
863.903	3.62
864.641	3.62
865.379	2.62
866.117	3.62
866.855	5.62
867.593	4.62
868.33	4.62
869.068	3.62
869.806	3.62
870.543	1.62
871.28	3.62
872.018	3.62
872.755	2.62
873.492	0.62
874.229	5.62
874.967	1.62
875.703	4.62
876.44	3.62
877.177	3.62
877.914	3.62
878.651	2.62
879.387	3.62
880.124	3.62
880.86	1.62
881.597	2.62
882.333	-0.38
883.069	3.62
883.806	1.62
884.542	3.62
885.278	3.62
886.014	1.62
886.749	1.62
887.485	2.62
888.221	2.62
888.957	0.62
889.692	2.62
890.428	1.62
891.163	-0.38
891.899	2.62
892.634	1.62
893.369	1.62
894.104	1.62
894.839	2.62
895.574	2.62
896.309	-0.38
897.044	2.62
897.779	1.62
898.514	2.62
899.248	1.62
899.983	1.62
900.717	1.62
901.452	1.62
902.186	0.62
902.92	2.62
903.654	2.62
904.389	2.62
905.123	1.62
905.857	1.62
906.59	2.62
907.324	-0.38
908.058	1.62
908.792	2.62
909.525	0.62
910.259	-0.38
910.992	0.62
911.726	2.62
912.459	-0.38
913.192	-1.38
913.925	0.62
914.658	2.62
915.391	-2.38
916.124	2.62
916.857	1.62
917.59	1.62
918.323	-0.38
919.055	1.62
919.788	2.62
920.521	1.62
921.253	2.62
921.985	1.62
922.718	0.62
923.45	1.62
924.182	0.62
924.914	-0.38
925.646	1.62
926.378	-0.38
927.11	2.62
927.841	1.62
928.573	2.62
929.305	0.62
930.036	1.62
930.768	2.62
931.499	-0.38
932.23	1.62
932.962	0.62
933.693	2.62
934.424	0.62
935.155	0.62
935.886	3.62
936.617	0.62
937.348	-2.38
938.078	1.62
938.809	0.62
939.54	1.62
940.27	1.62
941.001	-0.38
941.731	-1.38
942.461	-0.38
943.191	0.62
943.922	1.62
944.652	0.62
945.382	2.62
946.112	-1.38
946.841	-0.38
947.571	3.62
948.301	0.62
949.031	-0.38
949.76	2.62
950.49	0.62
951.219	1.62
951.948	1.62
952.678	1.62
953.407	1.62
954.136	0.62
954.865	1.62
955.594	-0.38
956.323	0.62
957.052	-0.38
957.78	0.62
958.509	1.62
959.238	0.62
959.966	0.62
960.695	1.62
961.423	-0.38
962.151	3.62
962.88	0.62
963.608	-0.38
964.336	1.62
965.064	1.62
965.792	-0.38
966.52	1.62
967.247	-0.38
967.975	1.62
968.703	0.62
969.43	0.62
970.158	3.62
970.885	0.62
971.613	1.62
972.34	-1.38
973.067	0.62
973.794	0.62
974.521	1.62
975.248	0.62
975.975	-1.38
976.702	-0.38
977.429	1.62
978.156	-1.38
978.882	3.62
979.609	2.62
980.335	0.62
981.062	-0.38
981.788	-0.38
982.514	2.62
983.24	1.62
983.967	1.62
984.693	0.62
985.419	0.62
986.144	0.62
986.87	0.62
987.596	1.62
988.322	0.62
989.047	0.62
989.773	-0.38
990.498	1.62
991.224	0.62
991.949	0.62
992.674	-1.38
993.399	-0.38
994.124	2.62
994.849	-1.38
995.574	-2.38
996.299	-0.38
997.024	1.62
997.749	1.62
998.473	0.62
999.198	2.62
999.922	2.62
1000.647	-0.38
1001.371	5.62
1002.095	-2.38
1002.82	-0.38
1003.544	-2.38
1004.268	3.62
1004.992	4.62
1005.716	2.62
1006.439	5.62
1007.163	5.62
1007.887	6.62
1008.611	3.62
1009.334	-0.38
1010.058	2.62
1010.781	1.62
1011.504	-2.38
1012.228	2.62
1012.951	-1.38
1013.674	0.62
1014.397	-1.38
1015.12	1.62
