节点500_705_QEPB04081__4__20-45-57-377.txt的数据

Date: Wed Nov 12 20:45:57 CST 2025
User: PC
Spectrometer: QEPB0408
触发模式: 0
积分时间 (秒): 1.000000E-2
Scans to average: 1
启用暗噪声校正: true
启用非线性校正: false
滑动平均宽度: 0
X轴模式: Wavelengths
Number of Pixels in Spectrum: 1044
>>>>>Begin Spectral Data<<<<<
220.843	4.75
221.644	3.75
222.444	4.75
223.244	3.75
224.045	4.75
224.845	5.75
225.645	8.75
226.445	6.75
227.245	4.75
228.045	7.75
228.845	7.75
229.645	7.75
230.444	8.75
231.244	6.75
232.043	10.75
232.843	8.75
233.642	8.75
234.442	8.75
235.241	8.75
236.04	9.75
236.839	9.75
237.638	10.75
238.437	13.75
239.236	10.75
240.035	11.75
240.833	11.75
241.632	12.75
242.43	11.75
243.229	14.75
244.027	15.75
244.826	12.75
245.624	13.75
246.422	16.75
247.22	13.75
248.018	14.75
248.816	14.75
249.614	20.75
250.412	13.75
251.21	15.75
252.007	14.75
252.805	19.75
253.602	21.75
254.4	19.75
255.197	20.75
255.994	21.75
256.791	20.75
257.589	23.75
258.386	21.75
259.183	21.75
259.979	21.75
260.776	20.75
261.573	23.75
262.37	24.75
263.166	25.75
263.963	25.75
264.759	27.75
265.556	27.75
266.352	28.75
267.148	30.75
267.944	29.75
268.74	32.75
269.536	33.75
270.332	30.75
271.128	33.75
271.924	32.75
272.719	34.75
273.515	35.75
274.311	34.75
275.106	35.75
275.901	37.75
276.697	35.75
277.492	36.75
278.287	33.75
279.082	33.75
279.877	36.75
280.672	38.75
281.467	38.75
282.262	35.75
283.056	38.75
283.851	34.75
284.646	33.75
285.44	33.75
286.234	35.75
287.029	36.75
287.823	34.75
288.617	37.75
289.411	33.75
290.205	32.75
290.999	33.75
291.793	32.75
292.587	29.75
293.381	29.75
294.174	29.75
294.968	30.75
295.761	28.75
296.555	27.75
297.348	26.75
298.141	26.75
298.935	28.75
299.728	24.75
300.521	22.75
301.314	23.75
302.107	24.75
302.899	23.75
303.692	21.75
304.485	21.75
305.277	19.75
306.07	20.75
306.862	22.75
307.655	24.75
308.447	20.75
309.239	19.75
310.031	17.75
310.823	16.75
311.615	15.75
312.407	15.75
313.199	15.75
313.991	16.75
314.783	13.75
315.574	15.75
316.366	15.75
317.157	14.75
317.949	14.75
318.74	12.75
319.531	15.75
320.322	12.75
321.113	11.75
321.904	12.75
322.695	15.75
323.486	13.75
324.277	13.75
325.068	9.75
325.858	8.75
326.649	10.75
327.439	12.75
328.23	12.75
329.02	12.75
329.81	7.75
330.6	11.75
331.391	9.75
332.181	12.75
332.971	9.75
333.76	12.75
334.55	12.75
335.34	9.75
336.13	11.75
336.919	12.75
337.709	10.75
338.498	12.75
339.287	11.75
340.077	11.75
340.866	12.75
341.655	11.75
342.444	13.75
343.233	9.75
344.022	8.75
344.811	9.75
345.6	11.75
346.388	8.75
347.177	12.75
347.965	12.75
348.754	9.75
349.542	9.75
350.33	11.75
351.119	8.75
351.907	11.75
352.695	9.75
353.483	11.75
354.271	10.75
355.059	8.75
355.846	10.75
356.634	9.75
357.422	9.75
358.209	7.75
358.997	8.75
359.784	9.75
360.571	11.75
361.359	7.75
362.146	8.75
362.933	10.75
363.72	9.75
364.507	8.75
365.294	9.75
366.081	7.75
366.867	9.75
367.654	9.75
368.44	7.75
369.227	7.75
370.013	9.75
370.8	7.75
371.586	9.75
372.372	9.75
373.158	6.75
373.944	11.75
374.73	7.75
375.516	10.75
376.302	8.75
377.088	10.75
377.873	11.75
378.659	9.75
379.445	9.75
380.23	10.75
381.015	12.75
381.801	10.75
382.586	10.75
383.371	12.75
384.156	6.75
384.941	12.75
385.726	9.75
386.511	9.75
387.296	11.75
388.08	10.75
388.865	10.75
389.649	10.75
390.434	11.75
391.218	9.75
392.003	11.75
392.787	10.75
393.571	11.75
394.355	10.75
395.139	15.75
395.923	12.75
396.707	12.75
397.491	12.75
398.274	12.75
399.058	13.75
399.842	13.75
400.625	13.75
401.408	12.75
402.192	14.75
402.975	15.75
403.758	17.75
404.541	13.75
405.324	14.75
406.107	13.75
406.89	14.75
407.673	16.75
408.456	15.75
409.238	15.75
410.021	16.75
410.803	14.75
411.586	19.75
412.368	17.75
413.151	15.75
413.933	14.75
414.715	17.75
415.497	16.75
416.279	18.75
417.061	18.75
417.843	20.75
418.624	20.75
419.406	15.75
420.188	19.75
420.969	21.75
421.751	22.75
422.532	24.75
423.313	21.75
424.095	23.75
424.876	25.75
425.657	24.75
426.438	25.75
427.219	27.75
428	26.75
428.78	28.75
429.561	29.75
430.342	29.75
431.122	29.75
431.903	33.75
432.683	34.75
433.464	32.75
434.244	36.75
435.024	39.75
435.804	38.75
436.584	41.75
437.364	45.75
438.144	44.75
438.924	48.75
439.704	50.75
440.483	58.75
441.263	58.75
442.042	61.75
442.822	64.75
443.601	68.75
444.38	74.75
445.16	83.75
445.939	89.75
446.718	93.75
447.497	103.75
448.276	113.75
449.054	121.75
449.833	133.75
450.612	149.75
451.391	163.75
452.169	175.75
452.948	194.75
453.726	221.75
454.504	246.75
455.282	269.75
456.061	296.75
456.839	336.75
457.617	374.75
458.395	416.75
459.172	475.75
459.95	520.75
460.728	589.75
461.506	662.75
462.283	732.75
463.061	819.75
463.838	915.75
464.615	1033.75
465.393	1148.75
466.17	1279.75
466.947	1431.75
467.724	1600.75
468.501	1777.75
469.278	1988.75
470.055	2230.75
470.831	2478.75
471.608	2738.75
472.385	3046.75
473.161	3383.75
473.938	3748.75
474.714	4117.75
475.49	4572.75
476.266	5046.75
477.043	5548.75
477.819	6118.75
478.595	6727.75
479.371	7398.75
480.146	8136.75
480.922	8914.75
481.698	9808.75
482.473	10758.75
483.249	11810.75
484.024	12866.75
484.8	14120.75
485.575	15360.75
486.35	16740.75
487.126	18210.75
487.901	19759.75
488.676	21387.75
489.451	23276.75
490.225	25020.75
491	26971.75
491.775	28935.75
492.55	30920.75
493.324	33059.75
494.099	35062.75
494.873	37067.75
495.647	39156.75
496.422	41096.75
497.196	43079.75
497.97	44821.75
498.744	46442.75
499.518	47990.75
500.292	49346.75
501.066	50104.75
501.839	50684.75
502.613	51275.75
503.387	51594.75
504.16	51760.75
504.934	51433.75
505.707	50862.75
506.48	50022.75
507.253	49017.75
508.027	48046.75
508.8	46527.75
509.573	45088.75
510.346	43640.75
511.118	42236.75
511.891	40672.75
512.664	38901.75
513.437	37304.75
514.209	35733.75
514.982	34267.75
515.754	32747.75
516.526	31348.75
517.298	30065.75
518.071	28804.75
518.843	27623.75
519.615	26576.75
520.387	25425.75
521.159	24423.75
521.93	23274.75
522.702	22371.75
523.474	21351.75
524.245	20430.75
525.017	19528.75
525.788	18681.75
526.56	17849.75
527.331	17008.75
528.102	16056.75
528.873	15211.75
529.644	14476.75
530.415	13731.75
531.186	13043.75
531.957	12364.75
532.728	11612.75
533.498	11027.75
534.269	10448.75
535.039	9835.75
535.81	9294.75
536.58	8778.75
537.351	8306.75
538.121	7874.75
538.891	7495.75
539.661	7051.75
540.431	6637.75
541.201	6338.75
541.971	5982.75
542.741	5659.75
543.51	5396.75
544.28	5129.75
545.05	4893.75
545.819	4644.75
546.588	4407.75
547.358	4196.75
548.127	4017.75
548.896	3816.75
549.665	3584.75
550.434	3382.75
551.203	3209.75
551.972	3036.75
552.741	2874.75
553.51	2701.75
554.278	2552.75
555.047	2417.75
555.815	2279.75
556.584	2151.75
557.352	2016.75
558.121	1908.75
558.889	1801.75
559.657	1707.75
560.425	1617.75
561.193	1533.75
561.961	1462.75
562.729	1368.75
563.496	1295.75
564.264	1217.75
565.032	1169.75
565.799	1103.75
566.567	1044.75
567.334	979.75
568.101	926.75
568.869	866.75
569.636	827.75
570.403	779.75
571.17	733.75
571.937	702.75
572.704	658.75
573.471	621.75
574.237	587.75
575.004	555.75
575.771	509.75
576.537	477.75
577.303	460.75
578.07	441.75
578.836	414.75
579.602	397.75
580.368	363.75
581.134	345.75
581.9	335.75
582.666	313.75
583.432	300.75
584.198	275.75
584.964	272.75
585.729	263.75
586.495	242.75
587.26	236.75
588.025	218.75
588.791	203.75
589.556	197.75
590.321	187.75
591.086	183.75
591.851	171.75
592.616	158.75
593.381	157.75
594.146	143.75
594.911	143.75
595.675	134.75
596.44	127.75
597.204	124.75
597.969	116.75
598.733	112.75
599.497	105.75
600.261	103.75
601.025	101.75
601.79	90.75
602.553	89.75
603.317	93.75
604.081	84.75
604.845	77.75
605.609	78.75
606.372	72.75
607.136	72.75
607.899	67.75
608.662	66.75
609.426	63.75
610.189	60.75
610.952	60.75
611.715	55.75
612.478	54.75
613.241	52.75
614.004	50.75
614.767	50.75
615.529	48.75
616.292	48.75
617.055	43.75
617.817	44.75
618.579	43.75
619.342	40.75
620.104	40.75
620.866	36.75
621.628	36.75
622.39	35.75
623.152	34.75
623.914	35.75
624.676	33.75
625.438	29.75
626.199	29.75
626.961	31.75
627.722	30.75
628.484	25.75
629.245	27.75
630.006	27.75
630.768	27.75
631.529	23.75
632.29	22.75
633.051	24.75
633.812	20.75
634.573	21.75
635.333	20.75
636.094	22.75
636.855	24.75
637.615	24.75
638.376	20.75
639.136	16.75
639.896	19.75
640.657	15.75
641.417	15.75
642.177	17.75
642.937	15.75
643.697	15.75
644.457	13.75
645.216	17.75
645.976	13.75
646.736	15.75
647.495	15.75
648.255	13.75
649.014	13.75
649.774	9.75
650.533	14.75
651.292	12.75
652.051	12.75
652.81	13.75
653.569	9.75
654.328	11.75
655.087	14.75
655.846	12.75
656.604	11.75
657.363	13.75
658.121	10.75
658.88	13.75
659.638	9.75
660.397	9.75
661.155	7.75
661.913	8.75
662.671	9.75
663.429	10.75
664.187	7.75
664.945	8.75
665.703	8.75
666.46	8.75
667.218	11.75
667.976	8.75
668.733	9.75
669.49	7.75
670.248	7.75
671.005	8.75
671.762	8.75
672.519	9.75
673.276	6.75
674.033	8.75
674.79	9.75
675.547	5.75
676.304	7.75
677.06	8.75
677.817	6.75
678.574	6.75
679.33	6.75
680.086	9.75
680.843	7.75
681.599	7.75
682.355	7.75
683.111	9.75
683.867	6.75
684.623	8.75
685.379	6.75
686.135	9.75
686.89	5.75
687.646	8.75
688.402	7.75
689.157	8.75
689.912	5.75
690.668	8.75
691.423	5.75
692.178	7.75
692.933	7.75
693.688	7.75
694.443	7.75
695.198	5.75
695.953	6.75
696.708	6.75
697.462	6.75
698.217	7.75
698.972	5.75
699.726	7.75
700.48	5.75
701.235	8.75
701.989	7.75
702.743	3.75
703.497	6.75
704.251	4.75
705.005	8.75
705.759	7.75
706.513	7.75
707.266	4.75
708.02	5.75
708.774	6.75
709.527	5.75
710.28	6.75
711.034	8.75
711.787	5.75
712.54	6.75
713.293	6.75
714.046	7.75
714.799	3.75
715.552	5.75
716.305	7.75
717.058	6.75
717.81	6.75
718.563	7.75
719.315	8.75
720.068	4.75
720.82	5.75
721.573	7.75
722.325	6.75
723.077	7.75
723.829	6.75
724.581	7.75
725.333	7.75
726.085	6.75
726.836	9.75
727.588	8.75
728.34	7.75
729.091	7.75
729.843	10.75
730.594	8.75
731.346	8.75
732.097	9.75
732.848	8.75
733.599	9.75
734.35	8.75
735.101	9.75
735.852	10.75
736.603	7.75
737.354	6.75
738.104	7.75
738.855	8.75
739.605	10.75
740.356	9.75
741.106	10.75
741.856	6.75
742.607	11.75
743.357	9.75
744.107	8.75
744.857	8.75
745.607	9.75
746.357	10.75
747.106	9.75
747.856	13.75
748.606	11.75
749.355	11.75
750.105	10.75
750.854	8.75
751.603	13.75
752.353	11.75
753.102	10.75
753.851	11.75
754.6	11.75
755.349	12.75
756.098	12.75
756.847	11.75
757.595	14.75
758.344	11.75
759.093	9.75
759.841	13.75
760.589	15.75
761.338	11.75
762.086	13.75
762.834	12.75
763.582	12.75
764.331	13.75
765.079	14.75
765.826	14.75
766.574	12.75
767.322	13.75
768.07	14.75
768.817	16.75
769.565	13.75
770.312	12.75
771.06	15.75
771.807	15.75
772.554	16.75
773.302	16.75
774.049	13.75
774.796	14.75
775.543	13.75
776.29	16.75
777.036	14.75
777.783	13.75
778.53	17.75
779.276	18.75
780.023	15.75
780.769	14.75
781.516	15.75
782.262	15.75
783.008	16.75
783.754	15.75
784.5	13.75
785.246	14.75
785.992	17.75
786.738	16.75
787.484	15.75
788.23	16.75
788.975	12.75
789.721	15.75
790.466	16.75
791.212	15.75
791.957	15.75
792.702	11.75
793.447	13.75
794.193	13.75
794.938	11.75
795.683	10.75
796.427	13.75
797.172	11.75
797.917	11.75
798.662	12.75
799.406	14.75
800.151	9.75
800.895	12.75
801.64	11.75
802.384	7.75
803.128	13.75
803.872	9.75
804.616	9.75
805.36	9.75
806.104	11.75
806.848	8.75
807.592	8.75
808.336	8.75
809.079	8.75
809.823	9.75
810.566	5.75
811.31	8.75
812.053	8.75
812.796	7.75
813.539	7.75
814.283	7.75
815.026	8.75
815.769	5.75
816.511	6.75
817.254	6.75
817.997	9.75
818.74	7.75
819.482	3.75
820.225	6.75
820.967	8.75
821.71	6.75
822.452	6.75
823.194	4.75
823.936	4.75
824.678	5.75
825.42	5.75
826.162	4.75
826.904	6.75
827.646	7.75
828.388	6.75
829.129	6.75
829.871	7.75
830.612	5.75
831.354	4.75
832.095	5.75
832.836	4.75
833.577	5.75
834.319	5.75
835.06	2.75
835.801	5.75
836.542	6.75
837.282	4.75
838.023	6.75
838.764	1.75
839.504	6.75
840.245	6.75
840.985	1.75
841.726	5.75
842.466	2.75
843.206	4.75
843.946	4.75
844.687	3.75
845.427	2.75
846.166	3.75
846.906	2.75
847.646	3.75
848.386	4.75
849.125	2.75
849.865	2.75
850.605	3.75
851.344	1.75
852.083	4.75
852.823	4.75
853.562	1.75
854.301	3.75
855.04	6.75
855.779	4.75
856.518	2.75
857.257	3.75
857.995	2.75
858.734	2.75
859.473	1.75
860.211	1.75
860.95	2.75
861.688	2.75
862.426	3.75
863.165	5.75
863.903	1.75
864.641	0.75
865.379	1.75
866.117	3.75
866.855	1.75
867.593	1.75
868.33	3.75
869.068	1.75
869.806	1.75
870.543	0.75
871.28	0.75
872.018	0.75
872.755	-0.25
873.492	0.75
874.229	0.75
874.967	0.75
875.703	-1.25
876.44	1.75
877.177	1.75
877.914	-1.25
878.651	1.75
879.387	0.75
880.124	0.75
880.86	-0.25
881.597	1.75
882.333	1.75
883.069	-0.25
883.806	2.75
884.542	0.75
885.278	0.75
886.014	1.75
886.749	-1.25
887.485	1.75
888.221	0.75
888.957	-2.25
889.692	0.75
890.428	2.75
891.163	0.75
891.899	-1.25
892.634	-0.25
893.369	-0.25
894.104	-0.25
894.839	-1.25
895.574	2.75
896.309	-0.25
897.044	-1.25
897.779	0.75
898.514	-0.25
899.248	0.75
899.983	0.75
900.717	-0.25
901.452	-0.25
902.186	-0.25
902.92	-0.25
903.654	0.75
904.389	0.75
905.123	0.75
905.857	-1.25
906.59	-0.25
907.324	-0.25
908.058	-0.25
908.792	-2.25
909.525	-0.25
910.259	1.75
910.992	-0.25
911.726	-0.25
912.459	0.75
913.192	-1.25
913.925	-0.25
914.658	-2.25
915.391	-2.25
916.124	-0.25
916.857	-0.25
917.59	-1.25
918.323	0.75
919.055	-1.25
919.788	-4.25
920.521	-0.25
921.253	-2.25
921.985	0.75
922.718	-0.25
923.45	-0.25
924.182	1.75
924.914	-2.25
925.646	-0.25
926.378	0.75
927.11	0.75
927.841	0.75
928.573	-2.25
929.305	0.75
930.036	-1.25
930.768	0.75
931.499	-2.25
932.23	0.75
932.962	0.75
933.693	-0.25
934.424	-0.25
935.155	-0.25
935.886	-0.25
936.617	-3.25
937.348	0.75
938.078	-1.25
938.809	-3.25
939.54	-2.25
940.27	-0.25
941.001	-2.25
941.731	0.75
942.461	0.75
943.191	-1.25
943.922	0.75
944.652	-1.25
945.382	-2.25
946.112	-0.25
946.841	0.75
947.571	-0.25
948.301	-0.25
949.031	-3.25
949.76	-4.25
950.49	-0.25
951.219	-0.25
951.948	-0.25
952.678	-2.25
953.407	-0.25
954.136	-0.25
954.865	-0.25
955.594	-0.25
956.323	-3.25
957.052	-1.25
957.78	-1.25
958.509	-2.25
959.238	0.75
959.966	0.75
960.695	-0.25
961.423	-1.25
962.151	-0.25
962.88	-2.25
963.608	-0.25
964.336	-1.25
965.064	-1.25
965.792	-0.25
966.52	0.75
967.247	-2.25
967.975	-2.25
968.703	-2.25
969.43	-1.25
970.158	-1.25
970.885	-0.25
971.613	-0.25
972.34	1.75
973.067	-0.25
973.794	-0.25
974.521	-1.25
975.248	0.75
975.975	1.75
976.702	-2.25
977.429	-1.25
978.156	-0.25
978.882	-2.25
979.609	0.75
980.335	-0.25
981.062	-0.25
981.788	-0.25
982.514	-0.25
983.24	0.75
983.967	-0.25
984.693	-0.25
985.419	1.75
986.144	-0.25
986.87	-1.25
987.596	-2.25
988.322	-0.25
989.047	0.75
989.773	-0.25
990.498	0.75
991.224	-0.25
991.949	0.75
992.674	-0.25
993.399	0.75
994.124	-1.25
994.849	-0.25
995.574	-1.25
996.299	-1.25
997.024	-0.25
997.749	-1.25
998.473	1.75
999.198	-2.25
999.922	-2.25
1000.647	0.75
1001.371	4.75
1002.095	-0.25
1002.82	-2.25
1003.544	-0.25
1004.268	2.75
1004.992	4.75
1005.716	4.75
1006.439	3.75
1007.163	4.75
1007.887	3.75
1008.611	-2.25
1009.334	-1.25
1010.058	0.75
1010.781	1.75
1011.504	-2.25
1012.228	-0.25
1012.951	0.75
1013.674	-1.25
1014.397	-0.25
1015.12	-1.25
