节点500_705_QEPB04081__615__20-54-40-792.txt的数据

Date: Wed Nov 12 20:54:40 CST 2025
User: PC
Spectrometer: QEPB0408
触发模式: 0
积分时间 (秒): 1.000000E-2
Scans to average: 1
启用暗噪声校正: true
启用非线性校正: false
滑动平均宽度: 0
X轴模式: Wavelengths
Number of Pixels in Spectrum: 1044
>>>>>Begin Spectral Data<<<<<
220.843	5.5
221.644	6.5
222.444	4.5
223.244	3.5
224.045	5.5
224.845	5.5
225.645	9.5
226.445	7.5
227.245	10.5
228.045	8.5
228.845	5.5
229.645	6.5
230.444	10.5
231.244	8.5
232.043	8.5
232.843	9.5
233.642	9.5
234.442	7.5
235.241	11.5
236.04	11.5
236.839	8.5
237.638	10.5
238.437	7.5
239.236	10.5
240.035	7.5
240.833	11.5
241.632	11.5
242.43	9.5
243.229	10.5
244.027	12.5
244.826	11.5
245.624	13.5
246.422	14.5
247.22	13.5
248.018	14.5
248.816	15.5
249.614	14.5
250.412	16.5
251.21	15.5
252.007	17.5
252.805	18.5
253.602	14.5
254.4	17.5
255.197	17.5
255.994	18.5
256.791	18.5
257.589	18.5
258.386	17.5
259.183	18.5
259.979	22.5
260.776	21.5
261.573	19.5
262.37	20.5
263.166	20.5
263.963	24.5
264.759	24.5
265.556	22.5
266.352	26.5
267.148	26.5
267.944	28.5
268.74	25.5
269.536	27.5
270.332	25.5
271.128	28.5
271.924	29.5
272.719	28.5
273.515	29.5
274.311	29.5
275.106	28.5
275.901	33.5
276.697	29.5
277.492	28.5
278.287	32.5
279.082	31.5
279.877	31.5
280.672	33.5
281.467	34.5
282.262	32.5
283.056	30.5
283.851	31.5
284.646	35.5
285.44	31.5
286.234	31.5
287.029	32.5
287.823	33.5
288.617	34.5
289.411	35.5
290.205	30.5
290.999	34.5
291.793	30.5
292.587	33.5
293.381	27.5
294.174	29.5
294.968	27.5
295.761	27.5
296.555	26.5
297.348	26.5
298.141	28.5
298.935	27.5
299.728	25.5
300.521	25.5
301.314	25.5
302.107	22.5
302.899	21.5
303.692	23.5
304.485	20.5
305.277	21.5
306.07	24.5
306.862	18.5
307.655	21.5
308.447	21.5
309.239	19.5
310.031	20.5
310.823	20.5
311.615	18.5
312.407	19.5
313.199	17.5
313.991	17.5
314.783	17.5
315.574	18.5
316.366	15.5
317.157	14.5
317.949	15.5
318.74	15.5
319.531	15.5
320.322	15.5
321.113	14.5
321.904	14.5
322.695	16.5
323.486	11.5
324.277	14.5
325.068	13.5
325.858	12.5
326.649	13.5
327.439	10.5
328.23	12.5
329.02	11.5
329.81	13.5
330.6	11.5
331.391	14.5
332.181	15.5
332.971	11.5
333.76	13.5
334.55	13.5
335.34	9.5
336.13	11.5
336.919	12.5
337.709	8.5
338.498	12.5
339.287	11.5
340.077	10.5
340.866	13.5
341.655	11.5
342.444	9.5
343.233	9.5
344.022	9.5
344.811	11.5
345.6	12.5
346.388	10.5
347.177	10.5
347.965	11.5
348.754	10.5
349.542	13.5
350.33	12.5
351.119	13.5
351.907	8.5
352.695	11.5
353.483	10.5
354.271	11.5
355.059	11.5
355.846	10.5
356.634	9.5
357.422	13.5
358.209	12.5
358.997	8.5
359.784	9.5
360.571	11.5
361.359	7.5
362.146	12.5
362.933	9.5
363.72	11.5
364.507	11.5
365.294	9.5
366.081	9.5
366.867	10.5
367.654	13.5
368.44	10.5
369.227	8.5
370.013	10.5
370.8	9.5
371.586	8.5
372.372	9.5
373.158	11.5
373.944	10.5
374.73	9.5
375.516	9.5
376.302	8.5
377.088	11.5
377.873	10.5
378.659	9.5
379.445	10.5
380.23	11.5
381.015	11.5
381.801	10.5
382.586	9.5
383.371	10.5
384.156	10.5
384.941	11.5
385.726	8.5
386.511	10.5
387.296	11.5
388.08	10.5
388.865	11.5
389.649	10.5
390.434	12.5
391.218	11.5
392.003	13.5
392.787	11.5
393.571	13.5
394.355	11.5
395.139	13.5
395.923	14.5
396.707	12.5
397.491	11.5
398.274	14.5
399.058	12.5
399.842	12.5
400.625	12.5
401.408	14.5
402.192	15.5
402.975	14.5
403.758	15.5
404.541	15.5
405.324	14.5
406.107	13.5
406.89	15.5
407.673	15.5
408.456	14.5
409.238	17.5
410.021	14.5
410.803	17.5
411.586	17.5
412.368	17.5
413.151	16.5
413.933	15.5
414.715	17.5
415.497	16.5
416.279	18.5
417.061	16.5
417.843	15.5
418.624	21.5
419.406	19.5
420.188	21.5
420.969	18.5
421.751	23.5
422.532	23.5
423.313	20.5
424.095	20.5
424.876	21.5
425.657	23.5
426.438	25.5
427.219	27.5
428	26.5
428.78	27.5
429.561	29.5
430.342	30.5
431.122	31.5
431.903	31.5
432.683	33.5
433.464	35.5
434.244	37.5
435.024	39.5
435.804	37.5
436.584	44.5
437.364	43.5
438.144	51.5
438.924	50.5
439.704	58.5
440.483	62.5
441.263	63.5
442.042	67.5
442.822	72.5
443.601	77.5
444.38	85.5
445.16	90.5
445.939	100.5
446.718	104.5
447.497	120.5
448.276	137.5
449.054	139.5
449.833	150.5
450.612	174.5
451.391	190.5
452.169	209.5
452.948	233.5
453.726	256.5
454.504	290.5
455.282	324.5
456.061	346.5
456.839	400.5
457.617	441.5
458.395	492.5
459.172	549.5
459.95	600.5
460.728	674.5
461.506	750.5
462.283	826.5
463.061	923.5
463.838	1034.5
464.615	1144.5
465.393	1261.5
466.17	1397.5
466.947	1537.5
467.724	1705.5
468.501	1884.5
469.278	2065.5
470.055	2247.5
470.831	2498.5
471.608	2738.5
472.385	3005.5
473.161	3333.5
473.938	3608.5
474.714	3949.5
475.49	4308.5
476.266	4709.5
477.043	5109.5
477.819	5567.5
478.595	6060.5
479.371	6583.5
480.146	7155.5
480.922	7763.5
481.698	8398.5
482.473	9090.5
483.249	9851.5
484.024	10673.5
484.8	11505.5
485.575	12393.5
486.35	13389.5
487.126	14426.5
487.901	15558.5
488.676	16688.5
489.451	17932.5
490.225	19253.5
491	20587.5
491.775	21963.5
492.55	23439.5
493.324	24906.5
494.099	26488.5
494.873	28085.5
495.647	29587.5
496.422	31313.5
497.196	32841.5
497.97	34336.5
498.744	35851.5
499.518	37346.5
500.292	38745.5
501.066	39727.5
501.839	40771.5
502.613	41766.5
503.387	42570.5
504.16	43190.5
504.934	43513.5
505.707	43728.5
506.48	43696.5
507.253	43513.5
508.027	43274.5
508.8	42678.5
509.573	41979.5
510.346	41156.5
511.118	40477.5
511.891	39535.5
512.664	38224.5
513.437	36955.5
514.209	35777.5
514.982	34540.5
515.754	33208.5
516.526	31968.5
517.298	30796.5
518.071	29667.5
518.843	28467.5
519.615	27345.5
520.387	26303.5
521.159	25244.5
521.93	24271.5
522.702	23265.5
523.474	22249.5
524.245	21362.5
525.017	20496.5
525.788	19643.5
526.56	18830.5
527.331	18069.5
528.102	17179.5
528.873	16389.5
529.644	15626.5
530.415	14921.5
531.186	14267.5
531.957	13533.5
532.728	12894.5
533.498	12228.5
534.269	11611.5
535.039	11044.5
535.81	10426.5
536.58	9861.5
537.351	9330.5
538.121	8876.5
538.891	8403.5
539.661	7957.5
540.431	7515.5
541.201	7137.5
541.971	6774.5
542.741	6394.5
543.51	6044.5
544.28	5791.5
545.05	5507.5
545.819	5255.5
546.588	5021.5
547.358	4766.5
548.127	4560.5
548.896	4319.5
549.665	4116.5
550.434	3913.5
551.203	3675.5
551.972	3505.5
552.741	3327.5
553.51	3145.5
554.278	2958.5
555.047	2811.5
555.815	2657.5
556.584	2530.5
557.352	2388.5
558.121	2270.5
558.889	2134.5
559.657	1998.5
560.425	1906.5
561.193	1808.5
561.961	1715.5
562.729	1616.5
563.496	1526.5
564.264	1433.5
565.032	1369.5
565.799	1298.5
566.567	1220.5
567.334	1153.5
568.101	1096.5
568.869	1027.5
569.636	966.5
570.403	921.5
571.17	874.5
571.937	806.5
572.704	761.5
573.471	730.5
574.237	695.5
575.004	646.5
575.771	615.5
576.537	580.5
577.303	546.5
578.07	513.5
578.836	488.5
579.602	465.5
580.368	435.5
581.134	411.5
581.9	391.5
582.666	376.5
583.432	361.5
584.198	337.5
584.964	317.5
585.729	304.5
586.495	286.5
587.26	270.5
588.025	265.5
588.791	246.5
589.556	234.5
590.321	224.5
591.086	212.5
591.851	199.5
592.616	193.5
593.381	181.5
594.146	172.5
594.911	170.5
595.675	159.5
596.44	147.5
597.204	144.5
597.969	131.5
598.733	135.5
599.497	126.5
600.261	122.5
601.025	117.5
601.79	113.5
602.553	104.5
603.317	100.5
604.081	97.5
604.845	90.5
605.609	87.5
606.372	85.5
607.136	81.5
607.899	81.5
608.662	76.5
609.426	75.5
610.189	71.5
610.952	68.5
611.715	67.5
612.478	63.5
613.241	59.5
614.004	55.5
614.767	61.5
615.529	54.5
616.292	51.5
617.055	49.5
617.817	49.5
618.579	48.5
619.342	48.5
620.104	41.5
620.866	44.5
621.628	42.5
622.39	39.5
623.152	40.5
623.914	37.5
624.676	34.5
625.438	36.5
626.199	31.5
626.961	36.5
627.722	33.5
628.484	31.5
629.245	31.5
630.006	29.5
630.768	27.5
631.529	26.5
632.29	26.5
633.051	26.5
633.812	26.5
634.573	24.5
635.333	23.5
636.094	25.5
636.855	23.5
637.615	22.5
638.376	21.5
639.136	19.5
639.896	23.5
640.657	18.5
641.417	21.5
642.177	23.5
642.937	18.5
643.697	19.5
644.457	17.5
645.216	17.5
645.976	16.5
646.736	15.5
647.495	17.5
648.255	15.5
649.014	15.5
649.774	15.5
650.533	15.5
651.292	17.5
652.051	13.5
652.81	14.5
653.569	13.5
654.328	15.5
655.087	14.5
655.846	11.5
656.604	14.5
657.363	13.5
658.121	11.5
658.88	13.5
659.638	14.5
660.397	13.5
661.155	10.5
661.913	10.5
662.671	10.5
663.429	11.5
664.187	10.5
664.945	9.5
665.703	10.5
666.46	10.5
667.218	11.5
667.976	10.5
668.733	11.5
669.49	11.5
670.248	8.5
671.005	9.5
671.762	10.5
672.519	11.5
673.276	10.5
674.033	8.5
674.79	11.5
675.547	9.5
676.304	9.5
677.06	9.5
677.817	7.5
678.574	9.5
679.33	8.5
680.086	10.5
680.843	6.5
681.599	8.5
682.355	9.5
683.111	10.5
683.867	5.5
684.623	7.5
685.379	7.5
686.135	8.5
686.89	9.5
687.646	7.5
688.402	6.5
689.157	10.5
689.912	7.5
690.668	8.5
691.423	10.5
692.178	7.5
692.933	8.5
693.688	10.5
694.443	10.5
695.198	7.5
695.953	9.5
696.708	7.5
697.462	7.5
698.217	7.5
698.972	6.5
699.726	9.5
700.48	8.5
701.235	10.5
701.989	8.5
702.743	7.5
703.497	7.5
704.251	8.5
705.005	8.5
705.759	7.5
706.513	8.5
707.266	9.5
708.02	5.5
708.774	7.5
709.527	7.5
710.28	9.5
711.034	7.5
711.787	6.5
712.54	7.5
713.293	6.5
714.046	10.5
714.799	7.5
715.552	6.5
716.305	7.5
717.058	9.5
717.81	7.5
718.563	6.5
719.315	8.5
720.068	10.5
720.82	9.5
721.573	8.5
722.325	9.5
723.077	6.5
723.829	8.5
724.581	9.5
725.333	8.5
726.085	7.5
726.836	10.5
727.588	7.5
728.34	7.5
729.091	8.5
729.843	8.5
730.594	7.5
731.346	8.5
732.097	8.5
732.848	11.5
733.599	9.5
734.35	7.5
735.101	8.5
735.852	8.5
736.603	8.5
737.354	9.5
738.104	9.5
738.855	10.5
739.605	9.5
740.356	10.5
741.106	8.5
741.856	7.5
742.607	13.5
743.357	10.5
744.107	10.5
744.857	11.5
745.607	9.5
746.357	10.5
747.106	7.5
747.856	10.5
748.606	10.5
749.355	10.5
750.105	11.5
750.854	11.5
751.603	12.5
752.353	9.5
753.102	12.5
753.851	9.5
754.6	11.5
755.349	11.5
756.098	10.5
756.847	8.5
757.595	13.5
758.344	11.5
759.093	10.5
759.841	10.5
760.589	10.5
761.338	11.5
762.086	10.5
762.834	12.5
763.582	11.5
764.331	12.5
765.079	9.5
765.826	12.5
766.574	12.5
767.322	13.5
768.07	14.5
768.817	12.5
769.565	14.5
770.312	14.5
771.06	15.5
771.807	14.5
772.554	14.5
773.302	14.5
774.049	11.5
774.796	15.5
775.543	13.5
776.29	14.5
777.036	15.5
777.783	13.5
778.53	14.5
779.276	13.5
780.023	17.5
780.769	14.5
781.516	15.5
782.262	15.5
783.008	14.5
783.754	15.5
784.5	13.5
785.246	13.5
785.992	16.5
786.738	12.5
787.484	15.5
788.23	16.5
788.975	15.5
789.721	14.5
790.466	14.5
791.212	15.5
791.957	14.5
792.702	13.5
793.447	12.5
794.193	14.5
794.938	14.5
795.683	13.5
796.427	13.5
797.172	14.5
797.917	13.5
798.662	13.5
799.406	13.5
800.151	15.5
800.895	12.5
801.64	11.5
802.384	11.5
803.128	11.5
803.872	9.5
804.616	13.5
805.36	10.5
806.104	8.5
806.848	12.5
807.592	12.5
808.336	11.5
809.079	10.5
809.823	10.5
810.566	10.5
811.31	8.5
812.053	8.5
812.796	6.5
813.539	8.5
814.283	8.5
815.026	8.5
815.769	9.5
816.511	5.5
817.254	8.5
817.997	10.5
818.74	7.5
819.482	10.5
820.225	9.5
820.967	7.5
821.71	7.5
822.452	9.5
823.194	9.5
823.936	9.5
824.678	7.5
825.42	8.5
826.162	6.5
826.904	7.5
827.646	7.5
828.388	7.5
829.129	8.5
829.871	7.5
830.612	6.5
831.354	4.5
832.095	6.5
832.836	5.5
833.577	8.5
834.319	4.5
835.06	7.5
835.801	5.5
836.542	8.5
837.282	4.5
838.023	6.5
838.764	5.5
839.504	4.5
840.245	7.5
840.985	5.5
841.726	5.5
842.466	5.5
843.206	6.5
843.946	5.5
844.687	5.5
845.427	9.5
846.166	4.5
846.906	6.5
847.646	5.5
848.386	3.5
849.125	5.5
849.865	4.5
850.605	4.5
851.344	6.5
852.083	5.5
852.823	8.5
853.562	4.5
854.301	5.5
855.04	3.5
855.779	6.5
856.518	4.5
857.257	5.5
857.995	3.5
858.734	2.5
859.473	4.5
860.211	4.5
860.95	5.5
861.688	5.5
862.426	3.5
863.165	5.5
863.903	1.5
864.641	6.5
865.379	2.5
866.117	3.5
866.855	3.5
867.593	3.5
868.33	3.5
869.068	4.5
869.806	4.5
870.543	2.5
871.28	3.5
872.018	4.5
872.755	2.5
873.492	0.5
874.229	3.5
874.967	3.5
875.703	3.5
876.44	1.5
877.177	2.5
877.914	1.5
878.651	3.5
879.387	2.5
880.124	2.5
880.86	1.5
881.597	1.5
882.333	3.5
883.069	4.5
883.806	4.5
884.542	1.5
885.278	1.5
886.014	1.5
886.749	3.5
887.485	2.5
888.221	3.5
888.957	2.5
889.692	2.5
890.428	2.5
891.163	1.5
891.899	-0.5
892.634	2.5
893.369	2.5
894.104	0.5
894.839	3.5
895.574	1.5
896.309	3.5
897.044	4.5
897.779	1.5
898.514	-0.5
899.248	0.5
899.983	-0.5
900.717	0.5
901.452	0.5
902.186	1.5
902.92	2.5
903.654	1.5
904.389	0.5
905.123	-0.5
905.857	1.5
906.59	1.5
907.324	2.5
908.058	2.5
908.792	0.5
909.525	2.5
910.259	2.5
910.992	2.5
911.726	2.5
912.459	0.5
913.192	2.5
913.925	1.5
914.658	0.5
915.391	0.5
916.124	1.5
916.857	-0.5
917.59	2.5
918.323	1.5
919.055	-1.5
919.788	-0.5
920.521	2.5
921.253	0.5
921.985	-1.5
922.718	1.5
923.45	0.5
924.182	2.5
924.914	0.5
925.646	0.5
926.378	1.5
927.11	-1.5
927.841	2.5
928.573	1.5
929.305	-0.5
930.036	1.5
930.768	1.5
931.499	-0.5
932.23	-0.5
932.962	1.5
933.693	0.5
934.424	-0.5
935.155	2.5
935.886	0.5
936.617	3.5
937.348	1.5
938.078	3.5
938.809	2.5
939.54	1.5
940.27	-0.5
941.001	-1.5
941.731	0.5
942.461	-0.5
943.191	1.5
943.922	1.5
944.652	-1.5
945.382	1.5
946.112	1.5
946.841	1.5
947.571	0.5
948.301	1.5
949.031	0.5
949.76	1.5
950.49	-1.5
951.219	1.5
951.948	1.5
952.678	0.5
953.407	-0.5
954.136	0.5
954.865	0.5
955.594	2.5
956.323	3.5
957.052	0.5
957.78	1.5
958.509	1.5
959.238	0.5
959.966	-0.5
960.695	2.5
961.423	-0.5
962.151	0.5
962.88	1.5
963.608	3.5
964.336	0.5
965.064	1.5
965.792	0.5
966.52	-0.5
967.247	0.5
967.975	1.5
968.703	-0.5
969.43	3.5
970.158	-0.5
970.885	2.5
971.613	2.5
972.34	-1.5
973.067	0.5
973.794	-0.5
974.521	0.5
975.248	0.5
975.975	-0.5
976.702	2.5
977.429	1.5
978.156	0.5
978.882	1.5
979.609	0.5
980.335	2.5
981.062	1.5
981.788	-0.5
982.514	-0.5
983.24	2.5
983.967	0.5
984.693	-0.5
985.419	-2.5
986.144	-1.5
986.87	0.5
987.596	1.5
988.322	2.5
989.047	-0.5
989.773	-0.5
990.498	1.5
991.224	-0.5
991.949	0.5
992.674	1.5
993.399	1.5
994.124	1.5
994.849	1.5
995.574	2.5
996.299	2.5
997.024	1.5
997.749	1.5
998.473	-0.5
999.198	0.5
999.922	1.5
1000.647	-0.5
1001.371	3.5
1002.095	-2.5
1002.82	-0.5
1003.544	0.5
1004.268	5.5
1004.992	5.5
1005.716	5.5
1006.439	3.5
1007.163	3.5
1007.887	7.5
1008.611	-0.5
1009.334	2.5
1010.058	1.5
1010.781	-0.5
1011.504	2.5
1012.228	1.5
1012.951	-0.5
1013.674	-1.5
1014.397	-0.5
1015.12	1.5
