节点500_705_QEPB04081__452__20-52-18-755.txt的数据

Date: Wed Nov 12 20:52:18 CST 2025
User: PC
Spectrometer: QEPB0408
触发模式: 0
积分时间 (秒): 1.000000E-2
Scans to average: 1
启用暗噪声校正: true
启用非线性校正: false
滑动平均宽度: 0
X轴模式: Wavelengths
Number of Pixels in Spectrum: 1044
>>>>>Begin Spectral Data<<<<<
220.843	4.62
221.644	6.62
222.444	3.62
223.244	6.62
224.045	6.62
224.845	6.62
225.645	5.62
226.445	5.62
227.245	4.62
228.045	6.62
228.845	7.62
229.645	7.62
230.444	5.62
231.244	4.62
232.043	6.62
232.843	7.62
233.642	8.62
234.442	10.62
235.241	10.62
236.04	11.62
236.839	9.62
237.638	10.62
238.437	8.62
239.236	9.62
240.035	11.62
240.833	10.62
241.632	11.62
242.43	9.62
243.229	11.62
244.027	12.62
244.826	12.62
245.624	14.62
246.422	13.62
247.22	14.62
248.018	13.62
248.816	16.62
249.614	13.62
250.412	14.62
251.21	14.62
252.007	14.62
252.805	16.62
253.602	17.62
254.4	16.62
255.197	16.62
255.994	17.62
256.791	21.62
257.589	18.62
258.386	20.62
259.183	18.62
259.979	19.62
260.776	22.62
261.573	18.62
262.37	22.62
263.166	21.62
263.963	22.62
264.759	24.62
265.556	22.62
266.352	25.62
267.148	26.62
267.944	25.62
268.74	26.62
269.536	28.62
270.332	28.62
271.128	27.62
271.924	28.62
272.719	30.62
273.515	31.62
274.311	30.62
275.106	30.62
275.901	29.62
276.697	29.62
277.492	30.62
278.287	32.62
279.082	29.62
279.877	32.62
280.672	31.62
281.467	32.62
282.262	30.62
283.056	31.62
283.851	34.62
284.646	34.62
285.44	33.62
286.234	31.62
287.029	33.62
287.823	31.62
288.617	30.62
289.411	30.62
290.205	31.62
290.999	30.62
291.793	33.62
292.587	30.62
293.381	29.62
294.174	29.62
294.968	30.62
295.761	27.62
296.555	25.62
297.348	26.62
298.141	24.62
298.935	29.62
299.728	26.62
300.521	25.62
301.314	20.62
302.107	21.62
302.899	22.62
303.692	24.62
304.485	20.62
305.277	21.62
306.07	21.62
306.862	22.62
307.655	23.62
308.447	21.62
309.239	20.62
310.031	19.62
310.823	18.62
311.615	20.62
312.407	16.62
313.199	17.62
313.991	14.62
314.783	17.62
315.574	15.62
316.366	17.62
317.157	14.62
317.949	15.62
318.74	14.62
319.531	13.62
320.322	13.62
321.113	12.62
321.904	10.62
322.695	10.62
323.486	14.62
324.277	12.62
325.068	10.62
325.858	13.62
326.649	12.62
327.439	13.62
328.23	13.62
329.02	13.62
329.81	10.62
330.6	13.62
331.391	11.62
332.181	12.62
332.971	9.62
333.76	10.62
334.55	12.62
335.34	10.62
336.13	10.62
336.919	12.62
337.709	12.62
338.498	9.62
339.287	9.62
340.077	13.62
340.866	11.62
341.655	10.62
342.444	8.62
343.233	10.62
344.022	13.62
344.811	10.62
345.6	12.62
346.388	10.62
347.177	9.62
347.965	9.62
348.754	13.62
349.542	12.62
350.33	9.62
351.119	10.62
351.907	11.62
352.695	10.62
353.483	10.62
354.271	8.62
355.059	9.62
355.846	11.62
356.634	7.62
357.422	7.62
358.209	11.62
358.997	12.62
359.784	7.62
360.571	11.62
361.359	11.62
362.146	11.62
362.933	10.62
363.72	10.62
364.507	10.62
365.294	8.62
366.081	10.62
366.867	11.62
367.654	7.62
368.44	9.62
369.227	8.62
370.013	10.62
370.8	5.62
371.586	8.62
372.372	8.62
373.158	9.62
373.944	10.62
374.73	7.62
375.516	9.62
376.302	10.62
377.088	9.62
377.873	7.62
378.659	11.62
379.445	9.62
380.23	10.62
381.015	8.62
381.801	9.62
382.586	7.62
383.371	10.62
384.156	9.62
384.941	10.62
385.726	8.62
386.511	8.62
387.296	9.62
388.08	7.62
388.865	12.62
389.649	10.62
390.434	9.62
391.218	9.62
392.003	10.62
392.787	12.62
393.571	10.62
394.355	13.62
395.139	13.62
395.923	11.62
396.707	11.62
397.491	10.62
398.274	14.62
399.058	12.62
399.842	12.62
400.625	12.62
401.408	11.62
402.192	13.62
402.975	11.62
403.758	14.62
404.541	11.62
405.324	12.62
406.107	12.62
406.89	14.62
407.673	15.62
408.456	14.62
409.238	16.62
410.021	12.62
410.803	14.62
411.586	14.62
412.368	13.62
413.151	16.62
413.933	14.62
414.715	17.62
415.497	17.62
416.279	18.62
417.061	18.62
417.843	18.62
418.624	21.62
419.406	17.62
420.188	20.62
420.969	20.62
421.751	14.62
422.532	23.62
423.313	25.62
424.095	20.62
424.876	24.62
425.657	23.62
426.438	22.62
427.219	28.62
428	24.62
428.78	25.62
429.561	27.62
430.342	27.62
431.122	24.62
431.903	34.62
432.683	35.62
433.464	35.62
434.244	36.62
435.024	41.62
435.804	42.62
436.584	39.62
437.364	46.62
438.144	46.62
438.924	51.62
439.704	54.62
440.483	57.62
441.263	63.62
442.042	64.62
442.822	71.62
443.601	74.62
444.38	84.62
445.16	88.62
445.939	97.62
446.718	102.62
447.497	111.62
448.276	126.62
449.054	134.62
449.833	153.62
450.612	164.62
451.391	184.62
452.169	203.62
452.948	220.62
453.726	250.62
454.504	275.62
455.282	303.62
456.061	346.62
456.839	373.62
457.617	433.62
458.395	470.62
459.172	516.62
459.95	585.62
460.728	651.62
461.506	733.62
462.283	806.62
463.061	894.62
463.838	1002.62
464.615	1104.62
465.393	1221.62
466.17	1370.62
466.947	1522.62
467.724	1681.62
468.501	1866.62
469.278	2064.62
470.055	2290.62
470.831	2512.62
471.608	2757.62
472.385	3024.62
473.161	3329.62
473.938	3674.62
474.714	4012.62
475.49	4383.62
476.266	4760.62
477.043	5253.62
477.819	5708.62
478.595	6238.62
479.371	6781.62
480.146	7351.62
480.922	8026.62
481.698	8727.62
482.473	9466.62
483.249	10258.62
484.024	11163.62
484.8	12073.62
485.575	13013.62
486.35	14069.62
487.126	15234.62
487.901	16378.62
488.676	17628.62
489.451	19003.62
490.225	20463.62
491	21928.62
491.775	23366.62
492.55	25025.62
493.324	26598.62
494.099	28279.62
494.873	30026.62
495.647	31634.62
496.422	33365.62
497.196	35103.62
497.97	36618.62
498.744	38154.62
499.518	39789.62
500.292	41085.62
501.066	42129.62
501.839	43044.62
502.613	43934.62
503.387	44670.62
504.16	45098.62
504.934	45415.62
505.707	45548.62
506.48	45375.62
507.253	45086.62
508.027	44564.62
508.8	43779.62
509.573	42947.62
510.346	42026.62
511.118	41088.62
511.891	39988.62
512.664	38618.62
513.437	37285.62
514.209	35881.62
514.982	34541.62
515.754	33224.62
516.526	31953.62
517.298	30700.62
518.071	29486.62
518.843	28391.62
519.615	27193.62
520.387	26149.62
521.159	25078.62
521.93	24055.62
522.702	23056.62
523.474	22123.62
524.245	21201.62
525.017	20363.62
525.788	19453.62
526.56	18682.62
527.331	17856.62
528.102	16960.62
528.873	16111.62
529.644	15347.62
530.415	14643.62
531.186	13946.62
531.957	13278.62
532.728	12620.62
533.498	11998.62
534.269	11357.62
535.039	10731.62
535.81	10177.62
536.58	9625.62
537.351	9069.62
538.121	8637.62
538.891	8152.62
539.661	7735.62
540.431	7316.62
541.201	6939.62
541.971	6553.62
542.741	6230.62
543.51	5889.62
544.28	5616.62
545.05	5376.62
545.819	5102.62
546.588	4863.62
547.358	4654.62
548.127	4394.62
548.896	4193.62
549.665	3977.62
550.434	3773.62
551.203	3599.62
551.972	3382.62
552.741	3222.62
553.51	3019.62
554.278	2868.62
555.047	2704.62
555.815	2567.62
556.584	2426.62
557.352	2295.62
558.121	2174.62
558.889	2040.62
559.657	1937.62
560.425	1832.62
561.193	1721.62
561.961	1643.62
562.729	1551.62
563.496	1468.62
564.264	1391.62
565.032	1318.62
565.799	1226.62
566.567	1166.62
567.334	1101.62
568.101	1057.62
568.869	990.62
569.636	931.62
570.403	884.62
571.17	831.62
571.937	786.62
572.704	744.62
573.471	702.62
574.237	657.62
575.004	630.62
575.771	588.62
576.537	558.62
577.303	520.62
578.07	490.62
578.836	467.62
579.602	439.62
580.368	410.62
581.134	396.62
581.9	382.62
582.666	358.62
583.432	346.62
584.198	323.62
584.964	313.62
585.729	294.62
586.495	280.62
587.26	270.62
588.025	242.62
588.791	238.62
589.556	222.62
590.321	211.62
591.086	200.62
591.851	191.62
592.616	178.62
593.381	178.62
594.146	165.62
594.911	159.62
595.675	154.62
596.44	145.62
597.204	138.62
597.969	131.62
598.733	127.62
599.497	121.62
600.261	117.62
601.025	115.62
601.79	107.62
602.553	100.62
603.317	97.62
604.081	92.62
604.845	87.62
605.609	86.62
606.372	78.62
607.136	82.62
607.899	74.62
608.662	71.62
609.426	71.62
610.189	65.62
610.952	63.62
611.715	62.62
612.478	56.62
613.241	60.62
614.004	54.62
614.767	54.62
615.529	51.62
616.292	51.62
617.055	47.62
617.817	47.62
618.579	45.62
619.342	43.62
620.104	43.62
620.866	41.62
621.628	42.62
622.39	39.62
623.152	37.62
623.914	38.62
624.676	35.62
625.438	37.62
626.199	33.62
626.961	31.62
627.722	33.62
628.484	28.62
629.245	26.62
630.006	29.62
630.768	30.62
631.529	26.62
632.29	25.62
633.051	24.62
633.812	25.62
634.573	24.62
635.333	22.62
636.094	24.62
636.855	24.62
637.615	18.62
638.376	21.62
639.136	19.62
639.896	20.62
640.657	19.62
641.417	17.62
642.177	18.62
642.937	16.62
643.697	17.62
644.457	17.62
645.216	17.62
645.976	15.62
646.736	17.62
647.495	15.62
648.255	14.62
649.014	16.62
649.774	15.62
650.533	11.62
651.292	13.62
652.051	13.62
652.81	12.62
653.569	10.62
654.328	14.62
655.087	14.62
655.846	9.62
656.604	12.62
657.363	10.62
658.121	11.62
658.88	10.62
659.638	9.62
660.397	11.62
661.155	8.62
661.913	10.62
662.671	10.62
663.429	12.62
664.187	10.62
664.945	9.62
665.703	8.62
666.46	9.62
667.218	12.62
667.976	11.62
668.733	10.62
669.49	10.62
670.248	7.62
671.005	7.62
671.762	6.62
672.519	7.62
673.276	9.62
674.033	7.62
674.79	10.62
675.547	9.62
676.304	8.62
677.06	5.62
677.817	8.62
678.574	7.62
679.33	7.62
680.086	6.62
680.843	6.62
681.599	8.62
682.355	7.62
683.111	8.62
683.867	8.62
684.623	7.62
685.379	9.62
686.135	5.62
686.89	6.62
687.646	8.62
688.402	7.62
689.157	8.62
689.912	6.62
690.668	7.62
691.423	6.62
692.178	5.62
692.933	6.62
693.688	6.62
694.443	6.62
695.198	7.62
695.953	6.62
696.708	5.62
697.462	8.62
698.217	7.62
698.972	6.62
699.726	8.62
700.48	9.62
701.235	6.62
701.989	5.62
702.743	6.62
703.497	7.62
704.251	9.62
705.005	7.62
705.759	6.62
706.513	9.62
707.266	7.62
708.02	6.62
708.774	7.62
709.527	9.62
710.28	7.62
711.034	4.62
711.787	7.62
712.54	6.62
713.293	6.62
714.046	6.62
714.799	8.62
715.552	6.62
716.305	8.62
717.058	5.62
717.81	7.62
718.563	10.62
719.315	6.62
720.068	6.62
720.82	6.62
721.573	8.62
722.325	6.62
723.077	7.62
723.829	7.62
724.581	8.62
725.333	6.62
726.085	8.62
726.836	7.62
727.588	6.62
728.34	7.62
729.091	7.62
729.843	4.62
730.594	8.62
731.346	7.62
732.097	9.62
732.848	9.62
733.599	7.62
734.35	6.62
735.101	5.62
735.852	7.62
736.603	8.62
737.354	9.62
738.104	11.62
738.855	9.62
739.605	9.62
740.356	10.62
741.106	9.62
741.856	9.62
742.607	4.62
743.357	10.62
744.107	8.62
744.857	8.62
745.607	8.62
746.357	10.62
747.106	10.62
747.856	11.62
748.606	11.62
749.355	8.62
750.105	10.62
750.854	9.62
751.603	10.62
752.353	9.62
753.102	8.62
753.851	10.62
754.6	9.62
755.349	12.62
756.098	10.62
756.847	11.62
757.595	9.62
758.344	10.62
759.093	9.62
759.841	10.62
760.589	10.62
761.338	10.62
762.086	13.62
762.834	13.62
763.582	12.62
764.331	14.62
765.079	13.62
765.826	11.62
766.574	13.62
767.322	12.62
768.07	13.62
768.817	12.62
769.565	14.62
770.312	11.62
771.06	9.62
771.807	13.62
772.554	13.62
773.302	12.62
774.049	14.62
774.796	13.62
775.543	15.62
776.29	14.62
777.036	16.62
777.783	12.62
778.53	13.62
779.276	13.62
780.023	15.62
780.769	15.62
781.516	14.62
782.262	14.62
783.008	13.62
783.754	13.62
784.5	13.62
785.246	14.62
785.992	15.62
786.738	13.62
787.484	14.62
788.23	16.62
788.975	14.62
789.721	13.62
790.466	12.62
791.212	13.62
791.957	12.62
792.702	13.62
793.447	11.62
794.193	13.62
794.938	13.62
795.683	14.62
796.427	14.62
797.172	11.62
797.917	14.62
798.662	11.62
799.406	11.62
800.151	13.62
800.895	10.62
801.64	11.62
802.384	14.62
803.128	8.62
803.872	13.62
804.616	10.62
805.36	9.62
806.104	9.62
806.848	9.62
807.592	9.62
808.336	7.62
809.079	9.62
809.823	8.62
810.566	7.62
811.31	8.62
812.053	11.62
812.796	10.62
813.539	8.62
814.283	8.62
815.026	8.62
815.769	10.62
816.511	8.62
817.254	9.62
817.997	8.62
818.74	8.62
819.482	8.62
820.225	5.62
820.967	7.62
821.71	5.62
822.452	6.62
823.194	6.62
823.936	7.62
824.678	6.62
825.42	4.62
826.162	5.62
826.904	6.62
827.646	4.62
828.388	4.62
829.129	5.62
829.871	6.62
830.612	6.62
831.354	4.62
832.095	5.62
832.836	5.62
833.577	4.62
834.319	4.62
835.06	5.62
835.801	7.62
836.542	4.62
837.282	5.62
838.023	5.62
838.764	6.62
839.504	4.62
840.245	5.62
840.985	4.62
841.726	4.62
842.466	3.62
843.206	4.62
843.946	7.62
844.687	3.62
845.427	5.62
846.166	2.62
846.906	3.62
847.646	4.62
848.386	5.62
849.125	6.62
849.865	4.62
850.605	1.62
851.344	5.62
852.083	3.62
852.823	4.62
853.562	3.62
854.301	3.62
855.04	4.62
855.779	2.62
856.518	5.62
857.257	4.62
857.995	6.62
858.734	2.62
859.473	2.62
860.211	5.62
860.95	1.62
861.688	4.62
862.426	5.62
863.165	5.62
863.903	4.62
864.641	1.62
865.379	4.62
866.117	0.62
866.855	2.62
867.593	3.62
868.33	1.62
869.068	0.62
869.806	3.62
870.543	2.62
871.28	1.62
872.018	3.62
872.755	2.62
873.492	-1.38
874.229	0.62
874.967	2.62
875.703	2.62
876.44	0.62
877.177	2.62
877.914	4.62
878.651	0.62
879.387	1.62
880.124	2.62
880.86	2.62
881.597	2.62
882.333	-0.38
883.069	0.62
883.806	1.62
884.542	2.62
885.278	-0.38
886.014	0.62
886.749	-0.38
887.485	1.62
888.221	2.62
888.957	0.62
889.692	2.62
890.428	1.62
891.163	0.62
891.899	0.62
892.634	1.62
893.369	1.62
894.104	1.62
894.839	2.62
895.574	-0.38
896.309	0.62
897.044	1.62
897.779	-1.38
898.514	0.62
899.248	0.62
899.983	0.62
900.717	0.62
901.452	-1.38
902.186	0.62
902.92	0.62
903.654	2.62
904.389	-1.38
905.123	-0.38
905.857	0.62
906.59	0.62
907.324	-0.38
908.058	0.62
908.792	3.62
909.525	0.62
910.259	-0.38
910.992	1.62
911.726	1.62
912.459	0.62
913.192	1.62
913.925	1.62
914.658	1.62
915.391	-1.38
916.124	0.62
916.857	1.62
917.59	1.62
918.323	-0.38
919.055	-1.38
919.788	1.62
920.521	-0.38
921.253	0.62
921.985	-1.38
922.718	-0.38
923.45	-1.38
924.182	-0.38
924.914	-0.38
925.646	0.62
926.378	-0.38
927.11	0.62
927.841	-1.38
928.573	-0.38
929.305	-0.38
930.036	0.62
930.768	1.62
931.499	-0.38
932.23	-0.38
932.962	-2.38
933.693	-0.38
934.424	1.62
935.155	1.62
935.886	-1.38
936.617	-0.38
937.348	0.62
938.078	-2.38
938.809	-1.38
939.54	-1.38
940.27	0.62
941.001	-0.38
941.731	-0.38
942.461	-0.38
943.191	-1.38
943.922	-0.38
944.652	-1.38
945.382	-0.38
946.112	-0.38
946.841	-0.38
947.571	-0.38
948.301	-0.38
949.031	-0.38
949.76	1.62
950.49	-3.38
951.219	1.62
951.948	-0.38
952.678	-0.38
953.407	-1.38
954.136	-0.38
954.865	3.62
955.594	0.62
956.323	-0.38
957.052	1.62
957.78	2.62
958.509	1.62
959.238	-0.38
959.966	-1.38
960.695	-2.38
961.423	1.62
962.151	0.62
962.88	-0.38
963.608	-0.38
964.336	-1.38
965.064	0.62
965.792	-0.38
966.52	0.62
967.247	1.62
967.975	-2.38
968.703	1.62
969.43	-0.38
970.158	0.62
970.885	-1.38
971.613	2.62
972.34	-0.38
973.067	0.62
973.794	-1.38
974.521	-1.38
975.248	2.62
975.975	-0.38
976.702	0.62
977.429	1.62
978.156	-1.38
978.882	-0.38
979.609	-0.38
980.335	0.62
981.062	1.62
981.788	0.62
982.514	0.62
983.24	-0.38
983.967	1.62
984.693	0.62
985.419	0.62
986.144	-0.38
986.87	0.62
987.596	0.62
988.322	0.62
989.047	-0.38
989.773	-0.38
990.498	-1.38
991.224	-1.38
991.949	0.62
992.674	1.62
993.399	0.62
994.124	-3.38
994.849	-1.38
995.574	-1.38
996.299	2.62
997.024	-0.38
997.749	0.62
998.473	0.62
999.198	-0.38
999.922	-1.38
1000.647	-3.38
1001.371	2.62
1002.095	-1.38
1002.82	-0.38
1003.544	1.62
1004.268	3.62
1004.992	2.62
1005.716	4.62
1006.439	3.62
1007.163	4.62
1007.887	4.62
1008.611	0.62
1009.334	-0.38
1010.058	0.62
1010.781	-3.38
1011.504	0.62
1012.228	1.62
1012.951	-1.38
1013.674	-1.38
1014.397	0.62
1015.12	-0.38
