节点500_705_QEPB04081__344__20-50-49-570.txt的数据

Date: Wed Nov 12 20:50:49 CST 2025
User: PC
Spectrometer: QEPB0408
触发模式: 0
积分时间 (秒): 1.000000E-2
Scans to average: 1
启用暗噪声校正: true
启用非线性校正: false
滑动平均宽度: 0
X轴模式: Wavelengths
Number of Pixels in Spectrum: 1044
>>>>>Begin Spectral Data<<<<<
220.843	5
221.644	4
222.444	6
223.244	5
224.045	6
224.845	5
225.645	7
226.445	7
227.245	7
228.045	8
228.845	9
229.645	9
230.444	7
231.244	7
232.043	11
232.843	10
233.642	9
234.442	9
235.241	10
236.04	8
236.839	9
237.638	10
238.437	8
239.236	12
240.035	12
240.833	12
241.632	11
242.43	12
243.229	14
244.027	13
244.826	13
245.624	13
246.422	12
247.22	12
248.018	13
248.816	15
249.614	15
250.412	18
251.21	15
252.007	17
252.805	18
253.602	16
254.4	21
255.197	16
255.994	19
256.791	19
257.589	17
258.386	21
259.183	22
259.979	21
260.776	22
261.573	21
262.37	25
263.166	26
263.963	23
264.759	23
265.556	30
266.352	27
267.148	27
267.944	28
268.74	26
269.536	29
270.332	31
271.128	32
271.924	29
272.719	30
273.515	36
274.311	31
275.106	34
275.901	33
276.697	34
277.492	35
278.287	31
279.082	34
279.877	33
280.672	31
281.467	36
282.262	36
283.056	35
283.851	35
284.646	30
285.44	34
286.234	35
287.029	38
287.823	34
288.617	33
289.411	31
290.205	30
290.999	33
291.793	35
292.587	29
293.381	32
294.174	29
294.968	27
295.761	29
296.555	26
297.348	26
298.141	29
298.935	31
299.728	25
300.521	26
301.314	24
302.107	24
302.899	21
303.692	23
304.485	22
305.277	23
306.07	24
306.862	19
307.655	24
308.447	19
309.239	22
310.031	18
310.823	19
311.615	18
312.407	18
313.199	16
313.991	18
314.783	15
315.574	17
316.366	15
317.157	17
317.949	14
318.74	14
319.531	16
320.322	12
321.113	14
321.904	14
322.695	15
323.486	11
324.277	10
325.068	14
325.858	13
326.649	14
327.439	12
328.23	11
329.02	12
329.81	13
330.6	13
331.391	12
332.181	12
332.971	13
333.76	14
334.55	13
335.34	10
336.13	13
336.919	13
337.709	10
338.498	11
339.287	12
340.077	16
340.866	12
341.655	16
342.444	10
343.233	12
344.022	12
344.811	10
345.6	13
346.388	11
347.177	14
347.965	12
348.754	11
349.542	10
350.33	11
351.119	11
351.907	12
352.695	11
353.483	12
354.271	9
355.059	14
355.846	11
356.634	10
357.422	10
358.209	10
358.997	10
359.784	11
360.571	8
361.359	10
362.146	8
362.933	7
363.72	10
364.507	9
365.294	11
366.081	9
366.867	10
367.654	9
368.44	11
369.227	8
370.013	11
370.8	8
371.586	10
372.372	9
373.158	8
373.944	8
374.73	8
375.516	10
376.302	7
377.088	9
377.873	12
378.659	8
379.445	12
380.23	11
381.015	9
381.801	12
382.586	10
383.371	10
384.156	12
384.941	11
385.726	11
386.511	11
387.296	13
388.08	12
388.865	10
389.649	13
390.434	12
391.218	13
392.003	6
392.787	11
393.571	12
394.355	13
395.139	13
395.923	10
396.707	13
397.491	11
398.274	16
399.058	14
399.842	12
400.625	14
401.408	14
402.192	15
402.975	15
403.758	15
404.541	15
405.324	12
406.107	16
406.89	13
407.673	15
408.456	14
409.238	17
410.021	15
410.803	16
411.586	15
412.368	17
413.151	19
413.933	17
414.715	16
415.497	18
416.279	18
417.061	18
417.843	20
418.624	21
419.406	21
420.188	21
420.969	24
421.751	23
422.532	24
423.313	22
424.095	23
424.876	26
425.657	26
426.438	23
427.219	26
428	25
428.78	26
429.561	29
430.342	32
431.122	33
431.903	34
432.683	32
433.464	34
434.244	39
435.024	39
435.804	44
436.584	42
437.364	46
438.144	47
438.924	50
439.704	54
440.483	56
441.263	62
442.042	68
442.822	68
443.601	74
444.38	80
445.16	89
445.939	93
446.718	103
447.497	113
448.276	122
449.054	135
449.833	149
450.612	166
451.391	180
452.169	192
452.948	220
453.726	250
454.504	271
455.282	300
456.061	329
456.839	367
457.617	416
458.395	454
459.172	505
459.95	573
460.728	642
461.506	713
462.283	792
463.061	879
463.838	983
464.615	1108
465.393	1227
466.17	1349
466.947	1507
467.724	1660
468.501	1867
469.278	2057
470.055	2271
470.831	2514
471.608	2765
472.385	3041
473.161	3366
473.938	3694
474.714	4063
475.49	4442
476.266	4888
477.043	5310
477.819	5790
478.595	6388
479.371	6955
480.146	7550
480.922	8252
481.698	9018
482.473	9833
483.249	10649
484.024	11586
484.8	12531
485.575	13552
486.35	14724
487.126	15929
487.901	17254
488.676	18593
489.451	20044
490.225	21525
491	23114
491.775	24727
492.55	26459
493.324	28126
494.099	29878
494.873	31690
495.647	33457
496.422	35307
497.196	36976
497.97	38625
498.744	40196
499.518	41802
500.292	43115
501.066	44228
501.839	45080
502.613	45946
503.387	46538
504.16	46862
504.934	47034
505.707	47057
506.48	46779
507.253	46209
508.027	45518
508.8	44569
509.573	43496
510.346	42547
511.118	41410
511.891	40389
512.664	38768
513.437	37320
514.209	35915
514.982	34645
515.754	33158
516.526	31838
517.298	30604
518.071	29322
518.843	28168
519.615	27085
520.387	26031
521.159	24991
521.93	23940
522.702	22901
523.474	21967
524.245	21015
525.017	20104
525.788	19245
526.56	18458
527.331	17614
528.102	16717
528.873	15901
529.644	15208
530.415	14492
531.186	13746
531.957	13040
532.728	12371
533.498	11738
534.269	11079
535.039	10511
535.81	9932
536.58	9376
537.351	8893
538.121	8465
538.891	7991
539.661	7552
540.431	7138
541.201	6777
541.971	6429
542.741	6119
543.51	5780
544.28	5515
545.05	5238
545.819	5005
546.588	4729
547.358	4515
548.127	4321
548.896	4075
549.665	3886
550.434	3679
551.203	3479
551.972	3296
552.741	3129
553.51	2946
554.278	2783
555.047	2621
555.815	2492
556.584	2349
557.352	2217
558.121	2100
558.889	1989
559.657	1875
560.425	1783
561.193	1676
561.961	1606
562.729	1514
563.496	1413
564.264	1351
565.032	1268
565.799	1199
566.567	1129
567.334	1076
568.101	1014
568.869	957
569.636	907
570.403	859
571.17	814
571.937	759
572.704	719
573.471	679
574.237	642
575.004	597
575.771	565
576.537	531
577.303	508
578.07	481
578.836	458
579.602	422
580.368	411
581.134	389
581.9	366
582.666	351
583.432	336
584.198	321
584.964	305
585.729	289
586.495	269
587.26	251
588.025	246
588.791	225
589.556	217
590.321	203
591.086	199
591.851	190
592.616	183
593.381	170
594.146	159
594.911	152
595.675	145
596.44	141
597.204	134
597.969	130
598.733	125
599.497	115
600.261	110
601.025	106
601.79	107
602.553	101
603.317	95
604.081	92
604.845	90
605.609	86
606.372	83
607.136	78
607.899	76
608.662	71
609.426	75
610.189	69
610.952	63
611.715	65
612.478	58
613.241	55
614.004	56
614.767	52
615.529	50
616.292	47
617.055	51
617.817	47
618.579	44
619.342	43
620.104	40
620.866	43
621.628	40
622.39	36
623.152	38
623.914	36
624.676	39
625.438	36
626.199	33
626.961	32
627.722	29
628.484	31
629.245	28
630.006	29
630.768	27
631.529	28
632.29	27
633.051	23
633.812	28
634.573	24
635.333	25
636.094	22
636.855	19
637.615	24
638.376	21
639.136	21
639.896	20
640.657	19
641.417	19
642.177	16
642.937	19
643.697	17
644.457	15
645.216	16
645.976	15
646.736	16
647.495	14
648.255	16
649.014	15
649.774	17
650.533	16
651.292	13
652.051	14
652.81	14
653.569	14
654.328	12
655.087	14
655.846	11
656.604	10
657.363	14
658.121	11
658.88	12
659.638	14
660.397	11
661.155	13
661.913	10
662.671	12
663.429	11
664.187	10
664.945	12
665.703	11
666.46	11
667.218	9
667.976	11
668.733	10
669.49	10
670.248	12
671.005	10
671.762	11
672.519	10
673.276	9
674.033	9
674.79	9
675.547	7
676.304	8
677.06	9
677.817	9
678.574	8
679.33	8
680.086	10
680.843	11
681.599	9
682.355	10
683.111	8
683.867	8
684.623	9
685.379	7
686.135	9
686.89	7
687.646	7
688.402	7
689.157	9
689.912	7
690.668	9
691.423	7
692.178	9
692.933	7
693.688	11
694.443	7
695.198	8
695.953	7
696.708	5
697.462	8
698.217	6
698.972	7
699.726	8
700.48	6
701.235	9
701.989	7
702.743	7
703.497	7
704.251	9
705.005	7
705.759	8
706.513	7
707.266	9
708.02	8
708.774	9
709.527	8
710.28	6
711.034	8
711.787	7
712.54	8
713.293	7
714.046	8
714.799	8
715.552	10
716.305	7
717.058	9
717.81	10
718.563	9
719.315	5
720.068	9
720.82	7
721.573	7
722.325	8
723.077	8
723.829	8
724.581	10
725.333	8
726.085	8
726.836	6
727.588	8
728.34	9
729.091	8
729.843	7
730.594	9
731.346	8
732.097	9
732.848	7
733.599	8
734.35	9
735.101	9
735.852	9
736.603	8
737.354	9
738.104	10
738.855	9
739.605	10
740.356	8
741.106	10
741.856	9
742.607	10
743.357	11
744.107	10
744.857	9
745.607	10
746.357	11
747.106	9
747.856	9
748.606	9
749.355	11
750.105	9
750.854	12
751.603	10
752.353	10
753.102	13
753.851	11
754.6	11
755.349	11
756.098	13
756.847	13
757.595	10
758.344	13
759.093	10
759.841	11
760.589	15
761.338	14
762.086	15
762.834	12
763.582	14
764.331	14
765.079	15
765.826	14
766.574	15
767.322	14
768.07	14
768.817	15
769.565	12
770.312	13
771.06	14
771.807	16
772.554	16
773.302	16
774.049	15
774.796	16
775.543	15
776.29	15
777.036	16
777.783	16
778.53	17
779.276	18
780.023	18
780.769	16
781.516	14
782.262	16
783.008	15
783.754	15
784.5	14
785.246	16
785.992	13
786.738	16
787.484	16
788.23	15
788.975	15
789.721	16
790.466	14
791.212	15
791.957	14
792.702	15
793.447	13
794.193	15
794.938	15
795.683	13
796.427	15
797.172	13
797.917	14
798.662	14
799.406	14
800.151	12
800.895	13
801.64	13
802.384	10
803.128	12
803.872	11
804.616	14
805.36	11
806.104	10
806.848	10
807.592	9
808.336	11
809.079	9
809.823	10
810.566	8
811.31	9
812.053	10
812.796	9
813.539	8
814.283	9
815.026	10
815.769	8
816.511	7
817.254	9
817.997	6
818.74	8
819.482	8
820.225	9
820.967	8
821.71	6
822.452	10
823.194	7
823.936	7
824.678	9
825.42	7
826.162	6
826.904	7
827.646	9
828.388	5
829.129	7
829.871	7
830.612	7
831.354	7
832.095	6
832.836	4
833.577	4
834.319	7
835.06	6
835.801	6
836.542	6
837.282	7
838.023	7
838.764	5
839.504	8
840.245	7
840.985	5
841.726	6
842.466	6
843.206	7
843.946	8
844.687	6
845.427	4
846.166	6
846.906	6
847.646	5
848.386	6
849.125	5
849.865	7
850.605	6
851.344	5
852.083	4
852.823	5
853.562	5
854.301	5
855.04	5
855.779	5
856.518	4
857.257	3
857.995	6
858.734	3
859.473	6
860.211	0
860.95	2
861.688	2
862.426	2
863.165	5
863.903	3
864.641	5
865.379	2
866.117	3
866.855	3
867.593	2
868.33	2
869.068	0
869.806	2
870.543	2
871.28	3
872.018	4
872.755	1
873.492	5
874.229	2
874.967	1
875.703	2
876.44	0
877.177	3
877.914	1
878.651	1
879.387	2
880.124	-2
880.86	2
881.597	2
882.333	2
883.069	0
883.806	3
884.542	2
885.278	1
886.014	1
886.749	3
887.485	3
888.221	1
888.957	0
889.692	3
890.428	1
891.163	2
891.899	-1
892.634	2
893.369	2
894.104	2
894.839	1
895.574	-1
896.309	3
897.044	1
897.779	-2
898.514	2
899.248	1
899.983	0
900.717	0
901.452	1
902.186	1
902.92	1
903.654	2
904.389	-1
905.123	2
905.857	0
906.59	-1
907.324	2
908.058	-1
908.792	0
909.525	2
910.259	1
910.992	3
911.726	1
912.459	3
913.192	-1
913.925	1
914.658	1
915.391	1
916.124	0
916.857	-1
917.59	-1
918.323	2
919.055	2
919.788	0
920.521	1
921.253	0
921.985	0
922.718	0
923.45	-5
924.182	2
924.914	1
925.646	1
926.378	-1
927.11	2
927.841	1
928.573	1
929.305	-2
930.036	1
930.768	-1
931.499	3
932.23	0
932.962	-1
933.693	1
934.424	-1
935.155	-1
935.886	0
936.617	1
937.348	1
938.078	3
938.809	-1
939.54	0
940.27	0
941.001	1
941.731	0
942.461	1
943.191	1
943.922	2
944.652	-1
945.382	1
946.112	-1
946.841	1
947.571	1
948.301	1
949.031	-3
949.76	-1
950.49	3
951.219	1
951.948	2
952.678	-1
953.407	-2
954.136	1
954.865	2
955.594	1
956.323	0
957.052	-2
957.78	1
958.509	-1
959.238	-1
959.966	2
960.695	-3
961.423	1
962.151	1
962.88	0
963.608	-2
964.336	-1
965.064	-1
965.792	2
966.52	1
967.247	-2
967.975	-3
968.703	3
969.43	0
970.158	1
970.885	-1
971.613	1
972.34	1
973.067	1
973.794	1
974.521	-1
975.248	0
975.975	-1
976.702	1
977.429	1
978.156	-1
978.882	2
979.609	-1
980.335	2
981.062	-1
981.788	0
982.514	2
983.24	0
983.967	-1
984.693	-1
985.419	1
986.144	-2
986.87	1
987.596	1
988.322	1
989.047	1
989.773	-2
990.498	0
991.224	2
991.949	-1
992.674	0
993.399	1
994.124	-1
994.849	-1
995.574	0
996.299	1
997.024	0
997.749	1
998.473	0
999.198	1
999.922	1
1000.647	-1
1001.371	3
1002.095	-1
1002.82	0
1003.544	-1
1004.268	4
1004.992	4
1005.716	4
1006.439	5
1007.163	5
1007.887	6
1008.611	1
1009.334	2
1010.058	2
1010.781	-3
1011.504	-1
1012.228	0
1012.951	0
1013.674	0
1014.397	-2
1015.12	1
