节点500_705_QEPB04081__230__20-49-10-482.txt的数据

Date: Wed Nov 12 20:49:10 CST 2025
User: PC
Spectrometer: QEPB0408
触发模式: 0
积分时间 (秒): 1.000000E-2
Scans to average: 1
启用暗噪声校正: true
启用非线性校正: false
滑动平均宽度: 0
X轴模式: Wavelengths
Number of Pixels in Spectrum: 1044
>>>>>Begin Spectral Data<<<<<
220.843	6.88
221.644	8.88
222.444	8.88
223.244	6.88
224.045	8.88
224.845	6.88
225.645	9.88
226.445	8.88
227.245	7.88
228.045	8.88
228.845	6.88
229.645	11.88
230.444	8.88
231.244	10.88
232.043	7.88
232.843	9.88
233.642	11.88
234.442	8.88
235.241	11.88
236.04	8.88
236.839	12.88
237.638	12.88
238.437	11.88
239.236	10.88
240.035	13.88
240.833	13.88
241.632	13.88
242.43	11.88
243.229	12.88
244.027	10.88
244.826	13.88
245.624	15.88
246.422	13.88
247.22	14.88
248.018	15.88
248.816	15.88
249.614	15.88
250.412	19.88
251.21	16.88
252.007	19.88
252.805	18.88
253.602	16.88
254.4	19.88
255.197	22.88
255.994	21.88
256.791	18.88
257.589	22.88
258.386	19.88
259.183	21.88
259.979	24.88
260.776	23.88
261.573	23.88
262.37	25.88
263.166	25.88
263.963	27.88
264.759	29.88
265.556	29.88
266.352	27.88
267.148	28.88
267.944	29.88
268.74	29.88
269.536	31.88
270.332	29.88
271.128	29.88
271.924	30.88
272.719	32.88
273.515	35.88
274.311	33.88
275.106	34.88
275.901	34.88
276.697	36.88
277.492	34.88
278.287	35.88
279.082	37.88
279.877	33.88
280.672	37.88
281.467	35.88
282.262	34.88
283.056	35.88
283.851	38.88
284.646	37.88
285.44	32.88
286.234	33.88
287.029	38.88
287.823	34.88
288.617	38.88
289.411	30.88
290.205	31.88
290.999	32.88
291.793	34.88
292.587	34.88
293.381	29.88
294.174	31.88
294.968	31.88
295.761	27.88
296.555	26.88
297.348	25.88
298.141	27.88
298.935	31.88
299.728	27.88
300.521	26.88
301.314	27.88
302.107	24.88
302.899	24.88
303.692	27.88
304.485	26.88
305.277	22.88
306.07	23.88
306.862	25.88
307.655	23.88
308.447	22.88
309.239	22.88
310.031	19.88
310.823	19.88
311.615	18.88
312.407	16.88
313.199	18.88
313.991	17.88
314.783	19.88
315.574	15.88
316.366	15.88
317.157	15.88
317.949	16.88
318.74	17.88
319.531	15.88
320.322	14.88
321.113	13.88
321.904	12.88
322.695	14.88
323.486	14.88
324.277	15.88
325.068	12.88
325.858	13.88
326.649	12.88
327.439	15.88
328.23	11.88
329.02	15.88
329.81	16.88
330.6	12.88
331.391	13.88
332.181	10.88
332.971	13.88
333.76	12.88
334.55	11.88
335.34	11.88
336.13	14.88
336.919	12.88
337.709	13.88
338.498	12.88
339.287	13.88
340.077	11.88
340.866	12.88
341.655	14.88
342.444	12.88
343.233	13.88
344.022	13.88
344.811	14.88
345.6	11.88
346.388	9.88
347.177	12.88
347.965	11.88
348.754	10.88
349.542	13.88
350.33	10.88
351.119	13.88
351.907	11.88
352.695	12.88
353.483	11.88
354.271	10.88
355.059	12.88
355.846	13.88
356.634	10.88
357.422	11.88
358.209	11.88
358.997	9.88
359.784	10.88
360.571	11.88
361.359	10.88
362.146	9.88
362.933	12.88
363.72	8.88
364.507	11.88
365.294	9.88
366.081	10.88
366.867	9.88
367.654	9.88
368.44	10.88
369.227	9.88
370.013	11.88
370.8	10.88
371.586	9.88
372.372	9.88
373.158	10.88
373.944	11.88
374.73	8.88
375.516	13.88
376.302	12.88
377.088	9.88
377.873	9.88
378.659	11.88
379.445	11.88
380.23	11.88
381.015	11.88
381.801	12.88
382.586	10.88
383.371	11.88
384.156	9.88
384.941	9.88
385.726	9.88
386.511	9.88
387.296	10.88
388.08	8.88
388.865	12.88
389.649	9.88
390.434	13.88
391.218	13.88
392.003	11.88
392.787	11.88
393.571	12.88
394.355	10.88
395.139	11.88
395.923	9.88
396.707	13.88
397.491	13.88
398.274	13.88
399.058	11.88
399.842	14.88
400.625	11.88
401.408	13.88
402.192	14.88
402.975	14.88
403.758	14.88
404.541	13.88
405.324	17.88
406.107	17.88
406.89	16.88
407.673	16.88
408.456	12.88
409.238	19.88
410.021	15.88
410.803	18.88
411.586	18.88
412.368	18.88
413.151	18.88
413.933	16.88
414.715	21.88
415.497	17.88
416.279	21.88
417.061	21.88
417.843	18.88
418.624	22.88
419.406	21.88
420.188	22.88
420.969	20.88
421.751	20.88
422.532	23.88
423.313	24.88
424.095	24.88
424.876	24.88
425.657	24.88
426.438	25.88
427.219	26.88
428	28.88
428.78	26.88
429.561	30.88
430.342	32.88
431.122	31.88
431.903	31.88
432.683	34.88
433.464	36.88
434.244	33.88
435.024	41.88
435.804	42.88
436.584	41.88
437.364	45.88
438.144	44.88
438.924	50.88
439.704	53.88
440.483	54.88
441.263	57.88
442.042	60.88
442.822	69.88
443.601	74.88
444.38	79.88
445.16	88.88
445.939	92.88
446.718	100.88
447.497	108.88
448.276	120.88
449.054	133.88
449.833	142.88
450.612	157.88
451.391	171.88
452.169	187.88
452.948	208.88
453.726	235.88
454.504	259.88
455.282	282.88
456.061	329.88
456.839	346.88
457.617	396.88
458.395	441.88
459.172	484.88
459.95	554.88
460.728	614.88
461.506	687.88
462.283	770.88
463.061	867.88
463.838	958.88
464.615	1081.88
465.393	1182.88
466.17	1314.88
466.947	1477.88
467.724	1637.88
468.501	1827.88
469.278	2023.88
470.055	2229.88
470.831	2486.88
471.608	2765.88
472.385	3028.88
473.161	3353.88
473.938	3694.88
474.714	4055.88
475.49	4487.88
476.266	4899.88
477.043	5392.88
477.819	5876.88
478.595	6439.88
479.371	7087.88
480.146	7735.88
480.922	8465.88
481.698	9238.88
482.473	10105.88
483.249	10961.88
484.024	11927.88
484.8	12967.88
485.575	14114.88
486.35	15339.88
487.126	16610.88
487.901	17935.88
488.676	19406.88
489.451	20981.88
490.225	22620.88
491	24238.88
491.775	25958.88
492.55	27817.88
493.324	29608.88
494.099	31426.88
494.873	33324.88
495.647	35169.88
496.422	37065.88
497.196	38890.88
497.97	40637.88
498.744	42113.88
499.518	43727.88
500.292	45037.88
501.066	46024.88
501.839	46924.88
502.613	47541.88
503.387	48090.88
504.16	48461.88
504.934	48265.88
505.707	48204.88
506.48	47775.88
507.253	47087.88
508.027	46282.88
508.8	45262.88
509.573	44016.88
510.346	42806.88
511.118	41598.88
511.891	40279.88
512.664	38692.88
513.437	37154.88
514.209	35806.88
514.982	34328.88
515.754	32971.88
516.526	31497.88
517.298	30268.88
518.071	28998.88
518.843	27893.88
519.615	26682.88
520.387	25762.88
521.159	24682.88
521.93	23548.88
522.702	22620.88
523.474	21687.88
524.245	20767.88
525.017	19831.88
525.788	18926.88
526.56	18099.88
527.331	17368.88
528.102	16421.88
528.873	15573.88
529.644	14826.88
530.415	14175.88
531.186	13389.88
531.957	12720.88
532.728	12063.88
533.498	11366.88
534.269	10809.88
535.039	10219.88
535.81	9662.88
536.58	9138.88
537.351	8633.88
538.121	8200.88
538.891	7763.88
539.661	7324.88
540.431	6922.88
541.201	6601.88
541.971	6220.88
542.741	5916.88
543.51	5617.88
544.28	5366.88
545.05	5106.88
545.819	4864.88
546.588	4599.88
547.358	4402.88
548.127	4184.88
548.896	3962.88
549.665	3767.88
550.434	3563.88
551.203	3379.88
551.972	3195.88
552.741	3006.88
553.51	2876.88
554.278	2698.88
555.047	2519.88
555.815	2414.88
556.584	2274.88
557.352	2145.88
558.121	2021.88
558.889	1909.88
559.657	1797.88
560.425	1698.88
561.193	1611.88
561.961	1542.88
562.729	1440.88
563.496	1372.88
564.264	1304.88
565.032	1229.88
565.799	1163.88
566.567	1089.88
567.334	1035.88
568.101	986.88
568.869	925.88
569.636	877.88
570.403	831.88
571.17	784.88
571.937	730.88
572.704	693.88
573.471	666.88
574.237	617.88
575.004	582.88
575.771	551.88
576.537	514.88
577.303	487.88
578.07	463.88
578.836	430.88
579.602	404.88
580.368	391.88
581.134	371.88
581.9	348.88
582.666	334.88
583.432	321.88
584.198	302.88
584.964	288.88
585.729	271.88
586.495	263.88
587.26	246.88
588.025	231.88
588.791	220.88
589.556	209.88
590.321	200.88
591.086	188.88
591.851	184.88
592.616	171.88
593.381	168.88
594.146	153.88
594.911	150.88
595.675	144.88
596.44	136.88
597.204	131.88
597.969	122.88
598.733	123.88
599.497	113.88
600.261	110.88
601.025	105.88
601.79	98.88
602.553	100.88
603.317	95.88
604.081	91.88
604.845	90.88
605.609	82.88
606.372	80.88
607.136	74.88
607.899	77.88
608.662	70.88
609.426	67.88
610.189	66.88
610.952	61.88
611.715	58.88
612.478	62.88
613.241	54.88
614.004	53.88
614.767	51.88
615.529	49.88
616.292	46.88
617.055	45.88
617.817	47.88
618.579	44.88
619.342	43.88
620.104	41.88
620.866	39.88
621.628	36.88
622.39	38.88
623.152	36.88
623.914	37.88
624.676	35.88
625.438	30.88
626.199	33.88
626.961	32.88
627.722	31.88
628.484	33.88
629.245	30.88
630.006	27.88
630.768	26.88
631.529	27.88
632.29	23.88
633.051	24.88
633.812	26.88
634.573	22.88
635.333	24.88
636.094	24.88
636.855	22.88
637.615	19.88
638.376	21.88
639.136	20.88
639.896	21.88
640.657	21.88
641.417	19.88
642.177	19.88
642.937	17.88
643.697	18.88
644.457	18.88
645.216	16.88
645.976	16.88
646.736	14.88
647.495	18.88
648.255	15.88
649.014	15.88
649.774	19.88
650.533	13.88
651.292	15.88
652.051	15.88
652.81	13.88
653.569	14.88
654.328	14.88
655.087	12.88
655.846	13.88
656.604	15.88
657.363	12.88
658.121	13.88
658.88	12.88
659.638	14.88
660.397	12.88
661.155	13.88
661.913	10.88
662.671	13.88
663.429	10.88
664.187	12.88
664.945	12.88
665.703	10.88
666.46	12.88
667.218	11.88
667.976	9.88
668.733	11.88
669.49	9.88
670.248	11.88
671.005	10.88
671.762	10.88
672.519	7.88
673.276	9.88
674.033	9.88
674.79	10.88
675.547	9.88
676.304	9.88
677.06	11.88
677.817	9.88
678.574	9.88
679.33	8.88
680.086	8.88
680.843	10.88
681.599	9.88
682.355	9.88
683.111	8.88
683.867	8.88
684.623	8.88
685.379	9.88
686.135	7.88
686.89	10.88
687.646	7.88
688.402	8.88
689.157	9.88
689.912	8.88
690.668	7.88
691.423	8.88
692.178	8.88
692.933	8.88
693.688	8.88
694.443	8.88
695.198	9.88
695.953	8.88
696.708	9.88
697.462	7.88
698.217	8.88
698.972	7.88
699.726	7.88
700.48	7.88
701.235	6.88
701.989	8.88
702.743	6.88
703.497	10.88
704.251	6.88
705.005	9.88
705.759	8.88
706.513	5.88
707.266	6.88
708.02	7.88
708.774	9.88
709.527	8.88
710.28	7.88
711.034	8.88
711.787	7.88
712.54	9.88
713.293	6.88
714.046	9.88
714.799	8.88
715.552	6.88
716.305	8.88
717.058	9.88
717.81	10.88
718.563	10.88
719.315	8.88
720.068	9.88
720.82	8.88
721.573	7.88
722.325	9.88
723.077	7.88
723.829	12.88
724.581	8.88
725.333	9.88
726.085	7.88
726.836	9.88
727.588	9.88
728.34	10.88
729.091	11.88
729.843	7.88
730.594	9.88
731.346	9.88
732.097	10.88
732.848	9.88
733.599	9.88
734.35	11.88
735.101	11.88
735.852	12.88
736.603	12.88
737.354	8.88
738.104	11.88
738.855	9.88
739.605	10.88
740.356	11.88
741.106	9.88
741.856	10.88
742.607	10.88
743.357	11.88
744.107	11.88
744.857	8.88
745.607	10.88
746.357	11.88
747.106	11.88
747.856	11.88
748.606	11.88
749.355	10.88
750.105	11.88
750.854	11.88
751.603	9.88
752.353	12.88
753.102	13.88
753.851	13.88
754.6	11.88
755.349	11.88
756.098	13.88
756.847	14.88
757.595	13.88
758.344	13.88
759.093	11.88
759.841	12.88
760.589	12.88
761.338	13.88
762.086	14.88
762.834	14.88
763.582	15.88
764.331	13.88
765.079	14.88
765.826	17.88
766.574	15.88
767.322	13.88
768.07	14.88
768.817	15.88
769.565	15.88
770.312	16.88
771.06	13.88
771.807	16.88
772.554	19.88
773.302	14.88
774.049	15.88
774.796	17.88
775.543	18.88
776.29	16.88
777.036	18.88
777.783	16.88
778.53	16.88
779.276	15.88
780.023	14.88
780.769	19.88
781.516	15.88
782.262	17.88
783.008	17.88
783.754	16.88
784.5	17.88
785.246	16.88
785.992	16.88
786.738	16.88
787.484	17.88
788.23	16.88
788.975	13.88
789.721	14.88
790.466	14.88
791.212	17.88
791.957	17.88
792.702	16.88
793.447	14.88
794.193	15.88
794.938	15.88
795.683	12.88
796.427	14.88
797.172	12.88
797.917	14.88
798.662	14.88
799.406	11.88
800.151	12.88
800.895	14.88
801.64	13.88
802.384	9.88
803.128	13.88
803.872	12.88
804.616	14.88
805.36	11.88
806.104	10.88
806.848	13.88
807.592	10.88
808.336	11.88
809.079	10.88
809.823	10.88
810.566	10.88
811.31	10.88
812.053	8.88
812.796	12.88
813.539	7.88
814.283	12.88
815.026	7.88
815.769	9.88
816.511	9.88
817.254	7.88
817.997	8.88
818.74	7.88
819.482	8.88
820.225	8.88
820.967	7.88
821.71	7.88
822.452	9.88
823.194	9.88
823.936	8.88
824.678	9.88
825.42	8.88
826.162	7.88
826.904	5.88
827.646	3.88
828.388	5.88
829.129	9.88
829.871	7.88
830.612	8.88
831.354	5.88
832.095	5.88
832.836	5.88
833.577	6.88
834.319	3.88
835.06	6.88
835.801	7.88
836.542	6.88
837.282	5.88
838.023	10.88
838.764	6.88
839.504	7.88
840.245	6.88
840.985	6.88
841.726	4.88
842.466	6.88
843.206	7.88
843.946	4.88
844.687	3.88
845.427	4.88
846.166	4.88
846.906	7.88
847.646	4.88
848.386	3.88
849.125	4.88
849.865	5.88
850.605	6.88
851.344	7.88
852.083	5.88
852.823	3.88
853.562	5.88
854.301	4.88
855.04	4.88
855.779	4.88
856.518	4.88
857.257	5.88
857.995	4.88
858.734	5.88
859.473	5.88
860.211	5.88
860.95	5.88
861.688	4.88
862.426	3.88
863.165	3.88
863.903	3.88
864.641	3.88
865.379	1.88
866.117	3.88
866.855	3.88
867.593	2.88
868.33	2.88
869.068	4.88
869.806	5.88
870.543	1.88
871.28	3.88
872.018	2.88
872.755	1.88
873.492	1.88
874.229	3.88
874.967	3.88
875.703	1.88
876.44	3.88
877.177	2.88
877.914	1.88
878.651	-0.12
879.387	2.88
880.124	0.88
880.86	3.88
881.597	2.88
882.333	0.88
883.069	2.88
883.806	3.88
884.542	2.88
885.278	1.88
886.014	1.88
886.749	2.88
887.485	1.88
888.221	2.88
888.957	3.88
889.692	2.88
890.428	2.88
891.163	1.88
891.899	-0.12
892.634	1.88
893.369	1.88
894.104	2.88
894.839	1.88
895.574	1.88
896.309	0.88
897.044	2.88
897.779	1.88
898.514	0.88
899.248	-0.12
899.983	0.88
900.717	2.88
901.452	0.88
902.186	2.88
902.92	0.88
903.654	-0.12
904.389	0.88
905.123	1.88
905.857	1.88
906.59	1.88
907.324	0.88
908.058	2.88
908.792	1.88
909.525	2.88
910.259	1.88
910.992	1.88
911.726	0.88
912.459	2.88
913.192	1.88
913.925	1.88
914.658	1.88
915.391	1.88
916.124	-2.12
916.857	1.88
917.59	-1.12
918.323	1.88
919.055	-0.12
919.788	0.88
920.521	-0.12
921.253	-0.12
921.985	1.88
922.718	0.88
923.45	0.88
924.182	-0.12
924.914	-0.12
925.646	0.88
926.378	1.88
927.11	0.88
927.841	0.88
928.573	2.88
929.305	0.88
930.036	0.88
930.768	3.88
931.499	1.88
932.23	-0.12
932.962	0.88
933.693	-0.12
934.424	-0.12
935.155	1.88
935.886	1.88
936.617	0.88
937.348	1.88
938.078	0.88
938.809	-0.12
939.54	1.88
940.27	0.88
941.001	0.88
941.731	-0.12
942.461	0.88
943.191	0.88
943.922	0.88
944.652	1.88
945.382	1.88
946.112	-0.12
946.841	1.88
947.571	-0.12
948.301	-0.12
949.031	1.88
949.76	1.88
950.49	-0.12
951.219	-0.12
951.948	1.88
952.678	0.88
953.407	3.88
954.136	0.88
954.865	0.88
955.594	2.88
956.323	0.88
957.052	1.88
957.78	0.88
958.509	2.88
959.238	1.88
959.966	-0.12
960.695	1.88
961.423	-0.12
962.151	2.88
962.88	-0.12
963.608	1.88
964.336	2.88
965.064	0.88
965.792	0.88
966.52	0.88
967.247	1.88
967.975	-1.12
968.703	-0.12
969.43	0.88
970.158	3.88
970.885	0.88
971.613	-0.12
972.34	-0.12
973.067	3.88
973.794	0.88
974.521	0.88
975.248	0.88
975.975	0.88
976.702	0.88
977.429	1.88
978.156	1.88
978.882	-1.12
979.609	1.88
980.335	0.88
981.062	3.88
981.788	1.88
982.514	-0.12
983.24	1.88
983.967	0.88
984.693	1.88
985.419	-1.12
986.144	1.88
986.87	0.88
987.596	1.88
988.322	2.88
989.047	1.88
989.773	-0.12
990.498	0.88
991.224	-0.12
991.949	0.88
992.674	0.88
993.399	0.88
994.124	-0.12
994.849	1.88
995.574	1.88
996.299	3.88
997.024	-0.12
997.749	-0.12
998.473	-0.12
999.198	-0.12
999.922	0.88
1000.647	1.88
1001.371	4.88
1002.095	-0.12
1002.82	-0.12
1003.544	-2.12
1004.268	6.88
1004.992	5.88
1005.716	5.88
1006.439	4.88
1007.163	5.88
1007.887	4.88
1008.611	2.88
1009.334	2.88
1010.058	0.88
1010.781	1.88
1011.504	-0.12
1012.228	2.88
1012.951	-0.12
1013.674	-0.12
1014.397	-1.12
1015.12	-1.12
