节点500_705_QEPB04081__641__20-55-02-819.txt的数据

Date: Wed Nov 12 20:55:02 CST 2025
User: PC
Spectrometer: QEPB0408
触发模式: 0
积分时间 (秒): 1.000000E-2
Scans to average: 1
启用暗噪声校正: true
启用非线性校正: false
滑动平均宽度: 0
X轴模式: Wavelengths
Number of Pixels in Spectrum: 1044
>>>>>Begin Spectral Data<<<<<
220.843	4.38
221.644	5.38
222.444	6.38
223.244	3.38
224.045	3.38
224.845	6.38
225.645	2.38
226.445	6.38
227.245	6.38
228.045	8.38
228.845	7.38
229.645	6.38
230.444	5.38
231.244	8.38
232.043	8.38
232.843	8.38
233.642	7.38
234.442	8.38
235.241	4.38
236.04	8.38
236.839	9.38
237.638	11.38
238.437	10.38
239.236	7.38
240.035	12.38
240.833	10.38
241.632	11.38
242.43	8.38
243.229	8.38
244.027	11.38
244.826	11.38
245.624	11.38
246.422	10.38
247.22	12.38
248.018	13.38
248.816	12.38
249.614	13.38
250.412	14.38
251.21	16.38
252.007	14.38
252.805	12.38
253.602	14.38
254.4	14.38
255.197	18.38
255.994	17.38
256.791	17.38
257.589	18.38
258.386	20.38
259.183	18.38
259.979	21.38
260.776	21.38
261.573	21.38
262.37	21.38
263.166	22.38
263.963	22.38
264.759	20.38
265.556	22.38
266.352	24.38
267.148	26.38
267.944	25.38
268.74	23.38
269.536	26.38
270.332	26.38
271.128	26.38
271.924	26.38
272.719	25.38
273.515	28.38
274.311	29.38
275.106	27.38
275.901	27.38
276.697	28.38
277.492	30.38
278.287	28.38
279.082	32.38
279.877	27.38
280.672	33.38
281.467	30.38
282.262	30.38
283.056	30.38
283.851	30.38
284.646	31.38
285.44	32.38
286.234	28.38
287.029	33.38
287.823	31.38
288.617	27.38
289.411	29.38
290.205	25.38
290.999	29.38
291.793	29.38
292.587	30.38
293.381	28.38
294.174	26.38
294.968	27.38
295.761	24.38
296.555	26.38
297.348	24.38
298.141	26.38
298.935	27.38
299.728	26.38
300.521	24.38
301.314	24.38
302.107	23.38
302.899	22.38
303.692	18.38
304.485	20.38
305.277	21.38
306.07	21.38
306.862	24.38
307.655	21.38
308.447	20.38
309.239	20.38
310.031	19.38
310.823	17.38
311.615	18.38
312.407	17.38
313.199	16.38
313.991	19.38
314.783	16.38
315.574	14.38
316.366	13.38
317.157	16.38
317.949	16.38
318.74	15.38
319.531	12.38
320.322	11.38
321.113	15.38
321.904	14.38
322.695	14.38
323.486	9.38
324.277	13.38
325.068	14.38
325.858	14.38
326.649	15.38
327.439	11.38
328.23	11.38
329.02	13.38
329.81	10.38
330.6	10.38
331.391	12.38
332.181	10.38
332.971	11.38
333.76	8.38
334.55	13.38
335.34	13.38
336.13	11.38
336.919	10.38
337.709	8.38
338.498	9.38
339.287	12.38
340.077	10.38
340.866	10.38
341.655	9.38
342.444	11.38
343.233	9.38
344.022	12.38
344.811	9.38
345.6	9.38
346.388	11.38
347.177	12.38
347.965	11.38
348.754	10.38
349.542	9.38
350.33	10.38
351.119	10.38
351.907	10.38
352.695	7.38
353.483	9.38
354.271	8.38
355.059	10.38
355.846	11.38
356.634	6.38
357.422	9.38
358.209	7.38
358.997	8.38
359.784	6.38
360.571	6.38
361.359	9.38
362.146	7.38
362.933	10.38
363.72	8.38
364.507	9.38
365.294	9.38
366.081	9.38
366.867	7.38
367.654	8.38
368.44	10.38
369.227	10.38
370.013	8.38
370.8	9.38
371.586	8.38
372.372	8.38
373.158	6.38
373.944	10.38
374.73	10.38
375.516	8.38
376.302	10.38
377.088	10.38
377.873	9.38
378.659	9.38
379.445	10.38
380.23	9.38
381.015	10.38
381.801	11.38
382.586	7.38
383.371	9.38
384.156	10.38
384.941	8.38
385.726	8.38
386.511	7.38
387.296	9.38
388.08	6.38
388.865	9.38
389.649	9.38
390.434	10.38
391.218	11.38
392.003	9.38
392.787	10.38
393.571	10.38
394.355	11.38
395.139	10.38
395.923	12.38
396.707	11.38
397.491	12.38
398.274	10.38
399.058	10.38
399.842	11.38
400.625	12.38
401.408	12.38
402.192	12.38
402.975	13.38
403.758	12.38
404.541	12.38
405.324	13.38
406.107	12.38
406.89	13.38
407.673	14.38
408.456	15.38
409.238	15.38
410.021	16.38
410.803	14.38
411.586	14.38
412.368	17.38
413.151	14.38
413.933	15.38
414.715	18.38
415.497	15.38
416.279	17.38
417.061	18.38
417.843	17.38
418.624	16.38
419.406	19.38
420.188	19.38
420.969	20.38
421.751	20.38
422.532	19.38
423.313	17.38
424.095	21.38
424.876	21.38
425.657	23.38
426.438	22.38
427.219	25.38
428	25.38
428.78	25.38
429.561	26.38
430.342	26.38
431.122	26.38
431.903	30.38
432.683	34.38
433.464	38.38
434.244	36.38
435.024	40.38
435.804	44.38
436.584	42.38
437.364	43.38
438.144	47.38
438.924	50.38
439.704	54.38
440.483	58.38
441.263	60.38
442.042	64.38
442.822	73.38
443.601	77.38
444.38	85.38
445.16	89.38
445.939	93.38
446.718	103.38
447.497	117.38
448.276	132.38
449.054	140.38
449.833	153.38
450.612	171.38
451.391	189.38
452.169	214.38
452.948	232.38
453.726	258.38
454.504	286.38
455.282	315.38
456.061	360.38
456.839	399.38
457.617	446.38
458.395	486.38
459.172	547.38
459.95	594.38
460.728	666.38
461.506	750.38
462.283	832.38
463.061	928.38
463.838	1013.38
464.615	1133.38
465.393	1253.38
466.17	1380.38
466.947	1546.38
467.724	1693.38
468.501	1871.38
469.278	2071.38
470.055	2280.38
470.831	2476.38
471.608	2742.38
472.385	3008.38
473.161	3291.38
473.938	3620.38
474.714	3952.38
475.49	4332.38
476.266	4708.38
477.043	5106.38
477.819	5549.38
478.595	6025.38
479.371	6538.38
480.146	7115.38
480.922	7770.38
481.698	8380.38
482.473	9092.38
483.249	9838.38
484.024	10596.38
484.8	11452.38
485.575	12293.38
486.35	13336.38
487.126	14370.38
487.901	15420.38
488.676	16558.38
489.451	17840.38
490.225	19109.38
491	20470.38
491.775	21850.38
492.55	23311.38
493.324	24759.38
494.099	26246.38
494.873	27882.38
495.647	29404.38
496.422	31028.38
497.196	32625.38
497.97	34163.38
498.744	35569.38
499.518	37118.38
500.292	38461.38
501.066	39585.38
501.839	40563.38
502.613	41449.38
503.387	42251.38
504.16	42908.38
504.934	43277.38
505.707	43546.38
506.48	43463.38
507.253	43302.38
508.027	43131.38
508.8	42506.38
509.573	41879.38
510.346	41217.38
511.118	40332.38
511.891	39361.38
512.664	38075.38
513.437	36856.38
514.209	35670.38
514.982	34484.38
515.754	33161.38
516.526	31890.38
517.298	30617.38
518.071	29569.38
518.843	28425.38
519.615	27301.38
520.387	26198.38
521.159	25226.38
521.93	24222.38
522.702	23215.38
523.474	22292.38
524.245	21312.38
525.017	20491.38
525.788	19689.38
526.56	18856.38
527.331	18044.38
528.102	17180.38
528.873	16353.38
529.644	15592.38
530.415	14878.38
531.186	14216.38
531.957	13531.38
532.728	12897.38
533.498	12219.38
534.269	11588.38
535.039	10965.38
535.81	10398.38
536.58	9866.38
537.351	9301.38
538.121	8889.38
538.891	8377.38
539.661	7945.38
540.431	7502.38
541.201	7104.38
541.971	6763.38
542.741	6401.38
543.51	6060.38
544.28	5755.38
545.05	5501.38
545.819	5251.38
546.588	5028.38
547.358	4766.38
548.127	4527.38
548.896	4314.38
549.665	4100.38
550.434	3897.38
551.203	3701.38
551.972	3505.38
552.741	3331.38
553.51	3142.38
554.278	2975.38
555.047	2803.38
555.815	2654.38
556.584	2507.38
557.352	2394.38
558.121	2244.38
558.889	2115.38
559.657	2006.38
560.425	1886.38
561.193	1788.38
561.961	1709.38
562.729	1597.38
563.496	1516.38
564.264	1426.38
565.032	1353.38
565.799	1290.38
566.567	1212.38
567.334	1159.38
568.101	1079.38
568.869	1036.38
569.636	977.38
570.403	916.38
571.17	865.38
571.937	807.38
572.704	769.38
573.471	732.38
574.237	690.38
575.004	651.38
575.771	608.38
576.537	568.38
577.303	545.38
578.07	523.38
578.836	484.38
579.602	457.38
580.368	435.38
581.134	415.38
581.9	389.38
582.666	379.38
583.432	358.38
584.198	338.38
584.964	319.38
585.729	310.38
586.495	285.38
587.26	280.38
588.025	261.38
588.791	241.38
589.556	230.38
590.321	222.38
591.086	211.38
591.851	199.38
592.616	186.38
593.381	177.38
594.146	172.38
594.911	162.38
595.675	155.38
596.44	147.38
597.204	139.38
597.969	136.38
598.733	128.38
599.497	120.38
600.261	119.38
601.025	110.38
601.79	112.38
602.553	105.38
603.317	96.38
604.081	98.38
604.845	91.38
605.609	86.38
606.372	86.38
607.136	82.38
607.899	81.38
608.662	78.38
609.426	74.38
610.189	69.38
610.952	68.38
611.715	67.38
612.478	61.38
613.241	60.38
614.004	57.38
614.767	59.38
615.529	56.38
616.292	51.38
617.055	47.38
617.817	51.38
618.579	44.38
619.342	43.38
620.104	43.38
620.866	40.38
621.628	39.38
622.39	37.38
623.152	38.38
623.914	41.38
624.676	36.38
625.438	33.38
626.199	35.38
626.961	35.38
627.722	29.38
628.484	30.38
629.245	29.38
630.006	27.38
630.768	27.38
631.529	27.38
632.29	26.38
633.051	25.38
633.812	22.38
634.573	24.38
635.333	23.38
636.094	26.38
636.855	22.38
637.615	22.38
638.376	23.38
639.136	20.38
639.896	22.38
640.657	18.38
641.417	19.38
642.177	18.38
642.937	17.38
643.697	17.38
644.457	18.38
645.216	17.38
645.976	16.38
646.736	14.38
647.495	13.38
648.255	13.38
649.014	14.38
649.774	16.38
650.533	12.38
651.292	14.38
652.051	13.38
652.81	14.38
653.569	14.38
654.328	15.38
655.087	14.38
655.846	12.38
656.604	10.38
657.363	10.38
658.121	9.38
658.88	11.38
659.638	11.38
660.397	13.38
661.155	13.38
661.913	14.38
662.671	7.38
663.429	10.38
664.187	8.38
664.945	9.38
665.703	11.38
666.46	10.38
667.218	8.38
667.976	8.38
668.733	10.38
669.49	9.38
670.248	7.38
671.005	10.38
671.762	10.38
672.519	9.38
673.276	9.38
674.033	8.38
674.79	9.38
675.547	7.38
676.304	8.38
677.06	7.38
677.817	6.38
678.574	4.38
679.33	8.38
680.086	10.38
680.843	7.38
681.599	7.38
682.355	8.38
683.111	6.38
683.867	8.38
684.623	7.38
685.379	8.38
686.135	6.38
686.89	5.38
687.646	6.38
688.402	9.38
689.157	10.38
689.912	5.38
690.668	7.38
691.423	7.38
692.178	6.38
692.933	8.38
693.688	7.38
694.443	7.38
695.198	6.38
695.953	7.38
696.708	5.38
697.462	7.38
698.217	8.38
698.972	7.38
699.726	6.38
700.48	5.38
701.235	5.38
701.989	8.38
702.743	7.38
703.497	7.38
704.251	7.38
705.005	7.38
705.759	7.38
706.513	7.38
707.266	6.38
708.02	4.38
708.774	6.38
709.527	4.38
710.28	7.38
711.034	8.38
711.787	7.38
712.54	5.38
713.293	6.38
714.046	8.38
714.799	8.38
715.552	7.38
716.305	7.38
717.058	4.38
717.81	5.38
718.563	4.38
719.315	8.38
720.068	8.38
720.82	5.38
721.573	8.38
722.325	7.38
723.077	8.38
723.829	8.38
724.581	9.38
725.333	5.38
726.085	10.38
726.836	9.38
727.588	6.38
728.34	7.38
729.091	7.38
729.843	5.38
730.594	7.38
731.346	6.38
732.097	9.38
732.848	8.38
733.599	8.38
734.35	6.38
735.101	7.38
735.852	7.38
736.603	7.38
737.354	9.38
738.104	8.38
738.855	8.38
739.605	8.38
740.356	8.38
741.106	9.38
741.856	6.38
742.607	10.38
743.357	9.38
744.107	7.38
744.857	10.38
745.607	7.38
746.357	8.38
747.106	10.38
747.856	8.38
748.606	9.38
749.355	9.38
750.105	10.38
750.854	9.38
751.603	10.38
752.353	8.38
753.102	9.38
753.851	10.38
754.6	11.38
755.349	9.38
756.098	9.38
756.847	8.38
757.595	10.38
758.344	11.38
759.093	9.38
759.841	13.38
760.589	12.38
761.338	7.38
762.086	9.38
762.834	9.38
763.582	9.38
764.331	10.38
765.079	10.38
765.826	9.38
766.574	13.38
767.322	11.38
768.07	14.38
768.817	12.38
769.565	13.38
770.312	14.38
771.06	13.38
771.807	14.38
772.554	12.38
773.302	13.38
774.049	14.38
774.796	11.38
775.543	13.38
776.29	14.38
777.036	12.38
777.783	10.38
778.53	14.38
779.276	13.38
780.023	13.38
780.769	14.38
781.516	11.38
782.262	14.38
783.008	11.38
783.754	14.38
784.5	14.38
785.246	11.38
785.992	13.38
786.738	13.38
787.484	14.38
788.23	12.38
788.975	15.38
789.721	15.38
790.466	12.38
791.212	10.38
791.957	14.38
792.702	12.38
793.447	12.38
794.193	13.38
794.938	13.38
795.683	11.38
796.427	14.38
797.172	10.38
797.917	13.38
798.662	10.38
799.406	12.38
800.151	9.38
800.895	10.38
801.64	12.38
802.384	11.38
803.128	12.38
803.872	9.38
804.616	9.38
805.36	10.38
806.104	7.38
806.848	10.38
807.592	10.38
808.336	10.38
809.079	9.38
809.823	9.38
810.566	11.38
811.31	6.38
812.053	8.38
812.796	9.38
813.539	10.38
814.283	7.38
815.026	7.38
815.769	7.38
816.511	8.38
817.254	7.38
817.997	8.38
818.74	9.38
819.482	6.38
820.225	6.38
820.967	7.38
821.71	7.38
822.452	6.38
823.194	7.38
823.936	6.38
824.678	6.38
825.42	5.38
826.162	6.38
826.904	3.38
827.646	6.38
828.388	7.38
829.129	5.38
829.871	6.38
830.612	5.38
831.354	6.38
832.095	4.38
832.836	4.38
833.577	5.38
834.319	4.38
835.06	6.38
835.801	1.38
836.542	5.38
837.282	3.38
838.023	5.38
838.764	5.38
839.504	3.38
840.245	2.38
840.985	4.38
841.726	4.38
842.466	4.38
843.206	7.38
843.946	7.38
844.687	4.38
845.427	3.38
846.166	4.38
846.906	0.38
847.646	4.38
848.386	5.38
849.125	5.38
849.865	6.38
850.605	4.38
851.344	4.38
852.083	3.38
852.823	3.38
853.562	1.38
854.301	6.38
855.04	5.38
855.779	5.38
856.518	3.38
857.257	1.38
857.995	4.38
858.734	2.38
859.473	3.38
860.211	4.38
860.95	1.38
861.688	3.38
862.426	1.38
863.165	3.38
863.903	3.38
864.641	4.38
865.379	1.38
866.117	1.38
866.855	-0.62
867.593	1.38
868.33	2.38
869.068	5.38
869.806	2.38
870.543	2.38
871.28	1.38
872.018	0.38
872.755	2.38
873.492	0.38
874.229	4.38
874.967	-0.62
875.703	3.38
876.44	1.38
877.177	0.38
877.914	0.38
878.651	1.38
879.387	0.38
880.124	1.38
880.86	1.38
881.597	-1.62
882.333	0.38
883.069	1.38
883.806	0.38
884.542	0.38
885.278	1.38
886.014	2.38
886.749	-1.62
887.485	0.38
888.221	2.38
888.957	0.38
889.692	0.38
890.428	-1.62
891.163	0.38
891.899	0.38
892.634	1.38
893.369	1.38
894.104	0.38
894.839	-0.62
895.574	0.38
896.309	-0.62
897.044	-0.62
897.779	0.38
898.514	1.38
899.248	0.38
899.983	-0.62
900.717	1.38
901.452	-0.62
902.186	1.38
902.92	-2.62
903.654	1.38
904.389	1.38
905.123	0.38
905.857	1.38
906.59	0.38
907.324	0.38
908.058	1.38
908.792	-0.62
909.525	0.38
910.259	1.38
910.992	0.38
911.726	-0.62
912.459	0.38
913.192	-1.62
913.925	0.38
914.658	2.38
915.391	0.38
916.124	-1.62
916.857	-1.62
917.59	0.38
918.323	0.38
919.055	1.38
919.788	0.38
920.521	0.38
921.253	-1.62
921.985	1.38
922.718	-0.62
923.45	1.38
924.182	-0.62
924.914	0.38
925.646	-1.62
926.378	2.38
927.11	-1.62
927.841	2.38
928.573	0.38
929.305	0.38
930.036	-0.62
930.768	-0.62
931.499	-0.62
932.23	-0.62
932.962	0.38
933.693	-0.62
934.424	-0.62
935.155	0.38
935.886	-1.62
936.617	0.38
937.348	-1.62
938.078	0.38
938.809	-1.62
939.54	-0.62
940.27	0.38
941.001	0.38
941.731	-0.62
942.461	0.38
943.191	1.38
943.922	0.38
944.652	-1.62
945.382	0.38
946.112	-1.62
946.841	-1.62
947.571	0.38
948.301	-2.62
949.031	-0.62
949.76	-0.62
950.49	-0.62
951.219	1.38
951.948	-0.62
952.678	0.38
953.407	-1.62
954.136	-1.62
954.865	2.38
955.594	1.38
956.323	-0.62
957.052	-0.62
957.78	1.38
958.509	-1.62
959.238	2.38
959.966	-0.62
960.695	-0.62
961.423	-0.62
962.151	-1.62
962.88	0.38
963.608	-0.62
964.336	-0.62
965.064	1.38
965.792	-3.62
966.52	-0.62
967.247	-0.62
967.975	-0.62
968.703	1.38
969.43	1.38
970.158	-0.62
970.885	0.38
971.613	-0.62
972.34	-1.62
973.067	-0.62
973.794	0.38
974.521	1.38
975.248	1.38
975.975	0.38
976.702	-0.62
977.429	-0.62
978.156	-1.62
978.882	-0.62
979.609	-0.62
980.335	-0.62
981.062	-0.62
981.788	0.38
982.514	-1.62
983.24	-0.62
983.967	-0.62
984.693	-1.62
985.419	0.38
986.144	-2.62
986.87	0.38
987.596	-0.62
988.322	0.38
989.047	0.38
989.773	-1.62
990.498	1.38
991.224	0.38
991.949	-0.62
992.674	0.38
993.399	-0.62
994.124	-0.62
994.849	0.38
995.574	1.38
996.299	1.38
997.024	0.38
997.749	-0.62
998.473	-2.62
999.198	2.38
999.922	-0.62
1000.647	-0.62
1001.371	1.38
1002.095	-0.62
1002.82	-0.62
1003.544	-0.62
1004.268	1.38
1004.992	2.38
1005.716	2.38
1006.439	1.38
1007.163	5.38
1007.887	5.38
1008.611	1.38
1009.334	0.38
1010.058	-1.62
1010.781	0.38
1011.504	2.38
1012.228	-1.62
1012.951	-1.62
1013.674	0.38
1014.397	1.38
1015.12	0.38
