节点500_705_QEPB04081__582__20-54-11-780.txt的数据

Date: Wed Nov 12 20:54:11 CST 2025
User: PC
Spectrometer: QEPB0408
触发模式: 0
积分时间 (秒): 1.000000E-2
Scans to average: 1
启用暗噪声校正: true
启用非线性校正: false
滑动平均宽度: 0
X轴模式: Wavelengths
Number of Pixels in Spectrum: 1044
>>>>>Begin Spectral Data<<<<<
220.843	3.75
221.644	5.75
222.444	7.75
223.244	4.75
224.045	5.75
224.845	4.75
225.645	5.75
226.445	9.75
227.245	3.75
228.045	5.75
228.845	5.75
229.645	7.75
230.444	5.75
231.244	7.75
232.043	8.75
232.843	6.75
233.642	9.75
234.442	9.75
235.241	7.75
236.04	8.75
236.839	8.75
237.638	11.75
238.437	9.75
239.236	10.75
240.035	10.75
240.833	10.75
241.632	9.75
242.43	9.75
243.229	11.75
244.027	8.75
244.826	10.75
245.624	14.75
246.422	11.75
247.22	12.75
248.018	12.75
248.816	16.75
249.614	12.75
250.412	15.75
251.21	14.75
252.007	16.75
252.805	14.75
253.602	14.75
254.4	12.75
255.197	15.75
255.994	16.75
256.791	18.75
257.589	16.75
258.386	16.75
259.183	19.75
259.979	21.75
260.776	20.75
261.573	18.75
262.37	21.75
263.166	20.75
263.963	22.75
264.759	20.75
265.556	19.75
266.352	22.75
267.148	23.75
267.944	25.75
268.74	23.75
269.536	26.75
270.332	23.75
271.128	26.75
271.924	29.75
272.719	27.75
273.515	25.75
274.311	28.75
275.106	30.75
275.901	30.75
276.697	30.75
277.492	28.75
278.287	31.75
279.082	32.75
279.877	28.75
280.672	30.75
281.467	29.75
282.262	30.75
283.056	32.75
283.851	30.75
284.646	34.75
285.44	32.75
286.234	30.75
287.029	34.75
287.823	30.75
288.617	29.75
289.411	28.75
290.205	30.75
290.999	30.75
291.793	27.75
292.587	29.75
293.381	27.75
294.174	27.75
294.968	29.75
295.761	23.75
296.555	24.75
297.348	25.75
298.141	25.75
298.935	26.75
299.728	27.75
300.521	26.75
301.314	22.75
302.107	24.75
302.899	23.75
303.692	22.75
304.485	21.75
305.277	21.75
306.07	20.75
306.862	20.75
307.655	19.75
308.447	19.75
309.239	18.75
310.031	21.75
310.823	16.75
311.615	17.75
312.407	17.75
313.199	18.75
313.991	14.75
314.783	14.75
315.574	14.75
316.366	14.75
317.157	13.75
317.949	14.75
318.74	13.75
319.531	12.75
320.322	12.75
321.113	16.75
321.904	11.75
322.695	11.75
323.486	13.75
324.277	12.75
325.068	12.75
325.858	10.75
326.649	12.75
327.439	12.75
328.23	10.75
329.02	11.75
329.81	10.75
330.6	11.75
331.391	9.75
332.181	11.75
332.971	12.75
333.76	12.75
334.55	12.75
335.34	9.75
336.13	11.75
336.919	13.75
337.709	15.75
338.498	9.75
339.287	10.75
340.077	11.75
340.866	10.75
341.655	12.75
342.444	10.75
343.233	10.75
344.022	12.75
344.811	11.75
345.6	10.75
346.388	10.75
347.177	10.75
347.965	9.75
348.754	9.75
349.542	10.75
350.33	10.75
351.119	10.75
351.907	10.75
352.695	8.75
353.483	10.75
354.271	8.75
355.059	10.75
355.846	10.75
356.634	10.75
357.422	10.75
358.209	9.75
358.997	9.75
359.784	10.75
360.571	9.75
361.359	11.75
362.146	8.75
362.933	8.75
363.72	7.75
364.507	12.75
365.294	9.75
366.081	7.75
366.867	10.75
367.654	8.75
368.44	8.75
369.227	8.75
370.013	8.75
370.8	8.75
371.586	8.75
372.372	7.75
373.158	6.75
373.944	10.75
374.73	8.75
375.516	11.75
376.302	10.75
377.088	8.75
377.873	8.75
378.659	8.75
379.445	10.75
380.23	6.75
381.015	9.75
381.801	9.75
382.586	7.75
383.371	9.75
384.156	10.75
384.941	10.75
385.726	9.75
386.511	8.75
387.296	11.75
388.08	10.75
388.865	9.75
389.649	10.75
390.434	10.75
391.218	7.75
392.003	9.75
392.787	10.75
393.571	10.75
394.355	8.75
395.139	12.75
395.923	9.75
396.707	12.75
397.491	9.75
398.274	12.75
399.058	11.75
399.842	14.75
400.625	11.75
401.408	12.75
402.192	13.75
402.975	12.75
403.758	14.75
404.541	13.75
405.324	13.75
406.107	11.75
406.89	15.75
407.673	14.75
408.456	11.75
409.238	15.75
410.021	15.75
410.803	16.75
411.586	15.75
412.368	14.75
413.151	19.75
413.933	16.75
414.715	16.75
415.497	14.75
416.279	17.75
417.061	16.75
417.843	17.75
418.624	19.75
419.406	16.75
420.188	18.75
420.969	17.75
421.751	18.75
422.532	20.75
423.313	21.75
424.095	23.75
424.876	23.75
425.657	24.75
426.438	23.75
427.219	24.75
428	29.75
428.78	27.75
429.561	28.75
430.342	28.75
431.122	29.75
431.903	33.75
432.683	32.75
433.464	34.75
434.244	37.75
435.024	38.75
435.804	40.75
436.584	40.75
437.364	45.75
438.144	47.75
438.924	49.75
439.704	54.75
440.483	59.75
441.263	64.75
442.042	65.75
442.822	73.75
443.601	74.75
444.38	83.75
445.16	90.75
445.939	98.75
446.718	111.75
447.497	115.75
448.276	130.75
449.054	142.75
449.833	165.75
450.612	170.75
451.391	186.75
452.169	210.75
452.948	227.75
453.726	261.75
454.504	287.75
455.282	313.75
456.061	349.75
456.839	389.75
457.617	439.75
458.395	483.75
459.172	540.75
459.95	602.75
460.728	672.75
461.506	747.75
462.283	827.75
463.061	912.75
463.838	1016.75
464.615	1136.75
465.393	1248.75
466.17	1400.75
466.947	1550.75
467.724	1697.75
468.501	1874.75
469.278	2070.75
470.055	2275.75
470.831	2506.75
471.608	2753.75
472.385	3015.75
473.161	3314.75
473.938	3610.75
474.714	3961.75
475.49	4326.75
476.266	4724.75
477.043	5121.75
477.819	5573.75
478.595	6095.75
479.371	6611.75
480.146	7140.75
480.922	7751.75
481.698	8464.75
482.473	9170.75
483.249	9891.75
484.024	10650.75
484.8	11532.75
485.575	12427.75
486.35	13414.75
487.126	14475.75
487.901	15584.75
488.676	16755.75
489.451	18005.75
490.225	19283.75
491	20705.75
491.775	21997.75
492.55	23535.75
493.324	25040.75
494.099	26589.75
494.873	28270.75
495.647	29731.75
496.422	31317.75
497.196	33029.75
497.97	34484.75
498.744	35965.75
499.518	37468.75
500.292	38844.75
501.066	39918.75
501.839	40885.75
502.613	41846.75
503.387	42586.75
504.16	43229.75
504.934	43592.75
505.707	43751.75
506.48	43776.75
507.253	43636.75
508.027	43259.75
508.8	42712.75
509.573	42005.75
510.346	41271.75
511.118	40440.75
511.891	39422.75
512.664	38197.75
513.437	37019.75
514.209	35748.75
514.982	34490.75
515.754	33262.75
516.526	31978.75
517.298	30722.75
518.071	29562.75
518.843	28464.75
519.615	27306.75
520.387	26256.75
521.159	25191.75
521.93	24209.75
522.702	23161.75
523.474	22237.75
524.245	21371.75
525.017	20502.75
525.788	19577.75
526.56	18859.75
527.331	18098.75
528.102	17137.75
528.873	16319.75
529.644	15566.75
530.415	14832.75
531.186	14215.75
531.957	13518.75
532.728	12872.75
533.498	12174.75
534.269	11581.75
535.039	10998.75
535.81	10382.75
536.58	9847.75
537.351	9320.75
538.121	8825.75
538.891	8336.75
539.661	7902.75
540.431	7478.75
541.201	7087.75
541.971	6741.75
542.741	6354.75
543.51	6069.75
544.28	5780.75
545.05	5503.75
545.819	5227.75
546.588	5028.75
547.358	4775.75
548.127	4511.75
548.896	4314.75
549.665	4082.75
550.434	3893.75
551.203	3678.75
551.972	3500.75
552.741	3300.75
553.51	3130.75
554.278	2929.75
555.047	2790.75
555.815	2652.75
556.584	2515.75
557.352	2375.75
558.121	2235.75
558.889	2121.75
559.657	1978.75
560.425	1882.75
561.193	1788.75
561.961	1715.75
562.729	1603.75
563.496	1523.75
564.264	1432.75
565.032	1347.75
565.799	1293.75
566.567	1206.75
567.334	1146.75
568.101	1079.75
568.869	1011.75
569.636	963.75
570.403	908.75
571.17	858.75
571.937	817.75
572.704	768.75
573.471	736.75
574.237	671.75
575.004	639.75
575.771	608.75
576.537	566.75
577.303	543.75
578.07	516.75
578.836	486.75
579.602	450.75
580.368	429.75
581.134	413.75
581.9	392.75
582.666	367.75
583.432	358.75
584.198	337.75
584.964	324.75
585.729	304.75
586.495	280.75
587.26	267.75
588.025	257.75
588.791	248.75
589.556	229.75
590.321	214.75
591.086	210.75
591.851	200.75
592.616	185.75
593.381	173.75
594.146	174.75
594.911	162.75
595.675	156.75
596.44	150.75
597.204	144.75
597.969	135.75
598.733	130.75
599.497	128.75
600.261	121.75
601.025	110.75
601.79	113.75
602.553	103.75
603.317	104.75
604.081	94.75
604.845	89.75
605.609	90.75
606.372	83.75
607.136	79.75
607.899	78.75
608.662	75.75
609.426	70.75
610.189	69.75
610.952	68.75
611.715	66.75
612.478	62.75
613.241	56.75
614.004	57.75
614.767	54.75
615.529	53.75
616.292	52.75
617.055	51.75
617.817	50.75
618.579	49.75
619.342	46.75
620.104	45.75
620.866	44.75
621.628	39.75
622.39	38.75
623.152	37.75
623.914	36.75
624.676	36.75
625.438	32.75
626.199	32.75
626.961	30.75
627.722	30.75
628.484	28.75
629.245	28.75
630.006	27.75
630.768	27.75
631.529	26.75
632.29	26.75
633.051	27.75
633.812	21.75
634.573	23.75
635.333	22.75
636.094	22.75
636.855	22.75
637.615	20.75
638.376	22.75
639.136	18.75
639.896	17.75
640.657	22.75
641.417	18.75
642.177	20.75
642.937	15.75
643.697	18.75
644.457	17.75
645.216	16.75
645.976	16.75
646.736	13.75
647.495	14.75
648.255	17.75
649.014	14.75
649.774	12.75
650.533	12.75
651.292	13.75
652.051	12.75
652.81	13.75
653.569	12.75
654.328	14.75
655.087	13.75
655.846	12.75
656.604	11.75
657.363	11.75
658.121	11.75
658.88	10.75
659.638	12.75
660.397	10.75
661.155	10.75
661.913	11.75
662.671	10.75
663.429	10.75
664.187	6.75
664.945	10.75
665.703	8.75
666.46	8.75
667.218	11.75
667.976	10.75
668.733	8.75
669.49	10.75
670.248	6.75
671.005	7.75
671.762	7.75
672.519	10.75
673.276	8.75
674.033	7.75
674.79	10.75
675.547	8.75
676.304	8.75
677.06	7.75
677.817	6.75
678.574	7.75
679.33	6.75
680.086	7.75
680.843	6.75
681.599	5.75
682.355	7.75
683.111	8.75
683.867	6.75
684.623	8.75
685.379	5.75
686.135	9.75
686.89	8.75
687.646	5.75
688.402	6.75
689.157	4.75
689.912	7.75
690.668	7.75
691.423	5.75
692.178	7.75
692.933	8.75
693.688	8.75
694.443	6.75
695.198	6.75
695.953	5.75
696.708	5.75
697.462	7.75
698.217	5.75
698.972	8.75
699.726	6.75
700.48	5.75
701.235	8.75
701.989	8.75
702.743	6.75
703.497	8.75
704.251	5.75
705.005	7.75
705.759	6.75
706.513	7.75
707.266	6.75
708.02	8.75
708.774	5.75
709.527	4.75
710.28	7.75
711.034	5.75
711.787	6.75
712.54	6.75
713.293	7.75
714.046	7.75
714.799	7.75
715.552	6.75
716.305	4.75
717.058	6.75
717.81	7.75
718.563	5.75
719.315	9.75
720.068	6.75
720.82	7.75
721.573	7.75
722.325	8.75
723.077	8.75
723.829	5.75
724.581	9.75
725.333	5.75
726.085	9.75
726.836	8.75
727.588	10.75
728.34	10.75
729.091	6.75
729.843	8.75
730.594	8.75
731.346	6.75
732.097	7.75
732.848	8.75
733.599	7.75
734.35	6.75
735.101	6.75
735.852	9.75
736.603	8.75
737.354	10.75
738.104	6.75
738.855	9.75
739.605	9.75
740.356	9.75
741.106	8.75
741.856	6.75
742.607	9.75
743.357	9.75
744.107	8.75
744.857	7.75
745.607	9.75
746.357	7.75
747.106	10.75
747.856	8.75
748.606	8.75
749.355	10.75
750.105	8.75
750.854	10.75
751.603	9.75
752.353	9.75
753.102	10.75
753.851	11.75
754.6	7.75
755.349	10.75
756.098	10.75
756.847	8.75
757.595	10.75
758.344	10.75
759.093	9.75
759.841	9.75
760.589	9.75
761.338	10.75
762.086	10.75
762.834	8.75
763.582	12.75
764.331	12.75
765.079	12.75
765.826	12.75
766.574	12.75
767.322	11.75
768.07	11.75
768.817	14.75
769.565	12.75
770.312	10.75
771.06	12.75
771.807	10.75
772.554	15.75
773.302	12.75
774.049	12.75
774.796	13.75
775.543	13.75
776.29	13.75
777.036	13.75
777.783	13.75
778.53	12.75
779.276	14.75
780.023	15.75
780.769	12.75
781.516	15.75
782.262	12.75
783.008	14.75
783.754	14.75
784.5	11.75
785.246	13.75
785.992	13.75
786.738	12.75
787.484	14.75
788.23	13.75
788.975	13.75
789.721	12.75
790.466	14.75
791.212	14.75
791.957	15.75
792.702	12.75
793.447	13.75
794.193	14.75
794.938	13.75
795.683	12.75
796.427	13.75
797.172	10.75
797.917	13.75
798.662	10.75
799.406	13.75
800.151	7.75
800.895	12.75
801.64	10.75
802.384	10.75
803.128	9.75
803.872	10.75
804.616	12.75
805.36	9.75
806.104	10.75
806.848	10.75
807.592	9.75
808.336	10.75
809.079	9.75
809.823	6.75
810.566	9.75
811.31	9.75
812.053	7.75
812.796	6.75
813.539	8.75
814.283	9.75
815.026	9.75
815.769	6.75
816.511	7.75
817.254	6.75
817.997	5.75
818.74	7.75
819.482	6.75
820.225	7.75
820.967	7.75
821.71	6.75
822.452	6.75
823.194	5.75
823.936	7.75
824.678	7.75
825.42	5.75
826.162	6.75
826.904	6.75
827.646	7.75
828.388	5.75
829.129	8.75
829.871	5.75
830.612	8.75
831.354	6.75
832.095	5.75
832.836	6.75
833.577	5.75
834.319	6.75
835.06	7.75
835.801	5.75
836.542	5.75
837.282	5.75
838.023	5.75
838.764	6.75
839.504	4.75
840.245	4.75
840.985	6.75
841.726	4.75
842.466	5.75
843.206	5.75
843.946	4.75
844.687	5.75
845.427	4.75
846.166	2.75
846.906	6.75
847.646	4.75
848.386	5.75
849.125	4.75
849.865	2.75
850.605	3.75
851.344	3.75
852.083	5.75
852.823	2.75
853.562	5.75
854.301	2.75
855.04	3.75
855.779	5.75
856.518	4.75
857.257	4.75
857.995	5.75
858.734	4.75
859.473	4.75
860.211	2.75
860.95	1.75
861.688	2.75
862.426	4.75
863.165	2.75
863.903	2.75
864.641	3.75
865.379	2.75
866.117	3.75
866.855	2.75
867.593	1.75
868.33	2.75
869.068	1.75
869.806	0.75
870.543	-0.25
871.28	1.75
872.018	2.75
872.755	1.75
873.492	3.75
874.229	1.75
874.967	1.75
875.703	1.75
876.44	3.75
877.177	0.75
877.914	1.75
878.651	0.75
879.387	2.75
880.124	2.75
880.86	0.75
881.597	0.75
882.333	3.75
883.069	0.75
883.806	1.75
884.542	-0.25
885.278	-0.25
886.014	-0.25
886.749	-0.25
887.485	1.75
888.221	1.75
888.957	0.75
889.692	1.75
890.428	0.75
891.163	3.75
891.899	2.75
892.634	0.75
893.369	0.75
894.104	1.75
894.839	-1.25
895.574	-1.25
896.309	1.75
897.044	0.75
897.779	-0.25
898.514	2.75
899.248	1.75
899.983	1.75
900.717	-0.25
901.452	1.75
902.186	1.75
902.92	-2.25
903.654	0.75
904.389	-0.25
905.123	-0.25
905.857	1.75
906.59	1.75
907.324	2.75
908.058	-0.25
908.792	0.75
909.525	-0.25
910.259	1.75
910.992	1.75
911.726	1.75
912.459	0.75
913.192	-0.25
913.925	0.75
914.658	-1.25
915.391	0.75
916.124	1.75
916.857	-0.25
917.59	-0.25
918.323	1.75
919.055	2.75
919.788	0.75
920.521	3.75
921.253	0.75
921.985	-1.25
922.718	0.75
923.45	-1.25
924.182	-1.25
924.914	-0.25
925.646	0.75
926.378	1.75
927.11	0.75
927.841	-1.25
928.573	-1.25
929.305	1.75
930.036	-1.25
930.768	-1.25
931.499	0.75
932.23	0.75
932.962	1.75
933.693	-1.25
934.424	2.75
935.155	1.75
935.886	0.75
936.617	-0.25
937.348	-1.25
938.078	1.75
938.809	1.75
939.54	-0.25
940.27	0.75
941.001	0.75
941.731	-0.25
942.461	0.75
943.191	0.75
943.922	-0.25
944.652	-1.25
945.382	-0.25
946.112	0.75
946.841	1.75
947.571	0.75
948.301	-1.25
949.031	-1.25
949.76	-0.25
950.49	0.75
951.219	-1.25
951.948	0.75
952.678	-1.25
953.407	-1.25
954.136	-0.25
954.865	-0.25
955.594	-1.25
956.323	-0.25
957.052	-1.25
957.78	-1.25
958.509	-0.25
959.238	0.75
959.966	-1.25
960.695	1.75
961.423	0.75
962.151	-0.25
962.88	0.75
963.608	-1.25
964.336	0.75
965.064	-2.25
965.792	-0.25
966.52	-0.25
967.247	-0.25
967.975	-0.25
968.703	0.75
969.43	-1.25
970.158	-1.25
970.885	-1.25
971.613	0.75
972.34	0.75
973.067	-1.25
973.794	-1.25
974.521	0.75
975.248	-0.25
975.975	2.75
976.702	0.75
977.429	-1.25
978.156	-0.25
978.882	-0.25
979.609	-1.25
980.335	0.75
981.062	-1.25
981.788	0.75
982.514	0.75
983.24	-1.25
983.967	-1.25
984.693	1.75
985.419	1.75
986.144	-1.25
986.87	-1.25
987.596	-2.25
988.322	0.75
989.047	-1.25
989.773	0.75
990.498	2.75
991.224	-0.25
991.949	-1.25
992.674	0.75
993.399	0.75
994.124	0.75
994.849	0.75
995.574	-0.25
996.299	-0.25
997.024	-0.25
997.749	-0.25
998.473	-2.25
999.198	-1.25
999.922	0.75
1000.647	0.75
1001.371	3.75
1002.095	-2.25
1002.82	-0.25
1003.544	-1.25
1004.268	2.75
1004.992	3.75
1005.716	2.75
1006.439	5.75
1007.163	2.75
1007.887	3.75
1008.611	0.75
1009.334	-0.25
1010.058	0.75
1010.781	0.75
1011.504	0.75
1012.228	-2.25
1012.951	1.75
1013.674	-1.25
1014.397	-0.25
1015.12	-0.25
