节点500_705_QEPB04081__446__20-52-14-709.txt的数据

Date: Wed Nov 12 20:52:14 CST 2025
User: PC
Spectrometer: QEPB0408
触发模式: 0
积分时间 (秒): 1.000000E-2
Scans to average: 1
启用暗噪声校正: true
启用非线性校正: false
滑动平均宽度: 0
X轴模式: Wavelengths
Number of Pixels in Spectrum: 1044
>>>>>Begin Spectral Data<<<<<
220.843	5.88
221.644	4.88
222.444	7.88
223.244	3.88
224.045	3.88
224.845	3.88
225.645	6.88
226.445	6.88
227.245	4.88
228.045	5.88
228.845	5.88
229.645	5.88
230.444	4.88
231.244	8.88
232.043	6.88
232.843	6.88
233.642	8.88
234.442	7.88
235.241	10.88
236.04	8.88
236.839	9.88
237.638	12.88
238.437	11.88
239.236	10.88
240.035	11.88
240.833	12.88
241.632	7.88
242.43	13.88
243.229	11.88
244.027	12.88
244.826	12.88
245.624	9.88
246.422	12.88
247.22	15.88
248.018	10.88
248.816	13.88
249.614	14.88
250.412	12.88
251.21	11.88
252.007	15.88
252.805	16.88
253.602	14.88
254.4	16.88
255.197	17.88
255.994	17.88
256.791	18.88
257.589	15.88
258.386	17.88
259.183	18.88
259.979	19.88
260.776	18.88
261.573	20.88
262.37	21.88
263.166	22.88
263.963	21.88
264.759	25.88
265.556	25.88
266.352	27.88
267.148	25.88
267.944	27.88
268.74	25.88
269.536	26.88
270.332	27.88
271.128	27.88
271.924	29.88
272.719	27.88
273.515	29.88
274.311	27.88
275.106	31.88
275.901	32.88
276.697	32.88
277.492	29.88
278.287	27.88
279.082	31.88
279.877	32.88
280.672	30.88
281.467	32.88
282.262	30.88
283.056	30.88
283.851	29.88
284.646	34.88
285.44	29.88
286.234	31.88
287.029	30.88
287.823	32.88
288.617	30.88
289.411	30.88
290.205	29.88
290.999	30.88
291.793	28.88
292.587	30.88
293.381	24.88
294.174	30.88
294.968	29.88
295.761	25.88
296.555	25.88
297.348	25.88
298.141	23.88
298.935	28.88
299.728	26.88
300.521	24.88
301.314	25.88
302.107	23.88
302.899	22.88
303.692	20.88
304.485	20.88
305.277	19.88
306.07	20.88
306.862	20.88
307.655	18.88
308.447	19.88
309.239	19.88
310.031	17.88
310.823	19.88
311.615	17.88
312.407	16.88
313.199	16.88
313.991	17.88
314.783	15.88
315.574	16.88
316.366	14.88
317.157	16.88
317.949	13.88
318.74	15.88
319.531	15.88
320.322	11.88
321.113	14.88
321.904	12.88
322.695	14.88
323.486	10.88
324.277	11.88
325.068	10.88
325.858	8.88
326.649	10.88
327.439	11.88
328.23	11.88
329.02	12.88
329.81	11.88
330.6	9.88
331.391	8.88
332.181	11.88
332.971	10.88
333.76	12.88
334.55	10.88
335.34	9.88
336.13	9.88
336.919	9.88
337.709	11.88
338.498	10.88
339.287	9.88
340.077	11.88
340.866	11.88
341.655	10.88
342.444	8.88
343.233	9.88
344.022	8.88
344.811	11.88
345.6	10.88
346.388	8.88
347.177	7.88
347.965	9.88
348.754	9.88
349.542	10.88
350.33	9.88
351.119	11.88
351.907	9.88
352.695	10.88
353.483	8.88
354.271	8.88
355.059	10.88
355.846	6.88
356.634	9.88
357.422	7.88
358.209	8.88
358.997	7.88
359.784	8.88
360.571	9.88
361.359	8.88
362.146	8.88
362.933	7.88
363.72	9.88
364.507	8.88
365.294	8.88
366.081	6.88
366.867	6.88
367.654	9.88
368.44	8.88
369.227	7.88
370.013	9.88
370.8	9.88
371.586	9.88
372.372	7.88
373.158	7.88
373.944	9.88
374.73	8.88
375.516	9.88
376.302	9.88
377.088	9.88
377.873	8.88
378.659	7.88
379.445	8.88
380.23	6.88
381.015	7.88
381.801	8.88
382.586	8.88
383.371	8.88
384.156	7.88
384.941	11.88
385.726	8.88
386.511	11.88
387.296	7.88
388.08	9.88
388.865	9.88
389.649	8.88
390.434	12.88
391.218	8.88
392.003	9.88
392.787	10.88
393.571	9.88
394.355	10.88
395.139	11.88
395.923	10.88
396.707	8.88
397.491	11.88
398.274	9.88
399.058	11.88
399.842	14.88
400.625	9.88
401.408	13.88
402.192	12.88
402.975	13.88
403.758	9.88
404.541	10.88
405.324	10.88
406.107	13.88
406.89	13.88
407.673	12.88
408.456	13.88
409.238	17.88
410.021	12.88
410.803	15.88
411.586	17.88
412.368	13.88
413.151	15.88
413.933	15.88
414.715	16.88
415.497	16.88
416.279	17.88
417.061	17.88
417.843	16.88
418.624	17.88
419.406	20.88
420.188	22.88
420.969	21.88
421.751	18.88
422.532	23.88
423.313	20.88
424.095	20.88
424.876	19.88
425.657	21.88
426.438	22.88
427.219	24.88
428	25.88
428.78	26.88
429.561	29.88
430.342	30.88
431.122	32.88
431.903	29.88
432.683	31.88
433.464	33.88
434.244	37.88
435.024	39.88
435.804	39.88
436.584	46.88
437.364	44.88
438.144	42.88
438.924	47.88
439.704	53.88
440.483	57.88
441.263	61.88
442.042	65.88
442.822	71.88
443.601	77.88
444.38	82.88
445.16	91.88
445.939	94.88
446.718	107.88
447.497	111.88
448.276	125.88
449.054	136.88
449.833	153.88
450.612	161.88
451.391	183.88
452.169	203.88
452.948	220.88
453.726	246.88
454.504	281.88
455.282	304.88
456.061	336.88
456.839	383.88
457.617	423.88
458.395	471.88
459.172	525.88
459.95	585.88
460.728	650.88
461.506	731.88
462.283	801.88
463.061	906.88
463.838	1003.88
464.615	1119.88
465.393	1237.88
466.17	1371.88
466.947	1522.88
467.724	1699.88
468.501	1857.88
469.278	2066.88
470.055	2273.88
470.831	2507.88
471.608	2772.88
472.385	3026.88
473.161	3332.88
473.938	3670.88
474.714	4000.88
475.49	4377.88
476.266	4804.88
477.043	5250.88
477.819	5752.88
478.595	6251.88
479.371	6781.88
480.146	7380.88
480.922	8045.88
481.698	8747.88
482.473	9494.88
483.249	10303.88
484.024	11172.88
484.8	12070.88
485.575	13035.88
486.35	14130.88
487.126	15259.88
487.901	16454.88
488.676	17746.88
489.451	19092.88
490.225	20538.88
491	22033.88
491.775	23451.88
492.55	25058.88
493.324	26706.88
494.099	28423.88
494.873	30185.88
495.647	31754.88
496.422	33484.88
497.196	35120.88
497.97	36786.88
498.744	38344.88
499.518	39891.88
500.292	41289.88
501.066	42312.88
501.839	43195.88
502.613	44145.88
503.387	44851.88
504.16	45335.88
504.934	45655.88
505.707	45701.88
506.48	45437.88
507.253	45115.88
508.027	44585.88
508.8	43880.88
509.573	43089.88
510.346	42233.88
511.118	41181.88
511.891	40020.88
512.664	38601.88
513.437	37264.88
514.209	35935.88
514.982	34589.88
515.754	33343.88
516.526	31846.88
517.298	30703.88
518.071	29558.88
518.843	28390.88
519.615	27126.88
520.387	26096.88
521.159	25118.88
521.93	24082.88
522.702	23093.88
523.474	22079.88
524.245	21256.88
525.017	20397.88
525.788	19510.88
526.56	18666.88
527.331	17842.88
528.102	17026.88
528.873	16169.88
529.644	15376.88
530.415	14659.88
531.186	13945.88
531.957	13302.88
532.728	12648.88
533.498	11946.88
534.269	11343.88
535.039	10737.88
535.81	10151.88
536.58	9614.88
537.351	9083.88
538.121	8625.88
538.891	8141.88
539.661	7723.88
540.431	7291.88
541.201	6965.88
541.971	6579.88
542.741	6206.88
543.51	5891.88
544.28	5611.88
545.05	5380.88
545.819	5080.88
546.588	4856.88
547.358	4637.88
548.127	4415.88
548.896	4173.88
549.665	3962.88
550.434	3775.88
551.203	3541.88
551.972	3383.88
552.741	3211.88
553.51	3026.88
554.278	2863.88
555.047	2693.88
555.815	2573.88
556.584	2414.88
557.352	2266.88
558.121	2169.88
558.889	2020.88
559.657	1927.88
560.425	1819.88
561.193	1713.88
561.961	1645.88
562.729	1577.88
563.496	1473.88
564.264	1384.88
565.032	1308.88
565.799	1236.88
566.567	1168.88
567.334	1096.88
568.101	1056.88
568.869	982.88
569.636	941.88
570.403	874.88
571.17	827.88
571.937	789.88
572.704	752.88
573.471	695.88
574.237	658.88
575.004	628.88
575.771	578.88
576.537	554.88
577.303	516.88
578.07	506.88
578.836	462.88
579.602	445.88
580.368	417.88
581.134	401.88
581.9	384.88
582.666	358.88
583.432	336.88
584.198	319.88
584.964	306.88
585.729	293.88
586.495	273.88
587.26	267.88
588.025	244.88
588.791	230.88
589.556	222.88
590.321	209.88
591.086	195.88
591.851	189.88
592.616	186.88
593.381	173.88
594.146	162.88
594.911	160.88
595.675	147.88
596.44	149.88
597.204	139.88
597.969	137.88
598.733	126.88
599.497	116.88
600.261	111.88
601.025	112.88
601.79	106.88
602.553	102.88
603.317	97.88
604.081	92.88
604.845	87.88
605.609	87.88
606.372	80.88
607.136	81.88
607.899	74.88
608.662	72.88
609.426	68.88
610.189	68.88
610.952	64.88
611.715	58.88
612.478	60.88
613.241	59.88
614.004	55.88
614.767	54.88
615.529	52.88
616.292	52.88
617.055	50.88
617.817	45.88
618.579	42.88
619.342	42.88
620.104	43.88
620.866	39.88
621.628	37.88
622.39	39.88
623.152	36.88
623.914	38.88
624.676	32.88
625.438	32.88
626.199	30.88
626.961	30.88
627.722	28.88
628.484	27.88
629.245	26.88
630.006	29.88
630.768	25.88
631.529	27.88
632.29	25.88
633.051	29.88
633.812	20.88
634.573	20.88
635.333	19.88
636.094	20.88
636.855	22.88
637.615	22.88
638.376	20.88
639.136	18.88
639.896	20.88
640.657	16.88
641.417	16.88
642.177	15.88
642.937	18.88
643.697	17.88
644.457	14.88
645.216	15.88
645.976	15.88
646.736	13.88
647.495	13.88
648.255	13.88
649.014	15.88
649.774	12.88
650.533	12.88
651.292	15.88
652.051	12.88
652.81	12.88
653.569	10.88
654.328	12.88
655.087	12.88
655.846	7.88
656.604	10.88
657.363	7.88
658.121	13.88
658.88	10.88
659.638	9.88
660.397	10.88
661.155	8.88
661.913	6.88
662.671	8.88
663.429	9.88
664.187	10.88
664.945	9.88
665.703	11.88
666.46	7.88
667.218	8.88
667.976	9.88
668.733	7.88
669.49	6.88
670.248	8.88
671.005	8.88
671.762	6.88
672.519	6.88
673.276	8.88
674.033	8.88
674.79	5.88
675.547	7.88
676.304	7.88
677.06	6.88
677.817	6.88
678.574	7.88
679.33	7.88
680.086	8.88
680.843	4.88
681.599	5.88
682.355	5.88
683.111	8.88
683.867	6.88
684.623	5.88
685.379	8.88
686.135	4.88
686.89	9.88
687.646	6.88
688.402	6.88
689.157	6.88
689.912	6.88
690.668	2.88
691.423	7.88
692.178	6.88
692.933	6.88
693.688	6.88
694.443	6.88
695.198	6.88
695.953	4.88
696.708	6.88
697.462	6.88
698.217	5.88
698.972	6.88
699.726	5.88
700.48	6.88
701.235	7.88
701.989	8.88
702.743	6.88
703.497	5.88
704.251	5.88
705.005	6.88
705.759	5.88
706.513	5.88
707.266	6.88
708.02	4.88
708.774	7.88
709.527	7.88
710.28	5.88
711.034	5.88
711.787	1.88
712.54	5.88
713.293	6.88
714.046	3.88
714.799	6.88
715.552	7.88
716.305	5.88
717.058	5.88
717.81	6.88
718.563	4.88
719.315	7.88
720.068	8.88
720.82	5.88
721.573	4.88
722.325	5.88
723.077	5.88
723.829	7.88
724.581	7.88
725.333	8.88
726.085	5.88
726.836	5.88
727.588	5.88
728.34	7.88
729.091	5.88
729.843	6.88
730.594	9.88
731.346	8.88
732.097	7.88
732.848	4.88
733.599	7.88
734.35	7.88
735.101	7.88
735.852	9.88
736.603	8.88
737.354	7.88
738.104	8.88
738.855	9.88
739.605	5.88
740.356	8.88
741.106	7.88
741.856	7.88
742.607	8.88
743.357	10.88
744.107	8.88
744.857	9.88
745.607	7.88
746.357	9.88
747.106	7.88
747.856	10.88
748.606	7.88
749.355	11.88
750.105	8.88
750.854	7.88
751.603	8.88
752.353	9.88
753.102	7.88
753.851	11.88
754.6	9.88
755.349	11.88
756.098	9.88
756.847	12.88
757.595	10.88
758.344	12.88
759.093	11.88
759.841	9.88
760.589	9.88
761.338	10.88
762.086	10.88
762.834	11.88
763.582	11.88
764.331	11.88
765.079	10.88
765.826	10.88
766.574	13.88
767.322	14.88
768.07	12.88
768.817	11.88
769.565	14.88
770.312	13.88
771.06	13.88
771.807	13.88
772.554	12.88
773.302	13.88
774.049	13.88
774.796	13.88
775.543	13.88
776.29	14.88
777.036	11.88
777.783	12.88
778.53	12.88
779.276	15.88
780.023	13.88
780.769	13.88
781.516	13.88
782.262	13.88
783.008	12.88
783.754	11.88
784.5	13.88
785.246	14.88
785.992	12.88
786.738	13.88
787.484	14.88
788.23	13.88
788.975	16.88
789.721	16.88
790.466	15.88
791.212	10.88
791.957	11.88
792.702	13.88
793.447	11.88
794.193	12.88
794.938	10.88
795.683	10.88
796.427	11.88
797.172	10.88
797.917	13.88
798.662	11.88
799.406	9.88
800.151	11.88
800.895	10.88
801.64	8.88
802.384	12.88
803.128	11.88
803.872	9.88
804.616	10.88
805.36	8.88
806.104	9.88
806.848	6.88
807.592	7.88
808.336	7.88
809.079	8.88
809.823	8.88
810.566	7.88
811.31	9.88
812.053	7.88
812.796	7.88
813.539	9.88
814.283	7.88
815.026	5.88
815.769	7.88
816.511	4.88
817.254	5.88
817.997	6.88
818.74	5.88
819.482	6.88
820.225	6.88
820.967	8.88
821.71	5.88
822.452	6.88
823.194	6.88
823.936	5.88
824.678	4.88
825.42	4.88
826.162	5.88
826.904	6.88
827.646	5.88
828.388	2.88
829.129	3.88
829.871	5.88
830.612	3.88
831.354	6.88
832.095	8.88
832.836	7.88
833.577	4.88
834.319	3.88
835.06	5.88
835.801	5.88
836.542	5.88
837.282	4.88
838.023	4.88
838.764	5.88
839.504	4.88
840.245	1.88
840.985	5.88
841.726	5.88
842.466	2.88
843.206	4.88
843.946	6.88
844.687	3.88
845.427	4.88
846.166	5.88
846.906	4.88
847.646	5.88
848.386	1.88
849.125	3.88
849.865	-0.12
850.605	4.88
851.344	3.88
852.083	1.88
852.823	2.88
853.562	3.88
854.301	3.88
855.04	5.88
855.779	1.88
856.518	4.88
857.257	2.88
857.995	0.88
858.734	4.88
859.473	5.88
860.211	2.88
860.95	4.88
861.688	3.88
862.426	2.88
863.165	2.88
863.903	1.88
864.641	4.88
865.379	3.88
866.117	1.88
866.855	0.88
867.593	1.88
868.33	1.88
869.068	1.88
869.806	-0.12
870.543	2.88
871.28	0.88
872.018	0.88
872.755	1.88
873.492	2.88
874.229	0.88
874.967	-0.12
875.703	0.88
876.44	1.88
877.177	-0.12
877.914	0.88
878.651	-1.12
879.387	-0.12
880.124	2.88
880.86	-1.12
881.597	0.88
882.333	-0.12
883.069	-0.12
883.806	1.88
884.542	0.88
885.278	-0.12
886.014	0.88
886.749	-2.12
887.485	1.88
888.221	1.88
888.957	-0.12
889.692	0.88
890.428	-0.12
891.163	0.88
891.899	-1.12
892.634	0.88
893.369	1.88
894.104	-1.12
894.839	0.88
895.574	-1.12
896.309	-1.12
897.044	-1.12
897.779	0.88
898.514	-0.12
899.248	0.88
899.983	-2.12
900.717	0.88
901.452	0.88
902.186	0.88
902.92	-1.12
903.654	0.88
904.389	-4.12
905.123	1.88
905.857	-0.12
906.59	-0.12
907.324	0.88
908.058	-2.12
908.792	-1.12
909.525	-0.12
910.259	-2.12
910.992	1.88
911.726	0.88
912.459	0.88
913.192	-2.12
913.925	0.88
914.658	-2.12
915.391	-0.12
916.124	-0.12
916.857	-2.12
917.59	-1.12
918.323	-0.12
919.055	1.88
919.788	-0.12
920.521	-0.12
921.253	1.88
921.985	-3.12
922.718	1.88
923.45	-1.12
924.182	-1.12
924.914	-0.12
925.646	-0.12
926.378	-0.12
927.11	-1.12
927.841	-0.12
928.573	-0.12
929.305	-0.12
930.036	-2.12
930.768	-1.12
931.499	-0.12
932.23	-0.12
932.962	0.88
933.693	1.88
934.424	-1.12
935.155	-1.12
935.886	-2.12
936.617	-0.12
937.348	0.88
938.078	0.88
938.809	-2.12
939.54	-2.12
940.27	1.88
941.001	0.88
941.731	-1.12
942.461	-0.12
943.191	-2.12
943.922	1.88
944.652	-1.12
945.382	0.88
946.112	0.88
946.841	-4.12
947.571	-2.12
948.301	-2.12
949.031	0.88
949.76	-2.12
950.49	-1.12
951.219	-3.12
951.948	-2.12
952.678	-0.12
953.407	-2.12
954.136	-0.12
954.865	-0.12
955.594	-0.12
956.323	-1.12
957.052	-2.12
957.78	-0.12
958.509	0.88
959.238	-1.12
959.966	1.88
960.695	-2.12
961.423	0.88
962.151	-2.12
962.88	-0.12
963.608	-3.12
964.336	-0.12
965.064	-2.12
965.792	-2.12
966.52	-1.12
967.247	-0.12
967.975	0.88
968.703	-1.12
969.43	-1.12
970.158	-2.12
970.885	-2.12
971.613	-1.12
972.34	-0.12
973.067	-2.12
973.794	-1.12
974.521	-0.12
975.248	0.88
975.975	-2.12
976.702	-0.12
977.429	0.88
978.156	-0.12
978.882	-1.12
979.609	-0.12
980.335	-0.12
981.062	-1.12
981.788	-1.12
982.514	-1.12
983.24	-2.12
983.967	0.88
984.693	-2.12
985.419	-0.12
986.144	-1.12
986.87	-0.12
987.596	-2.12
988.322	-1.12
989.047	-0.12
989.773	-1.12
990.498	-1.12
991.224	1.88
991.949	-0.12
992.674	-0.12
993.399	-1.12
994.124	0.88
994.849	-1.12
995.574	0.88
996.299	-0.12
997.024	-1.12
997.749	1.88
998.473	-2.12
999.198	-0.12
999.922	-2.12
1000.647	-2.12
1001.371	3.88
1002.095	-2.12
1002.82	-0.12
1003.544	-1.12
1004.268	2.88
1004.992	0.88
1005.716	1.88
1006.439	1.88
1007.163	2.88
1007.887	6.88
1008.611	0.88
1009.334	-2.12
1010.058	-0.12
1010.781	-2.12
1011.504	-1.12
1012.228	-2.12
1012.951	-0.12
1013.674	-0.12
1014.397	-1.12
1015.12	0.88
