节点500_705_QEPB04081__610__20-54-36-788.txt的数据

Date: Wed Nov 12 20:54:36 CST 2025
User: PC
Spectrometer: QEPB0408
触发模式: 0
积分时间 (秒): 1.000000E-2
Scans to average: 1
启用暗噪声校正: true
启用非线性校正: false
滑动平均宽度: 0
X轴模式: Wavelengths
Number of Pixels in Spectrum: 1044
>>>>>Begin Spectral Data<<<<<
220.843	6
221.644	4
222.444	6
223.244	4
224.045	6
224.845	6
225.645	9
226.445	7
227.245	4
228.045	6
228.845	7
229.645	8
230.444	8
231.244	10
232.043	6
232.843	9
233.642	9
234.442	9
235.241	9
236.04	8
236.839	10
237.638	10
238.437	7
239.236	9
240.035	12
240.833	8
241.632	11
242.43	9
243.229	11
244.027	11
244.826	13
245.624	12
246.422	13
247.22	11
248.018	14
248.816	15
249.614	15
250.412	14
251.21	17
252.007	14
252.805	15
253.602	17
254.4	17
255.197	17
255.994	17
256.791	16
257.589	19
258.386	18
259.183	18
259.979	20
260.776	19
261.573	18
262.37	20
263.166	21
263.963	23
264.759	22
265.556	25
266.352	22
267.148	25
267.944	25
268.74	26
269.536	27
270.332	27
271.128	28
271.924	30
272.719	27
273.515	30
274.311	27
275.106	29
275.901	28
276.697	31
277.492	32
278.287	31
279.082	32
279.877	32
280.672	33
281.467	29
282.262	30
283.056	33
283.851	30
284.646	31
285.44	32
286.234	34
287.029	31
287.823	29
288.617	28
289.411	27
290.205	32
290.999	29
291.793	29
292.587	32
293.381	28
294.174	30
294.968	27
295.761	26
296.555	25
297.348	25
298.141	24
298.935	29
299.728	25
300.521	24
301.314	26
302.107	25
302.899	23
303.692	23
304.485	24
305.277	22
306.07	24
306.862	20
307.655	22
308.447	22
309.239	24
310.031	16
310.823	19
311.615	17
312.407	14
313.199	19
313.991	15
314.783	17
315.574	15
316.366	15
317.157	17
317.949	15
318.74	15
319.531	14
320.322	15
321.113	13
321.904	12
322.695	12
323.486	11
324.277	14
325.068	13
325.858	12
326.649	15
327.439	13
328.23	11
329.02	9
329.81	12
330.6	12
331.391	10
332.181	13
332.971	12
333.76	15
334.55	12
335.34	13
336.13	13
336.919	11
337.709	11
338.498	10
339.287	13
340.077	15
340.866	11
341.655	11
342.444	10
343.233	11
344.022	14
344.811	13
345.6	11
346.388	14
347.177	11
347.965	11
348.754	12
349.542	12
350.33	12
351.119	12
351.907	10
352.695	11
353.483	9
354.271	11
355.059	13
355.846	12
356.634	11
357.422	10
358.209	12
358.997	12
359.784	10
360.571	10
361.359	11
362.146	9
362.933	11
363.72	9
364.507	10
365.294	11
366.081	11
366.867	10
367.654	9
368.44	9
369.227	12
370.013	11
370.8	8
371.586	10
372.372	10
373.158	11
373.944	8
374.73	8
375.516	9
376.302	10
377.088	9
377.873	7
378.659	10
379.445	10
380.23	11
381.015	10
381.801	10
382.586	10
383.371	10
384.156	9
384.941	9
385.726	9
386.511	10
387.296	9
388.08	9
388.865	11
389.649	9
390.434	11
391.218	11
392.003	8
392.787	12
393.571	8
394.355	12
395.139	14
395.923	14
396.707	11
397.491	12
398.274	11
399.058	12
399.842	15
400.625	9
401.408	13
402.192	13
402.975	12
403.758	12
404.541	13
405.324	18
406.107	13
406.89	13
407.673	15
408.456	14
409.238	18
410.021	17
410.803	15
411.586	14
412.368	16
413.151	17
413.933	18
414.715	15
415.497	18
416.279	17
417.061	17
417.843	19
418.624	18
419.406	20
420.188	22
420.969	23
421.751	21
422.532	25
423.313	20
424.095	25
424.876	23
425.657	25
426.438	25
427.219	27
428	27
428.78	27
429.561	30
430.342	29
431.122	31
431.903	33
432.683	32
433.464	33
434.244	35
435.024	40
435.804	42
436.584	44
437.364	47
438.144	49
438.924	51
439.704	52
440.483	62
441.263	64
442.042	69
442.822	72
443.601	76
444.38	84
445.16	93
445.939	101
446.718	109
447.497	118
448.276	130
449.054	144
449.833	159
450.612	171
451.391	189
452.169	202
452.948	231
453.726	258
454.504	286
455.282	317
456.061	361
456.839	396
457.617	446
458.395	485
459.172	542
459.95	603
460.728	669
461.506	750
462.283	841
463.061	920
463.838	1012
464.615	1135
465.393	1268
466.17	1393
466.947	1549
467.724	1708
468.501	1881
469.278	2076
470.055	2284
470.831	2500
471.608	2756
472.385	3017
473.161	3324
473.938	3608
474.714	3955
475.49	4343
476.266	4698
477.043	5129
477.819	5588
478.595	6096
479.371	6588
480.146	7145
480.922	7771
481.698	8421
482.473	9136
483.249	9909
484.024	10707
484.8	11521
485.575	12392
486.35	13369
487.126	14453
487.901	15520
488.676	16701
489.451	18030
490.225	19269
491	20630
491.775	21946
492.55	23429
493.324	24975
494.099	26567
494.873	28117
495.647	29639
496.422	31200
497.196	32845
497.97	34370
498.744	35897
499.518	37518
500.292	38802
501.066	39824
501.839	40701
502.613	41722
503.387	42484
504.16	43144
504.934	43549
505.707	43840
506.48	43783
507.253	43619
508.027	43252
508.8	42696
509.573	41893
510.346	41221
511.118	40438
511.891	39546
512.664	38218
513.437	36971
514.209	35781
514.982	34564
515.754	33299
516.526	32001
517.298	30754
518.071	29628
518.843	28465
519.615	27342
520.387	26298
521.159	25263
521.93	24227
522.702	23224
523.474	22270
524.245	21378
525.017	20545
525.788	19656
526.56	18866
527.331	18082
528.102	17233
528.873	16388
529.644	15633
530.415	14946
531.186	14204
531.957	13578
532.728	12872
533.498	12236
534.269	11614
535.039	11014
535.81	10421
536.58	9838
537.351	9335
538.121	8877
538.891	8401
539.661	7977
540.431	7477
541.201	7140
541.971	6748
542.741	6373
543.51	6027
544.28	5791
545.05	5503
545.819	5257
546.588	4998
547.358	4762
548.127	4525
548.896	4293
549.665	4093
550.434	3890
551.203	3691
551.972	3509
552.741	3308
553.51	3139
554.278	2965
555.047	2810
555.815	2657
556.584	2521
557.352	2362
558.121	2234
558.889	2129
559.657	2000
560.425	1900
561.193	1812
561.961	1714
562.729	1624
563.496	1513
564.264	1436
565.032	1363
565.799	1283
566.567	1221
567.334	1153
568.101	1089
568.869	1025
569.636	969
570.403	924
571.17	867
571.937	810
572.704	771
573.471	738
574.237	690
575.004	649
575.771	619
576.537	579
577.303	550
578.07	521
578.836	487
579.602	466
580.368	436
581.134	416
581.9	391
582.666	375
583.432	355
584.198	344
584.964	316
585.729	306
586.495	293
587.26	273
588.025	251
588.791	249
589.556	227
590.321	223
591.086	206
591.851	203
592.616	185
593.381	177
594.146	175
594.911	168
595.675	158
596.44	148
597.204	144
597.969	138
598.733	127
599.497	128
600.261	118
601.025	114
601.79	109
602.553	104
603.317	98
604.081	97
604.845	91
605.609	88
606.372	89
607.136	82
607.899	78
608.662	76
609.426	75
610.189	71
610.952	65
611.715	63
612.478	64
613.241	61
614.004	56
614.767	55
615.529	55
616.292	54
617.055	51
617.817	50
618.579	47
619.342	47
620.104	43
620.866	46
621.628	43
622.39	40
623.152	39
623.914	39
624.676	35
625.438	35
626.199	35
626.961	31
627.722	27
628.484	33
629.245	28
630.006	29
630.768	28
631.529	27
632.29	26
633.051	29
633.812	25
634.573	24
635.333	26
636.094	27
636.855	24
637.615	22
638.376	23
639.136	23
639.896	26
640.657	20
641.417	19
642.177	18
642.937	17
643.697	17
644.457	19
645.216	19
645.976	15
646.736	17
647.495	16
648.255	17
649.014	15
649.774	14
650.533	17
651.292	15
652.051	13
652.81	14
653.569	15
654.328	15
655.087	13
655.846	13
656.604	9
657.363	12
658.121	14
658.88	11
659.638	12
660.397	11
661.155	14
661.913	12
662.671	9
663.429	9
664.187	12
664.945	12
665.703	11
666.46	11
667.218	11
667.976	8
668.733	11
669.49	11
670.248	10
671.005	10
671.762	9
672.519	9
673.276	9
674.033	10
674.79	11
675.547	10
676.304	7
677.06	7
677.817	8
678.574	8
679.33	8
680.086	9
680.843	7
681.599	8
682.355	8
683.111	5
683.867	8
684.623	10
685.379	5
686.135	10
686.89	9
687.646	7
688.402	6
689.157	8
689.912	7
690.668	7
691.423	8
692.178	7
692.933	8
693.688	10
694.443	9
695.198	8
695.953	8
696.708	8
697.462	8
698.217	7
698.972	6
699.726	8
700.48	7
701.235	8
701.989	8
702.743	6
703.497	8
704.251	9
705.005	10
705.759	8
706.513	8
707.266	5
708.02	5
708.774	8
709.527	8
710.28	8
711.034	8
711.787	9
712.54	8
713.293	9
714.046	6
714.799	7
715.552	8
716.305	7
717.058	8
717.81	7
718.563	9
719.315	8
720.068	7
720.82	9
721.573	7
722.325	7
723.077	8
723.829	8
724.581	7
725.333	9
726.085	9
726.836	6
727.588	6
728.34	8
729.091	8
729.843	9
730.594	9
731.346	9
732.097	10
732.848	7
733.599	9
734.35	9
735.101	9
735.852	6
736.603	9
737.354	8
738.104	10
738.855	10
739.605	8
740.356	10
741.106	9
741.856	10
742.607	9
743.357	9
744.107	11
744.857	10
745.607	8
746.357	11
747.106	8
747.856	11
748.606	11
749.355	9
750.105	8
750.854	10
751.603	10
752.353	9
753.102	8
753.851	10
754.6	8
755.349	11
756.098	10
756.847	12
757.595	10
758.344	9
759.093	10
759.841	11
760.589	12
761.338	11
762.086	11
762.834	11
763.582	10
764.331	15
765.079	13
765.826	13
766.574	13
767.322	15
768.07	14
768.817	10
769.565	15
770.312	12
771.06	14
771.807	12
772.554	13
773.302	15
774.049	11
774.796	13
775.543	13
776.29	15
777.036	12
777.783	12
778.53	13
779.276	15
780.023	15
780.769	14
781.516	13
782.262	15
783.008	11
783.754	14
784.5	15
785.246	14
785.992	15
786.738	16
787.484	15
788.23	12
788.975	13
789.721	11
790.466	15
791.212	14
791.957	12
792.702	14
793.447	14
794.193	16
794.938	13
795.683	15
796.427	11
797.172	12
797.917	13
798.662	12
799.406	15
800.151	12
800.895	11
801.64	10
802.384	11
803.128	11
803.872	12
804.616	13
805.36	11
806.104	11
806.848	12
807.592	11
808.336	10
809.079	11
809.823	11
810.566	10
811.31	8
812.053	9
812.796	8
813.539	9
814.283	9
815.026	10
815.769	9
816.511	7
817.254	10
817.997	9
818.74	8
819.482	8
820.225	6
820.967	11
821.71	6
822.452	7
823.194	6
823.936	6
824.678	5
825.42	6
826.162	9
826.904	8
827.646	6
828.388	10
829.129	7
829.871	6
830.612	7
831.354	10
832.095	8
832.836	6
833.577	7
834.319	6
835.06	6
835.801	5
836.542	5
837.282	6
838.023	4
838.764	7
839.504	4
840.245	6
840.985	7
841.726	4
842.466	5
843.206	6
843.946	5
844.687	5
845.427	6
846.166	5
846.906	4
847.646	2
848.386	6
849.125	5
849.865	4
850.605	6
851.344	3
852.083	7
852.823	5
853.562	4
854.301	4
855.04	6
855.779	6
856.518	5
857.257	2
857.995	4
858.734	2
859.473	6
860.211	3
860.95	4
861.688	6
862.426	3
863.165	3
863.903	4
864.641	3
865.379	4
866.117	3
866.855	3
867.593	3
868.33	5
869.068	2
869.806	2
870.543	4
871.28	2
872.018	5
872.755	1
873.492	4
874.229	0
874.967	2
875.703	2
876.44	1
877.177	4
877.914	3
878.651	2
879.387	3
880.124	1
880.86	1
881.597	2
882.333	0
883.069	2
883.806	2
884.542	4
885.278	2
886.014	2
886.749	0
887.485	3
888.221	2
888.957	2
889.692	1
890.428	-1
891.163	0
891.899	0
892.634	3
893.369	3
894.104	1
894.839	2
895.574	-1
896.309	1
897.044	2
897.779	1
898.514	4
899.248	2
899.983	0
900.717	0
901.452	1
902.186	0
902.92	2
903.654	1
904.389	0
905.123	-2
905.857	2
906.59	1
907.324	0
908.058	0
908.792	2
909.525	0
910.259	-1
910.992	1
911.726	2
912.459	-1
913.192	1
913.925	1
914.658	2
915.391	0
916.124	0
916.857	-1
917.59	1
918.323	0
919.055	3
919.788	1
920.521	1
921.253	1
921.985	-1
922.718	0
923.45	2
924.182	0
924.914	0
925.646	-1
926.378	1
927.11	0
927.841	1
928.573	1
929.305	0
930.036	3
930.768	-1
931.499	2
932.23	0
932.962	2
933.693	0
934.424	0
935.155	0
935.886	0
936.617	-1
937.348	0
938.078	0
938.809	0
939.54	0
940.27	1
941.001	-1
941.731	2
942.461	-3
943.191	2
943.922	-1
944.652	0
945.382	1
946.112	-1
946.841	0
947.571	1
948.301	-1
949.031	0
949.76	-1
950.49	1
951.219	-2
951.948	1
952.678	-1
953.407	1
954.136	0
954.865	-1
955.594	1
956.323	0
957.052	-2
957.78	1
958.509	0
959.238	-1
959.966	-1
960.695	2
961.423	0
962.151	0
962.88	-1
963.608	-2
964.336	0
965.064	-1
965.792	1
966.52	-1
967.247	0
967.975	3
968.703	-1
969.43	0
970.158	0
970.885	1
971.613	0
972.34	1
973.067	0
973.794	2
974.521	0
975.248	0
975.975	1
976.702	1
977.429	-1
978.156	3
978.882	-1
979.609	0
980.335	-1
981.062	1
981.788	2
982.514	1
983.24	-1
983.967	-1
984.693	1
985.419	1
986.144	-1
986.87	2
987.596	2
988.322	2
989.047	0
989.773	0
990.498	-1
991.224	-1
991.949	2
992.674	1
993.399	0
994.124	1
994.849	-1
995.574	1
996.299	0
997.024	1
997.749	3
998.473	1
999.198	1
999.922	2
1000.647	1
1001.371	3
1002.095	0
1002.82	0
1003.544	-2
1004.268	3
1004.992	3
1005.716	2
1006.439	4
1007.163	5
1007.887	6
1008.611	1
1009.334	0
1010.058	2
1010.781	-1
1011.504	2
1012.228	-1
1012.951	0
1013.674	0
1014.397	-1
1015.12	0
