节点500_705_QEPB04081__20__20-46-13-337.txt的数据

Date: Wed Nov 12 20:46:13 CST 2025
User: PC
Spectrometer: QEPB0408
触发模式: 0
积分时间 (秒): 1.000000E-2
Scans to average: 1
启用暗噪声校正: true
启用非线性校正: false
滑动平均宽度: 0
X轴模式: Wavelengths
Number of Pixels in Spectrum: 1044
>>>>>Begin Spectral Data<<<<<
220.843	5.38
221.644	4.38
222.444	3.38
223.244	4.38
224.045	4.38
224.845	9.38
225.645	6.38
226.445	5.38
227.245	8.38
228.045	7.38
228.845	8.38
229.645	6.38
230.444	7.38
231.244	8.38
232.043	6.38
232.843	5.38
233.642	8.38
234.442	10.38
235.241	11.38
236.04	10.38
236.839	9.38
237.638	8.38
238.437	12.38
239.236	10.38
240.035	10.38
240.833	11.38
241.632	11.38
242.43	10.38
243.229	13.38
244.027	12.38
244.826	12.38
245.624	14.38
246.422	12.38
247.22	14.38
248.018	15.38
248.816	14.38
249.614	14.38
250.412	17.38
251.21	17.38
252.007	18.38
252.805	19.38
253.602	21.38
254.4	16.38
255.197	18.38
255.994	20.38
256.791	21.38
257.589	22.38
258.386	20.38
259.183	22.38
259.979	21.38
260.776	25.38
261.573	23.38
262.37	20.38
263.166	24.38
263.963	25.38
264.759	27.38
265.556	29.38
266.352	25.38
267.148	26.38
267.944	26.38
268.74	32.38
269.536	28.38
270.332	31.38
271.128	29.38
271.924	35.38
272.719	33.38
273.515	31.38
274.311	33.38
275.106	34.38
275.901	35.38
276.697	33.38
277.492	33.38
278.287	34.38
279.082	35.38
279.877	34.38
280.672	33.38
281.467	35.38
282.262	34.38
283.056	34.38
283.851	32.38
284.646	30.38
285.44	34.38
286.234	32.38
287.029	32.38
287.823	31.38
288.617	31.38
289.411	32.38
290.205	30.38
290.999	30.38
291.793	30.38
292.587	28.38
293.381	28.38
294.174	26.38
294.968	28.38
295.761	26.38
296.555	23.38
297.348	22.38
298.141	24.38
298.935	26.38
299.728	23.38
300.521	23.38
301.314	23.38
302.107	18.38
302.899	24.38
303.692	21.38
304.485	20.38
305.277	20.38
306.07	21.38
306.862	20.38
307.655	18.38
308.447	20.38
309.239	18.38
310.031	17.38
310.823	17.38
311.615	17.38
312.407	15.38
313.199	17.38
313.991	14.38
314.783	14.38
315.574	14.38
316.366	14.38
317.157	13.38
317.949	12.38
318.74	13.38
319.531	12.38
320.322	12.38
321.113	12.38
321.904	13.38
322.695	13.38
323.486	10.38
324.277	6.38
325.068	14.38
325.858	12.38
326.649	12.38
327.439	13.38
328.23	11.38
329.02	10.38
329.81	12.38
330.6	10.38
331.391	11.38
332.181	9.38
332.971	12.38
333.76	9.38
334.55	13.38
335.34	13.38
336.13	11.38
336.919	11.38
337.709	8.38
338.498	9.38
339.287	10.38
340.077	11.38
340.866	10.38
341.655	10.38
342.444	10.38
343.233	12.38
344.022	11.38
344.811	12.38
345.6	12.38
346.388	9.38
347.177	9.38
347.965	10.38
348.754	9.38
349.542	12.38
350.33	9.38
351.119	11.38
351.907	10.38
352.695	11.38
353.483	11.38
354.271	9.38
355.059	10.38
355.846	10.38
356.634	7.38
357.422	9.38
358.209	11.38
358.997	10.38
359.784	9.38
360.571	8.38
361.359	10.38
362.146	7.38
362.933	7.38
363.72	10.38
364.507	9.38
365.294	10.38
366.081	7.38
366.867	8.38
367.654	6.38
368.44	12.38
369.227	6.38
370.013	8.38
370.8	7.38
371.586	8.38
372.372	11.38
373.158	8.38
373.944	10.38
374.73	7.38
375.516	13.38
376.302	10.38
377.088	8.38
377.873	10.38
378.659	9.38
379.445	8.38
380.23	7.38
381.015	7.38
381.801	7.38
382.586	8.38
383.371	9.38
384.156	10.38
384.941	9.38
385.726	10.38
386.511	12.38
387.296	9.38
388.08	10.38
388.865	10.38
389.649	10.38
390.434	10.38
391.218	10.38
392.003	8.38
392.787	14.38
393.571	9.38
394.355	14.38
395.139	13.38
395.923	11.38
396.707	12.38
397.491	12.38
398.274	11.38
399.058	12.38
399.842	14.38
400.625	14.38
401.408	11.38
402.192	12.38
402.975	13.38
403.758	12.38
404.541	12.38
405.324	13.38
406.107	14.38
406.89	13.38
407.673	13.38
408.456	14.38
409.238	14.38
410.021	14.38
410.803	18.38
411.586	16.38
412.368	15.38
413.151	17.38
413.933	14.38
414.715	16.38
415.497	16.38
416.279	17.38
417.061	18.38
417.843	15.38
418.624	18.38
419.406	19.38
420.188	21.38
420.969	20.38
421.751	21.38
422.532	22.38
423.313	23.38
424.095	19.38
424.876	24.38
425.657	24.38
426.438	23.38
427.219	25.38
428	27.38
428.78	28.38
429.561	27.38
430.342	29.38
431.122	30.38
431.903	32.38
432.683	30.38
433.464	37.38
434.244	32.38
435.024	35.38
435.804	37.38
436.584	36.38
437.364	41.38
438.144	46.38
438.924	46.38
439.704	46.38
440.483	51.38
441.263	53.38
442.042	55.38
442.822	62.38
443.601	66.38
444.38	69.38
445.16	76.38
445.939	79.38
446.718	88.38
447.497	94.38
448.276	103.38
449.054	117.38
449.833	126.38
450.612	136.38
451.391	148.38
452.169	171.38
452.948	195.38
453.726	202.38
454.504	225.38
455.282	249.38
456.061	278.38
456.839	309.38
457.617	348.38
458.395	396.38
459.172	433.38
459.95	491.38
460.728	553.38
461.506	618.38
462.283	682.38
463.061	764.38
463.838	854.38
464.615	945.38
465.393	1066.38
466.17	1197.38
466.947	1336.38
467.724	1490.38
468.501	1669.38
469.278	1832.38
470.055	2062.38
470.831	2277.38
471.608	2544.38
472.385	2816.38
473.161	3113.38
473.938	3421.38
474.714	3819.38
475.49	4226.38
476.266	4637.38
477.043	5100.38
477.819	5661.38
478.595	6184.38
479.371	6824.38
480.146	7472.38
480.922	8229.38
481.698	9046.38
482.473	9901.38
483.249	10832.38
484.024	11760.38
484.8	12870.38
485.575	14037.38
486.35	15321.38
487.126	16622.38
487.901	18036.38
488.676	19594.38
489.451	21221.38
490.225	22806.38
491	24616.38
491.775	26374.38
492.55	28269.38
493.324	30072.38
494.099	31909.38
494.873	33831.38
495.647	35728.38
496.422	37560.38
497.196	39425.38
497.97	40896.38
498.744	42439.38
499.518	44028.38
500.292	45196.38
501.066	45909.38
501.839	46540.38
502.613	46956.38
503.387	47367.38
504.16	47526.38
504.934	47206.38
505.707	46712.38
506.48	46093.38
507.253	45210.38
508.027	44210.38
508.8	42923.38
509.573	41658.38
510.346	40330.38
511.118	39018.38
511.891	37632.38
512.664	36060.38
513.437	34535.38
514.209	33031.38
514.982	31725.38
515.754	30365.38
516.526	29007.38
517.298	27860.38
518.071	26693.38
518.843	25643.38
519.615	24533.38
520.387	23579.38
521.159	22623.38
521.93	21671.38
522.702	20759.38
523.474	19856.38
524.245	18949.38
525.017	18085.38
525.788	17322.38
526.56	16513.38
527.331	15715.38
528.102	14853.38
528.873	14130.38
529.644	13407.38
530.415	12718.38
531.186	12085.38
531.957	11468.38
532.728	10835.38
533.498	10243.38
534.269	9685.38
535.039	9140.38
535.81	8614.38
536.58	8158.38
537.351	7677.38
538.121	7319.38
538.891	6915.38
539.661	6558.38
540.431	6190.38
541.201	5886.38
541.971	5568.38
542.741	5285.38
543.51	5018.38
544.28	4725.38
545.05	4533.38
545.819	4312.38
546.588	4115.38
547.358	3909.38
548.127	3704.38
548.896	3514.38
549.665	3335.38
550.434	3149.38
551.203	2980.38
551.972	2849.38
552.741	2670.38
553.51	2526.38
554.278	2362.38
555.047	2250.38
555.815	2112.38
556.584	2007.38
557.352	1906.38
558.121	1791.38
558.889	1684.38
559.657	1585.38
560.425	1502.38
561.193	1423.38
561.961	1370.38
562.729	1285.38
563.496	1203.38
564.264	1142.38
565.032	1066.38
565.799	1026.38
566.567	968.38
567.334	908.38
568.101	853.38
568.869	809.38
569.636	768.38
570.403	733.38
571.17	681.38
571.937	654.38
572.704	607.38
573.471	578.38
574.237	547.38
575.004	504.38
575.771	473.38
576.537	465.38
577.303	439.38
578.07	408.38
578.836	391.38
579.602	361.38
580.368	342.38
581.134	333.38
581.9	312.38
582.666	292.38
583.432	283.38
584.198	271.38
584.964	254.38
585.729	238.38
586.495	227.38
587.26	213.38
588.025	202.38
588.791	190.38
589.556	185.38
590.321	176.38
591.086	169.38
591.851	161.38
592.616	154.38
593.381	144.38
594.146	137.38
594.911	132.38
595.675	123.38
596.44	118.38
597.204	115.38
597.969	104.38
598.733	103.38
599.497	104.38
600.261	98.38
601.025	90.38
601.79	94.38
602.553	85.38
603.317	80.38
604.081	79.38
604.845	73.38
605.609	72.38
606.372	65.38
607.136	64.38
607.899	63.38
608.662	64.38
609.426	62.38
610.189	55.38
610.952	57.38
611.715	52.38
612.478	48.38
613.241	46.38
614.004	47.38
614.767	49.38
615.529	41.38
616.292	39.38
617.055	43.38
617.817	38.38
618.579	41.38
619.342	36.38
620.104	37.38
620.866	34.38
621.628	33.38
622.39	33.38
623.152	33.38
623.914	28.38
624.676	27.38
625.438	30.38
626.199	29.38
626.961	29.38
627.722	28.38
628.484	25.38
629.245	25.38
630.006	24.38
630.768	25.38
631.529	22.38
632.29	22.38
633.051	24.38
633.812	21.38
634.573	23.38
635.333	20.38
636.094	19.38
636.855	18.38
637.615	18.38
638.376	18.38
639.136	21.38
639.896	17.38
640.657	18.38
641.417	14.38
642.177	15.38
642.937	17.38
643.697	16.38
644.457	18.38
645.216	14.38
645.976	14.38
646.736	14.38
647.495	14.38
648.255	13.38
649.014	12.38
649.774	12.38
650.533	10.38
651.292	13.38
652.051	14.38
652.81	14.38
653.569	11.38
654.328	11.38
655.087	11.38
655.846	11.38
656.604	11.38
657.363	8.38
658.121	11.38
658.88	10.38
659.638	12.38
660.397	11.38
661.155	8.38
661.913	10.38
662.671	10.38
663.429	8.38
664.187	10.38
664.945	10.38
665.703	9.38
666.46	9.38
667.218	9.38
667.976	10.38
668.733	7.38
669.49	7.38
670.248	9.38
671.005	6.38
671.762	9.38
672.519	10.38
673.276	8.38
674.033	5.38
674.79	7.38
675.547	9.38
676.304	8.38
677.06	8.38
677.817	7.38
678.574	9.38
679.33	6.38
680.086	8.38
680.843	5.38
681.599	7.38
682.355	8.38
683.111	8.38
683.867	7.38
684.623	5.38
685.379	7.38
686.135	4.38
686.89	9.38
687.646	7.38
688.402	8.38
689.157	7.38
689.912	5.38
690.668	7.38
691.423	7.38
692.178	6.38
692.933	7.38
693.688	5.38
694.443	7.38
695.198	7.38
695.953	9.38
696.708	7.38
697.462	6.38
698.217	7.38
698.972	7.38
699.726	6.38
700.48	6.38
701.235	5.38
701.989	7.38
702.743	7.38
703.497	6.38
704.251	6.38
705.005	8.38
705.759	6.38
706.513	3.38
707.266	9.38
708.02	6.38
708.774	7.38
709.527	6.38
710.28	6.38
711.034	8.38
711.787	6.38
712.54	5.38
713.293	9.38
714.046	8.38
714.799	7.38
715.552	6.38
716.305	6.38
717.058	8.38
717.81	6.38
718.563	7.38
719.315	6.38
720.068	8.38
720.82	6.38
721.573	7.38
722.325	6.38
723.077	9.38
723.829	8.38
724.581	7.38
725.333	6.38
726.085	7.38
726.836	10.38
727.588	8.38
728.34	8.38
729.091	10.38
729.843	7.38
730.594	9.38
731.346	8.38
732.097	9.38
732.848	6.38
733.599	10.38
734.35	10.38
735.101	10.38
735.852	8.38
736.603	7.38
737.354	10.38
738.104	7.38
738.855	8.38
739.605	10.38
740.356	8.38
741.106	9.38
741.856	9.38
742.607	10.38
743.357	9.38
744.107	10.38
744.857	9.38
745.607	12.38
746.357	10.38
747.106	8.38
747.856	9.38
748.606	10.38
749.355	12.38
750.105	10.38
750.854	11.38
751.603	12.38
752.353	10.38
753.102	11.38
753.851	8.38
754.6	11.38
755.349	12.38
756.098	10.38
756.847	12.38
757.595	11.38
758.344	14.38
759.093	11.38
759.841	13.38
760.589	12.38
761.338	10.38
762.086	11.38
762.834	11.38
763.582	13.38
764.331	14.38
765.079	14.38
765.826	13.38
766.574	11.38
767.322	14.38
768.07	13.38
768.817	12.38
769.565	14.38
770.312	11.38
771.06	16.38
771.807	12.38
772.554	15.38
773.302	14.38
774.049	14.38
774.796	14.38
775.543	15.38
776.29	16.38
777.036	14.38
777.783	13.38
778.53	14.38
779.276	17.38
780.023	14.38
780.769	15.38
781.516	15.38
782.262	18.38
783.008	14.38
783.754	16.38
784.5	14.38
785.246	15.38
785.992	15.38
786.738	11.38
787.484	16.38
788.23	16.38
788.975	14.38
789.721	15.38
790.466	14.38
791.212	14.38
791.957	13.38
792.702	16.38
793.447	14.38
794.193	12.38
794.938	15.38
795.683	11.38
796.427	12.38
797.172	10.38
797.917	10.38
798.662	13.38
799.406	14.38
800.151	12.38
800.895	10.38
801.64	12.38
802.384	12.38
803.128	11.38
803.872	10.38
804.616	12.38
805.36	9.38
806.104	8.38
806.848	9.38
807.592	7.38
808.336	9.38
809.079	10.38
809.823	10.38
810.566	6.38
811.31	8.38
812.053	8.38
812.796	6.38
813.539	7.38
814.283	8.38
815.026	9.38
815.769	7.38
816.511	6.38
817.254	8.38
817.997	6.38
818.74	6.38
819.482	8.38
820.225	5.38
820.967	6.38
821.71	9.38
822.452	5.38
823.194	5.38
823.936	5.38
824.678	5.38
825.42	6.38
826.162	7.38
826.904	4.38
827.646	7.38
828.388	7.38
829.129	6.38
829.871	5.38
830.612	5.38
831.354	4.38
832.095	5.38
832.836	5.38
833.577	7.38
834.319	4.38
835.06	5.38
835.801	5.38
836.542	4.38
837.282	6.38
838.023	4.38
838.764	5.38
839.504	3.38
840.245	5.38
840.985	2.38
841.726	6.38
842.466	4.38
843.206	3.38
843.946	6.38
844.687	6.38
845.427	3.38
846.166	4.38
846.906	4.38
847.646	5.38
848.386	4.38
849.125	4.38
849.865	5.38
850.605	2.38
851.344	4.38
852.083	0.38
852.823	4.38
853.562	2.38
854.301	2.38
855.04	3.38
855.779	2.38
856.518	1.38
857.257	3.38
857.995	2.38
858.734	4.38
859.473	4.38
860.211	1.38
860.95	2.38
861.688	3.38
862.426	2.38
863.165	2.38
863.903	2.38
864.641	2.38
865.379	0.38
866.117	1.38
866.855	1.38
867.593	0.38
868.33	2.38
869.068	2.38
869.806	2.38
870.543	3.38
871.28	1.38
872.018	2.38
872.755	2.38
873.492	2.38
874.229	3.38
874.967	1.38
875.703	0.38
876.44	2.38
877.177	2.38
877.914	2.38
878.651	1.38
879.387	2.38
880.124	0.38
880.86	1.38
881.597	1.38
882.333	1.38
883.069	0.38
883.806	1.38
884.542	0.38
885.278	0.38
886.014	0.38
886.749	0.38
887.485	0.38
888.221	1.38
888.957	-1.62
889.692	2.38
890.428	-0.62
891.163	0.38
891.899	1.38
892.634	2.38
893.369	-0.62
894.104	-1.62
894.839	-0.62
895.574	-1.62
896.309	0.38
897.044	-1.62
897.779	-1.62
898.514	0.38
899.248	-1.62
899.983	-0.62
900.717	-2.62
901.452	1.38
902.186	0.38
902.92	0.38
903.654	2.38
904.389	0.38
905.123	-1.62
905.857	0.38
906.59	-1.62
907.324	1.38
908.058	-0.62
908.792	1.38
909.525	0.38
910.259	1.38
910.992	1.38
911.726	0.38
912.459	1.38
913.192	0.38
913.925	1.38
914.658	0.38
915.391	-0.62
916.124	-0.62
916.857	-0.62
917.59	3.38
918.323	1.38
919.055	0.38
919.788	0.38
920.521	0.38
921.253	0.38
921.985	0.38
922.718	2.38
923.45	-1.62
924.182	-0.62
924.914	-1.62
925.646	-0.62
926.378	1.38
927.11	-2.62
927.841	0.38
928.573	-1.62
929.305	0.38
930.036	-1.62
930.768	-1.62
931.499	-0.62
932.23	0.38
932.962	0.38
933.693	0.38
934.424	0.38
935.155	2.38
935.886	-0.62
936.617	0.38
937.348	0.38
938.078	-0.62
938.809	0.38
939.54	0.38
940.27	0.38
941.001	-3.62
941.731	0.38
942.461	0.38
943.191	-0.62
943.922	0.38
944.652	0.38
945.382	0.38
946.112	0.38
946.841	-1.62
947.571	-2.62
948.301	0.38
949.031	1.38
949.76	-2.62
950.49	-2.62
951.219	-0.62
951.948	1.38
952.678	1.38
953.407	1.38
954.136	3.38
954.865	0.38
955.594	-0.62
956.323	0.38
957.052	0.38
957.78	0.38
958.509	0.38
959.238	-0.62
959.966	-1.62
960.695	-0.62
961.423	-1.62
962.151	-0.62
962.88	2.38
963.608	0.38
964.336	-1.62
965.064	-0.62
965.792	-2.62
966.52	0.38
967.247	-1.62
967.975	0.38
968.703	0.38
969.43	-0.62
970.158	-0.62
970.885	-1.62
971.613	0.38
972.34	-1.62
973.067	0.38
973.794	-0.62
974.521	-1.62
975.248	0.38
975.975	-2.62
976.702	0.38
977.429	-1.62
978.156	-0.62
978.882	-0.62
979.609	-0.62
980.335	0.38
981.062	-1.62
981.788	1.38
982.514	-0.62
983.24	0.38
983.967	-0.62
984.693	0.38
985.419	0.38
986.144	1.38
986.87	0.38
987.596	0.38
988.322	0.38
989.047	-0.62
989.773	1.38
990.498	1.38
991.224	0.38
991.949	0.38
992.674	-0.62
993.399	0.38
994.124	-0.62
994.849	-1.62
995.574	-1.62
996.299	-0.62
997.024	0.38
997.749	0.38
998.473	-0.62
999.198	0.38
999.922	-1.62
1000.647	0.38
1001.371	3.38
1002.095	0.38
1002.82	-1.62
1003.544	-1.62
1004.268	1.38
1004.992	2.38
1005.716	3.38
1006.439	4.38
1007.163	4.38
1007.887	4.38
1008.611	1.38
1009.334	0.38
1010.058	0.38
1010.781	-0.62
1011.504	2.38
1012.228	-1.62
1012.951	-0.62
1013.674	-0.62
1014.397	0.38
1015.12	0.38
