节点500_705_QEPB04081__487__20-52-48-768.txt的数据

Date: Wed Nov 12 20:52:48 CST 2025
User: PC
Spectrometer: QEPB0408
触发模式: 0
积分时间 (秒): 1.000000E-2
Scans to average: 1
启用暗噪声校正: true
启用非线性校正: false
滑动平均宽度: 0
X轴模式: Wavelengths
Number of Pixels in Spectrum: 1044
>>>>>Begin Spectral Data<<<<<
220.843	6.12
221.644	8.12
222.444	3.12
223.244	8.12
224.045	3.12
224.845	8.12
225.645	5.12
226.445	8.12
227.245	7.12
228.045	9.12
228.845	10.12
229.645	6.12
230.444	7.12
231.244	9.12
232.043	10.12
232.843	9.12
233.642	10.12
234.442	9.12
235.241	10.12
236.04	8.12
236.839	10.12
237.638	8.12
238.437	11.12
239.236	12.12
240.035	11.12
240.833	11.12
241.632	13.12
242.43	13.12
243.229	14.12
244.027	11.12
244.826	12.12
245.624	10.12
246.422	14.12
247.22	15.12
248.018	13.12
248.816	15.12
249.614	16.12
250.412	15.12
251.21	15.12
252.007	17.12
252.805	15.12
253.602	17.12
254.4	17.12
255.197	15.12
255.994	19.12
256.791	18.12
257.589	20.12
258.386	20.12
259.183	21.12
259.979	19.12
260.776	21.12
261.573	23.12
262.37	20.12
263.166	22.12
263.963	25.12
264.759	26.12
265.556	26.12
266.352	22.12
267.148	28.12
267.944	29.12
268.74	28.12
269.536	27.12
270.332	28.12
271.128	29.12
271.924	30.12
272.719	31.12
273.515	33.12
274.311	26.12
275.106	31.12
275.901	28.12
276.697	31.12
277.492	31.12
278.287	32.12
279.082	34.12
279.877	31.12
280.672	33.12
281.467	31.12
282.262	32.12
283.056	30.12
283.851	32.12
284.646	32.12
285.44	35.12
286.234	35.12
287.029	33.12
287.823	30.12
288.617	30.12
289.411	28.12
290.205	32.12
290.999	32.12
291.793	32.12
292.587	31.12
293.381	28.12
294.174	29.12
294.968	29.12
295.761	26.12
296.555	24.12
297.348	24.12
298.141	27.12
298.935	29.12
299.728	24.12
300.521	23.12
301.314	26.12
302.107	22.12
302.899	22.12
303.692	21.12
304.485	19.12
305.277	23.12
306.07	21.12
306.862	23.12
307.655	22.12
308.447	21.12
309.239	18.12
310.031	18.12
310.823	19.12
311.615	17.12
312.407	19.12
313.199	17.12
313.991	19.12
314.783	16.12
315.574	14.12
316.366	18.12
317.157	14.12
317.949	15.12
318.74	16.12
319.531	14.12
320.322	15.12
321.113	13.12
321.904	16.12
322.695	14.12
323.486	13.12
324.277	14.12
325.068	12.12
325.858	14.12
326.649	14.12
327.439	11.12
328.23	11.12
329.02	12.12
329.81	13.12
330.6	13.12
331.391	13.12
332.181	11.12
332.971	11.12
333.76	11.12
334.55	14.12
335.34	12.12
336.13	10.12
336.919	13.12
337.709	13.12
338.498	11.12
339.287	14.12
340.077	10.12
340.866	14.12
341.655	13.12
342.444	10.12
343.233	10.12
344.022	11.12
344.811	14.12
345.6	13.12
346.388	14.12
347.177	11.12
347.965	11.12
348.754	9.12
349.542	9.12
350.33	11.12
351.119	15.12
351.907	11.12
352.695	9.12
353.483	9.12
354.271	12.12
355.059	9.12
355.846	9.12
356.634	12.12
357.422	10.12
358.209	12.12
358.997	11.12
359.784	10.12
360.571	8.12
361.359	10.12
362.146	9.12
362.933	12.12
363.72	11.12
364.507	8.12
365.294	9.12
366.081	10.12
366.867	8.12
367.654	11.12
368.44	9.12
369.227	10.12
370.013	11.12
370.8	8.12
371.586	10.12
372.372	8.12
373.158	10.12
373.944	7.12
374.73	10.12
375.516	12.12
376.302	10.12
377.088	9.12
377.873	8.12
378.659	9.12
379.445	11.12
380.23	10.12
381.015	8.12
381.801	10.12
382.586	10.12
383.371	10.12
384.156	9.12
384.941	9.12
385.726	9.12
386.511	11.12
387.296	10.12
388.08	12.12
388.865	12.12
389.649	10.12
390.434	11.12
391.218	12.12
392.003	10.12
392.787	10.12
393.571	12.12
394.355	11.12
395.139	11.12
395.923	11.12
396.707	12.12
397.491	12.12
398.274	10.12
399.058	12.12
399.842	13.12
400.625	13.12
401.408	12.12
402.192	13.12
402.975	13.12
403.758	11.12
404.541	17.12
405.324	16.12
406.107	15.12
406.89	15.12
407.673	14.12
408.456	15.12
409.238	15.12
410.021	19.12
410.803	18.12
411.586	16.12
412.368	15.12
413.151	17.12
413.933	20.12
414.715	16.12
415.497	16.12
416.279	15.12
417.061	20.12
417.843	20.12
418.624	17.12
419.406	17.12
420.188	20.12
420.969	22.12
421.751	20.12
422.532	19.12
423.313	21.12
424.095	21.12
424.876	23.12
425.657	23.12
426.438	27.12
427.219	29.12
428	26.12
428.78	27.12
429.561	30.12
430.342	30.12
431.122	32.12
431.903	31.12
432.683	33.12
433.464	37.12
434.244	37.12
435.024	37.12
435.804	44.12
436.584	42.12
437.364	44.12
438.144	46.12
438.924	49.12
439.704	56.12
440.483	53.12
441.263	61.12
442.042	64.12
442.822	70.12
443.601	73.12
444.38	82.12
445.16	90.12
445.939	96.12
446.718	108.12
447.497	114.12
448.276	126.12
449.054	142.12
449.833	151.12
450.612	166.12
451.391	183.12
452.169	201.12
452.948	228.12
453.726	249.12
454.504	277.12
455.282	310.12
456.061	338.12
456.839	379.12
457.617	426.12
458.395	480.12
459.172	531.12
459.95	592.12
460.728	653.12
461.506	720.12
462.283	805.12
463.061	904.12
463.838	1014.12
464.615	1119.12
465.393	1245.12
466.17	1380.12
466.947	1521.12
467.724	1685.12
468.501	1857.12
469.278	2071.12
470.055	2286.12
470.831	2510.12
471.608	2753.12
472.385	3011.12
473.161	3302.12
473.938	3631.12
474.714	4001.12
475.49	4348.12
476.266	4743.12
477.043	5192.12
477.819	5673.12
478.595	6179.12
479.371	6713.12
480.146	7268.12
480.922	7954.12
481.698	8621.12
482.473	9325.12
483.249	10135.12
484.024	11035.12
484.8	11867.12
485.575	12838.12
486.35	13909.12
487.126	14977.12
487.901	16202.12
488.676	17431.12
489.451	18767.12
490.225	20167.12
491	21579.12
491.775	23012.12
492.55	24659.12
493.324	26190.12
494.099	27843.12
494.873	29515.12
495.647	31045.12
496.422	32830.12
497.196	34582.12
497.97	36032.12
498.744	37528.12
499.518	39099.12
500.292	40464.12
501.066	41556.12
501.839	42441.12
502.613	43417.12
503.387	44060.12
504.16	44604.12
504.934	44923.12
505.707	45055.12
506.48	44853.12
507.253	44537.12
508.027	44141.12
508.8	43398.12
509.573	42597.12
510.346	41740.12
511.118	40821.12
511.891	39683.12
512.664	38266.12
513.437	36956.12
514.209	35778.12
514.982	34466.12
515.754	33082.12
516.526	31849.12
517.298	30526.12
518.071	29472.12
518.843	28219.12
519.615	27081.12
520.387	26005.12
521.159	25062.12
521.93	24003.12
522.702	22957.12
523.474	22068.12
524.245	21213.12
525.017	20269.12
525.788	19453.12
526.56	18624.12
527.331	17810.12
528.102	16926.12
528.873	16119.12
529.644	15362.12
530.415	14685.12
531.186	13950.12
531.957	13278.12
532.728	12623.12
533.498	11976.12
534.269	11313.12
535.039	10733.12
535.81	10195.12
536.58	9574.12
537.351	9123.12
538.121	8687.12
538.891	8176.12
539.661	7727.12
540.431	7325.12
541.201	6936.12
541.971	6571.12
542.741	6214.12
543.51	5897.12
544.28	5636.12
545.05	5347.12
545.819	5105.12
546.588	4877.12
547.358	4657.12
548.127	4423.12
548.896	4193.12
549.665	3991.12
550.434	3783.12
551.203	3593.12
551.972	3402.12
552.741	3237.12
553.51	3040.12
554.278	2871.12
555.047	2725.12
555.815	2586.12
556.584	2444.12
557.352	2294.12
558.121	2179.12
558.889	2053.12
559.657	1925.12
560.425	1831.12
561.193	1731.12
561.961	1663.12
562.729	1565.12
563.496	1472.12
564.264	1384.12
565.032	1318.12
565.799	1258.12
566.567	1190.12
567.334	1115.12
568.101	1045.12
568.869	1001.12
569.636	951.12
570.403	877.12
571.17	836.12
571.937	785.12
572.704	749.12
573.471	712.12
574.237	681.12
575.004	628.12
575.771	586.12
576.537	550.12
577.303	522.12
578.07	498.12
578.836	479.12
579.602	449.12
580.368	422.12
581.134	399.12
581.9	380.12
582.666	361.12
583.432	345.12
584.198	327.12
584.964	314.12
585.729	297.12
586.495	283.12
587.26	256.12
588.025	253.12
588.791	236.12
589.556	224.12
590.321	212.12
591.086	203.12
591.851	188.12
592.616	180.12
593.381	170.12
594.146	167.12
594.911	155.12
595.675	151.12
596.44	149.12
597.204	141.12
597.969	136.12
598.733	131.12
599.497	119.12
600.261	116.12
601.025	112.12
601.79	111.12
602.553	105.12
603.317	97.12
604.081	93.12
604.845	91.12
605.609	87.12
606.372	80.12
607.136	79.12
607.899	79.12
608.662	71.12
609.426	69.12
610.189	67.12
610.952	68.12
611.715	64.12
612.478	61.12
613.241	59.12
614.004	57.12
614.767	53.12
615.529	53.12
616.292	53.12
617.055	50.12
617.817	49.12
618.579	46.12
619.342	46.12
620.104	44.12
620.866	45.12
621.628	40.12
622.39	38.12
623.152	42.12
623.914	34.12
624.676	39.12
625.438	33.12
626.199	31.12
626.961	31.12
627.722	31.12
628.484	31.12
629.245	30.12
630.006	29.12
630.768	26.12
631.529	28.12
632.29	30.12
633.051	25.12
633.812	26.12
634.573	22.12
635.333	23.12
636.094	25.12
636.855	23.12
637.615	20.12
638.376	21.12
639.136	19.12
639.896	19.12
640.657	18.12
641.417	20.12
642.177	18.12
642.937	18.12
643.697	19.12
644.457	18.12
645.216	15.12
645.976	16.12
646.736	17.12
647.495	16.12
648.255	15.12
649.014	13.12
649.774	15.12
650.533	15.12
651.292	11.12
652.051	13.12
652.81	13.12
653.569	14.12
654.328	12.12
655.087	13.12
655.846	16.12
656.604	12.12
657.363	15.12
658.121	11.12
658.88	12.12
659.638	13.12
660.397	13.12
661.155	12.12
661.913	10.12
662.671	11.12
663.429	8.12
664.187	11.12
664.945	12.12
665.703	10.12
666.46	10.12
667.218	9.12
667.976	10.12
668.733	8.12
669.49	11.12
670.248	10.12
671.005	10.12
671.762	9.12
672.519	8.12
673.276	10.12
674.033	11.12
674.79	9.12
675.547	11.12
676.304	9.12
677.06	11.12
677.817	9.12
678.574	8.12
679.33	9.12
680.086	7.12
680.843	10.12
681.599	9.12
682.355	10.12
683.111	10.12
683.867	6.12
684.623	8.12
685.379	9.12
686.135	7.12
686.89	9.12
687.646	5.12
688.402	7.12
689.157	9.12
689.912	8.12
690.668	4.12
691.423	9.12
692.178	7.12
692.933	7.12
693.688	7.12
694.443	9.12
695.198	9.12
695.953	8.12
696.708	7.12
697.462	9.12
698.217	7.12
698.972	7.12
699.726	6.12
700.48	8.12
701.235	6.12
701.989	8.12
702.743	8.12
703.497	6.12
704.251	9.12
705.005	8.12
705.759	8.12
706.513	8.12
707.266	7.12
708.02	8.12
708.774	6.12
709.527	10.12
710.28	9.12
711.034	7.12
711.787	8.12
712.54	6.12
713.293	9.12
714.046	7.12
714.799	11.12
715.552	9.12
716.305	7.12
717.058	8.12
717.81	6.12
718.563	10.12
719.315	7.12
720.068	8.12
720.82	8.12
721.573	9.12
722.325	8.12
723.077	7.12
723.829	9.12
724.581	9.12
725.333	9.12
726.085	8.12
726.836	6.12
727.588	9.12
728.34	9.12
729.091	8.12
729.843	9.12
730.594	10.12
731.346	11.12
732.097	8.12
732.848	8.12
733.599	9.12
734.35	9.12
735.101	10.12
735.852	9.12
736.603	9.12
737.354	8.12
738.104	10.12
738.855	10.12
739.605	9.12
740.356	10.12
741.106	7.12
741.856	12.12
742.607	10.12
743.357	10.12
744.107	12.12
744.857	8.12
745.607	11.12
746.357	9.12
747.106	9.12
747.856	9.12
748.606	11.12
749.355	9.12
750.105	10.12
750.854	11.12
751.603	10.12
752.353	8.12
753.102	13.12
753.851	9.12
754.6	9.12
755.349	9.12
756.098	10.12
756.847	11.12
757.595	9.12
758.344	13.12
759.093	12.12
759.841	11.12
760.589	14.12
761.338	12.12
762.086	11.12
762.834	11.12
763.582	12.12
764.331	10.12
765.079	11.12
765.826	11.12
766.574	13.12
767.322	11.12
768.07	15.12
768.817	12.12
769.565	13.12
770.312	14.12
771.06	15.12
771.807	13.12
772.554	18.12
773.302	14.12
774.049	13.12
774.796	14.12
775.543	15.12
776.29	15.12
777.036	12.12
777.783	15.12
778.53	14.12
779.276	14.12
780.023	13.12
780.769	15.12
781.516	15.12
782.262	15.12
783.008	16.12
783.754	16.12
784.5	14.12
785.246	14.12
785.992	17.12
786.738	15.12
787.484	13.12
788.23	15.12
788.975	14.12
789.721	14.12
790.466	13.12
791.212	12.12
791.957	15.12
792.702	15.12
793.447	16.12
794.193	12.12
794.938	14.12
795.683	13.12
796.427	14.12
797.172	13.12
797.917	13.12
798.662	10.12
799.406	11.12
800.151	13.12
800.895	11.12
801.64	12.12
802.384	13.12
803.128	10.12
803.872	9.12
804.616	11.12
805.36	10.12
806.104	11.12
806.848	11.12
807.592	11.12
808.336	10.12
809.079	9.12
809.823	12.12
810.566	7.12
811.31	9.12
812.053	6.12
812.796	9.12
813.539	11.12
814.283	9.12
815.026	8.12
815.769	7.12
816.511	10.12
817.254	10.12
817.997	9.12
818.74	9.12
819.482	8.12
820.225	7.12
820.967	8.12
821.71	10.12
822.452	5.12
823.194	8.12
823.936	9.12
824.678	6.12
825.42	7.12
826.162	8.12
826.904	8.12
827.646	4.12
828.388	9.12
829.129	6.12
829.871	5.12
830.612	9.12
831.354	5.12
832.095	8.12
832.836	7.12
833.577	5.12
834.319	7.12
835.06	6.12
835.801	7.12
836.542	6.12
837.282	5.12
838.023	8.12
838.764	5.12
839.504	8.12
840.245	6.12
840.985	5.12
841.726	6.12
842.466	2.12
843.206	5.12
843.946	5.12
844.687	7.12
845.427	6.12
846.166	3.12
846.906	6.12
847.646	5.12
848.386	3.12
849.125	3.12
849.865	5.12
850.605	5.12
851.344	4.12
852.083	3.12
852.823	8.12
853.562	4.12
854.301	6.12
855.04	3.12
855.779	6.12
856.518	5.12
857.257	5.12
857.995	4.12
858.734	6.12
859.473	5.12
860.211	4.12
860.95	5.12
861.688	5.12
862.426	1.12
863.165	4.12
863.903	2.12
864.641	5.12
865.379	3.12
866.117	4.12
866.855	4.12
867.593	5.12
868.33	3.12
869.068	2.12
869.806	4.12
870.543	3.12
871.28	2.12
872.018	3.12
872.755	2.12
873.492	0.12
874.229	2.12
874.967	4.12
875.703	3.12
876.44	1.12
877.177	3.12
877.914	2.12
878.651	3.12
879.387	2.12
880.124	2.12
880.86	1.12
881.597	1.12
882.333	2.12
883.069	3.12
883.806	2.12
884.542	2.12
885.278	2.12
886.014	1.12
886.749	2.12
887.485	1.12
888.221	1.12
888.957	2.12
889.692	0.12
890.428	0.12
891.163	3.12
891.899	0.12
892.634	1.12
893.369	1.12
894.104	1.12
894.839	1.12
895.574	1.12
896.309	0.12
897.044	2.12
897.779	2.12
898.514	0.12
899.248	4.12
899.983	1.12
900.717	1.12
901.452	2.12
902.186	1.12
902.92	2.12
903.654	1.12
904.389	1.12
905.123	2.12
905.857	-0.88
906.59	0.12
907.324	2.12
908.058	2.12
908.792	-0.88
909.525	-0.88
910.259	2.12
910.992	3.12
911.726	0.12
912.459	1.12
913.192	2.12
913.925	1.12
914.658	1.12
915.391	2.12
916.124	1.12
916.857	1.12
917.59	4.12
918.323	2.12
919.055	0.12
919.788	0.12
920.521	0.12
921.253	2.12
921.985	1.12
922.718	-0.88
923.45	1.12
924.182	0.12
924.914	-0.88
925.646	-0.88
926.378	3.12
927.11	-0.88
927.841	0.12
928.573	-0.88
929.305	-0.88
930.036	1.12
930.768	1.12
931.499	0.12
932.23	-0.88
932.962	0.12
933.693	-0.88
934.424	2.12
935.155	2.12
935.886	1.12
936.617	2.12
937.348	-0.88
938.078	2.12
938.809	0.12
939.54	-0.88
940.27	0.12
941.001	-0.88
941.731	0.12
942.461	2.12
943.191	0.12
943.922	-0.88
944.652	1.12
945.382	0.12
946.112	1.12
946.841	2.12
947.571	0.12
948.301	1.12
949.031	-0.88
949.76	0.12
950.49	0.12
951.219	0.12
951.948	2.12
952.678	0.12
953.407	1.12
954.136	-0.88
954.865	1.12
955.594	2.12
956.323	0.12
957.052	2.12
957.78	0.12
958.509	2.12
959.238	-0.88
959.966	-0.88
960.695	1.12
961.423	1.12
962.151	0.12
962.88	3.12
963.608	0.12
964.336	1.12
965.064	2.12
965.792	1.12
966.52	-0.88
967.247	2.12
967.975	1.12
968.703	0.12
969.43	1.12
970.158	-0.88
970.885	2.12
971.613	1.12
972.34	-0.88
973.067	1.12
973.794	-2.88
974.521	1.12
975.248	0.12
975.975	2.12
976.702	1.12
977.429	-0.88
978.156	1.12
978.882	0.12
979.609	-0.88
980.335	2.12
981.062	0.12
981.788	1.12
982.514	0.12
983.24	0.12
983.967	-0.88
984.693	2.12
985.419	0.12
986.144	1.12
986.87	2.12
987.596	1.12
988.322	4.12
989.047	2.12
989.773	-0.88
990.498	2.12
991.224	-0.88
991.949	-0.88
992.674	0.12
993.399	0.12
994.124	0.12
994.849	1.12
995.574	2.12
996.299	3.12
997.024	2.12
997.749	2.12
998.473	1.12
999.198	0.12
999.922	-2.88
1000.647	1.12
1001.371	4.12
1002.095	-0.88
1002.82	-0.88
1003.544	-0.88
1004.268	5.12
1004.992	2.12
1005.716	5.12
1006.439	8.12
1007.163	6.12
1007.887	5.12
1008.611	-0.88
1009.334	1.12
1010.058	0.12
1010.781	2.12
1011.504	1.12
1012.228	0.12
1012.951	0.12
1013.674	-0.88
1014.397	0.12
1015.12	-0.88
