节点500_705_QEPB04081__357__20-51-00-596.txt的数据

Date: Wed Nov 12 20:51:00 CST 2025
User: PC
Spectrometer: QEPB0408
触发模式: 0
积分时间 (秒): 1.000000E-2
Scans to average: 1
启用暗噪声校正: true
启用非线性校正: false
滑动平均宽度: 0
X轴模式: Wavelengths
Number of Pixels in Spectrum: 1044
>>>>>Begin Spectral Data<<<<<
220.843	3.88
221.644	3.88
222.444	3.88
223.244	5.88
224.045	7.88
224.845	6.88
225.645	6.88
226.445	5.88
227.245	7.88
228.045	5.88
228.845	6.88
229.645	8.88
230.444	5.88
231.244	7.88
232.043	9.88
232.843	8.88
233.642	8.88
234.442	7.88
235.241	9.88
236.04	8.88
236.839	10.88
237.638	10.88
238.437	9.88
239.236	10.88
240.035	8.88
240.833	12.88
241.632	11.88
242.43	13.88
243.229	14.88
244.027	10.88
244.826	13.88
245.624	12.88
246.422	13.88
247.22	13.88
248.018	13.88
248.816	13.88
249.614	14.88
250.412	16.88
251.21	13.88
252.007	16.88
252.805	16.88
253.602	16.88
254.4	16.88
255.197	17.88
255.994	21.88
256.791	22.88
257.589	20.88
258.386	19.88
259.183	19.88
259.979	21.88
260.776	22.88
261.573	22.88
262.37	22.88
263.166	24.88
263.963	24.88
264.759	20.88
265.556	27.88
266.352	25.88
267.148	29.88
267.944	26.88
268.74	25.88
269.536	28.88
270.332	29.88
271.128	29.88
271.924	29.88
272.719	30.88
273.515	32.88
274.311	30.88
275.106	33.88
275.901	33.88
276.697	30.88
277.492	34.88
278.287	30.88
279.082	33.88
279.877	33.88
280.672	34.88
281.467	32.88
282.262	36.88
283.056	31.88
283.851	34.88
284.646	30.88
285.44	35.88
286.234	33.88
287.029	34.88
287.823	34.88
288.617	33.88
289.411	31.88
290.205	32.88
290.999	32.88
291.793	33.88
292.587	32.88
293.381	30.88
294.174	30.88
294.968	29.88
295.761	26.88
296.555	27.88
297.348	27.88
298.141	29.88
298.935	27.88
299.728	27.88
300.521	25.88
301.314	23.88
302.107	23.88
302.899	23.88
303.692	24.88
304.485	19.88
305.277	21.88
306.07	20.88
306.862	22.88
307.655	22.88
308.447	20.88
309.239	22.88
310.031	20.88
310.823	21.88
311.615	18.88
312.407	19.88
313.199	19.88
313.991	16.88
314.783	15.88
315.574	16.88
316.366	16.88
317.157	14.88
317.949	14.88
318.74	12.88
319.531	12.88
320.322	14.88
321.113	12.88
321.904	14.88
322.695	12.88
323.486	13.88
324.277	13.88
325.068	11.88
325.858	9.88
326.649	13.88
327.439	12.88
328.23	10.88
329.02	11.88
329.81	11.88
330.6	9.88
331.391	11.88
332.181	12.88
332.971	9.88
333.76	14.88
334.55	12.88
335.34	10.88
336.13	12.88
336.919	11.88
337.709	11.88
338.498	11.88
339.287	10.88
340.077	10.88
340.866	9.88
341.655	14.88
342.444	11.88
343.233	11.88
344.022	11.88
344.811	9.88
345.6	11.88
346.388	10.88
347.177	9.88
347.965	11.88
348.754	12.88
349.542	10.88
350.33	11.88
351.119	9.88
351.907	10.88
352.695	10.88
353.483	11.88
354.271	8.88
355.059	13.88
355.846	7.88
356.634	11.88
357.422	10.88
358.209	8.88
358.997	9.88
359.784	11.88
360.571	7.88
361.359	8.88
362.146	9.88
362.933	7.88
363.72	10.88
364.507	11.88
365.294	9.88
366.081	7.88
366.867	9.88
367.654	9.88
368.44	10.88
369.227	10.88
370.013	8.88
370.8	8.88
371.586	11.88
372.372	12.88
373.158	6.88
373.944	9.88
374.73	8.88
375.516	9.88
376.302	10.88
377.088	11.88
377.873	7.88
378.659	8.88
379.445	9.88
380.23	9.88
381.015	10.88
381.801	11.88
382.586	8.88
383.371	10.88
384.156	11.88
384.941	9.88
385.726	11.88
386.511	10.88
387.296	11.88
388.08	9.88
388.865	12.88
389.649	11.88
390.434	11.88
391.218	12.88
392.003	11.88
392.787	10.88
393.571	8.88
394.355	12.88
395.139	13.88
395.923	11.88
396.707	13.88
397.491	10.88
398.274	14.88
399.058	11.88
399.842	14.88
400.625	10.88
401.408	10.88
402.192	12.88
402.975	11.88
403.758	14.88
404.541	14.88
405.324	13.88
406.107	13.88
406.89	12.88
407.673	14.88
408.456	17.88
409.238	16.88
410.021	16.88
410.803	14.88
411.586	15.88
412.368	14.88
413.151	16.88
413.933	15.88
414.715	19.88
415.497	16.88
416.279	16.88
417.061	18.88
417.843	17.88
418.624	20.88
419.406	18.88
420.188	19.88
420.969	19.88
421.751	21.88
422.532	24.88
423.313	24.88
424.095	24.88
424.876	25.88
425.657	25.88
426.438	25.88
427.219	28.88
428	27.88
428.78	27.88
429.561	27.88
430.342	30.88
431.122	28.88
431.903	34.88
432.683	32.88
433.464	34.88
434.244	39.88
435.024	43.88
435.804	43.88
436.584	43.88
437.364	43.88
438.144	46.88
438.924	49.88
439.704	56.88
440.483	52.88
441.263	65.88
442.042	65.88
442.822	70.88
443.601	76.88
444.38	80.88
445.16	84.88
445.939	91.88
446.718	102.88
447.497	110.88
448.276	124.88
449.054	138.88
449.833	147.88
450.612	157.88
451.391	178.88
452.169	196.88
452.948	219.88
453.726	244.88
454.504	274.88
455.282	300.88
456.061	330.88
456.839	376.88
457.617	410.88
458.395	457.88
459.172	515.88
459.95	577.88
460.728	626.88
461.506	711.88
462.283	796.88
463.061	882.88
463.838	993.88
464.615	1104.88
465.393	1227.88
466.17	1358.88
466.947	1503.88
467.724	1672.88
468.501	1856.88
469.278	2060.88
470.055	2267.88
470.831	2507.88
471.608	2765.88
472.385	3026.88
473.161	3337.88
473.938	3694.88
474.714	4018.88
475.49	4442.88
476.266	4848.88
477.043	5305.88
477.819	5803.88
478.595	6326.88
479.371	6946.88
480.146	7549.88
480.922	8239.88
481.698	8953.88
482.473	9764.88
483.249	10637.88
484.024	11500.88
484.8	12443.88
485.575	13534.88
486.35	14643.88
487.126	15845.88
487.901	17170.88
488.676	18487.88
489.451	19900.88
490.225	21442.88
491	22939.88
491.775	24525.88
492.55	26288.88
493.324	28028.88
494.099	29730.88
494.873	31518.88
495.647	33251.88
496.422	35038.88
497.196	36737.88
497.97	38428.88
498.744	39947.88
499.518	41472.88
500.292	42864.88
501.066	43899.88
501.839	44800.88
502.613	45673.88
503.387	46375.88
504.16	46761.88
504.934	46860.88
505.707	46877.88
506.48	46583.88
507.253	46084.88
508.027	45371.88
508.8	44462.88
509.573	43465.88
510.346	42426.88
511.118	41450.88
511.891	40202.88
512.664	38715.88
513.437	37317.88
514.209	35977.88
514.982	34589.88
515.754	33153.88
516.526	31765.88
517.298	30566.88
518.071	29389.88
518.843	28139.88
519.615	27116.88
520.387	25947.88
521.159	24965.88
521.93	23893.88
522.702	22936.88
523.474	21944.88
524.245	21055.88
525.017	20126.88
525.788	19225.88
526.56	18426.88
527.331	17643.88
528.102	16758.88
528.873	15922.88
529.644	15163.88
530.415	14507.88
531.186	13754.88
531.957	13075.88
532.728	12423.88
533.498	11773.88
534.269	11150.88
535.039	10521.88
535.81	9986.88
536.58	9412.88
537.351	8878.88
538.121	8453.88
538.891	7996.88
539.661	7569.88
540.431	7145.88
541.201	6778.88
541.971	6420.88
542.741	6091.88
543.51	5778.88
544.28	5478.88
545.05	5253.88
545.819	5015.88
546.588	4778.88
547.358	4529.88
548.127	4312.88
548.896	4105.88
549.665	3895.88
550.434	3668.88
551.203	3468.88
551.972	3306.88
552.741	3142.88
553.51	2973.88
554.278	2795.88
555.047	2646.88
555.815	2494.88
556.584	2342.88
557.352	2214.88
558.121	2102.88
558.889	1991.88
559.657	1888.88
560.425	1794.88
561.193	1685.88
561.961	1611.88
562.729	1509.88
563.496	1431.88
564.264	1353.88
565.032	1265.88
565.799	1195.88
566.567	1134.88
567.334	1090.88
568.101	1021.88
568.869	957.88
569.636	906.88
570.403	865.88
571.17	819.88
571.937	768.88
572.704	716.88
573.471	692.88
574.237	649.88
575.004	603.88
575.771	563.88
576.537	544.88
577.303	514.88
578.07	475.88
578.836	453.88
579.602	430.88
580.368	408.88
581.134	388.88
581.9	370.88
582.666	355.88
583.432	337.88
584.198	314.88
584.964	301.88
585.729	285.88
586.495	273.88
587.26	248.88
588.025	245.88
588.791	235.88
589.556	217.88
590.321	207.88
591.086	195.88
591.851	191.88
592.616	176.88
593.381	170.88
594.146	160.88
594.911	154.88
595.675	148.88
596.44	143.88
597.204	134.88
597.969	131.88
598.733	123.88
599.497	116.88
600.261	108.88
601.025	109.88
601.79	104.88
602.553	100.88
603.317	91.88
604.081	93.88
604.845	89.88
605.609	86.88
606.372	81.88
607.136	77.88
607.899	74.88
608.662	73.88
609.426	69.88
610.189	62.88
610.952	62.88
611.715	62.88
612.478	61.88
613.241	57.88
614.004	54.88
614.767	51.88
615.529	50.88
616.292	49.88
617.055	49.88
617.817	47.88
618.579	44.88
619.342	45.88
620.104	42.88
620.866	41.88
621.628	40.88
622.39	37.88
623.152	34.88
623.914	35.88
624.676	34.88
625.438	34.88
626.199	33.88
626.961	32.88
627.722	33.88
628.484	30.88
629.245	29.88
630.006	32.88
630.768	24.88
631.529	26.88
632.29	23.88
633.051	25.88
633.812	25.88
634.573	26.88
635.333	25.88
636.094	21.88
636.855	22.88
637.615	21.88
638.376	20.88
639.136	18.88
639.896	17.88
640.657	17.88
641.417	19.88
642.177	18.88
642.937	17.88
643.697	16.88
644.457	17.88
645.216	14.88
645.976	16.88
646.736	16.88
647.495	16.88
648.255	14.88
649.014	12.88
649.774	14.88
650.533	13.88
651.292	13.88
652.051	13.88
652.81	12.88
653.569	10.88
654.328	12.88
655.087	12.88
655.846	12.88
656.604	9.88
657.363	11.88
658.121	10.88
658.88	10.88
659.638	8.88
660.397	11.88
661.155	10.88
661.913	10.88
662.671	10.88
663.429	9.88
664.187	10.88
664.945	10.88
665.703	12.88
666.46	6.88
667.218	9.88
667.976	9.88
668.733	7.88
669.49	10.88
670.248	9.88
671.005	7.88
671.762	8.88
672.519	8.88
673.276	9.88
674.033	7.88
674.79	10.88
675.547	8.88
676.304	8.88
677.06	9.88
677.817	8.88
678.574	9.88
679.33	7.88
680.086	7.88
680.843	8.88
681.599	6.88
682.355	7.88
683.111	8.88
683.867	7.88
684.623	8.88
685.379	8.88
686.135	8.88
686.89	7.88
687.646	10.88
688.402	7.88
689.157	7.88
689.912	6.88
690.668	5.88
691.423	6.88
692.178	7.88
692.933	4.88
693.688	7.88
694.443	4.88
695.198	9.88
695.953	4.88
696.708	9.88
697.462	6.88
698.217	6.88
698.972	8.88
699.726	4.88
700.48	7.88
701.235	4.88
701.989	8.88
702.743	4.88
703.497	5.88
704.251	4.88
705.005	7.88
705.759	7.88
706.513	9.88
707.266	9.88
708.02	5.88
708.774	7.88
709.527	8.88
710.28	7.88
711.034	8.88
711.787	8.88
712.54	3.88
713.293	5.88
714.046	7.88
714.799	7.88
715.552	8.88
716.305	6.88
717.058	7.88
717.81	7.88
718.563	8.88
719.315	7.88
720.068	8.88
720.82	7.88
721.573	6.88
722.325	9.88
723.077	6.88
723.829	9.88
724.581	7.88
725.333	10.88
726.085	9.88
726.836	7.88
727.588	7.88
728.34	8.88
729.091	8.88
729.843	10.88
730.594	7.88
731.346	8.88
732.097	8.88
732.848	7.88
733.599	8.88
734.35	9.88
735.101	7.88
735.852	8.88
736.603	8.88
737.354	7.88
738.104	8.88
738.855	10.88
739.605	10.88
740.356	11.88
741.106	9.88
741.856	9.88
742.607	8.88
743.357	10.88
744.107	7.88
744.857	9.88
745.607	10.88
746.357	9.88
747.106	9.88
747.856	11.88
748.606	9.88
749.355	10.88
750.105	11.88
750.854	13.88
751.603	9.88
752.353	9.88
753.102	9.88
753.851	10.88
754.6	11.88
755.349	8.88
756.098	12.88
756.847	10.88
757.595	9.88
758.344	12.88
759.093	9.88
759.841	11.88
760.589	10.88
761.338	13.88
762.086	11.88
762.834	12.88
763.582	14.88
764.331	12.88
765.079	14.88
765.826	10.88
766.574	14.88
767.322	11.88
768.07	13.88
768.817	13.88
769.565	12.88
770.312	16.88
771.06	14.88
771.807	13.88
772.554	12.88
773.302	14.88
774.049	14.88
774.796	14.88
775.543	15.88
776.29	13.88
777.036	12.88
777.783	14.88
778.53	15.88
779.276	18.88
780.023	14.88
780.769	17.88
781.516	16.88
782.262	15.88
783.008	16.88
783.754	14.88
784.5	19.88
785.246	13.88
785.992	14.88
786.738	13.88
787.484	14.88
788.23	14.88
788.975	11.88
789.721	17.88
790.466	14.88
791.212	15.88
791.957	16.88
792.702	16.88
793.447	13.88
794.193	12.88
794.938	14.88
795.683	14.88
796.427	11.88
797.172	12.88
797.917	13.88
798.662	14.88
799.406	14.88
800.151	12.88
800.895	12.88
801.64	10.88
802.384	13.88
803.128	10.88
803.872	12.88
804.616	9.88
805.36	8.88
806.104	9.88
806.848	9.88
807.592	10.88
808.336	8.88
809.079	10.88
809.823	9.88
810.566	8.88
811.31	9.88
812.053	9.88
812.796	9.88
813.539	7.88
814.283	9.88
815.026	5.88
815.769	7.88
816.511	9.88
817.254	7.88
817.997	7.88
818.74	8.88
819.482	5.88
820.225	9.88
820.967	5.88
821.71	7.88
822.452	8.88
823.194	6.88
823.936	5.88
824.678	4.88
825.42	6.88
826.162	6.88
826.904	6.88
827.646	4.88
828.388	7.88
829.129	7.88
829.871	5.88
830.612	9.88
831.354	3.88
832.095	6.88
832.836	5.88
833.577	5.88
834.319	6.88
835.06	5.88
835.801	5.88
836.542	4.88
837.282	2.88
838.023	8.88
838.764	4.88
839.504	5.88
840.245	5.88
840.985	4.88
841.726	6.88
842.466	4.88
843.206	5.88
843.946	7.88
844.687	4.88
845.427	5.88
846.166	3.88
846.906	5.88
847.646	4.88
848.386	4.88
849.125	5.88
849.865	3.88
850.605	5.88
851.344	5.88
852.083	4.88
852.823	6.88
853.562	5.88
854.301	3.88
855.04	3.88
855.779	4.88
856.518	3.88
857.257	3.88
857.995	4.88
858.734	5.88
859.473	2.88
860.211	5.88
860.95	1.88
861.688	2.88
862.426	2.88
863.165	2.88
863.903	1.88
864.641	4.88
865.379	4.88
866.117	3.88
866.855	0.88
867.593	2.88
868.33	1.88
869.068	2.88
869.806	3.88
870.543	0.88
871.28	1.88
872.018	3.88
872.755	2.88
873.492	2.88
874.229	0.88
874.967	2.88
875.703	-0.12
876.44	1.88
877.177	2.88
877.914	2.88
878.651	2.88
879.387	1.88
880.124	1.88
880.86	2.88
881.597	0.88
882.333	1.88
883.069	-1.12
883.806	0.88
884.542	0.88
885.278	3.88
886.014	1.88
886.749	1.88
887.485	0.88
888.221	0.88
888.957	0.88
889.692	2.88
890.428	0.88
891.163	-1.12
891.899	-0.12
892.634	1.88
893.369	-0.12
894.104	0.88
894.839	1.88
895.574	0.88
896.309	1.88
897.044	0.88
897.779	0.88
898.514	1.88
899.248	1.88
899.983	0.88
900.717	1.88
901.452	0.88
902.186	-1.12
902.92	-0.12
903.654	0.88
904.389	2.88
905.123	-0.12
905.857	1.88
906.59	1.88
907.324	-1.12
908.058	0.88
908.792	-1.12
909.525	-1.12
910.259	4.88
910.992	0.88
911.726	-0.12
912.459	1.88
913.192	0.88
913.925	0.88
914.658	3.88
915.391	1.88
916.124	1.88
916.857	0.88
917.59	-2.12
918.323	-0.12
919.055	-1.12
919.788	-1.12
920.521	0.88
921.253	1.88
921.985	1.88
922.718	0.88
923.45	0.88
924.182	0.88
924.914	1.88
925.646	3.88
926.378	1.88
927.11	0.88
927.841	1.88
928.573	-1.12
929.305	-0.12
930.036	0.88
930.768	-1.12
931.499	-0.12
932.23	-0.12
932.962	0.88
933.693	-1.12
934.424	1.88
935.155	0.88
935.886	0.88
936.617	1.88
937.348	-1.12
938.078	-0.12
938.809	-0.12
939.54	2.88
940.27	-0.12
941.001	0.88
941.731	-0.12
942.461	0.88
943.191	0.88
943.922	1.88
944.652	2.88
945.382	-1.12
946.112	-2.12
946.841	1.88
947.571	-0.12
948.301	-0.12
949.031	0.88
949.76	0.88
950.49	-1.12
951.219	-0.12
951.948	-0.12
952.678	-0.12
953.407	-1.12
954.136	0.88
954.865	-1.12
955.594	0.88
956.323	-0.12
957.052	3.88
957.78	1.88
958.509	-1.12
959.238	-0.12
959.966	-3.12
960.695	-0.12
961.423	-2.12
962.151	0.88
962.88	-0.12
963.608	-1.12
964.336	1.88
965.064	1.88
965.792	-0.12
966.52	0.88
967.247	2.88
967.975	0.88
968.703	-1.12
969.43	0.88
970.158	0.88
970.885	-0.12
971.613	-0.12
972.34	-0.12
973.067	1.88
973.794	-0.12
974.521	1.88
975.248	-1.12
975.975	0.88
976.702	1.88
977.429	-1.12
978.156	1.88
978.882	-1.12
979.609	1.88
980.335	-0.12
981.062	-0.12
981.788	1.88
982.514	-1.12
983.24	-0.12
983.967	-0.12
984.693	-0.12
985.419	3.88
986.144	0.88
986.87	-0.12
987.596	-1.12
988.322	0.88
989.047	-0.12
989.773	-2.12
990.498	-0.12
991.224	-1.12
991.949	2.88
992.674	-0.12
993.399	1.88
994.124	-1.12
994.849	-2.12
995.574	1.88
996.299	-1.12
997.024	-1.12
997.749	0.88
998.473	-0.12
999.198	1.88
999.922	-1.12
1000.647	2.88
1001.371	1.88
1002.095	-2.12
1002.82	-0.12
1003.544	-1.12
1004.268	2.88
1004.992	5.88
1005.716	5.88
1006.439	2.88
1007.163	7.88
1007.887	5.88
1008.611	-1.12
1009.334	-1.12
1010.058	-0.12
1010.781	-0.12
1011.504	0.88
1012.228	-0.12
1012.951	-0.12
1013.674	-1.12
1014.397	0.88
1015.12	1.88
