节点500_705_QEPB04081__16__20-46-09-368.txt的数据

Date: Wed Nov 12 20:46:09 CST 2025
User: PC
Spectrometer: QEPB0408
触发模式: 0
积分时间 (秒): 1.000000E-2
Scans to average: 1
启用暗噪声校正: true
启用非线性校正: false
滑动平均宽度: 0
X轴模式: Wavelengths
Number of Pixels in Spectrum: 1044
>>>>>Begin Spectral Data<<<<<
220.843	6
221.644	5
222.444	6
223.244	6
224.045	5
224.845	7
225.645	10
226.445	9
227.245	9
228.045	10
228.845	9
229.645	8
230.444	9
231.244	10
232.043	11
232.843	8
233.642	11
234.442	12
235.241	12
236.04	10
236.839	12
237.638	12
238.437	12
239.236	12
240.035	12
240.833	14
241.632	12
242.43	15
243.229	12
244.027	16
244.826	17
245.624	12
246.422	17
247.22	15
248.018	16
248.816	19
249.614	17
250.412	17
251.21	19
252.007	20
252.805	22
253.602	21
254.4	20
255.197	22
255.994	23
256.791	25
257.589	24
258.386	24
259.183	24
259.979	27
260.776	24
261.573	28
262.37	30
263.166	28
263.963	31
264.759	29
265.556	30
266.352	30
267.148	32
267.944	34
268.74	32
269.536	35
270.332	32
271.128	36
271.924	39
272.719	32
273.515	35
274.311	36
275.106	39
275.901	39
276.697	39
277.492	38
278.287	41
279.082	39
279.877	39
280.672	37
281.467	37
282.262	40
283.056	40
283.851	39
284.646	37
285.44	35
286.234	39
287.029	38
287.823	36
288.617	40
289.411	33
290.205	35
290.999	34
291.793	36
292.587	35
293.381	35
294.174	30
294.968	28
295.761	31
296.555	30
297.348	28
298.141	27
298.935	32
299.728	28
300.521	22
301.314	23
302.107	25
302.899	24
303.692	21
304.485	26
305.277	26
306.07	25
306.862	23
307.655	21
308.447	22
309.239	21
310.031	21
310.823	20
311.615	19
312.407	21
313.199	20
313.991	17
314.783	19
315.574	18
316.366	16
317.157	19
317.949	15
318.74	16
319.531	15
320.322	16
321.113	16
321.904	15
322.695	16
323.486	13
324.277	13
325.068	14
325.858	16
326.649	12
327.439	15
328.23	16
329.02	14
329.81	14
330.6	14
331.391	14
332.181	13
332.971	13
333.76	12
334.55	12
335.34	13
336.13	10
336.919	14
337.709	12
338.498	14
339.287	13
340.077	12
340.866	13
341.655	15
342.444	12
343.233	14
344.022	13
344.811	13
345.6	14
346.388	14
347.177	13
347.965	13
348.754	10
349.542	12
350.33	16
351.119	11
351.907	11
352.695	15
353.483	12
354.271	12
355.059	14
355.846	13
356.634	13
357.422	12
358.209	15
358.997	9
359.784	12
360.571	12
361.359	13
362.146	12
362.933	10
363.72	13
364.507	9
365.294	12
366.081	12
366.867	12
367.654	11
368.44	9
369.227	11
370.013	11
370.8	14
371.586	10
372.372	11
373.158	12
373.944	11
374.73	10
375.516	10
376.302	11
377.088	10
377.873	12
378.659	13
379.445	12
380.23	12
381.015	11
381.801	13
382.586	13
383.371	12
384.156	14
384.941	11
385.726	13
386.511	16
387.296	13
388.08	11
388.865	14
389.649	14
390.434	12
391.218	12
392.003	14
392.787	13
393.571	15
394.355	14
395.139	15
395.923	13
396.707	13
397.491	15
398.274	16
399.058	17
399.842	16
400.625	15
401.408	16
402.192	12
402.975	18
403.758	17
404.541	14
405.324	18
406.107	16
406.89	16
407.673	18
408.456	17
409.238	18
410.021	18
410.803	19
411.586	17
412.368	18
413.151	17
413.933	19
414.715	23
415.497	19
416.279	23
417.061	20
417.843	23
418.624	22
419.406	23
420.188	24
420.969	21
421.751	20
422.532	25
423.313	23
424.095	22
424.876	25
425.657	28
426.438	26
427.219	29
428	30
428.78	33
429.561	31
430.342	32
431.122	35
431.903	35
432.683	35
433.464	39
434.244	40
435.024	39
435.804	41
436.584	45
437.364	48
438.144	46
438.924	50
439.704	50
440.483	60
441.263	59
442.042	65
442.822	70
443.601	72
444.38	83
445.16	84
445.939	89
446.718	98
447.497	104
448.276	115
449.054	127
449.833	137
450.612	148
451.391	166
452.169	183
452.948	205
453.726	219
454.504	245
455.282	269
456.061	305
456.839	343
457.617	378
458.395	425
459.172	473
459.95	530
460.728	588
461.506	650
462.283	752
463.061	820
463.838	928
464.615	1032
465.393	1149
466.17	1303
466.947	1446
467.724	1595
468.501	1798
469.278	1982
470.055	2211
470.831	2462
471.608	2726
472.385	3053
473.161	3334
473.938	3708
474.714	4090
475.49	4522
476.266	5028
477.043	5482
477.819	6066
478.595	6648
479.371	7320
480.146	8037
480.922	8856
481.698	9751
482.473	10641
483.249	11657
484.024	12747
484.8	13827
485.575	15142
486.35	16501
487.126	17902
487.901	19443
488.676	21090
489.451	22844
490.225	24636
491	26516
491.775	28475
492.55	30415
493.324	32379
494.099	34409
494.873	36418
495.647	38411
496.422	40517
497.196	42327
497.97	44149
498.744	45688
499.518	47293
500.292	48661
501.066	49442
501.839	50125
502.613	50652
503.387	51011
504.16	51122
504.934	50841
505.707	50345
506.48	49504
507.253	48605
508.027	47545
508.8	46186
509.573	44790
510.346	43372
511.118	42009
511.891	40509
512.664	38719
513.437	37113
514.209	35552
514.982	34124
515.754	32607
516.526	31207
517.298	30018
518.071	28795
518.843	27582
519.615	26415
520.387	25385
521.159	24312
521.93	23363
522.702	22295
523.474	21298
524.245	20417
525.017	19482
525.788	18612
526.56	17724
527.331	16958
528.102	16057
528.873	15234
529.644	14447
530.415	13749
531.186	13017
531.957	12301
532.728	11628
533.498	11026
534.269	10408
535.039	9830
535.81	9293
536.58	8798
537.351	8304
538.121	7842
538.891	7429
539.661	6992
540.431	6635
541.201	6325
541.971	5991
542.741	5670
543.51	5400
544.28	5145
545.05	4890
545.819	4646
546.588	4440
547.358	4221
548.127	3996
548.896	3781
549.665	3583
550.434	3400
551.203	3234
551.972	3034
552.741	2895
553.51	2716
554.278	2562
555.047	2407
555.815	2263
556.584	2142
557.352	2030
558.121	1918
558.889	1813
559.657	1713
560.425	1627
561.193	1515
561.961	1447
562.729	1380
563.496	1312
564.264	1234
565.032	1163
565.799	1101
566.567	1034
567.334	984
568.101	929
568.869	883
569.636	837
570.403	790
571.17	742
571.937	699
572.704	658
573.471	636
574.237	588
575.004	546
575.771	519
576.537	488
577.303	465
578.07	435
578.836	411
579.602	378
580.368	374
581.134	346
581.9	334
582.666	313
583.432	310
584.198	286
584.964	279
585.729	263
586.495	250
587.26	236
588.025	219
588.791	210
589.556	199
590.321	191
591.086	184
591.851	177
592.616	166
593.381	160
594.146	152
594.911	148
595.675	136
596.44	135
597.204	124
597.969	122
598.733	114
599.497	117
600.261	102
601.025	106
601.79	97
602.553	96
603.317	87
604.081	83
604.845	81
605.609	80
606.372	76
607.136	70
607.899	74
608.662	67
609.426	68
610.189	63
610.952	60
611.715	59
612.478	54
613.241	54
614.004	55
614.767	50
615.529	50
616.292	49
617.055	47
617.817	43
618.579	44
619.342	43
620.104	39
620.866	39
621.628	39
622.39	41
623.152	38
623.914	36
624.676	34
625.438	31
626.199	36
626.961	32
627.722	32
628.484	31
629.245	29
630.006	30
630.768	27
631.529	26
632.29	24
633.051	28
633.812	25
634.573	26
635.333	24
636.094	23
636.855	20
637.615	26
638.376	20
639.136	18
639.896	19
640.657	21
641.417	19
642.177	19
642.937	19
643.697	16
644.457	18
645.216	18
645.976	17
646.736	16
647.495	15
648.255	16
649.014	16
649.774	16
650.533	17
651.292	15
652.051	14
652.81	16
653.569	15
654.328	14
655.087	15
655.846	16
656.604	12
657.363	13
658.121	12
658.88	10
659.638	12
660.397	12
661.155	11
661.913	11
662.671	12
663.429	10
664.187	11
664.945	12
665.703	9
666.46	13
667.218	11
667.976	12
668.733	12
669.49	10
670.248	10
671.005	12
671.762	9
672.519	11
673.276	11
674.033	9
674.79	9
675.547	7
676.304	10
677.06	10
677.817	10
678.574	10
679.33	10
680.086	8
680.843	8
681.599	10
682.355	9
683.111	9
683.867	10
684.623	10
685.379	9
686.135	9
686.89	8
687.646	10
688.402	12
689.157	9
689.912	11
690.668	11
691.423	11
692.178	9
692.933	9
693.688	10
694.443	8
695.198	8
695.953	8
696.708	8
697.462	10
698.217	7
698.972	8
699.726	6
700.48	9
701.235	8
701.989	7
702.743	7
703.497	11
704.251	9
705.005	7
705.759	10
706.513	9
707.266	9
708.02	9
708.774	5
709.527	12
710.28	9
711.034	10
711.787	9
712.54	8
713.293	10
714.046	8
714.799	11
715.552	8
716.305	9
717.058	10
717.81	10
718.563	10
719.315	10
720.068	11
720.82	10
721.573	9
722.325	11
723.077	12
723.829	11
724.581	10
725.333	10
726.085	8
726.836	11
727.588	8
728.34	9
729.091	8
729.843	10
730.594	10
731.346	12
732.097	9
732.848	10
733.599	11
734.35	12
735.101	11
735.852	10
736.603	13
737.354	11
738.104	11
738.855	14
739.605	11
740.356	10
741.106	12
741.856	11
742.607	11
743.357	11
744.107	12
744.857	10
745.607	13
746.357	10
747.106	13
747.856	11
748.606	10
749.355	12
750.105	14
750.854	13
751.603	14
752.353	15
753.102	13
753.851	12
754.6	15
755.349	13
756.098	14
756.847	12
757.595	16
758.344	13
759.093	13
759.841	14
760.589	12
761.338	12
762.086	15
762.834	16
763.582	17
764.331	14
765.079	19
765.826	13
766.574	17
767.322	16
768.07	17
768.817	18
769.565	18
770.312	18
771.06	19
771.807	16
772.554	18
773.302	19
774.049	17
774.796	18
775.543	18
776.29	18
777.036	18
777.783	17
778.53	16
779.276	19
780.023	17
780.769	16
781.516	16
782.262	20
783.008	18
783.754	17
784.5	20
785.246	18
785.992	18
786.738	19
787.484	18
788.23	16
788.975	17
789.721	19
790.466	18
791.212	17
791.957	16
792.702	15
793.447	19
794.193	17
794.938	16
795.683	15
796.427	16
797.172	16
797.917	14
798.662	14
799.406	11
800.151	12
800.895	12
801.64	14
802.384	11
803.128	13
803.872	15
804.616	13
805.36	13
806.104	13
806.848	14
807.592	15
808.336	14
809.079	13
809.823	13
810.566	11
811.31	8
812.053	9
812.796	12
813.539	9
814.283	11
815.026	9
815.769	8
816.511	8
817.254	10
817.997	7
818.74	9
819.482	8
820.225	8
820.967	9
821.71	8
822.452	6
823.194	8
823.936	7
824.678	6
825.42	8
826.162	9
826.904	6
827.646	7
828.388	10
829.129	9
829.871	7
830.612	7
831.354	3
832.095	8
832.836	7
833.577	7
834.319	7
835.06	7
835.801	8
836.542	4
837.282	8
838.023	8
838.764	6
839.504	7
840.245	7
840.985	6
841.726	4
842.466	5
843.206	5
843.946	7
844.687	6
845.427	7
846.166	7
846.906	4
847.646	6
848.386	5
849.125	6
849.865	6
850.605	5
851.344	5
852.083	4
852.823	6
853.562	4
854.301	4
855.04	6
855.779	4
856.518	6
857.257	5
857.995	5
858.734	4
859.473	4
860.211	5
860.95	4
861.688	7
862.426	5
863.165	4
863.903	7
864.641	3
865.379	5
866.117	2
866.855	3
867.593	5
868.33	2
869.068	6
869.806	4
870.543	6
871.28	3
872.018	2
872.755	2
873.492	1
874.229	5
874.967	4
875.703	4
876.44	4
877.177	1
877.914	3
878.651	2
879.387	4
880.124	2
880.86	4
881.597	4
882.333	2
883.069	3
883.806	3
884.542	2
885.278	4
886.014	1
886.749	2
887.485	2
888.221	3
888.957	5
889.692	4
890.428	0
891.163	1
891.899	3
892.634	3
893.369	4
894.104	2
894.839	0
895.574	3
896.309	3
897.044	4
897.779	1
898.514	1
899.248	2
899.983	2
900.717	1
901.452	2
902.186	4
902.92	4
903.654	1
904.389	2
905.123	0
905.857	1
906.59	1
907.324	2
908.058	0
908.792	2
909.525	2
910.259	2
910.992	2
911.726	2
912.459	3
913.192	2
913.925	2
914.658	0
915.391	2
916.124	1
916.857	2
917.59	2
918.323	2
919.055	0
919.788	4
920.521	2
921.253	-1
921.985	2
922.718	1
923.45	3
924.182	0
924.914	5
925.646	1
926.378	1
927.11	2
927.841	2
928.573	1
929.305	3
930.036	2
930.768	2
931.499	0
932.23	4
932.962	2
933.693	3
934.424	2
935.155	2
935.886	1
936.617	-1
937.348	1
938.078	2
938.809	3
939.54	1
940.27	1
941.001	2
941.731	1
942.461	3
943.191	1
943.922	1
944.652	1
945.382	0
946.112	2
946.841	2
947.571	2
948.301	3
949.031	-2
949.76	1
950.49	2
951.219	4
951.948	1
952.678	3
953.407	0
954.136	2
954.865	2
955.594	1
956.323	2
957.052	2
957.78	3
958.509	0
959.238	1
959.966	2
960.695	1
961.423	1
962.151	0
962.88	1
963.608	1
964.336	2
965.064	2
965.792	2
966.52	2
967.247	1
967.975	0
968.703	0
969.43	3
970.158	0
970.885	1
971.613	2
972.34	0
973.067	1
973.794	2
974.521	-1
975.248	2
975.975	1
976.702	0
977.429	2
978.156	0
978.882	0
979.609	-1
980.335	0
981.062	2
981.788	2
982.514	4
983.24	2
983.967	0
984.693	0
985.419	0
986.144	2
986.87	-1
987.596	3
988.322	1
989.047	2
989.773	1
990.498	3
991.224	4
991.949	3
992.674	3
993.399	4
994.124	1
994.849	0
995.574	1
996.299	1
997.024	1
997.749	2
998.473	4
999.198	0
999.922	0
1000.647	1
1001.371	4
1002.095	-1
1002.82	-2
1003.544	-1
1004.268	8
1004.992	6
1005.716	5
1006.439	6
1007.163	5
1007.887	6
1008.611	2
1009.334	0
1010.058	2
1010.781	2
1011.504	-1
1012.228	2
1012.951	-1
1013.674	0
1014.397	-1
1015.12	2
