节点500_705_QEPB04081__374__20-51-15-598.txt的数据

Date: Wed Nov 12 20:51:15 CST 2025
User: PC
Spectrometer: QEPB0408
触发模式: 0
积分时间 (秒): 1.000000E-2
Scans to average: 1
启用暗噪声校正: true
启用非线性校正: false
滑动平均宽度: 0
X轴模式: Wavelengths
Number of Pixels in Spectrum: 1044
>>>>>Begin Spectral Data<<<<<
220.843	5.5
221.644	6.5
222.444	4.5
223.244	4.5
224.045	4.5
224.845	4.5
225.645	8.5
226.445	6.5
227.245	6.5
228.045	6.5
228.845	7.5
229.645	8.5
230.444	11.5
231.244	8.5
232.043	8.5
232.843	10.5
233.642	6.5
234.442	9.5
235.241	9.5
236.04	10.5
236.839	9.5
237.638	9.5
238.437	9.5
239.236	9.5
240.035	12.5
240.833	9.5
241.632	10.5
242.43	14.5
243.229	11.5
244.027	11.5
244.826	12.5
245.624	11.5
246.422	14.5
247.22	10.5
248.018	15.5
248.816	14.5
249.614	14.5
250.412	13.5
251.21	13.5
252.007	17.5
252.805	15.5
253.602	16.5
254.4	18.5
255.197	17.5
255.994	17.5
256.791	19.5
257.589	20.5
258.386	19.5
259.183	22.5
259.979	18.5
260.776	21.5
261.573	24.5
262.37	22.5
263.166	26.5
263.963	22.5
264.759	26.5
265.556	27.5
266.352	26.5
267.148	25.5
267.944	27.5
268.74	26.5
269.536	27.5
270.332	30.5
271.128	30.5
271.924	29.5
272.719	30.5
273.515	30.5
274.311	29.5
275.106	32.5
275.901	31.5
276.697	33.5
277.492	34.5
278.287	33.5
279.082	33.5
279.877	32.5
280.672	31.5
281.467	31.5
282.262	36.5
283.056	32.5
283.851	33.5
284.646	32.5
285.44	35.5
286.234	32.5
287.029	32.5
287.823	31.5
288.617	35.5
289.411	32.5
290.205	30.5
290.999	28.5
291.793	34.5
292.587	30.5
293.381	28.5
294.174	31.5
294.968	29.5
295.761	29.5
296.555	26.5
297.348	24.5
298.141	25.5
298.935	30.5
299.728	25.5
300.521	24.5
301.314	23.5
302.107	22.5
302.899	23.5
303.692	22.5
304.485	22.5
305.277	22.5
306.07	24.5
306.862	23.5
307.655	23.5
308.447	20.5
309.239	23.5
310.031	19.5
310.823	19.5
311.615	17.5
312.407	18.5
313.199	14.5
313.991	19.5
314.783	17.5
315.574	14.5
316.366	16.5
317.157	16.5
317.949	15.5
318.74	17.5
319.531	13.5
320.322	14.5
321.113	13.5
321.904	12.5
322.695	13.5
323.486	12.5
324.277	11.5
325.068	11.5
325.858	14.5
326.649	10.5
327.439	13.5
328.23	12.5
329.02	12.5
329.81	12.5
330.6	11.5
331.391	13.5
332.181	11.5
332.971	12.5
333.76	10.5
334.55	10.5
335.34	11.5
336.13	11.5
336.919	12.5
337.709	10.5
338.498	12.5
339.287	13.5
340.077	9.5
340.866	13.5
341.655	13.5
342.444	10.5
343.233	12.5
344.022	9.5
344.811	12.5
345.6	10.5
346.388	10.5
347.177	10.5
347.965	12.5
348.754	8.5
349.542	9.5
350.33	11.5
351.119	9.5
351.907	11.5
352.695	10.5
353.483	9.5
354.271	9.5
355.059	7.5
355.846	9.5
356.634	9.5
357.422	8.5
358.209	9.5
358.997	9.5
359.784	10.5
360.571	9.5
361.359	10.5
362.146	9.5
362.933	10.5
363.72	8.5
364.507	10.5
365.294	10.5
366.081	9.5
366.867	8.5
367.654	12.5
368.44	7.5
369.227	8.5
370.013	10.5
370.8	9.5
371.586	10.5
372.372	9.5
373.158	7.5
373.944	10.5
374.73	10.5
375.516	8.5
376.302	8.5
377.088	11.5
377.873	9.5
378.659	9.5
379.445	7.5
380.23	10.5
381.015	11.5
381.801	10.5
382.586	10.5
383.371	7.5
384.156	9.5
384.941	8.5
385.726	11.5
386.511	7.5
387.296	10.5
388.08	12.5
388.865	13.5
389.649	10.5
390.434	12.5
391.218	11.5
392.003	12.5
392.787	9.5
393.571	13.5
394.355	12.5
395.139	13.5
395.923	11.5
396.707	11.5
397.491	10.5
398.274	12.5
399.058	13.5
399.842	13.5
400.625	14.5
401.408	14.5
402.192	11.5
402.975	13.5
403.758	14.5
404.541	11.5
405.324	15.5
406.107	14.5
406.89	16.5
407.673	13.5
408.456	15.5
409.238	13.5
410.021	16.5
410.803	15.5
411.586	14.5
412.368	16.5
413.151	17.5
413.933	17.5
414.715	17.5
415.497	17.5
416.279	16.5
417.061	17.5
417.843	21.5
418.624	21.5
419.406	18.5
420.188	20.5
420.969	22.5
421.751	19.5
422.532	20.5
423.313	24.5
424.095	24.5
424.876	24.5
425.657	22.5
426.438	26.5
427.219	25.5
428	26.5
428.78	27.5
429.561	28.5
430.342	30.5
431.122	31.5
431.903	30.5
432.683	31.5
433.464	35.5
434.244	35.5
435.024	40.5
435.804	38.5
436.584	44.5
437.364	43.5
438.144	47.5
438.924	45.5
439.704	56.5
440.483	57.5
441.263	63.5
442.042	65.5
442.822	69.5
443.601	70.5
444.38	76.5
445.16	86.5
445.939	99.5
446.718	104.5
447.497	109.5
448.276	126.5
449.054	136.5
449.833	147.5
450.612	158.5
451.391	180.5
452.169	201.5
452.948	222.5
453.726	242.5
454.504	269.5
455.282	306.5
456.061	336.5
456.839	373.5
457.617	413.5
458.395	467.5
459.172	515.5
459.95	570.5
460.728	645.5
461.506	712.5
462.283	805.5
463.061	899.5
463.838	985.5
464.615	1120.5
465.393	1225.5
466.17	1356.5
466.947	1512.5
467.724	1657.5
468.501	1847.5
469.278	2055.5
470.055	2259.5
470.831	2491.5
471.608	2769.5
472.385	3064.5
473.161	3347.5
473.938	3690.5
474.714	4037.5
475.49	4427.5
476.266	4876.5
477.043	5303.5
477.819	5769.5
478.595	6329.5
479.371	6900.5
480.146	7539.5
480.922	8225.5
481.698	8948.5
482.473	9701.5
483.249	10583.5
484.024	11468.5
484.8	12472.5
485.575	13433.5
486.35	14617.5
487.126	15794.5
487.901	17100.5
488.676	18427.5
489.451	19817.5
490.225	21303.5
491	22871.5
491.775	24477.5
492.55	26172.5
493.324	27806.5
494.099	29632.5
494.873	31325.5
495.647	33062.5
496.422	34818.5
497.196	36611.5
497.97	38284.5
498.744	39719.5
499.518	41389.5
500.292	42741.5
501.066	43812.5
501.839	44588.5
502.613	45572.5
503.387	46062.5
504.16	46662.5
504.934	46718.5
505.707	46820.5
506.48	46528.5
507.253	45990.5
508.027	45412.5
508.8	44448.5
509.573	43467.5
510.346	42490.5
511.118	41540.5
511.891	40181.5
512.664	38694.5
513.437	37330.5
514.209	35942.5
514.982	34599.5
515.754	33200.5
516.526	31897.5
517.298	30654.5
518.071	29437.5
518.843	28290.5
519.615	27121.5
520.387	26052.5
521.159	24991.5
521.93	23959.5
522.702	22962.5
523.474	22019.5
524.245	21121.5
525.017	20141.5
525.788	19380.5
526.56	18492.5
527.331	17693.5
528.102	16789.5
528.873	15981.5
529.644	15251.5
530.415	14556.5
531.186	13828.5
531.957	13103.5
532.728	12425.5
533.498	11807.5
534.269	11178.5
535.039	10586.5
535.81	10026.5
536.58	9456.5
537.351	8962.5
538.121	8458.5
538.891	8040.5
539.661	7589.5
540.431	7183.5
541.201	6824.5
541.971	6469.5
542.741	6115.5
543.51	5820.5
544.28	5528.5
545.05	5280.5
545.819	5020.5
546.588	4771.5
547.358	4565.5
548.127	4356.5
548.896	4110.5
549.665	3892.5
550.434	3687.5
551.203	3504.5
551.972	3336.5
552.741	3154.5
553.51	2976.5
554.278	2840.5
555.047	2655.5
555.815	2514.5
556.584	2376.5
557.352	2244.5
558.121	2114.5
558.889	2006.5
559.657	1892.5
560.425	1779.5
561.193	1706.5
561.961	1607.5
562.729	1508.5
563.496	1417.5
564.264	1346.5
565.032	1277.5
565.799	1205.5
566.567	1143.5
567.334	1078.5
568.101	1017.5
568.869	963.5
569.636	905.5
570.403	860.5
571.17	807.5
571.937	770.5
572.704	726.5
573.471	681.5
574.237	641.5
575.004	612.5
575.771	570.5
576.537	542.5
577.303	508.5
578.07	486.5
578.836	457.5
579.602	431.5
580.368	407.5
581.134	393.5
581.9	366.5
582.666	353.5
583.432	333.5
584.198	322.5
584.964	306.5
585.729	285.5
586.495	272.5
587.26	255.5
588.025	234.5
588.791	227.5
589.556	223.5
590.321	210.5
591.086	194.5
591.851	185.5
592.616	175.5
593.381	169.5
594.146	160.5
594.911	154.5
595.675	149.5
596.44	134.5
597.204	132.5
597.969	128.5
598.733	123.5
599.497	118.5
600.261	109.5
601.025	112.5
601.79	108.5
602.553	100.5
603.317	95.5
604.081	93.5
604.845	86.5
605.609	87.5
606.372	80.5
607.136	78.5
607.899	73.5
608.662	73.5
609.426	71.5
610.189	66.5
610.952	62.5
611.715	59.5
612.478	56.5
613.241	58.5
614.004	55.5
614.767	55.5
615.529	53.5
616.292	50.5
617.055	48.5
617.817	49.5
618.579	48.5
619.342	38.5
620.104	42.5
620.866	39.5
621.628	36.5
622.39	39.5
623.152	38.5
623.914	34.5
624.676	32.5
625.438	33.5
626.199	30.5
626.961	29.5
627.722	30.5
628.484	28.5
629.245	29.5
630.006	26.5
630.768	28.5
631.529	27.5
632.29	26.5
633.051	24.5
633.812	23.5
634.573	25.5
635.333	22.5
636.094	22.5
636.855	22.5
637.615	20.5
638.376	22.5
639.136	22.5
639.896	20.5
640.657	18.5
641.417	16.5
642.177	18.5
642.937	19.5
643.697	18.5
644.457	16.5
645.216	17.5
645.976	15.5
646.736	14.5
647.495	15.5
648.255	16.5
649.014	17.5
649.774	14.5
650.533	16.5
651.292	10.5
652.051	10.5
652.81	13.5
653.569	11.5
654.328	12.5
655.087	13.5
655.846	12.5
656.604	12.5
657.363	11.5
658.121	12.5
658.88	10.5
659.638	13.5
660.397	10.5
661.155	11.5
661.913	9.5
662.671	9.5
663.429	11.5
664.187	10.5
664.945	10.5
665.703	9.5
666.46	7.5
667.218	9.5
667.976	7.5
668.733	11.5
669.49	9.5
670.248	8.5
671.005	9.5
671.762	8.5
672.519	6.5
673.276	10.5
674.033	6.5
674.79	8.5
675.547	9.5
676.304	10.5
677.06	7.5
677.817	9.5
678.574	8.5
679.33	8.5
680.086	8.5
680.843	6.5
681.599	10.5
682.355	7.5
683.111	7.5
683.867	9.5
684.623	7.5
685.379	10.5
686.135	6.5
686.89	8.5
687.646	8.5
688.402	9.5
689.157	6.5
689.912	9.5
690.668	6.5
691.423	6.5
692.178	5.5
692.933	4.5
693.688	8.5
694.443	8.5
695.198	4.5
695.953	5.5
696.708	7.5
697.462	6.5
698.217	8.5
698.972	8.5
699.726	8.5
700.48	5.5
701.235	8.5
701.989	7.5
702.743	6.5
703.497	9.5
704.251	4.5
705.005	7.5
705.759	7.5
706.513	6.5
707.266	6.5
708.02	8.5
708.774	7.5
709.527	5.5
710.28	5.5
711.034	7.5
711.787	9.5
712.54	6.5
713.293	7.5
714.046	8.5
714.799	7.5
715.552	6.5
716.305	5.5
717.058	6.5
717.81	8.5
718.563	9.5
719.315	9.5
720.068	6.5
720.82	8.5
721.573	5.5
722.325	6.5
723.077	7.5
723.829	7.5
724.581	8.5
725.333	8.5
726.085	9.5
726.836	6.5
727.588	8.5
728.34	7.5
729.091	7.5
729.843	8.5
730.594	6.5
731.346	7.5
732.097	11.5
732.848	8.5
733.599	8.5
734.35	9.5
735.101	7.5
735.852	6.5
736.603	10.5
737.354	10.5
738.104	8.5
738.855	11.5
739.605	8.5
740.356	10.5
741.106	10.5
741.856	7.5
742.607	9.5
743.357	7.5
744.107	11.5
744.857	11.5
745.607	8.5
746.357	8.5
747.106	9.5
747.856	10.5
748.606	10.5
749.355	11.5
750.105	11.5
750.854	10.5
751.603	12.5
752.353	7.5
753.102	9.5
753.851	9.5
754.6	11.5
755.349	11.5
756.098	11.5
756.847	10.5
757.595	13.5
758.344	10.5
759.093	11.5
759.841	12.5
760.589	14.5
761.338	12.5
762.086	11.5
762.834	9.5
763.582	11.5
764.331	10.5
765.079	10.5
765.826	13.5
766.574	12.5
767.322	11.5
768.07	12.5
768.817	14.5
769.565	14.5
770.312	12.5
771.06	14.5
771.807	14.5
772.554	14.5
773.302	13.5
774.049	12.5
774.796	15.5
775.543	12.5
776.29	15.5
777.036	18.5
777.783	13.5
778.53	14.5
779.276	14.5
780.023	14.5
780.769	13.5
781.516	14.5
782.262	14.5
783.008	15.5
783.754	13.5
784.5	12.5
785.246	15.5
785.992	15.5
786.738	17.5
787.484	16.5
788.23	13.5
788.975	16.5
789.721	16.5
790.466	13.5
791.212	13.5
791.957	14.5
792.702	15.5
793.447	14.5
794.193	17.5
794.938	12.5
795.683	12.5
796.427	13.5
797.172	12.5
797.917	10.5
798.662	11.5
799.406	10.5
800.151	11.5
800.895	12.5
801.64	13.5
802.384	12.5
803.128	11.5
803.872	10.5
804.616	10.5
805.36	8.5
806.104	9.5
806.848	10.5
807.592	10.5
808.336	10.5
809.079	8.5
809.823	7.5
810.566	9.5
811.31	10.5
812.053	10.5
812.796	9.5
813.539	9.5
814.283	8.5
815.026	7.5
815.769	7.5
816.511	4.5
817.254	9.5
817.997	7.5
818.74	11.5
819.482	6.5
820.225	5.5
820.967	7.5
821.71	7.5
822.452	6.5
823.194	7.5
823.936	7.5
824.678	6.5
825.42	6.5
826.162	5.5
826.904	4.5
827.646	7.5
828.388	9.5
829.129	5.5
829.871	4.5
830.612	7.5
831.354	6.5
832.095	6.5
832.836	7.5
833.577	6.5
834.319	4.5
835.06	7.5
835.801	8.5
836.542	5.5
837.282	3.5
838.023	3.5
838.764	5.5
839.504	4.5
840.245	4.5
840.985	6.5
841.726	3.5
842.466	4.5
843.206	4.5
843.946	7.5
844.687	6.5
845.427	5.5
846.166	5.5
846.906	4.5
847.646	3.5
848.386	1.5
849.125	5.5
849.865	2.5
850.605	2.5
851.344	4.5
852.083	6.5
852.823	5.5
853.562	2.5
854.301	6.5
855.04	2.5
855.779	3.5
856.518	3.5
857.257	3.5
857.995	6.5
858.734	3.5
859.473	3.5
860.211	2.5
860.95	2.5
861.688	5.5
862.426	2.5
863.165	2.5
863.903	2.5
864.641	2.5
865.379	1.5
866.117	1.5
866.855	2.5
867.593	4.5
868.33	2.5
869.068	2.5
869.806	1.5
870.543	3.5
871.28	1.5
872.018	1.5
872.755	1.5
873.492	1.5
874.229	0.5
874.967	1.5
875.703	2.5
876.44	2.5
877.177	0.5
877.914	1.5
878.651	0.5
879.387	1.5
880.124	2.5
880.86	1.5
881.597	0.5
882.333	2.5
883.069	0.5
883.806	0.5
884.542	1.5
885.278	1.5
886.014	-0.5
886.749	2.5
887.485	-0.5
888.221	1.5
888.957	1.5
889.692	1.5
890.428	1.5
891.163	0.5
891.899	0.5
892.634	1.5
893.369	1.5
894.104	0.5
894.839	0.5
895.574	0.5
896.309	-0.5
897.044	0.5
897.779	-0.5
898.514	1.5
899.248	1.5
899.983	1.5
900.717	0.5
901.452	1.5
902.186	2.5
902.92	2.5
903.654	-1.5
904.389	2.5
905.123	-0.5
905.857	0.5
906.59	1.5
907.324	1.5
908.058	-0.5
908.792	-0.5
909.525	2.5
910.259	-1.5
910.992	1.5
911.726	-2.5
912.459	-1.5
913.192	2.5
913.925	-0.5
914.658	2.5
915.391	-0.5
916.124	1.5
916.857	-1.5
917.59	-1.5
918.323	0.5
919.055	0.5
919.788	2.5
920.521	-1.5
921.253	0.5
921.985	0.5
922.718	-0.5
923.45	2.5
924.182	-2.5
924.914	-1.5
925.646	0.5
926.378	-0.5
927.11	-1.5
927.841	1.5
928.573	0.5
929.305	-0.5
930.036	-0.5
930.768	0.5
931.499	-0.5
932.23	-0.5
932.962	0.5
933.693	-1.5
934.424	-0.5
935.155	0.5
935.886	0.5
936.617	0.5
937.348	-2.5
938.078	-0.5
938.809	1.5
939.54	0.5
940.27	0.5
941.001	1.5
941.731	-0.5
942.461	0.5
943.191	0.5
943.922	-0.5
944.652	0.5
945.382	0.5
946.112	0.5
946.841	-1.5
947.571	-1.5
948.301	0.5
949.031	-0.5
949.76	-1.5
950.49	-1.5
951.219	-0.5
951.948	-1.5
952.678	0.5
953.407	0.5
954.136	0.5
954.865	0.5
955.594	-0.5
956.323	-1.5
957.052	-0.5
957.78	-1.5
958.509	1.5
959.238	-1.5
959.966	-0.5
960.695	0.5
961.423	-0.5
962.151	-1.5
962.88	1.5
963.608	1.5
964.336	-1.5
965.064	0.5
965.792	0.5
966.52	-2.5
967.247	1.5
967.975	-0.5
968.703	1.5
969.43	-0.5
970.158	0.5
970.885	-1.5
971.613	1.5
972.34	-0.5
973.067	0.5
973.794	0.5
974.521	0.5
975.248	1.5
975.975	-1.5
976.702	-0.5
977.429	0.5
978.156	1.5
978.882	-1.5
979.609	-1.5
980.335	1.5
981.062	-2.5
981.788	-2.5
982.514	0.5
983.24	-1.5
983.967	-0.5
984.693	0.5
985.419	-0.5
986.144	0.5
986.87	-0.5
987.596	-3.5
988.322	-1.5
989.047	1.5
989.773	1.5
990.498	-1.5
991.224	-1.5
991.949	0.5
992.674	0.5
993.399	2.5
994.124	0.5
994.849	-1.5
995.574	-1.5
996.299	-1.5
997.024	-0.5
997.749	0.5
998.473	-0.5
999.198	-1.5
999.922	-1.5
1000.647	-1.5
1001.371	4.5
1002.095	-0.5
1002.82	-0.5
1003.544	-1.5
1004.268	5.5
1004.992	4.5
1005.716	2.5
1006.439	5.5
1007.163	4.5
1007.887	3.5
1008.611	1.5
1009.334	1.5
1010.058	-0.5
1010.781	-2.5
1011.504	-0.5
1012.228	0.5
1012.951	0.5
1013.674	-1.5
1014.397	-2.5
1015.12	1.5
