节点500_705_QEPB04081__252__20-49-30-453.txt的数据

Date: Wed Nov 12 20:49:30 CST 2025
User: PC
Spectrometer: QEPB0408
触发模式: 0
积分时间 (秒): 1.000000E-2
Scans to average: 1
启用暗噪声校正: true
启用非线性校正: false
滑动平均宽度: 0
X轴模式: Wavelengths
Number of Pixels in Spectrum: 1044
>>>>>Begin Spectral Data<<<<<
220.843	2.5
221.644	4.5
222.444	5.5
223.244	7.5
224.045	6.5
224.845	6.5
225.645	8.5
226.445	7.5
227.245	6.5
228.045	5.5
228.845	8.5
229.645	9.5
230.444	8.5
231.244	11.5
232.043	5.5
232.843	9.5
233.642	8.5
234.442	8.5
235.241	10.5
236.04	7.5
236.839	9.5
237.638	10.5
238.437	12.5
239.236	12.5
240.035	9.5
240.833	9.5
241.632	12.5
242.43	13.5
243.229	12.5
244.027	15.5
244.826	12.5
245.624	14.5
246.422	17.5
247.22	14.5
248.018	10.5
248.816	16.5
249.614	15.5
250.412	17.5
251.21	13.5
252.007	17.5
252.805	17.5
253.602	14.5
254.4	18.5
255.197	18.5
255.994	20.5
256.791	18.5
257.589	21.5
258.386	21.5
259.183	22.5
259.979	23.5
260.776	23.5
261.573	23.5
262.37	25.5
263.166	23.5
263.963	23.5
264.759	25.5
265.556	28.5
266.352	28.5
267.148	30.5
267.944	28.5
268.74	28.5
269.536	32.5
270.332	29.5
271.128	31.5
271.924	32.5
272.719	35.5
273.515	31.5
274.311	33.5
275.106	34.5
275.901	32.5
276.697	34.5
277.492	30.5
278.287	33.5
279.082	37.5
279.877	32.5
280.672	33.5
281.467	34.5
282.262	36.5
283.056	37.5
283.851	36.5
284.646	35.5
285.44	34.5
286.234	35.5
287.029	34.5
287.823	33.5
288.617	32.5
289.411	34.5
290.205	30.5
290.999	33.5
291.793	33.5
292.587	28.5
293.381	32.5
294.174	29.5
294.968	26.5
295.761	27.5
296.555	26.5
297.348	25.5
298.141	27.5
298.935	26.5
299.728	24.5
300.521	22.5
301.314	26.5
302.107	20.5
302.899	21.5
303.692	22.5
304.485	21.5
305.277	21.5
306.07	21.5
306.862	22.5
307.655	23.5
308.447	22.5
309.239	23.5
310.031	20.5
310.823	18.5
311.615	17.5
312.407	16.5
313.199	15.5
313.991	17.5
314.783	18.5
315.574	16.5
316.366	14.5
317.157	13.5
317.949	14.5
318.74	14.5
319.531	14.5
320.322	13.5
321.113	13.5
321.904	13.5
322.695	11.5
323.486	11.5
324.277	14.5
325.068	13.5
325.858	14.5
326.649	11.5
327.439	12.5
328.23	13.5
329.02	14.5
329.81	10.5
330.6	11.5
331.391	12.5
332.181	9.5
332.971	14.5
333.76	13.5
334.55	8.5
335.34	10.5
336.13	12.5
336.919	11.5
337.709	11.5
338.498	12.5
339.287	12.5
340.077	12.5
340.866	11.5
341.655	11.5
342.444	9.5
343.233	12.5
344.022	12.5
344.811	11.5
345.6	10.5
346.388	10.5
347.177	10.5
347.965	9.5
348.754	12.5
349.542	8.5
350.33	12.5
351.119	10.5
351.907	10.5
352.695	9.5
353.483	10.5
354.271	11.5
355.059	11.5
355.846	8.5
356.634	11.5
357.422	11.5
358.209	11.5
358.997	13.5
359.784	11.5
360.571	8.5
361.359	11.5
362.146	9.5
362.933	11.5
363.72	11.5
364.507	10.5
365.294	9.5
366.081	8.5
366.867	9.5
367.654	8.5
368.44	11.5
369.227	9.5
370.013	8.5
370.8	10.5
371.586	10.5
372.372	8.5
373.158	11.5
373.944	10.5
374.73	10.5
375.516	9.5
376.302	10.5
377.088	7.5
377.873	10.5
378.659	10.5
379.445	9.5
380.23	6.5
381.015	9.5
381.801	11.5
382.586	11.5
383.371	12.5
384.156	11.5
384.941	7.5
385.726	10.5
386.511	9.5
387.296	11.5
388.08	11.5
388.865	12.5
389.649	11.5
390.434	11.5
391.218	10.5
392.003	10.5
392.787	10.5
393.571	12.5
394.355	9.5
395.139	11.5
395.923	12.5
396.707	12.5
397.491	13.5
398.274	12.5
399.058	12.5
399.842	13.5
400.625	12.5
401.408	14.5
402.192	12.5
402.975	14.5
403.758	15.5
404.541	15.5
405.324	13.5
406.107	14.5
406.89	14.5
407.673	14.5
408.456	14.5
409.238	14.5
410.021	13.5
410.803	15.5
411.586	15.5
412.368	18.5
413.151	16.5
413.933	19.5
414.715	17.5
415.497	19.5
416.279	17.5
417.061	16.5
417.843	20.5
418.624	18.5
419.406	22.5
420.188	19.5
420.969	18.5
421.751	22.5
422.532	22.5
423.313	22.5
424.095	25.5
424.876	25.5
425.657	24.5
426.438	24.5
427.219	28.5
428	24.5
428.78	27.5
429.561	28.5
430.342	26.5
431.122	31.5
431.903	29.5
432.683	33.5
433.464	34.5
434.244	33.5
435.024	37.5
435.804	38.5
436.584	41.5
437.364	43.5
438.144	47.5
438.924	53.5
439.704	54.5
440.483	56.5
441.263	59.5
442.042	60.5
442.822	68.5
443.601	71.5
444.38	75.5
445.16	83.5
445.939	93.5
446.718	98.5
447.497	108.5
448.276	116.5
449.054	131.5
449.833	145.5
450.612	158.5
451.391	175.5
452.169	194.5
452.948	211.5
453.726	234.5
454.504	249.5
455.282	282.5
456.061	317.5
456.839	354.5
457.617	408.5
458.395	453.5
459.172	500.5
459.95	560.5
460.728	620.5
461.506	684.5
462.283	776.5
463.061	873.5
463.838	967.5
464.615	1076.5
465.393	1190.5
466.17	1341.5
466.947	1506.5
467.724	1653.5
468.501	1829.5
469.278	2029.5
470.055	2234.5
470.831	2487.5
471.608	2756.5
472.385	3020.5
473.161	3356.5
473.938	3694.5
474.714	4040.5
475.49	4445.5
476.266	4940.5
477.043	5362.5
477.819	5889.5
478.595	6439.5
479.371	7054.5
480.146	7723.5
480.922	8409.5
481.698	9212.5
482.473	10062.5
483.249	10856.5
484.024	11882.5
484.8	12908.5
485.575	14026.5
486.35	15250.5
487.126	16540.5
487.901	17867.5
488.676	19289.5
489.451	20869.5
490.225	22420.5
491	24084.5
491.775	25822.5
492.55	27644.5
493.324	29410.5
494.099	31250.5
494.873	33139.5
495.647	34913.5
496.422	36772.5
497.196	38636.5
497.97	40225.5
498.744	41788.5
499.518	43407.5
500.292	44738.5
501.066	45686.5
501.839	46684.5
502.613	47282.5
503.387	47804.5
504.16	48195.5
504.934	48305.5
505.707	48109.5
506.48	47637.5
507.253	46936.5
508.027	46092.5
508.8	45075.5
509.573	43962.5
510.346	42877.5
511.118	41599.5
511.891	40263.5
512.664	38713.5
513.437	37221.5
514.209	35812.5
514.982	34429.5
515.754	32992.5
516.526	31545.5
517.298	30301.5
518.071	29104.5
518.843	27845.5
519.615	26782.5
520.387	25744.5
521.159	24743.5
521.93	23689.5
522.702	22659.5
523.474	21756.5
524.245	20818.5
525.017	19909.5
525.788	18982.5
526.56	18151.5
527.331	17379.5
528.102	16465.5
528.873	15669.5
529.644	14913.5
530.415	14207.5
531.186	13476.5
531.957	12773.5
532.728	12099.5
533.498	11458.5
534.269	10880.5
535.039	10262.5
535.81	9711.5
536.58	9175.5
537.351	8641.5
538.121	8232.5
538.891	7778.5
539.661	7384.5
540.431	6975.5
541.201	6625.5
541.971	6247.5
542.741	5932.5
543.51	5651.5
544.28	5389.5
545.05	5128.5
545.819	4866.5
546.588	4645.5
547.358	4418.5
548.127	4214.5
548.896	3996.5
549.665	3787.5
550.434	3570.5
551.203	3378.5
551.972	3220.5
552.741	3039.5
553.51	2853.5
554.278	2711.5
555.047	2547.5
555.815	2410.5
556.584	2275.5
557.352	2149.5
558.121	2024.5
558.889	1926.5
559.657	1804.5
560.425	1725.5
561.193	1619.5
561.961	1530.5
562.729	1458.5
563.496	1369.5
564.264	1299.5
565.032	1223.5
565.799	1156.5
566.567	1103.5
567.334	1043.5
568.101	976.5
568.869	929.5
569.636	871.5
570.403	830.5
571.17	782.5
571.937	741.5
572.704	697.5
573.471	654.5
574.237	619.5
575.004	585.5
575.771	546.5
576.537	524.5
577.303	492.5
578.07	472.5
578.836	438.5
579.602	417.5
580.368	405.5
581.134	380.5
581.9	358.5
582.666	339.5
583.432	320.5
584.198	299.5
584.964	291.5
585.729	273.5
586.495	265.5
587.26	248.5
588.025	234.5
588.791	221.5
589.556	212.5
590.321	205.5
591.086	186.5
591.851	180.5
592.616	171.5
593.381	163.5
594.146	163.5
594.911	150.5
595.675	142.5
596.44	144.5
597.204	131.5
597.969	129.5
598.733	118.5
599.497	117.5
600.261	107.5
601.025	105.5
601.79	100.5
602.553	94.5
603.317	93.5
604.081	85.5
604.845	86.5
605.609	80.5
606.372	75.5
607.136	78.5
607.899	73.5
608.662	73.5
609.426	67.5
610.189	66.5
610.952	58.5
611.715	59.5
612.478	58.5
613.241	56.5
614.004	53.5
614.767	53.5
615.529	48.5
616.292	51.5
617.055	45.5
617.817	43.5
618.579	44.5
619.342	44.5
620.104	42.5
620.866	37.5
621.628	39.5
622.39	37.5
623.152	39.5
623.914	34.5
624.676	31.5
625.438	33.5
626.199	33.5
626.961	30.5
627.722	29.5
628.484	29.5
629.245	29.5
630.006	25.5
630.768	26.5
631.529	25.5
632.29	22.5
633.051	22.5
633.812	24.5
634.573	24.5
635.333	23.5
636.094	22.5
636.855	22.5
637.615	18.5
638.376	19.5
639.136	20.5
639.896	18.5
640.657	18.5
641.417	19.5
642.177	17.5
642.937	17.5
643.697	16.5
644.457	15.5
645.216	14.5
645.976	17.5
646.736	16.5
647.495	14.5
648.255	15.5
649.014	14.5
649.774	13.5
650.533	14.5
651.292	13.5
652.051	12.5
652.81	11.5
653.569	12.5
654.328	14.5
655.087	10.5
655.846	14.5
656.604	13.5
657.363	10.5
658.121	12.5
658.88	11.5
659.638	12.5
660.397	9.5
661.155	11.5
661.913	10.5
662.671	10.5
663.429	11.5
664.187	11.5
664.945	11.5
665.703	7.5
666.46	10.5
667.218	10.5
667.976	9.5
668.733	7.5
669.49	9.5
670.248	10.5
671.005	8.5
671.762	12.5
672.519	9.5
673.276	9.5
674.033	8.5
674.79	9.5
675.547	9.5
676.304	8.5
677.06	8.5
677.817	9.5
678.574	7.5
679.33	8.5
680.086	9.5
680.843	9.5
681.599	8.5
682.355	10.5
683.111	8.5
683.867	7.5
684.623	6.5
685.379	7.5
686.135	8.5
686.89	7.5
687.646	8.5
688.402	5.5
689.157	6.5
689.912	6.5
690.668	5.5
691.423	7.5
692.178	8.5
692.933	7.5
693.688	9.5
694.443	4.5
695.198	7.5
695.953	10.5
696.708	7.5
697.462	8.5
698.217	7.5
698.972	8.5
699.726	8.5
700.48	7.5
701.235	8.5
701.989	7.5
702.743	6.5
703.497	7.5
704.251	7.5
705.005	7.5
705.759	7.5
706.513	8.5
707.266	5.5
708.02	7.5
708.774	9.5
709.527	7.5
710.28	6.5
711.034	5.5
711.787	8.5
712.54	4.5
713.293	8.5
714.046	7.5
714.799	3.5
715.552	9.5
716.305	6.5
717.058	8.5
717.81	11.5
718.563	7.5
719.315	9.5
720.068	6.5
720.82	9.5
721.573	7.5
722.325	8.5
723.077	6.5
723.829	7.5
724.581	7.5
725.333	8.5
726.085	9.5
726.836	8.5
727.588	9.5
728.34	8.5
729.091	7.5
729.843	9.5
730.594	7.5
731.346	7.5
732.097	7.5
732.848	8.5
733.599	8.5
734.35	12.5
735.101	9.5
735.852	8.5
736.603	9.5
737.354	9.5
738.104	7.5
738.855	9.5
739.605	7.5
740.356	10.5
741.106	9.5
741.856	11.5
742.607	11.5
743.357	8.5
744.107	8.5
744.857	12.5
745.607	9.5
746.357	9.5
747.106	9.5
747.856	10.5
748.606	8.5
749.355	10.5
750.105	11.5
750.854	10.5
751.603	12.5
752.353	10.5
753.102	11.5
753.851	14.5
754.6	10.5
755.349	12.5
756.098	11.5
756.847	12.5
757.595	11.5
758.344	13.5
759.093	15.5
759.841	11.5
760.589	13.5
761.338	12.5
762.086	11.5
762.834	13.5
763.582	11.5
764.331	11.5
765.079	14.5
765.826	15.5
766.574	15.5
767.322	14.5
768.07	14.5
768.817	15.5
769.565	15.5
770.312	15.5
771.06	13.5
771.807	15.5
772.554	12.5
773.302	14.5
774.049	13.5
774.796	17.5
775.543	14.5
776.29	15.5
777.036	12.5
777.783	14.5
778.53	16.5
779.276	12.5
780.023	15.5
780.769	17.5
781.516	16.5
782.262	14.5
783.008	15.5
783.754	16.5
784.5	16.5
785.246	17.5
785.992	14.5
786.738	16.5
787.484	18.5
788.23	14.5
788.975	14.5
789.721	12.5
790.466	14.5
791.212	14.5
791.957	14.5
792.702	19.5
793.447	12.5
794.193	14.5
794.938	14.5
795.683	15.5
796.427	12.5
797.172	12.5
797.917	13.5
798.662	12.5
799.406	10.5
800.151	12.5
800.895	10.5
801.64	14.5
802.384	9.5
803.128	10.5
803.872	10.5
804.616	9.5
805.36	12.5
806.104	9.5
806.848	11.5
807.592	7.5
808.336	10.5
809.079	8.5
809.823	8.5
810.566	9.5
811.31	6.5
812.053	9.5
812.796	8.5
813.539	9.5
814.283	8.5
815.026	8.5
815.769	7.5
816.511	8.5
817.254	8.5
817.997	8.5
818.74	8.5
819.482	4.5
820.225	8.5
820.967	4.5
821.71	5.5
822.452	6.5
823.194	5.5
823.936	6.5
824.678	6.5
825.42	7.5
826.162	5.5
826.904	8.5
827.646	8.5
828.388	9.5
829.129	6.5
829.871	6.5
830.612	4.5
831.354	6.5
832.095	5.5
832.836	6.5
833.577	5.5
834.319	3.5
835.06	4.5
835.801	6.5
836.542	6.5
837.282	6.5
838.023	4.5
838.764	6.5
839.504	4.5
840.245	2.5
840.985	6.5
841.726	7.5
842.466	5.5
843.206	4.5
843.946	8.5
844.687	4.5
845.427	2.5
846.166	4.5
846.906	5.5
847.646	4.5
848.386	3.5
849.125	5.5
849.865	5.5
850.605	4.5
851.344	2.5
852.083	1.5
852.823	3.5
853.562	5.5
854.301	4.5
855.04	5.5
855.779	4.5
856.518	3.5
857.257	2.5
857.995	2.5
858.734	2.5
859.473	0.5
860.211	0.5
860.95	6.5
861.688	3.5
862.426	3.5
863.165	4.5
863.903	3.5
864.641	3.5
865.379	3.5
866.117	2.5
866.855	3.5
867.593	3.5
868.33	4.5
869.068	1.5
869.806	2.5
870.543	5.5
871.28	0.5
872.018	-0.5
872.755	1.5
873.492	1.5
874.229	2.5
874.967	2.5
875.703	2.5
876.44	1.5
877.177	2.5
877.914	0.5
878.651	0.5
879.387	2.5
880.124	-0.5
880.86	1.5
881.597	1.5
882.333	2.5
883.069	1.5
883.806	2.5
884.542	3.5
885.278	-0.5
886.014	3.5
886.749	0.5
887.485	3.5
888.221	3.5
888.957	1.5
889.692	2.5
890.428	-0.5
891.163	-0.5
891.899	-1.5
892.634	1.5
893.369	-0.5
894.104	1.5
894.839	1.5
895.574	0.5
896.309	-0.5
897.044	1.5
897.779	-0.5
898.514	0.5
899.248	0.5
899.983	0.5
900.717	1.5
901.452	1.5
902.186	1.5
902.92	-1.5
903.654	-0.5
904.389	2.5
905.123	0.5
905.857	1.5
906.59	1.5
907.324	1.5
908.058	1.5
908.792	1.5
909.525	0.5
910.259	-1.5
910.992	1.5
911.726	-1.5
912.459	-1.5
913.192	-0.5
913.925	0.5
914.658	1.5
915.391	-0.5
916.124	0.5
916.857	-0.5
917.59	0.5
918.323	1.5
919.055	1.5
919.788	0.5
920.521	0.5
921.253	1.5
921.985	0.5
922.718	0.5
923.45	1.5
924.182	0.5
924.914	1.5
925.646	0.5
926.378	1.5
927.11	0.5
927.841	0.5
928.573	0.5
929.305	0.5
930.036	1.5
930.768	0.5
931.499	1.5
932.23	-1.5
932.962	1.5
933.693	-0.5
934.424	0.5
935.155	-0.5
935.886	-0.5
936.617	-0.5
937.348	-0.5
938.078	0.5
938.809	-1.5
939.54	-0.5
940.27	0.5
941.001	-0.5
941.731	0.5
942.461	-0.5
943.191	-1.5
943.922	0.5
944.652	-0.5
945.382	-1.5
946.112	-0.5
946.841	1.5
947.571	0.5
948.301	-1.5
949.031	-0.5
949.76	-0.5
950.49	-0.5
951.219	1.5
951.948	0.5
952.678	-0.5
953.407	-1.5
954.136	1.5
954.865	0.5
955.594	1.5
956.323	0.5
957.052	0.5
957.78	-0.5
958.509	-1.5
959.238	2.5
959.966	0.5
960.695	0.5
961.423	0.5
962.151	1.5
962.88	-1.5
963.608	1.5
964.336	-1.5
965.064	0.5
965.792	-0.5
966.52	1.5
967.247	-0.5
967.975	1.5
968.703	1.5
969.43	1.5
970.158	-0.5
970.885	-0.5
971.613	-0.5
972.34	0.5
973.067	0.5
973.794	0.5
974.521	-0.5
975.248	0.5
975.975	-0.5
976.702	0.5
977.429	-0.5
978.156	-1.5
978.882	-0.5
979.609	1.5
980.335	-0.5
981.062	2.5
981.788	-0.5
982.514	-1.5
983.24	0.5
983.967	0.5
984.693	0.5
985.419	5.5
986.144	-2.5
986.87	1.5
987.596	0.5
988.322	0.5
989.047	0.5
989.773	-2.5
990.498	1.5
991.224	-1.5
991.949	-1.5
992.674	-2.5
993.399	0.5
994.124	0.5
994.849	-1.5
995.574	1.5
996.299	-1.5
997.024	0.5
997.749	-1.5
998.473	-1.5
999.198	2.5
999.922	0.5
1000.647	-1.5
1001.371	3.5
1002.095	-0.5
1002.82	0.5
1003.544	-0.5
1004.268	6.5
1004.992	4.5
1005.716	4.5
1006.439	6.5
1007.163	7.5
1007.887	4.5
1008.611	-1.5
1009.334	-2.5
1010.058	0.5
1010.781	1.5
1011.504	2.5
1012.228	0.5
1012.951	1.5
1013.674	-1.5
1014.397	-2.5
1015.12	-0.5
