节点500_705_QEPB04081__19__20-46-12-345.txt的数据

Date: Wed Nov 12 20:46:12 CST 2025
User: PC
Spectrometer: QEPB0408
触发模式: 0
积分时间 (秒): 1.000000E-2
Scans to average: 1
启用暗噪声校正: true
启用非线性校正: false
滑动平均宽度: 0
X轴模式: Wavelengths
Number of Pixels in Spectrum: 1044
>>>>>Begin Spectral Data<<<<<
220.843	5.62
221.644	9.62
222.444	7.62
223.244	5.62
224.045	6.62
224.845	9.62
225.645	9.62
226.445	9.62
227.245	7.62
228.045	7.62
228.845	10.62
229.645	9.62
230.444	8.62
231.244	11.62
232.043	10.62
232.843	10.62
233.642	8.62
234.442	8.62
235.241	12.62
236.04	10.62
236.839	11.62
237.638	10.62
238.437	13.62
239.236	11.62
240.035	11.62
240.833	13.62
241.632	11.62
242.43	12.62
243.229	13.62
244.027	15.62
244.826	13.62
245.624	15.62
246.422	14.62
247.22	17.62
248.018	17.62
248.816	17.62
249.614	18.62
250.412	15.62
251.21	18.62
252.007	17.62
252.805	17.62
253.602	21.62
254.4	21.62
255.197	20.62
255.994	25.62
256.791	20.62
257.589	24.62
258.386	24.62
259.183	26.62
259.979	26.62
260.776	26.62
261.573	28.62
262.37	26.62
263.166	25.62
263.963	28.62
264.759	28.62
265.556	31.62
266.352	30.62
267.148	30.62
267.944	31.62
268.74	34.62
269.536	31.62
270.332	33.62
271.128	34.62
271.924	36.62
272.719	35.62
273.515	35.62
274.311	38.62
275.106	35.62
275.901	38.62
276.697	36.62
277.492	35.62
278.287	37.62
279.082	38.62
279.877	37.62
280.672	36.62
281.467	37.62
282.262	39.62
283.056	35.62
283.851	38.62
284.646	36.62
285.44	38.62
286.234	39.62
287.029	37.62
287.823	37.62
288.617	35.62
289.411	33.62
290.205	34.62
290.999	36.62
291.793	34.62
292.587	31.62
293.381	34.62
294.174	29.62
294.968	33.62
295.761	31.62
296.555	30.62
297.348	26.62
298.141	25.62
298.935	31.62
299.728	27.62
300.521	25.62
301.314	25.62
302.107	21.62
302.899	24.62
303.692	24.62
304.485	22.62
305.277	23.62
306.07	24.62
306.862	24.62
307.655	22.62
308.447	25.62
309.239	23.62
310.031	22.62
310.823	19.62
311.615	20.62
312.407	19.62
313.199	17.62
313.991	18.62
314.783	19.62
315.574	16.62
316.366	14.62
317.157	15.62
317.949	15.62
318.74	15.62
319.531	16.62
320.322	14.62
321.113	14.62
321.904	18.62
322.695	14.62
323.486	15.62
324.277	15.62
325.068	15.62
325.858	15.62
326.649	13.62
327.439	14.62
328.23	13.62
329.02	13.62
329.81	13.62
330.6	11.62
331.391	11.62
332.181	11.62
332.971	16.62
333.76	13.62
334.55	15.62
335.34	12.62
336.13	11.62
336.919	13.62
337.709	13.62
338.498	14.62
339.287	12.62
340.077	12.62
340.866	12.62
341.655	11.62
342.444	14.62
343.233	11.62
344.022	13.62
344.811	12.62
345.6	13.62
346.388	12.62
347.177	12.62
347.965	13.62
348.754	11.62
349.542	14.62
350.33	11.62
351.119	10.62
351.907	11.62
352.695	11.62
353.483	10.62
354.271	10.62
355.059	11.62
355.846	11.62
356.634	11.62
357.422	10.62
358.209	12.62
358.997	9.62
359.784	12.62
360.571	9.62
361.359	10.62
362.146	10.62
362.933	12.62
363.72	10.62
364.507	12.62
365.294	8.62
366.081	11.62
366.867	12.62
367.654	10.62
368.44	11.62
369.227	12.62
370.013	10.62
370.8	9.62
371.586	11.62
372.372	10.62
373.158	8.62
373.944	9.62
374.73	10.62
375.516	9.62
376.302	10.62
377.088	11.62
377.873	12.62
378.659	9.62
379.445	9.62
380.23	9.62
381.015	11.62
381.801	14.62
382.586	12.62
383.371	8.62
384.156	11.62
384.941	11.62
385.726	10.62
386.511	11.62
387.296	12.62
388.08	11.62
388.865	9.62
389.649	12.62
390.434	9.62
391.218	11.62
392.003	11.62
392.787	12.62
393.571	14.62
394.355	12.62
395.139	14.62
395.923	13.62
396.707	14.62
397.491	12.62
398.274	12.62
399.058	13.62
399.842	15.62
400.625	15.62
401.408	13.62
402.192	16.62
402.975	15.62
403.758	14.62
404.541	18.62
405.324	14.62
406.107	18.62
406.89	17.62
407.673	17.62
408.456	16.62
409.238	15.62
410.021	17.62
410.803	20.62
411.586	17.62
412.368	17.62
413.151	20.62
413.933	15.62
414.715	18.62
415.497	19.62
416.279	18.62
417.061	19.62
417.843	21.62
418.624	19.62
419.406	22.62
420.188	19.62
420.969	24.62
421.751	22.62
422.532	21.62
423.313	20.62
424.095	22.62
424.876	26.62
425.657	25.62
426.438	26.62
427.219	27.62
428	28.62
428.78	29.62
429.561	28.62
430.342	30.62
431.122	33.62
431.903	35.62
432.683	38.62
433.464	33.62
434.244	37.62
435.024	39.62
435.804	41.62
436.584	44.62
437.364	43.62
438.144	49.62
438.924	55.62
439.704	51.62
440.483	56.62
441.263	59.62
442.042	64.62
442.822	67.62
443.601	75.62
444.38	77.62
445.16	82.62
445.939	88.62
446.718	95.62
447.497	103.62
448.276	114.62
449.054	125.62
449.833	136.62
450.612	147.62
451.391	163.62
452.169	182.62
452.948	198.62
453.726	224.62
454.504	246.62
455.282	270.62
456.061	299.62
456.839	341.62
457.617	375.62
458.395	417.62
459.172	472.62
459.95	531.62
460.728	584.62
461.506	656.62
462.283	723.62
463.061	817.62
463.838	918.62
464.615	1013.62
465.393	1146.62
466.17	1290.62
466.947	1439.62
467.724	1598.62
468.501	1796.62
469.278	1993.62
470.055	2208.62
470.831	2472.62
471.608	2739.62
472.385	3026.62
473.161	3394.62
473.938	3699.62
474.714	4111.62
475.49	4532.62
476.266	5010.62
477.043	5509.62
477.819	6092.62
478.595	6677.62
479.371	7348.62
480.146	8050.62
480.922	8887.62
481.698	9707.62
482.473	10629.62
483.249	11609.62
484.024	12680.62
484.8	13844.62
485.575	15088.62
486.35	16440.62
487.126	17933.62
487.901	19414.62
488.676	21096.62
489.451	22817.62
490.225	24599.62
491	26492.62
491.775	28429.62
492.55	30450.62
493.324	32347.62
494.099	34454.62
494.873	36449.62
495.647	38492.62
496.422	40432.62
497.196	42429.62
497.97	44123.62
498.744	45689.62
499.518	47355.62
500.292	48544.62
501.066	49410.62
501.839	50095.62
502.613	50600.62
503.387	50987.62
504.16	51102.62
504.934	50805.62
505.707	50329.62
506.48	49493.62
507.253	48590.62
508.027	47488.62
508.8	46124.62
509.573	44783.62
510.346	43360.62
511.118	41927.62
511.891	40490.62
512.664	38700.62
513.437	37181.62
514.209	35663.62
514.982	34049.62
515.754	32671.62
516.526	31241.62
517.298	29926.62
518.071	28711.62
518.843	27596.62
519.615	26484.62
520.387	25379.62
521.159	24346.62
521.93	23307.62
522.702	22319.62
523.474	21275.62
524.245	20391.62
525.017	19463.62
525.788	18666.62
526.56	17785.62
527.331	16925.62
528.102	16078.62
528.873	15148.62
529.644	14413.62
530.415	13699.62
531.186	13019.62
531.957	12337.62
532.728	11639.62
533.498	11028.62
534.269	10443.62
535.039	9845.62
535.81	9279.62
536.58	8805.62
537.351	8325.62
538.121	7899.62
538.891	7432.62
539.661	7021.62
540.431	6662.62
541.201	6326.62
541.971	5986.62
542.741	5668.62
543.51	5379.62
544.28	5149.62
545.05	4887.62
545.819	4669.62
546.588	4440.62
547.358	4202.62
548.127	4003.62
548.896	3774.62
549.665	3572.62
550.434	3391.62
551.203	3205.62
551.972	3047.62
552.741	2887.62
553.51	2712.62
554.278	2561.62
555.047	2415.62
555.815	2278.62
556.584	2162.62
557.352	2031.62
558.121	1929.62
558.889	1816.62
559.657	1703.62
560.425	1624.62
561.193	1531.62
561.961	1450.62
562.729	1364.62
563.496	1303.62
564.264	1229.62
565.032	1171.62
565.799	1105.62
566.567	1039.62
567.334	994.62
568.101	929.62
568.869	866.62
569.636	828.62
570.403	792.62
571.17	738.62
571.937	694.62
572.704	658.62
573.471	620.62
574.237	586.62
575.004	553.62
575.771	516.62
576.537	487.62
577.303	456.62
578.07	438.62
578.836	411.62
579.602	395.62
580.368	373.62
581.134	357.62
581.9	333.62
582.666	317.62
583.432	304.62
584.198	287.62
584.964	273.62
585.729	262.62
586.495	250.62
587.26	230.62
588.025	219.62
588.791	209.62
589.556	198.62
590.321	185.62
591.086	186.62
591.851	176.62
592.616	162.62
593.381	155.62
594.146	152.62
594.911	140.62
595.675	135.62
596.44	129.62
597.204	126.62
597.969	120.62
598.733	118.62
599.497	115.62
600.261	100.62
601.025	98.62
601.79	93.62
602.553	93.62
603.317	86.62
604.081	87.62
604.845	85.62
605.609	79.62
606.372	75.62
607.136	73.62
607.899	70.62
608.662	68.62
609.426	63.62
610.189	61.62
610.952	61.62
611.715	57.62
612.478	59.62
613.241	56.62
614.004	55.62
614.767	51.62
615.529	47.62
616.292	48.62
617.055	46.62
617.817	43.62
618.579	45.62
619.342	39.62
620.104	40.62
620.866	39.62
621.628	40.62
622.39	36.62
623.152	37.62
623.914	35.62
624.676	35.62
625.438	32.62
626.199	31.62
626.961	27.62
627.722	26.62
628.484	27.62
629.245	27.62
630.006	29.62
630.768	29.62
631.529	26.62
632.29	25.62
633.051	26.62
633.812	24.62
634.573	25.62
635.333	20.62
636.094	23.62
636.855	21.62
637.615	23.62
638.376	21.62
639.136	23.62
639.896	20.62
640.657	21.62
641.417	18.62
642.177	18.62
642.937	17.62
643.697	18.62
644.457	18.62
645.216	16.62
645.976	15.62
646.736	15.62
647.495	17.62
648.255	18.62
649.014	14.62
649.774	16.62
650.533	11.62
651.292	17.62
652.051	14.62
652.81	13.62
653.569	11.62
654.328	13.62
655.087	14.62
655.846	13.62
656.604	14.62
657.363	13.62
658.121	12.62
658.88	13.62
659.638	12.62
660.397	13.62
661.155	11.62
661.913	11.62
662.671	9.62
663.429	10.62
664.187	9.62
664.945	9.62
665.703	9.62
666.46	10.62
667.218	10.62
667.976	10.62
668.733	7.62
669.49	11.62
670.248	9.62
671.005	10.62
671.762	10.62
672.519	8.62
673.276	10.62
674.033	8.62
674.79	10.62
675.547	11.62
676.304	9.62
677.06	8.62
677.817	8.62
678.574	9.62
679.33	7.62
680.086	9.62
680.843	9.62
681.599	7.62
682.355	9.62
683.111	9.62
683.867	9.62
684.623	8.62
685.379	7.62
686.135	9.62
686.89	9.62
687.646	5.62
688.402	4.62
689.157	8.62
689.912	9.62
690.668	8.62
691.423	9.62
692.178	8.62
692.933	8.62
693.688	8.62
694.443	9.62
695.198	8.62
695.953	6.62
696.708	8.62
697.462	6.62
698.217	8.62
698.972	7.62
699.726	10.62
700.48	8.62
701.235	7.62
701.989	9.62
702.743	7.62
703.497	8.62
704.251	7.62
705.005	8.62
705.759	8.62
706.513	7.62
707.266	7.62
708.02	10.62
708.774	10.62
709.527	6.62
710.28	6.62
711.034	7.62
711.787	8.62
712.54	10.62
713.293	7.62
714.046	9.62
714.799	7.62
715.552	7.62
716.305	9.62
717.058	9.62
717.81	10.62
718.563	11.62
719.315	9.62
720.068	8.62
720.82	7.62
721.573	8.62
722.325	9.62
723.077	7.62
723.829	10.62
724.581	7.62
725.333	9.62
726.085	9.62
726.836	8.62
727.588	12.62
728.34	10.62
729.091	11.62
729.843	8.62
730.594	9.62
731.346	10.62
732.097	8.62
732.848	9.62
733.599	11.62
734.35	9.62
735.101	7.62
735.852	11.62
736.603	10.62
737.354	13.62
738.104	10.62
738.855	14.62
739.605	11.62
740.356	11.62
741.106	10.62
741.856	11.62
742.607	11.62
743.357	13.62
744.107	10.62
744.857	12.62
745.607	10.62
746.357	14.62
747.106	12.62
747.856	12.62
748.606	12.62
749.355	13.62
750.105	13.62
750.854	13.62
751.603	12.62
752.353	12.62
753.102	11.62
753.851	13.62
754.6	13.62
755.349	13.62
756.098	15.62
756.847	16.62
757.595	14.62
758.344	13.62
759.093	13.62
759.841	13.62
760.589	16.62
761.338	13.62
762.086	15.62
762.834	17.62
763.582	13.62
764.331	13.62
765.079	14.62
765.826	15.62
766.574	17.62
767.322	18.62
768.07	14.62
768.817	15.62
769.565	16.62
770.312	16.62
771.06	16.62
771.807	19.62
772.554	15.62
773.302	14.62
774.049	14.62
774.796	14.62
775.543	15.62
776.29	18.62
777.036	19.62
777.783	15.62
778.53	17.62
779.276	17.62
780.023	17.62
780.769	19.62
781.516	17.62
782.262	16.62
783.008	18.62
783.754	17.62
784.5	15.62
785.246	18.62
785.992	18.62
786.738	15.62
787.484	18.62
788.23	18.62
788.975	18.62
789.721	17.62
790.466	15.62
791.212	18.62
791.957	16.62
792.702	18.62
793.447	14.62
794.193	16.62
794.938	17.62
795.683	13.62
796.427	15.62
797.172	14.62
797.917	15.62
798.662	13.62
799.406	17.62
800.151	12.62
800.895	14.62
801.64	14.62
802.384	15.62
803.128	13.62
803.872	11.62
804.616	11.62
805.36	11.62
806.104	12.62
806.848	11.62
807.592	10.62
808.336	10.62
809.079	8.62
809.823	9.62
810.566	7.62
811.31	8.62
812.053	7.62
812.796	10.62
813.539	10.62
814.283	9.62
815.026	6.62
815.769	8.62
816.511	10.62
817.254	9.62
817.997	8.62
818.74	8.62
819.482	9.62
820.225	9.62
820.967	7.62
821.71	7.62
822.452	6.62
823.194	8.62
823.936	7.62
824.678	10.62
825.42	5.62
826.162	6.62
826.904	7.62
827.646	10.62
828.388	8.62
829.129	6.62
829.871	8.62
830.612	5.62
831.354	8.62
832.095	7.62
832.836	3.62
833.577	5.62
834.319	5.62
835.06	7.62
835.801	7.62
836.542	6.62
837.282	8.62
838.023	5.62
838.764	7.62
839.504	4.62
840.245	8.62
840.985	5.62
841.726	5.62
842.466	5.62
843.206	6.62
843.946	7.62
844.687	5.62
845.427	7.62
846.166	7.62
846.906	5.62
847.646	8.62
848.386	4.62
849.125	4.62
849.865	6.62
850.605	5.62
851.344	6.62
852.083	5.62
852.823	6.62
853.562	3.62
854.301	4.62
855.04	4.62
855.779	5.62
856.518	3.62
857.257	3.62
857.995	5.62
858.734	4.62
859.473	5.62
860.211	3.62
860.95	2.62
861.688	4.62
862.426	-0.38
863.165	2.62
863.903	5.62
864.641	3.62
865.379	3.62
866.117	1.62
866.855	5.62
867.593	2.62
868.33	3.62
869.068	2.62
869.806	4.62
870.543	0.62
871.28	3.62
872.018	4.62
872.755	3.62
873.492	2.62
874.229	3.62
874.967	0.62
875.703	1.62
876.44	2.62
877.177	3.62
877.914	2.62
878.651	2.62
879.387	4.62
880.124	-0.38
880.86	1.62
881.597	3.62
882.333	-0.38
883.069	-0.38
883.806	1.62
884.542	1.62
885.278	-0.38
886.014	1.62
886.749	2.62
887.485	0.62
888.221	2.62
888.957	1.62
889.692	3.62
890.428	0.62
891.163	2.62
891.899	-0.38
892.634	2.62
893.369	2.62
894.104	-0.38
894.839	1.62
895.574	2.62
896.309	2.62
897.044	-0.38
897.779	1.62
898.514	0.62
899.248	-0.38
899.983	0.62
900.717	1.62
901.452	2.62
902.186	-0.38
902.92	2.62
903.654	-1.38
904.389	-0.38
905.123	2.62
905.857	0.62
906.59	2.62
907.324	0.62
908.058	1.62
908.792	1.62
909.525	2.62
910.259	2.62
910.992	-1.38
911.726	-0.38
912.459	2.62
913.192	0.62
913.925	1.62
914.658	-0.38
915.391	1.62
916.124	0.62
916.857	0.62
917.59	0.62
918.323	0.62
919.055	1.62
919.788	-0.38
920.521	0.62
921.253	2.62
921.985	-0.38
922.718	1.62
923.45	0.62
924.182	3.62
924.914	0.62
925.646	-0.38
926.378	2.62
927.11	-0.38
927.841	-0.38
928.573	0.62
929.305	2.62
930.036	-0.38
930.768	-0.38
931.499	-0.38
932.23	1.62
932.962	1.62
933.693	0.62
934.424	1.62
935.155	0.62
935.886	-0.38
936.617	1.62
937.348	1.62
938.078	0.62
938.809	2.62
939.54	1.62
940.27	1.62
941.001	1.62
941.731	-0.38
942.461	1.62
943.191	-0.38
943.922	0.62
944.652	0.62
945.382	1.62
946.112	2.62
946.841	-0.38
947.571	-2.38
948.301	1.62
949.031	-0.38
949.76	1.62
950.49	1.62
951.219	0.62
951.948	-0.38
952.678	0.62
953.407	2.62
954.136	0.62
954.865	1.62
955.594	0.62
956.323	0.62
957.052	0.62
957.78	1.62
958.509	1.62
959.238	1.62
959.966	-0.38
960.695	1.62
961.423	-2.38
962.151	0.62
962.88	3.62
963.608	-0.38
964.336	0.62
965.064	0.62
965.792	0.62
966.52	-0.38
967.247	-2.38
967.975	2.62
968.703	2.62
969.43	1.62
970.158	1.62
970.885	0.62
971.613	1.62
972.34	-0.38
973.067	1.62
973.794	1.62
974.521	-0.38
975.248	-0.38
975.975	-0.38
976.702	1.62
977.429	0.62
978.156	3.62
978.882	2.62
979.609	-0.38
980.335	0.62
981.062	-0.38
981.788	1.62
982.514	-0.38
983.24	-0.38
983.967	1.62
984.693	2.62
985.419	0.62
986.144	-0.38
986.87	1.62
987.596	1.62
988.322	0.62
989.047	0.62
989.773	1.62
990.498	1.62
991.224	-0.38
991.949	-1.38
992.674	1.62
993.399	0.62
994.124	2.62
994.849	-0.38
995.574	1.62
996.299	0.62
997.024	-0.38
997.749	3.62
998.473	-0.38
999.198	1.62
999.922	-0.38
1000.647	0.62
1001.371	3.62
1002.095	-0.38
1002.82	-0.38
1003.544	-1.38
1004.268	5.62
1004.992	4.62
1005.716	6.62
1006.439	6.62
1007.163	4.62
1007.887	6.62
1008.611	-0.38
1009.334	0.62
1010.058	0.62
1010.781	-0.38
1011.504	1.62
1012.228	0.62
1012.951	-1.38
1013.674	-0.38
1014.397	-0.38
1015.12	0.62
