节点500_705_QEPB04081__135__20-48-08-072.txt的数据

Date: Wed Nov 12 20:48:08 CST 2025
User: PC
Spectrometer: QEPB0408
触发模式: 0
积分时间 (秒): 1.000000E-2
Scans to average: 1
启用暗噪声校正: true
启用非线性校正: false
滑动平均宽度: 0
X轴模式: Wavelengths
Number of Pixels in Spectrum: 1044
>>>>>Begin Spectral Data<<<<<
220.843	6
221.644	4
222.444	6
223.244	6
224.045	9
224.845	8
225.645	7
226.445	8
227.245	7
228.045	10
228.845	8
229.645	9
230.444	8
231.244	9
232.043	10
232.843	10
233.642	11
234.442	10
235.241	11
236.04	12
236.839	10
237.638	11
238.437	13
239.236	11
240.035	13
240.833	11
241.632	15
242.43	14
243.229	12
244.027	15
244.826	15
245.624	13
246.422	15
247.22	14
248.018	16
248.816	17
249.614	20
250.412	18
251.21	17
252.007	18
252.805	15
253.602	17
254.4	21
255.197	19
255.994	23
256.791	21
257.589	22
258.386	21
259.183	23
259.979	22
260.776	24
261.573	28
262.37	25
263.166	26
263.963	28
264.759	30
265.556	28
266.352	29
267.148	31
267.944	33
268.74	30
269.536	32
270.332	32
271.128	34
271.924	33
272.719	34
273.515	35
274.311	33
275.106	34
275.901	34
276.697	35
277.492	35
278.287	35
279.082	37
279.877	34
280.672	35
281.467	37
282.262	34
283.056	38
283.851	37
284.646	35
285.44	35
286.234	35
287.029	35
287.823	39
288.617	33
289.411	33
290.205	33
290.999	32
291.793	34
292.587	32
293.381	31
294.174	30
294.968	31
295.761	29
296.555	28
297.348	25
298.141	24
298.935	30
299.728	29
300.521	25
301.314	23
302.107	23
302.899	23
303.692	24
304.485	23
305.277	23
306.07	23
306.862	21
307.655	23
308.447	23
309.239	21
310.031	19
310.823	19
311.615	19
312.407	17
313.199	18
313.991	17
314.783	15
315.574	18
316.366	14
317.157	15
317.949	10
318.74	15
319.531	16
320.322	15
321.113	14
321.904	11
322.695	14
323.486	13
324.277	13
325.068	12
325.858	10
326.649	11
327.439	12
328.23	13
329.02	13
329.81	14
330.6	14
331.391	12
332.181	12
332.971	11
333.76	13
334.55	13
335.34	12
336.13	13
336.919	12
337.709	13
338.498	10
339.287	11
340.077	13
340.866	11
341.655	13
342.444	12
343.233	10
344.022	12
344.811	11
345.6	11
346.388	13
347.177	12
347.965	11
348.754	9
349.542	10
350.33	11
351.119	8
351.907	13
352.695	12
353.483	11
354.271	12
355.059	11
355.846	11
356.634	12
357.422	11
358.209	11
358.997	11
359.784	8
360.571	12
361.359	12
362.146	11
362.933	11
363.72	8
364.507	10
365.294	10
366.081	11
366.867	12
367.654	9
368.44	10
369.227	8
370.013	11
370.8	6
371.586	9
372.372	9
373.158	10
373.944	9
374.73	9
375.516	8
376.302	10
377.088	12
377.873	8
378.659	8
379.445	11
380.23	9
381.015	14
381.801	8
382.586	11
383.371	12
384.156	10
384.941	12
385.726	8
386.511	12
387.296	13
388.08	11
388.865	12
389.649	11
390.434	12
391.218	13
392.003	13
392.787	11
393.571	15
394.355	12
395.139	13
395.923	13
396.707	14
397.491	11
398.274	16
399.058	12
399.842	12
400.625	14
401.408	14
402.192	14
402.975	12
403.758	15
404.541	16
405.324	16
406.107	15
406.89	15
407.673	14
408.456	17
409.238	17
410.021	17
410.803	17
411.586	17
412.368	19
413.151	19
413.933	17
414.715	19
415.497	18
416.279	16
417.061	21
417.843	20
418.624	22
419.406	21
420.188	19
420.969	22
421.751	22
422.532	24
423.313	24
424.095	24
424.876	25
425.657	23
426.438	27
427.219	27
428	29
428.78	26
429.561	31
430.342	32
431.122	30
431.903	33
432.683	37
433.464	37
434.244	35
435.024	39
435.804	44
436.584	42
437.364	45
438.144	51
438.924	52
439.704	53
440.483	56
441.263	64
442.042	64
442.822	66
443.601	71
444.38	79
445.16	87
445.939	93
446.718	100
447.497	107
448.276	118
449.054	124
449.833	140
450.612	154
451.391	165
452.169	187
452.948	199
453.726	230
454.504	253
455.282	291
456.061	313
456.839	351
457.617	393
458.395	446
459.172	492
459.95	543
460.728	609
461.506	686
462.283	756
463.061	846
463.838	934
464.615	1067
465.393	1175
466.17	1317
466.947	1477
467.724	1632
468.501	1821
469.278	2027
470.055	2252
470.831	2484
471.608	2756
472.385	3019
473.161	3341
473.938	3714
474.714	4093
475.49	4491
476.266	4940
477.043	5428
477.819	5936
478.595	6522
479.371	7165
480.146	7859
480.922	8599
481.698	9426
482.473	10268
483.249	11217
484.024	12207
484.8	13266
485.575	14390
486.35	15709
487.126	17010
487.901	18447
488.676	19998
489.451	21619
490.225	23334
491	24978
491.775	26754
492.55	28611
493.324	30612
494.099	32390
494.873	34335
495.647	36292
496.422	38118
497.196	40025
497.97	41761
498.744	43242
499.518	44834
500.292	46198
501.066	47164
501.839	47916
502.613	48553
503.387	49104
504.16	49236
504.934	49307
505.707	48903
506.48	48414
507.253	47619
508.027	46743
508.8	45627
509.573	44314
510.346	43075
511.118	41844
511.891	40439
512.664	38776
513.437	37187
514.209	35739
514.982	34329
515.754	32883
516.526	31494
517.298	30221
518.071	29083
518.843	27806
519.615	26681
520.387	25587
521.159	24576
521.93	23527
522.702	22531
523.474	21622
524.245	20633
525.017	19724
525.788	18825
526.56	18022
527.331	17191
528.102	16301
528.873	15423
529.644	14712
530.415	14019
531.186	13303
531.957	12598
532.728	11899
533.498	11297
534.269	10716
535.039	10103
535.81	9554
536.58	8994
537.351	8556
538.121	8101
538.891	7691
539.661	7244
540.431	6825
541.201	6488
541.971	6152
542.741	5834
543.51	5539
544.28	5282
545.05	5023
545.819	4790
546.588	4585
547.358	4350
548.127	4127
548.896	3924
549.665	3726
550.434	3492
551.203	3328
551.972	3154
552.741	2983
553.51	2817
554.278	2643
555.047	2500
555.815	2351
556.584	2240
557.352	2114
558.121	1995
558.889	1879
559.657	1789
560.425	1681
561.193	1594
561.961	1525
562.729	1428
563.496	1343
564.264	1269
565.032	1212
565.799	1146
566.567	1080
567.334	1015
568.101	961
568.869	914
569.636	866
570.403	813
571.17	767
571.937	722
572.704	681
573.471	653
574.237	610
575.004	581
575.771	538
576.537	510
577.303	483
578.07	456
578.836	433
579.602	397
580.368	384
581.134	372
581.9	353
582.666	327
583.432	309
584.198	297
584.964	294
585.729	274
586.495	260
587.26	244
588.025	235
588.791	213
589.556	211
590.321	193
591.086	190
591.851	181
592.616	166
593.381	168
594.146	155
594.911	153
595.675	140
596.44	138
597.204	127
597.969	124
598.733	119
599.497	112
600.261	103
601.025	102
601.79	100
602.553	96
603.317	91
604.081	92
604.845	80
605.609	78
606.372	82
607.136	72
607.899	75
608.662	69
609.426	70
610.189	65
610.952	61
611.715	59
612.478	56
613.241	58
614.004	50
614.767	54
615.529	52
616.292	46
617.055	47
617.817	41
618.579	43
619.342	42
620.104	39
620.866	42
621.628	36
622.39	39
623.152	35
623.914	34
624.676	34
625.438	35
626.199	30
626.961	31
627.722	29
628.484	29
629.245	29
630.006	28
630.768	26
631.529	26
632.29	26
633.051	30
633.812	26
634.573	23
635.333	23
636.094	23
636.855	24
637.615	24
638.376	23
639.136	21
639.896	20
640.657	20
641.417	19
642.177	19
642.937	17
643.697	18
644.457	15
645.216	17
645.976	15
646.736	16
647.495	18
648.255	17
649.014	17
649.774	14
650.533	15
651.292	13
652.051	14
652.81	13
653.569	15
654.328	15
655.087	14
655.846	13
656.604	13
657.363	12
658.121	11
658.88	13
659.638	11
660.397	11
661.155	9
661.913	11
662.671	11
663.429	11
664.187	12
664.945	11
665.703	8
666.46	8
667.218	9
667.976	11
668.733	10
669.49	10
670.248	8
671.005	9
671.762	8
672.519	7
673.276	12
674.033	8
674.79	10
675.547	11
676.304	8
677.06	6
677.817	7
678.574	10
679.33	9
680.086	10
680.843	9
681.599	8
682.355	10
683.111	7
683.867	8
684.623	7
685.379	7
686.135	9
686.89	8
687.646	9
688.402	7
689.157	7
689.912	7
690.668	7
691.423	9
692.178	8
692.933	7
693.688	8
694.443	8
695.198	9
695.953	9
696.708	8
697.462	8
698.217	8
698.972	8
699.726	7
700.48	7
701.235	4
701.989	9
702.743	10
703.497	8
704.251	9
705.005	7
705.759	10
706.513	10
707.266	10
708.02	8
708.774	9
709.527	8
710.28	8
711.034	6
711.787	7
712.54	7
713.293	9
714.046	5
714.799	8
715.552	10
716.305	9
717.058	8
717.81	8
718.563	9
719.315	8
720.068	8
720.82	10
721.573	8
722.325	7
723.077	7
723.829	8
724.581	5
725.333	8
726.085	9
726.836	9
727.588	7
728.34	8
729.091	9
729.843	11
730.594	9
731.346	9
732.097	10
732.848	11
733.599	11
734.35	9
735.101	11
735.852	9
736.603	11
737.354	10
738.104	10
738.855	8
739.605	11
740.356	10
741.106	11
741.856	11
742.607	10
743.357	11
744.107	11
744.857	10
745.607	9
746.357	11
747.106	12
747.856	12
748.606	10
749.355	11
750.105	11
750.854	13
751.603	9
752.353	13
753.102	11
753.851	13
754.6	14
755.349	11
756.098	13
756.847	11
757.595	15
758.344	12
759.093	11
759.841	15
760.589	11
761.338	15
762.086	14
762.834	17
763.582	12
764.331	12
765.079	14
765.826	14
766.574	18
767.322	14
768.07	15
768.817	15
769.565	14
770.312	17
771.06	16
771.807	16
772.554	16
773.302	17
774.049	16
774.796	14
775.543	17
776.29	15
777.036	13
777.783	17
778.53	15
779.276	19
780.023	17
780.769	18
781.516	17
782.262	17
783.008	19
783.754	16
784.5	17
785.246	18
785.992	17
786.738	17
787.484	15
788.23	17
788.975	16
789.721	15
790.466	17
791.212	15
791.957	16
792.702	14
793.447	16
794.193	16
794.938	14
795.683	15
796.427	16
797.172	15
797.917	13
798.662	14
799.406	16
800.151	14
800.895	11
801.64	11
802.384	11
803.128	12
803.872	8
804.616	11
805.36	13
806.104	12
806.848	9
807.592	10
808.336	8
809.079	10
809.823	10
810.566	9
811.31	9
812.053	7
812.796	10
813.539	10
814.283	10
815.026	9
815.769	7
816.511	8
817.254	9
817.997	9
818.74	11
819.482	8
820.225	7
820.967	8
821.71	6
822.452	8
823.194	8
823.936	8
824.678	5
825.42	9
826.162	5
826.904	8
827.646	7
828.388	7
829.129	7
829.871	8
830.612	7
831.354	5
832.095	6
832.836	5
833.577	8
834.319	6
835.06	7
835.801	7
836.542	7
837.282	6
838.023	7
838.764	5
839.504	6
840.245	6
840.985	6
841.726	8
842.466	6
843.206	5
843.946	4
844.687	5
845.427	5
846.166	6
846.906	5
847.646	4
848.386	4
849.125	7
849.865	5
850.605	3
851.344	5
852.083	6
852.823	4
853.562	5
854.301	1
855.04	5
855.779	3
856.518	4
857.257	3
857.995	4
858.734	3
859.473	6
860.211	4
860.95	5
861.688	4
862.426	2
863.165	0
863.903	4
864.641	3
865.379	3
866.117	1
866.855	2
867.593	2
868.33	2
869.068	3
869.806	2
870.543	3
871.28	3
872.018	2
872.755	2
873.492	2
874.229	2
874.967	3
875.703	2
876.44	5
877.177	3
877.914	3
878.651	1
879.387	0
880.124	2
880.86	0
881.597	-1
882.333	1
883.069	3
883.806	1
884.542	3
885.278	1
886.014	0
886.749	1
887.485	1
888.221	2
888.957	2
889.692	3
890.428	1
891.163	0
891.899	3
892.634	4
893.369	2
894.104	1
894.839	3
895.574	0
896.309	1
897.044	1
897.779	0
898.514	1
899.248	3
899.983	-1
900.717	1
901.452	3
902.186	1
902.92	3
903.654	2
904.389	0
905.123	0
905.857	2
906.59	1
907.324	-1
908.058	0
908.792	-1
909.525	1
910.259	0
910.992	2
911.726	-1
912.459	1
913.192	-1
913.925	-1
914.658	1
915.391	2
916.124	0
916.857	0
917.59	0
918.323	2
919.055	-1
919.788	3
920.521	0
921.253	0
921.985	2
922.718	-1
923.45	1
924.182	-1
924.914	2
925.646	2
926.378	-2
927.11	0
927.841	-3
928.573	1
929.305	-1
930.036	-1
930.768	1
931.499	-2
932.23	1
932.962	0
933.693	-1
934.424	-1
935.155	2
935.886	1
936.617	-2
937.348	-1
938.078	-2
938.809	0
939.54	0
940.27	0
941.001	1
941.731	3
942.461	2
943.191	0
943.922	0
944.652	1
945.382	-1
946.112	1
946.841	-1
947.571	2
948.301	0
949.031	-1
949.76	-3
950.49	0
951.219	-1
951.948	0
952.678	-2
953.407	1
954.136	-1
954.865	1
955.594	2
956.323	2
957.052	1
957.78	-2
958.509	1
959.238	0
959.966	0
960.695	3
961.423	1
962.151	2
962.88	-1
963.608	0
964.336	0
965.064	1
965.792	-1
966.52	0
967.247	0
967.975	2
968.703	2
969.43	3
970.158	2
970.885	0
971.613	-1
972.34	1
973.067	-1
973.794	-1
974.521	1
975.248	-1
975.975	1
976.702	-1
977.429	-1
978.156	0
978.882	1
979.609	1
980.335	0
981.062	3
981.788	0
982.514	1
983.24	3
983.967	-1
984.693	1
985.419	-1
986.144	2
986.87	1
987.596	-1
988.322	-2
989.047	0
989.773	3
990.498	0
991.224	-1
991.949	0
992.674	2
993.399	0
994.124	-2
994.849	1
995.574	-1
996.299	2
997.024	1
997.749	2
998.473	2
999.198	-1
999.922	2
1000.647	2
1001.371	4
1002.095	-1
1002.82	-1
1003.544	0
1004.268	4
1004.992	6
1005.716	4
1006.439	5
1007.163	4
1007.887	5
1008.611	1
1009.334	-1
1010.058	0
1010.781	2
1011.504	1
1012.228	2
1012.951	-1
1013.674	0
1014.397	0
1015.12	-1
