节点500_705_QEPB04081__186__20-48-54-083.txt的数据

Date: Wed Nov 12 20:48:54 CST 2025
User: PC
Spectrometer: QEPB0408
触发模式: 0
积分时间 (秒): 1.000000E-2
Scans to average: 1
启用暗噪声校正: true
启用非线性校正: false
滑动平均宽度: 0
X轴模式: Wavelengths
Number of Pixels in Spectrum: 1044
>>>>>Begin Spectral Data<<<<<
220.843	5.25
221.644	6.25
222.444	5.25
223.244	5.25
224.045	5.25
224.845	5.25
225.645	6.25
226.445	5.25
227.245	6.25
228.045	7.25
228.845	5.25
229.645	7.25
230.444	5.25
231.244	9.25
232.043	9.25
232.843	8.25
233.642	8.25
234.442	7.25
235.241	9.25
236.04	9.25
236.839	8.25
237.638	11.25
238.437	11.25
239.236	12.25
240.035	11.25
240.833	13.25
241.632	12.25
242.43	13.25
243.229	13.25
244.027	13.25
244.826	10.25
245.624	13.25
246.422	16.25
247.22	17.25
248.018	13.25
248.816	13.25
249.614	17.25
250.412	14.25
251.21	15.25
252.007	15.25
252.805	17.25
253.602	16.25
254.4	17.25
255.197	16.25
255.994	19.25
256.791	19.25
257.589	22.25
258.386	23.25
259.183	24.25
259.979	24.25
260.776	23.25
261.573	23.25
262.37	24.25
263.166	26.25
263.963	26.25
264.759	22.25
265.556	30.25
266.352	29.25
267.148	27.25
267.944	28.25
268.74	27.25
269.536	28.25
270.332	32.25
271.128	33.25
271.924	31.25
272.719	33.25
273.515	30.25
274.311	28.25
275.106	33.25
275.901	35.25
276.697	32.25
277.492	34.25
278.287	36.25
279.082	36.25
279.877	34.25
280.672	36.25
281.467	34.25
282.262	36.25
283.056	35.25
283.851	36.25
284.646	36.25
285.44	33.25
286.234	34.25
287.029	33.25
287.823	33.25
288.617	32.25
289.411	32.25
290.205	34.25
290.999	31.25
291.793	33.25
292.587	34.25
293.381	28.25
294.174	32.25
294.968	30.25
295.761	28.25
296.555	26.25
297.348	26.25
298.141	26.25
298.935	30.25
299.728	26.25
300.521	21.25
301.314	26.25
302.107	23.25
302.899	23.25
303.692	23.25
304.485	23.25
305.277	21.25
306.07	19.25
306.862	17.25
307.655	18.25
308.447	20.25
309.239	20.25
310.031	20.25
310.823	19.25
311.615	18.25
312.407	18.25
313.199	15.25
313.991	16.25
314.783	15.25
315.574	12.25
316.366	17.25
317.157	15.25
317.949	13.25
318.74	15.25
319.531	13.25
320.322	12.25
321.113	13.25
321.904	14.25
322.695	12.25
323.486	11.25
324.277	14.25
325.068	14.25
325.858	13.25
326.649	13.25
327.439	10.25
328.23	13.25
329.02	13.25
329.81	13.25
330.6	13.25
331.391	10.25
332.181	13.25
332.971	9.25
333.76	12.25
334.55	13.25
335.34	12.25
336.13	10.25
336.919	12.25
337.709	12.25
338.498	12.25
339.287	10.25
340.077	13.25
340.866	10.25
341.655	9.25
342.444	10.25
343.233	8.25
344.022	10.25
344.811	11.25
345.6	12.25
346.388	12.25
347.177	10.25
347.965	13.25
348.754	7.25
349.542	10.25
350.33	10.25
351.119	10.25
351.907	12.25
352.695	12.25
353.483	10.25
354.271	10.25
355.059	10.25
355.846	10.25
356.634	9.25
357.422	12.25
358.209	9.25
358.997	10.25
359.784	7.25
360.571	9.25
361.359	8.25
362.146	8.25
362.933	10.25
363.72	10.25
364.507	8.25
365.294	8.25
366.081	12.25
366.867	8.25
367.654	8.25
368.44	10.25
369.227	6.25
370.013	8.25
370.8	8.25
371.586	10.25
372.372	8.25
373.158	9.25
373.944	10.25
374.73	8.25
375.516	10.25
376.302	8.25
377.088	11.25
377.873	9.25
378.659	8.25
379.445	8.25
380.23	7.25
381.015	10.25
381.801	10.25
382.586	10.25
383.371	10.25
384.156	9.25
384.941	11.25
385.726	8.25
386.511	12.25
387.296	10.25
388.08	12.25
388.865	9.25
389.649	9.25
390.434	13.25
391.218	12.25
392.003	12.25
392.787	10.25
393.571	9.25
394.355	11.25
395.139	12.25
395.923	14.25
396.707	11.25
397.491	12.25
398.274	10.25
399.058	10.25
399.842	15.25
400.625	12.25
401.408	13.25
402.192	12.25
402.975	12.25
403.758	11.25
404.541	12.25
405.324	16.25
406.107	14.25
406.89	14.25
407.673	15.25
408.456	16.25
409.238	14.25
410.021	15.25
410.803	16.25
411.586	17.25
412.368	18.25
413.151	16.25
413.933	17.25
414.715	16.25
415.497	16.25
416.279	17.25
417.061	19.25
417.843	16.25
418.624	20.25
419.406	19.25
420.188	21.25
420.969	22.25
421.751	19.25
422.532	23.25
423.313	23.25
424.095	22.25
424.876	24.25
425.657	23.25
426.438	30.25
427.219	25.25
428	30.25
428.78	24.25
429.561	30.25
430.342	31.25
431.122	33.25
431.903	29.25
432.683	33.25
433.464	34.25
434.244	38.25
435.024	35.25
435.804	40.25
436.584	39.25
437.364	45.25
438.144	43.25
438.924	48.25
439.704	51.25
440.483	56.25
441.263	60.25
442.042	59.25
442.822	70.25
443.601	71.25
444.38	75.25
445.16	82.25
445.939	89.25
446.718	99.25
447.497	108.25
448.276	120.25
449.054	124.25
449.833	137.25
450.612	156.25
451.391	172.25
452.169	190.25
452.948	208.25
453.726	231.25
454.504	252.25
455.282	289.25
456.061	323.25
456.839	352.25
457.617	389.25
458.395	448.25
459.172	490.25
459.95	554.25
460.728	616.25
461.506	688.25
462.283	770.25
463.061	851.25
463.838	954.25
464.615	1056.25
465.393	1194.25
466.17	1329.25
466.947	1459.25
467.724	1655.25
468.501	1819.25
469.278	2016.25
470.055	2241.25
470.831	2486.25
471.608	2740.25
472.385	3043.25
473.161	3358.25
473.938	3689.25
474.714	4066.25
475.49	4455.25
476.266	4914.25
477.043	5378.25
477.819	5921.25
478.595	6476.25
479.371	7106.25
480.146	7736.25
480.922	8483.25
481.698	9250.25
482.473	10119.25
483.249	11041.25
484.024	12004.25
484.8	13069.25
485.575	14175.25
486.35	15406.25
487.126	16711.25
487.901	18097.25
488.676	19611.25
489.451	21134.25
490.225	22757.25
491	24426.25
491.775	26206.25
492.55	28014.25
493.324	29874.25
494.099	31750.25
494.873	33603.25
495.647	35461.25
496.422	37404.25
497.196	39192.25
497.97	40807.25
498.744	42422.25
499.518	44043.25
500.292	45305.25
501.066	46314.25
501.839	47090.25
502.613	47787.25
503.387	48339.25
504.16	48594.25
504.934	48651.25
505.707	48452.25
506.48	47913.25
507.253	47270.25
508.027	46319.25
508.8	45245.25
509.573	44115.25
510.346	42862.25
511.118	41715.25
511.891	40278.25
512.664	38722.25
513.437	37118.25
514.209	35693.25
514.982	34262.25
515.754	32902.25
516.526	31495.25
517.298	30232.25
518.071	29050.25
518.843	27779.25
519.615	26734.25
520.387	25702.25
521.159	24658.25
521.93	23610.25
522.702	22569.25
523.474	21650.25
524.245	20683.25
525.017	19800.25
525.788	18833.25
526.56	18073.25
527.331	17283.25
528.102	16419.25
528.873	15514.25
529.644	14787.25
530.415	14128.25
531.186	13392.25
531.957	12698.25
532.728	12023.25
533.498	11365.25
534.269	10763.25
535.039	10188.25
535.81	9613.25
536.58	9081.25
537.351	8601.25
538.121	8159.25
538.891	7727.25
539.661	7311.25
540.431	6883.25
541.201	6538.25
541.971	6194.25
542.741	5902.25
543.51	5563.25
544.28	5312.25
545.05	5065.25
545.819	4816.25
546.588	4586.25
547.358	4388.25
548.127	4158.25
548.896	3935.25
549.665	3761.25
550.434	3537.25
551.203	3361.25
551.972	3175.25
552.741	3000.25
553.51	2838.25
554.278	2671.25
555.047	2531.25
555.815	2386.25
556.584	2272.25
557.352	2142.25
558.121	2021.25
558.889	1900.25
559.657	1806.25
560.425	1687.25
561.193	1613.25
561.961	1512.25
562.729	1449.25
563.496	1360.25
564.264	1285.25
565.032	1214.25
565.799	1155.25
566.567	1097.25
567.334	1043.25
568.101	972.25
568.869	912.25
569.636	861.25
570.403	820.25
571.17	761.25
571.937	727.25
572.704	693.25
573.471	651.25
574.237	615.25
575.004	577.25
575.771	544.25
576.537	512.25
577.303	481.25
578.07	460.25
578.836	433.25
579.602	410.25
580.368	393.25
581.134	373.25
581.9	353.25
582.666	328.25
583.432	316.25
584.198	306.25
584.964	291.25
585.729	272.25
586.495	259.25
587.26	242.25
588.025	229.25
588.791	223.25
589.556	205.25
590.321	195.25
591.086	191.25
591.851	180.25
592.616	171.25
593.381	164.25
594.146	157.25
594.911	145.25
595.675	141.25
596.44	138.25
597.204	133.25
597.969	121.25
598.733	120.25
599.497	114.25
600.261	105.25
601.025	105.25
601.79	98.25
602.553	95.25
603.317	90.25
604.081	86.25
604.845	86.25
605.609	82.25
606.372	73.25
607.136	75.25
607.899	74.25
608.662	68.25
609.426	66.25
610.189	64.25
610.952	61.25
611.715	58.25
612.478	55.25
613.241	54.25
614.004	53.25
614.767	52.25
615.529	50.25
616.292	51.25
617.055	47.25
617.817	42.25
618.579	45.25
619.342	43.25
620.104	40.25
620.866	41.25
621.628	38.25
622.39	38.25
623.152	35.25
623.914	34.25
624.676	31.25
625.438	33.25
626.199	32.25
626.961	32.25
627.722	30.25
628.484	26.25
629.245	27.25
630.006	26.25
630.768	28.25
631.529	26.25
632.29	25.25
633.051	25.25
633.812	23.25
634.573	25.25
635.333	21.25
636.094	21.25
636.855	20.25
637.615	22.25
638.376	20.25
639.136	17.25
639.896	18.25
640.657	18.25
641.417	17.25
642.177	18.25
642.937	16.25
643.697	18.25
644.457	17.25
645.216	15.25
645.976	18.25
646.736	14.25
647.495	14.25
648.255	14.25
649.014	14.25
649.774	15.25
650.533	11.25
651.292	17.25
652.051	12.25
652.81	13.25
653.569	10.25
654.328	14.25
655.087	14.25
655.846	13.25
656.604	10.25
657.363	13.25
658.121	13.25
658.88	10.25
659.638	12.25
660.397	8.25
661.155	11.25
661.913	11.25
662.671	11.25
663.429	8.25
664.187	9.25
664.945	10.25
665.703	9.25
666.46	12.25
667.218	11.25
667.976	10.25
668.733	9.25
669.49	10.25
670.248	7.25
671.005	10.25
671.762	9.25
672.519	10.25
673.276	10.25
674.033	9.25
674.79	7.25
675.547	9.25
676.304	9.25
677.06	7.25
677.817	8.25
678.574	8.25
679.33	9.25
680.086	9.25
680.843	9.25
681.599	8.25
682.355	9.25
683.111	4.25
683.867	8.25
684.623	10.25
685.379	7.25
686.135	8.25
686.89	8.25
687.646	6.25
688.402	7.25
689.157	6.25
689.912	7.25
690.668	9.25
691.423	7.25
692.178	7.25
692.933	7.25
693.688	5.25
694.443	5.25
695.198	7.25
695.953	7.25
696.708	8.25
697.462	6.25
698.217	8.25
698.972	7.25
699.726	8.25
700.48	8.25
701.235	6.25
701.989	6.25
702.743	8.25
703.497	6.25
704.251	10.25
705.005	6.25
705.759	5.25
706.513	6.25
707.266	5.25
708.02	8.25
708.774	6.25
709.527	7.25
710.28	7.25
711.034	5.25
711.787	9.25
712.54	5.25
713.293	6.25
714.046	6.25
714.799	7.25
715.552	5.25
716.305	10.25
717.058	6.25
717.81	10.25
718.563	7.25
719.315	5.25
720.068	8.25
720.82	7.25
721.573	9.25
722.325	8.25
723.077	9.25
723.829	7.25
724.581	4.25
725.333	8.25
726.085	7.25
726.836	8.25
727.588	11.25
728.34	7.25
729.091	9.25
729.843	8.25
730.594	9.25
731.346	8.25
732.097	8.25
732.848	10.25
733.599	8.25
734.35	9.25
735.101	7.25
735.852	10.25
736.603	8.25
737.354	8.25
738.104	8.25
738.855	8.25
739.605	7.25
740.356	10.25
741.106	10.25
741.856	11.25
742.607	7.25
743.357	10.25
744.107	11.25
744.857	11.25
745.607	8.25
746.357	8.25
747.106	10.25
747.856	11.25
748.606	10.25
749.355	10.25
750.105	11.25
750.854	11.25
751.603	9.25
752.353	11.25
753.102	10.25
753.851	9.25
754.6	11.25
755.349	10.25
756.098	11.25
756.847	13.25
757.595	14.25
758.344	12.25
759.093	12.25
759.841	14.25
760.589	10.25
761.338	12.25
762.086	13.25
762.834	13.25
763.582	10.25
764.331	11.25
765.079	14.25
765.826	11.25
766.574	14.25
767.322	16.25
768.07	12.25
768.817	14.25
769.565	14.25
770.312	14.25
771.06	13.25
771.807	17.25
772.554	16.25
773.302	14.25
774.049	14.25
774.796	14.25
775.543	16.25
776.29	14.25
777.036	17.25
777.783	18.25
778.53	14.25
779.276	16.25
780.023	16.25
780.769	16.25
781.516	14.25
782.262	18.25
783.008	14.25
783.754	14.25
784.5	16.25
785.246	16.25
785.992	17.25
786.738	14.25
787.484	14.25
788.23	17.25
788.975	16.25
789.721	14.25
790.466	12.25
791.212	14.25
791.957	12.25
792.702	13.25
793.447	14.25
794.193	14.25
794.938	12.25
795.683	11.25
796.427	12.25
797.172	10.25
797.917	14.25
798.662	14.25
799.406	11.25
800.151	12.25
800.895	12.25
801.64	13.25
802.384	13.25
803.128	12.25
803.872	11.25
804.616	10.25
805.36	11.25
806.104	10.25
806.848	9.25
807.592	12.25
808.336	9.25
809.079	10.25
809.823	8.25
810.566	9.25
811.31	9.25
812.053	9.25
812.796	10.25
813.539	7.25
814.283	11.25
815.026	8.25
815.769	5.25
816.511	8.25
817.254	6.25
817.997	7.25
818.74	6.25
819.482	8.25
820.225	7.25
820.967	4.25
821.71	4.25
822.452	7.25
823.194	6.25
823.936	3.25
824.678	6.25
825.42	8.25
826.162	5.25
826.904	6.25
827.646	6.25
828.388	6.25
829.129	7.25
829.871	7.25
830.612	8.25
831.354	6.25
832.095	5.25
832.836	7.25
833.577	6.25
834.319	7.25
835.06	5.25
835.801	6.25
836.542	7.25
837.282	3.25
838.023	7.25
838.764	4.25
839.504	4.25
840.245	5.25
840.985	4.25
841.726	4.25
842.466	5.25
843.206	4.25
843.946	2.25
844.687	6.25
845.427	3.25
846.166	4.25
846.906	4.25
847.646	4.25
848.386	3.25
849.125	5.25
849.865	5.25
850.605	6.25
851.344	4.25
852.083	6.25
852.823	4.25
853.562	1.25
854.301	2.25
855.04	6.25
855.779	3.25
856.518	2.25
857.257	4.25
857.995	1.25
858.734	4.25
859.473	2.25
860.211	2.25
860.95	2.25
861.688	2.25
862.426	5.25
863.165	2.25
863.903	3.25
864.641	1.25
865.379	3.25
866.117	1.25
866.855	0.25
867.593	3.25
868.33	2.25
869.068	1.25
869.806	2.25
870.543	1.25
871.28	1.25
872.018	0.25
872.755	1.25
873.492	1.25
874.229	0.25
874.967	2.25
875.703	2.25
876.44	-0.75
877.177	2.25
877.914	1.25
878.651	1.25
879.387	2.25
880.124	1.25
880.86	1.25
881.597	3.25
882.333	0.25
883.069	0.25
883.806	1.25
884.542	3.25
885.278	2.25
886.014	0.25
886.749	3.25
887.485	1.25
888.221	0.25
888.957	-1.75
889.692	-0.75
890.428	0.25
891.163	-0.75
891.899	-1.75
892.634	1.25
893.369	-0.75
894.104	-1.75
894.839	2.25
895.574	0.25
896.309	3.25
897.044	3.25
897.779	1.25
898.514	-1.75
899.248	3.25
899.983	-1.75
900.717	0.25
901.452	2.25
902.186	-0.75
902.92	2.25
903.654	0.25
904.389	-0.75
905.123	0.25
905.857	0.25
906.59	1.25
907.324	-0.75
908.058	0.25
908.792	-0.75
909.525	1.25
910.259	1.25
910.992	-2.75
911.726	0.25
912.459	1.25
913.192	1.25
913.925	-1.75
914.658	-1.75
915.391	0.25
916.124	1.25
916.857	-1.75
917.59	-0.75
918.323	-0.75
919.055	1.25
919.788	-1.75
920.521	-1.75
921.253	-1.75
921.985	1.25
922.718	-0.75
923.45	-2.75
924.182	1.25
924.914	0.25
925.646	1.25
926.378	-2.75
927.11	-0.75
927.841	-0.75
928.573	-0.75
929.305	0.25
930.036	1.25
930.768	0.25
931.499	-1.75
932.23	0.25
932.962	-0.75
933.693	-0.75
934.424	-1.75
935.155	0.25
935.886	-0.75
936.617	-2.75
937.348	-1.75
938.078	0.25
938.809	-1.75
939.54	2.25
940.27	-0.75
941.001	-1.75
941.731	-0.75
942.461	-0.75
943.191	1.25
943.922	0.25
944.652	0.25
945.382	0.25
946.112	-1.75
946.841	-0.75
947.571	0.25
948.301	1.25
949.031	-1.75
949.76	0.25
950.49	1.25
951.219	-0.75
951.948	-2.75
952.678	-0.75
953.407	-1.75
954.136	-4.75
954.865	0.25
955.594	0.25
956.323	-1.75
957.052	0.25
957.78	1.25
958.509	2.25
959.238	-0.75
959.966	-2.75
960.695	-1.75
961.423	2.25
962.151	1.25
962.88	-1.75
963.608	-1.75
964.336	-2.75
965.064	0.25
965.792	-0.75
966.52	1.25
967.247	0.25
967.975	0.25
968.703	-0.75
969.43	1.25
970.158	1.25
970.885	-2.75
971.613	0.25
972.34	0.25
973.067	1.25
973.794	-1.75
974.521	1.25
975.248	-1.75
975.975	0.25
976.702	3.25
977.429	-0.75
978.156	1.25
978.882	1.25
979.609	0.25
980.335	0.25
981.062	0.25
981.788	-0.75
982.514	-0.75
983.24	-0.75
983.967	-0.75
984.693	0.25
985.419	-1.75
986.144	0.25
986.87	-0.75
987.596	0.25
988.322	2.25
989.047	-0.75
989.773	1.25
990.498	0.25
991.224	1.25
991.949	-0.75
992.674	-0.75
993.399	0.25
994.124	0.25
994.849	0.25
995.574	0.25
996.299	0.25
997.024	2.25
997.749	-0.75
998.473	0.25
999.198	0.25
999.922	1.25
1000.647	3.25
1001.371	5.25
1002.095	-3.75
1002.82	0.25
1003.544	0.25
1004.268	4.25
1004.992	4.25
1005.716	2.25
1006.439	4.25
1007.163	6.25
1007.887	6.25
1008.611	-2.75
1009.334	-1.75
1010.058	-1.75
1010.781	-0.75
1011.504	-0.75
1012.228	-0.75
1012.951	0.25
1013.674	0.25
1014.397	0.25
1015.12	-2.75
