节点500_705_QEPB04081__307__20-50-21-428.txt的数据

Date: Wed Nov 12 20:50:21 CST 2025
User: PC
Spectrometer: QEPB0408
触发模式: 0
积分时间 (秒): 1.000000E-2
Scans to average: 1
启用暗噪声校正: true
启用非线性校正: false
滑动平均宽度: 0
X轴模式: Wavelengths
Number of Pixels in Spectrum: 1044
>>>>>Begin Spectral Data<<<<<
220.843	2.25
221.644	6.25
222.444	6.25
223.244	5.25
224.045	3.25
224.845	7.25
225.645	4.25
226.445	4.25
227.245	7.25
228.045	5.25
228.845	7.25
229.645	8.25
230.444	9.25
231.244	9.25
232.043	8.25
232.843	9.25
233.642	7.25
234.442	8.25
235.241	5.25
236.04	9.25
236.839	9.25
237.638	7.25
238.437	11.25
239.236	10.25
240.035	8.25
240.833	9.25
241.632	10.25
242.43	12.25
243.229	8.25
244.027	13.25
244.826	10.25
245.624	11.25
246.422	13.25
247.22	10.25
248.018	15.25
248.816	16.25
249.614	14.25
250.412	12.25
251.21	17.25
252.007	16.25
252.805	15.25
253.602	16.25
254.4	14.25
255.197	16.25
255.994	16.25
256.791	20.25
257.589	20.25
258.386	18.25
259.183	19.25
259.979	22.25
260.776	23.25
261.573	21.25
262.37	23.25
263.166	25.25
263.963	25.25
264.759	26.25
265.556	26.25
266.352	25.25
267.148	25.25
267.944	27.25
268.74	29.25
269.536	28.25
270.332	29.25
271.128	28.25
271.924	30.25
272.719	32.25
273.515	31.25
274.311	35.25
275.106	31.25
275.901	30.25
276.697	33.25
277.492	33.25
278.287	35.25
279.082	32.25
279.877	32.25
280.672	33.25
281.467	32.25
282.262	32.25
283.056	33.25
283.851	34.25
284.646	35.25
285.44	34.25
286.234	33.25
287.029	33.25
287.823	35.25
288.617	32.25
289.411	35.25
290.205	33.25
290.999	32.25
291.793	33.25
292.587	30.25
293.381	29.25
294.174	31.25
294.968	25.25
295.761	28.25
296.555	25.25
297.348	29.25
298.141	21.25
298.935	27.25
299.728	26.25
300.521	22.25
301.314	25.25
302.107	24.25
302.899	22.25
303.692	20.25
304.485	22.25
305.277	22.25
306.07	20.25
306.862	20.25
307.655	21.25
308.447	22.25
309.239	21.25
310.031	22.25
310.823	17.25
311.615	16.25
312.407	15.25
313.199	18.25
313.991	19.25
314.783	17.25
315.574	17.25
316.366	17.25
317.157	16.25
317.949	14.25
318.74	16.25
319.531	13.25
320.322	12.25
321.113	14.25
321.904	12.25
322.695	13.25
323.486	13.25
324.277	13.25
325.068	12.25
325.858	12.25
326.649	14.25
327.439	13.25
328.23	12.25
329.02	14.25
329.81	11.25
330.6	10.25
331.391	12.25
332.181	12.25
332.971	11.25
333.76	12.25
334.55	10.25
335.34	13.25
336.13	10.25
336.919	11.25
337.709	10.25
338.498	12.25
339.287	12.25
340.077	9.25
340.866	15.25
341.655	10.25
342.444	13.25
343.233	10.25
344.022	10.25
344.811	12.25
345.6	11.25
346.388	10.25
347.177	11.25
347.965	12.25
348.754	10.25
349.542	11.25
350.33	7.25
351.119	11.25
351.907	10.25
352.695	9.25
353.483	10.25
354.271	9.25
355.059	9.25
355.846	9.25
356.634	11.25
357.422	8.25
358.209	10.25
358.997	9.25
359.784	9.25
360.571	8.25
361.359	13.25
362.146	10.25
362.933	11.25
363.72	7.25
364.507	7.25
365.294	8.25
366.081	7.25
366.867	7.25
367.654	9.25
368.44	9.25
369.227	8.25
370.013	9.25
370.8	7.25
371.586	9.25
372.372	7.25
373.158	8.25
373.944	7.25
374.73	9.25
375.516	10.25
376.302	9.25
377.088	12.25
377.873	9.25
378.659	10.25
379.445	7.25
380.23	10.25
381.015	8.25
381.801	8.25
382.586	9.25
383.371	10.25
384.156	10.25
384.941	8.25
385.726	10.25
386.511	10.25
387.296	10.25
388.08	14.25
388.865	9.25
389.649	11.25
390.434	11.25
391.218	12.25
392.003	10.25
392.787	11.25
393.571	12.25
394.355	12.25
395.139	12.25
395.923	13.25
396.707	11.25
397.491	12.25
398.274	11.25
399.058	11.25
399.842	13.25
400.625	13.25
401.408	14.25
402.192	12.25
402.975	12.25
403.758	14.25
404.541	11.25
405.324	11.25
406.107	14.25
406.89	14.25
407.673	15.25
408.456	16.25
409.238	13.25
410.021	15.25
410.803	15.25
411.586	20.25
412.368	16.25
413.151	18.25
413.933	19.25
414.715	17.25
415.497	19.25
416.279	18.25
417.061	18.25
417.843	18.25
418.624	16.25
419.406	17.25
420.188	19.25
420.969	21.25
421.751	25.25
422.532	21.25
423.313	21.25
424.095	21.25
424.876	24.25
425.657	24.25
426.438	26.25
427.219	24.25
428	21.25
428.78	26.25
429.561	29.25
430.342	28.25
431.122	29.25
431.903	31.25
432.683	35.25
433.464	38.25
434.244	34.25
435.024	38.25
435.804	40.25
436.584	42.25
437.364	44.25
438.144	49.25
438.924	46.25
439.704	51.25
440.483	57.25
441.263	58.25
442.042	60.25
442.822	71.25
443.601	70.25
444.38	77.25
445.16	87.25
445.939	99.25
446.718	99.25
447.497	112.25
448.276	119.25
449.054	131.25
449.833	146.25
450.612	157.25
451.391	174.25
452.169	195.25
452.948	210.25
453.726	242.25
454.504	261.25
455.282	289.25
456.061	321.25
456.839	366.25
457.617	411.25
458.395	448.25
459.172	511.25
459.95	560.25
460.728	625.25
461.506	702.25
462.283	789.25
463.061	868.25
463.838	987.25
464.615	1076.25
465.393	1203.25
466.17	1341.25
466.947	1479.25
467.724	1648.25
468.501	1836.25
469.278	2034.25
470.055	2229.25
470.831	2495.25
471.608	2724.25
472.385	3048.25
473.161	3327.25
473.938	3658.25
474.714	4025.25
475.49	4417.25
476.266	4876.25
477.043	5308.25
477.819	5811.25
478.595	6397.25
479.371	6920.25
480.146	7570.25
480.922	8287.25
481.698	9042.25
482.473	9816.25
483.249	10676.25
484.024	11575.25
484.8	12609.25
485.575	13633.25
486.35	14818.25
487.126	16015.25
487.901	17389.25
488.676	18702.25
489.451	20242.25
490.225	21674.25
491	23312.25
491.775	24901.25
492.55	26712.25
493.324	28403.25
494.099	30188.25
494.873	31898.25
495.647	33718.25
496.422	35618.25
497.196	37388.25
497.97	38993.25
498.744	40466.25
499.518	42095.25
500.292	43489.25
501.066	44529.25
501.839	45376.25
502.613	46046.25
503.387	46630.25
504.16	47146.25
504.934	47096.25
505.707	47050.25
506.48	46715.25
507.253	46251.25
508.027	45436.25
508.8	44456.25
509.573	43491.25
510.346	42361.25
511.118	41355.25
511.891	40082.25
512.664	38528.25
513.437	37040.25
514.209	35705.25
514.982	34327.25
515.754	32862.25
516.526	31514.25
517.298	30279.25
518.071	29111.25
518.843	27920.25
519.615	26791.25
520.387	25764.25
521.159	24771.25
521.93	23725.25
522.702	22734.25
523.474	21704.25
524.245	20822.25
525.017	19922.25
525.788	19033.25
526.56	18220.25
527.331	17469.25
528.102	16501.25
528.873	15724.25
529.644	14984.25
530.415	14281.25
531.186	13563.25
531.957	12850.25
532.728	12175.25
533.498	11550.25
534.269	10937.25
535.039	10354.25
535.81	9814.25
536.58	9265.25
537.351	8789.25
538.121	8341.25
538.891	7860.25
539.661	7437.25
540.431	7020.25
541.201	6670.25
541.971	6325.25
542.741	6014.25
543.51	5716.25
544.28	5416.25
545.05	5126.25
545.819	4917.25
546.588	4686.25
547.358	4480.25
548.127	4237.25
548.896	4026.25
549.665	3813.25
550.434	3608.25
551.203	3428.25
551.972	3250.25
552.741	3079.25
553.51	2910.25
554.278	2740.25
555.047	2580.25
555.815	2448.25
556.584	2328.25
557.352	2193.25
558.121	2064.25
558.889	1940.25
559.657	1839.25
560.425	1743.25
561.193	1660.25
561.961	1568.25
562.729	1468.25
563.496	1393.25
564.264	1310.25
565.032	1259.25
565.799	1191.25
566.567	1130.25
567.334	1056.25
568.101	1001.25
568.869	930.25
569.636	896.25
570.403	842.25
571.17	802.25
571.937	757.25
572.704	697.25
573.471	668.25
574.237	633.25
575.004	597.25
575.771	561.25
576.537	523.25
577.303	503.25
578.07	468.25
578.836	444.25
579.602	419.25
580.368	402.25
581.134	382.25
581.9	364.25
582.666	338.25
583.432	324.25
584.198	306.25
584.964	300.25
585.729	277.25
586.495	261.25
587.26	245.25
588.025	238.25
588.791	217.25
589.556	215.25
590.321	196.25
591.086	194.25
591.851	180.25
592.616	174.25
593.381	163.25
594.146	162.25
594.911	152.25
595.675	143.25
596.44	137.25
597.204	133.25
597.969	124.25
598.733	123.25
599.497	122.25
600.261	113.25
601.025	109.25
601.79	106.25
602.553	96.25
603.317	95.25
604.081	91.25
604.845	85.25
605.609	84.25
606.372	77.25
607.136	77.25
607.899	71.25
608.662	70.25
609.426	67.25
610.189	66.25
610.952	64.25
611.715	64.25
612.478	55.25
613.241	57.25
614.004	56.25
614.767	55.25
615.529	51.25
616.292	48.25
617.055	46.25
617.817	43.25
618.579	43.25
619.342	43.25
620.104	42.25
620.866	41.25
621.628	38.25
622.39	37.25
623.152	35.25
623.914	37.25
624.676	34.25
625.438	32.25
626.199	34.25
626.961	28.25
627.722	29.25
628.484	28.25
629.245	24.25
630.006	27.25
630.768	26.25
631.529	26.25
632.29	27.25
633.051	23.25
633.812	23.25
634.573	25.25
635.333	22.25
636.094	22.25
636.855	19.25
637.615	19.25
638.376	20.25
639.136	16.25
639.896	17.25
640.657	16.25
641.417	16.25
642.177	17.25
642.937	17.25
643.697	14.25
644.457	16.25
645.216	14.25
645.976	16.25
646.736	14.25
647.495	14.25
648.255	16.25
649.014	14.25
649.774	12.25
650.533	13.25
651.292	11.25
652.051	12.25
652.81	14.25
653.569	13.25
654.328	10.25
655.087	12.25
655.846	11.25
656.604	12.25
657.363	10.25
658.121	11.25
658.88	11.25
659.638	13.25
660.397	12.25
661.155	9.25
661.913	12.25
662.671	10.25
663.429	10.25
664.187	10.25
664.945	8.25
665.703	10.25
666.46	10.25
667.218	9.25
667.976	9.25
668.733	5.25
669.49	10.25
670.248	7.25
671.005	10.25
671.762	8.25
672.519	8.25
673.276	10.25
674.033	7.25
674.79	9.25
675.547	7.25
676.304	7.25
677.06	8.25
677.817	8.25
678.574	9.25
679.33	8.25
680.086	7.25
680.843	8.25
681.599	10.25
682.355	7.25
683.111	7.25
683.867	6.25
684.623	7.25
685.379	7.25
686.135	6.25
686.89	6.25
687.646	5.25
688.402	7.25
689.157	7.25
689.912	9.25
690.668	6.25
691.423	8.25
692.178	4.25
692.933	7.25
693.688	7.25
694.443	6.25
695.198	7.25
695.953	8.25
696.708	4.25
697.462	7.25
698.217	8.25
698.972	7.25
699.726	6.25
700.48	7.25
701.235	5.25
701.989	6.25
702.743	7.25
703.497	7.25
704.251	7.25
705.005	5.25
705.759	6.25
706.513	9.25
707.266	10.25
708.02	6.25
708.774	7.25
709.527	8.25
710.28	8.25
711.034	6.25
711.787	8.25
712.54	7.25
713.293	8.25
714.046	7.25
714.799	7.25
715.552	7.25
716.305	9.25
717.058	7.25
717.81	7.25
718.563	5.25
719.315	7.25
720.068	8.25
720.82	7.25
721.573	8.25
722.325	8.25
723.077	7.25
723.829	6.25
724.581	6.25
725.333	10.25
726.085	10.25
726.836	6.25
727.588	7.25
728.34	5.25
729.091	10.25
729.843	7.25
730.594	9.25
731.346	9.25
732.097	9.25
732.848	7.25
733.599	6.25
734.35	7.25
735.101	7.25
735.852	10.25
736.603	9.25
737.354	6.25
738.104	10.25
738.855	9.25
739.605	10.25
740.356	8.25
741.106	7.25
741.856	10.25
742.607	9.25
743.357	8.25
744.107	7.25
744.857	8.25
745.607	11.25
746.357	8.25
747.106	9.25
747.856	10.25
748.606	10.25
749.355	9.25
750.105	10.25
750.854	9.25
751.603	12.25
752.353	12.25
753.102	10.25
753.851	10.25
754.6	12.25
755.349	10.25
756.098	12.25
756.847	10.25
757.595	10.25
758.344	12.25
759.093	11.25
759.841	12.25
760.589	11.25
761.338	12.25
762.086	11.25
762.834	11.25
763.582	13.25
764.331	10.25
765.079	13.25
765.826	10.25
766.574	13.25
767.322	12.25
768.07	15.25
768.817	13.25
769.565	14.25
770.312	13.25
771.06	15.25
771.807	14.25
772.554	13.25
773.302	11.25
774.049	13.25
774.796	14.25
775.543	17.25
776.29	17.25
777.036	17.25
777.783	15.25
778.53	15.25
779.276	16.25
780.023	14.25
780.769	17.25
781.516	14.25
782.262	16.25
783.008	18.25
783.754	16.25
784.5	14.25
785.246	17.25
785.992	17.25
786.738	17.25
787.484	16.25
788.23	15.25
788.975	13.25
789.721	14.25
790.466	14.25
791.212	14.25
791.957	14.25
792.702	14.25
793.447	15.25
794.193	14.25
794.938	13.25
795.683	13.25
796.427	11.25
797.172	12.25
797.917	12.25
798.662	10.25
799.406	10.25
800.151	14.25
800.895	12.25
801.64	11.25
802.384	13.25
803.128	9.25
803.872	12.25
804.616	11.25
805.36	11.25
806.104	10.25
806.848	12.25
807.592	8.25
808.336	11.25
809.079	7.25
809.823	9.25
810.566	9.25
811.31	7.25
812.053	7.25
812.796	11.25
813.539	7.25
814.283	6.25
815.026	9.25
815.769	7.25
816.511	9.25
817.254	8.25
817.997	7.25
818.74	6.25
819.482	5.25
820.225	8.25
820.967	6.25
821.71	7.25
822.452	4.25
823.194	5.25
823.936	7.25
824.678	6.25
825.42	7.25
826.162	5.25
826.904	7.25
827.646	6.25
828.388	5.25
829.129	7.25
829.871	7.25
830.612	5.25
831.354	5.25
832.095	5.25
832.836	6.25
833.577	5.25
834.319	4.25
835.06	6.25
835.801	5.25
836.542	6.25
837.282	3.25
838.023	5.25
838.764	6.25
839.504	6.25
840.245	5.25
840.985	5.25
841.726	3.25
842.466	2.25
843.206	4.25
843.946	5.25
844.687	6.25
845.427	5.25
846.166	4.25
846.906	6.25
847.646	4.25
848.386	5.25
849.125	2.25
849.865	5.25
850.605	4.25
851.344	4.25
852.083	3.25
852.823	2.25
853.562	4.25
854.301	2.25
855.04	4.25
855.779	4.25
856.518	1.25
857.257	4.25
857.995	3.25
858.734	3.25
859.473	2.25
860.211	4.25
860.95	1.25
861.688	2.25
862.426	2.25
863.165	3.25
863.903	2.25
864.641	2.25
865.379	1.25
866.117	2.25
866.855	1.25
867.593	4.25
868.33	2.25
869.068	3.25
869.806	0.25
870.543	1.25
871.28	0.25
872.018	1.25
872.755	0.25
873.492	4.25
874.229	1.25
874.967	2.25
875.703	2.25
876.44	0.25
877.177	2.25
877.914	1.25
878.651	2.25
879.387	1.25
880.124	2.25
880.86	1.25
881.597	-1.75
882.333	1.25
883.069	-0.75
883.806	2.25
884.542	-0.75
885.278	1.25
886.014	0.25
886.749	0.25
887.485	2.25
888.221	1.25
888.957	0.25
889.692	-0.75
890.428	-0.75
891.163	0.25
891.899	1.25
892.634	2.25
893.369	-0.75
894.104	2.25
894.839	-1.75
895.574	1.25
896.309	0.25
897.044	0.25
897.779	2.25
898.514	1.25
899.248	0.25
899.983	0.25
900.717	0.25
901.452	0.25
902.186	-1.75
902.92	1.25
903.654	1.25
904.389	2.25
905.123	0.25
905.857	-0.75
906.59	-0.75
907.324	-1.75
908.058	-0.75
908.792	-1.75
909.525	-1.75
910.259	1.25
910.992	1.25
911.726	0.25
912.459	1.25
913.192	0.25
913.925	1.25
914.658	2.25
915.391	1.25
916.124	-0.75
916.857	0.25
917.59	0.25
918.323	1.25
919.055	0.25
919.788	-1.75
920.521	0.25
921.253	-0.75
921.985	0.25
922.718	0.25
923.45	-0.75
924.182	0.25
924.914	-0.75
925.646	1.25
926.378	0.25
927.11	-0.75
927.841	0.25
928.573	-1.75
929.305	-0.75
930.036	0.25
930.768	0.25
931.499	0.25
932.23	0.25
932.962	0.25
933.693	-1.75
934.424	-0.75
935.155	-0.75
935.886	0.25
936.617	0.25
937.348	0.25
938.078	-0.75
938.809	-0.75
939.54	0.25
940.27	2.25
941.001	-0.75
941.731	-0.75
942.461	-0.75
943.191	1.25
943.922	-0.75
944.652	0.25
945.382	0.25
946.112	1.25
946.841	0.25
947.571	-0.75
948.301	1.25
949.031	0.25
949.76	-0.75
950.49	-0.75
951.219	-1.75
951.948	1.25
952.678	-0.75
953.407	-1.75
954.136	-1.75
954.865	-0.75
955.594	0.25
956.323	0.25
957.052	1.25
957.78	-0.75
958.509	-0.75
959.238	0.25
959.966	0.25
960.695	-0.75
961.423	-3.75
962.151	-1.75
962.88	1.25
963.608	-0.75
964.336	1.25
965.064	-1.75
965.792	-1.75
966.52	0.25
967.247	-0.75
967.975	1.25
968.703	-0.75
969.43	-0.75
970.158	1.25
970.885	-0.75
971.613	-0.75
972.34	-0.75
973.067	-0.75
973.794	-2.75
974.521	-1.75
975.248	-0.75
975.975	1.25
976.702	0.25
977.429	0.25
978.156	1.25
978.882	-0.75
979.609	0.25
980.335	0.25
981.062	-2.75
981.788	0.25
982.514	-1.75
983.24	-1.75
983.967	-1.75
984.693	-1.75
985.419	1.25
986.144	-1.75
986.87	1.25
987.596	1.25
988.322	0.25
989.047	0.25
989.773	2.25
990.498	-0.75
991.224	0.25
991.949	0.25
992.674	-2.75
993.399	1.25
994.124	2.25
994.849	1.25
995.574	1.25
996.299	-0.75
997.024	-0.75
997.749	-0.75
998.473	-1.75
999.198	0.25
999.922	-2.75
1000.647	0.25
1001.371	3.25
1002.095	-0.75
1002.82	-1.75
1003.544	-0.75
1004.268	3.25
1004.992	4.25
1005.716	6.25
1006.439	2.25
1007.163	6.25
1007.887	4.25
1008.611	-1.75
1009.334	0.25
1010.058	-2.75
1010.781	0.25
1011.504	0.25
1012.228	0.25
1012.951	1.25
1013.674	0.25
1014.397	-0.75
1015.12	-0.75
