节点500_705_QEPB04081__272__20-49-50-426.txt的数据

Date: Wed Nov 12 20:49:50 CST 2025
User: PC
Spectrometer: QEPB0408
触发模式: 0
积分时间 (秒): 1.000000E-2
Scans to average: 1
启用暗噪声校正: true
启用非线性校正: false
滑动平均宽度: 0
X轴模式: Wavelengths
Number of Pixels in Spectrum: 1044
>>>>>Begin Spectral Data<<<<<
220.843	7.12
221.644	6.12
222.444	7.12
223.244	6.12
224.045	7.12
224.845	7.12
225.645	8.12
226.445	10.12
227.245	11.12
228.045	8.12
228.845	8.12
229.645	8.12
230.444	8.12
231.244	9.12
232.043	8.12
232.843	9.12
233.642	12.12
234.442	13.12
235.241	11.12
236.04	11.12
236.839	11.12
237.638	8.12
238.437	9.12
239.236	10.12
240.035	13.12
240.833	11.12
241.632	11.12
242.43	12.12
243.229	10.12
244.027	13.12
244.826	14.12
245.624	12.12
246.422	13.12
247.22	15.12
248.018	13.12
248.816	13.12
249.614	17.12
250.412	17.12
251.21	17.12
252.007	15.12
252.805	17.12
253.602	21.12
254.4	19.12
255.197	17.12
255.994	21.12
256.791	20.12
257.589	20.12
258.386	19.12
259.183	24.12
259.979	23.12
260.776	23.12
261.573	23.12
262.37	25.12
263.166	26.12
263.963	24.12
264.759	26.12
265.556	28.12
266.352	28.12
267.148	28.12
267.944	28.12
268.74	31.12
269.536	31.12
270.332	30.12
271.128	33.12
271.924	31.12
272.719	35.12
273.515	34.12
274.311	34.12
275.106	33.12
275.901	34.12
276.697	35.12
277.492	32.12
278.287	37.12
279.082	37.12
279.877	37.12
280.672	36.12
281.467	32.12
282.262	34.12
283.056	36.12
283.851	37.12
284.646	35.12
285.44	36.12
286.234	38.12
287.029	33.12
287.823	32.12
288.617	31.12
289.411	33.12
290.205	35.12
290.999	31.12
291.793	31.12
292.587	34.12
293.381	28.12
294.174	32.12
294.968	30.12
295.761	30.12
296.555	27.12
297.348	27.12
298.141	25.12
298.935	30.12
299.728	27.12
300.521	24.12
301.314	24.12
302.107	25.12
302.899	24.12
303.692	24.12
304.485	22.12
305.277	24.12
306.07	23.12
306.862	22.12
307.655	22.12
308.447	24.12
309.239	20.12
310.031	18.12
310.823	19.12
311.615	19.12
312.407	17.12
313.199	18.12
313.991	19.12
314.783	17.12
315.574	14.12
316.366	17.12
317.157	15.12
317.949	17.12
318.74	15.12
319.531	12.12
320.322	15.12
321.113	15.12
321.904	14.12
322.695	15.12
323.486	15.12
324.277	15.12
325.068	13.12
325.858	11.12
326.649	13.12
327.439	13.12
328.23	13.12
329.02	12.12
329.81	11.12
330.6	13.12
331.391	12.12
332.181	13.12
332.971	13.12
333.76	14.12
334.55	16.12
335.34	10.12
336.13	11.12
336.919	11.12
337.709	13.12
338.498	12.12
339.287	12.12
340.077	11.12
340.866	12.12
341.655	11.12
342.444	11.12
343.233	10.12
344.022	12.12
344.811	13.12
345.6	12.12
346.388	13.12
347.177	11.12
347.965	13.12
348.754	15.12
349.542	12.12
350.33	12.12
351.119	13.12
351.907	12.12
352.695	11.12
353.483	11.12
354.271	12.12
355.059	9.12
355.846	11.12
356.634	11.12
357.422	10.12
358.209	13.12
358.997	9.12
359.784	10.12
360.571	9.12
361.359	10.12
362.146	9.12
362.933	12.12
363.72	10.12
364.507	9.12
365.294	12.12
366.081	6.12
366.867	10.12
367.654	10.12
368.44	11.12
369.227	8.12
370.013	8.12
370.8	9.12
371.586	9.12
372.372	10.12
373.158	11.12
373.944	6.12
374.73	10.12
375.516	11.12
376.302	12.12
377.088	10.12
377.873	8.12
378.659	10.12
379.445	10.12
380.23	11.12
381.015	12.12
381.801	10.12
382.586	9.12
383.371	10.12
384.156	9.12
384.941	13.12
385.726	12.12
386.511	12.12
387.296	13.12
388.08	12.12
388.865	14.12
389.649	11.12
390.434	11.12
391.218	9.12
392.003	15.12
392.787	15.12
393.571	14.12
394.355	10.12
395.139	14.12
395.923	15.12
396.707	13.12
397.491	13.12
398.274	12.12
399.058	13.12
399.842	12.12
400.625	13.12
401.408	15.12
402.192	14.12
402.975	15.12
403.758	13.12
404.541	15.12
405.324	15.12
406.107	14.12
406.89	15.12
407.673	17.12
408.456	13.12
409.238	15.12
410.021	16.12
410.803	15.12
411.586	18.12
412.368	16.12
413.151	18.12
413.933	20.12
414.715	17.12
415.497	21.12
416.279	21.12
417.061	21.12
417.843	19.12
418.624	20.12
419.406	21.12
420.188	21.12
420.969	19.12
421.751	23.12
422.532	23.12
423.313	21.12
424.095	23.12
424.876	26.12
425.657	28.12
426.438	25.12
427.219	26.12
428	27.12
428.78	29.12
429.561	30.12
430.342	30.12
431.122	34.12
431.903	31.12
432.683	33.12
433.464	32.12
434.244	36.12
435.024	41.12
435.804	39.12
436.584	45.12
437.364	43.12
438.144	47.12
438.924	51.12
439.704	53.12
440.483	56.12
441.263	60.12
442.042	62.12
442.822	68.12
443.601	75.12
444.38	81.12
445.16	84.12
445.939	94.12
446.718	101.12
447.497	112.12
448.276	119.12
449.054	135.12
449.833	143.12
450.612	159.12
451.391	177.12
452.169	189.12
452.948	218.12
453.726	233.12
454.504	264.12
455.282	295.12
456.061	322.12
456.839	361.12
457.617	401.12
458.395	448.12
459.172	501.12
459.95	562.12
460.728	625.12
461.506	696.12
462.283	775.12
463.061	867.12
463.838	960.12
464.615	1074.12
465.393	1208.12
466.17	1336.12
466.947	1491.12
467.724	1642.12
468.501	1836.12
469.278	2047.12
470.055	2239.12
470.831	2494.12
471.608	2749.12
472.385	3042.12
473.161	3348.12
473.938	3680.12
474.714	4075.12
475.49	4476.12
476.266	4890.12
477.043	5361.12
477.819	5846.12
478.595	6394.12
479.371	7024.12
480.146	7719.12
480.922	8366.12
481.698	9130.12
482.473	9977.12
483.249	10809.12
484.024	11740.12
484.8	12749.12
485.575	13857.12
486.35	15011.12
487.126	16336.12
487.901	17627.12
488.676	19041.12
489.451	20582.12
490.225	22071.12
491	23754.12
491.775	25391.12
492.55	27127.12
493.324	28970.12
494.099	30732.12
494.873	32494.12
495.647	34381.12
496.422	36291.12
497.196	38035.12
497.97	39633.12
498.744	41212.12
499.518	42818.12
500.292	44186.12
501.066	45194.12
501.839	46047.12
502.613	46840.12
503.387	47379.12
504.16	47740.12
504.934	47806.12
505.707	47691.12
506.48	47295.12
507.253	46681.12
508.027	45985.12
508.8	44900.12
509.573	43778.12
510.346	42711.12
511.118	41610.12
511.891	40290.12
512.664	38778.12
513.437	37261.12
514.209	35771.12
514.982	34424.12
515.754	33024.12
516.526	31562.12
517.298	30388.12
518.071	29107.12
518.843	28009.12
519.615	26828.12
520.387	25893.12
521.159	24838.12
521.93	23753.12
522.702	22761.12
523.474	21789.12
524.245	20869.12
525.017	19963.12
525.788	19062.12
526.56	18283.12
527.331	17454.12
528.102	16533.12
528.873	15684.12
529.644	14969.12
530.415	14303.12
531.186	13562.12
531.957	12888.12
532.728	12198.12
533.498	11540.12
534.269	10917.12
535.039	10335.12
535.81	9782.12
536.58	9222.12
537.351	8783.12
538.121	8287.12
538.891	7871.12
539.661	7425.12
540.431	7042.12
541.201	6673.12
541.971	6307.12
542.741	5979.12
543.51	5655.12
544.28	5416.12
545.05	5163.12
545.819	4913.12
546.588	4676.12
547.358	4434.12
548.127	4216.12
548.896	4026.12
549.665	3789.12
550.434	3606.12
551.203	3427.12
551.972	3240.12
552.741	3078.12
553.51	2877.12
554.278	2723.12
555.047	2580.12
555.815	2439.12
556.584	2305.12
557.352	2175.12
558.121	2072.12
558.889	1938.12
559.657	1828.12
560.425	1743.12
561.193	1642.12
561.961	1560.12
562.729	1484.12
563.496	1387.12
564.264	1323.12
565.032	1245.12
565.799	1158.12
566.567	1111.12
567.334	1055.12
568.101	997.12
568.869	946.12
569.636	883.12
570.403	832.12
571.17	793.12
571.937	750.12
572.704	701.12
573.471	670.12
574.237	626.12
575.004	587.12
575.771	548.12
576.537	536.12
577.303	499.12
578.07	467.12
578.836	438.12
579.602	419.12
580.368	398.12
581.134	382.12
581.9	359.12
582.666	341.12
583.432	333.12
584.198	313.12
584.964	296.12
585.729	277.12
586.495	261.12
587.26	254.12
588.025	233.12
588.791	224.12
589.556	211.12
590.321	196.12
591.086	191.12
591.851	182.12
592.616	181.12
593.381	168.12
594.146	161.12
594.911	151.12
595.675	146.12
596.44	142.12
597.204	132.12
597.969	127.12
598.733	117.12
599.497	114.12
600.261	109.12
601.025	105.12
601.79	104.12
602.553	95.12
603.317	96.12
604.081	92.12
604.845	90.12
605.609	83.12
606.372	82.12
607.136	77.12
607.899	73.12
608.662	69.12
609.426	67.12
610.189	64.12
610.952	65.12
611.715	59.12
612.478	61.12
613.241	57.12
614.004	55.12
614.767	55.12
615.529	51.12
616.292	54.12
617.055	49.12
617.817	47.12
618.579	45.12
619.342	43.12
620.104	43.12
620.866	42.12
621.628	41.12
622.39	37.12
623.152	39.12
623.914	36.12
624.676	36.12
625.438	35.12
626.199	33.12
626.961	33.12
627.722	31.12
628.484	31.12
629.245	29.12
630.006	25.12
630.768	27.12
631.529	27.12
632.29	30.12
633.051	27.12
633.812	24.12
634.573	23.12
635.333	23.12
636.094	25.12
636.855	22.12
637.615	22.12
638.376	20.12
639.136	21.12
639.896	21.12
640.657	21.12
641.417	18.12
642.177	19.12
642.937	18.12
643.697	18.12
644.457	19.12
645.216	16.12
645.976	19.12
646.736	18.12
647.495	16.12
648.255	17.12
649.014	17.12
649.774	16.12
650.533	14.12
651.292	19.12
652.051	14.12
652.81	14.12
653.569	13.12
654.328	13.12
655.087	11.12
655.846	14.12
656.604	13.12
657.363	12.12
658.121	12.12
658.88	13.12
659.638	12.12
660.397	13.12
661.155	10.12
661.913	13.12
662.671	12.12
663.429	11.12
664.187	10.12
664.945	10.12
665.703	11.12
666.46	10.12
667.218	10.12
667.976	11.12
668.733	12.12
669.49	9.12
670.248	8.12
671.005	8.12
671.762	10.12
672.519	8.12
673.276	10.12
674.033	10.12
674.79	6.12
675.547	8.12
676.304	9.12
677.06	11.12
677.817	12.12
678.574	11.12
679.33	11.12
680.086	10.12
680.843	9.12
681.599	8.12
682.355	11.12
683.111	9.12
683.867	6.12
684.623	8.12
685.379	11.12
686.135	8.12
686.89	9.12
687.646	9.12
688.402	6.12
689.157	7.12
689.912	8.12
690.668	7.12
691.423	7.12
692.178	9.12
692.933	9.12
693.688	7.12
694.443	9.12
695.198	8.12
695.953	7.12
696.708	8.12
697.462	10.12
698.217	9.12
698.972	6.12
699.726	7.12
700.48	8.12
701.235	7.12
701.989	7.12
702.743	7.12
703.497	6.12
704.251	7.12
705.005	8.12
705.759	6.12
706.513	8.12
707.266	6.12
708.02	9.12
708.774	8.12
709.527	9.12
710.28	7.12
711.034	9.12
711.787	7.12
712.54	7.12
713.293	7.12
714.046	8.12
714.799	7.12
715.552	10.12
716.305	9.12
717.058	10.12
717.81	6.12
718.563	8.12
719.315	9.12
720.068	7.12
720.82	7.12
721.573	9.12
722.325	6.12
723.077	7.12
723.829	8.12
724.581	8.12
725.333	10.12
726.085	8.12
726.836	10.12
727.588	7.12
728.34	8.12
729.091	8.12
729.843	11.12
730.594	7.12
731.346	13.12
732.097	9.12
732.848	8.12
733.599	9.12
734.35	13.12
735.101	10.12
735.852	10.12
736.603	10.12
737.354	10.12
738.104	10.12
738.855	10.12
739.605	12.12
740.356	10.12
741.106	11.12
741.856	8.12
742.607	11.12
743.357	9.12
744.107	11.12
744.857	11.12
745.607	9.12
746.357	11.12
747.106	9.12
747.856	14.12
748.606	12.12
749.355	11.12
750.105	12.12
750.854	10.12
751.603	11.12
752.353	10.12
753.102	11.12
753.851	13.12
754.6	12.12
755.349	14.12
756.098	12.12
756.847	13.12
757.595	15.12
758.344	12.12
759.093	13.12
759.841	10.12
760.589	13.12
761.338	10.12
762.086	11.12
762.834	12.12
763.582	14.12
764.331	13.12
765.079	11.12
765.826	11.12
766.574	13.12
767.322	15.12
768.07	14.12
768.817	13.12
769.565	15.12
770.312	15.12
771.06	11.12
771.807	17.12
772.554	16.12
773.302	17.12
774.049	15.12
774.796	14.12
775.543	15.12
776.29	14.12
777.036	13.12
777.783	17.12
778.53	18.12
779.276	16.12
780.023	15.12
780.769	16.12
781.516	17.12
782.262	16.12
783.008	15.12
783.754	17.12
784.5	16.12
785.246	18.12
785.992	17.12
786.738	14.12
787.484	16.12
788.23	15.12
788.975	18.12
789.721	15.12
790.466	18.12
791.212	14.12
791.957	13.12
792.702	13.12
793.447	13.12
794.193	17.12
794.938	15.12
795.683	13.12
796.427	13.12
797.172	15.12
797.917	17.12
798.662	15.12
799.406	13.12
800.151	13.12
800.895	13.12
801.64	14.12
802.384	11.12
803.128	16.12
803.872	12.12
804.616	11.12
805.36	13.12
806.104	9.12
806.848	12.12
807.592	10.12
808.336	10.12
809.079	12.12
809.823	10.12
810.566	12.12
811.31	9.12
812.053	8.12
812.796	8.12
813.539	11.12
814.283	9.12
815.026	7.12
815.769	9.12
816.511	11.12
817.254	8.12
817.997	8.12
818.74	11.12
819.482	8.12
820.225	6.12
820.967	8.12
821.71	5.12
822.452	8.12
823.194	7.12
823.936	6.12
824.678	10.12
825.42	7.12
826.162	5.12
826.904	7.12
827.646	6.12
828.388	7.12
829.129	3.12
829.871	7.12
830.612	8.12
831.354	8.12
832.095	7.12
832.836	6.12
833.577	8.12
834.319	6.12
835.06	7.12
835.801	5.12
836.542	6.12
837.282	7.12
838.023	6.12
838.764	7.12
839.504	8.12
840.245	4.12
840.985	5.12
841.726	5.12
842.466	8.12
843.206	4.12
843.946	7.12
844.687	4.12
845.427	7.12
846.166	7.12
846.906	6.12
847.646	4.12
848.386	6.12
849.125	6.12
849.865	5.12
850.605	5.12
851.344	5.12
852.083	4.12
852.823	6.12
853.562	6.12
854.301	4.12
855.04	5.12
855.779	3.12
856.518	4.12
857.257	3.12
857.995	3.12
858.734	5.12
859.473	4.12
860.211	5.12
860.95	2.12
861.688	6.12
862.426	6.12
863.165	3.12
863.903	3.12
864.641	3.12
865.379	4.12
866.117	3.12
866.855	4.12
867.593	1.12
868.33	4.12
869.068	3.12
869.806	2.12
870.543	2.12
871.28	4.12
872.018	3.12
872.755	3.12
873.492	2.12
874.229	3.12
874.967	3.12
875.703	2.12
876.44	1.12
877.177	5.12
877.914	2.12
878.651	1.12
879.387	3.12
880.124	1.12
880.86	1.12
881.597	3.12
882.333	0.12
883.069	2.12
883.806	3.12
884.542	1.12
885.278	3.12
886.014	0.12
886.749	1.12
887.485	0.12
888.221	0.12
888.957	2.12
889.692	3.12
890.428	3.12
891.163	0.12
891.899	1.12
892.634	-0.88
893.369	3.12
894.104	1.12
894.839	1.12
895.574	0.12
896.309	1.12
897.044	2.12
897.779	2.12
898.514	2.12
899.248	1.12
899.983	2.12
900.717	2.12
901.452	0.12
902.186	3.12
902.92	3.12
903.654	2.12
904.389	1.12
905.123	2.12
905.857	2.12
906.59	1.12
907.324	2.12
908.058	3.12
908.792	-3.88
909.525	4.12
910.259	1.12
910.992	3.12
911.726	2.12
912.459	1.12
913.192	0.12
913.925	0.12
914.658	0.12
915.391	0.12
916.124	0.12
916.857	1.12
917.59	0.12
918.323	3.12
919.055	1.12
919.788	2.12
920.521	1.12
921.253	1.12
921.985	2.12
922.718	0.12
923.45	1.12
924.182	-0.88
924.914	1.12
925.646	2.12
926.378	-0.88
927.11	2.12
927.841	0.12
928.573	1.12
929.305	1.12
930.036	0.12
930.768	0.12
931.499	1.12
932.23	0.12
932.962	0.12
933.693	-1.88
934.424	1.12
935.155	0.12
935.886	3.12
936.617	0.12
937.348	-0.88
938.078	1.12
938.809	-2.88
939.54	-0.88
940.27	1.12
941.001	1.12
941.731	1.12
942.461	1.12
943.191	1.12
943.922	1.12
944.652	1.12
945.382	-0.88
946.112	1.12
946.841	2.12
947.571	1.12
948.301	1.12
949.031	-2.88
949.76	1.12
950.49	-0.88
951.219	2.12
951.948	0.12
952.678	1.12
953.407	1.12
954.136	0.12
954.865	1.12
955.594	0.12
956.323	0.12
957.052	1.12
957.78	1.12
958.509	2.12
959.238	-2.88
959.966	1.12
960.695	1.12
961.423	2.12
962.151	1.12
962.88	-1.88
963.608	-0.88
964.336	1.12
965.064	-0.88
965.792	1.12
966.52	1.12
967.247	-0.88
967.975	-0.88
968.703	0.12
969.43	1.12
970.158	-0.88
970.885	1.12
971.613	3.12
972.34	0.12
973.067	0.12
973.794	1.12
974.521	1.12
975.248	0.12
975.975	-0.88
976.702	-0.88
977.429	0.12
978.156	0.12
978.882	1.12
979.609	0.12
980.335	1.12
981.062	1.12
981.788	0.12
982.514	3.12
983.24	0.12
983.967	-1.88
984.693	0.12
985.419	2.12
986.144	-0.88
986.87	0.12
987.596	0.12
988.322	5.12
989.047	0.12
989.773	2.12
990.498	-0.88
991.224	2.12
991.949	0.12
992.674	1.12
993.399	-0.88
994.124	0.12
994.849	1.12
995.574	0.12
996.299	1.12
997.024	0.12
997.749	-0.88
998.473	1.12
999.198	-0.88
999.922	1.12
1000.647	0.12
1001.371	4.12
1002.095	-0.88
1002.82	1.12
1003.544	-0.88
1004.268	5.12
1004.992	4.12
1005.716	6.12
1006.439	3.12
1007.163	7.12
1007.887	4.12
1008.611	1.12
1009.334	0.12
1010.058	-0.88
1010.781	2.12
1011.504	0.12
1012.228	1.12
1012.951	-1.88
1013.674	-1.88
1014.397	2.12
1015.12	-1.88
