节点500_705_QEPB04081__576__20-54-07-754.txt的数据

Date: Wed Nov 12 20:54:07 CST 2025
User: PC
Spectrometer: QEPB0408
触发模式: 0
积分时间 (秒): 1.000000E-2
Scans to average: 1
启用暗噪声校正: true
启用非线性校正: false
滑动平均宽度: 0
X轴模式: Wavelengths
Number of Pixels in Spectrum: 1044
>>>>>Begin Spectral Data<<<<<
220.843	4.38
221.644	3.38
222.444	3.38
223.244	4.38
224.045	6.38
224.845	4.38
225.645	5.38
226.445	5.38
227.245	7.38
228.045	7.38
228.845	7.38
229.645	9.38
230.444	7.38
231.244	7.38
232.043	8.38
232.843	8.38
233.642	9.38
234.442	7.38
235.241	9.38
236.04	9.38
236.839	10.38
237.638	9.38
238.437	8.38
239.236	11.38
240.035	10.38
240.833	9.38
241.632	12.38
242.43	12.38
243.229	12.38
244.027	11.38
244.826	9.38
245.624	10.38
246.422	10.38
247.22	11.38
248.018	11.38
248.816	12.38
249.614	14.38
250.412	15.38
251.21	13.38
252.007	14.38
252.805	13.38
253.602	13.38
254.4	17.38
255.197	14.38
255.994	17.38
256.791	16.38
257.589	17.38
258.386	19.38
259.183	19.38
259.979	17.38
260.776	18.38
261.573	22.38
262.37	20.38
263.166	22.38
263.963	22.38
264.759	23.38
265.556	23.38
266.352	22.38
267.148	23.38
267.944	27.38
268.74	21.38
269.536	27.38
270.332	27.38
271.128	26.38
271.924	26.38
272.719	29.38
273.515	28.38
274.311	29.38
275.106	29.38
275.901	30.38
276.697	28.38
277.492	30.38
278.287	30.38
279.082	31.38
279.877	31.38
280.672	30.38
281.467	30.38
282.262	32.38
283.056	29.38
283.851	31.38
284.646	30.38
285.44	28.38
286.234	27.38
287.029	33.38
287.823	28.38
288.617	30.38
289.411	30.38
290.205	30.38
290.999	31.38
291.793	30.38
292.587	29.38
293.381	23.38
294.174	28.38
294.968	28.38
295.761	26.38
296.555	27.38
297.348	22.38
298.141	24.38
298.935	29.38
299.728	24.38
300.521	22.38
301.314	21.38
302.107	22.38
302.899	21.38
303.692	20.38
304.485	25.38
305.277	21.38
306.07	18.38
306.862	20.38
307.655	21.38
308.447	22.38
309.239	21.38
310.031	22.38
310.823	16.38
311.615	19.38
312.407	16.38
313.199	16.38
313.991	16.38
314.783	16.38
315.574	14.38
316.366	14.38
317.157	16.38
317.949	14.38
318.74	16.38
319.531	12.38
320.322	15.38
321.113	12.38
321.904	12.38
322.695	14.38
323.486	10.38
324.277	12.38
325.068	11.38
325.858	12.38
326.649	12.38
327.439	9.38
328.23	11.38
329.02	11.38
329.81	12.38
330.6	9.38
331.391	12.38
332.181	10.38
332.971	12.38
333.76	11.38
334.55	10.38
335.34	11.38
336.13	11.38
336.919	12.38
337.709	10.38
338.498	10.38
339.287	10.38
340.077	10.38
340.866	12.38
341.655	11.38
342.444	10.38
343.233	12.38
344.022	10.38
344.811	10.38
345.6	10.38
346.388	8.38
347.177	10.38
347.965	11.38
348.754	11.38
349.542	12.38
350.33	9.38
351.119	11.38
351.907	12.38
352.695	11.38
353.483	8.38
354.271	11.38
355.059	9.38
355.846	10.38
356.634	10.38
357.422	9.38
358.209	10.38
358.997	8.38
359.784	10.38
360.571	8.38
361.359	9.38
362.146	11.38
362.933	8.38
363.72	11.38
364.507	9.38
365.294	6.38
366.081	8.38
366.867	8.38
367.654	6.38
368.44	8.38
369.227	9.38
370.013	9.38
370.8	8.38
371.586	10.38
372.372	7.38
373.158	8.38
373.944	10.38
374.73	11.38
375.516	9.38
376.302	8.38
377.088	11.38
377.873	9.38
378.659	8.38
379.445	9.38
380.23	7.38
381.015	9.38
381.801	8.38
382.586	8.38
383.371	9.38
384.156	9.38
384.941	10.38
385.726	9.38
386.511	11.38
387.296	8.38
388.08	10.38
388.865	10.38
389.649	10.38
390.434	10.38
391.218	9.38
392.003	11.38
392.787	10.38
393.571	10.38
394.355	11.38
395.139	10.38
395.923	12.38
396.707	12.38
397.491	10.38
398.274	11.38
399.058	12.38
399.842	12.38
400.625	11.38
401.408	13.38
402.192	10.38
402.975	12.38
403.758	14.38
404.541	10.38
405.324	13.38
406.107	14.38
406.89	14.38
407.673	14.38
408.456	13.38
409.238	14.38
410.021	13.38
410.803	15.38
411.586	17.38
412.368	14.38
413.151	15.38
413.933	16.38
414.715	15.38
415.497	16.38
416.279	17.38
417.061	17.38
417.843	15.38
418.624	19.38
419.406	16.38
420.188	18.38
420.969	19.38
421.751	18.38
422.532	24.38
423.313	20.38
424.095	23.38
424.876	22.38
425.657	23.38
426.438	23.38
427.219	23.38
428	27.38
428.78	26.38
429.561	25.38
430.342	27.38
431.122	28.38
431.903	32.38
432.683	32.38
433.464	33.38
434.244	34.38
435.024	39.38
435.804	39.38
436.584	41.38
437.364	48.38
438.144	48.38
438.924	53.38
439.704	53.38
440.483	56.38
441.263	62.38
442.042	69.38
442.822	70.38
443.601	79.38
444.38	81.38
445.16	89.38
445.939	100.38
446.718	107.38
447.497	117.38
448.276	131.38
449.054	141.38
449.833	158.38
450.612	176.38
451.391	186.38
452.169	209.38
452.948	234.38
453.726	255.38
454.504	287.38
455.282	316.38
456.061	352.38
456.839	393.38
457.617	440.38
458.395	488.38
459.172	539.38
459.95	599.38
460.728	671.38
461.506	736.38
462.283	819.38
463.061	905.38
463.838	1012.38
464.615	1124.38
465.393	1253.38
466.17	1388.38
466.947	1534.38
467.724	1693.38
468.501	1878.38
469.278	2067.38
470.055	2278.38
470.831	2501.38
471.608	2751.38
472.385	3004.38
473.161	3300.38
473.938	3602.38
474.714	3978.38
475.49	4323.38
476.266	4718.38
477.043	5126.38
477.819	5574.38
478.595	6078.38
479.371	6588.38
480.146	7156.38
480.922	7785.38
481.698	8433.38
482.473	9122.38
483.249	9856.38
484.024	10635.38
484.8	11561.38
485.575	12440.38
486.35	13448.38
487.126	14505.38
487.901	15502.38
488.676	16749.38
489.451	18032.38
490.225	19324.38
491	20650.38
491.775	22118.38
492.55	23556.38
493.324	25044.38
494.099	26586.38
494.873	28178.38
495.647	29744.38
496.422	31326.38
497.196	32991.38
497.97	34489.38
498.744	36006.38
499.518	37533.38
500.292	38892.38
501.066	39952.38
501.839	40950.38
502.613	41808.38
503.387	42698.38
504.16	43270.38
504.934	43627.38
505.707	43829.38
506.48	43903.38
507.253	43572.38
508.027	43233.38
508.8	42653.38
509.573	42043.38
510.346	41234.38
511.118	40444.38
511.891	39457.38
512.664	38196.38
513.437	36897.38
514.209	35737.38
514.982	34410.38
515.754	33208.38
516.526	31936.38
517.298	30698.38
518.071	29566.38
518.843	28381.38
519.615	27320.38
520.387	26188.38
521.159	25203.38
521.93	24182.38
522.702	23123.38
523.474	22152.38
524.245	21315.38
525.017	20476.38
525.788	19644.38
526.56	18799.38
527.331	18040.38
528.102	17146.38
528.873	16323.38
529.644	15568.38
530.415	14891.38
531.186	14185.38
531.957	13478.38
532.728	12820.38
533.498	12153.38
534.269	11549.38
535.039	10936.38
535.81	10379.38
536.58	9829.38
537.351	9313.38
538.121	8833.38
538.891	8335.38
539.661	7919.38
540.431	7472.38
541.201	7091.38
541.971	6732.38
542.741	6369.38
543.51	6050.38
544.28	5762.38
545.05	5482.38
545.819	5225.38
546.588	4988.38
547.358	4746.38
548.127	4506.38
548.896	4296.38
549.665	4075.38
550.434	3869.38
551.203	3658.38
551.972	3487.38
552.741	3320.38
553.51	3108.38
554.278	2928.38
555.047	2778.38
555.815	2648.38
556.584	2510.38
557.352	2366.38
558.121	2231.38
558.889	2140.38
559.657	1983.38
560.425	1886.38
561.193	1798.38
561.961	1687.38
562.729	1613.38
563.496	1514.38
564.264	1434.38
565.032	1358.38
565.799	1287.38
566.567	1209.38
567.334	1140.38
568.101	1075.38
568.869	1030.38
569.636	961.38
570.403	902.38
571.17	861.38
571.937	804.38
572.704	763.38
573.471	720.38
574.237	686.38
575.004	645.38
575.771	606.38
576.537	566.38
577.303	540.38
578.07	510.38
578.836	483.38
579.602	462.38
580.368	439.38
581.134	412.38
581.9	396.38
582.666	384.38
583.432	362.38
584.198	332.38
584.964	321.38
585.729	306.38
586.495	288.38
587.26	270.38
588.025	253.38
588.791	244.38
589.556	229.38
590.321	217.38
591.086	208.38
591.851	201.38
592.616	190.38
593.381	181.38
594.146	173.38
594.911	166.38
595.675	155.38
596.44	153.38
597.204	142.38
597.969	141.38
598.733	132.38
599.497	123.38
600.261	120.38
601.025	108.38
601.79	106.38
602.553	107.38
603.317	100.38
604.081	96.38
604.845	96.38
605.609	88.38
606.372	83.38
607.136	80.38
607.899	82.38
608.662	73.38
609.426	73.38
610.189	68.38
610.952	69.38
611.715	62.38
612.478	61.38
613.241	56.38
614.004	58.38
614.767	53.38
615.529	48.38
616.292	53.38
617.055	50.38
617.817	47.38
618.579	46.38
619.342	44.38
620.104	43.38
620.866	44.38
621.628	42.38
622.39	38.38
623.152	42.38
623.914	36.38
624.676	34.38
625.438	38.38
626.199	29.38
626.961	34.38
627.722	33.38
628.484	29.38
629.245	30.38
630.006	27.38
630.768	28.38
631.529	26.38
632.29	28.38
633.051	24.38
633.812	25.38
634.573	26.38
635.333	19.38
636.094	22.38
636.855	23.38
637.615	21.38
638.376	22.38
639.136	21.38
639.896	19.38
640.657	21.38
641.417	18.38
642.177	19.38
642.937	16.38
643.697	17.38
644.457	15.38
645.216	19.38
645.976	15.38
646.736	14.38
647.495	16.38
648.255	15.38
649.014	13.38
649.774	15.38
650.533	14.38
651.292	14.38
652.051	12.38
652.81	13.38
653.569	13.38
654.328	14.38
655.087	13.38
655.846	11.38
656.604	11.38
657.363	13.38
658.121	12.38
658.88	10.38
659.638	10.38
660.397	12.38
661.155	12.38
661.913	9.38
662.671	8.38
663.429	9.38
664.187	8.38
664.945	10.38
665.703	10.38
666.46	10.38
667.218	8.38
667.976	9.38
668.733	10.38
669.49	9.38
670.248	7.38
671.005	10.38
671.762	8.38
672.519	6.38
673.276	6.38
674.033	10.38
674.79	10.38
675.547	10.38
676.304	9.38
677.06	7.38
677.817	5.38
678.574	7.38
679.33	8.38
680.086	7.38
680.843	5.38
681.599	8.38
682.355	9.38
683.111	9.38
683.867	8.38
684.623	7.38
685.379	8.38
686.135	6.38
686.89	6.38
687.646	8.38
688.402	6.38
689.157	2.38
689.912	8.38
690.668	6.38
691.423	7.38
692.178	8.38
692.933	6.38
693.688	6.38
694.443	6.38
695.198	7.38
695.953	5.38
696.708	6.38
697.462	8.38
698.217	6.38
698.972	6.38
699.726	7.38
700.48	6.38
701.235	7.38
701.989	6.38
702.743	8.38
703.497	6.38
704.251	8.38
705.005	7.38
705.759	7.38
706.513	7.38
707.266	5.38
708.02	9.38
708.774	5.38
709.527	6.38
710.28	7.38
711.034	8.38
711.787	6.38
712.54	6.38
713.293	6.38
714.046	7.38
714.799	8.38
715.552	5.38
716.305	5.38
717.058	6.38
717.81	8.38
718.563	4.38
719.315	6.38
720.068	8.38
720.82	8.38
721.573	8.38
722.325	4.38
723.077	4.38
723.829	7.38
724.581	9.38
725.333	6.38
726.085	5.38
726.836	4.38
727.588	5.38
728.34	7.38
729.091	6.38
729.843	9.38
730.594	9.38
731.346	9.38
732.097	7.38
732.848	9.38
733.599	9.38
734.35	8.38
735.101	8.38
735.852	10.38
736.603	8.38
737.354	9.38
738.104	7.38
738.855	9.38
739.605	9.38
740.356	8.38
741.106	8.38
741.856	10.38
742.607	10.38
743.357	10.38
744.107	10.38
744.857	7.38
745.607	9.38
746.357	8.38
747.106	7.38
747.856	9.38
748.606	7.38
749.355	7.38
750.105	7.38
750.854	8.38
751.603	10.38
752.353	9.38
753.102	9.38
753.851	8.38
754.6	10.38
755.349	10.38
756.098	10.38
756.847	11.38
757.595	11.38
758.344	11.38
759.093	11.38
759.841	9.38
760.589	9.38
761.338	12.38
762.086	12.38
762.834	10.38
763.582	11.38
764.331	11.38
765.079	11.38
765.826	11.38
766.574	11.38
767.322	14.38
768.07	10.38
768.817	14.38
769.565	14.38
770.312	14.38
771.06	13.38
771.807	11.38
772.554	13.38
773.302	14.38
774.049	12.38
774.796	14.38
775.543	11.38
776.29	13.38
777.036	14.38
777.783	14.38
778.53	14.38
779.276	12.38
780.023	15.38
780.769	16.38
781.516	13.38
782.262	13.38
783.008	14.38
783.754	13.38
784.5	14.38
785.246	16.38
785.992	11.38
786.738	15.38
787.484	14.38
788.23	11.38
788.975	14.38
789.721	11.38
790.466	13.38
791.212	14.38
791.957	15.38
792.702	12.38
793.447	12.38
794.193	14.38
794.938	10.38
795.683	11.38
796.427	10.38
797.172	11.38
797.917	12.38
798.662	11.38
799.406	12.38
800.151	13.38
800.895	11.38
801.64	10.38
802.384	12.38
803.128	8.38
803.872	9.38
804.616	10.38
805.36	8.38
806.104	8.38
806.848	10.38
807.592	8.38
808.336	9.38
809.079	10.38
809.823	9.38
810.566	9.38
811.31	10.38
812.053	6.38
812.796	5.38
813.539	10.38
814.283	8.38
815.026	9.38
815.769	6.38
816.511	7.38
817.254	6.38
817.997	7.38
818.74	9.38
819.482	7.38
820.225	6.38
820.967	6.38
821.71	7.38
822.452	7.38
823.194	6.38
823.936	7.38
824.678	4.38
825.42	8.38
826.162	7.38
826.904	6.38
827.646	6.38
828.388	3.38
829.129	6.38
829.871	3.38
830.612	5.38
831.354	4.38
832.095	4.38
832.836	4.38
833.577	5.38
834.319	5.38
835.06	5.38
835.801	7.38
836.542	5.38
837.282	7.38
838.023	6.38
838.764	5.38
839.504	6.38
840.245	6.38
840.985	5.38
841.726	6.38
842.466	4.38
843.206	6.38
843.946	4.38
844.687	4.38
845.427	4.38
846.166	4.38
846.906	4.38
847.646	3.38
848.386	3.38
849.125	4.38
849.865	3.38
850.605	4.38
851.344	4.38
852.083	4.38
852.823	4.38
853.562	3.38
854.301	3.38
855.04	2.38
855.779	4.38
856.518	2.38
857.257	3.38
857.995	4.38
858.734	2.38
859.473	4.38
860.211	1.38
860.95	3.38
861.688	3.38
862.426	2.38
863.165	4.38
863.903	2.38
864.641	3.38
865.379	0.38
866.117	3.38
866.855	1.38
867.593	2.38
868.33	2.38
869.068	2.38
869.806	2.38
870.543	1.38
871.28	2.38
872.018	2.38
872.755	2.38
873.492	2.38
874.229	-0.62
874.967	-0.62
875.703	3.38
876.44	2.38
877.177	0.38
877.914	2.38
878.651	0.38
879.387	0.38
880.124	1.38
880.86	0.38
881.597	0.38
882.333	0.38
883.069	0.38
883.806	2.38
884.542	1.38
885.278	1.38
886.014	1.38
886.749	1.38
887.485	2.38
888.221	-0.62
888.957	1.38
889.692	-0.62
890.428	2.38
891.163	1.38
891.899	0.38
892.634	-0.62
893.369	-1.62
894.104	1.38
894.839	2.38
895.574	0.38
896.309	0.38
897.044	-0.62
897.779	-0.62
898.514	2.38
899.248	1.38
899.983	-0.62
900.717	0.38
901.452	1.38
902.186	-0.62
902.92	0.38
903.654	0.38
904.389	-0.62
905.123	1.38
905.857	0.38
906.59	0.38
907.324	0.38
908.058	0.38
908.792	0.38
909.525	1.38
910.259	0.38
910.992	0.38
911.726	2.38
912.459	-1.62
913.192	0.38
913.925	-0.62
914.658	-0.62
915.391	1.38
916.124	-0.62
916.857	0.38
917.59	-2.62
918.323	1.38
919.055	0.38
919.788	-1.62
920.521	0.38
921.253	1.38
921.985	1.38
922.718	1.38
923.45	0.38
924.182	-0.62
924.914	-0.62
925.646	0.38
926.378	-0.62
927.11	0.38
927.841	-1.62
928.573	0.38
929.305	-0.62
930.036	-0.62
930.768	2.38
931.499	0.38
932.23	-2.62
932.962	-0.62
933.693	-0.62
934.424	1.38
935.155	-1.62
935.886	1.38
936.617	1.38
937.348	-1.62
938.078	1.38
938.809	-1.62
939.54	0.38
940.27	0.38
941.001	-3.62
941.731	-0.62
942.461	-0.62
943.191	-0.62
943.922	-0.62
944.652	1.38
945.382	-1.62
946.112	-2.62
946.841	1.38
947.571	0.38
948.301	0.38
949.031	-0.62
949.76	-3.62
950.49	-1.62
951.219	-1.62
951.948	-1.62
952.678	0.38
953.407	1.38
954.136	0.38
954.865	-1.62
955.594	-1.62
956.323	-1.62
957.052	0.38
957.78	3.38
958.509	-1.62
959.238	1.38
959.966	-0.62
960.695	-1.62
961.423	-1.62
962.151	-1.62
962.88	0.38
963.608	0.38
964.336	-1.62
965.064	-1.62
965.792	-0.62
966.52	0.38
967.247	0.38
967.975	-2.62
968.703	-0.62
969.43	0.38
970.158	-0.62
970.885	-1.62
971.613	0.38
972.34	0.38
973.067	0.38
973.794	-2.62
974.521	0.38
975.248	-1.62
975.975	1.38
976.702	-0.62
977.429	-0.62
978.156	-0.62
978.882	-1.62
979.609	-0.62
980.335	-0.62
981.062	2.38
981.788	0.38
982.514	-1.62
983.24	-1.62
983.967	0.38
984.693	0.38
985.419	1.38
986.144	-0.62
986.87	0.38
987.596	-1.62
988.322	-0.62
989.047	-0.62
989.773	-1.62
990.498	-2.62
991.224	-0.62
991.949	-0.62
992.674	-1.62
993.399	-1.62
994.124	0.38
994.849	0.38
995.574	0.38
996.299	-1.62
997.024	-0.62
997.749	-0.62
998.473	-0.62
999.198	0.38
999.922	-2.62
1000.647	-0.62
1001.371	2.38
1002.095	-0.62
1002.82	-0.62
1003.544	1.38
1004.268	5.38
1004.992	5.38
1005.716	1.38
1006.439	3.38
1007.163	5.38
1007.887	6.38
1008.611	-1.62
1009.334	-1.62
1010.058	0.38
1010.781	-0.62
1011.504	-1.62
1012.228	-1.62
1012.951	-1.62
1013.674	-0.62
1014.397	0.38
1015.12	-0.62
