节点500_705_QEPB04081__209__20-48-58-495.txt的数据

Date: Wed Nov 12 20:48:58 CST 2025
User: PC
Spectrometer: QEPB0408
触发模式: 0
积分时间 (秒): 1.000000E-2
Scans to average: 1
启用暗噪声校正: true
启用非线性校正: false
滑动平均宽度: 0
X轴模式: Wavelengths
Number of Pixels in Spectrum: 1044
>>>>>Begin Spectral Data<<<<<
220.843	7.62
221.644	4.62
222.444	6.62
223.244	1.62
224.045	5.62
224.845	5.62
225.645	7.62
226.445	6.62
227.245	6.62
228.045	6.62
228.845	5.62
229.645	7.62
230.444	8.62
231.244	9.62
232.043	11.62
232.843	7.62
233.642	7.62
234.442	7.62
235.241	9.62
236.04	11.62
236.839	7.62
237.638	13.62
238.437	10.62
239.236	10.62
240.035	11.62
240.833	11.62
241.632	13.62
242.43	9.62
243.229	14.62
244.027	13.62
244.826	13.62
245.624	12.62
246.422	15.62
247.22	12.62
248.018	12.62
248.816	14.62
249.614	14.62
250.412	17.62
251.21	15.62
252.007	14.62
252.805	16.62
253.602	17.62
254.4	17.62
255.197	16.62
255.994	20.62
256.791	23.62
257.589	18.62
258.386	21.62
259.183	21.62
259.979	21.62
260.776	21.62
261.573	25.62
262.37	24.62
263.166	22.62
263.963	26.62
264.759	25.62
265.556	24.62
266.352	28.62
267.148	30.62
267.944	29.62
268.74	28.62
269.536	29.62
270.332	32.62
271.128	28.62
271.924	33.62
272.719	32.62
273.515	32.62
274.311	33.62
275.106	33.62
275.901	36.62
276.697	35.62
277.492	35.62
278.287	36.62
279.082	36.62
279.877	32.62
280.672	34.62
281.467	37.62
282.262	36.62
283.056	35.62
283.851	34.62
284.646	36.62
285.44	34.62
286.234	34.62
287.029	31.62
287.823	33.62
288.617	34.62
289.411	32.62
290.205	33.62
290.999	34.62
291.793	28.62
292.587	30.62
293.381	30.62
294.174	29.62
294.968	28.62
295.761	27.62
296.555	27.62
297.348	25.62
298.141	25.62
298.935	25.62
299.728	25.62
300.521	23.62
301.314	21.62
302.107	23.62
302.899	23.62
303.692	23.62
304.485	24.62
305.277	19.62
306.07	20.62
306.862	20.62
307.655	20.62
308.447	18.62
309.239	18.62
310.031	19.62
310.823	17.62
311.615	18.62
312.407	16.62
313.199	16.62
313.991	17.62
314.783	16.62
315.574	14.62
316.366	14.62
317.157	16.62
317.949	13.62
318.74	16.62
319.531	14.62
320.322	14.62
321.113	13.62
321.904	13.62
322.695	14.62
323.486	13.62
324.277	13.62
325.068	12.62
325.858	14.62
326.649	10.62
327.439	11.62
328.23	12.62
329.02	12.62
329.81	10.62
330.6	13.62
331.391	11.62
332.181	11.62
332.971	11.62
333.76	11.62
334.55	13.62
335.34	12.62
336.13	13.62
336.919	10.62
337.709	10.62
338.498	13.62
339.287	13.62
340.077	10.62
340.866	11.62
341.655	10.62
342.444	11.62
343.233	10.62
344.022	8.62
344.811	10.62
345.6	11.62
346.388	9.62
347.177	8.62
347.965	11.62
348.754	13.62
349.542	12.62
350.33	10.62
351.119	11.62
351.907	10.62
352.695	11.62
353.483	10.62
354.271	12.62
355.059	10.62
355.846	11.62
356.634	11.62
357.422	12.62
358.209	11.62
358.997	11.62
359.784	10.62
360.571	11.62
361.359	9.62
362.146	8.62
362.933	9.62
363.72	9.62
364.507	8.62
365.294	7.62
366.081	10.62
366.867	10.62
367.654	7.62
368.44	10.62
369.227	10.62
370.013	8.62
370.8	6.62
371.586	7.62
372.372	11.62
373.158	9.62
373.944	9.62
374.73	8.62
375.516	10.62
376.302	8.62
377.088	8.62
377.873	12.62
378.659	6.62
379.445	8.62
380.23	9.62
381.015	9.62
381.801	8.62
382.586	8.62
383.371	8.62
384.156	11.62
384.941	10.62
385.726	10.62
386.511	11.62
387.296	10.62
388.08	9.62
388.865	12.62
389.649	10.62
390.434	9.62
391.218	11.62
392.003	11.62
392.787	11.62
393.571	11.62
394.355	11.62
395.139	11.62
395.923	14.62
396.707	11.62
397.491	12.62
398.274	11.62
399.058	11.62
399.842	13.62
400.625	16.62
401.408	12.62
402.192	13.62
402.975	10.62
403.758	12.62
404.541	13.62
405.324	12.62
406.107	15.62
406.89	14.62
407.673	16.62
408.456	13.62
409.238	13.62
410.021	16.62
410.803	15.62
411.586	14.62
412.368	16.62
413.151	17.62
413.933	17.62
414.715	18.62
415.497	18.62
416.279	20.62
417.061	19.62
417.843	19.62
418.624	19.62
419.406	21.62
420.188	22.62
420.969	22.62
421.751	20.62
422.532	23.62
423.313	21.62
424.095	25.62
424.876	25.62
425.657	24.62
426.438	28.62
427.219	28.62
428	26.62
428.78	26.62
429.561	28.62
430.342	29.62
431.122	29.62
431.903	30.62
432.683	33.62
433.464	37.62
434.244	37.62
435.024	37.62
435.804	42.62
436.584	41.62
437.364	46.62
438.144	44.62
438.924	48.62
439.704	55.62
440.483	56.62
441.263	61.62
442.042	60.62
442.822	65.62
443.601	74.62
444.38	78.62
445.16	87.62
445.939	91.62
446.718	104.62
447.497	103.62
448.276	117.62
449.054	126.62
449.833	145.62
450.612	157.62
451.391	167.62
452.169	184.62
452.948	212.62
453.726	235.62
454.504	254.62
455.282	293.62
456.061	321.62
456.839	359.62
457.617	395.62
458.395	444.62
459.172	487.62
459.95	554.62
460.728	607.62
461.506	689.62
462.283	778.62
463.061	865.62
463.838	961.62
464.615	1052.62
465.393	1193.62
466.17	1320.62
466.947	1470.62
467.724	1654.62
468.501	1829.62
469.278	2031.62
470.055	2247.62
470.831	2476.62
471.608	2752.62
472.385	3031.62
473.161	3336.62
473.938	3694.62
474.714	4057.62
475.49	4465.62
476.266	4925.62
477.043	5419.62
477.819	5915.62
478.595	6465.62
479.371	7084.62
480.146	7746.62
480.922	8483.62
481.698	9323.62
482.473	10120.62
483.249	11022.62
484.024	11948.62
484.8	13050.62
485.575	14166.62
486.35	15379.62
487.126	16695.62
487.901	18087.62
488.676	19533.62
489.451	21115.62
490.225	22725.62
491	24380.62
491.775	26146.62
492.55	27959.62
493.324	29821.62
494.099	31665.62
494.873	33478.62
495.647	35406.62
496.422	37325.62
497.196	39141.62
497.97	40729.62
498.744	42422.62
499.518	43880.62
500.292	45258.62
501.066	46293.62
501.839	47178.62
502.613	47826.62
503.387	48321.62
504.16	48583.62
504.934	48548.62
505.707	48418.62
506.48	47866.62
507.253	47184.62
508.027	46349.62
508.8	45229.62
509.573	44073.62
510.346	42806.62
511.118	41593.62
511.891	40309.62
512.664	38726.62
513.437	37174.62
514.209	35768.62
514.982	34317.62
515.754	32956.62
516.526	31491.62
517.298	30231.62
518.071	28976.62
518.843	27807.62
519.615	26738.62
520.387	25649.62
521.159	24687.62
521.93	23650.62
522.702	22617.62
523.474	21586.62
524.245	20733.62
525.017	19760.62
525.788	18883.62
526.56	18129.62
527.331	17262.62
528.102	16372.62
528.873	15553.62
529.644	14808.62
530.415	14165.62
531.186	13422.62
531.957	12668.62
532.728	12020.62
533.498	11412.62
534.269	10767.62
535.039	10194.62
535.81	9649.62
536.58	9128.62
537.351	8654.62
538.121	8180.62
538.891	7731.62
539.661	7311.62
540.431	6922.62
541.201	6571.62
541.971	6241.62
542.741	5878.62
543.51	5594.62
544.28	5311.62
545.05	5095.62
545.819	4836.62
546.588	4618.62
547.358	4368.62
548.127	4175.62
548.896	3928.62
549.665	3742.62
550.434	3538.62
551.203	3349.62
551.972	3191.62
552.741	3017.62
553.51	2843.62
554.278	2666.62
555.047	2528.62
555.815	2380.62
556.584	2259.62
557.352	2141.62
558.121	2014.62
558.889	1897.62
559.657	1804.62
560.425	1709.62
561.193	1623.62
561.961	1508.62
562.729	1445.62
563.496	1367.62
564.264	1294.62
565.032	1218.62
565.799	1146.62
566.567	1083.62
567.334	1032.62
568.101	982.62
568.869	913.62
569.636	856.62
570.403	822.62
571.17	763.62
571.937	738.62
572.704	695.62
573.471	659.62
574.237	604.62
575.004	574.62
575.771	532.62
576.537	518.62
577.303	490.62
578.07	462.62
578.836	431.62
579.602	409.62
580.368	399.62
581.134	366.62
581.9	345.62
582.666	337.62
583.432	316.62
584.198	300.62
584.964	290.62
585.729	273.62
586.495	257.62
587.26	239.62
588.025	234.62
588.791	218.62
589.556	204.62
590.321	197.62
591.086	185.62
591.851	180.62
592.616	170.62
593.381	162.62
594.146	156.62
594.911	152.62
595.675	143.62
596.44	139.62
597.204	127.62
597.969	126.62
598.733	122.62
599.497	111.62
600.261	106.62
601.025	104.62
601.79	100.62
602.553	92.62
603.317	95.62
604.081	90.62
604.845	87.62
605.609	81.62
606.372	79.62
607.136	76.62
607.899	74.62
608.662	70.62
609.426	65.62
610.189	64.62
610.952	60.62
611.715	57.62
612.478	56.62
613.241	53.62
614.004	49.62
614.767	52.62
615.529	50.62
616.292	46.62
617.055	45.62
617.817	43.62
618.579	47.62
619.342	41.62
620.104	42.62
620.866	40.62
621.628	39.62
622.39	38.62
623.152	38.62
623.914	36.62
624.676	34.62
625.438	32.62
626.199	32.62
626.961	34.62
627.722	28.62
628.484	30.62
629.245	26.62
630.006	28.62
630.768	26.62
631.529	26.62
632.29	26.62
633.051	24.62
633.812	24.62
634.573	22.62
635.333	23.62
636.094	22.62
636.855	21.62
637.615	22.62
638.376	18.62
639.136	20.62
639.896	17.62
640.657	18.62
641.417	16.62
642.177	16.62
642.937	18.62
643.697	17.62
644.457	16.62
645.216	17.62
645.976	14.62
646.736	14.62
647.495	12.62
648.255	14.62
649.014	14.62
649.774	15.62
650.533	14.62
651.292	13.62
652.051	14.62
652.81	8.62
653.569	13.62
654.328	14.62
655.087	11.62
655.846	12.62
656.604	12.62
657.363	10.62
658.121	13.62
658.88	10.62
659.638	12.62
660.397	13.62
661.155	9.62
661.913	10.62
662.671	10.62
663.429	11.62
664.187	9.62
664.945	7.62
665.703	7.62
666.46	9.62
667.218	10.62
667.976	12.62
668.733	11.62
669.49	8.62
670.248	8.62
671.005	8.62
671.762	9.62
672.519	9.62
673.276	7.62
674.033	7.62
674.79	8.62
675.547	7.62
676.304	6.62
677.06	8.62
677.817	8.62
678.574	8.62
679.33	7.62
680.086	9.62
680.843	10.62
681.599	9.62
682.355	6.62
683.111	8.62
683.867	10.62
684.623	6.62
685.379	8.62
686.135	7.62
686.89	6.62
687.646	6.62
688.402	6.62
689.157	5.62
689.912	7.62
690.668	8.62
691.423	6.62
692.178	6.62
692.933	7.62
693.688	3.62
694.443	7.62
695.198	6.62
695.953	5.62
696.708	6.62
697.462	5.62
698.217	9.62
698.972	4.62
699.726	6.62
700.48	7.62
701.235	6.62
701.989	7.62
702.743	7.62
703.497	6.62
704.251	6.62
705.005	7.62
705.759	6.62
706.513	7.62
707.266	7.62
708.02	9.62
708.774	7.62
709.527	8.62
710.28	5.62
711.034	5.62
711.787	5.62
712.54	7.62
713.293	9.62
714.046	5.62
714.799	7.62
715.552	6.62
716.305	6.62
717.058	7.62
717.81	4.62
718.563	7.62
719.315	7.62
720.068	6.62
720.82	7.62
721.573	9.62
722.325	9.62
723.077	8.62
723.829	6.62
724.581	6.62
725.333	11.62
726.085	7.62
726.836	8.62
727.588	6.62
728.34	7.62
729.091	6.62
729.843	8.62
730.594	6.62
731.346	10.62
732.097	8.62
732.848	11.62
733.599	7.62
734.35	9.62
735.101	10.62
735.852	10.62
736.603	9.62
737.354	8.62
738.104	10.62
738.855	7.62
739.605	9.62
740.356	10.62
741.106	8.62
741.856	9.62
742.607	8.62
743.357	10.62
744.107	13.62
744.857	10.62
745.607	9.62
746.357	10.62
747.106	10.62
747.856	8.62
748.606	11.62
749.355	11.62
750.105	8.62
750.854	10.62
751.603	10.62
752.353	12.62
753.102	11.62
753.851	11.62
754.6	12.62
755.349	11.62
756.098	12.62
756.847	11.62
757.595	13.62
758.344	14.62
759.093	9.62
759.841	12.62
760.589	11.62
761.338	14.62
762.086	13.62
762.834	10.62
763.582	15.62
764.331	16.62
765.079	14.62
765.826	15.62
766.574	15.62
767.322	12.62
768.07	12.62
768.817	14.62
769.565	14.62
770.312	15.62
771.06	13.62
771.807	14.62
772.554	16.62
773.302	17.62
774.049	15.62
774.796	15.62
775.543	15.62
776.29	14.62
777.036	14.62
777.783	15.62
778.53	12.62
779.276	19.62
780.023	14.62
780.769	16.62
781.516	20.62
782.262	16.62
783.008	16.62
783.754	15.62
784.5	16.62
785.246	18.62
785.992	11.62
786.738	18.62
787.484	14.62
788.23	16.62
788.975	13.62
789.721	16.62
790.466	13.62
791.212	15.62
791.957	16.62
792.702	13.62
793.447	13.62
794.193	15.62
794.938	13.62
795.683	11.62
796.427	13.62
797.172	14.62
797.917	11.62
798.662	12.62
799.406	13.62
800.151	12.62
800.895	14.62
801.64	12.62
802.384	11.62
803.128	9.62
803.872	11.62
804.616	10.62
805.36	10.62
806.104	11.62
806.848	10.62
807.592	10.62
808.336	6.62
809.079	8.62
809.823	10.62
810.566	9.62
811.31	8.62
812.053	9.62
812.796	7.62
813.539	10.62
814.283	8.62
815.026	8.62
815.769	8.62
816.511	10.62
817.254	6.62
817.997	7.62
818.74	5.62
819.482	8.62
820.225	10.62
820.967	7.62
821.71	8.62
822.452	7.62
823.194	7.62
823.936	6.62
824.678	7.62
825.42	7.62
826.162	6.62
826.904	5.62
827.646	5.62
828.388	7.62
829.129	5.62
829.871	6.62
830.612	6.62
831.354	5.62
832.095	5.62
832.836	6.62
833.577	4.62
834.319	6.62
835.06	6.62
835.801	6.62
836.542	6.62
837.282	4.62
838.023	4.62
838.764	4.62
839.504	4.62
840.245	5.62
840.985	2.62
841.726	3.62
842.466	3.62
843.206	6.62
843.946	5.62
844.687	5.62
845.427	3.62
846.166	3.62
846.906	3.62
847.646	4.62
848.386	5.62
849.125	5.62
849.865	5.62
850.605	3.62
851.344	6.62
852.083	4.62
852.823	2.62
853.562	5.62
854.301	4.62
855.04	5.62
855.779	1.62
856.518	5.62
857.257	3.62
857.995	2.62
858.734	3.62
859.473	1.62
860.211	3.62
860.95	3.62
861.688	1.62
862.426	4.62
863.165	3.62
863.903	2.62
864.641	2.62
865.379	0.62
866.117	2.62
866.855	1.62
867.593	5.62
868.33	2.62
869.068	3.62
869.806	1.62
870.543	1.62
871.28	2.62
872.018	2.62
872.755	2.62
873.492	0.62
874.229	1.62
874.967	2.62
875.703	2.62
876.44	1.62
877.177	-0.38
877.914	1.62
878.651	0.62
879.387	1.62
880.124	2.62
880.86	1.62
881.597	2.62
882.333	1.62
883.069	1.62
883.806	0.62
884.542	-0.38
885.278	0.62
886.014	2.62
886.749	2.62
887.485	-0.38
888.221	0.62
888.957	0.62
889.692	1.62
890.428	1.62
891.163	0.62
891.899	2.62
892.634	-1.38
893.369	2.62
894.104	0.62
894.839	-0.38
895.574	-0.38
896.309	-1.38
897.044	1.62
897.779	1.62
898.514	2.62
899.248	0.62
899.983	1.62
900.717	0.62
901.452	-0.38
902.186	-0.38
902.92	2.62
903.654	1.62
904.389	-0.38
905.123	0.62
905.857	0.62
906.59	2.62
907.324	-1.38
908.058	0.62
908.792	0.62
909.525	0.62
910.259	-1.38
910.992	0.62
911.726	0.62
912.459	-0.38
913.192	1.62
913.925	0.62
914.658	1.62
915.391	-1.38
916.124	-3.38
916.857	2.62
917.59	-0.38
918.323	0.62
919.055	-0.38
919.788	-1.38
920.521	1.62
921.253	0.62
921.985	0.62
922.718	2.62
923.45	-0.38
924.182	-1.38
924.914	-0.38
925.646	-1.38
926.378	1.62
927.11	-1.38
927.841	-2.38
928.573	0.62
929.305	-0.38
930.036	-0.38
930.768	-1.38
931.499	0.62
932.23	-0.38
932.962	0.62
933.693	-0.38
934.424	0.62
935.155	0.62
935.886	1.62
936.617	0.62
937.348	-1.38
938.078	-1.38
938.809	0.62
939.54	0.62
940.27	-1.38
941.001	1.62
941.731	3.62
942.461	1.62
943.191	-0.38
943.922	0.62
944.652	1.62
945.382	-1.38
946.112	1.62
946.841	-0.38
947.571	0.62
948.301	-0.38
949.031	0.62
949.76	-1.38
950.49	1.62
951.219	-1.38
951.948	-0.38
952.678	-1.38
953.407	0.62
954.136	-0.38
954.865	-0.38
955.594	-1.38
956.323	0.62
957.052	-0.38
957.78	2.62
958.509	-1.38
959.238	0.62
959.966	-0.38
960.695	0.62
961.423	-1.38
962.151	-0.38
962.88	1.62
963.608	-0.38
964.336	-1.38
965.064	-0.38
965.792	-0.38
966.52	0.62
967.247	-0.38
967.975	-0.38
968.703	-0.38
969.43	-1.38
970.158	0.62
970.885	-0.38
971.613	0.62
972.34	-1.38
973.067	0.62
973.794	-0.38
974.521	1.62
975.248	1.62
975.975	-1.38
976.702	-0.38
977.429	-1.38
978.156	0.62
978.882	-1.38
979.609	0.62
980.335	1.62
981.062	-0.38
981.788	-0.38
982.514	-0.38
983.24	0.62
983.967	-1.38
984.693	1.62
985.419	0.62
986.144	0.62
986.87	0.62
987.596	-2.38
988.322	-1.38
989.047	0.62
989.773	-1.38
990.498	0.62
991.224	-1.38
991.949	0.62
992.674	0.62
993.399	1.62
994.124	1.62
994.849	-1.38
995.574	1.62
996.299	-1.38
997.024	0.62
997.749	-0.38
998.473	-1.38
999.198	-0.38
999.922	0.62
1000.647	-0.38
1001.371	3.62
1002.095	-0.38
1002.82	-1.38
1003.544	0.62
1004.268	4.62
1004.992	2.62
1005.716	3.62
1006.439	3.62
1007.163	5.62
1007.887	6.62
1008.611	-1.38
1009.334	-1.38
1010.058	0.62
1010.781	0.62
1011.504	-1.38
1012.228	0.62
1012.951	-1.38
1013.674	-1.38
1014.397	-0.38
1015.12	0.62
