节点500_705_QEPB04081__331__20-50-39-531.txt的数据

Date: Wed Nov 12 20:50:39 CST 2025
User: PC
Spectrometer: QEPB0408
触发模式: 0
积分时间 (秒): 1.000000E-2
Scans to average: 1
启用暗噪声校正: true
启用非线性校正: false
滑动平均宽度: 0
X轴模式: Wavelengths
Number of Pixels in Spectrum: 1044
>>>>>Begin Spectral Data<<<<<
220.843	6.25
221.644	5.25
222.444	4.25
223.244	6.25
224.045	5.25
224.845	9.25
225.645	8.25
226.445	7.25
227.245	6.25
228.045	8.25
228.845	7.25
229.645	8.25
230.444	7.25
231.244	9.25
232.043	8.25
232.843	11.25
233.642	11.25
234.442	9.25
235.241	11.25
236.04	12.25
236.839	10.25
237.638	9.25
238.437	11.25
239.236	9.25
240.035	10.25
240.833	12.25
241.632	12.25
242.43	10.25
243.229	12.25
244.027	13.25
244.826	13.25
245.624	13.25
246.422	12.25
247.22	17.25
248.018	15.25
248.816	16.25
249.614	15.25
250.412	17.25
251.21	16.25
252.007	18.25
252.805	18.25
253.602	17.25
254.4	20.25
255.197	19.25
255.994	19.25
256.791	19.25
257.589	22.25
258.386	23.25
259.183	21.25
259.979	19.25
260.776	23.25
261.573	23.25
262.37	26.25
263.166	25.25
263.963	25.25
264.759	29.25
265.556	27.25
266.352	29.25
267.148	29.25
267.944	25.25
268.74	27.25
269.536	29.25
270.332	32.25
271.128	27.25
271.924	31.25
272.719	35.25
273.515	32.25
274.311	33.25
275.106	30.25
275.901	31.25
276.697	33.25
277.492	34.25
278.287	34.25
279.082	37.25
279.877	34.25
280.672	34.25
281.467	31.25
282.262	36.25
283.056	38.25
283.851	35.25
284.646	35.25
285.44	33.25
286.234	38.25
287.029	33.25
287.823	35.25
288.617	34.25
289.411	31.25
290.205	33.25
290.999	34.25
291.793	30.25
292.587	30.25
293.381	34.25
294.174	29.25
294.968	30.25
295.761	27.25
296.555	27.25
297.348	27.25
298.141	29.25
298.935	27.25
299.728	27.25
300.521	26.25
301.314	24.25
302.107	25.25
302.899	27.25
303.692	22.25
304.485	22.25
305.277	24.25
306.07	21.25
306.862	22.25
307.655	23.25
308.447	23.25
309.239	18.25
310.031	15.25
310.823	19.25
311.615	20.25
312.407	19.25
313.199	17.25
313.991	20.25
314.783	18.25
315.574	15.25
316.366	17.25
317.157	17.25
317.949	15.25
318.74	13.25
319.531	11.25
320.322	15.25
321.113	14.25
321.904	13.25
322.695	17.25
323.486	12.25
324.277	13.25
325.068	14.25
325.858	13.25
326.649	11.25
327.439	13.25
328.23	13.25
329.02	14.25
329.81	13.25
330.6	12.25
331.391	13.25
332.181	11.25
332.971	12.25
333.76	11.25
334.55	12.25
335.34	12.25
336.13	11.25
336.919	12.25
337.709	12.25
338.498	13.25
339.287	13.25
340.077	11.25
340.866	13.25
341.655	10.25
342.444	10.25
343.233	11.25
344.022	13.25
344.811	12.25
345.6	12.25
346.388	12.25
347.177	13.25
347.965	11.25
348.754	10.25
349.542	14.25
350.33	12.25
351.119	11.25
351.907	13.25
352.695	11.25
353.483	9.25
354.271	11.25
355.059	12.25
355.846	11.25
356.634	8.25
357.422	10.25
358.209	10.25
358.997	12.25
359.784	11.25
360.571	13.25
361.359	9.25
362.146	12.25
362.933	9.25
363.72	10.25
364.507	10.25
365.294	10.25
366.081	10.25
366.867	12.25
367.654	7.25
368.44	11.25
369.227	10.25
370.013	8.25
370.8	5.25
371.586	10.25
372.372	7.25
373.158	10.25
373.944	9.25
374.73	9.25
375.516	9.25
376.302	9.25
377.088	13.25
377.873	8.25
378.659	12.25
379.445	9.25
380.23	8.25
381.015	11.25
381.801	10.25
382.586	12.25
383.371	11.25
384.156	11.25
384.941	11.25
385.726	8.25
386.511	13.25
387.296	9.25
388.08	12.25
388.865	12.25
389.649	12.25
390.434	11.25
391.218	12.25
392.003	14.25
392.787	12.25
393.571	13.25
394.355	13.25
395.139	12.25
395.923	14.25
396.707	12.25
397.491	17.25
398.274	13.25
399.058	13.25
399.842	12.25
400.625	13.25
401.408	16.25
402.192	17.25
402.975	15.25
403.758	19.25
404.541	17.25
405.324	15.25
406.107	15.25
406.89	16.25
407.673	12.25
408.456	17.25
409.238	17.25
410.021	14.25
410.803	17.25
411.586	18.25
412.368	19.25
413.151	18.25
413.933	19.25
414.715	17.25
415.497	18.25
416.279	19.25
417.061	18.25
417.843	21.25
418.624	21.25
419.406	22.25
420.188	21.25
420.969	22.25
421.751	22.25
422.532	22.25
423.313	24.25
424.095	22.25
424.876	25.25
425.657	27.25
426.438	24.25
427.219	26.25
428	27.25
428.78	29.25
429.561	27.25
430.342	33.25
431.122	33.25
431.903	31.25
432.683	35.25
433.464	32.25
434.244	38.25
435.024	41.25
435.804	42.25
436.584	47.25
437.364	45.25
438.144	48.25
438.924	51.25
439.704	56.25
440.483	60.25
441.263	62.25
442.042	64.25
442.822	70.25
443.601	74.25
444.38	81.25
445.16	84.25
445.939	95.25
446.718	104.25
447.497	112.25
448.276	120.25
449.054	136.25
449.833	147.25
450.612	163.25
451.391	178.25
452.169	196.25
452.948	223.25
453.726	242.25
454.504	265.25
455.282	301.25
456.061	339.25
456.839	364.25
457.617	410.25
458.395	459.25
459.172	504.25
459.95	563.25
460.728	637.25
461.506	712.25
462.283	775.25
463.061	876.25
463.838	987.25
464.615	1113.25
465.393	1227.25
466.17	1366.25
466.947	1507.25
467.724	1656.25
468.501	1850.25
469.278	2078.25
470.055	2269.25
470.831	2509.25
471.608	2761.25
472.385	3033.25
473.161	3348.25
473.938	3683.25
474.714	4040.25
475.49	4432.25
476.266	4857.25
477.043	5323.25
477.819	5842.25
478.595	6361.25
479.371	6983.25
480.146	7600.25
480.922	8302.25
481.698	9040.25
482.473	9826.25
483.249	10706.25
484.024	11598.25
484.8	12581.25
485.575	13628.25
486.35	14805.25
487.126	15989.25
487.901	17310.25
488.676	18682.25
489.451	20140.25
490.225	21655.25
491	23247.25
491.775	24862.25
492.55	26548.25
493.324	28255.25
494.099	30069.25
494.873	31871.25
495.647	33637.25
496.422	35413.25
497.196	37154.25
497.97	38833.25
498.744	40397.25
499.518	42021.25
500.292	43314.25
501.066	44335.25
501.839	45239.25
502.613	46009.25
503.387	46719.25
504.16	47150.25
504.934	47168.25
505.707	47167.25
506.48	46797.25
507.253	46270.25
508.027	45615.25
508.8	44617.25
509.573	43634.25
510.346	42581.25
511.118	41467.25
511.891	40232.25
512.664	38811.25
513.437	37266.25
514.209	35887.25
514.982	34548.25
515.754	33065.25
516.526	31719.25
517.298	30504.25
518.071	29279.25
518.843	28177.25
519.615	27000.25
520.387	25966.25
521.159	24922.25
521.93	23827.25
522.702	22855.25
523.474	21875.25
524.245	20974.25
525.017	20086.25
525.788	19208.25
526.56	18399.25
527.331	17586.25
528.102	16697.25
528.873	15845.25
529.644	15116.25
530.415	14412.25
531.186	13717.25
531.957	12965.25
532.728	12362.25
533.498	11664.25
534.269	11096.25
535.039	10496.25
535.81	9954.25
536.58	9319.25
537.351	8865.25
538.121	8415.25
538.891	7969.25
539.661	7536.25
540.431	7123.25
541.201	6776.25
541.971	6408.25
542.741	6053.25
543.51	5730.25
544.28	5501.25
545.05	5229.25
545.819	4973.25
546.588	4757.25
547.358	4509.25
548.127	4290.25
548.896	4076.25
549.665	3832.25
550.434	3654.25
551.203	3480.25
551.972	3286.25
552.741	3138.25
553.51	2939.25
554.278	2758.25
555.047	2619.25
555.815	2454.25
556.584	2345.25
557.352	2202.25
558.121	2090.25
558.889	1979.25
559.657	1861.25
560.425	1771.25
561.193	1662.25
561.961	1580.25
562.729	1502.25
563.496	1411.25
564.264	1333.25
565.032	1271.25
565.799	1195.25
566.567	1134.25
567.334	1091.25
568.101	1007.25
568.869	948.25
569.636	894.25
570.403	854.25
571.17	821.25
571.937	752.25
572.704	718.25
573.471	676.25
574.237	638.25
575.004	601.25
575.771	564.25
576.537	528.25
577.303	505.25
578.07	469.25
578.836	442.25
579.602	419.25
580.368	399.25
581.134	384.25
581.9	364.25
582.666	341.25
583.432	335.25
584.198	313.25
584.964	300.25
585.729	280.25
586.495	271.25
587.26	254.25
588.025	241.25
588.791	230.25
589.556	219.25
590.321	204.25
591.086	196.25
591.851	184.25
592.616	172.25
593.381	171.25
594.146	160.25
594.911	158.25
595.675	149.25
596.44	137.25
597.204	127.25
597.969	131.25
598.733	122.25
599.497	121.25
600.261	112.25
601.025	105.25
601.79	102.25
602.553	100.25
603.317	93.25
604.081	87.25
604.845	88.25
605.609	90.25
606.372	79.25
607.136	77.25
607.899	75.25
608.662	74.25
609.426	68.25
610.189	64.25
610.952	62.25
611.715	64.25
612.478	57.25
613.241	59.25
614.004	59.25
614.767	52.25
615.529	50.25
616.292	50.25
617.055	47.25
617.817	45.25
618.579	46.25
619.342	46.25
620.104	44.25
620.866	41.25
621.628	38.25
622.39	40.25
623.152	38.25
623.914	35.25
624.676	34.25
625.438	36.25
626.199	31.25
626.961	31.25
627.722	34.25
628.484	28.25
629.245	28.25
630.006	27.25
630.768	27.25
631.529	31.25
632.29	27.25
633.051	26.25
633.812	25.25
634.573	23.25
635.333	24.25
636.094	22.25
636.855	22.25
637.615	20.25
638.376	23.25
639.136	19.25
639.896	20.25
640.657	19.25
641.417	16.25
642.177	19.25
642.937	19.25
643.697	19.25
644.457	17.25
645.216	17.25
645.976	16.25
646.736	16.25
647.495	16.25
648.255	16.25
649.014	16.25
649.774	14.25
650.533	12.25
651.292	14.25
652.051	13.25
652.81	11.25
653.569	18.25
654.328	14.25
655.087	13.25
655.846	12.25
656.604	14.25
657.363	14.25
658.121	12.25
658.88	11.25
659.638	10.25
660.397	11.25
661.155	13.25
661.913	12.25
662.671	10.25
663.429	10.25
664.187	9.25
664.945	10.25
665.703	12.25
666.46	9.25
667.218	11.25
667.976	12.25
668.733	11.25
669.49	10.25
670.248	8.25
671.005	11.25
671.762	11.25
672.519	9.25
673.276	9.25
674.033	8.25
674.79	11.25
675.547	7.25
676.304	9.25
677.06	9.25
677.817	10.25
678.574	11.25
679.33	8.25
680.086	8.25
680.843	9.25
681.599	9.25
682.355	9.25
683.111	6.25
683.867	9.25
684.623	8.25
685.379	8.25
686.135	9.25
686.89	9.25
687.646	6.25
688.402	5.25
689.157	10.25
689.912	9.25
690.668	8.25
691.423	8.25
692.178	7.25
692.933	8.25
693.688	8.25
694.443	8.25
695.198	5.25
695.953	8.25
696.708	6.25
697.462	10.25
698.217	9.25
698.972	8.25
699.726	9.25
700.48	10.25
701.235	8.25
701.989	6.25
702.743	6.25
703.497	7.25
704.251	6.25
705.005	8.25
705.759	9.25
706.513	7.25
707.266	10.25
708.02	8.25
708.774	8.25
709.527	10.25
710.28	6.25
711.034	9.25
711.787	8.25
712.54	8.25
713.293	6.25
714.046	8.25
714.799	6.25
715.552	5.25
716.305	7.25
717.058	8.25
717.81	7.25
718.563	7.25
719.315	9.25
720.068	8.25
720.82	8.25
721.573	8.25
722.325	8.25
723.077	8.25
723.829	8.25
724.581	6.25
725.333	10.25
726.085	8.25
726.836	10.25
727.588	10.25
728.34	8.25
729.091	11.25
729.843	9.25
730.594	11.25
731.346	9.25
732.097	9.25
732.848	10.25
733.599	9.25
734.35	11.25
735.101	9.25
735.852	11.25
736.603	11.25
737.354	10.25
738.104	10.25
738.855	9.25
739.605	11.25
740.356	9.25
741.106	11.25
741.856	9.25
742.607	7.25
743.357	12.25
744.107	9.25
744.857	11.25
745.607	9.25
746.357	13.25
747.106	9.25
747.856	12.25
748.606	12.25
749.355	9.25
750.105	12.25
750.854	11.25
751.603	11.25
752.353	11.25
753.102	11.25
753.851	14.25
754.6	11.25
755.349	13.25
756.098	10.25
756.847	13.25
757.595	13.25
758.344	12.25
759.093	14.25
759.841	10.25
760.589	12.25
761.338	12.25
762.086	11.25
762.834	14.25
763.582	14.25
764.331	11.25
765.079	14.25
765.826	16.25
766.574	14.25
767.322	13.25
768.07	15.25
768.817	15.25
769.565	16.25
770.312	16.25
771.06	15.25
771.807	17.25
772.554	14.25
773.302	14.25
774.049	12.25
774.796	14.25
775.543	12.25
776.29	15.25
777.036	17.25
777.783	18.25
778.53	19.25
779.276	16.25
780.023	17.25
780.769	15.25
781.516	15.25
782.262	17.25
783.008	15.25
783.754	18.25
784.5	13.25
785.246	16.25
785.992	17.25
786.738	15.25
787.484	16.25
788.23	13.25
788.975	15.25
789.721	15.25
790.466	15.25
791.212	14.25
791.957	13.25
792.702	16.25
793.447	17.25
794.193	15.25
794.938	12.25
795.683	14.25
796.427	16.25
797.172	17.25
797.917	12.25
798.662	12.25
799.406	11.25
800.151	12.25
800.895	15.25
801.64	15.25
802.384	10.25
803.128	12.25
803.872	13.25
804.616	10.25
805.36	13.25
806.104	12.25
806.848	10.25
807.592	11.25
808.336	8.25
809.079	10.25
809.823	10.25
810.566	12.25
811.31	10.25
812.053	10.25
812.796	11.25
813.539	8.25
814.283	11.25
815.026	9.25
815.769	7.25
816.511	9.25
817.254	8.25
817.997	9.25
818.74	8.25
819.482	8.25
820.225	9.25
820.967	8.25
821.71	7.25
822.452	6.25
823.194	8.25
823.936	9.25
824.678	7.25
825.42	8.25
826.162	7.25
826.904	8.25
827.646	3.25
828.388	9.25
829.129	7.25
829.871	6.25
830.612	6.25
831.354	4.25
832.095	7.25
832.836	6.25
833.577	7.25
834.319	8.25
835.06	7.25
835.801	6.25
836.542	5.25
837.282	5.25
838.023	7.25
838.764	5.25
839.504	4.25
840.245	5.25
840.985	7.25
841.726	6.25
842.466	5.25
843.206	6.25
843.946	5.25
844.687	7.25
845.427	4.25
846.166	3.25
846.906	7.25
847.646	6.25
848.386	4.25
849.125	5.25
849.865	7.25
850.605	4.25
851.344	4.25
852.083	6.25
852.823	5.25
853.562	3.25
854.301	3.25
855.04	6.25
855.779	4.25
856.518	3.25
857.257	3.25
857.995	6.25
858.734	6.25
859.473	5.25
860.211	4.25
860.95	3.25
861.688	5.25
862.426	3.25
863.165	6.25
863.903	4.25
864.641	4.25
865.379	3.25
866.117	3.25
866.855	2.25
867.593	5.25
868.33	1.25
869.068	4.25
869.806	2.25
870.543	5.25
871.28	4.25
872.018	3.25
872.755	3.25
873.492	0.25
874.229	3.25
874.967	2.25
875.703	1.25
876.44	3.25
877.177	-0.75
877.914	3.25
878.651	1.25
879.387	2.25
880.124	1.25
880.86	1.25
881.597	1.25
882.333	1.25
883.069	0.25
883.806	1.25
884.542	3.25
885.278	4.25
886.014	1.25
886.749	1.25
887.485	3.25
888.221	1.25
888.957	2.25
889.692	2.25
890.428	2.25
891.163	2.25
891.899	2.25
892.634	1.25
893.369	2.25
894.104	3.25
894.839	2.25
895.574	3.25
896.309	1.25
897.044	-0.75
897.779	0.25
898.514	2.25
899.248	2.25
899.983	3.25
900.717	2.25
901.452	3.25
902.186	2.25
902.92	2.25
903.654	0.25
904.389	2.25
905.123	2.25
905.857	0.25
906.59	1.25
907.324	2.25
908.058	2.25
908.792	1.25
909.525	0.25
910.259	1.25
910.992	1.25
911.726	2.25
912.459	1.25
913.192	1.25
913.925	0.25
914.658	2.25
915.391	3.25
916.124	0.25
916.857	2.25
917.59	3.25
918.323	2.25
919.055	2.25
919.788	1.25
920.521	0.25
921.253	1.25
921.985	1.25
922.718	1.25
923.45	3.25
924.182	0.25
924.914	0.25
925.646	0.25
926.378	-0.75
927.11	2.25
927.841	0.25
928.573	-0.75
929.305	1.25
930.036	0.25
930.768	2.25
931.499	0.25
932.23	1.25
932.962	0.25
933.693	-1.75
934.424	-0.75
935.155	0.25
935.886	1.25
936.617	2.25
937.348	0.25
938.078	-0.75
938.809	1.25
939.54	2.25
940.27	1.25
941.001	2.25
941.731	2.25
942.461	1.25
943.191	1.25
943.922	0.25
944.652	0.25
945.382	0.25
946.112	2.25
946.841	1.25
947.571	1.25
948.301	-0.75
949.031	-0.75
949.76	1.25
950.49	-0.75
951.219	-0.75
951.948	0.25
952.678	0.25
953.407	0.25
954.136	-1.75
954.865	1.25
955.594	0.25
956.323	1.25
957.052	1.25
957.78	1.25
958.509	-1.75
959.238	-0.75
959.966	-0.75
960.695	1.25
961.423	-0.75
962.151	1.25
962.88	1.25
963.608	2.25
964.336	1.25
965.064	-0.75
965.792	-0.75
966.52	1.25
967.247	1.25
967.975	1.25
968.703	2.25
969.43	-0.75
970.158	1.25
970.885	2.25
971.613	1.25
972.34	0.25
973.067	0.25
973.794	0.25
974.521	1.25
975.248	-0.75
975.975	2.25
976.702	0.25
977.429	0.25
978.156	1.25
978.882	1.25
979.609	0.25
980.335	0.25
981.062	1.25
981.788	0.25
982.514	1.25
983.24	0.25
983.967	-0.75
984.693	0.25
985.419	-0.75
986.144	2.25
986.87	1.25
987.596	-0.75
988.322	1.25
989.047	1.25
989.773	1.25
990.498	-0.75
991.224	1.25
991.949	1.25
992.674	-0.75
993.399	1.25
994.124	1.25
994.849	1.25
995.574	1.25
996.299	-1.75
997.024	1.25
997.749	1.25
998.473	1.25
999.198	3.25
999.922	-0.75
1000.647	1.25
1001.371	4.25
1002.095	0.25
1002.82	-1.75
1003.544	-0.75
1004.268	7.25
1004.992	8.25
1005.716	6.25
1006.439	6.25
1007.163	6.25
1007.887	5.25
1008.611	1.25
1009.334	-0.75
1010.058	2.25
1010.781	0.25
1011.504	0.25
1012.228	-0.75
1012.951	-1.75
1013.674	0.25
1014.397	0.25
1015.12	-0.75
