节点500_705_QEPB04081__47__20-46-40-298.txt的数据

Date: Wed Nov 12 20:46:40 CST 2025
User: PC
Spectrometer: QEPB0408
触发模式: 0
积分时间 (秒): 1.000000E-2
Scans to average: 1
启用暗噪声校正: true
启用非线性校正: false
滑动平均宽度: 0
X轴模式: Wavelengths
Number of Pixels in Spectrum: 1044
>>>>>Begin Spectral Data<<<<<
220.843	5.88
221.644	8.88
222.444	6.88
223.244	5.88
224.045	7.88
224.845	10.88
225.645	8.88
226.445	9.88
227.245	8.88
228.045	5.88
228.845	8.88
229.645	9.88
230.444	9.88
231.244	8.88
232.043	9.88
232.843	9.88
233.642	8.88
234.442	9.88
235.241	12.88
236.04	12.88
236.839	11.88
237.638	9.88
238.437	10.88
239.236	11.88
240.035	14.88
240.833	13.88
241.632	11.88
242.43	14.88
243.229	14.88
244.027	17.88
244.826	16.88
245.624	15.88
246.422	15.88
247.22	19.88
248.018	17.88
248.816	18.88
249.614	20.88
250.412	19.88
251.21	17.88
252.007	17.88
252.805	20.88
253.602	18.88
254.4	19.88
255.197	21.88
255.994	21.88
256.791	21.88
257.589	23.88
258.386	22.88
259.183	27.88
259.979	24.88
260.776	25.88
261.573	28.88
262.37	29.88
263.166	27.88
263.963	28.88
264.759	27.88
265.556	28.88
266.352	34.88
267.148	35.88
267.944	30.88
268.74	31.88
269.536	28.88
270.332	36.88
271.128	33.88
271.924	31.88
272.719	32.88
273.515	33.88
274.311	36.88
275.106	35.88
275.901	34.88
276.697	37.88
277.492	36.88
278.287	37.88
279.082	35.88
279.877	35.88
280.672	35.88
281.467	37.88
282.262	38.88
283.056	39.88
283.851	38.88
284.646	37.88
285.44	37.88
286.234	34.88
287.029	37.88
287.823	35.88
288.617	35.88
289.411	34.88
290.205	35.88
290.999	34.88
291.793	36.88
292.587	34.88
293.381	33.88
294.174	36.88
294.968	31.88
295.761	31.88
296.555	28.88
297.348	27.88
298.141	27.88
298.935	29.88
299.728	26.88
300.521	23.88
301.314	25.88
302.107	23.88
302.899	23.88
303.692	22.88
304.485	24.88
305.277	26.88
306.07	20.88
306.862	22.88
307.655	22.88
308.447	24.88
309.239	19.88
310.031	20.88
310.823	18.88
311.615	20.88
312.407	20.88
313.199	19.88
313.991	20.88
314.783	17.88
315.574	16.88
316.366	15.88
317.157	17.88
317.949	14.88
318.74	16.88
319.531	18.88
320.322	14.88
321.113	12.88
321.904	14.88
322.695	11.88
323.486	13.88
324.277	14.88
325.068	16.88
325.858	14.88
326.649	13.88
327.439	15.88
328.23	10.88
329.02	15.88
329.81	12.88
330.6	12.88
331.391	12.88
332.181	9.88
332.971	14.88
333.76	12.88
334.55	12.88
335.34	13.88
336.13	10.88
336.919	13.88
337.709	11.88
338.498	9.88
339.287	11.88
340.077	11.88
340.866	14.88
341.655	11.88
342.444	13.88
343.233	11.88
344.022	14.88
344.811	14.88
345.6	12.88
346.388	13.88
347.177	11.88
347.965	12.88
348.754	10.88
349.542	12.88
350.33	13.88
351.119	13.88
351.907	10.88
352.695	11.88
353.483	10.88
354.271	9.88
355.059	15.88
355.846	10.88
356.634	10.88
357.422	10.88
358.209	9.88
358.997	13.88
359.784	9.88
360.571	10.88
361.359	12.88
362.146	11.88
362.933	12.88
363.72	12.88
364.507	9.88
365.294	13.88
366.081	11.88
366.867	10.88
367.654	10.88
368.44	11.88
369.227	10.88
370.013	12.88
370.8	11.88
371.586	10.88
372.372	10.88
373.158	11.88
373.944	14.88
374.73	11.88
375.516	10.88
376.302	10.88
377.088	8.88
377.873	12.88
378.659	9.88
379.445	12.88
380.23	8.88
381.015	8.88
381.801	9.88
382.586	10.88
383.371	12.88
384.156	11.88
384.941	13.88
385.726	10.88
386.511	9.88
387.296	14.88
388.08	11.88
388.865	11.88
389.649	12.88
390.434	12.88
391.218	13.88
392.003	14.88
392.787	13.88
393.571	12.88
394.355	10.88
395.139	11.88
395.923	12.88
396.707	13.88
397.491	14.88
398.274	14.88
399.058	13.88
399.842	15.88
400.625	15.88
401.408	11.88
402.192	15.88
402.975	14.88
403.758	19.88
404.541	15.88
405.324	16.88
406.107	16.88
406.89	16.88
407.673	17.88
408.456	17.88
409.238	19.88
410.021	20.88
410.803	16.88
411.586	17.88
412.368	17.88
413.151	18.88
413.933	20.88
414.715	19.88
415.497	21.88
416.279	19.88
417.061	21.88
417.843	19.88
418.624	18.88
419.406	21.88
420.188	21.88
420.969	22.88
421.751	23.88
422.532	24.88
423.313	25.88
424.095	23.88
424.876	25.88
425.657	24.88
426.438	27.88
427.219	25.88
428	26.88
428.78	31.88
429.561	27.88
430.342	30.88
431.122	28.88
431.903	37.88
432.683	33.88
433.464	37.88
434.244	36.88
435.024	37.88
435.804	41.88
436.584	43.88
437.364	45.88
438.144	45.88
438.924	50.88
439.704	53.88
440.483	53.88
441.263	61.88
442.042	61.88
442.822	70.88
443.601	71.88
444.38	78.88
445.16	82.88
445.939	90.88
446.718	101.88
447.497	104.88
448.276	111.88
449.054	123.88
449.833	136.88
450.612	149.88
451.391	170.88
452.169	186.88
452.948	199.88
453.726	221.88
454.504	245.88
455.282	275.88
456.061	304.88
456.839	344.88
457.617	381.88
458.395	427.88
459.172	474.88
459.95	533.88
460.728	601.88
461.506	657.88
462.283	748.88
463.061	831.88
463.838	933.88
464.615	1029.88
465.393	1169.88
466.17	1305.88
466.947	1443.88
467.724	1600.88
468.501	1780.88
469.278	1990.88
470.055	2219.88
470.831	2460.88
471.608	2716.88
472.385	3024.88
473.161	3352.88
473.938	3695.88
474.714	4081.88
475.49	4500.88
476.266	4981.88
477.043	5470.88
477.819	6005.88
478.595	6593.88
479.371	7279.88
480.146	7969.88
480.922	8761.88
481.698	9603.88
482.473	10511.88
483.249	11509.88
484.024	12505.88
484.8	13611.88
485.575	14851.88
486.35	16159.88
487.126	17642.88
487.901	19151.88
488.676	20738.88
489.451	22443.88
490.225	24172.88
491	25904.88
491.775	27810.88
492.55	29792.88
493.324	31675.88
494.099	33743.88
494.873	35729.88
495.647	37790.88
496.422	39683.88
497.196	41564.88
497.97	43293.88
498.744	44817.88
499.518	46417.88
500.292	47784.88
501.066	48622.88
501.839	49340.88
502.613	49964.88
503.387	50254.88
504.16	50501.88
504.934	50306.88
505.707	49820.88
506.48	49104.88
507.253	48374.88
508.027	47288.88
508.8	45879.88
509.573	44605.88
510.346	43254.88
511.118	41835.88
511.891	40402.88
512.664	38755.88
513.437	37105.88
514.209	35562.88
514.982	34205.88
515.754	32697.88
516.526	31232.88
517.298	30070.88
518.071	28773.88
518.843	27583.88
519.615	26457.88
520.387	25392.88
521.159	24421.88
521.93	23373.88
522.702	22329.88
523.474	21373.88
524.245	20470.88
525.017	19523.88
525.788	18665.88
526.56	17825.88
527.331	17044.88
528.102	16143.88
528.873	15211.88
529.644	14538.88
530.415	13796.88
531.186	13058.88
531.957	12399.88
532.728	11711.88
533.498	11086.88
534.269	10499.88
535.039	9884.88
535.81	9369.88
536.58	8848.88
537.351	8392.88
538.121	7955.88
538.891	7483.88
539.661	7083.88
540.431	6712.88
541.201	6364.88
541.971	6041.88
542.741	5755.88
543.51	5422.88
544.28	5177.88
545.05	4936.88
545.819	4694.88
546.588	4452.88
547.358	4242.88
548.127	4041.88
548.896	3790.88
549.665	3610.88
550.434	3427.88
551.203	3248.88
551.972	3061.88
552.741	2913.88
553.51	2772.88
554.278	2578.88
555.047	2427.88
555.815	2314.88
556.584	2190.88
557.352	2062.88
558.121	1932.88
558.889	1837.88
559.657	1726.88
560.425	1638.88
561.193	1544.88
561.961	1476.88
562.729	1399.88
563.496	1307.88
564.264	1229.88
565.032	1177.88
565.799	1114.88
566.567	1053.88
567.334	975.88
568.101	944.88
568.869	889.88
569.636	839.88
570.403	794.88
571.17	746.88
571.937	698.88
572.704	673.88
573.471	636.88
574.237	600.88
575.004	555.88
575.771	524.88
576.537	491.88
577.303	463.88
578.07	440.88
578.836	418.88
579.602	397.88
580.368	371.88
581.134	354.88
581.9	338.88
582.666	325.88
583.432	301.88
584.198	294.88
584.964	272.88
585.729	267.88
586.495	244.88
587.26	235.88
588.025	227.88
588.791	216.88
589.556	199.88
590.321	186.88
591.086	181.88
591.851	170.88
592.616	161.88
593.381	162.88
594.146	149.88
594.911	146.88
595.675	133.88
596.44	127.88
597.204	131.88
597.969	121.88
598.733	117.88
599.497	113.88
600.261	104.88
601.025	101.88
601.79	98.88
602.553	93.88
603.317	92.88
604.081	87.88
604.845	80.88
605.609	82.88
606.372	80.88
607.136	74.88
607.899	72.88
608.662	68.88
609.426	66.88
610.189	64.88
610.952	61.88
611.715	59.88
612.478	54.88
613.241	56.88
614.004	54.88
614.767	52.88
615.529	51.88
616.292	47.88
617.055	47.88
617.817	43.88
618.579	44.88
619.342	42.88
620.104	41.88
620.866	42.88
621.628	36.88
622.39	39.88
623.152	36.88
623.914	35.88
624.676	35.88
625.438	36.88
626.199	30.88
626.961	28.88
627.722	31.88
628.484	29.88
629.245	29.88
630.006	26.88
630.768	26.88
631.529	27.88
632.29	29.88
633.051	24.88
633.812	24.88
634.573	22.88
635.333	22.88
636.094	24.88
636.855	22.88
637.615	22.88
638.376	21.88
639.136	23.88
639.896	19.88
640.657	21.88
641.417	20.88
642.177	19.88
642.937	15.88
643.697	18.88
644.457	16.88
645.216	17.88
645.976	19.88
646.736	17.88
647.495	17.88
648.255	15.88
649.014	17.88
649.774	16.88
650.533	16.88
651.292	14.88
652.051	13.88
652.81	15.88
653.569	12.88
654.328	13.88
655.087	15.88
655.846	13.88
656.604	11.88
657.363	15.88
658.121	11.88
658.88	11.88
659.638	11.88
660.397	12.88
661.155	13.88
661.913	12.88
662.671	11.88
663.429	10.88
664.187	9.88
664.945	10.88
665.703	11.88
666.46	11.88
667.218	10.88
667.976	10.88
668.733	11.88
669.49	11.88
670.248	11.88
671.005	10.88
671.762	10.88
672.519	10.88
673.276	9.88
674.033	10.88
674.79	12.88
675.547	8.88
676.304	7.88
677.06	11.88
677.817	10.88
678.574	9.88
679.33	9.88
680.086	10.88
680.843	10.88
681.599	9.88
682.355	10.88
683.111	7.88
683.867	11.88
684.623	10.88
685.379	7.88
686.135	9.88
686.89	5.88
687.646	9.88
688.402	7.88
689.157	8.88
689.912	9.88
690.668	7.88
691.423	6.88
692.178	10.88
692.933	7.88
693.688	8.88
694.443	8.88
695.198	7.88
695.953	8.88
696.708	7.88
697.462	7.88
698.217	10.88
698.972	8.88
699.726	10.88
700.48	8.88
701.235	9.88
701.989	7.88
702.743	7.88
703.497	7.88
704.251	8.88
705.005	7.88
705.759	9.88
706.513	9.88
707.266	5.88
708.02	7.88
708.774	6.88
709.527	9.88
710.28	6.88
711.034	11.88
711.787	8.88
712.54	6.88
713.293	6.88
714.046	8.88
714.799	9.88
715.552	7.88
716.305	8.88
717.058	8.88
717.81	8.88
718.563	10.88
719.315	7.88
720.068	9.88
720.82	9.88
721.573	8.88
722.325	9.88
723.077	9.88
723.829	10.88
724.581	8.88
725.333	9.88
726.085	9.88
726.836	11.88
727.588	10.88
728.34	8.88
729.091	8.88
729.843	10.88
730.594	7.88
731.346	9.88
732.097	7.88
732.848	8.88
733.599	8.88
734.35	11.88
735.101	9.88
735.852	12.88
736.603	11.88
737.354	11.88
738.104	8.88
738.855	11.88
739.605	11.88
740.356	9.88
741.106	10.88
741.856	10.88
742.607	11.88
743.357	10.88
744.107	10.88
744.857	15.88
745.607	9.88
746.357	10.88
747.106	12.88
747.856	13.88
748.606	12.88
749.355	14.88
750.105	13.88
750.854	14.88
751.603	12.88
752.353	13.88
753.102	13.88
753.851	12.88
754.6	13.88
755.349	16.88
756.098	13.88
756.847	12.88
757.595	14.88
758.344	11.88
759.093	14.88
759.841	13.88
760.589	14.88
761.338	13.88
762.086	12.88
762.834	17.88
763.582	12.88
764.331	16.88
765.079	13.88
765.826	15.88
766.574	14.88
767.322	13.88
768.07	14.88
768.817	18.88
769.565	16.88
770.312	19.88
771.06	16.88
771.807	15.88
772.554	17.88
773.302	18.88
774.049	17.88
774.796	18.88
775.543	18.88
776.29	19.88
777.036	16.88
777.783	16.88
778.53	17.88
779.276	16.88
780.023	17.88
780.769	17.88
781.516	18.88
782.262	18.88
783.008	17.88
783.754	17.88
784.5	16.88
785.246	15.88
785.992	16.88
786.738	15.88
787.484	17.88
788.23	18.88
788.975	16.88
789.721	15.88
790.466	17.88
791.212	13.88
791.957	13.88
792.702	15.88
793.447	13.88
794.193	16.88
794.938	16.88
795.683	14.88
796.427	15.88
797.172	11.88
797.917	15.88
798.662	14.88
799.406	12.88
800.151	13.88
800.895	13.88
801.64	15.88
802.384	12.88
803.128	12.88
803.872	12.88
804.616	10.88
805.36	13.88
806.104	10.88
806.848	9.88
807.592	11.88
808.336	8.88
809.079	10.88
809.823	11.88
810.566	12.88
811.31	9.88
812.053	9.88
812.796	8.88
813.539	7.88
814.283	10.88
815.026	9.88
815.769	8.88
816.511	10.88
817.254	9.88
817.997	7.88
818.74	10.88
819.482	9.88
820.225	8.88
820.967	8.88
821.71	8.88
822.452	6.88
823.194	7.88
823.936	7.88
824.678	8.88
825.42	9.88
826.162	6.88
826.904	9.88
827.646	6.88
828.388	7.88
829.129	9.88
829.871	9.88
830.612	6.88
831.354	6.88
832.095	3.88
832.836	8.88
833.577	7.88
834.319	7.88
835.06	6.88
835.801	5.88
836.542	7.88
837.282	6.88
838.023	5.88
838.764	7.88
839.504	6.88
840.245	4.88
840.985	5.88
841.726	7.88
842.466	4.88
843.206	6.88
843.946	6.88
844.687	6.88
845.427	6.88
846.166	5.88
846.906	5.88
847.646	4.88
848.386	7.88
849.125	5.88
849.865	6.88
850.605	5.88
851.344	4.88
852.083	5.88
852.823	4.88
853.562	7.88
854.301	2.88
855.04	3.88
855.779	4.88
856.518	3.88
857.257	3.88
857.995	4.88
858.734	3.88
859.473	3.88
860.211	3.88
860.95	5.88
861.688	4.88
862.426	3.88
863.165	3.88
863.903	5.88
864.641	4.88
865.379	4.88
866.117	3.88
866.855	1.88
867.593	3.88
868.33	2.88
869.068	2.88
869.806	2.88
870.543	3.88
871.28	3.88
872.018	3.88
872.755	3.88
873.492	1.88
874.229	4.88
874.967	3.88
875.703	2.88
876.44	1.88
877.177	0.88
877.914	3.88
878.651	3.88
879.387	2.88
880.124	1.88
880.86	0.88
881.597	3.88
882.333	1.88
883.069	4.88
883.806	3.88
884.542	-0.12
885.278	1.88
886.014	1.88
886.749	3.88
887.485	1.88
888.221	3.88
888.957	2.88
889.692	3.88
890.428	1.88
891.163	1.88
891.899	1.88
892.634	2.88
893.369	3.88
894.104	1.88
894.839	3.88
895.574	2.88
896.309	1.88
897.044	2.88
897.779	2.88
898.514	1.88
899.248	1.88
899.983	1.88
900.717	0.88
901.452	1.88
902.186	-0.12
902.92	2.88
903.654	-0.12
904.389	-0.12
905.123	1.88
905.857	2.88
906.59	2.88
907.324	1.88
908.058	2.88
908.792	-0.12
909.525	3.88
910.259	-1.12
910.992	1.88
911.726	0.88
912.459	1.88
913.192	2.88
913.925	0.88
914.658	1.88
915.391	1.88
916.124	2.88
916.857	1.88
917.59	1.88
918.323	1.88
919.055	2.88
919.788	1.88
920.521	0.88
921.253	0.88
921.985	0.88
922.718	3.88
923.45	1.88
924.182	0.88
924.914	1.88
925.646	1.88
926.378	1.88
927.11	0.88
927.841	0.88
928.573	1.88
929.305	2.88
930.036	1.88
930.768	-0.12
931.499	1.88
932.23	0.88
932.962	-0.12
933.693	1.88
934.424	0.88
935.155	-0.12
935.886	-0.12
936.617	1.88
937.348	-0.12
938.078	0.88
938.809	1.88
939.54	1.88
940.27	0.88
941.001	-0.12
941.731	1.88
942.461	1.88
943.191	0.88
943.922	-0.12
944.652	1.88
945.382	1.88
946.112	3.88
946.841	1.88
947.571	2.88
948.301	2.88
949.031	-0.12
949.76	2.88
950.49	-0.12
951.219	0.88
951.948	0.88
952.678	-0.12
953.407	1.88
954.136	1.88
954.865	1.88
955.594	-0.12
956.323	2.88
957.052	1.88
957.78	0.88
958.509	-0.12
959.238	2.88
959.966	-0.12
960.695	1.88
961.423	1.88
962.151	3.88
962.88	-0.12
963.608	2.88
964.336	0.88
965.064	1.88
965.792	-0.12
966.52	0.88
967.247	0.88
967.975	1.88
968.703	-1.12
969.43	1.88
970.158	1.88
970.885	2.88
971.613	-2.12
972.34	0.88
973.067	1.88
973.794	-0.12
974.521	-0.12
975.248	1.88
975.975	1.88
976.702	1.88
977.429	0.88
978.156	0.88
978.882	0.88
979.609	-0.12
980.335	0.88
981.062	-0.12
981.788	-0.12
982.514	2.88
983.24	0.88
983.967	-0.12
984.693	-0.12
985.419	1.88
986.144	0.88
986.87	-1.12
987.596	1.88
988.322	0.88
989.047	0.88
989.773	-0.12
990.498	0.88
991.224	2.88
991.949	-0.12
992.674	3.88
993.399	0.88
994.124	1.88
994.849	3.88
995.574	0.88
996.299	1.88
997.024	-0.12
997.749	0.88
998.473	0.88
999.198	-1.12
999.922	1.88
1000.647	-0.12
1001.371	3.88
1002.095	-0.12
1002.82	-0.12
1003.544	-2.12
1004.268	5.88
1004.992	5.88
1005.716	4.88
1006.439	4.88
1007.163	8.88
1007.887	3.88
1008.611	1.88
1009.334	-0.12
1010.058	1.88
1010.781	1.88
1011.504	1.88
1012.228	0.88
1012.951	-0.12
1013.674	-1.12
1014.397	0.88
1015.12	-1.12
