节点500_705_QEPB04081__194__20-48-58-468.txt的数据

Date: Wed Nov 12 20:48:58 CST 2025
User: PC
Spectrometer: QEPB0408
触发模式: 0
积分时间 (秒): 1.000000E-2
Scans to average: 1
启用暗噪声校正: true
启用非线性校正: false
滑动平均宽度: 0
X轴模式: Wavelengths
Number of Pixels in Spectrum: 1044
>>>>>Begin Spectral Data<<<<<
220.843	5.25
221.644	4.25
222.444	8.25
223.244	8.25
224.045	7.25
224.845	5.25
225.645	7.25
226.445	5.25
227.245	7.25
228.045	8.25
228.845	8.25
229.645	9.25
230.444	6.25
231.244	6.25
232.043	10.25
232.843	8.25
233.642	8.25
234.442	9.25
235.241	8.25
236.04	9.25
236.839	10.25
237.638	12.25
238.437	10.25
239.236	11.25
240.035	9.25
240.833	10.25
241.632	10.25
242.43	12.25
243.229	11.25
244.027	12.25
244.826	16.25
245.624	13.25
246.422	12.25
247.22	16.25
248.018	14.25
248.816	16.25
249.614	13.25
250.412	13.25
251.21	14.25
252.007	17.25
252.805	16.25
253.602	16.25
254.4	19.25
255.197	19.25
255.994	21.25
256.791	20.25
257.589	18.25
258.386	20.25
259.183	21.25
259.979	24.25
260.776	25.25
261.573	25.25
262.37	24.25
263.166	24.25
263.963	26.25
264.759	26.25
265.556	27.25
266.352	28.25
267.148	30.25
267.944	29.25
268.74	30.25
269.536	30.25
270.332	31.25
271.128	28.25
271.924	29.25
272.719	32.25
273.515	32.25
274.311	34.25
275.106	34.25
275.901	34.25
276.697	35.25
277.492	34.25
278.287	34.25
279.082	34.25
279.877	35.25
280.672	32.25
281.467	36.25
282.262	35.25
283.056	35.25
283.851	37.25
284.646	38.25
285.44	30.25
286.234	32.25
287.029	34.25
287.823	31.25
288.617	30.25
289.411	32.25
290.205	34.25
290.999	36.25
291.793	33.25
292.587	31.25
293.381	30.25
294.174	29.25
294.968	30.25
295.761	27.25
296.555	25.25
297.348	25.25
298.141	26.25
298.935	31.25
299.728	24.25
300.521	23.25
301.314	23.25
302.107	24.25
302.899	24.25
303.692	22.25
304.485	23.25
305.277	23.25
306.07	23.25
306.862	21.25
307.655	22.25
308.447	21.25
309.239	18.25
310.031	20.25
310.823	17.25
311.615	17.25
312.407	16.25
313.199	20.25
313.991	14.25
314.783	16.25
315.574	16.25
316.366	17.25
317.157	16.25
317.949	15.25
318.74	13.25
319.531	14.25
320.322	12.25
321.113	14.25
321.904	12.25
322.695	14.25
323.486	12.25
324.277	14.25
325.068	11.25
325.858	13.25
326.649	13.25
327.439	10.25
328.23	13.25
329.02	12.25
329.81	10.25
330.6	13.25
331.391	11.25
332.181	13.25
332.971	10.25
333.76	12.25
334.55	11.25
335.34	9.25
336.13	12.25
336.919	13.25
337.709	13.25
338.498	12.25
339.287	12.25
340.077	10.25
340.866	11.25
341.655	12.25
342.444	10.25
343.233	10.25
344.022	11.25
344.811	10.25
345.6	13.25
346.388	10.25
347.177	10.25
347.965	12.25
348.754	11.25
349.542	10.25
350.33	10.25
351.119	12.25
351.907	10.25
352.695	11.25
353.483	14.25
354.271	8.25
355.059	10.25
355.846	9.25
356.634	8.25
357.422	8.25
358.209	11.25
358.997	12.25
359.784	8.25
360.571	10.25
361.359	12.25
362.146	8.25
362.933	9.25
363.72	10.25
364.507	8.25
365.294	9.25
366.081	9.25
366.867	9.25
367.654	11.25
368.44	9.25
369.227	8.25
370.013	9.25
370.8	8.25
371.586	8.25
372.372	5.25
373.158	6.25
373.944	9.25
374.73	8.25
375.516	8.25
376.302	12.25
377.088	8.25
377.873	9.25
378.659	10.25
379.445	8.25
380.23	6.25
381.015	9.25
381.801	10.25
382.586	10.25
383.371	10.25
384.156	9.25
384.941	10.25
385.726	10.25
386.511	10.25
387.296	12.25
388.08	9.25
388.865	11.25
389.649	10.25
390.434	9.25
391.218	10.25
392.003	8.25
392.787	11.25
393.571	12.25
394.355	11.25
395.139	13.25
395.923	14.25
396.707	14.25
397.491	10.25
398.274	12.25
399.058	9.25
399.842	14.25
400.625	13.25
401.408	13.25
402.192	12.25
402.975	14.25
403.758	14.25
404.541	15.25
405.324	14.25
406.107	16.25
406.89	14.25
407.673	16.25
408.456	17.25
409.238	14.25
410.021	17.25
410.803	16.25
411.586	18.25
412.368	16.25
413.151	17.25
413.933	16.25
414.715	17.25
415.497	18.25
416.279	16.25
417.061	21.25
417.843	19.25
418.624	21.25
419.406	18.25
420.188	18.25
420.969	21.25
421.751	22.25
422.532	22.25
423.313	20.25
424.095	23.25
424.876	23.25
425.657	21.25
426.438	24.25
427.219	27.25
428	24.25
428.78	28.25
429.561	26.25
430.342	32.25
431.122	28.25
431.903	32.25
432.683	33.25
433.464	35.25
434.244	37.25
435.024	37.25
435.804	41.25
436.584	41.25
437.364	47.25
438.144	47.25
438.924	51.25
439.704	50.25
440.483	56.25
441.263	61.25
442.042	60.25
442.822	67.25
443.601	74.25
444.38	81.25
445.16	86.25
445.939	87.25
446.718	100.25
447.497	115.25
448.276	123.25
449.054	123.25
449.833	142.25
450.612	156.25
451.391	175.25
452.169	188.25
452.948	210.25
453.726	231.25
454.504	258.25
455.282	284.25
456.061	317.25
456.839	355.25
457.617	395.25
458.395	440.25
459.172	508.25
459.95	552.25
460.728	619.25
461.506	678.25
462.283	763.25
463.061	854.25
463.838	952.25
464.615	1058.25
465.393	1191.25
466.17	1331.25
466.947	1473.25
467.724	1648.25
468.501	1829.25
469.278	2023.25
470.055	2238.25
470.831	2490.25
471.608	2750.25
472.385	3037.25
473.161	3356.25
473.938	3710.25
474.714	4084.25
475.49	4461.25
476.266	4930.25
477.043	5390.25
477.819	5883.25
478.595	6503.25
479.371	7104.25
480.146	7769.25
480.922	8475.25
481.698	9286.25
482.473	10155.25
483.249	10963.25
484.024	11961.25
484.8	13034.25
485.575	14186.25
486.35	15433.25
487.126	16689.25
487.901	18065.25
488.676	19551.25
489.451	21140.25
490.225	22711.25
491	24384.25
491.775	26158.25
492.55	27992.25
493.324	29801.25
494.099	31664.25
494.873	33533.25
495.647	35480.25
496.422	37362.25
497.196	39127.25
497.97	40861.25
498.744	42282.25
499.518	43962.25
500.292	45192.25
501.066	46309.25
501.839	47088.25
502.613	47751.25
503.387	48316.25
504.16	48679.25
504.934	48581.25
505.707	48308.25
506.48	47990.25
507.253	47156.25
508.027	46379.25
508.8	45209.25
509.573	44092.25
510.346	42873.25
511.118	41743.25
511.891	40302.25
512.664	38720.25
513.437	37143.25
514.209	35769.25
514.982	34375.25
515.754	32880.25
516.526	31462.25
517.298	30237.25
518.071	29005.25
518.843	27866.25
519.615	26811.25
520.387	25741.25
521.159	24712.25
521.93	23577.25
522.702	22608.25
523.474	21693.25
524.245	20754.25
525.017	19775.25
525.788	18932.25
526.56	18094.25
527.331	17259.25
528.102	16387.25
528.873	15540.25
529.644	14853.25
530.415	14101.25
531.186	13416.25
531.957	12693.25
532.728	12006.25
533.498	11402.25
534.269	10793.25
535.039	10189.25
535.81	9616.25
536.58	9137.25
537.351	8614.25
538.121	8166.25
538.891	7737.25
539.661	7289.25
540.431	6908.25
541.201	6582.25
541.971	6217.25
542.741	5869.25
543.51	5551.25
544.28	5341.25
545.05	5069.25
545.819	4840.25
546.588	4604.25
547.358	4405.25
548.127	4158.25
548.896	3948.25
549.665	3738.25
550.434	3524.25
551.203	3365.25
551.972	3188.25
552.741	3007.25
553.51	2835.25
554.278	2673.25
555.047	2528.25
555.815	2402.25
556.584	2288.25
557.352	2138.25
558.121	2027.25
558.889	1914.25
559.657	1804.25
560.425	1705.25
561.193	1603.25
561.961	1516.25
562.729	1443.25
563.496	1360.25
564.264	1285.25
565.032	1220.25
565.799	1153.25
566.567	1102.25
567.334	1026.25
568.101	982.25
568.869	922.25
569.636	864.25
570.403	824.25
571.17	770.25
571.937	739.25
572.704	691.25
573.471	664.25
574.237	611.25
575.004	573.25
575.771	538.25
576.537	515.25
577.303	489.25
578.07	468.25
578.836	441.25
579.602	414.25
580.368	388.25
581.134	372.25
581.9	351.25
582.666	332.25
583.432	323.25
584.198	301.25
584.964	291.25
585.729	275.25
586.495	260.25
587.26	242.25
588.025	231.25
588.791	221.25
589.556	209.25
590.321	195.25
591.086	189.25
591.851	176.25
592.616	169.25
593.381	164.25
594.146	158.25
594.911	147.25
595.675	141.25
596.44	138.25
597.204	124.25
597.969	127.25
598.733	121.25
599.497	107.25
600.261	106.25
601.025	106.25
601.79	101.25
602.553	96.25
603.317	90.25
604.081	88.25
604.845	85.25
605.609	81.25
606.372	75.25
607.136	71.25
607.899	74.25
608.662	72.25
609.426	65.25
610.189	66.25
610.952	61.25
611.715	59.25
612.478	57.25
613.241	54.25
614.004	57.25
614.767	54.25
615.529	48.25
616.292	46.25
617.055	46.25
617.817	45.25
618.579	45.25
619.342	44.25
620.104	38.25
620.866	40.25
621.628	37.25
622.39	38.25
623.152	38.25
623.914	32.25
624.676	33.25
625.438	34.25
626.199	34.25
626.961	30.25
627.722	32.25
628.484	27.25
629.245	27.25
630.006	29.25
630.768	28.25
631.529	26.25
632.29	26.25
633.051	26.25
633.812	22.25
634.573	23.25
635.333	25.25
636.094	25.25
636.855	22.25
637.615	21.25
638.376	19.25
639.136	19.25
639.896	18.25
640.657	16.25
641.417	17.25
642.177	17.25
642.937	17.25
643.697	17.25
644.457	19.25
645.216	15.25
645.976	16.25
646.736	14.25
647.495	15.25
648.255	14.25
649.014	13.25
649.774	14.25
650.533	13.25
651.292	14.25
652.051	16.25
652.81	12.25
653.569	12.25
654.328	10.25
655.087	12.25
655.846	11.25
656.604	10.25
657.363	12.25
658.121	11.25
658.88	11.25
659.638	10.25
660.397	8.25
661.155	12.25
661.913	11.25
662.671	10.25
663.429	12.25
664.187	10.25
664.945	9.25
665.703	7.25
666.46	9.25
667.218	7.25
667.976	7.25
668.733	10.25
669.49	8.25
670.248	7.25
671.005	8.25
671.762	7.25
672.519	10.25
673.276	8.25
674.033	10.25
674.79	8.25
675.547	9.25
676.304	8.25
677.06	7.25
677.817	9.25
678.574	7.25
679.33	10.25
680.086	7.25
680.843	8.25
681.599	9.25
682.355	9.25
683.111	9.25
683.867	7.25
684.623	7.25
685.379	7.25
686.135	7.25
686.89	8.25
687.646	10.25
688.402	7.25
689.157	5.25
689.912	8.25
690.668	6.25
691.423	8.25
692.178	7.25
692.933	5.25
693.688	7.25
694.443	7.25
695.198	5.25
695.953	6.25
696.708	6.25
697.462	9.25
698.217	5.25
698.972	6.25
699.726	6.25
700.48	6.25
701.235	8.25
701.989	7.25
702.743	7.25
703.497	8.25
704.251	9.25
705.005	5.25
705.759	8.25
706.513	5.25
707.266	6.25
708.02	6.25
708.774	8.25
709.527	7.25
710.28	10.25
711.034	6.25
711.787	8.25
712.54	8.25
713.293	7.25
714.046	7.25
714.799	8.25
715.552	8.25
716.305	6.25
717.058	7.25
717.81	5.25
718.563	8.25
719.315	6.25
720.068	9.25
720.82	7.25
721.573	7.25
722.325	6.25
723.077	5.25
723.829	10.25
724.581	9.25
725.333	7.25
726.085	8.25
726.836	7.25
727.588	6.25
728.34	7.25
729.091	5.25
729.843	8.25
730.594	7.25
731.346	10.25
732.097	8.25
732.848	8.25
733.599	10.25
734.35	7.25
735.101	9.25
735.852	9.25
736.603	10.25
737.354	8.25
738.104	9.25
738.855	7.25
739.605	9.25
740.356	9.25
741.106	8.25
741.856	9.25
742.607	10.25
743.357	9.25
744.107	9.25
744.857	10.25
745.607	9.25
746.357	9.25
747.106	11.25
747.856	9.25
748.606	10.25
749.355	10.25
750.105	10.25
750.854	11.25
751.603	11.25
752.353	11.25
753.102	11.25
753.851	10.25
754.6	11.25
755.349	11.25
756.098	11.25
756.847	14.25
757.595	12.25
758.344	14.25
759.093	10.25
759.841	11.25
760.589	12.25
761.338	12.25
762.086	13.25
762.834	12.25
763.582	11.25
764.331	14.25
765.079	14.25
765.826	14.25
766.574	10.25
767.322	13.25
768.07	12.25
768.817	14.25
769.565	11.25
770.312	14.25
771.06	16.25
771.807	15.25
772.554	15.25
773.302	14.25
774.049	14.25
774.796	14.25
775.543	18.25
776.29	15.25
777.036	17.25
777.783	16.25
778.53	15.25
779.276	16.25
780.023	16.25
780.769	14.25
781.516	15.25
782.262	15.25
783.008	16.25
783.754	15.25
784.5	18.25
785.246	16.25
785.992	14.25
786.738	16.25
787.484	14.25
788.23	18.25
788.975	16.25
789.721	17.25
790.466	14.25
791.212	14.25
791.957	15.25
792.702	15.25
793.447	13.25
794.193	12.25
794.938	15.25
795.683	13.25
796.427	11.25
797.172	12.25
797.917	12.25
798.662	12.25
799.406	13.25
800.151	11.25
800.895	14.25
801.64	10.25
802.384	13.25
803.128	12.25
803.872	11.25
804.616	11.25
805.36	9.25
806.104	10.25
806.848	11.25
807.592	9.25
808.336	9.25
809.079	8.25
809.823	7.25
810.566	9.25
811.31	9.25
812.053	8.25
812.796	11.25
813.539	9.25
814.283	7.25
815.026	9.25
815.769	9.25
816.511	10.25
817.254	8.25
817.997	7.25
818.74	6.25
819.482	6.25
820.225	8.25
820.967	5.25
821.71	8.25
822.452	6.25
823.194	7.25
823.936	7.25
824.678	5.25
825.42	5.25
826.162	6.25
826.904	5.25
827.646	7.25
828.388	5.25
829.129	7.25
829.871	7.25
830.612	4.25
831.354	6.25
832.095	7.25
832.836	7.25
833.577	6.25
834.319	4.25
835.06	5.25
835.801	6.25
836.542	4.25
837.282	6.25
838.023	4.25
838.764	6.25
839.504	5.25
840.245	3.25
840.985	2.25
841.726	7.25
842.466	4.25
843.206	4.25
843.946	10.25
844.687	7.25
845.427	3.25
846.166	3.25
846.906	4.25
847.646	3.25
848.386	6.25
849.125	3.25
849.865	2.25
850.605	7.25
851.344	3.25
852.083	6.25
852.823	5.25
853.562	3.25
854.301	4.25
855.04	3.25
855.779	5.25
856.518	-1.75
857.257	3.25
857.995	4.25
858.734	2.25
859.473	3.25
860.211	2.25
860.95	7.25
861.688	2.25
862.426	1.25
863.165	3.25
863.903	0.25
864.641	3.25
865.379	0.25
866.117	4.25
866.855	0.25
867.593	2.25
868.33	2.25
869.068	-0.75
869.806	3.25
870.543	0.25
871.28	0.25
872.018	2.25
872.755	0.25
873.492	0.25
874.229	2.25
874.967	2.25
875.703	0.25
876.44	3.25
877.177	2.25
877.914	-1.75
878.651	1.25
879.387	1.25
880.124	1.25
880.86	2.25
881.597	0.25
882.333	1.25
883.069	1.25
883.806	-0.75
884.542	2.25
885.278	0.25
886.014	-2.75
886.749	-1.75
887.485	0.25
888.221	1.25
888.957	-0.75
889.692	1.25
890.428	0.25
891.163	0.25
891.899	-1.75
892.634	1.25
893.369	0.25
894.104	-1.75
894.839	2.25
895.574	0.25
896.309	1.25
897.044	-0.75
897.779	2.25
898.514	0.25
899.248	-1.75
899.983	0.25
900.717	1.25
901.452	-0.75
902.186	0.25
902.92	0.25
903.654	1.25
904.389	0.25
905.123	0.25
905.857	0.25
906.59	2.25
907.324	0.25
908.058	1.25
908.792	-0.75
909.525	-1.75
910.259	0.25
910.992	1.25
911.726	-1.75
912.459	0.25
913.192	1.25
913.925	2.25
914.658	0.25
915.391	0.25
916.124	1.25
916.857	-1.75
917.59	1.25
918.323	0.25
919.055	-0.75
919.788	0.25
920.521	-0.75
921.253	1.25
921.985	0.25
922.718	0.25
923.45	0.25
924.182	0.25
924.914	-2.75
925.646	-2.75
926.378	-0.75
927.11	-0.75
927.841	1.25
928.573	-0.75
929.305	-0.75
930.036	1.25
930.768	-0.75
931.499	1.25
932.23	0.25
932.962	2.25
933.693	-0.75
934.424	-1.75
935.155	-0.75
935.886	-0.75
936.617	0.25
937.348	-0.75
938.078	-1.75
938.809	-0.75
939.54	-0.75
940.27	-2.75
941.001	1.25
941.731	0.25
942.461	-0.75
943.191	-0.75
943.922	0.25
944.652	0.25
945.382	2.25
946.112	-1.75
946.841	2.25
947.571	0.25
948.301	-1.75
949.031	0.25
949.76	-1.75
950.49	2.25
951.219	-0.75
951.948	1.25
952.678	-0.75
953.407	2.25
954.136	0.25
954.865	-1.75
955.594	-0.75
956.323	0.25
957.052	-2.75
957.78	0.25
958.509	-0.75
959.238	0.25
959.966	-1.75
960.695	1.25
961.423	-0.75
962.151	0.25
962.88	-0.75
963.608	-0.75
964.336	0.25
965.064	0.25
965.792	-1.75
966.52	0.25
967.247	-1.75
967.975	1.25
968.703	-1.75
969.43	-0.75
970.158	0.25
970.885	-0.75
971.613	1.25
972.34	1.25
973.067	0.25
973.794	1.25
974.521	-0.75
975.248	-0.75
975.975	1.25
976.702	-1.75
977.429	0.25
978.156	-0.75
978.882	-1.75
979.609	-1.75
980.335	-0.75
981.062	-0.75
981.788	1.25
982.514	0.25
983.24	-0.75
983.967	1.25
984.693	0.25
985.419	-0.75
986.144	1.25
986.87	1.25
987.596	-1.75
988.322	1.25
989.047	0.25
989.773	-3.75
990.498	-2.75
991.224	0.25
991.949	0.25
992.674	0.25
993.399	2.25
994.124	0.25
994.849	-1.75
995.574	2.25
996.299	0.25
997.024	1.25
997.749	-1.75
998.473	0.25
999.198	0.25
999.922	-0.75
1000.647	-1.75
1001.371	4.25
1002.095	-0.75
1002.82	1.25
1003.544	-2.75
1004.268	4.25
1004.992	4.25
1005.716	4.25
1006.439	5.25
1007.163	6.25
1007.887	4.25
1008.611	0.25
1009.334	1.25
1010.058	1.25
1010.781	-1.75
1011.504	1.25
1012.228	0.25
1012.951	0.25
1013.674	-0.75
1014.397	-1.75
1015.12	0.25
