节点500_705_QEPB04081__552__20-53-47-740.txt的数据

Date: Wed Nov 12 20:53:47 CST 2025
User: PC
Spectrometer: QEPB0408
触发模式: 0
积分时间 (秒): 1.000000E-2
Scans to average: 1
启用暗噪声校正: true
启用非线性校正: false
滑动平均宽度: 0
X轴模式: Wavelengths
Number of Pixels in Spectrum: 1044
>>>>>Begin Spectral Data<<<<<
220.843	4
221.644	5
222.444	8
223.244	5
224.045	6
224.845	7
225.645	8
226.445	8
227.245	5
228.045	6
228.845	6
229.645	10
230.444	8
231.244	6
232.043	9
232.843	8
233.642	8
234.442	10
235.241	8
236.04	10
236.839	9
237.638	10
238.437	11
239.236	11
240.035	8
240.833	13
241.632	11
242.43	11
243.229	12
244.027	13
244.826	13
245.624	13
246.422	13
247.22	15
248.018	14
248.816	17
249.614	13
250.412	14
251.21	16
252.007	16
252.805	16
253.602	17
254.4	16
255.197	17
255.994	18
256.791	22
257.589	18
258.386	19
259.183	18
259.979	22
260.776	19
261.573	21
262.37	21
263.166	21
263.963	25
264.759	22
265.556	24
266.352	27
267.148	24
267.944	27
268.74	27
269.536	26
270.332	30
271.128	29
271.924	30
272.719	29
273.515	29
274.311	29
275.106	31
275.901	35
276.697	30
277.492	29
278.287	31
279.082	30
279.877	30
280.672	31
281.467	31
282.262	29
283.056	31
283.851	33
284.646	32
285.44	31
286.234	32
287.029	33
287.823	32
288.617	31
289.411	33
290.205	34
290.999	30
291.793	29
292.587	30
293.381	31
294.174	26
294.968	28
295.761	25
296.555	26
297.348	26
298.141	27
298.935	28
299.728	25
300.521	23
301.314	22
302.107	23
302.899	24
303.692	24
304.485	21
305.277	21
306.07	22
306.862	24
307.655	19
308.447	22
309.239	21
310.031	19
310.823	19
311.615	22
312.407	17
313.199	19
313.991	18
314.783	17
315.574	18
316.366	16
317.157	16
317.949	13
318.74	17
319.531	16
320.322	13
321.113	16
321.904	15
322.695	13
323.486	12
324.277	16
325.068	14
325.858	12
326.649	12
327.439	14
328.23	13
329.02	14
329.81	12
330.6	13
331.391	12
332.181	11
332.971	11
333.76	13
334.55	13
335.34	10
336.13	11
336.919	13
337.709	13
338.498	13
339.287	14
340.077	15
340.866	10
341.655	12
342.444	12
343.233	10
344.022	12
344.811	9
345.6	11
346.388	12
347.177	12
347.965	11
348.754	11
349.542	10
350.33	11
351.119	9
351.907	9
352.695	11
353.483	10
354.271	11
355.059	11
355.846	12
356.634	11
357.422	11
358.209	9
358.997	8
359.784	9
360.571	10
361.359	9
362.146	11
362.933	11
363.72	9
364.507	9
365.294	7
366.081	10
366.867	11
367.654	7
368.44	10
369.227	8
370.013	12
370.8	11
371.586	11
372.372	10
373.158	11
373.944	8
374.73	10
375.516	10
376.302	11
377.088	9
377.873	10
378.659	8
379.445	8
380.23	9
381.015	10
381.801	10
382.586	11
383.371	13
384.156	8
384.941	9
385.726	10
386.511	9
387.296	11
388.08	11
388.865	12
389.649	11
390.434	11
391.218	12
392.003	10
392.787	12
393.571	11
394.355	11
395.139	14
395.923	11
396.707	14
397.491	12
398.274	12
399.058	12
399.842	15
400.625	13
401.408	14
402.192	15
402.975	13
403.758	14
404.541	13
405.324	14
406.107	15
406.89	15
407.673	14
408.456	15
409.238	15
410.021	15
410.803	16
411.586	15
412.368	17
413.151	19
413.933	17
414.715	17
415.497	14
416.279	17
417.061	17
417.843	19
418.624	18
419.406	22
420.188	21
420.969	17
421.751	22
422.532	20
423.313	23
424.095	25
424.876	27
425.657	24
426.438	25
427.219	26
428	27
428.78	28
429.561	29
430.342	30
431.122	30
431.903	31
432.683	36
433.464	34
434.244	37
435.024	42
435.804	38
436.584	40
437.364	47
438.144	47
438.924	54
439.704	54
440.483	58
441.263	62
442.042	63
442.822	75
443.601	75
444.38	84
445.16	91
445.939	97
446.718	109
447.497	115
448.276	131
449.054	140
449.833	155
450.612	170
451.391	188
452.169	207
452.948	228
453.726	262
454.504	278
455.282	321
456.061	347
456.839	395
457.617	436
458.395	479
459.172	540
459.95	608
460.728	663
461.506	734
462.283	821
463.061	923
463.838	1003
464.615	1123
465.393	1244
466.17	1379
466.947	1530
467.724	1705
468.501	1874
469.278	2070
470.055	2283
470.831	2493
471.608	2761
472.385	3031
473.161	3301
473.938	3632
474.714	3989
475.49	4312
476.266	4714
477.043	5162
477.819	5597
478.595	6095
479.371	6655
480.146	7216
480.922	7840
481.698	8531
482.473	9207
483.249	9962
484.024	10758
484.8	11654
485.575	12554
486.35	13566
487.126	14600
487.901	15722
488.676	16904
489.451	18201
490.225	19518
491	20914
491.775	22303
492.55	23795
493.324	25305
494.099	26999
494.873	28488
495.647	30160
496.422	31736
497.196	33435
497.97	34903
498.744	36452
499.518	37964
500.292	39345
501.066	40290
501.839	41289
502.613	42222
503.387	43055
504.16	43670
504.934	44028
505.707	44208
506.48	44169
507.253	43838
508.027	43553
508.8	42958
509.573	42208
510.346	41413
511.118	40622
511.891	39530
512.664	38327
513.437	36985
514.209	35770
514.982	34561
515.754	33252
516.526	31912
517.298	30733
518.071	29594
518.843	28431
519.615	27241
520.387	26193
521.159	25166
521.93	24157
522.702	23165
523.474	22153
524.245	21328
525.017	20465
525.788	19564
526.56	18790
527.331	17995
528.102	17166
528.873	16314
529.644	15525
530.415	14831
531.186	14169
531.957	13481
532.728	12828
533.498	12144
534.269	11526
535.039	10946
535.81	10299
536.58	9815
537.351	9277
538.121	8810
538.891	8325
539.661	7881
540.431	7460
541.201	7109
541.971	6691
542.741	6362
543.51	6021
544.28	5752
545.05	5465
545.819	5247
546.588	4965
547.358	4731
548.127	4503
548.896	4303
549.665	4029
550.434	3867
551.203	3657
551.972	3479
552.741	3290
553.51	3105
554.278	2926
555.047	2762
555.815	2631
556.584	2474
557.352	2336
558.121	2207
558.889	2109
559.657	1988
560.425	1866
561.193	1789
561.961	1703
562.729	1595
563.496	1505
564.264	1436
565.032	1360
565.799	1288
566.567	1206
567.334	1141
568.101	1065
568.869	1017
569.636	963
570.403	897
571.17	845
571.937	802
572.704	772
573.471	720
574.237	691
575.004	645
575.771	605
576.537	569
577.303	537
578.07	514
578.836	478
579.602	460
580.368	434
581.134	420
581.9	385
582.666	367
583.432	358
584.198	344
584.964	315
585.729	304
586.495	283
587.26	272
588.025	259
588.791	240
589.556	233
590.321	221
591.086	210
591.851	199
592.616	187
593.381	177
594.146	173
594.911	170
595.675	158
596.44	149
597.204	143
597.969	134
598.733	129
599.497	122
600.261	125
601.025	108
601.79	108
602.553	103
603.317	103
604.081	97
604.845	95
605.609	89
606.372	84
607.136	82
607.899	80
608.662	77
609.426	77
610.189	68
610.952	68
611.715	63
612.478	63
613.241	62
614.004	59
614.767	60
615.529	53
616.292	53
617.055	50
617.817	48
618.579	51
619.342	48
620.104	45
620.866	40
621.628	41
622.39	40
623.152	36
623.914	39
624.676	37
625.438	35
626.199	34
626.961	35
627.722	32
628.484	30
629.245	31
630.006	28
630.768	28
631.529	27
632.29	26
633.051	28
633.812	25
634.573	25
635.333	26
636.094	25
636.855	24
637.615	22
638.376	21
639.136	22
639.896	20
640.657	20
641.417	20
642.177	19
642.937	18
643.697	19
644.457	18
645.216	16
645.976	17
646.736	17
647.495	15
648.255	17
649.014	18
649.774	17
650.533	17
651.292	14
652.051	14
652.81	13
653.569	12
654.328	13
655.087	11
655.846	15
656.604	11
657.363	14
658.121	13
658.88	10
659.638	11
660.397	12
661.155	10
661.913	13
662.671	11
663.429	10
664.187	9
664.945	11
665.703	10
666.46	9
667.218	11
667.976	9
668.733	10
669.49	11
670.248	11
671.005	12
671.762	11
672.519	7
673.276	7
674.033	10
674.79	7
675.547	8
676.304	9
677.06	8
677.817	8
678.574	7
679.33	7
680.086	9
680.843	7
681.599	9
682.355	8
683.111	8
683.867	7
684.623	8
685.379	8
686.135	8
686.89	10
687.646	9
688.402	9
689.157	8
689.912	9
690.668	11
691.423	9
692.178	9
692.933	8
693.688	9
694.443	8
695.198	6
695.953	3
696.708	8
697.462	7
698.217	5
698.972	6
699.726	9
700.48	9
701.235	8
701.989	10
702.743	8
703.497	5
704.251	7
705.005	8
705.759	9
706.513	9
707.266	9
708.02	9
708.774	9
709.527	8
710.28	7
711.034	7
711.787	7
712.54	7
713.293	7
714.046	9
714.799	8
715.552	8
716.305	7
717.058	6
717.81	7
718.563	8
719.315	7
720.068	7
720.82	8
721.573	8
722.325	9
723.077	10
723.829	7
724.581	10
725.333	6
726.085	11
726.836	9
727.588	9
728.34	10
729.091	6
729.843	8
730.594	7
731.346	9
732.097	5
732.848	7
733.599	10
734.35	11
735.101	11
735.852	8
736.603	8
737.354	11
738.104	10
738.855	9
739.605	7
740.356	9
741.106	9
741.856	8
742.607	8
743.357	9
744.107	10
744.857	12
745.607	9
746.357	9
747.106	8
747.856	11
748.606	10
749.355	11
750.105	9
750.854	9
751.603	11
752.353	13
753.102	12
753.851	10
754.6	10
755.349	11
756.098	11
756.847	9
757.595	9
758.344	10
759.093	10
759.841	9
760.589	12
761.338	11
762.086	11
762.834	12
763.582	12
764.331	11
765.079	11
765.826	12
766.574	12
767.322	12
768.07	13
768.817	15
769.565	11
770.312	15
771.06	12
771.807	12
772.554	14
773.302	10
774.049	14
774.796	15
775.543	15
776.29	13
777.036	13
777.783	15
778.53	15
779.276	14
780.023	14
780.769	15
781.516	17
782.262	13
783.008	15
783.754	15
784.5	14
785.246	15
785.992	11
786.738	16
787.484	13
788.23	16
788.975	11
789.721	11
790.466	16
791.212	15
791.957	13
792.702	14
793.447	13
794.193	13
794.938	15
795.683	15
796.427	12
797.172	14
797.917	13
798.662	15
799.406	13
800.151	14
800.895	12
801.64	12
802.384	12
803.128	11
803.872	12
804.616	9
805.36	10
806.104	12
806.848	10
807.592	8
808.336	10
809.079	9
809.823	8
810.566	9
811.31	9
812.053	9
812.796	12
813.539	11
814.283	7
815.026	10
815.769	6
816.511	9
817.254	7
817.997	10
818.74	8
819.482	9
820.225	5
820.967	8
821.71	7
822.452	5
823.194	8
823.936	8
824.678	6
825.42	6
826.162	8
826.904	6
827.646	9
828.388	8
829.129	6
829.871	8
830.612	8
831.354	5
832.095	6
832.836	9
833.577	7
834.319	9
835.06	4
835.801	5
836.542	7
837.282	5
838.023	6
838.764	5
839.504	5
840.245	5
840.985	7
841.726	5
842.466	6
843.206	5
843.946	6
844.687	3
845.427	8
846.166	5
846.906	6
847.646	6
848.386	5
849.125	7
849.865	5
850.605	5
851.344	4
852.083	6
852.823	2
853.562	4
854.301	5
855.04	1
855.779	4
856.518	3
857.257	4
857.995	3
858.734	5
859.473	5
860.211	3
860.95	4
861.688	4
862.426	4
863.165	4
863.903	1
864.641	3
865.379	2
866.117	3
866.855	4
867.593	3
868.33	1
869.068	3
869.806	3
870.543	3
871.28	4
872.018	5
872.755	-1
873.492	3
874.229	1
874.967	2
875.703	2
876.44	4
877.177	2
877.914	1
878.651	4
879.387	2
880.124	0
880.86	1
881.597	2
882.333	1
883.069	2
883.806	1
884.542	4
885.278	1
886.014	1
886.749	1
887.485	2
888.221	3
888.957	1
889.692	4
890.428	-1
891.163	1
891.899	2
892.634	1
893.369	2
894.104	1
894.839	4
895.574	0
896.309	3
897.044	1
897.779	2
898.514	2
899.248	1
899.983	2
900.717	3
901.452	1
902.186	2
902.92	2
903.654	2
904.389	-1
905.123	1
905.857	-1
906.59	1
907.324	0
908.058	-2
908.792	0
909.525	2
910.259	2
910.992	-1
911.726	1
912.459	-1
913.192	0
913.925	1
914.658	1
915.391	1
916.124	1
916.857	0
917.59	-1
918.323	1
919.055	4
919.788	2
920.521	2
921.253	2
921.985	0
922.718	0
923.45	-1
924.182	2
924.914	-1
925.646	1
926.378	-1
927.11	-1
927.841	-1
928.573	-1
929.305	-1
930.036	2
930.768	0
931.499	1
932.23	-1
932.962	2
933.693	0
934.424	0
935.155	-2
935.886	1
936.617	0
937.348	1
938.078	-1
938.809	-1
939.54	-1
940.27	0
941.001	-1
941.731	2
942.461	-1
943.191	-1
943.922	-1
944.652	-1
945.382	3
946.112	2
946.841	2
947.571	1
948.301	1
949.031	-1
949.76	-1
950.49	1
951.219	2
951.948	0
952.678	0
953.407	0
954.136	1
954.865	0
955.594	2
956.323	2
957.052	0
957.78	2
958.509	2
959.238	0
959.966	0
960.695	-2
961.423	1
962.151	-1
962.88	0
963.608	0
964.336	0
965.064	1
965.792	1
966.52	1
967.247	0
967.975	2
968.703	-1
969.43	2
970.158	-1
970.885	1
971.613	2
972.34	-1
973.067	-1
973.794	0
974.521	0
975.248	0
975.975	-1
976.702	-1
977.429	-1
978.156	0
978.882	2
979.609	0
980.335	0
981.062	0
981.788	3
982.514	1
983.24	0
983.967	1
984.693	1
985.419	-1
986.144	1
986.87	0
987.596	0
988.322	0
989.047	0
989.773	1
990.498	1
991.224	-1
991.949	0
992.674	1
993.399	2
994.124	0
994.849	-1
995.574	1
996.299	-1
997.024	1
997.749	0
998.473	1
999.198	1
999.922	-1
1000.647	-1
1001.371	3
1002.095	-2
1002.82	-2
1003.544	0
1004.268	3
1004.992	4
1005.716	5
1006.439	4
1007.163	5
1007.887	8
1008.611	-1
1009.334	0
1010.058	2
1010.781	0
1011.504	2
1012.228	-1
1012.951	2
1013.674	0
1014.397	0
1015.12	-1
