节点500_705_QEPB04081__670__20-55-26-837.txt的数据

Date: Wed Nov 12 20:55:26 CST 2025
User: PC
Spectrometer: QEPB0408
触发模式: 0
积分时间 (秒): 1.000000E-2
Scans to average: 1
启用暗噪声校正: true
启用非线性校正: false
滑动平均宽度: 0
X轴模式: Wavelengths
Number of Pixels in Spectrum: 1044
>>>>>Begin Spectral Data<<<<<
220.843	7.88
221.644	2.88
222.444	5.88
223.244	5.88
224.045	5.88
224.845	6.88
225.645	4.88
226.445	8.88
227.245	5.88
228.045	8.88
228.845	6.88
229.645	7.88
230.444	10.88
231.244	6.88
232.043	9.88
232.843	5.88
233.642	7.88
234.442	9.88
235.241	10.88
236.04	6.88
236.839	7.88
237.638	10.88
238.437	8.88
239.236	9.88
240.035	11.88
240.833	10.88
241.632	14.88
242.43	11.88
243.229	11.88
244.027	11.88
244.826	9.88
245.624	10.88
246.422	11.88
247.22	14.88
248.018	11.88
248.816	12.88
249.614	14.88
250.412	12.88
251.21	12.88
252.007	10.88
252.805	14.88
253.602	15.88
254.4	16.88
255.197	16.88
255.994	17.88
256.791	15.88
257.589	16.88
258.386	19.88
259.183	18.88
259.979	21.88
260.776	19.88
261.573	19.88
262.37	22.88
263.166	20.88
263.963	20.88
264.759	21.88
265.556	22.88
266.352	25.88
267.148	27.88
267.944	26.88
268.74	26.88
269.536	25.88
270.332	26.88
271.128	23.88
271.924	25.88
272.719	24.88
273.515	28.88
274.311	28.88
275.106	29.88
275.901	29.88
276.697	30.88
277.492	30.88
278.287	29.88
279.082	33.88
279.877	32.88
280.672	30.88
281.467	28.88
282.262	29.88
283.056	30.88
283.851	34.88
284.646	30.88
285.44	30.88
286.234	29.88
287.029	31.88
287.823	30.88
288.617	30.88
289.411	29.88
290.205	29.88
290.999	31.88
291.793	29.88
292.587	26.88
293.381	28.88
294.174	26.88
294.968	27.88
295.761	26.88
296.555	28.88
297.348	23.88
298.141	26.88
298.935	28.88
299.728	26.88
300.521	26.88
301.314	21.88
302.107	24.88
302.899	22.88
303.692	21.88
304.485	21.88
305.277	21.88
306.07	21.88
306.862	17.88
307.655	21.88
308.447	21.88
309.239	21.88
310.031	20.88
310.823	18.88
311.615	17.88
312.407	17.88
313.199	16.88
313.991	17.88
314.783	17.88
315.574	15.88
316.366	14.88
317.157	16.88
317.949	14.88
318.74	13.88
319.531	14.88
320.322	12.88
321.113	16.88
321.904	14.88
322.695	14.88
323.486	11.88
324.277	13.88
325.068	10.88
325.858	12.88
326.649	12.88
327.439	10.88
328.23	11.88
329.02	11.88
329.81	10.88
330.6	13.88
331.391	11.88
332.181	12.88
332.971	12.88
333.76	10.88
334.55	13.88
335.34	10.88
336.13	11.88
336.919	7.88
337.709	11.88
338.498	12.88
339.287	10.88
340.077	9.88
340.866	11.88
341.655	9.88
342.444	8.88
343.233	8.88
344.022	10.88
344.811	10.88
345.6	12.88
346.388	10.88
347.177	10.88
347.965	9.88
348.754	10.88
349.542	10.88
350.33	9.88
351.119	10.88
351.907	10.88
352.695	11.88
353.483	10.88
354.271	10.88
355.059	11.88
355.846	9.88
356.634	12.88
357.422	9.88
358.209	10.88
358.997	6.88
359.784	9.88
360.571	8.88
361.359	8.88
362.146	8.88
362.933	10.88
363.72	9.88
364.507	9.88
365.294	7.88
366.081	9.88
366.867	8.88
367.654	8.88
368.44	8.88
369.227	7.88
370.013	10.88
370.8	7.88
371.586	9.88
372.372	10.88
373.158	8.88
373.944	9.88
374.73	9.88
375.516	7.88
376.302	10.88
377.088	9.88
377.873	10.88
378.659	9.88
379.445	10.88
380.23	9.88
381.015	8.88
381.801	9.88
382.586	8.88
383.371	10.88
384.156	8.88
384.941	10.88
385.726	7.88
386.511	10.88
387.296	10.88
388.08	8.88
388.865	11.88
389.649	10.88
390.434	10.88
391.218	7.88
392.003	11.88
392.787	14.88
393.571	8.88
394.355	11.88
395.139	10.88
395.923	8.88
396.707	11.88
397.491	12.88
398.274	12.88
399.058	10.88
399.842	14.88
400.625	12.88
401.408	11.88
402.192	11.88
402.975	13.88
403.758	13.88
404.541	12.88
405.324	15.88
406.107	16.88
406.89	13.88
407.673	15.88
408.456	15.88
409.238	14.88
410.021	13.88
410.803	17.88
411.586	16.88
412.368	12.88
413.151	16.88
413.933	16.88
414.715	18.88
415.497	16.88
416.279	18.88
417.061	14.88
417.843	18.88
418.624	17.88
419.406	20.88
420.188	18.88
420.969	21.88
421.751	20.88
422.532	18.88
423.313	19.88
424.095	25.88
424.876	22.88
425.657	25.88
426.438	23.88
427.219	24.88
428	26.88
428.78	26.88
429.561	27.88
430.342	28.88
431.122	28.88
431.903	28.88
432.683	32.88
433.464	35.88
434.244	35.88
435.024	37.88
435.804	42.88
436.584	42.88
437.364	48.88
438.144	50.88
438.924	50.88
439.704	51.88
440.483	59.88
441.263	60.88
442.042	65.88
442.822	73.88
443.601	79.88
444.38	86.88
445.16	90.88
445.939	95.88
446.718	110.88
447.497	121.88
448.276	130.88
449.054	146.88
449.833	154.88
450.612	169.88
451.391	193.88
452.169	210.88
452.948	235.88
453.726	263.88
454.504	292.88
455.282	319.88
456.061	351.88
456.839	399.88
457.617	435.88
458.395	494.88
459.172	548.88
459.95	602.88
460.728	679.88
461.506	750.88
462.283	831.88
463.061	929.88
463.838	1026.88
464.615	1146.88
465.393	1244.88
466.17	1383.88
466.947	1540.88
467.724	1697.88
468.501	1904.88
469.278	2053.88
470.055	2288.88
470.831	2508.88
471.608	2767.88
472.385	3020.88
473.161	3326.88
473.938	3619.88
474.714	3945.88
475.49	4344.88
476.266	4721.88
477.043	5114.88
477.819	5578.88
478.595	6074.88
479.371	6581.88
480.146	7186.88
480.922	7762.88
481.698	8447.88
482.473	9112.88
483.249	9850.88
484.024	10681.88
484.8	11461.88
485.575	12296.88
486.35	13339.88
487.126	14397.88
487.901	15494.88
488.676	16602.88
489.451	17860.88
490.225	19198.88
491	20515.88
491.775	21888.88
492.55	23356.88
493.324	24804.88
494.099	26434.88
494.873	27997.88
495.647	29510.88
496.422	31096.88
497.196	32717.88
497.97	34230.88
498.744	35656.88
499.518	37250.88
500.292	38547.88
501.066	39693.88
501.839	40628.88
502.613	41520.88
503.387	42369.88
504.16	42966.88
504.934	43416.88
505.707	43757.88
506.48	43689.88
507.253	43440.88
508.027	43122.88
508.8	42546.88
509.573	41924.88
510.346	41090.88
511.118	40393.88
511.891	39465.88
512.664	38190.88
513.437	37022.88
514.209	35711.88
514.982	34472.88
515.754	33292.88
516.526	31986.88
517.298	30824.88
518.071	29628.88
518.843	28524.88
519.615	27337.88
520.387	26287.88
521.159	25277.88
521.93	24226.88
522.702	23258.88
523.474	22313.88
524.245	21411.88
525.017	20515.88
525.788	19685.88
526.56	18864.88
527.331	18166.88
528.102	17235.88
528.873	16372.88
529.644	15631.88
530.415	14939.88
531.186	14256.88
531.957	13520.88
532.728	12887.88
533.498	12243.88
534.269	11607.88
535.039	11031.88
535.81	10466.88
536.58	9889.88
537.351	9366.88
538.121	8859.88
538.891	8413.88
539.661	7956.88
540.431	7545.88
541.201	7158.88
541.971	6778.88
542.741	6424.88
543.51	6064.88
544.28	5789.88
545.05	5506.88
545.819	5234.88
546.588	5002.88
547.358	4770.88
548.127	4536.88
548.896	4300.88
549.665	4097.88
550.434	3915.88
551.203	3692.88
551.972	3513.88
552.741	3351.88
553.51	3148.88
554.278	2964.88
555.047	2823.88
555.815	2673.88
556.584	2513.88
557.352	2382.88
558.121	2258.88
558.889	2117.88
559.657	2020.88
560.425	1924.88
561.193	1787.88
561.961	1715.88
562.729	1618.88
563.496	1532.88
564.264	1445.88
565.032	1364.88
565.799	1285.88
566.567	1217.88
567.334	1152.88
568.101	1093.88
568.869	1029.88
569.636	976.88
570.403	911.88
571.17	860.88
571.937	812.88
572.704	772.88
573.471	729.88
574.237	692.88
575.004	642.88
575.771	615.88
576.537	569.88
577.303	545.88
578.07	526.88
578.836	492.88
579.602	457.88
580.368	445.88
581.134	418.88
581.9	395.88
582.666	372.88
583.432	364.88
584.198	337.88
584.964	323.88
585.729	310.88
586.495	288.88
587.26	271.88
588.025	258.88
588.791	244.88
589.556	231.88
590.321	222.88
591.086	214.88
591.851	199.88
592.616	188.88
593.381	182.88
594.146	174.88
594.911	167.88
595.675	155.88
596.44	147.88
597.204	143.88
597.969	136.88
598.733	131.88
599.497	126.88
600.261	113.88
601.025	117.88
601.79	113.88
602.553	110.88
603.317	105.88
604.081	98.88
604.845	90.88
605.609	89.88
606.372	87.88
607.136	80.88
607.899	78.88
608.662	76.88
609.426	72.88
610.189	69.88
610.952	69.88
611.715	67.88
612.478	64.88
613.241	60.88
614.004	58.88
614.767	58.88
615.529	55.88
616.292	53.88
617.055	50.88
617.817	51.88
618.579	48.88
619.342	45.88
620.104	42.88
620.866	42.88
621.628	41.88
622.39	38.88
623.152	35.88
623.914	36.88
624.676	36.88
625.438	34.88
626.199	37.88
626.961	33.88
627.722	29.88
628.484	28.88
629.245	31.88
630.006	28.88
630.768	27.88
631.529	26.88
632.29	27.88
633.051	24.88
633.812	24.88
634.573	23.88
635.333	22.88
636.094	24.88
636.855	22.88
637.615	22.88
638.376	18.88
639.136	19.88
639.896	20.88
640.657	19.88
641.417	19.88
642.177	20.88
642.937	20.88
643.697	16.88
644.457	20.88
645.216	18.88
645.976	14.88
646.736	16.88
647.495	13.88
648.255	13.88
649.014	15.88
649.774	17.88
650.533	14.88
651.292	14.88
652.051	13.88
652.81	11.88
653.569	12.88
654.328	16.88
655.087	9.88
655.846	14.88
656.604	14.88
657.363	10.88
658.121	12.88
658.88	12.88
659.638	11.88
660.397	9.88
661.155	12.88
661.913	10.88
662.671	9.88
663.429	10.88
664.187	10.88
664.945	10.88
665.703	7.88
666.46	9.88
667.218	10.88
667.976	9.88
668.733	10.88
669.49	8.88
670.248	8.88
671.005	9.88
671.762	7.88
672.519	9.88
673.276	9.88
674.033	9.88
674.79	6.88
675.547	7.88
676.304	7.88
677.06	9.88
677.817	6.88
678.574	8.88
679.33	7.88
680.086	8.88
680.843	5.88
681.599	8.88
682.355	7.88
683.111	7.88
683.867	8.88
684.623	6.88
685.379	7.88
686.135	7.88
686.89	8.88
687.646	8.88
688.402	8.88
689.157	7.88
689.912	5.88
690.668	6.88
691.423	7.88
692.178	8.88
692.933	4.88
693.688	5.88
694.443	10.88
695.198	6.88
695.953	10.88
696.708	7.88
697.462	7.88
698.217	6.88
698.972	5.88
699.726	7.88
700.48	8.88
701.235	8.88
701.989	5.88
702.743	5.88
703.497	7.88
704.251	5.88
705.005	7.88
705.759	7.88
706.513	6.88
707.266	6.88
708.02	3.88
708.774	7.88
709.527	7.88
710.28	8.88
711.034	7.88
711.787	4.88
712.54	6.88
713.293	6.88
714.046	6.88
714.799	5.88
715.552	8.88
716.305	6.88
717.058	6.88
717.81	5.88
718.563	6.88
719.315	8.88
720.068	6.88
720.82	7.88
721.573	6.88
722.325	7.88
723.077	8.88
723.829	6.88
724.581	7.88
725.333	7.88
726.085	7.88
726.836	7.88
727.588	7.88
728.34	8.88
729.091	9.88
729.843	8.88
730.594	7.88
731.346	8.88
732.097	8.88
732.848	7.88
733.599	9.88
734.35	9.88
735.101	6.88
735.852	6.88
736.603	6.88
737.354	11.88
738.104	10.88
738.855	10.88
739.605	8.88
740.356	8.88
741.106	10.88
741.856	8.88
742.607	9.88
743.357	9.88
744.107	6.88
744.857	10.88
745.607	7.88
746.357	9.88
747.106	10.88
747.856	6.88
748.606	10.88
749.355	9.88
750.105	8.88
750.854	10.88
751.603	11.88
752.353	9.88
753.102	11.88
753.851	8.88
754.6	8.88
755.349	10.88
756.098	11.88
756.847	10.88
757.595	8.88
758.344	10.88
759.093	10.88
759.841	11.88
760.589	10.88
761.338	9.88
762.086	12.88
762.834	10.88
763.582	10.88
764.331	13.88
765.079	12.88
765.826	10.88
766.574	10.88
767.322	12.88
768.07	10.88
768.817	13.88
769.565	12.88
770.312	11.88
771.06	11.88
771.807	14.88
772.554	11.88
773.302	12.88
774.049	12.88
774.796	14.88
775.543	12.88
776.29	14.88
777.036	12.88
777.783	13.88
778.53	15.88
779.276	13.88
780.023	13.88
780.769	13.88
781.516	13.88
782.262	14.88
783.008	15.88
783.754	17.88
784.5	12.88
785.246	16.88
785.992	14.88
786.738	14.88
787.484	14.88
788.23	14.88
788.975	12.88
789.721	12.88
790.466	12.88
791.212	13.88
791.957	12.88
792.702	12.88
793.447	9.88
794.193	12.88
794.938	10.88
795.683	11.88
796.427	10.88
797.172	12.88
797.917	13.88
798.662	11.88
799.406	10.88
800.151	12.88
800.895	10.88
801.64	13.88
802.384	8.88
803.128	9.88
803.872	7.88
804.616	11.88
805.36	10.88
806.104	10.88
806.848	9.88
807.592	8.88
808.336	10.88
809.079	10.88
809.823	8.88
810.566	10.88
811.31	7.88
812.053	10.88
812.796	6.88
813.539	9.88
814.283	7.88
815.026	8.88
815.769	8.88
816.511	6.88
817.254	9.88
817.997	9.88
818.74	7.88
819.482	8.88
820.225	7.88
820.967	7.88
821.71	5.88
822.452	9.88
823.194	8.88
823.936	6.88
824.678	7.88
825.42	6.88
826.162	5.88
826.904	5.88
827.646	5.88
828.388	7.88
829.129	5.88
829.871	5.88
830.612	6.88
831.354	7.88
832.095	4.88
832.836	7.88
833.577	4.88
834.319	6.88
835.06	6.88
835.801	5.88
836.542	6.88
837.282	5.88
838.023	7.88
838.764	5.88
839.504	5.88
840.245	3.88
840.985	5.88
841.726	4.88
842.466	6.88
843.206	2.88
843.946	2.88
844.687	5.88
845.427	5.88
846.166	5.88
846.906	4.88
847.646	4.88
848.386	4.88
849.125	5.88
849.865	7.88
850.605	3.88
851.344	5.88
852.083	5.88
852.823	5.88
853.562	4.88
854.301	4.88
855.04	4.88
855.779	6.88
856.518	5.88
857.257	2.88
857.995	2.88
858.734	2.88
859.473	3.88
860.211	2.88
860.95	3.88
861.688	4.88
862.426	4.88
863.165	3.88
863.903	4.88
864.641	3.88
865.379	3.88
866.117	1.88
866.855	4.88
867.593	2.88
868.33	0.88
869.068	-0.12
869.806	4.88
870.543	3.88
871.28	2.88
872.018	2.88
872.755	3.88
873.492	0.88
874.229	1.88
874.967	1.88
875.703	3.88
876.44	2.88
877.177	3.88
877.914	2.88
878.651	3.88
879.387	1.88
880.124	1.88
880.86	0.88
881.597	1.88
882.333	1.88
883.069	1.88
883.806	0.88
884.542	-1.12
885.278	1.88
886.014	1.88
886.749	-0.12
887.485	1.88
888.221	0.88
888.957	0.88
889.692	-1.12
890.428	1.88
891.163	1.88
891.899	1.88
892.634	1.88
893.369	-1.12
894.104	-0.12
894.839	1.88
895.574	-1.12
896.309	2.88
897.044	0.88
897.779	1.88
898.514	0.88
899.248	2.88
899.983	0.88
900.717	-0.12
901.452	0.88
902.186	0.88
902.92	-0.12
903.654	-1.12
904.389	0.88
905.123	0.88
905.857	2.88
906.59	0.88
907.324	1.88
908.058	0.88
908.792	-1.12
909.525	1.88
910.259	-0.12
910.992	0.88
911.726	-1.12
912.459	2.88
913.192	0.88
913.925	1.88
914.658	-1.12
915.391	0.88
916.124	2.88
916.857	1.88
917.59	0.88
918.323	-0.12
919.055	2.88
919.788	0.88
920.521	1.88
921.253	-0.12
921.985	0.88
922.718	2.88
923.45	2.88
924.182	-1.12
924.914	0.88
925.646	-1.12
926.378	-1.12
927.11	-1.12
927.841	-0.12
928.573	-0.12
929.305	-0.12
930.036	-0.12
930.768	-0.12
931.499	0.88
932.23	-1.12
932.962	0.88
933.693	-0.12
934.424	-0.12
935.155	-1.12
935.886	0.88
936.617	-0.12
937.348	0.88
938.078	0.88
938.809	1.88
939.54	-0.12
940.27	-1.12
941.001	-1.12
941.731	0.88
942.461	0.88
943.191	0.88
943.922	-0.12
944.652	0.88
945.382	-0.12
946.112	-0.12
946.841	1.88
947.571	0.88
948.301	-0.12
949.031	1.88
949.76	-0.12
950.49	-0.12
951.219	-0.12
951.948	0.88
952.678	0.88
953.407	1.88
954.136	0.88
954.865	-0.12
955.594	-1.12
956.323	-1.12
957.052	0.88
957.78	-0.12
958.509	-2.12
959.238	-0.12
959.966	0.88
960.695	-0.12
961.423	0.88
962.151	0.88
962.88	2.88
963.608	-0.12
964.336	-0.12
965.064	1.88
965.792	3.88
966.52	-1.12
967.247	1.88
967.975	1.88
968.703	-2.12
969.43	0.88
970.158	0.88
970.885	-0.12
971.613	1.88
972.34	0.88
973.067	-0.12
973.794	-0.12
974.521	-0.12
975.248	-1.12
975.975	-3.12
976.702	0.88
977.429	-0.12
978.156	0.88
978.882	-1.12
979.609	-0.12
980.335	-0.12
981.062	-0.12
981.788	1.88
982.514	-2.12
983.24	0.88
983.967	-0.12
984.693	-3.12
985.419	-0.12
986.144	-1.12
986.87	0.88
987.596	-1.12
988.322	3.88
989.047	0.88
989.773	-2.12
990.498	0.88
991.224	-1.12
991.949	-0.12
992.674	2.88
993.399	-0.12
994.124	0.88
994.849	0.88
995.574	-0.12
996.299	0.88
997.024	1.88
997.749	-0.12
998.473	0.88
999.198	0.88
999.922	0.88
1000.647	0.88
1001.371	2.88
1002.095	-1.12
1002.82	-1.12
1003.544	-0.12
1004.268	3.88
1004.992	4.88
1005.716	3.88
1006.439	3.88
1007.163	3.88
1007.887	2.88
1008.611	0.88
1009.334	-0.12
1010.058	1.88
1010.781	-0.12
1011.504	-0.12
1012.228	0.88
1012.951	-0.12
1013.674	-0.12
1014.397	0.88
1015.12	-1.12
