节点500_705_QEPB04081__669__20-55-25-831.txt的数据

Date: Wed Nov 12 20:55:25 CST 2025
User: PC
Spectrometer: QEPB0408
触发模式: 0
积分时间 (秒): 1.000000E-2
Scans to average: 1
启用暗噪声校正: true
启用非线性校正: false
滑动平均宽度: 0
X轴模式: Wavelengths
Number of Pixels in Spectrum: 1044
>>>>>Begin Spectral Data<<<<<
220.843	6.25
221.644	8.25
222.444	5.25
223.244	8.25
224.045	7.25
224.845	5.25
225.645	4.25
226.445	7.25
227.245	7.25
228.045	4.25
228.845	9.25
229.645	9.25
230.444	7.25
231.244	10.25
232.043	7.25
232.843	10.25
233.642	4.25
234.442	9.25
235.241	7.25
236.04	11.25
236.839	9.25
237.638	9.25
238.437	11.25
239.236	12.25
240.035	11.25
240.833	13.25
241.632	11.25
242.43	12.25
243.229	12.25
244.027	11.25
244.826	13.25
245.624	15.25
246.422	11.25
247.22	13.25
248.018	15.25
248.816	14.25
249.614	15.25
250.412	15.25
251.21	15.25
252.007	15.25
252.805	15.25
253.602	16.25
254.4	15.25
255.197	18.25
255.994	17.25
256.791	16.25
257.589	18.25
258.386	17.25
259.183	20.25
259.979	20.25
260.776	23.25
261.573	19.25
262.37	21.25
263.166	20.25
263.963	22.25
264.759	24.25
265.556	21.25
266.352	22.25
267.148	22.25
267.944	23.25
268.74	26.25
269.536	28.25
270.332	26.25
271.128	27.25
271.924	27.25
272.719	29.25
273.515	29.25
274.311	29.25
275.106	32.25
275.901	30.25
276.697	29.25
277.492	31.25
278.287	32.25
279.082	32.25
279.877	31.25
280.672	32.25
281.467	31.25
282.262	31.25
283.056	31.25
283.851	34.25
284.646	26.25
285.44	32.25
286.234	31.25
287.029	33.25
287.823	34.25
288.617	31.25
289.411	31.25
290.205	31.25
290.999	31.25
291.793	30.25
292.587	28.25
293.381	30.25
294.174	27.25
294.968	30.25
295.761	26.25
296.555	24.25
297.348	25.25
298.141	25.25
298.935	29.25
299.728	25.25
300.521	27.25
301.314	24.25
302.107	22.25
302.899	22.25
303.692	20.25
304.485	22.25
305.277	22.25
306.07	19.25
306.862	19.25
307.655	21.25
308.447	19.25
309.239	20.25
310.031	23.25
310.823	18.25
311.615	18.25
312.407	16.25
313.199	22.25
313.991	18.25
314.783	17.25
315.574	15.25
316.366	15.25
317.157	18.25
317.949	13.25
318.74	15.25
319.531	14.25
320.322	15.25
321.113	15.25
321.904	12.25
322.695	12.25
323.486	11.25
324.277	12.25
325.068	14.25
325.858	11.25
326.649	12.25
327.439	15.25
328.23	14.25
329.02	13.25
329.81	13.25
330.6	14.25
331.391	12.25
332.181	11.25
332.971	13.25
333.76	13.25
334.55	12.25
335.34	11.25
336.13	14.25
336.919	12.25
337.709	10.25
338.498	11.25
339.287	11.25
340.077	11.25
340.866	11.25
341.655	12.25
342.444	12.25
343.233	11.25
344.022	11.25
344.811	14.25
345.6	13.25
346.388	10.25
347.177	12.25
347.965	12.25
348.754	10.25
349.542	9.25
350.33	11.25
351.119	11.25
351.907	8.25
352.695	9.25
353.483	11.25
354.271	9.25
355.059	11.25
355.846	11.25
356.634	10.25
357.422	8.25
358.209	8.25
358.997	11.25
359.784	9.25
360.571	8.25
361.359	11.25
362.146	9.25
362.933	10.25
363.72	10.25
364.507	11.25
365.294	10.25
366.081	10.25
366.867	9.25
367.654	10.25
368.44	10.25
369.227	9.25
370.013	10.25
370.8	11.25
371.586	11.25
372.372	12.25
373.158	10.25
373.944	11.25
374.73	10.25
375.516	10.25
376.302	8.25
377.088	9.25
377.873	10.25
378.659	8.25
379.445	9.25
380.23	7.25
381.015	9.25
381.801	9.25
382.586	11.25
383.371	8.25
384.156	13.25
384.941	6.25
385.726	9.25
386.511	9.25
387.296	9.25
388.08	11.25
388.865	12.25
389.649	11.25
390.434	12.25
391.218	12.25
392.003	11.25
392.787	10.25
393.571	12.25
394.355	11.25
395.139	13.25
395.923	12.25
396.707	9.25
397.491	13.25
398.274	13.25
399.058	13.25
399.842	15.25
400.625	10.25
401.408	13.25
402.192	13.25
402.975	11.25
403.758	14.25
404.541	15.25
405.324	14.25
406.107	15.25
406.89	13.25
407.673	14.25
408.456	14.25
409.238	17.25
410.021	17.25
410.803	15.25
411.586	15.25
412.368	15.25
413.151	13.25
413.933	18.25
414.715	17.25
415.497	20.25
416.279	15.25
417.061	17.25
417.843	20.25
418.624	17.25
419.406	18.25
420.188	19.25
420.969	20.25
421.751	20.25
422.532	23.25
423.313	25.25
424.095	23.25
424.876	24.25
425.657	24.25
426.438	26.25
427.219	24.25
428	27.25
428.78	27.25
429.561	30.25
430.342	30.25
431.122	31.25
431.903	33.25
432.683	34.25
433.464	36.25
434.244	39.25
435.024	38.25
435.804	38.25
436.584	45.25
437.364	45.25
438.144	52.25
438.924	51.25
439.704	54.25
440.483	54.25
441.263	63.25
442.042	70.25
442.822	72.25
443.601	80.25
444.38	83.25
445.16	96.25
445.939	94.25
446.718	111.25
447.497	115.25
448.276	128.25
449.054	142.25
449.833	156.25
450.612	175.25
451.391	191.25
452.169	209.25
452.948	234.25
453.726	266.25
454.504	289.25
455.282	318.25
456.061	350.25
456.839	391.25
457.617	442.25
458.395	488.25
459.172	546.25
459.95	609.25
460.728	676.25
461.506	758.25
462.283	841.25
463.061	919.25
463.838	1034.25
464.615	1137.25
465.393	1259.25
466.17	1387.25
466.947	1535.25
467.724	1705.25
468.501	1873.25
469.278	2075.25
470.055	2283.25
470.831	2510.25
471.608	2756.25
472.385	3040.25
473.161	3293.25
473.938	3608.25
474.714	3958.25
475.49	4343.25
476.266	4731.25
477.043	5155.25
477.819	5561.25
478.595	6059.25
479.371	6579.25
480.146	7162.25
480.922	7766.25
481.698	8410.25
482.473	9090.25
483.249	9857.25
484.024	10682.25
484.8	11496.25
485.575	12401.25
486.35	13360.25
487.126	14409.25
487.901	15483.25
488.676	16632.25
489.451	17906.25
490.225	19194.25
491	20564.25
491.775	21917.25
492.55	23383.25
493.324	24818.25
494.099	26357.25
494.873	27945.25
495.647	29565.25
496.422	31120.25
497.196	32711.25
497.97	34280.25
498.744	35691.25
499.518	37249.25
500.292	38614.25
501.066	39663.25
501.839	40635.25
502.613	41632.25
503.387	42468.25
504.16	43098.25
504.934	43329.25
505.707	43762.25
506.48	43633.25
507.253	43400.25
508.027	43152.25
508.8	42608.25
509.573	42045.25
510.346	41284.25
511.118	40386.25
511.891	39469.25
512.664	38128.25
513.437	37024.25
514.209	35755.25
514.982	34559.25
515.754	33288.25
516.526	31985.25
517.298	30723.25
518.071	29631.25
518.843	28475.25
519.615	27319.25
520.387	26237.25
521.159	25286.25
521.93	24256.25
522.702	23205.25
523.474	22316.25
524.245	21392.25
525.017	20512.25
525.788	19629.25
526.56	18918.25
527.331	18130.25
528.102	17176.25
528.873	16388.25
529.644	15588.25
530.415	14936.25
531.186	14227.25
531.957	13571.25
532.728	12928.25
533.498	12240.25
534.269	11592.25
535.039	11023.25
535.81	10436.25
536.58	9867.25
537.351	9347.25
538.121	8863.25
538.891	8402.25
539.661	7973.25
540.431	7532.25
541.201	7145.25
541.971	6813.25
542.741	6415.25
543.51	6080.25
544.28	5782.25
545.05	5541.25
545.819	5281.25
546.588	5013.25
547.358	4772.25
548.127	4537.25
548.896	4321.25
549.665	4089.25
550.434	3890.25
551.203	3676.25
551.972	3519.25
552.741	3329.25
553.51	3131.25
554.278	2972.25
555.047	2809.25
555.815	2652.25
556.584	2511.25
557.352	2369.25
558.121	2268.25
558.889	2123.25
559.657	2022.25
560.425	1897.25
561.193	1810.25
561.961	1706.25
562.729	1634.25
563.496	1530.25
564.264	1441.25
565.032	1376.25
565.799	1287.25
566.567	1213.25
567.334	1161.25
568.101	1075.25
568.869	1033.25
569.636	975.25
570.403	916.25
571.17	875.25
571.937	821.25
572.704	775.25
573.471	728.25
574.237	679.25
575.004	640.25
575.771	606.25
576.537	579.25
577.303	546.25
578.07	518.25
578.836	490.25
579.602	451.25
580.368	436.25
581.134	423.25
581.9	400.25
582.666	369.25
583.432	362.25
584.198	342.25
584.964	318.25
585.729	302.25
586.495	291.25
587.26	269.25
588.025	265.25
588.791	246.25
589.556	230.25
590.321	222.25
591.086	208.25
591.851	196.25
592.616	198.25
593.381	186.25
594.146	170.25
594.911	166.25
595.675	156.25
596.44	154.25
597.204	143.25
597.969	138.25
598.733	131.25
599.497	123.25
600.261	119.25
601.025	115.25
601.79	108.25
602.553	105.25
603.317	101.25
604.081	100.25
604.845	95.25
605.609	91.25
606.372	84.25
607.136	82.25
607.899	79.25
608.662	76.25
609.426	72.25
610.189	71.25
610.952	66.25
611.715	67.25
612.478	62.25
613.241	64.25
614.004	57.25
614.767	60.25
615.529	57.25
616.292	50.25
617.055	51.25
617.817	50.25
618.579	46.25
619.342	46.25
620.104	42.25
620.866	43.25
621.628	41.25
622.39	43.25
623.152	41.25
623.914	39.25
624.676	36.25
625.438	34.25
626.199	35.25
626.961	32.25
627.722	32.25
628.484	29.25
629.245	32.25
630.006	29.25
630.768	29.25
631.529	30.25
632.29	26.25
633.051	25.25
633.812	22.25
634.573	24.25
635.333	24.25
636.094	23.25
636.855	24.25
637.615	21.25
638.376	22.25
639.136	19.25
639.896	20.25
640.657	19.25
641.417	19.25
642.177	19.25
642.937	18.25
643.697	17.25
644.457	17.25
645.216	18.25
645.976	19.25
646.736	15.25
647.495	15.25
648.255	15.25
649.014	15.25
649.774	17.25
650.533	14.25
651.292	14.25
652.051	14.25
652.81	15.25
653.569	14.25
654.328	13.25
655.087	13.25
655.846	12.25
656.604	13.25
657.363	14.25
658.121	13.25
658.88	13.25
659.638	11.25
660.397	13.25
661.155	12.25
661.913	14.25
662.671	7.25
663.429	11.25
664.187	10.25
664.945	11.25
665.703	14.25
666.46	8.25
667.218	9.25
667.976	8.25
668.733	10.25
669.49	10.25
670.248	11.25
671.005	12.25
671.762	9.25
672.519	9.25
673.276	10.25
674.033	8.25
674.79	9.25
675.547	9.25
676.304	9.25
677.06	10.25
677.817	10.25
678.574	8.25
679.33	9.25
680.086	9.25
680.843	9.25
681.599	8.25
682.355	7.25
683.111	7.25
683.867	7.25
684.623	10.25
685.379	5.25
686.135	9.25
686.89	7.25
687.646	10.25
688.402	8.25
689.157	8.25
689.912	7.25
690.668	7.25
691.423	10.25
692.178	9.25
692.933	10.25
693.688	8.25
694.443	9.25
695.198	6.25
695.953	8.25
696.708	9.25
697.462	6.25
698.217	5.25
698.972	7.25
699.726	7.25
700.48	6.25
701.235	6.25
701.989	9.25
702.743	7.25
703.497	7.25
704.251	9.25
705.005	5.25
705.759	6.25
706.513	6.25
707.266	10.25
708.02	6.25
708.774	8.25
709.527	9.25
710.28	7.25
711.034	9.25
711.787	7.25
712.54	8.25
713.293	9.25
714.046	7.25
714.799	6.25
715.552	7.25
716.305	8.25
717.058	8.25
717.81	8.25
718.563	9.25
719.315	6.25
720.068	8.25
720.82	7.25
721.573	7.25
722.325	10.25
723.077	7.25
723.829	7.25
724.581	7.25
725.333	9.25
726.085	8.25
726.836	9.25
727.588	8.25
728.34	8.25
729.091	8.25
729.843	7.25
730.594	8.25
731.346	9.25
732.097	7.25
732.848	9.25
733.599	9.25
734.35	9.25
735.101	8.25
735.852	9.25
736.603	9.25
737.354	9.25
738.104	9.25
738.855	8.25
739.605	11.25
740.356	11.25
741.106	9.25
741.856	9.25
742.607	11.25
743.357	10.25
744.107	9.25
744.857	9.25
745.607	8.25
746.357	9.25
747.106	8.25
747.856	8.25
748.606	11.25
749.355	10.25
750.105	9.25
750.854	11.25
751.603	10.25
752.353	12.25
753.102	10.25
753.851	12.25
754.6	10.25
755.349	12.25
756.098	11.25
756.847	11.25
757.595	13.25
758.344	12.25
759.093	11.25
759.841	11.25
760.589	9.25
761.338	11.25
762.086	13.25
762.834	11.25
763.582	12.25
764.331	14.25
765.079	12.25
765.826	13.25
766.574	9.25
767.322	12.25
768.07	13.25
768.817	11.25
769.565	12.25
770.312	11.25
771.06	11.25
771.807	14.25
772.554	14.25
773.302	14.25
774.049	13.25
774.796	13.25
775.543	14.25
776.29	14.25
777.036	14.25
777.783	15.25
778.53	14.25
779.276	14.25
780.023	13.25
780.769	15.25
781.516	16.25
782.262	13.25
783.008	17.25
783.754	18.25
784.5	14.25
785.246	12.25
785.992	16.25
786.738	13.25
787.484	15.25
788.23	15.25
788.975	15.25
789.721	14.25
790.466	12.25
791.212	15.25
791.957	15.25
792.702	11.25
793.447	13.25
794.193	15.25
794.938	15.25
795.683	14.25
796.427	12.25
797.172	14.25
797.917	14.25
798.662	12.25
799.406	11.25
800.151	14.25
800.895	9.25
801.64	11.25
802.384	11.25
803.128	11.25
803.872	13.25
804.616	10.25
805.36	9.25
806.104	11.25
806.848	9.25
807.592	10.25
808.336	11.25
809.079	12.25
809.823	10.25
810.566	11.25
811.31	7.25
812.053	10.25
812.796	7.25
813.539	9.25
814.283	10.25
815.026	7.25
815.769	9.25
816.511	8.25
817.254	6.25
817.997	9.25
818.74	8.25
819.482	7.25
820.225	7.25
820.967	9.25
821.71	9.25
822.452	6.25
823.194	9.25
823.936	7.25
824.678	6.25
825.42	7.25
826.162	7.25
826.904	7.25
827.646	7.25
828.388	7.25
829.129	8.25
829.871	7.25
830.612	7.25
831.354	6.25
832.095	8.25
832.836	7.25
833.577	5.25
834.319	6.25
835.06	6.25
835.801	7.25
836.542	6.25
837.282	5.25
838.023	6.25
838.764	6.25
839.504	6.25
840.245	6.25
840.985	6.25
841.726	5.25
842.466	7.25
843.206	6.25
843.946	6.25
844.687	6.25
845.427	5.25
846.166	7.25
846.906	4.25
847.646	8.25
848.386	6.25
849.125	4.25
849.865	5.25
850.605	4.25
851.344	7.25
852.083	5.25
852.823	3.25
853.562	6.25
854.301	3.25
855.04	7.25
855.779	4.25
856.518	6.25
857.257	4.25
857.995	3.25
858.734	3.25
859.473	4.25
860.211	4.25
860.95	3.25
861.688	4.25
862.426	5.25
863.165	4.25
863.903	3.25
864.641	1.25
865.379	1.25
866.117	3.25
866.855	4.25
867.593	3.25
868.33	3.25
869.068	2.25
869.806	4.25
870.543	2.25
871.28	1.25
872.018	1.25
872.755	1.25
873.492	1.25
874.229	3.25
874.967	2.25
875.703	3.25
876.44	0.25
877.177	1.25
877.914	1.25
878.651	0.25
879.387	3.25
880.124	3.25
880.86	1.25
881.597	1.25
882.333	1.25
883.069	4.25
883.806	1.25
884.542	2.25
885.278	4.25
886.014	1.25
886.749	2.25
887.485	1.25
888.221	0.25
888.957	1.25
889.692	1.25
890.428	2.25
891.163	4.25
891.899	2.25
892.634	1.25
893.369	2.25
894.104	1.25
894.839	2.25
895.574	1.25
896.309	0.25
897.044	0.25
897.779	1.25
898.514	1.25
899.248	1.25
899.983	-0.75
900.717	1.25
901.452	2.25
902.186	3.25
902.92	0.25
903.654	2.25
904.389	1.25
905.123	1.25
905.857	2.25
906.59	1.25
907.324	2.25
908.058	2.25
908.792	2.25
909.525	2.25
910.259	0.25
910.992	0.25
911.726	0.25
912.459	2.25
913.192	1.25
913.925	0.25
914.658	0.25
915.391	0.25
916.124	2.25
916.857	3.25
917.59	1.25
918.323	0.25
919.055	0.25
919.788	-0.75
920.521	1.25
921.253	1.25
921.985	3.25
922.718	-0.75
923.45	1.25
924.182	1.25
924.914	1.25
925.646	0.25
926.378	1.25
927.11	3.25
927.841	2.25
928.573	1.25
929.305	1.25
930.036	3.25
930.768	1.25
931.499	2.25
932.23	2.25
932.962	-1.75
933.693	3.25
934.424	1.25
935.155	2.25
935.886	-0.75
936.617	-0.75
937.348	0.25
938.078	-1.75
938.809	0.25
939.54	2.25
940.27	2.25
941.001	0.25
941.731	0.25
942.461	-1.75
943.191	-1.75
943.922	1.25
944.652	2.25
945.382	1.25
946.112	0.25
946.841	2.25
947.571	0.25
948.301	3.25
949.031	1.25
949.76	2.25
950.49	1.25
951.219	0.25
951.948	1.25
952.678	2.25
953.407	0.25
954.136	1.25
954.865	1.25
955.594	1.25
956.323	1.25
957.052	0.25
957.78	1.25
958.509	0.25
959.238	2.25
959.966	0.25
960.695	0.25
961.423	2.25
962.151	-0.75
962.88	1.25
963.608	-0.75
964.336	-1.75
965.064	1.25
965.792	-0.75
966.52	1.25
967.247	1.25
967.975	0.25
968.703	0.25
969.43	2.25
970.158	1.25
970.885	0.25
971.613	0.25
972.34	0.25
973.067	1.25
973.794	1.25
974.521	-0.75
975.248	0.25
975.975	-0.75
976.702	2.25
977.429	1.25
978.156	2.25
978.882	1.25
979.609	0.25
980.335	2.25
981.062	1.25
981.788	-1.75
982.514	0.25
983.24	2.25
983.967	-0.75
984.693	1.25
985.419	1.25
986.144	3.25
986.87	-0.75
987.596	1.25
988.322	-0.75
989.047	3.25
989.773	0.25
990.498	-0.75
991.224	1.25
991.949	-0.75
992.674	0.25
993.399	0.25
994.124	0.25
994.849	1.25
995.574	1.25
996.299	-0.75
997.024	1.25
997.749	0.25
998.473	1.25
999.198	1.25
999.922	0.25
1000.647	-1.75
1001.371	0.25
1002.095	-0.75
1002.82	1.25
1003.544	-0.75
1004.268	3.25
1004.992	3.25
1005.716	4.25
1006.439	4.25
1007.163	8.25
1007.887	5.25
1008.611	2.25
1009.334	0.25
1010.058	0.25
1010.781	0.25
1011.504	-0.75
1012.228	1.25
1012.951	-0.75
1013.674	2.25
1014.397	-0.75
1015.12	-0.75
