节点500_705_QEPB04081__548__20-53-44-700.txt的数据

Date: Wed Nov 12 20:53:44 CST 2025
User: PC
Spectrometer: QEPB0408
触发模式: 0
积分时间 (秒): 1.000000E-2
Scans to average: 1
启用暗噪声校正: true
启用非线性校正: false
滑动平均宽度: 0
X轴模式: Wavelengths
Number of Pixels in Spectrum: 1044
>>>>>Begin Spectral Data<<<<<
220.843	7
221.644	5
222.444	4
223.244	6
224.045	4
224.845	5
225.645	5
226.445	7
227.245	7
228.045	10
228.845	10
229.645	4
230.444	9
231.244	6
232.043	9
232.843	8
233.642	11
234.442	11
235.241	7
236.04	10
236.839	11
237.638	10
238.437	11
239.236	8
240.035	12
240.833	9
241.632	13
242.43	11
243.229	12
244.027	12
244.826	13
245.624	13
246.422	13
247.22	15
248.018	12
248.816	11
249.614	15
250.412	15
251.21	16
252.007	15
252.805	16
253.602	14
254.4	16
255.197	16
255.994	18
256.791	19
257.589	18
258.386	16
259.183	21
259.979	19
260.776	23
261.573	22
262.37	22
263.166	22
263.963	23
264.759	25
265.556	25
266.352	27
267.148	25
267.944	27
268.74	26
269.536	25
270.332	28
271.128	27
271.924	30
272.719	29
273.515	29
274.311	30
275.106	29
275.901	30
276.697	30
277.492	31
278.287	32
279.082	31
279.877	32
280.672	34
281.467	32
282.262	31
283.056	31
283.851	34
284.646	32
285.44	32
286.234	31
287.029	30
287.823	31
288.617	31
289.411	32
290.205	30
290.999	32
291.793	30
292.587	33
293.381	30
294.174	29
294.968	27
295.761	27
296.555	27
297.348	24
298.141	26
298.935	28
299.728	24
300.521	23
301.314	26
302.107	22
302.899	23
303.692	22
304.485	24
305.277	23
306.07	22
306.862	22
307.655	19
308.447	22
309.239	19
310.031	23
310.823	19
311.615	20
312.407	19
313.199	18
313.991	17
314.783	15
315.574	17
316.366	14
317.157	14
317.949	15
318.74	15
319.531	17
320.322	13
321.113	15
321.904	14
322.695	15
323.486	13
324.277	14
325.068	16
325.858	14
326.649	14
327.439	13
328.23	11
329.02	12
329.81	14
330.6	10
331.391	12
332.181	12
332.971	12
333.76	8
334.55	12
335.34	12
336.13	13
336.919	10
337.709	11
338.498	11
339.287	8
340.077	13
340.866	12
341.655	13
342.444	11
343.233	12
344.022	12
344.811	10
345.6	11
346.388	9
347.177	10
347.965	12
348.754	8
349.542	9
350.33	11
351.119	10
351.907	10
352.695	11
353.483	12
354.271	11
355.059	12
355.846	12
356.634	11
357.422	12
358.209	11
358.997	10
359.784	10
360.571	12
361.359	11
362.146	11
362.933	10
363.72	9
364.507	13
365.294	9
366.081	11
366.867	9
367.654	10
368.44	13
369.227	11
370.013	7
370.8	9
371.586	8
372.372	10
373.158	8
373.944	11
374.73	11
375.516	8
376.302	8
377.088	9
377.873	10
378.659	8
379.445	10
380.23	11
381.015	9
381.801	11
382.586	9
383.371	11
384.156	11
384.941	8
385.726	10
386.511	11
387.296	13
388.08	8
388.865	11
389.649	11
390.434	11
391.218	11
392.003	11
392.787	12
393.571	13
394.355	12
395.139	13
395.923	13
396.707	12
397.491	12
398.274	13
399.058	11
399.842	14
400.625	15
401.408	13
402.192	13
402.975	14
403.758	14
404.541	14
405.324	14
406.107	16
406.89	17
407.673	14
408.456	16
409.238	17
410.021	15
410.803	18
411.586	17
412.368	17
413.151	15
413.933	17
414.715	18
415.497	18
416.279	19
417.061	18
417.843	20
418.624	19
419.406	19
420.188	19
420.969	22
421.751	19
422.532	20
423.313	25
424.095	23
424.876	23
425.657	21
426.438	24
427.219	24
428	26
428.78	26
429.561	28
430.342	29
431.122	31
431.903	35
432.683	33
433.464	33
434.244	37
435.024	37
435.804	39
436.584	44
437.364	47
438.144	47
438.924	52
439.704	56
440.483	59
441.263	66
442.042	70
442.822	68
443.601	77
444.38	84
445.16	89
445.939	98
446.718	111
447.497	117
448.276	127
449.054	142
449.833	155
450.612	170
451.391	189
452.169	211
452.948	228
453.726	254
454.504	285
455.282	316
456.061	357
456.839	393
457.617	437
458.395	476
459.172	525
459.95	597
460.728	682
461.506	739
462.283	824
463.061	916
463.838	1018
464.615	1123
465.393	1245
466.17	1390
466.947	1525
467.724	1695
468.501	1878
469.278	2076
470.055	2275
470.831	2482
471.608	2763
472.385	3007
473.161	3324
473.938	3599
474.714	3959
475.49	4321
476.266	4717
477.043	5152
477.819	5609
478.595	6101
479.371	6662
480.146	7207
480.922	7858
481.698	8483
482.473	9176
483.249	9962
484.024	10793
484.8	11674
485.575	12593
486.35	13591
487.126	14672
487.901	15715
488.676	17003
489.451	18269
490.225	19563
491	20963
491.775	22389
492.55	23867
493.324	25381
494.099	26995
494.873	28517
495.647	30187
496.422	31772
497.196	33507
497.97	35013
498.744	36415
499.518	37975
500.292	39368
501.066	40427
501.839	41407
502.613	42248
503.387	43049
504.16	43679
504.934	44103
505.707	44233
506.48	44119
507.253	43992
508.027	43602
508.8	42988
509.573	42239
510.346	41503
511.118	40658
511.891	39594
512.664	38292
513.437	37011
514.209	35832
514.982	34491
515.754	33219
516.526	31937
517.298	30732
518.071	29563
518.843	28483
519.615	27291
520.387	26211
521.159	25231
521.93	24218
522.702	23155
523.474	22178
524.245	21313
525.017	20403
525.788	19569
526.56	18802
527.331	18060
528.102	17132
528.873	16302
529.644	15518
530.415	14868
531.186	14180
531.957	13415
532.728	12821
533.498	12144
534.269	11493
535.039	10925
535.81	10338
536.58	9831
537.351	9294
538.121	8806
538.891	8292
539.661	7878
540.431	7454
541.201	7072
541.971	6706
542.741	6349
543.51	6055
544.28	5747
545.05	5472
545.819	5226
546.588	4975
547.358	4731
548.127	4498
548.896	4271
549.665	4056
550.434	3853
551.203	3636
551.972	3470
552.741	3299
553.51	3110
554.278	2921
555.047	2745
555.815	2627
556.584	2493
557.352	2353
558.121	2223
558.889	2101
559.657	1970
560.425	1891
561.193	1779
561.961	1695
562.729	1599
563.496	1508
564.264	1429
565.032	1344
565.799	1274
566.567	1210
567.334	1140
568.101	1078
568.869	1016
569.636	968
570.403	909
571.17	859
571.937	814
572.704	769
573.471	714
574.237	671
575.004	643
575.771	608
576.537	557
577.303	543
578.07	514
578.836	475
579.602	456
580.368	433
581.134	411
581.9	397
582.666	375
583.432	346
584.198	340
584.964	324
585.729	303
586.495	281
587.26	273
588.025	256
588.791	240
589.556	232
590.321	218
591.086	204
591.851	198
592.616	186
593.381	183
594.146	163
594.911	168
595.675	155
596.44	154
597.204	140
597.969	136
598.733	130
599.497	127
600.261	120
601.025	109
601.79	110
602.553	102
603.317	101
604.081	99
604.845	89
605.609	97
606.372	86
607.136	77
607.899	77
608.662	72
609.426	71
610.189	69
610.952	65
611.715	63
612.478	61
613.241	62
614.004	57
614.767	57
615.529	55
616.292	50
617.055	49
617.817	50
618.579	49
619.342	46
620.104	41
620.866	44
621.628	41
622.39	41
623.152	35
623.914	38
624.676	36
625.438	33
626.199	35
626.961	31
627.722	31
628.484	31
629.245	31
630.006	30
630.768	28
631.529	28
632.29	27
633.051	27
633.812	26
634.573	24
635.333	24
636.094	23
636.855	21
637.615	22
638.376	23
639.136	19
639.896	19
640.657	20
641.417	18
642.177	20
642.937	19
643.697	16
644.457	18
645.216	17
645.976	17
646.736	15
647.495	16
648.255	14
649.014	15
649.774	15
650.533	14
651.292	17
652.051	15
652.81	13
653.569	11
654.328	12
655.087	13
655.846	13
656.604	15
657.363	12
658.121	15
658.88	12
659.638	10
660.397	12
661.155	11
661.913	11
662.671	9
663.429	12
664.187	9
664.945	9
665.703	10
666.46	10
667.218	12
667.976	11
668.733	11
669.49	9
670.248	10
671.005	14
671.762	10
672.519	12
673.276	9
674.033	7
674.79	9
675.547	8
676.304	10
677.06	8
677.817	7
678.574	7
679.33	8
680.086	10
680.843	8
681.599	10
682.355	8
683.111	8
683.867	9
684.623	6
685.379	9
686.135	7
686.89	10
687.646	9
688.402	8
689.157	5
689.912	9
690.668	9
691.423	9
692.178	10
692.933	9
693.688	7
694.443	7
695.198	10
695.953	7
696.708	7
697.462	6
698.217	8
698.972	9
699.726	8
700.48	10
701.235	7
701.989	9
702.743	12
703.497	8
704.251	6
705.005	10
705.759	6
706.513	6
707.266	8
708.02	10
708.774	6
709.527	7
710.28	8
711.034	9
711.787	6
712.54	11
713.293	8
714.046	7
714.799	8
715.552	6
716.305	10
717.058	8
717.81	7
718.563	7
719.315	8
720.068	7
720.82	8
721.573	9
722.325	8
723.077	7
723.829	8
724.581	7
725.333	9
726.085	11
726.836	9
727.588	8
728.34	8
729.091	8
729.843	8
730.594	7
731.346	9
732.097	7
732.848	9
733.599	7
734.35	11
735.101	10
735.852	7
736.603	9
737.354	7
738.104	5
738.855	8
739.605	9
740.356	9
741.106	9
741.856	7
742.607	9
743.357	10
744.107	10
744.857	10
745.607	9
746.357	11
747.106	11
747.856	9
748.606	10
749.355	12
750.105	10
750.854	11
751.603	10
752.353	11
753.102	11
753.851	13
754.6	13
755.349	11
756.098	12
756.847	11
757.595	11
758.344	12
759.093	11
759.841	10
760.589	11
761.338	10
762.086	10
762.834	14
763.582	14
764.331	12
765.079	11
765.826	11
766.574	12
767.322	12
768.07	11
768.817	15
769.565	13
770.312	10
771.06	14
771.807	13
772.554	13
773.302	14
774.049	13
774.796	13
775.543	13
776.29	14
777.036	15
777.783	13
778.53	15
779.276	14
780.023	15
780.769	15
781.516	16
782.262	16
783.008	18
783.754	15
784.5	13
785.246	13
785.992	13
786.738	15
787.484	13
788.23	14
788.975	15
789.721	16
790.466	14
791.212	13
791.957	14
792.702	16
793.447	14
794.193	15
794.938	13
795.683	12
796.427	14
797.172	12
797.917	13
798.662	13
799.406	11
800.151	11
800.895	12
801.64	11
802.384	13
803.128	10
803.872	11
804.616	12
805.36	9
806.104	10
806.848	9
807.592	13
808.336	9
809.079	10
809.823	10
810.566	10
811.31	9
812.053	10
812.796	9
813.539	8
814.283	9
815.026	10
815.769	8
816.511	8
817.254	9
817.997	8
818.74	7
819.482	8
820.225	6
820.967	8
821.71	7
822.452	8
823.194	9
823.936	6
824.678	6
825.42	8
826.162	4
826.904	8
827.646	8
828.388	6
829.129	6
829.871	11
830.612	7
831.354	7
832.095	7
832.836	5
833.577	6
834.319	5
835.06	8
835.801	7
836.542	6
837.282	7
838.023	6
838.764	5
839.504	5
840.245	4
840.985	6
841.726	5
842.466	4
843.206	4
843.946	6
844.687	5
845.427	4
846.166	6
846.906	5
847.646	6
848.386	3
849.125	4
849.865	7
850.605	3
851.344	5
852.083	7
852.823	4
853.562	3
854.301	5
855.04	4
855.779	3
856.518	5
857.257	3
857.995	3
858.734	4
859.473	3
860.211	3
860.95	4
861.688	4
862.426	4
863.165	2
863.903	3
864.641	2
865.379	3
866.117	2
866.855	3
867.593	3
868.33	3
869.068	3
869.806	2
870.543	2
871.28	1
872.018	4
872.755	3
873.492	1
874.229	4
874.967	3
875.703	4
876.44	2
877.177	2
877.914	0
878.651	2
879.387	2
880.124	1
880.86	1
881.597	3
882.333	3
883.069	3
883.806	3
884.542	2
885.278	1
886.014	3
886.749	2
887.485	1
888.221	2
888.957	1
889.692	2
890.428	3
891.163	1
891.899	1
892.634	1
893.369	2
894.104	2
894.839	1
895.574	1
896.309	2
897.044	1
897.779	0
898.514	2
899.248	1
899.983	1
900.717	1
901.452	0
902.186	3
902.92	1
903.654	3
904.389	0
905.123	0
905.857	0
906.59	2
907.324	-1
908.058	2
908.792	1
909.525	3
910.259	1
910.992	3
911.726	0
912.459	2
913.192	-1
913.925	-1
914.658	4
915.391	0
916.124	1
916.857	1
917.59	0
918.323	1
919.055	0
919.788	2
920.521	0
921.253	0
921.985	2
922.718	1
923.45	0
924.182	-1
924.914	1
925.646	1
926.378	-2
927.11	1
927.841	-3
928.573	2
929.305	2
930.036	-1
930.768	0
931.499	0
932.23	0
932.962	1
933.693	3
934.424	0
935.155	3
935.886	1
936.617	0
937.348	-1
938.078	1
938.809	3
939.54	0
940.27	2
941.001	-2
941.731	-1
942.461	2
943.191	1
943.922	3
944.652	1
945.382	0
946.112	0
946.841	0
947.571	1
948.301	1
949.031	1
949.76	3
950.49	1
951.219	0
951.948	0
952.678	0
953.407	-1
954.136	0
954.865	1
955.594	1
956.323	0
957.052	2
957.78	2
958.509	1
959.238	1
959.966	1
960.695	1
961.423	2
962.151	2
962.88	-1
963.608	4
964.336	0
965.064	1
965.792	1
966.52	2
967.247	-1
967.975	-1
968.703	1
969.43	2
970.158	2
970.885	0
971.613	0
972.34	2
973.067	0
973.794	-1
974.521	-1
975.248	2
975.975	-1
976.702	-1
977.429	-1
978.156	-1
978.882	1
979.609	0
980.335	1
981.062	1
981.788	2
982.514	1
983.24	1
983.967	0
984.693	1
985.419	0
986.144	0
986.87	-2
987.596	0
988.322	0
989.047	-1
989.773	-1
990.498	1
991.224	1
991.949	1
992.674	2
993.399	0
994.124	0
994.849	1
995.574	-2
996.299	1
997.024	0
997.749	0
998.473	0
999.198	1
999.922	1
1000.647	-2
1001.371	3
1002.095	2
1002.82	-1
1003.544	-2
1004.268	6
1004.992	4
1005.716	6
1006.439	3
1007.163	4
1007.887	4
1008.611	2
1009.334	1
1010.058	1
1010.781	0
1011.504	-1
1012.228	2
1012.951	-2
1013.674	0
1014.397	0
1015.12	0
