节点500_705_QEPB04081__688__20-55-44-782.txt的数据

Date: Wed Nov 12 20:55:44 CST 2025
User: PC
Spectrometer: QEPB0408
触发模式: 0
积分时间 (秒): 1.000000E-2
Scans to average: 1
启用暗噪声校正: true
启用非线性校正: false
滑动平均宽度: 0
X轴模式: Wavelengths
Number of Pixels in Spectrum: 1044
>>>>>Begin Spectral Data<<<<<
220.843	5.25
221.644	6.25
222.444	3.25
223.244	6.25
224.045	6.25
224.845	7.25
225.645	8.25
226.445	9.25
227.245	6.25
228.045	7.25
228.845	8.25
229.645	8.25
230.444	8.25
231.244	7.25
232.043	10.25
232.843	6.25
233.642	6.25
234.442	9.25
235.241	7.25
236.04	10.25
236.839	10.25
237.638	8.25
238.437	12.25
239.236	9.25
240.035	11.25
240.833	13.25
241.632	13.25
242.43	12.25
243.229	10.25
244.027	14.25
244.826	9.25
245.624	13.25
246.422	11.25
247.22	13.25
248.018	14.25
248.816	11.25
249.614	14.25
250.412	13.25
251.21	16.25
252.007	16.25
252.805	15.25
253.602	20.25
254.4	16.25
255.197	15.25
255.994	17.25
256.791	16.25
257.589	18.25
258.386	18.25
259.183	18.25
259.979	21.25
260.776	20.25
261.573	16.25
262.37	19.25
263.166	22.25
263.963	23.25
264.759	22.25
265.556	24.25
266.352	24.25
267.148	22.25
267.944	25.25
268.74	28.25
269.536	28.25
270.332	25.25
271.128	27.25
271.924	29.25
272.719	31.25
273.515	29.25
274.311	30.25
275.106	29.25
275.901	30.25
276.697	29.25
277.492	29.25
278.287	32.25
279.082	29.25
279.877	31.25
280.672	32.25
281.467	32.25
282.262	31.25
283.056	31.25
283.851	33.25
284.646	34.25
285.44	34.25
286.234	30.25
287.029	29.25
287.823	30.25
288.617	30.25
289.411	32.25
290.205	29.25
290.999	26.25
291.793	30.25
292.587	31.25
293.381	31.25
294.174	31.25
294.968	28.25
295.761	25.25
296.555	25.25
297.348	27.25
298.141	23.25
298.935	27.25
299.728	25.25
300.521	26.25
301.314	23.25
302.107	23.25
302.899	23.25
303.692	22.25
304.485	24.25
305.277	21.25
306.07	22.25
306.862	23.25
307.655	21.25
308.447	21.25
309.239	21.25
310.031	19.25
310.823	19.25
311.615	18.25
312.407	16.25
313.199	19.25
313.991	18.25
314.783	15.25
315.574	17.25
316.366	16.25
317.157	14.25
317.949	14.25
318.74	16.25
319.531	15.25
320.322	16.25
321.113	16.25
321.904	13.25
322.695	14.25
323.486	16.25
324.277	14.25
325.068	14.25
325.858	13.25
326.649	12.25
327.439	14.25
328.23	13.25
329.02	12.25
329.81	12.25
330.6	11.25
331.391	12.25
332.181	12.25
332.971	15.25
333.76	12.25
334.55	12.25
335.34	12.25
336.13	11.25
336.919	12.25
337.709	11.25
338.498	13.25
339.287	11.25
340.077	11.25
340.866	10.25
341.655	10.25
342.444	14.25
343.233	12.25
344.022	10.25
344.811	12.25
345.6	10.25
346.388	13.25
347.177	12.25
347.965	8.25
348.754	11.25
349.542	11.25
350.33	9.25
351.119	11.25
351.907	12.25
352.695	12.25
353.483	11.25
354.271	10.25
355.059	11.25
355.846	10.25
356.634	11.25
357.422	9.25
358.209	11.25
358.997	10.25
359.784	11.25
360.571	8.25
361.359	10.25
362.146	9.25
362.933	11.25
363.72	7.25
364.507	10.25
365.294	10.25
366.081	10.25
366.867	10.25
367.654	11.25
368.44	9.25
369.227	10.25
370.013	9.25
370.8	9.25
371.586	8.25
372.372	10.25
373.158	8.25
373.944	9.25
374.73	9.25
375.516	7.25
376.302	11.25
377.088	11.25
377.873	8.25
378.659	11.25
379.445	9.25
380.23	9.25
381.015	9.25
381.801	11.25
382.586	10.25
383.371	10.25
384.156	10.25
384.941	10.25
385.726	10.25
386.511	9.25
387.296	10.25
388.08	10.25
388.865	10.25
389.649	12.25
390.434	10.25
391.218	13.25
392.003	10.25
392.787	10.25
393.571	15.25
394.355	10.25
395.139	14.25
395.923	11.25
396.707	13.25
397.491	14.25
398.274	13.25
399.058	12.25
399.842	11.25
400.625	13.25
401.408	12.25
402.192	14.25
402.975	13.25
403.758	14.25
404.541	14.25
405.324	12.25
406.107	15.25
406.89	14.25
407.673	16.25
408.456	13.25
409.238	15.25
410.021	17.25
410.803	15.25
411.586	18.25
412.368	18.25
413.151	15.25
413.933	16.25
414.715	18.25
415.497	20.25
416.279	16.25
417.061	17.25
417.843	17.25
418.624	20.25
419.406	16.25
420.188	22.25
420.969	21.25
421.751	21.25
422.532	25.25
423.313	23.25
424.095	20.25
424.876	25.25
425.657	24.25
426.438	24.25
427.219	27.25
428	28.25
428.78	27.25
429.561	28.25
430.342	29.25
431.122	32.25
431.903	32.25
432.683	33.25
433.464	35.25
434.244	39.25
435.024	38.25
435.804	38.25
436.584	43.25
437.364	45.25
438.144	47.25
438.924	50.25
439.704	58.25
440.483	60.25
441.263	63.25
442.042	71.25
442.822	73.25
443.601	77.25
444.38	86.25
445.16	90.25
445.939	103.25
446.718	111.25
447.497	119.25
448.276	130.25
449.054	143.25
449.833	156.25
450.612	176.25
451.391	191.25
452.169	215.25
452.948	240.25
453.726	264.25
454.504	283.25
455.282	316.25
456.061	360.25
456.839	406.25
457.617	446.25
458.395	488.25
459.172	550.25
459.95	618.25
460.728	680.25
461.506	751.25
462.283	835.25
463.061	929.25
463.838	1024.25
464.615	1138.25
465.393	1271.25
466.17	1396.25
466.947	1546.25
467.724	1708.25
468.501	1885.25
469.278	2069.25
470.055	2276.25
470.831	2488.25
471.608	2762.25
472.385	3019.25
473.161	3274.25
473.938	3626.25
474.714	3974.25
475.49	4340.25
476.266	4703.25
477.043	5126.25
477.819	5561.25
478.595	6026.25
479.371	6546.25
480.146	7094.25
480.922	7759.25
481.698	8353.25
482.473	9074.25
483.249	9832.25
484.024	10591.25
484.8	11421.25
485.575	12292.25
486.35	13210.25
487.126	14289.25
487.901	15426.25
488.676	16550.25
489.451	17733.25
490.225	19046.25
491	20392.25
491.775	21774.25
492.55	23130.25
493.324	24695.25
494.099	26237.25
494.873	27741.25
495.647	29295.25
496.422	30874.25
497.196	32473.25
497.97	34043.25
498.744	35422.25
499.518	36957.25
500.292	38388.25
501.066	39433.25
501.839	40356.25
502.613	41376.25
503.387	42084.25
504.16	42813.25
504.934	43228.25
505.707	43537.25
506.48	43490.25
507.253	43257.25
508.027	43014.25
508.8	42457.25
509.573	41770.25
510.346	41259.25
511.118	40376.25
511.891	39429.25
512.664	38119.25
513.437	36938.25
514.209	35778.25
514.982	34477.25
515.754	33300.25
516.526	31984.25
517.298	30815.25
518.071	29662.25
518.843	28552.25
519.615	27314.25
520.387	26275.25
521.159	25297.25
521.93	24308.25
522.702	23279.25
523.474	22341.25
524.245	21423.25
525.017	20567.25
525.788	19744.25
526.56	18965.25
527.331	18109.25
528.102	17291.25
528.873	16442.25
529.644	15682.25
530.415	14963.25
531.186	14315.25
531.957	13624.25
532.728	12924.25
533.498	12255.25
534.269	11631.25
535.039	11084.25
535.81	10474.25
536.58	9919.25
537.351	9402.25
538.121	8882.25
538.891	8415.25
539.661	7987.25
540.431	7543.25
541.201	7195.25
541.971	6822.25
542.741	6431.25
543.51	6111.25
544.28	5809.25
545.05	5541.25
545.819	5264.25
546.588	5053.25
547.358	4835.25
548.127	4578.25
548.896	4353.25
549.665	4116.25
550.434	3923.25
551.203	3723.25
551.972	3498.25
552.741	3339.25
553.51	3158.25
554.278	2967.25
555.047	2816.25
555.815	2677.25
556.584	2531.25
557.352	2391.25
558.121	2262.25
558.889	2136.25
559.657	2033.25
560.425	1898.25
561.193	1819.25
561.961	1726.25
562.729	1622.25
563.496	1539.25
564.264	1464.25
565.032	1385.25
565.799	1306.25
566.567	1223.25
567.334	1173.25
568.101	1093.25
568.869	1047.25
569.636	982.25
570.403	920.25
571.17	873.25
571.937	824.25
572.704	785.25
573.471	745.25
574.237	699.25
575.004	664.25
575.771	613.25
576.537	578.25
577.303	556.25
578.07	517.25
578.836	487.25
579.602	468.25
580.368	445.25
581.134	426.25
581.9	395.25
582.666	379.25
583.432	356.25
584.198	340.25
584.964	322.25
585.729	313.25
586.495	290.25
587.26	277.25
588.025	263.25
588.791	244.25
589.556	239.25
590.321	228.25
591.086	217.25
591.851	203.25
592.616	194.25
593.381	182.25
594.146	176.25
594.911	164.25
595.675	164.25
596.44	147.25
597.204	140.25
597.969	136.25
598.733	131.25
599.497	126.25
600.261	119.25
601.025	111.25
601.79	111.25
602.553	108.25
603.317	102.25
604.081	98.25
604.845	94.25
605.609	94.25
606.372	83.25
607.136	82.25
607.899	82.25
608.662	75.25
609.426	71.25
610.189	71.25
610.952	66.25
611.715	68.25
612.478	67.25
613.241	61.25
614.004	58.25
614.767	58.25
615.529	57.25
616.292	54.25
617.055	47.25
617.817	50.25
618.579	47.25
619.342	48.25
620.104	41.25
620.866	47.25
621.628	39.25
622.39	42.25
623.152	39.25
623.914	37.25
624.676	38.25
625.438	35.25
626.199	35.25
626.961	34.25
627.722	33.25
628.484	29.25
629.245	30.25
630.006	31.25
630.768	28.25
631.529	28.25
632.29	25.25
633.051	26.25
633.812	24.25
634.573	26.25
635.333	26.25
636.094	22.25
636.855	25.25
637.615	23.25
638.376	20.25
639.136	21.25
639.896	17.25
640.657	19.25
641.417	21.25
642.177	23.25
642.937	17.25
643.697	19.25
644.457	19.25
645.216	17.25
645.976	19.25
646.736	17.25
647.495	16.25
648.255	19.25
649.014	15.25
649.774	14.25
650.533	15.25
651.292	14.25
652.051	11.25
652.81	14.25
653.569	13.25
654.328	13.25
655.087	14.25
655.846	13.25
656.604	13.25
657.363	12.25
658.121	11.25
658.88	12.25
659.638	13.25
660.397	11.25
661.155	13.25
661.913	15.25
662.671	13.25
663.429	11.25
664.187	11.25
664.945	9.25
665.703	10.25
666.46	11.25
667.218	10.25
667.976	8.25
668.733	11.25
669.49	7.25
670.248	9.25
671.005	9.25
671.762	11.25
672.519	11.25
673.276	9.25
674.033	9.25
674.79	7.25
675.547	8.25
676.304	11.25
677.06	7.25
677.817	6.25
678.574	10.25
679.33	7.25
680.086	8.25
680.843	7.25
681.599	7.25
682.355	9.25
683.111	10.25
683.867	9.25
684.623	8.25
685.379	8.25
686.135	8.25
686.89	11.25
687.646	9.25
688.402	8.25
689.157	7.25
689.912	7.25
690.668	10.25
691.423	9.25
692.178	5.25
692.933	9.25
693.688	8.25
694.443	9.25
695.198	6.25
695.953	7.25
696.708	9.25
697.462	7.25
698.217	5.25
698.972	7.25
699.726	8.25
700.48	8.25
701.235	6.25
701.989	6.25
702.743	7.25
703.497	10.25
704.251	8.25
705.005	9.25
705.759	8.25
706.513	7.25
707.266	8.25
708.02	5.25
708.774	7.25
709.527	8.25
710.28	7.25
711.034	8.25
711.787	6.25
712.54	9.25
713.293	6.25
714.046	7.25
714.799	9.25
715.552	7.25
716.305	7.25
717.058	5.25
717.81	8.25
718.563	8.25
719.315	8.25
720.068	8.25
720.82	7.25
721.573	8.25
722.325	8.25
723.077	8.25
723.829	8.25
724.581	8.25
725.333	10.25
726.085	9.25
726.836	7.25
727.588	8.25
728.34	9.25
729.091	10.25
729.843	8.25
730.594	8.25
731.346	7.25
732.097	7.25
732.848	9.25
733.599	9.25
734.35	10.25
735.101	8.25
735.852	10.25
736.603	8.25
737.354	7.25
738.104	10.25
738.855	10.25
739.605	10.25
740.356	12.25
741.106	9.25
741.856	10.25
742.607	11.25
743.357	9.25
744.107	8.25
744.857	8.25
745.607	9.25
746.357	10.25
747.106	12.25
747.856	10.25
748.606	9.25
749.355	9.25
750.105	11.25
750.854	10.25
751.603	9.25
752.353	10.25
753.102	9.25
753.851	9.25
754.6	10.25
755.349	12.25
756.098	11.25
756.847	9.25
757.595	11.25
758.344	12.25
759.093	12.25
759.841	12.25
760.589	13.25
761.338	11.25
762.086	9.25
762.834	12.25
763.582	9.25
764.331	11.25
765.079	12.25
765.826	13.25
766.574	10.25
767.322	12.25
768.07	12.25
768.817	13.25
769.565	12.25
770.312	12.25
771.06	16.25
771.807	12.25
772.554	13.25
773.302	12.25
774.049	14.25
774.796	15.25
775.543	13.25
776.29	13.25
777.036	12.25
777.783	14.25
778.53	15.25
779.276	15.25
780.023	12.25
780.769	15.25
781.516	15.25
782.262	15.25
783.008	12.25
783.754	12.25
784.5	15.25
785.246	15.25
785.992	16.25
786.738	15.25
787.484	16.25
788.23	17.25
788.975	13.25
789.721	17.25
790.466	13.25
791.212	15.25
791.957	13.25
792.702	13.25
793.447	13.25
794.193	15.25
794.938	12.25
795.683	12.25
796.427	15.25
797.172	11.25
797.917	15.25
798.662	13.25
799.406	12.25
800.151	12.25
800.895	15.25
801.64	12.25
802.384	11.25
803.128	10.25
803.872	11.25
804.616	11.25
805.36	11.25
806.104	10.25
806.848	13.25
807.592	10.25
808.336	10.25
809.079	11.25
809.823	10.25
810.566	9.25
811.31	8.25
812.053	8.25
812.796	7.25
813.539	10.25
814.283	9.25
815.026	7.25
815.769	8.25
816.511	6.25
817.254	9.25
817.997	9.25
818.74	7.25
819.482	9.25
820.225	7.25
820.967	10.25
821.71	8.25
822.452	6.25
823.194	7.25
823.936	7.25
824.678	7.25
825.42	7.25
826.162	9.25
826.904	7.25
827.646	8.25
828.388	7.25
829.129	6.25
829.871	6.25
830.612	8.25
831.354	6.25
832.095	8.25
832.836	5.25
833.577	7.25
834.319	5.25
835.06	9.25
835.801	5.25
836.542	6.25
837.282	7.25
838.023	5.25
838.764	6.25
839.504	5.25
840.245	5.25
840.985	3.25
841.726	4.25
842.466	7.25
843.206	3.25
843.946	5.25
844.687	6.25
845.427	6.25
846.166	6.25
846.906	4.25
847.646	5.25
848.386	4.25
849.125	6.25
849.865	6.25
850.605	4.25
851.344	6.25
852.083	6.25
852.823	4.25
853.562	5.25
854.301	5.25
855.04	4.25
855.779	3.25
856.518	2.25
857.257	5.25
857.995	4.25
858.734	6.25
859.473	5.25
860.211	3.25
860.95	5.25
861.688	3.25
862.426	1.25
863.165	4.25
863.903	3.25
864.641	3.25
865.379	2.25
866.117	3.25
866.855	4.25
867.593	2.25
868.33	4.25
869.068	2.25
869.806	2.25
870.543	4.25
871.28	3.25
872.018	6.25
872.755	1.25
873.492	3.25
874.229	0.25
874.967	1.25
875.703	4.25
876.44	1.25
877.177	4.25
877.914	2.25
878.651	-0.75
879.387	2.25
880.124	1.25
880.86	2.25
881.597	3.25
882.333	4.25
883.069	2.25
883.806	2.25
884.542	2.25
885.278	3.25
886.014	2.25
886.749	0.25
887.485	3.25
888.221	2.25
888.957	1.25
889.692	0.25
890.428	1.25
891.163	3.25
891.899	0.25
892.634	1.25
893.369	2.25
894.104	-0.75
894.839	0.25
895.574	1.25
896.309	1.25
897.044	1.25
897.779	2.25
898.514	2.25
899.248	2.25
899.983	3.25
900.717	0.25
901.452	1.25
902.186	2.25
902.92	0.25
903.654	1.25
904.389	1.25
905.123	-0.75
905.857	1.25
906.59	1.25
907.324	1.25
908.058	2.25
908.792	2.25
909.525	2.25
910.259	1.25
910.992	2.25
911.726	3.25
912.459	4.25
913.192	1.25
913.925	1.25
914.658	0.25
915.391	-0.75
916.124	1.25
916.857	0.25
917.59	3.25
918.323	2.25
919.055	2.25
919.788	2.25
920.521	-0.75
921.253	1.25
921.985	0.25
922.718	0.25
923.45	0.25
924.182	0.25
924.914	1.25
925.646	2.25
926.378	1.25
927.11	1.25
927.841	0.25
928.573	1.25
929.305	-0.75
930.036	1.25
930.768	0.25
931.499	1.25
932.23	0.25
932.962	2.25
933.693	-0.75
934.424	0.25
935.155	1.25
935.886	2.25
936.617	1.25
937.348	2.25
938.078	1.25
938.809	2.25
939.54	0.25
940.27	2.25
941.001	-0.75
941.731	0.25
942.461	0.25
943.191	-0.75
943.922	0.25
944.652	0.25
945.382	1.25
946.112	1.25
946.841	1.25
947.571	2.25
948.301	1.25
949.031	1.25
949.76	1.25
950.49	-0.75
951.219	1.25
951.948	1.25
952.678	1.25
953.407	1.25
954.136	0.25
954.865	-0.75
955.594	1.25
956.323	1.25
957.052	0.25
957.78	2.25
958.509	1.25
959.238	-0.75
959.966	0.25
960.695	1.25
961.423	-0.75
962.151	0.25
962.88	0.25
963.608	0.25
964.336	3.25
965.064	-0.75
965.792	0.25
966.52	2.25
967.247	2.25
967.975	0.25
968.703	3.25
969.43	3.25
970.158	0.25
970.885	-1.75
971.613	-0.75
972.34	-0.75
973.067	1.25
973.794	-0.75
974.521	-0.75
975.248	2.25
975.975	-0.75
976.702	1.25
977.429	0.25
978.156	0.25
978.882	1.25
979.609	-0.75
980.335	1.25
981.062	0.25
981.788	0.25
982.514	0.25
983.24	2.25
983.967	1.25
984.693	1.25
985.419	0.25
986.144	1.25
986.87	2.25
987.596	-0.75
988.322	-0.75
989.047	1.25
989.773	-2.75
990.498	1.25
991.224	-1.75
991.949	0.25
992.674	2.25
993.399	1.25
994.124	-0.75
994.849	2.25
995.574	0.25
996.299	0.25
997.024	-0.75
997.749	-1.75
998.473	0.25
999.198	2.25
999.922	-0.75
1000.647	2.25
1001.371	3.25
1002.095	-1.75
1002.82	-1.75
1003.544	0.25
1004.268	5.25
1004.992	3.25
1005.716	5.25
1006.439	5.25
1007.163	4.25
1007.887	5.25
1008.611	0.25
1009.334	1.25
1010.058	2.25
1010.781	1.25
1011.504	-0.75
1012.228	1.25
1012.951	-0.75
1013.674	0.25
1014.397	-0.75
1015.12	1.25
