节点500_705_QEPB04081__521__20-53-17-753.txt的数据

Date: Wed Nov 12 20:53:17 CST 2025
User: PC
Spectrometer: QEPB0408
触发模式: 0
积分时间 (秒): 1.000000E-2
Scans to average: 1
启用暗噪声校正: true
启用非线性校正: false
滑动平均宽度: 0
X轴模式: Wavelengths
Number of Pixels in Spectrum: 1044
>>>>>Begin Spectral Data<<<<<
220.843	4.38
221.644	5.38
222.444	5.38
223.244	8.38
224.045	8.38
224.845	6.38
225.645	6.38
226.445	8.38
227.245	7.38
228.045	10.38
228.845	7.38
229.645	7.38
230.444	9.38
231.244	8.38
232.043	12.38
232.843	10.38
233.642	9.38
234.442	11.38
235.241	9.38
236.04	8.38
236.839	9.38
237.638	11.38
238.437	12.38
239.236	12.38
240.035	12.38
240.833	12.38
241.632	14.38
242.43	12.38
243.229	12.38
244.027	15.38
244.826	14.38
245.624	16.38
246.422	15.38
247.22	14.38
248.018	16.38
248.816	16.38
249.614	16.38
250.412	15.38
251.21	19.38
252.007	17.38
252.805	16.38
253.602	18.38
254.4	19.38
255.197	19.38
255.994	19.38
256.791	18.38
257.589	19.38
258.386	18.38
259.183	22.38
259.979	20.38
260.776	21.38
261.573	22.38
262.37	22.38
263.166	22.38
263.963	25.38
264.759	26.38
265.556	26.38
266.352	27.38
267.148	26.38
267.944	26.38
268.74	29.38
269.536	29.38
270.332	32.38
271.128	29.38
271.924	31.38
272.719	31.38
273.515	28.38
274.311	32.38
275.106	30.38
275.901	29.38
276.697	34.38
277.492	33.38
278.287	35.38
279.082	33.38
279.877	35.38
280.672	35.38
281.467	32.38
282.262	34.38
283.056	28.38
283.851	34.38
284.646	31.38
285.44	31.38
286.234	34.38
287.029	33.38
287.823	33.38
288.617	30.38
289.411	31.38
290.205	34.38
290.999	31.38
291.793	32.38
292.587	31.38
293.381	30.38
294.174	28.38
294.968	32.38
295.761	29.38
296.555	27.38
297.348	28.38
298.141	28.38
298.935	29.38
299.728	29.38
300.521	25.38
301.314	28.38
302.107	24.38
302.899	23.38
303.692	23.38
304.485	21.38
305.277	23.38
306.07	26.38
306.862	23.38
307.655	23.38
308.447	23.38
309.239	22.38
310.031	21.38
310.823	22.38
311.615	16.38
312.407	16.38
313.199	19.38
313.991	19.38
314.783	15.38
315.574	18.38
316.366	19.38
317.157	15.38
317.949	18.38
318.74	17.38
319.531	16.38
320.322	16.38
321.113	11.38
321.904	15.38
322.695	12.38
323.486	17.38
324.277	15.38
325.068	13.38
325.858	12.38
326.649	14.38
327.439	15.38
328.23	15.38
329.02	16.38
329.81	16.38
330.6	14.38
331.391	13.38
332.181	13.38
332.971	13.38
333.76	12.38
334.55	16.38
335.34	15.38
336.13	13.38
336.919	13.38
337.709	12.38
338.498	13.38
339.287	15.38
340.077	12.38
340.866	14.38
341.655	13.38
342.444	12.38
343.233	14.38
344.022	15.38
344.811	10.38
345.6	10.38
346.388	12.38
347.177	12.38
347.965	12.38
348.754	14.38
349.542	12.38
350.33	13.38
351.119	9.38
351.907	11.38
352.695	15.38
353.483	12.38
354.271	10.38
355.059	13.38
355.846	14.38
356.634	10.38
357.422	12.38
358.209	12.38
358.997	13.38
359.784	10.38
360.571	10.38
361.359	12.38
362.146	10.38
362.933	10.38
363.72	11.38
364.507	12.38
365.294	10.38
366.081	9.38
366.867	12.38
367.654	11.38
368.44	9.38
369.227	10.38
370.013	8.38
370.8	10.38
371.586	10.38
372.372	12.38
373.158	11.38
373.944	9.38
374.73	9.38
375.516	9.38
376.302	11.38
377.088	12.38
377.873	10.38
378.659	9.38
379.445	11.38
380.23	11.38
381.015	10.38
381.801	12.38
382.586	11.38
383.371	10.38
384.156	12.38
384.941	9.38
385.726	10.38
386.511	11.38
387.296	12.38
388.08	12.38
388.865	12.38
389.649	14.38
390.434	10.38
391.218	13.38
392.003	12.38
392.787	12.38
393.571	12.38
394.355	12.38
395.139	15.38
395.923	14.38
396.707	14.38
397.491	15.38
398.274	15.38
399.058	16.38
399.842	14.38
400.625	12.38
401.408	16.38
402.192	16.38
402.975	17.38
403.758	14.38
404.541	15.38
405.324	13.38
406.107	15.38
406.89	13.38
407.673	17.38
408.456	16.38
409.238	15.38
410.021	18.38
410.803	18.38
411.586	20.38
412.368	17.38
413.151	16.38
413.933	20.38
414.715	17.38
415.497	19.38
416.279	19.38
417.061	20.38
417.843	19.38
418.624	19.38
419.406	20.38
420.188	20.38
420.969	20.38
421.751	22.38
422.532	18.38
423.313	24.38
424.095	24.38
424.876	28.38
425.657	26.38
426.438	25.38
427.219	27.38
428	26.38
428.78	29.38
429.561	28.38
430.342	29.38
431.122	33.38
431.903	33.38
432.683	33.38
433.464	36.38
434.244	39.38
435.024	37.38
435.804	42.38
436.584	43.38
437.364	48.38
438.144	46.38
438.924	53.38
439.704	56.38
440.483	59.38
441.263	64.38
442.042	66.38
442.822	70.38
443.601	80.38
444.38	81.38
445.16	89.38
445.939	99.38
446.718	111.38
447.497	116.38
448.276	131.38
449.054	146.38
449.833	154.38
450.612	170.38
451.391	184.38
452.169	208.38
452.948	237.38
453.726	254.38
454.504	284.38
455.282	312.38
456.061	353.38
456.839	392.38
457.617	428.38
458.395	480.38
459.172	534.38
459.95	595.38
460.728	663.38
461.506	731.38
462.283	830.38
463.061	920.38
463.838	1013.38
464.615	1124.38
465.393	1238.38
466.17	1393.38
466.947	1528.38
467.724	1704.38
468.501	1867.38
469.278	2067.38
470.055	2299.38
470.831	2499.38
471.608	2756.38
472.385	3000.38
473.161	3328.38
473.938	3632.38
474.714	3984.38
475.49	4373.38
476.266	4773.38
477.043	5153.38
477.819	5610.38
478.595	6137.38
479.371	6689.38
480.146	7242.38
480.922	7896.38
481.698	8615.38
482.473	9292.38
483.249	10090.38
484.024	10912.38
484.8	11767.38
485.575	12728.38
486.35	13753.38
487.126	14818.38
487.901	15982.38
488.676	17175.38
489.451	18550.38
490.225	19904.38
491	21227.38
491.775	22704.38
492.55	24250.38
493.324	25857.38
494.099	27424.38
494.873	29063.38
495.647	30678.38
496.422	32299.38
497.196	33995.38
497.97	35522.38
498.744	37102.38
499.518	38527.38
500.292	40014.38
501.066	40964.38
501.839	41988.38
502.613	42839.38
503.387	43608.38
504.16	44243.38
504.934	44499.38
505.707	44780.38
506.48	44558.38
507.253	44286.38
508.027	43914.38
508.8	43212.38
509.573	42404.38
510.346	41601.38
511.118	40695.38
511.891	39641.38
512.664	38379.38
513.437	37062.38
514.209	35787.38
514.982	34509.38
515.754	33155.38
516.526	31886.38
517.298	30544.38
518.071	29525.38
518.843	28352.38
519.615	27207.38
520.387	26189.38
521.159	25149.38
521.93	24036.38
522.702	23106.38
523.474	22149.38
524.245	21229.38
525.017	20388.38
525.788	19542.38
526.56	18679.38
527.331	17888.38
528.102	17093.38
528.873	16203.38
529.644	15446.38
530.415	14758.38
531.186	14056.38
531.957	13369.38
532.728	12702.38
533.498	12061.38
534.269	11405.38
535.039	10809.38
535.81	10264.38
536.58	9689.38
537.351	9182.38
538.121	8786.38
538.891	8214.38
539.661	7808.38
540.431	7359.38
541.201	6984.38
541.971	6675.38
542.741	6292.38
543.51	5944.38
544.28	5663.38
545.05	5391.38
545.819	5178.38
546.588	4917.38
547.358	4684.38
548.127	4439.38
548.896	4248.38
549.665	4023.38
550.434	3790.38
551.203	3618.38
551.972	3440.38
552.741	3264.38
553.51	3077.38
554.278	2913.38
555.047	2735.38
555.815	2583.38
556.584	2475.38
557.352	2316.38
558.121	2205.38
558.889	2068.38
559.657	1965.38
560.425	1858.38
561.193	1775.38
561.961	1655.38
562.729	1581.38
563.496	1494.38
564.264	1413.38
565.032	1320.38
565.799	1261.38
566.567	1205.38
567.334	1121.38
568.101	1071.38
568.869	1007.38
569.636	940.38
570.403	894.38
571.17	838.38
571.937	806.38
572.704	753.38
573.471	720.38
574.237	671.38
575.004	641.38
575.771	595.38
576.537	561.38
577.303	532.38
578.07	520.38
578.836	480.38
579.602	454.38
580.368	426.38
581.134	406.38
581.9	390.38
582.666	374.38
583.432	355.38
584.198	336.38
584.964	318.38
585.729	300.38
586.495	284.38
587.26	271.38
588.025	258.38
588.791	239.38
589.556	227.38
590.321	211.38
591.086	203.38
591.851	199.38
592.616	189.38
593.381	180.38
594.146	166.38
594.911	164.38
595.675	158.38
596.44	148.38
597.204	141.38
597.969	139.38
598.733	132.38
599.497	124.38
600.261	117.38
601.025	116.38
601.79	108.38
602.553	104.38
603.317	101.38
604.081	93.38
604.845	93.38
605.609	87.38
606.372	83.38
607.136	87.38
607.899	79.38
608.662	77.38
609.426	76.38
610.189	74.38
610.952	65.38
611.715	65.38
612.478	61.38
613.241	61.38
614.004	60.38
614.767	56.38
615.529	56.38
616.292	56.38
617.055	52.38
617.817	51.38
618.579	46.38
619.342	48.38
620.104	48.38
620.866	44.38
621.628	43.38
622.39	43.38
623.152	41.38
623.914	39.38
624.676	37.38
625.438	34.38
626.199	34.38
626.961	32.38
627.722	34.38
628.484	31.38
629.245	30.38
630.006	29.38
630.768	30.38
631.529	28.38
632.29	26.38
633.051	29.38
633.812	26.38
634.573	26.38
635.333	24.38
636.094	23.38
636.855	22.38
637.615	24.38
638.376	24.38
639.136	25.38
639.896	19.38
640.657	21.38
641.417	21.38
642.177	19.38
642.937	19.38
643.697	20.38
644.457	18.38
645.216	20.38
645.976	15.38
646.736	18.38
647.495	16.38
648.255	16.38
649.014	17.38
649.774	14.38
650.533	16.38
651.292	15.38
652.051	16.38
652.81	14.38
653.569	15.38
654.328	14.38
655.087	14.38
655.846	12.38
656.604	14.38
657.363	13.38
658.121	13.38
658.88	14.38
659.638	12.38
660.397	13.38
661.155	12.38
661.913	10.38
662.671	11.38
663.429	8.38
664.187	10.38
664.945	13.38
665.703	12.38
666.46	14.38
667.218	12.38
667.976	12.38
668.733	12.38
669.49	9.38
670.248	13.38
671.005	11.38
671.762	11.38
672.519	9.38
673.276	11.38
674.033	9.38
674.79	10.38
675.547	10.38
676.304	10.38
677.06	8.38
677.817	10.38
678.574	10.38
679.33	9.38
680.086	7.38
680.843	10.38
681.599	10.38
682.355	12.38
683.111	10.38
683.867	7.38
684.623	10.38
685.379	11.38
686.135	12.38
686.89	12.38
687.646	9.38
688.402	11.38
689.157	7.38
689.912	11.38
690.668	9.38
691.423	9.38
692.178	7.38
692.933	7.38
693.688	10.38
694.443	8.38
695.198	10.38
695.953	9.38
696.708	10.38
697.462	11.38
698.217	7.38
698.972	9.38
699.726	7.38
700.48	10.38
701.235	8.38
701.989	11.38
702.743	8.38
703.497	9.38
704.251	8.38
705.005	8.38
705.759	8.38
706.513	7.38
707.266	9.38
708.02	7.38
708.774	9.38
709.527	9.38
710.28	8.38
711.034	8.38
711.787	11.38
712.54	10.38
713.293	8.38
714.046	8.38
714.799	8.38
715.552	6.38
716.305	10.38
717.058	8.38
717.81	8.38
718.563	10.38
719.315	7.38
720.068	8.38
720.82	9.38
721.573	9.38
722.325	12.38
723.077	9.38
723.829	8.38
724.581	5.38
725.333	8.38
726.085	11.38
726.836	9.38
727.588	11.38
728.34	7.38
729.091	8.38
729.843	9.38
730.594	9.38
731.346	10.38
732.097	9.38
732.848	12.38
733.599	9.38
734.35	11.38
735.101	12.38
735.852	9.38
736.603	10.38
737.354	10.38
738.104	10.38
738.855	10.38
739.605	11.38
740.356	11.38
741.106	10.38
741.856	11.38
742.607	11.38
743.357	9.38
744.107	12.38
744.857	10.38
745.607	10.38
746.357	8.38
747.106	13.38
747.856	9.38
748.606	11.38
749.355	10.38
750.105	9.38
750.854	13.38
751.603	12.38
752.353	11.38
753.102	12.38
753.851	13.38
754.6	14.38
755.349	12.38
756.098	14.38
756.847	10.38
757.595	12.38
758.344	12.38
759.093	11.38
759.841	13.38
760.589	12.38
761.338	14.38
762.086	9.38
762.834	13.38
763.582	12.38
764.331	13.38
765.079	14.38
765.826	12.38
766.574	15.38
767.322	14.38
768.07	13.38
768.817	12.38
769.565	15.38
770.312	16.38
771.06	16.38
771.807	16.38
772.554	14.38
773.302	12.38
774.049	14.38
774.796	13.38
775.543	17.38
776.29	14.38
777.036	16.38
777.783	16.38
778.53	15.38
779.276	16.38
780.023	16.38
780.769	16.38
781.516	16.38
782.262	16.38
783.008	15.38
783.754	16.38
784.5	17.38
785.246	14.38
785.992	17.38
786.738	18.38
787.484	15.38
788.23	14.38
788.975	18.38
789.721	16.38
790.466	14.38
791.212	16.38
791.957	14.38
792.702	14.38
793.447	15.38
794.193	15.38
794.938	16.38
795.683	13.38
796.427	17.38
797.172	15.38
797.917	12.38
798.662	16.38
799.406	12.38
800.151	14.38
800.895	14.38
801.64	14.38
802.384	11.38
803.128	14.38
803.872	15.38
804.616	13.38
805.36	12.38
806.104	10.38
806.848	10.38
807.592	13.38
808.336	11.38
809.079	11.38
809.823	12.38
810.566	11.38
811.31	11.38
812.053	9.38
812.796	11.38
813.539	12.38
814.283	10.38
815.026	11.38
815.769	7.38
816.511	9.38
817.254	8.38
817.997	12.38
818.74	9.38
819.482	7.38
820.225	10.38
820.967	9.38
821.71	10.38
822.452	7.38
823.194	9.38
823.936	7.38
824.678	7.38
825.42	10.38
826.162	8.38
826.904	7.38
827.646	5.38
828.388	9.38
829.129	9.38
829.871	5.38
830.612	6.38
831.354	4.38
832.095	7.38
832.836	6.38
833.577	8.38
834.319	6.38
835.06	6.38
835.801	7.38
836.542	8.38
837.282	9.38
838.023	6.38
838.764	6.38
839.504	6.38
840.245	7.38
840.985	6.38
841.726	6.38
842.466	6.38
843.206	6.38
843.946	7.38
844.687	7.38
845.427	8.38
846.166	7.38
846.906	3.38
847.646	5.38
848.386	5.38
849.125	6.38
849.865	6.38
850.605	8.38
851.344	5.38
852.083	4.38
852.823	5.38
853.562	5.38
854.301	5.38
855.04	6.38
855.779	5.38
856.518	5.38
857.257	6.38
857.995	4.38
858.734	4.38
859.473	6.38
860.211	5.38
860.95	4.38
861.688	6.38
862.426	5.38
863.165	3.38
863.903	3.38
864.641	7.38
865.379	6.38
866.117	6.38
866.855	3.38
867.593	5.38
868.33	4.38
869.068	4.38
869.806	7.38
870.543	3.38
871.28	4.38
872.018	3.38
872.755	2.38
873.492	3.38
874.229	5.38
874.967	4.38
875.703	1.38
876.44	4.38
877.177	1.38
877.914	3.38
878.651	1.38
879.387	3.38
880.124	2.38
880.86	2.38
881.597	3.38
882.333	2.38
883.069	3.38
883.806	3.38
884.542	0.38
885.278	2.38
886.014	2.38
886.749	3.38
887.485	3.38
888.221	3.38
888.957	3.38
889.692	1.38
890.428	3.38
891.163	1.38
891.899	5.38
892.634	1.38
893.369	2.38
894.104	1.38
894.839	2.38
895.574	3.38
896.309	2.38
897.044	3.38
897.779	4.38
898.514	2.38
899.248	2.38
899.983	1.38
900.717	2.38
901.452	2.38
902.186	1.38
902.92	1.38
903.654	1.38
904.389	3.38
905.123	2.38
905.857	4.38
906.59	3.38
907.324	0.38
908.058	2.38
908.792	1.38
909.525	1.38
910.259	3.38
910.992	1.38
911.726	1.38
912.459	1.38
913.192	2.38
913.925	1.38
914.658	3.38
915.391	1.38
916.124	4.38
916.857	2.38
917.59	0.38
918.323	1.38
919.055	-0.62
919.788	3.38
920.521	3.38
921.253	3.38
921.985	2.38
922.718	2.38
923.45	4.38
924.182	3.38
924.914	0.38
925.646	3.38
926.378	2.38
927.11	1.38
927.841	2.38
928.573	3.38
929.305	1.38
930.036	0.38
930.768	1.38
931.499	2.38
932.23	1.38
932.962	1.38
933.693	2.38
934.424	2.38
935.155	0.38
935.886	1.38
936.617	3.38
937.348	4.38
938.078	0.38
938.809	1.38
939.54	2.38
940.27	2.38
941.001	0.38
941.731	1.38
942.461	3.38
943.191	2.38
943.922	2.38
944.652	3.38
945.382	4.38
946.112	1.38
946.841	1.38
947.571	0.38
948.301	3.38
949.031	0.38
949.76	3.38
950.49	2.38
951.219	-0.62
951.948	4.38
952.678	1.38
953.407	2.38
954.136	0.38
954.865	1.38
955.594	2.38
956.323	3.38
957.052	1.38
957.78	0.38
958.509	4.38
959.238	1.38
959.966	2.38
960.695	0.38
961.423	3.38
962.151	0.38
962.88	0.38
963.608	2.38
964.336	2.38
965.064	2.38
965.792	2.38
966.52	0.38
967.247	2.38
967.975	1.38
968.703	2.38
969.43	2.38
970.158	0.38
970.885	0.38
971.613	-1.62
972.34	2.38
973.067	2.38
973.794	2.38
974.521	4.38
975.248	1.38
975.975	2.38
976.702	1.38
977.429	2.38
978.156	3.38
978.882	2.38
979.609	2.38
980.335	0.38
981.062	3.38
981.788	3.38
982.514	1.38
983.24	2.38
983.967	2.38
984.693	3.38
985.419	0.38
986.144	1.38
986.87	2.38
987.596	1.38
988.322	4.38
989.047	2.38
989.773	2.38
990.498	0.38
991.224	2.38
991.949	3.38
992.674	2.38
993.399	0.38
994.124	1.38
994.849	2.38
995.574	1.38
996.299	2.38
997.024	0.38
997.749	1.38
998.473	2.38
999.198	2.38
999.922	2.38
1000.647	1.38
1001.371	3.38
1002.095	-0.62
1002.82	-0.62
1003.544	-2.62
1004.268	6.38
1004.992	5.38
1005.716	7.38
1006.439	7.38
1007.163	6.38
1007.887	6.38
1008.611	2.38
1009.334	0.38
1010.058	1.38
1010.781	1.38
1011.504	1.38
1012.228	2.38
1012.951	-0.62
1013.674	2.38
1014.397	0.38
1015.12	-1.62
