节点500_705_QEPB04081__339__20-50-45-569.txt的数据

Date: Wed Nov 12 20:50:45 CST 2025
User: PC
Spectrometer: QEPB0408
触发模式: 0
积分时间 (秒): 1.000000E-2
Scans to average: 1
启用暗噪声校正: true
启用非线性校正: false
滑动平均宽度: 0
X轴模式: Wavelengths
Number of Pixels in Spectrum: 1044
>>>>>Begin Spectral Data<<<<<
220.843	3
221.644	7
222.444	7
223.244	4
224.045	7
224.845	9
225.645	8
226.445	8
227.245	8
228.045	7
228.845	7
229.645	8
230.444	7
231.244	9
232.043	10
232.843	8
233.642	12
234.442	8
235.241	11
236.04	11
236.839	12
237.638	9
238.437	10
239.236	14
240.035	9
240.833	12
241.632	11
242.43	15
243.229	12
244.027	11
244.826	13
245.624	13
246.422	18
247.22	16
248.018	13
248.816	16
249.614	15
250.412	18
251.21	17
252.007	15
252.805	19
253.602	17
254.4	19
255.197	16
255.994	19
256.791	21
257.589	21
258.386	21
259.183	21
259.979	19
260.776	23
261.573	24
262.37	25
263.166	23
263.963	27
264.759	27
265.556	27
266.352	26
267.148	28
267.944	28
268.74	29
269.536	28
270.332	30
271.128	34
271.924	31
272.719	32
273.515	31
274.311	34
275.106	33
275.901	35
276.697	37
277.492	34
278.287	34
279.082	37
279.877	35
280.672	31
281.467	40
282.262	31
283.056	33
283.851	33
284.646	34
285.44	33
286.234	32
287.029	31
287.823	31
288.617	34
289.411	32
290.205	34
290.999	33
291.793	32
292.587	32
293.381	34
294.174	29
294.968	31
295.761	28
296.555	27
297.348	28
298.141	29
298.935	30
299.728	28
300.521	28
301.314	26
302.107	24
302.899	23
303.692	25
304.485	19
305.277	23
306.07	22
306.862	24
307.655	18
308.447	22
309.239	22
310.031	21
310.823	18
311.615	20
312.407	19
313.199	17
313.991	14
314.783	22
315.574	14
316.366	16
317.157	13
317.949	15
318.74	16
319.531	11
320.322	16
321.113	12
321.904	15
322.695	16
323.486	12
324.277	11
325.068	13
325.858	14
326.649	12
327.439	14
328.23	11
329.02	12
329.81	11
330.6	9
331.391	11
332.181	14
332.971	9
333.76	14
334.55	11
335.34	11
336.13	12
336.919	13
337.709	14
338.498	12
339.287	12
340.077	14
340.866	12
341.655	13
342.444	9
343.233	10
344.022	14
344.811	11
345.6	13
346.388	12
347.177	16
347.965	13
348.754	13
349.542	11
350.33	13
351.119	11
351.907	10
352.695	13
353.483	10
354.271	11
355.059	11
355.846	8
356.634	9
357.422	11
358.209	11
358.997	11
359.784	11
360.571	14
361.359	11
362.146	10
362.933	9
363.72	10
364.507	10
365.294	10
366.081	9
366.867	10
367.654	13
368.44	11
369.227	9
370.013	11
370.8	9
371.586	12
372.372	6
373.158	9
373.944	9
374.73	10
375.516	11
376.302	8
377.088	11
377.873	8
378.659	13
379.445	12
380.23	8
381.015	11
381.801	5
382.586	9
383.371	10
384.156	10
384.941	11
385.726	12
386.511	12
387.296	11
388.08	11
388.865	10
389.649	13
390.434	16
391.218	11
392.003	13
392.787	11
393.571	11
394.355	11
395.139	11
395.923	15
396.707	10
397.491	13
398.274	9
399.058	13
399.842	15
400.625	14
401.408	15
402.192	13
402.975	13
403.758	14
404.541	14
405.324	14
406.107	14
406.89	15
407.673	17
408.456	14
409.238	21
410.021	13
410.803	15
411.586	19
412.368	19
413.151	19
413.933	18
414.715	16
415.497	21
416.279	19
417.061	18
417.843	18
418.624	23
419.406	20
420.188	21
420.969	20
421.751	22
422.532	23
423.313	21
424.095	27
424.876	25
425.657	27
426.438	25
427.219	25
428	22
428.78	25
429.561	29
430.342	30
431.122	32
431.903	36
432.683	35
433.464	36
434.244	38
435.024	42
435.804	42
436.584	43
437.364	47
438.144	48
438.924	50
439.704	52
440.483	54
441.263	62
442.042	65
442.822	69
443.601	74
444.38	80
445.16	87
445.939	91
446.718	101
447.497	108
448.276	122
449.054	134
449.833	152
450.612	166
451.391	179
452.169	198
452.948	216
453.726	237
454.504	271
455.282	296
456.061	330
456.839	373
457.617	410
458.395	463
459.172	513
459.95	574
460.728	645
461.506	713
462.283	786
463.061	875
463.838	982
464.615	1103
465.393	1221
466.17	1353
466.947	1512
467.724	1666
468.501	1848
469.278	2052
470.055	2264
470.831	2510
471.608	2765
472.385	3066
473.161	3368
473.938	3680
474.714	4083
475.49	4432
476.266	4847
477.043	5315
477.819	5803
478.595	6358
479.371	6953
480.146	7586
480.922	8265
481.698	8978
482.473	9828
483.249	10654
484.024	11587
484.8	12525
485.575	13637
486.35	14776
487.126	15959
487.901	17272
488.676	18607
489.451	20130
490.225	21675
491	23186
491.775	24755
492.55	26514
493.324	28216
494.099	29976
494.873	31820
495.647	33495
496.422	35289
497.196	37094
497.97	38725
498.744	40250
499.518	41863
500.292	43253
501.066	44255
501.839	45204
502.613	45932
503.387	46615
504.16	47014
504.934	47149
505.707	47030
506.48	46741
507.253	46221
508.027	45555
508.8	44647
509.573	43600
510.346	42572
511.118	41575
511.891	40210
512.664	38730
513.437	37409
514.209	35912
514.982	34623
515.754	33132
516.526	31727
517.298	30494
518.071	29353
518.843	28139
519.615	27081
520.387	25994
521.159	25035
521.93	23896
522.702	22897
523.474	21966
524.245	21039
525.017	20105
525.788	19229
526.56	18447
527.331	17624
528.102	16734
528.873	15871
529.644	15169
530.415	14465
531.186	13743
531.957	13042
532.728	12347
533.498	11742
534.269	11054
535.039	10488
535.81	9935
536.58	9441
537.351	8879
538.121	8433
538.891	7967
539.661	7578
540.431	7100
541.201	6790
541.971	6404
542.741	6053
543.51	5762
544.28	5496
545.05	5207
545.819	4995
546.588	4716
547.358	4523
548.127	4293
548.896	4103
549.665	3871
550.434	3654
551.203	3510
551.972	3295
552.741	3140
553.51	2921
554.278	2785
555.047	2617
555.815	2490
556.584	2334
557.352	2210
558.121	2107
558.889	1962
559.657	1856
560.425	1780
561.193	1687
561.961	1600
562.729	1500
563.496	1415
564.264	1334
565.032	1267
565.799	1208
566.567	1127
567.334	1074
568.101	1013
568.869	955
569.636	909
570.403	850
571.17	814
571.937	754
572.704	719
573.471	683
574.237	646
575.004	595
575.771	562
576.537	529
577.303	503
578.07	488
578.836	452
579.602	429
580.368	406
581.134	385
581.9	375
582.666	357
583.432	326
584.198	321
584.964	306
585.729	285
586.495	267
587.26	255
588.025	239
588.791	227
589.556	215
590.321	205
591.086	196
591.851	183
592.616	174
593.381	169
594.146	158
594.911	155
595.675	149
596.44	141
597.204	135
597.969	132
598.733	123
599.497	117
600.261	112
601.025	110
601.79	105
602.553	96
603.317	92
604.081	93
604.845	89
605.609	87
606.372	78
607.136	78
607.899	76
608.662	71
609.426	71
610.189	67
610.952	64
611.715	64
612.478	60
613.241	56
614.004	53
614.767	54
615.529	53
616.292	47
617.055	48
617.817	47
618.579	45
619.342	45
620.104	44
620.866	44
621.628	39
622.39	38
623.152	40
623.914	38
624.676	37
625.438	36
626.199	33
626.961	30
627.722	31
628.484	27
629.245	33
630.006	27
630.768	29
631.529	30
632.29	27
633.051	27
633.812	21
634.573	23
635.333	23
636.094	23
636.855	20
637.615	23
638.376	24
639.136	20
639.896	21
640.657	21
641.417	17
642.177	20
642.937	18
643.697	17
644.457	13
645.216	14
645.976	19
646.736	16
647.495	15
648.255	15
649.014	15
649.774	15
650.533	16
651.292	16
652.051	15
652.81	15
653.569	14
654.328	14
655.087	14
655.846	11
656.604	13
657.363	13
658.121	13
658.88	13
659.638	13
660.397	13
661.155	10
661.913	11
662.671	11
663.429	10
664.187	13
664.945	10
665.703	10
666.46	12
667.218	11
667.976	14
668.733	9
669.49	10
670.248	9
671.005	12
671.762	9
672.519	11
673.276	9
674.033	8
674.79	12
675.547	8
676.304	10
677.06	8
677.817	8
678.574	8
679.33	8
680.086	10
680.843	9
681.599	8
682.355	8
683.111	9
683.867	7
684.623	8
685.379	9
686.135	9
686.89	9
687.646	9
688.402	6
689.157	8
689.912	6
690.668	10
691.423	9
692.178	9
692.933	8
693.688	8
694.443	9
695.198	8
695.953	7
696.708	8
697.462	9
698.217	7
698.972	7
699.726	7
700.48	7
701.235	7
701.989	8
702.743	8
703.497	8
704.251	10
705.005	6
705.759	8
706.513	6
707.266	6
708.02	8
708.774	5
709.527	9
710.28	10
711.034	9
711.787	9
712.54	5
713.293	8
714.046	8
714.799	7
715.552	5
716.305	9
717.058	8
717.81	10
718.563	9
719.315	7
720.068	8
720.82	9
721.573	9
722.325	6
723.077	7
723.829	10
724.581	8
725.333	8
726.085	8
726.836	9
727.588	9
728.34	9
729.091	8
729.843	10
730.594	8
731.346	9
732.097	9
732.848	9
733.599	9
734.35	11
735.101	10
735.852	8
736.603	9
737.354	6
738.104	11
738.855	10
739.605	10
740.356	12
741.106	9
741.856	11
742.607	11
743.357	11
744.107	11
744.857	11
745.607	12
746.357	11
747.106	11
747.856	10
748.606	14
749.355	11
750.105	10
750.854	11
751.603	12
752.353	15
753.102	10
753.851	10
754.6	11
755.349	13
756.098	12
756.847	12
757.595	12
758.344	13
759.093	13
759.841	13
760.589	15
761.338	14
762.086	12
762.834	13
763.582	14
764.331	14
765.079	14
765.826	13
766.574	13
767.322	15
768.07	13
768.817	15
769.565	14
770.312	17
771.06	16
771.807	16
772.554	15
773.302	15
774.049	15
774.796	15
775.543	14
776.29	15
777.036	15
777.783	15
778.53	17
779.276	15
780.023	15
780.769	15
781.516	17
782.262	15
783.008	15
783.754	17
784.5	15
785.246	15
785.992	17
786.738	16
787.484	14
788.23	17
788.975	14
789.721	18
790.466	15
791.212	12
791.957	16
792.702	17
793.447	14
794.193	16
794.938	15
795.683	13
796.427	13
797.172	15
797.917	12
798.662	11
799.406	15
800.151	11
800.895	11
801.64	13
802.384	11
803.128	13
803.872	10
804.616	11
805.36	10
806.104	14
806.848	13
807.592	9
808.336	11
809.079	11
809.823	12
810.566	10
811.31	10
812.053	9
812.796	11
813.539	9
814.283	9
815.026	10
815.769	8
816.511	9
817.254	7
817.997	8
818.74	9
819.482	10
820.225	9
820.967	8
821.71	7
822.452	8
823.194	7
823.936	8
824.678	8
825.42	7
826.162	5
826.904	10
827.646	5
828.388	7
829.129	5
829.871	7
830.612	5
831.354	5
832.095	7
832.836	8
833.577	5
834.319	5
835.06	7
835.801	7
836.542	8
837.282	4
838.023	6
838.764	8
839.504	8
840.245	5
840.985	6
841.726	9
842.466	6
843.206	6
843.946	5
844.687	8
845.427	6
846.166	7
846.906	6
847.646	4
848.386	5
849.125	5
849.865	4
850.605	5
851.344	7
852.083	4
852.823	3
853.562	6
854.301	6
855.04	3
855.779	4
856.518	3
857.257	4
857.995	6
858.734	4
859.473	5
860.211	3
860.95	6
861.688	4
862.426	2
863.165	5
863.903	3
864.641	3
865.379	2
866.117	3
866.855	3
867.593	2
868.33	2
869.068	4
869.806	6
870.543	2
871.28	3
872.018	1
872.755	2
873.492	3
874.229	2
874.967	4
875.703	4
876.44	2
877.177	5
877.914	0
878.651	5
879.387	1
880.124	3
880.86	3
881.597	1
882.333	2
883.069	-1
883.806	3
884.542	3
885.278	2
886.014	3
886.749	2
887.485	1
888.221	1
888.957	3
889.692	1
890.428	3
891.163	1
891.899	1
892.634	2
893.369	3
894.104	2
894.839	2
895.574	4
896.309	2
897.044	0
897.779	1
898.514	1
899.248	1
899.983	2
900.717	-1
901.452	2
902.186	-1
902.92	3
903.654	1
904.389	3
905.123	2
905.857	1
906.59	-1
907.324	1
908.058	3
908.792	-1
909.525	4
910.259	4
910.992	0
911.726	0
912.459	2
913.192	1
913.925	0
914.658	1
915.391	1
916.124	0
916.857	1
917.59	1
918.323	2
919.055	3
919.788	1
920.521	1
921.253	1
921.985	1
922.718	0
923.45	1
924.182	1
924.914	1
925.646	2
926.378	-1
927.11	-1
927.841	1
928.573	-1
929.305	1
930.036	0
930.768	0
931.499	2
932.23	1
932.962	1
933.693	0
934.424	0
935.155	0
935.886	1
936.617	3
937.348	0
938.078	0
938.809	-1
939.54	-1
940.27	1
941.001	1
941.731	3
942.461	-1
943.191	3
943.922	0
944.652	-1
945.382	1
946.112	3
946.841	2
947.571	1
948.301	-2
949.031	-2
949.76	1
950.49	1
951.219	-1
951.948	2
952.678	1
953.407	1
954.136	1
954.865	-1
955.594	0
956.323	1
957.052	0
957.78	1
958.509	0
959.238	3
959.966	0
960.695	0
961.423	1
962.151	0
962.88	0
963.608	1
964.336	3
965.064	2
965.792	1
966.52	2
967.247	-1
967.975	2
968.703	1
969.43	2
970.158	0
970.885	1
971.613	-1
972.34	-1
973.067	0
973.794	2
974.521	1
975.248	0
975.975	-1
976.702	1
977.429	0
978.156	3
978.882	0
979.609	0
980.335	-1
981.062	0
981.788	-1
982.514	1
983.24	1
983.967	0
984.693	1
985.419	1
986.144	-2
986.87	0
987.596	-1
988.322	3
989.047	2
989.773	0
990.498	3
991.224	1
991.949	3
992.674	2
993.399	3
994.124	0
994.849	-1
995.574	0
996.299	-3
997.024	0
997.749	1
998.473	0
999.198	0
999.922	-1
1000.647	1
1001.371	3
1002.095	-2
1002.82	0
1003.544	-1
1004.268	5
1004.992	4
1005.716	5
1006.439	5
1007.163	6
1007.887	8
1008.611	2
1009.334	2
1010.058	2
1010.781	-1
1011.504	1
1012.228	1
1012.951	2
1013.674	1
1014.397	-1
1015.12	-2
