节点500_705_QEPB04081__263__20-49-41-419.txt的数据

Date: Wed Nov 12 20:49:41 CST 2025
User: PC
Spectrometer: QEPB0408
触发模式: 0
积分时间 (秒): 1.000000E-2
Scans to average: 1
启用暗噪声校正: true
启用非线性校正: false
滑动平均宽度: 0
X轴模式: Wavelengths
Number of Pixels in Spectrum: 1044
>>>>>Begin Spectral Data<<<<<
220.843	3.62
221.644	8.62
222.444	5.62
223.244	7.62
224.045	9.62
224.845	9.62
225.645	7.62
226.445	7.62
227.245	9.62
228.045	9.62
228.845	9.62
229.645	8.62
230.444	7.62
231.244	9.62
232.043	10.62
232.843	8.62
233.642	11.62
234.442	8.62
235.241	10.62
236.04	9.62
236.839	9.62
237.638	11.62
238.437	13.62
239.236	13.62
240.035	13.62
240.833	11.62
241.632	10.62
242.43	14.62
243.229	13.62
244.027	9.62
244.826	14.62
245.624	19.62
246.422	12.62
247.22	12.62
248.018	15.62
248.816	15.62
249.614	17.62
250.412	15.62
251.21	16.62
252.007	14.62
252.805	18.62
253.602	19.62
254.4	16.62
255.197	20.62
255.994	20.62
256.791	21.62
257.589	23.62
258.386	23.62
259.183	23.62
259.979	24.62
260.776	23.62
261.573	24.62
262.37	23.62
263.166	25.62
263.963	30.62
264.759	27.62
265.556	28.62
266.352	30.62
267.148	27.62
267.944	28.62
268.74	30.62
269.536	30.62
270.332	30.62
271.128	34.62
271.924	29.62
272.719	35.62
273.515	35.62
274.311	35.62
275.106	33.62
275.901	36.62
276.697	36.62
277.492	34.62
278.287	36.62
279.082	34.62
279.877	35.62
280.672	35.62
281.467	35.62
282.262	34.62
283.056	35.62
283.851	35.62
284.646	33.62
285.44	33.62
286.234	34.62
287.029	31.62
287.823	35.62
288.617	35.62
289.411	34.62
290.205	29.62
290.999	32.62
291.793	34.62
292.587	35.62
293.381	34.62
294.174	31.62
294.968	31.62
295.761	29.62
296.555	26.62
297.348	27.62
298.141	29.62
298.935	29.62
299.728	26.62
300.521	27.62
301.314	25.62
302.107	29.62
302.899	20.62
303.692	23.62
304.485	22.62
305.277	20.62
306.07	23.62
306.862	23.62
307.655	20.62
308.447	21.62
309.239	21.62
310.031	21.62
310.823	21.62
311.615	20.62
312.407	19.62
313.199	19.62
313.991	18.62
314.783	19.62
315.574	13.62
316.366	19.62
317.157	15.62
317.949	14.62
318.74	13.62
319.531	16.62
320.322	15.62
321.113	15.62
321.904	12.62
322.695	15.62
323.486	14.62
324.277	12.62
325.068	12.62
325.858	15.62
326.649	10.62
327.439	14.62
328.23	12.62
329.02	11.62
329.81	13.62
330.6	11.62
331.391	14.62
332.181	12.62
332.971	12.62
333.76	12.62
334.55	12.62
335.34	12.62
336.13	14.62
336.919	13.62
337.709	10.62
338.498	10.62
339.287	14.62
340.077	12.62
340.866	11.62
341.655	12.62
342.444	11.62
343.233	12.62
344.022	10.62
344.811	11.62
345.6	10.62
346.388	12.62
347.177	13.62
347.965	12.62
348.754	13.62
349.542	9.62
350.33	11.62
351.119	10.62
351.907	12.62
352.695	11.62
353.483	11.62
354.271	11.62
355.059	8.62
355.846	11.62
356.634	11.62
357.422	8.62
358.209	13.62
358.997	10.62
359.784	12.62
360.571	12.62
361.359	10.62
362.146	10.62
362.933	7.62
363.72	11.62
364.507	11.62
365.294	10.62
366.081	11.62
366.867	11.62
367.654	9.62
368.44	9.62
369.227	10.62
370.013	9.62
370.8	9.62
371.586	12.62
372.372	10.62
373.158	10.62
373.944	11.62
374.73	11.62
375.516	10.62
376.302	10.62
377.088	12.62
377.873	12.62
378.659	11.62
379.445	12.62
380.23	8.62
381.015	11.62
381.801	11.62
382.586	12.62
383.371	11.62
384.156	12.62
384.941	10.62
385.726	10.62
386.511	12.62
387.296	10.62
388.08	15.62
388.865	12.62
389.649	12.62
390.434	13.62
391.218	12.62
392.003	11.62
392.787	10.62
393.571	13.62
394.355	10.62
395.139	12.62
395.923	15.62
396.707	13.62
397.491	15.62
398.274	11.62
399.058	12.62
399.842	15.62
400.625	12.62
401.408	15.62
402.192	13.62
402.975	17.62
403.758	16.62
404.541	17.62
405.324	16.62
406.107	15.62
406.89	14.62
407.673	17.62
408.456	19.62
409.238	14.62
410.021	15.62
410.803	15.62
411.586	18.62
412.368	16.62
413.151	19.62
413.933	16.62
414.715	17.62
415.497	17.62
416.279	19.62
417.061	18.62
417.843	23.62
418.624	20.62
419.406	22.62
420.188	19.62
420.969	19.62
421.751	23.62
422.532	22.62
423.313	25.62
424.095	24.62
424.876	26.62
425.657	26.62
426.438	26.62
427.219	30.62
428	31.62
428.78	25.62
429.561	27.62
430.342	31.62
431.122	34.62
431.903	34.62
432.683	35.62
433.464	34.62
434.244	36.62
435.024	39.62
435.804	39.62
436.584	44.62
437.364	45.62
438.144	51.62
438.924	47.62
439.704	53.62
440.483	57.62
441.263	58.62
442.042	66.62
442.822	70.62
443.601	72.62
444.38	76.62
445.16	86.62
445.939	91.62
446.718	101.62
447.497	115.62
448.276	122.62
449.054	130.62
449.833	144.62
450.612	156.62
451.391	176.62
452.169	186.62
452.948	213.62
453.726	237.62
454.504	252.62
455.282	293.62
456.061	329.62
456.839	362.62
457.617	405.62
458.395	446.62
459.172	503.62
459.95	557.62
460.728	627.62
461.506	687.62
462.283	778.62
463.061	869.62
463.838	963.62
464.615	1080.62
465.393	1210.62
466.17	1333.62
466.947	1487.62
467.724	1651.62
468.501	1832.62
469.278	2029.62
470.055	2241.62
470.831	2508.62
471.608	2743.62
472.385	3039.62
473.161	3347.62
473.938	3683.62
474.714	4051.62
475.49	4466.62
476.266	4890.62
477.043	5321.62
477.819	5843.62
478.595	6421.62
479.371	7051.62
480.146	7649.62
480.922	8406.62
481.698	9127.62
482.473	9962.62
483.249	10803.62
484.024	11793.62
484.8	12802.62
485.575	13949.62
486.35	15111.62
487.126	16357.62
487.901	17736.62
488.676	19161.62
489.451	20693.62
490.225	22199.62
491	23845.62
491.775	25548.62
492.55	27421.62
493.324	29162.62
494.099	30926.62
494.873	32771.62
495.647	34700.62
496.422	36516.62
497.196	38330.62
497.97	39883.62
498.744	41388.62
499.518	43090.62
500.292	44396.62
501.066	45425.62
501.839	46242.62
502.613	46994.62
503.387	47546.62
504.16	47942.62
504.934	47955.62
505.707	47819.62
506.48	47347.62
507.253	46773.62
508.027	45994.62
508.8	44988.62
509.573	43876.62
510.346	42739.62
511.118	41580.62
511.891	40267.62
512.664	38704.62
513.437	37255.62
514.209	35865.62
514.982	34450.62
515.754	32946.62
516.526	31527.62
517.298	30327.62
518.071	29149.62
518.843	27978.62
519.615	26867.62
520.387	25835.62
521.159	24811.62
521.93	23702.62
522.702	22727.62
523.474	21791.62
524.245	20828.62
525.017	19865.62
525.788	19069.62
526.56	18242.62
527.331	17382.62
528.102	16558.62
528.873	15664.62
529.644	14975.62
530.415	14236.62
531.186	13592.62
531.957	12770.62
532.728	12168.62
533.498	11546.62
534.269	10884.62
535.039	10330.62
535.81	9788.62
536.58	9221.62
537.351	8722.62
538.121	8282.62
538.891	7852.62
539.661	7397.62
540.431	6994.62
541.201	6660.62
541.971	6283.62
542.741	5971.62
543.51	5651.62
544.28	5390.62
545.05	5139.62
545.819	4888.62
546.588	4663.62
547.358	4437.62
548.127	4205.62
548.896	4015.62
549.665	3768.62
550.434	3617.62
551.203	3399.62
551.972	3249.62
552.741	3065.62
553.51	2858.62
554.278	2709.62
555.047	2569.62
555.815	2391.62
556.584	2300.62
557.352	2171.62
558.121	2023.62
558.889	1937.62
559.657	1837.62
560.425	1731.62
561.193	1632.62
561.961	1555.62
562.729	1462.62
563.496	1380.62
564.264	1320.62
565.032	1231.62
565.799	1169.62
566.567	1112.62
567.334	1037.62
568.101	979.62
568.869	937.62
569.636	878.62
570.403	830.62
571.17	804.62
571.937	738.62
572.704	710.62
573.471	667.62
574.237	627.62
575.004	599.62
575.771	553.62
576.537	527.62
577.303	494.62
578.07	474.62
578.836	447.62
579.602	424.62
580.368	398.62
581.134	376.62
581.9	356.62
582.666	344.62
583.432	321.62
584.198	309.62
584.964	293.62
585.729	279.62
586.495	267.62
587.26	251.62
588.025	236.62
588.791	232.62
589.556	210.62
590.321	201.62
591.086	193.62
591.851	187.62
592.616	175.62
593.381	166.62
594.146	158.62
594.911	152.62
595.675	145.62
596.44	138.62
597.204	130.62
597.969	121.62
598.733	119.62
599.497	120.62
600.261	111.62
601.025	106.62
601.79	102.62
602.553	93.62
603.317	92.62
604.081	88.62
604.845	82.62
605.609	82.62
606.372	83.62
607.136	76.62
607.899	73.62
608.662	69.62
609.426	64.62
610.189	70.62
610.952	62.62
611.715	60.62
612.478	60.62
613.241	54.62
614.004	51.62
614.767	55.62
615.529	53.62
616.292	51.62
617.055	49.62
617.817	47.62
618.579	46.62
619.342	43.62
620.104	46.62
620.866	40.62
621.628	40.62
622.39	40.62
623.152	35.62
623.914	36.62
624.676	35.62
625.438	33.62
626.199	32.62
626.961	32.62
627.722	29.62
628.484	29.62
629.245	31.62
630.006	28.62
630.768	28.62
631.529	27.62
632.29	25.62
633.051	26.62
633.812	23.62
634.573	26.62
635.333	24.62
636.094	21.62
636.855	21.62
637.615	21.62
638.376	22.62
639.136	19.62
639.896	19.62
640.657	21.62
641.417	17.62
642.177	19.62
642.937	19.62
643.697	19.62
644.457	18.62
645.216	17.62
645.976	16.62
646.736	15.62
647.495	14.62
648.255	12.62
649.014	16.62
649.774	15.62
650.533	15.62
651.292	15.62
652.051	14.62
652.81	15.62
653.569	12.62
654.328	15.62
655.087	15.62
655.846	14.62
656.604	13.62
657.363	13.62
658.121	10.62
658.88	12.62
659.638	12.62
660.397	13.62
661.155	10.62
661.913	11.62
662.671	10.62
663.429	12.62
664.187	8.62
664.945	10.62
665.703	12.62
666.46	10.62
667.218	11.62
667.976	9.62
668.733	11.62
669.49	11.62
670.248	12.62
671.005	10.62
671.762	8.62
672.519	8.62
673.276	8.62
674.033	8.62
674.79	8.62
675.547	7.62
676.304	9.62
677.06	10.62
677.817	8.62
678.574	10.62
679.33	8.62
680.086	11.62
680.843	9.62
681.599	8.62
682.355	7.62
683.111	9.62
683.867	9.62
684.623	8.62
685.379	7.62
686.135	10.62
686.89	8.62
687.646	9.62
688.402	8.62
689.157	8.62
689.912	7.62
690.668	7.62
691.423	4.62
692.178	7.62
692.933	10.62
693.688	8.62
694.443	9.62
695.198	8.62
695.953	9.62
696.708	9.62
697.462	7.62
698.217	8.62
698.972	7.62
699.726	8.62
700.48	7.62
701.235	7.62
701.989	9.62
702.743	7.62
703.497	6.62
704.251	9.62
705.005	7.62
705.759	10.62
706.513	7.62
707.266	9.62
708.02	8.62
708.774	9.62
709.527	9.62
710.28	10.62
711.034	10.62
711.787	8.62
712.54	9.62
713.293	9.62
714.046	8.62
714.799	6.62
715.552	9.62
716.305	6.62
717.058	6.62
717.81	9.62
718.563	5.62
719.315	9.62
720.068	10.62
720.82	10.62
721.573	8.62
722.325	7.62
723.077	10.62
723.829	11.62
724.581	9.62
725.333	8.62
726.085	9.62
726.836	9.62
727.588	9.62
728.34	9.62
729.091	9.62
729.843	7.62
730.594	9.62
731.346	10.62
732.097	9.62
732.848	12.62
733.599	8.62
734.35	12.62
735.101	10.62
735.852	9.62
736.603	9.62
737.354	9.62
738.104	8.62
738.855	9.62
739.605	10.62
740.356	10.62
741.106	10.62
741.856	10.62
742.607	13.62
743.357	13.62
744.107	10.62
744.857	11.62
745.607	11.62
746.357	10.62
747.106	11.62
747.856	10.62
748.606	12.62
749.355	10.62
750.105	14.62
750.854	10.62
751.603	12.62
752.353	14.62
753.102	10.62
753.851	10.62
754.6	13.62
755.349	13.62
756.098	11.62
756.847	15.62
757.595	11.62
758.344	15.62
759.093	14.62
759.841	15.62
760.589	11.62
761.338	14.62
762.086	12.62
762.834	17.62
763.582	13.62
764.331	13.62
765.079	11.62
765.826	13.62
766.574	14.62
767.322	12.62
768.07	19.62
768.817	14.62
769.565	15.62
770.312	15.62
771.06	13.62
771.807	14.62
772.554	13.62
773.302	15.62
774.049	14.62
774.796	16.62
775.543	16.62
776.29	14.62
777.036	16.62
777.783	16.62
778.53	17.62
779.276	17.62
780.023	17.62
780.769	16.62
781.516	14.62
782.262	17.62
783.008	16.62
783.754	16.62
784.5	17.62
785.246	19.62
785.992	15.62
786.738	14.62
787.484	15.62
788.23	17.62
788.975	16.62
789.721	15.62
790.466	16.62
791.212	13.62
791.957	13.62
792.702	15.62
793.447	13.62
794.193	13.62
794.938	15.62
795.683	15.62
796.427	13.62
797.172	16.62
797.917	12.62
798.662	13.62
799.406	13.62
800.151	12.62
800.895	12.62
801.64	16.62
802.384	11.62
803.128	11.62
803.872	10.62
804.616	11.62
805.36	12.62
806.104	10.62
806.848	12.62
807.592	11.62
808.336	9.62
809.079	10.62
809.823	9.62
810.566	8.62
811.31	10.62
812.053	9.62
812.796	11.62
813.539	9.62
814.283	10.62
815.026	10.62
815.769	11.62
816.511	9.62
817.254	9.62
817.997	10.62
818.74	8.62
819.482	9.62
820.225	7.62
820.967	7.62
821.71	5.62
822.452	7.62
823.194	9.62
823.936	8.62
824.678	7.62
825.42	7.62
826.162	5.62
826.904	5.62
827.646	8.62
828.388	7.62
829.129	6.62
829.871	8.62
830.612	6.62
831.354	6.62
832.095	8.62
832.836	6.62
833.577	4.62
834.319	5.62
835.06	4.62
835.801	8.62
836.542	7.62
837.282	5.62
838.023	6.62
838.764	5.62
839.504	7.62
840.245	5.62
840.985	4.62
841.726	6.62
842.466	8.62
843.206	4.62
843.946	6.62
844.687	6.62
845.427	6.62
846.166	5.62
846.906	3.62
847.646	7.62
848.386	7.62
849.125	5.62
849.865	6.62
850.605	5.62
851.344	6.62
852.083	5.62
852.823	5.62
853.562	6.62
854.301	4.62
855.04	4.62
855.779	5.62
856.518	5.62
857.257	5.62
857.995	4.62
858.734	6.62
859.473	4.62
860.211	5.62
860.95	3.62
861.688	5.62
862.426	3.62
863.165	4.62
863.903	5.62
864.641	4.62
865.379	4.62
866.117	4.62
866.855	3.62
867.593	3.62
868.33	2.62
869.068	4.62
869.806	1.62
870.543	3.62
871.28	2.62
872.018	1.62
872.755	2.62
873.492	2.62
874.229	3.62
874.967	3.62
875.703	3.62
876.44	1.62
877.177	0.62
877.914	3.62
878.651	3.62
879.387	1.62
880.124	4.62
880.86	1.62
881.597	-0.38
882.333	3.62
883.069	3.62
883.806	2.62
884.542	2.62
885.278	3.62
886.014	1.62
886.749	3.62
887.485	1.62
888.221	3.62
888.957	2.62
889.692	0.62
890.428	3.62
891.163	2.62
891.899	2.62
892.634	1.62
893.369	1.62
894.104	1.62
894.839	1.62
895.574	0.62
896.309	3.62
897.044	1.62
897.779	2.62
898.514	3.62
899.248	3.62
899.983	2.62
900.717	3.62
901.452	0.62
902.186	1.62
902.92	1.62
903.654	2.62
904.389	0.62
905.123	-0.38
905.857	1.62
906.59	1.62
907.324	0.62
908.058	0.62
908.792	3.62
909.525	3.62
910.259	1.62
910.992	2.62
911.726	1.62
912.459	0.62
913.192	1.62
913.925	1.62
914.658	3.62
915.391	0.62
916.124	1.62
916.857	3.62
917.59	2.62
918.323	3.62
919.055	2.62
919.788	-0.38
920.521	0.62
921.253	3.62
921.985	1.62
922.718	3.62
923.45	2.62
924.182	0.62
924.914	-0.38
925.646	1.62
926.378	2.62
927.11	1.62
927.841	1.62
928.573	2.62
929.305	0.62
930.036	1.62
930.768	0.62
931.499	-0.38
932.23	3.62
932.962	1.62
933.693	0.62
934.424	0.62
935.155	0.62
935.886	1.62
936.617	0.62
937.348	1.62
938.078	2.62
938.809	0.62
939.54	0.62
940.27	-1.38
941.001	1.62
941.731	-0.38
942.461	2.62
943.191	2.62
943.922	-1.38
944.652	2.62
945.382	1.62
946.112	1.62
946.841	-1.38
947.571	1.62
948.301	0.62
949.031	0.62
949.76	-0.38
950.49	1.62
951.219	-0.38
951.948	1.62
952.678	2.62
953.407	1.62
954.136	0.62
954.865	3.62
955.594	1.62
956.323	3.62
957.052	1.62
957.78	2.62
958.509	2.62
959.238	0.62
959.966	1.62
960.695	0.62
961.423	-0.38
962.151	0.62
962.88	0.62
963.608	1.62
964.336	-0.38
965.064	3.62
965.792	0.62
966.52	1.62
967.247	1.62
967.975	1.62
968.703	0.62
969.43	0.62
970.158	0.62
970.885	0.62
971.613	2.62
972.34	1.62
973.067	-0.38
973.794	1.62
974.521	1.62
975.248	1.62
975.975	1.62
976.702	1.62
977.429	2.62
978.156	1.62
978.882	-0.38
979.609	0.62
980.335	1.62
981.062	0.62
981.788	-0.38
982.514	1.62
983.24	2.62
983.967	1.62
984.693	3.62
985.419	1.62
986.144	0.62
986.87	0.62
987.596	1.62
988.322	2.62
989.047	-0.38
989.773	1.62
990.498	-0.38
991.224	0.62
991.949	1.62
992.674	3.62
993.399	2.62
994.124	1.62
994.849	2.62
995.574	0.62
996.299	1.62
997.024	-0.38
997.749	2.62
998.473	1.62
999.198	-2.38
999.922	1.62
1000.647	-0.38
1001.371	3.62
1002.095	1.62
1002.82	-0.38
1003.544	-0.38
1004.268	5.62
1004.992	6.62
1005.716	3.62
1006.439	4.62
1007.163	6.62
1007.887	7.62
1008.611	0.62
1009.334	-0.38
1010.058	1.62
1010.781	0.62
1011.504	-0.38
1012.228	-0.38
1012.951	-0.38
1013.674	-0.38
1014.397	-1.38
1015.12	-2.38
