节点500_705_QEPB04081__288__20-50-05-418.txt的数据

Date: Wed Nov 12 20:50:05 CST 2025
User: PC
Spectrometer: QEPB0408
触发模式: 0
积分时间 (秒): 1.000000E-2
Scans to average: 1
启用暗噪声校正: true
启用非线性校正: false
滑动平均宽度: 0
X轴模式: Wavelengths
Number of Pixels in Spectrum: 1044
>>>>>Begin Spectral Data<<<<<
220.843	6.75
221.644	8.75
222.444	6.75
223.244	6.75
224.045	5.75
224.845	6.75
225.645	5.75
226.445	5.75
227.245	8.75
228.045	6.75
228.845	6.75
229.645	8.75
230.444	7.75
231.244	6.75
232.043	10.75
232.843	9.75
233.642	8.75
234.442	10.75
235.241	9.75
236.04	10.75
236.839	11.75
237.638	11.75
238.437	12.75
239.236	12.75
240.035	9.75
240.833	13.75
241.632	10.75
242.43	11.75
243.229	11.75
244.027	10.75
244.826	9.75
245.624	9.75
246.422	13.75
247.22	13.75
248.018	11.75
248.816	16.75
249.614	14.75
250.412	13.75
251.21	17.75
252.007	17.75
252.805	15.75
253.602	12.75
254.4	18.75
255.197	18.75
255.994	19.75
256.791	20.75
257.589	18.75
258.386	20.75
259.183	21.75
259.979	21.75
260.776	21.75
261.573	25.75
262.37	22.75
263.166	24.75
263.963	25.75
264.759	25.75
265.556	27.75
266.352	28.75
267.148	27.75
267.944	27.75
268.74	26.75
269.536	31.75
270.332	29.75
271.128	30.75
271.924	34.75
272.719	31.75
273.515	33.75
274.311	33.75
275.106	34.75
275.901	34.75
276.697	33.75
277.492	35.75
278.287	31.75
279.082	34.75
279.877	34.75
280.672	34.75
281.467	35.75
282.262	34.75
283.056	33.75
283.851	33.75
284.646	33.75
285.44	32.75
286.234	32.75
287.029	36.75
287.823	31.75
288.617	33.75
289.411	30.75
290.205	32.75
290.999	32.75
291.793	30.75
292.587	26.75
293.381	32.75
294.174	30.75
294.968	30.75
295.761	26.75
296.555	28.75
297.348	27.75
298.141	27.75
298.935	27.75
299.728	24.75
300.521	24.75
301.314	21.75
302.107	22.75
302.899	22.75
303.692	23.75
304.485	22.75
305.277	22.75
306.07	23.75
306.862	23.75
307.655	23.75
308.447	20.75
309.239	21.75
310.031	23.75
310.823	19.75
311.615	19.75
312.407	15.75
313.199	16.75
313.991	18.75
314.783	16.75
315.574	16.75
316.366	14.75
317.157	15.75
317.949	14.75
318.74	16.75
319.531	15.75
320.322	13.75
321.113	11.75
321.904	14.75
322.695	12.75
323.486	12.75
324.277	14.75
325.068	14.75
325.858	13.75
326.649	13.75
327.439	12.75
328.23	13.75
329.02	11.75
329.81	10.75
330.6	11.75
331.391	9.75
332.181	11.75
332.971	10.75
333.76	11.75
334.55	10.75
335.34	10.75
336.13	10.75
336.919	11.75
337.709	11.75
338.498	12.75
339.287	14.75
340.077	9.75
340.866	9.75
341.655	10.75
342.444	9.75
343.233	13.75
344.022	7.75
344.811	9.75
345.6	12.75
346.388	8.75
347.177	11.75
347.965	9.75
348.754	8.75
349.542	10.75
350.33	10.75
351.119	11.75
351.907	11.75
352.695	10.75
353.483	9.75
354.271	10.75
355.059	10.75
355.846	8.75
356.634	12.75
357.422	11.75
358.209	10.75
358.997	8.75
359.784	10.75
360.571	9.75
361.359	9.75
362.146	8.75
362.933	9.75
363.72	10.75
364.507	10.75
365.294	8.75
366.081	12.75
366.867	7.75
367.654	10.75
368.44	7.75
369.227	8.75
370.013	10.75
370.8	10.75
371.586	7.75
372.372	9.75
373.158	8.75
373.944	10.75
374.73	9.75
375.516	9.75
376.302	10.75
377.088	11.75
377.873	8.75
378.659	10.75
379.445	9.75
380.23	10.75
381.015	9.75
381.801	10.75
382.586	9.75
383.371	10.75
384.156	9.75
384.941	9.75
385.726	8.75
386.511	10.75
387.296	8.75
388.08	10.75
388.865	11.75
389.649	10.75
390.434	9.75
391.218	11.75
392.003	9.75
392.787	10.75
393.571	10.75
394.355	10.75
395.139	11.75
395.923	12.75
396.707	10.75
397.491	12.75
398.274	13.75
399.058	13.75
399.842	12.75
400.625	15.75
401.408	13.75
402.192	14.75
402.975	14.75
403.758	11.75
404.541	14.75
405.324	12.75
406.107	12.75
406.89	16.75
407.673	12.75
408.456	15.75
409.238	14.75
410.021	13.75
410.803	18.75
411.586	17.75
412.368	18.75
413.151	18.75
413.933	17.75
414.715	16.75
415.497	18.75
416.279	19.75
417.061	18.75
417.843	20.75
418.624	14.75
419.406	20.75
420.188	18.75
420.969	19.75
421.751	19.75
422.532	22.75
423.313	21.75
424.095	22.75
424.876	25.75
425.657	25.75
426.438	27.75
427.219	27.75
428	26.75
428.78	26.75
429.561	30.75
430.342	30.75
431.122	29.75
431.903	33.75
432.683	36.75
433.464	34.75
434.244	37.75
435.024	38.75
435.804	41.75
436.584	42.75
437.364	43.75
438.144	48.75
438.924	50.75
439.704	53.75
440.483	52.75
441.263	63.75
442.042	65.75
442.822	68.75
443.601	75.75
444.38	82.75
445.16	87.75
445.939	92.75
446.718	99.75
447.497	107.75
448.276	121.75
449.054	131.75
449.833	147.75
450.612	160.75
451.391	174.75
452.169	188.75
452.948	212.75
453.726	237.75
454.504	265.75
455.282	291.75
456.061	333.75
456.839	365.75
457.617	407.75
458.395	450.75
459.172	502.75
459.95	558.75
460.728	627.75
461.506	697.75
462.283	778.75
463.061	876.75
463.838	977.75
464.615	1086.75
465.393	1195.75
466.17	1340.75
466.947	1497.75
467.724	1661.75
468.501	1846.75
469.278	2024.75
470.055	2240.75
470.831	2484.75
471.608	2762.75
472.385	3025.75
473.161	3356.75
473.938	3671.75
474.714	4078.75
475.49	4440.75
476.266	4864.75
477.043	5328.75
477.819	5839.75
478.595	6356.75
479.371	6978.75
480.146	7632.75
480.922	8346.75
481.698	9085.75
482.473	9867.75
483.249	10771.75
484.024	11653.75
484.8	12703.75
485.575	13772.75
486.35	14967.75
487.126	16196.75
487.901	17507.75
488.676	18901.75
489.451	20402.75
490.225	21952.75
491	23493.75
491.775	25180.75
492.55	27003.75
493.324	28674.75
494.099	30410.75
494.873	32235.75
495.647	34112.75
496.422	35934.75
497.196	37724.75
497.97	39431.75
498.744	40862.75
499.518	42463.75
500.292	43815.75
501.066	44882.75
501.839	45701.75
502.613	46529.75
503.387	47074.75
504.16	47418.75
504.934	47567.75
505.707	47465.75
506.48	47045.75
507.253	46553.75
508.027	45781.75
508.8	44771.75
509.573	43679.75
510.346	42674.75
511.118	41512.75
511.891	40299.75
512.664	38672.75
513.437	37279.75
514.209	35869.75
514.982	34447.75
515.754	32969.75
516.526	31636.75
517.298	30386.75
518.071	29214.75
518.843	28007.75
519.615	26944.75
520.387	25867.75
521.159	24819.75
521.93	23776.75
522.702	22769.75
523.474	21835.75
524.245	20882.75
525.017	19942.75
525.788	19089.75
526.56	18313.75
527.331	17432.75
528.102	16583.75
528.873	15746.75
529.644	14996.75
530.415	14329.75
531.186	13662.75
531.957	12887.75
532.728	12218.75
533.498	11567.75
534.269	10945.75
535.039	10382.75
535.81	9812.75
536.58	9279.75
537.351	8819.75
538.121	8338.75
538.891	7867.75
539.661	7447.75
540.431	7070.75
541.201	6709.75
541.971	6331.75
542.741	5991.75
543.51	5704.75
544.28	5428.75
545.05	5161.75
545.819	4922.75
546.588	4690.75
547.358	4478.75
548.127	4246.75
548.896	4012.75
549.665	3837.75
550.434	3615.75
551.203	3447.75
551.972	3259.75
552.741	3085.75
553.51	2929.75
554.278	2729.75
555.047	2588.75
555.815	2430.75
556.584	2291.75
557.352	2185.75
558.121	2076.75
558.889	1957.75
559.657	1833.75
560.425	1742.75
561.193	1668.75
561.961	1566.75
562.729	1478.75
563.496	1400.75
564.264	1308.75
565.032	1255.75
565.799	1169.75
566.567	1133.75
567.334	1056.75
568.101	986.75
568.869	941.75
569.636	878.75
570.403	846.75
571.17	795.75
571.937	748.75
572.704	709.75
573.471	677.75
574.237	628.75
575.004	590.75
575.771	552.75
576.537	525.75
577.303	500.75
578.07	472.75
578.836	439.75
579.602	422.75
580.368	405.75
581.134	382.75
581.9	360.75
582.666	338.75
583.432	330.75
584.198	307.75
584.964	292.75
585.729	274.75
586.495	266.75
587.26	247.75
588.025	238.75
588.791	223.75
589.556	218.75
590.321	203.75
591.086	192.75
591.851	183.75
592.616	171.75
593.381	167.75
594.146	162.75
594.911	150.75
595.675	143.75
596.44	139.75
597.204	133.75
597.969	124.75
598.733	121.75
599.497	119.75
600.261	108.75
601.025	105.75
601.79	102.75
602.553	98.75
603.317	95.75
604.081	87.75
604.845	89.75
605.609	84.75
606.372	78.75
607.136	77.75
607.899	71.75
608.662	71.75
609.426	65.75
610.189	68.75
610.952	62.75
611.715	58.75
612.478	57.75
613.241	57.75
614.004	56.75
614.767	53.75
615.529	54.75
616.292	49.75
617.055	45.75
617.817	43.75
618.579	43.75
619.342	41.75
620.104	43.75
620.866	39.75
621.628	38.75
622.39	39.75
623.152	38.75
623.914	37.75
624.676	35.75
625.438	32.75
626.199	32.75
626.961	29.75
627.722	30.75
628.484	26.75
629.245	28.75
630.006	28.75
630.768	26.75
631.529	26.75
632.29	25.75
633.051	22.75
633.812	24.75
634.573	24.75
635.333	23.75
636.094	21.75
636.855	22.75
637.615	20.75
638.376	18.75
639.136	20.75
639.896	18.75
640.657	20.75
641.417	17.75
642.177	19.75
642.937	17.75
643.697	20.75
644.457	18.75
645.216	15.75
645.976	15.75
646.736	17.75
647.495	14.75
648.255	14.75
649.014	13.75
649.774	14.75
650.533	15.75
651.292	16.75
652.051	12.75
652.81	12.75
653.569	14.75
654.328	12.75
655.087	13.75
655.846	12.75
656.604	13.75
657.363	11.75
658.121	10.75
658.88	13.75
659.638	9.75
660.397	8.75
661.155	12.75
661.913	9.75
662.671	13.75
663.429	10.75
664.187	12.75
664.945	10.75
665.703	11.75
666.46	10.75
667.218	10.75
667.976	10.75
668.733	10.75
669.49	12.75
670.248	10.75
671.005	7.75
671.762	8.75
672.519	8.75
673.276	9.75
674.033	8.75
674.79	9.75
675.547	9.75
676.304	6.75
677.06	8.75
677.817	8.75
678.574	8.75
679.33	8.75
680.086	5.75
680.843	7.75
681.599	7.75
682.355	6.75
683.111	7.75
683.867	8.75
684.623	8.75
685.379	8.75
686.135	10.75
686.89	6.75
687.646	10.75
688.402	9.75
689.157	8.75
689.912	8.75
690.668	6.75
691.423	7.75
692.178	7.75
692.933	7.75
693.688	4.75
694.443	5.75
695.198	7.75
695.953	6.75
696.708	7.75
697.462	9.75
698.217	7.75
698.972	7.75
699.726	7.75
700.48	10.75
701.235	6.75
701.989	6.75
702.743	7.75
703.497	6.75
704.251	6.75
705.005	6.75
705.759	7.75
706.513	8.75
707.266	9.75
708.02	8.75
708.774	9.75
709.527	6.75
710.28	7.75
711.034	6.75
711.787	7.75
712.54	8.75
713.293	7.75
714.046	4.75
714.799	9.75
715.552	7.75
716.305	9.75
717.058	9.75
717.81	8.75
718.563	7.75
719.315	8.75
720.068	9.75
720.82	8.75
721.573	9.75
722.325	8.75
723.077	6.75
723.829	6.75
724.581	5.75
725.333	9.75
726.085	9.75
726.836	7.75
727.588	8.75
728.34	8.75
729.091	8.75
729.843	8.75
730.594	9.75
731.346	10.75
732.097	8.75
732.848	8.75
733.599	6.75
734.35	6.75
735.101	8.75
735.852	9.75
736.603	9.75
737.354	10.75
738.104	10.75
738.855	8.75
739.605	12.75
740.356	9.75
741.106	11.75
741.856	10.75
742.607	10.75
743.357	10.75
744.107	10.75
744.857	10.75
745.607	9.75
746.357	10.75
747.106	11.75
747.856	10.75
748.606	9.75
749.355	10.75
750.105	10.75
750.854	8.75
751.603	9.75
752.353	12.75
753.102	11.75
753.851	7.75
754.6	10.75
755.349	11.75
756.098	12.75
756.847	10.75
757.595	11.75
758.344	11.75
759.093	12.75
759.841	12.75
760.589	8.75
761.338	12.75
762.086	14.75
762.834	13.75
763.582	13.75
764.331	11.75
765.079	14.75
765.826	12.75
766.574	14.75
767.322	16.75
768.07	13.75
768.817	15.75
769.565	14.75
770.312	13.75
771.06	15.75
771.807	13.75
772.554	16.75
773.302	14.75
774.049	12.75
774.796	13.75
775.543	15.75
776.29	15.75
777.036	14.75
777.783	15.75
778.53	16.75
779.276	16.75
780.023	16.75
780.769	17.75
781.516	16.75
782.262	11.75
783.008	15.75
783.754	12.75
784.5	16.75
785.246	14.75
785.992	16.75
786.738	14.75
787.484	17.75
788.23	16.75
788.975	14.75
789.721	14.75
790.466	14.75
791.212	13.75
791.957	14.75
792.702	14.75
793.447	14.75
794.193	14.75
794.938	16.75
795.683	12.75
796.427	13.75
797.172	12.75
797.917	10.75
798.662	13.75
799.406	13.75
800.151	12.75
800.895	9.75
801.64	13.75
802.384	10.75
803.128	12.75
803.872	13.75
804.616	10.75
805.36	10.75
806.104	12.75
806.848	7.75
807.592	11.75
808.336	11.75
809.079	10.75
809.823	9.75
810.566	10.75
811.31	11.75
812.053	8.75
812.796	9.75
813.539	10.75
814.283	7.75
815.026	10.75
815.769	8.75
816.511	8.75
817.254	9.75
817.997	6.75
818.74	9.75
819.482	6.75
820.225	7.75
820.967	8.75
821.71	8.75
822.452	6.75
823.194	7.75
823.936	8.75
824.678	4.75
825.42	7.75
826.162	7.75
826.904	7.75
827.646	8.75
828.388	7.75
829.129	4.75
829.871	2.75
830.612	9.75
831.354	3.75
832.095	4.75
832.836	6.75
833.577	5.75
834.319	4.75
835.06	6.75
835.801	6.75
836.542	3.75
837.282	6.75
838.023	4.75
838.764	5.75
839.504	5.75
840.245	5.75
840.985	3.75
841.726	3.75
842.466	4.75
843.206	4.75
843.946	2.75
844.687	6.75
845.427	5.75
846.166	4.75
846.906	6.75
847.646	5.75
848.386	2.75
849.125	4.75
849.865	3.75
850.605	2.75
851.344	4.75
852.083	7.75
852.823	5.75
853.562	6.75
854.301	0.75
855.04	1.75
855.779	3.75
856.518	3.75
857.257	2.75
857.995	4.75
858.734	3.75
859.473	3.75
860.211	1.75
860.95	5.75
861.688	2.75
862.426	2.75
863.165	3.75
863.903	1.75
864.641	3.75
865.379	2.75
866.117	2.75
866.855	1.75
867.593	5.75
868.33	3.75
869.068	0.75
869.806	2.75
870.543	2.75
871.28	0.75
872.018	0.75
872.755	4.75
873.492	3.75
874.229	1.75
874.967	0.75
875.703	2.75
876.44	3.75
877.177	-0.25
877.914	2.75
878.651	0.75
879.387	-0.25
880.124	2.75
880.86	0.75
881.597	2.75
882.333	0.75
883.069	-0.25
883.806	0.75
884.542	0.75
885.278	1.75
886.014	1.75
886.749	-0.25
887.485	1.75
888.221	0.75
888.957	1.75
889.692	0.75
890.428	0.75
891.163	1.75
891.899	-1.25
892.634	2.75
893.369	-3.25
894.104	1.75
894.839	-0.25
895.574	0.75
896.309	-0.25
897.044	0.75
897.779	2.75
898.514	0.75
899.248	2.75
899.983	0.75
900.717	0.75
901.452	1.75
902.186	-1.25
902.92	2.75
903.654	0.75
904.389	0.75
905.123	0.75
905.857	-1.25
906.59	3.75
907.324	0.75
908.058	1.75
908.792	0.75
909.525	-0.25
910.259	0.75
910.992	-1.25
911.726	3.75
912.459	0.75
913.192	0.75
913.925	-0.25
914.658	-1.25
915.391	0.75
916.124	0.75
916.857	-0.25
917.59	1.75
918.323	0.75
919.055	0.75
919.788	0.75
920.521	0.75
921.253	-1.25
921.985	3.75
922.718	-1.25
923.45	-0.25
924.182	1.75
924.914	0.75
925.646	1.75
926.378	0.75
927.11	-0.25
927.841	-0.25
928.573	-0.25
929.305	-0.25
930.036	1.75
930.768	2.75
931.499	1.75
932.23	1.75
932.962	-0.25
933.693	0.75
934.424	1.75
935.155	-0.25
935.886	-0.25
936.617	-2.25
937.348	-0.25
938.078	-0.25
938.809	-0.25
939.54	1.75
940.27	1.75
941.001	-1.25
941.731	1.75
942.461	-1.25
943.191	0.75
943.922	1.75
944.652	0.75
945.382	0.75
946.112	0.75
946.841	0.75
947.571	1.75
948.301	-0.25
949.031	0.75
949.76	-1.25
950.49	0.75
951.219	-0.25
951.948	-0.25
952.678	1.75
953.407	0.75
954.136	-0.25
954.865	-0.25
955.594	-0.25
956.323	-2.25
957.052	0.75
957.78	-0.25
958.509	-1.25
959.238	1.75
959.966	-2.25
960.695	-2.25
961.423	-1.25
962.151	0.75
962.88	1.75
963.608	1.75
964.336	1.75
965.064	-2.25
965.792	1.75
966.52	0.75
967.247	-0.25
967.975	1.75
968.703	0.75
969.43	0.75
970.158	-2.25
970.885	-2.25
971.613	-0.25
972.34	1.75
973.067	-0.25
973.794	-2.25
974.521	0.75
975.248	0.75
975.975	0.75
976.702	0.75
977.429	-1.25
978.156	2.75
978.882	0.75
979.609	2.75
980.335	1.75
981.062	0.75
981.788	-0.25
982.514	-0.25
983.24	0.75
983.967	-1.25
984.693	-0.25
985.419	-0.25
986.144	-1.25
986.87	-0.25
987.596	0.75
988.322	-0.25
989.047	-1.25
989.773	2.75
990.498	-0.25
991.224	0.75
991.949	-0.25
992.674	-2.25
993.399	-1.25
994.124	-1.25
994.849	0.75
995.574	0.75
996.299	1.75
997.024	-0.25
997.749	-0.25
998.473	-0.25
999.198	1.75
999.922	-1.25
1000.647	-0.25
1001.371	3.75
1002.095	-2.25
1002.82	0.75
1003.544	-2.25
1004.268	7.75
1004.992	5.75
1005.716	2.75
1006.439	4.75
1007.163	3.75
1007.887	4.75
1008.611	-0.25
1009.334	-0.25
1010.058	0.75
1010.781	-0.25
1011.504	0.75
1012.228	-0.25
1012.951	0.75
1013.674	-0.25
1014.397	-0.25
1015.12	-0.25
