节点500_705_QEPB04081__406__20-51-41-664.txt的数据

Date: Wed Nov 12 20:51:41 CST 2025
User: PC
Spectrometer: QEPB0408
触发模式: 0
积分时间 (秒): 1.000000E-2
Scans to average: 1
启用暗噪声校正: true
启用非线性校正: false
滑动平均宽度: 0
X轴模式: Wavelengths
Number of Pixels in Spectrum: 1044
>>>>>Begin Spectral Data<<<<<
220.843	4
221.644	4
222.444	7
223.244	6
224.045	4
224.845	4
225.645	8
226.445	7
227.245	8
228.045	7
228.845	6
229.645	6
230.444	5
231.244	7
232.043	7
232.843	8
233.642	10
234.442	8
235.241	10
236.04	7
236.839	11
237.638	6
238.437	8
239.236	9
240.035	8
240.833	12
241.632	13
242.43	10
243.229	12
244.027	11
244.826	13
245.624	13
246.422	13
247.22	13
248.018	15
248.816	14
249.614	11
250.412	13
251.21	14
252.007	15
252.805	15
253.602	16
254.4	14
255.197	16
255.994	20
256.791	19
257.589	18
258.386	19
259.183	20
259.979	21
260.776	21
261.573	22
262.37	22
263.166	24
263.963	22
264.759	26
265.556	26
266.352	23
267.148	28
267.944	26
268.74	27
269.536	31
270.332	25
271.128	29
271.924	29
272.719	30
273.515	31
274.311	32
275.106	30
275.901	30
276.697	34
277.492	33
278.287	34
279.082	33
279.877	31
280.672	33
281.467	36
282.262	31
283.056	33
283.851	34
284.646	31
285.44	31
286.234	35
287.029	32
287.823	33
288.617	31
289.411	30
290.205	29
290.999	31
291.793	30
292.587	29
293.381	30
294.174	29
294.968	27
295.761	27
296.555	25
297.348	26
298.141	23
298.935	23
299.728	24
300.521	25
301.314	23
302.107	25
302.899	21
303.692	19
304.485	20
305.277	21
306.07	22
306.862	19
307.655	23
308.447	21
309.239	21
310.031	19
310.823	17
311.615	17
312.407	19
313.199	16
313.991	13
314.783	16
315.574	17
316.366	15
317.157	16
317.949	11
318.74	15
319.531	14
320.322	12
321.113	15
321.904	13
322.695	13
323.486	12
324.277	14
325.068	14
325.858	13
326.649	12
327.439	14
328.23	12
329.02	12
329.81	12
330.6	13
331.391	13
332.181	13
332.971	10
333.76	11
334.55	9
335.34	10
336.13	11
336.919	11
337.709	12
338.498	12
339.287	11
340.077	8
340.866	9
341.655	11
342.444	8
343.233	12
344.022	9
344.811	12
345.6	10
346.388	11
347.177	9
347.965	10
348.754	10
349.542	12
350.33	10
351.119	13
351.907	10
352.695	12
353.483	10
354.271	9
355.059	9
355.846	9
356.634	10
357.422	10
358.209	10
358.997	12
359.784	9
360.571	11
361.359	10
362.146	7
362.933	7
363.72	8
364.507	9
365.294	9
366.081	9
366.867	7
367.654	9
368.44	8
369.227	8
370.013	8
370.8	8
371.586	8
372.372	4
373.158	10
373.944	8
374.73	8
375.516	10
376.302	10
377.088	10
377.873	7
378.659	10
379.445	10
380.23	9
381.015	10
381.801	6
382.586	11
383.371	10
384.156	9
384.941	9
385.726	11
386.511	10
387.296	8
388.08	9
388.865	10
389.649	10
390.434	10
391.218	9
392.003	11
392.787	10
393.571	14
394.355	11
395.139	12
395.923	14
396.707	10
397.491	12
398.274	11
399.058	10
399.842	13
400.625	12
401.408	13
402.192	14
402.975	13
403.758	11
404.541	13
405.324	16
406.107	13
406.89	14
407.673	14
408.456	13
409.238	15
410.021	16
410.803	16
411.586	16
412.368	17
413.151	15
413.933	18
414.715	18
415.497	17
416.279	17
417.061	15
417.843	19
418.624	18
419.406	19
420.188	19
420.969	22
421.751	19
422.532	24
423.313	22
424.095	24
424.876	22
425.657	23
426.438	23
427.219	25
428	25
428.78	28
429.561	27
430.342	28
431.122	29
431.903	28
432.683	31
433.464	36
434.244	34
435.024	40
435.804	42
436.584	42
437.364	47
438.144	50
438.924	48
439.704	52
440.483	57
441.263	61
442.042	66
442.822	69
443.601	74
444.38	77
445.16	87
445.939	95
446.718	106
447.497	109
448.276	121
449.054	134
449.833	149
450.612	160
451.391	178
452.169	201
452.948	218
453.726	243
454.504	275
455.282	302
456.061	335
456.839	380
457.617	419
458.395	467
459.172	529
459.95	586
460.728	643
461.506	712
462.283	810
463.061	898
463.838	986
464.615	1095
465.393	1228
466.17	1363
466.947	1525
467.724	1677
468.501	1873
469.278	2065
470.055	2253
470.831	2496
471.608	2774
472.385	3057
473.161	3338
473.938	3686
474.714	4020
475.49	4431
476.266	4835
477.043	5273
477.819	5781
478.595	6310
479.371	6899
480.146	7486
480.922	8156
481.698	8852
482.473	9639
483.249	10519
484.024	11375
484.8	12346
485.575	13340
486.35	14377
487.126	15665
487.901	16819
488.676	18126
489.451	19611
490.225	21087
491	22566
491.775	24051
492.55	25726
493.324	27426
494.099	29132
494.873	30822
495.647	32604
496.422	34302
497.196	36016
497.97	37704
498.744	39138
499.518	40886
500.292	42228
501.066	43106
501.839	44118
502.613	44937
503.387	45623
504.16	46043
504.934	46269
505.707	46444
506.48	46017
507.253	45641
508.027	45141
508.8	44311
509.573	43342
510.346	42446
511.118	41393
511.891	40285
512.664	38743
513.437	37323
514.209	36017
514.982	34584
515.754	33268
516.526	32014
517.298	30650
518.071	29523
518.843	28315
519.615	27211
520.387	26098
521.159	25125
521.93	24037
522.702	23068
523.474	22094
524.245	21213
525.017	20277
525.788	19406
526.56	18600
527.331	17808
528.102	16857
528.873	16084
529.644	15345
530.415	14616
531.186	13938
531.957	13183
532.728	12541
533.498	11923
534.269	11207
535.039	10682
535.81	10057
536.58	9549
537.351	9041
538.121	8552
538.891	8099
539.661	7687
540.431	7203
541.201	6875
541.971	6554
542.741	6166
543.51	5847
544.28	5559
545.05	5317
545.819	5051
546.588	4810
547.358	4603
548.127	4370
548.896	4137
549.665	3944
550.434	3736
551.203	3515
551.972	3345
552.741	3198
553.51	2989
554.278	2841
555.047	2683
555.815	2540
556.584	2400
557.352	2251
558.121	2156
558.889	2006
559.657	1909
560.425	1805
561.193	1727
561.961	1611
562.729	1519
563.496	1445
564.264	1374
565.032	1292
565.799	1243
566.567	1158
567.334	1109
568.101	1029
568.869	969
569.636	926
570.403	868
571.17	818
571.937	774
572.704	736
573.471	689
574.237	655
575.004	615
575.771	586
576.537	551
577.303	512
578.07	488
578.836	465
579.602	431
580.368	413
581.134	385
581.9	376
582.666	355
583.432	338
584.198	318
584.964	301
585.729	289
586.495	271
587.26	266
588.025	243
588.791	236
589.556	228
590.321	211
591.086	197
591.851	189
592.616	183
593.381	171
594.146	163
594.911	156
595.675	152
596.44	141
597.204	135
597.969	136
598.733	130
599.497	119
600.261	115
601.025	112
601.79	108
602.553	98
603.317	99
604.081	94
604.845	84
605.609	86
606.372	82
607.136	82
607.899	76
608.662	73
609.426	68
610.189	69
610.952	69
611.715	62
612.478	60
613.241	58
614.004	57
614.767	60
615.529	51
616.292	49
617.055	49
617.817	48
618.579	45
619.342	46
620.104	45
620.866	38
621.628	39
622.39	37
623.152	37
623.914	35
624.676	36
625.438	34
626.199	31
626.961	34
627.722	33
628.484	30
629.245	28
630.006	26
630.768	26
631.529	27
632.29	27
633.051	25
633.812	26
634.573	23
635.333	24
636.094	21
636.855	22
637.615	19
638.376	20
639.136	21
639.896	21
640.657	19
641.417	16
642.177	17
642.937	16
643.697	20
644.457	14
645.216	17
645.976	15
646.736	15
647.495	16
648.255	14
649.014	15
649.774	14
650.533	12
651.292	13
652.051	14
652.81	13
653.569	14
654.328	14
655.087	12
655.846	12
656.604	14
657.363	13
658.121	12
658.88	12
659.638	10
660.397	11
661.155	9
661.913	12
662.671	12
663.429	11
664.187	11
664.945	7
665.703	8
666.46	9
667.218	11
667.976	10
668.733	10
669.49	9
670.248	9
671.005	8
671.762	11
672.519	8
673.276	9
674.033	12
674.79	9
675.547	5
676.304	9
677.06	8
677.817	8
678.574	8
679.33	7
680.086	6
680.843	8
681.599	7
682.355	9
683.111	7
683.867	8
684.623	6
685.379	6
686.135	7
686.89	5
687.646	6
688.402	5
689.157	9
689.912	7
690.668	8
691.423	7
692.178	6
692.933	4
693.688	8
694.443	6
695.198	8
695.953	6
696.708	8
697.462	10
698.217	5
698.972	7
699.726	7
700.48	7
701.235	8
701.989	7
702.743	10
703.497	7
704.251	6
705.005	7
705.759	10
706.513	6
707.266	9
708.02	6
708.774	7
709.527	8
710.28	6
711.034	7
711.787	5
712.54	7
713.293	8
714.046	7
714.799	6
715.552	9
716.305	8
717.058	3
717.81	9
718.563	5
719.315	7
720.068	8
720.82	6
721.573	10
722.325	9
723.077	5
723.829	9
724.581	6
725.333	9
726.085	8
726.836	6
727.588	6
728.34	8
729.091	10
729.843	7
730.594	9
731.346	6
732.097	9
732.848	6
733.599	9
734.35	7
735.101	8
735.852	9
736.603	8
737.354	7
738.104	9
738.855	12
739.605	9
740.356	10
741.106	11
741.856	10
742.607	9
743.357	9
744.107	6
744.857	11
745.607	10
746.357	11
747.106	9
747.856	10
748.606	11
749.355	12
750.105	11
750.854	8
751.603	11
752.353	11
753.102	10
753.851	10
754.6	10
755.349	10
756.098	11
756.847	9
757.595	11
758.344	10
759.093	12
759.841	11
760.589	11
761.338	11
762.086	11
762.834	14
763.582	11
764.331	11
765.079	10
765.826	13
766.574	14
767.322	12
768.07	12
768.817	13
769.565	14
770.312	13
771.06	15
771.807	11
772.554	15
773.302	13
774.049	14
774.796	13
775.543	17
776.29	17
777.036	15
777.783	13
778.53	15
779.276	15
780.023	14
780.769	16
781.516	16
782.262	14
783.008	14
783.754	16
784.5	16
785.246	13
785.992	16
786.738	15
787.484	16
788.23	13
788.975	15
789.721	14
790.466	14
791.212	14
791.957	12
792.702	12
793.447	14
794.193	16
794.938	11
795.683	10
796.427	14
797.172	14
797.917	12
798.662	15
799.406	11
800.151	14
800.895	10
801.64	13
802.384	9
803.128	12
803.872	10
804.616	9
805.36	13
806.104	10
806.848	10
807.592	11
808.336	9
809.079	10
809.823	8
810.566	11
811.31	9
812.053	8
812.796	9
813.539	8
814.283	9
815.026	9
815.769	9
816.511	8
817.254	7
817.997	6
818.74	6
819.482	6
820.225	7
820.967	5
821.71	8
822.452	9
823.194	7
823.936	3
824.678	6
825.42	6
826.162	8
826.904	7
827.646	5
828.388	8
829.129	6
829.871	6
830.612	6
831.354	6
832.095	2
832.836	3
833.577	7
834.319	4
835.06	6
835.801	4
836.542	7
837.282	6
838.023	2
838.764	5
839.504	5
840.245	7
840.985	9
841.726	4
842.466	5
843.206	3
843.946	6
844.687	8
845.427	4
846.166	4
846.906	3
847.646	6
848.386	3
849.125	4
849.865	2
850.605	4
851.344	6
852.083	3
852.823	4
853.562	5
854.301	2
855.04	2
855.779	2
856.518	4
857.257	1
857.995	4
858.734	3
859.473	4
860.211	3
860.95	1
861.688	4
862.426	2
863.165	3
863.903	0
864.641	3
865.379	2
866.117	1
866.855	3
867.593	2
868.33	1
869.068	2
869.806	1
870.543	2
871.28	1
872.018	1
872.755	0
873.492	0
874.229	2
874.967	1
875.703	0
876.44	0
877.177	2
877.914	2
878.651	0
879.387	-2
880.124	1
880.86	3
881.597	0
882.333	3
883.069	2
883.806	1
884.542	3
885.278	0
886.014	2
886.749	0
887.485	-1
888.221	2
888.957	0
889.692	1
890.428	0
891.163	1
891.899	1
892.634	0
893.369	1
894.104	-2
894.839	1
895.574	2
896.309	-1
897.044	1
897.779	-1
898.514	1
899.248	1
899.983	-1
900.717	-2
901.452	-3
902.186	3
902.92	-1
903.654	1
904.389	-1
905.123	0
905.857	1
906.59	-1
907.324	1
908.058	1
908.792	0
909.525	0
910.259	0
910.992	3
911.726	-2
912.459	1
913.192	-1
913.925	0
914.658	1
915.391	0
916.124	1
916.857	1
917.59	2
918.323	1
919.055	0
919.788	0
920.521	-2
921.253	1
921.985	0
922.718	0
923.45	0
924.182	-1
924.914	-1
925.646	0
926.378	-2
927.11	1
927.841	-1
928.573	-1
929.305	0
930.036	1
930.768	1
931.499	0
932.23	-1
932.962	-1
933.693	0
934.424	0
935.155	0
935.886	-1
936.617	1
937.348	0
938.078	0
938.809	-2
939.54	-2
940.27	0
941.001	0
941.731	-1
942.461	0
943.191	-1
943.922	0
944.652	-1
945.382	0
946.112	-1
946.841	-1
947.571	2
948.301	-3
949.031	0
949.76	2
950.49	-2
951.219	-2
951.948	0
952.678	-1
953.407	1
954.136	0
954.865	0
955.594	-2
956.323	0
957.052	-2
957.78	1
958.509	-2
959.238	-2
959.966	1
960.695	-1
961.423	-1
962.151	-2
962.88	-1
963.608	0
964.336	2
965.064	0
965.792	0
966.52	1
967.247	0
967.975	0
968.703	0
969.43	-1
970.158	1
970.885	0
971.613	2
972.34	-1
973.067	-1
973.794	-1
974.521	-1
975.248	2
975.975	0
976.702	0
977.429	0
978.156	1
978.882	-1
979.609	-2
980.335	-1
981.062	0
981.788	0
982.514	-1
983.24	-2
983.967	0
984.693	-2
985.419	0
986.144	-1
986.87	-2
987.596	-1
988.322	3
989.047	0
989.773	0
990.498	-1
991.224	1
991.949	-1
992.674	0
993.399	-1
994.124	1
994.849	1
995.574	-1
996.299	1
997.024	-2
997.749	1
998.473	-2
999.198	0
999.922	-2
1000.647	0
1001.371	4
1002.095	-2
1002.82	1
1003.544	-2
1004.268	4
1004.992	3
1005.716	4
1006.439	4
1007.163	6
1007.887	6
1008.611	1
1009.334	0
1010.058	1
1010.781	0
1011.504	0
1012.228	0
1012.951	0
1013.674	-1
1014.397	0
1015.12	0
