节点500_705_QEPB04081__426__20-51-57-709.txt的数据

Date: Wed Nov 12 20:51:57 CST 2025
User: PC
Spectrometer: QEPB0408
触发模式: 0
积分时间 (秒): 1.000000E-2
Scans to average: 1
启用暗噪声校正: true
启用非线性校正: false
滑动平均宽度: 0
X轴模式: Wavelengths
Number of Pixels in Spectrum: 1044
>>>>>Begin Spectral Data<<<<<
220.843	4.5
221.644	7.5
222.444	3.5
223.244	3.5
224.045	6.5
224.845	5.5
225.645	6.5
226.445	5.5
227.245	6.5
228.045	7.5
228.845	10.5
229.645	8.5
230.444	11.5
231.244	9.5
232.043	7.5
232.843	9.5
233.642	9.5
234.442	10.5
235.241	8.5
236.04	9.5
236.839	10.5
237.638	11.5
238.437	13.5
239.236	10.5
240.035	9.5
240.833	15.5
241.632	12.5
242.43	13.5
243.229	13.5
244.027	15.5
244.826	14.5
245.624	12.5
246.422	14.5
247.22	15.5
248.018	15.5
248.816	17.5
249.614	13.5
250.412	17.5
251.21	17.5
252.007	17.5
252.805	18.5
253.602	17.5
254.4	17.5
255.197	17.5
255.994	18.5
256.791	18.5
257.589	18.5
258.386	21.5
259.183	21.5
259.979	22.5
260.776	23.5
261.573	24.5
262.37	23.5
263.166	25.5
263.963	27.5
264.759	22.5
265.556	27.5
266.352	24.5
267.148	27.5
267.944	27.5
268.74	30.5
269.536	29.5
270.332	29.5
271.128	31.5
271.924	31.5
272.719	30.5
273.515	33.5
274.311	31.5
275.106	33.5
275.901	32.5
276.697	34.5
277.492	35.5
278.287	33.5
279.082	37.5
279.877	33.5
280.672	35.5
281.467	35.5
282.262	31.5
283.056	35.5
283.851	34.5
284.646	34.5
285.44	34.5
286.234	33.5
287.029	31.5
287.823	35.5
288.617	35.5
289.411	33.5
290.205	32.5
290.999	31.5
291.793	32.5
292.587	31.5
293.381	28.5
294.174	31.5
294.968	26.5
295.761	30.5
296.555	25.5
297.348	27.5
298.141	29.5
298.935	28.5
299.728	25.5
300.521	24.5
301.314	26.5
302.107	24.5
302.899	23.5
303.692	22.5
304.485	22.5
305.277	25.5
306.07	24.5
306.862	21.5
307.655	20.5
308.447	22.5
309.239	23.5
310.031	19.5
310.823	21.5
311.615	21.5
312.407	15.5
313.199	19.5
313.991	17.5
314.783	17.5
315.574	13.5
316.366	14.5
317.157	16.5
317.949	15.5
318.74	13.5
319.531	14.5
320.322	17.5
321.113	14.5
321.904	15.5
322.695	12.5
323.486	14.5
324.277	16.5
325.068	14.5
325.858	11.5
326.649	14.5
327.439	13.5
328.23	13.5
329.02	11.5
329.81	15.5
330.6	13.5
331.391	11.5
332.181	14.5
332.971	11.5
333.76	12.5
334.55	11.5
335.34	14.5
336.13	12.5
336.919	10.5
337.709	13.5
338.498	15.5
339.287	14.5
340.077	9.5
340.866	12.5
341.655	12.5
342.444	10.5
343.233	11.5
344.022	10.5
344.811	12.5
345.6	10.5
346.388	13.5
347.177	12.5
347.965	12.5
348.754	12.5
349.542	10.5
350.33	10.5
351.119	10.5
351.907	11.5
352.695	14.5
353.483	9.5
354.271	12.5
355.059	12.5
355.846	9.5
356.634	10.5
357.422	11.5
358.209	11.5
358.997	9.5
359.784	12.5
360.571	11.5
361.359	12.5
362.146	11.5
362.933	12.5
363.72	8.5
364.507	11.5
365.294	12.5
366.081	12.5
366.867	11.5
367.654	11.5
368.44	8.5
369.227	10.5
370.013	11.5
370.8	9.5
371.586	11.5
372.372	10.5
373.158	11.5
373.944	15.5
374.73	9.5
375.516	10.5
376.302	10.5
377.088	10.5
377.873	10.5
378.659	10.5
379.445	10.5
380.23	9.5
381.015	11.5
381.801	9.5
382.586	11.5
383.371	12.5
384.156	11.5
384.941	11.5
385.726	11.5
386.511	11.5
387.296	10.5
388.08	9.5
388.865	10.5
389.649	13.5
390.434	12.5
391.218	9.5
392.003	13.5
392.787	11.5
393.571	11.5
394.355	14.5
395.139	13.5
395.923	11.5
396.707	14.5
397.491	15.5
398.274	13.5
399.058	11.5
399.842	13.5
400.625	11.5
401.408	13.5
402.192	14.5
402.975	14.5
403.758	14.5
404.541	13.5
405.324	11.5
406.107	13.5
406.89	18.5
407.673	15.5
408.456	17.5
409.238	16.5
410.021	16.5
410.803	16.5
411.586	16.5
412.368	20.5
413.151	19.5
413.933	20.5
414.715	18.5
415.497	18.5
416.279	19.5
417.061	18.5
417.843	20.5
418.624	21.5
419.406	19.5
420.188	21.5
420.969	19.5
421.751	22.5
422.532	21.5
423.313	25.5
424.095	21.5
424.876	26.5
425.657	27.5
426.438	25.5
427.219	27.5
428	26.5
428.78	28.5
429.561	27.5
430.342	29.5
431.122	31.5
431.903	32.5
432.683	32.5
433.464	35.5
434.244	34.5
435.024	40.5
435.804	41.5
436.584	38.5
437.364	51.5
438.144	47.5
438.924	50.5
439.704	52.5
440.483	58.5
441.263	62.5
442.042	63.5
442.822	67.5
443.601	74.5
444.38	82.5
445.16	91.5
445.939	95.5
446.718	109.5
447.497	113.5
448.276	125.5
449.054	135.5
449.833	148.5
450.612	163.5
451.391	183.5
452.169	204.5
452.948	220.5
453.726	245.5
454.504	279.5
455.282	302.5
456.061	339.5
456.839	382.5
457.617	432.5
458.395	474.5
459.172	535.5
459.95	579.5
460.728	659.5
461.506	726.5
462.283	816.5
463.061	891.5
463.838	1002.5
464.615	1117.5
465.393	1233.5
466.17	1359.5
466.947	1512.5
467.724	1667.5
468.501	1854.5
469.278	2070.5
470.055	2273.5
470.831	2509.5
471.608	2752.5
472.385	3026.5
473.161	3331.5
473.938	3672.5
474.714	4030.5
475.49	4416.5
476.266	4822.5
477.043	5264.5
477.819	5759.5
478.595	6261.5
479.371	6816.5
480.146	7451.5
480.922	8087.5
481.698	8822.5
482.473	9559.5
483.249	10419.5
484.024	11270.5
484.8	12175.5
485.575	13201.5
486.35	14299.5
487.126	15490.5
487.901	16689.5
488.676	17969.5
489.451	19311.5
490.225	20789.5
491	22280.5
491.775	23806.5
492.55	25400.5
493.324	27031.5
494.099	28800.5
494.873	30478.5
495.647	32191.5
496.422	33916.5
497.196	35568.5
497.97	37243.5
498.744	38707.5
499.518	40370.5
500.292	41705.5
501.066	42767.5
501.839	43649.5
502.613	44510.5
503.387	45181.5
504.16	45798.5
504.934	45973.5
505.707	46035.5
506.48	45722.5
507.253	45444.5
508.027	44865.5
508.8	44013.5
509.573	43123.5
510.346	42203.5
511.118	41211.5
511.891	40117.5
512.664	38602.5
513.437	37229.5
514.209	35989.5
514.982	34604.5
515.754	33224.5
516.526	31887.5
517.298	30685.5
518.071	29502.5
518.843	28337.5
519.615	27182.5
520.387	26026.5
521.159	24992.5
521.93	24081.5
522.702	23012.5
523.474	22089.5
524.245	21164.5
525.017	20243.5
525.788	19401.5
526.56	18603.5
527.331	17843.5
528.102	16908.5
528.873	16068.5
529.644	15323.5
530.415	14609.5
531.186	13914.5
531.957	13253.5
532.728	12553.5
533.498	11878.5
534.269	11252.5
535.039	10678.5
535.81	10181.5
536.58	9562.5
537.351	9061.5
538.121	8558.5
538.891	8132.5
539.661	7675.5
540.431	7240.5
541.201	6925.5
541.971	6544.5
542.741	6198.5
543.51	5887.5
544.28	5588.5
545.05	5324.5
545.819	5101.5
546.588	4833.5
547.358	4621.5
548.127	4382.5
548.896	4147.5
549.665	3966.5
550.434	3762.5
551.203	3553.5
551.972	3382.5
552.741	3196.5
553.51	2964.5
554.278	2846.5
555.047	2680.5
555.815	2551.5
556.584	2416.5
557.352	2262.5
558.121	2140.5
558.889	2039.5
559.657	1910.5
560.425	1805.5
561.193	1728.5
561.961	1617.5
562.729	1549.5
563.496	1471.5
564.264	1376.5
565.032	1293.5
565.799	1225.5
566.567	1162.5
567.334	1103.5
568.101	1036.5
568.869	982.5
569.636	923.5
570.403	877.5
571.17	829.5
571.937	778.5
572.704	739.5
573.471	699.5
574.237	661.5
575.004	618.5
575.771	579.5
576.537	559.5
577.303	516.5
578.07	498.5
578.836	472.5
579.602	445.5
580.368	420.5
581.134	396.5
581.9	377.5
582.666	351.5
583.432	343.5
584.198	318.5
584.964	315.5
585.729	297.5
586.495	275.5
587.26	257.5
588.025	251.5
588.791	233.5
589.556	226.5
590.321	207.5
591.086	205.5
591.851	190.5
592.616	177.5
593.381	175.5
594.146	171.5
594.911	156.5
595.675	148.5
596.44	140.5
597.204	132.5
597.969	127.5
598.733	124.5
599.497	122.5
600.261	116.5
601.025	112.5
601.79	104.5
602.553	99.5
603.317	95.5
604.081	96.5
604.845	88.5
605.609	87.5
606.372	83.5
607.136	80.5
607.899	75.5
608.662	73.5
609.426	73.5
610.189	68.5
610.952	65.5
611.715	63.5
612.478	59.5
613.241	60.5
614.004	60.5
614.767	52.5
615.529	51.5
616.292	52.5
617.055	48.5
617.817	48.5
618.579	45.5
619.342	44.5
620.104	45.5
620.866	43.5
621.628	43.5
622.39	39.5
623.152	40.5
623.914	35.5
624.676	34.5
625.438	36.5
626.199	35.5
626.961	33.5
627.722	32.5
628.484	32.5
629.245	29.5
630.006	27.5
630.768	27.5
631.529	27.5
632.29	30.5
633.051	27.5
633.812	26.5
634.573	23.5
635.333	23.5
636.094	22.5
636.855	25.5
637.615	19.5
638.376	23.5
639.136	21.5
639.896	19.5
640.657	21.5
641.417	21.5
642.177	19.5
642.937	16.5
643.697	19.5
644.457	16.5
645.216	17.5
645.976	17.5
646.736	17.5
647.495	17.5
648.255	15.5
649.014	16.5
649.774	18.5
650.533	13.5
651.292	14.5
652.051	14.5
652.81	15.5
653.569	14.5
654.328	13.5
655.087	12.5
655.846	13.5
656.604	13.5
657.363	13.5
658.121	14.5
658.88	13.5
659.638	12.5
660.397	11.5
661.155	15.5
661.913	13.5
662.671	8.5
663.429	10.5
664.187	9.5
664.945	11.5
665.703	11.5
666.46	10.5
667.218	11.5
667.976	9.5
668.733	13.5
669.49	9.5
670.248	11.5
671.005	11.5
671.762	8.5
672.519	12.5
673.276	9.5
674.033	10.5
674.79	10.5
675.547	7.5
676.304	11.5
677.06	8.5
677.817	8.5
678.574	9.5
679.33	10.5
680.086	8.5
680.843	9.5
681.599	7.5
682.355	9.5
683.111	9.5
683.867	9.5
684.623	8.5
685.379	9.5
686.135	8.5
686.89	9.5
687.646	8.5
688.402	8.5
689.157	7.5
689.912	10.5
690.668	9.5
691.423	9.5
692.178	8.5
692.933	8.5
693.688	8.5
694.443	10.5
695.198	8.5
695.953	10.5
696.708	7.5
697.462	8.5
698.217	7.5
698.972	6.5
699.726	9.5
700.48	5.5
701.235	8.5
701.989	7.5
702.743	9.5
703.497	10.5
704.251	9.5
705.005	8.5
705.759	7.5
706.513	8.5
707.266	6.5
708.02	8.5
708.774	9.5
709.527	8.5
710.28	9.5
711.034	5.5
711.787	8.5
712.54	5.5
713.293	6.5
714.046	8.5
714.799	5.5
715.552	7.5
716.305	6.5
717.058	8.5
717.81	7.5
718.563	8.5
719.315	8.5
720.068	8.5
720.82	8.5
721.573	8.5
722.325	7.5
723.077	7.5
723.829	7.5
724.581	8.5
725.333	7.5
726.085	9.5
726.836	11.5
727.588	9.5
728.34	9.5
729.091	11.5
729.843	9.5
730.594	10.5
731.346	7.5
732.097	8.5
732.848	6.5
733.599	9.5
734.35	7.5
735.101	10.5
735.852	8.5
736.603	8.5
737.354	9.5
738.104	11.5
738.855	9.5
739.605	7.5
740.356	9.5
741.106	10.5
741.856	11.5
742.607	11.5
743.357	9.5
744.107	11.5
744.857	11.5
745.607	9.5
746.357	10.5
747.106	8.5
747.856	12.5
748.606	9.5
749.355	11.5
750.105	10.5
750.854	10.5
751.603	11.5
752.353	13.5
753.102	10.5
753.851	12.5
754.6	12.5
755.349	9.5
756.098	11.5
756.847	12.5
757.595	13.5
758.344	13.5
759.093	12.5
759.841	11.5
760.589	14.5
761.338	12.5
762.086	11.5
762.834	14.5
763.582	13.5
764.331	13.5
765.079	13.5
765.826	14.5
766.574	11.5
767.322	15.5
768.07	14.5
768.817	13.5
769.565	13.5
770.312	11.5
771.06	13.5
771.807	15.5
772.554	14.5
773.302	15.5
774.049	14.5
774.796	14.5
775.543	11.5
776.29	16.5
777.036	14.5
777.783	16.5
778.53	16.5
779.276	12.5
780.023	15.5
780.769	14.5
781.516	16.5
782.262	17.5
783.008	16.5
783.754	15.5
784.5	17.5
785.246	15.5
785.992	17.5
786.738	13.5
787.484	15.5
788.23	15.5
788.975	15.5
789.721	15.5
790.466	14.5
791.212	14.5
791.957	14.5
792.702	17.5
793.447	14.5
794.193	12.5
794.938	13.5
795.683	14.5
796.427	14.5
797.172	12.5
797.917	13.5
798.662	15.5
799.406	14.5
800.151	14.5
800.895	12.5
801.64	13.5
802.384	11.5
803.128	13.5
803.872	11.5
804.616	12.5
805.36	11.5
806.104	12.5
806.848	11.5
807.592	11.5
808.336	10.5
809.079	11.5
809.823	9.5
810.566	11.5
811.31	10.5
812.053	12.5
812.796	9.5
813.539	10.5
814.283	8.5
815.026	7.5
815.769	10.5
816.511	10.5
817.254	8.5
817.997	10.5
818.74	9.5
819.482	7.5
820.225	10.5
820.967	8.5
821.71	8.5
822.452	8.5
823.194	9.5
823.936	9.5
824.678	6.5
825.42	8.5
826.162	8.5
826.904	8.5
827.646	7.5
828.388	7.5
829.129	5.5
829.871	7.5
830.612	8.5
831.354	8.5
832.095	4.5
832.836	5.5
833.577	7.5
834.319	7.5
835.06	7.5
835.801	7.5
836.542	7.5
837.282	6.5
838.023	6.5
838.764	8.5
839.504	5.5
840.245	6.5
840.985	5.5
841.726	7.5
842.466	4.5
843.206	6.5
843.946	7.5
844.687	5.5
845.427	3.5
846.166	3.5
846.906	6.5
847.646	5.5
848.386	6.5
849.125	5.5
849.865	3.5
850.605	4.5
851.344	3.5
852.083	3.5
852.823	3.5
853.562	4.5
854.301	6.5
855.04	6.5
855.779	5.5
856.518	7.5
857.257	2.5
857.995	6.5
858.734	4.5
859.473	3.5
860.211	4.5
860.95	3.5
861.688	5.5
862.426	4.5
863.165	3.5
863.903	4.5
864.641	1.5
865.379	4.5
866.117	3.5
866.855	1.5
867.593	3.5
868.33	2.5
869.068	1.5
869.806	2.5
870.543	2.5
871.28	2.5
872.018	4.5
872.755	4.5
873.492	2.5
874.229	3.5
874.967	2.5
875.703	4.5
876.44	3.5
877.177	3.5
877.914	4.5
878.651	3.5
879.387	1.5
880.124	2.5
880.86	1.5
881.597	2.5
882.333	1.5
883.069	2.5
883.806	2.5
884.542	2.5
885.278	1.5
886.014	-0.5
886.749	1.5
887.485	0.5
888.221	2.5
888.957	1.5
889.692	1.5
890.428	1.5
891.163	1.5
891.899	3.5
892.634	2.5
893.369	2.5
894.104	0.5
894.839	1.5
895.574	1.5
896.309	2.5
897.044	0.5
897.779	-0.5
898.514	1.5
899.248	1.5
899.983	1.5
900.717	1.5
901.452	0.5
902.186	2.5
902.92	1.5
903.654	2.5
904.389	0.5
905.123	0.5
905.857	1.5
906.59	1.5
907.324	2.5
908.058	1.5
908.792	1.5
909.525	3.5
910.259	2.5
910.992	1.5
911.726	1.5
912.459	3.5
913.192	0.5
913.925	1.5
914.658	0.5
915.391	0.5
916.124	1.5
916.857	3.5
917.59	-0.5
918.323	1.5
919.055	-0.5
919.788	-0.5
920.521	-1.5
921.253	2.5
921.985	-0.5
922.718	2.5
923.45	3.5
924.182	0.5
924.914	1.5
925.646	-1.5
926.378	5.5
927.11	0.5
927.841	0.5
928.573	2.5
929.305	-0.5
930.036	2.5
930.768	0.5
931.499	1.5
932.23	1.5
932.962	1.5
933.693	-0.5
934.424	0.5
935.155	1.5
935.886	0.5
936.617	-0.5
937.348	0.5
938.078	-1.5
938.809	2.5
939.54	0.5
940.27	1.5
941.001	0.5
941.731	0.5
942.461	-0.5
943.191	-0.5
943.922	0.5
944.652	1.5
945.382	-0.5
946.112	1.5
946.841	0.5
947.571	1.5
948.301	0.5
949.031	1.5
949.76	-1.5
950.49	1.5
951.219	-0.5
951.948	0.5
952.678	1.5
953.407	0.5
954.136	2.5
954.865	0.5
955.594	2.5
956.323	0.5
957.052	0.5
957.78	1.5
958.509	0.5
959.238	-1.5
959.966	1.5
960.695	3.5
961.423	2.5
962.151	0.5
962.88	2.5
963.608	-0.5
964.336	0.5
965.064	1.5
965.792	-0.5
966.52	1.5
967.247	2.5
967.975	1.5
968.703	-0.5
969.43	0.5
970.158	1.5
970.885	-0.5
971.613	0.5
972.34	3.5
973.067	3.5
973.794	1.5
974.521	0.5
975.248	1.5
975.975	-1.5
976.702	2.5
977.429	0.5
978.156	1.5
978.882	1.5
979.609	1.5
980.335	1.5
981.062	-0.5
981.788	1.5
982.514	0.5
983.24	1.5
983.967	0.5
984.693	0.5
985.419	3.5
986.144	1.5
986.87	1.5
987.596	3.5
988.322	-0.5
989.047	-0.5
989.773	1.5
990.498	0.5
991.224	1.5
991.949	-0.5
992.674	1.5
993.399	-0.5
994.124	-0.5
994.849	-1.5
995.574	-0.5
996.299	0.5
997.024	3.5
997.749	3.5
998.473	-0.5
999.198	-0.5
999.922	0.5
1000.647	-0.5
1001.371	1.5
1002.095	1.5
1002.82	-0.5
1003.544	-0.5
1004.268	6.5
1004.992	2.5
1005.716	5.5
1006.439	6.5
1007.163	5.5
1007.887	6.5
1008.611	-0.5
1009.334	0.5
1010.058	2.5
1010.781	-0.5
1011.504	0.5
1012.228	1.5
1012.951	-0.5
1013.674	-0.5
1014.397	-0.5
1015.12	-0.5
