节点500_705_QEPB04081__410__20-51-45-670.txt的数据

Date: Wed Nov 12 20:51:45 CST 2025
User: PC
Spectrometer: QEPB0408
触发模式: 0
积分时间 (秒): 1.000000E-2
Scans to average: 1
启用暗噪声校正: true
启用非线性校正: false
滑动平均宽度: 0
X轴模式: Wavelengths
Number of Pixels in Spectrum: 1044
>>>>>Begin Spectral Data<<<<<
220.843	6.5
221.644	4.5
222.444	6.5
223.244	4.5
224.045	6.5
224.845	5.5
225.645	4.5
226.445	6.5
227.245	5.5
228.045	7.5
228.845	5.5
229.645	7.5
230.444	6.5
231.244	6.5
232.043	9.5
232.843	8.5
233.642	7.5
234.442	8.5
235.241	7.5
236.04	9.5
236.839	8.5
237.638	11.5
238.437	9.5
239.236	9.5
240.035	10.5
240.833	9.5
241.632	12.5
242.43	12.5
243.229	12.5
244.027	9.5
244.826	13.5
245.624	14.5
246.422	12.5
247.22	15.5
248.018	14.5
248.816	15.5
249.614	14.5
250.412	14.5
251.21	16.5
252.007	17.5
252.805	16.5
253.602	16.5
254.4	17.5
255.197	16.5
255.994	17.5
256.791	19.5
257.589	20.5
258.386	19.5
259.183	17.5
259.979	19.5
260.776	22.5
261.573	23.5
262.37	23.5
263.166	19.5
263.963	20.5
264.759	24.5
265.556	27.5
266.352	24.5
267.148	26.5
267.944	26.5
268.74	29.5
269.536	26.5
270.332	28.5
271.128	26.5
271.924	34.5
272.719	29.5
273.515	31.5
274.311	29.5
275.106	31.5
275.901	29.5
276.697	32.5
277.492	32.5
278.287	32.5
279.082	32.5
279.877	33.5
280.672	33.5
281.467	32.5
282.262	30.5
283.056	30.5
283.851	33.5
284.646	33.5
285.44	33.5
286.234	33.5
287.029	32.5
287.823	33.5
288.617	30.5
289.411	33.5
290.205	30.5
290.999	28.5
291.793	30.5
292.587	29.5
293.381	25.5
294.174	27.5
294.968	28.5
295.761	28.5
296.555	25.5
297.348	26.5
298.141	25.5
298.935	30.5
299.728	24.5
300.521	25.5
301.314	24.5
302.107	19.5
302.899	22.5
303.692	23.5
304.485	18.5
305.277	19.5
306.07	21.5
306.862	20.5
307.655	22.5
308.447	20.5
309.239	20.5
310.031	21.5
310.823	19.5
311.615	18.5
312.407	18.5
313.199	16.5
313.991	17.5
314.783	13.5
315.574	16.5
316.366	13.5
317.157	15.5
317.949	14.5
318.74	13.5
319.531	13.5
320.322	13.5
321.113	13.5
321.904	13.5
322.695	13.5
323.486	10.5
324.277	11.5
325.068	12.5
325.858	10.5
326.649	12.5
327.439	12.5
328.23	11.5
329.02	11.5
329.81	10.5
330.6	10.5
331.391	13.5
332.181	13.5
332.971	10.5
333.76	8.5
334.55	12.5
335.34	11.5
336.13	12.5
336.919	13.5
337.709	12.5
338.498	12.5
339.287	11.5
340.077	10.5
340.866	8.5
341.655	11.5
342.444	10.5
343.233	9.5
344.022	10.5
344.811	10.5
345.6	11.5
346.388	10.5
347.177	9.5
347.965	10.5
348.754	9.5
349.542	10.5
350.33	11.5
351.119	8.5
351.907	10.5
352.695	10.5
353.483	10.5
354.271	9.5
355.059	9.5
355.846	11.5
356.634	11.5
357.422	11.5
358.209	9.5
358.997	10.5
359.784	9.5
360.571	9.5
361.359	10.5
362.146	9.5
362.933	6.5
363.72	9.5
364.507	7.5
365.294	8.5
366.081	9.5
366.867	10.5
367.654	6.5
368.44	8.5
369.227	10.5
370.013	10.5
370.8	9.5
371.586	8.5
372.372	8.5
373.158	9.5
373.944	10.5
374.73	9.5
375.516	8.5
376.302	11.5
377.088	5.5
377.873	10.5
378.659	11.5
379.445	8.5
380.23	10.5
381.015	10.5
381.801	11.5
382.586	9.5
383.371	9.5
384.156	12.5
384.941	7.5
385.726	9.5
386.511	8.5
387.296	9.5
388.08	11.5
388.865	11.5
389.649	10.5
390.434	10.5
391.218	13.5
392.003	10.5
392.787	12.5
393.571	11.5
394.355	10.5
395.139	14.5
395.923	11.5
396.707	10.5
397.491	11.5
398.274	10.5
399.058	13.5
399.842	14.5
400.625	12.5
401.408	13.5
402.192	12.5
402.975	16.5
403.758	14.5
404.541	14.5
405.324	14.5
406.107	16.5
406.89	15.5
407.673	14.5
408.456	14.5
409.238	14.5
410.021	16.5
410.803	13.5
411.586	15.5
412.368	17.5
413.151	17.5
413.933	17.5
414.715	18.5
415.497	16.5
416.279	20.5
417.061	17.5
417.843	19.5
418.624	19.5
419.406	18.5
420.188	17.5
420.969	21.5
421.751	18.5
422.532	21.5
423.313	20.5
424.095	22.5
424.876	21.5
425.657	23.5
426.438	26.5
427.219	25.5
428	24.5
428.78	28.5
429.561	28.5
430.342	30.5
431.122	29.5
431.903	30.5
432.683	35.5
433.464	35.5
434.244	35.5
435.024	41.5
435.804	40.5
436.584	39.5
437.364	40.5
438.144	49.5
438.924	51.5
439.704	56.5
440.483	57.5
441.263	61.5
442.042	62.5
442.822	69.5
443.601	74.5
444.38	83.5
445.16	88.5
445.939	96.5
446.718	99.5
447.497	110.5
448.276	126.5
449.054	135.5
449.833	155.5
450.612	165.5
451.391	181.5
452.169	197.5
452.948	218.5
453.726	253.5
454.504	276.5
455.282	304.5
456.061	338.5
456.839	382.5
457.617	421.5
458.395	471.5
459.172	519.5
459.95	574.5
460.728	643.5
461.506	717.5
462.283	810.5
463.061	884.5
463.838	995.5
464.615	1107.5
465.393	1229.5
466.17	1353.5
466.947	1516.5
467.724	1678.5
468.501	1855.5
469.278	2045.5
470.055	2274.5
470.831	2491.5
471.608	2759.5
472.385	3036.5
473.161	3322.5
473.938	3660.5
474.714	4013.5
475.49	4422.5
476.266	4845.5
477.043	5274.5
477.819	5717.5
478.595	6266.5
479.371	6862.5
480.146	7432.5
480.922	8121.5
481.698	8804.5
482.473	9609.5
483.249	10416.5
484.024	11322.5
484.8	12235.5
485.575	13258.5
486.35	14286.5
487.126	15520.5
487.901	16756.5
488.676	17999.5
489.451	19398.5
490.225	20960.5
491	22369.5
491.775	23988.5
492.55	25602.5
493.324	27297.5
494.099	28954.5
494.873	30698.5
495.647	32436.5
496.422	34113.5
497.196	35837.5
497.97	37543.5
498.744	38963.5
499.518	40609.5
500.292	41944.5
501.066	42996.5
501.839	43946.5
502.613	44754.5
503.387	45388.5
504.16	45906.5
504.934	46098.5
505.707	46224.5
506.48	45896.5
507.253	45594.5
508.027	44954.5
508.8	44145.5
509.573	43185.5
510.346	42272.5
511.118	41302.5
511.891	40113.5
512.664	38628.5
513.437	37246.5
514.209	35874.5
514.982	34488.5
515.754	33145.5
516.526	31869.5
517.298	30647.5
518.071	29456.5
518.843	28227.5
519.615	27084.5
520.387	25978.5
521.159	24972.5
521.93	23975.5
522.702	22949.5
523.474	22046.5
524.245	21098.5
525.017	20210.5
525.788	19282.5
526.56	18567.5
527.331	17716.5
528.102	16835.5
528.873	15997.5
529.644	15309.5
530.415	14591.5
531.186	13867.5
531.957	13154.5
532.728	12493.5
533.498	11862.5
534.269	11226.5
535.039	10667.5
535.81	10108.5
536.58	9493.5
537.351	9034.5
538.121	8587.5
538.891	8053.5
539.661	7608.5
540.431	7240.5
541.201	6888.5
541.971	6515.5
542.741	6160.5
543.51	5815.5
544.28	5555.5
545.05	5299.5
545.819	5047.5
546.588	4818.5
547.358	4556.5
548.127	4344.5
548.896	4144.5
549.665	3947.5
550.434	3737.5
551.203	3524.5
551.972	3361.5
552.741	3163.5
553.51	2988.5
554.278	2832.5
555.047	2674.5
555.815	2538.5
556.584	2375.5
557.352	2253.5
558.121	2143.5
558.889	2018.5
559.657	1909.5
560.425	1821.5
561.193	1709.5
561.961	1625.5
562.729	1538.5
563.496	1450.5
564.264	1377.5
565.032	1284.5
565.799	1225.5
566.567	1154.5
567.334	1080.5
568.101	1043.5
568.869	985.5
569.636	923.5
570.403	871.5
571.17	825.5
571.937	772.5
572.704	734.5
573.471	689.5
574.237	649.5
575.004	611.5
575.771	582.5
576.537	547.5
577.303	511.5
578.07	489.5
578.836	471.5
579.602	426.5
580.368	416.5
581.134	398.5
581.9	379.5
582.666	353.5
583.432	338.5
584.198	327.5
584.964	300.5
585.729	289.5
586.495	277.5
587.26	254.5
588.025	240.5
588.791	232.5
589.556	217.5
590.321	208.5
591.086	196.5
591.851	188.5
592.616	174.5
593.381	175.5
594.146	164.5
594.911	159.5
595.675	153.5
596.44	138.5
597.204	136.5
597.969	133.5
598.733	126.5
599.497	123.5
600.261	111.5
601.025	109.5
601.79	103.5
602.553	99.5
603.317	99.5
604.081	90.5
604.845	88.5
605.609	79.5
606.372	81.5
607.136	80.5
607.899	70.5
608.662	70.5
609.426	70.5
610.189	72.5
610.952	63.5
611.715	62.5
612.478	57.5
613.241	57.5
614.004	54.5
614.767	55.5
615.529	52.5
616.292	48.5
617.055	49.5
617.817	45.5
618.579	43.5
619.342	45.5
620.104	43.5
620.866	42.5
621.628	40.5
622.39	38.5
623.152	36.5
623.914	34.5
624.676	32.5
625.438	31.5
626.199	33.5
626.961	33.5
627.722	29.5
628.484	30.5
629.245	29.5
630.006	24.5
630.768	26.5
631.529	27.5
632.29	25.5
633.051	24.5
633.812	24.5
634.573	24.5
635.333	26.5
636.094	21.5
636.855	20.5
637.615	21.5
638.376	22.5
639.136	21.5
639.896	17.5
640.657	19.5
641.417	16.5
642.177	15.5
642.937	18.5
643.697	15.5
644.457	19.5
645.216	17.5
645.976	17.5
646.736	14.5
647.495	14.5
648.255	17.5
649.014	14.5
649.774	12.5
650.533	13.5
651.292	14.5
652.051	14.5
652.81	13.5
653.569	12.5
654.328	11.5
655.087	14.5
655.846	12.5
656.604	8.5
657.363	10.5
658.121	10.5
658.88	12.5
659.638	11.5
660.397	11.5
661.155	13.5
661.913	9.5
662.671	11.5
663.429	10.5
664.187	7.5
664.945	9.5
665.703	7.5
666.46	9.5
667.218	6.5
667.976	9.5
668.733	10.5
669.49	10.5
670.248	9.5
671.005	8.5
671.762	11.5
672.519	10.5
673.276	8.5
674.033	7.5
674.79	9.5
675.547	8.5
676.304	10.5
677.06	6.5
677.817	6.5
678.574	8.5
679.33	5.5
680.086	8.5
680.843	7.5
681.599	8.5
682.355	6.5
683.111	10.5
683.867	10.5
684.623	10.5
685.379	7.5
686.135	7.5
686.89	9.5
687.646	8.5
688.402	7.5
689.157	6.5
689.912	8.5
690.668	7.5
691.423	7.5
692.178	8.5
692.933	5.5
693.688	8.5
694.443	6.5
695.198	8.5
695.953	8.5
696.708	9.5
697.462	6.5
698.217	4.5
698.972	7.5
699.726	6.5
700.48	7.5
701.235	8.5
701.989	5.5
702.743	6.5
703.497	5.5
704.251	7.5
705.005	7.5
705.759	9.5
706.513	8.5
707.266	6.5
708.02	7.5
708.774	6.5
709.527	8.5
710.28	6.5
711.034	9.5
711.787	7.5
712.54	7.5
713.293	8.5
714.046	6.5
714.799	6.5
715.552	9.5
716.305	4.5
717.058	8.5
717.81	6.5
718.563	8.5
719.315	8.5
720.068	8.5
720.82	7.5
721.573	7.5
722.325	7.5
723.077	8.5
723.829	9.5
724.581	6.5
725.333	8.5
726.085	6.5
726.836	6.5
727.588	7.5
728.34	7.5
729.091	9.5
729.843	7.5
730.594	8.5
731.346	8.5
732.097	7.5
732.848	10.5
733.599	6.5
734.35	7.5
735.101	8.5
735.852	6.5
736.603	9.5
737.354	6.5
738.104	8.5
738.855	10.5
739.605	8.5
740.356	11.5
741.106	7.5
741.856	10.5
742.607	10.5
743.357	9.5
744.107	10.5
744.857	8.5
745.607	8.5
746.357	10.5
747.106	10.5
747.856	10.5
748.606	13.5
749.355	11.5
750.105	9.5
750.854	11.5
751.603	10.5
752.353	10.5
753.102	13.5
753.851	10.5
754.6	8.5
755.349	10.5
756.098	9.5
756.847	12.5
757.595	11.5
758.344	12.5
759.093	10.5
759.841	13.5
760.589	12.5
761.338	10.5
762.086	10.5
762.834	11.5
763.582	11.5
764.331	12.5
765.079	13.5
765.826	13.5
766.574	11.5
767.322	12.5
768.07	14.5
768.817	11.5
769.565	12.5
770.312	14.5
771.06	12.5
771.807	12.5
772.554	14.5
773.302	13.5
774.049	15.5
774.796	11.5
775.543	12.5
776.29	14.5
777.036	14.5
777.783	14.5
778.53	13.5
779.276	13.5
780.023	16.5
780.769	12.5
781.516	17.5
782.262	14.5
783.008	16.5
783.754	15.5
784.5	16.5
785.246	15.5
785.992	15.5
786.738	15.5
787.484	14.5
788.23	15.5
788.975	12.5
789.721	13.5
790.466	13.5
791.212	12.5
791.957	14.5
792.702	14.5
793.447	11.5
794.193	10.5
794.938	12.5
795.683	12.5
796.427	11.5
797.172	12.5
797.917	13.5
798.662	12.5
799.406	14.5
800.151	12.5
800.895	11.5
801.64	10.5
802.384	10.5
803.128	10.5
803.872	12.5
804.616	10.5
805.36	11.5
806.104	12.5
806.848	9.5
807.592	10.5
808.336	10.5
809.079	7.5
809.823	10.5
810.566	9.5
811.31	9.5
812.053	7.5
812.796	9.5
813.539	8.5
814.283	8.5
815.026	8.5
815.769	8.5
816.511	7.5
817.254	8.5
817.997	10.5
818.74	5.5
819.482	9.5
820.225	8.5
820.967	6.5
821.71	8.5
822.452	7.5
823.194	7.5
823.936	8.5
824.678	8.5
825.42	6.5
826.162	4.5
826.904	6.5
827.646	6.5
828.388	6.5
829.129	7.5
829.871	5.5
830.612	3.5
831.354	4.5
832.095	5.5
832.836	7.5
833.577	5.5
834.319	5.5
835.06	2.5
835.801	5.5
836.542	6.5
837.282	6.5
838.023	5.5
838.764	4.5
839.504	4.5
840.245	4.5
840.985	2.5
841.726	4.5
842.466	5.5
843.206	4.5
843.946	2.5
844.687	4.5
845.427	4.5
846.166	3.5
846.906	2.5
847.646	3.5
848.386	5.5
849.125	4.5
849.865	7.5
850.605	3.5
851.344	2.5
852.083	5.5
852.823	3.5
853.562	2.5
854.301	2.5
855.04	2.5
855.779	4.5
856.518	2.5
857.257	5.5
857.995	2.5
858.734	4.5
859.473	2.5
860.211	2.5
860.95	5.5
861.688	0.5
862.426	5.5
863.165	2.5
863.903	1.5
864.641	4.5
865.379	3.5
866.117	2.5
866.855	2.5
867.593	2.5
868.33	0.5
869.068	0.5
869.806	1.5
870.543	1.5
871.28	2.5
872.018	3.5
872.755	4.5
873.492	3.5
874.229	2.5
874.967	2.5
875.703	-0.5
876.44	2.5
877.177	2.5
877.914	1.5
878.651	0.5
879.387	1.5
880.124	-0.5
880.86	1.5
881.597	1.5
882.333	2.5
883.069	1.5
883.806	1.5
884.542	1.5
885.278	3.5
886.014	2.5
886.749	-1.5
887.485	-0.5
888.221	0.5
888.957	0.5
889.692	1.5
890.428	0.5
891.163	1.5
891.899	0.5
892.634	4.5
893.369	-1.5
894.104	1.5
894.839	-1.5
895.574	1.5
896.309	2.5
897.044	-0.5
897.779	1.5
898.514	1.5
899.248	-0.5
899.983	1.5
900.717	-0.5
901.452	0.5
902.186	-1.5
902.92	-0.5
903.654	0.5
904.389	0.5
905.123	1.5
905.857	0.5
906.59	0.5
907.324	-0.5
908.058	-0.5
908.792	0.5
909.525	-0.5
910.259	1.5
910.992	-1.5
911.726	2.5
912.459	0.5
913.192	0.5
913.925	0.5
914.658	0.5
915.391	0.5
916.124	-0.5
916.857	-1.5
917.59	-0.5
918.323	0.5
919.055	1.5
919.788	1.5
920.521	-0.5
921.253	-2.5
921.985	-1.5
922.718	-0.5
923.45	0.5
924.182	0.5
924.914	-2.5
925.646	1.5
926.378	-0.5
927.11	-3.5
927.841	0.5
928.573	-1.5
929.305	0.5
930.036	1.5
930.768	0.5
931.499	1.5
932.23	0.5
932.962	0.5
933.693	-1.5
934.424	-0.5
935.155	-1.5
935.886	2.5
936.617	1.5
937.348	-0.5
938.078	-0.5
938.809	1.5
939.54	2.5
940.27	1.5
941.001	-1.5
941.731	-1.5
942.461	-2.5
943.191	2.5
943.922	-0.5
944.652	0.5
945.382	-1.5
946.112	0.5
946.841	-0.5
947.571	-1.5
948.301	0.5
949.031	-0.5
949.76	0.5
950.49	-1.5
951.219	-1.5
951.948	0.5
952.678	-1.5
953.407	-0.5
954.136	0.5
954.865	-0.5
955.594	-1.5
956.323	0.5
957.052	0.5
957.78	0.5
958.509	-1.5
959.238	-1.5
959.966	-0.5
960.695	-0.5
961.423	-1.5
962.151	-0.5
962.88	-1.5
963.608	-0.5
964.336	1.5
965.064	-0.5
965.792	1.5
966.52	-1.5
967.247	0.5
967.975	2.5
968.703	-0.5
969.43	0.5
970.158	-1.5
970.885	0.5
971.613	-2.5
972.34	-0.5
973.067	0.5
973.794	-1.5
974.521	0.5
975.248	-0.5
975.975	-2.5
976.702	0.5
977.429	-0.5
978.156	-0.5
978.882	-0.5
979.609	1.5
980.335	-0.5
981.062	-0.5
981.788	0.5
982.514	1.5
983.24	-0.5
983.967	1.5
984.693	2.5
985.419	-1.5
986.144	-2.5
986.87	2.5
987.596	-2.5
988.322	0.5
989.047	1.5
989.773	-0.5
990.498	0.5
991.224	-0.5
991.949	-2.5
992.674	-1.5
993.399	0.5
994.124	0.5
994.849	-0.5
995.574	0.5
996.299	-0.5
997.024	-1.5
997.749	-1.5
998.473	-0.5
999.198	1.5
999.922	-1.5
1000.647	0.5
1001.371	2.5
1002.095	-0.5
1002.82	-2.5
1003.544	-1.5
1004.268	2.5
1004.992	3.5
1005.716	1.5
1006.439	6.5
1007.163	4.5
1007.887	4.5
1008.611	-1.5
1009.334	1.5
1010.058	0.5
1010.781	-0.5
1011.504	-0.5
1012.228	-0.5
1012.951	1.5
1013.674	1.5
1014.397	0.5
1015.12	-1.5
