节点500_705_QEPB04081__275__20-49-53-415.txt的数据

Date: Wed Nov 12 20:49:53 CST 2025
User: PC
Spectrometer: QEPB0408
触发模式: 0
积分时间 (秒): 1.000000E-2
Scans to average: 1
启用暗噪声校正: true
启用非线性校正: false
滑动平均宽度: 0
X轴模式: Wavelengths
Number of Pixels in Spectrum: 1044
>>>>>Begin Spectral Data<<<<<
220.843	4.62
221.644	3.62
222.444	5.62
223.244	3.62
224.045	5.62
224.845	7.62
225.645	8.62
226.445	7.62
227.245	5.62
228.045	4.62
228.845	7.62
229.645	8.62
230.444	8.62
231.244	7.62
232.043	8.62
232.843	7.62
233.642	9.62
234.442	10.62
235.241	8.62
236.04	11.62
236.839	12.62
237.638	8.62
238.437	11.62
239.236	9.62
240.035	10.62
240.833	12.62
241.632	11.62
242.43	13.62
243.229	12.62
244.027	14.62
244.826	12.62
245.624	10.62
246.422	17.62
247.22	13.62
248.018	14.62
248.816	15.62
249.614	15.62
250.412	18.62
251.21	15.62
252.007	19.62
252.805	17.62
253.602	16.62
254.4	17.62
255.197	18.62
255.994	21.62
256.791	18.62
257.589	20.62
258.386	22.62
259.183	22.62
259.979	21.62
260.776	20.62
261.573	24.62
262.37	25.62
263.166	25.62
263.963	24.62
264.759	25.62
265.556	28.62
266.352	25.62
267.148	27.62
267.944	27.62
268.74	28.62
269.536	29.62
270.332	32.62
271.128	33.62
271.924	30.62
272.719	33.62
273.515	31.62
274.311	30.62
275.106	33.62
275.901	33.62
276.697	34.62
277.492	36.62
278.287	36.62
279.082	33.62
279.877	34.62
280.672	33.62
281.467	34.62
282.262	34.62
283.056	33.62
283.851	35.62
284.646	34.62
285.44	31.62
286.234	36.62
287.029	32.62
287.823	34.62
288.617	34.62
289.411	33.62
290.205	32.62
290.999	31.62
291.793	35.62
292.587	29.62
293.381	30.62
294.174	28.62
294.968	28.62
295.761	29.62
296.555	26.62
297.348	25.62
298.141	28.62
298.935	27.62
299.728	26.62
300.521	25.62
301.314	26.62
302.107	22.62
302.899	23.62
303.692	24.62
304.485	20.62
305.277	20.62
306.07	21.62
306.862	20.62
307.655	22.62
308.447	20.62
309.239	18.62
310.031	19.62
310.823	17.62
311.615	17.62
312.407	17.62
313.199	18.62
313.991	17.62
314.783	16.62
315.574	14.62
316.366	17.62
317.157	13.62
317.949	15.62
318.74	16.62
319.531	16.62
320.322	16.62
321.113	13.62
321.904	16.62
322.695	15.62
323.486	14.62
324.277	15.62
325.068	11.62
325.858	13.62
326.649	11.62
327.439	12.62
328.23	10.62
329.02	12.62
329.81	14.62
330.6	10.62
331.391	8.62
332.181	9.62
332.971	10.62
333.76	14.62
334.55	12.62
335.34	11.62
336.13	10.62
336.919	12.62
337.709	12.62
338.498	12.62
339.287	12.62
340.077	8.62
340.866	13.62
341.655	12.62
342.444	10.62
343.233	10.62
344.022	10.62
344.811	10.62
345.6	9.62
346.388	12.62
347.177	11.62
347.965	11.62
348.754	11.62
349.542	11.62
350.33	11.62
351.119	8.62
351.907	11.62
352.695	12.62
353.483	9.62
354.271	10.62
355.059	10.62
355.846	11.62
356.634	11.62
357.422	11.62
358.209	11.62
358.997	10.62
359.784	10.62
360.571	10.62
361.359	12.62
362.146	10.62
362.933	10.62
363.72	12.62
364.507	7.62
365.294	10.62
366.081	8.62
366.867	9.62
367.654	9.62
368.44	9.62
369.227	9.62
370.013	8.62
370.8	8.62
371.586	9.62
372.372	9.62
373.158	8.62
373.944	10.62
374.73	10.62
375.516	9.62
376.302	9.62
377.088	8.62
377.873	9.62
378.659	10.62
379.445	9.62
380.23	10.62
381.015	10.62
381.801	10.62
382.586	10.62
383.371	8.62
384.156	8.62
384.941	11.62
385.726	12.62
386.511	10.62
387.296	11.62
388.08	10.62
388.865	9.62
389.649	12.62
390.434	10.62
391.218	7.62
392.003	12.62
392.787	12.62
393.571	12.62
394.355	10.62
395.139	14.62
395.923	11.62
396.707	12.62
397.491	11.62
398.274	10.62
399.058	14.62
399.842	13.62
400.625	14.62
401.408	11.62
402.192	12.62
402.975	12.62
403.758	14.62
404.541	12.62
405.324	15.62
406.107	13.62
406.89	15.62
407.673	14.62
408.456	13.62
409.238	16.62
410.021	18.62
410.803	16.62
411.586	14.62
412.368	13.62
413.151	13.62
413.933	21.62
414.715	20.62
415.497	18.62
416.279	18.62
417.061	18.62
417.843	16.62
418.624	19.62
419.406	20.62
420.188	18.62
420.969	22.62
421.751	18.62
422.532	18.62
423.313	21.62
424.095	25.62
424.876	25.62
425.657	24.62
426.438	24.62
427.219	25.62
428	26.62
428.78	28.62
429.561	27.62
430.342	30.62
431.122	34.62
431.903	29.62
432.683	34.62
433.464	35.62
434.244	36.62
435.024	36.62
435.804	39.62
436.584	44.62
437.364	44.62
438.144	48.62
438.924	49.62
439.704	52.62
440.483	53.62
441.263	60.62
442.042	60.62
442.822	69.62
443.601	75.62
444.38	80.62
445.16	85.62
445.939	91.62
446.718	100.62
447.497	113.62
448.276	117.62
449.054	133.62
449.833	146.62
450.612	156.62
451.391	172.62
452.169	190.62
452.948	217.62
453.726	235.62
454.504	265.62
455.282	290.62
456.061	328.62
456.839	360.62
457.617	400.62
458.395	447.62
459.172	503.62
459.95	561.62
460.728	622.62
461.506	705.62
462.283	786.62
463.061	869.62
463.838	972.62
464.615	1078.62
465.393	1203.62
466.17	1350.62
466.947	1484.62
467.724	1645.62
468.501	1833.62
469.278	2025.62
470.055	2252.62
470.831	2489.62
471.608	2746.62
472.385	3040.62
473.161	3343.62
473.938	3692.62
474.714	4054.62
475.49	4443.62
476.266	4892.62
477.043	5367.62
477.819	5848.62
478.595	6406.62
479.371	6994.62
480.146	7645.62
480.922	8337.62
481.698	9089.62
482.473	9925.62
483.249	10800.62
484.024	11742.62
484.8	12706.62
485.575	13805.62
486.35	14959.62
487.126	16273.62
487.901	17605.62
488.676	18971.62
489.451	20485.62
490.225	22021.62
491	23712.62
491.775	25310.62
492.55	27133.62
493.324	28807.62
494.099	30684.62
494.873	32520.62
495.647	34346.62
496.422	36179.62
497.196	38000.62
497.97	39614.62
498.744	41116.62
499.518	42786.62
500.292	44060.62
501.066	45093.62
501.839	45967.62
502.613	46698.62
503.387	47275.62
504.16	47660.62
504.934	47654.62
505.707	47665.62
506.48	47313.62
507.253	46718.62
508.027	45896.62
508.8	44874.62
509.573	43801.62
510.346	42689.62
511.118	41569.62
511.891	40316.62
512.664	38679.62
513.437	37287.62
514.209	35835.62
514.982	34436.62
515.754	33055.62
516.526	31630.62
517.298	30412.62
518.071	29140.62
518.843	28042.62
519.615	26892.62
520.387	25830.62
521.159	24823.62
521.93	23737.62
522.702	22779.62
523.474	21828.62
524.245	20842.62
525.017	19973.62
525.788	19078.62
526.56	18263.62
527.331	17432.62
528.102	16498.62
528.873	15696.62
529.644	14992.62
530.415	14278.62
531.186	13548.62
531.957	12841.62
532.728	12248.62
533.498	11546.62
534.269	10943.62
535.039	10370.62
535.81	9785.62
536.58	9258.62
537.351	8738.62
538.121	8317.62
538.891	7856.62
539.661	7427.62
540.431	7044.62
541.201	6684.62
541.971	6325.62
542.741	5988.62
543.51	5666.62
544.28	5386.62
545.05	5161.62
545.819	4924.62
546.588	4666.62
547.358	4460.62
548.127	4210.62
548.896	4022.62
549.665	3800.62
550.434	3614.62
551.203	3418.62
551.972	3253.62
552.741	3062.62
553.51	2879.62
554.278	2724.62
555.047	2564.62
555.815	2444.62
556.584	2287.62
557.352	2187.62
558.121	2037.62
558.889	1929.62
559.657	1827.62
560.425	1736.62
561.193	1645.62
561.961	1565.62
562.729	1452.62
563.496	1388.62
564.264	1314.62
565.032	1230.62
565.799	1178.62
566.567	1113.62
567.334	1050.62
568.101	997.62
568.869	943.62
569.636	894.62
570.403	846.62
571.17	796.62
571.937	746.62
572.704	709.62
573.471	670.62
574.237	626.62
575.004	593.62
575.771	552.62
576.537	524.62
577.303	494.62
578.07	477.62
578.836	447.62
579.602	421.62
580.368	398.62
581.134	375.62
581.9	366.62
582.666	339.62
583.432	322.62
584.198	305.62
584.964	296.62
585.729	276.62
586.495	261.62
587.26	251.62
588.025	236.62
588.791	222.62
589.556	214.62
590.321	204.62
591.086	187.62
591.851	182.62
592.616	176.62
593.381	164.62
594.146	159.62
594.911	149.62
595.675	140.62
596.44	132.62
597.204	132.62
597.969	124.62
598.733	122.62
599.497	114.62
600.261	108.62
601.025	106.62
601.79	101.62
602.553	102.62
603.317	91.62
604.081	86.62
604.845	86.62
605.609	80.62
606.372	75.62
607.136	79.62
607.899	71.62
608.662	69.62
609.426	68.62
610.189	64.62
610.952	62.62
611.715	62.62
612.478	56.62
613.241	57.62
614.004	53.62
614.767	52.62
615.529	50.62
616.292	49.62
617.055	48.62
617.817	46.62
618.579	43.62
619.342	41.62
620.104	40.62
620.866	38.62
621.628	39.62
622.39	38.62
623.152	35.62
623.914	34.62
624.676	33.62
625.438	33.62
626.199	31.62
626.961	33.62
627.722	30.62
628.484	30.62
629.245	26.62
630.006	28.62
630.768	28.62
631.529	26.62
632.29	24.62
633.051	23.62
633.812	23.62
634.573	25.62
635.333	21.62
636.094	22.62
636.855	22.62
637.615	22.62
638.376	21.62
639.136	18.62
639.896	18.62
640.657	19.62
641.417	21.62
642.177	19.62
642.937	16.62
643.697	17.62
644.457	16.62
645.216	16.62
645.976	15.62
646.736	14.62
647.495	13.62
648.255	19.62
649.014	14.62
649.774	14.62
650.533	14.62
651.292	13.62
652.051	13.62
652.81	13.62
653.569	12.62
654.328	13.62
655.087	14.62
655.846	12.62
656.604	13.62
657.363	10.62
658.121	12.62
658.88	12.62
659.638	11.62
660.397	12.62
661.155	9.62
661.913	10.62
662.671	4.62
663.429	8.62
664.187	6.62
664.945	9.62
665.703	10.62
666.46	12.62
667.218	9.62
667.976	9.62
668.733	9.62
669.49	8.62
670.248	8.62
671.005	10.62
671.762	9.62
672.519	10.62
673.276	11.62
674.033	7.62
674.79	9.62
675.547	7.62
676.304	7.62
677.06	9.62
677.817	9.62
678.574	8.62
679.33	5.62
680.086	7.62
680.843	7.62
681.599	8.62
682.355	7.62
683.111	8.62
683.867	8.62
684.623	5.62
685.379	5.62
686.135	4.62
686.89	9.62
687.646	5.62
688.402	6.62
689.157	8.62
689.912	8.62
690.668	7.62
691.423	9.62
692.178	7.62
692.933	5.62
693.688	5.62
694.443	9.62
695.198	7.62
695.953	8.62
696.708	5.62
697.462	8.62
698.217	7.62
698.972	4.62
699.726	6.62
700.48	8.62
701.235	7.62
701.989	5.62
702.743	6.62
703.497	7.62
704.251	7.62
705.005	8.62
705.759	4.62
706.513	8.62
707.266	6.62
708.02	6.62
708.774	8.62
709.527	4.62
710.28	6.62
711.034	7.62
711.787	7.62
712.54	5.62
713.293	5.62
714.046	7.62
714.799	5.62
715.552	8.62
716.305	9.62
717.058	7.62
717.81	8.62
718.563	7.62
719.315	6.62
720.068	7.62
720.82	6.62
721.573	8.62
722.325	7.62
723.077	5.62
723.829	6.62
724.581	9.62
725.333	7.62
726.085	7.62
726.836	9.62
727.588	7.62
728.34	9.62
729.091	6.62
729.843	9.62
730.594	9.62
731.346	8.62
732.097	9.62
732.848	8.62
733.599	11.62
734.35	7.62
735.101	6.62
735.852	9.62
736.603	8.62
737.354	10.62
738.104	6.62
738.855	10.62
739.605	9.62
740.356	10.62
741.106	9.62
741.856	10.62
742.607	11.62
743.357	8.62
744.107	10.62
744.857	12.62
745.607	10.62
746.357	9.62
747.106	10.62
747.856	7.62
748.606	10.62
749.355	12.62
750.105	11.62
750.854	10.62
751.603	12.62
752.353	12.62
753.102	10.62
753.851	11.62
754.6	12.62
755.349	13.62
756.098	11.62
756.847	12.62
757.595	10.62
758.344	10.62
759.093	10.62
759.841	10.62
760.589	13.62
761.338	14.62
762.086	12.62
762.834	14.62
763.582	10.62
764.331	13.62
765.079	15.62
765.826	12.62
766.574	12.62
767.322	14.62
768.07	14.62
768.817	12.62
769.565	14.62
770.312	14.62
771.06	14.62
771.807	12.62
772.554	13.62
773.302	15.62
774.049	13.62
774.796	15.62
775.543	14.62
776.29	12.62
777.036	16.62
777.783	17.62
778.53	14.62
779.276	14.62
780.023	13.62
780.769	16.62
781.516	14.62
782.262	17.62
783.008	13.62
783.754	16.62
784.5	15.62
785.246	16.62
785.992	14.62
786.738	16.62
787.484	15.62
788.23	17.62
788.975	14.62
789.721	14.62
790.466	15.62
791.212	17.62
791.957	12.62
792.702	13.62
793.447	14.62
794.193	13.62
794.938	12.62
795.683	13.62
796.427	13.62
797.172	14.62
797.917	12.62
798.662	11.62
799.406	10.62
800.151	10.62
800.895	12.62
801.64	12.62
802.384	14.62
803.128	12.62
803.872	9.62
804.616	11.62
805.36	11.62
806.104	11.62
806.848	10.62
807.592	9.62
808.336	8.62
809.079	9.62
809.823	8.62
810.566	11.62
811.31	7.62
812.053	10.62
812.796	8.62
813.539	8.62
814.283	6.62
815.026	10.62
815.769	8.62
816.511	8.62
817.254	8.62
817.997	9.62
818.74	9.62
819.482	9.62
820.225	7.62
820.967	8.62
821.71	6.62
822.452	4.62
823.194	8.62
823.936	6.62
824.678	6.62
825.42	4.62
826.162	7.62
826.904	7.62
827.646	4.62
828.388	6.62
829.129	6.62
829.871	6.62
830.612	6.62
831.354	6.62
832.095	7.62
832.836	4.62
833.577	5.62
834.319	2.62
835.06	4.62
835.801	5.62
836.542	4.62
837.282	7.62
838.023	6.62
838.764	5.62
839.504	7.62
840.245	4.62
840.985	6.62
841.726	3.62
842.466	5.62
843.206	7.62
843.946	5.62
844.687	5.62
845.427	2.62
846.166	5.62
846.906	3.62
847.646	5.62
848.386	4.62
849.125	3.62
849.865	5.62
850.605	4.62
851.344	4.62
852.083	3.62
852.823	4.62
853.562	4.62
854.301	5.62
855.04	6.62
855.779	5.62
856.518	4.62
857.257	2.62
857.995	5.62
858.734	5.62
859.473	3.62
860.211	3.62
860.95	2.62
861.688	1.62
862.426	2.62
863.165	1.62
863.903	4.62
864.641	2.62
865.379	1.62
866.117	2.62
866.855	1.62
867.593	1.62
868.33	1.62
869.068	0.62
869.806	4.62
870.543	1.62
871.28	0.62
872.018	2.62
872.755	4.62
873.492	1.62
874.229	3.62
874.967	0.62
875.703	-0.38
876.44	2.62
877.177	0.62
877.914	1.62
878.651	0.62
879.387	1.62
880.124	2.62
880.86	-0.38
881.597	3.62
882.333	0.62
883.069	-1.38
883.806	0.62
884.542	2.62
885.278	0.62
886.014	1.62
886.749	0.62
887.485	0.62
888.221	0.62
888.957	1.62
889.692	0.62
890.428	1.62
891.163	1.62
891.899	2.62
892.634	1.62
893.369	2.62
894.104	0.62
894.839	2.62
895.574	0.62
896.309	2.62
897.044	1.62
897.779	0.62
898.514	2.62
899.248	-1.38
899.983	0.62
900.717	0.62
901.452	1.62
902.186	-1.38
902.92	1.62
903.654	-0.38
904.389	0.62
905.123	-0.38
905.857	1.62
906.59	1.62
907.324	2.62
908.058	-1.38
908.792	-2.38
909.525	0.62
910.259	0.62
910.992	0.62
911.726	-0.38
912.459	-0.38
913.192	-0.38
913.925	-0.38
914.658	0.62
915.391	-0.38
916.124	-0.38
916.857	-0.38
917.59	-1.38
918.323	2.62
919.055	-1.38
919.788	1.62
920.521	1.62
921.253	0.62
921.985	0.62
922.718	-0.38
923.45	1.62
924.182	0.62
924.914	-0.38
925.646	2.62
926.378	0.62
927.11	0.62
927.841	1.62
928.573	1.62
929.305	-0.38
930.036	-0.38
930.768	-1.38
931.499	0.62
932.23	-0.38
932.962	1.62
933.693	1.62
934.424	0.62
935.155	0.62
935.886	1.62
936.617	0.62
937.348	0.62
938.078	0.62
938.809	2.62
939.54	0.62
940.27	-0.38
941.001	-0.38
941.731	-0.38
942.461	0.62
943.191	-1.38
943.922	-0.38
944.652	-1.38
945.382	-0.38
946.112	0.62
946.841	1.62
947.571	0.62
948.301	0.62
949.031	-3.38
949.76	0.62
950.49	-1.38
951.219	1.62
951.948	-1.38
952.678	-2.38
953.407	-0.38
954.136	-0.38
954.865	1.62
955.594	0.62
956.323	-1.38
957.052	0.62
957.78	-0.38
958.509	0.62
959.238	-0.38
959.966	-1.38
960.695	1.62
961.423	0.62
962.151	-0.38
962.88	-1.38
963.608	1.62
964.336	-0.38
965.064	0.62
965.792	-1.38
966.52	0.62
967.247	-0.38
967.975	-2.38
968.703	0.62
969.43	0.62
970.158	-1.38
970.885	1.62
971.613	1.62
972.34	0.62
973.067	-2.38
973.794	0.62
974.521	-1.38
975.248	0.62
975.975	-1.38
976.702	-0.38
977.429	1.62
978.156	1.62
978.882	0.62
979.609	0.62
980.335	-1.38
981.062	-1.38
981.788	-3.38
982.514	1.62
983.24	-1.38
983.967	0.62
984.693	2.62
985.419	-0.38
986.144	0.62
986.87	-0.38
987.596	-1.38
988.322	-1.38
989.047	-0.38
989.773	3.62
990.498	-2.38
991.224	0.62
991.949	-1.38
992.674	1.62
993.399	0.62
994.124	0.62
994.849	3.62
995.574	1.62
996.299	2.62
997.024	-0.38
997.749	-1.38
998.473	-0.38
999.198	-0.38
999.922	0.62
1000.647	-0.38
1001.371	4.62
1002.095	0.62
1002.82	-1.38
1003.544	-1.38
1004.268	4.62
1004.992	2.62
1005.716	3.62
1006.439	2.62
1007.163	6.62
1007.887	4.62
1008.611	-0.38
1009.334	0.62
1010.058	-0.38
1010.781	0.62
1011.504	-1.38
1012.228	1.62
1012.951	-0.38
1013.674	-2.38
1014.397	-0.38
1015.12	0.62
