节点500_705_QEPB04081__341__20-50-47-559.txt的数据

Date: Wed Nov 12 20:50:47 CST 2025
User: PC
Spectrometer: QEPB0408
触发模式: 0
积分时间 (秒): 1.000000E-2
Scans to average: 1
启用暗噪声校正: true
启用非线性校正: false
滑动平均宽度: 0
X轴模式: Wavelengths
Number of Pixels in Spectrum: 1044
>>>>>Begin Spectral Data<<<<<
220.843	7.88
221.644	4.88
222.444	6.88
223.244	2.88
224.045	5.88
224.845	6.88
225.645	5.88
226.445	4.88
227.245	7.88
228.045	8.88
228.845	7.88
229.645	7.88
230.444	8.88
231.244	7.88
232.043	7.88
232.843	8.88
233.642	7.88
234.442	8.88
235.241	9.88
236.04	11.88
236.839	9.88
237.638	10.88
238.437	10.88
239.236	12.88
240.035	9.88
240.833	11.88
241.632	11.88
242.43	12.88
243.229	10.88
244.027	13.88
244.826	13.88
245.624	11.88
246.422	14.88
247.22	15.88
248.018	13.88
248.816	13.88
249.614	14.88
250.412	14.88
251.21	15.88
252.007	17.88
252.805	17.88
253.602	16.88
254.4	16.88
255.197	16.88
255.994	17.88
256.791	19.88
257.589	19.88
258.386	22.88
259.183	18.88
259.979	20.88
260.776	20.88
261.573	21.88
262.37	25.88
263.166	21.88
263.963	28.88
264.759	24.88
265.556	25.88
266.352	26.88
267.148	26.88
267.944	29.88
268.74	30.88
269.536	28.88
270.332	28.88
271.128	28.88
271.924	28.88
272.719	33.88
273.515	33.88
274.311	37.88
275.106	32.88
275.901	32.88
276.697	30.88
277.492	34.88
278.287	32.88
279.082	31.88
279.877	34.88
280.672	34.88
281.467	34.88
282.262	31.88
283.056	33.88
283.851	32.88
284.646	33.88
285.44	31.88
286.234	32.88
287.029	33.88
287.823	33.88
288.617	32.88
289.411	29.88
290.205	29.88
290.999	29.88
291.793	29.88
292.587	33.88
293.381	29.88
294.174	31.88
294.968	26.88
295.761	30.88
296.555	29.88
297.348	25.88
298.141	26.88
298.935	29.88
299.728	23.88
300.521	24.88
301.314	22.88
302.107	26.88
302.899	22.88
303.692	23.88
304.485	21.88
305.277	23.88
306.07	23.88
306.862	24.88
307.655	19.88
308.447	20.88
309.239	19.88
310.031	18.88
310.823	18.88
311.615	17.88
312.407	20.88
313.199	16.88
313.991	16.88
314.783	16.88
315.574	17.88
316.366	14.88
317.157	15.88
317.949	13.88
318.74	13.88
319.531	12.88
320.322	13.88
321.113	14.88
321.904	12.88
322.695	12.88
323.486	14.88
324.277	11.88
325.068	10.88
325.858	12.88
326.649	12.88
327.439	11.88
328.23	11.88
329.02	11.88
329.81	7.88
330.6	11.88
331.391	12.88
332.181	12.88
332.971	11.88
333.76	13.88
334.55	14.88
335.34	10.88
336.13	9.88
336.919	10.88
337.709	9.88
338.498	10.88
339.287	11.88
340.077	13.88
340.866	13.88
341.655	11.88
342.444	9.88
343.233	10.88
344.022	11.88
344.811	11.88
345.6	10.88
346.388	9.88
347.177	10.88
347.965	10.88
348.754	7.88
349.542	11.88
350.33	6.88
351.119	9.88
351.907	9.88
352.695	12.88
353.483	10.88
354.271	10.88
355.059	10.88
355.846	9.88
356.634	10.88
357.422	10.88
358.209	9.88
358.997	11.88
359.784	9.88
360.571	10.88
361.359	11.88
362.146	8.88
362.933	10.88
363.72	9.88
364.507	10.88
365.294	9.88
366.081	9.88
366.867	10.88
367.654	7.88
368.44	11.88
369.227	6.88
370.013	9.88
370.8	11.88
371.586	7.88
372.372	10.88
373.158	8.88
373.944	10.88
374.73	10.88
375.516	10.88
376.302	11.88
377.088	9.88
377.873	12.88
378.659	10.88
379.445	11.88
380.23	7.88
381.015	8.88
381.801	12.88
382.586	7.88
383.371	8.88
384.156	11.88
384.941	9.88
385.726	10.88
386.511	8.88
387.296	9.88
388.08	9.88
388.865	11.88
389.649	9.88
390.434	12.88
391.218	12.88
392.003	9.88
392.787	13.88
393.571	12.88
394.355	11.88
395.139	10.88
395.923	11.88
396.707	14.88
397.491	11.88
398.274	10.88
399.058	11.88
399.842	12.88
400.625	14.88
401.408	13.88
402.192	13.88
402.975	13.88
403.758	12.88
404.541	14.88
405.324	14.88
406.107	15.88
406.89	15.88
407.673	15.88
408.456	13.88
409.238	17.88
410.021	14.88
410.803	14.88
411.586	17.88
412.368	16.88
413.151	16.88
413.933	15.88
414.715	16.88
415.497	22.88
416.279	20.88
417.061	18.88
417.843	18.88
418.624	22.88
419.406	19.88
420.188	18.88
420.969	20.88
421.751	18.88
422.532	23.88
423.313	23.88
424.095	22.88
424.876	22.88
425.657	26.88
426.438	24.88
427.219	24.88
428	26.88
428.78	25.88
429.561	26.88
430.342	31.88
431.122	30.88
431.903	33.88
432.683	32.88
433.464	35.88
434.244	37.88
435.024	34.88
435.804	41.88
436.584	42.88
437.364	43.88
438.144	49.88
438.924	52.88
439.704	53.88
440.483	55.88
441.263	61.88
442.042	65.88
442.822	64.88
443.601	70.88
444.38	81.88
445.16	83.88
445.939	93.88
446.718	107.88
447.497	108.88
448.276	122.88
449.054	135.88
449.833	148.88
450.612	163.88
451.391	174.88
452.169	197.88
452.948	213.88
453.726	243.88
454.504	269.88
455.282	294.88
456.061	332.88
456.839	374.88
457.617	413.88
458.395	462.88
459.172	517.88
459.95	574.88
460.728	642.88
461.506	720.88
462.283	782.88
463.061	877.88
463.838	998.88
464.615	1085.88
465.393	1218.88
466.17	1359.88
466.947	1506.88
467.724	1670.88
468.501	1837.88
469.278	2038.88
470.055	2257.88
470.831	2506.88
471.608	2775.88
472.385	3035.88
473.161	3348.88
473.938	3697.88
474.714	4061.88
475.49	4433.88
476.266	4893.88
477.043	5299.88
477.819	5806.88
478.595	6373.88
479.371	6937.88
480.146	7564.88
480.922	8251.88
481.698	9029.88
482.473	9796.88
483.249	10657.88
484.024	11580.88
484.8	12504.88
485.575	13566.88
486.35	14780.88
487.126	15986.88
487.901	17217.88
488.676	18553.88
489.451	20083.88
490.225	21564.88
491	23138.88
491.775	24746.88
492.55	26380.88
493.324	28199.88
494.099	29890.88
494.873	31683.88
495.647	33481.88
496.422	35252.88
497.196	37006.88
497.97	38598.88
498.744	40114.88
499.518	41747.88
500.292	43123.88
501.066	44176.88
501.839	45053.88
502.613	45796.88
503.387	46505.88
504.16	46915.88
504.934	47052.88
505.707	47021.88
506.48	46696.88
507.253	46259.88
508.027	45531.88
508.8	44550.88
509.573	43477.88
510.346	42499.88
511.118	41486.88
511.891	40299.88
512.664	38780.88
513.437	37290.88
514.209	35891.88
514.982	34499.88
515.754	33178.88
516.526	31804.88
517.298	30594.88
518.071	29366.88
518.843	28185.88
519.615	26999.88
520.387	25970.88
521.159	25011.88
521.93	23902.88
522.702	22899.88
523.474	21987.88
524.245	21008.88
525.017	20112.88
525.788	19214.88
526.56	18484.88
527.331	17598.88
528.102	16726.88
528.873	15835.88
529.644	15147.88
530.415	14438.88
531.186	13765.88
531.957	13021.88
532.728	12356.88
533.498	11698.88
534.269	11089.88
535.039	10519.88
535.81	9929.88
536.58	9394.88
537.351	8889.88
538.121	8438.88
538.891	7997.88
539.661	7550.88
540.431	7149.88
541.201	6755.88
541.971	6426.88
542.741	6085.88
543.51	5753.88
544.28	5479.88
545.05	5229.88
545.819	4976.88
546.588	4734.88
547.358	4523.88
548.127	4294.88
548.896	4082.88
549.665	3865.88
550.434	3678.88
551.203	3474.88
551.972	3315.88
552.741	3118.88
553.51	2958.88
554.278	2786.88
555.047	2634.88
555.815	2494.88
556.584	2365.88
557.352	2220.88
558.121	2106.88
558.889	1985.88
559.657	1877.88
560.425	1764.88
561.193	1687.88
561.961	1595.88
562.729	1501.88
563.496	1430.88
564.264	1340.88
565.032	1262.88
565.799	1202.88
566.567	1148.88
567.334	1078.88
568.101	1008.88
568.869	962.88
569.636	909.88
570.403	857.88
571.17	808.88
571.937	767.88
572.704	720.88
573.471	688.88
574.237	637.88
575.004	593.88
575.771	565.88
576.537	535.88
577.303	511.88
578.07	493.88
578.836	447.88
579.602	425.88
580.368	404.88
581.134	385.88
581.9	367.88
582.666	343.88
583.432	332.88
584.198	313.88
584.964	301.88
585.729	285.88
586.495	272.88
587.26	252.88
588.025	242.88
588.791	230.88
589.556	215.88
590.321	203.88
591.086	193.88
591.851	182.88
592.616	175.88
593.381	164.88
594.146	156.88
594.911	154.88
595.675	146.88
596.44	142.88
597.204	136.88
597.969	126.88
598.733	122.88
599.497	118.88
600.261	108.88
601.025	110.88
601.79	106.88
602.553	100.88
603.317	97.88
604.081	93.88
604.845	87.88
605.609	80.88
606.372	80.88
607.136	78.88
607.899	72.88
608.662	72.88
609.426	69.88
610.189	69.88
610.952	65.88
611.715	60.88
612.478	57.88
613.241	55.88
614.004	54.88
614.767	54.88
615.529	47.88
616.292	50.88
617.055	50.88
617.817	46.88
618.579	41.88
619.342	45.88
620.104	43.88
620.866	41.88
621.628	38.88
622.39	35.88
623.152	35.88
623.914	34.88
624.676	33.88
625.438	34.88
626.199	35.88
626.961	30.88
627.722	30.88
628.484	32.88
629.245	27.88
630.006	32.88
630.768	26.88
631.529	27.88
632.29	26.88
633.051	25.88
633.812	25.88
634.573	22.88
635.333	21.88
636.094	22.88
636.855	21.88
637.615	20.88
638.376	21.88
639.136	22.88
639.896	18.88
640.657	19.88
641.417	20.88
642.177	19.88
642.937	21.88
643.697	16.88
644.457	18.88
645.216	17.88
645.976	16.88
646.736	14.88
647.495	14.88
648.255	15.88
649.014	13.88
649.774	14.88
650.533	14.88
651.292	13.88
652.051	13.88
652.81	10.88
653.569	11.88
654.328	13.88
655.087	11.88
655.846	12.88
656.604	10.88
657.363	10.88
658.121	11.88
658.88	13.88
659.638	11.88
660.397	11.88
661.155	10.88
661.913	10.88
662.671	10.88
663.429	12.88
664.187	10.88
664.945	12.88
665.703	9.88
666.46	10.88
667.218	6.88
667.976	8.88
668.733	9.88
669.49	10.88
670.248	8.88
671.005	7.88
671.762	10.88
672.519	8.88
673.276	10.88
674.033	9.88
674.79	10.88
675.547	7.88
676.304	8.88
677.06	9.88
677.817	6.88
678.574	7.88
679.33	6.88
680.086	6.88
680.843	8.88
681.599	9.88
682.355	8.88
683.111	7.88
683.867	7.88
684.623	10.88
685.379	8.88
686.135	10.88
686.89	7.88
687.646	6.88
688.402	8.88
689.157	5.88
689.912	6.88
690.668	7.88
691.423	6.88
692.178	8.88
692.933	5.88
693.688	5.88
694.443	8.88
695.198	6.88
695.953	5.88
696.708	8.88
697.462	6.88
698.217	6.88
698.972	5.88
699.726	9.88
700.48	8.88
701.235	7.88
701.989	6.88
702.743	7.88
703.497	8.88
704.251	6.88
705.005	6.88
705.759	6.88
706.513	5.88
707.266	7.88
708.02	7.88
708.774	9.88
709.527	6.88
710.28	6.88
711.034	5.88
711.787	7.88
712.54	6.88
713.293	8.88
714.046	7.88
714.799	6.88
715.552	8.88
716.305	6.88
717.058	9.88
717.81	7.88
718.563	9.88
719.315	8.88
720.068	5.88
720.82	7.88
721.573	7.88
722.325	9.88
723.077	9.88
723.829	7.88
724.581	8.88
725.333	6.88
726.085	7.88
726.836	10.88
727.588	5.88
728.34	8.88
729.091	7.88
729.843	9.88
730.594	7.88
731.346	9.88
732.097	7.88
732.848	8.88
733.599	8.88
734.35	7.88
735.101	8.88
735.852	8.88
736.603	11.88
737.354	8.88
738.104	7.88
738.855	10.88
739.605	10.88
740.356	10.88
741.106	8.88
741.856	9.88
742.607	9.88
743.357	9.88
744.107	7.88
744.857	11.88
745.607	10.88
746.357	9.88
747.106	8.88
747.856	11.88
748.606	9.88
749.355	9.88
750.105	9.88
750.854	13.88
751.603	9.88
752.353	11.88
753.102	10.88
753.851	10.88
754.6	10.88
755.349	9.88
756.098	10.88
756.847	10.88
757.595	12.88
758.344	11.88
759.093	12.88
759.841	11.88
760.589	10.88
761.338	14.88
762.086	11.88
762.834	10.88
763.582	12.88
764.331	14.88
765.079	12.88
765.826	13.88
766.574	11.88
767.322	13.88
768.07	13.88
768.817	16.88
769.565	10.88
770.312	13.88
771.06	14.88
771.807	13.88
772.554	14.88
773.302	14.88
774.049	12.88
774.796	15.88
775.543	15.88
776.29	13.88
777.036	13.88
777.783	16.88
778.53	12.88
779.276	13.88
780.023	15.88
780.769	13.88
781.516	16.88
782.262	16.88
783.008	16.88
783.754	14.88
784.5	15.88
785.246	14.88
785.992	16.88
786.738	15.88
787.484	13.88
788.23	13.88
788.975	12.88
789.721	14.88
790.466	13.88
791.212	12.88
791.957	16.88
792.702	17.88
793.447	15.88
794.193	14.88
794.938	12.88
795.683	15.88
796.427	11.88
797.172	14.88
797.917	11.88
798.662	11.88
799.406	12.88
800.151	12.88
800.895	14.88
801.64	12.88
802.384	12.88
803.128	9.88
803.872	9.88
804.616	10.88
805.36	9.88
806.104	9.88
806.848	11.88
807.592	9.88
808.336	11.88
809.079	10.88
809.823	8.88
810.566	10.88
811.31	9.88
812.053	6.88
812.796	8.88
813.539	7.88
814.283	10.88
815.026	7.88
815.769	7.88
816.511	7.88
817.254	8.88
817.997	7.88
818.74	6.88
819.482	7.88
820.225	7.88
820.967	8.88
821.71	4.88
822.452	6.88
823.194	5.88
823.936	7.88
824.678	6.88
825.42	6.88
826.162	6.88
826.904	4.88
827.646	8.88
828.388	8.88
829.129	4.88
829.871	8.88
830.612	5.88
831.354	6.88
832.095	6.88
832.836	4.88
833.577	4.88
834.319	5.88
835.06	4.88
835.801	4.88
836.542	4.88
837.282	5.88
838.023	6.88
838.764	5.88
839.504	3.88
840.245	3.88
840.985	4.88
841.726	2.88
842.466	7.88
843.206	8.88
843.946	7.88
844.687	2.88
845.427	7.88
846.166	2.88
846.906	5.88
847.646	8.88
848.386	3.88
849.125	3.88
849.865	4.88
850.605	4.88
851.344	0.88
852.083	6.88
852.823	4.88
853.562	3.88
854.301	5.88
855.04	4.88
855.779	4.88
856.518	2.88
857.257	4.88
857.995	4.88
858.734	3.88
859.473	3.88
860.211	1.88
860.95	6.88
861.688	4.88
862.426	2.88
863.165	2.88
863.903	1.88
864.641	2.88
865.379	2.88
866.117	4.88
866.855	2.88
867.593	1.88
868.33	0.88
869.068	0.88
869.806	2.88
870.543	2.88
871.28	3.88
872.018	4.88
872.755	2.88
873.492	0.88
874.229	0.88
874.967	1.88
875.703	3.88
876.44	1.88
877.177	-0.12
877.914	2.88
878.651	-0.12
879.387	0.88
880.124	1.88
880.86	2.88
881.597	1.88
882.333	1.88
883.069	2.88
883.806	2.88
884.542	1.88
885.278	0.88
886.014	0.88
886.749	1.88
887.485	0.88
888.221	0.88
888.957	1.88
889.692	2.88
890.428	0.88
891.163	2.88
891.899	1.88
892.634	-1.12
893.369	2.88
894.104	1.88
894.839	-1.12
895.574	0.88
896.309	0.88
897.044	1.88
897.779	1.88
898.514	1.88
899.248	0.88
899.983	0.88
900.717	-0.12
901.452	1.88
902.186	-0.12
902.92	-1.12
903.654	-0.12
904.389	1.88
905.123	2.88
905.857	0.88
906.59	1.88
907.324	-1.12
908.058	-1.12
908.792	0.88
909.525	-0.12
910.259	2.88
910.992	1.88
911.726	0.88
912.459	0.88
913.192	-0.12
913.925	1.88
914.658	-0.12
915.391	0.88
916.124	-0.12
916.857	-0.12
917.59	0.88
918.323	1.88
919.055	1.88
919.788	1.88
920.521	2.88
921.253	0.88
921.985	-1.12
922.718	0.88
923.45	1.88
924.182	-0.12
924.914	0.88
925.646	1.88
926.378	1.88
927.11	0.88
927.841	-0.12
928.573	0.88
929.305	-0.12
930.036	-1.12
930.768	-1.12
931.499	-1.12
932.23	-0.12
932.962	1.88
933.693	0.88
934.424	-0.12
935.155	0.88
935.886	-0.12
936.617	-0.12
937.348	-0.12
938.078	-0.12
938.809	0.88
939.54	1.88
940.27	0.88
941.001	-0.12
941.731	0.88
942.461	-0.12
943.191	-0.12
943.922	-0.12
944.652	-0.12
945.382	1.88
946.112	0.88
946.841	1.88
947.571	-0.12
948.301	-1.12
949.031	0.88
949.76	-0.12
950.49	-1.12
951.219	-0.12
951.948	-0.12
952.678	-3.12
953.407	-0.12
954.136	-0.12
954.865	-1.12
955.594	0.88
956.323	0.88
957.052	1.88
957.78	1.88
958.509	-1.12
959.238	0.88
959.966	-1.12
960.695	-1.12
961.423	0.88
962.151	-0.12
962.88	1.88
963.608	0.88
964.336	-1.12
965.064	0.88
965.792	1.88
966.52	0.88
967.247	-0.12
967.975	-0.12
968.703	0.88
969.43	0.88
970.158	-1.12
970.885	-1.12
971.613	-0.12
972.34	0.88
973.067	0.88
973.794	0.88
974.521	-0.12
975.248	1.88
975.975	-2.12
976.702	0.88
977.429	-1.12
978.156	0.88
978.882	-0.12
979.609	-0.12
980.335	-2.12
981.062	-1.12
981.788	-1.12
982.514	0.88
983.24	-0.12
983.967	-0.12
984.693	0.88
985.419	0.88
986.144	-2.12
986.87	0.88
987.596	-1.12
988.322	-1.12
989.047	0.88
989.773	0.88
990.498	-1.12
991.224	1.88
991.949	-0.12
992.674	-0.12
993.399	1.88
994.124	0.88
994.849	-0.12
995.574	-1.12
996.299	1.88
997.024	-1.12
997.749	0.88
998.473	0.88
999.198	2.88
999.922	0.88
1000.647	0.88
1001.371	1.88
1002.095	-0.12
1002.82	1.88
1003.544	-3.12
1004.268	4.88
1004.992	4.88
1005.716	2.88
1006.439	4.88
1007.163	4.88
1007.887	3.88
1008.611	1.88
1009.334	-1.12
1010.058	-0.12
1010.781	0.88
1011.504	-0.12
1012.228	0.88
1012.951	-1.12
1013.674	0.88
1014.397	-1.12
1015.12	0.88
