节点500_705_QEPB04081__440__20-52-09-721.txt的数据

Date: Wed Nov 12 20:52:09 CST 2025
User: PC
Spectrometer: QEPB0408
触发模式: 0
积分时间 (秒): 1.000000E-2
Scans to average: 1
启用暗噪声校正: true
启用非线性校正: false
滑动平均宽度: 0
X轴模式: Wavelengths
Number of Pixels in Spectrum: 1044
>>>>>Begin Spectral Data<<<<<
220.843	5.88
221.644	3.88
222.444	6.88
223.244	6.88
224.045	7.88
224.845	6.88
225.645	6.88
226.445	5.88
227.245	6.88
228.045	5.88
228.845	9.88
229.645	6.88
230.444	8.88
231.244	5.88
232.043	9.88
232.843	7.88
233.642	8.88
234.442	6.88
235.241	12.88
236.04	8.88
236.839	9.88
237.638	9.88
238.437	9.88
239.236	8.88
240.035	8.88
240.833	12.88
241.632	9.88
242.43	11.88
243.229	13.88
244.027	10.88
244.826	11.88
245.624	11.88
246.422	13.88
247.22	13.88
248.018	12.88
248.816	15.88
249.614	14.88
250.412	15.88
251.21	14.88
252.007	13.88
252.805	14.88
253.602	14.88
254.4	18.88
255.197	18.88
255.994	19.88
256.791	22.88
257.589	19.88
258.386	20.88
259.183	15.88
259.979	19.88
260.776	19.88
261.573	21.88
262.37	23.88
263.166	21.88
263.963	25.88
264.759	24.88
265.556	25.88
266.352	23.88
267.148	28.88
267.944	26.88
268.74	26.88
269.536	29.88
270.332	29.88
271.128	27.88
271.924	29.88
272.719	28.88
273.515	30.88
274.311	33.88
275.106	27.88
275.901	30.88
276.697	31.88
277.492	35.88
278.287	33.88
279.082	32.88
279.877	36.88
280.672	32.88
281.467	34.88
282.262	31.88
283.056	36.88
283.851	32.88
284.646	32.88
285.44	34.88
286.234	29.88
287.029	33.88
287.823	31.88
288.617	32.88
289.411	29.88
290.205	30.88
290.999	32.88
291.793	30.88
292.587	28.88
293.381	30.88
294.174	28.88
294.968	27.88
295.761	28.88
296.555	28.88
297.348	28.88
298.141	28.88
298.935	28.88
299.728	23.88
300.521	27.88
301.314	23.88
302.107	24.88
302.899	26.88
303.692	22.88
304.485	22.88
305.277	22.88
306.07	19.88
306.862	18.88
307.655	18.88
308.447	21.88
309.239	22.88
310.031	21.88
310.823	20.88
311.615	18.88
312.407	14.88
313.199	17.88
313.991	17.88
314.783	13.88
315.574	15.88
316.366	18.88
317.157	18.88
317.949	16.88
318.74	15.88
319.531	14.88
320.322	13.88
321.113	14.88
321.904	15.88
322.695	12.88
323.486	14.88
324.277	12.88
325.068	11.88
325.858	13.88
326.649	13.88
327.439	13.88
328.23	11.88
329.02	12.88
329.81	11.88
330.6	14.88
331.391	12.88
332.181	14.88
332.971	14.88
333.76	10.88
334.55	8.88
335.34	9.88
336.13	10.88
336.919	11.88
337.709	10.88
338.498	12.88
339.287	11.88
340.077	11.88
340.866	9.88
341.655	10.88
342.444	12.88
343.233	11.88
344.022	11.88
344.811	10.88
345.6	12.88
346.388	9.88
347.177	11.88
347.965	9.88
348.754	12.88
349.542	9.88
350.33	8.88
351.119	10.88
351.907	11.88
352.695	9.88
353.483	10.88
354.271	9.88
355.059	12.88
355.846	9.88
356.634	10.88
357.422	10.88
358.209	9.88
358.997	8.88
359.784	10.88
360.571	11.88
361.359	10.88
362.146	11.88
362.933	9.88
363.72	10.88
364.507	8.88
365.294	9.88
366.081	10.88
366.867	10.88
367.654	8.88
368.44	10.88
369.227	8.88
370.013	10.88
370.8	8.88
371.586	8.88
372.372	9.88
373.158	8.88
373.944	8.88
374.73	8.88
375.516	9.88
376.302	10.88
377.088	9.88
377.873	7.88
378.659	8.88
379.445	9.88
380.23	8.88
381.015	9.88
381.801	9.88
382.586	10.88
383.371	10.88
384.156	10.88
384.941	8.88
385.726	11.88
386.511	11.88
387.296	11.88
388.08	11.88
388.865	10.88
389.649	9.88
390.434	11.88
391.218	12.88
392.003	11.88
392.787	12.88
393.571	10.88
394.355	11.88
395.139	10.88
395.923	12.88
396.707	13.88
397.491	12.88
398.274	11.88
399.058	10.88
399.842	12.88
400.625	12.88
401.408	13.88
402.192	15.88
402.975	14.88
403.758	16.88
404.541	12.88
405.324	14.88
406.107	16.88
406.89	13.88
407.673	14.88
408.456	15.88
409.238	16.88
410.021	17.88
410.803	15.88
411.586	15.88
412.368	16.88
413.151	14.88
413.933	15.88
414.715	19.88
415.497	20.88
416.279	19.88
417.061	18.88
417.843	20.88
418.624	19.88
419.406	18.88
420.188	21.88
420.969	21.88
421.751	19.88
422.532	22.88
423.313	20.88
424.095	24.88
424.876	24.88
425.657	24.88
426.438	26.88
427.219	24.88
428	29.88
428.78	29.88
429.561	28.88
430.342	28.88
431.122	30.88
431.903	31.88
432.683	30.88
433.464	34.88
434.244	35.88
435.024	41.88
435.804	40.88
436.584	41.88
437.364	47.88
438.144	46.88
438.924	46.88
439.704	53.88
440.483	58.88
441.263	61.88
442.042	61.88
442.822	72.88
443.601	76.88
444.38	82.88
445.16	88.88
445.939	96.88
446.718	108.88
447.497	111.88
448.276	130.88
449.054	135.88
449.833	144.88
450.612	167.88
451.391	184.88
452.169	205.88
452.948	231.88
453.726	245.88
454.504	277.88
455.282	301.88
456.061	341.88
456.839	376.88
457.617	429.88
458.395	468.88
459.172	526.88
459.95	590.88
460.728	648.88
461.506	733.88
462.283	809.88
463.061	884.88
463.838	1004.88
464.615	1111.88
465.393	1243.88
466.17	1391.88
466.947	1518.88
467.724	1676.88
468.501	1872.88
469.278	2053.88
470.055	2263.88
470.831	2511.88
471.608	2766.88
472.385	3030.88
473.161	3342.88
473.938	3674.88
474.714	3976.88
475.49	4391.88
476.266	4819.88
477.043	5252.88
477.819	5713.88
478.595	6258.88
479.371	6806.88
480.146	7384.88
480.922	8087.88
481.698	8762.88
482.473	9519.88
483.249	10354.88
484.024	11222.88
484.8	12110.88
485.575	13081.88
486.35	14177.88
487.126	15291.88
487.901	16462.88
488.676	17758.88
489.451	19160.88
490.225	20579.88
491	22035.88
491.775	23618.88
492.55	25200.88
493.324	26867.88
494.099	28487.88
494.873	30224.88
495.647	31998.88
496.422	33636.88
497.196	35294.88
497.97	36888.88
498.744	38348.88
499.518	40063.88
500.292	41353.88
501.066	42382.88
501.839	43413.88
502.613	44205.88
503.387	44982.88
504.16	45409.88
504.934	45693.88
505.707	45786.88
506.48	45515.88
507.253	45142.88
508.027	44707.88
508.8	43898.88
509.573	43054.88
510.346	42095.88
511.118	41198.88
511.891	39971.88
512.664	38638.88
513.437	37252.88
514.209	35897.88
514.982	34597.88
515.754	33224.88
516.526	31885.88
517.298	30668.88
518.071	29474.88
518.843	28352.88
519.615	27213.88
520.387	26122.88
521.159	25138.88
521.93	24002.88
522.702	23009.88
523.474	22164.88
524.245	21182.88
525.017	20311.88
525.788	19434.88
526.56	18704.88
527.331	17908.88
528.102	16967.88
528.873	16089.88
529.644	15388.88
530.415	14638.88
531.186	13994.88
531.957	13260.88
532.728	12592.88
533.498	11885.88
534.269	11307.88
535.039	10672.88
535.81	10153.88
536.58	9652.88
537.351	9039.88
538.121	8630.88
538.891	8186.88
539.661	7726.88
540.431	7247.88
541.201	6945.88
541.971	6565.88
542.741	6196.88
543.51	5892.88
544.28	5631.88
545.05	5334.88
545.819	5082.88
546.588	4870.88
547.358	4609.88
548.127	4406.88
548.896	4172.88
549.665	3977.88
550.434	3786.88
551.203	3590.88
551.972	3388.88
552.741	3211.88
553.51	3047.88
554.278	2860.88
555.047	2707.88
555.815	2561.88
556.584	2423.88
557.352	2287.88
558.121	2162.88
558.889	2041.88
559.657	1926.88
560.425	1830.88
561.193	1731.88
561.961	1649.88
562.729	1540.88
563.496	1458.88
564.264	1378.88
565.032	1310.88
565.799	1243.88
566.567	1164.88
567.334	1115.88
568.101	1042.88
568.869	980.88
569.636	937.88
570.403	880.88
571.17	827.88
571.937	784.88
572.704	743.88
573.471	703.88
574.237	655.88
575.004	619.88
575.771	583.88
576.537	546.88
577.303	532.88
578.07	496.88
578.836	463.88
579.602	440.88
580.368	423.88
581.134	391.88
581.9	378.88
582.666	362.88
583.432	355.88
584.198	326.88
584.964	315.88
585.729	296.88
586.495	275.88
587.26	259.88
588.025	244.88
588.791	230.88
589.556	224.88
590.321	211.88
591.086	200.88
591.851	198.88
592.616	184.88
593.381	173.88
594.146	163.88
594.911	154.88
595.675	153.88
596.44	142.88
597.204	141.88
597.969	128.88
598.733	129.88
599.497	118.88
600.261	114.88
601.025	107.88
601.79	106.88
602.553	105.88
603.317	100.88
604.081	94.88
604.845	86.88
605.609	89.88
606.372	79.88
607.136	78.88
607.899	76.88
608.662	72.88
609.426	70.88
610.189	65.88
610.952	61.88
611.715	62.88
612.478	56.88
613.241	59.88
614.004	52.88
614.767	54.88
615.529	57.88
616.292	51.88
617.055	47.88
617.817	49.88
618.579	44.88
619.342	45.88
620.104	44.88
620.866	44.88
621.628	38.88
622.39	35.88
623.152	36.88
623.914	35.88
624.676	32.88
625.438	32.88
626.199	32.88
626.961	29.88
627.722	34.88
628.484	28.88
629.245	29.88
630.006	28.88
630.768	22.88
631.529	28.88
632.29	26.88
633.051	22.88
633.812	25.88
634.573	23.88
635.333	25.88
636.094	24.88
636.855	22.88
637.615	23.88
638.376	19.88
639.136	22.88
639.896	22.88
640.657	19.88
641.417	15.88
642.177	20.88
642.937	16.88
643.697	17.88
644.457	18.88
645.216	16.88
645.976	17.88
646.736	17.88
647.495	13.88
648.255	13.88
649.014	18.88
649.774	16.88
650.533	14.88
651.292	14.88
652.051	14.88
652.81	12.88
653.569	13.88
654.328	10.88
655.087	14.88
655.846	11.88
656.604	10.88
657.363	11.88
658.121	11.88
658.88	13.88
659.638	10.88
660.397	9.88
661.155	11.88
661.913	10.88
662.671	9.88
663.429	10.88
664.187	11.88
664.945	9.88
665.703	8.88
666.46	9.88
667.218	9.88
667.976	10.88
668.733	8.88
669.49	11.88
670.248	7.88
671.005	10.88
671.762	8.88
672.519	8.88
673.276	9.88
674.033	8.88
674.79	10.88
675.547	8.88
676.304	5.88
677.06	6.88
677.817	8.88
678.574	9.88
679.33	6.88
680.086	8.88
680.843	8.88
681.599	7.88
682.355	7.88
683.111	7.88
683.867	8.88
684.623	8.88
685.379	7.88
686.135	8.88
686.89	7.88
687.646	8.88
688.402	6.88
689.157	6.88
689.912	5.88
690.668	6.88
691.423	10.88
692.178	8.88
692.933	7.88
693.688	7.88
694.443	5.88
695.198	8.88
695.953	7.88
696.708	8.88
697.462	6.88
698.217	8.88
698.972	6.88
699.726	5.88
700.48	6.88
701.235	5.88
701.989	8.88
702.743	5.88
703.497	5.88
704.251	7.88
705.005	8.88
705.759	7.88
706.513	6.88
707.266	6.88
708.02	8.88
708.774	9.88
709.527	6.88
710.28	6.88
711.034	5.88
711.787	7.88
712.54	7.88
713.293	7.88
714.046	8.88
714.799	5.88
715.552	7.88
716.305	5.88
717.058	9.88
717.81	6.88
718.563	10.88
719.315	10.88
720.068	8.88
720.82	9.88
721.573	6.88
722.325	6.88
723.077	7.88
723.829	8.88
724.581	8.88
725.333	10.88
726.085	8.88
726.836	8.88
727.588	7.88
728.34	7.88
729.091	7.88
729.843	5.88
730.594	9.88
731.346	8.88
732.097	8.88
732.848	9.88
733.599	8.88
734.35	8.88
735.101	10.88
735.852	8.88
736.603	9.88
737.354	9.88
738.104	9.88
738.855	8.88
739.605	7.88
740.356	9.88
741.106	13.88
741.856	8.88
742.607	8.88
743.357	10.88
744.107	9.88
744.857	11.88
745.607	9.88
746.357	8.88
747.106	11.88
747.856	9.88
748.606	11.88
749.355	9.88
750.105	12.88
750.854	11.88
751.603	11.88
752.353	9.88
753.102	9.88
753.851	11.88
754.6	11.88
755.349	9.88
756.098	9.88
756.847	9.88
757.595	10.88
758.344	12.88
759.093	11.88
759.841	11.88
760.589	13.88
761.338	11.88
762.086	14.88
762.834	11.88
763.582	9.88
764.331	12.88
765.079	14.88
765.826	13.88
766.574	12.88
767.322	11.88
768.07	12.88
768.817	12.88
769.565	14.88
770.312	13.88
771.06	11.88
771.807	14.88
772.554	10.88
773.302	14.88
774.049	14.88
774.796	14.88
775.543	13.88
776.29	15.88
777.036	13.88
777.783	15.88
778.53	13.88
779.276	12.88
780.023	15.88
780.769	15.88
781.516	14.88
782.262	18.88
783.008	14.88
783.754	13.88
784.5	15.88
785.246	15.88
785.992	13.88
786.738	14.88
787.484	12.88
788.23	12.88
788.975	15.88
789.721	15.88
790.466	13.88
791.212	14.88
791.957	12.88
792.702	14.88
793.447	13.88
794.193	13.88
794.938	14.88
795.683	13.88
796.427	12.88
797.172	12.88
797.917	12.88
798.662	9.88
799.406	11.88
800.151	12.88
800.895	13.88
801.64	10.88
802.384	10.88
803.128	10.88
803.872	11.88
804.616	10.88
805.36	11.88
806.104	10.88
806.848	12.88
807.592	9.88
808.336	11.88
809.079	9.88
809.823	8.88
810.566	10.88
811.31	6.88
812.053	10.88
812.796	7.88
813.539	7.88
814.283	8.88
815.026	7.88
815.769	11.88
816.511	6.88
817.254	8.88
817.997	6.88
818.74	6.88
819.482	7.88
820.225	6.88
820.967	8.88
821.71	7.88
822.452	7.88
823.194	8.88
823.936	7.88
824.678	7.88
825.42	6.88
826.162	5.88
826.904	5.88
827.646	5.88
828.388	4.88
829.129	4.88
829.871	6.88
830.612	4.88
831.354	7.88
832.095	7.88
832.836	5.88
833.577	6.88
834.319	3.88
835.06	5.88
835.801	6.88
836.542	4.88
837.282	6.88
838.023	6.88
838.764	4.88
839.504	5.88
840.245	4.88
840.985	4.88
841.726	4.88
842.466	4.88
843.206	6.88
843.946	6.88
844.687	4.88
845.427	5.88
846.166	6.88
846.906	3.88
847.646	5.88
848.386	5.88
849.125	5.88
849.865	4.88
850.605	4.88
851.344	4.88
852.083	2.88
852.823	4.88
853.562	5.88
854.301	2.88
855.04	3.88
855.779	2.88
856.518	5.88
857.257	6.88
857.995	5.88
858.734	4.88
859.473	3.88
860.211	4.88
860.95	2.88
861.688	4.88
862.426	1.88
863.165	3.88
863.903	3.88
864.641	3.88
865.379	2.88
866.117	3.88
866.855	4.88
867.593	1.88
868.33	3.88
869.068	-0.12
869.806	-0.12
870.543	4.88
871.28	4.88
872.018	2.88
872.755	4.88
873.492	2.88
874.229	3.88
874.967	1.88
875.703	2.88
876.44	4.88
877.177	-1.12
877.914	2.88
878.651	0.88
879.387	0.88
880.124	3.88
880.86	0.88
881.597	2.88
882.333	1.88
883.069	2.88
883.806	-0.12
884.542	1.88
885.278	0.88
886.014	0.88
886.749	1.88
887.485	0.88
888.221	2.88
888.957	-0.12
889.692	0.88
890.428	3.88
891.163	1.88
891.899	2.88
892.634	1.88
893.369	0.88
894.104	1.88
894.839	1.88
895.574	0.88
896.309	1.88
897.044	-0.12
897.779	2.88
898.514	1.88
899.248	1.88
899.983	0.88
900.717	2.88
901.452	-1.12
902.186	1.88
902.92	-1.12
903.654	0.88
904.389	1.88
905.123	-1.12
905.857	1.88
906.59	1.88
907.324	0.88
908.058	2.88
908.792	-1.12
909.525	2.88
910.259	-1.12
910.992	0.88
911.726	-0.12
912.459	-0.12
913.192	-1.12
913.925	-1.12
914.658	1.88
915.391	-1.12
916.124	0.88
916.857	-1.12
917.59	-0.12
918.323	2.88
919.055	1.88
919.788	0.88
920.521	1.88
921.253	0.88
921.985	-0.12
922.718	0.88
923.45	0.88
924.182	-1.12
924.914	2.88
925.646	1.88
926.378	-1.12
927.11	0.88
927.841	1.88
928.573	0.88
929.305	-0.12
930.036	0.88
930.768	0.88
931.499	2.88
932.23	1.88
932.962	-0.12
933.693	-0.12
934.424	0.88
935.155	-0.12
935.886	1.88
936.617	0.88
937.348	0.88
938.078	0.88
938.809	-0.12
939.54	0.88
940.27	1.88
941.001	2.88
941.731	2.88
942.461	2.88
943.191	0.88
943.922	0.88
944.652	0.88
945.382	-0.12
946.112	1.88
946.841	-1.12
947.571	-1.12
948.301	-1.12
949.031	0.88
949.76	2.88
950.49	-2.12
951.219	0.88
951.948	0.88
952.678	0.88
953.407	1.88
954.136	-1.12
954.865	-0.12
955.594	0.88
956.323	0.88
957.052	2.88
957.78	-0.12
958.509	1.88
959.238	-1.12
959.966	0.88
960.695	-1.12
961.423	1.88
962.151	-1.12
962.88	-1.12
963.608	-0.12
964.336	-0.12
965.064	-2.12
965.792	2.88
966.52	1.88
967.247	0.88
967.975	-1.12
968.703	-1.12
969.43	-1.12
970.158	-1.12
970.885	1.88
971.613	0.88
972.34	-1.12
973.067	0.88
973.794	0.88
974.521	0.88
975.248	1.88
975.975	-0.12
976.702	0.88
977.429	0.88
978.156	0.88
978.882	1.88
979.609	1.88
980.335	0.88
981.062	0.88
981.788	-0.12
982.514	0.88
983.24	-0.12
983.967	-0.12
984.693	0.88
985.419	-1.12
986.144	1.88
986.87	-0.12
987.596	-0.12
988.322	0.88
989.047	1.88
989.773	0.88
990.498	0.88
991.224	-0.12
991.949	-1.12
992.674	0.88
993.399	-0.12
994.124	2.88
994.849	0.88
995.574	0.88
996.299	1.88
997.024	-1.12
997.749	-1.12
998.473	-0.12
999.198	-0.12
999.922	0.88
1000.647	-1.12
1001.371	5.88
1002.095	-2.12
1002.82	-1.12
1003.544	-3.12
1004.268	3.88
1004.992	6.88
1005.716	4.88
1006.439	4.88
1007.163	6.88
1007.887	6.88
1008.611	-0.12
1009.334	1.88
1010.058	-2.12
1010.781	1.88
1011.504	0.88
1012.228	0.88
1012.951	1.88
1013.674	-2.12
1014.397	1.88
1015.12	-1.12
