节点500_705_QEPB04081__136__20-48-09-071.txt的数据

Date: Wed Nov 12 20:48:09 CST 2025
User: PC
Spectrometer: QEPB0408
触发模式: 0
积分时间 (秒): 1.000000E-2
Scans to average: 1
启用暗噪声校正: true
启用非线性校正: false
滑动平均宽度: 0
X轴模式: Wavelengths
Number of Pixels in Spectrum: 1044
>>>>>Begin Spectral Data<<<<<
220.843	6.25
221.644	6.25
222.444	5.25
223.244	5.25
224.045	9.25
224.845	6.25
225.645	7.25
226.445	8.25
227.245	7.25
228.045	7.25
228.845	11.25
229.645	9.25
230.444	9.25
231.244	8.25
232.043	10.25
232.843	11.25
233.642	9.25
234.442	8.25
235.241	11.25
236.04	9.25
236.839	8.25
237.638	10.25
238.437	11.25
239.236	11.25
240.035	13.25
240.833	12.25
241.632	14.25
242.43	15.25
243.229	12.25
244.027	14.25
244.826	11.25
245.624	13.25
246.422	15.25
247.22	18.25
248.018	15.25
248.816	17.25
249.614	15.25
250.412	18.25
251.21	16.25
252.007	20.25
252.805	19.25
253.602	17.25
254.4	19.25
255.197	22.25
255.994	19.25
256.791	19.25
257.589	21.25
258.386	24.25
259.183	24.25
259.979	25.25
260.776	25.25
261.573	26.25
262.37	26.25
263.166	25.25
263.963	28.25
264.759	28.25
265.556	28.25
266.352	29.25
267.148	30.25
267.944	29.25
268.74	32.25
269.536	32.25
270.332	34.25
271.128	31.25
271.924	35.25
272.719	33.25
273.515	34.25
274.311	35.25
275.106	35.25
275.901	33.25
276.697	34.25
277.492	36.25
278.287	34.25
279.082	35.25
279.877	37.25
280.672	33.25
281.467	37.25
282.262	37.25
283.056	38.25
283.851	35.25
284.646	35.25
285.44	33.25
286.234	39.25
287.029	33.25
287.823	37.25
288.617	31.25
289.411	34.25
290.205	32.25
290.999	31.25
291.793	35.25
292.587	31.25
293.381	34.25
294.174	26.25
294.968	28.25
295.761	26.25
296.555	27.25
297.348	30.25
298.141	27.25
298.935	26.25
299.728	26.25
300.521	29.25
301.314	26.25
302.107	24.25
302.899	21.25
303.692	24.25
304.485	23.25
305.277	24.25
306.07	23.25
306.862	24.25
307.655	22.25
308.447	18.25
309.239	19.25
310.031	23.25
310.823	21.25
311.615	19.25
312.407	20.25
313.199	16.25
313.991	19.25
314.783	20.25
315.574	18.25
316.366	18.25
317.157	17.25
317.949	18.25
318.74	15.25
319.531	15.25
320.322	14.25
321.113	14.25
321.904	13.25
322.695	13.25
323.486	14.25
324.277	13.25
325.068	14.25
325.858	15.25
326.649	11.25
327.439	15.25
328.23	11.25
329.02	13.25
329.81	13.25
330.6	14.25
331.391	12.25
332.181	12.25
332.971	11.25
333.76	12.25
334.55	13.25
335.34	11.25
336.13	12.25
336.919	12.25
337.709	13.25
338.498	13.25
339.287	10.25
340.077	13.25
340.866	10.25
341.655	11.25
342.444	11.25
343.233	11.25
344.022	12.25
344.811	11.25
345.6	11.25
346.388	13.25
347.177	11.25
347.965	14.25
348.754	12.25
349.542	12.25
350.33	14.25
351.119	12.25
351.907	9.25
352.695	13.25
353.483	8.25
354.271	12.25
355.059	11.25
355.846	11.25
356.634	9.25
357.422	13.25
358.209	9.25
358.997	12.25
359.784	13.25
360.571	12.25
361.359	11.25
362.146	8.25
362.933	10.25
363.72	10.25
364.507	10.25
365.294	9.25
366.081	11.25
366.867	13.25
367.654	8.25
368.44	10.25
369.227	10.25
370.013	10.25
370.8	9.25
371.586	9.25
372.372	10.25
373.158	9.25
373.944	10.25
374.73	12.25
375.516	11.25
376.302	8.25
377.088	8.25
377.873	10.25
378.659	9.25
379.445	13.25
380.23	14.25
381.015	12.25
381.801	10.25
382.586	10.25
383.371	11.25
384.156	12.25
384.941	11.25
385.726	13.25
386.511	11.25
387.296	13.25
388.08	10.25
388.865	14.25
389.649	12.25
390.434	12.25
391.218	13.25
392.003	11.25
392.787	14.25
393.571	14.25
394.355	11.25
395.139	13.25
395.923	13.25
396.707	13.25
397.491	13.25
398.274	13.25
399.058	14.25
399.842	13.25
400.625	14.25
401.408	15.25
402.192	16.25
402.975	14.25
403.758	15.25
404.541	17.25
405.324	14.25
406.107	16.25
406.89	13.25
407.673	17.25
408.456	17.25
409.238	19.25
410.021	17.25
410.803	18.25
411.586	18.25
412.368	18.25
413.151	18.25
413.933	18.25
414.715	19.25
415.497	17.25
416.279	17.25
417.061	21.25
417.843	20.25
418.624	21.25
419.406	20.25
420.188	21.25
420.969	21.25
421.751	23.25
422.532	24.25
423.313	24.25
424.095	26.25
424.876	24.25
425.657	27.25
426.438	27.25
427.219	27.25
428	28.25
428.78	28.25
429.561	30.25
430.342	29.25
431.122	31.25
431.903	35.25
432.683	33.25
433.464	35.25
434.244	38.25
435.024	39.25
435.804	39.25
436.584	39.25
437.364	45.25
438.144	45.25
438.924	49.25
439.704	53.25
440.483	56.25
441.263	59.25
442.042	62.25
442.822	71.25
443.601	75.25
444.38	78.25
445.16	84.25
445.939	88.25
446.718	101.25
447.497	107.25
448.276	117.25
449.054	130.25
449.833	143.25
450.612	150.25
451.391	169.25
452.169	185.25
452.948	203.25
453.726	233.25
454.504	261.25
455.282	278.25
456.061	314.25
456.839	351.25
457.617	387.25
458.395	451.25
459.172	484.25
459.95	553.25
460.728	602.25
461.506	679.25
462.283	766.25
463.061	850.25
463.838	948.25
464.615	1053.25
465.393	1169.25
466.17	1317.25
466.947	1467.25
467.724	1623.25
468.501	1814.25
469.278	2010.25
470.055	2226.25
470.831	2484.25
471.608	2750.25
472.385	3022.25
473.161	3350.25
473.938	3716.25
474.714	4082.25
475.49	4487.25
476.266	4934.25
477.043	5422.25
477.819	5967.25
478.595	6532.25
479.371	7171.25
480.146	7839.25
480.922	8571.25
481.698	9372.25
482.473	10268.25
483.249	11161.25
484.024	12179.25
484.8	13251.25
485.575	14397.25
486.35	15663.25
487.126	17011.25
487.901	18400.25
488.676	19979.25
489.451	21552.25
490.225	23231.25
491	25006.25
491.775	26733.25
492.55	28629.25
493.324	30561.25
494.099	32441.25
494.873	34357.25
495.647	36263.25
496.422	38207.25
497.196	40001.25
497.97	41705.25
498.744	43236.25
499.518	44876.25
500.292	46194.25
501.066	47123.25
501.839	47960.25
502.613	48628.25
503.387	49021.25
504.16	49355.25
504.934	49239.25
505.707	48844.25
506.48	48387.25
507.253	47673.25
508.027	46680.25
508.8	45538.25
509.573	44335.25
510.346	43083.25
511.118	41773.25
511.891	40355.25
512.664	38728.25
513.437	37273.25
514.209	35748.25
514.982	34262.25
515.754	32774.25
516.526	31481.25
517.298	30226.25
518.071	29010.25
518.843	27760.25
519.615	26671.25
520.387	25621.25
521.159	24602.25
521.93	23525.25
522.702	22569.25
523.474	21577.25
524.245	20674.25
525.017	19717.25
525.788	18826.25
526.56	18025.25
527.331	17261.25
528.102	16330.25
528.873	15458.25
529.644	14758.25
530.415	14044.25
531.186	13301.25
531.957	12642.25
532.728	11953.25
533.498	11320.25
534.269	10683.25
535.039	10122.25
535.81	9569.25
536.58	9002.25
537.351	8525.25
538.121	8100.25
538.891	7678.25
539.661	7251.25
540.431	6862.25
541.201	6515.25
541.971	6151.25
542.741	5851.25
543.51	5512.25
544.28	5267.25
545.05	5038.25
545.819	4779.25
546.588	4557.25
547.358	4351.25
548.127	4117.25
548.896	3914.25
549.665	3735.25
550.434	3506.25
551.203	3312.25
551.972	3154.25
552.741	2984.25
553.51	2815.25
554.278	2649.25
555.047	2503.25
555.815	2365.25
556.584	2234.25
557.352	2102.25
558.121	2005.25
558.889	1871.25
559.657	1767.25
560.425	1678.25
561.193	1604.25
561.961	1499.25
562.729	1421.25
563.496	1356.25
564.264	1275.25
565.032	1186.25
565.799	1145.25
566.567	1076.25
567.334	1024.25
568.101	964.25
568.869	911.25
569.636	852.25
570.403	814.25
571.17	779.25
571.937	727.25
572.704	689.25
573.471	652.25
574.237	611.25
575.004	574.25
575.771	544.25
576.537	509.25
577.303	481.25
578.07	462.25
578.836	423.25
579.602	404.25
580.368	381.25
581.134	363.25
581.9	346.25
582.666	329.25
583.432	315.25
584.198	295.25
584.964	282.25
585.729	278.25
586.495	254.25
587.26	243.25
588.025	232.25
588.791	218.25
589.556	208.25
590.321	197.25
591.086	184.25
591.851	179.25
592.616	169.25
593.381	164.25
594.146	152.25
594.911	151.25
595.675	138.25
596.44	134.25
597.204	130.25
597.969	123.25
598.733	122.25
599.497	110.25
600.261	107.25
601.025	102.25
601.79	98.25
602.553	95.25
603.317	91.25
604.081	91.25
604.845	81.25
605.609	83.25
606.372	77.25
607.136	76.25
607.899	74.25
608.662	71.25
609.426	65.25
610.189	65.25
610.952	61.25
611.715	60.25
612.478	60.25
613.241	55.25
614.004	51.25
614.767	54.25
615.529	48.25
616.292	48.25
617.055	48.25
617.817	46.25
618.579	44.25
619.342	43.25
620.104	41.25
620.866	39.25
621.628	39.25
622.39	40.25
623.152	37.25
623.914	34.25
624.676	35.25
625.438	32.25
626.199	31.25
626.961	28.25
627.722	32.25
628.484	31.25
629.245	29.25
630.006	31.25
630.768	27.25
631.529	27.25
632.29	30.25
633.051	23.25
633.812	22.25
634.573	25.25
635.333	23.25
636.094	24.25
636.855	23.25
637.615	23.25
638.376	19.25
639.136	19.25
639.896	17.25
640.657	19.25
641.417	18.25
642.177	22.25
642.937	17.25
643.697	19.25
644.457	17.25
645.216	19.25
645.976	15.25
646.736	18.25
647.495	17.25
648.255	18.25
649.014	14.25
649.774	15.25
650.533	15.25
651.292	14.25
652.051	16.25
652.81	15.25
653.569	14.25
654.328	12.25
655.087	15.25
655.846	16.25
656.604	12.25
657.363	12.25
658.121	13.25
658.88	14.25
659.638	11.25
660.397	12.25
661.155	13.25
661.913	12.25
662.671	12.25
663.429	10.25
664.187	12.25
664.945	11.25
665.703	9.25
666.46	9.25
667.218	13.25
667.976	13.25
668.733	10.25
669.49	9.25
670.248	11.25
671.005	10.25
671.762	9.25
672.519	7.25
673.276	11.25
674.033	9.25
674.79	5.25
675.547	9.25
676.304	7.25
677.06	10.25
677.817	7.25
678.574	9.25
679.33	9.25
680.086	9.25
680.843	8.25
681.599	7.25
682.355	12.25
683.111	9.25
683.867	8.25
684.623	10.25
685.379	7.25
686.135	10.25
686.89	8.25
687.646	7.25
688.402	9.25
689.157	9.25
689.912	8.25
690.668	8.25
691.423	9.25
692.178	9.25
692.933	6.25
693.688	7.25
694.443	6.25
695.198	8.25
695.953	8.25
696.708	8.25
697.462	8.25
698.217	9.25
698.972	7.25
699.726	7.25
700.48	8.25
701.235	8.25
701.989	8.25
702.743	8.25
703.497	9.25
704.251	8.25
705.005	7.25
705.759	8.25
706.513	8.25
707.266	9.25
708.02	8.25
708.774	7.25
709.527	7.25
710.28	8.25
711.034	8.25
711.787	6.25
712.54	7.25
713.293	10.25
714.046	7.25
714.799	8.25
715.552	8.25
716.305	9.25
717.058	9.25
717.81	8.25
718.563	10.25
719.315	8.25
720.068	7.25
720.82	8.25
721.573	7.25
722.325	10.25
723.077	9.25
723.829	9.25
724.581	9.25
725.333	10.25
726.085	8.25
726.836	7.25
727.588	8.25
728.34	8.25
729.091	11.25
729.843	8.25
730.594	10.25
731.346	10.25
732.097	10.25
732.848	10.25
733.599	9.25
734.35	12.25
735.101	9.25
735.852	8.25
736.603	11.25
737.354	11.25
738.104	11.25
738.855	11.25
739.605	11.25
740.356	12.25
741.106	9.25
741.856	11.25
742.607	12.25
743.357	14.25
744.107	8.25
744.857	12.25
745.607	12.25
746.357	9.25
747.106	15.25
747.856	11.25
748.606	11.25
749.355	10.25
750.105	9.25
750.854	11.25
751.603	11.25
752.353	12.25
753.102	11.25
753.851	13.25
754.6	12.25
755.349	12.25
756.098	11.25
756.847	11.25
757.595	16.25
758.344	13.25
759.093	13.25
759.841	13.25
760.589	13.25
761.338	15.25
762.086	14.25
762.834	13.25
763.582	15.25
764.331	12.25
765.079	17.25
765.826	13.25
766.574	16.25
767.322	15.25
768.07	18.25
768.817	14.25
769.565	14.25
770.312	16.25
771.06	15.25
771.807	16.25
772.554	14.25
773.302	15.25
774.049	15.25
774.796	17.25
775.543	14.25
776.29	18.25
777.036	16.25
777.783	15.25
778.53	17.25
779.276	19.25
780.023	14.25
780.769	18.25
781.516	15.25
782.262	15.25
783.008	17.25
783.754	17.25
784.5	17.25
785.246	11.25
785.992	16.25
786.738	18.25
787.484	14.25
788.23	15.25
788.975	15.25
789.721	18.25
790.466	16.25
791.212	15.25
791.957	18.25
792.702	14.25
793.447	14.25
794.193	13.25
794.938	17.25
795.683	15.25
796.427	13.25
797.172	14.25
797.917	13.25
798.662	14.25
799.406	12.25
800.151	13.25
800.895	14.25
801.64	14.25
802.384	10.25
803.128	11.25
803.872	11.25
804.616	14.25
805.36	12.25
806.104	13.25
806.848	11.25
807.592	12.25
808.336	10.25
809.079	11.25
809.823	11.25
810.566	10.25
811.31	10.25
812.053	10.25
812.796	9.25
813.539	9.25
814.283	11.25
815.026	10.25
815.769	9.25
816.511	10.25
817.254	7.25
817.997	9.25
818.74	10.25
819.482	6.25
820.225	6.25
820.967	6.25
821.71	6.25
822.452	6.25
823.194	6.25
823.936	7.25
824.678	6.25
825.42	5.25
826.162	6.25
826.904	8.25
827.646	8.25
828.388	5.25
829.129	6.25
829.871	4.25
830.612	7.25
831.354	7.25
832.095	6.25
832.836	8.25
833.577	5.25
834.319	5.25
835.06	4.25
835.801	8.25
836.542	5.25
837.282	9.25
838.023	4.25
838.764	4.25
839.504	7.25
840.245	5.25
840.985	6.25
841.726	6.25
842.466	4.25
843.206	7.25
843.946	3.25
844.687	7.25
845.427	3.25
846.166	5.25
846.906	5.25
847.646	5.25
848.386	4.25
849.125	6.25
849.865	8.25
850.605	4.25
851.344	7.25
852.083	5.25
852.823	3.25
853.562	5.25
854.301	6.25
855.04	7.25
855.779	7.25
856.518	4.25
857.257	6.25
857.995	4.25
858.734	4.25
859.473	1.25
860.211	3.25
860.95	4.25
861.688	4.25
862.426	4.25
863.165	3.25
863.903	1.25
864.641	2.25
865.379	4.25
866.117	3.25
866.855	2.25
867.593	3.25
868.33	3.25
869.068	4.25
869.806	2.25
870.543	1.25
871.28	3.25
872.018	2.25
872.755	3.25
873.492	2.25
874.229	3.25
874.967	2.25
875.703	2.25
876.44	0.25
877.177	3.25
877.914	4.25
878.651	3.25
879.387	3.25
880.124	3.25
880.86	3.25
881.597	1.25
882.333	3.25
883.069	2.25
883.806	6.25
884.542	1.25
885.278	3.25
886.014	2.25
886.749	4.25
887.485	2.25
888.221	2.25
888.957	2.25
889.692	3.25
890.428	3.25
891.163	2.25
891.899	0.25
892.634	2.25
893.369	1.25
894.104	1.25
894.839	-0.75
895.574	3.25
896.309	1.25
897.044	1.25
897.779	2.25
898.514	2.25
899.248	3.25
899.983	2.25
900.717	0.25
901.452	1.25
902.186	1.25
902.92	2.25
903.654	5.25
904.389	3.25
905.123	1.25
905.857	1.25
906.59	2.25
907.324	2.25
908.058	1.25
908.792	1.25
909.525	3.25
910.259	2.25
910.992	-0.75
911.726	3.25
912.459	-0.75
913.192	1.25
913.925	2.25
914.658	1.25
915.391	0.25
916.124	0.25
916.857	2.25
917.59	1.25
918.323	0.25
919.055	1.25
919.788	0.25
920.521	0.25
921.253	1.25
921.985	3.25
922.718	2.25
923.45	1.25
924.182	1.25
924.914	2.25
925.646	0.25
926.378	1.25
927.11	3.25
927.841	1.25
928.573	0.25
929.305	1.25
930.036	0.25
930.768	1.25
931.499	1.25
932.23	4.25
932.962	-0.75
933.693	2.25
934.424	0.25
935.155	-0.75
935.886	2.25
936.617	0.25
937.348	1.25
938.078	0.25
938.809	-0.75
939.54	1.25
940.27	1.25
941.001	0.25
941.731	1.25
942.461	1.25
943.191	1.25
943.922	-2.75
944.652	-0.75
945.382	0.25
946.112	0.25
946.841	0.25
947.571	0.25
948.301	2.25
949.031	1.25
949.76	1.25
950.49	2.25
951.219	-1.75
951.948	1.25
952.678	-0.75
953.407	2.25
954.136	1.25
954.865	1.25
955.594	0.25
956.323	3.25
957.052	1.25
957.78	-1.75
958.509	1.25
959.238	-0.75
959.966	-0.75
960.695	0.25
961.423	-1.75
962.151	3.25
962.88	1.25
963.608	0.25
964.336	0.25
965.064	1.25
965.792	0.25
966.52	0.25
967.247	1.25
967.975	0.25
968.703	2.25
969.43	-0.75
970.158	0.25
970.885	1.25
971.613	-1.75
972.34	-1.75
973.067	1.25
973.794	1.25
974.521	0.25
975.248	0.25
975.975	-0.75
976.702	1.25
977.429	2.25
978.156	0.25
978.882	0.25
979.609	0.25
980.335	0.25
981.062	1.25
981.788	-0.75
982.514	-0.75
983.24	2.25
983.967	0.25
984.693	0.25
985.419	1.25
986.144	3.25
986.87	3.25
987.596	-0.75
988.322	-0.75
989.047	-0.75
989.773	1.25
990.498	-0.75
991.224	-1.75
991.949	2.25
992.674	2.25
993.399	1.25
994.124	-0.75
994.849	2.25
995.574	1.25
996.299	-1.75
997.024	2.25
997.749	1.25
998.473	0.25
999.198	0.25
999.922	1.25
1000.647	-0.75
1001.371	3.25
1002.095	-2.75
1002.82	0.25
1003.544	0.25
1004.268	5.25
1004.992	4.25
1005.716	5.25
1006.439	7.25
1007.163	5.25
1007.887	5.25
1008.611	3.25
1009.334	1.25
1010.058	-0.75
1010.781	0.25
1011.504	-0.75
1012.228	0.25
1012.951	-0.75
1013.674	0.25
1014.397	0.25
1015.12	-0.75
