节点500_705_QEPB04081__528__20-53-24-725.txt的数据

Date: Wed Nov 12 20:53:24 CST 2025
User: PC
Spectrometer: QEPB0408
触发模式: 0
积分时间 (秒): 1.000000E-2
Scans to average: 1
启用暗噪声校正: true
启用非线性校正: false
滑动平均宽度: 0
X轴模式: Wavelengths
Number of Pixels in Spectrum: 1044
>>>>>Begin Spectral Data<<<<<
220.843	4.25
221.644	6.25
222.444	7.25
223.244	7.25
224.045	7.25
224.845	7.25
225.645	6.25
226.445	6.25
227.245	5.25
228.045	6.25
228.845	8.25
229.645	8.25
230.444	9.25
231.244	7.25
232.043	8.25
232.843	10.25
233.642	8.25
234.442	10.25
235.241	5.25
236.04	10.25
236.839	11.25
237.638	10.25
238.437	12.25
239.236	11.25
240.035	11.25
240.833	12.25
241.632	13.25
242.43	10.25
243.229	11.25
244.027	13.25
244.826	14.25
245.624	11.25
246.422	10.25
247.22	14.25
248.018	12.25
248.816	15.25
249.614	14.25
250.412	15.25
251.21	15.25
252.007	15.25
252.805	15.25
253.602	17.25
254.4	17.25
255.197	17.25
255.994	18.25
256.791	20.25
257.589	18.25
258.386	18.25
259.183	20.25
259.979	19.25
260.776	23.25
261.573	20.25
262.37	21.25
263.166	25.25
263.963	25.25
264.759	25.25
265.556	23.25
266.352	26.25
267.148	26.25
267.944	23.25
268.74	28.25
269.536	28.25
270.332	27.25
271.128	29.25
271.924	31.25
272.719	29.25
273.515	28.25
274.311	30.25
275.106	30.25
275.901	29.25
276.697	31.25
277.492	30.25
278.287	31.25
279.082	31.25
279.877	33.25
280.672	32.25
281.467	33.25
282.262	32.25
283.056	31.25
283.851	32.25
284.646	34.25
285.44	33.25
286.234	34.25
287.029	35.25
287.823	33.25
288.617	27.25
289.411	32.25
290.205	31.25
290.999	31.25
291.793	31.25
292.587	30.25
293.381	29.25
294.174	26.25
294.968	30.25
295.761	23.25
296.555	27.25
297.348	27.25
298.141	27.25
298.935	27.25
299.728	26.25
300.521	26.25
301.314	24.25
302.107	23.25
302.899	21.25
303.692	21.25
304.485	22.25
305.277	20.25
306.07	21.25
306.862	22.25
307.655	22.25
308.447	20.25
309.239	21.25
310.031	21.25
310.823	17.25
311.615	17.25
312.407	17.25
313.199	19.25
313.991	18.25
314.783	17.25
315.574	19.25
316.366	18.25
317.157	16.25
317.949	12.25
318.74	13.25
319.531	13.25
320.322	11.25
321.113	14.25
321.904	13.25
322.695	15.25
323.486	13.25
324.277	11.25
325.068	14.25
325.858	11.25
326.649	14.25
327.439	14.25
328.23	9.25
329.02	12.25
329.81	11.25
330.6	13.25
331.391	14.25
332.181	11.25
332.971	12.25
333.76	9.25
334.55	14.25
335.34	10.25
336.13	13.25
336.919	14.25
337.709	13.25
338.498	12.25
339.287	10.25
340.077	11.25
340.866	13.25
341.655	13.25
342.444	10.25
343.233	11.25
344.022	13.25
344.811	14.25
345.6	13.25
346.388	10.25
347.177	14.25
347.965	9.25
348.754	10.25
349.542	12.25
350.33	9.25
351.119	10.25
351.907	13.25
352.695	13.25
353.483	14.25
354.271	11.25
355.059	13.25
355.846	11.25
356.634	10.25
357.422	12.25
358.209	8.25
358.997	14.25
359.784	10.25
360.571	10.25
361.359	8.25
362.146	10.25
362.933	10.25
363.72	10.25
364.507	11.25
365.294	8.25
366.081	7.25
366.867	12.25
367.654	11.25
368.44	11.25
369.227	7.25
370.013	9.25
370.8	10.25
371.586	7.25
372.372	9.25
373.158	10.25
373.944	11.25
374.73	9.25
375.516	10.25
376.302	9.25
377.088	9.25
377.873	7.25
378.659	8.25
379.445	11.25
380.23	8.25
381.015	8.25
381.801	8.25
382.586	9.25
383.371	8.25
384.156	10.25
384.941	10.25
385.726	11.25
386.511	11.25
387.296	9.25
388.08	11.25
388.865	10.25
389.649	12.25
390.434	9.25
391.218	15.25
392.003	10.25
392.787	12.25
393.571	9.25
394.355	12.25
395.139	13.25
395.923	11.25
396.707	12.25
397.491	12.25
398.274	10.25
399.058	11.25
399.842	13.25
400.625	16.25
401.408	14.25
402.192	12.25
402.975	14.25
403.758	11.25
404.541	13.25
405.324	15.25
406.107	15.25
406.89	15.25
407.673	13.25
408.456	14.25
409.238	15.25
410.021	16.25
410.803	19.25
411.586	19.25
412.368	16.25
413.151	18.25
413.933	19.25
414.715	19.25
415.497	17.25
416.279	16.25
417.061	19.25
417.843	19.25
418.624	19.25
419.406	18.25
420.188	20.25
420.969	20.25
421.751	22.25
422.532	22.25
423.313	21.25
424.095	24.25
424.876	24.25
425.657	24.25
426.438	28.25
427.219	26.25
428	26.25
428.78	31.25
429.561	31.25
430.342	31.25
431.122	29.25
431.903	31.25
432.683	31.25
433.464	36.25
434.244	37.25
435.024	40.25
435.804	44.25
436.584	43.25
437.364	46.25
438.144	52.25
438.924	50.25
439.704	59.25
440.483	58.25
441.263	63.25
442.042	68.25
442.822	74.25
443.601	78.25
444.38	81.25
445.16	89.25
445.939	96.25
446.718	105.25
447.497	115.25
448.276	128.25
449.054	143.25
449.833	151.25
450.612	171.25
451.391	186.25
452.169	209.25
452.948	230.25
453.726	259.25
454.504	282.25
455.282	314.25
456.061	344.25
456.839	386.25
457.617	434.25
458.395	488.25
459.172	530.25
459.95	599.25
460.728	666.25
461.506	728.25
462.283	828.25
463.061	917.25
463.838	1020.25
464.615	1118.25
465.393	1240.25
466.17	1374.25
466.947	1530.25
467.724	1704.25
468.501	1869.25
469.278	2069.25
470.055	2272.25
470.831	2498.25
471.608	2749.25
472.385	3042.25
473.161	3341.25
473.938	3637.25
474.714	3963.25
475.49	4384.25
476.266	4745.25
477.043	5191.25
477.819	5615.25
478.595	6132.25
479.371	6656.25
480.146	7233.25
480.922	7898.25
481.698	8572.25
482.473	9275.25
483.249	10057.25
484.024	10879.25
484.8	11754.25
485.575	12665.25
486.35	13691.25
487.126	14780.25
487.901	15902.25
488.676	17157.25
489.451	18453.25
490.225	19790.25
491	21201.25
491.775	22631.25
492.55	24143.25
493.324	25736.25
494.099	27293.25
494.873	28920.25
495.647	30567.25
496.422	32220.25
497.196	33833.25
497.97	35453.25
498.744	36881.25
499.518	38470.25
500.292	39788.25
501.066	40882.25
501.839	41795.25
502.613	42748.25
503.387	43460.25
504.16	44009.25
504.934	44376.25
505.707	44632.25
506.48	44482.25
507.253	44171.25
508.027	43765.25
508.8	43151.25
509.573	42380.25
510.346	41591.25
511.118	40752.25
511.891	39631.25
512.664	38344.25
513.437	37024.25
514.209	35811.25
514.982	34440.25
515.754	33249.25
516.526	31923.25
517.298	30615.25
518.071	29527.25
518.843	28370.25
519.615	27159.25
520.387	26134.25
521.159	25118.25
521.93	24116.25
522.702	23103.25
523.474	22121.25
524.245	21291.25
525.017	20312.25
525.788	19510.25
526.56	18766.25
527.331	17950.25
528.102	17105.25
528.873	16210.25
529.644	15471.25
530.415	14796.25
531.186	14094.25
531.957	13335.25
532.728	12697.25
533.498	12043.25
534.269	11422.25
535.039	10849.25
535.81	10325.25
536.58	9752.25
537.351	9257.25
538.121	8752.25
538.891	8257.25
539.661	7788.25
540.431	7391.25
541.201	6997.25
541.971	6633.25
542.741	6287.25
543.51	5994.25
544.28	5724.25
545.05	5415.25
545.819	5146.25
546.588	4912.25
547.358	4689.25
548.127	4472.25
548.896	4223.25
549.665	4019.25
550.434	3822.25
551.203	3629.25
551.972	3445.25
552.741	3270.25
553.51	3075.25
554.278	2903.25
555.047	2743.25
555.815	2603.25
556.584	2476.25
557.352	2319.25
558.121	2217.25
558.889	2103.25
559.657	1963.25
560.425	1857.25
561.193	1774.25
561.961	1671.25
562.729	1576.25
563.496	1481.25
564.264	1411.25
565.032	1348.25
565.799	1265.25
566.567	1200.25
567.334	1140.25
568.101	1067.25
568.869	1011.25
569.636	957.25
570.403	910.25
571.17	847.25
571.937	800.25
572.704	748.25
573.471	707.25
574.237	678.25
575.004	640.25
575.771	597.25
576.537	567.25
577.303	535.25
578.07	513.25
578.836	473.25
579.602	450.25
580.368	433.25
581.134	416.25
581.9	390.25
582.666	370.25
583.432	344.25
584.198	343.25
584.964	315.25
585.729	299.25
586.495	276.25
587.26	261.25
588.025	255.25
588.791	241.25
589.556	228.25
590.321	218.25
591.086	209.25
591.851	194.25
592.616	183.25
593.381	174.25
594.146	167.25
594.911	166.25
595.675	157.25
596.44	149.25
597.204	143.25
597.969	138.25
598.733	127.25
599.497	119.25
600.261	118.25
601.025	114.25
601.79	112.25
602.553	109.25
603.317	97.25
604.081	94.25
604.845	90.25
605.609	83.25
606.372	81.25
607.136	81.25
607.899	71.25
608.662	73.25
609.426	72.25
610.189	69.25
610.952	68.25
611.715	64.25
612.478	62.25
613.241	60.25
614.004	54.25
614.767	59.25
615.529	53.25
616.292	50.25
617.055	49.25
617.817	50.25
618.579	47.25
619.342	45.25
620.104	46.25
620.866	43.25
621.628	41.25
622.39	40.25
623.152	36.25
623.914	39.25
624.676	38.25
625.438	36.25
626.199	33.25
626.961	34.25
627.722	32.25
628.484	31.25
629.245	29.25
630.006	27.25
630.768	27.25
631.529	28.25
632.29	25.25
633.051	24.25
633.812	26.25
634.573	25.25
635.333	25.25
636.094	22.25
636.855	22.25
637.615	20.25
638.376	21.25
639.136	20.25
639.896	19.25
640.657	21.25
641.417	20.25
642.177	20.25
642.937	16.25
643.697	19.25
644.457	17.25
645.216	17.25
645.976	17.25
646.736	15.25
647.495	14.25
648.255	15.25
649.014	19.25
649.774	12.25
650.533	15.25
651.292	15.25
652.051	13.25
652.81	14.25
653.569	13.25
654.328	13.25
655.087	15.25
655.846	11.25
656.604	10.25
657.363	11.25
658.121	11.25
658.88	12.25
659.638	11.25
660.397	11.25
661.155	11.25
661.913	11.25
662.671	13.25
663.429	10.25
664.187	10.25
664.945	10.25
665.703	9.25
666.46	9.25
667.218	10.25
667.976	11.25
668.733	9.25
669.49	11.25
670.248	9.25
671.005	10.25
671.762	8.25
672.519	8.25
673.276	9.25
674.033	11.25
674.79	9.25
675.547	8.25
676.304	7.25
677.06	9.25
677.817	9.25
678.574	11.25
679.33	6.25
680.086	7.25
680.843	7.25
681.599	8.25
682.355	8.25
683.111	6.25
683.867	10.25
684.623	5.25
685.379	8.25
686.135	8.25
686.89	8.25
687.646	8.25
688.402	8.25
689.157	7.25
689.912	8.25
690.668	6.25
691.423	8.25
692.178	8.25
692.933	8.25
693.688	9.25
694.443	9.25
695.198	8.25
695.953	7.25
696.708	5.25
697.462	5.25
698.217	10.25
698.972	7.25
699.726	8.25
700.48	7.25
701.235	7.25
701.989	9.25
702.743	8.25
703.497	7.25
704.251	8.25
705.005	10.25
705.759	6.25
706.513	5.25
707.266	7.25
708.02	9.25
708.774	7.25
709.527	9.25
710.28	7.25
711.034	8.25
711.787	7.25
712.54	8.25
713.293	4.25
714.046	8.25
714.799	5.25
715.552	8.25
716.305	9.25
717.058	10.25
717.81	6.25
718.563	5.25
719.315	10.25
720.068	6.25
720.82	8.25
721.573	9.25
722.325	8.25
723.077	8.25
723.829	6.25
724.581	7.25
725.333	8.25
726.085	7.25
726.836	8.25
727.588	8.25
728.34	8.25
729.091	9.25
729.843	6.25
730.594	9.25
731.346	6.25
732.097	9.25
732.848	9.25
733.599	7.25
734.35	8.25
735.101	7.25
735.852	8.25
736.603	7.25
737.354	9.25
738.104	10.25
738.855	7.25
739.605	10.25
740.356	8.25
741.106	9.25
741.856	8.25
742.607	11.25
743.357	11.25
744.107	8.25
744.857	11.25
745.607	9.25
746.357	7.25
747.106	7.25
747.856	9.25
748.606	9.25
749.355	9.25
750.105	11.25
750.854	11.25
751.603	9.25
752.353	11.25
753.102	10.25
753.851	13.25
754.6	13.25
755.349	12.25
756.098	13.25
756.847	11.25
757.595	13.25
758.344	11.25
759.093	13.25
759.841	10.25
760.589	13.25
761.338	12.25
762.086	13.25
762.834	12.25
763.582	13.25
764.331	12.25
765.079	13.25
765.826	13.25
766.574	13.25
767.322	11.25
768.07	13.25
768.817	13.25
769.565	12.25
770.312	13.25
771.06	13.25
771.807	13.25
772.554	11.25
773.302	13.25
774.049	15.25
774.796	16.25
775.543	13.25
776.29	15.25
777.036	12.25
777.783	15.25
778.53	13.25
779.276	13.25
780.023	14.25
780.769	15.25
781.516	13.25
782.262	15.25
783.008	15.25
783.754	16.25
784.5	15.25
785.246	15.25
785.992	15.25
786.738	15.25
787.484	16.25
788.23	15.25
788.975	15.25
789.721	13.25
790.466	15.25
791.212	13.25
791.957	15.25
792.702	14.25
793.447	16.25
794.193	12.25
794.938	15.25
795.683	12.25
796.427	14.25
797.172	12.25
797.917	11.25
798.662	13.25
799.406	12.25
800.151	9.25
800.895	11.25
801.64	14.25
802.384	11.25
803.128	12.25
803.872	9.25
804.616	11.25
805.36	11.25
806.104	13.25
806.848	11.25
807.592	11.25
808.336	8.25
809.079	11.25
809.823	11.25
810.566	8.25
811.31	9.25
812.053	7.25
812.796	9.25
813.539	9.25
814.283	10.25
815.026	6.25
815.769	8.25
816.511	7.25
817.254	8.25
817.997	10.25
818.74	6.25
819.482	6.25
820.225	8.25
820.967	7.25
821.71	6.25
822.452	6.25
823.194	7.25
823.936	7.25
824.678	7.25
825.42	9.25
826.162	7.25
826.904	7.25
827.646	7.25
828.388	6.25
829.129	8.25
829.871	8.25
830.612	6.25
831.354	7.25
832.095	6.25
832.836	8.25
833.577	6.25
834.319	7.25
835.06	4.25
835.801	7.25
836.542	5.25
837.282	5.25
838.023	7.25
838.764	5.25
839.504	7.25
840.245	4.25
840.985	7.25
841.726	6.25
842.466	7.25
843.206	6.25
843.946	6.25
844.687	6.25
845.427	3.25
846.166	5.25
846.906	6.25
847.646	3.25
848.386	5.25
849.125	3.25
849.865	3.25
850.605	3.25
851.344	6.25
852.083	4.25
852.823	7.25
853.562	5.25
854.301	5.25
855.04	3.25
855.779	3.25
856.518	3.25
857.257	2.25
857.995	3.25
858.734	2.25
859.473	3.25
860.211	6.25
860.95	1.25
861.688	3.25
862.426	3.25
863.165	4.25
863.903	4.25
864.641	3.25
865.379	3.25
866.117	3.25
866.855	4.25
867.593	2.25
868.33	4.25
869.068	3.25
869.806	1.25
870.543	3.25
871.28	3.25
872.018	1.25
872.755	4.25
873.492	-0.75
874.229	2.25
874.967	1.25
875.703	3.25
876.44	0.25
877.177	3.25
877.914	2.25
878.651	2.25
879.387	2.25
880.124	1.25
880.86	3.25
881.597	3.25
882.333	3.25
883.069	1.25
883.806	2.25
884.542	1.25
885.278	-0.75
886.014	4.25
886.749	2.25
887.485	-0.75
888.221	2.25
888.957	0.25
889.692	1.25
890.428	1.25
891.163	2.25
891.899	1.25
892.634	-0.75
893.369	2.25
894.104	1.25
894.839	1.25
895.574	4.25
896.309	3.25
897.044	0.25
897.779	0.25
898.514	2.25
899.248	1.25
899.983	0.25
900.717	2.25
901.452	3.25
902.186	1.25
902.92	1.25
903.654	1.25
904.389	0.25
905.123	0.25
905.857	0.25
906.59	2.25
907.324	3.25
908.058	2.25
908.792	1.25
909.525	1.25
910.259	-0.75
910.992	3.25
911.726	0.25
912.459	1.25
913.192	2.25
913.925	1.25
914.658	2.25
915.391	1.25
916.124	0.25
916.857	-0.75
917.59	1.25
918.323	2.25
919.055	0.25
919.788	1.25
920.521	0.25
921.253	1.25
921.985	2.25
922.718	2.25
923.45	-2.75
924.182	1.25
924.914	1.25
925.646	-0.75
926.378	1.25
927.11	-0.75
927.841	1.25
928.573	0.25
929.305	1.25
930.036	0.25
930.768	2.25
931.499	2.25
932.23	1.25
932.962	0.25
933.693	1.25
934.424	-1.75
935.155	0.25
935.886	0.25
936.617	0.25
937.348	3.25
938.078	0.25
938.809	-1.75
939.54	0.25
940.27	1.25
941.001	1.25
941.731	-0.75
942.461	1.25
943.191	1.25
943.922	1.25
944.652	2.25
945.382	1.25
946.112	-0.75
946.841	3.25
947.571	-0.75
948.301	-0.75
949.031	1.25
949.76	1.25
950.49	2.25
951.219	1.25
951.948	0.25
952.678	1.25
953.407	-0.75
954.136	0.25
954.865	-0.75
955.594	1.25
956.323	-0.75
957.052	-0.75
957.78	1.25
958.509	1.25
959.238	1.25
959.966	-0.75
960.695	0.25
961.423	0.25
962.151	-0.75
962.88	1.25
963.608	-0.75
964.336	0.25
965.064	0.25
965.792	1.25
966.52	2.25
967.247	0.25
967.975	-0.75
968.703	0.25
969.43	1.25
970.158	0.25
970.885	0.25
971.613	0.25
972.34	-0.75
973.067	0.25
973.794	1.25
974.521	-1.75
975.248	4.25
975.975	-0.75
976.702	3.25
977.429	1.25
978.156	0.25
978.882	1.25
979.609	1.25
980.335	2.25
981.062	-0.75
981.788	0.25
982.514	0.25
983.24	2.25
983.967	-0.75
984.693	-0.75
985.419	0.25
986.144	0.25
986.87	1.25
987.596	1.25
988.322	-0.75
989.047	-0.75
989.773	-1.75
990.498	2.25
991.224	-0.75
991.949	1.25
992.674	1.25
993.399	-0.75
994.124	2.25
994.849	2.25
995.574	2.25
996.299	2.25
997.024	0.25
997.749	0.25
998.473	-0.75
999.198	0.25
999.922	2.25
1000.647	1.25
1001.371	3.25
1002.095	-0.75
1002.82	-0.75
1003.544	-0.75
1004.268	2.25
1004.992	4.25
1005.716	4.25
1006.439	5.25
1007.163	4.25
1007.887	5.25
1008.611	1.25
1009.334	0.25
1010.058	-0.75
1010.781	-1.75
1011.504	0.25
1012.228	2.25
1012.951	0.25
1013.674	1.25
1014.397	-1.75
1015.12	-0.75
