节点500_705_QEPB04081__65__20-46-58-302.txt的数据

Date: Wed Nov 12 20:46:58 CST 2025
User: PC
Spectrometer: QEPB0408
触发模式: 0
积分时间 (秒): 1.000000E-2
Scans to average: 1
启用暗噪声校正: true
启用非线性校正: false
滑动平均宽度: 0
X轴模式: Wavelengths
Number of Pixels in Spectrum: 1044
>>>>>Begin Spectral Data<<<<<
220.843	4.75
221.644	7.75
222.444	6.75
223.244	7.75
224.045	7.75
224.845	7.75
225.645	9.75
226.445	7.75
227.245	7.75
228.045	5.75
228.845	8.75
229.645	8.75
230.444	6.75
231.244	9.75
232.043	9.75
232.843	9.75
233.642	9.75
234.442	11.75
235.241	9.75
236.04	9.75
236.839	12.75
237.638	10.75
238.437	10.75
239.236	11.75
240.035	11.75
240.833	11.75
241.632	11.75
242.43	12.75
243.229	14.75
244.027	16.75
244.826	14.75
245.624	13.75
246.422	15.75
247.22	13.75
248.018	17.75
248.816	12.75
249.614	15.75
250.412	15.75
251.21	12.75
252.007	15.75
252.805	16.75
253.602	19.75
254.4	17.75
255.197	19.75
255.994	19.75
256.791	20.75
257.589	23.75
258.386	24.75
259.183	22.75
259.979	22.75
260.776	24.75
261.573	26.75
262.37	29.75
263.166	27.75
263.963	27.75
264.759	25.75
265.556	27.75
266.352	29.75
267.148	30.75
267.944	31.75
268.74	33.75
269.536	33.75
270.332	35.75
271.128	32.75
271.924	34.75
272.719	33.75
273.515	32.75
274.311	32.75
275.106	34.75
275.901	32.75
276.697	37.75
277.492	35.75
278.287	37.75
279.082	37.75
279.877	35.75
280.672	35.75
281.467	38.75
282.262	35.75
283.056	38.75
283.851	35.75
284.646	34.75
285.44	37.75
286.234	34.75
287.029	36.75
287.823	35.75
288.617	34.75
289.411	33.75
290.205	34.75
290.999	35.75
291.793	34.75
292.587	32.75
293.381	30.75
294.174	29.75
294.968	28.75
295.761	26.75
296.555	24.75
297.348	29.75
298.141	25.75
298.935	30.75
299.728	26.75
300.521	24.75
301.314	26.75
302.107	23.75
302.899	24.75
303.692	23.75
304.485	24.75
305.277	21.75
306.07	20.75
306.862	21.75
307.655	18.75
308.447	20.75
309.239	18.75
310.031	17.75
310.823	19.75
311.615	19.75
312.407	17.75
313.199	15.75
313.991	18.75
314.783	14.75
315.574	15.75
316.366	13.75
317.157	14.75
317.949	15.75
318.74	16.75
319.531	13.75
320.322	13.75
321.113	12.75
321.904	13.75
322.695	14.75
323.486	12.75
324.277	13.75
325.068	12.75
325.858	13.75
326.649	14.75
327.439	11.75
328.23	12.75
329.02	12.75
329.81	13.75
330.6	10.75
331.391	13.75
332.181	12.75
332.971	11.75
333.76	10.75
334.55	12.75
335.34	11.75
336.13	11.75
336.919	11.75
337.709	13.75
338.498	13.75
339.287	10.75
340.077	10.75
340.866	13.75
341.655	12.75
342.444	12.75
343.233	13.75
344.022	13.75
344.811	10.75
345.6	10.75
346.388	11.75
347.177	10.75
347.965	11.75
348.754	10.75
349.542	10.75
350.33	10.75
351.119	10.75
351.907	11.75
352.695	9.75
353.483	11.75
354.271	9.75
355.059	10.75
355.846	10.75
356.634	8.75
357.422	12.75
358.209	7.75
358.997	11.75
359.784	12.75
360.571	9.75
361.359	10.75
362.146	12.75
362.933	8.75
363.72	11.75
364.507	8.75
365.294	9.75
366.081	9.75
366.867	6.75
367.654	9.75
368.44	8.75
369.227	11.75
370.013	9.75
370.8	10.75
371.586	8.75
372.372	7.75
373.158	12.75
373.944	9.75
374.73	9.75
375.516	10.75
376.302	11.75
377.088	8.75
377.873	8.75
378.659	10.75
379.445	8.75
380.23	9.75
381.015	10.75
381.801	9.75
382.586	11.75
383.371	10.75
384.156	12.75
384.941	11.75
385.726	9.75
386.511	10.75
387.296	11.75
388.08	11.75
388.865	10.75
389.649	11.75
390.434	10.75
391.218	11.75
392.003	11.75
392.787	11.75
393.571	10.75
394.355	10.75
395.139	14.75
395.923	10.75
396.707	11.75
397.491	13.75
398.274	12.75
399.058	16.75
399.842	14.75
400.625	14.75
401.408	14.75
402.192	14.75
402.975	16.75
403.758	12.75
404.541	15.75
405.324	13.75
406.107	16.75
406.89	16.75
407.673	13.75
408.456	18.75
409.238	18.75
410.021	14.75
410.803	15.75
411.586	16.75
412.368	16.75
413.151	16.75
413.933	15.75
414.715	14.75
415.497	17.75
416.279	19.75
417.061	17.75
417.843	20.75
418.624	18.75
419.406	20.75
420.188	18.75
420.969	22.75
421.751	22.75
422.532	22.75
423.313	20.75
424.095	24.75
424.876	25.75
425.657	26.75
426.438	24.75
427.219	25.75
428	23.75
428.78	28.75
429.561	28.75
430.342	35.75
431.122	31.75
431.903	33.75
432.683	35.75
433.464	33.75
434.244	41.75
435.024	38.75
435.804	38.75
436.584	42.75
437.364	45.75
438.144	49.75
438.924	49.75
439.704	53.75
440.483	53.75
441.263	60.75
442.042	62.75
442.822	68.75
443.601	72.75
444.38	77.75
445.16	80.75
445.939	92.75
446.718	95.75
447.497	106.75
448.276	112.75
449.054	124.75
449.833	137.75
450.612	153.75
451.391	167.75
452.169	186.75
452.948	200.75
453.726	231.75
454.504	250.75
455.282	273.75
456.061	309.75
456.839	344.75
457.617	391.75
458.395	426.75
459.172	483.75
459.95	539.75
460.728	599.75
461.506	670.75
462.283	755.75
463.061	827.75
463.838	941.75
464.615	1056.75
465.393	1165.75
466.17	1306.75
466.947	1439.75
467.724	1622.75
468.501	1808.75
469.278	1999.75
470.055	2222.75
470.831	2455.75
471.608	2730.75
472.385	3013.75
473.161	3354.75
473.938	3698.75
474.714	4082.75
475.49	4513.75
476.266	4980.75
477.043	5451.75
477.819	5961.75
478.595	6571.75
479.371	7230.75
480.146	7922.75
480.922	8684.75
481.698	9536.75
482.473	10430.75
483.249	11399.75
484.024	12371.75
484.8	13513.75
485.575	14784.75
486.35	16054.75
487.126	17451.75
487.901	18846.75
488.676	20436.75
489.451	22166.75
490.225	23876.75
491	25688.75
491.775	27561.75
492.55	29479.75
493.324	31350.75
494.099	33321.75
494.873	35296.75
495.647	37252.75
496.422	39195.75
497.196	41077.75
497.97	42818.75
498.744	44370.75
499.518	45984.75
500.292	47270.75
501.066	48285.75
501.839	48920.75
502.613	49525.75
503.387	49958.75
504.16	50101.75
504.934	50009.75
505.707	49610.75
506.48	48878.75
507.253	48070.75
508.027	47069.75
508.8	45834.75
509.573	44515.75
510.346	43154.75
511.118	41940.75
511.891	40408.75
512.664	38727.75
513.437	37129.75
514.209	35595.75
514.982	34225.75
515.754	32777.75
516.526	31270.75
517.298	30049.75
518.071	28756.75
518.843	27716.75
519.615	26497.75
520.387	25492.75
521.159	24497.75
521.93	23426.75
522.702	22375.75
523.474	21452.75
524.245	20484.75
525.017	19568.75
525.788	18664.75
526.56	17896.75
527.331	17027.75
528.102	16094.75
528.873	15292.75
529.644	14558.75
530.415	13852.75
531.186	13234.75
531.957	12435.75
532.728	11752.75
533.498	11157.75
534.269	10558.75
535.039	9958.75
535.81	9416.75
536.58	8876.75
537.351	8431.75
538.121	7982.75
538.891	7526.75
539.661	7174.75
540.431	6787.75
541.201	6454.75
541.971	6076.75
542.741	5740.75
543.51	5435.75
544.28	5164.75
545.05	4937.75
545.819	4721.75
546.588	4499.75
547.358	4280.75
548.127	4069.75
548.896	3837.75
549.665	3647.75
550.434	3454.75
551.203	3253.75
551.972	3086.75
552.741	2946.75
553.51	2745.75
554.278	2601.75
555.047	2470.75
555.815	2327.75
556.584	2177.75
557.352	2053.75
558.121	1947.75
558.889	1849.75
559.657	1742.75
560.425	1656.75
561.193	1570.75
561.961	1479.75
562.729	1388.75
563.496	1325.75
564.264	1250.75
565.032	1188.75
565.799	1106.75
566.567	1063.75
567.334	999.75
568.101	943.75
568.869	889.75
569.636	839.75
570.403	803.75
571.17	742.75
571.937	713.75
572.704	675.75
573.471	633.75
574.237	589.75
575.004	570.75
575.771	530.75
576.537	504.75
577.303	471.75
578.07	443.75
578.836	426.75
579.602	398.75
580.368	372.75
581.134	357.75
581.9	330.75
582.666	327.75
583.432	312.75
584.198	292.75
584.964	276.75
585.729	264.75
586.495	261.75
587.26	236.75
588.025	228.75
588.791	210.75
589.556	206.75
590.321	193.75
591.086	186.75
591.851	173.75
592.616	167.75
593.381	160.75
594.146	152.75
594.911	150.75
595.675	138.75
596.44	133.75
597.204	123.75
597.969	121.75
598.733	114.75
599.497	108.75
600.261	107.75
601.025	104.75
601.79	96.75
602.553	91.75
603.317	91.75
604.081	86.75
604.845	83.75
605.609	78.75
606.372	78.75
607.136	70.75
607.899	71.75
608.662	68.75
609.426	66.75
610.189	61.75
610.952	59.75
611.715	60.75
612.478	56.75
613.241	53.75
614.004	53.75
614.767	51.75
615.529	43.75
616.292	45.75
617.055	44.75
617.817	43.75
618.579	42.75
619.342	43.75
620.104	40.75
620.866	41.75
621.628	38.75
622.39	36.75
623.152	36.75
623.914	34.75
624.676	35.75
625.438	32.75
626.199	31.75
626.961	31.75
627.722	28.75
628.484	28.75
629.245	27.75
630.006	28.75
630.768	25.75
631.529	27.75
632.29	24.75
633.051	23.75
633.812	21.75
634.573	21.75
635.333	24.75
636.094	23.75
636.855	20.75
637.615	19.75
638.376	17.75
639.136	16.75
639.896	18.75
640.657	18.75
641.417	17.75
642.177	17.75
642.937	19.75
643.697	15.75
644.457	18.75
645.216	13.75
645.976	15.75
646.736	16.75
647.495	11.75
648.255	15.75
649.014	13.75
649.774	13.75
650.533	12.75
651.292	15.75
652.051	11.75
652.81	13.75
653.569	12.75
654.328	13.75
655.087	14.75
655.846	10.75
656.604	10.75
657.363	11.75
658.121	11.75
658.88	14.75
659.638	10.75
660.397	11.75
661.155	12.75
661.913	8.75
662.671	9.75
663.429	12.75
664.187	10.75
664.945	11.75
665.703	8.75
666.46	9.75
667.218	10.75
667.976	8.75
668.733	11.75
669.49	10.75
670.248	7.75
671.005	8.75
671.762	8.75
672.519	7.75
673.276	9.75
674.033	8.75
674.79	10.75
675.547	8.75
676.304	8.75
677.06	7.75
677.817	10.75
678.574	7.75
679.33	8.75
680.086	8.75
680.843	6.75
681.599	7.75
682.355	6.75
683.111	8.75
683.867	8.75
684.623	8.75
685.379	6.75
686.135	10.75
686.89	10.75
687.646	7.75
688.402	9.75
689.157	5.75
689.912	5.75
690.668	8.75
691.423	7.75
692.178	8.75
692.933	7.75
693.688	6.75
694.443	4.75
695.198	6.75
695.953	7.75
696.708	7.75
697.462	8.75
698.217	8.75
698.972	7.75
699.726	9.75
700.48	8.75
701.235	8.75
701.989	8.75
702.743	7.75
703.497	7.75
704.251	8.75
705.005	7.75
705.759	8.75
706.513	6.75
707.266	6.75
708.02	6.75
708.774	6.75
709.527	6.75
710.28	7.75
711.034	7.75
711.787	7.75
712.54	9.75
713.293	8.75
714.046	5.75
714.799	7.75
715.552	10.75
716.305	7.75
717.058	8.75
717.81	5.75
718.563	8.75
719.315	7.75
720.068	11.75
720.82	7.75
721.573	8.75
722.325	7.75
723.077	7.75
723.829	10.75
724.581	7.75
725.333	6.75
726.085	11.75
726.836	8.75
727.588	9.75
728.34	9.75
729.091	6.75
729.843	8.75
730.594	8.75
731.346	8.75
732.097	7.75
732.848	10.75
733.599	9.75
734.35	11.75
735.101	10.75
735.852	7.75
736.603	8.75
737.354	11.75
738.104	10.75
738.855	10.75
739.605	8.75
740.356	12.75
741.106	8.75
741.856	11.75
742.607	10.75
743.357	11.75
744.107	10.75
744.857	12.75
745.607	11.75
746.357	9.75
747.106	13.75
747.856	14.75
748.606	10.75
749.355	10.75
750.105	12.75
750.854	11.75
751.603	11.75
752.353	10.75
753.102	13.75
753.851	11.75
754.6	13.75
755.349	11.75
756.098	13.75
756.847	11.75
757.595	14.75
758.344	13.75
759.093	13.75
759.841	13.75
760.589	12.75
761.338	12.75
762.086	13.75
762.834	13.75
763.582	14.75
764.331	16.75
765.079	14.75
765.826	12.75
766.574	15.75
767.322	13.75
768.07	15.75
768.817	15.75
769.565	15.75
770.312	17.75
771.06	14.75
771.807	14.75
772.554	16.75
773.302	16.75
774.049	15.75
774.796	15.75
775.543	15.75
776.29	16.75
777.036	14.75
777.783	19.75
778.53	13.75
779.276	16.75
780.023	16.75
780.769	16.75
781.516	17.75
782.262	16.75
783.008	18.75
783.754	15.75
784.5	15.75
785.246	16.75
785.992	16.75
786.738	16.75
787.484	11.75
788.23	18.75
788.975	12.75
789.721	14.75
790.466	14.75
791.212	16.75
791.957	15.75
792.702	13.75
793.447	16.75
794.193	13.75
794.938	14.75
795.683	16.75
796.427	12.75
797.172	14.75
797.917	11.75
798.662	13.75
799.406	10.75
800.151	16.75
800.895	12.75
801.64	12.75
802.384	12.75
803.128	12.75
803.872	10.75
804.616	9.75
805.36	12.75
806.104	12.75
806.848	10.75
807.592	11.75
808.336	8.75
809.079	9.75
809.823	12.75
810.566	9.75
811.31	10.75
812.053	9.75
812.796	10.75
813.539	9.75
814.283	9.75
815.026	9.75
815.769	8.75
816.511	10.75
817.254	8.75
817.997	7.75
818.74	7.75
819.482	6.75
820.225	8.75
820.967	8.75
821.71	6.75
822.452	7.75
823.194	8.75
823.936	5.75
824.678	4.75
825.42	6.75
826.162	7.75
826.904	5.75
827.646	6.75
828.388	4.75
829.129	7.75
829.871	5.75
830.612	5.75
831.354	5.75
832.095	6.75
832.836	6.75
833.577	4.75
834.319	6.75
835.06	6.75
835.801	5.75
836.542	5.75
837.282	6.75
838.023	7.75
838.764	3.75
839.504	6.75
840.245	4.75
840.985	8.75
841.726	6.75
842.466	7.75
843.206	6.75
843.946	4.75
844.687	5.75
845.427	4.75
846.166	6.75
846.906	3.75
847.646	3.75
848.386	4.75
849.125	4.75
849.865	6.75
850.605	5.75
851.344	2.75
852.083	7.75
852.823	3.75
853.562	2.75
854.301	4.75
855.04	3.75
855.779	4.75
856.518	2.75
857.257	4.75
857.995	4.75
858.734	5.75
859.473	3.75
860.211	2.75
860.95	2.75
861.688	5.75
862.426	1.75
863.165	2.75
863.903	3.75
864.641	2.75
865.379	3.75
866.117	2.75
866.855	0.75
867.593	3.75
868.33	2.75
869.068	1.75
869.806	2.75
870.543	2.75
871.28	1.75
872.018	-0.25
872.755	4.75
873.492	2.75
874.229	0.75
874.967	4.75
875.703	0.75
876.44	0.75
877.177	1.75
877.914	2.75
878.651	1.75
879.387	-0.25
880.124	0.75
880.86	0.75
881.597	1.75
882.333	1.75
883.069	2.75
883.806	2.75
884.542	-0.25
885.278	1.75
886.014	0.75
886.749	0.75
887.485	0.75
888.221	2.75
888.957	1.75
889.692	-0.25
890.428	1.75
891.163	0.75
891.899	2.75
892.634	0.75
893.369	0.75
894.104	1.75
894.839	2.75
895.574	2.75
896.309	1.75
897.044	1.75
897.779	0.75
898.514	0.75
899.248	-0.25
899.983	0.75
900.717	0.75
901.452	0.75
902.186	-2.25
902.92	1.75
903.654	-1.25
904.389	0.75
905.123	0.75
905.857	1.75
906.59	1.75
907.324	-0.25
908.058	0.75
908.792	1.75
909.525	-0.25
910.259	1.75
910.992	1.75
911.726	-1.25
912.459	1.75
913.192	1.75
913.925	-0.25
914.658	1.75
915.391	0.75
916.124	2.75
916.857	1.75
917.59	0.75
918.323	-0.25
919.055	2.75
919.788	0.75
920.521	-0.25
921.253	0.75
921.985	1.75
922.718	-1.25
923.45	1.75
924.182	0.75
924.914	-0.25
925.646	1.75
926.378	1.75
927.11	0.75
927.841	1.75
928.573	0.75
929.305	-0.25
930.036	0.75
930.768	-0.25
931.499	0.75
932.23	1.75
932.962	1.75
933.693	-0.25
934.424	-0.25
935.155	-0.25
935.886	0.75
936.617	-0.25
937.348	0.75
938.078	-1.25
938.809	-1.25
939.54	0.75
940.27	-1.25
941.001	-0.25
941.731	0.75
942.461	-0.25
943.191	-0.25
943.922	-2.25
944.652	1.75
945.382	-1.25
946.112	1.75
946.841	1.75
947.571	0.75
948.301	-1.25
949.031	0.75
949.76	-0.25
950.49	0.75
951.219	0.75
951.948	0.75
952.678	-1.25
953.407	-0.25
954.136	-0.25
954.865	0.75
955.594	-0.25
956.323	0.75
957.052	-0.25
957.78	1.75
958.509	-0.25
959.238	-0.25
959.966	1.75
960.695	0.75
961.423	-0.25
962.151	-1.25
962.88	-0.25
963.608	0.75
964.336	-1.25
965.064	2.75
965.792	-2.25
966.52	-0.25
967.247	0.75
967.975	0.75
968.703	3.75
969.43	0.75
970.158	0.75
970.885	0.75
971.613	-1.25
972.34	1.75
973.067	0.75
973.794	1.75
974.521	-2.25
975.248	-0.25
975.975	0.75
976.702	-1.25
977.429	-1.25
978.156	0.75
978.882	0.75
979.609	0.75
980.335	-0.25
981.062	0.75
981.788	-0.25
982.514	-1.25
983.24	-1.25
983.967	1.75
984.693	0.75
985.419	-0.25
986.144	0.75
986.87	1.75
987.596	-1.25
988.322	0.75
989.047	-0.25
989.773	1.75
990.498	-1.25
991.224	0.75
991.949	1.75
992.674	-0.25
993.399	0.75
994.124	0.75
994.849	0.75
995.574	-1.25
996.299	1.75
997.024	0.75
997.749	-1.25
998.473	-1.25
999.198	-1.25
999.922	0.75
1000.647	0.75
1001.371	3.75
1002.095	-0.25
1002.82	-2.25
1003.544	-1.25
1004.268	4.75
1004.992	4.75
1005.716	5.75
1006.439	6.75
1007.163	4.75
1007.887	4.75
1008.611	-0.25
1009.334	-1.25
1010.058	0.75
1010.781	-0.25
1011.504	0.75
1012.228	0.75
1012.951	2.75
1013.674	-1.25
1014.397	-0.25
1015.12	-1.25
