节点500_705_QEPB04081__174__20-48-45-026.txt的数据

Date: Wed Nov 12 20:48:45 CST 2025
User: PC
Spectrometer: QEPB0408
触发模式: 0
积分时间 (秒): 1.000000E-2
Scans to average: 1
启用暗噪声校正: true
启用非线性校正: false
滑动平均宽度: 0
X轴模式: Wavelengths
Number of Pixels in Spectrum: 1044
>>>>>Begin Spectral Data<<<<<
220.843	6
221.644	6
222.444	6
223.244	9
224.045	8
224.845	8
225.645	7
226.445	8
227.245	6
228.045	9
228.845	9
229.645	8
230.444	9
231.244	11
232.043	12
232.843	12
233.642	10
234.442	10
235.241	15
236.04	12
236.839	11
237.638	11
238.437	10
239.236	15
240.035	13
240.833	14
241.632	14
242.43	14
243.229	16
244.027	14
244.826	14
245.624	13
246.422	16
247.22	17
248.018	16
248.816	16
249.614	16
250.412	16
251.21	19
252.007	20
252.805	19
253.602	20
254.4	20
255.197	19
255.994	22
256.791	23
257.589	24
258.386	26
259.183	20
259.979	25
260.776	24
261.573	24
262.37	26
263.166	29
263.963	28
264.759	28
265.556	27
266.352	28
267.148	32
267.944	30
268.74	31
269.536	33
270.332	33
271.128	36
271.924	32
272.719	34
273.515	36
274.311	36
275.106	34
275.901	35
276.697	35
277.492	39
278.287	38
279.082	32
279.877	36
280.672	36
281.467	38
282.262	39
283.056	38
283.851	36
284.646	38
285.44	37
286.234	35
287.029	39
287.823	37
288.617	40
289.411	33
290.205	35
290.999	31
291.793	32
292.587	34
293.381	32
294.174	33
294.968	30
295.761	30
296.555	29
297.348	32
298.141	27
298.935	34
299.728	28
300.521	25
301.314	27
302.107	24
302.899	25
303.692	26
304.485	27
305.277	24
306.07	21
306.862	26
307.655	21
308.447	23
309.239	22
310.031	24
310.823	20
311.615	19
312.407	20
313.199	20
313.991	17
314.783	18
315.574	21
316.366	20
317.157	17
317.949	20
318.74	16
319.531	17
320.322	16
321.113	14
321.904	18
322.695	16
323.486	11
324.277	14
325.068	12
325.858	15
326.649	15
327.439	15
328.23	14
329.02	12
329.81	15
330.6	15
331.391	14
332.181	15
332.971	14
333.76	14
334.55	12
335.34	14
336.13	12
336.919	13
337.709	14
338.498	14
339.287	12
340.077	11
340.866	13
341.655	14
342.444	15
343.233	11
344.022	14
344.811	12
345.6	10
346.388	16
347.177	13
347.965	11
348.754	13
349.542	12
350.33	13
351.119	10
351.907	13
352.695	13
353.483	15
354.271	12
355.059	10
355.846	12
356.634	11
357.422	12
358.209	12
358.997	11
359.784	14
360.571	13
361.359	14
362.146	11
362.933	10
363.72	10
364.507	11
365.294	11
366.081	9
366.867	12
367.654	10
368.44	10
369.227	12
370.013	11
370.8	9
371.586	11
372.372	9
373.158	11
373.944	10
374.73	13
375.516	11
376.302	13
377.088	12
377.873	11
378.659	12
379.445	13
380.23	10
381.015	10
381.801	12
382.586	12
383.371	8
384.156	12
384.941	10
385.726	12
386.511	12
387.296	10
388.08	11
388.865	11
389.649	13
390.434	13
391.218	13
392.003	14
392.787	12
393.571	16
394.355	11
395.139	14
395.923	13
396.707	13
397.491	15
398.274	15
399.058	14
399.842	14
400.625	16
401.408	16
402.192	14
402.975	15
403.758	15
404.541	16
405.324	16
406.107	16
406.89	16
407.673	16
408.456	18
409.238	19
410.021	16
410.803	17
411.586	17
412.368	18
413.151	18
413.933	20
414.715	19
415.497	21
416.279	21
417.061	18
417.843	21
418.624	22
419.406	23
420.188	21
420.969	23
421.751	24
422.532	21
423.313	26
424.095	23
424.876	27
425.657	27
426.438	28
427.219	28
428	28
428.78	29
429.561	31
430.342	31
431.122	32
431.903	32
432.683	35
433.464	36
434.244	39
435.024	40
435.804	40
436.584	47
437.364	46
438.144	50
438.924	53
439.704	57
440.483	61
441.263	61
442.042	66
442.822	68
443.601	75
444.38	81
445.16	86
445.939	89
446.718	97
447.497	112
448.276	118
449.054	131
449.833	141
450.612	164
451.391	173
452.169	186
452.948	209
453.726	232
454.504	247
455.282	288
456.061	320
456.839	356
457.617	390
458.395	447
459.172	492
459.95	550
460.728	606
461.506	694
462.283	761
463.061	853
463.838	951
464.615	1060
465.393	1186
466.17	1316
466.947	1474
467.724	1637
468.501	1813
469.278	2019
470.055	2222
470.831	2498
471.608	2745
472.385	3027
473.161	3354
473.938	3689
474.714	4087
475.49	4493
476.266	4910
477.043	5384
477.819	5913
478.595	6472
479.371	7098
480.146	7750
480.922	8534
481.698	9320
482.473	10148
483.249	11092
484.024	12058
484.8	13114
485.575	14241
486.35	15494
487.126	16765
487.901	18198
488.676	19689
489.451	21285
490.225	22892
491	24564
491.775	26288
492.55	28243
493.324	30012
494.099	31920
494.873	33814
495.647	35622
496.422	37570
497.196	39445
497.97	41118
498.744	42571
499.518	44265
500.292	45495
501.066	46531
501.839	47334
502.613	47923
503.387	48506
504.16	48798
504.934	48754
505.707	48440
506.48	48050
507.253	47270
508.027	46415
508.8	45273
509.573	44177
510.346	42992
511.118	41633
511.891	40261
512.664	38723
513.437	37171
514.209	35711
514.982	34239
515.754	32819
516.526	31351
517.298	30172
518.071	28948
518.843	27800
519.615	26649
520.387	25659
521.159	24575
521.93	23507
522.702	22583
523.474	21573
524.245	20686
525.017	19747
525.788	18884
526.56	18065
527.331	17234
528.102	16313
528.873	15531
529.644	14762
530.415	14071
531.186	13364
531.957	12656
532.728	12003
533.498	11346
534.269	10707
535.039	10141
535.81	9586
536.58	9067
537.351	8578
538.121	8146
538.891	7703
539.661	7289
540.431	6892
541.201	6516
541.971	6196
542.741	5855
543.51	5575
544.28	5307
545.05	5051
545.819	4808
546.588	4574
547.358	4356
548.127	4136
548.896	3914
549.665	3721
550.434	3526
551.203	3358
551.972	3168
552.741	3011
553.51	2838
554.278	2647
555.047	2505
555.815	2360
556.584	2230
557.352	2128
558.121	2014
558.889	1873
559.657	1784
560.425	1704
561.193	1605
561.961	1522
562.729	1434
563.496	1350
564.264	1283
565.032	1223
565.799	1150
566.567	1081
567.334	1028
568.101	970
568.869	912
569.636	856
570.403	815
571.17	779
571.937	727
572.704	695
573.471	650
574.237	620
575.004	580
575.771	544
576.537	517
577.303	481
578.07	464
578.836	433
579.602	414
580.368	397
581.134	373
581.9	352
582.666	331
583.432	312
584.198	296
584.964	282
585.729	274
586.495	254
587.26	242
588.025	231
588.791	221
589.556	208
590.321	200
591.086	187
591.851	178
592.616	171
593.381	158
594.146	154
594.911	155
595.675	144
596.44	137
597.204	130
597.969	122
598.733	123
599.497	117
600.261	112
601.025	106
601.79	99
602.553	95
603.317	95
604.081	89
604.845	84
605.609	85
606.372	79
607.136	70
607.899	72
608.662	69
609.426	70
610.189	68
610.952	60
611.715	64
612.478	59
613.241	56
614.004	55
614.767	56
615.529	49
616.292	49
617.055	46
617.817	45
618.579	43
619.342	44
620.104	45
620.866	39
621.628	40
622.39	34
623.152	39
623.914	40
624.676	36
625.438	38
626.199	34
626.961	31
627.722	30
628.484	32
629.245	27
630.006	32
630.768	27
631.529	26
632.29	28
633.051	26
633.812	26
634.573	23
635.333	23
636.094	24
636.855	26
637.615	25
638.376	24
639.136	22
639.896	21
640.657	18
641.417	21
642.177	22
642.937	20
643.697	16
644.457	17
645.216	20
645.976	19
646.736	17
647.495	16
648.255	15
649.014	15
649.774	16
650.533	18
651.292	14
652.051	16
652.81	15
653.569	14
654.328	15
655.087	13
655.846	15
656.604	13
657.363	11
658.121	18
658.88	14
659.638	12
660.397	14
661.155	12
661.913	11
662.671	11
663.429	10
664.187	10
664.945	11
665.703	11
666.46	13
667.218	13
667.976	12
668.733	11
669.49	11
670.248	9
671.005	11
671.762	13
672.519	10
673.276	8
674.033	12
674.79	10
675.547	9
676.304	9
677.06	11
677.817	12
678.574	9
679.33	11
680.086	10
680.843	8
681.599	10
682.355	9
683.111	9
683.867	8
684.623	12
685.379	8
686.135	6
686.89	9
687.646	9
688.402	9
689.157	11
689.912	9
690.668	9
691.423	11
692.178	9
692.933	9
693.688	8
694.443	8
695.198	9
695.953	10
696.708	8
697.462	9
698.217	8
698.972	7
699.726	10
700.48	8
701.235	8
701.989	7
702.743	8
703.497	7
704.251	8
705.005	8
705.759	9
706.513	10
707.266	8
708.02	7
708.774	8
709.527	8
710.28	7
711.034	7
711.787	9
712.54	9
713.293	10
714.046	10
714.799	9
715.552	7
716.305	9
717.058	9
717.81	11
718.563	11
719.315	10
720.068	9
720.82	12
721.573	11
722.325	8
723.077	10
723.829	9
724.581	6
725.333	13
726.085	8
726.836	10
727.588	12
728.34	11
729.091	10
729.843	11
730.594	10
731.346	8
732.097	10
732.848	10
733.599	9
734.35	10
735.101	10
735.852	10
736.603	10
737.354	11
738.104	13
738.855	12
739.605	13
740.356	12
741.106	14
741.856	11
742.607	12
743.357	11
744.107	11
744.857	13
745.607	12
746.357	12
747.106	11
747.856	14
748.606	11
749.355	13
750.105	14
750.854	14
751.603	13
752.353	13
753.102	11
753.851	13
754.6	11
755.349	14
756.098	12
756.847	14
757.595	11
758.344	13
759.093	12
759.841	16
760.589	19
761.338	14
762.086	15
762.834	14
763.582	15
764.331	14
765.079	15
765.826	19
766.574	17
767.322	14
768.07	14
768.817	16
769.565	18
770.312	18
771.06	17
771.807	16
772.554	17
773.302	17
774.049	18
774.796	16
775.543	17
776.29	20
777.036	17
777.783	16
778.53	19
779.276	17
780.023	16
780.769	19
781.516	17
782.262	16
783.008	18
783.754	17
784.5	16
785.246	18
785.992	16
786.738	17
787.484	17
788.23	17
788.975	17
789.721	19
790.466	16
791.212	16
791.957	15
792.702	17
793.447	16
794.193	15
794.938	18
795.683	14
796.427	18
797.172	13
797.917	14
798.662	16
799.406	15
800.151	14
800.895	12
801.64	14
802.384	13
803.128	15
803.872	12
804.616	13
805.36	12
806.104	12
806.848	14
807.592	11
808.336	10
809.079	12
809.823	11
810.566	9
811.31	10
812.053	11
812.796	11
813.539	11
814.283	11
815.026	9
815.769	10
816.511	9
817.254	8
817.997	4
818.74	11
819.482	8
820.225	8
820.967	11
821.71	8
822.452	9
823.194	7
823.936	8
824.678	8
825.42	10
826.162	7
826.904	8
827.646	8
828.388	6
829.129	9
829.871	10
830.612	7
831.354	9
832.095	8
832.836	5
833.577	6
834.319	7
835.06	6
835.801	7
836.542	7
837.282	6
838.023	6
838.764	7
839.504	10
840.245	7
840.985	4
841.726	9
842.466	4
843.206	9
843.946	6
844.687	7
845.427	9
846.166	6
846.906	4
847.646	8
848.386	9
849.125	8
849.865	6
850.605	7
851.344	7
852.083	6
852.823	8
853.562	5
854.301	7
855.04	6
855.779	4
856.518	5
857.257	4
857.995	4
858.734	4
859.473	7
860.211	4
860.95	3
861.688	6
862.426	5
863.165	6
863.903	4
864.641	2
865.379	4
866.117	0
866.855	4
867.593	4
868.33	5
869.068	3
869.806	3
870.543	4
871.28	5
872.018	4
872.755	5
873.492	5
874.229	4
874.967	4
875.703	3
876.44	3
877.177	3
877.914	4
878.651	2
879.387	3
880.124	2
880.86	4
881.597	3
882.333	4
883.069	1
883.806	2
884.542	3
885.278	1
886.014	3
886.749	5
887.485	2
888.221	2
888.957	3
889.692	2
890.428	4
891.163	2
891.899	2
892.634	2
893.369	3
894.104	2
894.839	3
895.574	3
896.309	2
897.044	1
897.779	0
898.514	4
899.248	0
899.983	3
900.717	3
901.452	0
902.186	3
902.92	1
903.654	2
904.389	2
905.123	3
905.857	0
906.59	0
907.324	2
908.058	0
908.792	2
909.525	2
910.259	3
910.992	1
911.726	2
912.459	1
913.192	3
913.925	1
914.658	0
915.391	0
916.124	2
916.857	1
917.59	3
918.323	2
919.055	2
919.788	0
920.521	1
921.253	3
921.985	1
922.718	2
923.45	0
924.182	0
924.914	1
925.646	0
926.378	1
927.11	2
927.841	2
928.573	3
929.305	2
930.036	3
930.768	2
931.499	3
932.23	3
932.962	1
933.693	2
934.424	1
935.155	4
935.886	2
936.617	2
937.348	2
938.078	0
938.809	1
939.54	1
940.27	2
941.001	0
941.731	3
942.461	1
943.191	1
943.922	2
944.652	1
945.382	2
946.112	3
946.841	1
947.571	0
948.301	0
949.031	4
949.76	2
950.49	2
951.219	1
951.948	1
952.678	3
953.407	2
954.136	3
954.865	2
955.594	2
956.323	0
957.052	0
957.78	1
958.509	1
959.238	2
959.966	1
960.695	2
961.423	1
962.151	0
962.88	0
963.608	1
964.336	1
965.064	2
965.792	1
966.52	2
967.247	0
967.975	2
968.703	3
969.43	2
970.158	3
970.885	1
971.613	2
972.34	3
973.067	1
973.794	3
974.521	2
975.248	3
975.975	1
976.702	4
977.429	2
978.156	2
978.882	2
979.609	1
980.335	3
981.062	3
981.788	0
982.514	1
983.24	1
983.967	2
984.693	1
985.419	2
986.144	2
986.87	2
987.596	2
988.322	0
989.047	0
989.773	2
990.498	1
991.224	2
991.949	0
992.674	0
993.399	-1
994.124	1
994.849	3
995.574	2
996.299	1
997.024	1
997.749	0
998.473	1
999.198	3
999.922	0
1000.647	3
1001.371	3
1002.095	0
1002.82	-2
1003.544	-1
1004.268	8
1004.992	6
1005.716	6
1006.439	4
1007.163	7
1007.887	7
1008.611	3
1009.334	1
1010.058	0
1010.781	0
1011.504	2
1012.228	2
1012.951	0
1013.674	0
1014.397	0
1015.12	0
