节点500_705_QEPB04081__584__20-54-13-790.txt的数据

Date: Wed Nov 12 20:54:13 CST 2025
User: PC
Spectrometer: QEPB0408
触发模式: 0
积分时间 (秒): 1.000000E-2
Scans to average: 1
启用暗噪声校正: true
启用非线性校正: false
滑动平均宽度: 0
X轴模式: Wavelengths
Number of Pixels in Spectrum: 1044
>>>>>Begin Spectral Data<<<<<
220.843	3.75
221.644	5.75
222.444	3.75
223.244	5.75
224.045	4.75
224.845	6.75
225.645	4.75
226.445	4.75
227.245	5.75
228.045	6.75
228.845	8.75
229.645	7.75
230.444	4.75
231.244	9.75
232.043	7.75
232.843	7.75
233.642	8.75
234.442	11.75
235.241	10.75
236.04	8.75
236.839	8.75
237.638	9.75
238.437	9.75
239.236	10.75
240.035	6.75
240.833	11.75
241.632	10.75
242.43	10.75
243.229	12.75
244.027	11.75
244.826	10.75
245.624	14.75
246.422	14.75
247.22	11.75
248.018	12.75
248.816	14.75
249.614	11.75
250.412	13.75
251.21	14.75
252.007	12.75
252.805	14.75
253.602	18.75
254.4	14.75
255.197	16.75
255.994	16.75
256.791	16.75
257.589	16.75
258.386	18.75
259.183	18.75
259.979	18.75
260.776	18.75
261.573	20.75
262.37	20.75
263.166	22.75
263.963	20.75
264.759	22.75
265.556	25.75
266.352	23.75
267.148	26.75
267.944	23.75
268.74	24.75
269.536	27.75
270.332	29.75
271.128	28.75
271.924	25.75
272.719	28.75
273.515	30.75
274.311	29.75
275.106	25.75
275.901	30.75
276.697	30.75
277.492	30.75
278.287	31.75
279.082	30.75
279.877	31.75
280.672	29.75
281.467	31.75
282.262	30.75
283.056	28.75
283.851	34.75
284.646	30.75
285.44	31.75
286.234	30.75
287.029	31.75
287.823	32.75
288.617	31.75
289.411	29.75
290.205	28.75
290.999	29.75
291.793	29.75
292.587	29.75
293.381	28.75
294.174	27.75
294.968	29.75
295.761	28.75
296.555	26.75
297.348	26.75
298.141	25.75
298.935	27.75
299.728	23.75
300.521	26.75
301.314	25.75
302.107	21.75
302.899	21.75
303.692	19.75
304.485	20.75
305.277	22.75
306.07	20.75
306.862	22.75
307.655	21.75
308.447	22.75
309.239	20.75
310.031	19.75
310.823	16.75
311.615	18.75
312.407	17.75
313.199	16.75
313.991	15.75
314.783	19.75
315.574	15.75
316.366	16.75
317.157	13.75
317.949	14.75
318.74	13.75
319.531	16.75
320.322	14.75
321.113	12.75
321.904	14.75
322.695	12.75
323.486	13.75
324.277	12.75
325.068	14.75
325.858	14.75
326.649	10.75
327.439	11.75
328.23	11.75
329.02	12.75
329.81	12.75
330.6	13.75
331.391	10.75
332.181	10.75
332.971	10.75
333.76	9.75
334.55	13.75
335.34	11.75
336.13	11.75
336.919	12.75
337.709	10.75
338.498	12.75
339.287	9.75
340.077	8.75
340.866	11.75
341.655	11.75
342.444	9.75
343.233	8.75
344.022	10.75
344.811	10.75
345.6	11.75
346.388	9.75
347.177	8.75
347.965	12.75
348.754	11.75
349.542	11.75
350.33	9.75
351.119	9.75
351.907	10.75
352.695	7.75
353.483	10.75
354.271	10.75
355.059	9.75
355.846	12.75
356.634	9.75
357.422	8.75
358.209	9.75
358.997	11.75
359.784	9.75
360.571	11.75
361.359	7.75
362.146	6.75
362.933	9.75
363.72	9.75
364.507	7.75
365.294	8.75
366.081	8.75
366.867	10.75
367.654	8.75
368.44	13.75
369.227	7.75
370.013	7.75
370.8	6.75
371.586	7.75
372.372	9.75
373.158	8.75
373.944	8.75
374.73	10.75
375.516	8.75
376.302	8.75
377.088	8.75
377.873	10.75
378.659	10.75
379.445	8.75
380.23	10.75
381.015	8.75
381.801	10.75
382.586	9.75
383.371	9.75
384.156	7.75
384.941	10.75
385.726	8.75
386.511	9.75
387.296	10.75
388.08	10.75
388.865	10.75
389.649	9.75
390.434	10.75
391.218	11.75
392.003	10.75
392.787	10.75
393.571	10.75
394.355	11.75
395.139	12.75
395.923	11.75
396.707	9.75
397.491	11.75
398.274	12.75
399.058	12.75
399.842	10.75
400.625	12.75
401.408	11.75
402.192	13.75
402.975	8.75
403.758	12.75
404.541	15.75
405.324	13.75
406.107	16.75
406.89	14.75
407.673	14.75
408.456	14.75
409.238	16.75
410.021	14.75
410.803	15.75
411.586	16.75
412.368	16.75
413.151	14.75
413.933	14.75
414.715	15.75
415.497	20.75
416.279	19.75
417.061	18.75
417.843	17.75
418.624	16.75
419.406	17.75
420.188	16.75
420.969	19.75
421.751	21.75
422.532	18.75
423.313	22.75
424.095	22.75
424.876	24.75
425.657	23.75
426.438	23.75
427.219	22.75
428	25.75
428.78	26.75
429.561	28.75
430.342	30.75
431.122	30.75
431.903	30.75
432.683	33.75
433.464	31.75
434.244	35.75
435.024	39.75
435.804	41.75
436.584	39.75
437.364	46.75
438.144	48.75
438.924	49.75
439.704	57.75
440.483	59.75
441.263	60.75
442.042	65.75
442.822	70.75
443.601	77.75
444.38	87.75
445.16	87.75
445.939	97.75
446.718	108.75
447.497	118.75
448.276	128.75
449.054	140.75
449.833	152.75
450.612	171.75
451.391	189.75
452.169	206.75
452.948	236.75
453.726	252.75
454.504	284.75
455.282	320.75
456.061	351.75
456.839	393.75
457.617	436.75
458.395	489.75
459.172	540.75
459.95	605.75
460.728	665.75
461.506	751.75
462.283	825.75
463.061	926.75
463.838	1020.75
464.615	1124.75
465.393	1245.75
466.17	1384.75
466.947	1533.75
467.724	1703.75
468.501	1878.75
469.278	2069.75
470.055	2279.75
470.831	2495.75
471.608	2745.75
472.385	3007.75
473.161	3295.75
473.938	3609.75
474.714	3972.75
475.49	4347.75
476.266	4723.75
477.043	5165.75
477.819	5583.75
478.595	6079.75
479.371	6570.75
480.146	7163.75
480.922	7767.75
481.698	8409.75
482.473	9140.75
483.249	9899.75
484.024	10662.75
484.8	11502.75
485.575	12394.75
486.35	13440.75
487.126	14411.75
487.901	15587.75
488.676	16698.75
489.451	18004.75
490.225	19302.75
491	20625.75
491.775	22009.75
492.55	23502.75
493.324	25012.75
494.099	26530.75
494.873	28126.75
495.647	29744.75
496.422	31297.75
497.196	32937.75
497.97	34403.75
498.744	35913.75
499.518	37436.75
500.292	38722.75
501.066	39965.75
501.839	40762.75
502.613	41818.75
503.387	42602.75
504.16	43177.75
504.934	43596.75
505.707	43836.75
506.48	43724.75
507.253	43582.75
508.027	43213.75
508.8	42666.75
509.573	41955.75
510.346	41271.75
511.118	40496.75
511.891	39498.75
512.664	38125.75
513.437	36898.75
514.209	35730.75
514.982	34442.75
515.754	33168.75
516.526	31945.75
517.298	30725.75
518.071	29617.75
518.843	28518.75
519.615	27263.75
520.387	26194.75
521.159	25205.75
521.93	24200.75
522.702	23204.75
523.474	22221.75
524.245	21389.75
525.017	20470.75
525.788	19623.75
526.56	18819.75
527.331	18075.75
528.102	17162.75
528.873	16338.75
529.644	15613.75
530.415	14874.75
531.186	14161.75
531.957	13485.75
532.728	12819.75
533.498	12180.75
534.269	11561.75
535.039	11012.75
535.81	10394.75
536.58	9851.75
537.351	9326.75
538.121	8803.75
538.891	8383.75
539.661	7891.75
540.431	7482.75
541.201	7122.75
541.971	6740.75
542.741	6373.75
543.51	6052.75
544.28	5767.75
545.05	5468.75
545.819	5249.75
546.588	5002.75
547.358	4766.75
548.127	4503.75
548.896	4288.75
549.665	4079.75
550.434	3907.75
551.203	3689.75
551.972	3489.75
552.741	3295.75
553.51	3119.75
554.278	2959.75
555.047	2792.75
555.815	2654.75
556.584	2497.75
557.352	2368.75
558.121	2250.75
558.889	2098.75
559.657	1986.75
560.425	1891.75
561.193	1800.75
561.961	1698.75
562.729	1598.75
563.496	1531.75
564.264	1436.75
565.032	1351.75
565.799	1292.75
566.567	1210.75
567.334	1154.75
568.101	1090.75
568.869	1032.75
569.636	965.75
570.403	903.75
571.17	861.75
571.937	813.75
572.704	771.75
573.471	719.75
574.237	676.75
575.004	645.75
575.771	598.75
576.537	571.75
577.303	542.75
578.07	515.75
578.836	479.75
579.602	460.75
580.368	431.75
581.134	418.75
581.9	393.75
582.666	373.75
583.432	355.75
584.198	336.75
584.964	324.75
585.729	308.75
586.495	290.75
587.26	271.75
588.025	262.75
588.791	247.75
589.556	236.75
590.321	215.75
591.086	206.75
591.851	199.75
592.616	186.75
593.381	182.75
594.146	171.75
594.911	166.75
595.675	157.75
596.44	150.75
597.204	144.75
597.969	132.75
598.733	131.75
599.497	124.75
600.261	119.75
601.025	116.75
601.79	108.75
602.553	110.75
603.317	102.75
604.081	98.75
604.845	92.75
605.609	85.75
606.372	80.75
607.136	82.75
607.899	77.75
608.662	76.75
609.426	72.75
610.189	67.75
610.952	64.75
611.715	63.75
612.478	58.75
613.241	61.75
614.004	59.75
614.767	54.75
615.529	53.75
616.292	53.75
617.055	52.75
617.817	50.75
618.579	47.75
619.342	48.75
620.104	40.75
620.866	42.75
621.628	38.75
622.39	38.75
623.152	37.75
623.914	37.75
624.676	33.75
625.438	38.75
626.199	35.75
626.961	32.75
627.722	32.75
628.484	31.75
629.245	28.75
630.006	31.75
630.768	29.75
631.529	30.75
632.29	23.75
633.051	23.75
633.812	25.75
634.573	22.75
635.333	24.75
636.094	23.75
636.855	22.75
637.615	23.75
638.376	24.75
639.136	19.75
639.896	21.75
640.657	20.75
641.417	18.75
642.177	19.75
642.937	18.75
643.697	16.75
644.457	17.75
645.216	13.75
645.976	15.75
646.736	16.75
647.495	15.75
648.255	16.75
649.014	12.75
649.774	14.75
650.533	14.75
651.292	13.75
652.051	14.75
652.81	14.75
653.569	12.75
654.328	14.75
655.087	14.75
655.846	12.75
656.604	10.75
657.363	11.75
658.121	12.75
658.88	8.75
659.638	10.75
660.397	12.75
661.155	9.75
661.913	12.75
662.671	9.75
663.429	7.75
664.187	9.75
664.945	9.75
665.703	7.75
666.46	7.75
667.218	9.75
667.976	11.75
668.733	7.75
669.49	10.75
670.248	9.75
671.005	10.75
671.762	7.75
672.519	8.75
673.276	10.75
674.033	7.75
674.79	8.75
675.547	7.75
676.304	8.75
677.06	10.75
677.817	6.75
678.574	7.75
679.33	6.75
680.086	10.75
680.843	7.75
681.599	9.75
682.355	7.75
683.111	6.75
683.867	8.75
684.623	7.75
685.379	7.75
686.135	7.75
686.89	5.75
687.646	11.75
688.402	8.75
689.157	10.75
689.912	5.75
690.668	8.75
691.423	5.75
692.178	4.75
692.933	6.75
693.688	6.75
694.443	6.75
695.198	7.75
695.953	6.75
696.708	8.75
697.462	5.75
698.217	7.75
698.972	5.75
699.726	6.75
700.48	6.75
701.235	5.75
701.989	6.75
702.743	8.75
703.497	7.75
704.251	5.75
705.005	6.75
705.759	7.75
706.513	5.75
707.266	8.75
708.02	6.75
708.774	6.75
709.527	5.75
710.28	5.75
711.034	8.75
711.787	6.75
712.54	7.75
713.293	7.75
714.046	9.75
714.799	5.75
715.552	4.75
716.305	8.75
717.058	7.75
717.81	8.75
718.563	6.75
719.315	6.75
720.068	5.75
720.82	7.75
721.573	8.75
722.325	9.75
723.077	8.75
723.829	8.75
724.581	7.75
725.333	8.75
726.085	6.75
726.836	8.75
727.588	6.75
728.34	9.75
729.091	8.75
729.843	8.75
730.594	7.75
731.346	7.75
732.097	8.75
732.848	9.75
733.599	7.75
734.35	9.75
735.101	7.75
735.852	9.75
736.603	6.75
737.354	7.75
738.104	9.75
738.855	8.75
739.605	8.75
740.356	8.75
741.106	7.75
741.856	10.75
742.607	9.75
743.357	9.75
744.107	7.75
744.857	7.75
745.607	10.75
746.357	10.75
747.106	7.75
747.856	8.75
748.606	10.75
749.355	12.75
750.105	9.75
750.854	8.75
751.603	9.75
752.353	9.75
753.102	9.75
753.851	10.75
754.6	11.75
755.349	7.75
756.098	11.75
756.847	12.75
757.595	10.75
758.344	12.75
759.093	10.75
759.841	10.75
760.589	11.75
761.338	10.75
762.086	11.75
762.834	10.75
763.582	11.75
764.331	11.75
765.079	12.75
765.826	11.75
766.574	9.75
767.322	7.75
768.07	11.75
768.817	12.75
769.565	11.75
770.312	13.75
771.06	13.75
771.807	14.75
772.554	14.75
773.302	14.75
774.049	13.75
774.796	14.75
775.543	14.75
776.29	14.75
777.036	11.75
777.783	12.75
778.53	15.75
779.276	11.75
780.023	12.75
780.769	14.75
781.516	12.75
782.262	14.75
783.008	15.75
783.754	15.75
784.5	16.75
785.246	13.75
785.992	16.75
786.738	12.75
787.484	14.75
788.23	16.75
788.975	14.75
789.721	12.75
790.466	12.75
791.212	12.75
791.957	13.75
792.702	12.75
793.447	12.75
794.193	11.75
794.938	10.75
795.683	11.75
796.427	13.75
797.172	11.75
797.917	14.75
798.662	11.75
799.406	11.75
800.151	10.75
800.895	13.75
801.64	11.75
802.384	9.75
803.128	9.75
803.872	11.75
804.616	10.75
805.36	11.75
806.104	10.75
806.848	8.75
807.592	9.75
808.336	9.75
809.079	8.75
809.823	8.75
810.566	10.75
811.31	9.75
812.053	9.75
812.796	7.75
813.539	7.75
814.283	6.75
815.026	7.75
815.769	8.75
816.511	8.75
817.254	7.75
817.997	7.75
818.74	9.75
819.482	7.75
820.225	7.75
820.967	6.75
821.71	8.75
822.452	7.75
823.194	7.75
823.936	6.75
824.678	5.75
825.42	6.75
826.162	5.75
826.904	7.75
827.646	6.75
828.388	7.75
829.129	6.75
829.871	6.75
830.612	6.75
831.354	3.75
832.095	6.75
832.836	7.75
833.577	5.75
834.319	7.75
835.06	7.75
835.801	6.75
836.542	5.75
837.282	7.75
838.023	5.75
838.764	6.75
839.504	5.75
840.245	4.75
840.985	5.75
841.726	8.75
842.466	6.75
843.206	6.75
843.946	4.75
844.687	4.75
845.427	3.75
846.166	5.75
846.906	5.75
847.646	5.75
848.386	4.75
849.125	1.75
849.865	5.75
850.605	7.75
851.344	3.75
852.083	2.75
852.823	2.75
853.562	3.75
854.301	3.75
855.04	2.75
855.779	2.75
856.518	4.75
857.257	5.75
857.995	4.75
858.734	4.75
859.473	2.75
860.211	2.75
860.95	2.75
861.688	4.75
862.426	3.75
863.165	4.75
863.903	3.75
864.641	1.75
865.379	3.75
866.117	3.75
866.855	1.75
867.593	4.75
868.33	2.75
869.068	2.75
869.806	2.75
870.543	3.75
871.28	2.75
872.018	2.75
872.755	0.75
873.492	1.75
874.229	3.75
874.967	4.75
875.703	0.75
876.44	3.75
877.177	4.75
877.914	-0.25
878.651	1.75
879.387	0.75
880.124	2.75
880.86	-1.25
881.597	0.75
882.333	1.75
883.069	0.75
883.806	1.75
884.542	2.75
885.278	-0.25
886.014	2.75
886.749	2.75
887.485	1.75
888.221	0.75
888.957	1.75
889.692	1.75
890.428	0.75
891.163	-0.25
891.899	0.75
892.634	-0.25
893.369	1.75
894.104	1.75
894.839	1.75
895.574	0.75
896.309	1.75
897.044	-1.25
897.779	1.75
898.514	1.75
899.248	-0.25
899.983	1.75
900.717	0.75
901.452	-0.25
902.186	2.75
902.92	0.75
903.654	2.75
904.389	1.75
905.123	-0.25
905.857	0.75
906.59	1.75
907.324	-0.25
908.058	2.75
908.792	-1.25
909.525	1.75
910.259	-0.25
910.992	1.75
911.726	0.75
912.459	2.75
913.192	-0.25
913.925	-0.25
914.658	2.75
915.391	1.75
916.124	0.75
916.857	0.75
917.59	0.75
918.323	1.75
919.055	0.75
919.788	1.75
920.521	1.75
921.253	0.75
921.985	-0.25
922.718	0.75
923.45	-1.25
924.182	-0.25
924.914	-0.25
925.646	0.75
926.378	1.75
927.11	0.75
927.841	0.75
928.573	1.75
929.305	-1.25
930.036	1.75
930.768	0.75
931.499	1.75
932.23	1.75
932.962	0.75
933.693	-2.25
934.424	-0.25
935.155	-1.25
935.886	-1.25
936.617	-1.25
937.348	1.75
938.078	-1.25
938.809	-0.25
939.54	1.75
940.27	0.75
941.001	0.75
941.731	0.75
942.461	1.75
943.191	-1.25
943.922	0.75
944.652	0.75
945.382	-1.25
946.112	-0.25
946.841	0.75
947.571	0.75
948.301	-1.25
949.031	0.75
949.76	-0.25
950.49	-0.25
951.219	2.75
951.948	0.75
952.678	1.75
953.407	0.75
954.136	-0.25
954.865	2.75
955.594	0.75
956.323	1.75
957.052	-2.25
957.78	0.75
958.509	-1.25
959.238	1.75
959.966	-1.25
960.695	-0.25
961.423	-0.25
962.151	0.75
962.88	0.75
963.608	0.75
964.336	-0.25
965.064	-1.25
965.792	2.75
966.52	-1.25
967.247	1.75
967.975	0.75
968.703	1.75
969.43	0.75
970.158	2.75
970.885	1.75
971.613	2.75
972.34	-0.25
973.067	-1.25
973.794	0.75
974.521	-2.25
975.248	2.75
975.975	-3.25
976.702	0.75
977.429	0.75
978.156	1.75
978.882	-0.25
979.609	1.75
980.335	0.75
981.062	0.75
981.788	-2.25
982.514	-0.25
983.24	-1.25
983.967	-1.25
984.693	0.75
985.419	0.75
986.144	-1.25
986.87	-1.25
987.596	0.75
988.322	2.75
989.047	-1.25
989.773	0.75
990.498	1.75
991.224	0.75
991.949	-1.25
992.674	-1.25
993.399	-0.25
994.124	-0.25
994.849	0.75
995.574	-2.25
996.299	0.75
997.024	2.75
997.749	-1.25
998.473	0.75
999.198	-2.25
999.922	0.75
1000.647	-1.25
1001.371	2.75
1002.095	-1.25
1002.82	-2.25
1003.544	-1.25
1004.268	5.75
1004.992	3.75
1005.716	4.75
1006.439	3.75
1007.163	4.75
1007.887	6.75
1008.611	0.75
1009.334	0.75
1010.058	1.75
1010.781	-1.25
1011.504	0.75
1012.228	0.75
1012.951	3.75
1013.674	0.75
1014.397	-1.25
1015.12	-1.25
