节点500_705_QEPB04081__327__20-50-36-503.txt的数据

Date: Wed Nov 12 20:50:36 CST 2025
User: PC
Spectrometer: QEPB0408
触发模式: 0
积分时间 (秒): 1.000000E-2
Scans to average: 1
启用暗噪声校正: true
启用非线性校正: false
滑动平均宽度: 0
X轴模式: Wavelengths
Number of Pixels in Spectrum: 1044
>>>>>Begin Spectral Data<<<<<
220.843	6.62
221.644	5.62
222.444	7.62
223.244	6.62
224.045	5.62
224.845	4.62
225.645	7.62
226.445	5.62
227.245	7.62
228.045	7.62
228.845	8.62
229.645	8.62
230.444	9.62
231.244	8.62
232.043	7.62
232.843	8.62
233.642	8.62
234.442	11.62
235.241	8.62
236.04	9.62
236.839	11.62
237.638	10.62
238.437	9.62
239.236	14.62
240.035	10.62
240.833	10.62
241.632	10.62
242.43	9.62
243.229	14.62
244.027	13.62
244.826	12.62
245.624	13.62
246.422	12.62
247.22	15.62
248.018	15.62
248.816	13.62
249.614	14.62
250.412	14.62
251.21	14.62
252.007	12.62
252.805	15.62
253.602	17.62
254.4	13.62
255.197	17.62
255.994	18.62
256.791	17.62
257.589	20.62
258.386	20.62
259.183	20.62
259.979	20.62
260.776	24.62
261.573	22.62
262.37	24.62
263.166	22.62
263.963	25.62
264.759	24.62
265.556	26.62
266.352	26.62
267.148	25.62
267.944	26.62
268.74	31.62
269.536	27.62
270.332	27.62
271.128	30.62
271.924	33.62
272.719	28.62
273.515	31.62
274.311	31.62
275.106	34.62
275.901	29.62
276.697	32.62
277.492	35.62
278.287	30.62
279.082	31.62
279.877	35.62
280.672	33.62
281.467	32.62
282.262	33.62
283.056	34.62
283.851	34.62
284.646	35.62
285.44	37.62
286.234	37.62
287.029	35.62
287.823	33.62
288.617	31.62
289.411	32.62
290.205	32.62
290.999	28.62
291.793	31.62
292.587	33.62
293.381	27.62
294.174	28.62
294.968	27.62
295.761	28.62
296.555	27.62
297.348	23.62
298.141	26.62
298.935	28.62
299.728	25.62
300.521	25.62
301.314	20.62
302.107	25.62
302.899	24.62
303.692	22.62
304.485	20.62
305.277	23.62
306.07	21.62
306.862	20.62
307.655	21.62
308.447	22.62
309.239	21.62
310.031	20.62
310.823	18.62
311.615	15.62
312.407	15.62
313.199	16.62
313.991	16.62
314.783	15.62
315.574	15.62
316.366	17.62
317.157	17.62
317.949	14.62
318.74	12.62
319.531	15.62
320.322	12.62
321.113	15.62
321.904	12.62
322.695	12.62
323.486	13.62
324.277	13.62
325.068	14.62
325.858	11.62
326.649	14.62
327.439	12.62
328.23	10.62
329.02	12.62
329.81	11.62
330.6	12.62
331.391	10.62
332.181	10.62
332.971	10.62
333.76	10.62
334.55	11.62
335.34	12.62
336.13	12.62
336.919	10.62
337.709	13.62
338.498	11.62
339.287	10.62
340.077	9.62
340.866	10.62
341.655	9.62
342.444	12.62
343.233	7.62
344.022	10.62
344.811	11.62
345.6	12.62
346.388	12.62
347.177	12.62
347.965	10.62
348.754	12.62
349.542	11.62
350.33	11.62
351.119	11.62
351.907	10.62
352.695	10.62
353.483	12.62
354.271	8.62
355.059	12.62
355.846	10.62
356.634	8.62
357.422	12.62
358.209	11.62
358.997	9.62
359.784	9.62
360.571	9.62
361.359	10.62
362.146	7.62
362.933	10.62
363.72	11.62
364.507	8.62
365.294	11.62
366.081	8.62
366.867	8.62
367.654	9.62
368.44	9.62
369.227	9.62
370.013	9.62
370.8	11.62
371.586	9.62
372.372	11.62
373.158	10.62
373.944	8.62
374.73	8.62
375.516	9.62
376.302	9.62
377.088	10.62
377.873	10.62
378.659	10.62
379.445	11.62
380.23	12.62
381.015	10.62
381.801	9.62
382.586	8.62
383.371	10.62
384.156	7.62
384.941	8.62
385.726	10.62
386.511	10.62
387.296	11.62
388.08	10.62
388.865	11.62
389.649	13.62
390.434	8.62
391.218	10.62
392.003	12.62
392.787	11.62
393.571	13.62
394.355	12.62
395.139	14.62
395.923	12.62
396.707	13.62
397.491	12.62
398.274	12.62
399.058	13.62
399.842	12.62
400.625	15.62
401.408	16.62
402.192	13.62
402.975	18.62
403.758	10.62
404.541	13.62
405.324	15.62
406.107	16.62
406.89	16.62
407.673	12.62
408.456	14.62
409.238	15.62
410.021	18.62
410.803	16.62
411.586	18.62
412.368	15.62
413.151	16.62
413.933	19.62
414.715	18.62
415.497	19.62
416.279	14.62
417.061	16.62
417.843	17.62
418.624	20.62
419.406	22.62
420.188	19.62
420.969	20.62
421.751	20.62
422.532	19.62
423.313	23.62
424.095	22.62
424.876	24.62
425.657	22.62
426.438	27.62
427.219	25.62
428	26.62
428.78	28.62
429.561	30.62
430.342	34.62
431.122	32.62
431.903	32.62
432.683	33.62
433.464	36.62
434.244	35.62
435.024	36.62
435.804	40.62
436.584	41.62
437.364	46.62
438.144	48.62
438.924	52.62
439.704	55.62
440.483	61.62
441.263	60.62
442.042	61.62
442.822	66.62
443.601	76.62
444.38	80.62
445.16	87.62
445.939	96.62
446.718	97.62
447.497	109.62
448.276	118.62
449.054	134.62
449.833	146.62
450.612	156.62
451.391	176.62
452.169	193.62
452.948	213.62
453.726	236.62
454.504	264.62
455.282	297.62
456.061	333.62
456.839	370.62
457.617	415.62
458.395	469.62
459.172	508.62
459.95	564.62
460.728	638.62
461.506	704.62
462.283	786.62
463.061	889.62
463.838	978.62
464.615	1086.62
465.393	1209.62
466.17	1348.62
466.947	1503.62
467.724	1684.62
468.501	1844.62
469.278	2059.62
470.055	2249.62
470.831	2509.62
471.608	2761.62
472.385	3053.62
473.161	3357.62
473.938	3698.62
474.714	4065.62
475.49	4439.62
476.266	4877.62
477.043	5342.62
477.819	5800.62
478.595	6368.62
479.371	6942.62
480.146	7610.62
480.922	8306.62
481.698	9070.62
482.473	9801.62
483.249	10698.62
484.024	11605.62
484.8	12621.62
485.575	13621.62
486.35	14824.62
487.126	16031.62
487.901	17342.62
488.676	18755.62
489.451	20257.62
490.225	21700.62
491	23254.62
491.775	24915.62
492.55	26705.62
493.324	28366.62
494.099	30131.62
494.873	32012.62
495.647	33768.62
496.422	35544.62
497.196	37297.62
497.97	38894.62
498.744	40583.62
499.518	42084.62
500.292	43454.62
501.066	44529.62
501.839	45374.62
502.613	46138.62
503.387	46784.62
504.16	47119.62
504.934	47300.62
505.707	47282.62
506.48	46862.62
507.253	46401.62
508.027	45659.62
508.8	44648.62
509.573	43576.62
510.346	42614.62
511.118	41537.62
511.891	40310.62
512.664	38756.62
513.437	37307.62
514.209	35909.62
514.982	34613.62
515.754	33139.62
516.526	31756.62
517.298	30551.62
518.071	29328.62
518.843	28089.62
519.615	27129.62
520.387	25975.62
521.159	24942.62
521.93	23834.62
522.702	22881.62
523.474	21973.62
524.245	20948.62
525.017	20066.62
525.788	19200.62
526.56	18396.62
527.331	17599.62
528.102	16646.62
528.873	15927.62
529.644	15094.62
530.415	14433.62
531.186	13714.62
531.957	12949.62
532.728	12320.62
533.498	11729.62
534.269	11037.62
535.039	10523.62
535.81	9899.62
536.58	9347.62
537.351	8854.62
538.121	8406.62
538.891	7933.62
539.661	7519.62
540.431	7130.62
541.201	6734.62
541.971	6410.62
542.741	6047.62
543.51	5700.62
544.28	5474.62
545.05	5214.62
545.819	4966.62
546.588	4737.62
547.358	4509.62
548.127	4280.62
548.896	4079.62
549.665	3827.62
550.434	3643.62
551.203	3464.62
551.972	3278.62
552.741	3118.62
553.51	2956.62
554.278	2771.62
555.047	2616.62
555.815	2490.62
556.584	2345.62
557.352	2221.62
558.121	2085.62
558.889	1962.62
559.657	1870.62
560.425	1746.62
561.193	1668.62
561.961	1579.62
562.729	1492.62
563.496	1399.62
564.264	1341.62
565.032	1257.62
565.799	1194.62
566.567	1130.62
567.334	1065.62
568.101	1007.62
568.869	953.62
569.636	898.62
570.403	847.62
571.17	791.62
571.937	757.62
572.704	717.62
573.471	683.62
574.237	642.62
575.004	608.62
575.771	564.62
576.537	532.62
577.303	496.62
578.07	470.62
578.836	451.62
579.602	427.62
580.368	410.62
581.134	386.62
581.9	358.62
582.666	344.62
583.432	336.62
584.198	317.62
584.964	299.62
585.729	277.62
586.495	267.62
587.26	255.62
588.025	244.62
588.791	231.62
589.556	215.62
590.321	204.62
591.086	196.62
591.851	185.62
592.616	177.62
593.381	163.62
594.146	162.62
594.911	157.62
595.675	150.62
596.44	142.62
597.204	133.62
597.969	135.62
598.733	120.62
599.497	110.62
600.261	113.62
601.025	111.62
601.79	104.62
602.553	105.62
603.317	89.62
604.081	92.62
604.845	86.62
605.609	82.62
606.372	84.62
607.136	76.62
607.899	76.62
608.662	72.62
609.426	69.62
610.189	65.62
610.952	66.62
611.715	59.62
612.478	60.62
613.241	56.62
614.004	57.62
614.767	52.62
615.529	51.62
616.292	49.62
617.055	49.62
617.817	44.62
618.579	44.62
619.342	44.62
620.104	44.62
620.866	37.62
621.628	39.62
622.39	38.62
623.152	36.62
623.914	35.62
624.676	35.62
625.438	32.62
626.199	36.62
626.961	31.62
627.722	30.62
628.484	32.62
629.245	29.62
630.006	29.62
630.768	30.62
631.529	26.62
632.29	25.62
633.051	25.62
633.812	21.62
634.573	25.62
635.333	21.62
636.094	22.62
636.855	22.62
637.615	23.62
638.376	18.62
639.136	20.62
639.896	17.62
640.657	18.62
641.417	19.62
642.177	18.62
642.937	18.62
643.697	14.62
644.457	17.62
645.216	17.62
645.976	14.62
646.736	15.62
647.495	15.62
648.255	16.62
649.014	18.62
649.774	16.62
650.533	13.62
651.292	10.62
652.051	13.62
652.81	15.62
653.569	14.62
654.328	12.62
655.087	12.62
655.846	12.62
656.604	10.62
657.363	11.62
658.121	13.62
658.88	12.62
659.638	12.62
660.397	11.62
661.155	9.62
661.913	11.62
662.671	12.62
663.429	11.62
664.187	10.62
664.945	7.62
665.703	13.62
666.46	8.62
667.218	11.62
667.976	9.62
668.733	12.62
669.49	10.62
670.248	9.62
671.005	10.62
671.762	9.62
672.519	8.62
673.276	7.62
674.033	8.62
674.79	7.62
675.547	8.62
676.304	8.62
677.06	6.62
677.817	10.62
678.574	7.62
679.33	8.62
680.086	6.62
680.843	7.62
681.599	8.62
682.355	10.62
683.111	7.62
683.867	8.62
684.623	7.62
685.379	8.62
686.135	6.62
686.89	8.62
687.646	7.62
688.402	9.62
689.157	8.62
689.912	7.62
690.668	6.62
691.423	5.62
692.178	7.62
692.933	9.62
693.688	9.62
694.443	7.62
695.198	6.62
695.953	7.62
696.708	8.62
697.462	7.62
698.217	7.62
698.972	5.62
699.726	9.62
700.48	8.62
701.235	6.62
701.989	6.62
702.743	5.62
703.497	7.62
704.251	5.62
705.005	8.62
705.759	6.62
706.513	6.62
707.266	6.62
708.02	6.62
708.774	7.62
709.527	5.62
710.28	7.62
711.034	5.62
711.787	7.62
712.54	7.62
713.293	9.62
714.046	6.62
714.799	7.62
715.552	7.62
716.305	5.62
717.058	7.62
717.81	6.62
718.563	7.62
719.315	8.62
720.068	7.62
720.82	5.62
721.573	7.62
722.325	8.62
723.077	7.62
723.829	8.62
724.581	11.62
725.333	8.62
726.085	9.62
726.836	7.62
727.588	7.62
728.34	8.62
729.091	8.62
729.843	9.62
730.594	7.62
731.346	8.62
732.097	8.62
732.848	8.62
733.599	10.62
734.35	6.62
735.101	11.62
735.852	10.62
736.603	6.62
737.354	9.62
738.104	8.62
738.855	9.62
739.605	9.62
740.356	8.62
741.106	9.62
741.856	9.62
742.607	10.62
743.357	8.62
744.107	9.62
744.857	9.62
745.607	9.62
746.357	10.62
747.106	12.62
747.856	11.62
748.606	9.62
749.355	9.62
750.105	10.62
750.854	10.62
751.603	10.62
752.353	9.62
753.102	11.62
753.851	13.62
754.6	9.62
755.349	10.62
756.098	13.62
756.847	11.62
757.595	14.62
758.344	12.62
759.093	14.62
759.841	12.62
760.589	12.62
761.338	12.62
762.086	12.62
762.834	12.62
763.582	11.62
764.331	14.62
765.079	14.62
765.826	14.62
766.574	13.62
767.322	13.62
768.07	14.62
768.817	10.62
769.565	14.62
770.312	15.62
771.06	15.62
771.807	16.62
772.554	14.62
773.302	17.62
774.049	14.62
774.796	16.62
775.543	14.62
776.29	16.62
777.036	12.62
777.783	13.62
778.53	16.62
779.276	16.62
780.023	18.62
780.769	17.62
781.516	14.62
782.262	16.62
783.008	15.62
783.754	15.62
784.5	14.62
785.246	14.62
785.992	14.62
786.738	16.62
787.484	16.62
788.23	12.62
788.975	16.62
789.721	15.62
790.466	15.62
791.212	14.62
791.957	14.62
792.702	14.62
793.447	10.62
794.193	15.62
794.938	13.62
795.683	11.62
796.427	13.62
797.172	11.62
797.917	13.62
798.662	13.62
799.406	8.62
800.151	12.62
800.895	10.62
801.64	11.62
802.384	12.62
803.128	12.62
803.872	10.62
804.616	12.62
805.36	11.62
806.104	10.62
806.848	11.62
807.592	11.62
808.336	10.62
809.079	9.62
809.823	8.62
810.566	10.62
811.31	7.62
812.053	9.62
812.796	7.62
813.539	6.62
814.283	11.62
815.026	7.62
815.769	8.62
816.511	7.62
817.254	6.62
817.997	7.62
818.74	6.62
819.482	8.62
820.225	5.62
820.967	6.62
821.71	3.62
822.452	7.62
823.194	8.62
823.936	5.62
824.678	9.62
825.42	4.62
826.162	6.62
826.904	5.62
827.646	6.62
828.388	7.62
829.129	4.62
829.871	8.62
830.612	4.62
831.354	4.62
832.095	6.62
832.836	5.62
833.577	10.62
834.319	5.62
835.06	8.62
835.801	4.62
836.542	6.62
837.282	5.62
838.023	5.62
838.764	8.62
839.504	7.62
840.245	3.62
840.985	6.62
841.726	4.62
842.466	4.62
843.206	7.62
843.946	5.62
844.687	5.62
845.427	4.62
846.166	2.62
846.906	2.62
847.646	5.62
848.386	3.62
849.125	4.62
849.865	2.62
850.605	4.62
851.344	4.62
852.083	4.62
852.823	3.62
853.562	4.62
854.301	2.62
855.04	5.62
855.779	2.62
856.518	6.62
857.257	3.62
857.995	3.62
858.734	2.62
859.473	5.62
860.211	5.62
860.95	3.62
861.688	5.62
862.426	0.62
863.165	1.62
863.903	4.62
864.641	5.62
865.379	2.62
866.117	3.62
866.855	1.62
867.593	5.62
868.33	0.62
869.068	1.62
869.806	-0.38
870.543	1.62
871.28	1.62
872.018	1.62
872.755	2.62
873.492	2.62
874.229	2.62
874.967	1.62
875.703	0.62
876.44	1.62
877.177	3.62
877.914	1.62
878.651	0.62
879.387	2.62
880.124	0.62
880.86	1.62
881.597	1.62
882.333	0.62
883.069	1.62
883.806	1.62
884.542	0.62
885.278	0.62
886.014	-0.38
886.749	3.62
887.485	-0.38
888.221	1.62
888.957	1.62
889.692	2.62
890.428	1.62
891.163	1.62
891.899	2.62
892.634	-1.38
893.369	1.62
894.104	2.62
894.839	1.62
895.574	1.62
896.309	-0.38
897.044	2.62
897.779	0.62
898.514	2.62
899.248	0.62
899.983	-1.38
900.717	-0.38
901.452	0.62
902.186	2.62
902.92	2.62
903.654	1.62
904.389	0.62
905.123	-0.38
905.857	0.62
906.59	0.62
907.324	-0.38
908.058	0.62
908.792	0.62
909.525	1.62
910.259	-1.38
910.992	-0.38
911.726	0.62
912.459	2.62
913.192	0.62
913.925	-0.38
914.658	2.62
915.391	0.62
916.124	1.62
916.857	-0.38
917.59	0.62
918.323	-0.38
919.055	-1.38
919.788	1.62
920.521	0.62
921.253	0.62
921.985	-1.38
922.718	0.62
923.45	-0.38
924.182	-1.38
924.914	0.62
925.646	0.62
926.378	0.62
927.11	-1.38
927.841	-0.38
928.573	0.62
929.305	0.62
930.036	-0.38
930.768	0.62
931.499	-0.38
932.23	1.62
932.962	-1.38
933.693	1.62
934.424	-0.38
935.155	2.62
935.886	-0.38
936.617	-1.38
937.348	0.62
938.078	-1.38
938.809	-1.38
939.54	0.62
940.27	-1.38
941.001	-0.38
941.731	-0.38
942.461	-1.38
943.191	-1.38
943.922	-1.38
944.652	0.62
945.382	1.62
946.112	-2.38
946.841	-0.38
947.571	-1.38
948.301	-0.38
949.031	1.62
949.76	-0.38
950.49	-1.38
951.219	-1.38
951.948	1.62
952.678	0.62
953.407	0.62
954.136	0.62
954.865	-2.38
955.594	-1.38
956.323	1.62
957.052	-1.38
957.78	-1.38
958.509	3.62
959.238	-0.38
959.966	0.62
960.695	-1.38
961.423	-0.38
962.151	1.62
962.88	0.62
963.608	-0.38
964.336	0.62
965.064	-1.38
965.792	-1.38
966.52	2.62
967.247	1.62
967.975	-0.38
968.703	1.62
969.43	0.62
970.158	-0.38
970.885	1.62
971.613	-0.38
972.34	0.62
973.067	-0.38
973.794	0.62
974.521	0.62
975.248	0.62
975.975	0.62
976.702	-1.38
977.429	0.62
978.156	-0.38
978.882	0.62
979.609	1.62
980.335	-2.38
981.062	0.62
981.788	-1.38
982.514	-0.38
983.24	0.62
983.967	-1.38
984.693	2.62
985.419	-1.38
986.144	1.62
986.87	-1.38
987.596	0.62
988.322	0.62
989.047	0.62
989.773	-1.38
990.498	-0.38
991.224	-1.38
991.949	0.62
992.674	-0.38
993.399	1.62
994.124	-0.38
994.849	-0.38
995.574	-1.38
996.299	0.62
997.024	-0.38
997.749	0.62
998.473	-0.38
999.198	0.62
999.922	-0.38
1000.647	1.62
1001.371	4.62
1002.095	0.62
1002.82	-3.38
1003.544	-1.38
1004.268	2.62
1004.992	2.62
1005.716	3.62
1006.439	2.62
1007.163	3.62
1007.887	4.62
1008.611	1.62
1009.334	-0.38
1010.058	1.62
1010.781	0.62
1011.504	0.62
1012.228	-0.38
1012.951	2.62
1013.674	-0.38
1014.397	-1.38
1015.12	-1.38
