节点500_705_QEPB04081__583__20-54-12-775.txt的数据

Date: Wed Nov 12 20:54:12 CST 2025
User: PC
Spectrometer: QEPB0408
触发模式: 0
积分时间 (秒): 1.000000E-2
Scans to average: 1
启用暗噪声校正: true
启用非线性校正: false
滑动平均宽度: 0
X轴模式: Wavelengths
Number of Pixels in Spectrum: 1044
>>>>>Begin Spectral Data<<<<<
220.843	4.12
221.644	7.12
222.444	8.12
223.244	7.12
224.045	6.12
224.845	6.12
225.645	7.12
226.445	5.12
227.245	2.12
228.045	9.12
228.845	10.12
229.645	9.12
230.444	7.12
231.244	6.12
232.043	8.12
232.843	9.12
233.642	10.12
234.442	7.12
235.241	10.12
236.04	10.12
236.839	8.12
237.638	12.12
238.437	9.12
239.236	9.12
240.035	11.12
240.833	12.12
241.632	9.12
242.43	11.12
243.229	11.12
244.027	13.12
244.826	13.12
245.624	13.12
246.422	13.12
247.22	11.12
248.018	12.12
248.816	13.12
249.614	16.12
250.412	13.12
251.21	16.12
252.007	13.12
252.805	16.12
253.602	15.12
254.4	18.12
255.197	15.12
255.994	18.12
256.791	18.12
257.589	18.12
258.386	17.12
259.183	19.12
259.979	19.12
260.776	22.12
261.573	22.12
262.37	19.12
263.166	22.12
263.963	23.12
264.759	21.12
265.556	26.12
266.352	23.12
267.148	27.12
267.944	26.12
268.74	27.12
269.536	27.12
270.332	27.12
271.128	27.12
271.924	27.12
272.719	28.12
273.515	31.12
274.311	29.12
275.106	30.12
275.901	30.12
276.697	30.12
277.492	27.12
278.287	31.12
279.082	31.12
279.877	31.12
280.672	32.12
281.467	29.12
282.262	31.12
283.056	31.12
283.851	30.12
284.646	34.12
285.44	31.12
286.234	33.12
287.029	34.12
287.823	32.12
288.617	33.12
289.411	30.12
290.205	31.12
290.999	33.12
291.793	30.12
292.587	29.12
293.381	25.12
294.174	29.12
294.968	29.12
295.761	28.12
296.555	27.12
297.348	24.12
298.141	26.12
298.935	30.12
299.728	27.12
300.521	25.12
301.314	25.12
302.107	24.12
302.899	20.12
303.692	23.12
304.485	19.12
305.277	24.12
306.07	21.12
306.862	19.12
307.655	22.12
308.447	20.12
309.239	19.12
310.031	19.12
310.823	20.12
311.615	18.12
312.407	17.12
313.199	19.12
313.991	16.12
314.783	19.12
315.574	17.12
316.366	14.12
317.157	16.12
317.949	16.12
318.74	15.12
319.531	15.12
320.322	12.12
321.113	13.12
321.904	16.12
322.695	17.12
323.486	13.12
324.277	13.12
325.068	14.12
325.858	11.12
326.649	13.12
327.439	10.12
328.23	13.12
329.02	12.12
329.81	12.12
330.6	14.12
331.391	11.12
332.181	12.12
332.971	12.12
333.76	14.12
334.55	11.12
335.34	10.12
336.13	13.12
336.919	11.12
337.709	11.12
338.498	12.12
339.287	11.12
340.077	11.12
340.866	11.12
341.655	12.12
342.444	11.12
343.233	12.12
344.022	13.12
344.811	9.12
345.6	10.12
346.388	10.12
347.177	11.12
347.965	10.12
348.754	12.12
349.542	12.12
350.33	14.12
351.119	14.12
351.907	8.12
352.695	10.12
353.483	10.12
354.271	9.12
355.059	9.12
355.846	9.12
356.634	11.12
357.422	10.12
358.209	11.12
358.997	7.12
359.784	13.12
360.571	11.12
361.359	9.12
362.146	12.12
362.933	10.12
363.72	8.12
364.507	12.12
365.294	8.12
366.081	11.12
366.867	9.12
367.654	12.12
368.44	8.12
369.227	9.12
370.013	9.12
370.8	8.12
371.586	11.12
372.372	10.12
373.158	9.12
373.944	11.12
374.73	9.12
375.516	7.12
376.302	9.12
377.088	10.12
377.873	8.12
378.659	10.12
379.445	10.12
380.23	7.12
381.015	11.12
381.801	10.12
382.586	10.12
383.371	9.12
384.156	9.12
384.941	8.12
385.726	12.12
386.511	11.12
387.296	11.12
388.08	10.12
388.865	10.12
389.649	11.12
390.434	13.12
391.218	10.12
392.003	12.12
392.787	11.12
393.571	11.12
394.355	13.12
395.139	8.12
395.923	11.12
396.707	14.12
397.491	13.12
398.274	13.12
399.058	14.12
399.842	13.12
400.625	12.12
401.408	11.12
402.192	14.12
402.975	17.12
403.758	13.12
404.541	12.12
405.324	14.12
406.107	13.12
406.89	13.12
407.673	16.12
408.456	15.12
409.238	16.12
410.021	15.12
410.803	19.12
411.586	15.12
412.368	15.12
413.151	18.12
413.933	17.12
414.715	15.12
415.497	18.12
416.279	19.12
417.061	18.12
417.843	19.12
418.624	19.12
419.406	18.12
420.188	20.12
420.969	22.12
421.751	21.12
422.532	21.12
423.313	24.12
424.095	22.12
424.876	25.12
425.657	24.12
426.438	26.12
427.219	25.12
428	29.12
428.78	27.12
429.561	30.12
430.342	29.12
431.122	31.12
431.903	28.12
432.683	31.12
433.464	39.12
434.244	36.12
435.024	39.12
435.804	42.12
436.584	41.12
437.364	48.12
438.144	49.12
438.924	54.12
439.704	52.12
440.483	57.12
441.263	61.12
442.042	68.12
442.822	73.12
443.601	80.12
444.38	82.12
445.16	92.12
445.939	99.12
446.718	110.12
447.497	119.12
448.276	131.12
449.054	141.12
449.833	162.12
450.612	171.12
451.391	190.12
452.169	209.12
452.948	235.12
453.726	245.12
454.504	287.12
455.282	325.12
456.061	358.12
456.839	396.12
457.617	444.12
458.395	479.12
459.172	540.12
459.95	601.12
460.728	664.12
461.506	755.12
462.283	825.12
463.061	922.12
463.838	1018.12
464.615	1129.12
465.393	1246.12
466.17	1373.12
466.947	1536.12
467.724	1708.12
468.501	1892.12
469.278	2054.12
470.055	2268.12
470.831	2509.12
471.608	2749.12
472.385	3019.12
473.161	3305.12
473.938	3589.12
474.714	3965.12
475.49	4314.12
476.266	4705.12
477.043	5124.12
477.819	5624.12
478.595	6039.12
479.371	6592.12
480.146	7165.12
480.922	7767.12
481.698	8418.12
482.473	9129.12
483.249	9846.12
484.024	10634.12
484.8	11471.12
485.575	12418.12
486.35	13384.12
487.126	14448.12
487.901	15539.12
488.676	16702.12
489.451	18007.12
490.225	19281.12
491	20614.12
491.775	22025.12
492.55	23485.12
493.324	24974.12
494.099	26570.12
494.873	28155.12
495.647	29737.12
496.422	31291.12
497.196	32907.12
497.97	34486.12
498.744	35939.12
499.518	37478.12
500.292	38861.12
501.066	39758.12
501.839	40836.12
502.613	41681.12
503.387	42647.12
504.16	43198.12
504.934	43616.12
505.707	43840.12
506.48	43705.12
507.253	43626.12
508.027	43276.12
508.8	42696.12
509.573	41990.12
510.346	41235.12
511.118	40424.12
511.891	39442.12
512.664	38180.12
513.437	36941.12
514.209	35665.12
514.982	34475.12
515.754	33226.12
516.526	31950.12
517.298	30674.12
518.071	29613.12
518.843	28478.12
519.615	27291.12
520.387	26270.12
521.159	25241.12
521.93	24150.12
522.702	23206.12
523.474	22265.12
524.245	21291.12
525.017	20456.12
525.788	19653.12
526.56	18795.12
527.331	17998.12
528.102	17197.12
528.873	16318.12
529.644	15560.12
530.415	14898.12
531.186	14223.12
531.957	13502.12
532.728	12817.12
533.498	12141.12
534.269	11593.12
535.039	10969.12
535.81	10365.12
536.58	9851.12
537.351	9364.12
538.121	8805.12
538.891	8367.12
539.661	7882.12
540.431	7438.12
541.201	7092.12
541.971	6718.12
542.741	6389.12
543.51	6060.12
544.28	5766.12
545.05	5476.12
545.819	5243.12
546.588	4982.12
547.358	4765.12
548.127	4527.12
548.896	4289.12
549.665	4076.12
550.434	3891.12
551.203	3667.12
551.972	3490.12
552.741	3296.12
553.51	3128.12
554.278	2950.12
555.047	2776.12
555.815	2629.12
556.584	2511.12
557.352	2367.12
558.121	2239.12
558.889	2098.12
559.657	2001.12
560.425	1887.12
561.193	1785.12
561.961	1695.12
562.729	1611.12
563.496	1518.12
564.264	1434.12
565.032	1355.12
565.799	1278.12
566.567	1213.12
567.334	1148.12
568.101	1087.12
568.869	1020.12
569.636	966.12
570.403	904.12
571.17	854.12
571.937	819.12
572.704	778.12
573.471	724.12
574.237	677.12
575.004	645.12
575.771	614.12
576.537	573.12
577.303	545.12
578.07	508.12
578.836	484.12
579.602	459.12
580.368	436.12
581.134	424.12
581.9	395.12
582.666	376.12
583.432	355.12
584.198	334.12
584.964	324.12
585.729	313.12
586.495	282.12
587.26	271.12
588.025	259.12
588.791	245.12
589.556	227.12
590.321	216.12
591.086	216.12
591.851	199.12
592.616	185.12
593.381	178.12
594.146	174.12
594.911	164.12
595.675	156.12
596.44	150.12
597.204	143.12
597.969	140.12
598.733	133.12
599.497	130.12
600.261	119.12
601.025	115.12
601.79	109.12
602.553	106.12
603.317	102.12
604.081	94.12
604.845	94.12
605.609	88.12
606.372	80.12
607.136	86.12
607.899	80.12
608.662	75.12
609.426	72.12
610.189	67.12
610.952	68.12
611.715	63.12
612.478	63.12
613.241	58.12
614.004	59.12
614.767	55.12
615.529	55.12
616.292	55.12
617.055	50.12
617.817	49.12
618.579	50.12
619.342	47.12
620.104	44.12
620.866	44.12
621.628	42.12
622.39	38.12
623.152	35.12
623.914	38.12
624.676	37.12
625.438	35.12
626.199	35.12
626.961	35.12
627.722	33.12
628.484	31.12
629.245	31.12
630.006	31.12
630.768	29.12
631.529	25.12
632.29	26.12
633.051	23.12
633.812	26.12
634.573	27.12
635.333	25.12
636.094	23.12
636.855	23.12
637.615	20.12
638.376	22.12
639.136	21.12
639.896	19.12
640.657	18.12
641.417	20.12
642.177	20.12
642.937	19.12
643.697	19.12
644.457	18.12
645.216	18.12
645.976	15.12
646.736	17.12
647.495	15.12
648.255	15.12
649.014	15.12
649.774	14.12
650.533	15.12
651.292	13.12
652.051	15.12
652.81	14.12
653.569	13.12
654.328	12.12
655.087	15.12
655.846	14.12
656.604	15.12
657.363	9.12
658.121	14.12
658.88	12.12
659.638	9.12
660.397	11.12
661.155	10.12
661.913	10.12
662.671	13.12
663.429	12.12
664.187	11.12
664.945	9.12
665.703	10.12
666.46	8.12
667.218	10.12
667.976	11.12
668.733	11.12
669.49	9.12
670.248	12.12
671.005	8.12
671.762	9.12
672.519	7.12
673.276	9.12
674.033	7.12
674.79	8.12
675.547	7.12
676.304	9.12
677.06	7.12
677.817	7.12
678.574	5.12
679.33	10.12
680.086	9.12
680.843	8.12
681.599	9.12
682.355	7.12
683.111	9.12
683.867	8.12
684.623	9.12
685.379	10.12
686.135	9.12
686.89	10.12
687.646	6.12
688.402	8.12
689.157	7.12
689.912	8.12
690.668	9.12
691.423	8.12
692.178	9.12
692.933	7.12
693.688	7.12
694.443	9.12
695.198	7.12
695.953	9.12
696.708	8.12
697.462	10.12
698.217	8.12
698.972	6.12
699.726	6.12
700.48	6.12
701.235	7.12
701.989	4.12
702.743	5.12
703.497	10.12
704.251	9.12
705.005	7.12
705.759	5.12
706.513	9.12
707.266	6.12
708.02	7.12
708.774	8.12
709.527	7.12
710.28	5.12
711.034	7.12
711.787	7.12
712.54	8.12
713.293	5.12
714.046	10.12
714.799	7.12
715.552	9.12
716.305	7.12
717.058	10.12
717.81	8.12
718.563	10.12
719.315	7.12
720.068	6.12
720.82	10.12
721.573	7.12
722.325	7.12
723.077	9.12
723.829	9.12
724.581	9.12
725.333	10.12
726.085	10.12
726.836	9.12
727.588	10.12
728.34	8.12
729.091	7.12
729.843	10.12
730.594	9.12
731.346	7.12
732.097	9.12
732.848	7.12
733.599	6.12
734.35	9.12
735.101	9.12
735.852	10.12
736.603	8.12
737.354	9.12
738.104	8.12
738.855	9.12
739.605	8.12
740.356	10.12
741.106	10.12
741.856	8.12
742.607	8.12
743.357	7.12
744.107	11.12
744.857	11.12
745.607	10.12
746.357	11.12
747.106	9.12
747.856	11.12
748.606	9.12
749.355	9.12
750.105	11.12
750.854	11.12
751.603	12.12
752.353	10.12
753.102	13.12
753.851	8.12
754.6	12.12
755.349	9.12
756.098	10.12
756.847	11.12
757.595	11.12
758.344	11.12
759.093	11.12
759.841	12.12
760.589	11.12
761.338	13.12
762.086	11.12
762.834	13.12
763.582	12.12
764.331	13.12
765.079	11.12
765.826	13.12
766.574	10.12
767.322	15.12
768.07	11.12
768.817	13.12
769.565	13.12
770.312	13.12
771.06	12.12
771.807	14.12
772.554	13.12
773.302	12.12
774.049	13.12
774.796	12.12
775.543	15.12
776.29	17.12
777.036	13.12
777.783	16.12
778.53	17.12
779.276	15.12
780.023	11.12
780.769	16.12
781.516	15.12
782.262	15.12
783.008	14.12
783.754	16.12
784.5	14.12
785.246	15.12
785.992	13.12
786.738	15.12
787.484	14.12
788.23	14.12
788.975	14.12
789.721	14.12
790.466	13.12
791.212	14.12
791.957	16.12
792.702	16.12
793.447	14.12
794.193	15.12
794.938	12.12
795.683	13.12
796.427	12.12
797.172	11.12
797.917	12.12
798.662	12.12
799.406	13.12
800.151	10.12
800.895	13.12
801.64	13.12
802.384	12.12
803.128	12.12
803.872	9.12
804.616	13.12
805.36	11.12
806.104	12.12
806.848	11.12
807.592	12.12
808.336	10.12
809.079	8.12
809.823	9.12
810.566	9.12
811.31	11.12
812.053	10.12
812.796	11.12
813.539	13.12
814.283	8.12
815.026	8.12
815.769	9.12
816.511	9.12
817.254	8.12
817.997	8.12
818.74	9.12
819.482	7.12
820.225	9.12
820.967	10.12
821.71	9.12
822.452	8.12
823.194	8.12
823.936	6.12
824.678	2.12
825.42	7.12
826.162	5.12
826.904	9.12
827.646	8.12
828.388	5.12
829.129	6.12
829.871	6.12
830.612	6.12
831.354	6.12
832.095	5.12
832.836	7.12
833.577	5.12
834.319	6.12
835.06	7.12
835.801	7.12
836.542	7.12
837.282	2.12
838.023	7.12
838.764	8.12
839.504	6.12
840.245	6.12
840.985	7.12
841.726	7.12
842.466	6.12
843.206	8.12
843.946	6.12
844.687	6.12
845.427	7.12
846.166	4.12
846.906	6.12
847.646	7.12
848.386	2.12
849.125	6.12
849.865	7.12
850.605	8.12
851.344	4.12
852.083	4.12
852.823	6.12
853.562	5.12
854.301	4.12
855.04	4.12
855.779	5.12
856.518	3.12
857.257	6.12
857.995	5.12
858.734	3.12
859.473	3.12
860.211	3.12
860.95	3.12
861.688	4.12
862.426	5.12
863.165	6.12
863.903	2.12
864.641	1.12
865.379	3.12
866.117	4.12
866.855	1.12
867.593	5.12
868.33	2.12
869.068	2.12
869.806	4.12
870.543	2.12
871.28	5.12
872.018	3.12
872.755	0.12
873.492	1.12
874.229	1.12
874.967	1.12
875.703	1.12
876.44	4.12
877.177	1.12
877.914	1.12
878.651	1.12
879.387	2.12
880.124	3.12
880.86	1.12
881.597	1.12
882.333	0.12
883.069	2.12
883.806	2.12
884.542	3.12
885.278	2.12
886.014	2.12
886.749	1.12
887.485	2.12
888.221	3.12
888.957	3.12
889.692	1.12
890.428	2.12
891.163	3.12
891.899	3.12
892.634	3.12
893.369	2.12
894.104	2.12
894.839	1.12
895.574	0.12
896.309	1.12
897.044	2.12
897.779	2.12
898.514	0.12
899.248	2.12
899.983	1.12
900.717	-0.88
901.452	2.12
902.186	1.12
902.92	1.12
903.654	1.12
904.389	0.12
905.123	1.12
905.857	0.12
906.59	2.12
907.324	0.12
908.058	2.12
908.792	2.12
909.525	-0.88
910.259	0.12
910.992	1.12
911.726	0.12
912.459	1.12
913.192	-0.88
913.925	1.12
914.658	2.12
915.391	1.12
916.124	1.12
916.857	3.12
917.59	1.12
918.323	-0.88
919.055	3.12
919.788	1.12
920.521	1.12
921.253	-0.88
921.985	2.12
922.718	2.12
923.45	0.12
924.182	1.12
924.914	3.12
925.646	1.12
926.378	-0.88
927.11	3.12
927.841	0.12
928.573	0.12
929.305	0.12
930.036	1.12
930.768	1.12
931.499	2.12
932.23	0.12
932.962	-1.88
933.693	0.12
934.424	0.12
935.155	-0.88
935.886	-0.88
936.617	0.12
937.348	-0.88
938.078	2.12
938.809	-0.88
939.54	1.12
940.27	2.12
941.001	-1.88
941.731	-0.88
942.461	1.12
943.191	2.12
943.922	-0.88
944.652	2.12
945.382	1.12
946.112	0.12
946.841	1.12
947.571	1.12
948.301	0.12
949.031	1.12
949.76	0.12
950.49	1.12
951.219	1.12
951.948	0.12
952.678	-1.88
953.407	2.12
954.136	0.12
954.865	2.12
955.594	0.12
956.323	0.12
957.052	1.12
957.78	-0.88
958.509	1.12
959.238	0.12
959.966	-0.88
960.695	2.12
961.423	2.12
962.151	1.12
962.88	1.12
963.608	-2.88
964.336	1.12
965.064	1.12
965.792	0.12
966.52	1.12
967.247	0.12
967.975	-0.88
968.703	1.12
969.43	3.12
970.158	-1.88
970.885	1.12
971.613	-0.88
972.34	-0.88
973.067	1.12
973.794	-0.88
974.521	1.12
975.248	-0.88
975.975	2.12
976.702	2.12
977.429	-0.88
978.156	3.12
978.882	1.12
979.609	0.12
980.335	0.12
981.062	1.12
981.788	1.12
982.514	-0.88
983.24	1.12
983.967	1.12
984.693	0.12
985.419	1.12
986.144	0.12
986.87	2.12
987.596	2.12
988.322	1.12
989.047	0.12
989.773	0.12
990.498	0.12
991.224	0.12
991.949	1.12
992.674	0.12
993.399	3.12
994.124	-0.88
994.849	-0.88
995.574	1.12
996.299	-2.88
997.024	2.12
997.749	1.12
998.473	1.12
999.198	2.12
999.922	-0.88
1000.647	0.12
1001.371	4.12
1002.095	-1.88
1002.82	0.12
1003.544	-0.88
1004.268	7.12
1004.992	3.12
1005.716	5.12
1006.439	4.12
1007.163	4.12
1007.887	6.12
1008.611	-0.88
1009.334	0.12
1010.058	0.12
1010.781	0.12
1011.504	1.12
1012.228	-0.88
1012.951	0.12
1013.674	-0.88
1014.397	0.12
1015.12	-0.88
