节点500_705_QEPB04081__360__20-51-02-595.txt的数据

Date: Wed Nov 12 20:51:02 CST 2025
User: PC
Spectrometer: QEPB0408
触发模式: 0
积分时间 (秒): 1.000000E-2
Scans to average: 1
启用暗噪声校正: true
启用非线性校正: false
滑动平均宽度: 0
X轴模式: Wavelengths
Number of Pixels in Spectrum: 1044
>>>>>Begin Spectral Data<<<<<
220.843	4.75
221.644	5.75
222.444	5.75
223.244	4.75
224.045	5.75
224.845	5.75
225.645	6.75
226.445	4.75
227.245	7.75
228.045	6.75
228.845	8.75
229.645	9.75
230.444	8.75
231.244	9.75
232.043	9.75
232.843	5.75
233.642	9.75
234.442	8.75
235.241	8.75
236.04	11.75
236.839	8.75
237.638	9.75
238.437	9.75
239.236	9.75
240.035	10.75
240.833	10.75
241.632	12.75
242.43	10.75
243.229	12.75
244.027	9.75
244.826	14.75
245.624	11.75
246.422	14.75
247.22	14.75
248.018	14.75
248.816	14.75
249.614	15.75
250.412	15.75
251.21	17.75
252.007	14.75
252.805	20.75
253.602	18.75
254.4	17.75
255.197	17.75
255.994	20.75
256.791	21.75
257.589	18.75
258.386	19.75
259.183	22.75
259.979	23.75
260.776	22.75
261.573	22.75
262.37	22.75
263.166	24.75
263.963	23.75
264.759	26.75
265.556	22.75
266.352	23.75
267.148	26.75
267.944	30.75
268.74	27.75
269.536	26.75
270.332	28.75
271.128	31.75
271.924	32.75
272.719	30.75
273.515	32.75
274.311	31.75
275.106	33.75
275.901	32.75
276.697	33.75
277.492	31.75
278.287	30.75
279.082	31.75
279.877	36.75
280.672	31.75
281.467	34.75
282.262	33.75
283.056	31.75
283.851	33.75
284.646	30.75
285.44	34.75
286.234	33.75
287.029	32.75
287.823	32.75
288.617	32.75
289.411	33.75
290.205	30.75
290.999	31.75
291.793	29.75
292.587	30.75
293.381	35.75
294.174	30.75
294.968	29.75
295.761	30.75
296.555	26.75
297.348	24.75
298.141	28.75
298.935	28.75
299.728	26.75
300.521	24.75
301.314	24.75
302.107	22.75
302.899	25.75
303.692	21.75
304.485	22.75
305.277	18.75
306.07	22.75
306.862	24.75
307.655	23.75
308.447	22.75
309.239	19.75
310.031	20.75
310.823	16.75
311.615	19.75
312.407	18.75
313.199	17.75
313.991	18.75
314.783	15.75
315.574	14.75
316.366	14.75
317.157	16.75
317.949	17.75
318.74	14.75
319.531	13.75
320.322	13.75
321.113	14.75
321.904	14.75
322.695	13.75
323.486	10.75
324.277	11.75
325.068	12.75
325.858	11.75
326.649	11.75
327.439	13.75
328.23	13.75
329.02	12.75
329.81	10.75
330.6	11.75
331.391	13.75
332.181	10.75
332.971	12.75
333.76	10.75
334.55	12.75
335.34	12.75
336.13	10.75
336.919	11.75
337.709	10.75
338.498	14.75
339.287	12.75
340.077	14.75
340.866	9.75
341.655	12.75
342.444	12.75
343.233	10.75
344.022	9.75
344.811	8.75
345.6	10.75
346.388	11.75
347.177	11.75
347.965	12.75
348.754	9.75
349.542	11.75
350.33	13.75
351.119	8.75
351.907	12.75
352.695	10.75
353.483	9.75
354.271	8.75
355.059	11.75
355.846	12.75
356.634	9.75
357.422	10.75
358.209	7.75
358.997	10.75
359.784	12.75
360.571	10.75
361.359	10.75
362.146	10.75
362.933	10.75
363.72	8.75
364.507	8.75
365.294	8.75
366.081	9.75
366.867	8.75
367.654	11.75
368.44	12.75
369.227	10.75
370.013	5.75
370.8	9.75
371.586	8.75
372.372	11.75
373.158	9.75
373.944	12.75
374.73	8.75
375.516	10.75
376.302	9.75
377.088	8.75
377.873	9.75
378.659	10.75
379.445	9.75
380.23	9.75
381.015	9.75
381.801	10.75
382.586	10.75
383.371	8.75
384.156	7.75
384.941	10.75
385.726	7.75
386.511	10.75
387.296	7.75
388.08	10.75
388.865	10.75
389.649	10.75
390.434	10.75
391.218	11.75
392.003	11.75
392.787	11.75
393.571	9.75
394.355	11.75
395.139	12.75
395.923	13.75
396.707	14.75
397.491	11.75
398.274	12.75
399.058	11.75
399.842	10.75
400.625	12.75
401.408	11.75
402.192	14.75
402.975	12.75
403.758	12.75
404.541	13.75
405.324	16.75
406.107	14.75
406.89	14.75
407.673	13.75
408.456	16.75
409.238	15.75
410.021	17.75
410.803	14.75
411.586	18.75
412.368	16.75
413.151	18.75
413.933	15.75
414.715	18.75
415.497	16.75
416.279	15.75
417.061	17.75
417.843	17.75
418.624	20.75
419.406	20.75
420.188	19.75
420.969	19.75
421.751	21.75
422.532	25.75
423.313	24.75
424.095	24.75
424.876	24.75
425.657	22.75
426.438	27.75
427.219	27.75
428	26.75
428.78	27.75
429.561	29.75
430.342	31.75
431.122	31.75
431.903	31.75
432.683	33.75
433.464	32.75
434.244	36.75
435.024	38.75
435.804	40.75
436.584	43.75
437.364	45.75
438.144	46.75
438.924	48.75
439.704	53.75
440.483	52.75
441.263	61.75
442.042	63.75
442.822	70.75
443.601	73.75
444.38	78.75
445.16	87.75
445.939	92.75
446.718	105.75
447.497	112.75
448.276	126.75
449.054	135.75
449.833	145.75
450.612	162.75
451.391	179.75
452.169	194.75
452.948	226.75
453.726	239.75
454.504	278.75
455.282	296.75
456.061	335.75
456.839	375.75
457.617	412.75
458.395	456.75
459.172	511.75
459.95	580.75
460.728	638.75
461.506	721.75
462.283	788.75
463.061	890.75
463.838	991.75
464.615	1102.75
465.393	1230.75
466.17	1369.75
466.947	1516.75
467.724	1674.75
468.501	1853.75
469.278	2052.75
470.055	2262.75
470.831	2508.75
471.608	2746.75
472.385	3042.75
473.161	3358.75
473.938	3683.75
474.714	4058.75
475.49	4454.75
476.266	4882.75
477.043	5309.75
477.819	5814.75
478.595	6381.75
479.371	6894.75
480.146	7519.75
480.922	8290.75
481.698	8967.75
482.473	9772.75
483.249	10600.75
484.024	11456.75
484.8	12554.75
485.575	13503.75
486.35	14638.75
487.126	15882.75
487.901	17131.75
488.676	18422.75
489.451	19999.75
490.225	21482.75
491	23000.75
491.775	24522.75
492.55	26313.75
493.324	27940.75
494.099	29690.75
494.873	31497.75
495.647	33304.75
496.422	35069.75
497.196	36742.75
497.97	38354.75
498.744	39861.75
499.518	41478.75
500.292	42913.75
501.066	43949.75
501.839	44738.75
502.613	45627.75
503.387	46322.75
504.16	46701.75
504.934	46890.75
505.707	46787.75
506.48	46484.75
507.253	46029.75
508.027	45484.75
508.8	44455.75
509.573	43441.75
510.346	42501.75
511.118	41457.75
511.891	40281.75
512.664	38658.75
513.437	37322.75
514.209	35873.75
514.982	34550.75
515.754	33148.75
516.526	31792.75
517.298	30602.75
518.071	29369.75
518.843	28181.75
519.615	26979.75
520.387	26008.75
521.159	24998.75
521.93	23890.75
522.702	22951.75
523.474	21941.75
524.245	21019.75
525.017	20151.75
525.788	19260.75
526.56	18446.75
527.331	17676.75
528.102	16758.75
528.873	15892.75
529.644	15147.75
530.415	14497.75
531.186	13778.75
531.957	13024.75
532.728	12410.75
533.498	11757.75
534.269	11170.75
535.039	10520.75
535.81	9967.75
536.58	9428.75
537.351	8927.75
538.121	8461.75
538.891	8005.75
539.661	7539.75
540.431	7140.75
541.201	6775.75
541.971	6436.75
542.741	6119.75
543.51	5808.75
544.28	5511.75
545.05	5219.75
545.819	4998.75
546.588	4742.75
547.358	4533.75
548.127	4325.75
548.896	4092.75
549.665	3876.75
550.434	3681.75
551.203	3483.75
551.972	3301.75
552.741	3144.75
553.51	2943.75
554.278	2786.75
555.047	2648.75
555.815	2493.75
556.584	2354.75
557.352	2213.75
558.121	2109.75
558.889	1994.75
559.657	1882.75
560.425	1793.75
561.193	1685.75
561.961	1604.75
562.729	1511.75
563.496	1407.75
564.264	1349.75
565.032	1266.75
565.799	1204.75
566.567	1141.75
567.334	1085.75
568.101	1023.75
568.869	953.75
569.636	906.75
570.403	868.75
571.17	810.75
571.937	767.75
572.704	719.75
573.471	685.75
574.237	648.75
575.004	616.75
575.771	564.75
576.537	544.75
577.303	514.75
578.07	480.75
578.836	462.75
579.602	427.75
580.368	407.75
581.134	391.75
581.9	369.75
582.666	352.75
583.432	339.75
584.198	321.75
584.964	301.75
585.729	285.75
586.495	280.75
587.26	259.75
588.025	246.75
588.791	226.75
589.556	212.75
590.321	209.75
591.086	199.75
591.851	189.75
592.616	175.75
593.381	169.75
594.146	159.75
594.911	150.75
595.675	149.75
596.44	149.75
597.204	138.75
597.969	130.75
598.733	122.75
599.497	116.75
600.261	108.75
601.025	110.75
601.79	102.75
602.553	96.75
603.317	98.75
604.081	89.75
604.845	91.75
605.609	85.75
606.372	79.75
607.136	76.75
607.899	74.75
608.662	72.75
609.426	67.75
610.189	63.75
610.952	66.75
611.715	60.75
612.478	60.75
613.241	51.75
614.004	55.75
614.767	56.75
615.529	55.75
616.292	49.75
617.055	50.75
617.817	46.75
618.579	44.75
619.342	41.75
620.104	40.75
620.866	46.75
621.628	38.75
622.39	38.75
623.152	35.75
623.914	32.75
624.676	34.75
625.438	31.75
626.199	30.75
626.961	31.75
627.722	30.75
628.484	30.75
629.245	30.75
630.006	32.75
630.768	28.75
631.529	27.75
632.29	26.75
633.051	24.75
633.812	22.75
634.573	24.75
635.333	22.75
636.094	24.75
636.855	21.75
637.615	23.75
638.376	22.75
639.136	21.75
639.896	22.75
640.657	20.75
641.417	18.75
642.177	17.75
642.937	19.75
643.697	18.75
644.457	16.75
645.216	18.75
645.976	17.75
646.736	18.75
647.495	15.75
648.255	17.75
649.014	14.75
649.774	16.75
650.533	14.75
651.292	11.75
652.051	11.75
652.81	11.75
653.569	12.75
654.328	12.75
655.087	11.75
655.846	13.75
656.604	13.75
657.363	12.75
658.121	10.75
658.88	9.75
659.638	10.75
660.397	13.75
661.155	12.75
661.913	13.75
662.671	11.75
663.429	10.75
664.187	9.75
664.945	9.75
665.703	8.75
666.46	10.75
667.218	10.75
667.976	7.75
668.733	9.75
669.49	8.75
670.248	10.75
671.005	9.75
671.762	7.75
672.519	8.75
673.276	6.75
674.033	4.75
674.79	8.75
675.547	9.75
676.304	7.75
677.06	8.75
677.817	9.75
678.574	8.75
679.33	9.75
680.086	10.75
680.843	7.75
681.599	7.75
682.355	12.75
683.111	10.75
683.867	8.75
684.623	8.75
685.379	8.75
686.135	6.75
686.89	9.75
687.646	5.75
688.402	7.75
689.157	6.75
689.912	7.75
690.668	6.75
691.423	4.75
692.178	6.75
692.933	6.75
693.688	10.75
694.443	6.75
695.198	7.75
695.953	10.75
696.708	4.75
697.462	8.75
698.217	7.75
698.972	9.75
699.726	6.75
700.48	5.75
701.235	6.75
701.989	7.75
702.743	9.75
703.497	4.75
704.251	7.75
705.005	7.75
705.759	6.75
706.513	9.75
707.266	6.75
708.02	9.75
708.774	7.75
709.527	9.75
710.28	7.75
711.034	6.75
711.787	6.75
712.54	8.75
713.293	9.75
714.046	7.75
714.799	4.75
715.552	8.75
716.305	6.75
717.058	7.75
717.81	7.75
718.563	8.75
719.315	7.75
720.068	9.75
720.82	6.75
721.573	7.75
722.325	7.75
723.077	10.75
723.829	7.75
724.581	7.75
725.333	6.75
726.085	6.75
726.836	7.75
727.588	8.75
728.34	8.75
729.091	7.75
729.843	8.75
730.594	7.75
731.346	7.75
732.097	8.75
732.848	7.75
733.599	9.75
734.35	7.75
735.101	9.75
735.852	9.75
736.603	8.75
737.354	8.75
738.104	9.75
738.855	8.75
739.605	7.75
740.356	8.75
741.106	11.75
741.856	10.75
742.607	8.75
743.357	11.75
744.107	11.75
744.857	7.75
745.607	11.75
746.357	8.75
747.106	9.75
747.856	10.75
748.606	5.75
749.355	9.75
750.105	12.75
750.854	11.75
751.603	10.75
752.353	11.75
753.102	9.75
753.851	12.75
754.6	10.75
755.349	12.75
756.098	8.75
756.847	11.75
757.595	14.75
758.344	12.75
759.093	11.75
759.841	10.75
760.589	13.75
761.338	12.75
762.086	12.75
762.834	13.75
763.582	13.75
764.331	13.75
765.079	13.75
765.826	13.75
766.574	12.75
767.322	11.75
768.07	9.75
768.817	12.75
769.565	13.75
770.312	12.75
771.06	13.75
771.807	12.75
772.554	16.75
773.302	12.75
774.049	13.75
774.796	14.75
775.543	14.75
776.29	13.75
777.036	15.75
777.783	15.75
778.53	15.75
779.276	13.75
780.023	16.75
780.769	16.75
781.516	16.75
782.262	14.75
783.008	15.75
783.754	15.75
784.5	14.75
785.246	14.75
785.992	14.75
786.738	17.75
787.484	15.75
788.23	16.75
788.975	15.75
789.721	13.75
790.466	13.75
791.212	16.75
791.957	14.75
792.702	13.75
793.447	14.75
794.193	13.75
794.938	13.75
795.683	13.75
796.427	13.75
797.172	12.75
797.917	12.75
798.662	11.75
799.406	12.75
800.151	11.75
800.895	9.75
801.64	10.75
802.384	10.75
803.128	12.75
803.872	12.75
804.616	12.75
805.36	10.75
806.104	9.75
806.848	10.75
807.592	8.75
808.336	9.75
809.079	10.75
809.823	10.75
810.566	7.75
811.31	9.75
812.053	5.75
812.796	6.75
813.539	8.75
814.283	8.75
815.026	9.75
815.769	6.75
816.511	6.75
817.254	7.75
817.997	7.75
818.74	7.75
819.482	6.75
820.225	6.75
820.967	6.75
821.71	7.75
822.452	4.75
823.194	4.75
823.936	7.75
824.678	7.75
825.42	5.75
826.162	9.75
826.904	6.75
827.646	6.75
828.388	5.75
829.129	6.75
829.871	7.75
830.612	6.75
831.354	5.75
832.095	7.75
832.836	7.75
833.577	6.75
834.319	5.75
835.06	4.75
835.801	5.75
836.542	7.75
837.282	4.75
838.023	4.75
838.764	4.75
839.504	4.75
840.245	4.75
840.985	2.75
841.726	5.75
842.466	4.75
843.206	4.75
843.946	5.75
844.687	5.75
845.427	4.75
846.166	4.75
846.906	4.75
847.646	3.75
848.386	4.75
849.125	4.75
849.865	4.75
850.605	3.75
851.344	5.75
852.083	6.75
852.823	3.75
853.562	3.75
854.301	2.75
855.04	3.75
855.779	3.75
856.518	2.75
857.257	4.75
857.995	4.75
858.734	3.75
859.473	5.75
860.211	4.75
860.95	3.75
861.688	4.75
862.426	1.75
863.165	4.75
863.903	2.75
864.641	4.75
865.379	2.75
866.117	2.75
866.855	2.75
867.593	1.75
868.33	1.75
869.068	1.75
869.806	3.75
870.543	3.75
871.28	-1.25
872.018	3.75
872.755	2.75
873.492	2.75
874.229	2.75
874.967	2.75
875.703	-1.25
876.44	-0.25
877.177	3.75
877.914	0.75
878.651	1.75
879.387	2.75
880.124	1.75
880.86	4.75
881.597	1.75
882.333	0.75
883.069	-1.25
883.806	1.75
884.542	0.75
885.278	2.75
886.014	-1.25
886.749	-2.25
887.485	1.75
888.221	2.75
888.957	0.75
889.692	0.75
890.428	1.75
891.163	2.75
891.899	2.75
892.634	1.75
893.369	-1.25
894.104	1.75
894.839	2.75
895.574	1.75
896.309	1.75
897.044	0.75
897.779	0.75
898.514	2.75
899.248	-0.25
899.983	0.75
900.717	0.75
901.452	0.75
902.186	0.75
902.92	1.75
903.654	1.75
904.389	-0.25
905.123	-1.25
905.857	1.75
906.59	0.75
907.324	0.75
908.058	-1.25
908.792	-0.25
909.525	0.75
910.259	-0.25
910.992	-0.25
911.726	0.75
912.459	2.75
913.192	0.75
913.925	0.75
914.658	0.75
915.391	3.75
916.124	2.75
916.857	1.75
917.59	-0.25
918.323	0.75
919.055	0.75
919.788	1.75
920.521	-1.25
921.253	-0.25
921.985	1.75
922.718	2.75
923.45	0.75
924.182	-0.25
924.914	-1.25
925.646	-0.25
926.378	0.75
927.11	0.75
927.841	0.75
928.573	0.75
929.305	-0.25
930.036	-0.25
930.768	1.75
931.499	0.75
932.23	-0.25
932.962	-1.25
933.693	0.75
934.424	-1.25
935.155	1.75
935.886	-0.25
936.617	0.75
937.348	-3.25
938.078	-1.25
938.809	1.75
939.54	0.75
940.27	0.75
941.001	-0.25
941.731	-1.25
942.461	-1.25
943.191	-1.25
943.922	1.75
944.652	-0.25
945.382	0.75
946.112	0.75
946.841	-1.25
947.571	-1.25
948.301	1.75
949.031	0.75
949.76	1.75
950.49	-0.25
951.219	0.75
951.948	-2.25
952.678	0.75
953.407	-1.25
954.136	1.75
954.865	0.75
955.594	-1.25
956.323	0.75
957.052	0.75
957.78	-0.25
958.509	0.75
959.238	0.75
959.966	0.75
960.695	0.75
961.423	-0.25
962.151	0.75
962.88	1.75
963.608	-1.25
964.336	-1.25
965.064	0.75
965.792	-0.25
966.52	-1.25
967.247	-1.25
967.975	0.75
968.703	-0.25
969.43	-1.25
970.158	-0.25
970.885	1.75
971.613	1.75
972.34	1.75
973.067	-3.25
973.794	0.75
974.521	-1.25
975.248	-1.25
975.975	-1.25
976.702	0.75
977.429	-1.25
978.156	2.75
978.882	-0.25
979.609	0.75
980.335	0.75
981.062	0.75
981.788	0.75
982.514	0.75
983.24	0.75
983.967	-0.25
984.693	-2.25
985.419	0.75
986.144	-0.25
986.87	-1.25
987.596	0.75
988.322	0.75
989.047	0.75
989.773	-0.25
990.498	-0.25
991.224	1.75
991.949	0.75
992.674	-1.25
993.399	-1.25
994.124	0.75
994.849	0.75
995.574	-0.25
996.299	1.75
997.024	-2.25
997.749	-1.25
998.473	-1.25
999.198	-1.25
999.922	0.75
1000.647	0.75
1001.371	2.75
1002.095	-1.25
1002.82	-0.25
1003.544	0.75
1004.268	2.75
1004.992	2.75
1005.716	0.75
1006.439	5.75
1007.163	4.75
1007.887	7.75
1008.611	1.75
1009.334	-0.25
1010.058	-0.25
1010.781	-2.25
1011.504	0.75
1012.228	-0.25
1012.951	-2.25
1013.674	0.75
1014.397	-2.25
1015.12	1.75
