节点500_705_QEPB04081__490__20-52-51-749.txt的数据

Date: Wed Nov 12 20:52:51 CST 2025
User: PC
Spectrometer: QEPB0408
触发模式: 0
积分时间 (秒): 1.000000E-2
Scans to average: 1
启用暗噪声校正: true
启用非线性校正: false
滑动平均宽度: 0
X轴模式: Wavelengths
Number of Pixels in Spectrum: 1044
>>>>>Begin Spectral Data<<<<<
220.843	4.62
221.644	5.62
222.444	5.62
223.244	6.62
224.045	6.62
224.845	10.62
225.645	7.62
226.445	7.62
227.245	7.62
228.045	12.62
228.845	7.62
229.645	6.62
230.444	7.62
231.244	8.62
232.043	10.62
232.843	11.62
233.642	8.62
234.442	9.62
235.241	10.62
236.04	10.62
236.839	11.62
237.638	11.62
238.437	10.62
239.236	10.62
240.035	10.62
240.833	9.62
241.632	11.62
242.43	15.62
243.229	11.62
244.027	11.62
244.826	13.62
245.624	13.62
246.422	15.62
247.22	13.62
248.018	15.62
248.816	17.62
249.614	15.62
250.412	13.62
251.21	15.62
252.007	16.62
252.805	15.62
253.602	16.62
254.4	16.62
255.197	16.62
255.994	20.62
256.791	18.62
257.589	16.62
258.386	20.62
259.183	20.62
259.979	22.62
260.776	19.62
261.573	24.62
262.37	23.62
263.166	24.62
263.963	24.62
264.759	25.62
265.556	22.62
266.352	27.62
267.148	24.62
267.944	27.62
268.74	28.62
269.536	29.62
270.332	27.62
271.128	28.62
271.924	30.62
272.719	32.62
273.515	30.62
274.311	32.62
275.106	31.62
275.901	30.62
276.697	32.62
277.492	32.62
278.287	34.62
279.082	30.62
279.877	32.62
280.672	35.62
281.467	34.62
282.262	34.62
283.056	33.62
283.851	34.62
284.646	34.62
285.44	30.62
286.234	34.62
287.029	31.62
287.823	31.62
288.617	34.62
289.411	31.62
290.205	32.62
290.999	32.62
291.793	32.62
292.587	30.62
293.381	30.62
294.174	31.62
294.968	29.62
295.761	30.62
296.555	28.62
297.348	25.62
298.141	29.62
298.935	27.62
299.728	27.62
300.521	25.62
301.314	24.62
302.107	24.62
302.899	21.62
303.692	22.62
304.485	22.62
305.277	22.62
306.07	24.62
306.862	21.62
307.655	21.62
308.447	23.62
309.239	20.62
310.031	21.62
310.823	20.62
311.615	17.62
312.407	20.62
313.199	15.62
313.991	15.62
314.783	18.62
315.574	15.62
316.366	16.62
317.157	17.62
317.949	14.62
318.74	16.62
319.531	13.62
320.322	17.62
321.113	15.62
321.904	15.62
322.695	15.62
323.486	14.62
324.277	14.62
325.068	14.62
325.858	12.62
326.649	12.62
327.439	13.62
328.23	11.62
329.02	14.62
329.81	12.62
330.6	12.62
331.391	12.62
332.181	12.62
332.971	11.62
333.76	11.62
334.55	13.62
335.34	12.62
336.13	11.62
336.919	15.62
337.709	11.62
338.498	10.62
339.287	13.62
340.077	9.62
340.866	14.62
341.655	11.62
342.444	13.62
343.233	12.62
344.022	11.62
344.811	12.62
345.6	11.62
346.388	10.62
347.177	13.62
347.965	12.62
348.754	11.62
349.542	11.62
350.33	13.62
351.119	11.62
351.907	10.62
352.695	11.62
353.483	13.62
354.271	14.62
355.059	12.62
355.846	9.62
356.634	11.62
357.422	10.62
358.209	11.62
358.997	9.62
359.784	12.62
360.571	8.62
361.359	8.62
362.146	9.62
362.933	10.62
363.72	9.62
364.507	9.62
365.294	8.62
366.081	6.62
366.867	10.62
367.654	9.62
368.44	9.62
369.227	10.62
370.013	8.62
370.8	13.62
371.586	10.62
372.372	9.62
373.158	13.62
373.944	10.62
374.73	10.62
375.516	10.62
376.302	11.62
377.088	8.62
377.873	8.62
378.659	10.62
379.445	11.62
380.23	10.62
381.015	11.62
381.801	7.62
382.586	11.62
383.371	12.62
384.156	12.62
384.941	12.62
385.726	11.62
386.511	10.62
387.296	10.62
388.08	11.62
388.865	11.62
389.649	12.62
390.434	13.62
391.218	11.62
392.003	12.62
392.787	13.62
393.571	12.62
394.355	11.62
395.139	10.62
395.923	11.62
396.707	11.62
397.491	12.62
398.274	15.62
399.058	13.62
399.842	13.62
400.625	12.62
401.408	10.62
402.192	11.62
402.975	14.62
403.758	12.62
404.541	15.62
405.324	13.62
406.107	13.62
406.89	15.62
407.673	13.62
408.456	13.62
409.238	16.62
410.021	14.62
410.803	17.62
411.586	17.62
412.368	16.62
413.151	18.62
413.933	21.62
414.715	15.62
415.497	18.62
416.279	17.62
417.061	21.62
417.843	20.62
418.624	21.62
419.406	22.62
420.188	24.62
420.969	17.62
421.751	21.62
422.532	22.62
423.313	23.62
424.095	20.62
424.876	25.62
425.657	24.62
426.438	26.62
427.219	27.62
428	27.62
428.78	26.62
429.561	29.62
430.342	30.62
431.122	31.62
431.903	34.62
432.683	35.62
433.464	37.62
434.244	36.62
435.024	41.62
435.804	39.62
436.584	46.62
437.364	45.62
438.144	45.62
438.924	48.62
439.704	54.62
440.483	58.62
441.263	61.62
442.042	67.62
442.822	69.62
443.601	75.62
444.38	82.62
445.16	90.62
445.939	97.62
446.718	101.62
447.497	115.62
448.276	128.62
449.054	140.62
449.833	152.62
450.612	175.62
451.391	187.62
452.169	201.62
452.948	228.62
453.726	250.62
454.504	277.62
455.282	310.62
456.061	341.62
456.839	388.62
457.617	431.62
458.395	479.62
459.172	528.62
459.95	591.62
460.728	654.62
461.506	735.62
462.283	815.62
463.061	909.62
463.838	1016.62
464.615	1114.62
465.393	1235.62
466.17	1381.62
466.947	1519.62
467.724	1674.62
468.501	1861.62
469.278	2050.62
470.055	2255.62
470.831	2486.62
471.608	2764.62
472.385	3023.62
473.161	3309.62
473.938	3641.62
474.714	3999.62
475.49	4369.62
476.266	4745.62
477.043	5185.62
477.819	5659.62
478.595	6183.62
479.371	6721.62
480.146	7317.62
480.922	7940.62
481.698	8641.62
482.473	9354.62
483.249	10182.62
484.024	10985.62
484.8	11918.62
485.575	12831.62
486.35	13899.62
487.126	15070.62
487.901	16218.62
488.676	17440.62
489.451	18750.62
490.225	20178.62
491	21572.62
491.775	23086.62
492.55	24603.62
493.324	26204.62
494.099	27838.62
494.873	29451.62
495.647	31099.62
496.422	32798.62
497.196	34465.62
497.97	36047.62
498.744	37457.62
499.518	39090.62
500.292	40500.62
501.066	41497.62
501.839	42501.62
502.613	43390.62
503.387	44193.62
504.16	44651.62
504.934	44907.62
505.707	45093.62
506.48	44888.62
507.253	44583.62
508.027	44236.62
508.8	43528.62
509.573	42587.62
510.346	41809.62
511.118	40818.62
511.891	39673.62
512.664	38375.62
513.437	37031.62
514.209	35814.62
514.982	34467.62
515.754	33133.62
516.526	31764.62
517.298	30635.62
518.071	29402.62
518.843	28292.62
519.615	27104.62
520.387	26075.62
521.159	25088.62
521.93	24080.62
522.702	23044.62
523.474	22083.62
524.245	21208.62
525.017	20282.62
525.788	19485.62
526.56	18637.62
527.331	17826.62
528.102	16966.62
528.873	16114.62
529.644	15371.62
530.415	14677.62
531.186	13976.62
531.957	13272.62
532.728	12613.62
533.498	11954.62
534.269	11372.62
535.039	10763.62
535.81	10166.62
536.58	9649.62
537.351	9113.62
538.121	8659.62
538.891	8176.62
539.661	7737.62
540.431	7317.62
541.201	6951.62
541.971	6583.62
542.741	6279.62
543.51	5910.62
544.28	5628.62
545.05	5407.62
545.819	5108.62
546.588	4901.62
547.358	4674.62
548.127	4437.62
548.896	4198.62
549.665	4017.62
550.434	3781.62
551.203	3597.62
551.972	3387.62
552.741	3215.62
553.51	3037.62
554.278	2883.62
555.047	2723.62
555.815	2605.62
556.584	2431.62
557.352	2303.62
558.121	2167.62
558.889	2042.62
559.657	1948.62
560.425	1830.62
561.193	1768.62
561.961	1650.62
562.729	1573.62
563.496	1464.62
564.264	1404.62
565.032	1322.62
565.799	1245.62
566.567	1174.62
567.334	1106.62
568.101	1062.62
568.869	998.62
569.636	940.62
570.403	878.62
571.17	831.62
571.937	783.62
572.704	742.62
573.471	702.62
574.237	655.62
575.004	629.62
575.771	583.62
576.537	560.62
577.303	518.62
578.07	501.62
578.836	471.62
579.602	444.62
580.368	421.62
581.134	403.62
581.9	379.62
582.666	370.62
583.432	351.62
584.198	326.62
584.964	314.62
585.729	295.62
586.495	281.62
587.26	263.62
588.025	243.62
588.791	236.62
589.556	224.62
590.321	213.62
591.086	202.62
591.851	197.62
592.616	181.62
593.381	171.62
594.146	163.62
594.911	162.62
595.675	153.62
596.44	147.62
597.204	138.62
597.969	135.62
598.733	125.62
599.497	119.62
600.261	117.62
601.025	112.62
601.79	112.62
602.553	98.62
603.317	100.62
604.081	93.62
604.845	88.62
605.609	87.62
606.372	83.62
607.136	82.62
607.899	73.62
608.662	73.62
609.426	71.62
610.189	66.62
610.952	68.62
611.715	63.62
612.478	62.62
613.241	59.62
614.004	58.62
614.767	52.62
615.529	52.62
616.292	50.62
617.055	51.62
617.817	45.62
618.579	44.62
619.342	45.62
620.104	42.62
620.866	42.62
621.628	43.62
622.39	41.62
623.152	41.62
623.914	35.62
624.676	38.62
625.438	34.62
626.199	33.62
626.961	36.62
627.722	31.62
628.484	30.62
629.245	29.62
630.006	25.62
630.768	27.62
631.529	27.62
632.29	28.62
633.051	24.62
633.812	27.62
634.573	24.62
635.333	24.62
636.094	24.62
636.855	22.62
637.615	22.62
638.376	23.62
639.136	20.62
639.896	20.62
640.657	19.62
641.417	19.62
642.177	19.62
642.937	18.62
643.697	18.62
644.457	17.62
645.216	17.62
645.976	17.62
646.736	18.62
647.495	17.62
648.255	14.62
649.014	15.62
649.774	15.62
650.533	17.62
651.292	12.62
652.051	17.62
652.81	15.62
653.569	15.62
654.328	13.62
655.087	12.62
655.846	12.62
656.604	12.62
657.363	10.62
658.121	12.62
658.88	11.62
659.638	11.62
660.397	10.62
661.155	11.62
661.913	12.62
662.671	13.62
663.429	10.62
664.187	10.62
664.945	10.62
665.703	8.62
666.46	10.62
667.218	10.62
667.976	11.62
668.733	10.62
669.49	10.62
670.248	9.62
671.005	11.62
671.762	7.62
672.519	9.62
673.276	10.62
674.033	11.62
674.79	9.62
675.547	9.62
676.304	8.62
677.06	9.62
677.817	9.62
678.574	9.62
679.33	8.62
680.086	8.62
680.843	6.62
681.599	10.62
682.355	10.62
683.111	8.62
683.867	10.62
684.623	8.62
685.379	7.62
686.135	8.62
686.89	9.62
687.646	9.62
688.402	9.62
689.157	7.62
689.912	7.62
690.668	8.62
691.423	6.62
692.178	8.62
692.933	7.62
693.688	7.62
694.443	8.62
695.198	7.62
695.953	8.62
696.708	4.62
697.462	10.62
698.217	7.62
698.972	6.62
699.726	7.62
700.48	8.62
701.235	6.62
701.989	7.62
702.743	6.62
703.497	5.62
704.251	4.62
705.005	8.62
705.759	8.62
706.513	9.62
707.266	4.62
708.02	7.62
708.774	8.62
709.527	7.62
710.28	6.62
711.034	8.62
711.787	7.62
712.54	8.62
713.293	7.62
714.046	8.62
714.799	8.62
715.552	9.62
716.305	9.62
717.058	9.62
717.81	8.62
718.563	5.62
719.315	10.62
720.068	7.62
720.82	7.62
721.573	8.62
722.325	9.62
723.077	8.62
723.829	8.62
724.581	7.62
725.333	5.62
726.085	9.62
726.836	8.62
727.588	8.62
728.34	8.62
729.091	9.62
729.843	8.62
730.594	8.62
731.346	8.62
732.097	9.62
732.848	7.62
733.599	8.62
734.35	10.62
735.101	10.62
735.852	9.62
736.603	9.62
737.354	8.62
738.104	8.62
738.855	11.62
739.605	7.62
740.356	8.62
741.106	9.62
741.856	10.62
742.607	10.62
743.357	9.62
744.107	11.62
744.857	12.62
745.607	7.62
746.357	12.62
747.106	9.62
747.856	12.62
748.606	11.62
749.355	10.62
750.105	9.62
750.854	13.62
751.603	11.62
752.353	8.62
753.102	11.62
753.851	12.62
754.6	9.62
755.349	9.62
756.098	10.62
756.847	11.62
757.595	13.62
758.344	14.62
759.093	11.62
759.841	11.62
760.589	12.62
761.338	10.62
762.086	11.62
762.834	12.62
763.582	13.62
764.331	14.62
765.079	14.62
765.826	18.62
766.574	11.62
767.322	13.62
768.07	12.62
768.817	11.62
769.565	15.62
770.312	13.62
771.06	15.62
771.807	14.62
772.554	14.62
773.302	13.62
774.049	12.62
774.796	15.62
775.543	13.62
776.29	14.62
777.036	14.62
777.783	13.62
778.53	12.62
779.276	16.62
780.023	11.62
780.769	15.62
781.516	16.62
782.262	15.62
783.008	13.62
783.754	15.62
784.5	13.62
785.246	14.62
785.992	15.62
786.738	16.62
787.484	15.62
788.23	15.62
788.975	14.62
789.721	15.62
790.466	14.62
791.212	15.62
791.957	13.62
792.702	13.62
793.447	15.62
794.193	12.62
794.938	12.62
795.683	13.62
796.427	13.62
797.172	14.62
797.917	13.62
798.662	11.62
799.406	14.62
800.151	11.62
800.895	12.62
801.64	11.62
802.384	12.62
803.128	11.62
803.872	12.62
804.616	13.62
805.36	11.62
806.104	9.62
806.848	9.62
807.592	8.62
808.336	11.62
809.079	8.62
809.823	12.62
810.566	12.62
811.31	10.62
812.053	10.62
812.796	9.62
813.539	9.62
814.283	9.62
815.026	8.62
815.769	9.62
816.511	8.62
817.254	9.62
817.997	7.62
818.74	8.62
819.482	5.62
820.225	4.62
820.967	8.62
821.71	5.62
822.452	8.62
823.194	7.62
823.936	8.62
824.678	8.62
825.42	6.62
826.162	7.62
826.904	5.62
827.646	7.62
828.388	8.62
829.129	4.62
829.871	6.62
830.612	8.62
831.354	8.62
832.095	6.62
832.836	5.62
833.577	8.62
834.319	6.62
835.06	6.62
835.801	7.62
836.542	6.62
837.282	8.62
838.023	5.62
838.764	9.62
839.504	4.62
840.245	6.62
840.985	7.62
841.726	6.62
842.466	3.62
843.206	6.62
843.946	5.62
844.687	3.62
845.427	9.62
846.166	5.62
846.906	6.62
847.646	5.62
848.386	5.62
849.125	5.62
849.865	4.62
850.605	6.62
851.344	4.62
852.083	4.62
852.823	3.62
853.562	5.62
854.301	4.62
855.04	4.62
855.779	4.62
856.518	4.62
857.257	3.62
857.995	1.62
858.734	6.62
859.473	4.62
860.211	4.62
860.95	4.62
861.688	4.62
862.426	1.62
863.165	4.62
863.903	2.62
864.641	3.62
865.379	4.62
866.117	3.62
866.855	4.62
867.593	3.62
868.33	3.62
869.068	2.62
869.806	6.62
870.543	5.62
871.28	3.62
872.018	2.62
872.755	-0.38
873.492	3.62
874.229	4.62
874.967	2.62
875.703	2.62
876.44	2.62
877.177	2.62
877.914	2.62
878.651	4.62
879.387	2.62
880.124	0.62
880.86	1.62
881.597	3.62
882.333	3.62
883.069	1.62
883.806	4.62
884.542	2.62
885.278	1.62
886.014	3.62
886.749	1.62
887.485	2.62
888.221	2.62
888.957	-1.38
889.692	0.62
890.428	1.62
891.163	2.62
891.899	2.62
892.634	2.62
893.369	0.62
894.104	2.62
894.839	5.62
895.574	0.62
896.309	3.62
897.044	2.62
897.779	2.62
898.514	2.62
899.248	1.62
899.983	2.62
900.717	1.62
901.452	2.62
902.186	1.62
902.92	2.62
903.654	1.62
904.389	-0.38
905.123	1.62
905.857	0.62
906.59	2.62
907.324	3.62
908.058	2.62
908.792	1.62
909.525	1.62
910.259	4.62
910.992	-0.38
911.726	0.62
912.459	1.62
913.192	1.62
913.925	1.62
914.658	0.62
915.391	1.62
916.124	1.62
916.857	-1.38
917.59	2.62
918.323	2.62
919.055	1.62
919.788	1.62
920.521	2.62
921.253	0.62
921.985	1.62
922.718	1.62
923.45	0.62
924.182	3.62
924.914	0.62
925.646	-0.38
926.378	2.62
927.11	-0.38
927.841	2.62
928.573	-0.38
929.305	0.62
930.036	-0.38
930.768	1.62
931.499	0.62
932.23	0.62
932.962	1.62
933.693	1.62
934.424	0.62
935.155	0.62
935.886	-2.38
936.617	2.62
937.348	2.62
938.078	0.62
938.809	2.62
939.54	-0.38
940.27	2.62
941.001	-0.38
941.731	3.62
942.461	-1.38
943.191	-0.38
943.922	3.62
944.652	-0.38
945.382	1.62
946.112	0.62
946.841	0.62
947.571	-0.38
948.301	0.62
949.031	1.62
949.76	0.62
950.49	1.62
951.219	-0.38
951.948	0.62
952.678	1.62
953.407	-0.38
954.136	3.62
954.865	-1.38
955.594	-0.38
956.323	0.62
957.052	1.62
957.78	1.62
958.509	0.62
959.238	0.62
959.966	1.62
960.695	1.62
961.423	-0.38
962.151	-1.38
962.88	0.62
963.608	-0.38
964.336	1.62
965.064	0.62
965.792	1.62
966.52	2.62
967.247	0.62
967.975	1.62
968.703	0.62
969.43	1.62
970.158	0.62
970.885	-2.38
971.613	2.62
972.34	-0.38
973.067	-0.38
973.794	1.62
974.521	0.62
975.248	1.62
975.975	-0.38
976.702	1.62
977.429	0.62
978.156	0.62
978.882	1.62
979.609	1.62
980.335	1.62
981.062	-0.38
981.788	2.62
982.514	-0.38
983.24	1.62
983.967	0.62
984.693	1.62
985.419	-1.38
986.144	1.62
986.87	-0.38
987.596	-2.38
988.322	-0.38
989.047	2.62
989.773	-0.38
990.498	2.62
991.224	3.62
991.949	0.62
992.674	2.62
993.399	0.62
994.124	1.62
994.849	1.62
995.574	2.62
996.299	1.62
997.024	-0.38
997.749	3.62
998.473	-1.38
999.198	1.62
999.922	0.62
1000.647	2.62
1001.371	2.62
1002.095	-0.38
1002.82	1.62
1003.544	-1.38
1004.268	5.62
1004.992	4.62
1005.716	3.62
1006.439	3.62
1007.163	5.62
1007.887	5.62
1008.611	1.62
1009.334	0.62
1010.058	1.62
1010.781	-0.38
1011.504	2.62
1012.228	0.62
1012.951	0.62
1013.674	-0.38
1014.397	-2.38
1015.12	-0.38
