节点500_705_QEPB04081__302__20-50-17-400.txt的数据

Date: Wed Nov 12 20:50:17 CST 2025
User: PC
Spectrometer: QEPB0408
触发模式: 0
积分时间 (秒): 1.000000E-2
Scans to average: 1
启用暗噪声校正: true
启用非线性校正: false
滑动平均宽度: 0
X轴模式: Wavelengths
Number of Pixels in Spectrum: 1044
>>>>>Begin Spectral Data<<<<<
220.843	7.88
221.644	4.88
222.444	4.88
223.244	4.88
224.045	5.88
224.845	5.88
225.645	7.88
226.445	6.88
227.245	7.88
228.045	8.88
228.845	4.88
229.645	8.88
230.444	7.88
231.244	6.88
232.043	7.88
232.843	10.88
233.642	12.88
234.442	8.88
235.241	8.88
236.04	10.88
236.839	9.88
237.638	11.88
238.437	10.88
239.236	10.88
240.035	9.88
240.833	10.88
241.632	10.88
242.43	9.88
243.229	14.88
244.027	10.88
244.826	12.88
245.624	14.88
246.422	14.88
247.22	12.88
248.018	11.88
248.816	15.88
249.614	15.88
250.412	18.88
251.21	17.88
252.007	14.88
252.805	18.88
253.602	17.88
254.4	18.88
255.197	17.88
255.994	18.88
256.791	19.88
257.589	20.88
258.386	18.88
259.183	19.88
259.979	21.88
260.776	22.88
261.573	23.88
262.37	24.88
263.166	26.88
263.963	26.88
264.759	24.88
265.556	28.88
266.352	27.88
267.148	26.88
267.944	27.88
268.74	30.88
269.536	28.88
270.332	29.88
271.128	28.88
271.924	33.88
272.719	27.88
273.515	31.88
274.311	31.88
275.106	32.88
275.901	32.88
276.697	32.88
277.492	33.88
278.287	35.88
279.082	35.88
279.877	35.88
280.672	33.88
281.467	35.88
282.262	33.88
283.056	37.88
283.851	34.88
284.646	36.88
285.44	35.88
286.234	30.88
287.029	30.88
287.823	32.88
288.617	31.88
289.411	30.88
290.205	30.88
290.999	31.88
291.793	30.88
292.587	31.88
293.381	30.88
294.174	30.88
294.968	29.88
295.761	27.88
296.555	25.88
297.348	25.88
298.141	28.88
298.935	24.88
299.728	25.88
300.521	26.88
301.314	25.88
302.107	25.88
302.899	20.88
303.692	24.88
304.485	22.88
305.277	19.88
306.07	20.88
306.862	20.88
307.655	22.88
308.447	19.88
309.239	18.88
310.031	22.88
310.823	16.88
311.615	16.88
312.407	17.88
313.199	14.88
313.991	16.88
314.783	16.88
315.574	16.88
316.366	17.88
317.157	17.88
317.949	13.88
318.74	13.88
319.531	13.88
320.322	12.88
321.113	11.88
321.904	14.88
322.695	13.88
323.486	14.88
324.277	12.88
325.068	12.88
325.858	8.88
326.649	13.88
327.439	12.88
328.23	10.88
329.02	10.88
329.81	8.88
330.6	12.88
331.391	13.88
332.181	13.88
332.971	11.88
333.76	11.88
334.55	15.88
335.34	11.88
336.13	12.88
336.919	12.88
337.709	13.88
338.498	10.88
339.287	10.88
340.077	12.88
340.866	10.88
341.655	11.88
342.444	13.88
343.233	12.88
344.022	11.88
344.811	9.88
345.6	11.88
346.388	9.88
347.177	12.88
347.965	12.88
348.754	12.88
349.542	10.88
350.33	8.88
351.119	9.88
351.907	11.88
352.695	11.88
353.483	10.88
354.271	8.88
355.059	9.88
355.846	11.88
356.634	11.88
357.422	9.88
358.209	10.88
358.997	9.88
359.784	10.88
360.571	11.88
361.359	9.88
362.146	8.88
362.933	10.88
363.72	10.88
364.507	6.88
365.294	8.88
366.081	11.88
366.867	9.88
367.654	7.88
368.44	8.88
369.227	7.88
370.013	9.88
370.8	6.88
371.586	9.88
372.372	11.88
373.158	6.88
373.944	10.88
374.73	9.88
375.516	11.88
376.302	8.88
377.088	10.88
377.873	6.88
378.659	6.88
379.445	7.88
380.23	7.88
381.015	10.88
381.801	10.88
382.586	11.88
383.371	10.88
384.156	8.88
384.941	11.88
385.726	13.88
386.511	11.88
387.296	10.88
388.08	10.88
388.865	11.88
389.649	10.88
390.434	11.88
391.218	10.88
392.003	9.88
392.787	13.88
393.571	9.88
394.355	11.88
395.139	12.88
395.923	13.88
396.707	12.88
397.491	10.88
398.274	13.88
399.058	10.88
399.842	14.88
400.625	13.88
401.408	11.88
402.192	16.88
402.975	14.88
403.758	14.88
404.541	15.88
405.324	14.88
406.107	13.88
406.89	13.88
407.673	15.88
408.456	14.88
409.238	16.88
410.021	16.88
410.803	16.88
411.586	17.88
412.368	17.88
413.151	15.88
413.933	20.88
414.715	18.88
415.497	17.88
416.279	19.88
417.061	19.88
417.843	19.88
418.624	20.88
419.406	21.88
420.188	18.88
420.969	19.88
421.751	23.88
422.532	25.88
423.313	16.88
424.095	25.88
424.876	22.88
425.657	23.88
426.438	27.88
427.219	27.88
428	25.88
428.78	30.88
429.561	26.88
430.342	30.88
431.122	26.88
431.903	30.88
432.683	34.88
433.464	37.88
434.244	34.88
435.024	36.88
435.804	40.88
436.584	39.88
437.364	46.88
438.144	48.88
438.924	52.88
439.704	53.88
440.483	54.88
441.263	59.88
442.042	62.88
442.822	71.88
443.601	73.88
444.38	78.88
445.16	86.88
445.939	93.88
446.718	101.88
447.497	107.88
448.276	121.88
449.054	130.88
449.833	139.88
450.612	153.88
451.391	173.88
452.169	198.88
452.948	212.88
453.726	238.88
454.504	268.88
455.282	297.88
456.061	328.88
456.839	361.88
457.617	401.88
458.395	460.88
459.172	501.88
459.95	566.88
460.728	618.88
461.506	698.88
462.283	793.88
463.061	876.88
463.838	979.88
464.615	1080.88
465.393	1204.88
466.17	1351.88
466.947	1495.88
467.724	1647.88
468.501	1823.88
469.278	2035.88
470.055	2241.88
470.831	2500.88
471.608	2769.88
472.385	3029.88
473.161	3347.88
473.938	3677.88
474.714	4040.88
475.49	4445.88
476.266	4894.88
477.043	5336.88
477.819	5827.88
478.595	6378.88
479.371	6957.88
480.146	7626.88
480.922	8303.88
481.698	9028.88
482.473	9845.88
483.249	10733.88
484.024	11672.88
484.8	12672.88
485.575	13700.88
486.35	14910.88
487.126	16158.88
487.901	17476.88
488.676	18810.88
489.451	20290.88
490.225	21851.88
491	23416.88
491.775	25060.88
492.55	26907.88
493.324	28562.88
494.099	30353.88
494.873	32185.88
495.647	33917.88
496.422	35786.88
497.196	37617.88
497.97	39264.88
498.744	40723.88
499.518	42363.88
500.292	43658.88
501.066	44669.88
501.839	45567.88
502.613	46304.88
503.387	46870.88
504.16	47268.88
504.934	47409.88
505.707	47384.88
506.48	46982.88
507.253	46358.88
508.027	45661.88
508.8	44703.88
509.573	43663.88
510.346	42588.88
511.118	41519.88
511.891	40298.88
512.664	38760.88
513.437	37181.88
514.209	35861.88
514.982	34480.88
515.754	33074.88
516.526	31681.88
517.298	30435.88
518.071	29210.88
518.843	28030.88
519.615	26908.88
520.387	25854.88
521.159	24870.88
521.93	23837.88
522.702	22825.88
523.474	21814.88
524.245	20897.88
525.017	19971.88
525.788	19120.88
526.56	18250.88
527.331	17485.88
528.102	16608.88
528.873	15796.88
529.644	15016.88
530.415	14318.88
531.186	13659.88
531.957	12940.88
532.728	12268.88
533.498	11640.88
534.269	10968.88
535.039	10347.88
535.81	9826.88
536.58	9312.88
537.351	8850.88
538.121	8360.88
538.891	7942.88
539.661	7471.88
540.431	7050.88
541.201	6712.88
541.971	6362.88
542.741	6005.88
543.51	5707.88
544.28	5416.88
545.05	5211.88
545.819	4955.88
546.588	4708.88
547.358	4484.88
548.127	4244.88
548.896	4058.88
549.665	3813.88
550.434	3633.88
551.203	3433.88
551.972	3277.88
552.741	3097.88
553.51	2922.88
554.278	2748.88
555.047	2603.88
555.815	2456.88
556.584	2320.88
557.352	2193.88
558.121	2080.88
558.889	1945.88
559.657	1840.88
560.425	1747.88
561.193	1649.88
561.961	1559.88
562.729	1488.88
563.496	1395.88
564.264	1316.88
565.032	1250.88
565.799	1179.88
566.567	1126.88
567.334	1053.88
568.101	1007.88
568.869	951.88
569.636	895.88
570.403	844.88
571.17	790.88
571.937	750.88
572.704	705.88
573.471	672.88
574.237	631.88
575.004	598.88
575.771	562.88
576.537	528.88
577.303	507.88
578.07	471.88
578.836	442.88
579.602	421.88
580.368	397.88
581.134	386.88
581.9	358.88
582.666	345.88
583.432	330.88
584.198	310.88
584.964	295.88
585.729	281.88
586.495	266.88
587.26	260.88
588.025	239.88
588.791	230.88
589.556	214.88
590.321	206.88
591.086	189.88
591.851	185.88
592.616	176.88
593.381	160.88
594.146	159.88
594.911	153.88
595.675	146.88
596.44	139.88
597.204	134.88
597.969	128.88
598.733	118.88
599.497	116.88
600.261	108.88
601.025	106.88
601.79	104.88
602.553	97.88
603.317	91.88
604.081	89.88
604.845	87.88
605.609	88.88
606.372	76.88
607.136	74.88
607.899	75.88
608.662	69.88
609.426	62.88
610.189	68.88
610.952	64.88
611.715	62.88
612.478	58.88
613.241	56.88
614.004	54.88
614.767	54.88
615.529	52.88
616.292	48.88
617.055	48.88
617.817	44.88
618.579	44.88
619.342	47.88
620.104	42.88
620.866	38.88
621.628	39.88
622.39	34.88
623.152	36.88
623.914	35.88
624.676	35.88
625.438	29.88
626.199	31.88
626.961	30.88
627.722	30.88
628.484	26.88
629.245	30.88
630.006	27.88
630.768	27.88
631.529	26.88
632.29	25.88
633.051	25.88
633.812	26.88
634.573	24.88
635.333	23.88
636.094	21.88
636.855	21.88
637.615	19.88
638.376	22.88
639.136	18.88
639.896	17.88
640.657	16.88
641.417	19.88
642.177	14.88
642.937	17.88
643.697	17.88
644.457	17.88
645.216	17.88
645.976	15.88
646.736	15.88
647.495	14.88
648.255	17.88
649.014	15.88
649.774	13.88
650.533	12.88
651.292	12.88
652.051	12.88
652.81	10.88
653.569	12.88
654.328	11.88
655.087	13.88
655.846	14.88
656.604	11.88
657.363	11.88
658.121	12.88
658.88	10.88
659.638	12.88
660.397	11.88
661.155	11.88
661.913	10.88
662.671	11.88
663.429	8.88
664.187	7.88
664.945	10.88
665.703	7.88
666.46	10.88
667.218	10.88
667.976	11.88
668.733	9.88
669.49	10.88
670.248	10.88
671.005	9.88
671.762	8.88
672.519	9.88
673.276	8.88
674.033	10.88
674.79	8.88
675.547	9.88
676.304	9.88
677.06	7.88
677.817	8.88
678.574	7.88
679.33	9.88
680.086	8.88
680.843	9.88
681.599	9.88
682.355	8.88
683.111	8.88
683.867	6.88
684.623	9.88
685.379	8.88
686.135	3.88
686.89	7.88
687.646	9.88
688.402	9.88
689.157	9.88
689.912	6.88
690.668	9.88
691.423	6.88
692.178	7.88
692.933	5.88
693.688	7.88
694.443	8.88
695.198	8.88
695.953	8.88
696.708	6.88
697.462	8.88
698.217	6.88
698.972	6.88
699.726	7.88
700.48	8.88
701.235	9.88
701.989	6.88
702.743	8.88
703.497	7.88
704.251	5.88
705.005	6.88
705.759	8.88
706.513	8.88
707.266	8.88
708.02	5.88
708.774	6.88
709.527	7.88
710.28	7.88
711.034	6.88
711.787	6.88
712.54	6.88
713.293	6.88
714.046	5.88
714.799	8.88
715.552	9.88
716.305	8.88
717.058	10.88
717.81	6.88
718.563	6.88
719.315	7.88
720.068	7.88
720.82	6.88
721.573	7.88
722.325	6.88
723.077	6.88
723.829	7.88
724.581	8.88
725.333	5.88
726.085	7.88
726.836	7.88
727.588	7.88
728.34	8.88
729.091	6.88
729.843	8.88
730.594	7.88
731.346	8.88
732.097	6.88
732.848	8.88
733.599	10.88
734.35	8.88
735.101	9.88
735.852	9.88
736.603	10.88
737.354	9.88
738.104	11.88
738.855	8.88
739.605	9.88
740.356	11.88
741.106	7.88
741.856	10.88
742.607	10.88
743.357	9.88
744.107	10.88
744.857	11.88
745.607	12.88
746.357	10.88
747.106	10.88
747.856	10.88
748.606	13.88
749.355	8.88
750.105	12.88
750.854	10.88
751.603	8.88
752.353	12.88
753.102	12.88
753.851	11.88
754.6	11.88
755.349	10.88
756.098	12.88
756.847	10.88
757.595	11.88
758.344	12.88
759.093	12.88
759.841	12.88
760.589	10.88
761.338	9.88
762.086	12.88
762.834	11.88
763.582	16.88
764.331	12.88
765.079	11.88
765.826	12.88
766.574	11.88
767.322	15.88
768.07	12.88
768.817	14.88
769.565	13.88
770.312	12.88
771.06	13.88
771.807	12.88
772.554	14.88
773.302	11.88
774.049	12.88
774.796	14.88
775.543	14.88
776.29	15.88
777.036	14.88
777.783	15.88
778.53	15.88
779.276	14.88
780.023	14.88
780.769	14.88
781.516	16.88
782.262	13.88
783.008	16.88
783.754	18.88
784.5	17.88
785.246	12.88
785.992	15.88
786.738	16.88
787.484	16.88
788.23	16.88
788.975	16.88
789.721	11.88
790.466	14.88
791.212	14.88
791.957	13.88
792.702	13.88
793.447	13.88
794.193	14.88
794.938	13.88
795.683	12.88
796.427	12.88
797.172	13.88
797.917	12.88
798.662	11.88
799.406	14.88
800.151	11.88
800.895	10.88
801.64	14.88
802.384	11.88
803.128	8.88
803.872	9.88
804.616	10.88
805.36	10.88
806.104	10.88
806.848	10.88
807.592	10.88
808.336	10.88
809.079	9.88
809.823	11.88
810.566	10.88
811.31	10.88
812.053	8.88
812.796	9.88
813.539	9.88
814.283	7.88
815.026	7.88
815.769	10.88
816.511	7.88
817.254	5.88
817.997	7.88
818.74	7.88
819.482	6.88
820.225	7.88
820.967	5.88
821.71	8.88
822.452	5.88
823.194	5.88
823.936	5.88
824.678	8.88
825.42	5.88
826.162	6.88
826.904	4.88
827.646	7.88
828.388	4.88
829.129	6.88
829.871	4.88
830.612	4.88
831.354	6.88
832.095	8.88
832.836	8.88
833.577	4.88
834.319	5.88
835.06	8.88
835.801	5.88
836.542	6.88
837.282	6.88
838.023	7.88
838.764	5.88
839.504	5.88
840.245	5.88
840.985	7.88
841.726	5.88
842.466	2.88
843.206	5.88
843.946	6.88
844.687	5.88
845.427	6.88
846.166	3.88
846.906	4.88
847.646	4.88
848.386	5.88
849.125	5.88
849.865	4.88
850.605	4.88
851.344	3.88
852.083	4.88
852.823	1.88
853.562	5.88
854.301	4.88
855.04	5.88
855.779	2.88
856.518	4.88
857.257	2.88
857.995	4.88
858.734	2.88
859.473	2.88
860.211	3.88
860.95	4.88
861.688	4.88
862.426	2.88
863.165	2.88
863.903	2.88
864.641	3.88
865.379	3.88
866.117	2.88
866.855	2.88
867.593	2.88
868.33	0.88
869.068	1.88
869.806	1.88
870.543	3.88
871.28	1.88
872.018	1.88
872.755	-0.12
873.492	2.88
874.229	1.88
874.967	1.88
875.703	1.88
876.44	3.88
877.177	2.88
877.914	0.88
878.651	0.88
879.387	0.88
880.124	0.88
880.86	5.88
881.597	1.88
882.333	3.88
883.069	2.88
883.806	0.88
884.542	1.88
885.278	1.88
886.014	1.88
886.749	-0.12
887.485	-0.12
888.221	2.88
888.957	-0.12
889.692	2.88
890.428	2.88
891.163	0.88
891.899	0.88
892.634	0.88
893.369	1.88
894.104	1.88
894.839	-0.12
895.574	2.88
896.309	0.88
897.044	2.88
897.779	-0.12
898.514	2.88
899.248	1.88
899.983	0.88
900.717	0.88
901.452	-1.12
902.186	-1.12
902.92	3.88
903.654	1.88
904.389	0.88
905.123	0.88
905.857	-1.12
906.59	-1.12
907.324	1.88
908.058	2.88
908.792	-1.12
909.525	0.88
910.259	2.88
910.992	0.88
911.726	0.88
912.459	1.88
913.192	1.88
913.925	-1.12
914.658	1.88
915.391	-1.12
916.124	0.88
916.857	0.88
917.59	0.88
918.323	0.88
919.055	-0.12
919.788	0.88
920.521	0.88
921.253	0.88
921.985	0.88
922.718	-2.12
923.45	3.88
924.182	0.88
924.914	0.88
925.646	0.88
926.378	-0.12
927.11	1.88
927.841	0.88
928.573	0.88
929.305	-1.12
930.036	0.88
930.768	2.88
931.499	0.88
932.23	0.88
932.962	-1.12
933.693	0.88
934.424	1.88
935.155	0.88
935.886	-0.12
936.617	1.88
937.348	-0.12
938.078	1.88
938.809	-0.12
939.54	0.88
940.27	-0.12
941.001	1.88
941.731	1.88
942.461	2.88
943.191	0.88
943.922	1.88
944.652	-1.12
945.382	-0.12
946.112	2.88
946.841	-1.12
947.571	1.88
948.301	0.88
949.031	-1.12
949.76	0.88
950.49	-1.12
951.219	0.88
951.948	-2.12
952.678	0.88
953.407	0.88
954.136	0.88
954.865	-1.12
955.594	-1.12
956.323	0.88
957.052	-1.12
957.78	-1.12
958.509	0.88
959.238	-1.12
959.966	-1.12
960.695	-0.12
961.423	0.88
962.151	2.88
962.88	0.88
963.608	-2.12
964.336	-0.12
965.064	-1.12
965.792	0.88
966.52	-0.12
967.247	0.88
967.975	0.88
968.703	-0.12
969.43	-0.12
970.158	-1.12
970.885	-0.12
971.613	1.88
972.34	-0.12
973.067	-2.12
973.794	-0.12
974.521	-1.12
975.248	0.88
975.975	-0.12
976.702	0.88
977.429	-1.12
978.156	-0.12
978.882	0.88
979.609	-2.12
980.335	0.88
981.062	2.88
981.788	0.88
982.514	0.88
983.24	1.88
983.967	-0.12
984.693	-0.12
985.419	-2.12
986.144	0.88
986.87	-2.12
987.596	-0.12
988.322	-0.12
989.047	-1.12
989.773	0.88
990.498	0.88
991.224	1.88
991.949	-0.12
992.674	-0.12
993.399	1.88
994.124	-1.12
994.849	-0.12
995.574	-0.12
996.299	1.88
997.024	-1.12
997.749	1.88
998.473	-2.12
999.198	0.88
999.922	0.88
1000.647	0.88
1001.371	2.88
1002.095	-0.12
1002.82	0.88
1003.544	-1.12
1004.268	4.88
1004.992	4.88
1005.716	2.88
1006.439	6.88
1007.163	4.88
1007.887	4.88
1008.611	1.88
1009.334	-0.12
1010.058	-0.12
1010.781	0.88
1011.504	-0.12
1012.228	2.88
1012.951	-0.12
1013.674	0.88
1014.397	-2.12
1015.12	-1.12
