节点500_705_QEPB04081__577__20-54-07-771.txt的数据

Date: Wed Nov 12 20:54:07 CST 2025
User: PC
Spectrometer: QEPB0408
触发模式: 0
积分时间 (秒): 1.000000E-2
Scans to average: 1
启用暗噪声校正: true
启用非线性校正: false
滑动平均宽度: 0
X轴模式: Wavelengths
Number of Pixels in Spectrum: 1044
>>>>>Begin Spectral Data<<<<<
220.843	5.25
221.644	4.25
222.444	7.25
223.244	6.25
224.045	9.25
224.845	6.25
225.645	7.25
226.445	6.25
227.245	5.25
228.045	9.25
228.845	7.25
229.645	10.25
230.444	8.25
231.244	10.25
232.043	10.25
232.843	8.25
233.642	8.25
234.442	8.25
235.241	10.25
236.04	11.25
236.839	9.25
237.638	9.25
238.437	11.25
239.236	11.25
240.035	11.25
240.833	11.25
241.632	10.25
242.43	10.25
243.229	12.25
244.027	12.25
244.826	11.25
245.624	12.25
246.422	15.25
247.22	15.25
248.018	15.25
248.816	15.25
249.614	14.25
250.412	12.25
251.21	14.25
252.007	13.25
252.805	17.25
253.602	13.25
254.4	15.25
255.197	17.25
255.994	18.25
256.791	19.25
257.589	18.25
258.386	18.25
259.183	20.25
259.979	19.25
260.776	18.25
261.573	21.25
262.37	20.25
263.166	19.25
263.963	20.25
264.759	20.25
265.556	23.25
266.352	26.25
267.148	23.25
267.944	24.25
268.74	23.25
269.536	30.25
270.332	26.25
271.128	26.25
271.924	27.25
272.719	30.25
273.515	28.25
274.311	28.25
275.106	28.25
275.901	27.25
276.697	27.25
277.492	34.25
278.287	29.25
279.082	33.25
279.877	31.25
280.672	30.25
281.467	31.25
282.262	33.25
283.056	33.25
283.851	35.25
284.646	31.25
285.44	32.25
286.234	34.25
287.029	32.25
287.823	30.25
288.617	33.25
289.411	29.25
290.205	33.25
290.999	29.25
291.793	31.25
292.587	30.25
293.381	29.25
294.174	27.25
294.968	29.25
295.761	26.25
296.555	25.25
297.348	24.25
298.141	26.25
298.935	25.25
299.728	27.25
300.521	27.25
301.314	24.25
302.107	23.25
302.899	22.25
303.692	22.25
304.485	20.25
305.277	22.25
306.07	22.25
306.862	22.25
307.655	19.25
308.447	20.25
309.239	23.25
310.031	20.25
310.823	19.25
311.615	18.25
312.407	17.25
313.199	19.25
313.991	17.25
314.783	18.25
315.574	17.25
316.366	16.25
317.157	18.25
317.949	14.25
318.74	18.25
319.531	14.25
320.322	14.25
321.113	13.25
321.904	11.25
322.695	14.25
323.486	13.25
324.277	16.25
325.068	13.25
325.858	14.25
326.649	11.25
327.439	11.25
328.23	11.25
329.02	12.25
329.81	11.25
330.6	12.25
331.391	13.25
332.181	11.25
332.971	12.25
333.76	11.25
334.55	12.25
335.34	11.25
336.13	13.25
336.919	12.25
337.709	12.25
338.498	11.25
339.287	12.25
340.077	12.25
340.866	10.25
341.655	11.25
342.444	10.25
343.233	14.25
344.022	12.25
344.811	11.25
345.6	13.25
346.388	10.25
347.177	12.25
347.965	11.25
348.754	12.25
349.542	10.25
350.33	10.25
351.119	10.25
351.907	10.25
352.695	12.25
353.483	10.25
354.271	13.25
355.059	12.25
355.846	11.25
356.634	12.25
357.422	10.25
358.209	11.25
358.997	9.25
359.784	11.25
360.571	10.25
361.359	10.25
362.146	12.25
362.933	12.25
363.72	10.25
364.507	9.25
365.294	10.25
366.081	8.25
366.867	8.25
367.654	11.25
368.44	8.25
369.227	11.25
370.013	8.25
370.8	10.25
371.586	10.25
372.372	9.25
373.158	8.25
373.944	11.25
374.73	12.25
375.516	12.25
376.302	12.25
377.088	9.25
377.873	5.25
378.659	9.25
379.445	10.25
380.23	10.25
381.015	8.25
381.801	10.25
382.586	9.25
383.371	9.25
384.156	11.25
384.941	10.25
385.726	10.25
386.511	10.25
387.296	10.25
388.08	8.25
388.865	10.25
389.649	9.25
390.434	13.25
391.218	10.25
392.003	8.25
392.787	11.25
393.571	11.25
394.355	11.25
395.139	13.25
395.923	11.25
396.707	9.25
397.491	15.25
398.274	12.25
399.058	13.25
399.842	14.25
400.625	12.25
401.408	13.25
402.192	12.25
402.975	13.25
403.758	15.25
404.541	12.25
405.324	14.25
406.107	15.25
406.89	15.25
407.673	15.25
408.456	15.25
409.238	15.25
410.021	17.25
410.803	17.25
411.586	13.25
412.368	18.25
413.151	14.25
413.933	17.25
414.715	16.25
415.497	17.25
416.279	20.25
417.061	14.25
417.843	18.25
418.624	18.25
419.406	19.25
420.188	23.25
420.969	21.25
421.751	19.25
422.532	22.25
423.313	21.25
424.095	24.25
424.876	25.25
425.657	24.25
426.438	26.25
427.219	27.25
428	27.25
428.78	27.25
429.561	27.25
430.342	28.25
431.122	29.25
431.903	31.25
432.683	35.25
433.464	34.25
434.244	35.25
435.024	36.25
435.804	37.25
436.584	43.25
437.364	43.25
438.144	46.25
438.924	54.25
439.704	57.25
440.483	60.25
441.263	65.25
442.042	69.25
442.822	69.25
443.601	78.25
444.38	86.25
445.16	91.25
445.939	97.25
446.718	112.25
447.497	120.25
448.276	131.25
449.054	143.25
449.833	154.25
450.612	169.25
451.391	186.25
452.169	215.25
452.948	232.25
453.726	253.25
454.504	291.25
455.282	318.25
456.061	354.25
456.839	406.25
457.617	434.25
458.395	483.25
459.172	536.25
459.95	605.25
460.728	672.25
461.506	736.25
462.283	812.25
463.061	921.25
463.838	1024.25
464.615	1129.25
465.393	1237.25
466.17	1383.25
466.947	1530.25
467.724	1706.25
468.501	1886.25
469.278	2049.25
470.055	2260.25
470.831	2513.25
471.608	2746.25
472.385	3003.25
473.161	3300.25
473.938	3615.25
474.714	3940.25
475.49	4337.25
476.266	4727.25
477.043	5148.25
477.819	5592.25
478.595	6069.25
479.371	6571.25
480.146	7139.25
480.922	7777.25
481.698	8458.25
482.473	9113.25
483.249	9878.25
484.024	10684.25
484.8	11553.25
485.575	12508.25
486.35	13411.25
487.126	14495.25
487.901	15543.25
488.676	16727.25
489.451	17998.25
490.225	19338.25
491	20668.25
491.775	22074.25
492.55	23523.25
493.324	25095.25
494.099	26622.25
494.873	28217.25
495.647	29765.25
496.422	31340.25
497.196	32981.25
497.97	34569.25
498.744	36018.25
499.518	37458.25
500.292	38815.25
501.066	39910.25
501.839	40881.25
502.613	41896.25
503.387	42690.25
504.16	43235.25
504.934	43676.25
505.707	43825.25
506.48	43798.25
507.253	43571.25
508.027	43213.25
508.8	42733.25
509.573	41937.25
510.346	41220.25
511.118	40435.25
511.891	39444.25
512.664	38152.25
513.437	36950.25
514.209	35710.25
514.982	34517.25
515.754	33181.25
516.526	31918.25
517.298	30740.25
518.071	29523.25
518.843	28371.25
519.615	27288.25
520.387	26174.25
521.159	25183.25
521.93	24116.25
522.702	23137.25
523.474	22242.25
524.245	21310.25
525.017	20459.25
525.788	19551.25
526.56	18859.25
527.331	17998.25
528.102	17147.25
528.873	16302.25
529.644	15569.25
530.415	14860.25
531.186	14167.25
531.957	13408.25
532.728	12787.25
533.498	12218.25
534.269	11552.25
535.039	10971.25
535.81	10339.25
536.58	9834.25
537.351	9277.25
538.121	8808.25
538.891	8371.25
539.661	7875.25
540.431	7477.25
541.201	7081.25
541.971	6729.25
542.741	6348.25
543.51	6031.25
544.28	5787.25
545.05	5509.25
545.819	5227.25
546.588	4970.25
547.358	4734.25
548.127	4523.25
548.896	4304.25
549.665	4080.25
550.434	3884.25
551.203	3665.25
551.972	3499.25
552.741	3303.25
553.51	3105.25
554.278	2950.25
555.047	2783.25
555.815	2652.25
556.584	2496.25
557.352	2362.25
558.121	2239.25
558.889	2107.25
559.657	1990.25
560.425	1892.25
561.193	1791.25
561.961	1700.25
562.729	1603.25
563.496	1522.25
564.264	1433.25
565.032	1358.25
565.799	1283.25
566.567	1220.25
567.334	1147.25
568.101	1073.25
568.869	1029.25
569.636	974.25
570.403	909.25
571.17	861.25
571.937	813.25
572.704	770.25
573.471	721.25
574.237	675.25
575.004	643.25
575.771	618.25
576.537	566.25
577.303	543.25
578.07	505.25
578.836	477.25
579.602	459.25
580.368	433.25
581.134	417.25
581.9	392.25
582.666	376.25
583.432	358.25
584.198	339.25
584.964	323.25
585.729	302.25
586.495	293.25
587.26	276.25
588.025	256.25
588.791	245.25
589.556	228.25
590.321	220.25
591.086	210.25
591.851	202.25
592.616	186.25
593.381	181.25
594.146	171.25
594.911	165.25
595.675	162.25
596.44	146.25
597.204	142.25
597.969	143.25
598.733	130.25
599.497	125.25
600.261	121.25
601.025	115.25
601.79	111.25
602.553	102.25
603.317	102.25
604.081	98.25
604.845	89.25
605.609	92.25
606.372	84.25
607.136	81.25
607.899	79.25
608.662	76.25
609.426	70.25
610.189	71.25
610.952	70.25
611.715	64.25
612.478	64.25
613.241	62.25
614.004	58.25
614.767	59.25
615.529	57.25
616.292	53.25
617.055	49.25
617.817	51.25
618.579	47.25
619.342	48.25
620.104	46.25
620.866	42.25
621.628	45.25
622.39	40.25
623.152	38.25
623.914	36.25
624.676	39.25
625.438	36.25
626.199	34.25
626.961	36.25
627.722	31.25
628.484	31.25
629.245	33.25
630.006	30.25
630.768	28.25
631.529	30.25
632.29	26.25
633.051	24.25
633.812	24.25
634.573	24.25
635.333	26.25
636.094	21.25
636.855	23.25
637.615	24.25
638.376	22.25
639.136	20.25
639.896	19.25
640.657	19.25
641.417	19.25
642.177	17.25
642.937	18.25
643.697	18.25
644.457	17.25
645.216	16.25
645.976	15.25
646.736	16.25
647.495	15.25
648.255	16.25
649.014	16.25
649.774	14.25
650.533	17.25
651.292	17.25
652.051	16.25
652.81	15.25
653.569	13.25
654.328	13.25
655.087	11.25
655.846	15.25
656.604	11.25
657.363	15.25
658.121	11.25
658.88	12.25
659.638	15.25
660.397	11.25
661.155	11.25
661.913	13.25
662.671	10.25
663.429	13.25
664.187	10.25
664.945	10.25
665.703	11.25
666.46	12.25
667.218	11.25
667.976	9.25
668.733	11.25
669.49	11.25
670.248	10.25
671.005	9.25
671.762	9.25
672.519	9.25
673.276	8.25
674.033	11.25
674.79	9.25
675.547	9.25
676.304	7.25
677.06	9.25
677.817	8.25
678.574	7.25
679.33	10.25
680.086	10.25
680.843	8.25
681.599	9.25
682.355	8.25
683.111	9.25
683.867	6.25
684.623	8.25
685.379	6.25
686.135	8.25
686.89	8.25
687.646	9.25
688.402	8.25
689.157	7.25
689.912	9.25
690.668	3.25
691.423	7.25
692.178	8.25
692.933	6.25
693.688	8.25
694.443	7.25
695.198	7.25
695.953	8.25
696.708	9.25
697.462	10.25
698.217	7.25
698.972	8.25
699.726	7.25
700.48	7.25
701.235	7.25
701.989	8.25
702.743	5.25
703.497	5.25
704.251	6.25
705.005	8.25
705.759	7.25
706.513	7.25
707.266	9.25
708.02	9.25
708.774	9.25
709.527	10.25
710.28	8.25
711.034	8.25
711.787	9.25
712.54	5.25
713.293	6.25
714.046	6.25
714.799	7.25
715.552	7.25
716.305	8.25
717.058	9.25
717.81	6.25
718.563	8.25
719.315	9.25
720.068	7.25
720.82	7.25
721.573	6.25
722.325	9.25
723.077	8.25
723.829	9.25
724.581	10.25
725.333	9.25
726.085	11.25
726.836	7.25
727.588	10.25
728.34	9.25
729.091	8.25
729.843	7.25
730.594	10.25
731.346	9.25
732.097	9.25
732.848	10.25
733.599	9.25
734.35	8.25
735.101	10.25
735.852	7.25
736.603	9.25
737.354	8.25
738.104	8.25
738.855	11.25
739.605	6.25
740.356	9.25
741.106	10.25
741.856	9.25
742.607	11.25
743.357	9.25
744.107	10.25
744.857	8.25
745.607	10.25
746.357	10.25
747.106	10.25
747.856	9.25
748.606	8.25
749.355	9.25
750.105	8.25
750.854	10.25
751.603	11.25
752.353	7.25
753.102	12.25
753.851	11.25
754.6	11.25
755.349	10.25
756.098	11.25
756.847	9.25
757.595	10.25
758.344	11.25
759.093	13.25
759.841	12.25
760.589	9.25
761.338	10.25
762.086	13.25
762.834	11.25
763.582	13.25
764.331	10.25
765.079	14.25
765.826	11.25
766.574	14.25
767.322	13.25
768.07	13.25
768.817	11.25
769.565	13.25
770.312	11.25
771.06	14.25
771.807	11.25
772.554	13.25
773.302	11.25
774.049	11.25
774.796	13.25
775.543	17.25
776.29	13.25
777.036	14.25
777.783	13.25
778.53	12.25
779.276	16.25
780.023	15.25
780.769	13.25
781.516	15.25
782.262	14.25
783.008	16.25
783.754	16.25
784.5	17.25
785.246	15.25
785.992	17.25
786.738	13.25
787.484	17.25
788.23	14.25
788.975	14.25
789.721	17.25
790.466	14.25
791.212	12.25
791.957	13.25
792.702	9.25
793.447	13.25
794.193	14.25
794.938	14.25
795.683	12.25
796.427	12.25
797.172	13.25
797.917	13.25
798.662	13.25
799.406	14.25
800.151	11.25
800.895	12.25
801.64	9.25
802.384	13.25
803.128	11.25
803.872	13.25
804.616	8.25
805.36	11.25
806.104	11.25
806.848	10.25
807.592	12.25
808.336	9.25
809.079	8.25
809.823	9.25
810.566	9.25
811.31	10.25
812.053	7.25
812.796	10.25
813.539	9.25
814.283	8.25
815.026	8.25
815.769	9.25
816.511	9.25
817.254	9.25
817.997	6.25
818.74	8.25
819.482	8.25
820.225	7.25
820.967	5.25
821.71	9.25
822.452	7.25
823.194	7.25
823.936	8.25
824.678	6.25
825.42	7.25
826.162	8.25
826.904	7.25
827.646	8.25
828.388	6.25
829.129	8.25
829.871	8.25
830.612	4.25
831.354	6.25
832.095	6.25
832.836	6.25
833.577	8.25
834.319	7.25
835.06	6.25
835.801	4.25
836.542	6.25
837.282	6.25
838.023	6.25
838.764	6.25
839.504	6.25
840.245	3.25
840.985	7.25
841.726	7.25
842.466	5.25
843.206	5.25
843.946	5.25
844.687	6.25
845.427	4.25
846.166	6.25
846.906	4.25
847.646	6.25
848.386	6.25
849.125	6.25
849.865	6.25
850.605	6.25
851.344	5.25
852.083	6.25
852.823	4.25
853.562	4.25
854.301	7.25
855.04	3.25
855.779	2.25
856.518	3.25
857.257	7.25
857.995	3.25
858.734	4.25
859.473	5.25
860.211	4.25
860.95	5.25
861.688	2.25
862.426	1.25
863.165	7.25
863.903	4.25
864.641	1.25
865.379	3.25
866.117	3.25
866.855	3.25
867.593	1.25
868.33	3.25
869.068	2.25
869.806	4.25
870.543	3.25
871.28	1.25
872.018	3.25
872.755	2.25
873.492	3.25
874.229	3.25
874.967	2.25
875.703	2.25
876.44	5.25
877.177	2.25
877.914	3.25
878.651	1.25
879.387	2.25
880.124	2.25
880.86	2.25
881.597	3.25
882.333	1.25
883.069	3.25
883.806	2.25
884.542	0.25
885.278	0.25
886.014	1.25
886.749	3.25
887.485	2.25
888.221	0.25
888.957	5.25
889.692	-0.75
890.428	2.25
891.163	2.25
891.899	1.25
892.634	3.25
893.369	1.25
894.104	2.25
894.839	-1.75
895.574	-0.75
896.309	1.25
897.044	1.25
897.779	1.25
898.514	0.25
899.248	0.25
899.983	1.25
900.717	-0.75
901.452	3.25
902.186	-0.75
902.92	1.25
903.654	-0.75
904.389	2.25
905.123	2.25
905.857	1.25
906.59	0.25
907.324	0.25
908.058	3.25
908.792	0.25
909.525	-1.75
910.259	2.25
910.992	0.25
911.726	2.25
912.459	-0.75
913.192	3.25
913.925	1.25
914.658	1.25
915.391	2.25
916.124	-0.75
916.857	3.25
917.59	1.25
918.323	2.25
919.055	2.25
919.788	2.25
920.521	3.25
921.253	1.25
921.985	1.25
922.718	1.25
923.45	-0.75
924.182	0.25
924.914	1.25
925.646	0.25
926.378	0.25
927.11	0.25
927.841	1.25
928.573	0.25
929.305	-0.75
930.036	2.25
930.768	1.25
931.499	2.25
932.23	1.25
932.962	2.25
933.693	1.25
934.424	0.25
935.155	-0.75
935.886	-0.75
936.617	-0.75
937.348	-0.75
938.078	0.25
938.809	-0.75
939.54	1.25
940.27	0.25
941.001	1.25
941.731	0.25
942.461	-0.75
943.191	0.25
943.922	1.25
944.652	2.25
945.382	3.25
946.112	1.25
946.841	0.25
947.571	1.25
948.301	1.25
949.031	2.25
949.76	0.25
950.49	0.25
951.219	-0.75
951.948	4.25
952.678	1.25
953.407	2.25
954.136	-0.75
954.865	1.25
955.594	0.25
956.323	0.25
957.052	1.25
957.78	-0.75
958.509	2.25
959.238	3.25
959.966	-0.75
960.695	-0.75
961.423	0.25
962.151	0.25
962.88	1.25
963.608	0.25
964.336	1.25
965.064	1.25
965.792	2.25
966.52	2.25
967.247	3.25
967.975	1.25
968.703	0.25
969.43	2.25
970.158	-0.75
970.885	0.25
971.613	-1.75
972.34	-0.75
973.067	1.25
973.794	1.25
974.521	1.25
975.248	2.25
975.975	2.25
976.702	-0.75
977.429	1.25
978.156	1.25
978.882	0.25
979.609	1.25
980.335	-0.75
981.062	0.25
981.788	-0.75
982.514	3.25
983.24	-1.75
983.967	0.25
984.693	3.25
985.419	0.25
986.144	1.25
986.87	0.25
987.596	1.25
988.322	2.25
989.047	3.25
989.773	0.25
990.498	0.25
991.224	0.25
991.949	0.25
992.674	0.25
993.399	1.25
994.124	2.25
994.849	2.25
995.574	0.25
996.299	-0.75
997.024	2.25
997.749	0.25
998.473	0.25
999.198	1.25
999.922	2.25
1000.647	0.25
1001.371	5.25
1002.095	-1.75
1002.82	-0.75
1003.544	-0.75
1004.268	4.25
1004.992	4.25
1005.716	3.25
1006.439	4.25
1007.163	1.25
1007.887	5.25
1008.611	-0.75
1009.334	0.25
1010.058	-0.75
1010.781	-0.75
1011.504	0.25
1012.228	-0.75
1012.951	-0.75
1013.674	0.25
1014.397	-0.75
1015.12	-0.75
