节点500_705_QEPB04081__620__20-54-45-769.txt的数据

Date: Wed Nov 12 20:54:45 CST 2025
User: PC
Spectrometer: QEPB0408
触发模式: 0
积分时间 (秒): 1.000000E-2
Scans to average: 1
启用暗噪声校正: true
启用非线性校正: false
滑动平均宽度: 0
X轴模式: Wavelengths
Number of Pixels in Spectrum: 1044
>>>>>Begin Spectral Data<<<<<
220.843	5.5
221.644	4.5
222.444	5.5
223.244	6.5
224.045	5.5
224.845	8.5
225.645	6.5
226.445	6.5
227.245	7.5
228.045	6.5
228.845	7.5
229.645	5.5
230.444	8.5
231.244	6.5
232.043	8.5
232.843	8.5
233.642	9.5
234.442	9.5
235.241	10.5
236.04	11.5
236.839	11.5
237.638	7.5
238.437	11.5
239.236	10.5
240.035	11.5
240.833	10.5
241.632	12.5
242.43	9.5
243.229	9.5
244.027	13.5
244.826	11.5
245.624	12.5
246.422	15.5
247.22	12.5
248.018	11.5
248.816	12.5
249.614	15.5
250.412	16.5
251.21	16.5
252.007	16.5
252.805	14.5
253.602	15.5
254.4	16.5
255.197	17.5
255.994	17.5
256.791	18.5
257.589	17.5
258.386	16.5
259.183	21.5
259.979	21.5
260.776	21.5
261.573	21.5
262.37	21.5
263.166	24.5
263.963	23.5
264.759	23.5
265.556	23.5
266.352	26.5
267.148	25.5
267.944	26.5
268.74	27.5
269.536	25.5
270.332	25.5
271.128	27.5
271.924	29.5
272.719	29.5
273.515	27.5
274.311	30.5
275.106	27.5
275.901	32.5
276.697	31.5
277.492	30.5
278.287	33.5
279.082	30.5
279.877	33.5
280.672	29.5
281.467	33.5
282.262	33.5
283.056	32.5
283.851	30.5
284.646	34.5
285.44	29.5
286.234	29.5
287.029	34.5
287.823	33.5
288.617	32.5
289.411	29.5
290.205	31.5
290.999	29.5
291.793	32.5
292.587	30.5
293.381	29.5
294.174	28.5
294.968	29.5
295.761	26.5
296.555	27.5
297.348	27.5
298.141	26.5
298.935	30.5
299.728	24.5
300.521	25.5
301.314	23.5
302.107	23.5
302.899	25.5
303.692	25.5
304.485	25.5
305.277	24.5
306.07	23.5
306.862	22.5
307.655	22.5
308.447	20.5
309.239	20.5
310.031	18.5
310.823	20.5
311.615	19.5
312.407	19.5
313.199	17.5
313.991	19.5
314.783	16.5
315.574	17.5
316.366	17.5
317.157	15.5
317.949	15.5
318.74	14.5
319.531	15.5
320.322	15.5
321.113	17.5
321.904	13.5
322.695	13.5
323.486	15.5
324.277	13.5
325.068	13.5
325.858	15.5
326.649	12.5
327.439	13.5
328.23	12.5
329.02	15.5
329.81	13.5
330.6	15.5
331.391	13.5
332.181	11.5
332.971	13.5
333.76	13.5
334.55	12.5
335.34	12.5
336.13	13.5
336.919	11.5
337.709	11.5
338.498	10.5
339.287	12.5
340.077	12.5
340.866	11.5
341.655	11.5
342.444	12.5
343.233	11.5
344.022	9.5
344.811	11.5
345.6	11.5
346.388	10.5
347.177	8.5
347.965	10.5
348.754	10.5
349.542	12.5
350.33	9.5
351.119	12.5
351.907	11.5
352.695	8.5
353.483	11.5
354.271	10.5
355.059	11.5
355.846	9.5
356.634	11.5
357.422	13.5
358.209	11.5
358.997	11.5
359.784	10.5
360.571	11.5
361.359	9.5
362.146	10.5
362.933	15.5
363.72	10.5
364.507	8.5
365.294	11.5
366.081	9.5
366.867	10.5
367.654	10.5
368.44	11.5
369.227	10.5
370.013	11.5
370.8	9.5
371.586	8.5
372.372	10.5
373.158	11.5
373.944	11.5
374.73	11.5
375.516	12.5
376.302	10.5
377.088	10.5
377.873	10.5
378.659	7.5
379.445	9.5
380.23	11.5
381.015	8.5
381.801	11.5
382.586	8.5
383.371	12.5
384.156	9.5
384.941	14.5
385.726	11.5
386.511	10.5
387.296	11.5
388.08	9.5
388.865	13.5
389.649	12.5
390.434	11.5
391.218	13.5
392.003	10.5
392.787	10.5
393.571	11.5
394.355	13.5
395.139	12.5
395.923	12.5
396.707	12.5
397.491	11.5
398.274	14.5
399.058	15.5
399.842	12.5
400.625	12.5
401.408	12.5
402.192	14.5
402.975	11.5
403.758	14.5
404.541	13.5
405.324	15.5
406.107	14.5
406.89	11.5
407.673	14.5
408.456	15.5
409.238	14.5
410.021	18.5
410.803	14.5
411.586	14.5
412.368	18.5
413.151	17.5
413.933	16.5
414.715	20.5
415.497	18.5
416.279	16.5
417.061	19.5
417.843	20.5
418.624	20.5
419.406	21.5
420.188	19.5
420.969	22.5
421.751	22.5
422.532	23.5
423.313	22.5
424.095	19.5
424.876	22.5
425.657	22.5
426.438	26.5
427.219	25.5
428	26.5
428.78	28.5
429.561	25.5
430.342	31.5
431.122	33.5
431.903	32.5
432.683	34.5
433.464	38.5
434.244	35.5
435.024	38.5
435.804	41.5
436.584	41.5
437.364	45.5
438.144	47.5
438.924	51.5
439.704	57.5
440.483	58.5
441.263	65.5
442.042	71.5
442.822	72.5
443.601	81.5
444.38	84.5
445.16	91.5
445.939	98.5
446.718	112.5
447.497	115.5
448.276	138.5
449.054	148.5
449.833	157.5
450.612	175.5
451.391	192.5
452.169	214.5
452.948	235.5
453.726	261.5
454.504	293.5
455.282	321.5
456.061	359.5
456.839	398.5
457.617	429.5
458.395	496.5
459.172	548.5
459.95	603.5
460.728	671.5
461.506	748.5
462.283	831.5
463.061	930.5
463.838	1029.5
464.615	1132.5
465.393	1256.5
466.17	1393.5
466.947	1536.5
467.724	1699.5
468.501	1882.5
469.278	2075.5
470.055	2280.5
470.831	2510.5
471.608	2756.5
472.385	3014.5
473.161	3288.5
473.938	3621.5
474.714	3947.5
475.49	4364.5
476.266	4732.5
477.043	5135.5
477.819	5582.5
478.595	6094.5
479.371	6582.5
480.146	7137.5
480.922	7767.5
481.698	8408.5
482.473	9139.5
483.249	9862.5
484.024	10605.5
484.8	11471.5
485.575	12428.5
486.35	13368.5
487.126	14463.5
487.901	15495.5
488.676	16666.5
489.451	17927.5
490.225	19267.5
491	20628.5
491.775	21941.5
492.55	23522.5
493.324	24884.5
494.099	26530.5
494.873	27995.5
495.647	29610.5
496.422	31197.5
497.196	32817.5
497.97	34331.5
498.744	35759.5
499.518	37323.5
500.292	38680.5
501.066	39812.5
501.839	40742.5
502.613	41711.5
503.387	42588.5
504.16	43108.5
504.934	43520.5
505.707	43723.5
506.48	43699.5
507.253	43504.5
508.027	43323.5
508.8	42676.5
509.573	42029.5
510.346	41267.5
511.118	40416.5
511.891	39600.5
512.664	38306.5
513.437	36950.5
514.209	35849.5
514.982	34596.5
515.754	33305.5
516.526	32064.5
517.298	30804.5
518.071	29690.5
518.843	28539.5
519.615	27319.5
520.387	26326.5
521.159	25340.5
521.93	24300.5
522.702	23233.5
523.474	22331.5
524.245	21413.5
525.017	20482.5
525.788	19726.5
526.56	18874.5
527.331	18071.5
528.102	17228.5
528.873	16373.5
529.644	15598.5
530.415	14946.5
531.186	14251.5
531.957	13496.5
532.728	12883.5
533.498	12240.5
534.269	11631.5
535.039	10995.5
535.81	10434.5
536.58	9881.5
537.351	9297.5
538.121	8876.5
538.891	8430.5
539.661	7919.5
540.431	7521.5
541.201	7167.5
541.971	6787.5
542.741	6409.5
543.51	6083.5
544.28	5757.5
545.05	5500.5
545.819	5275.5
546.588	5029.5
547.358	4771.5
548.127	4517.5
548.896	4325.5
549.665	4083.5
550.434	3884.5
551.203	3689.5
551.972	3520.5
552.741	3331.5
553.51	3127.5
554.278	2957.5
555.047	2798.5
555.815	2654.5
556.584	2528.5
557.352	2378.5
558.121	2250.5
558.889	2119.5
559.657	2014.5
560.425	1903.5
561.193	1829.5
561.961	1719.5
562.729	1622.5
563.496	1543.5
564.264	1427.5
565.032	1368.5
565.799	1297.5
566.567	1229.5
567.334	1153.5
568.101	1102.5
568.869	1033.5
569.636	978.5
570.403	922.5
571.17	866.5
571.937	824.5
572.704	775.5
573.471	734.5
574.237	695.5
575.004	654.5
575.771	607.5
576.537	578.5
577.303	545.5
578.07	523.5
578.836	486.5
579.602	449.5
580.368	438.5
581.134	425.5
581.9	399.5
582.666	384.5
583.432	363.5
584.198	340.5
584.964	326.5
585.729	310.5
586.495	293.5
587.26	274.5
588.025	260.5
588.791	238.5
589.556	237.5
590.321	221.5
591.086	211.5
591.851	200.5
592.616	187.5
593.381	193.5
594.146	173.5
594.911	162.5
595.675	164.5
596.44	150.5
597.204	145.5
597.969	140.5
598.733	132.5
599.497	123.5
600.261	122.5
601.025	114.5
601.79	111.5
602.553	106.5
603.317	103.5
604.081	97.5
604.845	93.5
605.609	90.5
606.372	84.5
607.136	81.5
607.899	80.5
608.662	74.5
609.426	70.5
610.189	70.5
610.952	67.5
611.715	67.5
612.478	64.5
613.241	61.5
614.004	57.5
614.767	61.5
615.529	56.5
616.292	52.5
617.055	52.5
617.817	50.5
618.579	47.5
619.342	45.5
620.104	47.5
620.866	40.5
621.628	41.5
622.39	42.5
623.152	37.5
623.914	39.5
624.676	37.5
625.438	37.5
626.199	36.5
626.961	32.5
627.722	31.5
628.484	33.5
629.245	30.5
630.006	31.5
630.768	31.5
631.529	26.5
632.29	26.5
633.051	28.5
633.812	25.5
634.573	23.5
635.333	23.5
636.094	22.5
636.855	23.5
637.615	19.5
638.376	22.5
639.136	19.5
639.896	19.5
640.657	20.5
641.417	20.5
642.177	21.5
642.937	19.5
643.697	16.5
644.457	19.5
645.216	18.5
645.976	17.5
646.736	15.5
647.495	16.5
648.255	17.5
649.014	16.5
649.774	17.5
650.533	14.5
651.292	16.5
652.051	13.5
652.81	15.5
653.569	14.5
654.328	13.5
655.087	14.5
655.846	12.5
656.604	14.5
657.363	14.5
658.121	14.5
658.88	13.5
659.638	11.5
660.397	13.5
661.155	11.5
661.913	9.5
662.671	11.5
663.429	8.5
664.187	10.5
664.945	11.5
665.703	12.5
666.46	8.5
667.218	10.5
667.976	11.5
668.733	9.5
669.49	8.5
670.248	9.5
671.005	10.5
671.762	9.5
672.519	8.5
673.276	8.5
674.033	7.5
674.79	8.5
675.547	10.5
676.304	9.5
677.06	8.5
677.817	9.5
678.574	8.5
679.33	7.5
680.086	10.5
680.843	7.5
681.599	10.5
682.355	8.5
683.111	8.5
683.867	9.5
684.623	6.5
685.379	8.5
686.135	10.5
686.89	7.5
687.646	12.5
688.402	6.5
689.157	7.5
689.912	6.5
690.668	8.5
691.423	8.5
692.178	9.5
692.933	10.5
693.688	8.5
694.443	8.5
695.198	8.5
695.953	8.5
696.708	7.5
697.462	9.5
698.217	6.5
698.972	5.5
699.726	7.5
700.48	9.5
701.235	6.5
701.989	8.5
702.743	8.5
703.497	7.5
704.251	7.5
705.005	8.5
705.759	9.5
706.513	7.5
707.266	10.5
708.02	8.5
708.774	9.5
709.527	7.5
710.28	6.5
711.034	8.5
711.787	6.5
712.54	8.5
713.293	6.5
714.046	6.5
714.799	7.5
715.552	8.5
716.305	8.5
717.058	8.5
717.81	8.5
718.563	6.5
719.315	8.5
720.068	7.5
720.82	8.5
721.573	9.5
722.325	8.5
723.077	7.5
723.829	9.5
724.581	5.5
725.333	8.5
726.085	7.5
726.836	9.5
727.588	9.5
728.34	8.5
729.091	8.5
729.843	7.5
730.594	10.5
731.346	7.5
732.097	10.5
732.848	10.5
733.599	10.5
734.35	7.5
735.101	8.5
735.852	8.5
736.603	8.5
737.354	9.5
738.104	11.5
738.855	11.5
739.605	10.5
740.356	9.5
741.106	10.5
741.856	8.5
742.607	8.5
743.357	8.5
744.107	10.5
744.857	10.5
745.607	10.5
746.357	11.5
747.106	12.5
747.856	10.5
748.606	12.5
749.355	11.5
750.105	9.5
750.854	10.5
751.603	8.5
752.353	12.5
753.102	8.5
753.851	10.5
754.6	10.5
755.349	10.5
756.098	9.5
756.847	11.5
757.595	10.5
758.344	11.5
759.093	13.5
759.841	12.5
760.589	11.5
761.338	14.5
762.086	12.5
762.834	13.5
763.582	11.5
764.331	12.5
765.079	11.5
765.826	14.5
766.574	14.5
767.322	13.5
768.07	12.5
768.817	13.5
769.565	15.5
770.312	13.5
771.06	15.5
771.807	12.5
772.554	14.5
773.302	15.5
774.049	13.5
774.796	16.5
775.543	15.5
776.29	14.5
777.036	15.5
777.783	14.5
778.53	14.5
779.276	15.5
780.023	15.5
780.769	14.5
781.516	15.5
782.262	15.5
783.008	14.5
783.754	13.5
784.5	14.5
785.246	15.5
785.992	14.5
786.738	13.5
787.484	15.5
788.23	14.5
788.975	14.5
789.721	13.5
790.466	13.5
791.212	15.5
791.957	15.5
792.702	13.5
793.447	13.5
794.193	12.5
794.938	13.5
795.683	14.5
796.427	12.5
797.172	15.5
797.917	11.5
798.662	14.5
799.406	12.5
800.151	10.5
800.895	12.5
801.64	11.5
802.384	11.5
803.128	11.5
803.872	12.5
804.616	11.5
805.36	12.5
806.104	8.5
806.848	11.5
807.592	11.5
808.336	8.5
809.079	10.5
809.823	9.5
810.566	10.5
811.31	9.5
812.053	9.5
812.796	9.5
813.539	9.5
814.283	8.5
815.026	9.5
815.769	8.5
816.511	10.5
817.254	8.5
817.997	8.5
818.74	9.5
819.482	11.5
820.225	7.5
820.967	7.5
821.71	9.5
822.452	6.5
823.194	11.5
823.936	6.5
824.678	9.5
825.42	7.5
826.162	6.5
826.904	7.5
827.646	8.5
828.388	8.5
829.129	5.5
829.871	6.5
830.612	5.5
831.354	6.5
832.095	5.5
832.836	6.5
833.577	7.5
834.319	6.5
835.06	4.5
835.801	8.5
836.542	4.5
837.282	5.5
838.023	6.5
838.764	5.5
839.504	3.5
840.245	4.5
840.985	7.5
841.726	4.5
842.466	6.5
843.206	4.5
843.946	6.5
844.687	5.5
845.427	5.5
846.166	5.5
846.906	7.5
847.646	5.5
848.386	6.5
849.125	6.5
849.865	4.5
850.605	4.5
851.344	5.5
852.083	2.5
852.823	5.5
853.562	5.5
854.301	3.5
855.04	6.5
855.779	2.5
856.518	3.5
857.257	4.5
857.995	3.5
858.734	5.5
859.473	3.5
860.211	4.5
860.95	4.5
861.688	4.5
862.426	4.5
863.165	3.5
863.903	6.5
864.641	5.5
865.379	3.5
866.117	3.5
866.855	2.5
867.593	1.5
868.33	2.5
869.068	5.5
869.806	1.5
870.543	4.5
871.28	3.5
872.018	2.5
872.755	5.5
873.492	3.5
874.229	1.5
874.967	3.5
875.703	2.5
876.44	2.5
877.177	1.5
877.914	3.5
878.651	2.5
879.387	2.5
880.124	0.5
880.86	2.5
881.597	2.5
882.333	1.5
883.069	1.5
883.806	2.5
884.542	-0.5
885.278	1.5
886.014	3.5
886.749	3.5
887.485	1.5
888.221	3.5
888.957	-0.5
889.692	2.5
890.428	2.5
891.163	3.5
891.899	3.5
892.634	2.5
893.369	0.5
894.104	0.5
894.839	2.5
895.574	2.5
896.309	2.5
897.044	2.5
897.779	2.5
898.514	2.5
899.248	1.5
899.983	2.5
900.717	-0.5
901.452	2.5
902.186	3.5
902.92	1.5
903.654	2.5
904.389	1.5
905.123	2.5
905.857	2.5
906.59	1.5
907.324	2.5
908.058	-0.5
908.792	1.5
909.525	-0.5
910.259	2.5
910.992	0.5
911.726	2.5
912.459	1.5
913.192	-0.5
913.925	0.5
914.658	2.5
915.391	1.5
916.124	-0.5
916.857	2.5
917.59	2.5
918.323	-0.5
919.055	1.5
919.788	1.5
920.521	-1.5
921.253	3.5
921.985	-0.5
922.718	2.5
923.45	-0.5
924.182	0.5
924.914	2.5
925.646	-0.5
926.378	1.5
927.11	0.5
927.841	-0.5
928.573	2.5
929.305	-0.5
930.036	1.5
930.768	1.5
931.499	0.5
932.23	1.5
932.962	-0.5
933.693	2.5
934.424	-0.5
935.155	1.5
935.886	0.5
936.617	1.5
937.348	0.5
938.078	-0.5
938.809	1.5
939.54	-0.5
940.27	3.5
941.001	-0.5
941.731	2.5
942.461	-0.5
943.191	0.5
943.922	-0.5
944.652	-0.5
945.382	-0.5
946.112	0.5
946.841	1.5
947.571	2.5
948.301	-0.5
949.031	-0.5
949.76	0.5
950.49	1.5
951.219	-0.5
951.948	2.5
952.678	2.5
953.407	-0.5
954.136	0.5
954.865	-0.5
955.594	3.5
956.323	1.5
957.052	2.5
957.78	1.5
958.509	2.5
959.238	2.5
959.966	-1.5
960.695	2.5
961.423	0.5
962.151	-1.5
962.88	1.5
963.608	1.5
964.336	0.5
965.064	-0.5
965.792	1.5
966.52	0.5
967.247	-0.5
967.975	0.5
968.703	0.5
969.43	2.5
970.158	3.5
970.885	-0.5
971.613	2.5
972.34	2.5
973.067	0.5
973.794	0.5
974.521	2.5
975.248	1.5
975.975	1.5
976.702	3.5
977.429	-0.5
978.156	0.5
978.882	1.5
979.609	1.5
980.335	-0.5
981.062	2.5
981.788	0.5
982.514	-0.5
983.24	2.5
983.967	-0.5
984.693	-0.5
985.419	0.5
986.144	1.5
986.87	1.5
987.596	1.5
988.322	-0.5
989.047	2.5
989.773	1.5
990.498	1.5
991.224	1.5
991.949	2.5
992.674	1.5
993.399	1.5
994.124	-0.5
994.849	-0.5
995.574	0.5
996.299	-0.5
997.024	1.5
997.749	1.5
998.473	-2.5
999.198	1.5
999.922	0.5
1000.647	1.5
1001.371	3.5
1002.095	-0.5
1002.82	-1.5
1003.544	-0.5
1004.268	7.5
1004.992	2.5
1005.716	5.5
1006.439	3.5
1007.163	8.5
1007.887	6.5
1008.611	2.5
1009.334	1.5
1010.058	3.5
1010.781	-0.5
1011.504	0.5
1012.228	1.5
1012.951	-0.5
1013.674	0.5
1014.397	0.5
1015.12	-1.5
