节点500_705_QEPB04081__672__20-55-28-838.txt的数据

Date: Wed Nov 12 20:55:28 CST 2025
User: PC
Spectrometer: QEPB0408
触发模式: 0
积分时间 (秒): 1.000000E-2
Scans to average: 1
启用暗噪声校正: true
启用非线性校正: false
滑动平均宽度: 0
X轴模式: Wavelengths
Number of Pixels in Spectrum: 1044
>>>>>Begin Spectral Data<<<<<
220.843	4.38
221.644	5.38
222.444	5.38
223.244	7.38
224.045	4.38
224.845	8.38
225.645	5.38
226.445	6.38
227.245	6.38
228.045	7.38
228.845	6.38
229.645	6.38
230.444	7.38
231.244	8.38
232.043	8.38
232.843	8.38
233.642	7.38
234.442	7.38
235.241	10.38
236.04	8.38
236.839	10.38
237.638	9.38
238.437	7.38
239.236	11.38
240.035	13.38
240.833	10.38
241.632	10.38
242.43	7.38
243.229	12.38
244.027	13.38
244.826	13.38
245.624	11.38
246.422	14.38
247.22	11.38
248.018	14.38
248.816	13.38
249.614	14.38
250.412	14.38
251.21	15.38
252.007	13.38
252.805	13.38
253.602	14.38
254.4	16.38
255.197	17.38
255.994	17.38
256.791	18.38
257.589	18.38
258.386	17.38
259.183	16.38
259.979	21.38
260.776	21.38
261.573	18.38
262.37	21.38
263.166	25.38
263.963	24.38
264.759	21.38
265.556	25.38
266.352	25.38
267.148	23.38
267.944	25.38
268.74	27.38
269.536	25.38
270.332	24.38
271.128	28.38
271.924	26.38
272.719	25.38
273.515	26.38
274.311	25.38
275.106	27.38
275.901	29.38
276.697	30.38
277.492	30.38
278.287	30.38
279.082	30.38
279.877	29.38
280.672	32.38
281.467	28.38
282.262	32.38
283.056	30.38
283.851	31.38
284.646	30.38
285.44	32.38
286.234	33.38
287.029	29.38
287.823	30.38
288.617	28.38
289.411	32.38
290.205	28.38
290.999	28.38
291.793	30.38
292.587	27.38
293.381	29.38
294.174	28.38
294.968	28.38
295.761	26.38
296.555	24.38
297.348	25.38
298.141	23.38
298.935	26.38
299.728	20.38
300.521	25.38
301.314	25.38
302.107	21.38
302.899	23.38
303.692	24.38
304.485	20.38
305.277	24.38
306.07	20.38
306.862	22.38
307.655	21.38
308.447	21.38
309.239	19.38
310.031	19.38
310.823	19.38
311.615	17.38
312.407	16.38
313.199	16.38
313.991	19.38
314.783	17.38
315.574	14.38
316.366	16.38
317.157	16.38
317.949	15.38
318.74	12.38
319.531	14.38
320.322	13.38
321.113	10.38
321.904	16.38
322.695	13.38
323.486	12.38
324.277	13.38
325.068	14.38
325.858	14.38
326.649	11.38
327.439	10.38
328.23	10.38
329.02	11.38
329.81	11.38
330.6	11.38
331.391	12.38
332.181	11.38
332.971	12.38
333.76	12.38
334.55	11.38
335.34	11.38
336.13	9.38
336.919	9.38
337.709	12.38
338.498	11.38
339.287	10.38
340.077	10.38
340.866	11.38
341.655	12.38
342.444	12.38
343.233	14.38
344.022	11.38
344.811	12.38
345.6	12.38
346.388	10.38
347.177	11.38
347.965	12.38
348.754	10.38
349.542	11.38
350.33	12.38
351.119	8.38
351.907	10.38
352.695	11.38
353.483	9.38
354.271	10.38
355.059	10.38
355.846	12.38
356.634	10.38
357.422	12.38
358.209	10.38
358.997	9.38
359.784	8.38
360.571	11.38
361.359	8.38
362.146	9.38
362.933	8.38
363.72	10.38
364.507	8.38
365.294	12.38
366.081	8.38
366.867	10.38
367.654	8.38
368.44	10.38
369.227	8.38
370.013	6.38
370.8	6.38
371.586	8.38
372.372	6.38
373.158	7.38
373.944	8.38
374.73	9.38
375.516	9.38
376.302	9.38
377.088	11.38
377.873	9.38
378.659	9.38
379.445	6.38
380.23	8.38
381.015	10.38
381.801	9.38
382.586	10.38
383.371	8.38
384.156	8.38
384.941	9.38
385.726	10.38
386.511	10.38
387.296	11.38
388.08	10.38
388.865	11.38
389.649	8.38
390.434	10.38
391.218	10.38
392.003	9.38
392.787	10.38
393.571	11.38
394.355	9.38
395.139	12.38
395.923	7.38
396.707	12.38
397.491	12.38
398.274	12.38
399.058	13.38
399.842	8.38
400.625	14.38
401.408	12.38
402.192	16.38
402.975	14.38
403.758	14.38
404.541	12.38
405.324	13.38
406.107	12.38
406.89	11.38
407.673	16.38
408.456	13.38
409.238	16.38
410.021	15.38
410.803	15.38
411.586	12.38
412.368	14.38
413.151	12.38
413.933	14.38
414.715	17.38
415.497	16.38
416.279	18.38
417.061	19.38
417.843	17.38
418.624	18.38
419.406	16.38
420.188	17.38
420.969	19.38
421.751	18.38
422.532	21.38
423.313	20.38
424.095	20.38
424.876	21.38
425.657	21.38
426.438	25.38
427.219	24.38
428	25.38
428.78	26.38
429.561	26.38
430.342	30.38
431.122	29.38
431.903	31.38
432.683	33.38
433.464	34.38
434.244	38.38
435.024	37.38
435.804	38.38
436.584	44.38
437.364	46.38
438.144	48.38
438.924	48.38
439.704	52.38
440.483	58.38
441.263	59.38
442.042	66.38
442.822	68.38
443.601	75.38
444.38	84.38
445.16	86.38
445.939	100.38
446.718	108.38
447.497	119.38
448.276	136.38
449.054	146.38
449.833	160.38
450.612	178.38
451.391	193.38
452.169	215.38
452.948	234.38
453.726	260.38
454.504	291.38
455.282	323.38
456.061	352.38
456.839	398.38
457.617	445.38
458.395	487.38
459.172	534.38
459.95	606.38
460.728	674.38
461.506	751.38
462.283	816.38
463.061	930.38
463.838	1025.38
464.615	1141.38
465.393	1259.38
466.17	1398.38
466.947	1549.38
467.724	1709.38
468.501	1877.38
469.278	2070.38
470.055	2274.38
470.831	2512.38
471.608	2767.38
472.385	3026.38
473.161	3292.38
473.938	3598.38
474.714	3966.38
475.49	4314.38
476.266	4718.38
477.043	5137.38
477.819	5573.38
478.595	6058.38
479.371	6555.38
480.146	7158.38
480.922	7761.38
481.698	8388.38
482.473	9113.38
483.249	9826.38
484.024	10613.38
484.8	11430.38
485.575	12334.38
486.35	13327.38
487.126	14401.38
487.901	15442.38
488.676	16631.38
489.451	17877.38
490.225	19197.38
491	20465.38
491.775	21825.38
492.55	23346.38
493.324	24782.38
494.099	26347.38
494.873	27927.38
495.647	29455.38
496.422	31077.38
497.196	32582.38
497.97	34219.38
498.744	35632.38
499.518	37167.38
500.292	38515.38
501.066	39621.38
501.839	40602.38
502.613	41540.38
503.387	42288.38
504.16	42925.38
504.934	43409.38
505.707	43611.38
506.48	43576.38
507.253	43343.38
508.027	43127.38
508.8	42530.38
509.573	41904.38
510.346	41169.38
511.118	40324.38
511.891	39464.38
512.664	38119.38
513.437	36923.38
514.209	35737.38
514.982	34535.38
515.754	33217.38
516.526	31909.38
517.298	30691.38
518.071	29648.38
518.843	28429.38
519.615	27332.38
520.387	26295.38
521.159	25283.38
521.93	24288.38
522.702	23209.38
523.474	22253.38
524.245	21382.38
525.017	20471.38
525.788	19706.38
526.56	18886.38
527.331	18081.38
528.102	17204.38
528.873	16368.38
529.644	15624.38
530.415	14890.38
531.186	14305.38
531.957	13572.38
532.728	12910.38
533.498	12247.38
534.269	11593.38
535.039	11018.38
535.81	10432.38
536.58	9905.38
537.351	9372.38
538.121	8870.38
538.891	8388.38
539.661	7921.38
540.431	7527.38
541.201	7144.38
541.971	6792.38
542.741	6398.38
543.51	6078.38
544.28	5774.38
545.05	5506.38
545.819	5271.38
546.588	5038.38
547.358	4777.38
548.127	4549.38
548.896	4320.38
549.665	4114.38
550.434	3905.38
551.203	3690.38
551.972	3515.38
552.741	3333.38
553.51	3131.38
554.278	2968.38
555.047	2784.38
555.815	2656.38
556.584	2525.38
557.352	2365.38
558.121	2235.38
558.889	2121.38
559.657	2006.38
560.425	1889.38
561.193	1797.38
561.961	1711.38
562.729	1633.38
563.496	1515.38
564.264	1444.38
565.032	1359.38
565.799	1284.38
566.567	1226.38
567.334	1160.38
568.101	1104.38
568.869	1048.38
569.636	970.38
570.403	915.38
571.17	867.38
571.937	823.38
572.704	785.38
573.471	739.38
574.237	687.38
575.004	651.38
575.771	613.38
576.537	572.38
577.303	539.38
578.07	514.38
578.836	498.38
579.602	451.38
580.368	440.38
581.134	412.38
581.9	410.38
582.666	373.38
583.432	360.38
584.198	340.38
584.964	326.38
585.729	307.38
586.495	286.38
587.26	272.38
588.025	264.38
588.791	238.38
589.556	230.38
590.321	222.38
591.086	209.38
591.851	199.38
592.616	187.38
593.381	183.38
594.146	174.38
594.911	164.38
595.675	159.38
596.44	149.38
597.204	141.38
597.969	143.38
598.733	128.38
599.497	124.38
600.261	120.38
601.025	115.38
601.79	110.38
602.553	104.38
603.317	98.38
604.081	101.38
604.845	91.38
605.609	92.38
606.372	84.38
607.136	81.38
607.899	79.38
608.662	77.38
609.426	70.38
610.189	70.38
610.952	71.38
611.715	62.38
612.478	58.38
613.241	58.38
614.004	56.38
614.767	53.38
615.529	50.38
616.292	53.38
617.055	52.38
617.817	50.38
618.579	44.38
619.342	46.38
620.104	44.38
620.866	41.38
621.628	41.38
622.39	40.38
623.152	40.38
623.914	34.38
624.676	36.38
625.438	35.38
626.199	31.38
626.961	28.38
627.722	30.38
628.484	32.38
629.245	33.38
630.006	30.38
630.768	27.38
631.529	26.38
632.29	26.38
633.051	24.38
633.812	25.38
634.573	23.38
635.333	24.38
636.094	21.38
636.855	22.38
637.615	20.38
638.376	21.38
639.136	20.38
639.896	19.38
640.657	18.38
641.417	19.38
642.177	21.38
642.937	19.38
643.697	18.38
644.457	15.38
645.216	16.38
645.976	16.38
646.736	15.38
647.495	15.38
648.255	17.38
649.014	11.38
649.774	17.38
650.533	14.38
651.292	14.38
652.051	14.38
652.81	12.38
653.569	12.38
654.328	12.38
655.087	10.38
655.846	12.38
656.604	12.38
657.363	11.38
658.121	12.38
658.88	10.38
659.638	10.38
660.397	13.38
661.155	12.38
661.913	10.38
662.671	12.38
663.429	10.38
664.187	11.38
664.945	9.38
665.703	10.38
666.46	10.38
667.218	9.38
667.976	10.38
668.733	10.38
669.49	9.38
670.248	7.38
671.005	8.38
671.762	7.38
672.519	9.38
673.276	10.38
674.033	6.38
674.79	9.38
675.547	7.38
676.304	6.38
677.06	8.38
677.817	7.38
678.574	8.38
679.33	7.38
680.086	9.38
680.843	8.38
681.599	9.38
682.355	7.38
683.111	5.38
683.867	6.38
684.623	5.38
685.379	9.38
686.135	9.38
686.89	5.38
687.646	7.38
688.402	9.38
689.157	9.38
689.912	7.38
690.668	6.38
691.423	6.38
692.178	7.38
692.933	7.38
693.688	8.38
694.443	6.38
695.198	9.38
695.953	5.38
696.708	7.38
697.462	5.38
698.217	9.38
698.972	8.38
699.726	6.38
700.48	9.38
701.235	6.38
701.989	7.38
702.743	6.38
703.497	9.38
704.251	6.38
705.005	5.38
705.759	6.38
706.513	7.38
707.266	7.38
708.02	5.38
708.774	6.38
709.527	6.38
710.28	7.38
711.034	8.38
711.787	6.38
712.54	8.38
713.293	7.38
714.046	7.38
714.799	6.38
715.552	8.38
716.305	5.38
717.058	6.38
717.81	7.38
718.563	7.38
719.315	5.38
720.068	6.38
720.82	5.38
721.573	7.38
722.325	5.38
723.077	6.38
723.829	9.38
724.581	7.38
725.333	8.38
726.085	7.38
726.836	7.38
727.588	6.38
728.34	7.38
729.091	7.38
729.843	8.38
730.594	7.38
731.346	10.38
732.097	8.38
732.848	9.38
733.599	7.38
734.35	8.38
735.101	6.38
735.852	7.38
736.603	7.38
737.354	8.38
738.104	10.38
738.855	8.38
739.605	8.38
740.356	8.38
741.106	8.38
741.856	8.38
742.607	9.38
743.357	7.38
744.107	8.38
744.857	8.38
745.607	8.38
746.357	10.38
747.106	8.38
747.856	8.38
748.606	9.38
749.355	8.38
750.105	13.38
750.854	10.38
751.603	8.38
752.353	10.38
753.102	9.38
753.851	14.38
754.6	9.38
755.349	10.38
756.098	9.38
756.847	12.38
757.595	9.38
758.344	10.38
759.093	12.38
759.841	10.38
760.589	10.38
761.338	11.38
762.086	9.38
762.834	14.38
763.582	9.38
764.331	11.38
765.079	12.38
765.826	8.38
766.574	12.38
767.322	11.38
768.07	11.38
768.817	11.38
769.565	11.38
770.312	11.38
771.06	12.38
771.807	14.38
772.554	12.38
773.302	13.38
774.049	13.38
774.796	11.38
775.543	14.38
776.29	13.38
777.036	14.38
777.783	15.38
778.53	14.38
779.276	11.38
780.023	12.38
780.769	14.38
781.516	14.38
782.262	13.38
783.008	14.38
783.754	15.38
784.5	16.38
785.246	13.38
785.992	14.38
786.738	14.38
787.484	13.38
788.23	14.38
788.975	13.38
789.721	14.38
790.466	11.38
791.212	11.38
791.957	13.38
792.702	12.38
793.447	13.38
794.193	14.38
794.938	12.38
795.683	12.38
796.427	13.38
797.172	12.38
797.917	11.38
798.662	10.38
799.406	11.38
800.151	12.38
800.895	11.38
801.64	10.38
802.384	9.38
803.128	14.38
803.872	11.38
804.616	10.38
805.36	12.38
806.104	7.38
806.848	8.38
807.592	10.38
808.336	10.38
809.079	9.38
809.823	10.38
810.566	10.38
811.31	8.38
812.053	6.38
812.796	7.38
813.539	6.38
814.283	10.38
815.026	5.38
815.769	8.38
816.511	8.38
817.254	10.38
817.997	10.38
818.74	7.38
819.482	7.38
820.225	5.38
820.967	7.38
821.71	7.38
822.452	8.38
823.194	8.38
823.936	3.38
824.678	6.38
825.42	6.38
826.162	5.38
826.904	9.38
827.646	6.38
828.388	4.38
829.129	6.38
829.871	4.38
830.612	5.38
831.354	4.38
832.095	8.38
832.836	6.38
833.577	5.38
834.319	3.38
835.06	5.38
835.801	5.38
836.542	3.38
837.282	4.38
838.023	6.38
838.764	7.38
839.504	4.38
840.245	6.38
840.985	5.38
841.726	4.38
842.466	6.38
843.206	3.38
843.946	3.38
844.687	5.38
845.427	5.38
846.166	4.38
846.906	5.38
847.646	4.38
848.386	3.38
849.125	4.38
849.865	3.38
850.605	2.38
851.344	5.38
852.083	4.38
852.823	2.38
853.562	3.38
854.301	1.38
855.04	4.38
855.779	2.38
856.518	1.38
857.257	4.38
857.995	5.38
858.734	4.38
859.473	2.38
860.211	4.38
860.95	4.38
861.688	5.38
862.426	3.38
863.165	2.38
863.903	3.38
864.641	-0.62
865.379	2.38
866.117	1.38
866.855	4.38
867.593	3.38
868.33	4.38
869.068	1.38
869.806	4.38
870.543	2.38
871.28	1.38
872.018	1.38
872.755	1.38
873.492	3.38
874.229	2.38
874.967	2.38
875.703	1.38
876.44	1.38
877.177	0.38
877.914	4.38
878.651	1.38
879.387	1.38
880.124	4.38
880.86	3.38
881.597	0.38
882.333	2.38
883.069	1.38
883.806	1.38
884.542	2.38
885.278	1.38
886.014	1.38
886.749	2.38
887.485	1.38
888.221	1.38
888.957	2.38
889.692	2.38
890.428	-0.62
891.163	0.38
891.899	0.38
892.634	0.38
893.369	0.38
894.104	1.38
894.839	1.38
895.574	-0.62
896.309	-2.62
897.044	0.38
897.779	0.38
898.514	0.38
899.248	1.38
899.983	-0.62
900.717	3.38
901.452	-1.62
902.186	1.38
902.92	1.38
903.654	3.38
904.389	-1.62
905.123	1.38
905.857	2.38
906.59	2.38
907.324	1.38
908.058	-1.62
908.792	-1.62
909.525	1.38
910.259	1.38
910.992	-0.62
911.726	0.38
912.459	-0.62
913.192	0.38
913.925	0.38
914.658	-1.62
915.391	-0.62
916.124	0.38
916.857	0.38
917.59	1.38
918.323	0.38
919.055	0.38
919.788	-0.62
920.521	-0.62
921.253	-0.62
921.985	-0.62
922.718	-0.62
923.45	0.38
924.182	-0.62
924.914	1.38
925.646	-1.62
926.378	2.38
927.11	0.38
927.841	1.38
928.573	-0.62
929.305	-1.62
930.036	0.38
930.768	-1.62
931.499	0.38
932.23	-0.62
932.962	-0.62
933.693	0.38
934.424	-0.62
935.155	-0.62
935.886	-1.62
936.617	-0.62
937.348	3.38
938.078	3.38
938.809	-0.62
939.54	-0.62
940.27	1.38
941.001	-0.62
941.731	-0.62
942.461	0.38
943.191	-1.62
943.922	-0.62
944.652	-0.62
945.382	1.38
946.112	-1.62
946.841	0.38
947.571	-1.62
948.301	-0.62
949.031	-0.62
949.76	-0.62
950.49	-0.62
951.219	0.38
951.948	-2.62
952.678	1.38
953.407	1.38
954.136	-0.62
954.865	1.38
955.594	1.38
956.323	0.38
957.052	2.38
957.78	2.38
958.509	-0.62
959.238	-0.62
959.966	2.38
960.695	-2.62
961.423	1.38
962.151	0.38
962.88	-2.62
963.608	-0.62
964.336	-1.62
965.064	2.38
965.792	0.38
966.52	1.38
967.247	-0.62
967.975	1.38
968.703	0.38
969.43	-1.62
970.158	-1.62
970.885	0.38
971.613	0.38
972.34	2.38
973.067	0.38
973.794	1.38
974.521	-0.62
975.248	-1.62
975.975	-0.62
976.702	-0.62
977.429	0.38
978.156	-1.62
978.882	-1.62
979.609	1.38
980.335	0.38
981.062	-1.62
981.788	1.38
982.514	0.38
983.24	1.38
983.967	-0.62
984.693	-1.62
985.419	-1.62
986.144	-0.62
986.87	-0.62
987.596	-2.62
988.322	0.38
989.047	-0.62
989.773	-1.62
990.498	2.38
991.224	1.38
991.949	2.38
992.674	0.38
993.399	-1.62
994.124	0.38
994.849	-3.62
995.574	-1.62
996.299	-1.62
997.024	-2.62
997.749	2.38
998.473	-0.62
999.198	1.38
999.922	0.38
1000.647	2.38
1001.371	3.38
1002.095	-2.62
1002.82	-0.62
1003.544	1.38
1004.268	2.38
1004.992	2.38
1005.716	5.38
1006.439	2.38
1007.163	3.38
1007.887	4.38
1008.611	0.38
1009.334	-0.62
1010.058	-1.62
1010.781	-0.62
1011.504	0.38
1012.228	1.38
1012.951	-1.62
1013.674	-0.62
1014.397	-0.62
1015.12	1.38
