节点500_705_QEPB04081__575__20-54-06-759.txt的数据

Date: Wed Nov 12 20:54:06 CST 2025
User: PC
Spectrometer: QEPB0408
触发模式: 0
积分时间 (秒): 1.000000E-2
Scans to average: 1
启用暗噪声校正: true
启用非线性校正: false
滑动平均宽度: 0
X轴模式: Wavelengths
Number of Pixels in Spectrum: 1044
>>>>>Begin Spectral Data<<<<<
220.843	5.25
221.644	2.25
222.444	4.25
223.244	3.25
224.045	8.25
224.845	7.25
225.645	5.25
226.445	8.25
227.245	6.25
228.045	8.25
228.845	7.25
229.645	7.25
230.444	5.25
231.244	9.25
232.043	8.25
232.843	8.25
233.642	10.25
234.442	6.25
235.241	8.25
236.04	9.25
236.839	10.25
237.638	10.25
238.437	10.25
239.236	10.25
240.035	11.25
240.833	10.25
241.632	15.25
242.43	10.25
243.229	14.25
244.027	11.25
244.826	10.25
245.624	10.25
246.422	15.25
247.22	13.25
248.018	13.25
248.816	13.25
249.614	14.25
250.412	13.25
251.21	14.25
252.007	15.25
252.805	14.25
253.602	14.25
254.4	17.25
255.197	14.25
255.994	17.25
256.791	16.25
257.589	19.25
258.386	19.25
259.183	19.25
259.979	19.25
260.776	20.25
261.573	23.25
262.37	24.25
263.166	20.25
263.963	24.25
264.759	24.25
265.556	25.25
266.352	22.25
267.148	26.25
267.944	25.25
268.74	29.25
269.536	26.25
270.332	23.25
271.128	27.25
271.924	26.25
272.719	28.25
273.515	31.25
274.311	27.25
275.106	29.25
275.901	32.25
276.697	30.25
277.492	30.25
278.287	33.25
279.082	32.25
279.877	31.25
280.672	33.25
281.467	29.25
282.262	31.25
283.056	30.25
283.851	31.25
284.646	33.25
285.44	34.25
286.234	31.25
287.029	33.25
287.823	31.25
288.617	31.25
289.411	30.25
290.205	29.25
290.999	29.25
291.793	31.25
292.587	31.25
293.381	27.25
294.174	29.25
294.968	27.25
295.761	29.25
296.555	25.25
297.348	26.25
298.141	25.25
298.935	27.25
299.728	25.25
300.521	25.25
301.314	23.25
302.107	22.25
302.899	24.25
303.692	21.25
304.485	20.25
305.277	22.25
306.07	22.25
306.862	21.25
307.655	21.25
308.447	23.25
309.239	20.25
310.031	20.25
310.823	18.25
311.615	19.25
312.407	16.25
313.199	18.25
313.991	15.25
314.783	15.25
315.574	15.25
316.366	15.25
317.157	13.25
317.949	15.25
318.74	15.25
319.531	14.25
320.322	15.25
321.113	13.25
321.904	12.25
322.695	14.25
323.486	14.25
324.277	14.25
325.068	12.25
325.858	14.25
326.649	13.25
327.439	12.25
328.23	13.25
329.02	12.25
329.81	14.25
330.6	15.25
331.391	12.25
332.181	13.25
332.971	11.25
333.76	10.25
334.55	12.25
335.34	13.25
336.13	11.25
336.919	10.25
337.709	11.25
338.498	9.25
339.287	11.25
340.077	12.25
340.866	11.25
341.655	11.25
342.444	9.25
343.233	11.25
344.022	9.25
344.811	12.25
345.6	12.25
346.388	9.25
347.177	10.25
347.965	10.25
348.754	13.25
349.542	12.25
350.33	10.25
351.119	12.25
351.907	9.25
352.695	9.25
353.483	11.25
354.271	12.25
355.059	10.25
355.846	12.25
356.634	11.25
357.422	13.25
358.209	11.25
358.997	8.25
359.784	11.25
360.571	11.25
361.359	9.25
362.146	9.25
362.933	8.25
363.72	11.25
364.507	10.25
365.294	11.25
366.081	9.25
366.867	10.25
367.654	9.25
368.44	8.25
369.227	8.25
370.013	8.25
370.8	9.25
371.586	8.25
372.372	10.25
373.158	9.25
373.944	9.25
374.73	10.25
375.516	10.25
376.302	8.25
377.088	10.25
377.873	9.25
378.659	9.25
379.445	10.25
380.23	10.25
381.015	10.25
381.801	7.25
382.586	10.25
383.371	10.25
384.156	9.25
384.941	11.25
385.726	11.25
386.511	11.25
387.296	10.25
388.08	10.25
388.865	8.25
389.649	9.25
390.434	12.25
391.218	10.25
392.003	10.25
392.787	12.25
393.571	12.25
394.355	11.25
395.139	10.25
395.923	13.25
396.707	10.25
397.491	11.25
398.274	12.25
399.058	14.25
399.842	14.25
400.625	11.25
401.408	15.25
402.192	15.25
402.975	14.25
403.758	13.25
404.541	12.25
405.324	14.25
406.107	14.25
406.89	16.25
407.673	15.25
408.456	13.25
409.238	17.25
410.021	18.25
410.803	15.25
411.586	15.25
412.368	19.25
413.151	17.25
413.933	17.25
414.715	17.25
415.497	20.25
416.279	17.25
417.061	17.25
417.843	17.25
418.624	19.25
419.406	17.25
420.188	21.25
420.969	21.25
421.751	24.25
422.532	19.25
423.313	25.25
424.095	22.25
424.876	20.25
425.657	23.25
426.438	23.25
427.219	27.25
428	24.25
428.78	29.25
429.561	29.25
430.342	28.25
431.122	32.25
431.903	30.25
432.683	33.25
433.464	34.25
434.244	38.25
435.024	39.25
435.804	40.25
436.584	43.25
437.364	45.25
438.144	47.25
438.924	54.25
439.704	53.25
440.483	58.25
441.263	65.25
442.042	66.25
442.822	72.25
443.601	77.25
444.38	86.25
445.16	93.25
445.939	102.25
446.718	111.25
447.497	118.25
448.276	130.25
449.054	137.25
449.833	154.25
450.612	171.25
451.391	193.25
452.169	208.25
452.948	237.25
453.726	257.25
454.504	289.25
455.282	315.25
456.061	352.25
456.839	397.25
457.617	441.25
458.395	490.25
459.172	542.25
459.95	608.25
460.728	676.25
461.506	752.25
462.283	830.25
463.061	925.25
463.838	1030.25
464.615	1137.25
465.393	1258.25
466.17	1383.25
466.947	1544.25
467.724	1710.25
468.501	1878.25
469.278	2072.25
470.055	2268.25
470.831	2523.25
471.608	2768.25
472.385	3033.25
473.161	3310.25
473.938	3644.25
474.714	3982.25
475.49	4339.25
476.266	4687.25
477.043	5147.25
477.819	5576.25
478.595	6085.25
479.371	6587.25
480.146	7201.25
480.922	7815.25
481.698	8491.25
482.473	9169.25
483.249	9912.25
484.024	10689.25
484.8	11523.25
485.575	12429.25
486.35	13453.25
487.126	14549.25
487.901	15595.25
488.676	16719.25
489.451	18072.25
490.225	19361.25
491	20689.25
491.775	22126.25
492.55	23617.25
493.324	25158.25
494.099	26652.25
494.873	28250.25
495.647	29875.25
496.422	31397.25
497.196	33077.25
497.97	34611.25
498.744	36095.25
499.518	37607.25
500.292	38904.25
501.066	39982.25
501.839	40963.25
502.613	41927.25
503.387	42798.25
504.16	43348.25
504.934	43707.25
505.707	44014.25
506.48	43868.25
507.253	43744.25
508.027	43385.25
508.8	42713.25
509.573	42084.25
510.346	41397.25
511.118	40509.25
511.891	39509.25
512.664	38265.25
513.437	36965.25
514.209	35803.25
514.982	34533.25
515.754	33263.25
516.526	31994.25
517.298	30798.25
518.071	29624.25
518.843	28482.25
519.615	27261.25
520.387	26188.25
521.159	25257.25
521.93	24202.25
522.702	23238.25
523.474	22271.25
524.245	21407.25
525.017	20428.25
525.788	19661.25
526.56	18855.25
527.331	18055.25
528.102	17188.25
528.873	16361.25
529.644	15582.25
530.415	14920.25
531.186	14211.25
531.957	13484.25
532.728	12869.25
533.498	12182.25
534.269	11576.25
535.039	10976.25
535.81	10415.25
536.58	9827.25
537.351	9332.25
538.121	8837.25
538.891	8349.25
539.661	7934.25
540.431	7496.25
541.201	7153.25
541.971	6730.25
542.741	6401.25
543.51	6038.25
544.28	5763.25
545.05	5492.25
545.819	5222.25
546.588	4994.25
547.358	4755.25
548.127	4514.25
548.896	4298.25
549.665	4105.25
550.434	3894.25
551.203	3671.25
551.972	3492.25
552.741	3319.25
553.51	3115.25
554.278	2961.25
555.047	2797.25
555.815	2638.25
556.584	2513.25
557.352	2377.25
558.121	2246.25
558.889	2128.25
559.657	1983.25
560.425	1886.25
561.193	1783.25
561.961	1711.25
562.729	1606.25
563.496	1522.25
564.264	1432.25
565.032	1373.25
565.799	1291.25
566.567	1225.25
567.334	1148.25
568.101	1089.25
568.869	1010.25
569.636	975.25
570.403	903.25
571.17	863.25
571.937	828.25
572.704	770.25
573.471	729.25
574.237	679.25
575.004	649.25
575.771	608.25
576.537	573.25
577.303	537.25
578.07	505.25
578.836	485.25
579.602	462.25
580.368	438.25
581.134	415.25
581.9	391.25
582.666	375.25
583.432	353.25
584.198	339.25
584.964	319.25
585.729	304.25
586.495	278.25
587.26	264.25
588.025	257.25
588.791	247.25
589.556	223.25
590.321	216.25
591.086	208.25
591.851	198.25
592.616	187.25
593.381	181.25
594.146	169.25
594.911	161.25
595.675	156.25
596.44	153.25
597.204	133.25
597.969	137.25
598.733	128.25
599.497	126.25
600.261	115.25
601.025	114.25
601.79	111.25
602.553	104.25
603.317	106.25
604.081	95.25
604.845	93.25
605.609	91.25
606.372	85.25
607.136	80.25
607.899	77.25
608.662	79.25
609.426	71.25
610.189	71.25
610.952	67.25
611.715	66.25
612.478	62.25
613.241	56.25
614.004	60.25
614.767	54.25
615.529	55.25
616.292	54.25
617.055	49.25
617.817	51.25
618.579	49.25
619.342	48.25
620.104	42.25
620.866	44.25
621.628	40.25
622.39	39.25
623.152	39.25
623.914	37.25
624.676	34.25
625.438	33.25
626.199	35.25
626.961	33.25
627.722	33.25
628.484	30.25
629.245	28.25
630.006	31.25
630.768	27.25
631.529	26.25
632.29	27.25
633.051	27.25
633.812	27.25
634.573	25.25
635.333	23.25
636.094	22.25
636.855	22.25
637.615	23.25
638.376	21.25
639.136	21.25
639.896	19.25
640.657	17.25
641.417	21.25
642.177	19.25
642.937	16.25
643.697	16.25
644.457	17.25
645.216	15.25
645.976	16.25
646.736	18.25
647.495	15.25
648.255	17.25
649.014	14.25
649.774	14.25
650.533	15.25
651.292	14.25
652.051	13.25
652.81	14.25
653.569	12.25
654.328	15.25
655.087	13.25
655.846	12.25
656.604	12.25
657.363	13.25
658.121	11.25
658.88	12.25
659.638	13.25
660.397	10.25
661.155	13.25
661.913	12.25
662.671	9.25
663.429	10.25
664.187	12.25
664.945	10.25
665.703	9.25
666.46	9.25
667.218	8.25
667.976	10.25
668.733	9.25
669.49	9.25
670.248	11.25
671.005	10.25
671.762	7.25
672.519	8.25
673.276	8.25
674.033	10.25
674.79	11.25
675.547	10.25
676.304	6.25
677.06	10.25
677.817	9.25
678.574	8.25
679.33	12.25
680.086	8.25
680.843	11.25
681.599	7.25
682.355	8.25
683.111	9.25
683.867	9.25
684.623	7.25
685.379	7.25
686.135	8.25
686.89	8.25
687.646	5.25
688.402	7.25
689.157	10.25
689.912	7.25
690.668	8.25
691.423	6.25
692.178	6.25
692.933	8.25
693.688	11.25
694.443	6.25
695.198	7.25
695.953	8.25
696.708	10.25
697.462	9.25
698.217	8.25
698.972	6.25
699.726	7.25
700.48	8.25
701.235	9.25
701.989	7.25
702.743	8.25
703.497	5.25
704.251	9.25
705.005	7.25
705.759	5.25
706.513	7.25
707.266	5.25
708.02	8.25
708.774	8.25
709.527	8.25
710.28	6.25
711.034	8.25
711.787	8.25
712.54	5.25
713.293	6.25
714.046	5.25
714.799	10.25
715.552	7.25
716.305	7.25
717.058	7.25
717.81	7.25
718.563	7.25
719.315	7.25
720.068	9.25
720.82	8.25
721.573	7.25
722.325	8.25
723.077	8.25
723.829	10.25
724.581	9.25
725.333	9.25
726.085	10.25
726.836	7.25
727.588	7.25
728.34	8.25
729.091	9.25
729.843	10.25
730.594	8.25
731.346	7.25
732.097	9.25
732.848	12.25
733.599	8.25
734.35	8.25
735.101	9.25
735.852	8.25
736.603	10.25
737.354	11.25
738.104	11.25
738.855	8.25
739.605	8.25
740.356	8.25
741.106	10.25
741.856	9.25
742.607	8.25
743.357	12.25
744.107	9.25
744.857	9.25
745.607	9.25
746.357	9.25
747.106	8.25
747.856	9.25
748.606	10.25
749.355	10.25
750.105	10.25
750.854	11.25
751.603	9.25
752.353	10.25
753.102	10.25
753.851	8.25
754.6	11.25
755.349	9.25
756.098	10.25
756.847	11.25
757.595	10.25
758.344	13.25
759.093	13.25
759.841	12.25
760.589	14.25
761.338	11.25
762.086	12.25
762.834	11.25
763.582	13.25
764.331	12.25
765.079	14.25
765.826	11.25
766.574	13.25
767.322	13.25
768.07	14.25
768.817	13.25
769.565	13.25
770.312	14.25
771.06	13.25
771.807	13.25
772.554	13.25
773.302	15.25
774.049	13.25
774.796	15.25
775.543	13.25
776.29	14.25
777.036	14.25
777.783	15.25
778.53	15.25
779.276	13.25
780.023	13.25
780.769	13.25
781.516	13.25
782.262	14.25
783.008	13.25
783.754	13.25
784.5	12.25
785.246	14.25
785.992	11.25
786.738	14.25
787.484	12.25
788.23	12.25
788.975	14.25
789.721	15.25
790.466	14.25
791.212	13.25
791.957	13.25
792.702	12.25
793.447	14.25
794.193	13.25
794.938	13.25
795.683	12.25
796.427	11.25
797.172	17.25
797.917	13.25
798.662	13.25
799.406	11.25
800.151	13.25
800.895	12.25
801.64	12.25
802.384	11.25
803.128	12.25
803.872	9.25
804.616	8.25
805.36	11.25
806.104	11.25
806.848	10.25
807.592	11.25
808.336	9.25
809.079	9.25
809.823	9.25
810.566	10.25
811.31	11.25
812.053	9.25
812.796	7.25
813.539	10.25
814.283	7.25
815.026	9.25
815.769	7.25
816.511	8.25
817.254	8.25
817.997	8.25
818.74	7.25
819.482	5.25
820.225	6.25
820.967	9.25
821.71	8.25
822.452	7.25
823.194	7.25
823.936	7.25
824.678	8.25
825.42	8.25
826.162	9.25
826.904	6.25
827.646	8.25
828.388	6.25
829.129	5.25
829.871	6.25
830.612	8.25
831.354	6.25
832.095	7.25
832.836	7.25
833.577	5.25
834.319	7.25
835.06	7.25
835.801	5.25
836.542	6.25
837.282	3.25
838.023	7.25
838.764	5.25
839.504	7.25
840.245	5.25
840.985	4.25
841.726	6.25
842.466	5.25
843.206	6.25
843.946	4.25
844.687	5.25
845.427	3.25
846.166	2.25
846.906	5.25
847.646	4.25
848.386	6.25
849.125	3.25
849.865	5.25
850.605	6.25
851.344	1.25
852.083	3.25
852.823	6.25
853.562	4.25
854.301	5.25
855.04	4.25
855.779	2.25
856.518	6.25
857.257	6.25
857.995	5.25
858.734	3.25
859.473	3.25
860.211	1.25
860.95	5.25
861.688	3.25
862.426	4.25
863.165	4.25
863.903	1.25
864.641	4.25
865.379	3.25
866.117	3.25
866.855	3.25
867.593	2.25
868.33	2.25
869.068	2.25
869.806	3.25
870.543	3.25
871.28	2.25
872.018	2.25
872.755	2.25
873.492	1.25
874.229	2.25
874.967	1.25
875.703	2.25
876.44	4.25
877.177	3.25
877.914	0.25
878.651	2.25
879.387	1.25
880.124	5.25
880.86	1.25
881.597	1.25
882.333	1.25
883.069	1.25
883.806	3.25
884.542	2.25
885.278	2.25
886.014	3.25
886.749	3.25
887.485	2.25
888.221	0.25
888.957	3.25
889.692	2.25
890.428	1.25
891.163	1.25
891.899	0.25
892.634	-0.75
893.369	1.25
894.104	1.25
894.839	0.25
895.574	1.25
896.309	1.25
897.044	1.25
897.779	3.25
898.514	-0.75
899.248	3.25
899.983	2.25
900.717	1.25
901.452	2.25
902.186	4.25
902.92	0.25
903.654	1.25
904.389	1.25
905.123	2.25
905.857	1.25
906.59	-0.75
907.324	-0.75
908.058	1.25
908.792	1.25
909.525	1.25
910.259	1.25
910.992	2.25
911.726	0.25
912.459	0.25
913.192	4.25
913.925	0.25
914.658	0.25
915.391	0.25
916.124	1.25
916.857	0.25
917.59	0.25
918.323	-0.75
919.055	1.25
919.788	2.25
920.521	0.25
921.253	-0.75
921.985	0.25
922.718	0.25
923.45	1.25
924.182	1.25
924.914	1.25
925.646	0.25
926.378	0.25
927.11	1.25
927.841	0.25
928.573	1.25
929.305	1.25
930.036	-0.75
930.768	0.25
931.499	1.25
932.23	1.25
932.962	1.25
933.693	-0.75
934.424	1.25
935.155	-0.75
935.886	-0.75
936.617	-0.75
937.348	2.25
938.078	-0.75
938.809	2.25
939.54	1.25
940.27	-0.75
941.001	1.25
941.731	-1.75
942.461	-0.75
943.191	-0.75
943.922	-0.75
944.652	1.25
945.382	1.25
946.112	2.25
946.841	2.25
947.571	0.25
948.301	1.25
949.031	0.25
949.76	3.25
950.49	-1.75
951.219	0.25
951.948	0.25
952.678	0.25
953.407	0.25
954.136	-0.75
954.865	0.25
955.594	0.25
956.323	1.25
957.052	1.25
957.78	0.25
958.509	1.25
959.238	0.25
959.966	-0.75
960.695	-0.75
961.423	0.25
962.151	0.25
962.88	0.25
963.608	3.25
964.336	-0.75
965.064	2.25
965.792	2.25
966.52	-0.75
967.247	1.25
967.975	1.25
968.703	1.25
969.43	2.25
970.158	-0.75
970.885	0.25
971.613	0.25
972.34	0.25
973.067	1.25
973.794	2.25
974.521	1.25
975.248	1.25
975.975	0.25
976.702	-0.75
977.429	1.25
978.156	2.25
978.882	0.25
979.609	2.25
980.335	-0.75
981.062	2.25
981.788	-0.75
982.514	1.25
983.24	-0.75
983.967	-0.75
984.693	0.25
985.419	-1.75
986.144	0.25
986.87	0.25
987.596	0.25
988.322	0.25
989.047	1.25
989.773	2.25
990.498	1.25
991.224	2.25
991.949	0.25
992.674	-0.75
993.399	2.25
994.124	-2.75
994.849	1.25
995.574	-0.75
996.299	-0.75
997.024	0.25
997.749	-0.75
998.473	0.25
999.198	-0.75
999.922	-0.75
1000.647	-1.75
1001.371	2.25
1002.095	-0.75
1002.82	-0.75
1003.544	-1.75
1004.268	4.25
1004.992	4.25
1005.716	3.25
1006.439	7.25
1007.163	7.25
1007.887	6.25
1008.611	-0.75
1009.334	-0.75
1010.058	0.25
1010.781	1.25
1011.504	0.25
1012.228	1.25
1012.951	-0.75
1013.674	-0.75
1014.397	1.25
1015.12	1.25
