节点500_705_QEPB04081__60__20-46-53-310.txt的数据

Date: Wed Nov 12 20:46:53 CST 2025
User: PC
Spectrometer: QEPB0408
触发模式: 0
积分时间 (秒): 1.000000E-2
Scans to average: 1
启用暗噪声校正: true
启用非线性校正: false
滑动平均宽度: 0
X轴模式: Wavelengths
Number of Pixels in Spectrum: 1044
>>>>>Begin Spectral Data<<<<<
220.843	7.5
221.644	7.5
222.444	7.5
223.244	6.5
224.045	8.5
224.845	8.5
225.645	6.5
226.445	9.5
227.245	7.5
228.045	8.5
228.845	8.5
229.645	10.5
230.444	9.5
231.244	9.5
232.043	10.5
232.843	8.5
233.642	12.5
234.442	8.5
235.241	11.5
236.04	9.5
236.839	13.5
237.638	11.5
238.437	11.5
239.236	13.5
240.035	12.5
240.833	11.5
241.632	12.5
242.43	10.5
243.229	12.5
244.027	13.5
244.826	18.5
245.624	15.5
246.422	15.5
247.22	13.5
248.018	14.5
248.816	18.5
249.614	14.5
250.412	15.5
251.21	16.5
252.007	19.5
252.805	19.5
253.602	18.5
254.4	21.5
255.197	21.5
255.994	22.5
256.791	22.5
257.589	22.5
258.386	25.5
259.183	27.5
259.979	23.5
260.776	26.5
261.573	24.5
262.37	27.5
263.166	24.5
263.963	28.5
264.759	27.5
265.556	31.5
266.352	29.5
267.148	28.5
267.944	33.5
268.74	30.5
269.536	34.5
270.332	33.5
271.128	32.5
271.924	33.5
272.719	33.5
273.515	35.5
274.311	34.5
275.106	34.5
275.901	38.5
276.697	31.5
277.492	35.5
278.287	37.5
279.082	37.5
279.877	39.5
280.672	39.5
281.467	38.5
282.262	38.5
283.056	41.5
283.851	33.5
284.646	34.5
285.44	38.5
286.234	36.5
287.029	36.5
287.823	34.5
288.617	33.5
289.411	34.5
290.205	34.5
290.999	35.5
291.793	30.5
292.587	33.5
293.381	32.5
294.174	32.5
294.968	33.5
295.761	27.5
296.555	29.5
297.348	29.5
298.141	25.5
298.935	27.5
299.728	27.5
300.521	24.5
301.314	23.5
302.107	26.5
302.899	22.5
303.692	25.5
304.485	22.5
305.277	23.5
306.07	23.5
306.862	21.5
307.655	24.5
308.447	22.5
309.239	20.5
310.031	22.5
310.823	17.5
311.615	18.5
312.407	19.5
313.199	19.5
313.991	18.5
314.783	17.5
315.574	18.5
316.366	15.5
317.157	16.5
317.949	14.5
318.74	14.5
319.531	14.5
320.322	18.5
321.113	14.5
321.904	13.5
322.695	15.5
323.486	14.5
324.277	14.5
325.068	14.5
325.858	14.5
326.649	13.5
327.439	11.5
328.23	12.5
329.02	12.5
329.81	13.5
330.6	11.5
331.391	10.5
332.181	14.5
332.971	13.5
333.76	15.5
334.55	12.5
335.34	13.5
336.13	11.5
336.919	14.5
337.709	12.5
338.498	12.5
339.287	12.5
340.077	11.5
340.866	13.5
341.655	13.5
342.444	12.5
343.233	13.5
344.022	11.5
344.811	11.5
345.6	10.5
346.388	12.5
347.177	11.5
347.965	13.5
348.754	11.5
349.542	9.5
350.33	12.5
351.119	11.5
351.907	9.5
352.695	13.5
353.483	12.5
354.271	13.5
355.059	15.5
355.846	9.5
356.634	11.5
357.422	10.5
358.209	11.5
358.997	11.5
359.784	13.5
360.571	12.5
361.359	7.5
362.146	11.5
362.933	9.5
363.72	10.5
364.507	11.5
365.294	9.5
366.081	11.5
366.867	9.5
367.654	11.5
368.44	9.5
369.227	12.5
370.013	10.5
370.8	10.5
371.586	9.5
372.372	11.5
373.158	10.5
373.944	8.5
374.73	10.5
375.516	9.5
376.302	10.5
377.088	9.5
377.873	11.5
378.659	13.5
379.445	9.5
380.23	11.5
381.015	10.5
381.801	10.5
382.586	14.5
383.371	9.5
384.156	11.5
384.941	10.5
385.726	11.5
386.511	11.5
387.296	11.5
388.08	10.5
388.865	13.5
389.649	12.5
390.434	9.5
391.218	12.5
392.003	13.5
392.787	11.5
393.571	14.5
394.355	15.5
395.139	11.5
395.923	13.5
396.707	13.5
397.491	15.5
398.274	14.5
399.058	14.5
399.842	16.5
400.625	12.5
401.408	16.5
402.192	13.5
402.975	15.5
403.758	13.5
404.541	14.5
405.324	15.5
406.107	18.5
406.89	16.5
407.673	16.5
408.456	17.5
409.238	19.5
410.021	16.5
410.803	18.5
411.586	16.5
412.368	19.5
413.151	19.5
413.933	18.5
414.715	18.5
415.497	20.5
416.279	19.5
417.061	19.5
417.843	20.5
418.624	21.5
419.406	21.5
420.188	23.5
420.969	19.5
421.751	24.5
422.532	22.5
423.313	23.5
424.095	25.5
424.876	24.5
425.657	24.5
426.438	26.5
427.219	28.5
428	30.5
428.78	29.5
429.561	29.5
430.342	31.5
431.122	33.5
431.903	35.5
432.683	35.5
433.464	40.5
434.244	38.5
435.024	41.5
435.804	41.5
436.584	42.5
437.364	46.5
438.144	44.5
438.924	54.5
439.704	53.5
440.483	56.5
441.263	56.5
442.042	62.5
442.822	69.5
443.601	72.5
444.38	75.5
445.16	87.5
445.939	89.5
446.718	97.5
447.497	106.5
448.276	115.5
449.054	121.5
449.833	140.5
450.612	151.5
451.391	162.5
452.169	185.5
452.948	201.5
453.726	222.5
454.504	247.5
455.282	271.5
456.061	310.5
456.839	341.5
457.617	389.5
458.395	430.5
459.172	476.5
459.95	523.5
460.728	591.5
461.506	681.5
462.283	745.5
463.061	829.5
463.838	922.5
464.615	1039.5
465.393	1165.5
466.17	1305.5
466.947	1439.5
467.724	1616.5
468.501	1775.5
469.278	1993.5
470.055	2224.5
470.831	2467.5
471.608	2722.5
472.385	3031.5
473.161	3348.5
473.938	3723.5
474.714	4067.5
475.49	4486.5
476.266	4954.5
477.043	5433.5
477.819	6035.5
478.595	6586.5
479.371	7215.5
480.146	7900.5
480.922	8729.5
481.698	9558.5
482.473	10413.5
483.249	11394.5
484.024	12432.5
484.8	13503.5
485.575	14731.5
486.35	16102.5
487.126	17464.5
487.901	18960.5
488.676	20483.5
489.451	22213.5
490.225	23950.5
491	25684.5
491.775	27599.5
492.55	29557.5
493.324	31461.5
494.099	33355.5
494.873	35314.5
495.647	37307.5
496.422	39312.5
497.196	41224.5
497.97	42857.5
498.744	44419.5
499.518	46043.5
500.292	47358.5
501.066	48226.5
501.839	48907.5
502.613	49514.5
503.387	49909.5
504.16	50240.5
504.934	50051.5
505.707	49537.5
506.48	48892.5
507.253	48132.5
508.027	47193.5
508.8	45712.5
509.573	44473.5
510.346	43177.5
511.118	41867.5
511.891	40388.5
512.664	38774.5
513.437	37152.5
514.209	35602.5
514.982	34187.5
515.754	32659.5
516.526	31195.5
517.298	29947.5
518.071	28823.5
518.843	27627.5
519.615	26513.5
520.387	25420.5
521.159	24457.5
521.93	23357.5
522.702	22383.5
523.474	21408.5
524.245	20478.5
525.017	19546.5
525.788	18653.5
526.56	17901.5
527.331	17056.5
528.102	16116.5
528.873	15310.5
529.644	14539.5
530.415	13868.5
531.186	13130.5
531.957	12391.5
532.728	11740.5
533.498	11112.5
534.269	10505.5
535.039	9957.5
535.81	9386.5
536.58	8839.5
537.351	8405.5
538.121	7954.5
538.891	7542.5
539.661	7154.5
540.431	6700.5
541.201	6397.5
541.971	6051.5
542.741	5724.5
543.51	5437.5
544.28	5194.5
545.05	4970.5
545.819	4721.5
546.588	4509.5
547.358	4272.5
548.127	4037.5
548.896	3841.5
549.665	3617.5
550.434	3434.5
551.203	3279.5
551.972	3097.5
552.741	2934.5
553.51	2740.5
554.278	2599.5
555.047	2436.5
555.815	2315.5
556.584	2182.5
557.352	2065.5
558.121	1966.5
558.889	1855.5
559.657	1752.5
560.425	1645.5
561.193	1573.5
561.961	1471.5
562.729	1383.5
563.496	1326.5
564.264	1237.5
565.032	1174.5
565.799	1117.5
566.567	1062.5
567.334	991.5
568.101	941.5
568.869	897.5
569.636	837.5
570.403	791.5
571.17	747.5
571.937	714.5
572.704	676.5
573.471	629.5
574.237	590.5
575.004	561.5
575.771	523.5
576.537	504.5
577.303	469.5
578.07	447.5
578.836	421.5
579.602	395.5
580.368	377.5
581.134	358.5
581.9	343.5
582.666	324.5
583.432	311.5
584.198	296.5
584.964	277.5
585.729	267.5
586.495	246.5
587.26	230.5
588.025	226.5
588.791	213.5
589.556	202.5
590.321	195.5
591.086	181.5
591.851	177.5
592.616	166.5
593.381	160.5
594.146	153.5
594.911	144.5
595.675	141.5
596.44	131.5
597.204	125.5
597.969	124.5
598.733	118.5
599.497	109.5
600.261	105.5
601.025	104.5
601.79	99.5
602.553	96.5
603.317	89.5
604.081	82.5
604.845	86.5
605.609	81.5
606.372	78.5
607.136	74.5
607.899	72.5
608.662	70.5
609.426	66.5
610.189	65.5
610.952	63.5
611.715	58.5
612.478	56.5
613.241	55.5
614.004	53.5
614.767	50.5
615.529	46.5
616.292	49.5
617.055	43.5
617.817	46.5
618.579	43.5
619.342	43.5
620.104	38.5
620.866	38.5
621.628	38.5
622.39	34.5
623.152	36.5
623.914	35.5
624.676	31.5
625.438	37.5
626.199	32.5
626.961	31.5
627.722	32.5
628.484	31.5
629.245	29.5
630.006	27.5
630.768	23.5
631.529	25.5
632.29	27.5
633.051	26.5
633.812	21.5
634.573	21.5
635.333	23.5
636.094	22.5
636.855	24.5
637.615	24.5
638.376	21.5
639.136	20.5
639.896	19.5
640.657	20.5
641.417	18.5
642.177	17.5
642.937	18.5
643.697	18.5
644.457	14.5
645.216	19.5
645.976	15.5
646.736	15.5
647.495	15.5
648.255	15.5
649.014	15.5
649.774	15.5
650.533	14.5
651.292	15.5
652.051	15.5
652.81	15.5
653.569	12.5
654.328	14.5
655.087	11.5
655.846	14.5
656.604	12.5
657.363	11.5
658.121	13.5
658.88	11.5
659.638	15.5
660.397	11.5
661.155	11.5
661.913	9.5
662.671	11.5
663.429	10.5
664.187	10.5
664.945	10.5
665.703	12.5
666.46	12.5
667.218	12.5
667.976	10.5
668.733	10.5
669.49	10.5
670.248	10.5
671.005	9.5
671.762	10.5
672.519	11.5
673.276	8.5
674.033	10.5
674.79	11.5
675.547	8.5
676.304	9.5
677.06	8.5
677.817	9.5
678.574	7.5
679.33	11.5
680.086	8.5
680.843	9.5
681.599	9.5
682.355	8.5
683.111	9.5
683.867	8.5
684.623	7.5
685.379	8.5
686.135	6.5
686.89	9.5
687.646	10.5
688.402	9.5
689.157	8.5
689.912	8.5
690.668	8.5
691.423	7.5
692.178	10.5
692.933	9.5
693.688	8.5
694.443	7.5
695.198	7.5
695.953	9.5
696.708	8.5
697.462	7.5
698.217	8.5
698.972	7.5
699.726	8.5
700.48	7.5
701.235	10.5
701.989	7.5
702.743	8.5
703.497	7.5
704.251	7.5
705.005	8.5
705.759	7.5
706.513	9.5
707.266	10.5
708.02	8.5
708.774	8.5
709.527	9.5
710.28	10.5
711.034	9.5
711.787	8.5
712.54	8.5
713.293	9.5
714.046	8.5
714.799	7.5
715.552	10.5
716.305	8.5
717.058	11.5
717.81	9.5
718.563	7.5
719.315	8.5
720.068	7.5
720.82	9.5
721.573	9.5
722.325	6.5
723.077	9.5
723.829	9.5
724.581	10.5
725.333	10.5
726.085	10.5
726.836	9.5
727.588	10.5
728.34	9.5
729.091	10.5
729.843	11.5
730.594	9.5
731.346	7.5
732.097	8.5
732.848	8.5
733.599	10.5
734.35	9.5
735.101	11.5
735.852	11.5
736.603	10.5
737.354	9.5
738.104	8.5
738.855	10.5
739.605	11.5
740.356	12.5
741.106	10.5
741.856	11.5
742.607	11.5
743.357	9.5
744.107	13.5
744.857	13.5
745.607	10.5
746.357	12.5
747.106	10.5
747.856	10.5
748.606	10.5
749.355	11.5
750.105	11.5
750.854	11.5
751.603	12.5
752.353	11.5
753.102	13.5
753.851	9.5
754.6	12.5
755.349	11.5
756.098	13.5
756.847	14.5
757.595	13.5
758.344	12.5
759.093	17.5
759.841	13.5
760.589	12.5
761.338	14.5
762.086	16.5
762.834	14.5
763.582	16.5
764.331	15.5
765.079	15.5
765.826	17.5
766.574	11.5
767.322	14.5
768.07	17.5
768.817	14.5
769.565	18.5
770.312	16.5
771.06	16.5
771.807	15.5
772.554	13.5
773.302	17.5
774.049	18.5
774.796	17.5
775.543	16.5
776.29	16.5
777.036	18.5
777.783	18.5
778.53	17.5
779.276	18.5
780.023	15.5
780.769	15.5
781.516	21.5
782.262	17.5
783.008	16.5
783.754	15.5
784.5	15.5
785.246	16.5
785.992	17.5
786.738	17.5
787.484	16.5
788.23	18.5
788.975	13.5
789.721	15.5
790.466	15.5
791.212	18.5
791.957	19.5
792.702	15.5
793.447	12.5
794.193	16.5
794.938	15.5
795.683	14.5
796.427	17.5
797.172	11.5
797.917	15.5
798.662	12.5
799.406	15.5
800.151	10.5
800.895	14.5
801.64	13.5
802.384	12.5
803.128	14.5
803.872	13.5
804.616	13.5
805.36	12.5
806.104	11.5
806.848	11.5
807.592	11.5
808.336	11.5
809.079	10.5
809.823	12.5
810.566	10.5
811.31	10.5
812.053	11.5
812.796	9.5
813.539	10.5
814.283	9.5
815.026	12.5
815.769	9.5
816.511	6.5
817.254	10.5
817.997	8.5
818.74	9.5
819.482	7.5
820.225	8.5
820.967	8.5
821.71	7.5
822.452	7.5
823.194	8.5
823.936	8.5
824.678	8.5
825.42	8.5
826.162	9.5
826.904	6.5
827.646	8.5
828.388	7.5
829.129	8.5
829.871	8.5
830.612	5.5
831.354	6.5
832.095	6.5
832.836	5.5
833.577	5.5
834.319	6.5
835.06	5.5
835.801	5.5
836.542	5.5
837.282	6.5
838.023	7.5
838.764	5.5
839.504	5.5
840.245	8.5
840.985	6.5
841.726	9.5
842.466	6.5
843.206	5.5
843.946	7.5
844.687	4.5
845.427	7.5
846.166	5.5
846.906	6.5
847.646	5.5
848.386	6.5
849.125	4.5
849.865	6.5
850.605	6.5
851.344	5.5
852.083	5.5
852.823	5.5
853.562	5.5
854.301	6.5
855.04	2.5
855.779	7.5
856.518	1.5
857.257	3.5
857.995	4.5
858.734	5.5
859.473	1.5
860.211	4.5
860.95	1.5
861.688	3.5
862.426	3.5
863.165	2.5
863.903	3.5
864.641	5.5
865.379	2.5
866.117	3.5
866.855	3.5
867.593	2.5
868.33	6.5
869.068	3.5
869.806	3.5
870.543	1.5
871.28	2.5
872.018	1.5
872.755	4.5
873.492	5.5
874.229	2.5
874.967	3.5
875.703	3.5
876.44	2.5
877.177	3.5
877.914	1.5
878.651	2.5
879.387	4.5
880.124	5.5
880.86	2.5
881.597	3.5
882.333	3.5
883.069	4.5
883.806	1.5
884.542	1.5
885.278	0.5
886.014	3.5
886.749	2.5
887.485	5.5
888.221	2.5
888.957	3.5
889.692	2.5
890.428	1.5
891.163	1.5
891.899	0.5
892.634	-0.5
893.369	3.5
894.104	1.5
894.839	1.5
895.574	2.5
896.309	4.5
897.044	2.5
897.779	3.5
898.514	2.5
899.248	0.5
899.983	1.5
900.717	0.5
901.452	-0.5
902.186	3.5
902.92	2.5
903.654	2.5
904.389	-1.5
905.123	1.5
905.857	-0.5
906.59	-0.5
907.324	-0.5
908.058	-0.5
908.792	2.5
909.525	-0.5
910.259	0.5
910.992	1.5
911.726	3.5
912.459	3.5
913.192	2.5
913.925	3.5
914.658	-0.5
915.391	0.5
916.124	1.5
916.857	3.5
917.59	1.5
918.323	2.5
919.055	1.5
919.788	0.5
920.521	0.5
921.253	2.5
921.985	-1.5
922.718	2.5
923.45	-0.5
924.182	0.5
924.914	1.5
925.646	1.5
926.378	2.5
927.11	-0.5
927.841	1.5
928.573	0.5
929.305	1.5
930.036	1.5
930.768	-0.5
931.499	1.5
932.23	0.5
932.962	3.5
933.693	2.5
934.424	1.5
935.155	2.5
935.886	-0.5
936.617	1.5
937.348	0.5
938.078	0.5
938.809	2.5
939.54	1.5
940.27	0.5
941.001	0.5
941.731	2.5
942.461	1.5
943.191	3.5
943.922	1.5
944.652	2.5
945.382	1.5
946.112	0.5
946.841	-0.5
947.571	1.5
948.301	1.5
949.031	2.5
949.76	0.5
950.49	1.5
951.219	0.5
951.948	1.5
952.678	0.5
953.407	1.5
954.136	1.5
954.865	1.5
955.594	1.5
956.323	1.5
957.052	0.5
957.78	0.5
958.509	1.5
959.238	1.5
959.966	0.5
960.695	2.5
961.423	0.5
962.151	2.5
962.88	2.5
963.608	1.5
964.336	1.5
965.064	-1.5
965.792	2.5
966.52	1.5
967.247	3.5
967.975	3.5
968.703	-0.5
969.43	-0.5
970.158	-0.5
970.885	1.5
971.613	-1.5
972.34	0.5
973.067	1.5
973.794	0.5
974.521	1.5
975.248	-0.5
975.975	-0.5
976.702	-0.5
977.429	2.5
978.156	1.5
978.882	0.5
979.609	1.5
980.335	0.5
981.062	1.5
981.788	0.5
982.514	0.5
983.24	3.5
983.967	1.5
984.693	1.5
985.419	1.5
986.144	0.5
986.87	1.5
987.596	-0.5
988.322	2.5
989.047	1.5
989.773	0.5
990.498	-0.5
991.224	1.5
991.949	0.5
992.674	2.5
993.399	1.5
994.124	0.5
994.849	-1.5
995.574	1.5
996.299	-1.5
997.024	1.5
997.749	2.5
998.473	0.5
999.198	-0.5
999.922	2.5
1000.647	1.5
1001.371	5.5
1002.095	-0.5
1002.82	-2.5
1003.544	-2.5
1004.268	6.5
1004.992	5.5
1005.716	5.5
1006.439	6.5
1007.163	6.5
1007.887	6.5
1008.611	-0.5
1009.334	0.5
1010.058	0.5
1010.781	-0.5
1011.504	2.5
1012.228	0.5
1012.951	0.5
1013.674	-1.5
1014.397	1.5
1015.12	-0.5
