节点500_705_QEPB04081__478__20-52-40-785.txt的数据

Date: Wed Nov 12 20:52:40 CST 2025
User: PC
Spectrometer: QEPB0408
触发模式: 0
积分时间 (秒): 1.000000E-2
Scans to average: 1
启用暗噪声校正: true
启用非线性校正: false
滑动平均宽度: 0
X轴模式: Wavelengths
Number of Pixels in Spectrum: 1044
>>>>>Begin Spectral Data<<<<<
220.843	4.5
221.644	1.5
222.444	3.5
223.244	5.5
224.045	4.5
224.845	5.5
225.645	5.5
226.445	4.5
227.245	2.5
228.045	6.5
228.845	7.5
229.645	7.5
230.444	7.5
231.244	6.5
232.043	8.5
232.843	8.5
233.642	9.5
234.442	9.5
235.241	4.5
236.04	9.5
236.839	7.5
237.638	9.5
238.437	10.5
239.236	7.5
240.035	7.5
240.833	8.5
241.632	9.5
242.43	10.5
243.229	10.5
244.027	9.5
244.826	11.5
245.624	11.5
246.422	10.5
247.22	12.5
248.018	10.5
248.816	14.5
249.614	11.5
250.412	11.5
251.21	14.5
252.007	14.5
252.805	14.5
253.602	12.5
254.4	12.5
255.197	15.5
255.994	14.5
256.791	15.5
257.589	17.5
258.386	14.5
259.183	18.5
259.979	16.5
260.776	17.5
261.573	16.5
262.37	20.5
263.166	18.5
263.963	21.5
264.759	22.5
265.556	21.5
266.352	24.5
267.148	23.5
267.944	25.5
268.74	21.5
269.536	23.5
270.332	28.5
271.128	21.5
271.924	28.5
272.719	26.5
273.515	24.5
274.311	27.5
275.106	27.5
275.901	28.5
276.697	27.5
277.492	26.5
278.287	29.5
279.082	26.5
279.877	29.5
280.672	26.5
281.467	27.5
282.262	31.5
283.056	26.5
283.851	30.5
284.646	25.5
285.44	26.5
286.234	29.5
287.029	30.5
287.823	29.5
288.617	29.5
289.411	29.5
290.205	26.5
290.999	28.5
291.793	27.5
292.587	26.5
293.381	26.5
294.174	23.5
294.968	24.5
295.761	23.5
296.555	28.5
297.348	22.5
298.141	21.5
298.935	26.5
299.728	23.5
300.521	22.5
301.314	21.5
302.107	18.5
302.899	19.5
303.692	19.5
304.485	20.5
305.277	21.5
306.07	23.5
306.862	20.5
307.655	19.5
308.447	19.5
309.239	16.5
310.031	19.5
310.823	16.5
311.615	13.5
312.407	15.5
313.199	14.5
313.991	11.5
314.783	16.5
315.574	13.5
316.366	14.5
317.157	11.5
317.949	12.5
318.74	12.5
319.531	14.5
320.322	12.5
321.113	12.5
321.904	11.5
322.695	10.5
323.486	12.5
324.277	12.5
325.068	12.5
325.858	11.5
326.649	12.5
327.439	9.5
328.23	8.5
329.02	10.5
329.81	12.5
330.6	11.5
331.391	8.5
332.181	10.5
332.971	11.5
333.76	11.5
334.55	8.5
335.34	9.5
336.13	10.5
336.919	10.5
337.709	12.5
338.498	11.5
339.287	10.5
340.077	9.5
340.866	10.5
341.655	9.5
342.444	8.5
343.233	9.5
344.022	11.5
344.811	9.5
345.6	10.5
346.388	8.5
347.177	11.5
347.965	8.5
348.754	8.5
349.542	11.5
350.33	11.5
351.119	11.5
351.907	11.5
352.695	9.5
353.483	9.5
354.271	9.5
355.059	8.5
355.846	8.5
356.634	9.5
357.422	9.5
358.209	9.5
358.997	7.5
359.784	8.5
360.571	11.5
361.359	8.5
362.146	8.5
362.933	8.5
363.72	9.5
364.507	9.5
365.294	6.5
366.081	8.5
366.867	9.5
367.654	9.5
368.44	8.5
369.227	10.5
370.013	8.5
370.8	7.5
371.586	7.5
372.372	9.5
373.158	10.5
373.944	8.5
374.73	8.5
375.516	6.5
376.302	7.5
377.088	6.5
377.873	6.5
378.659	7.5
379.445	6.5
380.23	6.5
381.015	9.5
381.801	9.5
382.586	8.5
383.371	8.5
384.156	8.5
384.941	8.5
385.726	7.5
386.511	8.5
387.296	9.5
388.08	8.5
388.865	9.5
389.649	9.5
390.434	10.5
391.218	7.5
392.003	9.5
392.787	9.5
393.571	11.5
394.355	9.5
395.139	9.5
395.923	10.5
396.707	11.5
397.491	12.5
398.274	7.5
399.058	12.5
399.842	9.5
400.625	14.5
401.408	12.5
402.192	12.5
402.975	11.5
403.758	11.5
404.541	11.5
405.324	12.5
406.107	13.5
406.89	8.5
407.673	10.5
408.456	12.5
409.238	11.5
410.021	15.5
410.803	13.5
411.586	14.5
412.368	13.5
413.151	13.5
413.933	15.5
414.715	16.5
415.497	18.5
416.279	15.5
417.061	17.5
417.843	17.5
418.624	15.5
419.406	18.5
420.188	16.5
420.969	21.5
421.751	17.5
422.532	18.5
423.313	19.5
424.095	19.5
424.876	20.5
425.657	19.5
426.438	22.5
427.219	22.5
428	23.5
428.78	27.5
429.561	25.5
430.342	26.5
431.122	27.5
431.903	25.5
432.683	30.5
433.464	33.5
434.244	32.5
435.024	36.5
435.804	36.5
436.584	39.5
437.364	45.5
438.144	45.5
438.924	47.5
439.704	52.5
440.483	51.5
441.263	53.5
442.042	58.5
442.822	62.5
443.601	68.5
444.38	75.5
445.16	84.5
445.939	88.5
446.718	94.5
447.497	100.5
448.276	112.5
449.054	125.5
449.833	138.5
450.612	149.5
451.391	168.5
452.169	183.5
452.948	195.5
453.726	223.5
454.504	250.5
455.282	280.5
456.061	310.5
456.839	344.5
457.617	384.5
458.395	422.5
459.172	478.5
459.95	528.5
460.728	593.5
461.506	656.5
462.283	733.5
463.061	809.5
463.838	907.5
464.615	1013.5
465.393	1107.5
466.17	1239.5
466.947	1367.5
467.724	1522.5
468.501	1666.5
469.278	1831.5
470.055	2029.5
470.831	2253.5
471.608	2484.5
472.385	2730.5
473.161	2985.5
473.938	3275.5
474.714	3606.5
475.49	3928.5
476.266	4294.5
477.043	4704.5
477.819	5111.5
478.595	5561.5
479.371	6065.5
480.146	6581.5
480.922	7123.5
481.698	7760.5
482.473	8468.5
483.249	9144.5
484.024	9891.5
484.8	10726.5
485.575	11584.5
486.35	12527.5
487.126	13603.5
487.901	14575.5
488.676	15728.5
489.451	16936.5
490.225	18172.5
491	19456.5
491.775	20748.5
492.55	22209.5
493.324	23682.5
494.099	25156.5
494.873	26602.5
495.647	28090.5
496.422	29666.5
497.196	31080.5
497.97	32546.5
498.744	33906.5
499.518	35413.5
500.292	36566.5
501.066	37422.5
501.839	38334.5
502.613	39080.5
503.387	39749.5
504.16	40316.5
504.934	40632.5
505.707	40634.5
506.48	40539.5
507.253	40256.5
508.027	39734.5
508.8	39129.5
509.573	38387.5
510.346	37603.5
511.118	36776.5
511.891	35818.5
512.664	34557.5
513.437	33422.5
514.209	32128.5
514.982	31003.5
515.754	29798.5
516.526	28651.5
517.298	27455.5
518.071	26475.5
518.843	25413.5
519.615	24358.5
520.387	23436.5
521.159	22553.5
521.93	21583.5
522.702	20667.5
523.474	19846.5
524.245	19053.5
525.017	18246.5
525.788	17395.5
526.56	16741.5
527.331	16014.5
528.102	15271.5
528.873	14473.5
529.644	13797.5
530.415	13213.5
531.186	12561.5
531.957	11900.5
532.728	11283.5
533.498	10758.5
534.269	10211.5
535.039	9665.5
535.81	9153.5
536.58	8653.5
537.351	8181.5
538.121	7772.5
538.891	7357.5
539.661	6943.5
540.431	6536.5
541.201	6253.5
541.971	5914.5
542.741	5587.5
543.51	5311.5
544.28	5069.5
545.05	4830.5
545.819	4582.5
546.588	4360.5
547.358	4185.5
548.127	3985.5
548.896	3774.5
549.665	3585.5
550.434	3389.5
551.203	3243.5
551.972	3077.5
552.741	2884.5
553.51	2737.5
554.278	2564.5
555.047	2438.5
555.815	2305.5
556.584	2183.5
557.352	2059.5
558.121	1958.5
558.889	1852.5
559.657	1743.5
560.425	1650.5
561.193	1570.5
561.961	1473.5
562.729	1392.5
563.496	1311.5
564.264	1234.5
565.032	1191.5
565.799	1121.5
566.567	1061.5
567.334	988.5
568.101	955.5
568.869	897.5
569.636	846.5
570.403	800.5
571.17	750.5
571.937	711.5
572.704	673.5
573.471	634.5
574.237	600.5
575.004	565.5
575.771	529.5
576.537	490.5
577.303	471.5
578.07	453.5
578.836	423.5
579.602	396.5
580.368	378.5
581.134	358.5
581.9	340.5
582.666	320.5
583.432	308.5
584.198	292.5
584.964	281.5
585.729	267.5
586.495	248.5
587.26	233.5
588.025	224.5
588.791	213.5
589.556	198.5
590.321	196.5
591.086	180.5
591.851	173.5
592.616	158.5
593.381	161.5
594.146	150.5
594.911	146.5
595.675	134.5
596.44	132.5
597.204	122.5
597.969	120.5
598.733	116.5
599.497	105.5
600.261	106.5
601.025	103.5
601.79	94.5
602.553	92.5
603.317	88.5
604.081	90.5
604.845	81.5
605.609	76.5
606.372	74.5
607.136	74.5
607.899	69.5
608.662	64.5
609.426	62.5
610.189	64.5
610.952	60.5
611.715	59.5
612.478	53.5
613.241	55.5
614.004	49.5
614.767	49.5
615.529	48.5
616.292	44.5
617.055	40.5
617.817	41.5
618.579	42.5
619.342	39.5
620.104	37.5
620.866	38.5
621.628	36.5
622.39	37.5
623.152	34.5
623.914	34.5
624.676	32.5
625.438	31.5
626.199	32.5
626.961	29.5
627.722	29.5
628.484	29.5
629.245	23.5
630.006	25.5
630.768	25.5
631.529	23.5
632.29	25.5
633.051	21.5
633.812	22.5
634.573	20.5
635.333	19.5
636.094	19.5
636.855	21.5
637.615	17.5
638.376	20.5
639.136	17.5
639.896	15.5
640.657	19.5
641.417	15.5
642.177	17.5
642.937	16.5
643.697	12.5
644.457	16.5
645.216	14.5
645.976	15.5
646.736	13.5
647.495	13.5
648.255	14.5
649.014	14.5
649.774	13.5
650.533	12.5
651.292	12.5
652.051	12.5
652.81	11.5
653.569	11.5
654.328	9.5
655.087	11.5
655.846	10.5
656.604	9.5
657.363	9.5
658.121	11.5
658.88	10.5
659.638	10.5
660.397	11.5
661.155	8.5
661.913	8.5
662.671	10.5
663.429	6.5
664.187	10.5
664.945	7.5
665.703	6.5
666.46	10.5
667.218	5.5
667.976	10.5
668.733	7.5
669.49	7.5
670.248	12.5
671.005	9.5
671.762	8.5
672.519	5.5
673.276	9.5
674.033	6.5
674.79	8.5
675.547	5.5
676.304	6.5
677.06	5.5
677.817	5.5
678.574	7.5
679.33	7.5
680.086	6.5
680.843	4.5
681.599	5.5
682.355	8.5
683.111	7.5
683.867	7.5
684.623	8.5
685.379	8.5
686.135	8.5
686.89	5.5
687.646	8.5
688.402	5.5
689.157	4.5
689.912	6.5
690.668	5.5
691.423	7.5
692.178	5.5
692.933	7.5
693.688	6.5
694.443	6.5
695.198	5.5
695.953	4.5
696.708	5.5
697.462	8.5
698.217	8.5
698.972	5.5
699.726	7.5
700.48	6.5
701.235	4.5
701.989	5.5
702.743	5.5
703.497	4.5
704.251	5.5
705.005	6.5
705.759	5.5
706.513	6.5
707.266	7.5
708.02	7.5
708.774	4.5
709.527	6.5
710.28	4.5
711.034	4.5
711.787	4.5
712.54	4.5
713.293	7.5
714.046	8.5
714.799	7.5
715.552	6.5
716.305	6.5
717.058	5.5
717.81	6.5
718.563	5.5
719.315	9.5
720.068	7.5
720.82	7.5
721.573	6.5
722.325	7.5
723.077	7.5
723.829	7.5
724.581	6.5
725.333	7.5
726.085	6.5
726.836	5.5
727.588	6.5
728.34	7.5
729.091	8.5
729.843	6.5
730.594	3.5
731.346	5.5
732.097	7.5
732.848	6.5
733.599	7.5
734.35	6.5
735.101	4.5
735.852	8.5
736.603	7.5
737.354	7.5
738.104	7.5
738.855	7.5
739.605	9.5
740.356	7.5
741.106	10.5
741.856	8.5
742.607	7.5
743.357	7.5
744.107	8.5
744.857	9.5
745.607	9.5
746.357	9.5
747.106	8.5
747.856	7.5
748.606	8.5
749.355	7.5
750.105	8.5
750.854	8.5
751.603	10.5
752.353	11.5
753.102	8.5
753.851	10.5
754.6	9.5
755.349	10.5
756.098	8.5
756.847	8.5
757.595	9.5
758.344	8.5
759.093	9.5
759.841	10.5
760.589	10.5
761.338	9.5
762.086	9.5
762.834	9.5
763.582	10.5
764.331	12.5
765.079	13.5
765.826	10.5
766.574	10.5
767.322	11.5
768.07	12.5
768.817	9.5
769.565	12.5
770.312	13.5
771.06	9.5
771.807	12.5
772.554	12.5
773.302	13.5
774.049	10.5
774.796	11.5
775.543	10.5
776.29	11.5
777.036	11.5
777.783	12.5
778.53	14.5
779.276	12.5
780.023	11.5
780.769	14.5
781.516	11.5
782.262	12.5
783.008	11.5
783.754	11.5
784.5	13.5
785.246	12.5
785.992	12.5
786.738	12.5
787.484	14.5
788.23	14.5
788.975	10.5
789.721	12.5
790.466	11.5
791.212	13.5
791.957	11.5
792.702	12.5
793.447	13.5
794.193	10.5
794.938	13.5
795.683	11.5
796.427	11.5
797.172	8.5
797.917	10.5
798.662	10.5
799.406	9.5
800.151	9.5
800.895	9.5
801.64	11.5
802.384	9.5
803.128	12.5
803.872	11.5
804.616	7.5
805.36	7.5
806.104	7.5
806.848	9.5
807.592	11.5
808.336	7.5
809.079	10.5
809.823	7.5
810.566	9.5
811.31	8.5
812.053	7.5
812.796	8.5
813.539	7.5
814.283	8.5
815.026	6.5
815.769	5.5
816.511	8.5
817.254	6.5
817.997	7.5
818.74	4.5
819.482	7.5
820.225	5.5
820.967	4.5
821.71	5.5
822.452	4.5
823.194	5.5
823.936	6.5
824.678	7.5
825.42	3.5
826.162	5.5
826.904	7.5
827.646	5.5
828.388	5.5
829.129	7.5
829.871	5.5
830.612	4.5
831.354	7.5
832.095	5.5
832.836	3.5
833.577	4.5
834.319	5.5
835.06	3.5
835.801	6.5
836.542	4.5
837.282	4.5
838.023	4.5
838.764	2.5
839.504	4.5
840.245	3.5
840.985	4.5
841.726	2.5
842.466	4.5
843.206	4.5
843.946	3.5
844.687	6.5
845.427	3.5
846.166	4.5
846.906	4.5
847.646	4.5
848.386	6.5
849.125	2.5
849.865	5.5
850.605	2.5
851.344	5.5
852.083	3.5
852.823	3.5
853.562	2.5
854.301	5.5
855.04	4.5
855.779	2.5
856.518	4.5
857.257	2.5
857.995	2.5
858.734	2.5
859.473	3.5
860.211	3.5
860.95	2.5
861.688	0.5
862.426	1.5
863.165	2.5
863.903	2.5
864.641	2.5
865.379	2.5
866.117	4.5
866.855	1.5
867.593	0.5
868.33	2.5
869.068	5.5
869.806	0.5
870.543	2.5
871.28	1.5
872.018	1.5
872.755	1.5
873.492	0.5
874.229	1.5
874.967	2.5
875.703	2.5
876.44	1.5
877.177	1.5
877.914	2.5
878.651	1.5
879.387	0.5
880.124	1.5
880.86	2.5
881.597	0.5
882.333	1.5
883.069	4.5
883.806	2.5
884.542	-0.5
885.278	-1.5
886.014	2.5
886.749	1.5
887.485	2.5
888.221	0.5
888.957	1.5
889.692	2.5
890.428	2.5
891.163	0.5
891.899	0.5
892.634	-1.5
893.369	0.5
894.104	1.5
894.839	1.5
895.574	1.5
896.309	-1.5
897.044	2.5
897.779	1.5
898.514	1.5
899.248	2.5
899.983	1.5
900.717	0.5
901.452	-0.5
902.186	-1.5
902.92	0.5
903.654	0.5
904.389	1.5
905.123	-0.5
905.857	-0.5
906.59	-0.5
907.324	-2.5
908.058	2.5
908.792	1.5
909.525	0.5
910.259	1.5
910.992	2.5
911.726	0.5
912.459	-0.5
913.192	2.5
913.925	0.5
914.658	2.5
915.391	-0.5
916.124	0.5
916.857	1.5
917.59	-1.5
918.323	0.5
919.055	1.5
919.788	-1.5
920.521	-0.5
921.253	1.5
921.985	-1.5
922.718	-1.5
923.45	2.5
924.182	-1.5
924.914	0.5
925.646	0.5
926.378	-1.5
927.11	0.5
927.841	0.5
928.573	-0.5
929.305	1.5
930.036	-1.5
930.768	-0.5
931.499	-1.5
932.23	-0.5
932.962	-1.5
933.693	0.5
934.424	-2.5
935.155	-0.5
935.886	1.5
936.617	-0.5
937.348	-0.5
938.078	-0.5
938.809	-2.5
939.54	0.5
940.27	-0.5
941.001	2.5
941.731	-0.5
942.461	-0.5
943.191	0.5
943.922	-0.5
944.652	-0.5
945.382	-1.5
946.112	-0.5
946.841	-0.5
947.571	-0.5
948.301	-1.5
949.031	0.5
949.76	1.5
950.49	-1.5
951.219	1.5
951.948	-1.5
952.678	-3.5
953.407	0.5
954.136	0.5
954.865	0.5
955.594	-1.5
956.323	1.5
957.052	-0.5
957.78	-0.5
958.509	-0.5
959.238	-0.5
959.966	1.5
960.695	0.5
961.423	-1.5
962.151	-0.5
962.88	-0.5
963.608	1.5
964.336	-0.5
965.064	0.5
965.792	0.5
966.52	-2.5
967.247	2.5
967.975	-0.5
968.703	0.5
969.43	-1.5
970.158	0.5
970.885	-1.5
971.613	1.5
972.34	0.5
973.067	0.5
973.794	-0.5
974.521	0.5
975.248	2.5
975.975	2.5
976.702	0.5
977.429	-2.5
978.156	-0.5
978.882	0.5
979.609	0.5
980.335	-1.5
981.062	-1.5
981.788	-1.5
982.514	-0.5
983.24	-0.5
983.967	0.5
984.693	1.5
985.419	-1.5
986.144	0.5
986.87	-1.5
987.596	-0.5
988.322	0.5
989.047	-0.5
989.773	0.5
990.498	0.5
991.224	0.5
991.949	-0.5
992.674	0.5
993.399	0.5
994.124	-2.5
994.849	-0.5
995.574	-0.5
996.299	1.5
997.024	-0.5
997.749	-0.5
998.473	0.5
999.198	-0.5
999.922	-0.5
1000.647	-0.5
1001.371	3.5
1002.095	0.5
1002.82	0.5
1003.544	-0.5
1004.268	4.5
1004.992	2.5
1005.716	1.5
1006.439	5.5
1007.163	5.5
1007.887	3.5
1008.611	1.5
1009.334	-0.5
1010.058	0.5
1010.781	1.5
1011.504	-1.5
1012.228	-2.5
1012.951	-2.5
1013.674	-1.5
1014.397	0.5
1015.12	-0.5
