节点500_705_QEPB04081__574__20-54-05-759.txt的数据

Date: Wed Nov 12 20:54:05 CST 2025
User: PC
Spectrometer: QEPB0408
触发模式: 0
积分时间 (秒): 1.000000E-2
Scans to average: 1
启用暗噪声校正: true
启用非线性校正: false
滑动平均宽度: 0
X轴模式: Wavelengths
Number of Pixels in Spectrum: 1044
>>>>>Begin Spectral Data<<<<<
220.843	6.5
221.644	4.5
222.444	7.5
223.244	4.5
224.045	5.5
224.845	5.5
225.645	4.5
226.445	7.5
227.245	4.5
228.045	5.5
228.845	8.5
229.645	4.5
230.444	6.5
231.244	8.5
232.043	8.5
232.843	7.5
233.642	7.5
234.442	10.5
235.241	11.5
236.04	10.5
236.839	9.5
237.638	8.5
238.437	10.5
239.236	9.5
240.035	10.5
240.833	10.5
241.632	11.5
242.43	10.5
243.229	12.5
244.027	13.5
244.826	11.5
245.624	13.5
246.422	13.5
247.22	12.5
248.018	11.5
248.816	14.5
249.614	13.5
250.412	17.5
251.21	15.5
252.007	15.5
252.805	15.5
253.602	15.5
254.4	11.5
255.197	17.5
255.994	16.5
256.791	18.5
257.589	20.5
258.386	18.5
259.183	19.5
259.979	19.5
260.776	19.5
261.573	23.5
262.37	21.5
263.166	20.5
263.963	18.5
264.759	24.5
265.556	24.5
266.352	25.5
267.148	23.5
267.944	24.5
268.74	24.5
269.536	28.5
270.332	26.5
271.128	26.5
271.924	26.5
272.719	26.5
273.515	29.5
274.311	26.5
275.106	26.5
275.901	27.5
276.697	28.5
277.492	32.5
278.287	28.5
279.082	31.5
279.877	30.5
280.672	29.5
281.467	28.5
282.262	29.5
283.056	30.5
283.851	30.5
284.646	30.5
285.44	30.5
286.234	30.5
287.029	30.5
287.823	30.5
288.617	28.5
289.411	33.5
290.205	31.5
290.999	27.5
291.793	27.5
292.587	28.5
293.381	26.5
294.174	28.5
294.968	25.5
295.761	26.5
296.555	27.5
297.348	26.5
298.141	23.5
298.935	30.5
299.728	25.5
300.521	24.5
301.314	22.5
302.107	18.5
302.899	22.5
303.692	23.5
304.485	21.5
305.277	20.5
306.07	23.5
306.862	22.5
307.655	21.5
308.447	20.5
309.239	19.5
310.031	19.5
310.823	18.5
311.615	18.5
312.407	19.5
313.199	18.5
313.991	18.5
314.783	16.5
315.574	17.5
316.366	14.5
317.157	15.5
317.949	15.5
318.74	12.5
319.531	13.5
320.322	12.5
321.113	13.5
321.904	14.5
322.695	13.5
323.486	12.5
324.277	10.5
325.068	13.5
325.858	12.5
326.649	11.5
327.439	12.5
328.23	11.5
329.02	13.5
329.81	9.5
330.6	12.5
331.391	10.5
332.181	10.5
332.971	9.5
333.76	8.5
334.55	11.5
335.34	9.5
336.13	12.5
336.919	12.5
337.709	10.5
338.498	11.5
339.287	11.5
340.077	13.5
340.866	11.5
341.655	10.5
342.444	9.5
343.233	9.5
344.022	12.5
344.811	11.5
345.6	10.5
346.388	9.5
347.177	12.5
347.965	10.5
348.754	11.5
349.542	9.5
350.33	9.5
351.119	13.5
351.907	8.5
352.695	12.5
353.483	12.5
354.271	9.5
355.059	8.5
355.846	8.5
356.634	9.5
357.422	10.5
358.209	10.5
358.997	10.5
359.784	12.5
360.571	9.5
361.359	9.5
362.146	10.5
362.933	8.5
363.72	8.5
364.507	9.5
365.294	9.5
366.081	7.5
366.867	9.5
367.654	9.5
368.44	8.5
369.227	7.5
370.013	8.5
370.8	8.5
371.586	9.5
372.372	7.5
373.158	8.5
373.944	9.5
374.73	9.5
375.516	9.5
376.302	10.5
377.088	8.5
377.873	8.5
378.659	9.5
379.445	8.5
380.23	10.5
381.015	10.5
381.801	10.5
382.586	9.5
383.371	9.5
384.156	9.5
384.941	10.5
385.726	10.5
386.511	6.5
387.296	10.5
388.08	11.5
388.865	11.5
389.649	9.5
390.434	9.5
391.218	10.5
392.003	9.5
392.787	8.5
393.571	11.5
394.355	11.5
395.139	8.5
395.923	9.5
396.707	12.5
397.491	10.5
398.274	10.5
399.058	12.5
399.842	11.5
400.625	11.5
401.408	13.5
402.192	14.5
402.975	13.5
403.758	13.5
404.541	14.5
405.324	10.5
406.107	14.5
406.89	14.5
407.673	12.5
408.456	12.5
409.238	15.5
410.021	15.5
410.803	15.5
411.586	16.5
412.368	15.5
413.151	14.5
413.933	16.5
414.715	13.5
415.497	16.5
416.279	15.5
417.061	13.5
417.843	18.5
418.624	19.5
419.406	17.5
420.188	18.5
420.969	19.5
421.751	18.5
422.532	21.5
423.313	20.5
424.095	24.5
424.876	24.5
425.657	23.5
426.438	26.5
427.219	24.5
428	24.5
428.78	25.5
429.561	27.5
430.342	30.5
431.122	27.5
431.903	33.5
432.683	30.5
433.464	32.5
434.244	37.5
435.024	36.5
435.804	42.5
436.584	39.5
437.364	47.5
438.144	48.5
438.924	54.5
439.704	55.5
440.483	57.5
441.263	62.5
442.042	64.5
442.822	71.5
443.601	76.5
444.38	84.5
445.16	89.5
445.939	101.5
446.718	104.5
447.497	121.5
448.276	124.5
449.054	141.5
449.833	156.5
450.612	170.5
451.391	189.5
452.169	212.5
452.948	234.5
453.726	252.5
454.504	289.5
455.282	318.5
456.061	358.5
456.839	395.5
457.617	431.5
458.395	490.5
459.172	545.5
459.95	612.5
460.728	677.5
461.506	753.5
462.283	826.5
463.061	913.5
463.838	1028.5
464.615	1124.5
465.393	1251.5
466.17	1387.5
466.947	1554.5
467.724	1692.5
468.501	1870.5
469.278	2062.5
470.055	2267.5
470.831	2494.5
471.608	2746.5
472.385	3011.5
473.161	3306.5
473.938	3577.5
474.714	3987.5
475.49	4349.5
476.266	4740.5
477.043	5167.5
477.819	5592.5
478.595	6074.5
479.371	6601.5
480.146	7198.5
480.922	7791.5
481.698	8444.5
482.473	9150.5
483.249	9918.5
484.024	10681.5
484.8	11574.5
485.575	12469.5
486.35	13451.5
487.126	14493.5
487.901	15596.5
488.676	16775.5
489.451	18099.5
490.225	19446.5
491	20735.5
491.775	22167.5
492.55	23582.5
493.324	25141.5
494.099	26638.5
494.873	28197.5
495.647	29810.5
496.422	31329.5
497.196	33046.5
497.97	34628.5
498.744	36052.5
499.518	37582.5
500.292	39065.5
501.066	40021.5
501.839	40941.5
502.613	41956.5
503.387	42757.5
504.16	43380.5
504.934	43681.5
505.707	43913.5
506.48	43814.5
507.253	43584.5
508.027	43365.5
508.8	42792.5
509.573	41997.5
510.346	41376.5
511.118	40530.5
511.891	39464.5
512.664	38257.5
513.437	36968.5
514.209	35802.5
514.982	34561.5
515.754	33163.5
516.526	31943.5
517.298	30728.5
518.071	29580.5
518.843	28493.5
519.615	27297.5
520.387	26290.5
521.159	25227.5
521.93	24140.5
522.702	23133.5
523.474	22296.5
524.245	21389.5
525.017	20491.5
525.788	19622.5
526.56	18828.5
527.331	18028.5
528.102	17157.5
528.873	16350.5
529.644	15580.5
530.415	14879.5
531.186	14219.5
531.957	13484.5
532.728	12823.5
533.498	12221.5
534.269	11581.5
535.039	10945.5
535.81	10386.5
536.58	9849.5
537.351	9313.5
538.121	8855.5
538.891	8370.5
539.661	7931.5
540.431	7471.5
541.201	7095.5
541.971	6750.5
542.741	6365.5
543.51	6043.5
544.28	5779.5
545.05	5480.5
545.819	5251.5
546.588	4992.5
547.358	4788.5
548.127	4523.5
548.896	4283.5
549.665	4097.5
550.434	3864.5
551.203	3692.5
551.972	3516.5
552.741	3318.5
553.51	3105.5
554.278	2962.5
555.047	2785.5
555.815	2641.5
556.584	2492.5
557.352	2370.5
558.121	2229.5
558.889	2110.5
559.657	2007.5
560.425	1905.5
561.193	1803.5
561.961	1705.5
562.729	1600.5
563.496	1513.5
564.264	1426.5
565.032	1341.5
565.799	1267.5
566.567	1205.5
567.334	1148.5
568.101	1087.5
568.869	1015.5
569.636	961.5
570.403	898.5
571.17	862.5
571.937	817.5
572.704	774.5
573.471	718.5
574.237	675.5
575.004	635.5
575.771	612.5
576.537	581.5
577.303	541.5
578.07	514.5
578.836	492.5
579.602	460.5
580.368	445.5
581.134	415.5
581.9	393.5
582.666	374.5
583.432	354.5
584.198	336.5
584.964	328.5
585.729	303.5
586.495	284.5
587.26	271.5
588.025	255.5
588.791	245.5
589.556	231.5
590.321	216.5
591.086	212.5
591.851	198.5
592.616	184.5
593.381	178.5
594.146	174.5
594.911	166.5
595.675	153.5
596.44	146.5
597.204	145.5
597.969	137.5
598.733	129.5
599.497	126.5
600.261	121.5
601.025	111.5
601.79	110.5
602.553	108.5
603.317	101.5
604.081	94.5
604.845	89.5
605.609	88.5
606.372	87.5
607.136	85.5
607.899	79.5
608.662	69.5
609.426	73.5
610.189	73.5
610.952	67.5
611.715	66.5
612.478	63.5
613.241	59.5
614.004	60.5
614.767	54.5
615.529	51.5
616.292	49.5
617.055	48.5
617.817	45.5
618.579	49.5
619.342	44.5
620.104	44.5
620.866	40.5
621.628	44.5
622.39	39.5
623.152	39.5
623.914	41.5
624.676	36.5
625.438	35.5
626.199	34.5
626.961	30.5
627.722	31.5
628.484	33.5
629.245	33.5
630.006	29.5
630.768	25.5
631.529	26.5
632.29	26.5
633.051	25.5
633.812	23.5
634.573	24.5
635.333	23.5
636.094	20.5
636.855	22.5
637.615	21.5
638.376	22.5
639.136	20.5
639.896	20.5
640.657	18.5
641.417	18.5
642.177	20.5
642.937	17.5
643.697	18.5
644.457	18.5
645.216	19.5
645.976	19.5
646.736	16.5
647.495	17.5
648.255	13.5
649.014	17.5
649.774	14.5
650.533	13.5
651.292	12.5
652.051	14.5
652.81	14.5
653.569	9.5
654.328	10.5
655.087	13.5
655.846	11.5
656.604	10.5
657.363	12.5
658.121	13.5
658.88	12.5
659.638	12.5
660.397	13.5
661.155	10.5
661.913	12.5
662.671	9.5
663.429	9.5
664.187	11.5
664.945	7.5
665.703	11.5
666.46	7.5
667.218	7.5
667.976	8.5
668.733	7.5
669.49	9.5
670.248	7.5
671.005	11.5
671.762	13.5
672.519	8.5
673.276	10.5
674.033	7.5
674.79	8.5
675.547	7.5
676.304	9.5
677.06	6.5
677.817	7.5
678.574	10.5
679.33	4.5
680.086	8.5
680.843	8.5
681.599	8.5
682.355	7.5
683.111	8.5
683.867	7.5
684.623	9.5
685.379	8.5
686.135	6.5
686.89	6.5
687.646	7.5
688.402	8.5
689.157	6.5
689.912	6.5
690.668	10.5
691.423	6.5
692.178	5.5
692.933	7.5
693.688	5.5
694.443	9.5
695.198	8.5
695.953	4.5
696.708	4.5
697.462	6.5
698.217	7.5
698.972	5.5
699.726	7.5
700.48	5.5
701.235	7.5
701.989	8.5
702.743	5.5
703.497	6.5
704.251	7.5
705.005	6.5
705.759	9.5
706.513	6.5
707.266	6.5
708.02	6.5
708.774	6.5
709.527	7.5
710.28	6.5
711.034	9.5
711.787	9.5
712.54	6.5
713.293	5.5
714.046	5.5
714.799	7.5
715.552	6.5
716.305	7.5
717.058	6.5
717.81	10.5
718.563	7.5
719.315	6.5
720.068	8.5
720.82	6.5
721.573	8.5
722.325	9.5
723.077	6.5
723.829	7.5
724.581	6.5
725.333	6.5
726.085	8.5
726.836	6.5
727.588	5.5
728.34	4.5
729.091	8.5
729.843	9.5
730.594	7.5
731.346	6.5
732.097	6.5
732.848	7.5
733.599	7.5
734.35	9.5
735.101	9.5
735.852	8.5
736.603	8.5
737.354	8.5
738.104	8.5
738.855	7.5
739.605	9.5
740.356	10.5
741.106	10.5
741.856	9.5
742.607	7.5
743.357	9.5
744.107	7.5
744.857	10.5
745.607	8.5
746.357	8.5
747.106	6.5
747.856	10.5
748.606	8.5
749.355	9.5
750.105	8.5
750.854	10.5
751.603	10.5
752.353	9.5
753.102	9.5
753.851	10.5
754.6	10.5
755.349	10.5
756.098	10.5
756.847	12.5
757.595	11.5
758.344	10.5
759.093	10.5
759.841	12.5
760.589	9.5
761.338	12.5
762.086	9.5
762.834	11.5
763.582	12.5
764.331	12.5
765.079	8.5
765.826	10.5
766.574	10.5
767.322	12.5
768.07	11.5
768.817	12.5
769.565	11.5
770.312	12.5
771.06	12.5
771.807	16.5
772.554	11.5
773.302	13.5
774.049	12.5
774.796	11.5
775.543	13.5
776.29	14.5
777.036	13.5
777.783	12.5
778.53	15.5
779.276	12.5
780.023	14.5
780.769	14.5
781.516	14.5
782.262	14.5
783.008	14.5
783.754	12.5
784.5	14.5
785.246	13.5
785.992	14.5
786.738	12.5
787.484	12.5
788.23	12.5
788.975	12.5
789.721	14.5
790.466	15.5
791.212	14.5
791.957	13.5
792.702	18.5
793.447	13.5
794.193	13.5
794.938	13.5
795.683	12.5
796.427	11.5
797.172	10.5
797.917	11.5
798.662	12.5
799.406	10.5
800.151	12.5
800.895	14.5
801.64	10.5
802.384	11.5
803.128	13.5
803.872	9.5
804.616	10.5
805.36	9.5
806.104	8.5
806.848	9.5
807.592	10.5
808.336	8.5
809.079	10.5
809.823	10.5
810.566	9.5
811.31	6.5
812.053	9.5
812.796	9.5
813.539	8.5
814.283	7.5
815.026	7.5
815.769	9.5
816.511	8.5
817.254	10.5
817.997	9.5
818.74	6.5
819.482	8.5
820.225	5.5
820.967	5.5
821.71	5.5
822.452	5.5
823.194	8.5
823.936	10.5
824.678	5.5
825.42	7.5
826.162	6.5
826.904	6.5
827.646	8.5
828.388	5.5
829.129	6.5
829.871	6.5
830.612	6.5
831.354	6.5
832.095	5.5
832.836	6.5
833.577	7.5
834.319	5.5
835.06	4.5
835.801	4.5
836.542	6.5
837.282	4.5
838.023	4.5
838.764	4.5
839.504	5.5
840.245	5.5
840.985	6.5
841.726	3.5
842.466	4.5
843.206	4.5
843.946	4.5
844.687	7.5
845.427	5.5
846.166	5.5
846.906	3.5
847.646	4.5
848.386	3.5
849.125	4.5
849.865	3.5
850.605	3.5
851.344	3.5
852.083	4.5
852.823	4.5
853.562	3.5
854.301	2.5
855.04	3.5
855.779	4.5
856.518	4.5
857.257	2.5
857.995	4.5
858.734	4.5
859.473	2.5
860.211	4.5
860.95	4.5
861.688	2.5
862.426	4.5
863.165	2.5
863.903	3.5
864.641	3.5
865.379	2.5
866.117	0.5
866.855	2.5
867.593	1.5
868.33	2.5
869.068	2.5
869.806	1.5
870.543	3.5
871.28	-0.5
872.018	3.5
872.755	3.5
873.492	0.5
874.229	3.5
874.967	0.5
875.703	0.5
876.44	1.5
877.177	1.5
877.914	1.5
878.651	1.5
879.387	0.5
880.124	3.5
880.86	0.5
881.597	2.5
882.333	1.5
883.069	2.5
883.806	0.5
884.542	2.5
885.278	0.5
886.014	3.5
886.749	0.5
887.485	2.5
888.221	3.5
888.957	1.5
889.692	0.5
890.428	1.5
891.163	0.5
891.899	0.5
892.634	1.5
893.369	-1.5
894.104	2.5
894.839	1.5
895.574	-0.5
896.309	0.5
897.044	1.5
897.779	0.5
898.514	0.5
899.248	0.5
899.983	1.5
900.717	-1.5
901.452	1.5
902.186	1.5
902.92	-0.5
903.654	1.5
904.389	1.5
905.123	1.5
905.857	1.5
906.59	-1.5
907.324	-0.5
908.058	-0.5
908.792	-0.5
909.525	0.5
910.259	1.5
910.992	0.5
911.726	-0.5
912.459	-0.5
913.192	-0.5
913.925	0.5
914.658	1.5
915.391	-0.5
916.124	-1.5
916.857	2.5
917.59	0.5
918.323	0.5
919.055	1.5
919.788	-0.5
920.521	0.5
921.253	1.5
921.985	0.5
922.718	1.5
923.45	1.5
924.182	-1.5
924.914	1.5
925.646	1.5
926.378	0.5
927.11	0.5
927.841	-1.5
928.573	0.5
929.305	0.5
930.036	-0.5
930.768	-0.5
931.499	2.5
932.23	1.5
932.962	2.5
933.693	0.5
934.424	-0.5
935.155	0.5
935.886	1.5
936.617	1.5
937.348	0.5
938.078	-1.5
938.809	1.5
939.54	-1.5
940.27	1.5
941.001	0.5
941.731	-0.5
942.461	-0.5
943.191	1.5
943.922	0.5
944.652	-3.5
945.382	-1.5
946.112	-0.5
946.841	1.5
947.571	0.5
948.301	-1.5
949.031	-0.5
949.76	1.5
950.49	-0.5
951.219	-0.5
951.948	0.5
952.678	-0.5
953.407	0.5
954.136	-0.5
954.865	0.5
955.594	-1.5
956.323	-0.5
957.052	-1.5
957.78	1.5
958.509	-0.5
959.238	-1.5
959.966	0.5
960.695	-1.5
961.423	0.5
962.151	-0.5
962.88	-0.5
963.608	0.5
964.336	0.5
965.064	1.5
965.792	-1.5
966.52	1.5
967.247	0.5
967.975	-0.5
968.703	1.5
969.43	-0.5
970.158	0.5
970.885	0.5
971.613	0.5
972.34	-1.5
973.067	-0.5
973.794	-1.5
974.521	-1.5
975.248	0.5
975.975	0.5
976.702	0.5
977.429	0.5
978.156	1.5
978.882	1.5
979.609	0.5
980.335	-1.5
981.062	0.5
981.788	0.5
982.514	-0.5
983.24	-0.5
983.967	1.5
984.693	0.5
985.419	0.5
986.144	2.5
986.87	-0.5
987.596	0.5
988.322	0.5
989.047	-1.5
989.773	-1.5
990.498	-1.5
991.224	0.5
991.949	0.5
992.674	0.5
993.399	-1.5
994.124	0.5
994.849	-1.5
995.574	0.5
996.299	-1.5
997.024	-1.5
997.749	-1.5
998.473	-0.5
999.198	-0.5
999.922	1.5
1000.647	1.5
1001.371	4.5
1002.095	0.5
1002.82	-2.5
1003.544	-0.5
1004.268	2.5
1004.992	2.5
1005.716	1.5
1006.439	2.5
1007.163	2.5
1007.887	5.5
1008.611	0.5
1009.334	-1.5
1010.058	1.5
1010.781	-0.5
1011.504	-0.5
1012.228	0.5
1012.951	-1.5
1013.674	0.5
1014.397	-3.5
1015.12	2.5
