节点500_705_QEPB04081__46__20-46-39-305.txt的数据

Date: Wed Nov 12 20:46:39 CST 2025
User: PC
Spectrometer: QEPB0408
触发模式: 0
积分时间 (秒): 1.000000E-2
Scans to average: 1
启用暗噪声校正: true
启用非线性校正: false
滑动平均宽度: 0
X轴模式: Wavelengths
Number of Pixels in Spectrum: 1044
>>>>>Begin Spectral Data<<<<<
220.843	7.38
221.644	4.38
222.444	7.38
223.244	5.38
224.045	6.38
224.845	9.38
225.645	6.38
226.445	7.38
227.245	8.38
228.045	8.38
228.845	8.38
229.645	8.38
230.444	7.38
231.244	8.38
232.043	6.38
232.843	9.38
233.642	13.38
234.442	8.38
235.241	9.38
236.04	10.38
236.839	9.38
237.638	12.38
238.437	11.38
239.236	11.38
240.035	12.38
240.833	12.38
241.632	12.38
242.43	14.38
243.229	17.38
244.027	14.38
244.826	15.38
245.624	16.38
246.422	15.38
247.22	15.38
248.018	15.38
248.816	18.38
249.614	14.38
250.412	16.38
251.21	19.38
252.007	18.38
252.805	20.38
253.602	18.38
254.4	19.38
255.197	21.38
255.994	20.38
256.791	22.38
257.589	23.38
258.386	26.38
259.183	25.38
259.979	25.38
260.776	24.38
261.573	26.38
262.37	27.38
263.166	28.38
263.963	27.38
264.759	27.38
265.556	29.38
266.352	30.38
267.148	30.38
267.944	34.38
268.74	29.38
269.536	30.38
270.332	34.38
271.128	30.38
271.924	33.38
272.719	34.38
273.515	33.38
274.311	38.38
275.106	36.38
275.901	40.38
276.697	35.38
277.492	37.38
278.287	35.38
279.082	36.38
279.877	38.38
280.672	39.38
281.467	38.38
282.262	34.38
283.056	39.38
283.851	38.38
284.646	37.38
285.44	37.38
286.234	37.38
287.029	37.38
287.823	37.38
288.617	36.38
289.411	34.38
290.205	32.38
290.999	34.38
291.793	35.38
292.587	32.38
293.381	32.38
294.174	31.38
294.968	33.38
295.761	28.38
296.555	28.38
297.348	27.38
298.141	29.38
298.935	28.38
299.728	25.38
300.521	25.38
301.314	23.38
302.107	23.38
302.899	22.38
303.692	22.38
304.485	25.38
305.277	26.38
306.07	25.38
306.862	22.38
307.655	22.38
308.447	23.38
309.239	18.38
310.031	23.38
310.823	20.38
311.615	19.38
312.407	18.38
313.199	23.38
313.991	19.38
314.783	14.38
315.574	15.38
316.366	17.38
317.157	15.38
317.949	16.38
318.74	15.38
319.531	15.38
320.322	12.38
321.113	14.38
321.904	15.38
322.695	13.38
323.486	12.38
324.277	12.38
325.068	15.38
325.858	15.38
326.649	13.38
327.439	14.38
328.23	13.38
329.02	12.38
329.81	15.38
330.6	15.38
331.391	12.38
332.181	11.38
332.971	14.38
333.76	13.38
334.55	10.38
335.34	13.38
336.13	13.38
336.919	10.38
337.709	14.38
338.498	14.38
339.287	14.38
340.077	12.38
340.866	12.38
341.655	13.38
342.444	12.38
343.233	11.38
344.022	12.38
344.811	12.38
345.6	13.38
346.388	10.38
347.177	13.38
347.965	13.38
348.754	11.38
349.542	11.38
350.33	9.38
351.119	13.38
351.907	12.38
352.695	12.38
353.483	11.38
354.271	13.38
355.059	9.38
355.846	9.38
356.634	11.38
357.422	7.38
358.209	11.38
358.997	11.38
359.784	10.38
360.571	11.38
361.359	9.38
362.146	11.38
362.933	10.38
363.72	10.38
364.507	8.38
365.294	9.38
366.081	11.38
366.867	9.38
367.654	9.38
368.44	9.38
369.227	10.38
370.013	8.38
370.8	11.38
371.586	11.38
372.372	10.38
373.158	11.38
373.944	10.38
374.73	11.38
375.516	9.38
376.302	11.38
377.088	10.38
377.873	9.38
378.659	11.38
379.445	11.38
380.23	10.38
381.015	13.38
381.801	11.38
382.586	9.38
383.371	13.38
384.156	13.38
384.941	11.38
385.726	12.38
386.511	11.38
387.296	11.38
388.08	14.38
388.865	12.38
389.649	13.38
390.434	11.38
391.218	12.38
392.003	12.38
392.787	11.38
393.571	14.38
394.355	11.38
395.139	13.38
395.923	13.38
396.707	16.38
397.491	14.38
398.274	11.38
399.058	13.38
399.842	14.38
400.625	16.38
401.408	14.38
402.192	15.38
402.975	15.38
403.758	15.38
404.541	14.38
405.324	15.38
406.107	15.38
406.89	18.38
407.673	15.38
408.456	15.38
409.238	19.38
410.021	15.38
410.803	17.38
411.586	17.38
412.368	18.38
413.151	19.38
413.933	18.38
414.715	22.38
415.497	19.38
416.279	22.38
417.061	20.38
417.843	17.38
418.624	21.38
419.406	22.38
420.188	21.38
420.969	23.38
421.751	23.38
422.532	26.38
423.313	24.38
424.095	25.38
424.876	23.38
425.657	27.38
426.438	26.38
427.219	25.38
428	27.38
428.78	29.38
429.561	31.38
430.342	28.38
431.122	34.38
431.903	34.38
432.683	31.38
433.464	35.38
434.244	37.38
435.024	39.38
435.804	41.38
436.584	40.38
437.364	45.38
438.144	45.38
438.924	51.38
439.704	52.38
440.483	56.38
441.263	63.38
442.042	61.38
442.822	63.38
443.601	70.38
444.38	80.38
445.16	87.38
445.939	90.38
446.718	98.38
447.497	109.38
448.276	116.38
449.054	125.38
449.833	134.38
450.612	147.38
451.391	164.38
452.169	183.38
452.948	194.38
453.726	218.38
454.504	240.38
455.282	275.38
456.061	310.38
456.839	336.38
457.617	380.38
458.395	421.38
459.172	473.38
459.95	528.38
460.728	589.38
461.506	662.38
462.283	747.38
463.061	829.38
463.838	927.38
464.615	1047.38
465.393	1164.38
466.17	1305.38
466.947	1457.38
467.724	1605.38
468.501	1778.38
469.278	1989.38
470.055	2207.38
470.831	2461.38
471.608	2727.38
472.385	3018.38
473.161	3360.38
473.938	3707.38
474.714	4097.38
475.49	4526.38
476.266	4995.38
477.043	5468.38
477.819	6016.38
478.595	6617.38
479.371	7287.38
480.146	7958.38
480.922	8775.38
481.698	9602.38
482.473	10520.38
483.249	11502.38
484.024	12530.38
484.8	13696.38
485.575	14853.38
486.35	16244.38
487.126	17625.38
487.901	19088.38
488.676	20725.38
489.451	22437.38
490.225	24188.38
491	26011.38
491.775	27876.38
492.55	29859.38
493.324	31808.38
494.099	33781.38
494.873	35761.38
495.647	37741.38
496.422	39754.38
497.196	41609.38
497.97	43342.38
498.744	44905.38
499.518	46553.38
500.292	47886.38
501.066	48640.38
501.839	49430.38
502.613	49955.38
503.387	50342.38
504.16	50461.38
504.934	50274.38
505.707	49774.38
506.48	49101.38
507.253	48296.38
508.027	47297.38
508.8	45958.38
509.573	44547.38
510.346	43188.38
511.118	41832.38
511.891	40437.38
512.664	38703.38
513.437	37119.38
514.209	35592.38
514.982	34183.38
515.754	32643.38
516.526	31224.38
517.298	29971.38
518.071	28836.38
518.843	27539.38
519.615	26411.38
520.387	25369.38
521.159	24443.38
521.93	23417.38
522.702	22343.38
523.474	21354.38
524.245	20395.38
525.017	19551.38
525.788	18623.38
526.56	17828.38
527.331	17000.38
528.102	16150.38
528.873	15238.38
529.644	14541.38
530.415	13790.38
531.186	13068.38
531.957	12394.38
532.728	11681.38
533.498	11091.38
534.269	10420.38
535.039	9900.38
535.81	9373.38
536.58	8834.38
537.351	8329.38
538.121	7910.38
538.891	7496.38
539.661	7076.38
540.431	6704.38
541.201	6356.38
541.971	6017.38
542.741	5712.38
543.51	5403.38
544.28	5161.38
545.05	4951.38
545.819	4696.38
546.588	4495.38
547.358	4265.38
548.127	4017.38
548.896	3824.38
549.665	3609.38
550.434	3422.38
551.203	3249.38
551.972	3075.38
552.741	2928.38
553.51	2727.38
554.278	2588.38
555.047	2454.38
555.815	2294.38
556.584	2183.38
557.352	2047.38
558.121	1940.38
558.889	1824.38
559.657	1742.38
560.425	1625.38
561.193	1538.38
561.961	1481.38
562.729	1386.38
563.496	1298.38
564.264	1245.38
565.032	1182.38
565.799	1110.38
566.567	1046.38
567.334	997.38
568.101	938.38
568.869	890.38
569.636	835.38
570.403	792.38
571.17	740.38
571.937	710.38
572.704	664.38
573.471	637.38
574.237	591.38
575.004	560.38
575.771	527.38
576.537	491.38
577.303	465.38
578.07	445.38
578.836	415.38
579.602	396.38
580.368	370.38
581.134	356.38
581.9	339.38
582.666	328.38
583.432	309.38
584.198	288.38
584.964	274.38
585.729	260.38
586.495	248.38
587.26	237.38
588.025	216.38
588.791	214.38
589.556	203.38
590.321	194.38
591.086	181.38
591.851	176.38
592.616	167.38
593.381	151.38
594.146	147.38
594.911	144.38
595.675	134.38
596.44	140.38
597.204	127.38
597.969	118.38
598.733	117.38
599.497	107.38
600.261	107.38
601.025	103.38
601.79	98.38
602.553	92.38
603.317	88.38
604.081	90.38
604.845	81.38
605.609	79.38
606.372	76.38
607.136	70.38
607.899	69.38
608.662	69.38
609.426	61.38
610.189	63.38
610.952	65.38
611.715	56.38
612.478	55.38
613.241	55.38
614.004	52.38
614.767	51.38
615.529	48.38
616.292	48.38
617.055	44.38
617.817	46.38
618.579	42.38
619.342	40.38
620.104	42.38
620.866	36.38
621.628	37.38
622.39	38.38
623.152	36.38
623.914	35.38
624.676	33.38
625.438	34.38
626.199	30.38
626.961	30.38
627.722	30.38
628.484	29.38
629.245	32.38
630.006	28.38
630.768	25.38
631.529	28.38
632.29	29.38
633.051	24.38
633.812	23.38
634.573	24.38
635.333	22.38
636.094	23.38
636.855	25.38
637.615	20.38
638.376	21.38
639.136	19.38
639.896	15.38
640.657	19.38
641.417	18.38
642.177	18.38
642.937	22.38
643.697	17.38
644.457	18.38
645.216	20.38
645.976	18.38
646.736	15.38
647.495	17.38
648.255	13.38
649.014	15.38
649.774	14.38
650.533	11.38
651.292	14.38
652.051	13.38
652.81	16.38
653.569	14.38
654.328	12.38
655.087	13.38
655.846	11.38
656.604	11.38
657.363	13.38
658.121	14.38
658.88	11.38
659.638	11.38
660.397	10.38
661.155	11.38
661.913	11.38
662.671	11.38
663.429	10.38
664.187	9.38
664.945	10.38
665.703	10.38
666.46	6.38
667.218	12.38
667.976	8.38
668.733	9.38
669.49	10.38
670.248	9.38
671.005	10.38
671.762	10.38
672.519	10.38
673.276	10.38
674.033	10.38
674.79	10.38
675.547	10.38
676.304	9.38
677.06	7.38
677.817	10.38
678.574	9.38
679.33	9.38
680.086	9.38
680.843	9.38
681.599	10.38
682.355	9.38
683.111	6.38
683.867	9.38
684.623	7.38
685.379	6.38
686.135	9.38
686.89	10.38
687.646	8.38
688.402	7.38
689.157	8.38
689.912	9.38
690.668	7.38
691.423	8.38
692.178	6.38
692.933	8.38
693.688	10.38
694.443	8.38
695.198	9.38
695.953	8.38
696.708	7.38
697.462	8.38
698.217	8.38
698.972	7.38
699.726	9.38
700.48	6.38
701.235	6.38
701.989	10.38
702.743	8.38
703.497	9.38
704.251	7.38
705.005	6.38
705.759	7.38
706.513	9.38
707.266	6.38
708.02	7.38
708.774	9.38
709.527	7.38
710.28	8.38
711.034	5.38
711.787	9.38
712.54	7.38
713.293	7.38
714.046	7.38
714.799	6.38
715.552	7.38
716.305	10.38
717.058	8.38
717.81	9.38
718.563	6.38
719.315	8.38
720.068	9.38
720.82	8.38
721.573	10.38
722.325	8.38
723.077	10.38
723.829	11.38
724.581	9.38
725.333	8.38
726.085	10.38
726.836	7.38
727.588	10.38
728.34	8.38
729.091	9.38
729.843	9.38
730.594	10.38
731.346	11.38
732.097	9.38
732.848	8.38
733.599	10.38
734.35	11.38
735.101	10.38
735.852	13.38
736.603	9.38
737.354	12.38
738.104	10.38
738.855	10.38
739.605	10.38
740.356	9.38
741.106	10.38
741.856	10.38
742.607	12.38
743.357	11.38
744.107	12.38
744.857	10.38
745.607	13.38
746.357	12.38
747.106	12.38
747.856	14.38
748.606	9.38
749.355	12.38
750.105	12.38
750.854	11.38
751.603	12.38
752.353	13.38
753.102	14.38
753.851	14.38
754.6	10.38
755.349	15.38
756.098	12.38
756.847	11.38
757.595	13.38
758.344	10.38
759.093	14.38
759.841	12.38
760.589	15.38
761.338	13.38
762.086	12.38
762.834	16.38
763.582	14.38
764.331	14.38
765.079	12.38
765.826	13.38
766.574	13.38
767.322	16.38
768.07	14.38
768.817	16.38
769.565	16.38
770.312	14.38
771.06	17.38
771.807	17.38
772.554	17.38
773.302	16.38
774.049	16.38
774.796	17.38
775.543	18.38
776.29	17.38
777.036	15.38
777.783	14.38
778.53	16.38
779.276	15.38
780.023	17.38
780.769	18.38
781.516	16.38
782.262	16.38
783.008	17.38
783.754	15.38
784.5	17.38
785.246	18.38
785.992	18.38
786.738	17.38
787.484	16.38
788.23	18.38
788.975	16.38
789.721	12.38
790.466	15.38
791.212	13.38
791.957	15.38
792.702	17.38
793.447	14.38
794.193	13.38
794.938	15.38
795.683	15.38
796.427	14.38
797.172	14.38
797.917	15.38
798.662	15.38
799.406	13.38
800.151	12.38
800.895	15.38
801.64	16.38
802.384	13.38
803.128	13.38
803.872	13.38
804.616	13.38
805.36	11.38
806.104	10.38
806.848	12.38
807.592	9.38
808.336	10.38
809.079	7.38
809.823	11.38
810.566	11.38
811.31	9.38
812.053	10.38
812.796	9.38
813.539	8.38
814.283	10.38
815.026	7.38
815.769	11.38
816.511	8.38
817.254	9.38
817.997	8.38
818.74	9.38
819.482	7.38
820.225	9.38
820.967	11.38
821.71	6.38
822.452	6.38
823.194	8.38
823.936	7.38
824.678	8.38
825.42	5.38
826.162	5.38
826.904	8.38
827.646	7.38
828.388	5.38
829.129	6.38
829.871	8.38
830.612	7.38
831.354	6.38
832.095	5.38
832.836	6.38
833.577	7.38
834.319	6.38
835.06	7.38
835.801	5.38
836.542	7.38
837.282	5.38
838.023	6.38
838.764	8.38
839.504	5.38
840.245	5.38
840.985	5.38
841.726	5.38
842.466	6.38
843.206	4.38
843.946	5.38
844.687	3.38
845.427	5.38
846.166	6.38
846.906	6.38
847.646	5.38
848.386	7.38
849.125	3.38
849.865	2.38
850.605	5.38
851.344	5.38
852.083	3.38
852.823	4.38
853.562	2.38
854.301	5.38
855.04	3.38
855.779	2.38
856.518	6.38
857.257	5.38
857.995	5.38
858.734	4.38
859.473	2.38
860.211	2.38
860.95	3.38
861.688	6.38
862.426	3.38
863.165	5.38
863.903	4.38
864.641	3.38
865.379	4.38
866.117	4.38
866.855	3.38
867.593	-0.62
868.33	3.38
869.068	3.38
869.806	1.38
870.543	3.38
871.28	3.38
872.018	3.38
872.755	2.38
873.492	3.38
874.229	3.38
874.967	2.38
875.703	4.38
876.44	1.38
877.177	2.38
877.914	2.38
878.651	4.38
879.387	1.38
880.124	2.38
880.86	3.38
881.597	3.38
882.333	2.38
883.069	0.38
883.806	1.38
884.542	2.38
885.278	0.38
886.014	1.38
886.749	1.38
887.485	0.38
888.221	2.38
888.957	2.38
889.692	3.38
890.428	0.38
891.163	2.38
891.899	2.38
892.634	2.38
893.369	2.38
894.104	-0.62
894.839	1.38
895.574	1.38
896.309	1.38
897.044	1.38
897.779	2.38
898.514	3.38
899.248	2.38
899.983	2.38
900.717	-0.62
901.452	3.38
902.186	4.38
902.92	0.38
903.654	2.38
904.389	1.38
905.123	-0.62
905.857	0.38
906.59	2.38
907.324	1.38
908.058	-0.62
908.792	2.38
909.525	1.38
910.259	2.38
910.992	2.38
911.726	1.38
912.459	2.38
913.192	1.38
913.925	0.38
914.658	1.38
915.391	0.38
916.124	0.38
916.857	2.38
917.59	-0.62
918.323	0.38
919.055	2.38
919.788	0.38
920.521	3.38
921.253	0.38
921.985	0.38
922.718	2.38
923.45	-2.62
924.182	0.38
924.914	1.38
925.646	0.38
926.378	1.38
927.11	1.38
927.841	-0.62
928.573	0.38
929.305	0.38
930.036	0.38
930.768	0.38
931.499	2.38
932.23	-0.62
932.962	1.38
933.693	2.38
934.424	0.38
935.155	2.38
935.886	1.38
936.617	0.38
937.348	-0.62
938.078	0.38
938.809	1.38
939.54	0.38
940.27	1.38
941.001	-0.62
941.731	1.38
942.461	1.38
943.191	1.38
943.922	1.38
944.652	0.38
945.382	2.38
946.112	-1.62
946.841	0.38
947.571	0.38
948.301	-1.62
949.031	-1.62
949.76	1.38
950.49	2.38
951.219	0.38
951.948	1.38
952.678	0.38
953.407	1.38
954.136	0.38
954.865	-0.62
955.594	1.38
956.323	1.38
957.052	1.38
957.78	1.38
958.509	-2.62
959.238	1.38
959.966	1.38
960.695	-0.62
961.423	0.38
962.151	-1.62
962.88	0.38
963.608	-0.62
964.336	3.38
965.064	1.38
965.792	1.38
966.52	0.38
967.247	-1.62
967.975	1.38
968.703	-0.62
969.43	0.38
970.158	-0.62
970.885	3.38
971.613	1.38
972.34	-0.62
973.067	-0.62
973.794	-0.62
974.521	0.38
975.248	-0.62
975.975	-2.62
976.702	-0.62
977.429	-0.62
978.156	1.38
978.882	1.38
979.609	1.38
980.335	1.38
981.062	0.38
981.788	0.38
982.514	0.38
983.24	1.38
983.967	-0.62
984.693	-0.62
985.419	-0.62
986.144	0.38
986.87	1.38
987.596	-0.62
988.322	2.38
989.047	0.38
989.773	0.38
990.498	1.38
991.224	-0.62
991.949	2.38
992.674	-0.62
993.399	0.38
994.124	2.38
994.849	-2.62
995.574	1.38
996.299	-1.62
997.024	0.38
997.749	0.38
998.473	1.38
999.198	2.38
999.922	-0.62
1000.647	2.38
1001.371	5.38
1002.095	-0.62
1002.82	0.38
1003.544	-3.62
1004.268	3.38
1004.992	6.38
1005.716	3.38
1006.439	5.38
1007.163	5.38
1007.887	4.38
1008.611	1.38
1009.334	0.38
1010.058	-0.62
1010.781	0.38
1011.504	0.38
1012.228	1.38
1012.951	-0.62
1013.674	0.38
1014.397	-0.62
1015.12	-0.62
