节点500_705_QEPB04081__1__20-45-54-391.txt的数据

Date: Wed Nov 12 20:45:54 CST 2025
User: PC
Spectrometer: QEPB0408
触发模式: 0
积分时间 (秒): 1.000000E-2
Scans to average: 1
启用暗噪声校正: true
启用非线性校正: false
滑动平均宽度: 0
X轴模式: Wavelengths
Number of Pixels in Spectrum: 1044
>>>>>Begin Spectral Data<<<<<
220.843	-1.62
221.644	-3.62
222.444	-1.62
223.244	-0.62
224.045	-1.62
224.845	-0.62
225.645	-0.62
226.445	-1.62
227.245	-2.62
228.045	-0.62
228.845	-3.62
229.645	-0.62
230.444	-1.62
231.244	-0.62
232.043	-0.62
232.843	-3.62
233.642	-0.62
234.442	0.38
235.241	-1.62
236.04	-1.62
236.839	-0.62
237.638	-2.62
238.437	-2.62
239.236	-0.62
240.035	-2.62
240.833	-0.62
241.632	-0.62
242.43	-0.62
243.229	-0.62
244.027	-2.62
244.826	-2.62
245.624	-0.62
246.422	0.38
247.22	2.38
248.018	-2.62
248.816	-0.62
249.614	-1.62
250.412	0.38
251.21	-0.62
252.007	-1.62
252.805	-0.62
253.602	-2.62
254.4	-3.62
255.197	-0.62
255.994	0.38
256.791	-0.62
257.589	0.38
258.386	-1.62
259.183	-1.62
259.979	-1.62
260.776	-0.62
261.573	0.38
262.37	-0.62
263.166	0.38
263.963	2.38
264.759	-1.62
265.556	-1.62
266.352	-1.62
267.148	-2.62
267.944	-1.62
268.74	-0.62
269.536	-1.62
270.332	-0.62
271.128	-0.62
271.924	-0.62
272.719	-0.62
273.515	-1.62
274.311	-1.62
275.106	-0.62
275.901	-1.62
276.697	-0.62
277.492	-1.62
278.287	-1.62
279.082	0.38
279.877	-0.62
280.672	-0.62
281.467	-0.62
282.262	-0.62
283.056	2.38
283.851	-0.62
284.646	0.38
285.44	-0.62
286.234	0.38
287.029	-0.62
287.823	0.38
288.617	-1.62
289.411	-0.62
290.205	-0.62
290.999	-0.62
291.793	0.38
292.587	-0.62
293.381	-2.62
294.174	1.38
294.968	-2.62
295.761	-0.62
296.555	-2.62
297.348	-2.62
298.141	-2.62
298.935	-0.62
299.728	-0.62
300.521	-1.62
301.314	-1.62
302.107	-1.62
302.899	-0.62
303.692	-1.62
304.485	-2.62
305.277	1.38
306.07	0.38
306.862	-0.62
307.655	-0.62
308.447	-1.62
309.239	0.38
310.031	-2.62
310.823	0.38
311.615	-0.62
312.407	-0.62
313.199	-0.62
313.991	0.38
314.783	-0.62
315.574	-0.62
316.366	0.38
317.157	-1.62
317.949	0.38
318.74	1.38
319.531	2.38
320.322	-0.62
321.113	-1.62
321.904	1.38
322.695	1.38
323.486	-0.62
324.277	-0.62
325.068	-0.62
325.858	-1.62
326.649	-3.62
327.439	-1.62
328.23	-1.62
329.02	1.38
329.81	1.38
330.6	-1.62
331.391	0.38
332.181	-2.62
332.971	-2.62
333.76	0.38
334.55	-0.62
335.34	-0.62
336.13	-1.62
336.919	-0.62
337.709	-0.62
338.498	-1.62
339.287	0.38
340.077	0.38
340.866	-1.62
341.655	0.38
342.444	-2.62
343.233	0.38
344.022	-0.62
344.811	-0.62
345.6	-1.62
346.388	-0.62
347.177	0.38
347.965	-0.62
348.754	1.38
349.542	0.38
350.33	1.38
351.119	-1.62
351.907	-0.62
352.695	0.38
353.483	-0.62
354.271	1.38
355.059	-1.62
355.846	0.38
356.634	-1.62
357.422	1.38
358.209	-0.62
358.997	0.38
359.784	1.38
360.571	-1.62
361.359	-1.62
362.146	0.38
362.933	-1.62
363.72	1.38
364.507	-0.62
365.294	1.38
366.081	-0.62
366.867	-1.62
367.654	0.38
368.44	-1.62
369.227	0.38
370.013	-0.62
370.8	-1.62
371.586	1.38
372.372	-0.62
373.158	-0.62
373.944	-2.62
374.73	-0.62
375.516	1.38
376.302	1.38
377.088	0.38
377.873	-1.62
378.659	-0.62
379.445	0.38
380.23	2.38
381.015	-1.62
381.801	-0.62
382.586	0.38
383.371	-1.62
384.156	1.38
384.941	-0.62
385.726	0.38
386.511	1.38
387.296	0.38
388.08	1.38
388.865	-1.62
389.649	0.38
390.434	-0.62
391.218	-1.62
392.003	2.38
392.787	-0.62
393.571	-0.62
394.355	-0.62
395.139	-2.62
395.923	-0.62
396.707	-0.62
397.491	-0.62
398.274	0.38
399.058	2.38
399.842	0.38
400.625	-2.62
401.408	-0.62
402.192	-1.62
402.975	2.38
403.758	0.38
404.541	-0.62
405.324	-0.62
406.107	0.38
406.89	-2.62
407.673	1.38
408.456	-0.62
409.238	-2.62
410.021	0.38
410.803	-0.62
411.586	-1.62
412.368	-0.62
413.151	-0.62
413.933	-1.62
414.715	-0.62
415.497	-1.62
416.279	-0.62
417.061	1.38
417.843	-0.62
418.624	1.38
419.406	-1.62
420.188	1.38
420.969	-0.62
421.751	-0.62
422.532	0.38
423.313	-0.62
424.095	-0.62
424.876	-1.62
425.657	-1.62
426.438	-0.62
427.219	2.38
428	-0.62
428.78	0.38
429.561	-0.62
430.342	-1.62
431.122	-0.62
431.903	0.38
432.683	-2.62
433.464	0.38
434.244	1.38
435.024	-0.62
435.804	0.38
436.584	0.38
437.364	-0.62
438.144	2.38
438.924	-0.62
439.704	-0.62
440.483	1.38
441.263	-2.62
442.042	-1.62
442.822	1.38
443.601	1.38
444.38	-0.62
445.16	1.38
445.939	0.38
446.718	0.38
447.497	0.38
448.276	0.38
449.054	1.38
449.833	1.38
450.612	-0.62
451.391	1.38
452.169	-0.62
452.948	1.38
453.726	0.38
454.504	0.38
455.282	1.38
456.061	-0.62
456.839	-1.62
457.617	0.38
458.395	0.38
459.172	0.38
459.95	-0.62
460.728	0.38
461.506	1.38
462.283	1.38
463.061	-0.62
463.838	-0.62
464.615	-0.62
465.393	0.38
466.17	-0.62
466.947	-0.62
467.724	1.38
468.501	2.38
469.278	-2.62
470.055	2.38
470.831	-1.62
471.608	2.38
472.385	0.38
473.161	0.38
473.938	1.38
474.714	0.38
475.49	2.38
476.266	-0.62
477.043	0.38
477.819	1.38
478.595	0.38
479.371	-1.62
480.146	0.38
480.922	3.38
481.698	0.38
482.473	1.38
483.249	1.38
484.024	-0.62
484.8	0.38
485.575	-0.62
486.35	0.38
487.126	-0.62
487.901	-1.62
488.676	0.38
489.451	-0.62
490.225	0.38
491	-0.62
491.775	1.38
492.55	0.38
493.324	1.38
494.099	2.38
494.873	-1.62
495.647	1.38
496.422	1.38
497.196	-0.62
497.97	-0.62
498.744	0.38
499.518	1.38
500.292	0.38
501.066	-0.62
501.839	1.38
502.613	1.38
503.387	-0.62
504.16	-0.62
504.934	2.38
505.707	-0.62
506.48	-1.62
507.253	0.38
508.027	0.38
508.8	1.38
509.573	-1.62
510.346	0.38
511.118	-0.62
511.891	1.38
512.664	-0.62
513.437	-0.62
514.209	0.38
514.982	0.38
515.754	0.38
516.526	0.38
517.298	-2.62
518.071	0.38
518.843	-1.62
519.615	1.38
520.387	3.38
521.159	1.38
521.93	1.38
522.702	0.38
523.474	2.38
524.245	0.38
525.017	0.38
525.788	0.38
526.56	0.38
527.331	-0.62
528.102	-0.62
528.873	0.38
529.644	-1.62
530.415	1.38
531.186	-1.62
531.957	-0.62
532.728	-0.62
533.498	0.38
534.269	0.38
535.039	1.38
535.81	-1.62
536.58	1.38
537.351	0.38
538.121	-0.62
538.891	-1.62
539.661	-0.62
540.431	0.38
541.201	-0.62
541.971	-1.62
542.741	-1.62
543.51	2.38
544.28	0.38
545.05	2.38
545.819	-1.62
546.588	0.38
547.358	-0.62
548.127	1.38
548.896	1.38
549.665	-0.62
550.434	-0.62
551.203	-1.62
551.972	-0.62
552.741	-0.62
553.51	0.38
554.278	-0.62
555.047	2.38
555.815	-2.62
556.584	0.38
557.352	-0.62
558.121	-0.62
558.889	0.38
559.657	1.38
560.425	-0.62
561.193	-2.62
561.961	1.38
562.729	1.38
563.496	0.38
564.264	0.38
565.032	-1.62
565.799	-0.62
566.567	-0.62
567.334	-0.62
568.101	1.38
568.869	-0.62
569.636	1.38
570.403	1.38
571.17	-0.62
571.937	-0.62
572.704	0.38
573.471	1.38
574.237	1.38
575.004	1.38
575.771	-1.62
576.537	1.38
577.303	1.38
578.07	-0.62
578.836	-0.62
579.602	-1.62
580.368	-0.62
581.134	-1.62
581.9	0.38
582.666	-0.62
583.432	-0.62
584.198	-0.62
584.964	2.38
585.729	3.38
586.495	-0.62
587.26	-0.62
588.025	0.38
588.791	0.38
589.556	0.38
590.321	-0.62
591.086	-0.62
591.851	-1.62
592.616	-0.62
593.381	1.38
594.146	-1.62
594.911	-1.62
595.675	-0.62
596.44	-0.62
597.204	1.38
597.969	0.38
598.733	1.38
599.497	-0.62
600.261	1.38
601.025	0.38
601.79	0.38
602.553	-0.62
603.317	0.38
604.081	-0.62
604.845	0.38
605.609	1.38
606.372	-0.62
607.136	-1.62
607.899	0.38
608.662	-0.62
609.426	-1.62
610.189	0.38
610.952	0.38
611.715	0.38
612.478	0.38
613.241	2.38
614.004	-1.62
614.767	-0.62
615.529	-0.62
616.292	1.38
617.055	-0.62
617.817	-2.62
618.579	1.38
619.342	0.38
620.104	1.38
620.866	-0.62
621.628	-2.62
622.39	2.38
623.152	1.38
623.914	2.38
624.676	-1.62
625.438	-0.62
626.199	-0.62
626.961	1.38
627.722	-0.62
628.484	0.38
629.245	-0.62
630.006	-2.62
630.768	1.38
631.529	-1.62
632.29	-0.62
633.051	-0.62
633.812	-0.62
634.573	-0.62
635.333	3.38
636.094	1.38
636.855	-0.62
637.615	0.38
638.376	0.38
639.136	-2.62
639.896	0.38
640.657	-0.62
641.417	-0.62
642.177	0.38
642.937	0.38
643.697	-0.62
644.457	4.38
645.216	0.38
645.976	0.38
646.736	0.38
647.495	3.38
648.255	0.38
649.014	2.38
649.774	-0.62
650.533	0.38
651.292	0.38
652.051	1.38
652.81	1.38
653.569	0.38
654.328	0.38
655.087	-0.62
655.846	-0.62
656.604	1.38
657.363	-2.62
658.121	1.38
658.88	0.38
659.638	2.38
660.397	0.38
661.155	0.38
661.913	1.38
662.671	-1.62
663.429	-0.62
664.187	0.38
664.945	1.38
665.703	-1.62
666.46	0.38
667.218	1.38
667.976	-0.62
668.733	1.38
669.49	0.38
670.248	-0.62
671.005	1.38
671.762	0.38
672.519	-0.62
673.276	1.38
674.033	-1.62
674.79	-0.62
675.547	0.38
676.304	-0.62
677.06	-1.62
677.817	2.38
678.574	-0.62
679.33	-2.62
680.086	0.38
680.843	0.38
681.599	1.38
682.355	-0.62
683.111	-0.62
683.867	0.38
684.623	1.38
685.379	1.38
686.135	-1.62
686.89	-0.62
687.646	-0.62
688.402	-0.62
689.157	2.38
689.912	-1.62
690.668	-1.62
691.423	-0.62
692.178	0.38
692.933	-0.62
693.688	-1.62
694.443	0.38
695.198	0.38
695.953	4.38
696.708	-0.62
697.462	-0.62
698.217	-1.62
698.972	-1.62
699.726	-0.62
700.48	1.38
701.235	3.38
701.989	-0.62
702.743	0.38
703.497	-0.62
704.251	-0.62
705.005	2.38
705.759	1.38
706.513	-0.62
707.266	1.38
708.02	-0.62
708.774	1.38
709.527	-0.62
710.28	1.38
711.034	1.38
711.787	-0.62
712.54	1.38
713.293	-1.62
714.046	-0.62
714.799	1.38
715.552	-1.62
716.305	1.38
717.058	-1.62
717.81	1.38
718.563	0.38
719.315	2.38
720.068	-0.62
720.82	1.38
721.573	-0.62
722.325	-1.62
723.077	-0.62
723.829	0.38
724.581	1.38
725.333	-0.62
726.085	-0.62
726.836	-0.62
727.588	1.38
728.34	1.38
729.091	0.38
729.843	-0.62
730.594	0.38
731.346	-1.62
732.097	-0.62
732.848	-0.62
733.599	-0.62
734.35	2.38
735.101	1.38
735.852	1.38
736.603	-0.62
737.354	2.38
738.104	-0.62
738.855	3.38
739.605	0.38
740.356	-0.62
741.106	-0.62
741.856	0.38
742.607	-0.62
743.357	-0.62
744.107	1.38
744.857	1.38
745.607	-0.62
746.357	0.38
747.106	-2.62
747.856	0.38
748.606	1.38
749.355	0.38
750.105	0.38
750.854	-0.62
751.603	-0.62
752.353	-1.62
753.102	0.38
753.851	-0.62
754.6	-0.62
755.349	1.38
756.098	-0.62
756.847	0.38
757.595	-4.62
758.344	-0.62
759.093	-0.62
759.841	1.38
760.589	1.38
761.338	-1.62
762.086	1.38
762.834	-0.62
763.582	-0.62
764.331	0.38
765.079	-0.62
765.826	2.38
766.574	-1.62
767.322	0.38
768.07	2.38
768.817	-0.62
769.565	1.38
770.312	-0.62
771.06	1.38
771.807	1.38
772.554	1.38
773.302	-0.62
774.049	-0.62
774.796	1.38
775.543	-0.62
776.29	0.38
777.036	0.38
777.783	1.38
778.53	-1.62
779.276	-0.62
780.023	0.38
780.769	-0.62
781.516	-0.62
782.262	-0.62
783.008	-1.62
783.754	-0.62
784.5	-0.62
785.246	0.38
785.992	-1.62
786.738	0.38
787.484	0.38
788.23	0.38
788.975	-0.62
789.721	0.38
790.466	0.38
791.212	-1.62
791.957	0.38
792.702	-1.62
793.447	-0.62
794.193	1.38
794.938	-0.62
795.683	0.38
796.427	1.38
797.172	-0.62
797.917	-0.62
798.662	-0.62
799.406	0.38
800.151	0.38
800.895	0.38
801.64	2.38
802.384	1.38
803.128	0.38
803.872	-1.62
804.616	1.38
805.36	-2.62
806.104	-0.62
806.848	1.38
807.592	-0.62
808.336	0.38
809.079	-1.62
809.823	2.38
810.566	-0.62
811.31	0.38
812.053	-2.62
812.796	-0.62
813.539	1.38
814.283	-1.62
815.026	-0.62
815.769	0.38
816.511	-1.62
817.254	0.38
817.997	-0.62
818.74	0.38
819.482	-0.62
820.225	-0.62
820.967	1.38
821.71	-0.62
822.452	0.38
823.194	-0.62
823.936	1.38
824.678	0.38
825.42	-1.62
826.162	0.38
826.904	-1.62
827.646	-0.62
828.388	1.38
829.129	-1.62
829.871	-1.62
830.612	1.38
831.354	0.38
832.095	1.38
832.836	-0.62
833.577	-0.62
834.319	0.38
835.06	-0.62
835.801	-0.62
836.542	0.38
837.282	-0.62
838.023	0.38
838.764	-1.62
839.504	0.38
840.245	0.38
840.985	-0.62
841.726	2.38
842.466	-0.62
843.206	0.38
843.946	1.38
844.687	-2.62
845.427	1.38
846.166	0.38
846.906	1.38
847.646	0.38
848.386	0.38
849.125	1.38
849.865	1.38
850.605	0.38
851.344	-0.62
852.083	0.38
852.823	-0.62
853.562	0.38
854.301	-0.62
855.04	-0.62
855.779	0.38
856.518	-0.62
857.257	-0.62
857.995	-0.62
858.734	-1.62
859.473	0.38
860.211	-0.62
860.95	1.38
861.688	0.38
862.426	1.38
863.165	0.38
863.903	-0.62
864.641	0.38
865.379	0.38
866.117	2.38
866.855	1.38
867.593	-1.62
868.33	2.38
869.068	-0.62
869.806	1.38
870.543	-0.62
871.28	1.38
872.018	-0.62
872.755	1.38
873.492	2.38
874.229	1.38
874.967	1.38
875.703	-0.62
876.44	2.38
877.177	0.38
877.914	-0.62
878.651	0.38
879.387	-0.62
880.124	0.38
880.86	2.38
881.597	0.38
882.333	-0.62
883.069	-1.62
883.806	1.38
884.542	-1.62
885.278	1.38
886.014	1.38
886.749	-0.62
887.485	0.38
888.221	1.38
888.957	-1.62
889.692	-0.62
890.428	-0.62
891.163	1.38
891.899	-0.62
892.634	0.38
893.369	-0.62
894.104	2.38
894.839	1.38
895.574	-0.62
896.309	1.38
897.044	-2.62
897.779	0.38
898.514	0.38
899.248	-0.62
899.983	-0.62
900.717	0.38
901.452	-0.62
902.186	-0.62
902.92	1.38
903.654	0.38
904.389	-0.62
905.123	-0.62
905.857	-3.62
906.59	1.38
907.324	-0.62
908.058	1.38
908.792	1.38
909.525	-0.62
910.259	0.38
910.992	-0.62
911.726	0.38
912.459	-0.62
913.192	0.38
913.925	-0.62
914.658	0.38
915.391	0.38
916.124	0.38
916.857	0.38
917.59	0.38
918.323	-0.62
919.055	-0.62
919.788	0.38
920.521	1.38
921.253	-0.62
921.985	0.38
922.718	-0.62
923.45	-0.62
924.182	0.38
924.914	-0.62
925.646	0.38
926.378	-0.62
927.11	0.38
927.841	-0.62
928.573	-1.62
929.305	1.38
930.036	-3.62
930.768	1.38
931.499	1.38
932.23	0.38
932.962	0.38
933.693	0.38
934.424	2.38
935.155	3.38
935.886	0.38
936.617	1.38
937.348	0.38
938.078	2.38
938.809	-0.62
939.54	1.38
940.27	1.38
941.001	0.38
941.731	0.38
942.461	1.38
943.191	1.38
943.922	1.38
944.652	-0.62
945.382	-0.62
946.112	-0.62
946.841	-0.62
947.571	-0.62
948.301	-2.62
949.031	-0.62
949.76	0.38
950.49	-1.62
951.219	0.38
951.948	-0.62
952.678	-0.62
953.407	-0.62
954.136	0.38
954.865	1.38
955.594	-0.62
956.323	2.38
957.052	0.38
957.78	1.38
958.509	0.38
959.238	0.38
959.966	-0.62
960.695	1.38
961.423	0.38
962.151	-3.62
962.88	-0.62
963.608	-0.62
964.336	-0.62
965.064	1.38
965.792	0.38
966.52	0.38
967.247	1.38
967.975	-0.62
968.703	-0.62
969.43	-0.62
970.158	-0.62
970.885	2.38
971.613	-1.62
972.34	-0.62
973.067	-0.62
973.794	-1.62
974.521	2.38
975.248	-1.62
975.975	0.38
976.702	0.38
977.429	1.38
978.156	0.38
978.882	-0.62
979.609	0.38
980.335	1.38
981.062	-0.62
981.788	0.38
982.514	0.38
983.24	-2.62
983.967	0.38
984.693	2.38
985.419	0.38
986.144	0.38
986.87	3.38
987.596	0.38
988.322	1.38
989.047	1.38
989.773	1.38
990.498	1.38
991.224	-0.62
991.949	0.38
992.674	1.38
993.399	1.38
994.124	0.38
994.849	1.38
995.574	0.38
996.299	1.38
997.024	0.38
997.749	-0.62
998.473	3.38
999.198	0.38
999.922	-0.62
1000.647	0.38
1001.371	5.38
1002.095	-2.62
1002.82	0.38
1003.544	-2.62
1004.268	-1.62
1004.992	-1.62
1005.716	-2.62
1006.439	-0.62
1007.163	-0.62
1007.887	-0.62
1008.611	-0.62
1009.334	0.38
1010.058	1.38
1010.781	-0.62
1011.504	-1.62
1012.228	0.38
1012.951	-0.62
1013.674	-0.62
1014.397	0.38
1015.12	0.38
