节点500_705_QEPB04081__162__20-48-33-049.txt的数据

Date: Wed Nov 12 20:48:33 CST 2025
User: PC
Spectrometer: QEPB0408
触发模式: 0
积分时间 (秒): 1.000000E-2
Scans to average: 1
启用暗噪声校正: true
启用非线性校正: false
滑动平均宽度: 0
X轴模式: Wavelengths
Number of Pixels in Spectrum: 1044
>>>>>Begin Spectral Data<<<<<
220.843	6.38
221.644	6.38
222.444	6.38
223.244	5.38
224.045	6.38
224.845	6.38
225.645	8.38
226.445	6.38
227.245	9.38
228.045	7.38
228.845	8.38
229.645	8.38
230.444	10.38
231.244	10.38
232.043	10.38
232.843	10.38
233.642	8.38
234.442	12.38
235.241	9.38
236.04	11.38
236.839	11.38
237.638	10.38
238.437	13.38
239.236	13.38
240.035	11.38
240.833	13.38
241.632	13.38
242.43	13.38
243.229	11.38
244.027	11.38
244.826	12.38
245.624	17.38
246.422	12.38
247.22	13.38
248.018	15.38
248.816	15.38
249.614	17.38
250.412	16.38
251.21	19.38
252.007	18.38
252.805	17.38
253.602	17.38
254.4	18.38
255.197	20.38
255.994	19.38
256.791	21.38
257.589	21.38
258.386	22.38
259.183	26.38
259.979	27.38
260.776	25.38
261.573	21.38
262.37	26.38
263.166	24.38
263.963	26.38
264.759	32.38
265.556	28.38
266.352	28.38
267.148	30.38
267.944	33.38
268.74	29.38
269.536	30.38
270.332	33.38
271.128	32.38
271.924	32.38
272.719	35.38
273.515	34.38
274.311	33.38
275.106	34.38
275.901	35.38
276.697	38.38
277.492	35.38
278.287	35.38
279.082	38.38
279.877	36.38
280.672	35.38
281.467	35.38
282.262	35.38
283.056	36.38
283.851	34.38
284.646	36.38
285.44	39.38
286.234	35.38
287.029	35.38
287.823	35.38
288.617	35.38
289.411	34.38
290.205	35.38
290.999	35.38
291.793	33.38
292.587	32.38
293.381	34.38
294.174	30.38
294.968	31.38
295.761	29.38
296.555	29.38
297.348	26.38
298.141	29.38
298.935	31.38
299.728	26.38
300.521	25.38
301.314	25.38
302.107	26.38
302.899	26.38
303.692	20.38
304.485	23.38
305.277	21.38
306.07	23.38
306.862	20.38
307.655	22.38
308.447	23.38
309.239	21.38
310.031	22.38
310.823	19.38
311.615	17.38
312.407	17.38
313.199	15.38
313.991	17.38
314.783	13.38
315.574	15.38
316.366	15.38
317.157	14.38
317.949	17.38
318.74	14.38
319.531	16.38
320.322	16.38
321.113	15.38
321.904	13.38
322.695	14.38
323.486	15.38
324.277	14.38
325.068	15.38
325.858	13.38
326.649	13.38
327.439	13.38
328.23	11.38
329.02	16.38
329.81	14.38
330.6	14.38
331.391	13.38
332.181	14.38
332.971	13.38
333.76	11.38
334.55	13.38
335.34	10.38
336.13	14.38
336.919	12.38
337.709	11.38
338.498	13.38
339.287	11.38
340.077	13.38
340.866	11.38
341.655	12.38
342.444	14.38
343.233	9.38
344.022	11.38
344.811	11.38
345.6	11.38
346.388	12.38
347.177	14.38
347.965	12.38
348.754	14.38
349.542	12.38
350.33	12.38
351.119	11.38
351.907	9.38
352.695	12.38
353.483	13.38
354.271	11.38
355.059	12.38
355.846	15.38
356.634	12.38
357.422	11.38
358.209	11.38
358.997	13.38
359.784	11.38
360.571	9.38
361.359	11.38
362.146	10.38
362.933	9.38
363.72	9.38
364.507	11.38
365.294	9.38
366.081	7.38
366.867	10.38
367.654	11.38
368.44	11.38
369.227	11.38
370.013	8.38
370.8	11.38
371.586	8.38
372.372	8.38
373.158	11.38
373.944	11.38
374.73	10.38
375.516	9.38
376.302	9.38
377.088	10.38
377.873	10.38
378.659	10.38
379.445	9.38
380.23	12.38
381.015	9.38
381.801	8.38
382.586	11.38
383.371	8.38
384.156	11.38
384.941	8.38
385.726	14.38
386.511	12.38
387.296	12.38
388.08	12.38
388.865	13.38
389.649	9.38
390.434	10.38
391.218	14.38
392.003	13.38
392.787	13.38
393.571	13.38
394.355	12.38
395.139	12.38
395.923	14.38
396.707	12.38
397.491	12.38
398.274	14.38
399.058	15.38
399.842	13.38
400.625	15.38
401.408	15.38
402.192	14.38
402.975	14.38
403.758	15.38
404.541	12.38
405.324	13.38
406.107	16.38
406.89	15.38
407.673	17.38
408.456	17.38
409.238	15.38
410.021	16.38
410.803	18.38
411.586	19.38
412.368	21.38
413.151	16.38
413.933	17.38
414.715	19.38
415.497	18.38
416.279	19.38
417.061	20.38
417.843	22.38
418.624	19.38
419.406	20.38
420.188	18.38
420.969	24.38
421.751	21.38
422.532	24.38
423.313	23.38
424.095	24.38
424.876	24.38
425.657	25.38
426.438	26.38
427.219	27.38
428	26.38
428.78	30.38
429.561	28.38
430.342	29.38
431.122	33.38
431.903	31.38
432.683	33.38
433.464	36.38
434.244	38.38
435.024	38.38
435.804	43.38
436.584	41.38
437.364	45.38
438.144	49.38
438.924	52.38
439.704	57.38
440.483	58.38
441.263	56.38
442.042	63.38
442.822	67.38
443.601	72.38
444.38	73.38
445.16	82.38
445.939	95.38
446.718	99.38
447.497	103.38
448.276	119.38
449.054	128.38
449.833	146.38
450.612	153.38
451.391	167.38
452.169	189.38
452.948	209.38
453.726	231.38
454.504	253.38
455.282	285.38
456.061	318.38
456.839	349.38
457.617	399.38
458.395	433.38
459.172	488.38
459.95	537.38
460.728	607.38
461.506	680.38
462.283	752.38
463.061	848.38
463.838	953.38
464.615	1054.38
465.393	1188.38
466.17	1328.38
466.947	1460.38
467.724	1643.38
468.501	1791.38
469.278	2019.38
470.055	2242.38
470.831	2458.38
471.608	2737.38
472.385	3002.38
473.161	3361.38
473.938	3673.38
474.714	4051.38
475.49	4466.38
476.266	4922.38
477.043	5388.38
477.819	5893.38
478.595	6488.38
479.371	7106.38
480.146	7773.38
480.922	8505.38
481.698	9314.38
482.473	10153.38
483.249	11093.38
484.024	12033.38
484.8	13120.38
485.575	14251.38
486.35	15512.38
487.126	16861.38
487.901	18207.38
488.676	19654.38
489.451	21323.38
490.225	22938.38
491	24636.38
491.775	26446.38
492.55	28283.38
493.324	30085.38
494.099	31890.38
494.873	33831.38
495.647	35780.38
496.422	37600.38
497.196	39483.38
497.97	41101.38
498.744	42650.38
499.518	44339.38
500.292	45632.38
501.066	46556.38
501.839	47317.38
502.613	48012.38
503.387	48608.38
504.16	48833.38
504.934	48686.38
505.707	48440.38
506.48	47908.38
507.253	47257.38
508.027	46336.38
508.8	45270.38
509.573	44037.38
510.346	42751.38
511.118	41503.38
511.891	40197.38
512.664	38574.38
513.437	37009.38
514.209	35628.38
514.982	34202.38
515.754	32862.38
516.526	31371.38
517.298	30094.38
518.071	28919.38
518.843	27631.38
519.615	26532.38
520.387	25572.38
521.159	24458.38
521.93	23495.38
522.702	22452.38
523.474	21523.38
524.245	20591.38
525.017	19666.38
525.788	18830.38
526.56	18007.38
527.331	17224.38
528.102	16266.38
528.873	15411.38
529.644	14696.38
530.415	14024.38
531.186	13307.38
531.957	12632.38
532.728	11909.38
533.498	11280.38
534.269	10697.38
535.039	10108.38
535.81	9512.38
536.58	9042.38
537.351	8491.38
538.121	8086.38
538.891	7666.38
539.661	7255.38
540.431	6855.38
541.201	6515.38
541.971	6159.38
542.741	5820.38
543.51	5538.38
544.28	5269.38
545.05	5016.38
545.819	4781.38
546.588	4566.38
547.358	4372.38
548.127	4134.38
548.896	3920.38
549.665	3692.38
550.434	3503.38
551.203	3315.38
551.972	3160.38
552.741	2986.38
553.51	2803.38
554.278	2639.38
555.047	2491.38
555.815	2373.38
556.584	2244.38
557.352	2108.38
558.121	1977.38
558.889	1875.38
559.657	1786.38
560.425	1671.38
561.193	1599.38
561.961	1513.38
562.729	1429.38
563.496	1348.38
564.264	1267.38
565.032	1193.38
565.799	1137.38
566.567	1077.38
567.334	1015.38
568.101	964.38
568.869	892.38
569.636	857.38
570.403	802.38
571.17	774.38
571.937	718.38
572.704	684.38
573.471	652.38
574.237	603.38
575.004	578.38
575.771	536.38
576.537	499.38
577.303	488.38
578.07	453.38
578.836	430.38
579.602	401.38
580.368	391.38
581.134	366.38
581.9	351.38
582.666	334.38
583.432	315.38
584.198	297.38
584.964	285.38
585.729	269.38
586.495	260.38
587.26	239.38
588.025	230.38
588.791	217.38
589.556	207.38
590.321	195.38
591.086	186.38
591.851	177.38
592.616	173.38
593.381	160.38
594.146	154.38
594.911	145.38
595.675	141.38
596.44	137.38
597.204	129.38
597.969	123.38
598.733	116.38
599.497	114.38
600.261	113.38
601.025	103.38
601.79	99.38
602.553	93.38
603.317	92.38
604.081	87.38
604.845	84.38
605.609	81.38
606.372	76.38
607.136	76.38
607.899	67.38
608.662	66.38
609.426	61.38
610.189	63.38
610.952	67.38
611.715	58.38
612.478	56.38
613.241	55.38
614.004	55.38
614.767	51.38
615.529	54.38
616.292	49.38
617.055	45.38
617.817	45.38
618.579	43.38
619.342	44.38
620.104	43.38
620.866	41.38
621.628	38.38
622.39	37.38
623.152	34.38
623.914	36.38
624.676	33.38
625.438	31.38
626.199	31.38
626.961	30.38
627.722	32.38
628.484	30.38
629.245	27.38
630.006	26.38
630.768	28.38
631.529	27.38
632.29	27.38
633.051	19.38
633.812	27.38
634.573	22.38
635.333	24.38
636.094	21.38
636.855	23.38
637.615	23.38
638.376	20.38
639.136	22.38
639.896	19.38
640.657	17.38
641.417	18.38
642.177	19.38
642.937	19.38
643.697	17.38
644.457	18.38
645.216	16.38
645.976	15.38
646.736	15.38
647.495	15.38
648.255	18.38
649.014	14.38
649.774	12.38
650.533	13.38
651.292	15.38
652.051	14.38
652.81	13.38
653.569	14.38
654.328	12.38
655.087	11.38
655.846	12.38
656.604	12.38
657.363	11.38
658.121	10.38
658.88	13.38
659.638	12.38
660.397	10.38
661.155	9.38
661.913	9.38
662.671	9.38
663.429	10.38
664.187	10.38
664.945	11.38
665.703	12.38
666.46	13.38
667.218	11.38
667.976	13.38
668.733	11.38
669.49	10.38
670.248	11.38
671.005	8.38
671.762	11.38
672.519	9.38
673.276	9.38
674.033	9.38
674.79	12.38
675.547	11.38
676.304	7.38
677.06	9.38
677.817	8.38
678.574	9.38
679.33	8.38
680.086	6.38
680.843	9.38
681.599	9.38
682.355	8.38
683.111	9.38
683.867	9.38
684.623	10.38
685.379	9.38
686.135	9.38
686.89	8.38
687.646	7.38
688.402	9.38
689.157	8.38
689.912	8.38
690.668	10.38
691.423	6.38
692.178	5.38
692.933	9.38
693.688	7.38
694.443	8.38
695.198	9.38
695.953	7.38
696.708	6.38
697.462	8.38
698.217	7.38
698.972	10.38
699.726	5.38
700.48	8.38
701.235	6.38
701.989	8.38
702.743	7.38
703.497	9.38
704.251	6.38
705.005	7.38
705.759	7.38
706.513	9.38
707.266	7.38
708.02	7.38
708.774	9.38
709.527	10.38
710.28	7.38
711.034	9.38
711.787	8.38
712.54	8.38
713.293	7.38
714.046	8.38
714.799	7.38
715.552	11.38
716.305	8.38
717.058	8.38
717.81	8.38
718.563	8.38
719.315	8.38
720.068	10.38
720.82	8.38
721.573	6.38
722.325	7.38
723.077	8.38
723.829	11.38
724.581	10.38
725.333	9.38
726.085	8.38
726.836	9.38
727.588	11.38
728.34	10.38
729.091	9.38
729.843	9.38
730.594	9.38
731.346	8.38
732.097	11.38
732.848	8.38
733.599	11.38
734.35	9.38
735.101	11.38
735.852	10.38
736.603	10.38
737.354	10.38
738.104	9.38
738.855	11.38
739.605	10.38
740.356	10.38
741.106	8.38
741.856	10.38
742.607	10.38
743.357	12.38
744.107	12.38
744.857	10.38
745.607	11.38
746.357	12.38
747.106	13.38
747.856	9.38
748.606	9.38
749.355	11.38
750.105	13.38
750.854	10.38
751.603	12.38
752.353	13.38
753.102	11.38
753.851	12.38
754.6	13.38
755.349	12.38
756.098	13.38
756.847	13.38
757.595	12.38
758.344	14.38
759.093	12.38
759.841	12.38
760.589	13.38
761.338	14.38
762.086	15.38
762.834	13.38
763.582	13.38
764.331	13.38
765.079	11.38
765.826	19.38
766.574	15.38
767.322	12.38
768.07	16.38
768.817	12.38
769.565	14.38
770.312	15.38
771.06	17.38
771.807	15.38
772.554	15.38
773.302	16.38
774.049	16.38
774.796	12.38
775.543	16.38
776.29	16.38
777.036	17.38
777.783	18.38
778.53	16.38
779.276	17.38
780.023	14.38
780.769	16.38
781.516	18.38
782.262	17.38
783.008	16.38
783.754	15.38
784.5	18.38
785.246	15.38
785.992	17.38
786.738	15.38
787.484	14.38
788.23	16.38
788.975	17.38
789.721	16.38
790.466	17.38
791.212	13.38
791.957	13.38
792.702	13.38
793.447	13.38
794.193	14.38
794.938	15.38
795.683	13.38
796.427	15.38
797.172	14.38
797.917	13.38
798.662	11.38
799.406	12.38
800.151	13.38
800.895	11.38
801.64	12.38
802.384	13.38
803.128	13.38
803.872	11.38
804.616	12.38
805.36	10.38
806.104	10.38
806.848	13.38
807.592	10.38
808.336	12.38
809.079	11.38
809.823	9.38
810.566	8.38
811.31	9.38
812.053	12.38
812.796	10.38
813.539	7.38
814.283	9.38
815.026	10.38
815.769	6.38
816.511	8.38
817.254	8.38
817.997	8.38
818.74	8.38
819.482	10.38
820.225	7.38
820.967	6.38
821.71	7.38
822.452	10.38
823.194	5.38
823.936	7.38
824.678	5.38
825.42	6.38
826.162	9.38
826.904	7.38
827.646	7.38
828.388	5.38
829.129	9.38
829.871	6.38
830.612	6.38
831.354	6.38
832.095	6.38
832.836	5.38
833.577	6.38
834.319	7.38
835.06	7.38
835.801	4.38
836.542	6.38
837.282	4.38
838.023	7.38
838.764	6.38
839.504	5.38
840.245	8.38
840.985	4.38
841.726	3.38
842.466	6.38
843.206	7.38
843.946	7.38
844.687	5.38
845.427	7.38
846.166	3.38
846.906	4.38
847.646	5.38
848.386	6.38
849.125	6.38
849.865	3.38
850.605	3.38
851.344	5.38
852.083	6.38
852.823	7.38
853.562	5.38
854.301	8.38
855.04	4.38
855.779	4.38
856.518	4.38
857.257	4.38
857.995	4.38
858.734	4.38
859.473	3.38
860.211	3.38
860.95	5.38
861.688	3.38
862.426	3.38
863.165	5.38
863.903	2.38
864.641	3.38
865.379	4.38
866.117	4.38
866.855	3.38
867.593	3.38
868.33	2.38
869.068	2.38
869.806	1.38
870.543	3.38
871.28	3.38
872.018	3.38
872.755	0.38
873.492	1.38
874.229	1.38
874.967	2.38
875.703	1.38
876.44	3.38
877.177	1.38
877.914	1.38
878.651	1.38
879.387	1.38
880.124	0.38
880.86	1.38
881.597	3.38
882.333	3.38
883.069	0.38
883.806	2.38
884.542	2.38
885.278	0.38
886.014	3.38
886.749	0.38
887.485	3.38
888.221	1.38
888.957	3.38
889.692	2.38
890.428	2.38
891.163	2.38
891.899	3.38
892.634	3.38
893.369	1.38
894.104	0.38
894.839	2.38
895.574	4.38
896.309	1.38
897.044	3.38
897.779	1.38
898.514	2.38
899.248	0.38
899.983	2.38
900.717	1.38
901.452	3.38
902.186	0.38
902.92	1.38
903.654	3.38
904.389	3.38
905.123	0.38
905.857	1.38
906.59	2.38
907.324	1.38
908.058	2.38
908.792	2.38
909.525	0.38
910.259	2.38
910.992	2.38
911.726	1.38
912.459	1.38
913.192	1.38
913.925	0.38
914.658	2.38
915.391	0.38
916.124	0.38
916.857	3.38
917.59	1.38
918.323	0.38
919.055	1.38
919.788	-0.62
920.521	2.38
921.253	0.38
921.985	-0.62
922.718	3.38
923.45	0.38
924.182	1.38
924.914	-0.62
925.646	1.38
926.378	-0.62
927.11	-0.62
927.841	1.38
928.573	-1.62
929.305	0.38
930.036	1.38
930.768	1.38
931.499	1.38
932.23	1.38
932.962	-1.62
933.693	1.38
934.424	0.38
935.155	1.38
935.886	2.38
936.617	0.38
937.348	-0.62
938.078	1.38
938.809	-1.62
939.54	-1.62
940.27	-0.62
941.001	0.38
941.731	0.38
942.461	0.38
943.191	1.38
943.922	-1.62
944.652	1.38
945.382	0.38
946.112	1.38
946.841	1.38
947.571	-0.62
948.301	2.38
949.031	-0.62
949.76	1.38
950.49	1.38
951.219	-1.62
951.948	2.38
952.678	0.38
953.407	1.38
954.136	0.38
954.865	-2.62
955.594	2.38
956.323	2.38
957.052	1.38
957.78	0.38
958.509	3.38
959.238	-1.62
959.966	0.38
960.695	1.38
961.423	1.38
962.151	2.38
962.88	1.38
963.608	-0.62
964.336	4.38
965.064	2.38
965.792	-0.62
966.52	0.38
967.247	1.38
967.975	1.38
968.703	-1.62
969.43	3.38
970.158	-0.62
970.885	2.38
971.613	2.38
972.34	0.38
973.067	0.38
973.794	0.38
974.521	-0.62
975.248	-1.62
975.975	1.38
976.702	-0.62
977.429	-0.62
978.156	1.38
978.882	0.38
979.609	0.38
980.335	1.38
981.062	1.38
981.788	1.38
982.514	0.38
983.24	-0.62
983.967	1.38
984.693	1.38
985.419	1.38
986.144	2.38
986.87	0.38
987.596	0.38
988.322	2.38
989.047	-0.62
989.773	2.38
990.498	2.38
991.224	-0.62
991.949	1.38
992.674	0.38
993.399	1.38
994.124	1.38
994.849	1.38
995.574	-1.62
996.299	1.38
997.024	1.38
997.749	2.38
998.473	2.38
999.198	1.38
999.922	-0.62
1000.647	0.38
1001.371	1.38
1002.095	-0.62
1002.82	-1.62
1003.544	1.38
1004.268	3.38
1004.992	4.38
1005.716	5.38
1006.439	6.38
1007.163	8.38
1007.887	4.38
1008.611	-3.62
1009.334	1.38
1010.058	1.38
1010.781	1.38
1011.504	2.38
1012.228	0.38
1012.951	0.38
1013.674	-0.62
1014.397	-0.62
1015.12	0.38
