节点500_705_QEPB04081__201__20-48-58-481.txt的数据

Date: Wed Nov 12 20:48:58 CST 2025
User: PC
Spectrometer: QEPB0408
触发模式: 0
积分时间 (秒): 1.000000E-2
Scans to average: 1
启用暗噪声校正: true
启用非线性校正: false
滑动平均宽度: 0
X轴模式: Wavelengths
Number of Pixels in Spectrum: 1044
>>>>>Begin Spectral Data<<<<<
220.843	5.12
221.644	6.12
222.444	5.12
223.244	7.12
224.045	3.12
224.845	6.12
225.645	6.12
226.445	6.12
227.245	7.12
228.045	6.12
228.845	7.12
229.645	7.12
230.444	7.12
231.244	9.12
232.043	9.12
232.843	12.12
233.642	10.12
234.442	7.12
235.241	10.12
236.04	13.12
236.839	11.12
237.638	13.12
238.437	13.12
239.236	9.12
240.035	12.12
240.833	12.12
241.632	8.12
242.43	13.12
243.229	11.12
244.027	11.12
244.826	16.12
245.624	14.12
246.422	13.12
247.22	14.12
248.018	15.12
248.816	13.12
249.614	17.12
250.412	16.12
251.21	14.12
252.007	17.12
252.805	15.12
253.602	19.12
254.4	17.12
255.197	20.12
255.994	20.12
256.791	22.12
257.589	20.12
258.386	19.12
259.183	22.12
259.979	24.12
260.776	25.12
261.573	27.12
262.37	23.12
263.166	28.12
263.963	26.12
264.759	27.12
265.556	27.12
266.352	31.12
267.148	29.12
267.944	29.12
268.74	30.12
269.536	29.12
270.332	31.12
271.128	34.12
271.924	33.12
272.719	36.12
273.515	30.12
274.311	33.12
275.106	35.12
275.901	36.12
276.697	36.12
277.492	38.12
278.287	37.12
279.082	36.12
279.877	36.12
280.672	36.12
281.467	35.12
282.262	37.12
283.056	36.12
283.851	36.12
284.646	32.12
285.44	36.12
286.234	33.12
287.029	33.12
287.823	32.12
288.617	33.12
289.411	33.12
290.205	35.12
290.999	34.12
291.793	37.12
292.587	27.12
293.381	31.12
294.174	30.12
294.968	30.12
295.761	28.12
296.555	27.12
297.348	27.12
298.141	26.12
298.935	29.12
299.728	26.12
300.521	23.12
301.314	27.12
302.107	26.12
302.899	24.12
303.692	22.12
304.485	23.12
305.277	25.12
306.07	22.12
306.862	25.12
307.655	25.12
308.447	24.12
309.239	20.12
310.031	19.12
310.823	19.12
311.615	19.12
312.407	17.12
313.199	15.12
313.991	18.12
314.783	18.12
315.574	15.12
316.366	15.12
317.157	16.12
317.949	14.12
318.74	15.12
319.531	14.12
320.322	14.12
321.113	17.12
321.904	15.12
322.695	13.12
323.486	11.12
324.277	13.12
325.068	13.12
325.858	15.12
326.649	11.12
327.439	14.12
328.23	15.12
329.02	13.12
329.81	15.12
330.6	11.12
331.391	13.12
332.181	14.12
332.971	13.12
333.76	13.12
334.55	10.12
335.34	13.12
336.13	13.12
336.919	12.12
337.709	11.12
338.498	11.12
339.287	13.12
340.077	13.12
340.866	14.12
341.655	10.12
342.444	11.12
343.233	11.12
344.022	9.12
344.811	10.12
345.6	11.12
346.388	9.12
347.177	12.12
347.965	10.12
348.754	10.12
349.542	11.12
350.33	11.12
351.119	11.12
351.907	13.12
352.695	10.12
353.483	9.12
354.271	12.12
355.059	10.12
355.846	13.12
356.634	11.12
357.422	12.12
358.209	11.12
358.997	9.12
359.784	14.12
360.571	10.12
361.359	11.12
362.146	12.12
362.933	8.12
363.72	11.12
364.507	7.12
365.294	11.12
366.081	9.12
366.867	10.12
367.654	11.12
368.44	9.12
369.227	9.12
370.013	10.12
370.8	8.12
371.586	13.12
372.372	9.12
373.158	10.12
373.944	12.12
374.73	9.12
375.516	10.12
376.302	10.12
377.088	9.12
377.873	10.12
378.659	11.12
379.445	10.12
380.23	11.12
381.015	10.12
381.801	10.12
382.586	8.12
383.371	8.12
384.156	12.12
384.941	13.12
385.726	9.12
386.511	12.12
387.296	10.12
388.08	11.12
388.865	13.12
389.649	9.12
390.434	9.12
391.218	12.12
392.003	13.12
392.787	13.12
393.571	12.12
394.355	11.12
395.139	13.12
395.923	12.12
396.707	12.12
397.491	11.12
398.274	12.12
399.058	14.12
399.842	14.12
400.625	13.12
401.408	15.12
402.192	15.12
402.975	15.12
403.758	15.12
404.541	17.12
405.324	16.12
406.107	15.12
406.89	15.12
407.673	15.12
408.456	17.12
409.238	19.12
410.021	15.12
410.803	17.12
411.586	17.12
412.368	19.12
413.151	15.12
413.933	19.12
414.715	17.12
415.497	17.12
416.279	19.12
417.061	17.12
417.843	24.12
418.624	19.12
419.406	20.12
420.188	22.12
420.969	21.12
421.751	26.12
422.532	23.12
423.313	26.12
424.095	25.12
424.876	26.12
425.657	23.12
426.438	26.12
427.219	29.12
428	29.12
428.78	29.12
429.561	29.12
430.342	28.12
431.122	33.12
431.903	30.12
432.683	33.12
433.464	36.12
434.244	36.12
435.024	42.12
435.804	42.12
436.584	45.12
437.364	44.12
438.144	48.12
438.924	55.12
439.704	53.12
440.483	56.12
441.263	60.12
442.042	64.12
442.822	67.12
443.601	76.12
444.38	80.12
445.16	85.12
445.939	89.12
446.718	95.12
447.497	108.12
448.276	118.12
449.054	129.12
449.833	143.12
450.612	155.12
451.391	166.12
452.169	190.12
452.948	210.12
453.726	230.12
454.504	247.12
455.282	287.12
456.061	324.12
456.839	353.12
457.617	392.12
458.395	448.12
459.172	485.12
459.95	552.12
460.728	615.12
461.506	691.12
462.283	770.12
463.061	855.12
463.838	965.12
464.615	1067.12
465.393	1192.12
466.17	1314.12
466.947	1477.12
467.724	1640.12
468.501	1839.12
469.278	2013.12
470.055	2259.12
470.831	2477.12
471.608	2739.12
472.385	3048.12
473.161	3354.12
473.938	3668.12
474.714	4060.12
475.49	4475.12
476.266	4911.12
477.043	5383.12
477.819	5879.12
478.595	6497.12
479.371	7076.12
480.146	7762.12
480.922	8484.12
481.698	9257.12
482.473	10141.12
483.249	11050.12
484.024	11990.12
484.8	12985.12
485.575	14175.12
486.35	15431.12
487.126	16737.12
487.901	18071.12
488.676	19571.12
489.451	21165.12
490.225	22779.12
491	24394.12
491.775	26209.12
492.55	27979.12
493.324	29766.12
494.099	31638.12
494.873	33514.12
495.647	35361.12
496.422	37331.12
497.196	39154.12
497.97	40782.12
498.744	42272.12
499.518	43885.12
500.292	45266.12
501.066	46268.12
501.839	47111.12
502.613	47795.12
503.387	48311.12
504.16	48593.12
504.934	48608.12
505.707	48351.12
506.48	47794.12
507.253	47166.12
508.027	46405.12
508.8	45291.12
509.573	44074.12
510.346	42891.12
511.118	41645.12
511.891	40322.12
512.664	38738.12
513.437	37194.12
514.209	35738.12
514.982	34343.12
515.754	32972.12
516.526	31508.12
517.298	30313.12
518.071	29016.12
518.843	27856.12
519.615	26737.12
520.387	25637.12
521.159	24661.12
521.93	23574.12
522.702	22635.12
523.474	21633.12
524.245	20703.12
525.017	19812.12
525.788	18896.12
526.56	18095.12
527.331	17277.12
528.102	16382.12
528.873	15559.12
529.644	14852.12
530.415	14145.12
531.186	13472.12
531.957	12706.12
532.728	12017.12
533.498	11390.12
534.269	10795.12
535.039	10160.12
535.81	9636.12
536.58	9120.12
537.351	8612.12
538.121	8171.12
538.891	7751.12
539.661	7323.12
540.431	6913.12
541.201	6580.12
541.971	6225.12
542.741	5873.12
543.51	5610.12
544.28	5360.12
545.05	5083.12
545.819	4834.12
546.588	4590.12
547.358	4406.12
548.127	4174.12
548.896	3926.12
549.665	3736.12
550.434	3571.12
551.203	3359.12
551.972	3189.12
552.741	3001.12
553.51	2845.12
554.278	2674.12
555.047	2515.12
555.815	2395.12
556.584	2260.12
557.352	2135.12
558.121	2027.12
558.889	1915.12
559.657	1799.12
560.425	1693.12
561.193	1610.12
561.961	1515.12
562.729	1447.12
563.496	1361.12
564.264	1286.12
565.032	1213.12
565.799	1157.12
566.567	1090.12
567.334	1034.12
568.101	975.12
568.869	917.12
569.636	873.12
570.403	824.12
571.17	782.12
571.937	727.12
572.704	697.12
573.471	662.12
574.237	627.12
575.004	573.12
575.771	542.12
576.537	523.12
577.303	500.12
578.07	470.12
578.836	435.12
579.602	410.12
580.368	386.12
581.134	370.12
581.9	345.12
582.666	327.12
583.432	312.12
584.198	302.12
584.964	288.12
585.729	279.12
586.495	262.12
587.26	249.12
588.025	237.12
588.791	215.12
589.556	210.12
590.321	192.12
591.086	189.12
591.851	184.12
592.616	169.12
593.381	161.12
594.146	153.12
594.911	151.12
595.675	139.12
596.44	134.12
597.204	129.12
597.969	125.12
598.733	121.12
599.497	112.12
600.261	111.12
601.025	104.12
601.79	99.12
602.553	94.12
603.317	89.12
604.081	87.12
604.845	81.12
605.609	82.12
606.372	79.12
607.136	78.12
607.899	72.12
608.662	73.12
609.426	67.12
610.189	68.12
610.952	65.12
611.715	61.12
612.478	61.12
613.241	56.12
614.004	56.12
614.767	58.12
615.529	47.12
616.292	49.12
617.055	47.12
617.817	46.12
618.579	43.12
619.342	41.12
620.104	43.12
620.866	40.12
621.628	37.12
622.39	37.12
623.152	37.12
623.914	36.12
624.676	36.12
625.438	33.12
626.199	32.12
626.961	32.12
627.722	28.12
628.484	30.12
629.245	27.12
630.006	28.12
630.768	30.12
631.529	25.12
632.29	26.12
633.051	23.12
633.812	23.12
634.573	22.12
635.333	22.12
636.094	21.12
636.855	19.12
637.615	21.12
638.376	24.12
639.136	21.12
639.896	22.12
640.657	17.12
641.417	20.12
642.177	18.12
642.937	18.12
643.697	18.12
644.457	15.12
645.216	17.12
645.976	16.12
646.736	18.12
647.495	14.12
648.255	17.12
649.014	18.12
649.774	12.12
650.533	14.12
651.292	15.12
652.051	13.12
652.81	14.12
653.569	14.12
654.328	13.12
655.087	11.12
655.846	15.12
656.604	13.12
657.363	10.12
658.121	12.12
658.88	12.12
659.638	12.12
660.397	10.12
661.155	11.12
661.913	11.12
662.671	10.12
663.429	13.12
664.187	10.12
664.945	10.12
665.703	10.12
666.46	9.12
667.218	8.12
667.976	7.12
668.733	9.12
669.49	9.12
670.248	11.12
671.005	9.12
671.762	10.12
672.519	8.12
673.276	11.12
674.033	11.12
674.79	9.12
675.547	9.12
676.304	9.12
677.06	6.12
677.817	8.12
678.574	8.12
679.33	9.12
680.086	9.12
680.843	7.12
681.599	9.12
682.355	9.12
683.111	8.12
683.867	8.12
684.623	6.12
685.379	9.12
686.135	8.12
686.89	10.12
687.646	8.12
688.402	8.12
689.157	7.12
689.912	7.12
690.668	8.12
691.423	8.12
692.178	7.12
692.933	9.12
693.688	9.12
694.443	7.12
695.198	7.12
695.953	10.12
696.708	7.12
697.462	9.12
698.217	8.12
698.972	7.12
699.726	9.12
700.48	10.12
701.235	8.12
701.989	7.12
702.743	7.12
703.497	7.12
704.251	7.12
705.005	9.12
705.759	8.12
706.513	9.12
707.266	7.12
708.02	7.12
708.774	8.12
709.527	8.12
710.28	8.12
711.034	8.12
711.787	9.12
712.54	5.12
713.293	9.12
714.046	6.12
714.799	10.12
715.552	9.12
716.305	7.12
717.058	7.12
717.81	8.12
718.563	6.12
719.315	8.12
720.068	6.12
720.82	9.12
721.573	10.12
722.325	8.12
723.077	6.12
723.829	8.12
724.581	10.12
725.333	7.12
726.085	9.12
726.836	10.12
727.588	9.12
728.34	10.12
729.091	7.12
729.843	10.12
730.594	7.12
731.346	10.12
732.097	9.12
732.848	9.12
733.599	9.12
734.35	11.12
735.101	8.12
735.852	9.12
736.603	9.12
737.354	11.12
738.104	9.12
738.855	6.12
739.605	11.12
740.356	8.12
741.106	9.12
741.856	11.12
742.607	12.12
743.357	11.12
744.107	9.12
744.857	10.12
745.607	10.12
746.357	10.12
747.106	12.12
747.856	12.12
748.606	13.12
749.355	11.12
750.105	12.12
750.854	8.12
751.603	11.12
752.353	13.12
753.102	12.12
753.851	13.12
754.6	12.12
755.349	11.12
756.098	13.12
756.847	12.12
757.595	13.12
758.344	14.12
759.093	11.12
759.841	11.12
760.589	13.12
761.338	15.12
762.086	13.12
762.834	13.12
763.582	13.12
764.331	13.12
765.079	11.12
765.826	13.12
766.574	15.12
767.322	17.12
768.07	13.12
768.817	15.12
769.565	14.12
770.312	15.12
771.06	15.12
771.807	16.12
772.554	14.12
773.302	18.12
774.049	14.12
774.796	15.12
775.543	15.12
776.29	17.12
777.036	15.12
777.783	18.12
778.53	16.12
779.276	17.12
780.023	15.12
780.769	16.12
781.516	19.12
782.262	17.12
783.008	16.12
783.754	17.12
784.5	13.12
785.246	15.12
785.992	15.12
786.738	14.12
787.484	15.12
788.23	13.12
788.975	16.12
789.721	16.12
790.466	18.12
791.212	13.12
791.957	16.12
792.702	16.12
793.447	12.12
794.193	15.12
794.938	15.12
795.683	13.12
796.427	13.12
797.172	12.12
797.917	14.12
798.662	10.12
799.406	10.12
800.151	12.12
800.895	12.12
801.64	13.12
802.384	11.12
803.128	11.12
803.872	11.12
804.616	12.12
805.36	10.12
806.104	11.12
806.848	9.12
807.592	9.12
808.336	12.12
809.079	11.12
809.823	12.12
810.566	9.12
811.31	9.12
812.053	11.12
812.796	7.12
813.539	9.12
814.283	11.12
815.026	8.12
815.769	8.12
816.511	7.12
817.254	7.12
817.997	10.12
818.74	8.12
819.482	9.12
820.225	8.12
820.967	8.12
821.71	7.12
822.452	8.12
823.194	6.12
823.936	6.12
824.678	8.12
825.42	5.12
826.162	6.12
826.904	5.12
827.646	7.12
828.388	6.12
829.129	6.12
829.871	7.12
830.612	7.12
831.354	9.12
832.095	4.12
832.836	3.12
833.577	7.12
834.319	4.12
835.06	4.12
835.801	3.12
836.542	7.12
837.282	8.12
838.023	5.12
838.764	8.12
839.504	6.12
840.245	5.12
840.985	7.12
841.726	8.12
842.466	3.12
843.206	4.12
843.946	6.12
844.687	5.12
845.427	5.12
846.166	6.12
846.906	4.12
847.646	4.12
848.386	5.12
849.125	7.12
849.865	7.12
850.605	7.12
851.344	6.12
852.083	4.12
852.823	8.12
853.562	3.12
854.301	6.12
855.04	4.12
855.779	5.12
856.518	6.12
857.257	3.12
857.995	2.12
858.734	4.12
859.473	5.12
860.211	3.12
860.95	3.12
861.688	5.12
862.426	2.12
863.165	3.12
863.903	2.12
864.641	5.12
865.379	3.12
866.117	2.12
866.855	1.12
867.593	2.12
868.33	2.12
869.068	2.12
869.806	0.12
870.543	1.12
871.28	1.12
872.018	2.12
872.755	1.12
873.492	2.12
874.229	3.12
874.967	3.12
875.703	3.12
876.44	2.12
877.177	2.12
877.914	0.12
878.651	1.12
879.387	2.12
880.124	2.12
880.86	3.12
881.597	2.12
882.333	1.12
883.069	1.12
883.806	0.12
884.542	4.12
885.278	4.12
886.014	3.12
886.749	2.12
887.485	1.12
888.221	2.12
888.957	3.12
889.692	3.12
890.428	1.12
891.163	0.12
891.899	-0.88
892.634	-0.88
893.369	2.12
894.104	0.12
894.839	1.12
895.574	5.12
896.309	1.12
897.044	0.12
897.779	2.12
898.514	1.12
899.248	2.12
899.983	2.12
900.717	1.12
901.452	-1.88
902.186	4.12
902.92	1.12
903.654	1.12
904.389	1.12
905.123	2.12
905.857	2.12
906.59	0.12
907.324	3.12
908.058	2.12
908.792	2.12
909.525	2.12
910.259	0.12
910.992	2.12
911.726	-0.88
912.459	1.12
913.192	-0.88
913.925	3.12
914.658	1.12
915.391	0.12
916.124	1.12
916.857	0.12
917.59	1.12
918.323	1.12
919.055	-0.88
919.788	0.12
920.521	-1.88
921.253	1.12
921.985	1.12
922.718	0.12
923.45	-0.88
924.182	-0.88
924.914	1.12
925.646	-0.88
926.378	0.12
927.11	1.12
927.841	-0.88
928.573	1.12
929.305	0.12
930.036	-0.88
930.768	-0.88
931.499	1.12
932.23	0.12
932.962	-0.88
933.693	1.12
934.424	-1.88
935.155	1.12
935.886	0.12
936.617	3.12
937.348	1.12
938.078	-0.88
938.809	0.12
939.54	-0.88
940.27	-0.88
941.001	0.12
941.731	-0.88
942.461	1.12
943.191	-0.88
943.922	1.12
944.652	-0.88
945.382	-0.88
946.112	1.12
946.841	1.12
947.571	-0.88
948.301	0.12
949.031	3.12
949.76	0.12
950.49	-0.88
951.219	-0.88
951.948	0.12
952.678	2.12
953.407	1.12
954.136	0.12
954.865	1.12
955.594	-0.88
956.323	-0.88
957.052	0.12
957.78	0.12
958.509	-0.88
959.238	0.12
959.966	2.12
960.695	-0.88
961.423	3.12
962.151	1.12
962.88	0.12
963.608	0.12
964.336	-0.88
965.064	1.12
965.792	-2.88
966.52	1.12
967.247	-0.88
967.975	-0.88
968.703	2.12
969.43	-1.88
970.158	-0.88
970.885	-1.88
971.613	0.12
972.34	0.12
973.067	1.12
973.794	1.12
974.521	0.12
975.248	2.12
975.975	1.12
976.702	1.12
977.429	1.12
978.156	-0.88
978.882	1.12
979.609	-0.88
980.335	-0.88
981.062	-0.88
981.788	-0.88
982.514	1.12
983.24	1.12
983.967	0.12
984.693	1.12
985.419	1.12
986.144	0.12
986.87	0.12
987.596	0.12
988.322	1.12
989.047	1.12
989.773	-0.88
990.498	0.12
991.224	0.12
991.949	0.12
992.674	-0.88
993.399	0.12
994.124	0.12
994.849	-0.88
995.574	1.12
996.299	1.12
997.024	-0.88
997.749	1.12
998.473	-0.88
999.198	2.12
999.922	2.12
1000.647	3.12
1001.371	3.12
1002.095	1.12
1002.82	-2.88
1003.544	1.12
1004.268	5.12
1004.992	6.12
1005.716	2.12
1006.439	5.12
1007.163	8.12
1007.887	8.12
1008.611	0.12
1009.334	0.12
1010.058	-0.88
1010.781	-0.88
1011.504	1.12
1012.228	2.12
1012.951	-0.88
1013.674	0.12
1014.397	-0.88
1015.12	-0.88
