节点500_705_QEPB04081__602__20-54-29-786.txt的数据

Date: Wed Nov 12 20:54:29 CST 2025
User: PC
Spectrometer: QEPB0408
触发模式: 0
积分时间 (秒): 1.000000E-2
Scans to average: 1
启用暗噪声校正: true
启用非线性校正: false
滑动平均宽度: 0
X轴模式: Wavelengths
Number of Pixels in Spectrum: 1044
>>>>>Begin Spectral Data<<<<<
220.843	7.25
221.644	4.25
222.444	5.25
223.244	5.25
224.045	5.25
224.845	5.25
225.645	5.25
226.445	4.25
227.245	3.25
228.045	7.25
228.845	7.25
229.645	5.25
230.444	6.25
231.244	4.25
232.043	9.25
232.843	7.25
233.642	6.25
234.442	8.25
235.241	8.25
236.04	10.25
236.839	8.25
237.638	11.25
238.437	9.25
239.236	8.25
240.035	5.25
240.833	8.25
241.632	11.25
242.43	9.25
243.229	13.25
244.027	11.25
244.826	10.25
245.624	11.25
246.422	10.25
247.22	9.25
248.018	12.25
248.816	12.25
249.614	11.25
250.412	13.25
251.21	12.25
252.007	14.25
252.805	15.25
253.602	13.25
254.4	17.25
255.197	14.25
255.994	19.25
256.791	16.25
257.589	17.25
258.386	14.25
259.183	19.25
259.979	20.25
260.776	19.25
261.573	18.25
262.37	21.25
263.166	18.25
263.963	22.25
264.759	22.25
265.556	21.25
266.352	22.25
267.148	20.25
267.944	23.25
268.74	25.25
269.536	24.25
270.332	25.25
271.128	24.25
271.924	28.25
272.719	27.25
273.515	25.25
274.311	24.25
275.106	28.25
275.901	31.25
276.697	27.25
277.492	31.25
278.287	28.25
279.082	32.25
279.877	31.25
280.672	31.25
281.467	32.25
282.262	27.25
283.056	30.25
283.851	28.25
284.646	32.25
285.44	32.25
286.234	26.25
287.029	30.25
287.823	28.25
288.617	26.25
289.411	32.25
290.205	28.25
290.999	29.25
291.793	28.25
292.587	28.25
293.381	31.25
294.174	28.25
294.968	26.25
295.761	25.25
296.555	26.25
297.348	27.25
298.141	27.25
298.935	25.25
299.728	24.25
300.521	25.25
301.314	20.25
302.107	24.25
302.899	23.25
303.692	21.25
304.485	23.25
305.277	20.25
306.07	21.25
306.862	21.25
307.655	23.25
308.447	20.25
309.239	22.25
310.031	18.25
310.823	18.25
311.615	17.25
312.407	17.25
313.199	19.25
313.991	17.25
314.783	14.25
315.574	15.25
316.366	17.25
317.157	14.25
317.949	15.25
318.74	13.25
319.531	13.25
320.322	15.25
321.113	14.25
321.904	12.25
322.695	13.25
323.486	14.25
324.277	14.25
325.068	17.25
325.858	14.25
326.649	14.25
327.439	12.25
328.23	10.25
329.02	10.25
329.81	12.25
330.6	12.25
331.391	11.25
332.181	10.25
332.971	10.25
333.76	11.25
334.55	10.25
335.34	10.25
336.13	10.25
336.919	11.25
337.709	12.25
338.498	10.25
339.287	11.25
340.077	12.25
340.866	9.25
341.655	8.25
342.444	9.25
343.233	10.25
344.022	12.25
344.811	10.25
345.6	11.25
346.388	8.25
347.177	10.25
347.965	11.25
348.754	8.25
349.542	9.25
350.33	8.25
351.119	10.25
351.907	10.25
352.695	8.25
353.483	8.25
354.271	8.25
355.059	10.25
355.846	10.25
356.634	9.25
357.422	7.25
358.209	8.25
358.997	8.25
359.784	6.25
360.571	9.25
361.359	7.25
362.146	10.25
362.933	10.25
363.72	10.25
364.507	8.25
365.294	7.25
366.081	7.25
366.867	8.25
367.654	7.25
368.44	9.25
369.227	8.25
370.013	9.25
370.8	8.25
371.586	11.25
372.372	8.25
373.158	6.25
373.944	11.25
374.73	8.25
375.516	10.25
376.302	9.25
377.088	8.25
377.873	7.25
378.659	10.25
379.445	9.25
380.23	9.25
381.015	8.25
381.801	6.25
382.586	10.25
383.371	10.25
384.156	6.25
384.941	9.25
385.726	7.25
386.511	11.25
387.296	8.25
388.08	11.25
388.865	10.25
389.649	8.25
390.434	10.25
391.218	10.25
392.003	9.25
392.787	10.25
393.571	9.25
394.355	10.25
395.139	9.25
395.923	11.25
396.707	12.25
397.491	12.25
398.274	13.25
399.058	11.25
399.842	11.25
400.625	11.25
401.408	14.25
402.192	11.25
402.975	13.25
403.758	11.25
404.541	13.25
405.324	15.25
406.107	13.25
406.89	15.25
407.673	13.25
408.456	13.25
409.238	12.25
410.021	14.25
410.803	15.25
411.586	12.25
412.368	15.25
413.151	16.25
413.933	14.25
414.715	14.25
415.497	17.25
416.279	15.25
417.061	19.25
417.843	17.25
418.624	18.25
419.406	17.25
420.188	21.25
420.969	19.25
421.751	21.25
422.532	19.25
423.313	21.25
424.095	23.25
424.876	23.25
425.657	24.25
426.438	24.25
427.219	22.25
428	24.25
428.78	24.25
429.561	27.25
430.342	28.25
431.122	30.25
431.903	32.25
432.683	33.25
433.464	33.25
434.244	38.25
435.024	38.25
435.804	42.25
436.584	45.25
437.364	44.25
438.144	48.25
438.924	52.25
439.704	54.25
440.483	56.25
441.263	64.25
442.042	68.25
442.822	70.25
443.601	77.25
444.38	87.25
445.16	88.25
445.939	96.25
446.718	107.25
447.497	116.25
448.276	132.25
449.054	138.25
449.833	154.25
450.612	169.25
451.391	190.25
452.169	210.25
452.948	230.25
453.726	261.25
454.504	283.25
455.282	316.25
456.061	359.25
456.839	389.25
457.617	446.25
458.395	485.25
459.172	543.25
459.95	602.25
460.728	671.25
461.506	751.25
462.283	820.25
463.061	911.25
463.838	1020.25
464.615	1134.25
465.393	1263.25
466.17	1399.25
466.947	1520.25
467.724	1695.25
468.501	1873.25
469.278	2063.25
470.055	2274.25
470.831	2501.25
471.608	2765.25
472.385	2993.25
473.161	3323.25
473.938	3615.25
474.714	3961.25
475.49	4319.25
476.266	4690.25
477.043	5115.25
477.819	5587.25
478.595	6036.25
479.371	6580.25
480.146	7146.25
480.922	7769.25
481.698	8400.25
482.473	9075.25
483.249	9869.25
484.024	10619.25
484.8	11492.25
485.575	12422.25
486.35	13372.25
487.126	14420.25
487.901	15498.25
488.676	16612.25
489.451	17871.25
490.225	19176.25
491	20573.25
491.775	21957.25
492.55	23352.25
493.324	24914.25
494.099	26438.25
494.873	28002.25
495.647	29572.25
496.422	31099.25
497.196	32795.25
497.97	34337.25
498.744	35740.25
499.518	37322.25
500.292	38610.25
501.066	39696.25
501.839	40760.25
502.613	41637.25
503.387	42364.25
504.16	43083.25
504.934	43567.25
505.707	43700.25
506.48	43663.25
507.253	43509.25
508.027	43204.25
508.8	42520.25
509.573	41829.25
510.346	41104.25
511.118	40379.25
511.891	39430.25
512.664	38052.25
513.437	36898.25
514.209	35704.25
514.982	34377.25
515.754	33146.25
516.526	31879.25
517.298	30683.25
518.071	29507.25
518.843	28466.25
519.615	27292.25
520.387	26200.25
521.159	25178.25
521.93	24185.25
522.702	23195.25
523.474	22286.25
524.245	21344.25
525.017	20432.25
525.788	19591.25
526.56	18803.25
527.331	18045.25
528.102	17152.25
528.873	16314.25
529.644	15623.25
530.415	14900.25
531.186	14219.25
531.957	13487.25
532.728	12869.25
533.498	12234.25
534.269	11604.25
535.039	10996.25
535.81	10422.25
536.58	9861.25
537.351	9330.25
538.121	8796.25
538.891	8354.25
539.661	7930.25
540.431	7487.25
541.201	7123.25
541.971	6725.25
542.741	6387.25
543.51	6034.25
544.28	5783.25
545.05	5480.25
545.819	5216.25
546.588	5016.25
547.358	4790.25
548.127	4521.25
548.896	4298.25
549.665	4087.25
550.434	3866.25
551.203	3699.25
551.972	3490.25
552.741	3318.25
553.51	3112.25
554.278	2962.25
555.047	2790.25
555.815	2655.25
556.584	2492.25
557.352	2350.25
558.121	2243.25
558.889	2108.25
559.657	2007.25
560.425	1889.25
561.193	1784.25
561.961	1716.25
562.729	1618.25
563.496	1519.25
564.264	1438.25
565.032	1358.25
565.799	1289.25
566.567	1223.25
567.334	1151.25
568.101	1077.25
568.869	1020.25
569.636	972.25
570.403	913.25
571.17	862.25
571.937	817.25
572.704	766.25
573.471	738.25
574.237	686.25
575.004	647.25
575.771	615.25
576.537	569.25
577.303	537.25
578.07	506.25
578.836	492.25
579.602	457.25
580.368	435.25
581.134	417.25
581.9	401.25
582.666	371.25
583.432	355.25
584.198	334.25
584.964	323.25
585.729	304.25
586.495	289.25
587.26	274.25
588.025	258.25
588.791	240.25
589.556	229.25
590.321	220.25
591.086	201.25
591.851	199.25
592.616	189.25
593.381	185.25
594.146	167.25
594.911	165.25
595.675	157.25
596.44	151.25
597.204	142.25
597.969	131.25
598.733	137.25
599.497	124.25
600.261	118.25
601.025	112.25
601.79	113.25
602.553	106.25
603.317	99.25
604.081	93.25
604.845	92.25
605.609	92.25
606.372	86.25
607.136	78.25
607.899	78.25
608.662	75.25
609.426	76.25
610.189	67.25
610.952	68.25
611.715	67.25
612.478	62.25
613.241	59.25
614.004	58.25
614.767	54.25
615.529	51.25
616.292	54.25
617.055	50.25
617.817	48.25
618.579	45.25
619.342	45.25
620.104	42.25
620.866	42.25
621.628	40.25
622.39	39.25
623.152	38.25
623.914	37.25
624.676	34.25
625.438	35.25
626.199	32.25
626.961	34.25
627.722	32.25
628.484	29.25
629.245	30.25
630.006	28.25
630.768	29.25
631.529	24.25
632.29	23.25
633.051	24.25
633.812	23.25
634.573	29.25
635.333	24.25
636.094	23.25
636.855	22.25
637.615	21.25
638.376	22.25
639.136	19.25
639.896	21.25
640.657	17.25
641.417	19.25
642.177	20.25
642.937	17.25
643.697	19.25
644.457	18.25
645.216	16.25
645.976	15.25
646.736	16.25
647.495	16.25
648.255	16.25
649.014	15.25
649.774	16.25
650.533	14.25
651.292	14.25
652.051	13.25
652.81	14.25
653.569	13.25
654.328	10.25
655.087	13.25
655.846	10.25
656.604	11.25
657.363	8.25
658.121	11.25
658.88	10.25
659.638	10.25
660.397	11.25
661.155	10.25
661.913	11.25
662.671	10.25
663.429	11.25
664.187	9.25
664.945	11.25
665.703	8.25
666.46	7.25
667.218	9.25
667.976	8.25
668.733	8.25
669.49	8.25
670.248	9.25
671.005	9.25
671.762	9.25
672.519	8.25
673.276	7.25
674.033	8.25
674.79	8.25
675.547	7.25
676.304	7.25
677.06	9.25
677.817	9.25
678.574	10.25
679.33	7.25
680.086	9.25
680.843	7.25
681.599	6.25
682.355	6.25
683.111	7.25
683.867	8.25
684.623	7.25
685.379	7.25
686.135	5.25
686.89	6.25
687.646	7.25
688.402	7.25
689.157	6.25
689.912	7.25
690.668	6.25
691.423	6.25
692.178	6.25
692.933	8.25
693.688	7.25
694.443	7.25
695.198	7.25
695.953	8.25
696.708	6.25
697.462	8.25
698.217	6.25
698.972	6.25
699.726	7.25
700.48	6.25
701.235	8.25
701.989	8.25
702.743	6.25
703.497	7.25
704.251	4.25
705.005	6.25
705.759	5.25
706.513	9.25
707.266	5.25
708.02	7.25
708.774	7.25
709.527	6.25
710.28	7.25
711.034	6.25
711.787	8.25
712.54	6.25
713.293	8.25
714.046	7.25
714.799	5.25
715.552	6.25
716.305	6.25
717.058	7.25
717.81	9.25
718.563	6.25
719.315	9.25
720.068	8.25
720.82	7.25
721.573	8.25
722.325	8.25
723.077	8.25
723.829	5.25
724.581	8.25
725.333	8.25
726.085	9.25
726.836	7.25
727.588	4.25
728.34	8.25
729.091	6.25
729.843	9.25
730.594	7.25
731.346	6.25
732.097	9.25
732.848	9.25
733.599	8.25
734.35	8.25
735.101	7.25
735.852	9.25
736.603	6.25
737.354	7.25
738.104	3.25
738.855	9.25
739.605	7.25
740.356	8.25
741.106	6.25
741.856	7.25
742.607	6.25
743.357	7.25
744.107	8.25
744.857	11.25
745.607	8.25
746.357	10.25
747.106	7.25
747.856	9.25
748.606	10.25
749.355	10.25
750.105	8.25
750.854	7.25
751.603	10.25
752.353	9.25
753.102	12.25
753.851	7.25
754.6	11.25
755.349	10.25
756.098	7.25
756.847	8.25
757.595	9.25
758.344	13.25
759.093	12.25
759.841	11.25
760.589	10.25
761.338	8.25
762.086	12.25
762.834	10.25
763.582	10.25
764.331	10.25
765.079	12.25
765.826	10.25
766.574	11.25
767.322	11.25
768.07	13.25
768.817	12.25
769.565	12.25
770.312	12.25
771.06	12.25
771.807	11.25
772.554	14.25
773.302	13.25
774.049	9.25
774.796	13.25
775.543	12.25
776.29	13.25
777.036	14.25
777.783	13.25
778.53	11.25
779.276	13.25
780.023	15.25
780.769	12.25
781.516	14.25
782.262	13.25
783.008	13.25
783.754	15.25
784.5	14.25
785.246	12.25
785.992	10.25
786.738	13.25
787.484	14.25
788.23	13.25
788.975	14.25
789.721	15.25
790.466	14.25
791.212	15.25
791.957	14.25
792.702	13.25
793.447	10.25
794.193	14.25
794.938	13.25
795.683	12.25
796.427	13.25
797.172	12.25
797.917	11.25
798.662	14.25
799.406	11.25
800.151	14.25
800.895	13.25
801.64	11.25
802.384	10.25
803.128	10.25
803.872	10.25
804.616	9.25
805.36	9.25
806.104	8.25
806.848	10.25
807.592	10.25
808.336	7.25
809.079	8.25
809.823	9.25
810.566	9.25
811.31	9.25
812.053	7.25
812.796	7.25
813.539	7.25
814.283	5.25
815.026	7.25
815.769	7.25
816.511	5.25
817.254	6.25
817.997	8.25
818.74	7.25
819.482	7.25
820.225	8.25
820.967	9.25
821.71	5.25
822.452	8.25
823.194	6.25
823.936	8.25
824.678	5.25
825.42	6.25
826.162	5.25
826.904	6.25
827.646	5.25
828.388	6.25
829.129	6.25
829.871	6.25
830.612	7.25
831.354	6.25
832.095	5.25
832.836	5.25
833.577	5.25
834.319	6.25
835.06	4.25
835.801	7.25
836.542	7.25
837.282	5.25
838.023	5.25
838.764	6.25
839.504	3.25
840.245	4.25
840.985	3.25
841.726	3.25
842.466	6.25
843.206	3.25
843.946	4.25
844.687	2.25
845.427	4.25
846.166	7.25
846.906	4.25
847.646	4.25
848.386	4.25
849.125	5.25
849.865	5.25
850.605	6.25
851.344	3.25
852.083	4.25
852.823	5.25
853.562	1.25
854.301	2.25
855.04	2.25
855.779	4.25
856.518	0.25
857.257	2.25
857.995	4.25
858.734	4.25
859.473	4.25
860.211	2.25
860.95	2.25
861.688	3.25
862.426	2.25
863.165	3.25
863.903	3.25
864.641	3.25
865.379	0.25
866.117	2.25
866.855	3.25
867.593	0.25
868.33	3.25
869.068	1.25
869.806	5.25
870.543	3.25
871.28	1.25
872.018	2.25
872.755	1.25
873.492	0.25
874.229	2.25
874.967	-0.75
875.703	1.25
876.44	2.25
877.177	2.25
877.914	1.25
878.651	1.25
879.387	-0.75
880.124	0.25
880.86	1.25
881.597	-1.75
882.333	0.25
883.069	0.25
883.806	2.25
884.542	1.25
885.278	2.25
886.014	-0.75
886.749	0.25
887.485	0.25
888.221	0.25
888.957	1.25
889.692	1.25
890.428	-0.75
891.163	2.25
891.899	0.25
892.634	1.25
893.369	0.25
894.104	0.25
894.839	1.25
895.574	-1.75
896.309	1.25
897.044	1.25
897.779	-0.75
898.514	2.25
899.248	-0.75
899.983	-0.75
900.717	-1.75
901.452	1.25
902.186	1.25
902.92	-0.75
903.654	1.25
904.389	1.25
905.123	1.25
905.857	-0.75
906.59	0.25
907.324	1.25
908.058	2.25
908.792	1.25
909.525	0.25
910.259	1.25
910.992	0.25
911.726	1.25
912.459	1.25
913.192	-0.75
913.925	2.25
914.658	-0.75
915.391	-0.75
916.124	-1.75
916.857	-0.75
917.59	2.25
918.323	-2.75
919.055	1.25
919.788	-0.75
920.521	0.25
921.253	2.25
921.985	1.25
922.718	0.25
923.45	-0.75
924.182	1.25
924.914	-0.75
925.646	-1.75
926.378	-0.75
927.11	0.25
927.841	-0.75
928.573	1.25
929.305	0.25
930.036	-1.75
930.768	0.25
931.499	0.25
932.23	0.25
932.962	0.25
933.693	-0.75
934.424	0.25
935.155	0.25
935.886	0.25
936.617	2.25
937.348	-2.75
938.078	0.25
938.809	-1.75
939.54	-0.75
940.27	0.25
941.001	-0.75
941.731	-0.75
942.461	-2.75
943.191	-0.75
943.922	-0.75
944.652	0.25
945.382	-0.75
946.112	-1.75
946.841	-0.75
947.571	1.25
948.301	-0.75
949.031	2.25
949.76	2.25
950.49	1.25
951.219	-1.75
951.948	1.25
952.678	1.25
953.407	0.25
954.136	0.25
954.865	-0.75
955.594	0.25
956.323	-0.75
957.052	0.25
957.78	0.25
958.509	0.25
959.238	1.25
959.966	0.25
960.695	0.25
961.423	-1.75
962.151	0.25
962.88	-0.75
963.608	-1.75
964.336	-0.75
965.064	-1.75
965.792	0.25
966.52	2.25
967.247	-1.75
967.975	-0.75
968.703	-1.75
969.43	0.25
970.158	-0.75
970.885	2.25
971.613	2.25
972.34	0.25
973.067	-1.75
973.794	-1.75
974.521	0.25
975.248	-1.75
975.975	0.25
976.702	-0.75
977.429	-2.75
978.156	0.25
978.882	-0.75
979.609	-1.75
980.335	0.25
981.062	0.25
981.788	0.25
982.514	-1.75
983.24	1.25
983.967	0.25
984.693	0.25
985.419	-0.75
986.144	-1.75
986.87	-0.75
987.596	-0.75
988.322	0.25
989.047	-0.75
989.773	0.25
990.498	-0.75
991.224	0.25
991.949	-1.75
992.674	-0.75
993.399	1.25
994.124	-1.75
994.849	0.25
995.574	0.25
996.299	-0.75
997.024	0.25
997.749	1.25
998.473	-0.75
999.198	0.25
999.922	-1.75
1000.647	-1.75
1001.371	4.25
1002.095	-1.75
1002.82	-0.75
1003.544	-1.75
1004.268	3.25
1004.992	4.25
1005.716	2.25
1006.439	3.25
1007.163	5.25
1007.887	8.25
1008.611	-0.75
1009.334	-1.75
1010.058	-0.75
1010.781	1.25
1011.504	0.25
1012.228	-1.75
1012.951	0.25
1013.674	-1.75
1014.397	2.25
1015.12	-0.75
