节点500_705_QEPB04081__119__20-47-52-084.txt的数据

Date: Wed Nov 12 20:47:52 CST 2025
User: PC
Spectrometer: QEPB0408
触发模式: 0
积分时间 (秒): 1.000000E-2
Scans to average: 1
启用暗噪声校正: true
启用非线性校正: false
滑动平均宽度: 0
X轴模式: Wavelengths
Number of Pixels in Spectrum: 1044
>>>>>Begin Spectral Data<<<<<
220.843	7.88
221.644	4.88
222.444	7.88
223.244	5.88
224.045	7.88
224.845	8.88
225.645	5.88
226.445	7.88
227.245	7.88
228.045	7.88
228.845	7.88
229.645	6.88
230.444	8.88
231.244	8.88
232.043	11.88
232.843	9.88
233.642	10.88
234.442	9.88
235.241	8.88
236.04	10.88
236.839	8.88
237.638	10.88
238.437	11.88
239.236	11.88
240.035	11.88
240.833	10.88
241.632	12.88
242.43	13.88
243.229	12.88
244.027	14.88
244.826	13.88
245.624	14.88
246.422	14.88
247.22	14.88
248.018	14.88
248.816	17.88
249.614	13.88
250.412	15.88
251.21	18.88
252.007	18.88
252.805	18.88
253.602	18.88
254.4	20.88
255.197	20.88
255.994	20.88
256.791	20.88
257.589	21.88
258.386	20.88
259.183	22.88
259.979	20.88
260.776	27.88
261.573	25.88
262.37	27.88
263.166	24.88
263.963	24.88
264.759	27.88
265.556	26.88
266.352	29.88
267.148	28.88
267.944	30.88
268.74	34.88
269.536	29.88
270.332	32.88
271.128	31.88
271.924	34.88
272.719	36.88
273.515	35.88
274.311	33.88
275.106	32.88
275.901	33.88
276.697	35.88
277.492	38.88
278.287	37.88
279.082	35.88
279.877	33.88
280.672	34.88
281.467	36.88
282.262	36.88
283.056	36.88
283.851	36.88
284.646	35.88
285.44	32.88
286.234	31.88
287.029	36.88
287.823	33.88
288.617	35.88
289.411	33.88
290.205	31.88
290.999	33.88
291.793	32.88
292.587	32.88
293.381	27.88
294.174	29.88
294.968	30.88
295.761	25.88
296.555	25.88
297.348	26.88
298.141	26.88
298.935	30.88
299.728	26.88
300.521	23.88
301.314	21.88
302.107	23.88
302.899	21.88
303.692	20.88
304.485	20.88
305.277	22.88
306.07	20.88
306.862	22.88
307.655	20.88
308.447	21.88
309.239	18.88
310.031	20.88
310.823	20.88
311.615	17.88
312.407	18.88
313.199	17.88
313.991	15.88
314.783	14.88
315.574	14.88
316.366	17.88
317.157	15.88
317.949	14.88
318.74	14.88
319.531	14.88
320.322	13.88
321.113	13.88
321.904	16.88
322.695	11.88
323.486	10.88
324.277	14.88
325.068	10.88
325.858	11.88
326.649	13.88
327.439	13.88
328.23	13.88
329.02	12.88
329.81	11.88
330.6	13.88
331.391	10.88
332.181	12.88
332.971	15.88
333.76	11.88
334.55	12.88
335.34	12.88
336.13	13.88
336.919	10.88
337.709	10.88
338.498	13.88
339.287	12.88
340.077	13.88
340.866	10.88
341.655	10.88
342.444	12.88
343.233	10.88
344.022	9.88
344.811	13.88
345.6	11.88
346.388	10.88
347.177	8.88
347.965	11.88
348.754	12.88
349.542	10.88
350.33	11.88
351.119	11.88
351.907	12.88
352.695	9.88
353.483	10.88
354.271	11.88
355.059	10.88
355.846	10.88
356.634	12.88
357.422	11.88
358.209	7.88
358.997	10.88
359.784	11.88
360.571	11.88
361.359	10.88
362.146	9.88
362.933	13.88
363.72	8.88
364.507	11.88
365.294	9.88
366.081	11.88
366.867	10.88
367.654	8.88
368.44	12.88
369.227	8.88
370.013	10.88
370.8	6.88
371.586	9.88
372.372	10.88
373.158	9.88
373.944	11.88
374.73	8.88
375.516	10.88
376.302	9.88
377.088	11.88
377.873	12.88
378.659	9.88
379.445	10.88
380.23	9.88
381.015	10.88
381.801	11.88
382.586	11.88
383.371	10.88
384.156	10.88
384.941	10.88
385.726	11.88
386.511	11.88
387.296	8.88
388.08	8.88
388.865	12.88
389.649	13.88
390.434	9.88
391.218	10.88
392.003	11.88
392.787	10.88
393.571	11.88
394.355	12.88
395.139	14.88
395.923	13.88
396.707	11.88
397.491	13.88
398.274	12.88
399.058	13.88
399.842	11.88
400.625	14.88
401.408	11.88
402.192	12.88
402.975	13.88
403.758	14.88
404.541	14.88
405.324	14.88
406.107	16.88
406.89	14.88
407.673	18.88
408.456	16.88
409.238	18.88
410.021	16.88
410.803	15.88
411.586	18.88
412.368	14.88
413.151	15.88
413.933	15.88
414.715	17.88
415.497	18.88
416.279	18.88
417.061	19.88
417.843	17.88
418.624	19.88
419.406	22.88
420.188	22.88
420.969	22.88
421.751	23.88
422.532	25.88
423.313	22.88
424.095	21.88
424.876	23.88
425.657	22.88
426.438	25.88
427.219	26.88
428	25.88
428.78	30.88
429.561	31.88
430.342	32.88
431.122	28.88
431.903	35.88
432.683	34.88
433.464	37.88
434.244	35.88
435.024	37.88
435.804	43.88
436.584	42.88
437.364	44.88
438.144	48.88
438.924	49.88
439.704	52.88
440.483	55.88
441.263	57.88
442.042	61.88
442.822	66.88
443.601	70.88
444.38	74.88
445.16	80.88
445.939	89.88
446.718	96.88
447.497	108.88
448.276	117.88
449.054	129.88
449.833	142.88
450.612	154.88
451.391	168.88
452.169	181.88
452.948	206.88
453.726	228.88
454.504	250.88
455.282	279.88
456.061	313.88
456.839	345.88
457.617	389.88
458.395	436.88
459.172	488.88
459.95	547.88
460.728	604.88
461.506	673.88
462.283	758.88
463.061	841.88
463.838	942.88
464.615	1054.88
465.393	1177.88
466.17	1309.88
466.947	1457.88
467.724	1642.88
468.501	1806.88
469.278	2007.88
470.055	2244.88
470.831	2467.88
471.608	2736.88
472.385	3026.88
473.161	3353.88
473.938	3680.88
474.714	4065.88
475.49	4484.88
476.266	4945.88
477.043	5447.88
477.819	5997.88
478.595	6563.88
479.371	7184.88
480.146	7888.88
480.922	8633.88
481.698	9459.88
482.473	10337.88
483.249	11230.88
484.024	12272.88
484.8	13404.88
485.575	14496.88
486.35	15803.88
487.126	17188.88
487.901	18590.88
488.676	20165.88
489.451	21802.88
490.225	23494.88
491	25194.88
491.775	27031.88
492.55	28933.88
493.324	30840.88
494.099	32678.88
494.873	34629.88
495.647	36578.88
496.422	38540.88
497.196	40416.88
497.97	42064.88
498.744	43576.88
499.518	45196.88
500.292	46510.88
501.066	47454.88
501.839	48239.88
502.613	48879.88
503.387	49309.88
504.16	49631.88
504.934	49483.88
505.707	49133.88
506.48	48519.88
507.253	47833.88
508.027	46856.88
508.8	45679.88
509.573	44425.88
510.346	43075.88
511.118	41846.88
511.891	40420.88
512.664	38833.88
513.437	37279.88
514.209	35681.88
514.982	34266.88
515.754	32803.88
516.526	31373.88
517.298	30130.88
518.071	28907.88
518.843	27713.88
519.615	26624.88
520.387	25602.88
521.159	24564.88
521.93	23537.88
522.702	22495.88
523.474	21596.88
524.245	20663.88
525.017	19670.88
525.788	18777.88
526.56	18008.88
527.331	17127.88
528.102	16260.88
528.873	15408.88
529.644	14651.88
530.415	14019.88
531.186	13278.88
531.957	12604.88
532.728	11879.88
533.498	11266.88
534.269	10651.88
535.039	10034.88
535.81	9492.88
536.58	8974.88
537.351	8520.88
538.121	8085.88
538.891	7609.88
539.661	7221.88
540.431	6836.88
541.201	6505.88
541.971	6122.88
542.741	5829.88
543.51	5528.88
544.28	5254.88
545.05	4993.88
545.819	4791.88
546.588	4560.88
547.358	4308.88
548.127	4110.88
548.896	3899.88
549.665	3677.88
550.434	3462.88
551.203	3301.88
551.972	3145.88
552.741	2968.88
553.51	2807.88
554.278	2626.88
555.047	2482.88
555.815	2352.88
556.584	2218.88
557.352	2094.88
558.121	1977.88
558.889	1861.88
559.657	1787.88
560.425	1688.88
561.193	1567.88
561.961	1507.88
562.729	1425.88
563.496	1340.88
564.264	1254.88
565.032	1204.88
565.799	1138.88
566.567	1075.88
567.334	1015.88
568.101	963.88
568.869	898.88
569.636	842.88
570.403	811.88
571.17	759.88
571.937	715.88
572.704	681.88
573.471	643.88
574.237	599.88
575.004	571.88
575.771	540.88
576.537	510.88
577.303	477.88
578.07	457.88
578.836	421.88
579.602	403.88
580.368	387.88
581.134	365.88
581.9	343.88
582.666	332.88
583.432	311.88
584.198	291.88
584.964	288.88
585.729	269.88
586.495	256.88
587.26	238.88
588.025	224.88
588.791	222.88
589.556	213.88
590.321	196.88
591.086	190.88
591.851	171.88
592.616	169.88
593.381	157.88
594.146	154.88
594.911	147.88
595.675	143.88
596.44	136.88
597.204	124.88
597.969	125.88
598.733	116.88
599.497	111.88
600.261	106.88
601.025	102.88
601.79	98.88
602.553	92.88
603.317	94.88
604.081	84.88
604.845	84.88
605.609	79.88
606.372	76.88
607.136	76.88
607.899	70.88
608.662	66.88
609.426	66.88
610.189	62.88
610.952	60.88
611.715	57.88
612.478	57.88
613.241	60.88
614.004	53.88
614.767	46.88
615.529	49.88
616.292	47.88
617.055	46.88
617.817	42.88
618.579	41.88
619.342	39.88
620.104	39.88
620.866	39.88
621.628	35.88
622.39	36.88
623.152	35.88
623.914	32.88
624.676	33.88
625.438	35.88
626.199	32.88
626.961	32.88
627.722	30.88
628.484	28.88
629.245	29.88
630.006	27.88
630.768	26.88
631.529	26.88
632.29	24.88
633.051	25.88
633.812	22.88
634.573	22.88
635.333	22.88
636.094	21.88
636.855	21.88
637.615	22.88
638.376	18.88
639.136	22.88
639.896	18.88
640.657	18.88
641.417	20.88
642.177	21.88
642.937	15.88
643.697	17.88
644.457	17.88
645.216	20.88
645.976	18.88
646.736	16.88
647.495	15.88
648.255	16.88
649.014	11.88
649.774	14.88
650.533	12.88
651.292	13.88
652.051	12.88
652.81	11.88
653.569	12.88
654.328	10.88
655.087	14.88
655.846	12.88
656.604	14.88
657.363	12.88
658.121	12.88
658.88	11.88
659.638	11.88
660.397	10.88
661.155	9.88
661.913	11.88
662.671	10.88
663.429	9.88
664.187	12.88
664.945	9.88
665.703	9.88
666.46	12.88
667.218	14.88
667.976	11.88
668.733	9.88
669.49	8.88
670.248	10.88
671.005	8.88
671.762	9.88
672.519	10.88
673.276	10.88
674.033	10.88
674.79	7.88
675.547	8.88
676.304	7.88
677.06	8.88
677.817	7.88
678.574	8.88
679.33	8.88
680.086	7.88
680.843	7.88
681.599	7.88
682.355	7.88
683.111	9.88
683.867	9.88
684.623	7.88
685.379	7.88
686.135	10.88
686.89	6.88
687.646	8.88
688.402	9.88
689.157	7.88
689.912	7.88
690.668	5.88
691.423	9.88
692.178	7.88
692.933	8.88
693.688	6.88
694.443	7.88
695.198	7.88
695.953	7.88
696.708	6.88
697.462	7.88
698.217	5.88
698.972	9.88
699.726	7.88
700.48	7.88
701.235	6.88
701.989	6.88
702.743	8.88
703.497	4.88
704.251	7.88
705.005	6.88
705.759	8.88
706.513	9.88
707.266	6.88
708.02	4.88
708.774	7.88
709.527	7.88
710.28	6.88
711.034	5.88
711.787	6.88
712.54	7.88
713.293	6.88
714.046	9.88
714.799	6.88
715.552	9.88
716.305	8.88
717.058	7.88
717.81	8.88
718.563	7.88
719.315	5.88
720.068	8.88
720.82	8.88
721.573	7.88
722.325	9.88
723.077	7.88
723.829	9.88
724.581	7.88
725.333	8.88
726.085	7.88
726.836	8.88
727.588	9.88
728.34	9.88
729.091	8.88
729.843	9.88
730.594	9.88
731.346	9.88
732.097	8.88
732.848	9.88
733.599	8.88
734.35	10.88
735.101	6.88
735.852	9.88
736.603	10.88
737.354	9.88
738.104	10.88
738.855	8.88
739.605	10.88
740.356	10.88
741.106	9.88
741.856	9.88
742.607	12.88
743.357	12.88
744.107	9.88
744.857	8.88
745.607	9.88
746.357	9.88
747.106	10.88
747.856	11.88
748.606	10.88
749.355	9.88
750.105	11.88
750.854	11.88
751.603	11.88
752.353	13.88
753.102	14.88
753.851	12.88
754.6	13.88
755.349	11.88
756.098	12.88
756.847	11.88
757.595	12.88
758.344	12.88
759.093	14.88
759.841	11.88
760.589	14.88
761.338	14.88
762.086	11.88
762.834	13.88
763.582	12.88
764.331	11.88
765.079	13.88
765.826	15.88
766.574	11.88
767.322	12.88
768.07	15.88
768.817	14.88
769.565	15.88
770.312	17.88
771.06	15.88
771.807	14.88
772.554	14.88
773.302	14.88
774.049	17.88
774.796	14.88
775.543	18.88
776.29	14.88
777.036	18.88
777.783	14.88
778.53	15.88
779.276	16.88
780.023	15.88
780.769	17.88
781.516	16.88
782.262	16.88
783.008	16.88
783.754	16.88
784.5	15.88
785.246	18.88
785.992	16.88
786.738	15.88
787.484	16.88
788.23	14.88
788.975	12.88
789.721	17.88
790.466	14.88
791.212	14.88
791.957	16.88
792.702	12.88
793.447	16.88
794.193	13.88
794.938	14.88
795.683	12.88
796.427	14.88
797.172	12.88
797.917	11.88
798.662	13.88
799.406	14.88
800.151	11.88
800.895	12.88
801.64	12.88
802.384	11.88
803.128	9.88
803.872	12.88
804.616	11.88
805.36	11.88
806.104	8.88
806.848	10.88
807.592	9.88
808.336	12.88
809.079	9.88
809.823	9.88
810.566	10.88
811.31	9.88
812.053	9.88
812.796	8.88
813.539	7.88
814.283	8.88
815.026	7.88
815.769	7.88
816.511	10.88
817.254	6.88
817.997	8.88
818.74	9.88
819.482	8.88
820.225	8.88
820.967	6.88
821.71	7.88
822.452	5.88
823.194	7.88
823.936	7.88
824.678	7.88
825.42	7.88
826.162	8.88
826.904	4.88
827.646	7.88
828.388	6.88
829.129	8.88
829.871	4.88
830.612	5.88
831.354	6.88
832.095	6.88
832.836	6.88
833.577	7.88
834.319	5.88
835.06	4.88
835.801	6.88
836.542	4.88
837.282	3.88
838.023	4.88
838.764	4.88
839.504	5.88
840.245	4.88
840.985	6.88
841.726	7.88
842.466	5.88
843.206	5.88
843.946	3.88
844.687	6.88
845.427	4.88
846.166	4.88
846.906	4.88
847.646	5.88
848.386	4.88
849.125	4.88
849.865	7.88
850.605	4.88
851.344	2.88
852.083	3.88
852.823	2.88
853.562	3.88
854.301	4.88
855.04	4.88
855.779	5.88
856.518	5.88
857.257	3.88
857.995	3.88
858.734	2.88
859.473	4.88
860.211	3.88
860.95	2.88
861.688	3.88
862.426	1.88
863.165	1.88
863.903	5.88
864.641	3.88
865.379	2.88
866.117	4.88
866.855	2.88
867.593	2.88
868.33	3.88
869.068	4.88
869.806	2.88
870.543	1.88
871.28	0.88
872.018	0.88
872.755	1.88
873.492	3.88
874.229	2.88
874.967	2.88
875.703	-0.12
876.44	0.88
877.177	0.88
877.914	-0.12
878.651	3.88
879.387	2.88
880.124	3.88
880.86	-1.12
881.597	0.88
882.333	1.88
883.069	1.88
883.806	0.88
884.542	-0.12
885.278	-0.12
886.014	0.88
886.749	1.88
887.485	0.88
888.221	3.88
888.957	1.88
889.692	-0.12
890.428	-0.12
891.163	0.88
891.899	2.88
892.634	-0.12
893.369	0.88
894.104	0.88
894.839	0.88
895.574	0.88
896.309	-0.12
897.044	0.88
897.779	2.88
898.514	-0.12
899.248	0.88
899.983	1.88
900.717	0.88
901.452	0.88
902.186	0.88
902.92	0.88
903.654	-0.12
904.389	0.88
905.123	0.88
905.857	0.88
906.59	-0.12
907.324	0.88
908.058	-0.12
908.792	2.88
909.525	0.88
910.259	-0.12
910.992	0.88
911.726	1.88
912.459	-0.12
913.192	2.88
913.925	0.88
914.658	1.88
915.391	2.88
916.124	-0.12
916.857	2.88
917.59	0.88
918.323	0.88
919.055	1.88
919.788	-0.12
920.521	2.88
921.253	1.88
921.985	2.88
922.718	1.88
923.45	2.88
924.182	-0.12
924.914	-0.12
925.646	0.88
926.378	0.88
927.11	-1.12
927.841	-1.12
928.573	0.88
929.305	0.88
930.036	-1.12
930.768	-0.12
931.499	-1.12
932.23	0.88
932.962	-1.12
933.693	-1.12
934.424	1.88
935.155	-0.12
935.886	0.88
936.617	0.88
937.348	-1.12
938.078	1.88
938.809	1.88
939.54	0.88
940.27	-0.12
941.001	3.88
941.731	-1.12
942.461	0.88
943.191	-0.12
943.922	-1.12
944.652	-1.12
945.382	0.88
946.112	-0.12
946.841	-0.12
947.571	-0.12
948.301	1.88
949.031	0.88
949.76	0.88
950.49	-0.12
951.219	-1.12
951.948	0.88
952.678	-1.12
953.407	-0.12
954.136	-0.12
954.865	1.88
955.594	-0.12
956.323	0.88
957.052	-0.12
957.78	-1.12
958.509	-0.12
959.238	-2.12
959.966	1.88
960.695	0.88
961.423	-0.12
962.151	0.88
962.88	0.88
963.608	-1.12
964.336	1.88
965.064	0.88
965.792	-4.12
966.52	-0.12
967.247	2.88
967.975	-1.12
968.703	-0.12
969.43	2.88
970.158	1.88
970.885	-1.12
971.613	-2.12
972.34	1.88
973.067	1.88
973.794	-1.12
974.521	-0.12
975.248	1.88
975.975	1.88
976.702	0.88
977.429	-0.12
978.156	-1.12
978.882	-1.12
979.609	0.88
980.335	-0.12
981.062	2.88
981.788	-0.12
982.514	-2.12
983.24	0.88
983.967	-1.12
984.693	-1.12
985.419	-1.12
986.144	-1.12
986.87	-1.12
987.596	0.88
988.322	0.88
989.047	1.88
989.773	-0.12
990.498	0.88
991.224	0.88
991.949	-1.12
992.674	-0.12
993.399	-0.12
994.124	0.88
994.849	0.88
995.574	-1.12
996.299	0.88
997.024	-0.12
997.749	-2.12
998.473	-0.12
999.198	-1.12
999.922	0.88
1000.647	0.88
1001.371	4.88
1002.095	-1.12
1002.82	0.88
1003.544	-2.12
1004.268	3.88
1004.992	2.88
1005.716	2.88
1006.439	6.88
1007.163	6.88
1007.887	4.88
1008.611	0.88
1009.334	-1.12
1010.058	2.88
1010.781	-0.12
1011.504	-1.12
1012.228	0.88
1012.951	-1.12
1013.674	0.88
1014.397	-1.12
1015.12	-1.12
