节点500_705_QEPB04081__493__20-52-53-772.txt的数据

Date: Wed Nov 12 20:52:53 CST 2025
User: PC
Spectrometer: QEPB0408
触发模式: 0
积分时间 (秒): 1.000000E-2
Scans to average: 1
启用暗噪声校正: true
启用非线性校正: false
滑动平均宽度: 0
X轴模式: Wavelengths
Number of Pixels in Spectrum: 1044
>>>>>Begin Spectral Data<<<<<
220.843	7.38
221.644	5.38
222.444	5.38
223.244	5.38
224.045	5.38
224.845	6.38
225.645	5.38
226.445	5.38
227.245	7.38
228.045	6.38
228.845	7.38
229.645	6.38
230.444	11.38
231.244	8.38
232.043	7.38
232.843	6.38
233.642	9.38
234.442	8.38
235.241	9.38
236.04	12.38
236.839	10.38
237.638	10.38
238.437	11.38
239.236	9.38
240.035	8.38
240.833	10.38
241.632	12.38
242.43	14.38
243.229	12.38
244.027	12.38
244.826	14.38
245.624	9.38
246.422	15.38
247.22	15.38
248.018	14.38
248.816	14.38
249.614	16.38
250.412	14.38
251.21	18.38
252.007	15.38
252.805	15.38
253.602	14.38
254.4	15.38
255.197	19.38
255.994	18.38
256.791	16.38
257.589	17.38
258.386	18.38
259.183	21.38
259.979	22.38
260.776	21.38
261.573	19.38
262.37	23.38
263.166	23.38
263.963	25.38
264.759	24.38
265.556	26.38
266.352	25.38
267.148	26.38
267.944	25.38
268.74	26.38
269.536	28.38
270.332	27.38
271.128	30.38
271.924	28.38
272.719	32.38
273.515	31.38
274.311	31.38
275.106	31.38
275.901	29.38
276.697	33.38
277.492	33.38
278.287	28.38
279.082	34.38
279.877	29.38
280.672	34.38
281.467	33.38
282.262	36.38
283.056	30.38
283.851	33.38
284.646	35.38
285.44	34.38
286.234	29.38
287.029	36.38
287.823	32.38
288.617	31.38
289.411	31.38
290.205	31.38
290.999	32.38
291.793	30.38
292.587	28.38
293.381	30.38
294.174	31.38
294.968	26.38
295.761	27.38
296.555	28.38
297.348	24.38
298.141	27.38
298.935	27.38
299.728	27.38
300.521	27.38
301.314	22.38
302.107	23.38
302.899	23.38
303.692	20.38
304.485	21.38
305.277	22.38
306.07	22.38
306.862	23.38
307.655	20.38
308.447	19.38
309.239	22.38
310.031	19.38
310.823	17.38
311.615	19.38
312.407	16.38
313.199	18.38
313.991	13.38
314.783	17.38
315.574	16.38
316.366	15.38
317.157	16.38
317.949	13.38
318.74	16.38
319.531	17.38
320.322	13.38
321.113	13.38
321.904	14.38
322.695	12.38
323.486	11.38
324.277	11.38
325.068	13.38
325.858	13.38
326.649	15.38
327.439	12.38
328.23	12.38
329.02	14.38
329.81	14.38
330.6	10.38
331.391	12.38
332.181	13.38
332.971	10.38
333.76	11.38
334.55	9.38
335.34	13.38
336.13	11.38
336.919	11.38
337.709	11.38
338.498	13.38
339.287	12.38
340.077	11.38
340.866	13.38
341.655	11.38
342.444	12.38
343.233	10.38
344.022	10.38
344.811	11.38
345.6	10.38
346.388	11.38
347.177	10.38
347.965	12.38
348.754	11.38
349.542	11.38
350.33	7.38
351.119	10.38
351.907	10.38
352.695	10.38
353.483	10.38
354.271	10.38
355.059	10.38
355.846	11.38
356.634	12.38
357.422	9.38
358.209	12.38
358.997	11.38
359.784	8.38
360.571	12.38
361.359	10.38
362.146	8.38
362.933	8.38
363.72	9.38
364.507	11.38
365.294	8.38
366.081	11.38
366.867	10.38
367.654	6.38
368.44	10.38
369.227	9.38
370.013	10.38
370.8	8.38
371.586	10.38
372.372	9.38
373.158	7.38
373.944	7.38
374.73	10.38
375.516	11.38
376.302	7.38
377.088	9.38
377.873	11.38
378.659	10.38
379.445	12.38
380.23	11.38
381.015	10.38
381.801	10.38
382.586	9.38
383.371	8.38
384.156	10.38
384.941	10.38
385.726	10.38
386.511	12.38
387.296	10.38
388.08	10.38
388.865	12.38
389.649	10.38
390.434	10.38
391.218	9.38
392.003	10.38
392.787	9.38
393.571	13.38
394.355	13.38
395.139	12.38
395.923	12.38
396.707	16.38
397.491	11.38
398.274	12.38
399.058	12.38
399.842	13.38
400.625	13.38
401.408	12.38
402.192	13.38
402.975	14.38
403.758	16.38
404.541	13.38
405.324	15.38
406.107	16.38
406.89	15.38
407.673	15.38
408.456	14.38
409.238	14.38
410.021	15.38
410.803	15.38
411.586	15.38
412.368	15.38
413.151	17.38
413.933	17.38
414.715	18.38
415.497	18.38
416.279	18.38
417.061	20.38
417.843	18.38
418.624	19.38
419.406	22.38
420.188	21.38
420.969	20.38
421.751	19.38
422.532	21.38
423.313	21.38
424.095	25.38
424.876	25.38
425.657	24.38
426.438	23.38
427.219	27.38
428	29.38
428.78	25.38
429.561	31.38
430.342	27.38
431.122	29.38
431.903	29.38
432.683	32.38
433.464	35.38
434.244	36.38
435.024	39.38
435.804	40.38
436.584	42.38
437.364	43.38
438.144	43.38
438.924	50.38
439.704	51.38
440.483	53.38
441.263	59.38
442.042	65.38
442.822	69.38
443.601	77.38
444.38	80.38
445.16	87.38
445.939	98.38
446.718	104.38
447.497	115.38
448.276	129.38
449.054	141.38
449.833	154.38
450.612	166.38
451.391	186.38
452.169	209.38
452.948	224.38
453.726	254.38
454.504	274.38
455.282	306.38
456.061	346.38
456.839	380.38
457.617	431.38
458.395	474.38
459.172	525.38
459.95	597.38
460.728	662.38
461.506	730.38
462.283	808.38
463.061	907.38
463.838	1011.38
464.615	1126.38
465.393	1232.38
466.17	1379.38
466.947	1534.38
467.724	1685.38
468.501	1874.38
469.278	2063.38
470.055	2263.38
470.831	2506.38
471.608	2744.38
472.385	3028.38
473.161	3336.38
473.938	3646.38
474.714	3994.38
475.49	4372.38
476.266	4771.38
477.043	5151.38
477.819	5655.38
478.595	6168.38
479.371	6734.38
480.146	7279.38
480.922	7951.38
481.698	8627.38
482.473	9361.38
483.249	10143.38
484.024	11008.38
484.8	11887.38
485.575	12822.38
486.35	13882.38
487.126	14998.38
487.901	16156.38
488.676	17457.38
489.451	18750.38
490.225	20083.38
491	21497.38
491.775	23007.38
492.55	24577.38
493.324	26117.38
494.099	27793.38
494.873	29451.38
495.647	31105.38
496.422	32720.38
497.196	34405.38
497.97	36022.38
498.744	37433.38
499.518	39054.38
500.292	40413.38
501.066	41354.38
501.839	42465.38
502.613	43319.38
503.387	44000.38
504.16	44535.38
504.934	44855.38
505.707	45043.38
506.48	44813.38
507.253	44542.38
508.027	44170.38
508.8	43315.38
509.573	42580.38
510.346	41790.38
511.118	40818.38
511.891	39811.38
512.664	38427.38
513.437	37026.38
514.209	35795.38
514.982	34540.38
515.754	33151.38
516.526	31739.38
517.298	30582.38
518.071	29438.38
518.843	28274.38
519.615	27113.38
520.387	26089.38
521.159	25068.38
521.93	24038.38
522.702	23093.38
523.474	22044.38
524.245	21221.38
525.017	20308.38
525.788	19454.38
526.56	18607.38
527.331	17848.38
528.102	16920.38
528.873	16102.38
529.644	15402.38
530.415	14648.38
531.186	14028.38
531.957	13269.38
532.728	12618.38
533.498	11994.38
534.269	11351.38
535.039	10748.38
535.81	10169.38
536.58	9638.38
537.351	9123.38
538.121	8668.38
538.891	8176.38
539.661	7782.38
540.431	7338.38
541.201	6957.38
541.971	6602.38
542.741	6250.38
543.51	5937.38
544.28	5647.38
545.05	5373.38
545.819	5125.38
546.588	4862.38
547.358	4667.38
548.127	4418.38
548.896	4190.38
549.665	4007.38
550.434	3782.38
551.203	3617.38
551.972	3410.38
552.741	3258.38
553.51	3047.38
554.278	2870.38
555.047	2710.38
555.815	2579.38
556.584	2434.38
557.352	2292.38
558.121	2177.38
558.889	2057.38
559.657	1963.38
560.425	1846.38
561.193	1737.38
561.961	1659.38
562.729	1564.38
563.496	1478.38
564.264	1393.38
565.032	1324.38
565.799	1236.38
566.567	1166.38
567.334	1109.38
568.101	1061.38
568.869	999.38
569.636	943.38
570.403	881.38
571.17	833.38
571.937	798.38
572.704	737.38
573.471	699.38
574.237	665.38
575.004	635.38
575.771	594.38
576.537	551.38
577.303	526.38
578.07	508.38
578.836	470.38
579.602	451.38
580.368	422.38
581.134	408.38
581.9	381.38
582.666	370.38
583.432	348.38
584.198	326.38
584.964	313.38
585.729	299.38
586.495	280.38
587.26	259.38
588.025	253.38
588.791	239.38
589.556	222.38
590.321	210.38
591.086	209.38
591.851	191.38
592.616	184.38
593.381	176.38
594.146	166.38
594.911	155.38
595.675	153.38
596.44	148.38
597.204	134.38
597.969	137.38
598.733	126.38
599.497	121.38
600.261	118.38
601.025	111.38
601.79	112.38
602.553	106.38
603.317	97.38
604.081	97.38
604.845	90.38
605.609	86.38
606.372	86.38
607.136	79.38
607.899	78.38
608.662	76.38
609.426	70.38
610.189	62.38
610.952	66.38
611.715	66.38
612.478	58.38
613.241	58.38
614.004	56.38
614.767	56.38
615.529	53.38
616.292	50.38
617.055	47.38
617.817	48.38
618.579	48.38
619.342	43.38
620.104	46.38
620.866	42.38
621.628	39.38
622.39	38.38
623.152	37.38
623.914	38.38
624.676	32.38
625.438	34.38
626.199	35.38
626.961	33.38
627.722	31.38
628.484	32.38
629.245	27.38
630.006	31.38
630.768	27.38
631.529	28.38
632.29	23.38
633.051	27.38
633.812	22.38
634.573	25.38
635.333	22.38
636.094	24.38
636.855	22.38
637.615	23.38
638.376	21.38
639.136	20.38
639.896	22.38
640.657	19.38
641.417	17.38
642.177	19.38
642.937	18.38
643.697	18.38
644.457	16.38
645.216	14.38
645.976	14.38
646.736	16.38
647.495	19.38
648.255	14.38
649.014	15.38
649.774	19.38
650.533	15.38
651.292	15.38
652.051	13.38
652.81	15.38
653.569	15.38
654.328	13.38
655.087	13.38
655.846	14.38
656.604	15.38
657.363	14.38
658.121	13.38
658.88	12.38
659.638	10.38
660.397	13.38
661.155	11.38
661.913	10.38
662.671	11.38
663.429	11.38
664.187	11.38
664.945	10.38
665.703	12.38
666.46	9.38
667.218	11.38
667.976	9.38
668.733	9.38
669.49	8.38
670.248	8.38
671.005	11.38
671.762	9.38
672.519	10.38
673.276	8.38
674.033	8.38
674.79	8.38
675.547	10.38
676.304	9.38
677.06	9.38
677.817	8.38
678.574	9.38
679.33	9.38
680.086	9.38
680.843	9.38
681.599	6.38
682.355	8.38
683.111	8.38
683.867	7.38
684.623	7.38
685.379	8.38
686.135	8.38
686.89	7.38
687.646	10.38
688.402	7.38
689.157	8.38
689.912	5.38
690.668	11.38
691.423	9.38
692.178	6.38
692.933	10.38
693.688	7.38
694.443	9.38
695.198	10.38
695.953	7.38
696.708	8.38
697.462	8.38
698.217	7.38
698.972	4.38
699.726	6.38
700.48	8.38
701.235	8.38
701.989	7.38
702.743	7.38
703.497	9.38
704.251	6.38
705.005	8.38
705.759	10.38
706.513	10.38
707.266	9.38
708.02	7.38
708.774	9.38
709.527	9.38
710.28	7.38
711.034	6.38
711.787	6.38
712.54	9.38
713.293	6.38
714.046	7.38
714.799	7.38
715.552	7.38
716.305	9.38
717.058	5.38
717.81	8.38
718.563	6.38
719.315	10.38
720.068	8.38
720.82	10.38
721.573	9.38
722.325	7.38
723.077	10.38
723.829	7.38
724.581	8.38
725.333	7.38
726.085	8.38
726.836	8.38
727.588	9.38
728.34	6.38
729.091	7.38
729.843	9.38
730.594	10.38
731.346	7.38
732.097	8.38
732.848	8.38
733.599	8.38
734.35	8.38
735.101	12.38
735.852	8.38
736.603	9.38
737.354	9.38
738.104	9.38
738.855	10.38
739.605	11.38
740.356	8.38
741.106	11.38
741.856	10.38
742.607	12.38
743.357	9.38
744.107	11.38
744.857	9.38
745.607	11.38
746.357	12.38
747.106	10.38
747.856	12.38
748.606	9.38
749.355	13.38
750.105	10.38
750.854	11.38
751.603	11.38
752.353	10.38
753.102	10.38
753.851	12.38
754.6	11.38
755.349	12.38
756.098	14.38
756.847	11.38
757.595	8.38
758.344	12.38
759.093	14.38
759.841	11.38
760.589	11.38
761.338	14.38
762.086	11.38
762.834	14.38
763.582	12.38
764.331	15.38
765.079	12.38
765.826	11.38
766.574	13.38
767.322	13.38
768.07	11.38
768.817	13.38
769.565	13.38
770.312	13.38
771.06	12.38
771.807	17.38
772.554	14.38
773.302	15.38
774.049	12.38
774.796	15.38
775.543	15.38
776.29	15.38
777.036	14.38
777.783	13.38
778.53	16.38
779.276	12.38
780.023	15.38
780.769	14.38
781.516	12.38
782.262	16.38
783.008	13.38
783.754	15.38
784.5	14.38
785.246	14.38
785.992	17.38
786.738	14.38
787.484	16.38
788.23	14.38
788.975	15.38
789.721	14.38
790.466	13.38
791.212	15.38
791.957	11.38
792.702	15.38
793.447	14.38
794.193	13.38
794.938	15.38
795.683	12.38
796.427	15.38
797.172	13.38
797.917	10.38
798.662	15.38
799.406	11.38
800.151	13.38
800.895	11.38
801.64	11.38
802.384	11.38
803.128	9.38
803.872	11.38
804.616	10.38
805.36	9.38
806.104	11.38
806.848	11.38
807.592	12.38
808.336	10.38
809.079	10.38
809.823	9.38
810.566	12.38
811.31	9.38
812.053	10.38
812.796	9.38
813.539	9.38
814.283	8.38
815.026	8.38
815.769	10.38
816.511	11.38
817.254	8.38
817.997	10.38
818.74	8.38
819.482	10.38
820.225	8.38
820.967	7.38
821.71	7.38
822.452	8.38
823.194	7.38
823.936	7.38
824.678	7.38
825.42	6.38
826.162	8.38
826.904	9.38
827.646	6.38
828.388	5.38
829.129	5.38
829.871	7.38
830.612	8.38
831.354	6.38
832.095	9.38
832.836	5.38
833.577	7.38
834.319	6.38
835.06	9.38
835.801	7.38
836.542	8.38
837.282	7.38
838.023	4.38
838.764	5.38
839.504	5.38
840.245	9.38
840.985	5.38
841.726	5.38
842.466	6.38
843.206	5.38
843.946	4.38
844.687	6.38
845.427	5.38
846.166	4.38
846.906	3.38
847.646	8.38
848.386	5.38
849.125	6.38
849.865	5.38
850.605	3.38
851.344	6.38
852.083	4.38
852.823	5.38
853.562	5.38
854.301	4.38
855.04	4.38
855.779	3.38
856.518	5.38
857.257	3.38
857.995	6.38
858.734	3.38
859.473	2.38
860.211	5.38
860.95	5.38
861.688	3.38
862.426	4.38
863.165	1.38
863.903	3.38
864.641	4.38
865.379	3.38
866.117	2.38
866.855	4.38
867.593	1.38
868.33	1.38
869.068	2.38
869.806	2.38
870.543	1.38
871.28	3.38
872.018	5.38
872.755	4.38
873.492	2.38
874.229	2.38
874.967	2.38
875.703	2.38
876.44	3.38
877.177	1.38
877.914	5.38
878.651	2.38
879.387	4.38
880.124	-0.62
880.86	0.38
881.597	2.38
882.333	-0.62
883.069	5.38
883.806	2.38
884.542	2.38
885.278	1.38
886.014	1.38
886.749	3.38
887.485	0.38
888.221	1.38
888.957	1.38
889.692	3.38
890.428	2.38
891.163	1.38
891.899	2.38
892.634	1.38
893.369	1.38
894.104	0.38
894.839	1.38
895.574	3.38
896.309	-0.62
897.044	0.38
897.779	1.38
898.514	3.38
899.248	3.38
899.983	1.38
900.717	3.38
901.452	1.38
902.186	2.38
902.92	1.38
903.654	1.38
904.389	2.38
905.123	0.38
905.857	2.38
906.59	-0.62
907.324	1.38
908.058	2.38
908.792	-0.62
909.525	1.38
910.259	1.38
910.992	2.38
911.726	2.38
912.459	3.38
913.192	0.38
913.925	2.38
914.658	1.38
915.391	1.38
916.124	2.38
916.857	3.38
917.59	0.38
918.323	1.38
919.055	-0.62
919.788	1.38
920.521	0.38
921.253	2.38
921.985	-0.62
922.718	0.38
923.45	1.38
924.182	0.38
924.914	1.38
925.646	-0.62
926.378	0.38
927.11	0.38
927.841	3.38
928.573	1.38
929.305	0.38
930.036	1.38
930.768	-0.62
931.499	0.38
932.23	2.38
932.962	1.38
933.693	0.38
934.424	0.38
935.155	-0.62
935.886	-0.62
936.617	-0.62
937.348	1.38
938.078	1.38
938.809	3.38
939.54	1.38
940.27	-0.62
941.001	2.38
941.731	0.38
942.461	2.38
943.191	-0.62
943.922	1.38
944.652	1.38
945.382	0.38
946.112	0.38
946.841	1.38
947.571	2.38
948.301	-1.62
949.031	0.38
949.76	0.38
950.49	-0.62
951.219	2.38
951.948	-1.62
952.678	-1.62
953.407	2.38
954.136	2.38
954.865	1.38
955.594	-0.62
956.323	2.38
957.052	-0.62
957.78	1.38
958.509	2.38
959.238	0.38
959.966	1.38
960.695	-0.62
961.423	-0.62
962.151	0.38
962.88	-0.62
963.608	1.38
964.336	1.38
965.064	1.38
965.792	-0.62
966.52	1.38
967.247	-0.62
967.975	0.38
968.703	3.38
969.43	-1.62
970.158	-0.62
970.885	1.38
971.613	-0.62
972.34	-0.62
973.067	2.38
973.794	0.38
974.521	1.38
975.248	0.38
975.975	-0.62
976.702	3.38
977.429	-0.62
978.156	0.38
978.882	0.38
979.609	-0.62
980.335	-0.62
981.062	1.38
981.788	-0.62
982.514	-0.62
983.24	-1.62
983.967	1.38
984.693	0.38
985.419	0.38
986.144	3.38
986.87	0.38
987.596	2.38
988.322	1.38
989.047	-0.62
989.773	1.38
990.498	1.38
991.224	-0.62
991.949	1.38
992.674	0.38
993.399	1.38
994.124	2.38
994.849	1.38
995.574	0.38
996.299	-1.62
997.024	-0.62
997.749	2.38
998.473	1.38
999.198	1.38
999.922	2.38
1000.647	0.38
1001.371	2.38
1002.095	0.38
1002.82	0.38
1003.544	-0.62
1004.268	4.38
1004.992	3.38
1005.716	4.38
1006.439	6.38
1007.163	3.38
1007.887	4.38
1008.611	3.38
1009.334	-0.62
1010.058	1.38
1010.781	1.38
1011.504	1.38
1012.228	1.38
1012.951	-1.62
1013.674	-0.62
1014.397	-0.62
1015.12	0.38
