节点500_705_QEPB04081__164__20-48-35-033.txt的数据

Date: Wed Nov 12 20:48:35 CST 2025
User: PC
Spectrometer: QEPB0408
触发模式: 0
积分时间 (秒): 1.000000E-2
Scans to average: 1
启用暗噪声校正: true
启用非线性校正: false
滑动平均宽度: 0
X轴模式: Wavelengths
Number of Pixels in Spectrum: 1044
>>>>>Begin Spectral Data<<<<<
220.843	7.38
221.644	5.38
222.444	7.38
223.244	6.38
224.045	5.38
224.845	5.38
225.645	3.38
226.445	8.38
227.245	6.38
228.045	9.38
228.845	10.38
229.645	8.38
230.444	10.38
231.244	8.38
232.043	11.38
232.843	8.38
233.642	8.38
234.442	11.38
235.241	10.38
236.04	11.38
236.839	9.38
237.638	10.38
238.437	12.38
239.236	13.38
240.035	13.38
240.833	13.38
241.632	11.38
242.43	11.38
243.229	13.38
244.027	12.38
244.826	16.38
245.624	17.38
246.422	15.38
247.22	15.38
248.018	15.38
248.816	16.38
249.614	15.38
250.412	17.38
251.21	20.38
252.007	15.38
252.805	18.38
253.602	19.38
254.4	18.38
255.197	21.38
255.994	19.38
256.791	22.38
257.589	21.38
258.386	22.38
259.183	22.38
259.979	22.38
260.776	27.38
261.573	22.38
262.37	27.38
263.166	27.38
263.963	26.38
264.759	26.38
265.556	27.38
266.352	28.38
267.148	27.38
267.944	31.38
268.74	33.38
269.536	29.38
270.332	30.38
271.128	31.38
271.924	34.38
272.719	35.38
273.515	34.38
274.311	33.38
275.106	36.38
275.901	37.38
276.697	35.38
277.492	36.38
278.287	33.38
279.082	35.38
279.877	35.38
280.672	35.38
281.467	34.38
282.262	36.38
283.056	35.38
283.851	36.38
284.646	35.38
285.44	35.38
286.234	35.38
287.029	36.38
287.823	36.38
288.617	34.38
289.411	33.38
290.205	33.38
290.999	32.38
291.793	35.38
292.587	34.38
293.381	32.38
294.174	29.38
294.968	28.38
295.761	31.38
296.555	26.38
297.348	29.38
298.141	26.38
298.935	31.38
299.728	25.38
300.521	26.38
301.314	25.38
302.107	22.38
302.899	21.38
303.692	24.38
304.485	21.38
305.277	21.38
306.07	23.38
306.862	24.38
307.655	20.38
308.447	23.38
309.239	18.38
310.031	23.38
310.823	15.38
311.615	23.38
312.407	17.38
313.199	18.38
313.991	18.38
314.783	18.38
315.574	17.38
316.366	17.38
317.157	15.38
317.949	15.38
318.74	15.38
319.531	16.38
320.322	14.38
321.113	14.38
321.904	13.38
322.695	12.38
323.486	14.38
324.277	12.38
325.068	12.38
325.858	14.38
326.649	14.38
327.439	15.38
328.23	12.38
329.02	13.38
329.81	11.38
330.6	15.38
331.391	14.38
332.181	11.38
332.971	15.38
333.76	14.38
334.55	13.38
335.34	12.38
336.13	14.38
336.919	14.38
337.709	13.38
338.498	13.38
339.287	11.38
340.077	11.38
340.866	12.38
341.655	13.38
342.444	15.38
343.233	12.38
344.022	10.38
344.811	12.38
345.6	9.38
346.388	13.38
347.177	12.38
347.965	12.38
348.754	12.38
349.542	13.38
350.33	11.38
351.119	12.38
351.907	11.38
352.695	10.38
353.483	13.38
354.271	9.38
355.059	11.38
355.846	9.38
356.634	10.38
357.422	11.38
358.209	9.38
358.997	10.38
359.784	11.38
360.571	9.38
361.359	10.38
362.146	10.38
362.933	10.38
363.72	9.38
364.507	11.38
365.294	10.38
366.081	14.38
366.867	10.38
367.654	9.38
368.44	11.38
369.227	9.38
370.013	10.38
370.8	11.38
371.586	10.38
372.372	9.38
373.158	9.38
373.944	12.38
374.73	9.38
375.516	13.38
376.302	9.38
377.088	9.38
377.873	13.38
378.659	10.38
379.445	9.38
380.23	10.38
381.015	12.38
381.801	9.38
382.586	11.38
383.371	11.38
384.156	9.38
384.941	12.38
385.726	11.38
386.511	9.38
387.296	15.38
388.08	12.38
388.865	12.38
389.649	13.38
390.434	11.38
391.218	12.38
392.003	12.38
392.787	12.38
393.571	12.38
394.355	13.38
395.139	13.38
395.923	13.38
396.707	15.38
397.491	11.38
398.274	15.38
399.058	13.38
399.842	14.38
400.625	13.38
401.408	14.38
402.192	17.38
402.975	15.38
403.758	16.38
404.541	14.38
405.324	13.38
406.107	17.38
406.89	14.38
407.673	15.38
408.456	16.38
409.238	17.38
410.021	16.38
410.803	16.38
411.586	17.38
412.368	15.38
413.151	20.38
413.933	18.38
414.715	19.38
415.497	18.38
416.279	17.38
417.061	19.38
417.843	19.38
418.624	19.38
419.406	24.38
420.188	21.38
420.969	23.38
421.751	24.38
422.532	22.38
423.313	23.38
424.095	24.38
424.876	25.38
425.657	24.38
426.438	27.38
427.219	27.38
428	27.38
428.78	27.38
429.561	29.38
430.342	31.38
431.122	30.38
431.903	30.38
432.683	37.38
433.464	35.38
434.244	38.38
435.024	43.38
435.804	39.38
436.584	43.38
437.364	46.38
438.144	46.38
438.924	48.38
439.704	51.38
440.483	58.38
441.263	59.38
442.042	63.38
442.822	66.38
443.601	76.38
444.38	78.38
445.16	86.38
445.939	88.38
446.718	102.38
447.497	112.38
448.276	115.38
449.054	132.38
449.833	139.38
450.612	157.38
451.391	167.38
452.169	187.38
452.948	208.38
453.726	225.38
454.504	252.38
455.282	278.38
456.061	310.38
456.839	355.38
457.617	396.38
458.395	435.38
459.172	497.38
459.95	539.38
460.728	613.38
461.506	687.38
462.283	756.38
463.061	852.38
463.838	953.38
464.615	1062.38
465.393	1174.38
466.17	1318.38
466.947	1466.38
467.724	1636.38
468.501	1805.38
469.278	2017.38
470.055	2216.38
470.831	2448.38
471.608	2743.38
472.385	3024.38
473.161	3347.38
473.938	3681.38
474.714	4043.38
475.49	4480.38
476.266	4922.38
477.043	5391.38
477.819	5903.38
478.595	6506.38
479.371	7092.38
480.146	7771.38
480.922	8498.38
481.698	9286.38
482.473	10136.38
483.249	11066.38
484.024	12057.38
484.8	13114.38
485.575	14275.38
486.35	15537.38
487.126	16826.38
487.901	18192.38
488.676	19713.38
489.451	21319.38
490.225	22997.38
491	24623.38
491.775	26433.38
492.55	28206.38
493.324	30107.38
494.099	31933.38
494.873	33918.38
495.647	35775.38
496.422	37665.38
497.196	39562.38
497.97	41176.38
498.744	42733.38
499.518	44280.38
500.292	45673.38
501.066	46559.38
501.839	47371.38
502.613	48065.38
503.387	48586.38
504.16	48848.38
504.934	48837.38
505.707	48627.38
506.48	48057.38
507.253	47288.38
508.027	46398.38
508.8	45307.38
509.573	44051.38
510.346	42883.38
511.118	41522.38
511.891	40317.38
512.664	38598.38
513.437	37103.38
514.209	35637.38
514.982	34227.38
515.754	32725.38
516.526	31417.38
517.298	30136.38
518.071	28908.38
518.843	27771.38
519.615	26574.38
520.387	25608.38
521.159	24562.38
521.93	23528.38
522.702	22526.38
523.474	21544.38
524.245	20629.38
525.017	19709.38
525.788	18800.38
526.56	17994.38
527.331	17176.38
528.102	16262.38
528.873	15444.38
529.644	14682.38
530.415	14013.38
531.186	13303.38
531.957	12571.38
532.728	11930.38
533.498	11281.38
534.269	10718.38
535.039	10118.38
535.81	9581.38
536.58	9052.38
537.351	8560.38
538.121	8107.38
538.891	7649.38
539.661	7252.38
540.431	6867.38
541.201	6535.38
541.971	6151.38
542.741	5842.38
543.51	5558.38
544.28	5301.38
545.05	5050.38
545.819	4772.38
546.588	4558.38
547.358	4321.38
548.127	4129.38
548.896	3922.38
549.665	3691.38
550.434	3510.38
551.203	3328.38
551.972	3186.38
552.741	2994.38
553.51	2813.38
554.278	2665.38
555.047	2492.38
555.815	2369.38
556.584	2243.38
557.352	2115.38
558.121	1995.38
558.889	1887.38
559.657	1790.38
560.425	1675.38
561.193	1591.38
561.961	1522.38
562.729	1425.38
563.496	1349.38
564.264	1270.38
565.032	1210.38
565.799	1144.38
566.567	1084.38
567.334	1029.38
568.101	972.38
568.869	914.38
569.636	869.38
570.403	816.38
571.17	762.38
571.937	720.38
572.704	684.38
573.471	659.38
574.237	611.38
575.004	579.38
575.771	537.38
576.537	509.38
577.303	479.38
578.07	460.38
578.836	431.38
579.602	403.38
580.368	391.38
581.134	367.38
581.9	353.38
582.666	335.38
583.432	318.38
584.198	294.38
584.964	282.38
585.729	271.38
586.495	262.38
587.26	239.38
588.025	227.38
588.791	218.38
589.556	206.38
590.321	204.38
591.086	192.38
591.851	179.38
592.616	167.38
593.381	163.38
594.146	156.38
594.911	144.38
595.675	140.38
596.44	135.38
597.204	129.38
597.969	122.38
598.733	120.38
599.497	116.38
600.261	107.38
601.025	102.38
601.79	95.38
602.553	97.38
603.317	91.38
604.081	91.38
604.845	85.38
605.609	84.38
606.372	75.38
607.136	73.38
607.899	74.38
608.662	69.38
609.426	67.38
610.189	66.38
610.952	61.38
611.715	63.38
612.478	55.38
613.241	58.38
614.004	52.38
614.767	51.38
615.529	51.38
616.292	48.38
617.055	45.38
617.817	43.38
618.579	46.38
619.342	40.38
620.104	42.38
620.866	39.38
621.628	40.38
622.39	39.38
623.152	38.38
623.914	35.38
624.676	34.38
625.438	34.38
626.199	32.38
626.961	30.38
627.722	30.38
628.484	29.38
629.245	26.38
630.006	27.38
630.768	23.38
631.529	26.38
632.29	29.38
633.051	26.38
633.812	25.38
634.573	24.38
635.333	24.38
636.094	22.38
636.855	24.38
637.615	23.38
638.376	21.38
639.136	22.38
639.896	19.38
640.657	20.38
641.417	17.38
642.177	16.38
642.937	19.38
643.697	18.38
644.457	21.38
645.216	15.38
645.976	16.38
646.736	17.38
647.495	14.38
648.255	13.38
649.014	17.38
649.774	16.38
650.533	15.38
651.292	13.38
652.051	14.38
652.81	11.38
653.569	13.38
654.328	12.38
655.087	14.38
655.846	13.38
656.604	11.38
657.363	12.38
658.121	11.38
658.88	12.38
659.638	9.38
660.397	13.38
661.155	11.38
661.913	10.38
662.671	12.38
663.429	8.38
664.187	11.38
664.945	11.38
665.703	9.38
666.46	9.38
667.218	7.38
667.976	11.38
668.733	8.38
669.49	9.38
670.248	10.38
671.005	10.38
671.762	9.38
672.519	8.38
673.276	10.38
674.033	9.38
674.79	8.38
675.547	10.38
676.304	10.38
677.06	10.38
677.817	8.38
678.574	8.38
679.33	8.38
680.086	9.38
680.843	8.38
681.599	9.38
682.355	8.38
683.111	8.38
683.867	9.38
684.623	10.38
685.379	7.38
686.135	9.38
686.89	8.38
687.646	10.38
688.402	9.38
689.157	7.38
689.912	9.38
690.668	7.38
691.423	9.38
692.178	7.38
692.933	9.38
693.688	9.38
694.443	6.38
695.198	9.38
695.953	8.38
696.708	9.38
697.462	9.38
698.217	7.38
698.972	8.38
699.726	8.38
700.48	7.38
701.235	10.38
701.989	6.38
702.743	7.38
703.497	8.38
704.251	7.38
705.005	8.38
705.759	8.38
706.513	9.38
707.266	9.38
708.02	8.38
708.774	6.38
709.527	10.38
710.28	8.38
711.034	7.38
711.787	8.38
712.54	7.38
713.293	10.38
714.046	9.38
714.799	6.38
715.552	8.38
716.305	8.38
717.058	9.38
717.81	9.38
718.563	9.38
719.315	10.38
720.068	8.38
720.82	5.38
721.573	8.38
722.325	7.38
723.077	8.38
723.829	9.38
724.581	7.38
725.333	10.38
726.085	8.38
726.836	8.38
727.588	11.38
728.34	9.38
729.091	11.38
729.843	8.38
730.594	7.38
731.346	11.38
732.097	8.38
732.848	11.38
733.599	9.38
734.35	9.38
735.101	10.38
735.852	8.38
736.603	11.38
737.354	10.38
738.104	11.38
738.855	8.38
739.605	12.38
740.356	11.38
741.106	13.38
741.856	10.38
742.607	11.38
743.357	10.38
744.107	12.38
744.857	11.38
745.607	10.38
746.357	13.38
747.106	12.38
747.856	14.38
748.606	9.38
749.355	10.38
750.105	13.38
750.854	14.38
751.603	12.38
752.353	11.38
753.102	15.38
753.851	10.38
754.6	11.38
755.349	11.38
756.098	12.38
756.847	13.38
757.595	14.38
758.344	12.38
759.093	11.38
759.841	13.38
760.589	11.38
761.338	13.38
762.086	13.38
762.834	11.38
763.582	14.38
764.331	11.38
765.079	15.38
765.826	15.38
766.574	15.38
767.322	14.38
768.07	14.38
768.817	15.38
769.565	13.38
770.312	18.38
771.06	16.38
771.807	16.38
772.554	17.38
773.302	14.38
774.049	15.38
774.796	17.38
775.543	17.38
776.29	15.38
777.036	19.38
777.783	18.38
778.53	15.38
779.276	15.38
780.023	14.38
780.769	16.38
781.516	16.38
782.262	15.38
783.008	17.38
783.754	18.38
784.5	17.38
785.246	15.38
785.992	16.38
786.738	17.38
787.484	15.38
788.23	15.38
788.975	15.38
789.721	15.38
790.466	15.38
791.212	15.38
791.957	15.38
792.702	14.38
793.447	17.38
794.193	14.38
794.938	13.38
795.683	16.38
796.427	13.38
797.172	13.38
797.917	13.38
798.662	12.38
799.406	13.38
800.151	13.38
800.895	14.38
801.64	14.38
802.384	13.38
803.128	13.38
803.872	11.38
804.616	14.38
805.36	11.38
806.104	10.38
806.848	11.38
807.592	11.38
808.336	11.38
809.079	9.38
809.823	14.38
810.566	9.38
811.31	7.38
812.053	11.38
812.796	8.38
813.539	10.38
814.283	9.38
815.026	10.38
815.769	8.38
816.511	10.38
817.254	10.38
817.997	7.38
818.74	8.38
819.482	8.38
820.225	7.38
820.967	9.38
821.71	7.38
822.452	5.38
823.194	6.38
823.936	7.38
824.678	5.38
825.42	5.38
826.162	8.38
826.904	7.38
827.646	6.38
828.388	8.38
829.129	7.38
829.871	6.38
830.612	9.38
831.354	7.38
832.095	4.38
832.836	7.38
833.577	6.38
834.319	6.38
835.06	5.38
835.801	7.38
836.542	8.38
837.282	6.38
838.023	7.38
838.764	7.38
839.504	5.38
840.245	5.38
840.985	5.38
841.726	5.38
842.466	4.38
843.206	7.38
843.946	6.38
844.687	5.38
845.427	5.38
846.166	5.38
846.906	7.38
847.646	5.38
848.386	4.38
849.125	5.38
849.865	6.38
850.605	6.38
851.344	2.38
852.083	5.38
852.823	4.38
853.562	4.38
854.301	5.38
855.04	4.38
855.779	5.38
856.518	5.38
857.257	4.38
857.995	3.38
858.734	5.38
859.473	6.38
860.211	5.38
860.95	2.38
861.688	3.38
862.426	4.38
863.165	4.38
863.903	3.38
864.641	4.38
865.379	3.38
866.117	3.38
866.855	5.38
867.593	1.38
868.33	1.38
869.068	1.38
869.806	3.38
870.543	2.38
871.28	2.38
872.018	2.38
872.755	0.38
873.492	2.38
874.229	3.38
874.967	4.38
875.703	1.38
876.44	0.38
877.177	2.38
877.914	3.38
878.651	1.38
879.387	2.38
880.124	1.38
880.86	4.38
881.597	2.38
882.333	3.38
883.069	3.38
883.806	4.38
884.542	0.38
885.278	3.38
886.014	3.38
886.749	0.38
887.485	3.38
888.221	0.38
888.957	2.38
889.692	3.38
890.428	1.38
891.163	2.38
891.899	0.38
892.634	2.38
893.369	3.38
894.104	1.38
894.839	1.38
895.574	2.38
896.309	2.38
897.044	3.38
897.779	2.38
898.514	2.38
899.248	0.38
899.983	1.38
900.717	1.38
901.452	2.38
902.186	1.38
902.92	0.38
903.654	3.38
904.389	0.38
905.123	0.38
905.857	1.38
906.59	1.38
907.324	0.38
908.058	0.38
908.792	1.38
909.525	-0.62
910.259	2.38
910.992	0.38
911.726	1.38
912.459	1.38
913.192	1.38
913.925	2.38
914.658	-0.62
915.391	2.38
916.124	-0.62
916.857	2.38
917.59	-0.62
918.323	0.38
919.055	2.38
919.788	2.38
920.521	1.38
921.253	0.38
921.985	-0.62
922.718	1.38
923.45	0.38
924.182	3.38
924.914	1.38
925.646	-0.62
926.378	1.38
927.11	-0.62
927.841	2.38
928.573	0.38
929.305	1.38
930.036	-0.62
930.768	1.38
931.499	2.38
932.23	-0.62
932.962	1.38
933.693	-1.62
934.424	0.38
935.155	-0.62
935.886	-2.62
936.617	-1.62
937.348	-0.62
938.078	2.38
938.809	5.38
939.54	-0.62
940.27	2.38
941.001	-1.62
941.731	2.38
942.461	1.38
943.191	2.38
943.922	0.38
944.652	-0.62
945.382	1.38
946.112	1.38
946.841	3.38
947.571	1.38
948.301	2.38
949.031	1.38
949.76	2.38
950.49	-0.62
951.219	-0.62
951.948	3.38
952.678	0.38
953.407	-0.62
954.136	1.38
954.865	0.38
955.594	2.38
956.323	1.38
957.052	-1.62
957.78	-0.62
958.509	0.38
959.238	1.38
959.966	0.38
960.695	-0.62
961.423	-0.62
962.151	-0.62
962.88	1.38
963.608	1.38
964.336	1.38
965.064	1.38
965.792	0.38
966.52	-0.62
967.247	1.38
967.975	1.38
968.703	1.38
969.43	3.38
970.158	1.38
970.885	-1.62
971.613	0.38
972.34	1.38
973.067	0.38
973.794	0.38
974.521	0.38
975.248	2.38
975.975	0.38
976.702	1.38
977.429	-0.62
978.156	0.38
978.882	-0.62
979.609	-0.62
980.335	-0.62
981.062	0.38
981.788	-2.62
982.514	0.38
983.24	-0.62
983.967	2.38
984.693	1.38
985.419	0.38
986.144	-2.62
986.87	1.38
987.596	-0.62
988.322	0.38
989.047	0.38
989.773	0.38
990.498	-0.62
991.224	0.38
991.949	-0.62
992.674	0.38
993.399	-0.62
994.124	3.38
994.849	-1.62
995.574	0.38
996.299	1.38
997.024	1.38
997.749	-0.62
998.473	0.38
999.198	1.38
999.922	-0.62
1000.647	1.38
1001.371	3.38
1002.095	-0.62
1002.82	-0.62
1003.544	-0.62
1004.268	3.38
1004.992	3.38
1005.716	6.38
1006.439	7.38
1007.163	6.38
1007.887	4.38
1008.611	1.38
1009.334	-0.62
1010.058	1.38
1010.781	1.38
1011.504	1.38
1012.228	2.38
1012.951	-0.62
1013.674	-0.62
1014.397	0.38
1015.12	-0.62
