节点500_705_QEPB04081__296__20-50-12-400.txt的数据

Date: Wed Nov 12 20:50:12 CST 2025
User: PC
Spectrometer: QEPB0408
触发模式: 0
积分时间 (秒): 1.000000E-2
Scans to average: 1
启用暗噪声校正: true
启用非线性校正: false
滑动平均宽度: 0
X轴模式: Wavelengths
Number of Pixels in Spectrum: 1044
>>>>>Begin Spectral Data<<<<<
220.843	5
221.644	7
222.444	7
223.244	6
224.045	7
224.845	8
225.645	5
226.445	8
227.245	3
228.045	7
228.845	7
229.645	6
230.444	8
231.244	8
232.043	11
232.843	9
233.642	10
234.442	10
235.241	11
236.04	11
236.839	11
237.638	9
238.437	9
239.236	13
240.035	11
240.833	13
241.632	12
242.43	13
243.229	13
244.027	16
244.826	16
245.624	14
246.422	13
247.22	13
248.018	11
248.816	17
249.614	15
250.412	17
251.21	18
252.007	16
252.805	17
253.602	19
254.4	20
255.197	22
255.994	20
256.791	18
257.589	19
258.386	22
259.183	20
259.979	24
260.776	24
261.573	21
262.37	25
263.166	25
263.963	26
264.759	28
265.556	26
266.352	30
267.148	27
267.944	30
268.74	27
269.536	28
270.332	30
271.128	31
271.924	28
272.719	31
273.515	33
274.311	35
275.106	34
275.901	35
276.697	34
277.492	39
278.287	35
279.082	31
279.877	35
280.672	38
281.467	33
282.262	33
283.056	35
283.851	38
284.646	34
285.44	34
286.234	31
287.029	37
287.823	31
288.617	34
289.411	34
290.205	31
290.999	36
291.793	31
292.587	32
293.381	29
294.174	31
294.968	28
295.761	28
296.555	28
297.348	30
298.141	26
298.935	29
299.728	25
300.521	24
301.314	25
302.107	25
302.899	25
303.692	23
304.485	24
305.277	23
306.07	25
306.862	20
307.655	22
308.447	19
309.239	21
310.031	20
310.823	19
311.615	20
312.407	18
313.199	18
313.991	17
314.783	18
315.574	16
316.366	13
317.157	15
317.949	17
318.74	15
319.531	15
320.322	12
321.113	14
321.904	15
322.695	15
323.486	14
324.277	13
325.068	13
325.858	15
326.649	13
327.439	13
328.23	13
329.02	11
329.81	11
330.6	15
331.391	13
332.181	11
332.971	14
333.76	13
334.55	12
335.34	9
336.13	10
336.919	14
337.709	11
338.498	13
339.287	12
340.077	13
340.866	11
341.655	12
342.444	13
343.233	12
344.022	13
344.811	11
345.6	12
346.388	11
347.177	11
347.965	13
348.754	9
349.542	12
350.33	7
351.119	10
351.907	9
352.695	12
353.483	11
354.271	8
355.059	11
355.846	11
356.634	10
357.422	10
358.209	11
358.997	12
359.784	9
360.571	12
361.359	10
362.146	9
362.933	11
363.72	9
364.507	10
365.294	9
366.081	8
366.867	9
367.654	9
368.44	10
369.227	9
370.013	13
370.8	9
371.586	9
372.372	13
373.158	8
373.944	8
374.73	8
375.516	11
376.302	10
377.088	11
377.873	12
378.659	9
379.445	11
380.23	9
381.015	9
381.801	12
382.586	9
383.371	10
384.156	12
384.941	12
385.726	10
386.511	10
387.296	12
388.08	11
388.865	11
389.649	11
390.434	13
391.218	12
392.003	13
392.787	13
393.571	11
394.355	8
395.139	12
395.923	12
396.707	13
397.491	12
398.274	9
399.058	13
399.842	16
400.625	13
401.408	12
402.192	14
402.975	13
403.758	14
404.541	14
405.324	13
406.107	13
406.89	14
407.673	14
408.456	16
409.238	14
410.021	16
410.803	13
411.586	19
412.368	18
413.151	18
413.933	17
414.715	17
415.497	20
416.279	20
417.061	21
417.843	17
418.624	21
419.406	20
420.188	20
420.969	22
421.751	23
422.532	20
423.313	25
424.095	23
424.876	23
425.657	22
426.438	26
427.219	24
428	28
428.78	28
429.561	28
430.342	32
431.122	31
431.903	34
432.683	35
433.464	34
434.244	37
435.024	38
435.804	42
436.584	45
437.364	47
438.144	49
438.924	49
439.704	53
440.483	57
441.263	64
442.042	65
442.822	66
443.601	75
444.38	76
445.16	90
445.939	87
446.718	105
447.497	112
448.276	122
449.054	134
449.833	146
450.612	160
451.391	171
452.169	194
452.948	217
453.726	232
454.504	265
455.282	291
456.061	326
456.839	363
457.617	406
458.395	451
459.172	498
459.95	563
460.728	632
461.506	702
462.283	783
463.061	869
463.838	965
464.615	1079
465.393	1225
466.17	1338
466.947	1503
467.724	1668
468.501	1849
469.278	2023
470.055	2247
470.831	2492
471.608	2751
472.385	3037
473.161	3345
473.938	3669
474.714	4049
475.49	4450
476.266	4855
477.043	5322
477.819	5813
478.595	6398
479.371	6985
480.146	7615
480.922	8319
481.698	9080
482.473	9846
483.249	10707
484.024	11695
484.8	12653
485.575	13737
486.35	14887
487.126	16158
487.901	17442
488.676	18855
489.451	20328
490.225	21842
491	23400
491.775	25153
492.55	26831
493.324	28557
494.099	30351
494.873	32204
495.647	33998
496.422	35835
497.196	37632
497.97	39194
498.744	40702
499.518	42355
500.292	43697
501.066	44821
501.839	45605
502.613	46381
503.387	46995
504.16	47339
504.934	47503
505.707	47382
506.48	46975
507.253	46521
508.027	45694
508.8	44712
509.573	43674
510.346	42663
511.118	41538
511.891	40245
512.664	38680
513.437	37187
514.209	35826
514.982	34405
515.754	33022
516.526	31668
517.298	30372
518.071	29228
518.843	27965
519.615	26892
520.387	25926
521.159	24856
521.93	23754
522.702	22810
523.474	21804
524.245	20894
525.017	19994
525.788	19073
526.56	18328
527.331	17489
528.102	16570
528.873	15780
529.644	15016
530.415	14341
531.186	13632
531.957	12879
532.728	12259
533.498	11623
534.269	10962
535.039	10407
535.81	9838
536.58	9319
537.351	8796
538.121	8360
538.891	7903
539.661	7447
540.431	7082
541.201	6714
541.971	6342
542.741	6003
543.51	5710
544.28	5433
545.05	5196
545.819	4929
546.588	4686
547.358	4474
548.127	4247
548.896	4035
549.665	3805
550.434	3608
551.203	3442
551.972	3265
552.741	3093
553.51	2918
554.278	2766
555.047	2580
555.815	2457
556.584	2321
557.352	2214
558.121	2056
558.889	1945
559.657	1844
560.425	1749
561.193	1654
561.961	1574
562.729	1466
563.496	1401
564.264	1299
565.032	1244
565.799	1182
566.567	1118
567.334	1080
568.101	1001
568.869	941
569.636	899
570.403	842
571.17	802
571.937	755
572.704	714
573.471	662
574.237	630
575.004	598
575.771	556
576.537	530
577.303	501
578.07	472
578.836	444
579.602	429
580.368	402
581.134	377
581.9	356
582.666	351
583.432	330
584.198	316
584.964	295
585.729	286
586.495	271
587.26	252
588.025	238
588.791	228
589.556	214
590.321	199
591.086	189
591.851	188
592.616	176
593.381	170
594.146	153
594.911	155
595.675	147
596.44	140
597.204	131
597.969	129
598.733	119
599.497	115
600.261	115
601.025	107
601.79	102
602.553	98
603.317	93
604.081	90
604.845	87
605.609	83
606.372	82
607.136	77
607.899	75
608.662	70
609.426	72
610.189	68
610.952	62
611.715	61
612.478	59
613.241	57
614.004	56
614.767	58
615.529	54
616.292	52
617.055	47
617.817	48
618.579	48
619.342	44
620.104	43
620.866	42
621.628	37
622.39	39
623.152	39
623.914	36
624.676	33
625.438	34
626.199	33
626.961	30
627.722	31
628.484	32
629.245	27
630.006	31
630.768	27
631.529	29
632.29	27
633.051	26
633.812	24
634.573	24
635.333	22
636.094	21
636.855	21
637.615	21
638.376	21
639.136	21
639.896	19
640.657	20
641.417	20
642.177	19
642.937	18
643.697	15
644.457	17
645.216	15
645.976	18
646.736	17
647.495	15
648.255	17
649.014	15
649.774	14
650.533	13
651.292	13
652.051	13
652.81	11
653.569	14
654.328	15
655.087	13
655.846	15
656.604	9
657.363	10
658.121	12
658.88	11
659.638	13
660.397	11
661.155	11
661.913	10
662.671	10
663.429	10
664.187	12
664.945	15
665.703	10
666.46	8
667.218	9
667.976	12
668.733	9
669.49	11
670.248	9
671.005	9
671.762	12
672.519	11
673.276	10
674.033	9
674.79	9
675.547	12
676.304	6
677.06	11
677.817	9
678.574	9
679.33	9
680.086	8
680.843	10
681.599	7
682.355	8
683.111	9
683.867	9
684.623	9
685.379	7
686.135	8
686.89	8
687.646	7
688.402	8
689.157	10
689.912	10
690.668	8
691.423	8
692.178	11
692.933	5
693.688	10
694.443	8
695.198	10
695.953	9
696.708	9
697.462	8
698.217	8
698.972	6
699.726	9
700.48	6
701.235	5
701.989	8
702.743	8
703.497	9
704.251	7
705.005	9
705.759	4
706.513	10
707.266	8
708.02	8
708.774	7
709.527	8
710.28	9
711.034	8
711.787	6
712.54	9
713.293	7
714.046	7
714.799	8
715.552	7
716.305	7
717.058	9
717.81	9
718.563	7
719.315	7
720.068	11
720.82	9
721.573	8
722.325	8
723.077	8
723.829	9
724.581	7
725.333	7
726.085	8
726.836	8
727.588	11
728.34	8
729.091	8
729.843	11
730.594	9
731.346	9
732.097	9
732.848	9
733.599	7
734.35	8
735.101	6
735.852	10
736.603	11
737.354	9
738.104	11
738.855	9
739.605	11
740.356	12
741.106	10
741.856	10
742.607	10
743.357	11
744.107	11
744.857	11
745.607	10
746.357	11
747.106	9
747.856	10
748.606	10
749.355	13
750.105	11
750.854	12
751.603	10
752.353	11
753.102	11
753.851	12
754.6	10
755.349	9
756.098	15
756.847	12
757.595	12
758.344	11
759.093	15
759.841	11
760.589	12
761.338	11
762.086	11
762.834	12
763.582	13
764.331	13
765.079	14
765.826	14
766.574	13
767.322	14
768.07	15
768.817	15
769.565	16
770.312	14
771.06	13
771.807	14
772.554	14
773.302	15
774.049	14
774.796	18
775.543	16
776.29	18
777.036	15
777.783	16
778.53	16
779.276	16
780.023	14
780.769	15
781.516	15
782.262	15
783.008	15
783.754	18
784.5	16
785.246	18
785.992	14
786.738	17
787.484	15
788.23	16
788.975	15
789.721	16
790.466	15
791.212	16
791.957	16
792.702	14
793.447	14
794.193	13
794.938	14
795.683	16
796.427	14
797.172	13
797.917	14
798.662	12
799.406	12
800.151	15
800.895	13
801.64	11
802.384	12
803.128	11
803.872	11
804.616	10
805.36	11
806.104	13
806.848	10
807.592	11
808.336	9
809.079	10
809.823	11
810.566	10
811.31	9
812.053	11
812.796	9
813.539	9
814.283	11
815.026	9
815.769	9
816.511	10
817.254	9
817.997	7
818.74	9
819.482	6
820.225	6
820.967	9
821.71	5
822.452	8
823.194	7
823.936	6
824.678	8
825.42	9
826.162	7
826.904	8
827.646	10
828.388	8
829.129	8
829.871	6
830.612	4
831.354	7
832.095	5
832.836	6
833.577	8
834.319	6
835.06	7
835.801	8
836.542	6
837.282	5
838.023	6
838.764	6
839.504	3
840.245	8
840.985	5
841.726	8
842.466	5
843.206	3
843.946	3
844.687	5
845.427	5
846.166	7
846.906	6
847.646	7
848.386	4
849.125	6
849.865	5
850.605	6
851.344	4
852.083	4
852.823	3
853.562	3
854.301	6
855.04	4
855.779	4
856.518	4
857.257	4
857.995	4
858.734	3
859.473	3
860.211	4
860.95	3
861.688	4
862.426	3
863.165	4
863.903	2
864.641	4
865.379	4
866.117	4
866.855	2
867.593	2
868.33	5
869.068	3
869.806	3
870.543	4
871.28	3
872.018	4
872.755	2
873.492	5
874.229	3
874.967	2
875.703	4
876.44	0
877.177	3
877.914	4
878.651	2
879.387	3
880.124	0
880.86	3
881.597	2
882.333	1
883.069	3
883.806	0
884.542	1
885.278	3
886.014	3
886.749	3
887.485	2
888.221	1
888.957	2
889.692	2
890.428	1
891.163	3
891.899	1
892.634	2
893.369	3
894.104	2
894.839	2
895.574	-1
896.309	3
897.044	2
897.779	1
898.514	1
899.248	1
899.983	1
900.717	1
901.452	2
902.186	3
902.92	1
903.654	1
904.389	1
905.123	3
905.857	1
906.59	0
907.324	-2
908.058	1
908.792	1
909.525	0
910.259	3
910.992	0
911.726	-2
912.459	1
913.192	0
913.925	2
914.658	0
915.391	-1
916.124	0
916.857	2
917.59	-3
918.323	1
919.055	2
919.788	1
920.521	1
921.253	1
921.985	-1
922.718	0
923.45	-1
924.182	1
924.914	-2
925.646	0
926.378	1
927.11	0
927.841	1
928.573	0
929.305	0
930.036	2
930.768	-1
931.499	1
932.23	1
932.962	-1
933.693	3
934.424	1
935.155	1
935.886	-1
936.617	3
937.348	1
938.078	0
938.809	1
939.54	0
940.27	3
941.001	2
941.731	0
942.461	0
943.191	2
943.922	-1
944.652	-1
945.382	2
946.112	1
946.841	3
947.571	1
948.301	-3
949.031	2
949.76	-1
950.49	1
951.219	-2
951.948	0
952.678	1
953.407	-2
954.136	0
954.865	-1
955.594	1
956.323	-1
957.052	1
957.78	1
958.509	1
959.238	2
959.966	0
960.695	1
961.423	2
962.151	2
962.88	-1
963.608	0
964.336	1
965.064	2
965.792	0
966.52	2
967.247	1
967.975	-1
968.703	1
969.43	1
970.158	3
970.885	1
971.613	1
972.34	1
973.067	1
973.794	-1
974.521	1
975.248	2
975.975	0
976.702	1
977.429	1
978.156	1
978.882	2
979.609	-2
980.335	0
981.062	0
981.788	-2
982.514	1
983.24	-1
983.967	1
984.693	3
985.419	0
986.144	-1
986.87	-1
987.596	1
988.322	1
989.047	4
989.773	-1
990.498	0
991.224	0
991.949	1
992.674	2
993.399	-2
994.124	3
994.849	1
995.574	0
996.299	-2
997.024	2
997.749	2
998.473	0
999.198	-1
999.922	0
1000.647	2
1001.371	3
1002.095	-1
1002.82	-3
1003.544	0
1004.268	2
1004.992	7
1005.716	5
1006.439	5
1007.163	5
1007.887	5
1008.611	1
1009.334	-1
1010.058	-1
1010.781	0
1011.504	2
1012.228	1
1012.951	0
1013.674	1
1014.397	-1
1015.12	1
