节点500_705_QEPB04081__329__20-50-37-536.txt的数据

Date: Wed Nov 12 20:50:37 CST 2025
User: PC
Spectrometer: QEPB0408
触发模式: 0
积分时间 (秒): 1.000000E-2
Scans to average: 1
启用暗噪声校正: true
启用非线性校正: false
滑动平均宽度: 0
X轴模式: Wavelengths
Number of Pixels in Spectrum: 1044
>>>>>Begin Spectral Data<<<<<
220.843	6.88
221.644	5.88
222.444	6.88
223.244	6.88
224.045	6.88
224.845	7.88
225.645	7.88
226.445	5.88
227.245	5.88
228.045	9.88
228.845	7.88
229.645	7.88
230.444	8.88
231.244	7.88
232.043	8.88
232.843	9.88
233.642	8.88
234.442	9.88
235.241	11.88
236.04	8.88
236.839	10.88
237.638	12.88
238.437	11.88
239.236	9.88
240.035	10.88
240.833	10.88
241.632	11.88
242.43	14.88
243.229	10.88
244.027	12.88
244.826	12.88
245.624	12.88
246.422	14.88
247.22	16.88
248.018	14.88
248.816	15.88
249.614	16.88
250.412	16.88
251.21	17.88
252.007	18.88
252.805	18.88
253.602	19.88
254.4	19.88
255.197	18.88
255.994	20.88
256.791	21.88
257.589	21.88
258.386	21.88
259.183	20.88
259.979	20.88
260.776	20.88
261.573	22.88
262.37	23.88
263.166	25.88
263.963	25.88
264.759	24.88
265.556	27.88
266.352	25.88
267.148	27.88
267.944	26.88
268.74	30.88
269.536	28.88
270.332	31.88
271.128	30.88
271.924	33.88
272.719	29.88
273.515	29.88
274.311	31.88
275.106	30.88
275.901	33.88
276.697	30.88
277.492	31.88
278.287	34.88
279.082	30.88
279.877	34.88
280.672	33.88
281.467	32.88
282.262	30.88
283.056	34.88
283.851	37.88
284.646	30.88
285.44	32.88
286.234	35.88
287.029	33.88
287.823	34.88
288.617	32.88
289.411	30.88
290.205	30.88
290.999	31.88
291.793	34.88
292.587	33.88
293.381	30.88
294.174	27.88
294.968	26.88
295.761	28.88
296.555	25.88
297.348	27.88
298.141	24.88
298.935	30.88
299.728	26.88
300.521	27.88
301.314	27.88
302.107	22.88
302.899	22.88
303.692	21.88
304.485	22.88
305.277	24.88
306.07	23.88
306.862	19.88
307.655	22.88
308.447	23.88
309.239	20.88
310.031	18.88
310.823	17.88
311.615	17.88
312.407	18.88
313.199	17.88
313.991	16.88
314.783	18.88
315.574	15.88
316.366	12.88
317.157	17.88
317.949	16.88
318.74	12.88
319.531	16.88
320.322	13.88
321.113	15.88
321.904	13.88
322.695	15.88
323.486	13.88
324.277	14.88
325.068	15.88
325.858	10.88
326.649	11.88
327.439	13.88
328.23	11.88
329.02	14.88
329.81	12.88
330.6	9.88
331.391	11.88
332.181	9.88
332.971	15.88
333.76	10.88
334.55	12.88
335.34	12.88
336.13	11.88
336.919	12.88
337.709	9.88
338.498	14.88
339.287	10.88
340.077	9.88
340.866	9.88
341.655	10.88
342.444	12.88
343.233	11.88
344.022	11.88
344.811	10.88
345.6	11.88
346.388	10.88
347.177	10.88
347.965	10.88
348.754	10.88
349.542	9.88
350.33	10.88
351.119	10.88
351.907	9.88
352.695	11.88
353.483	8.88
354.271	10.88
355.059	8.88
355.846	9.88
356.634	9.88
357.422	8.88
358.209	9.88
358.997	10.88
359.784	11.88
360.571	10.88
361.359	10.88
362.146	10.88
362.933	10.88
363.72	10.88
364.507	10.88
365.294	11.88
366.081	7.88
366.867	9.88
367.654	9.88
368.44	7.88
369.227	8.88
370.013	9.88
370.8	9.88
371.586	9.88
372.372	7.88
373.158	9.88
373.944	8.88
374.73	9.88
375.516	10.88
376.302	11.88
377.088	6.88
377.873	11.88
378.659	8.88
379.445	10.88
380.23	8.88
381.015	9.88
381.801	12.88
382.586	8.88
383.371	9.88
384.156	10.88
384.941	9.88
385.726	12.88
386.511	12.88
387.296	8.88
388.08	10.88
388.865	10.88
389.649	10.88
390.434	11.88
391.218	11.88
392.003	11.88
392.787	12.88
393.571	11.88
394.355	11.88
395.139	13.88
395.923	13.88
396.707	11.88
397.491	12.88
398.274	13.88
399.058	15.88
399.842	12.88
400.625	14.88
401.408	12.88
402.192	15.88
402.975	12.88
403.758	10.88
404.541	16.88
405.324	13.88
406.107	15.88
406.89	13.88
407.673	13.88
408.456	14.88
409.238	13.88
410.021	19.88
410.803	15.88
411.586	17.88
412.368	18.88
413.151	17.88
413.933	19.88
414.715	16.88
415.497	17.88
416.279	18.88
417.061	18.88
417.843	18.88
418.624	15.88
419.406	19.88
420.188	19.88
420.969	20.88
421.751	21.88
422.532	22.88
423.313	23.88
424.095	23.88
424.876	22.88
425.657	24.88
426.438	24.88
427.219	25.88
428	24.88
428.78	26.88
429.561	26.88
430.342	28.88
431.122	30.88
431.903	36.88
432.683	35.88
433.464	33.88
434.244	38.88
435.024	35.88
435.804	40.88
436.584	41.88
437.364	45.88
438.144	48.88
438.924	45.88
439.704	53.88
440.483	53.88
441.263	60.88
442.042	63.88
442.822	65.88
443.601	75.88
444.38	80.88
445.16	85.88
445.939	90.88
446.718	101.88
447.497	111.88
448.276	122.88
449.054	137.88
449.833	140.88
450.612	167.88
451.391	179.88
452.169	190.88
452.948	216.88
453.726	238.88
454.504	271.88
455.282	296.88
456.061	335.88
456.839	364.88
457.617	406.88
458.395	463.88
459.172	512.88
459.95	559.88
460.728	636.88
461.506	706.88
462.283	783.88
463.061	885.88
463.838	1001.88
464.615	1103.88
465.393	1213.88
466.17	1347.88
466.947	1502.88
467.724	1683.88
468.501	1842.88
469.278	2046.88
470.055	2259.88
470.831	2511.88
471.608	2759.88
472.385	3050.88
473.161	3348.88
473.938	3674.88
474.714	4037.88
475.49	4461.88
476.266	4868.88
477.043	5325.88
477.819	5837.88
478.595	6358.88
479.371	6969.88
480.146	7593.88
480.922	8288.88
481.698	9049.88
482.473	9839.88
483.249	10693.88
484.024	11584.88
484.8	12582.88
485.575	13650.88
486.35	14777.88
487.126	16052.88
487.901	17360.88
488.676	18740.88
489.451	20169.88
490.225	21716.88
491	23240.88
491.775	24856.88
492.55	26656.88
493.324	28419.88
494.099	30165.88
494.873	31903.88
495.647	33726.88
496.422	35462.88
497.196	37315.88
497.97	38979.88
498.744	40443.88
499.518	41987.88
500.292	43383.88
501.066	44500.88
501.839	45364.88
502.613	46126.88
503.387	46747.88
504.16	47189.88
504.934	47293.88
505.707	47208.88
506.48	46865.88
507.253	46319.88
508.027	45513.88
508.8	44713.88
509.573	43667.88
510.346	42567.88
511.118	41529.88
511.891	40298.88
512.664	38658.88
513.437	37344.88
514.209	35948.88
514.982	34525.88
515.754	33091.88
516.526	31743.88
517.298	30569.88
518.071	29286.88
518.843	28104.88
519.615	27040.88
520.387	25931.88
521.159	24949.88
521.93	23892.88
522.702	22795.88
523.474	21975.88
524.245	21025.88
525.017	20075.88
525.788	19154.88
526.56	18387.88
527.331	17598.88
528.102	16658.88
528.873	15869.88
529.644	15119.88
530.415	14439.88
531.186	13734.88
531.957	12968.88
532.728	12352.88
533.498	11685.88
534.269	11048.88
535.039	10415.88
535.81	9892.88
536.58	9378.88
537.351	8838.88
538.121	8401.88
538.891	7942.88
539.661	7521.88
540.431	7126.88
541.201	6757.88
541.971	6384.88
542.741	6053.88
543.51	5760.88
544.28	5490.88
545.05	5196.88
545.819	4973.88
546.588	4720.88
547.358	4514.88
548.127	4293.88
548.896	4078.88
549.665	3873.88
550.434	3663.88
551.203	3455.88
551.972	3294.88
552.741	3102.88
553.51	2930.88
554.278	2764.88
555.047	2626.88
555.815	2470.88
556.584	2353.88
557.352	2204.88
558.121	2113.88
558.889	1967.88
559.657	1865.88
560.425	1770.88
561.193	1682.88
561.961	1565.88
562.729	1500.88
563.496	1413.88
564.264	1353.88
565.032	1252.88
565.799	1186.88
566.567	1139.88
567.334	1070.88
568.101	1003.88
568.869	948.88
569.636	891.88
570.403	846.88
571.17	804.88
571.937	761.88
572.704	717.88
573.471	683.88
574.237	639.88
575.004	592.88
575.771	570.88
576.537	536.88
577.303	502.88
578.07	478.88
578.836	452.88
579.602	427.88
580.368	405.88
581.134	384.88
581.9	368.88
582.666	347.88
583.432	327.88
584.198	307.88
584.964	304.88
585.729	284.88
586.495	275.88
587.26	251.88
588.025	242.88
588.791	226.88
589.556	214.88
590.321	207.88
591.086	193.88
591.851	183.88
592.616	180.88
593.381	166.88
594.146	163.88
594.911	150.88
595.675	141.88
596.44	140.88
597.204	129.88
597.969	131.88
598.733	118.88
599.497	116.88
600.261	113.88
601.025	108.88
601.79	106.88
602.553	94.88
603.317	92.88
604.081	90.88
604.845	91.88
605.609	86.88
606.372	80.88
607.136	77.88
607.899	70.88
608.662	69.88
609.426	69.88
610.189	66.88
610.952	61.88
611.715	58.88
612.478	58.88
613.241	57.88
614.004	58.88
614.767	50.88
615.529	51.88
616.292	52.88
617.055	46.88
617.817	48.88
618.579	43.88
619.342	46.88
620.104	43.88
620.866	40.88
621.628	39.88
622.39	35.88
623.152	35.88
623.914	35.88
624.676	35.88
625.438	33.88
626.199	33.88
626.961	32.88
627.722	30.88
628.484	29.88
629.245	31.88
630.006	25.88
630.768	26.88
631.529	27.88
632.29	27.88
633.051	24.88
633.812	23.88
634.573	22.88
635.333	21.88
636.094	24.88
636.855	23.88
637.615	22.88
638.376	21.88
639.136	18.88
639.896	20.88
640.657	18.88
641.417	18.88
642.177	19.88
642.937	16.88
643.697	17.88
644.457	17.88
645.216	18.88
645.976	16.88
646.736	16.88
647.495	12.88
648.255	14.88
649.014	13.88
649.774	14.88
650.533	13.88
651.292	13.88
652.051	14.88
652.81	14.88
653.569	12.88
654.328	14.88
655.087	14.88
655.846	14.88
656.604	14.88
657.363	12.88
658.121	11.88
658.88	9.88
659.638	11.88
660.397	11.88
661.155	11.88
661.913	10.88
662.671	10.88
663.429	10.88
664.187	9.88
664.945	9.88
665.703	7.88
666.46	8.88
667.218	11.88
667.976	9.88
668.733	9.88
669.49	12.88
670.248	10.88
671.005	10.88
671.762	8.88
672.519	8.88
673.276	9.88
674.033	8.88
674.79	8.88
675.547	8.88
676.304	7.88
677.06	7.88
677.817	8.88
678.574	9.88
679.33	8.88
680.086	10.88
680.843	7.88
681.599	9.88
682.355	8.88
683.111	11.88
683.867	5.88
684.623	8.88
685.379	9.88
686.135	7.88
686.89	9.88
687.646	5.88
688.402	7.88
689.157	9.88
689.912	9.88
690.668	7.88
691.423	6.88
692.178	7.88
692.933	7.88
693.688	8.88
694.443	6.88
695.198	7.88
695.953	9.88
696.708	7.88
697.462	8.88
698.217	5.88
698.972	7.88
699.726	6.88
700.48	7.88
701.235	8.88
701.989	7.88
702.743	7.88
703.497	7.88
704.251	5.88
705.005	7.88
705.759	7.88
706.513	8.88
707.266	7.88
708.02	8.88
708.774	5.88
709.527	8.88
710.28	7.88
711.034	6.88
711.787	8.88
712.54	8.88
713.293	6.88
714.046	9.88
714.799	7.88
715.552	6.88
716.305	8.88
717.058	6.88
717.81	7.88
718.563	7.88
719.315	9.88
720.068	8.88
720.82	7.88
721.573	9.88
722.325	5.88
723.077	7.88
723.829	10.88
724.581	8.88
725.333	7.88
726.085	8.88
726.836	7.88
727.588	8.88
728.34	8.88
729.091	8.88
729.843	7.88
730.594	8.88
731.346	8.88
732.097	11.88
732.848	10.88
733.599	10.88
734.35	8.88
735.101	9.88
735.852	7.88
736.603	5.88
737.354	9.88
738.104	8.88
738.855	11.88
739.605	9.88
740.356	7.88
741.106	12.88
741.856	8.88
742.607	10.88
743.357	10.88
744.107	10.88
744.857	11.88
745.607	11.88
746.357	8.88
747.106	10.88
747.856	9.88
748.606	9.88
749.355	7.88
750.105	12.88
750.854	6.88
751.603	11.88
752.353	12.88
753.102	10.88
753.851	10.88
754.6	10.88
755.349	12.88
756.098	11.88
756.847	12.88
757.595	12.88
758.344	12.88
759.093	11.88
759.841	11.88
760.589	13.88
761.338	14.88
762.086	11.88
762.834	13.88
763.582	11.88
764.331	12.88
765.079	11.88
765.826	11.88
766.574	12.88
767.322	15.88
768.07	13.88
768.817	11.88
769.565	14.88
770.312	13.88
771.06	14.88
771.807	15.88
772.554	15.88
773.302	14.88
774.049	14.88
774.796	14.88
775.543	17.88
776.29	15.88
777.036	16.88
777.783	14.88
778.53	14.88
779.276	16.88
780.023	14.88
780.769	16.88
781.516	16.88
782.262	15.88
783.008	14.88
783.754	14.88
784.5	13.88
785.246	16.88
785.992	14.88
786.738	14.88
787.484	17.88
788.23	16.88
788.975	16.88
789.721	15.88
790.466	13.88
791.212	14.88
791.957	14.88
792.702	14.88
793.447	15.88
794.193	15.88
794.938	13.88
795.683	12.88
796.427	13.88
797.172	11.88
797.917	14.88
798.662	12.88
799.406	9.88
800.151	10.88
800.895	10.88
801.64	11.88
802.384	9.88
803.128	13.88
803.872	12.88
804.616	9.88
805.36	13.88
806.104	9.88
806.848	10.88
807.592	8.88
808.336	7.88
809.079	11.88
809.823	7.88
810.566	9.88
811.31	8.88
812.053	9.88
812.796	6.88
813.539	9.88
814.283	9.88
815.026	8.88
815.769	8.88
816.511	6.88
817.254	7.88
817.997	8.88
818.74	7.88
819.482	7.88
820.225	4.88
820.967	8.88
821.71	8.88
822.452	6.88
823.194	9.88
823.936	9.88
824.678	6.88
825.42	8.88
826.162	5.88
826.904	6.88
827.646	6.88
828.388	7.88
829.129	4.88
829.871	4.88
830.612	4.88
831.354	6.88
832.095	7.88
832.836	5.88
833.577	7.88
834.319	7.88
835.06	4.88
835.801	7.88
836.542	4.88
837.282	5.88
838.023	4.88
838.764	7.88
839.504	5.88
840.245	4.88
840.985	5.88
841.726	5.88
842.466	7.88
843.206	2.88
843.946	7.88
844.687	6.88
845.427	6.88
846.166	5.88
846.906	2.88
847.646	5.88
848.386	5.88
849.125	4.88
849.865	3.88
850.605	5.88
851.344	4.88
852.083	3.88
852.823	2.88
853.562	3.88
854.301	2.88
855.04	3.88
855.779	3.88
856.518	3.88
857.257	5.88
857.995	1.88
858.734	4.88
859.473	1.88
860.211	2.88
860.95	2.88
861.688	3.88
862.426	3.88
863.165	2.88
863.903	2.88
864.641	-0.12
865.379	3.88
866.117	2.88
866.855	3.88
867.593	2.88
868.33	-1.12
869.068	3.88
869.806	2.88
870.543	0.88
871.28	2.88
872.018	3.88
872.755	1.88
873.492	4.88
874.229	4.88
874.967	3.88
875.703	3.88
876.44	2.88
877.177	1.88
877.914	2.88
878.651	1.88
879.387	0.88
880.124	0.88
880.86	1.88
881.597	0.88
882.333	-0.12
883.069	3.88
883.806	3.88
884.542	1.88
885.278	1.88
886.014	0.88
886.749	3.88
887.485	2.88
888.221	0.88
888.957	2.88
889.692	0.88
890.428	0.88
891.163	-0.12
891.899	-0.12
892.634	-0.12
893.369	0.88
894.104	0.88
894.839	0.88
895.574	1.88
896.309	0.88
897.044	1.88
897.779	2.88
898.514	-0.12
899.248	-0.12
899.983	2.88
900.717	1.88
901.452	-2.12
902.186	0.88
902.92	1.88
903.654	-0.12
904.389	1.88
905.123	-0.12
905.857	2.88
906.59	-0.12
907.324	0.88
908.058	1.88
908.792	-0.12
909.525	2.88
910.259	0.88
910.992	1.88
911.726	0.88
912.459	0.88
913.192	1.88
913.925	1.88
914.658	1.88
915.391	-1.12
916.124	1.88
916.857	0.88
917.59	-1.12
918.323	1.88
919.055	2.88
919.788	-1.12
920.521	-1.12
921.253	-0.12
921.985	-1.12
922.718	-1.12
923.45	-0.12
924.182	1.88
924.914	0.88
925.646	0.88
926.378	-0.12
927.11	0.88
927.841	-1.12
928.573	0.88
929.305	-1.12
930.036	0.88
930.768	-0.12
931.499	-2.12
932.23	0.88
932.962	0.88
933.693	-1.12
934.424	0.88
935.155	-1.12
935.886	-0.12
936.617	-0.12
937.348	0.88
938.078	0.88
938.809	0.88
939.54	0.88
940.27	-3.12
941.001	0.88
941.731	-1.12
942.461	-1.12
943.191	0.88
943.922	0.88
944.652	0.88
945.382	0.88
946.112	0.88
946.841	0.88
947.571	-2.12
948.301	0.88
949.031	-1.12
949.76	-0.12
950.49	-1.12
951.219	1.88
951.948	-1.12
952.678	-0.12
953.407	1.88
954.136	-1.12
954.865	1.88
955.594	0.88
956.323	-3.12
957.052	-0.12
957.78	-0.12
958.509	-1.12
959.238	-0.12
959.966	-2.12
960.695	-1.12
961.423	-1.12
962.151	2.88
962.88	-1.12
963.608	-0.12
964.336	0.88
965.064	-0.12
965.792	2.88
966.52	-0.12
967.247	-0.12
967.975	-0.12
968.703	-0.12
969.43	0.88
970.158	0.88
970.885	0.88
971.613	0.88
972.34	-0.12
973.067	-0.12
973.794	0.88
974.521	2.88
975.248	1.88
975.975	0.88
976.702	-0.12
977.429	-1.12
978.156	1.88
978.882	0.88
979.609	-0.12
980.335	0.88
981.062	-1.12
981.788	-0.12
982.514	2.88
983.24	-1.12
983.967	0.88
984.693	-0.12
985.419	-0.12
986.144	-0.12
986.87	0.88
987.596	0.88
988.322	-0.12
989.047	-0.12
989.773	-0.12
990.498	0.88
991.224	0.88
991.949	-1.12
992.674	-1.12
993.399	1.88
994.124	-1.12
994.849	0.88
995.574	-1.12
996.299	-1.12
997.024	1.88
997.749	-3.12
998.473	1.88
999.198	1.88
999.922	-0.12
1000.647	-0.12
1001.371	3.88
1002.095	-2.12
1002.82	0.88
1003.544	-1.12
1004.268	3.88
1004.992	6.88
1005.716	3.88
1006.439	4.88
1007.163	3.88
1007.887	3.88
1008.611	-0.12
1009.334	-0.12
1010.058	-0.12
1010.781	-0.12
1011.504	-0.12
1012.228	-1.12
1012.951	0.88
1013.674	-2.12
1014.397	-1.12
1015.12	0.88
