节点500_705_QEPB04081__383__20-51-23-606.txt的数据

Date: Wed Nov 12 20:51:23 CST 2025
User: PC
Spectrometer: QEPB0408
触发模式: 0
积分时间 (秒): 1.000000E-2
Scans to average: 1
启用暗噪声校正: true
启用非线性校正: false
滑动平均宽度: 0
X轴模式: Wavelengths
Number of Pixels in Spectrum: 1044
>>>>>Begin Spectral Data<<<<<
220.843	4.75
221.644	3.75
222.444	4.75
223.244	7.75
224.045	6.75
224.845	4.75
225.645	6.75
226.445	6.75
227.245	5.75
228.045	7.75
228.845	8.75
229.645	9.75
230.444	6.75
231.244	5.75
232.043	6.75
232.843	9.75
233.642	8.75
234.442	9.75
235.241	10.75
236.04	11.75
236.839	8.75
237.638	10.75
238.437	9.75
239.236	10.75
240.035	10.75
240.833	10.75
241.632	11.75
242.43	10.75
243.229	11.75
244.027	12.75
244.826	11.75
245.624	11.75
246.422	14.75
247.22	14.75
248.018	14.75
248.816	16.75
249.614	13.75
250.412	14.75
251.21	12.75
252.007	14.75
252.805	17.75
253.602	17.75
254.4	17.75
255.197	16.75
255.994	18.75
256.791	20.75
257.589	18.75
258.386	20.75
259.183	19.75
259.979	19.75
260.776	20.75
261.573	22.75
262.37	24.75
263.166	21.75
263.963	24.75
264.759	23.75
265.556	27.75
266.352	26.75
267.148	24.75
267.944	25.75
268.74	26.75
269.536	26.75
270.332	30.75
271.128	29.75
271.924	30.75
272.719	30.75
273.515	33.75
274.311	29.75
275.106	30.75
275.901	34.75
276.697	31.75
277.492	33.75
278.287	30.75
279.082	31.75
279.877	33.75
280.672	30.75
281.467	33.75
282.262	32.75
283.056	32.75
283.851	32.75
284.646	35.75
285.44	32.75
286.234	30.75
287.029	33.75
287.823	33.75
288.617	30.75
289.411	32.75
290.205	26.75
290.999	35.75
291.793	30.75
292.587	34.75
293.381	30.75
294.174	26.75
294.968	29.75
295.761	26.75
296.555	29.75
297.348	24.75
298.141	26.75
298.935	27.75
299.728	24.75
300.521	26.75
301.314	22.75
302.107	24.75
302.899	22.75
303.692	21.75
304.485	22.75
305.277	19.75
306.07	18.75
306.862	21.75
307.655	21.75
308.447	17.75
309.239	23.75
310.031	21.75
310.823	18.75
311.615	19.75
312.407	19.75
313.199	17.75
313.991	15.75
314.783	13.75
315.574	15.75
316.366	13.75
317.157	15.75
317.949	15.75
318.74	16.75
319.531	14.75
320.322	13.75
321.113	13.75
321.904	11.75
322.695	12.75
323.486	13.75
324.277	11.75
325.068	11.75
325.858	11.75
326.649	11.75
327.439	11.75
328.23	13.75
329.02	11.75
329.81	12.75
330.6	11.75
331.391	12.75
332.181	11.75
332.971	12.75
333.76	11.75
334.55	11.75
335.34	12.75
336.13	11.75
336.919	11.75
337.709	12.75
338.498	13.75
339.287	13.75
340.077	12.75
340.866	11.75
341.655	10.75
342.444	12.75
343.233	10.75
344.022	12.75
344.811	8.75
345.6	10.75
346.388	9.75
347.177	11.75
347.965	10.75
348.754	9.75
349.542	10.75
350.33	8.75
351.119	12.75
351.907	11.75
352.695	11.75
353.483	8.75
354.271	7.75
355.059	12.75
355.846	8.75
356.634	10.75
357.422	8.75
358.209	11.75
358.997	8.75
359.784	8.75
360.571	9.75
361.359	9.75
362.146	9.75
362.933	10.75
363.72	8.75
364.507	9.75
365.294	8.75
366.081	10.75
366.867	6.75
367.654	7.75
368.44	8.75
369.227	9.75
370.013	10.75
370.8	8.75
371.586	11.75
372.372	7.75
373.158	10.75
373.944	8.75
374.73	9.75
375.516	9.75
376.302	8.75
377.088	7.75
377.873	10.75
378.659	8.75
379.445	8.75
380.23	9.75
381.015	7.75
381.801	13.75
382.586	9.75
383.371	10.75
384.156	7.75
384.941	10.75
385.726	8.75
386.511	9.75
387.296	10.75
388.08	9.75
388.865	11.75
389.649	10.75
390.434	12.75
391.218	12.75
392.003	12.75
392.787	10.75
393.571	8.75
394.355	12.75
395.139	13.75
395.923	7.75
396.707	13.75
397.491	11.75
398.274	14.75
399.058	12.75
399.842	12.75
400.625	12.75
401.408	13.75
402.192	11.75
402.975	14.75
403.758	14.75
404.541	14.75
405.324	14.75
406.107	14.75
406.89	12.75
407.673	13.75
408.456	13.75
409.238	14.75
410.021	15.75
410.803	16.75
411.586	17.75
412.368	13.75
413.151	15.75
413.933	16.75
414.715	14.75
415.497	19.75
416.279	16.75
417.061	20.75
417.843	21.75
418.624	18.75
419.406	19.75
420.188	19.75
420.969	21.75
421.751	20.75
422.532	23.75
423.313	23.75
424.095	22.75
424.876	25.75
425.657	24.75
426.438	26.75
427.219	23.75
428	26.75
428.78	25.75
429.561	26.75
430.342	30.75
431.122	31.75
431.903	30.75
432.683	32.75
433.464	33.75
434.244	39.75
435.024	34.75
435.804	39.75
436.584	41.75
437.364	43.75
438.144	46.75
438.924	52.75
439.704	54.75
440.483	60.75
441.263	61.75
442.042	64.75
442.822	68.75
443.601	77.75
444.38	81.75
445.16	89.75
445.939	90.75
446.718	103.75
447.497	113.75
448.276	131.75
449.054	136.75
449.833	146.75
450.612	168.75
451.391	178.75
452.169	198.75
452.948	217.75
453.726	244.75
454.504	265.75
455.282	303.75
456.061	336.75
456.839	379.75
457.617	413.75
458.395	468.75
459.172	519.75
459.95	577.75
460.728	647.75
461.506	714.75
462.283	806.75
463.061	885.75
463.838	1007.75
464.615	1097.75
465.393	1238.75
466.17	1356.75
466.947	1511.75
467.724	1670.75
468.501	1869.75
469.278	2059.75
470.055	2278.75
470.831	2524.75
471.608	2771.75
472.385	3052.75
473.161	3374.75
473.938	3677.75
474.714	4060.75
475.49	4443.75
476.266	4841.75
477.043	5320.75
477.819	5794.75
478.595	6286.75
479.371	6900.75
480.146	7527.75
480.922	8178.75
481.698	8900.75
482.473	9710.75
483.249	10558.75
484.024	11424.75
484.8	12396.75
485.575	13368.75
486.35	14508.75
487.126	15748.75
487.901	17015.75
488.676	18286.75
489.451	19768.75
490.225	21174.75
491	22746.75
491.775	24324.75
492.55	26004.75
493.324	27607.75
494.099	29360.75
494.873	31124.75
495.647	32854.75
496.422	34666.75
497.196	36406.75
497.97	37974.75
498.744	39545.75
499.518	41073.75
500.292	42517.75
501.066	43543.75
501.839	44424.75
502.613	45302.75
503.387	45926.75
504.16	46421.75
504.934	46594.75
505.707	46604.75
506.48	46295.75
507.253	45968.75
508.027	45329.75
508.8	44475.75
509.573	43418.75
510.346	42384.75
511.118	41369.75
511.891	40186.75
512.664	38694.75
513.437	37319.75
514.209	35942.75
514.982	34630.75
515.754	33216.75
516.526	31847.75
517.298	30585.75
518.071	29422.75
518.843	28299.75
519.615	27091.75
520.387	26010.75
521.159	25034.75
521.93	23974.75
522.702	23058.75
523.474	21988.75
524.245	21100.75
525.017	20214.75
525.788	19332.75
526.56	18539.75
527.331	17728.75
528.102	16830.75
528.873	15983.75
529.644	15227.75
530.415	14526.75
531.186	13875.75
531.957	13132.75
532.728	12428.75
533.498	11836.75
534.269	11148.75
535.039	10624.75
535.81	10007.75
536.58	9514.75
537.351	8946.75
538.121	8522.75
538.891	8066.75
539.661	7593.75
540.431	7189.75
541.201	6864.75
541.971	6468.75
542.741	6134.75
543.51	5835.75
544.28	5561.75
545.05	5261.75
545.819	5042.75
546.588	4803.75
547.358	4599.75
548.127	4332.75
548.896	4133.75
549.665	3908.75
550.434	3714.75
551.203	3526.75
551.972	3312.75
552.741	3163.75
553.51	2977.75
554.278	2827.75
555.047	2650.75
555.815	2507.75
556.584	2370.75
557.352	2255.75
558.121	2129.75
558.889	1996.75
559.657	1881.75
560.425	1796.75
561.193	1688.75
561.961	1621.75
562.729	1528.75
563.496	1421.75
564.264	1359.75
565.032	1295.75
565.799	1222.75
566.567	1150.75
567.334	1084.75
568.101	1038.75
568.869	972.75
569.636	918.75
570.403	862.75
571.17	820.75
571.937	764.75
572.704	738.75
573.471	693.75
574.237	653.75
575.004	610.75
575.771	576.75
576.537	546.75
577.303	514.75
578.07	490.75
578.836	456.75
579.602	434.75
580.368	414.75
581.134	384.75
581.9	371.75
582.666	356.75
583.432	324.75
584.198	323.75
584.964	298.75
585.729	284.75
586.495	273.75
587.26	255.75
588.025	247.75
588.791	231.75
589.556	217.75
590.321	209.75
591.086	201.75
591.851	194.75
592.616	183.75
593.381	166.75
594.146	161.75
594.911	157.75
595.675	151.75
596.44	139.75
597.204	139.75
597.969	134.75
598.733	123.75
599.497	119.75
600.261	114.75
601.025	106.75
601.79	105.75
602.553	105.75
603.317	96.75
604.081	92.75
604.845	90.75
605.609	81.75
606.372	82.75
607.136	78.75
607.899	74.75
608.662	72.75
609.426	69.75
610.189	70.75
610.952	63.75
611.715	59.75
612.478	61.75
613.241	56.75
614.004	52.75
614.767	53.75
615.529	47.75
616.292	50.75
617.055	48.75
617.817	46.75
618.579	44.75
619.342	44.75
620.104	39.75
620.866	42.75
621.628	41.75
622.39	38.75
623.152	37.75
623.914	37.75
624.676	34.75
625.438	35.75
626.199	35.75
626.961	30.75
627.722	30.75
628.484	27.75
629.245	26.75
630.006	27.75
630.768	26.75
631.529	25.75
632.29	23.75
633.051	25.75
633.812	22.75
634.573	24.75
635.333	22.75
636.094	22.75
636.855	20.75
637.615	18.75
638.376	17.75
639.136	21.75
639.896	16.75
640.657	17.75
641.417	20.75
642.177	16.75
642.937	14.75
643.697	17.75
644.457	17.75
645.216	16.75
645.976	12.75
646.736	15.75
647.495	16.75
648.255	15.75
649.014	15.75
649.774	13.75
650.533	14.75
651.292	13.75
652.051	12.75
652.81	12.75
653.569	14.75
654.328	9.75
655.087	13.75
655.846	12.75
656.604	11.75
657.363	13.75
658.121	10.75
658.88	12.75
659.638	11.75
660.397	9.75
661.155	9.75
661.913	8.75
662.671	10.75
663.429	9.75
664.187	9.75
664.945	10.75
665.703	11.75
666.46	11.75
667.218	9.75
667.976	10.75
668.733	10.75
669.49	9.75
670.248	8.75
671.005	8.75
671.762	9.75
672.519	8.75
673.276	10.75
674.033	10.75
674.79	8.75
675.547	8.75
676.304	7.75
677.06	7.75
677.817	7.75
678.574	8.75
679.33	6.75
680.086	4.75
680.843	9.75
681.599	2.75
682.355	6.75
683.111	8.75
683.867	8.75
684.623	9.75
685.379	7.75
686.135	8.75
686.89	5.75
687.646	7.75
688.402	7.75
689.157	6.75
689.912	7.75
690.668	4.75
691.423	6.75
692.178	5.75
692.933	7.75
693.688	5.75
694.443	8.75
695.198	7.75
695.953	6.75
696.708	7.75
697.462	6.75
698.217	7.75
698.972	8.75
699.726	5.75
700.48	7.75
701.235	5.75
701.989	6.75
702.743	7.75
703.497	5.75
704.251	8.75
705.005	7.75
705.759	8.75
706.513	7.75
707.266	9.75
708.02	7.75
708.774	8.75
709.527	10.75
710.28	7.75
711.034	5.75
711.787	7.75
712.54	6.75
713.293	10.75
714.046	6.75
714.799	6.75
715.552	5.75
716.305	7.75
717.058	8.75
717.81	6.75
718.563	9.75
719.315	7.75
720.068	9.75
720.82	10.75
721.573	7.75
722.325	10.75
723.077	7.75
723.829	6.75
724.581	7.75
725.333	7.75
726.085	8.75
726.836	9.75
727.588	7.75
728.34	7.75
729.091	9.75
729.843	10.75
730.594	7.75
731.346	8.75
732.097	7.75
732.848	9.75
733.599	7.75
734.35	10.75
735.101	11.75
735.852	9.75
736.603	7.75
737.354	10.75
738.104	9.75
738.855	9.75
739.605	7.75
740.356	9.75
741.106	10.75
741.856	9.75
742.607	9.75
743.357	11.75
744.107	9.75
744.857	9.75
745.607	7.75
746.357	9.75
747.106	8.75
747.856	9.75
748.606	10.75
749.355	9.75
750.105	9.75
750.854	10.75
751.603	10.75
752.353	10.75
753.102	9.75
753.851	10.75
754.6	10.75
755.349	11.75
756.098	11.75
756.847	9.75
757.595	13.75
758.344	10.75
759.093	11.75
759.841	13.75
760.589	10.75
761.338	8.75
762.086	13.75
762.834	10.75
763.582	12.75
764.331	15.75
765.079	12.75
765.826	13.75
766.574	12.75
767.322	12.75
768.07	12.75
768.817	14.75
769.565	11.75
770.312	13.75
771.06	14.75
771.807	15.75
772.554	14.75
773.302	16.75
774.049	15.75
774.796	13.75
775.543	14.75
776.29	14.75
777.036	12.75
777.783	15.75
778.53	15.75
779.276	15.75
780.023	13.75
780.769	13.75
781.516	16.75
782.262	17.75
783.008	15.75
783.754	13.75
784.5	13.75
785.246	14.75
785.992	14.75
786.738	16.75
787.484	13.75
788.23	13.75
788.975	11.75
789.721	15.75
790.466	15.75
791.212	14.75
791.957	14.75
792.702	13.75
793.447	12.75
794.193	14.75
794.938	13.75
795.683	13.75
796.427	12.75
797.172	14.75
797.917	12.75
798.662	12.75
799.406	10.75
800.151	10.75
800.895	10.75
801.64	9.75
802.384	12.75
803.128	11.75
803.872	11.75
804.616	12.75
805.36	10.75
806.104	11.75
806.848	10.75
807.592	7.75
808.336	10.75
809.079	11.75
809.823	8.75
810.566	8.75
811.31	10.75
812.053	7.75
812.796	8.75
813.539	7.75
814.283	8.75
815.026	8.75
815.769	8.75
816.511	7.75
817.254	7.75
817.997	7.75
818.74	7.75
819.482	6.75
820.225	7.75
820.967	9.75
821.71	9.75
822.452	5.75
823.194	1.75
823.936	9.75
824.678	4.75
825.42	5.75
826.162	6.75
826.904	8.75
827.646	6.75
828.388	7.75
829.129	5.75
829.871	6.75
830.612	6.75
831.354	9.75
832.095	4.75
832.836	5.75
833.577	2.75
834.319	4.75
835.06	4.75
835.801	5.75
836.542	3.75
837.282	4.75
838.023	4.75
838.764	5.75
839.504	5.75
840.245	5.75
840.985	4.75
841.726	4.75
842.466	6.75
843.206	4.75
843.946	3.75
844.687	4.75
845.427	4.75
846.166	4.75
846.906	4.75
847.646	5.75
848.386	4.75
849.125	4.75
849.865	3.75
850.605	3.75
851.344	2.75
852.083	5.75
852.823	1.75
853.562	4.75
854.301	1.75
855.04	0.75
855.779	4.75
856.518	1.75
857.257	4.75
857.995	3.75
858.734	2.75
859.473	2.75
860.211	2.75
860.95	6.75
861.688	3.75
862.426	2.75
863.165	4.75
863.903	1.75
864.641	4.75
865.379	-0.25
866.117	2.75
866.855	2.75
867.593	2.75
868.33	0.75
869.068	2.75
869.806	2.75
870.543	3.75
871.28	2.75
872.018	-0.25
872.755	0.75
873.492	1.75
874.229	1.75
874.967	1.75
875.703	2.75
876.44	0.75
877.177	0.75
877.914	0.75
878.651	2.75
879.387	1.75
880.124	0.75
880.86	-0.25
881.597	0.75
882.333	2.75
883.069	0.75
883.806	0.75
884.542	-1.25
885.278	1.75
886.014	2.75
886.749	-1.25
887.485	2.75
888.221	-0.25
888.957	1.75
889.692	5.75
890.428	0.75
891.163	0.75
891.899	0.75
892.634	0.75
893.369	1.75
894.104	-0.25
894.839	-0.25
895.574	-0.25
896.309	3.75
897.044	0.75
897.779	1.75
898.514	1.75
899.248	0.75
899.983	0.75
900.717	0.75
901.452	-1.25
902.186	0.75
902.92	1.75
903.654	3.75
904.389	-0.25
905.123	0.75
905.857	-0.25
906.59	3.75
907.324	0.75
908.058	-1.25
908.792	0.75
909.525	-0.25
910.259	-0.25
910.992	0.75
911.726	0.75
912.459	-0.25
913.192	0.75
913.925	0.75
914.658	-1.25
915.391	1.75
916.124	0.75
916.857	2.75
917.59	0.75
918.323	3.75
919.055	0.75
919.788	1.75
920.521	2.75
921.253	-0.25
921.985	0.75
922.718	-1.25
923.45	0.75
924.182	0.75
924.914	-0.25
925.646	0.75
926.378	0.75
927.11	-0.25
927.841	-0.25
928.573	-1.25
929.305	2.75
930.036	-0.25
930.768	0.75
931.499	0.75
932.23	-1.25
932.962	2.75
933.693	-0.25
934.424	0.75
935.155	0.75
935.886	0.75
936.617	-1.25
937.348	0.75
938.078	-1.25
938.809	0.75
939.54	0.75
940.27	0.75
941.001	-1.25
941.731	1.75
942.461	-2.25
943.191	-0.25
943.922	-1.25
944.652	-0.25
945.382	-0.25
946.112	-0.25
946.841	1.75
947.571	-0.25
948.301	0.75
949.031	2.75
949.76	0.75
950.49	-0.25
951.219	-1.25
951.948	0.75
952.678	-0.25
953.407	0.75
954.136	1.75
954.865	0.75
955.594	0.75
956.323	1.75
957.052	-1.25
957.78	-1.25
958.509	1.75
959.238	-1.25
959.966	-3.25
960.695	-1.25
961.423	1.75
962.151	0.75
962.88	0.75
963.608	0.75
964.336	-0.25
965.064	-0.25
965.792	2.75
966.52	-0.25
967.247	0.75
967.975	-0.25
968.703	0.75
969.43	-1.25
970.158	0.75
970.885	-0.25
971.613	-0.25
972.34	-1.25
973.067	-1.25
973.794	-0.25
974.521	0.75
975.248	-1.25
975.975	-2.25
976.702	-0.25
977.429	-0.25
978.156	1.75
978.882	-1.25
979.609	0.75
980.335	0.75
981.062	-1.25
981.788	-0.25
982.514	-0.25
983.24	0.75
983.967	-0.25
984.693	-0.25
985.419	0.75
986.144	-1.25
986.87	0.75
987.596	-1.25
988.322	1.75
989.047	-0.25
989.773	-0.25
990.498	-1.25
991.224	1.75
991.949	0.75
992.674	-0.25
993.399	-0.25
994.124	0.75
994.849	-1.25
995.574	0.75
996.299	-0.25
997.024	-0.25
997.749	-0.25
998.473	0.75
999.198	-1.25
999.922	-0.25
1000.647	-2.25
1001.371	4.75
1002.095	-1.25
1002.82	0.75
1003.544	-1.25
1004.268	3.75
1004.992	2.75
1005.716	3.75
1006.439	5.75
1007.163	4.75
1007.887	7.75
1008.611	0.75
1009.334	1.75
1010.058	1.75
1010.781	-1.25
1011.504	-0.25
1012.228	-1.25
1012.951	-0.25
1013.674	-1.25
1014.397	-0.25
1015.12	-1.25
