节点500_705_QEPB04081__168__20-48-39-029.txt的数据

Date: Wed Nov 12 20:48:39 CST 2025
User: PC
Spectrometer: QEPB0408
触发模式: 0
积分时间 (秒): 1.000000E-2
Scans to average: 1
启用暗噪声校正: true
启用非线性校正: false
滑动平均宽度: 0
X轴模式: Wavelengths
Number of Pixels in Spectrum: 1044
>>>>>Begin Spectral Data<<<<<
220.843	6.88
221.644	8.88
222.444	5.88
223.244	6.88
224.045	8.88
224.845	5.88
225.645	8.88
226.445	7.88
227.245	8.88
228.045	9.88
228.845	9.88
229.645	8.88
230.444	8.88
231.244	8.88
232.043	9.88
232.843	11.88
233.642	9.88
234.442	10.88
235.241	12.88
236.04	10.88
236.839	10.88
237.638	10.88
238.437	12.88
239.236	12.88
240.035	10.88
240.833	11.88
241.632	13.88
242.43	10.88
243.229	12.88
244.027	15.88
244.826	15.88
245.624	16.88
246.422	15.88
247.22	13.88
248.018	16.88
248.816	16.88
249.614	16.88
250.412	15.88
251.21	17.88
252.007	20.88
252.805	14.88
253.602	17.88
254.4	20.88
255.197	20.88
255.994	19.88
256.791	20.88
257.589	19.88
258.386	21.88
259.183	20.88
259.979	23.88
260.776	24.88
261.573	27.88
262.37	26.88
263.166	26.88
263.963	27.88
264.759	27.88
265.556	28.88
266.352	29.88
267.148	29.88
267.944	31.88
268.74	31.88
269.536	31.88
270.332	32.88
271.128	34.88
271.924	35.88
272.719	36.88
273.515	33.88
274.311	33.88
275.106	33.88
275.901	33.88
276.697	36.88
277.492	37.88
278.287	35.88
279.082	34.88
279.877	38.88
280.672	31.88
281.467	34.88
282.262	35.88
283.056	35.88
283.851	34.88
284.646	38.88
285.44	31.88
286.234	33.88
287.029	35.88
287.823	39.88
288.617	33.88
289.411	34.88
290.205	35.88
290.999	31.88
291.793	31.88
292.587	29.88
293.381	32.88
294.174	33.88
294.968	29.88
295.761	30.88
296.555	27.88
297.348	27.88
298.141	25.88
298.935	29.88
299.728	26.88
300.521	27.88
301.314	25.88
302.107	22.88
302.899	22.88
303.692	22.88
304.485	23.88
305.277	25.88
306.07	17.88
306.862	23.88
307.655	22.88
308.447	22.88
309.239	21.88
310.031	20.88
310.823	20.88
311.615	17.88
312.407	19.88
313.199	17.88
313.991	15.88
314.783	16.88
315.574	17.88
316.366	15.88
317.157	15.88
317.949	15.88
318.74	13.88
319.531	16.88
320.322	15.88
321.113	15.88
321.904	14.88
322.695	13.88
323.486	14.88
324.277	14.88
325.068	13.88
325.858	13.88
326.649	11.88
327.439	13.88
328.23	12.88
329.02	14.88
329.81	15.88
330.6	14.88
331.391	13.88
332.181	11.88
332.971	13.88
333.76	14.88
334.55	10.88
335.34	13.88
336.13	11.88
336.919	12.88
337.709	14.88
338.498	13.88
339.287	13.88
340.077	10.88
340.866	10.88
341.655	13.88
342.444	11.88
343.233	11.88
344.022	10.88
344.811	11.88
345.6	13.88
346.388	11.88
347.177	14.88
347.965	12.88
348.754	11.88
349.542	13.88
350.33	11.88
351.119	10.88
351.907	12.88
352.695	11.88
353.483	12.88
354.271	11.88
355.059	8.88
355.846	10.88
356.634	10.88
357.422	10.88
358.209	11.88
358.997	11.88
359.784	10.88
360.571	7.88
361.359	12.88
362.146	11.88
362.933	11.88
363.72	10.88
364.507	9.88
365.294	8.88
366.081	9.88
366.867	11.88
367.654	9.88
368.44	8.88
369.227	11.88
370.013	9.88
370.8	6.88
371.586	11.88
372.372	12.88
373.158	11.88
373.944	7.88
374.73	10.88
375.516	11.88
376.302	10.88
377.088	11.88
377.873	11.88
378.659	11.88
379.445	6.88
380.23	9.88
381.015	9.88
381.801	9.88
382.586	13.88
383.371	7.88
384.156	11.88
384.941	11.88
385.726	11.88
386.511	11.88
387.296	10.88
388.08	13.88
388.865	7.88
389.649	11.88
390.434	11.88
391.218	12.88
392.003	13.88
392.787	10.88
393.571	11.88
394.355	13.88
395.139	12.88
395.923	13.88
396.707	15.88
397.491	11.88
398.274	10.88
399.058	13.88
399.842	16.88
400.625	16.88
401.408	14.88
402.192	14.88
402.975	16.88
403.758	18.88
404.541	17.88
405.324	16.88
406.107	15.88
406.89	15.88
407.673	18.88
408.456	17.88
409.238	16.88
410.021	19.88
410.803	17.88
411.586	15.88
412.368	19.88
413.151	17.88
413.933	19.88
414.715	17.88
415.497	18.88
416.279	19.88
417.061	18.88
417.843	21.88
418.624	21.88
419.406	19.88
420.188	22.88
420.969	23.88
421.751	23.88
422.532	23.88
423.313	24.88
424.095	23.88
424.876	24.88
425.657	26.88
426.438	26.88
427.219	29.88
428	26.88
428.78	27.88
429.561	33.88
430.342	27.88
431.122	31.88
431.903	30.88
432.683	33.88
433.464	36.88
434.244	38.88
435.024	40.88
435.804	41.88
436.584	47.88
437.364	44.88
438.144	48.88
438.924	50.88
439.704	52.88
440.483	60.88
441.263	59.88
442.042	63.88
442.822	71.88
443.601	74.88
444.38	77.88
445.16	84.88
445.939	95.88
446.718	95.88
447.497	109.88
448.276	117.88
449.054	124.88
449.833	141.88
450.612	151.88
451.391	171.88
452.169	187.88
452.948	212.88
453.726	228.88
454.504	251.88
455.282	286.88
456.061	308.88
456.839	354.88
457.617	394.88
458.395	438.88
459.172	491.88
459.95	552.88
460.728	607.88
461.506	679.88
462.283	754.88
463.061	852.88
463.838	938.88
464.615	1069.88
465.393	1176.88
466.17	1315.88
466.947	1467.88
467.724	1645.88
468.501	1809.88
469.278	2021.88
470.055	2244.88
470.831	2476.88
471.608	2747.88
472.385	3001.88
473.161	3338.88
473.938	3706.88
474.714	4071.88
475.49	4463.88
476.266	4918.88
477.043	5381.88
477.819	5916.88
478.595	6476.88
479.371	7125.88
480.146	7791.88
480.922	8507.88
481.698	9290.88
482.473	10194.88
483.249	11077.88
484.024	12033.88
484.8	13117.88
485.575	14272.88
486.35	15515.88
487.126	16808.88
487.901	18216.88
488.676	19716.88
489.451	21334.88
490.225	22984.88
491	24655.88
491.775	26422.88
492.55	28219.88
493.324	30036.88
494.099	31930.88
494.873	33823.88
495.647	35683.88
496.422	37578.88
497.196	39554.88
497.97	41210.88
498.744	42752.88
499.518	44295.88
500.292	45598.88
501.066	46598.88
501.839	47395.88
502.613	48006.88
503.387	48593.88
504.16	48895.88
504.934	48827.88
505.707	48481.88
506.48	47942.88
507.253	47426.88
508.027	46413.88
508.8	45217.88
509.573	44042.88
510.346	42863.88
511.118	41681.88
511.891	40294.88
512.664	38673.88
513.437	37091.88
514.209	35666.88
514.982	34261.88
515.754	32764.88
516.526	31349.88
517.298	30162.88
518.071	28914.88
518.843	27773.88
519.615	26619.88
520.387	25575.88
521.159	24602.88
521.93	23565.88
522.702	22497.88
523.474	21593.88
524.245	20627.88
525.017	19690.88
525.788	18856.88
526.56	18002.88
527.331	17164.88
528.102	16292.88
528.873	15512.88
529.644	14750.88
530.415	14100.88
531.186	13320.88
531.957	12593.88
532.728	12005.88
533.498	11299.88
534.269	10685.88
535.039	10156.88
535.81	9568.88
536.58	9039.88
537.351	8570.88
538.121	8094.88
538.891	7693.88
539.661	7249.88
540.431	6891.88
541.201	6527.88
541.971	6173.88
542.741	5848.88
543.51	5574.88
544.28	5298.88
545.05	5063.88
545.819	4799.88
546.588	4599.88
547.358	4360.88
548.127	4140.88
548.896	3912.88
549.665	3712.88
550.434	3498.88
551.203	3340.88
551.972	3184.88
552.741	3002.88
553.51	2842.88
554.278	2681.88
555.047	2492.88
555.815	2372.88
556.584	2228.88
557.352	2108.88
558.121	1999.88
558.889	1865.88
559.657	1770.88
560.425	1701.88
561.193	1602.88
561.961	1518.88
562.729	1423.88
563.496	1355.88
564.264	1259.88
565.032	1211.88
565.799	1147.88
566.567	1085.88
567.334	1022.88
568.101	965.88
568.869	911.88
569.636	863.88
570.403	810.88
571.17	760.88
571.937	722.88
572.704	694.88
573.471	646.88
574.237	609.88
575.004	571.88
575.771	546.88
576.537	513.88
577.303	471.88
578.07	465.88
578.836	418.88
579.602	405.88
580.368	386.88
581.134	374.88
581.9	350.88
582.666	336.88
583.432	315.88
584.198	299.88
584.964	286.88
585.729	275.88
586.495	259.88
587.26	244.88
588.025	233.88
588.791	219.88
589.556	208.88
590.321	197.88
591.086	191.88
591.851	178.88
592.616	171.88
593.381	161.88
594.146	156.88
594.911	148.88
595.675	142.88
596.44	136.88
597.204	127.88
597.969	124.88
598.733	115.88
599.497	110.88
600.261	107.88
601.025	102.88
601.79	101.88
602.553	93.88
603.317	91.88
604.081	88.88
604.845	84.88
605.609	79.88
606.372	79.88
607.136	78.88
607.899	72.88
608.662	69.88
609.426	67.88
610.189	65.88
610.952	63.88
611.715	64.88
612.478	58.88
613.241	56.88
614.004	51.88
614.767	52.88
615.529	51.88
616.292	49.88
617.055	47.88
617.817	44.88
618.579	44.88
619.342	40.88
620.104	42.88
620.866	39.88
621.628	42.88
622.39	36.88
623.152	35.88
623.914	38.88
624.676	32.88
625.438	36.88
626.199	31.88
626.961	31.88
627.722	31.88
628.484	30.88
629.245	27.88
630.006	28.88
630.768	27.88
631.529	27.88
632.29	24.88
633.051	23.88
633.812	22.88
634.573	23.88
635.333	22.88
636.094	23.88
636.855	22.88
637.615	22.88
638.376	21.88
639.136	21.88
639.896	21.88
640.657	22.88
641.417	22.88
642.177	19.88
642.937	19.88
643.697	18.88
644.457	16.88
645.216	19.88
645.976	17.88
646.736	14.88
647.495	17.88
648.255	16.88
649.014	15.88
649.774	12.88
650.533	13.88
651.292	16.88
652.051	12.88
652.81	17.88
653.569	12.88
654.328	13.88
655.087	12.88
655.846	12.88
656.604	9.88
657.363	14.88
658.121	12.88
658.88	9.88
659.638	13.88
660.397	14.88
661.155	12.88
661.913	11.88
662.671	10.88
663.429	11.88
664.187	10.88
664.945	10.88
665.703	12.88
666.46	12.88
667.218	10.88
667.976	8.88
668.733	12.88
669.49	10.88
670.248	9.88
671.005	11.88
671.762	10.88
672.519	10.88
673.276	9.88
674.033	11.88
674.79	7.88
675.547	9.88
676.304	11.88
677.06	9.88
677.817	8.88
678.574	9.88
679.33	8.88
680.086	10.88
680.843	7.88
681.599	6.88
682.355	8.88
683.111	7.88
683.867	9.88
684.623	11.88
685.379	7.88
686.135	6.88
686.89	9.88
687.646	11.88
688.402	9.88
689.157	11.88
689.912	6.88
690.668	7.88
691.423	7.88
692.178	8.88
692.933	9.88
693.688	8.88
694.443	9.88
695.198	7.88
695.953	9.88
696.708	7.88
697.462	7.88
698.217	11.88
698.972	8.88
699.726	7.88
700.48	7.88
701.235	9.88
701.989	8.88
702.743	8.88
703.497	9.88
704.251	8.88
705.005	9.88
705.759	6.88
706.513	6.88
707.266	8.88
708.02	7.88
708.774	8.88
709.527	9.88
710.28	7.88
711.034	8.88
711.787	8.88
712.54	9.88
713.293	8.88
714.046	9.88
714.799	8.88
715.552	6.88
716.305	9.88
717.058	7.88
717.81	7.88
718.563	8.88
719.315	9.88
720.068	7.88
720.82	8.88
721.573	8.88
722.325	9.88
723.077	8.88
723.829	7.88
724.581	9.88
725.333	7.88
726.085	11.88
726.836	9.88
727.588	9.88
728.34	8.88
729.091	8.88
729.843	9.88
730.594	11.88
731.346	10.88
732.097	11.88
732.848	9.88
733.599	11.88
734.35	13.88
735.101	11.88
735.852	9.88
736.603	10.88
737.354	12.88
738.104	9.88
738.855	11.88
739.605	10.88
740.356	11.88
741.106	9.88
741.856	13.88
742.607	12.88
743.357	12.88
744.107	13.88
744.857	10.88
745.607	9.88
746.357	10.88
747.106	10.88
747.856	12.88
748.606	11.88
749.355	10.88
750.105	10.88
750.854	10.88
751.603	12.88
752.353	13.88
753.102	14.88
753.851	13.88
754.6	13.88
755.349	11.88
756.098	10.88
756.847	14.88
757.595	11.88
758.344	12.88
759.093	12.88
759.841	13.88
760.589	13.88
761.338	14.88
762.086	16.88
762.834	12.88
763.582	15.88
764.331	18.88
765.079	15.88
765.826	15.88
766.574	14.88
767.322	13.88
768.07	14.88
768.817	15.88
769.565	17.88
770.312	13.88
771.06	15.88
771.807	14.88
772.554	15.88
773.302	16.88
774.049	13.88
774.796	17.88
775.543	17.88
776.29	16.88
777.036	15.88
777.783	18.88
778.53	19.88
779.276	15.88
780.023	17.88
780.769	17.88
781.516	17.88
782.262	17.88
783.008	12.88
783.754	17.88
784.5	16.88
785.246	15.88
785.992	14.88
786.738	17.88
787.484	14.88
788.23	16.88
788.975	17.88
789.721	15.88
790.466	17.88
791.212	17.88
791.957	14.88
792.702	16.88
793.447	12.88
794.193	16.88
794.938	14.88
795.683	13.88
796.427	15.88
797.172	14.88
797.917	14.88
798.662	12.88
799.406	14.88
800.151	14.88
800.895	12.88
801.64	13.88
802.384	12.88
803.128	14.88
803.872	12.88
804.616	11.88
805.36	10.88
806.104	12.88
806.848	13.88
807.592	9.88
808.336	13.88
809.079	7.88
809.823	8.88
810.566	11.88
811.31	8.88
812.053	9.88
812.796	11.88
813.539	10.88
814.283	8.88
815.026	10.88
815.769	10.88
816.511	8.88
817.254	11.88
817.997	10.88
818.74	8.88
819.482	9.88
820.225	8.88
820.967	6.88
821.71	9.88
822.452	9.88
823.194	7.88
823.936	8.88
824.678	7.88
825.42	6.88
826.162	8.88
826.904	8.88
827.646	6.88
828.388	7.88
829.129	5.88
829.871	6.88
830.612	6.88
831.354	8.88
832.095	8.88
832.836	7.88
833.577	5.88
834.319	4.88
835.06	4.88
835.801	6.88
836.542	5.88
837.282	7.88
838.023	6.88
838.764	6.88
839.504	7.88
840.245	5.88
840.985	5.88
841.726	5.88
842.466	4.88
843.206	3.88
843.946	6.88
844.687	6.88
845.427	5.88
846.166	7.88
846.906	7.88
847.646	7.88
848.386	5.88
849.125	6.88
849.865	5.88
850.605	5.88
851.344	5.88
852.083	5.88
852.823	6.88
853.562	5.88
854.301	5.88
855.04	3.88
855.779	3.88
856.518	4.88
857.257	4.88
857.995	4.88
858.734	4.88
859.473	4.88
860.211	3.88
860.95	5.88
861.688	3.88
862.426	3.88
863.165	2.88
863.903	4.88
864.641	3.88
865.379	6.88
866.117	1.88
866.855	3.88
867.593	1.88
868.33	1.88
869.068	4.88
869.806	1.88
870.543	5.88
871.28	2.88
872.018	1.88
872.755	4.88
873.492	3.88
874.229	2.88
874.967	3.88
875.703	2.88
876.44	2.88
877.177	2.88
877.914	2.88
878.651	1.88
879.387	-0.12
880.124	3.88
880.86	4.88
881.597	3.88
882.333	3.88
883.069	3.88
883.806	2.88
884.542	2.88
885.278	0.88
886.014	0.88
886.749	2.88
887.485	3.88
888.221	2.88
888.957	0.88
889.692	1.88
890.428	3.88
891.163	0.88
891.899	2.88
892.634	-0.12
893.369	-0.12
894.104	3.88
894.839	-0.12
895.574	3.88
896.309	-0.12
897.044	1.88
897.779	1.88
898.514	1.88
899.248	-0.12
899.983	1.88
900.717	3.88
901.452	1.88
902.186	3.88
902.92	-0.12
903.654	0.88
904.389	0.88
905.123	2.88
905.857	2.88
906.59	2.88
907.324	0.88
908.058	0.88
908.792	2.88
909.525	0.88
910.259	0.88
910.992	0.88
911.726	1.88
912.459	1.88
913.192	3.88
913.925	0.88
914.658	1.88
915.391	-0.12
916.124	2.88
916.857	1.88
917.59	2.88
918.323	3.88
919.055	0.88
919.788	2.88
920.521	-0.12
921.253	2.88
921.985	0.88
922.718	2.88
923.45	1.88
924.182	0.88
924.914	1.88
925.646	-1.12
926.378	-0.12
927.11	1.88
927.841	-1.12
928.573	0.88
929.305	1.88
930.036	1.88
930.768	1.88
931.499	-0.12
932.23	1.88
932.962	1.88
933.693	2.88
934.424	-0.12
935.155	2.88
935.886	0.88
936.617	0.88
937.348	0.88
938.078	-0.12
938.809	1.88
939.54	2.88
940.27	0.88
941.001	0.88
941.731	0.88
942.461	0.88
943.191	0.88
943.922	1.88
944.652	-0.12
945.382	0.88
946.112	0.88
946.841	-1.12
947.571	3.88
948.301	-0.12
949.031	0.88
949.76	2.88
950.49	0.88
951.219	0.88
951.948	1.88
952.678	0.88
953.407	0.88
954.136	0.88
954.865	1.88
955.594	-1.12
956.323	1.88
957.052	0.88
957.78	-0.12
958.509	-0.12
959.238	2.88
959.966	0.88
960.695	-0.12
961.423	1.88
962.151	0.88
962.88	3.88
963.608	0.88
964.336	1.88
965.064	1.88
965.792	0.88
966.52	1.88
967.247	1.88
967.975	1.88
968.703	-2.12
969.43	0.88
970.158	2.88
970.885	3.88
971.613	2.88
972.34	0.88
973.067	1.88
973.794	-0.12
974.521	0.88
975.248	2.88
975.975	0.88
976.702	1.88
977.429	-0.12
978.156	-0.12
978.882	1.88
979.609	0.88
980.335	1.88
981.062	0.88
981.788	2.88
982.514	-0.12
983.24	-1.12
983.967	2.88
984.693	0.88
985.419	2.88
986.144	2.88
986.87	0.88
987.596	-1.12
988.322	0.88
989.047	1.88
989.773	1.88
990.498	-0.12
991.224	0.88
991.949	0.88
992.674	0.88
993.399	2.88
994.124	0.88
994.849	1.88
995.574	0.88
996.299	2.88
997.024	0.88
997.749	2.88
998.473	-0.12
999.198	-0.12
999.922	3.88
1000.647	0.88
1001.371	1.88
1002.095	-1.12
1002.82	-1.12
1003.544	-1.12
1004.268	5.88
1004.992	5.88
1005.716	6.88
1006.439	4.88
1007.163	5.88
1007.887	3.88
1008.611	0.88
1009.334	-0.12
1010.058	1.88
1010.781	2.88
1011.504	3.88
1012.228	0.88
1012.951	-1.12
1013.674	1.88
1014.397	0.88
1015.12	-0.12
