节点500_705_QEPB04081__268__20-49-46-433.txt的数据

Date: Wed Nov 12 20:49:46 CST 2025
User: PC
Spectrometer: QEPB0408
触发模式: 0
积分时间 (秒): 1.000000E-2
Scans to average: 1
启用暗噪声校正: true
启用非线性校正: false
滑动平均宽度: 0
X轴模式: Wavelengths
Number of Pixels in Spectrum: 1044
>>>>>Begin Spectral Data<<<<<
220.843	5.25
221.644	7.25
222.444	6.25
223.244	6.25
224.045	7.25
224.845	5.25
225.645	6.25
226.445	6.25
227.245	8.25
228.045	8.25
228.845	8.25
229.645	9.25
230.444	9.25
231.244	8.25
232.043	11.25
232.843	11.25
233.642	9.25
234.442	10.25
235.241	9.25
236.04	8.25
236.839	11.25
237.638	10.25
238.437	8.25
239.236	11.25
240.035	10.25
240.833	12.25
241.632	11.25
242.43	13.25
243.229	14.25
244.027	13.25
244.826	14.25
245.624	14.25
246.422	13.25
247.22	15.25
248.018	14.25
248.816	17.25
249.614	15.25
250.412	15.25
251.21	15.25
252.007	19.25
252.805	17.25
253.602	20.25
254.4	18.25
255.197	19.25
255.994	21.25
256.791	19.25
257.589	21.25
258.386	21.25
259.183	20.25
259.979	22.25
260.776	22.25
261.573	27.25
262.37	24.25
263.166	27.25
263.963	28.25
264.759	25.25
265.556	29.25
266.352	27.25
267.148	28.25
267.944	28.25
268.74	29.25
269.536	30.25
270.332	31.25
271.128	31.25
271.924	34.25
272.719	31.25
273.515	32.25
274.311	31.25
275.106	32.25
275.901	33.25
276.697	32.25
277.492	33.25
278.287	33.25
279.082	35.25
279.877	34.25
280.672	38.25
281.467	36.25
282.262	35.25
283.056	36.25
283.851	34.25
284.646	34.25
285.44	34.25
286.234	31.25
287.029	36.25
287.823	33.25
288.617	33.25
289.411	30.25
290.205	34.25
290.999	30.25
291.793	30.25
292.587	34.25
293.381	32.25
294.174	32.25
294.968	31.25
295.761	27.25
296.555	26.25
297.348	27.25
298.141	27.25
298.935	27.25
299.728	27.25
300.521	27.25
301.314	22.25
302.107	23.25
302.899	21.25
303.692	21.25
304.485	23.25
305.277	23.25
306.07	23.25
306.862	23.25
307.655	23.25
308.447	19.25
309.239	22.25
310.031	18.25
310.823	17.25
311.615	20.25
312.407	15.25
313.199	17.25
313.991	18.25
314.783	19.25
315.574	18.25
316.366	17.25
317.157	15.25
317.949	15.25
318.74	16.25
319.531	14.25
320.322	13.25
321.113	15.25
321.904	15.25
322.695	14.25
323.486	12.25
324.277	13.25
325.068	12.25
325.858	12.25
326.649	13.25
327.439	14.25
328.23	13.25
329.02	11.25
329.81	13.25
330.6	13.25
331.391	11.25
332.181	13.25
332.971	14.25
333.76	11.25
334.55	11.25
335.34	13.25
336.13	11.25
336.919	13.25
337.709	13.25
338.498	12.25
339.287	9.25
340.077	11.25
340.866	13.25
341.655	9.25
342.444	11.25
343.233	12.25
344.022	11.25
344.811	12.25
345.6	10.25
346.388	13.25
347.177	14.25
347.965	12.25
348.754	11.25
349.542	15.25
350.33	13.25
351.119	10.25
351.907	10.25
352.695	13.25
353.483	11.25
354.271	11.25
355.059	9.25
355.846	9.25
356.634	10.25
357.422	9.25
358.209	14.25
358.997	12.25
359.784	11.25
360.571	11.25
361.359	11.25
362.146	11.25
362.933	10.25
363.72	12.25
364.507	11.25
365.294	10.25
366.081	9.25
366.867	8.25
367.654	10.25
368.44	9.25
369.227	10.25
370.013	9.25
370.8	8.25
371.586	10.25
372.372	8.25
373.158	9.25
373.944	10.25
374.73	9.25
375.516	10.25
376.302	9.25
377.088	10.25
377.873	11.25
378.659	11.25
379.445	11.25
380.23	13.25
381.015	10.25
381.801	10.25
382.586	11.25
383.371	11.25
384.156	11.25
384.941	11.25
385.726	10.25
386.511	11.25
387.296	11.25
388.08	10.25
388.865	14.25
389.649	12.25
390.434	11.25
391.218	10.25
392.003	13.25
392.787	9.25
393.571	10.25
394.355	13.25
395.139	10.25
395.923	12.25
396.707	12.25
397.491	16.25
398.274	13.25
399.058	11.25
399.842	13.25
400.625	11.25
401.408	13.25
402.192	15.25
402.975	16.25
403.758	14.25
404.541	18.25
405.324	13.25
406.107	13.25
406.89	17.25
407.673	14.25
408.456	17.25
409.238	18.25
410.021	16.25
410.803	15.25
411.586	16.25
412.368	14.25
413.151	18.25
413.933	18.25
414.715	21.25
415.497	20.25
416.279	18.25
417.061	23.25
417.843	20.25
418.624	20.25
419.406	20.25
420.188	22.25
420.969	21.25
421.751	19.25
422.532	19.25
423.313	23.25
424.095	25.25
424.876	25.25
425.657	25.25
426.438	25.25
427.219	27.25
428	26.25
428.78	27.25
429.561	30.25
430.342	30.25
431.122	32.25
431.903	31.25
432.683	34.25
433.464	36.25
434.244	41.25
435.024	39.25
435.804	41.25
436.584	41.25
437.364	46.25
438.144	46.25
438.924	47.25
439.704	53.25
440.483	54.25
441.263	61.25
442.042	70.25
442.822	70.25
443.601	74.25
444.38	83.25
445.16	84.25
445.939	93.25
446.718	104.25
447.497	110.25
448.276	118.25
449.054	129.25
449.833	142.25
450.612	161.25
451.391	173.25
452.169	192.25
452.948	212.25
453.726	235.25
454.504	266.25
455.282	296.25
456.061	327.25
456.839	359.25
457.617	404.25
458.395	457.25
459.172	495.25
459.95	561.25
460.728	631.25
461.506	698.25
462.283	773.25
463.061	879.25
463.838	968.25
464.615	1076.25
465.393	1210.25
466.17	1330.25
466.947	1508.25
467.724	1672.25
468.501	1830.25
469.278	2020.25
470.055	2260.25
470.831	2481.25
471.608	2754.25
472.385	3030.25
473.161	3344.25
473.938	3663.25
474.714	4043.25
475.49	4437.25
476.266	4873.25
477.043	5348.25
477.819	5870.25
478.595	6443.25
479.371	7018.25
480.146	7663.25
480.922	8404.25
481.698	9132.25
482.473	9947.25
483.249	10811.25
484.024	11788.25
484.8	12728.25
485.575	13889.25
486.35	15114.25
487.126	16363.25
487.901	17643.25
488.676	19078.25
489.451	20585.25
490.225	22191.25
491	23843.25
491.775	25439.25
492.55	27202.25
493.324	29055.25
494.099	30792.25
494.873	32620.25
495.647	34502.25
496.422	36310.25
497.196	38173.25
497.97	39721.25
498.744	41258.25
499.518	42881.25
500.292	44336.25
501.066	45275.25
501.839	46212.25
502.613	46815.25
503.387	47445.25
504.16	47856.25
504.934	47894.25
505.707	47695.25
506.48	47257.25
507.253	46723.25
508.027	45959.25
508.8	44987.25
509.573	43812.25
510.346	42693.25
511.118	41519.25
511.891	40348.25
512.664	38747.25
513.437	37255.25
514.209	35818.25
514.982	34431.25
515.754	32988.25
516.526	31626.25
517.298	30382.25
518.071	29124.25
518.843	27980.25
519.615	26834.25
520.387	25878.25
521.159	24867.25
521.93	23732.25
522.702	22773.25
523.474	21823.25
524.245	20845.25
525.017	19894.25
525.788	19034.25
526.56	18290.25
527.331	17483.25
528.102	16525.25
528.873	15717.25
529.644	14982.25
530.415	14301.25
531.186	13584.25
531.957	12871.25
532.728	12121.25
533.498	11514.25
534.269	10918.25
535.039	10312.25
535.81	9794.25
536.58	9236.25
537.351	8758.25
538.121	8304.25
538.891	7834.25
539.661	7418.25
540.431	7006.25
541.201	6665.25
541.971	6311.25
542.741	5997.25
543.51	5662.25
544.28	5434.25
545.05	5141.25
545.819	4906.25
546.588	4658.25
547.358	4455.25
548.127	4256.25
548.896	4036.25
549.665	3804.25
550.434	3610.25
551.203	3420.25
551.972	3257.25
552.741	3072.25
553.51	2895.25
554.278	2728.25
555.047	2572.25
555.815	2447.25
556.584	2282.25
557.352	2176.25
558.121	2068.25
558.889	1939.25
559.657	1847.25
560.425	1734.25
561.193	1646.25
561.961	1552.25
562.729	1459.25
563.496	1382.25
564.264	1306.25
565.032	1237.25
565.799	1179.25
566.567	1102.25
567.334	1049.25
568.101	1002.25
568.869	930.25
569.636	875.25
570.403	834.25
571.17	795.25
571.937	753.25
572.704	710.25
573.471	677.25
574.237	632.25
575.004	584.25
575.771	557.25
576.537	519.25
577.303	494.25
578.07	475.25
578.836	435.25
579.602	420.25
580.368	400.25
581.134	369.25
581.9	356.25
582.666	341.25
583.432	331.25
584.198	312.25
584.964	293.25
585.729	283.25
586.495	261.25
587.26	255.25
588.025	236.25
588.791	225.25
589.556	213.25
590.321	199.25
591.086	191.25
591.851	182.25
592.616	178.25
593.381	169.25
594.146	160.25
594.911	151.25
595.675	147.25
596.44	140.25
597.204	132.25
597.969	131.25
598.733	116.25
599.497	117.25
600.261	113.25
601.025	105.25
601.79	98.25
602.553	98.25
603.317	91.25
604.081	91.25
604.845	83.25
605.609	84.25
606.372	81.25
607.136	78.25
607.899	71.25
608.662	70.25
609.426	73.25
610.189	65.25
610.952	66.25
611.715	60.25
612.478	61.25
613.241	59.25
614.004	55.25
614.767	54.25
615.529	54.25
616.292	48.25
617.055	50.25
617.817	46.25
618.579	47.25
619.342	43.25
620.104	42.25
620.866	40.25
621.628	38.25
622.39	39.25
623.152	35.25
623.914	37.25
624.676	39.25
625.438	31.25
626.199	30.25
626.961	33.25
627.722	31.25
628.484	29.25
629.245	30.25
630.006	29.25
630.768	28.25
631.529	28.25
632.29	24.25
633.051	24.25
633.812	23.25
634.573	26.25
635.333	23.25
636.094	21.25
636.855	20.25
637.615	21.25
638.376	24.25
639.136	21.25
639.896	21.25
640.657	18.25
641.417	21.25
642.177	20.25
642.937	18.25
643.697	18.25
644.457	18.25
645.216	17.25
645.976	18.25
646.736	16.25
647.495	19.25
648.255	18.25
649.014	14.25
649.774	16.25
650.533	12.25
651.292	12.25
652.051	14.25
652.81	13.25
653.569	15.25
654.328	12.25
655.087	13.25
655.846	11.25
656.604	14.25
657.363	9.25
658.121	11.25
658.88	13.25
659.638	11.25
660.397	14.25
661.155	12.25
661.913	10.25
662.671	11.25
663.429	11.25
664.187	11.25
664.945	10.25
665.703	11.25
666.46	9.25
667.218	11.25
667.976	12.25
668.733	9.25
669.49	11.25
670.248	9.25
671.005	11.25
671.762	11.25
672.519	7.25
673.276	11.25
674.033	9.25
674.79	11.25
675.547	9.25
676.304	7.25
677.06	8.25
677.817	8.25
678.574	11.25
679.33	7.25
680.086	9.25
680.843	7.25
681.599	10.25
682.355	8.25
683.111	7.25
683.867	9.25
684.623	7.25
685.379	9.25
686.135	8.25
686.89	8.25
687.646	11.25
688.402	8.25
689.157	7.25
689.912	8.25
690.668	8.25
691.423	7.25
692.178	8.25
692.933	10.25
693.688	9.25
694.443	8.25
695.198	7.25
695.953	9.25
696.708	7.25
697.462	8.25
698.217	6.25
698.972	7.25
699.726	9.25
700.48	5.25
701.235	9.25
701.989	10.25
702.743	7.25
703.497	6.25
704.251	8.25
705.005	8.25
705.759	6.25
706.513	8.25
707.266	8.25
708.02	9.25
708.774	8.25
709.527	8.25
710.28	8.25
711.034	5.25
711.787	7.25
712.54	8.25
713.293	9.25
714.046	6.25
714.799	6.25
715.552	7.25
716.305	8.25
717.058	11.25
717.81	8.25
718.563	8.25
719.315	5.25
720.068	8.25
720.82	8.25
721.573	8.25
722.325	8.25
723.077	5.25
723.829	9.25
724.581	8.25
725.333	8.25
726.085	9.25
726.836	8.25
727.588	8.25
728.34	7.25
729.091	9.25
729.843	8.25
730.594	14.25
731.346	8.25
732.097	8.25
732.848	11.25
733.599	7.25
734.35	9.25
735.101	10.25
735.852	9.25
736.603	9.25
737.354	9.25
738.104	8.25
738.855	10.25
739.605	12.25
740.356	8.25
741.106	12.25
741.856	10.25
742.607	12.25
743.357	11.25
744.107	11.25
744.857	11.25
745.607	9.25
746.357	10.25
747.106	11.25
747.856	9.25
748.606	14.25
749.355	12.25
750.105	12.25
750.854	13.25
751.603	10.25
752.353	14.25
753.102	13.25
753.851	13.25
754.6	11.25
755.349	13.25
756.098	14.25
756.847	10.25
757.595	13.25
758.344	12.25
759.093	13.25
759.841	15.25
760.589	12.25
761.338	13.25
762.086	13.25
762.834	10.25
763.582	14.25
764.331	13.25
765.079	15.25
765.826	14.25
766.574	16.25
767.322	16.25
768.07	16.25
768.817	16.25
769.565	13.25
770.312	15.25
771.06	13.25
771.807	15.25
772.554	15.25
773.302	14.25
774.049	17.25
774.796	15.25
775.543	15.25
776.29	18.25
777.036	16.25
777.783	15.25
778.53	15.25
779.276	18.25
780.023	15.25
780.769	15.25
781.516	18.25
782.262	16.25
783.008	15.25
783.754	15.25
784.5	15.25
785.246	15.25
785.992	17.25
786.738	17.25
787.484	14.25
788.23	17.25
788.975	15.25
789.721	16.25
790.466	15.25
791.212	11.25
791.957	15.25
792.702	13.25
793.447	13.25
794.193	14.25
794.938	15.25
795.683	15.25
796.427	12.25
797.172	15.25
797.917	14.25
798.662	15.25
799.406	12.25
800.151	13.25
800.895	13.25
801.64	10.25
802.384	12.25
803.128	10.25
803.872	10.25
804.616	13.25
805.36	12.25
806.104	9.25
806.848	11.25
807.592	9.25
808.336	11.25
809.079	9.25
809.823	12.25
810.566	12.25
811.31	14.25
812.053	10.25
812.796	7.25
813.539	9.25
814.283	10.25
815.026	7.25
815.769	6.25
816.511	11.25
817.254	8.25
817.997	10.25
818.74	7.25
819.482	7.25
820.225	8.25
820.967	6.25
821.71	9.25
822.452	6.25
823.194	8.25
823.936	7.25
824.678	6.25
825.42	5.25
826.162	7.25
826.904	9.25
827.646	7.25
828.388	5.25
829.129	6.25
829.871	8.25
830.612	8.25
831.354	4.25
832.095	7.25
832.836	8.25
833.577	6.25
834.319	8.25
835.06	5.25
835.801	7.25
836.542	7.25
837.282	4.25
838.023	7.25
838.764	8.25
839.504	5.25
840.245	5.25
840.985	5.25
841.726	6.25
842.466	3.25
843.206	4.25
843.946	3.25
844.687	7.25
845.427	5.25
846.166	6.25
846.906	3.25
847.646	6.25
848.386	7.25
849.125	3.25
849.865	8.25
850.605	3.25
851.344	4.25
852.083	5.25
852.823	3.25
853.562	4.25
854.301	3.25
855.04	5.25
855.779	5.25
856.518	5.25
857.257	3.25
857.995	1.25
858.734	4.25
859.473	3.25
860.211	4.25
860.95	3.25
861.688	4.25
862.426	3.25
863.165	3.25
863.903	1.25
864.641	3.25
865.379	3.25
866.117	3.25
866.855	4.25
867.593	4.25
868.33	1.25
869.068	2.25
869.806	5.25
870.543	1.25
871.28	5.25
872.018	2.25
872.755	3.25
873.492	3.25
874.229	-0.75
874.967	3.25
875.703	3.25
876.44	4.25
877.177	3.25
877.914	1.25
878.651	3.25
879.387	0.25
880.124	3.25
880.86	2.25
881.597	4.25
882.333	3.25
883.069	1.25
883.806	2.25
884.542	1.25
885.278	1.25
886.014	2.25
886.749	1.25
887.485	3.25
888.221	2.25
888.957	3.25
889.692	0.25
890.428	1.25
891.163	-0.75
891.899	2.25
892.634	-1.75
893.369	1.25
894.104	3.25
894.839	1.25
895.574	1.25
896.309	2.25
897.044	3.25
897.779	1.25
898.514	-0.75
899.248	1.25
899.983	3.25
900.717	0.25
901.452	0.25
902.186	0.25
902.92	-0.75
903.654	1.25
904.389	0.25
905.123	1.25
905.857	1.25
906.59	2.25
907.324	0.25
908.058	0.25
908.792	1.25
909.525	2.25
910.259	1.25
910.992	1.25
911.726	1.25
912.459	0.25
913.192	-1.75
913.925	2.25
914.658	1.25
915.391	0.25
916.124	2.25
916.857	2.25
917.59	0.25
918.323	1.25
919.055	-1.75
919.788	1.25
920.521	2.25
921.253	-0.75
921.985	2.25
922.718	0.25
923.45	1.25
924.182	3.25
924.914	-0.75
925.646	2.25
926.378	-0.75
927.11	1.25
927.841	0.25
928.573	0.25
929.305	-1.75
930.036	2.25
930.768	3.25
931.499	0.25
932.23	2.25
932.962	3.25
933.693	-0.75
934.424	1.25
935.155	-0.75
935.886	1.25
936.617	-0.75
937.348	1.25
938.078	1.25
938.809	0.25
939.54	2.25
940.27	1.25
941.001	2.25
941.731	0.25
942.461	2.25
943.191	1.25
943.922	-0.75
944.652	2.25
945.382	0.25
946.112	1.25
946.841	1.25
947.571	2.25
948.301	3.25
949.031	-0.75
949.76	1.25
950.49	2.25
951.219	1.25
951.948	0.25
952.678	1.25
953.407	1.25
954.136	-0.75
954.865	1.25
955.594	0.25
956.323	1.25
957.052	-0.75
957.78	0.25
958.509	1.25
959.238	0.25
959.966	-1.75
960.695	0.25
961.423	2.25
962.151	1.25
962.88	-0.75
963.608	0.25
964.336	1.25
965.064	0.25
965.792	0.25
966.52	-0.75
967.247	2.25
967.975	-0.75
968.703	1.25
969.43	3.25
970.158	-0.75
970.885	0.25
971.613	0.25
972.34	0.25
973.067	-0.75
973.794	0.25
974.521	1.25
975.248	-0.75
975.975	1.25
976.702	-0.75
977.429	1.25
978.156	2.25
978.882	1.25
979.609	1.25
980.335	2.25
981.062	1.25
981.788	0.25
982.514	0.25
983.24	1.25
983.967	0.25
984.693	3.25
985.419	0.25
986.144	-0.75
986.87	0.25
987.596	2.25
988.322	1.25
989.047	0.25
989.773	3.25
990.498	2.25
991.224	-0.75
991.949	1.25
992.674	1.25
993.399	0.25
994.124	1.25
994.849	1.25
995.574	-0.75
996.299	1.25
997.024	2.25
997.749	-1.75
998.473	0.25
999.198	1.25
999.922	-1.75
1000.647	-0.75
1001.371	1.25
1002.095	-0.75
1002.82	0.25
1003.544	-0.75
1004.268	5.25
1004.992	5.25
1005.716	4.25
1006.439	5.25
1007.163	3.25
1007.887	5.25
1008.611	1.25
1009.334	2.25
1010.058	-0.75
1010.781	-1.75
1011.504	1.25
1012.228	-1.75
1012.951	0.25
1013.674	-0.75
1014.397	1.25
1015.12	-0.75
