节点500_705_QEPB04081__262__20-49-40-402.txt的数据

Date: Wed Nov 12 20:49:40 CST 2025
User: PC
Spectrometer: QEPB0408
触发模式: 0
积分时间 (秒): 1.000000E-2
Scans to average: 1
启用暗噪声校正: true
启用非线性校正: false
滑动平均宽度: 0
X轴模式: Wavelengths
Number of Pixels in Spectrum: 1044
>>>>>Begin Spectral Data<<<<<
220.843	5.88
221.644	5.88
222.444	4.88
223.244	7.88
224.045	6.88
224.845	7.88
225.645	6.88
226.445	6.88
227.245	9.88
228.045	7.88
228.845	8.88
229.645	7.88
230.444	8.88
231.244	9.88
232.043	8.88
232.843	8.88
233.642	7.88
234.442	9.88
235.241	8.88
236.04	9.88
236.839	11.88
237.638	9.88
238.437	12.88
239.236	12.88
240.035	11.88
240.833	11.88
241.632	10.88
242.43	12.88
243.229	12.88
244.027	12.88
244.826	11.88
245.624	14.88
246.422	10.88
247.22	15.88
248.018	16.88
248.816	17.88
249.614	15.88
250.412	14.88
251.21	16.88
252.007	17.88
252.805	18.88
253.602	14.88
254.4	19.88
255.197	17.88
255.994	20.88
256.791	18.88
257.589	21.88
258.386	24.88
259.183	21.88
259.979	21.88
260.776	21.88
261.573	22.88
262.37	24.88
263.166	24.88
263.963	25.88
264.759	25.88
265.556	29.88
266.352	25.88
267.148	26.88
267.944	28.88
268.74	27.88
269.536	30.88
270.332	29.88
271.128	30.88
271.924	32.88
272.719	29.88
273.515	29.88
274.311	32.88
275.106	34.88
275.901	35.88
276.697	29.88
277.492	35.88
278.287	32.88
279.082	34.88
279.877	35.88
280.672	33.88
281.467	32.88
282.262	35.88
283.056	33.88
283.851	34.88
284.646	34.88
285.44	33.88
286.234	36.88
287.029	31.88
287.823	34.88
288.617	30.88
289.411	31.88
290.205	34.88
290.999	32.88
291.793	33.88
292.587	31.88
293.381	30.88
294.174	33.88
294.968	27.88
295.761	30.88
296.555	28.88
297.348	24.88
298.141	26.88
298.935	29.88
299.728	28.88
300.521	25.88
301.314	24.88
302.107	21.88
302.899	22.88
303.692	24.88
304.485	21.88
305.277	23.88
306.07	19.88
306.862	21.88
307.655	23.88
308.447	18.88
309.239	19.88
310.031	19.88
310.823	19.88
311.615	17.88
312.407	18.88
313.199	14.88
313.991	17.88
314.783	18.88
315.574	12.88
316.366	17.88
317.157	16.88
317.949	15.88
318.74	16.88
319.531	15.88
320.322	15.88
321.113	14.88
321.904	13.88
322.695	12.88
323.486	10.88
324.277	12.88
325.068	11.88
325.858	13.88
326.649	13.88
327.439	11.88
328.23	13.88
329.02	7.88
329.81	12.88
330.6	9.88
331.391	11.88
332.181	11.88
332.971	10.88
333.76	12.88
334.55	13.88
335.34	13.88
336.13	12.88
336.919	11.88
337.709	13.88
338.498	10.88
339.287	14.88
340.077	11.88
340.866	10.88
341.655	14.88
342.444	10.88
343.233	12.88
344.022	9.88
344.811	11.88
345.6	11.88
346.388	12.88
347.177	11.88
347.965	10.88
348.754	10.88
349.542	12.88
350.33	9.88
351.119	9.88
351.907	11.88
352.695	14.88
353.483	9.88
354.271	8.88
355.059	9.88
355.846	11.88
356.634	10.88
357.422	10.88
358.209	10.88
358.997	11.88
359.784	8.88
360.571	9.88
361.359	10.88
362.146	11.88
362.933	10.88
363.72	10.88
364.507	10.88
365.294	9.88
366.081	8.88
366.867	10.88
367.654	8.88
368.44	9.88
369.227	7.88
370.013	10.88
370.8	6.88
371.586	9.88
372.372	7.88
373.158	10.88
373.944	9.88
374.73	10.88
375.516	10.88
376.302	11.88
377.088	9.88
377.873	9.88
378.659	10.88
379.445	8.88
380.23	8.88
381.015	8.88
381.801	9.88
382.586	10.88
383.371	10.88
384.156	11.88
384.941	8.88
385.726	10.88
386.511	9.88
387.296	10.88
388.08	12.88
388.865	11.88
389.649	9.88
390.434	9.88
391.218	9.88
392.003	13.88
392.787	11.88
393.571	12.88
394.355	14.88
395.139	12.88
395.923	12.88
396.707	10.88
397.491	15.88
398.274	12.88
399.058	10.88
399.842	11.88
400.625	11.88
401.408	14.88
402.192	13.88
402.975	13.88
403.758	14.88
404.541	13.88
405.324	14.88
406.107	14.88
406.89	13.88
407.673	17.88
408.456	15.88
409.238	17.88
410.021	17.88
410.803	15.88
411.586	16.88
412.368	17.88
413.151	17.88
413.933	18.88
414.715	17.88
415.497	18.88
416.279	23.88
417.061	18.88
417.843	20.88
418.624	20.88
419.406	19.88
420.188	20.88
420.969	22.88
421.751	24.88
422.532	19.88
423.313	22.88
424.095	26.88
424.876	23.88
425.657	25.88
426.438	25.88
427.219	25.88
428	26.88
428.78	28.88
429.561	28.88
430.342	28.88
431.122	32.88
431.903	31.88
432.683	36.88
433.464	37.88
434.244	36.88
435.024	40.88
435.804	39.88
436.584	41.88
437.364	44.88
438.144	46.88
438.924	51.88
439.704	51.88
440.483	57.88
441.263	61.88
442.042	64.88
442.822	66.88
443.601	73.88
444.38	78.88
445.16	87.88
445.939	91.88
446.718	100.88
447.497	107.88
448.276	115.88
449.054	131.88
449.833	144.88
450.612	154.88
451.391	171.88
452.169	190.88
452.948	207.88
453.726	236.88
454.504	261.88
455.282	292.88
456.061	331.88
456.839	356.88
457.617	398.88
458.395	442.88
459.172	500.88
459.95	550.88
460.728	630.88
461.506	693.88
462.283	785.88
463.061	876.88
463.838	963.88
464.615	1079.88
465.393	1194.88
466.17	1339.88
466.947	1480.88
467.724	1654.88
468.501	1841.88
469.278	2041.88
470.055	2237.88
470.831	2493.88
471.608	2751.88
472.385	3031.88
473.161	3346.88
473.938	3672.88
474.714	4052.88
475.49	4463.88
476.266	4896.88
477.043	5362.88
477.819	5900.88
478.595	6448.88
479.371	7062.88
480.146	7665.88
480.922	8396.88
481.698	9158.88
482.473	9983.88
483.249	10881.88
484.024	11824.88
484.8	12831.88
485.575	13957.88
486.35	15098.88
487.126	16417.88
487.901	17703.88
488.676	19157.88
489.451	20667.88
490.225	22237.88
491	23880.88
491.775	25674.88
492.55	27372.88
493.324	29163.88
494.099	30963.88
494.873	32798.88
495.647	34617.88
496.422	36510.88
497.196	38324.88
497.97	39985.88
498.744	41515.88
499.518	43079.88
500.292	44450.88
501.066	45444.88
501.839	46303.88
502.613	47000.88
503.387	47532.88
504.16	47984.88
504.934	48008.88
505.707	47839.88
506.48	47448.88
507.253	46903.88
508.027	46045.88
508.8	45001.88
509.573	43884.88
510.346	42755.88
511.118	41605.88
511.891	40325.88
512.664	38670.88
513.437	37240.88
514.209	35790.88
514.982	34409.88
515.754	32988.88
516.526	31565.88
517.298	30312.88
518.071	29128.88
518.843	27953.88
519.615	26845.88
520.387	25852.88
521.159	24754.88
521.93	23677.88
522.702	22745.88
523.474	21785.88
524.245	20835.88
525.017	19856.88
525.788	19017.88
526.56	18129.88
527.331	17401.88
528.102	16526.88
528.873	15669.88
529.644	14952.88
530.415	14250.88
531.186	13531.88
531.957	12767.88
532.728	12152.88
533.498	11490.88
534.269	10879.88
535.039	10301.88
535.81	9768.88
536.58	9181.88
537.351	8700.88
538.121	8282.88
538.891	7825.88
539.661	7384.88
540.431	7003.88
541.201	6624.88
541.971	6302.88
542.741	5952.88
543.51	5644.88
544.28	5383.88
545.05	5120.88
545.819	4871.88
546.588	4645.88
547.358	4444.88
548.127	4175.88
548.896	3994.88
549.665	3780.88
550.434	3592.88
551.203	3388.88
551.972	3251.88
552.741	3064.88
553.51	2866.88
554.278	2703.88
555.047	2556.88
555.815	2438.88
556.584	2286.88
557.352	2188.88
558.121	2045.88
558.889	1925.88
559.657	1824.88
560.425	1727.88
561.193	1643.88
561.961	1566.88
562.729	1458.88
563.496	1388.88
564.264	1306.88
565.032	1234.88
565.799	1172.88
566.567	1113.88
567.334	1040.88
568.101	997.88
568.869	942.88
569.636	878.88
570.403	822.88
571.17	786.88
571.937	751.88
572.704	713.88
573.471	646.88
574.237	621.88
575.004	591.88
575.771	551.88
576.537	515.88
577.303	494.88
578.07	469.88
578.836	444.88
579.602	420.88
580.368	395.88
581.134	379.88
581.9	362.88
582.666	337.88
583.432	323.88
584.198	305.88
584.964	289.88
585.729	274.88
586.495	258.88
587.26	248.88
588.025	238.88
588.791	226.88
589.556	210.88
590.321	201.88
591.086	186.88
591.851	187.88
592.616	173.88
593.381	167.88
594.146	157.88
594.911	149.88
595.675	145.88
596.44	137.88
597.204	128.88
597.969	129.88
598.733	124.88
599.497	120.88
600.261	111.88
601.025	102.88
601.79	99.88
602.553	98.88
603.317	95.88
604.081	88.88
604.845	89.88
605.609	82.88
606.372	82.88
607.136	74.88
607.899	70.88
608.662	72.88
609.426	66.88
610.189	67.88
610.952	63.88
611.715	57.88
612.478	55.88
613.241	55.88
614.004	52.88
614.767	52.88
615.529	50.88
616.292	48.88
617.055	47.88
617.817	44.88
618.579	45.88
619.342	44.88
620.104	45.88
620.866	40.88
621.628	38.88
622.39	39.88
623.152	38.88
623.914	35.88
624.676	35.88
625.438	35.88
626.199	31.88
626.961	30.88
627.722	31.88
628.484	28.88
629.245	29.88
630.006	26.88
630.768	27.88
631.529	28.88
632.29	23.88
633.051	23.88
633.812	23.88
634.573	24.88
635.333	19.88
636.094	20.88
636.855	20.88
637.615	19.88
638.376	19.88
639.136	19.88
639.896	18.88
640.657	19.88
641.417	16.88
642.177	20.88
642.937	18.88
643.697	18.88
644.457	16.88
645.216	17.88
645.976	16.88
646.736	14.88
647.495	14.88
648.255	14.88
649.014	13.88
649.774	13.88
650.533	13.88
651.292	14.88
652.051	16.88
652.81	12.88
653.569	10.88
654.328	12.88
655.087	12.88
655.846	12.88
656.604	12.88
657.363	12.88
658.121	10.88
658.88	13.88
659.638	10.88
660.397	9.88
661.155	10.88
661.913	10.88
662.671	11.88
663.429	9.88
664.187	8.88
664.945	11.88
665.703	12.88
666.46	9.88
667.218	9.88
667.976	9.88
668.733	9.88
669.49	10.88
670.248	9.88
671.005	9.88
671.762	8.88
672.519	11.88
673.276	8.88
674.033	7.88
674.79	9.88
675.547	8.88
676.304	9.88
677.06	8.88
677.817	9.88
678.574	6.88
679.33	5.88
680.086	9.88
680.843	6.88
681.599	6.88
682.355	8.88
683.111	8.88
683.867	7.88
684.623	6.88
685.379	6.88
686.135	8.88
686.89	7.88
687.646	8.88
688.402	7.88
689.157	8.88
689.912	7.88
690.668	6.88
691.423	8.88
692.178	7.88
692.933	9.88
693.688	4.88
694.443	8.88
695.198	7.88
695.953	6.88
696.708	7.88
697.462	5.88
698.217	5.88
698.972	7.88
699.726	6.88
700.48	7.88
701.235	6.88
701.989	8.88
702.743	6.88
703.497	7.88
704.251	6.88
705.005	9.88
705.759	7.88
706.513	9.88
707.266	6.88
708.02	7.88
708.774	7.88
709.527	5.88
710.28	7.88
711.034	8.88
711.787	6.88
712.54	10.88
713.293	6.88
714.046	8.88
714.799	7.88
715.552	9.88
716.305	6.88
717.058	8.88
717.81	8.88
718.563	7.88
719.315	6.88
720.068	8.88
720.82	8.88
721.573	9.88
722.325	8.88
723.077	7.88
723.829	7.88
724.581	7.88
725.333	8.88
726.085	7.88
726.836	8.88
727.588	8.88
728.34	7.88
729.091	7.88
729.843	5.88
730.594	8.88
731.346	10.88
732.097	6.88
732.848	8.88
733.599	6.88
734.35	9.88
735.101	8.88
735.852	10.88
736.603	7.88
737.354	8.88
738.104	9.88
738.855	9.88
739.605	8.88
740.356	9.88
741.106	11.88
741.856	11.88
742.607	9.88
743.357	10.88
744.107	10.88
744.857	10.88
745.607	11.88
746.357	11.88
747.106	7.88
747.856	9.88
748.606	11.88
749.355	9.88
750.105	9.88
750.854	9.88
751.603	8.88
752.353	11.88
753.102	12.88
753.851	14.88
754.6	12.88
755.349	12.88
756.098	10.88
756.847	11.88
757.595	12.88
758.344	13.88
759.093	12.88
759.841	14.88
760.589	12.88
761.338	13.88
762.086	12.88
762.834	13.88
763.582	12.88
764.331	11.88
765.079	11.88
765.826	14.88
766.574	13.88
767.322	12.88
768.07	15.88
768.817	14.88
769.565	15.88
770.312	16.88
771.06	12.88
771.807	16.88
772.554	12.88
773.302	14.88
774.049	14.88
774.796	15.88
775.543	18.88
776.29	13.88
777.036	17.88
777.783	17.88
778.53	15.88
779.276	16.88
780.023	16.88
780.769	19.88
781.516	17.88
782.262	14.88
783.008	14.88
783.754	17.88
784.5	17.88
785.246	14.88
785.992	15.88
786.738	15.88
787.484	15.88
788.23	14.88
788.975	14.88
789.721	16.88
790.466	14.88
791.212	15.88
791.957	14.88
792.702	15.88
793.447	13.88
794.193	11.88
794.938	13.88
795.683	14.88
796.427	14.88
797.172	14.88
797.917	12.88
798.662	12.88
799.406	9.88
800.151	11.88
800.895	11.88
801.64	12.88
802.384	10.88
803.128	10.88
803.872	12.88
804.616	11.88
805.36	8.88
806.104	11.88
806.848	10.88
807.592	10.88
808.336	9.88
809.079	8.88
809.823	10.88
810.566	9.88
811.31	9.88
812.053	8.88
812.796	7.88
813.539	7.88
814.283	6.88
815.026	10.88
815.769	6.88
816.511	8.88
817.254	9.88
817.997	6.88
818.74	9.88
819.482	7.88
820.225	6.88
820.967	5.88
821.71	7.88
822.452	7.88
823.194	8.88
823.936	5.88
824.678	4.88
825.42	8.88
826.162	4.88
826.904	4.88
827.646	4.88
828.388	5.88
829.129	6.88
829.871	4.88
830.612	6.88
831.354	3.88
832.095	3.88
832.836	8.88
833.577	7.88
834.319	7.88
835.06	4.88
835.801	6.88
836.542	8.88
837.282	6.88
838.023	4.88
838.764	4.88
839.504	6.88
840.245	7.88
840.985	6.88
841.726	4.88
842.466	1.88
843.206	5.88
843.946	5.88
844.687	6.88
845.427	4.88
846.166	4.88
846.906	3.88
847.646	4.88
848.386	5.88
849.125	5.88
849.865	6.88
850.605	2.88
851.344	3.88
852.083	4.88
852.823	4.88
853.562	4.88
854.301	3.88
855.04	4.88
855.779	5.88
856.518	2.88
857.257	2.88
857.995	3.88
858.734	2.88
859.473	1.88
860.211	2.88
860.95	0.88
861.688	1.88
862.426	4.88
863.165	1.88
863.903	3.88
864.641	4.88
865.379	3.88
866.117	3.88
866.855	2.88
867.593	0.88
868.33	1.88
869.068	2.88
869.806	2.88
870.543	1.88
871.28	2.88
872.018	0.88
872.755	3.88
873.492	2.88
874.229	0.88
874.967	3.88
875.703	2.88
876.44	1.88
877.177	3.88
877.914	-1.12
878.651	2.88
879.387	1.88
880.124	-0.12
880.86	2.88
881.597	0.88
882.333	-0.12
883.069	1.88
883.806	2.88
884.542	1.88
885.278	-1.12
886.014	-0.12
886.749	2.88
887.485	3.88
888.221	1.88
888.957	2.88
889.692	-0.12
890.428	0.88
891.163	-0.12
891.899	1.88
892.634	-1.12
893.369	-0.12
894.104	1.88
894.839	0.88
895.574	1.88
896.309	0.88
897.044	1.88
897.779	1.88
898.514	1.88
899.248	1.88
899.983	-0.12
900.717	2.88
901.452	0.88
902.186	-1.12
902.92	-0.12
903.654	-1.12
904.389	1.88
905.123	-0.12
905.857	1.88
906.59	0.88
907.324	-1.12
908.058	0.88
908.792	1.88
909.525	1.88
910.259	1.88
910.992	0.88
911.726	0.88
912.459	0.88
913.192	-1.12
913.925	0.88
914.658	-0.12
915.391	0.88
916.124	-0.12
916.857	-0.12
917.59	1.88
918.323	-0.12
919.055	3.88
919.788	-0.12
920.521	1.88
921.253	-0.12
921.985	0.88
922.718	-1.12
923.45	0.88
924.182	2.88
924.914	-1.12
925.646	0.88
926.378	-1.12
927.11	0.88
927.841	-0.12
928.573	1.88
929.305	0.88
930.036	-1.12
930.768	-1.12
931.499	-0.12
932.23	-1.12
932.962	1.88
933.693	-0.12
934.424	1.88
935.155	-1.12
935.886	0.88
936.617	-0.12
937.348	0.88
938.078	-1.12
938.809	-2.12
939.54	1.88
940.27	-1.12
941.001	-1.12
941.731	-1.12
942.461	-1.12
943.191	0.88
943.922	-0.12
944.652	0.88
945.382	1.88
946.112	-1.12
946.841	-0.12
947.571	-1.12
948.301	-0.12
949.031	0.88
949.76	-0.12
950.49	0.88
951.219	-1.12
951.948	-0.12
952.678	0.88
953.407	0.88
954.136	0.88
954.865	0.88
955.594	1.88
956.323	0.88
957.052	2.88
957.78	0.88
958.509	0.88
959.238	0.88
959.966	-1.12
960.695	-1.12
961.423	1.88
962.151	0.88
962.88	0.88
963.608	0.88
964.336	2.88
965.064	0.88
965.792	-0.12
966.52	0.88
967.247	0.88
967.975	-2.12
968.703	1.88
969.43	0.88
970.158	-1.12
970.885	1.88
971.613	-0.12
972.34	1.88
973.067	1.88
973.794	0.88
974.521	1.88
975.248	-0.12
975.975	-0.12
976.702	0.88
977.429	-1.12
978.156	0.88
978.882	-0.12
979.609	1.88
980.335	0.88
981.062	-1.12
981.788	2.88
982.514	-1.12
983.24	-1.12
983.967	-0.12
984.693	0.88
985.419	-2.12
986.144	-1.12
986.87	-0.12
987.596	-0.12
988.322	0.88
989.047	1.88
989.773	0.88
990.498	-1.12
991.224	-1.12
991.949	0.88
992.674	-0.12
993.399	-1.12
994.124	1.88
994.849	0.88
995.574	0.88
996.299	0.88
997.024	0.88
997.749	0.88
998.473	0.88
999.198	1.88
999.922	-1.12
1000.647	0.88
1001.371	3.88
1002.095	-1.12
1002.82	-0.12
1003.544	-1.12
1004.268	6.88
1004.992	4.88
1005.716	5.88
1006.439	5.88
1007.163	4.88
1007.887	3.88
1008.611	1.88
1009.334	0.88
1010.058	0.88
1010.781	0.88
1011.504	0.88
1012.228	-0.12
1012.951	-1.12
1013.674	-2.12
1014.397	-1.12
1015.12	2.88
