节点500_705_QEPB04081__193__20-48-58-468.txt的数据

Date: Wed Nov 12 20:48:58 CST 2025
User: PC
Spectrometer: QEPB0408
触发模式: 0
积分时间 (秒): 1.000000E-2
Scans to average: 1
启用暗噪声校正: true
启用非线性校正: false
滑动平均宽度: 0
X轴模式: Wavelengths
Number of Pixels in Spectrum: 1044
>>>>>Begin Spectral Data<<<<<
220.843	4.62
221.644	6.62
222.444	5.62
223.244	4.62
224.045	7.62
224.845	4.62
225.645	7.62
226.445	5.62
227.245	7.62
228.045	7.62
228.845	6.62
229.645	6.62
230.444	7.62
231.244	8.62
232.043	8.62
232.843	8.62
233.642	7.62
234.442	7.62
235.241	9.62
236.04	7.62
236.839	12.62
237.638	9.62
238.437	10.62
239.236	11.62
240.035	10.62
240.833	11.62
241.632	9.62
242.43	10.62
243.229	14.62
244.027	13.62
244.826	11.62
245.624	14.62
246.422	12.62
247.22	14.62
248.018	15.62
248.816	16.62
249.614	13.62
250.412	18.62
251.21	16.62
252.007	18.62
252.805	18.62
253.602	18.62
254.4	17.62
255.197	16.62
255.994	19.62
256.791	21.62
257.589	20.62
258.386	21.62
259.183	21.62
259.979	25.62
260.776	23.62
261.573	22.62
262.37	26.62
263.166	25.62
263.963	24.62
264.759	26.62
265.556	28.62
266.352	26.62
267.148	26.62
267.944	33.62
268.74	26.62
269.536	31.62
270.332	28.62
271.128	30.62
271.924	29.62
272.719	31.62
273.515	31.62
274.311	37.62
275.106	33.62
275.901	31.62
276.697	33.62
277.492	34.62
278.287	35.62
279.082	33.62
279.877	33.62
280.672	37.62
281.467	35.62
282.262	35.62
283.056	37.62
283.851	35.62
284.646	34.62
285.44	35.62
286.234	34.62
287.029	34.62
287.823	32.62
288.617	33.62
289.411	32.62
290.205	33.62
290.999	32.62
291.793	30.62
292.587	34.62
293.381	31.62
294.174	31.62
294.968	29.62
295.761	28.62
296.555	25.62
297.348	26.62
298.141	27.62
298.935	28.62
299.728	26.62
300.521	23.62
301.314	23.62
302.107	24.62
302.899	19.62
303.692	22.62
304.485	19.62
305.277	21.62
306.07	23.62
306.862	22.62
307.655	21.62
308.447	21.62
309.239	22.62
310.031	20.62
310.823	20.62
311.615	16.62
312.407	17.62
313.199	16.62
313.991	17.62
314.783	15.62
315.574	18.62
316.366	13.62
317.157	14.62
317.949	13.62
318.74	14.62
319.531	12.62
320.322	14.62
321.113	14.62
321.904	14.62
322.695	14.62
323.486	12.62
324.277	15.62
325.068	13.62
325.858	12.62
326.649	13.62
327.439	13.62
328.23	12.62
329.02	12.62
329.81	14.62
330.6	9.62
331.391	13.62
332.181	13.62
332.971	11.62
333.76	12.62
334.55	10.62
335.34	11.62
336.13	9.62
336.919	10.62
337.709	13.62
338.498	10.62
339.287	11.62
340.077	10.62
340.866	10.62
341.655	11.62
342.444	10.62
343.233	12.62
344.022	11.62
344.811	11.62
345.6	9.62
346.388	9.62
347.177	12.62
347.965	12.62
348.754	10.62
349.542	9.62
350.33	12.62
351.119	9.62
351.907	12.62
352.695	9.62
353.483	8.62
354.271	10.62
355.059	10.62
355.846	10.62
356.634	12.62
357.422	8.62
358.209	10.62
358.997	8.62
359.784	13.62
360.571	9.62
361.359	8.62
362.146	9.62
362.933	11.62
363.72	12.62
364.507	10.62
365.294	7.62
366.081	9.62
366.867	8.62
367.654	8.62
368.44	7.62
369.227	8.62
370.013	10.62
370.8	8.62
371.586	10.62
372.372	7.62
373.158	8.62
373.944	8.62
374.73	10.62
375.516	8.62
376.302	9.62
377.088	10.62
377.873	6.62
378.659	8.62
379.445	10.62
380.23	6.62
381.015	12.62
381.801	9.62
382.586	9.62
383.371	9.62
384.156	11.62
384.941	11.62
385.726	10.62
386.511	10.62
387.296	9.62
388.08	10.62
388.865	11.62
389.649	10.62
390.434	9.62
391.218	14.62
392.003	12.62
392.787	10.62
393.571	11.62
394.355	14.62
395.139	10.62
395.923	11.62
396.707	11.62
397.491	10.62
398.274	13.62
399.058	13.62
399.842	13.62
400.625	13.62
401.408	15.62
402.192	13.62
402.975	14.62
403.758	13.62
404.541	14.62
405.324	16.62
406.107	13.62
406.89	12.62
407.673	17.62
408.456	16.62
409.238	13.62
410.021	15.62
410.803	16.62
411.586	15.62
412.368	18.62
413.151	15.62
413.933	16.62
414.715	19.62
415.497	16.62
416.279	18.62
417.061	17.62
417.843	18.62
418.624	18.62
419.406	19.62
420.188	18.62
420.969	21.62
421.751	19.62
422.532	22.62
423.313	25.62
424.095	23.62
424.876	22.62
425.657	25.62
426.438	23.62
427.219	26.62
428	27.62
428.78	28.62
429.561	27.62
430.342	29.62
431.122	33.62
431.903	30.62
432.683	33.62
433.464	35.62
434.244	37.62
435.024	36.62
435.804	40.62
436.584	46.62
437.364	42.62
438.144	46.62
438.924	49.62
439.704	51.62
440.483	56.62
441.263	59.62
442.042	61.62
442.822	64.62
443.601	72.62
444.38	81.62
445.16	80.62
445.939	93.62
446.718	94.62
447.497	110.62
448.276	122.62
449.054	133.62
449.833	141.62
450.612	149.62
451.391	171.62
452.169	187.62
452.948	203.62
453.726	227.62
454.504	255.62
455.282	285.62
456.061	325.62
456.839	355.62
457.617	398.62
458.395	438.62
459.172	491.62
459.95	547.62
460.728	615.62
461.506	689.62
462.283	772.62
463.061	852.62
463.838	945.62
464.615	1064.62
465.393	1190.62
466.17	1322.62
466.947	1492.62
467.724	1648.62
468.501	1820.62
469.278	2030.62
470.055	2234.62
470.831	2493.62
471.608	2746.62
472.385	3038.62
473.161	3348.62
473.938	3702.62
474.714	4057.62
475.49	4481.62
476.266	4932.62
477.043	5385.62
477.819	5909.62
478.595	6476.62
479.371	7078.62
480.146	7753.62
480.922	8474.62
481.698	9268.62
482.473	10100.62
483.249	11040.62
484.024	12033.62
484.8	13042.62
485.575	14185.62
486.35	15387.62
487.126	16735.62
487.901	18097.62
488.676	19497.62
489.451	21152.62
490.225	22759.62
491	24373.62
491.775	26186.62
492.55	28003.62
493.324	29828.62
494.099	31679.62
494.873	33610.62
495.647	35438.62
496.422	37391.62
497.196	39213.62
497.97	40851.62
498.744	42319.62
499.518	43992.62
500.292	45219.62
501.066	46252.62
501.839	47105.62
502.613	47743.62
503.387	48325.62
504.16	48648.62
504.934	48657.62
505.707	48356.62
506.48	47851.62
507.253	47263.62
508.027	46371.62
508.8	45247.62
509.573	44012.62
510.346	42921.62
511.118	41760.62
511.891	40291.62
512.664	38735.62
513.437	37213.62
514.209	35816.62
514.982	34312.62
515.754	32899.62
516.526	31504.62
517.298	30272.62
518.071	29042.62
518.843	27846.62
519.615	26698.62
520.387	25714.62
521.159	24696.62
521.93	23608.62
522.702	22566.62
523.474	21611.62
524.245	20707.62
525.017	19776.62
525.788	18854.62
526.56	18092.62
527.331	17310.62
528.102	16375.62
528.873	15549.62
529.644	14794.62
530.415	14123.62
531.186	13410.62
531.957	12684.62
532.728	12021.62
533.498	11410.62
534.269	10755.62
535.039	10186.62
535.81	9621.62
536.58	9095.62
537.351	8582.62
538.121	8207.62
538.891	7740.62
539.661	7330.62
540.431	6908.62
541.201	6575.62
541.971	6243.62
542.741	5938.62
543.51	5599.62
544.28	5315.62
545.05	5060.62
545.819	4830.62
546.588	4610.62
547.358	4368.62
548.127	4154.62
548.896	3958.62
549.665	3752.62
550.434	3538.62
551.203	3358.62
551.972	3193.62
552.741	3029.62
553.51	2848.62
554.278	2687.62
555.047	2534.62
555.815	2386.62
556.584	2246.62
557.352	2131.62
558.121	2034.62
558.889	1904.62
559.657	1797.62
560.425	1714.62
561.193	1619.62
561.961	1526.62
562.729	1454.62
563.496	1369.62
564.264	1283.62
565.032	1216.62
565.799	1142.62
566.567	1095.62
567.334	1031.62
568.101	974.62
568.869	932.62
569.636	874.62
570.403	830.62
571.17	773.62
571.937	732.62
572.704	701.62
573.471	659.62
574.237	620.62
575.004	573.62
575.771	547.62
576.537	518.62
577.303	495.62
578.07	462.62
578.836	436.62
579.602	404.62
580.368	395.62
581.134	367.62
581.9	345.62
582.666	342.62
583.432	316.62
584.198	302.62
584.964	284.62
585.729	270.62
586.495	253.62
587.26	237.62
588.025	235.62
588.791	219.62
589.556	207.62
590.321	199.62
591.086	191.62
591.851	181.62
592.616	173.62
593.381	161.62
594.146	147.62
594.911	146.62
595.675	139.62
596.44	135.62
597.204	129.62
597.969	121.62
598.733	120.62
599.497	110.62
600.261	108.62
601.025	101.62
601.79	103.62
602.553	98.62
603.317	98.62
604.081	90.62
604.845	87.62
605.609	82.62
606.372	83.62
607.136	75.62
607.899	74.62
608.662	69.62
609.426	63.62
610.189	62.62
610.952	62.62
611.715	60.62
612.478	54.62
613.241	57.62
614.004	55.62
614.767	49.62
615.529	50.62
616.292	49.62
617.055	44.62
617.817	41.62
618.579	43.62
619.342	42.62
620.104	41.62
620.866	35.62
621.628	38.62
622.39	35.62
623.152	36.62
623.914	35.62
624.676	32.62
625.438	32.62
626.199	33.62
626.961	29.62
627.722	30.62
628.484	28.62
629.245	29.62
630.006	29.62
630.768	28.62
631.529	25.62
632.29	26.62
633.051	24.62
633.812	25.62
634.573	24.62
635.333	23.62
636.094	21.62
636.855	23.62
637.615	18.62
638.376	19.62
639.136	17.62
639.896	20.62
640.657	16.62
641.417	16.62
642.177	17.62
642.937	17.62
643.697	18.62
644.457	17.62
645.216	17.62
645.976	17.62
646.736	15.62
647.495	16.62
648.255	14.62
649.014	16.62
649.774	14.62
650.533	10.62
651.292	12.62
652.051	15.62
652.81	15.62
653.569	11.62
654.328	11.62
655.087	11.62
655.846	11.62
656.604	12.62
657.363	10.62
658.121	12.62
658.88	9.62
659.638	10.62
660.397	11.62
661.155	7.62
661.913	7.62
662.671	11.62
663.429	14.62
664.187	8.62
664.945	9.62
665.703	8.62
666.46	7.62
667.218	9.62
667.976	10.62
668.733	7.62
669.49	9.62
670.248	11.62
671.005	9.62
671.762	9.62
672.519	9.62
673.276	6.62
674.033	7.62
674.79	8.62
675.547	8.62
676.304	5.62
677.06	7.62
677.817	9.62
678.574	7.62
679.33	9.62
680.086	5.62
680.843	8.62
681.599	6.62
682.355	8.62
683.111	7.62
683.867	7.62
684.623	6.62
685.379	5.62
686.135	7.62
686.89	4.62
687.646	9.62
688.402	6.62
689.157	7.62
689.912	7.62
690.668	7.62
691.423	6.62
692.178	8.62
692.933	8.62
693.688	5.62
694.443	7.62
695.198	7.62
695.953	9.62
696.708	9.62
697.462	9.62
698.217	6.62
698.972	6.62
699.726	6.62
700.48	6.62
701.235	7.62
701.989	7.62
702.743	4.62
703.497	8.62
704.251	6.62
705.005	7.62
705.759	8.62
706.513	7.62
707.266	7.62
708.02	6.62
708.774	5.62
709.527	5.62
710.28	5.62
711.034	6.62
711.787	8.62
712.54	6.62
713.293	4.62
714.046	6.62
714.799	6.62
715.552	7.62
716.305	7.62
717.058	5.62
717.81	7.62
718.563	7.62
719.315	7.62
720.068	9.62
720.82	7.62
721.573	10.62
722.325	6.62
723.077	8.62
723.829	6.62
724.581	9.62
725.333	9.62
726.085	5.62
726.836	6.62
727.588	8.62
728.34	10.62
729.091	8.62
729.843	7.62
730.594	8.62
731.346	9.62
732.097	7.62
732.848	11.62
733.599	7.62
734.35	10.62
735.101	9.62
735.852	7.62
736.603	7.62
737.354	9.62
738.104	7.62
738.855	7.62
739.605	9.62
740.356	8.62
741.106	10.62
741.856	9.62
742.607	10.62
743.357	11.62
744.107	10.62
744.857	9.62
745.607	8.62
746.357	8.62
747.106	13.62
747.856	11.62
748.606	11.62
749.355	8.62
750.105	11.62
750.854	11.62
751.603	10.62
752.353	11.62
753.102	10.62
753.851	10.62
754.6	10.62
755.349	11.62
756.098	11.62
756.847	14.62
757.595	13.62
758.344	10.62
759.093	12.62
759.841	12.62
760.589	13.62
761.338	13.62
762.086	12.62
762.834	12.62
763.582	11.62
764.331	13.62
765.079	12.62
765.826	12.62
766.574	12.62
767.322	15.62
768.07	13.62
768.817	14.62
769.565	14.62
770.312	12.62
771.06	12.62
771.807	16.62
772.554	14.62
773.302	12.62
774.049	14.62
774.796	14.62
775.543	14.62
776.29	14.62
777.036	17.62
777.783	13.62
778.53	17.62
779.276	12.62
780.023	17.62
780.769	17.62
781.516	14.62
782.262	15.62
783.008	16.62
783.754	17.62
784.5	14.62
785.246	13.62
785.992	15.62
786.738	14.62
787.484	15.62
788.23	15.62
788.975	14.62
789.721	14.62
790.466	13.62
791.212	14.62
791.957	14.62
792.702	15.62
793.447	14.62
794.193	14.62
794.938	15.62
795.683	11.62
796.427	11.62
797.172	15.62
797.917	11.62
798.662	13.62
799.406	12.62
800.151	10.62
800.895	10.62
801.64	12.62
802.384	9.62
803.128	11.62
803.872	13.62
804.616	9.62
805.36	12.62
806.104	9.62
806.848	8.62
807.592	9.62
808.336	12.62
809.079	10.62
809.823	10.62
810.566	9.62
811.31	9.62
812.053	9.62
812.796	8.62
813.539	9.62
814.283	6.62
815.026	7.62
815.769	6.62
816.511	8.62
817.254	7.62
817.997	7.62
818.74	7.62
819.482	8.62
820.225	6.62
820.967	8.62
821.71	5.62
822.452	3.62
823.194	6.62
823.936	7.62
824.678	6.62
825.42	8.62
826.162	7.62
826.904	6.62
827.646	6.62
828.388	6.62
829.129	5.62
829.871	7.62
830.612	5.62
831.354	5.62
832.095	3.62
832.836	6.62
833.577	5.62
834.319	6.62
835.06	6.62
835.801	6.62
836.542	5.62
837.282	6.62
838.023	4.62
838.764	4.62
839.504	2.62
840.245	3.62
840.985	5.62
841.726	4.62
842.466	5.62
843.206	3.62
843.946	4.62
844.687	3.62
845.427	3.62
846.166	3.62
846.906	5.62
847.646	3.62
848.386	4.62
849.125	4.62
849.865	2.62
850.605	4.62
851.344	4.62
852.083	2.62
852.823	4.62
853.562	4.62
854.301	2.62
855.04	5.62
855.779	1.62
856.518	5.62
857.257	2.62
857.995	1.62
858.734	1.62
859.473	3.62
860.211	3.62
860.95	1.62
861.688	2.62
862.426	3.62
863.165	0.62
863.903	2.62
864.641	2.62
865.379	1.62
866.117	2.62
866.855	2.62
867.593	2.62
868.33	1.62
869.068	0.62
869.806	1.62
870.543	2.62
871.28	2.62
872.018	-1.38
872.755	2.62
873.492	1.62
874.229	1.62
874.967	2.62
875.703	2.62
876.44	1.62
877.177	-0.38
877.914	0.62
878.651	1.62
879.387	2.62
880.124	1.62
880.86	0.62
881.597	1.62
882.333	-0.38
883.069	2.62
883.806	2.62
884.542	1.62
885.278	-1.38
886.014	1.62
886.749	1.62
887.485	0.62
888.221	2.62
888.957	0.62
889.692	1.62
890.428	1.62
891.163	1.62
891.899	1.62
892.634	0.62
893.369	1.62
894.104	1.62
894.839	-1.38
895.574	-0.38
896.309	-0.38
897.044	2.62
897.779	1.62
898.514	-0.38
899.248	0.62
899.983	1.62
900.717	0.62
901.452	0.62
902.186	1.62
902.92	0.62
903.654	0.62
904.389	-0.38
905.123	0.62
905.857	-0.38
906.59	3.62
907.324	0.62
908.058	1.62
908.792	-0.38
909.525	1.62
910.259	0.62
910.992	1.62
911.726	-0.38
912.459	1.62
913.192	0.62
913.925	-1.38
914.658	0.62
915.391	2.62
916.124	1.62
916.857	1.62
917.59	0.62
918.323	-0.38
919.055	-0.38
919.788	0.62
920.521	-0.38
921.253	-0.38
921.985	0.62
922.718	-1.38
923.45	1.62
924.182	-1.38
924.914	1.62
925.646	2.62
926.378	-1.38
927.11	0.62
927.841	-1.38
928.573	0.62
929.305	0.62
930.036	-0.38
930.768	0.62
931.499	-2.38
932.23	-0.38
932.962	-1.38
933.693	1.62
934.424	-1.38
935.155	1.62
935.886	-0.38
936.617	0.62
937.348	-1.38
938.078	-0.38
938.809	1.62
939.54	0.62
940.27	-1.38
941.001	0.62
941.731	-1.38
942.461	-0.38
943.191	-0.38
943.922	1.62
944.652	-1.38
945.382	-2.38
946.112	3.62
946.841	-1.38
947.571	-0.38
948.301	-3.38
949.031	-1.38
949.76	-0.38
950.49	-1.38
951.219	0.62
951.948	0.62
952.678	-0.38
953.407	-0.38
954.136	-1.38
954.865	0.62
955.594	-1.38
956.323	0.62
957.052	-0.38
957.78	0.62
958.509	0.62
959.238	-0.38
959.966	2.62
960.695	0.62
961.423	-0.38
962.151	-0.38
962.88	-0.38
963.608	0.62
964.336	-1.38
965.064	-0.38
965.792	0.62
966.52	-0.38
967.247	1.62
967.975	-1.38
968.703	2.62
969.43	-3.38
970.158	-1.38
970.885	-1.38
971.613	1.62
972.34	-0.38
973.067	0.62
973.794	0.62
974.521	-0.38
975.248	-0.38
975.975	-1.38
976.702	-3.38
977.429	0.62
978.156	1.62
978.882	-1.38
979.609	0.62
980.335	-0.38
981.062	1.62
981.788	0.62
982.514	1.62
983.24	-0.38
983.967	-0.38
984.693	0.62
985.419	-1.38
986.144	-1.38
986.87	0.62
987.596	0.62
988.322	0.62
989.047	2.62
989.773	0.62
990.498	-1.38
991.224	0.62
991.949	-2.38
992.674	-0.38
993.399	-0.38
994.124	-0.38
994.849	-0.38
995.574	-2.38
996.299	-1.38
997.024	1.62
997.749	0.62
998.473	-0.38
999.198	1.62
999.922	0.62
1000.647	-3.38
1001.371	4.62
1002.095	-2.38
1002.82	-0.38
1003.544	-2.38
1004.268	2.62
1004.992	4.62
1005.716	4.62
1006.439	3.62
1007.163	4.62
1007.887	4.62
1008.611	-2.38
1009.334	-0.38
1010.058	0.62
1010.781	-0.38
1011.504	-1.38
1012.228	-1.38
1012.951	0.62
1013.674	0.62
1014.397	0.62
1015.12	-1.38
