节点500_705_QEPB04081__159__20-48-30-053.txt的数据

Date: Wed Nov 12 20:48:30 CST 2025
User: PC
Spectrometer: QEPB0408
触发模式: 0
积分时间 (秒): 1.000000E-2
Scans to average: 1
启用暗噪声校正: true
启用非线性校正: false
滑动平均宽度: 0
X轴模式: Wavelengths
Number of Pixels in Spectrum: 1044
>>>>>Begin Spectral Data<<<<<
220.843	3.5
221.644	5.5
222.444	3.5
223.244	5.5
224.045	6.5
224.845	7.5
225.645	6.5
226.445	5.5
227.245	3.5
228.045	7.5
228.845	6.5
229.645	9.5
230.444	6.5
231.244	7.5
232.043	8.5
232.843	8.5
233.642	8.5
234.442	9.5
235.241	9.5
236.04	10.5
236.839	8.5
237.638	10.5
238.437	10.5
239.236	9.5
240.035	10.5
240.833	10.5
241.632	10.5
242.43	13.5
243.229	11.5
244.027	13.5
244.826	11.5
245.624	13.5
246.422	16.5
247.22	13.5
248.018	13.5
248.816	12.5
249.614	15.5
250.412	15.5
251.21	13.5
252.007	17.5
252.805	14.5
253.602	17.5
254.4	13.5
255.197	19.5
255.994	16.5
256.791	15.5
257.589	20.5
258.386	20.5
259.183	18.5
259.979	23.5
260.776	23.5
261.573	22.5
262.37	24.5
263.166	24.5
263.963	21.5
264.759	26.5
265.556	24.5
266.352	24.5
267.148	27.5
267.944	29.5
268.74	25.5
269.536	29.5
270.332	29.5
271.128	27.5
271.924	29.5
272.719	29.5
273.515	30.5
274.311	27.5
275.106	29.5
275.901	31.5
276.697	32.5
277.492	32.5
278.287	30.5
279.082	29.5
279.877	32.5
280.672	31.5
281.467	32.5
282.262	36.5
283.056	31.5
283.851	32.5
284.646	31.5
285.44	31.5
286.234	27.5
287.029	30.5
287.823	31.5
288.617	30.5
289.411	33.5
290.205	29.5
290.999	28.5
291.793	30.5
292.587	29.5
293.381	30.5
294.174	30.5
294.968	28.5
295.761	25.5
296.555	22.5
297.348	23.5
298.141	24.5
298.935	26.5
299.728	23.5
300.521	24.5
301.314	21.5
302.107	22.5
302.899	20.5
303.692	22.5
304.485	21.5
305.277	20.5
306.07	17.5
306.862	23.5
307.655	17.5
308.447	20.5
309.239	21.5
310.031	19.5
310.823	20.5
311.615	15.5
312.407	17.5
313.199	15.5
313.991	16.5
314.783	14.5
315.574	15.5
316.366	16.5
317.157	15.5
317.949	14.5
318.74	12.5
319.531	13.5
320.322	16.5
321.113	14.5
321.904	17.5
322.695	12.5
323.486	12.5
324.277	13.5
325.068	12.5
325.858	11.5
326.649	8.5
327.439	11.5
328.23	11.5
329.02	11.5
329.81	11.5
330.6	13.5
331.391	13.5
332.181	9.5
332.971	13.5
333.76	13.5
334.55	12.5
335.34	11.5
336.13	11.5
336.919	9.5
337.709	13.5
338.498	13.5
339.287	10.5
340.077	10.5
340.866	11.5
341.655	8.5
342.444	10.5
343.233	11.5
344.022	10.5
344.811	10.5
345.6	8.5
346.388	13.5
347.177	11.5
347.965	10.5
348.754	8.5
349.542	10.5
350.33	10.5
351.119	10.5
351.907	12.5
352.695	10.5
353.483	9.5
354.271	10.5
355.059	12.5
355.846	9.5
356.634	11.5
357.422	7.5
358.209	8.5
358.997	12.5
359.784	10.5
360.571	10.5
361.359	11.5
362.146	9.5
362.933	10.5
363.72	8.5
364.507	9.5
365.294	9.5
366.081	5.5
366.867	11.5
367.654	11.5
368.44	9.5
369.227	9.5
370.013	6.5
370.8	9.5
371.586	11.5
372.372	9.5
373.158	10.5
373.944	8.5
374.73	10.5
375.516	11.5
376.302	11.5
377.088	9.5
377.873	13.5
378.659	9.5
379.445	9.5
380.23	8.5
381.015	9.5
381.801	9.5
382.586	11.5
383.371	11.5
384.156	9.5
384.941	11.5
385.726	9.5
386.511	13.5
387.296	10.5
388.08	10.5
388.865	10.5
389.649	10.5
390.434	9.5
391.218	11.5
392.003	10.5
392.787	12.5
393.571	12.5
394.355	10.5
395.139	11.5
395.923	12.5
396.707	12.5
397.491	11.5
398.274	12.5
399.058	12.5
399.842	11.5
400.625	12.5
401.408	13.5
402.192	15.5
402.975	15.5
403.758	11.5
404.541	12.5
405.324	15.5
406.107	13.5
406.89	18.5
407.673	15.5
408.456	15.5
409.238	14.5
410.021	14.5
410.803	14.5
411.586	17.5
412.368	17.5
413.151	16.5
413.933	19.5
414.715	19.5
415.497	16.5
416.279	17.5
417.061	15.5
417.843	21.5
418.624	17.5
419.406	19.5
420.188	19.5
420.969	20.5
421.751	21.5
422.532	22.5
423.313	21.5
424.095	23.5
424.876	23.5
425.657	24.5
426.438	26.5
427.219	25.5
428	26.5
428.78	26.5
429.561	27.5
430.342	26.5
431.122	30.5
431.903	29.5
432.683	31.5
433.464	33.5
434.244	31.5
435.024	33.5
435.804	40.5
436.584	40.5
437.364	42.5
438.144	45.5
438.924	49.5
439.704	49.5
440.483	49.5
441.263	54.5
442.042	58.5
442.822	59.5
443.601	67.5
444.38	71.5
445.16	73.5
445.939	83.5
446.718	86.5
447.497	102.5
448.276	109.5
449.054	117.5
449.833	128.5
450.612	147.5
451.391	151.5
452.169	171.5
452.948	190.5
453.726	209.5
454.504	226.5
455.282	257.5
456.061	290.5
456.839	324.5
457.617	359.5
458.395	392.5
459.172	445.5
459.95	490.5
460.728	553.5
461.506	623.5
462.283	690.5
463.061	770.5
463.838	874.5
464.615	959.5
465.393	1077.5
466.17	1204.5
466.947	1330.5
467.724	1479.5
468.501	1646.5
469.278	1844.5
470.055	2031.5
470.831	2259.5
471.608	2511.5
472.385	2749.5
473.161	3042.5
473.938	3338.5
474.714	3714.5
475.49	4086.5
476.266	4470.5
477.043	4886.5
477.819	5395.5
478.595	5907.5
479.371	6429.5
480.146	7083.5
480.922	7730.5
481.698	8441.5
482.473	9240.5
483.249	10097.5
484.024	10973.5
484.8	11939.5
485.575	12961.5
486.35	14148.5
487.126	15292.5
487.901	16607.5
488.676	17981.5
489.451	19416.5
490.225	20934.5
491	22438.5
491.775	24078.5
492.55	25705.5
493.324	27393.5
494.099	29105.5
494.873	30808.5
495.647	32559.5
496.422	34364.5
497.196	36018.5
497.97	37525.5
498.744	38939.5
499.518	40400.5
500.292	41546.5
501.066	42383.5
501.839	43129.5
502.613	43707.5
503.387	44218.5
504.16	44502.5
504.934	44416.5
505.707	44215.5
506.48	43667.5
507.253	43100.5
508.027	42259.5
508.8	41158.5
509.573	40031.5
510.346	38968.5
511.118	37906.5
511.891	36618.5
512.664	35113.5
513.437	33697.5
514.209	32417.5
514.982	31099.5
515.754	29765.5
516.526	28510.5
517.298	27369.5
518.071	26213.5
518.843	25170.5
519.615	24159.5
520.387	23221.5
521.159	22352.5
521.93	21300.5
522.702	20452.5
523.474	19565.5
524.245	18705.5
525.017	17850.5
525.788	17071.5
526.56	16346.5
527.331	15635.5
528.102	14808.5
528.873	14026.5
529.644	13370.5
530.415	12713.5
531.186	12070.5
531.957	11404.5
532.728	10845.5
533.498	10235.5
534.269	9689.5
535.039	9183.5
535.81	8664.5
536.58	8155.5
537.351	7736.5
538.121	7366.5
538.891	6955.5
539.661	6574.5
540.431	6222.5
541.201	5876.5
541.971	5585.5
542.741	5303.5
543.51	5005.5
544.28	4816.5
545.05	4569.5
545.819	4323.5
546.588	4125.5
547.358	3951.5
548.127	3748.5
548.896	3565.5
549.665	3348.5
550.434	3188.5
551.203	3031.5
551.972	2866.5
552.741	2696.5
553.51	2550.5
554.278	2392.5
555.047	2260.5
555.815	2139.5
556.584	2020.5
557.352	1931.5
558.121	1809.5
558.889	1713.5
559.657	1615.5
560.425	1533.5
561.193	1434.5
561.961	1369.5
562.729	1278.5
563.496	1217.5
564.264	1146.5
565.032	1097.5
565.799	1032.5
566.567	980.5
567.334	926.5
568.101	881.5
568.869	827.5
569.636	785.5
570.403	751.5
571.17	701.5
571.937	654.5
572.704	620.5
573.471	592.5
574.237	554.5
575.004	511.5
575.771	494.5
576.537	451.5
577.303	436.5
578.07	414.5
578.836	389.5
579.602	368.5
580.368	355.5
581.134	332.5
581.9	316.5
582.666	304.5
583.432	284.5
584.198	282.5
584.964	255.5
585.729	244.5
586.495	235.5
587.26	219.5
588.025	207.5
588.791	196.5
589.556	188.5
590.321	184.5
591.086	170.5
591.851	163.5
592.616	157.5
593.381	145.5
594.146	137.5
594.911	132.5
595.675	131.5
596.44	121.5
597.204	117.5
597.969	113.5
598.733	102.5
599.497	101.5
600.261	98.5
601.025	92.5
601.79	90.5
602.553	87.5
603.317	83.5
604.081	77.5
604.845	77.5
605.609	72.5
606.372	76.5
607.136	63.5
607.899	64.5
608.662	63.5
609.426	62.5
610.189	58.5
610.952	56.5
611.715	52.5
612.478	52.5
613.241	50.5
614.004	49.5
614.767	47.5
615.529	44.5
616.292	42.5
617.055	39.5
617.817	39.5
618.579	41.5
619.342	37.5
620.104	36.5
620.866	35.5
621.628	37.5
622.39	32.5
623.152	31.5
623.914	29.5
624.676	30.5
625.438	27.5
626.199	29.5
626.961	31.5
627.722	26.5
628.484	26.5
629.245	30.5
630.006	28.5
630.768	25.5
631.529	26.5
632.29	25.5
633.051	21.5
633.812	25.5
634.573	22.5
635.333	19.5
636.094	22.5
636.855	22.5
637.615	18.5
638.376	19.5
639.136	18.5
639.896	18.5
640.657	17.5
641.417	19.5
642.177	16.5
642.937	20.5
643.697	17.5
644.457	18.5
645.216	17.5
645.976	17.5
646.736	16.5
647.495	11.5
648.255	13.5
649.014	15.5
649.774	14.5
650.533	10.5
651.292	11.5
652.051	13.5
652.81	11.5
653.569	15.5
654.328	11.5
655.087	13.5
655.846	10.5
656.604	11.5
657.363	12.5
658.121	12.5
658.88	11.5
659.638	12.5
660.397	9.5
661.155	12.5
661.913	9.5
662.671	11.5
663.429	8.5
664.187	11.5
664.945	8.5
665.703	10.5
666.46	11.5
667.218	9.5
667.976	9.5
668.733	8.5
669.49	6.5
670.248	12.5
671.005	8.5
671.762	7.5
672.519	9.5
673.276	8.5
674.033	9.5
674.79	8.5
675.547	8.5
676.304	7.5
677.06	8.5
677.817	9.5
678.574	7.5
679.33	6.5
680.086	6.5
680.843	7.5
681.599	7.5
682.355	9.5
683.111	9.5
683.867	7.5
684.623	7.5
685.379	9.5
686.135	7.5
686.89	7.5
687.646	5.5
688.402	7.5
689.157	7.5
689.912	8.5
690.668	8.5
691.423	6.5
692.178	7.5
692.933	5.5
693.688	9.5
694.443	7.5
695.198	7.5
695.953	9.5
696.708	6.5
697.462	7.5
698.217	4.5
698.972	9.5
699.726	4.5
700.48	7.5
701.235	7.5
701.989	8.5
702.743	8.5
703.497	7.5
704.251	7.5
705.005	8.5
705.759	5.5
706.513	9.5
707.266	5.5
708.02	8.5
708.774	7.5
709.527	9.5
710.28	6.5
711.034	7.5
711.787	8.5
712.54	6.5
713.293	8.5
714.046	5.5
714.799	8.5
715.552	8.5
716.305	6.5
717.058	9.5
717.81	6.5
718.563	9.5
719.315	7.5
720.068	7.5
720.82	7.5
721.573	8.5
722.325	10.5
723.077	6.5
723.829	7.5
724.581	8.5
725.333	9.5
726.085	11.5
726.836	7.5
727.588	7.5
728.34	7.5
729.091	8.5
729.843	8.5
730.594	6.5
731.346	9.5
732.097	8.5
732.848	8.5
733.599	8.5
734.35	6.5
735.101	9.5
735.852	7.5
736.603	9.5
737.354	9.5
738.104	9.5
738.855	8.5
739.605	10.5
740.356	11.5
741.106	8.5
741.856	9.5
742.607	11.5
743.357	10.5
744.107	11.5
744.857	10.5
745.607	7.5
746.357	11.5
747.106	9.5
747.856	8.5
748.606	8.5
749.355	11.5
750.105	11.5
750.854	11.5
751.603	11.5
752.353	7.5
753.102	12.5
753.851	10.5
754.6	11.5
755.349	10.5
756.098	11.5
756.847	9.5
757.595	10.5
758.344	13.5
759.093	10.5
759.841	11.5
760.589	12.5
761.338	13.5
762.086	12.5
762.834	13.5
763.582	14.5
764.331	12.5
765.079	16.5
765.826	11.5
766.574	13.5
767.322	13.5
768.07	12.5
768.817	14.5
769.565	15.5
770.312	13.5
771.06	13.5
771.807	15.5
772.554	14.5
773.302	13.5
774.049	15.5
774.796	15.5
775.543	13.5
776.29	15.5
777.036	15.5
777.783	16.5
778.53	14.5
779.276	14.5
780.023	13.5
780.769	15.5
781.516	15.5
782.262	13.5
783.008	15.5
783.754	16.5
784.5	16.5
785.246	16.5
785.992	14.5
786.738	15.5
787.484	16.5
788.23	16.5
788.975	14.5
789.721	13.5
790.466	14.5
791.212	13.5
791.957	16.5
792.702	13.5
793.447	15.5
794.193	12.5
794.938	11.5
795.683	13.5
796.427	12.5
797.172	12.5
797.917	13.5
798.662	13.5
799.406	11.5
800.151	13.5
800.895	11.5
801.64	11.5
802.384	11.5
803.128	12.5
803.872	11.5
804.616	11.5
805.36	10.5
806.104	9.5
806.848	9.5
807.592	11.5
808.336	9.5
809.079	8.5
809.823	12.5
810.566	10.5
811.31	9.5
812.053	9.5
812.796	8.5
813.539	8.5
814.283	7.5
815.026	10.5
815.769	6.5
816.511	8.5
817.254	5.5
817.997	9.5
818.74	8.5
819.482	7.5
820.225	5.5
820.967	7.5
821.71	8.5
822.452	7.5
823.194	6.5
823.936	9.5
824.678	7.5
825.42	7.5
826.162	4.5
826.904	5.5
827.646	8.5
828.388	3.5
829.129	6.5
829.871	6.5
830.612	7.5
831.354	5.5
832.095	5.5
832.836	5.5
833.577	4.5
834.319	4.5
835.06	4.5
835.801	5.5
836.542	6.5
837.282	6.5
838.023	4.5
838.764	5.5
839.504	6.5
840.245	6.5
840.985	6.5
841.726	6.5
842.466	5.5
843.206	8.5
843.946	3.5
844.687	2.5
845.427	7.5
846.166	5.5
846.906	5.5
847.646	5.5
848.386	4.5
849.125	3.5
849.865	4.5
850.605	6.5
851.344	4.5
852.083	4.5
852.823	8.5
853.562	4.5
854.301	5.5
855.04	3.5
855.779	4.5
856.518	5.5
857.257	2.5
857.995	4.5
858.734	4.5
859.473	2.5
860.211	4.5
860.95	3.5
861.688	4.5
862.426	3.5
863.165	4.5
863.903	4.5
864.641	2.5
865.379	3.5
866.117	4.5
866.855	3.5
867.593	5.5
868.33	3.5
869.068	2.5
869.806	2.5
870.543	4.5
871.28	4.5
872.018	1.5
872.755	1.5
873.492	2.5
874.229	3.5
874.967	3.5
875.703	3.5
876.44	1.5
877.177	2.5
877.914	3.5
878.651	1.5
879.387	0.5
880.124	2.5
880.86	3.5
881.597	1.5
882.333	3.5
883.069	0.5
883.806	0.5
884.542	0.5
885.278	-0.5
886.014	1.5
886.749	0.5
887.485	1.5
888.221	1.5
888.957	1.5
889.692	2.5
890.428	0.5
891.163	0.5
891.899	2.5
892.634	1.5
893.369	0.5
894.104	4.5
894.839	2.5
895.574	0.5
896.309	0.5
897.044	1.5
897.779	2.5
898.514	2.5
899.248	1.5
899.983	4.5
900.717	3.5
901.452	3.5
902.186	-0.5
902.92	-0.5
903.654	2.5
904.389	2.5
905.123	2.5
905.857	2.5
906.59	3.5
907.324	2.5
908.058	2.5
908.792	0.5
909.525	0.5
910.259	0.5
910.992	-0.5
911.726	-0.5
912.459	1.5
913.192	0.5
913.925	0.5
914.658	-0.5
915.391	3.5
916.124	1.5
916.857	2.5
917.59	2.5
918.323	0.5
919.055	0.5
919.788	0.5
920.521	0.5
921.253	0.5
921.985	-0.5
922.718	2.5
923.45	0.5
924.182	3.5
924.914	1.5
925.646	1.5
926.378	1.5
927.11	1.5
927.841	2.5
928.573	-0.5
929.305	0.5
930.036	-0.5
930.768	1.5
931.499	1.5
932.23	-2.5
932.962	2.5
933.693	1.5
934.424	2.5
935.155	3.5
935.886	1.5
936.617	1.5
937.348	3.5
938.078	1.5
938.809	1.5
939.54	-0.5
940.27	-0.5
941.001	-0.5
941.731	1.5
942.461	2.5
943.191	1.5
943.922	2.5
944.652	0.5
945.382	0.5
946.112	-0.5
946.841	3.5
947.571	-0.5
948.301	1.5
949.031	-0.5
949.76	-0.5
950.49	1.5
951.219	-0.5
951.948	1.5
952.678	0.5
953.407	1.5
954.136	2.5
954.865	1.5
955.594	2.5
956.323	0.5
957.052	-0.5
957.78	-0.5
958.509	2.5
959.238	0.5
959.966	1.5
960.695	-0.5
961.423	1.5
962.151	0.5
962.88	0.5
963.608	0.5
964.336	3.5
965.064	0.5
965.792	-0.5
966.52	0.5
967.247	3.5
967.975	2.5
968.703	1.5
969.43	0.5
970.158	-0.5
970.885	1.5
971.613	0.5
972.34	-1.5
973.067	1.5
973.794	3.5
974.521	1.5
975.248	1.5
975.975	2.5
976.702	0.5
977.429	1.5
978.156	1.5
978.882	-1.5
979.609	-0.5
980.335	1.5
981.062	0.5
981.788	1.5
982.514	2.5
983.24	1.5
983.967	1.5
984.693	0.5
985.419	-0.5
986.144	2.5
986.87	1.5
987.596	2.5
988.322	2.5
989.047	1.5
989.773	-1.5
990.498	1.5
991.224	0.5
991.949	-0.5
992.674	-0.5
993.399	0.5
994.124	-0.5
994.849	0.5
995.574	1.5
996.299	-0.5
997.024	-0.5
997.749	3.5
998.473	0.5
999.198	1.5
999.922	0.5
1000.647	1.5
1001.371	2.5
1002.095	0.5
1002.82	-1.5
1003.544	-1.5
1004.268	4.5
1004.992	4.5
1005.716	5.5
1006.439	5.5
1007.163	6.5
1007.887	2.5
1008.611	-0.5
1009.334	1.5
1010.058	0.5
1010.781	1.5
1011.504	0.5
1012.228	0.5
1012.951	0.5
1013.674	1.5
1014.397	-1.5
1015.12	-0.5
