节点500_705_QEPB04081__115__20-47-48-110.txt的数据

Date: Wed Nov 12 20:47:48 CST 2025
User: PC
Spectrometer: QEPB0408
触发模式: 0
积分时间 (秒): 1.000000E-2
Scans to average: 1
启用暗噪声校正: true
启用非线性校正: false
滑动平均宽度: 0
X轴模式: Wavelengths
Number of Pixels in Spectrum: 1044
>>>>>Begin Spectral Data<<<<<
220.843	9.12
221.644	3.12
222.444	6.12
223.244	8.12
224.045	5.12
224.845	8.12
225.645	7.12
226.445	8.12
227.245	7.12
228.045	7.12
228.845	8.12
229.645	7.12
230.444	7.12
231.244	6.12
232.043	10.12
232.843	10.12
233.642	8.12
234.442	9.12
235.241	10.12
236.04	12.12
236.839	10.12
237.638	11.12
238.437	8.12
239.236	13.12
240.035	9.12
240.833	13.12
241.632	10.12
242.43	11.12
243.229	14.12
244.027	14.12
244.826	14.12
245.624	16.12
246.422	17.12
247.22	13.12
248.018	15.12
248.816	17.12
249.614	16.12
250.412	18.12
251.21	18.12
252.007	19.12
252.805	16.12
253.602	19.12
254.4	20.12
255.197	22.12
255.994	18.12
256.791	22.12
257.589	25.12
258.386	19.12
259.183	23.12
259.979	25.12
260.776	22.12
261.573	22.12
262.37	25.12
263.166	25.12
263.963	26.12
264.759	26.12
265.556	27.12
266.352	29.12
267.148	28.12
267.944	30.12
268.74	33.12
269.536	34.12
270.332	30.12
271.128	31.12
271.924	35.12
272.719	35.12
273.515	33.12
274.311	33.12
275.106	33.12
275.901	37.12
276.697	41.12
277.492	35.12
278.287	38.12
279.082	34.12
279.877	35.12
280.672	38.12
281.467	35.12
282.262	36.12
283.056	35.12
283.851	35.12
284.646	36.12
285.44	40.12
286.234	34.12
287.029	36.12
287.823	33.12
288.617	35.12
289.411	32.12
290.205	33.12
290.999	31.12
291.793	34.12
292.587	32.12
293.381	29.12
294.174	31.12
294.968	32.12
295.761	27.12
296.555	28.12
297.348	24.12
298.141	27.12
298.935	27.12
299.728	29.12
300.521	25.12
301.314	27.12
302.107	23.12
302.899	23.12
303.692	22.12
304.485	21.12
305.277	19.12
306.07	22.12
306.862	21.12
307.655	24.12
308.447	20.12
309.239	21.12
310.031	20.12
310.823	19.12
311.615	19.12
312.407	18.12
313.199	18.12
313.991	17.12
314.783	17.12
315.574	14.12
316.366	16.12
317.157	18.12
317.949	15.12
318.74	13.12
319.531	17.12
320.322	17.12
321.113	14.12
321.904	9.12
322.695	13.12
323.486	14.12
324.277	11.12
325.068	15.12
325.858	12.12
326.649	15.12
327.439	14.12
328.23	12.12
329.02	14.12
329.81	9.12
330.6	8.12
331.391	14.12
332.181	11.12
332.971	13.12
333.76	11.12
334.55	13.12
335.34	15.12
336.13	11.12
336.919	13.12
337.709	10.12
338.498	13.12
339.287	13.12
340.077	14.12
340.866	12.12
341.655	12.12
342.444	14.12
343.233	12.12
344.022	13.12
344.811	13.12
345.6	14.12
346.388	12.12
347.177	9.12
347.965	10.12
348.754	10.12
349.542	13.12
350.33	10.12
351.119	10.12
351.907	11.12
352.695	10.12
353.483	12.12
354.271	10.12
355.059	12.12
355.846	12.12
356.634	10.12
357.422	13.12
358.209	11.12
358.997	11.12
359.784	10.12
360.571	11.12
361.359	11.12
362.146	11.12
362.933	10.12
363.72	6.12
364.507	8.12
365.294	8.12
366.081	11.12
366.867	11.12
367.654	8.12
368.44	11.12
369.227	6.12
370.013	13.12
370.8	10.12
371.586	7.12
372.372	9.12
373.158	10.12
373.944	10.12
374.73	9.12
375.516	11.12
376.302	8.12
377.088	9.12
377.873	11.12
378.659	10.12
379.445	15.12
380.23	9.12
381.015	11.12
381.801	12.12
382.586	10.12
383.371	13.12
384.156	11.12
384.941	10.12
385.726	9.12
386.511	12.12
387.296	11.12
388.08	8.12
388.865	13.12
389.649	12.12
390.434	11.12
391.218	12.12
392.003	13.12
392.787	15.12
393.571	13.12
394.355	11.12
395.139	13.12
395.923	14.12
396.707	11.12
397.491	14.12
398.274	13.12
399.058	15.12
399.842	15.12
400.625	15.12
401.408	13.12
402.192	12.12
402.975	13.12
403.758	15.12
404.541	14.12
405.324	15.12
406.107	17.12
406.89	13.12
407.673	15.12
408.456	17.12
409.238	18.12
410.021	17.12
410.803	17.12
411.586	17.12
412.368	17.12
413.151	18.12
413.933	20.12
414.715	19.12
415.497	18.12
416.279	20.12
417.061	19.12
417.843	19.12
418.624	22.12
419.406	23.12
420.188	22.12
420.969	22.12
421.751	19.12
422.532	22.12
423.313	26.12
424.095	23.12
424.876	25.12
425.657	27.12
426.438	26.12
427.219	26.12
428	29.12
428.78	29.12
429.561	31.12
430.342	32.12
431.122	31.12
431.903	33.12
432.683	35.12
433.464	36.12
434.244	37.12
435.024	41.12
435.804	43.12
436.584	45.12
437.364	46.12
438.144	47.12
438.924	52.12
439.704	54.12
440.483	54.12
441.263	60.12
442.042	60.12
442.822	71.12
443.601	76.12
444.38	77.12
445.16	85.12
445.939	89.12
446.718	98.12
447.497	103.12
448.276	112.12
449.054	130.12
449.833	140.12
450.612	149.12
451.391	163.12
452.169	186.12
452.948	202.12
453.726	227.12
454.504	255.12
455.282	282.12
456.061	308.12
456.839	346.12
457.617	384.12
458.395	438.12
459.172	483.12
459.95	540.12
460.728	604.12
461.506	680.12
462.283	754.12
463.061	847.12
463.838	966.12
464.615	1042.12
465.393	1179.12
466.17	1325.12
466.947	1461.12
467.724	1630.12
468.501	1807.12
469.278	2020.12
470.055	2237.12
470.831	2456.12
471.608	2745.12
472.385	3020.12
473.161	3362.12
473.938	3703.12
474.714	4075.12
475.49	4499.12
476.266	4969.12
477.043	5463.12
477.819	5969.12
478.595	6566.12
479.371	7181.12
480.146	7899.12
480.922	8618.12
481.698	9458.12
482.473	10368.12
483.249	11286.12
484.024	12292.12
484.8	13388.12
485.575	14579.12
486.35	15838.12
487.126	17209.12
487.901	18614.12
488.676	20181.12
489.451	21865.12
490.225	23524.12
491	25292.12
491.775	27060.12
492.55	28999.12
493.324	30883.12
494.099	32779.12
494.873	34738.12
495.647	36710.12
496.422	38674.12
497.196	40510.12
497.97	42088.12
498.744	43782.12
499.518	45281.12
500.292	46681.12
501.066	47555.12
501.839	48277.12
502.613	49017.12
503.387	49483.12
504.16	49665.12
504.934	49564.12
505.707	49163.12
506.48	48679.12
507.253	47905.12
508.027	46915.12
508.8	45638.12
509.573	44377.12
510.346	43114.12
511.118	41804.12
511.891	40373.12
512.664	38795.12
513.437	37167.12
514.209	35659.12
514.982	34322.12
515.754	32742.12
516.526	31450.12
517.298	30132.12
518.071	28929.12
518.843	27692.12
519.615	26591.12
520.387	25615.12
521.159	24554.12
521.93	23510.12
522.702	22477.12
523.474	21526.12
524.245	20645.12
525.017	19702.12
525.788	18769.12
526.56	17958.12
527.331	17157.12
528.102	16259.12
528.873	15456.12
529.644	14672.12
530.415	13973.12
531.186	13268.12
531.957	12521.12
532.728	11843.12
533.498	11222.12
534.269	10683.12
535.039	10065.12
535.81	9511.12
536.58	8996.12
537.351	8494.12
538.121	8059.12
538.891	7590.12
539.661	7195.12
540.431	6830.12
541.201	6464.12
541.971	6140.12
542.741	5789.12
543.51	5500.12
544.28	5247.12
545.05	5000.12
545.819	4749.12
546.588	4534.12
547.358	4347.12
548.127	4108.12
548.896	3895.12
549.665	3677.12
550.434	3481.12
551.203	3301.12
551.972	3131.12
552.741	2968.12
553.51	2786.12
554.278	2634.12
555.047	2477.12
555.815	2350.12
556.584	2236.12
557.352	2113.12
558.121	1983.12
558.889	1851.12
559.657	1749.12
560.425	1673.12
561.193	1588.12
561.961	1490.12
562.729	1407.12
563.496	1332.12
564.264	1259.12
565.032	1191.12
565.799	1133.12
566.567	1080.12
567.334	1008.12
568.101	957.12
568.869	900.12
569.636	850.12
570.403	800.12
571.17	761.12
571.937	712.12
572.704	677.12
573.471	647.12
574.237	609.12
575.004	571.12
575.771	531.12
576.537	495.12
577.303	475.12
578.07	456.12
578.836	433.12
579.602	409.12
580.368	390.12
581.134	367.12
581.9	342.12
582.666	322.12
583.432	312.12
584.198	297.12
584.964	283.12
585.729	269.12
586.495	254.12
587.26	244.12
588.025	232.12
588.791	218.12
589.556	204.12
590.321	201.12
591.086	182.12
591.851	181.12
592.616	170.12
593.381	158.12
594.146	159.12
594.911	145.12
595.675	138.12
596.44	136.12
597.204	128.12
597.969	123.12
598.733	114.12
599.497	112.12
600.261	102.12
601.025	98.12
601.79	98.12
602.553	91.12
603.317	89.12
604.081	86.12
604.845	83.12
605.609	78.12
606.372	74.12
607.136	73.12
607.899	74.12
608.662	71.12
609.426	67.12
610.189	65.12
610.952	60.12
611.715	58.12
612.478	56.12
613.241	55.12
614.004	54.12
614.767	53.12
615.529	52.12
616.292	48.12
617.055	48.12
617.817	43.12
618.579	46.12
619.342	44.12
620.104	43.12
620.866	43.12
621.628	38.12
622.39	37.12
623.152	36.12
623.914	36.12
624.676	32.12
625.438	33.12
626.199	29.12
626.961	32.12
627.722	35.12
628.484	29.12
629.245	28.12
630.006	29.12
630.768	26.12
631.529	25.12
632.29	25.12
633.051	25.12
633.812	27.12
634.573	22.12
635.333	24.12
636.094	24.12
636.855	23.12
637.615	19.12
638.376	18.12
639.136	20.12
639.896	21.12
640.657	17.12
641.417	23.12
642.177	22.12
642.937	17.12
643.697	17.12
644.457	17.12
645.216	17.12
645.976	14.12
646.736	18.12
647.495	18.12
648.255	19.12
649.014	15.12
649.774	15.12
650.533	14.12
651.292	16.12
652.051	13.12
652.81	13.12
653.569	14.12
654.328	15.12
655.087	10.12
655.846	11.12
656.604	16.12
657.363	12.12
658.121	13.12
658.88	13.12
659.638	10.12
660.397	11.12
661.155	13.12
661.913	10.12
662.671	13.12
663.429	12.12
664.187	11.12
664.945	12.12
665.703	11.12
666.46	11.12
667.218	9.12
667.976	10.12
668.733	8.12
669.49	11.12
670.248	8.12
671.005	9.12
671.762	10.12
672.519	8.12
673.276	10.12
674.033	9.12
674.79	9.12
675.547	11.12
676.304	6.12
677.06	11.12
677.817	9.12
678.574	8.12
679.33	7.12
680.086	8.12
680.843	7.12
681.599	9.12
682.355	9.12
683.111	8.12
683.867	9.12
684.623	8.12
685.379	8.12
686.135	9.12
686.89	8.12
687.646	11.12
688.402	10.12
689.157	8.12
689.912	10.12
690.668	6.12
691.423	11.12
692.178	8.12
692.933	9.12
693.688	10.12
694.443	9.12
695.198	7.12
695.953	8.12
696.708	8.12
697.462	7.12
698.217	6.12
698.972	9.12
699.726	7.12
700.48	10.12
701.235	8.12
701.989	7.12
702.743	8.12
703.497	9.12
704.251	6.12
705.005	7.12
705.759	10.12
706.513	8.12
707.266	10.12
708.02	8.12
708.774	7.12
709.527	8.12
710.28	7.12
711.034	8.12
711.787	9.12
712.54	6.12
713.293	9.12
714.046	6.12
714.799	11.12
715.552	7.12
716.305	9.12
717.058	7.12
717.81	8.12
718.563	9.12
719.315	7.12
720.068	11.12
720.82	8.12
721.573	8.12
722.325	9.12
723.077	7.12
723.829	8.12
724.581	8.12
725.333	8.12
726.085	11.12
726.836	11.12
727.588	7.12
728.34	7.12
729.091	12.12
729.843	10.12
730.594	12.12
731.346	9.12
732.097	11.12
732.848	10.12
733.599	10.12
734.35	10.12
735.101	9.12
735.852	10.12
736.603	10.12
737.354	9.12
738.104	12.12
738.855	11.12
739.605	11.12
740.356	11.12
741.106	10.12
741.856	8.12
742.607	11.12
743.357	11.12
744.107	11.12
744.857	10.12
745.607	12.12
746.357	12.12
747.106	9.12
747.856	8.12
748.606	11.12
749.355	10.12
750.105	11.12
750.854	13.12
751.603	10.12
752.353	11.12
753.102	11.12
753.851	11.12
754.6	14.12
755.349	13.12
756.098	14.12
756.847	9.12
757.595	14.12
758.344	15.12
759.093	11.12
759.841	10.12
760.589	13.12
761.338	13.12
762.086	12.12
762.834	14.12
763.582	13.12
764.331	17.12
765.079	16.12
765.826	15.12
766.574	15.12
767.322	12.12
768.07	15.12
768.817	16.12
769.565	15.12
770.312	11.12
771.06	17.12
771.807	18.12
772.554	16.12
773.302	17.12
774.049	16.12
774.796	18.12
775.543	15.12
776.29	16.12
777.036	17.12
777.783	15.12
778.53	19.12
779.276	19.12
780.023	15.12
780.769	17.12
781.516	19.12
782.262	18.12
783.008	18.12
783.754	17.12
784.5	15.12
785.246	15.12
785.992	19.12
786.738	17.12
787.484	15.12
788.23	15.12
788.975	16.12
789.721	15.12
790.466	15.12
791.212	17.12
791.957	13.12
792.702	14.12
793.447	14.12
794.193	13.12
794.938	15.12
795.683	16.12
796.427	15.12
797.172	15.12
797.917	12.12
798.662	12.12
799.406	11.12
800.151	14.12
800.895	11.12
801.64	11.12
802.384	13.12
803.128	12.12
803.872	13.12
804.616	10.12
805.36	12.12
806.104	12.12
806.848	12.12
807.592	9.12
808.336	12.12
809.079	9.12
809.823	8.12
810.566	8.12
811.31	10.12
812.053	8.12
812.796	9.12
813.539	8.12
814.283	9.12
815.026	9.12
815.769	7.12
816.511	9.12
817.254	6.12
817.997	8.12
818.74	8.12
819.482	10.12
820.225	7.12
820.967	7.12
821.71	8.12
822.452	6.12
823.194	8.12
823.936	7.12
824.678	9.12
825.42	8.12
826.162	8.12
826.904	5.12
827.646	7.12
828.388	7.12
829.129	9.12
829.871	7.12
830.612	8.12
831.354	5.12
832.095	9.12
832.836	6.12
833.577	5.12
834.319	8.12
835.06	6.12
835.801	9.12
836.542	6.12
837.282	5.12
838.023	4.12
838.764	6.12
839.504	5.12
840.245	4.12
840.985	7.12
841.726	5.12
842.466	5.12
843.206	4.12
843.946	6.12
844.687	5.12
845.427	5.12
846.166	3.12
846.906	3.12
847.646	6.12
848.386	6.12
849.125	5.12
849.865	4.12
850.605	3.12
851.344	4.12
852.083	5.12
852.823	5.12
853.562	6.12
854.301	4.12
855.04	6.12
855.779	4.12
856.518	5.12
857.257	6.12
857.995	3.12
858.734	3.12
859.473	5.12
860.211	2.12
860.95	4.12
861.688	2.12
862.426	2.12
863.165	5.12
863.903	3.12
864.641	3.12
865.379	3.12
866.117	4.12
866.855	1.12
867.593	-0.88
868.33	2.12
869.068	4.12
869.806	5.12
870.543	2.12
871.28	3.12
872.018	0.12
872.755	3.12
873.492	1.12
874.229	4.12
874.967	3.12
875.703	3.12
876.44	3.12
877.177	2.12
877.914	3.12
878.651	2.12
879.387	1.12
880.124	3.12
880.86	1.12
881.597	1.12
882.333	3.12
883.069	1.12
883.806	1.12
884.542	3.12
885.278	2.12
886.014	2.12
886.749	-0.88
887.485	3.12
888.221	2.12
888.957	1.12
889.692	1.12
890.428	1.12
891.163	0.12
891.899	3.12
892.634	2.12
893.369	1.12
894.104	3.12
894.839	-0.88
895.574	1.12
896.309	1.12
897.044	2.12
897.779	0.12
898.514	-0.88
899.248	1.12
899.983	2.12
900.717	2.12
901.452	-0.88
902.186	1.12
902.92	3.12
903.654	-0.88
904.389	1.12
905.123	1.12
905.857	1.12
906.59	0.12
907.324	1.12
908.058	-0.88
908.792	2.12
909.525	1.12
910.259	2.12
910.992	2.12
911.726	1.12
912.459	1.12
913.192	1.12
913.925	0.12
914.658	1.12
915.391	1.12
916.124	2.12
916.857	1.12
917.59	1.12
918.323	1.12
919.055	0.12
919.788	0.12
920.521	2.12
921.253	-1.88
921.985	1.12
922.718	1.12
923.45	-0.88
924.182	3.12
924.914	1.12
925.646	-0.88
926.378	3.12
927.11	0.12
927.841	-1.88
928.573	1.12
929.305	0.12
930.036	-0.88
930.768	1.12
931.499	-2.88
932.23	3.12
932.962	0.12
933.693	1.12
934.424	-0.88
935.155	-3.88
935.886	0.12
936.617	0.12
937.348	2.12
938.078	2.12
938.809	0.12
939.54	1.12
940.27	1.12
941.001	0.12
941.731	2.12
942.461	1.12
943.191	-0.88
943.922	-0.88
944.652	0.12
945.382	0.12
946.112	2.12
946.841	-2.88
947.571	1.12
948.301	1.12
949.031	0.12
949.76	2.12
950.49	-0.88
951.219	0.12
951.948	1.12
952.678	1.12
953.407	0.12
954.136	0.12
954.865	-0.88
955.594	-0.88
956.323	-1.88
957.052	0.12
957.78	0.12
958.509	-0.88
959.238	0.12
959.966	2.12
960.695	-0.88
961.423	-0.88
962.151	2.12
962.88	0.12
963.608	1.12
964.336	2.12
965.064	1.12
965.792	1.12
966.52	-2.88
967.247	1.12
967.975	-0.88
968.703	1.12
969.43	1.12
970.158	0.12
970.885	-0.88
971.613	0.12
972.34	0.12
973.067	-0.88
973.794	1.12
974.521	-0.88
975.248	1.12
975.975	0.12
976.702	-0.88
977.429	1.12
978.156	1.12
978.882	1.12
979.609	0.12
980.335	1.12
981.062	2.12
981.788	-0.88
982.514	1.12
983.24	0.12
983.967	0.12
984.693	1.12
985.419	1.12
986.144	0.12
986.87	-0.88
987.596	2.12
988.322	1.12
989.047	1.12
989.773	0.12
990.498	-1.88
991.224	1.12
991.949	-0.88
992.674	1.12
993.399	1.12
994.124	-0.88
994.849	0.12
995.574	-1.88
996.299	0.12
997.024	0.12
997.749	-0.88
998.473	1.12
999.198	0.12
999.922	3.12
1000.647	-1.88
1001.371	3.12
1002.095	1.12
1002.82	-1.88
1003.544	0.12
1004.268	3.12
1004.992	5.12
1005.716	3.12
1006.439	6.12
1007.163	5.12
1007.887	6.12
1008.611	-0.88
1009.334	0.12
1010.058	-1.88
1010.781	-1.88
1011.504	1.12
1012.228	0.12
1012.951	-0.88
1013.674	-0.88
1014.397	-0.88
1015.12	0.12
