节点500_705_QEPB04081__248__20-49-26-475.txt的数据

Date: Wed Nov 12 20:49:26 CST 2025
User: PC
Spectrometer: QEPB0408
触发模式: 0
积分时间 (秒): 1.000000E-2
Scans to average: 1
启用暗噪声校正: true
启用非线性校正: false
滑动平均宽度: 0
X轴模式: Wavelengths
Number of Pixels in Spectrum: 1044
>>>>>Begin Spectral Data<<<<<
220.843	5.5
221.644	5.5
222.444	7.5
223.244	4.5
224.045	7.5
224.845	7.5
225.645	6.5
226.445	5.5
227.245	5.5
228.045	8.5
228.845	7.5
229.645	6.5
230.444	6.5
231.244	7.5
232.043	8.5
232.843	8.5
233.642	11.5
234.442	11.5
235.241	8.5
236.04	8.5
236.839	8.5
237.638	11.5
238.437	12.5
239.236	11.5
240.035	8.5
240.833	12.5
241.632	11.5
242.43	9.5
243.229	13.5
244.027	13.5
244.826	13.5
245.624	13.5
246.422	12.5
247.22	10.5
248.018	16.5
248.816	17.5
249.614	17.5
250.412	15.5
251.21	14.5
252.007	16.5
252.805	18.5
253.602	17.5
254.4	17.5
255.197	16.5
255.994	17.5
256.791	20.5
257.589	20.5
258.386	21.5
259.183	22.5
259.979	24.5
260.776	20.5
261.573	22.5
262.37	24.5
263.166	23.5
263.963	24.5
264.759	27.5
265.556	26.5
266.352	27.5
267.148	29.5
267.944	30.5
268.74	28.5
269.536	30.5
270.332	29.5
271.128	33.5
271.924	30.5
272.719	32.5
273.515	32.5
274.311	30.5
275.106	32.5
275.901	34.5
276.697	32.5
277.492	32.5
278.287	30.5
279.082	34.5
279.877	37.5
280.672	32.5
281.467	33.5
282.262	35.5
283.056	32.5
283.851	36.5
284.646	33.5
285.44	37.5
286.234	32.5
287.029	32.5
287.823	31.5
288.617	33.5
289.411	33.5
290.205	28.5
290.999	30.5
291.793	28.5
292.587	30.5
293.381	30.5
294.174	32.5
294.968	27.5
295.761	26.5
296.555	26.5
297.348	26.5
298.141	25.5
298.935	26.5
299.728	22.5
300.521	25.5
301.314	22.5
302.107	23.5
302.899	22.5
303.692	21.5
304.485	23.5
305.277	23.5
306.07	26.5
306.862	19.5
307.655	19.5
308.447	21.5
309.239	20.5
310.031	22.5
310.823	16.5
311.615	18.5
312.407	16.5
313.199	15.5
313.991	14.5
314.783	16.5
315.574	15.5
316.366	15.5
317.157	16.5
317.949	16.5
318.74	13.5
319.531	14.5
320.322	11.5
321.113	13.5
321.904	14.5
322.695	11.5
323.486	14.5
324.277	11.5
325.068	14.5
325.858	11.5
326.649	12.5
327.439	12.5
328.23	12.5
329.02	15.5
329.81	11.5
330.6	8.5
331.391	11.5
332.181	12.5
332.971	12.5
333.76	11.5
334.55	11.5
335.34	12.5
336.13	13.5
336.919	13.5
337.709	12.5
338.498	13.5
339.287	9.5
340.077	11.5
340.866	11.5
341.655	13.5
342.444	10.5
343.233	11.5
344.022	9.5
344.811	11.5
345.6	12.5
346.388	8.5
347.177	12.5
347.965	9.5
348.754	9.5
349.542	10.5
350.33	9.5
351.119	11.5
351.907	10.5
352.695	8.5
353.483	10.5
354.271	8.5
355.059	9.5
355.846	12.5
356.634	8.5
357.422	9.5
358.209	9.5
358.997	8.5
359.784	9.5
360.571	10.5
361.359	10.5
362.146	7.5
362.933	11.5
363.72	10.5
364.507	12.5
365.294	9.5
366.081	7.5
366.867	8.5
367.654	7.5
368.44	9.5
369.227	11.5
370.013	12.5
370.8	10.5
371.586	8.5
372.372	9.5
373.158	7.5
373.944	10.5
374.73	7.5
375.516	8.5
376.302	9.5
377.088	9.5
377.873	8.5
378.659	8.5
379.445	10.5
380.23	11.5
381.015	9.5
381.801	10.5
382.586	9.5
383.371	9.5
384.156	10.5
384.941	11.5
385.726	7.5
386.511	10.5
387.296	12.5
388.08	10.5
388.865	8.5
389.649	11.5
390.434	11.5
391.218	11.5
392.003	11.5
392.787	12.5
393.571	11.5
394.355	12.5
395.139	11.5
395.923	12.5
396.707	11.5
397.491	12.5
398.274	14.5
399.058	10.5
399.842	13.5
400.625	15.5
401.408	12.5
402.192	11.5
402.975	15.5
403.758	13.5
404.541	16.5
405.324	17.5
406.107	15.5
406.89	12.5
407.673	18.5
408.456	12.5
409.238	17.5
410.021	16.5
410.803	15.5
411.586	16.5
412.368	18.5
413.151	18.5
413.933	16.5
414.715	17.5
415.497	19.5
416.279	15.5
417.061	20.5
417.843	18.5
418.624	20.5
419.406	19.5
420.188	19.5
420.969	18.5
421.751	19.5
422.532	23.5
423.313	22.5
424.095	23.5
424.876	26.5
425.657	25.5
426.438	25.5
427.219	26.5
428	27.5
428.78	27.5
429.561	30.5
430.342	32.5
431.122	28.5
431.903	33.5
432.683	33.5
433.464	34.5
434.244	38.5
435.024	40.5
435.804	39.5
436.584	41.5
437.364	45.5
438.144	46.5
438.924	47.5
439.704	52.5
440.483	55.5
441.263	62.5
442.042	63.5
442.822	66.5
443.601	77.5
444.38	74.5
445.16	85.5
445.939	92.5
446.718	99.5
447.497	112.5
448.276	116.5
449.054	133.5
449.833	144.5
450.612	154.5
451.391	168.5
452.169	191.5
452.948	207.5
453.726	224.5
454.504	260.5
455.282	291.5
456.061	323.5
456.839	357.5
457.617	400.5
458.395	441.5
459.172	495.5
459.95	550.5
460.728	619.5
461.506	694.5
462.283	776.5
463.061	857.5
463.838	954.5
464.615	1073.5
465.393	1190.5
466.17	1332.5
466.947	1473.5
467.724	1641.5
468.501	1826.5
469.278	2029.5
470.055	2235.5
470.831	2472.5
471.608	2726.5
472.385	3022.5
473.161	3340.5
473.938	3686.5
474.714	4033.5
475.49	4441.5
476.266	4907.5
477.043	5366.5
477.819	5870.5
478.595	6457.5
479.371	7023.5
480.146	7682.5
480.922	8429.5
481.698	9200.5
482.473	10041.5
483.249	10942.5
484.024	11880.5
484.8	12904.5
485.575	13994.5
486.35	15278.5
487.126	16521.5
487.901	17884.5
488.676	19354.5
489.451	20878.5
490.225	22493.5
491	24121.5
491.775	25822.5
492.55	27673.5
493.324	29417.5
494.099	31259.5
494.873	33132.5
495.647	34992.5
496.422	36874.5
497.196	38695.5
497.97	40302.5
498.744	41843.5
499.518	43443.5
500.292	44790.5
501.066	45843.5
501.839	46603.5
502.613	47410.5
503.387	47897.5
504.16	48245.5
504.934	48273.5
505.707	47992.5
506.48	47532.5
507.253	46964.5
508.027	46124.5
508.8	45074.5
509.573	43869.5
510.346	42777.5
511.118	41658.5
511.891	40270.5
512.664	38687.5
513.437	37163.5
514.209	35807.5
514.982	34350.5
515.754	32891.5
516.526	31472.5
517.298	30256.5
518.071	29005.5
518.843	27867.5
519.615	26736.5
520.387	25717.5
521.159	24651.5
521.93	23622.5
522.702	22582.5
523.474	21677.5
524.245	20755.5
525.017	19884.5
525.788	18966.5
526.56	18120.5
527.331	17294.5
528.102	16424.5
528.873	15609.5
529.644	14888.5
530.415	14189.5
531.186	13418.5
531.957	12721.5
532.728	12078.5
533.498	11449.5
534.269	10810.5
535.039	10230.5
535.81	9699.5
536.58	9130.5
537.351	8671.5
538.121	8194.5
538.891	7786.5
539.661	7348.5
540.431	6950.5
541.201	6589.5
541.971	6273.5
542.741	5906.5
543.51	5616.5
544.28	5370.5
545.05	5088.5
545.819	4840.5
546.588	4614.5
547.358	4392.5
548.127	4169.5
548.896	3961.5
549.665	3768.5
550.434	3560.5
551.203	3385.5
551.972	3196.5
552.741	3038.5
553.51	2853.5
554.278	2709.5
555.047	2542.5
555.815	2414.5
556.584	2293.5
557.352	2160.5
558.121	2040.5
558.889	1912.5
559.657	1818.5
560.425	1702.5
561.193	1633.5
561.961	1552.5
562.729	1461.5
563.496	1362.5
564.264	1291.5
565.032	1236.5
565.799	1165.5
566.567	1093.5
567.334	1036.5
568.101	983.5
568.869	934.5
569.636	875.5
570.403	825.5
571.17	780.5
571.937	728.5
572.704	695.5
573.471	660.5
574.237	620.5
575.004	586.5
575.771	548.5
576.537	512.5
577.303	488.5
578.07	456.5
578.836	444.5
579.602	420.5
580.368	388.5
581.134	375.5
581.9	347.5
582.666	335.5
583.432	319.5
584.198	303.5
584.964	290.5
585.729	275.5
586.495	264.5
587.26	239.5
588.025	232.5
588.791	218.5
589.556	210.5
590.321	197.5
591.086	190.5
591.851	182.5
592.616	171.5
593.381	162.5
594.146	153.5
594.911	148.5
595.675	142.5
596.44	136.5
597.204	129.5
597.969	124.5
598.733	118.5
599.497	110.5
600.261	111.5
601.025	103.5
601.79	97.5
602.553	98.5
603.317	91.5
604.081	86.5
604.845	88.5
605.609	81.5
606.372	78.5
607.136	72.5
607.899	71.5
608.662	70.5
609.426	66.5
610.189	65.5
610.952	64.5
611.715	58.5
612.478	55.5
613.241	55.5
614.004	52.5
614.767	46.5
615.529	48.5
616.292	46.5
617.055	51.5
617.817	47.5
618.579	43.5
619.342	40.5
620.104	40.5
620.866	42.5
621.628	38.5
622.39	39.5
623.152	35.5
623.914	37.5
624.676	32.5
625.438	35.5
626.199	34.5
626.961	32.5
627.722	28.5
628.484	28.5
629.245	28.5
630.006	28.5
630.768	26.5
631.529	25.5
632.29	27.5
633.051	25.5
633.812	24.5
634.573	23.5
635.333	23.5
636.094	23.5
636.855	21.5
637.615	18.5
638.376	18.5
639.136	22.5
639.896	19.5
640.657	17.5
641.417	20.5
642.177	19.5
642.937	18.5
643.697	16.5
644.457	20.5
645.216	15.5
645.976	13.5
646.736	15.5
647.495	16.5
648.255	12.5
649.014	12.5
649.774	13.5
650.533	13.5
651.292	14.5
652.051	17.5
652.81	12.5
653.569	13.5
654.328	14.5
655.087	11.5
655.846	14.5
656.604	12.5
657.363	12.5
658.121	10.5
658.88	10.5
659.638	10.5
660.397	12.5
661.155	10.5
661.913	10.5
662.671	11.5
663.429	11.5
664.187	10.5
664.945	11.5
665.703	9.5
666.46	10.5
667.218	9.5
667.976	9.5
668.733	8.5
669.49	9.5
670.248	9.5
671.005	9.5
671.762	9.5
672.519	10.5
673.276	6.5
674.033	10.5
674.79	12.5
675.547	8.5
676.304	7.5
677.06	8.5
677.817	5.5
678.574	7.5
679.33	8.5
680.086	4.5
680.843	8.5
681.599	8.5
682.355	9.5
683.111	8.5
683.867	6.5
684.623	7.5
685.379	5.5
686.135	9.5
686.89	7.5
687.646	6.5
688.402	8.5
689.157	8.5
689.912	8.5
690.668	8.5
691.423	7.5
692.178	9.5
692.933	6.5
693.688	6.5
694.443	7.5
695.198	6.5
695.953	4.5
696.708	8.5
697.462	7.5
698.217	6.5
698.972	9.5
699.726	4.5
700.48	3.5
701.235	6.5
701.989	9.5
702.743	7.5
703.497	5.5
704.251	8.5
705.005	6.5
705.759	6.5
706.513	5.5
707.266	4.5
708.02	6.5
708.774	6.5
709.527	6.5
710.28	6.5
711.034	6.5
711.787	5.5
712.54	6.5
713.293	7.5
714.046	6.5
714.799	7.5
715.552	6.5
716.305	5.5
717.058	7.5
717.81	8.5
718.563	8.5
719.315	9.5
720.068	11.5
720.82	8.5
721.573	7.5
722.325	10.5
723.077	3.5
723.829	8.5
724.581	7.5
725.333	6.5
726.085	6.5
726.836	7.5
727.588	9.5
728.34	8.5
729.091	8.5
729.843	9.5
730.594	7.5
731.346	9.5
732.097	10.5
732.848	8.5
733.599	9.5
734.35	9.5
735.101	8.5
735.852	10.5
736.603	7.5
737.354	8.5
738.104	9.5
738.855	8.5
739.605	10.5
740.356	10.5
741.106	7.5
741.856	10.5
742.607	11.5
743.357	8.5
744.107	7.5
744.857	9.5
745.607	10.5
746.357	11.5
747.106	10.5
747.856	11.5
748.606	10.5
749.355	12.5
750.105	10.5
750.854	10.5
751.603	8.5
752.353	11.5
753.102	10.5
753.851	12.5
754.6	12.5
755.349	10.5
756.098	13.5
756.847	13.5
757.595	10.5
758.344	11.5
759.093	10.5
759.841	10.5
760.589	10.5
761.338	12.5
762.086	10.5
762.834	11.5
763.582	14.5
764.331	11.5
765.079	14.5
765.826	12.5
766.574	10.5
767.322	14.5
768.07	12.5
768.817	13.5
769.565	14.5
770.312	14.5
771.06	14.5
771.807	14.5
772.554	14.5
773.302	14.5
774.049	15.5
774.796	15.5
775.543	16.5
776.29	11.5
777.036	13.5
777.783	15.5
778.53	14.5
779.276	18.5
780.023	16.5
780.769	13.5
781.516	16.5
782.262	11.5
783.008	16.5
783.754	16.5
784.5	12.5
785.246	14.5
785.992	13.5
786.738	14.5
787.484	14.5
788.23	15.5
788.975	15.5
789.721	11.5
790.466	12.5
791.212	16.5
791.957	12.5
792.702	13.5
793.447	14.5
794.193	18.5
794.938	14.5
795.683	10.5
796.427	12.5
797.172	14.5
797.917	12.5
798.662	12.5
799.406	12.5
800.151	11.5
800.895	14.5
801.64	10.5
802.384	12.5
803.128	9.5
803.872	12.5
804.616	11.5
805.36	9.5
806.104	9.5
806.848	10.5
807.592	14.5
808.336	9.5
809.079	10.5
809.823	10.5
810.566	9.5
811.31	9.5
812.053	8.5
812.796	8.5
813.539	8.5
814.283	8.5
815.026	7.5
815.769	7.5
816.511	8.5
817.254	6.5
817.997	7.5
818.74	8.5
819.482	4.5
820.225	8.5
820.967	7.5
821.71	7.5
822.452	4.5
823.194	9.5
823.936	7.5
824.678	5.5
825.42	6.5
826.162	6.5
826.904	5.5
827.646	8.5
828.388	6.5
829.129	6.5
829.871	4.5
830.612	6.5
831.354	3.5
832.095	5.5
832.836	6.5
833.577	6.5
834.319	7.5
835.06	4.5
835.801	5.5
836.542	5.5
837.282	5.5
838.023	7.5
838.764	4.5
839.504	5.5
840.245	5.5
840.985	2.5
841.726	4.5
842.466	3.5
843.206	5.5
843.946	6.5
844.687	4.5
845.427	5.5
846.166	4.5
846.906	5.5
847.646	5.5
848.386	3.5
849.125	6.5
849.865	2.5
850.605	4.5
851.344	3.5
852.083	4.5
852.823	2.5
853.562	2.5
854.301	6.5
855.04	2.5
855.779	5.5
856.518	1.5
857.257	4.5
857.995	2.5
858.734	1.5
859.473	4.5
860.211	4.5
860.95	3.5
861.688	2.5
862.426	4.5
863.165	3.5
863.903	2.5
864.641	2.5
865.379	2.5
866.117	2.5
866.855	2.5
867.593	1.5
868.33	3.5
869.068	3.5
869.806	0.5
870.543	4.5
871.28	1.5
872.018	4.5
872.755	2.5
873.492	2.5
874.229	2.5
874.967	2.5
875.703	0.5
876.44	0.5
877.177	0.5
877.914	1.5
878.651	1.5
879.387	2.5
880.124	-0.5
880.86	2.5
881.597	1.5
882.333	3.5
883.069	1.5
883.806	1.5
884.542	2.5
885.278	0.5
886.014	0.5
886.749	-0.5
887.485	-0.5
888.221	1.5
888.957	-0.5
889.692	-0.5
890.428	-0.5
891.163	0.5
891.899	0.5
892.634	-0.5
893.369	1.5
894.104	-0.5
894.839	0.5
895.574	0.5
896.309	0.5
897.044	0.5
897.779	0.5
898.514	-0.5
899.248	-1.5
899.983	0.5
900.717	-0.5
901.452	4.5
902.186	0.5
902.92	0.5
903.654	0.5
904.389	0.5
905.123	1.5
905.857	-0.5
906.59	-0.5
907.324	0.5
908.058	-0.5
908.792	2.5
909.525	0.5
910.259	-1.5
910.992	0.5
911.726	-0.5
912.459	-2.5
913.192	-1.5
913.925	0.5
914.658	-1.5
915.391	-0.5
916.124	0.5
916.857	1.5
917.59	1.5
918.323	-0.5
919.055	-0.5
919.788	0.5
920.521	1.5
921.253	-1.5
921.985	-1.5
922.718	-0.5
923.45	-0.5
924.182	-1.5
924.914	0.5
925.646	0.5
926.378	1.5
927.11	-0.5
927.841	1.5
928.573	1.5
929.305	-0.5
930.036	-1.5
930.768	-2.5
931.499	0.5
932.23	1.5
932.962	0.5
933.693	0.5
934.424	0.5
935.155	-1.5
935.886	-1.5
936.617	-1.5
937.348	-1.5
938.078	0.5
938.809	1.5
939.54	-0.5
940.27	-1.5
941.001	-1.5
941.731	-0.5
942.461	0.5
943.191	0.5
943.922	-0.5
944.652	-0.5
945.382	2.5
946.112	-1.5
946.841	0.5
947.571	-0.5
948.301	0.5
949.031	0.5
949.76	-0.5
950.49	0.5
951.219	0.5
951.948	-1.5
952.678	0.5
953.407	1.5
954.136	3.5
954.865	2.5
955.594	-0.5
956.323	-0.5
957.052	1.5
957.78	0.5
958.509	1.5
959.238	0.5
959.966	-0.5
960.695	0.5
961.423	-2.5
962.151	-1.5
962.88	-0.5
963.608	-3.5
964.336	-1.5
965.064	0.5
965.792	-1.5
966.52	0.5
967.247	0.5
967.975	-1.5
968.703	-1.5
969.43	-3.5
970.158	-1.5
970.885	0.5
971.613	0.5
972.34	-1.5
973.067	-1.5
973.794	-1.5
974.521	0.5
975.248	-0.5
975.975	-1.5
976.702	-0.5
977.429	0.5
978.156	0.5
978.882	0.5
979.609	0.5
980.335	1.5
981.062	-0.5
981.788	-1.5
982.514	1.5
983.24	0.5
983.967	0.5
984.693	-0.5
985.419	-1.5
986.144	1.5
986.87	-1.5
987.596	-0.5
988.322	-0.5
989.047	-0.5
989.773	-0.5
990.498	0.5
991.224	-2.5
991.949	-1.5
992.674	0.5
993.399	0.5
994.124	-0.5
994.849	1.5
995.574	1.5
996.299	-0.5
997.024	-0.5
997.749	-0.5
998.473	-1.5
999.198	0.5
999.922	-1.5
1000.647	1.5
1001.371	3.5
1002.095	0.5
1002.82	0.5
1003.544	-1.5
1004.268	5.5
1004.992	4.5
1005.716	4.5
1006.439	5.5
1007.163	3.5
1007.887	5.5
1008.611	0.5
1009.334	0.5
1010.058	-0.5
1010.781	-1.5
1011.504	0.5
1012.228	0.5
1012.951	-1.5
1013.674	-0.5
1014.397	-1.5
1015.12	0.5
