节点500_705_QEPB04081__3__20-45-56-383.txt的数据

Date: Wed Nov 12 20:45:56 CST 2025
User: PC
Spectrometer: QEPB0408
触发模式: 0
积分时间 (秒): 1.000000E-2
Scans to average: 1
启用暗噪声校正: true
启用非线性校正: false
滑动平均宽度: 0
X轴模式: Wavelengths
Number of Pixels in Spectrum: 1044
>>>>>Begin Spectral Data<<<<<
220.843	4.62
221.644	5.62
222.444	6.62
223.244	6.62
224.045	7.62
224.845	8.62
225.645	7.62
226.445	7.62
227.245	9.62
228.045	7.62
228.845	10.62
229.645	9.62
230.444	7.62
231.244	6.62
232.043	8.62
232.843	8.62
233.642	11.62
234.442	10.62
235.241	12.62
236.04	11.62
236.839	10.62
237.638	10.62
238.437	12.62
239.236	13.62
240.035	13.62
240.833	12.62
241.632	14.62
242.43	15.62
243.229	11.62
244.027	15.62
244.826	16.62
245.624	11.62
246.422	14.62
247.22	15.62
248.018	19.62
248.816	16.62
249.614	16.62
250.412	17.62
251.21	15.62
252.007	18.62
252.805	17.62
253.602	21.62
254.4	19.62
255.197	22.62
255.994	26.62
256.791	25.62
257.589	24.62
258.386	22.62
259.183	26.62
259.979	29.62
260.776	26.62
261.573	29.62
262.37	27.62
263.166	27.62
263.963	27.62
264.759	29.62
265.556	30.62
266.352	32.62
267.148	33.62
267.944	32.62
268.74	34.62
269.536	31.62
270.332	37.62
271.128	37.62
271.924	32.62
272.719	38.62
273.515	37.62
274.311	35.62
275.106	37.62
275.901	35.62
276.697	37.62
277.492	37.62
278.287	36.62
279.082	33.62
279.877	38.62
280.672	38.62
281.467	36.62
282.262	37.62
283.056	37.62
283.851	38.62
284.646	39.62
285.44	37.62
286.234	37.62
287.029	35.62
287.823	37.62
288.617	35.62
289.411	35.62
290.205	32.62
290.999	33.62
291.793	35.62
292.587	34.62
293.381	33.62
294.174	28.62
294.968	32.62
295.761	29.62
296.555	28.62
297.348	28.62
298.141	28.62
298.935	31.62
299.728	28.62
300.521	27.62
301.314	24.62
302.107	24.62
302.899	25.62
303.692	23.62
304.485	23.62
305.277	22.62
306.07	21.62
306.862	22.62
307.655	23.62
308.447	24.62
309.239	19.62
310.031	22.62
310.823	19.62
311.615	19.62
312.407	17.62
313.199	16.62
313.991	18.62
314.783	17.62
315.574	14.62
316.366	15.62
317.157	15.62
317.949	16.62
318.74	17.62
319.531	15.62
320.322	15.62
321.113	14.62
321.904	15.62
322.695	13.62
323.486	15.62
324.277	12.62
325.068	12.62
325.858	14.62
326.649	13.62
327.439	15.62
328.23	14.62
329.02	12.62
329.81	16.62
330.6	13.62
331.391	14.62
332.181	12.62
332.971	12.62
333.76	11.62
334.55	13.62
335.34	13.62
336.13	11.62
336.919	13.62
337.709	8.62
338.498	13.62
339.287	9.62
340.077	11.62
340.866	13.62
341.655	11.62
342.444	13.62
343.233	15.62
344.022	13.62
344.811	9.62
345.6	9.62
346.388	14.62
347.177	14.62
347.965	11.62
348.754	14.62
349.542	9.62
350.33	12.62
351.119	11.62
351.907	11.62
352.695	10.62
353.483	11.62
354.271	12.62
355.059	10.62
355.846	11.62
356.634	10.62
357.422	13.62
358.209	10.62
358.997	14.62
359.784	10.62
360.571	12.62
361.359	13.62
362.146	13.62
362.933	10.62
363.72	10.62
364.507	12.62
365.294	10.62
366.081	11.62
366.867	12.62
367.654	11.62
368.44	10.62
369.227	11.62
370.013	11.62
370.8	12.62
371.586	8.62
372.372	10.62
373.158	7.62
373.944	10.62
374.73	11.62
375.516	11.62
376.302	14.62
377.088	9.62
377.873	11.62
378.659	10.62
379.445	10.62
380.23	10.62
381.015	9.62
381.801	11.62
382.586	10.62
383.371	10.62
384.156	10.62
384.941	12.62
385.726	12.62
386.511	11.62
387.296	11.62
388.08	13.62
388.865	12.62
389.649	12.62
390.434	13.62
391.218	14.62
392.003	11.62
392.787	12.62
393.571	11.62
394.355	14.62
395.139	14.62
395.923	11.62
396.707	15.62
397.491	13.62
398.274	16.62
399.058	14.62
399.842	14.62
400.625	17.62
401.408	14.62
402.192	14.62
402.975	14.62
403.758	15.62
404.541	13.62
405.324	18.62
406.107	18.62
406.89	15.62
407.673	17.62
408.456	19.62
409.238	16.62
410.021	19.62
410.803	17.62
411.586	20.62
412.368	18.62
413.151	15.62
413.933	20.62
414.715	20.62
415.497	21.62
416.279	18.62
417.061	21.62
417.843	20.62
418.624	21.62
419.406	19.62
420.188	22.62
420.969	25.62
421.751	20.62
422.532	23.62
423.313	23.62
424.095	27.62
424.876	22.62
425.657	26.62
426.438	25.62
427.219	28.62
428	26.62
428.78	28.62
429.561	31.62
430.342	30.62
431.122	33.62
431.903	36.62
432.683	35.62
433.464	39.62
434.244	38.62
435.024	41.62
435.804	43.62
436.584	46.62
437.364	46.62
438.144	48.62
438.924	53.62
439.704	55.62
440.483	53.62
441.263	59.62
442.042	66.62
442.822	69.62
443.601	72.62
444.38	72.62
445.16	84.62
445.939	90.62
446.718	97.62
447.497	100.62
448.276	116.62
449.054	121.62
449.833	135.62
450.612	151.62
451.391	163.62
452.169	180.62
452.948	192.62
453.726	217.62
454.504	239.62
455.282	273.62
456.061	301.62
456.839	331.62
457.617	375.62
458.395	413.62
459.172	463.62
459.95	515.62
460.728	587.62
461.506	663.62
462.283	746.62
463.061	819.62
463.838	933.62
464.615	1035.62
465.393	1166.62
466.17	1287.62
466.947	1436.62
467.724	1612.62
468.501	1805.62
469.278	2019.62
470.055	2229.62
470.831	2481.62
471.608	2746.62
472.385	3039.62
473.161	3372.62
473.938	3768.62
474.714	4133.62
475.49	4580.62
476.266	5042.62
477.043	5577.62
477.819	6115.62
478.595	6780.62
479.371	7435.62
480.146	8151.62
480.922	9007.62
481.698	9903.62
482.473	10824.62
483.249	11836.62
484.024	12977.62
484.8	14152.62
485.575	15422.62
486.35	16833.62
487.126	18311.62
487.901	19888.62
488.676	21530.62
489.451	23354.62
490.225	25126.62
491	27071.62
491.775	29138.62
492.55	31156.62
493.324	33224.62
494.099	35244.62
494.873	37293.62
495.647	39451.62
496.422	41438.62
497.196	43288.62
497.97	45079.62
498.744	46633.62
499.518	48274.62
500.292	49524.62
501.066	50378.62
501.839	51015.62
502.613	51570.62
503.387	51797.62
504.16	51859.62
504.934	51510.62
505.707	50981.62
506.48	50153.62
507.253	49205.62
508.027	48014.62
508.8	46567.62
509.573	45086.62
510.346	43609.62
511.118	42269.62
511.891	40686.62
512.664	39015.62
513.437	37309.62
514.209	35726.62
514.982	34300.62
515.754	32739.62
516.526	31313.62
517.298	30038.62
518.071	28878.62
518.843	27712.62
519.615	26545.62
520.387	25467.62
521.159	24416.62
521.93	23375.62
522.702	22379.62
523.474	21367.62
524.245	20431.62
525.017	19566.62
525.788	18680.62
526.56	17840.62
527.331	16966.62
528.102	16029.62
528.873	15241.62
529.644	14420.62
530.415	13689.62
531.186	12999.62
531.957	12270.62
532.728	11686.62
533.498	10963.62
534.269	10381.62
535.039	9823.62
535.81	9276.62
536.58	8765.62
537.351	8299.62
538.121	7852.62
538.891	7409.62
539.661	7038.62
540.431	6636.62
541.201	6336.62
541.971	5972.62
542.741	5663.62
543.51	5373.62
544.28	5125.62
545.05	4872.62
545.819	4632.62
546.588	4418.62
547.358	4219.62
548.127	4010.62
548.896	3794.62
549.665	3583.62
550.434	3390.62
551.203	3188.62
551.972	3031.62
552.741	2855.62
553.51	2707.62
554.278	2550.62
555.047	2378.62
555.815	2277.62
556.584	2167.62
557.352	2036.62
558.121	1897.62
558.889	1808.62
559.657	1710.62
560.425	1617.62
561.193	1518.62
561.961	1443.62
562.729	1383.62
563.496	1283.62
564.264	1213.62
565.032	1144.62
565.799	1100.62
566.567	1036.62
567.334	976.62
568.101	933.62
568.869	885.62
569.636	827.62
570.403	781.62
571.17	735.62
571.937	691.62
572.704	656.62
573.471	620.62
574.237	589.62
575.004	554.62
575.771	512.62
576.537	482.62
577.303	458.62
578.07	434.62
578.836	412.62
579.602	384.62
580.368	368.62
581.134	347.62
581.9	333.62
582.666	320.62
583.432	309.62
584.198	287.62
584.964	271.62
585.729	262.62
586.495	246.62
587.26	233.62
588.025	223.62
588.791	211.62
589.556	203.62
590.321	187.62
591.086	180.62
591.851	172.62
592.616	161.62
593.381	155.62
594.146	153.62
594.911	138.62
595.675	139.62
596.44	126.62
597.204	125.62
597.969	114.62
598.733	115.62
599.497	107.62
600.261	105.62
601.025	100.62
601.79	94.62
602.553	94.62
603.317	91.62
604.081	89.62
604.845	85.62
605.609	75.62
606.372	74.62
607.136	73.62
607.899	72.62
608.662	63.62
609.426	65.62
610.189	61.62
610.952	59.62
611.715	57.62
612.478	58.62
613.241	52.62
614.004	53.62
614.767	51.62
615.529	51.62
616.292	47.62
617.055	46.62
617.817	41.62
618.579	42.62
619.342	43.62
620.104	40.62
620.866	40.62
621.628	39.62
622.39	36.62
623.152	33.62
623.914	35.62
624.676	31.62
625.438	34.62
626.199	34.62
626.961	30.62
627.722	28.62
628.484	29.62
629.245	26.62
630.006	29.62
630.768	25.62
631.529	23.62
632.29	28.62
633.051	24.62
633.812	25.62
634.573	27.62
635.333	24.62
636.094	22.62
636.855	22.62
637.615	21.62
638.376	21.62
639.136	19.62
639.896	18.62
640.657	20.62
641.417	19.62
642.177	19.62
642.937	19.62
643.697	18.62
644.457	17.62
645.216	18.62
645.976	17.62
646.736	15.62
647.495	15.62
648.255	16.62
649.014	14.62
649.774	15.62
650.533	13.62
651.292	14.62
652.051	15.62
652.81	13.62
653.569	13.62
654.328	14.62
655.087	13.62
655.846	11.62
656.604	12.62
657.363	13.62
658.121	12.62
658.88	13.62
659.638	11.62
660.397	10.62
661.155	12.62
661.913	10.62
662.671	11.62
663.429	15.62
664.187	13.62
664.945	11.62
665.703	12.62
666.46	11.62
667.218	11.62
667.976	13.62
668.733	9.62
669.49	13.62
670.248	11.62
671.005	9.62
671.762	9.62
672.519	11.62
673.276	10.62
674.033	8.62
674.79	11.62
675.547	9.62
676.304	9.62
677.06	11.62
677.817	9.62
678.574	9.62
679.33	11.62
680.086	9.62
680.843	7.62
681.599	11.62
682.355	9.62
683.111	7.62
683.867	8.62
684.623	9.62
685.379	8.62
686.135	7.62
686.89	8.62
687.646	8.62
688.402	7.62
689.157	10.62
689.912	7.62
690.668	6.62
691.423	8.62
692.178	6.62
692.933	6.62
693.688	8.62
694.443	9.62
695.198	8.62
695.953	9.62
696.708	7.62
697.462	6.62
698.217	10.62
698.972	7.62
699.726	5.62
700.48	9.62
701.235	7.62
701.989	5.62
702.743	8.62
703.497	8.62
704.251	8.62
705.005	7.62
705.759	8.62
706.513	9.62
707.266	8.62
708.02	7.62
708.774	8.62
709.527	6.62
710.28	7.62
711.034	7.62
711.787	6.62
712.54	9.62
713.293	6.62
714.046	12.62
714.799	7.62
715.552	7.62
716.305	8.62
717.058	7.62
717.81	7.62
718.563	7.62
719.315	8.62
720.068	7.62
720.82	8.62
721.573	8.62
722.325	8.62
723.077	10.62
723.829	9.62
724.581	9.62
725.333	10.62
726.085	9.62
726.836	9.62
727.588	9.62
728.34	8.62
729.091	10.62
729.843	9.62
730.594	9.62
731.346	10.62
732.097	10.62
732.848	10.62
733.599	9.62
734.35	11.62
735.101	10.62
735.852	11.62
736.603	8.62
737.354	11.62
738.104	11.62
738.855	11.62
739.605	11.62
740.356	10.62
741.106	11.62
741.856	14.62
742.607	10.62
743.357	12.62
744.107	10.62
744.857	13.62
745.607	13.62
746.357	12.62
747.106	10.62
747.856	11.62
748.606	10.62
749.355	12.62
750.105	11.62
750.854	12.62
751.603	14.62
752.353	13.62
753.102	13.62
753.851	14.62
754.6	13.62
755.349	14.62
756.098	13.62
756.847	14.62
757.595	11.62
758.344	12.62
759.093	15.62
759.841	11.62
760.589	16.62
761.338	14.62
762.086	15.62
762.834	14.62
763.582	16.62
764.331	15.62
765.079	15.62
765.826	13.62
766.574	14.62
767.322	14.62
768.07	17.62
768.817	15.62
769.565	17.62
770.312	14.62
771.06	14.62
771.807	17.62
772.554	17.62
773.302	14.62
774.049	17.62
774.796	20.62
775.543	18.62
776.29	20.62
777.036	14.62
777.783	17.62
778.53	18.62
779.276	17.62
780.023	19.62
780.769	18.62
781.516	15.62
782.262	17.62
783.008	17.62
783.754	18.62
784.5	16.62
785.246	17.62
785.992	13.62
786.738	18.62
787.484	16.62
788.23	17.62
788.975	19.62
789.721	19.62
790.466	16.62
791.212	15.62
791.957	14.62
792.702	17.62
793.447	15.62
794.193	16.62
794.938	13.62
795.683	16.62
796.427	16.62
797.172	13.62
797.917	14.62
798.662	11.62
799.406	13.62
800.151	15.62
800.895	13.62
801.64	16.62
802.384	12.62
803.128	12.62
803.872	12.62
804.616	12.62
805.36	12.62
806.104	11.62
806.848	12.62
807.592	11.62
808.336	9.62
809.079	10.62
809.823	12.62
810.566	11.62
811.31	7.62
812.053	8.62
812.796	10.62
813.539	9.62
814.283	9.62
815.026	11.62
815.769	9.62
816.511	9.62
817.254	8.62
817.997	8.62
818.74	8.62
819.482	9.62
820.225	7.62
820.967	10.62
821.71	7.62
822.452	7.62
823.194	10.62
823.936	6.62
824.678	7.62
825.42	8.62
826.162	8.62
826.904	7.62
827.646	7.62
828.388	6.62
829.129	8.62
829.871	6.62
830.612	7.62
831.354	8.62
832.095	5.62
832.836	5.62
833.577	7.62
834.319	7.62
835.06	4.62
835.801	5.62
836.542	7.62
837.282	6.62
838.023	8.62
838.764	4.62
839.504	6.62
840.245	7.62
840.985	6.62
841.726	7.62
842.466	6.62
843.206	5.62
843.946	5.62
844.687	5.62
845.427	5.62
846.166	6.62
846.906	6.62
847.646	4.62
848.386	5.62
849.125	6.62
849.865	4.62
850.605	3.62
851.344	7.62
852.083	6.62
852.823	4.62
853.562	3.62
854.301	3.62
855.04	3.62
855.779	5.62
856.518	6.62
857.257	2.62
857.995	3.62
858.734	3.62
859.473	5.62
860.211	4.62
860.95	4.62
861.688	4.62
862.426	3.62
863.165	3.62
863.903	4.62
864.641	3.62
865.379	4.62
866.117	2.62
866.855	2.62
867.593	2.62
868.33	4.62
869.068	1.62
869.806	3.62
870.543	1.62
871.28	0.62
872.018	0.62
872.755	1.62
873.492	6.62
874.229	5.62
874.967	2.62
875.703	1.62
876.44	2.62
877.177	3.62
877.914	1.62
878.651	5.62
879.387	2.62
880.124	-0.38
880.86	3.62
881.597	1.62
882.333	2.62
883.069	3.62
883.806	1.62
884.542	0.62
885.278	1.62
886.014	1.62
886.749	2.62
887.485	3.62
888.221	4.62
888.957	1.62
889.692	1.62
890.428	3.62
891.163	2.62
891.899	2.62
892.634	2.62
893.369	1.62
894.104	1.62
894.839	2.62
895.574	1.62
896.309	2.62
897.044	2.62
897.779	0.62
898.514	2.62
899.248	1.62
899.983	1.62
900.717	0.62
901.452	2.62
902.186	2.62
902.92	-0.38
903.654	1.62
904.389	3.62
905.123	0.62
905.857	1.62
906.59	-0.38
907.324	1.62
908.058	-0.38
908.792	3.62
909.525	2.62
910.259	1.62
910.992	2.62
911.726	0.62
912.459	1.62
913.192	0.62
913.925	0.62
914.658	1.62
915.391	0.62
916.124	0.62
916.857	0.62
917.59	1.62
918.323	0.62
919.055	3.62
919.788	2.62
920.521	-1.38
921.253	1.62
921.985	1.62
922.718	1.62
923.45	0.62
924.182	0.62
924.914	1.62
925.646	-1.38
926.378	1.62
927.11	2.62
927.841	1.62
928.573	0.62
929.305	0.62
930.036	0.62
930.768	0.62
931.499	1.62
932.23	0.62
932.962	1.62
933.693	0.62
934.424	-0.38
935.155	2.62
935.886	1.62
936.617	-0.38
937.348	1.62
938.078	0.62
938.809	2.62
939.54	1.62
940.27	0.62
941.001	0.62
941.731	1.62
942.461	1.62
943.191	-1.38
943.922	1.62
944.652	-0.38
945.382	2.62
946.112	1.62
946.841	0.62
947.571	2.62
948.301	0.62
949.031	3.62
949.76	1.62
950.49	0.62
951.219	0.62
951.948	-0.38
952.678	2.62
953.407	-0.38
954.136	0.62
954.865	1.62
955.594	1.62
956.323	-0.38
957.052	-0.38
957.78	1.62
958.509	-0.38
959.238	0.62
959.966	-0.38
960.695	2.62
961.423	0.62
962.151	0.62
962.88	2.62
963.608	1.62
964.336	-0.38
965.064	1.62
965.792	1.62
966.52	1.62
967.247	0.62
967.975	0.62
968.703	-0.38
969.43	-0.38
970.158	1.62
970.885	0.62
971.613	1.62
972.34	0.62
973.067	0.62
973.794	-0.38
974.521	0.62
975.248	1.62
975.975	-0.38
976.702	3.62
977.429	-0.38
978.156	1.62
978.882	0.62
979.609	-0.38
980.335	0.62
981.062	1.62
981.788	-0.38
982.514	-2.38
983.24	2.62
983.967	-0.38
984.693	2.62
985.419	1.62
986.144	-0.38
986.87	1.62
987.596	-0.38
988.322	0.62
989.047	0.62
989.773	0.62
990.498	1.62
991.224	-0.38
991.949	0.62
992.674	0.62
993.399	3.62
994.124	1.62
994.849	2.62
995.574	1.62
996.299	-0.38
997.024	1.62
997.749	0.62
998.473	1.62
999.198	0.62
999.922	-0.38
1000.647	0.62
1001.371	1.62
1002.095	-0.38
1002.82	-1.38
1003.544	-1.38
1004.268	5.62
1004.992	7.62
1005.716	7.62
1006.439	4.62
1007.163	7.62
1007.887	5.62
1008.611	-0.38
1009.334	3.62
1010.058	0.62
1010.781	1.62
1011.504	2.62
1012.228	0.62
1012.951	-0.38
1013.674	1.62
1014.397	0.62
1015.12	-0.38
