节点500_705_QEPB04081__463__20-52-27-782.txt的数据

Date: Wed Nov 12 20:52:27 CST 2025
User: PC
Spectrometer: QEPB0408
触发模式: 0
积分时间 (秒): 1.000000E-2
Scans to average: 1
启用暗噪声校正: true
启用非线性校正: false
滑动平均宽度: 0
X轴模式: Wavelengths
Number of Pixels in Spectrum: 1044
>>>>>Begin Spectral Data<<<<<
220.843	5.88
221.644	5.88
222.444	4.88
223.244	5.88
224.045	6.88
224.845	5.88
225.645	2.88
226.445	7.88
227.245	6.88
228.045	5.88
228.845	5.88
229.645	7.88
230.444	7.88
231.244	6.88
232.043	9.88
232.843	6.88
233.642	6.88
234.442	7.88
235.241	7.88
236.04	8.88
236.839	8.88
237.638	9.88
238.437	9.88
239.236	8.88
240.035	10.88
240.833	10.88
241.632	10.88
242.43	10.88
243.229	12.88
244.027	12.88
244.826	11.88
245.624	13.88
246.422	11.88
247.22	13.88
248.018	14.88
248.816	10.88
249.614	13.88
250.412	15.88
251.21	14.88
252.007	14.88
252.805	15.88
253.602	18.88
254.4	14.88
255.197	16.88
255.994	14.88
256.791	16.88
257.589	20.88
258.386	19.88
259.183	20.88
259.979	20.88
260.776	23.88
261.573	20.88
262.37	20.88
263.166	23.88
263.963	22.88
264.759	25.88
265.556	25.88
266.352	23.88
267.148	22.88
267.944	27.88
268.74	24.88
269.536	28.88
270.332	27.88
271.128	32.88
271.924	26.88
272.719	28.88
273.515	32.88
274.311	30.88
275.106	31.88
275.901	30.88
276.697	32.88
277.492	31.88
278.287	31.88
279.082	33.88
279.877	33.88
280.672	34.88
281.467	33.88
282.262	30.88
283.056	31.88
283.851	32.88
284.646	30.88
285.44	31.88
286.234	30.88
287.029	30.88
287.823	30.88
288.617	34.88
289.411	32.88
290.205	30.88
290.999	29.88
291.793	28.88
292.587	28.88
293.381	30.88
294.174	29.88
294.968	30.88
295.761	26.88
296.555	25.88
297.348	26.88
298.141	26.88
298.935	26.88
299.728	26.88
300.521	23.88
301.314	24.88
302.107	21.88
302.899	24.88
303.692	21.88
304.485	20.88
305.277	21.88
306.07	20.88
306.862	24.88
307.655	21.88
308.447	20.88
309.239	17.88
310.031	20.88
310.823	18.88
311.615	18.88
312.407	18.88
313.199	19.88
313.991	14.88
314.783	16.88
315.574	15.88
316.366	17.88
317.157	14.88
317.949	13.88
318.74	14.88
319.531	12.88
320.322	15.88
321.113	14.88
321.904	16.88
322.695	8.88
323.486	15.88
324.277	13.88
325.068	12.88
325.858	11.88
326.649	11.88
327.439	11.88
328.23	13.88
329.02	13.88
329.81	12.88
330.6	10.88
331.391	11.88
332.181	10.88
332.971	12.88
333.76	11.88
334.55	10.88
335.34	11.88
336.13	10.88
336.919	14.88
337.709	12.88
338.498	9.88
339.287	12.88
340.077	10.88
340.866	12.88
341.655	10.88
342.444	11.88
343.233	10.88
344.022	10.88
344.811	12.88
345.6	10.88
346.388	11.88
347.177	12.88
347.965	12.88
348.754	10.88
349.542	11.88
350.33	10.88
351.119	10.88
351.907	10.88
352.695	10.88
353.483	10.88
354.271	9.88
355.059	10.88
355.846	10.88
356.634	9.88
357.422	10.88
358.209	9.88
358.997	10.88
359.784	8.88
360.571	10.88
361.359	8.88
362.146	9.88
362.933	10.88
363.72	9.88
364.507	11.88
365.294	10.88
366.081	8.88
366.867	11.88
367.654	8.88
368.44	9.88
369.227	10.88
370.013	8.88
370.8	9.88
371.586	8.88
372.372	9.88
373.158	7.88
373.944	10.88
374.73	10.88
375.516	7.88
376.302	9.88
377.088	10.88
377.873	12.88
378.659	10.88
379.445	10.88
380.23	8.88
381.015	10.88
381.801	8.88
382.586	5.88
383.371	12.88
384.156	8.88
384.941	8.88
385.726	11.88
386.511	9.88
387.296	11.88
388.08	12.88
388.865	8.88
389.649	10.88
390.434	8.88
391.218	10.88
392.003	12.88
392.787	12.88
393.571	11.88
394.355	10.88
395.139	11.88
395.923	11.88
396.707	11.88
397.491	13.88
398.274	14.88
399.058	10.88
399.842	12.88
400.625	13.88
401.408	12.88
402.192	13.88
402.975	13.88
403.758	12.88
404.541	14.88
405.324	10.88
406.107	15.88
406.89	16.88
407.673	15.88
408.456	13.88
409.238	13.88
410.021	17.88
410.803	16.88
411.586	14.88
412.368	16.88
413.151	13.88
413.933	16.88
414.715	16.88
415.497	19.88
416.279	16.88
417.061	19.88
417.843	18.88
418.624	19.88
419.406	18.88
420.188	19.88
420.969	22.88
421.751	20.88
422.532	20.88
423.313	25.88
424.095	23.88
424.876	23.88
425.657	26.88
426.438	26.88
427.219	23.88
428	25.88
428.78	26.88
429.561	26.88
430.342	31.88
431.122	26.88
431.903	31.88
432.683	34.88
433.464	36.88
434.244	38.88
435.024	35.88
435.804	36.88
436.584	42.88
437.364	44.88
438.144	48.88
438.924	51.88
439.704	53.88
440.483	55.88
441.263	60.88
442.042	68.88
442.822	72.88
443.601	75.88
444.38	84.88
445.16	86.88
445.939	95.88
446.718	105.88
447.497	116.88
448.276	121.88
449.054	132.88
449.833	150.88
450.612	161.88
451.391	180.88
452.169	199.88
452.948	224.88
453.726	248.88
454.504	274.88
455.282	309.88
456.061	344.88
456.839	382.88
457.617	421.88
458.395	481.88
459.172	524.88
459.95	589.88
460.728	659.88
461.506	736.88
462.283	809.88
463.061	904.88
463.838	997.88
464.615	1111.88
465.393	1242.88
466.17	1376.88
466.947	1520.88
467.724	1679.88
468.501	1852.88
469.278	2069.88
470.055	2276.88
470.831	2499.88
471.608	2760.88
472.385	3030.88
473.161	3324.88
473.938	3645.88
474.714	3994.88
475.49	4388.88
476.266	4790.88
477.043	5227.88
477.819	5673.88
478.595	6194.88
479.371	6770.88
480.146	7333.88
480.922	8015.88
481.698	8715.88
482.473	9463.88
483.249	10248.88
484.024	11096.88
484.8	11972.88
485.575	12920.88
486.35	14056.88
487.126	15201.88
487.901	16325.88
488.676	17554.88
489.451	18908.88
490.225	20306.88
491	21766.88
491.775	23253.88
492.55	24849.88
493.324	26492.88
494.099	28149.88
494.873	29852.88
495.647	31507.88
496.422	33252.88
497.196	34890.88
497.97	36477.88
498.744	37917.88
499.518	39526.88
500.292	40930.88
501.066	42010.88
501.839	42842.88
502.613	43759.88
503.387	44581.88
504.16	44990.88
504.934	45317.88
505.707	45437.88
506.48	45190.88
507.253	44924.88
508.027	44430.88
508.8	43618.88
509.573	42841.88
510.346	41900.88
511.118	41028.88
511.891	39963.88
512.664	38584.88
513.437	37172.88
514.209	35914.88
514.982	34586.88
515.754	33239.88
516.526	31929.88
517.298	30672.88
518.071	29579.88
518.843	28386.88
519.615	27216.88
520.387	26111.88
521.159	25100.88
521.93	24018.88
522.702	23039.88
523.474	22089.88
524.245	21229.88
525.017	20355.88
525.788	19461.88
526.56	18663.88
527.331	17905.88
528.102	16986.88
528.873	16144.88
529.644	15394.88
530.415	14674.88
531.186	13968.88
531.957	13259.88
532.728	12676.88
533.498	11974.88
534.269	11354.88
535.039	10742.88
535.81	10159.88
536.58	9613.88
537.351	9131.88
538.121	8674.88
538.891	8173.88
539.661	7755.88
540.431	7313.88
541.201	6955.88
541.971	6574.88
542.741	6226.88
543.51	5916.88
544.28	5634.88
545.05	5368.88
545.819	5108.88
546.588	4888.88
547.358	4642.88
548.127	4384.88
548.896	4198.88
549.665	4001.88
550.434	3788.88
551.203	3583.88
551.972	3399.88
552.741	3230.88
553.51	3038.88
554.278	2874.88
555.047	2693.88
555.815	2591.88
556.584	2446.88
557.352	2300.88
558.121	2169.88
558.889	2036.88
559.657	1932.88
560.425	1848.88
561.193	1752.88
561.961	1660.88
562.729	1563.88
563.496	1473.88
564.264	1400.88
565.032	1319.88
565.799	1235.88
566.567	1181.88
567.334	1112.88
568.101	1058.88
568.869	987.88
569.636	934.88
570.403	883.88
571.17	830.88
571.937	775.88
572.704	746.88
573.471	711.88
574.237	659.88
575.004	637.88
575.771	585.88
576.537	558.88
577.303	523.88
578.07	501.88
578.836	468.88
579.602	438.88
580.368	425.88
581.134	402.88
581.9	379.88
582.666	366.88
583.432	342.88
584.198	318.88
584.964	311.88
585.729	301.88
586.495	280.88
587.26	267.88
588.025	254.88
588.791	229.88
589.556	224.88
590.321	212.88
591.086	205.88
591.851	201.88
592.616	179.88
593.381	180.88
594.146	167.88
594.911	160.88
595.675	156.88
596.44	143.88
597.204	139.88
597.969	128.88
598.733	125.88
599.497	125.88
600.261	119.88
601.025	110.88
601.79	103.88
602.553	100.88
603.317	102.88
604.081	90.88
604.845	88.88
605.609	83.88
606.372	82.88
607.136	78.88
607.899	78.88
608.662	75.88
609.426	67.88
610.189	71.88
610.952	65.88
611.715	64.88
612.478	61.88
613.241	54.88
614.004	54.88
614.767	53.88
615.529	49.88
616.292	48.88
617.055	49.88
617.817	45.88
618.579	45.88
619.342	46.88
620.104	40.88
620.866	43.88
621.628	39.88
622.39	39.88
623.152	38.88
623.914	34.88
624.676	37.88
625.438	33.88
626.199	34.88
626.961	31.88
627.722	28.88
628.484	30.88
629.245	28.88
630.006	30.88
630.768	29.88
631.529	25.88
632.29	25.88
633.051	27.88
633.812	24.88
634.573	26.88
635.333	25.88
636.094	22.88
636.855	23.88
637.615	22.88
638.376	21.88
639.136	19.88
639.896	21.88
640.657	18.88
641.417	18.88
642.177	18.88
642.937	19.88
643.697	17.88
644.457	18.88
645.216	16.88
645.976	15.88
646.736	16.88
647.495	15.88
648.255	17.88
649.014	14.88
649.774	14.88
650.533	16.88
651.292	14.88
652.051	13.88
652.81	12.88
653.569	13.88
654.328	8.88
655.087	14.88
655.846	13.88
656.604	10.88
657.363	12.88
658.121	11.88
658.88	9.88
659.638	12.88
660.397	9.88
661.155	10.88
661.913	9.88
662.671	10.88
663.429	7.88
664.187	11.88
664.945	12.88
665.703	10.88
666.46	9.88
667.218	8.88
667.976	10.88
668.733	7.88
669.49	8.88
670.248	9.88
671.005	8.88
671.762	9.88
672.519	5.88
673.276	8.88
674.033	10.88
674.79	8.88
675.547	10.88
676.304	7.88
677.06	10.88
677.817	6.88
678.574	6.88
679.33	7.88
680.086	6.88
680.843	9.88
681.599	6.88
682.355	9.88
683.111	6.88
683.867	8.88
684.623	8.88
685.379	6.88
686.135	8.88
686.89	5.88
687.646	9.88
688.402	7.88
689.157	6.88
689.912	6.88
690.668	5.88
691.423	10.88
692.178	5.88
692.933	8.88
693.688	3.88
694.443	8.88
695.198	6.88
695.953	7.88
696.708	5.88
697.462	7.88
698.217	6.88
698.972	6.88
699.726	6.88
700.48	5.88
701.235	6.88
701.989	6.88
702.743	5.88
703.497	5.88
704.251	7.88
705.005	6.88
705.759	10.88
706.513	5.88
707.266	5.88
708.02	7.88
708.774	8.88
709.527	8.88
710.28	5.88
711.034	9.88
711.787	6.88
712.54	7.88
713.293	7.88
714.046	6.88
714.799	11.88
715.552	6.88
716.305	7.88
717.058	6.88
717.81	6.88
718.563	8.88
719.315	8.88
720.068	8.88
720.82	4.88
721.573	7.88
722.325	8.88
723.077	7.88
723.829	8.88
724.581	7.88
725.333	6.88
726.085	7.88
726.836	9.88
727.588	7.88
728.34	8.88
729.091	7.88
729.843	7.88
730.594	9.88
731.346	6.88
732.097	9.88
732.848	8.88
733.599	7.88
734.35	9.88
735.101	8.88
735.852	7.88
736.603	7.88
737.354	9.88
738.104	9.88
738.855	7.88
739.605	7.88
740.356	10.88
741.106	11.88
741.856	9.88
742.607	11.88
743.357	9.88
744.107	7.88
744.857	10.88
745.607	8.88
746.357	8.88
747.106	8.88
747.856	7.88
748.606	11.88
749.355	10.88
750.105	9.88
750.854	9.88
751.603	10.88
752.353	9.88
753.102	9.88
753.851	12.88
754.6	8.88
755.349	8.88
756.098	10.88
756.847	12.88
757.595	11.88
758.344	9.88
759.093	9.88
759.841	12.88
760.589	10.88
761.338	8.88
762.086	12.88
762.834	13.88
763.582	13.88
764.331	12.88
765.079	12.88
765.826	10.88
766.574	14.88
767.322	12.88
768.07	11.88
768.817	12.88
769.565	13.88
770.312	12.88
771.06	14.88
771.807	14.88
772.554	14.88
773.302	13.88
774.049	12.88
774.796	13.88
775.543	13.88
776.29	14.88
777.036	15.88
777.783	11.88
778.53	16.88
779.276	15.88
780.023	12.88
780.769	14.88
781.516	14.88
782.262	11.88
783.008	14.88
783.754	14.88
784.5	16.88
785.246	14.88
785.992	15.88
786.738	11.88
787.484	15.88
788.23	13.88
788.975	13.88
789.721	14.88
790.466	14.88
791.212	15.88
791.957	15.88
792.702	11.88
793.447	12.88
794.193	11.88
794.938	15.88
795.683	10.88
796.427	13.88
797.172	12.88
797.917	14.88
798.662	12.88
799.406	10.88
800.151	12.88
800.895	10.88
801.64	12.88
802.384	11.88
803.128	10.88
803.872	10.88
804.616	11.88
805.36	9.88
806.104	10.88
806.848	11.88
807.592	10.88
808.336	9.88
809.079	10.88
809.823	8.88
810.566	9.88
811.31	10.88
812.053	6.88
812.796	8.88
813.539	8.88
814.283	7.88
815.026	9.88
815.769	8.88
816.511	7.88
817.254	6.88
817.997	7.88
818.74	8.88
819.482	8.88
820.225	8.88
820.967	5.88
821.71	5.88
822.452	3.88
823.194	7.88
823.936	7.88
824.678	5.88
825.42	7.88
826.162	4.88
826.904	5.88
827.646	2.88
828.388	2.88
829.129	6.88
829.871	4.88
830.612	6.88
831.354	2.88
832.095	5.88
832.836	4.88
833.577	5.88
834.319	4.88
835.06	3.88
835.801	6.88
836.542	2.88
837.282	4.88
838.023	8.88
838.764	6.88
839.504	4.88
840.245	2.88
840.985	6.88
841.726	3.88
842.466	4.88
843.206	2.88
843.946	4.88
844.687	4.88
845.427	4.88
846.166	4.88
846.906	5.88
847.646	4.88
848.386	4.88
849.125	2.88
849.865	4.88
850.605	5.88
851.344	4.88
852.083	4.88
852.823	3.88
853.562	2.88
854.301	3.88
855.04	1.88
855.779	6.88
856.518	4.88
857.257	2.88
857.995	2.88
858.734	3.88
859.473	2.88
860.211	3.88
860.95	2.88
861.688	5.88
862.426	1.88
863.165	5.88
863.903	3.88
864.641	3.88
865.379	3.88
866.117	2.88
866.855	1.88
867.593	2.88
868.33	3.88
869.068	1.88
869.806	2.88
870.543	2.88
871.28	3.88
872.018	1.88
872.755	0.88
873.492	1.88
874.229	1.88
874.967	2.88
875.703	-0.12
876.44	0.88
877.177	-1.12
877.914	2.88
878.651	2.88
879.387	2.88
880.124	-1.12
880.86	-1.12
881.597	1.88
882.333	2.88
883.069	-0.12
883.806	0.88
884.542	0.88
885.278	1.88
886.014	0.88
886.749	0.88
887.485	0.88
888.221	0.88
888.957	0.88
889.692	1.88
890.428	0.88
891.163	-1.12
891.899	3.88
892.634	0.88
893.369	-1.12
894.104	1.88
894.839	0.88
895.574	2.88
896.309	-1.12
897.044	1.88
897.779	2.88
898.514	0.88
899.248	-0.12
899.983	0.88
900.717	0.88
901.452	2.88
902.186	-0.12
902.92	1.88
903.654	0.88
904.389	2.88
905.123	3.88
905.857	0.88
906.59	0.88
907.324	-0.12
908.058	-2.12
908.792	0.88
909.525	0.88
910.259	-0.12
910.992	0.88
911.726	0.88
912.459	1.88
913.192	1.88
913.925	-0.12
914.658	-0.12
915.391	-0.12
916.124	-0.12
916.857	0.88
917.59	-2.12
918.323	1.88
919.055	-1.12
919.788	-0.12
920.521	0.88
921.253	-1.12
921.985	-0.12
922.718	1.88
923.45	0.88
924.182	-3.12
924.914	0.88
925.646	-1.12
926.378	-0.12
927.11	-1.12
927.841	-0.12
928.573	0.88
929.305	-1.12
930.036	-0.12
930.768	-0.12
931.499	2.88
932.23	1.88
932.962	2.88
933.693	1.88
934.424	0.88
935.155	1.88
935.886	-0.12
936.617	-1.12
937.348	0.88
938.078	1.88
938.809	-0.12
939.54	-2.12
940.27	0.88
941.001	0.88
941.731	-2.12
942.461	-0.12
943.191	-1.12
943.922	-0.12
944.652	-0.12
945.382	-1.12
946.112	1.88
946.841	1.88
947.571	-1.12
948.301	-0.12
949.031	-1.12
949.76	0.88
950.49	-1.12
951.219	0.88
951.948	-1.12
952.678	-0.12
953.407	-1.12
954.136	-2.12
954.865	-0.12
955.594	0.88
956.323	0.88
957.052	-1.12
957.78	-0.12
958.509	0.88
959.238	-1.12
959.966	-1.12
960.695	-1.12
961.423	0.88
962.151	1.88
962.88	-1.12
963.608	-0.12
964.336	-1.12
965.064	1.88
965.792	-1.12
966.52	0.88
967.247	-1.12
967.975	-2.12
968.703	-0.12
969.43	-0.12
970.158	-0.12
970.885	0.88
971.613	-1.12
972.34	0.88
973.067	-0.12
973.794	0.88
974.521	0.88
975.248	-0.12
975.975	-1.12
976.702	-0.12
977.429	2.88
978.156	-0.12
978.882	0.88
979.609	0.88
980.335	0.88
981.062	0.88
981.788	0.88
982.514	0.88
983.24	-2.12
983.967	-2.12
984.693	2.88
985.419	1.88
986.144	0.88
986.87	0.88
987.596	-0.12
988.322	0.88
989.047	0.88
989.773	0.88
990.498	-1.12
991.224	-2.12
991.949	-1.12
992.674	1.88
993.399	-1.12
994.124	0.88
994.849	-1.12
995.574	0.88
996.299	-0.12
997.024	-3.12
997.749	0.88
998.473	-1.12
999.198	1.88
999.922	0.88
1000.647	0.88
1001.371	2.88
1002.095	-0.12
1002.82	-0.12
1003.544	-0.12
1004.268	3.88
1004.992	5.88
1005.716	4.88
1006.439	5.88
1007.163	5.88
1007.887	5.88
1008.611	-1.12
1009.334	1.88
1010.058	0.88
1010.781	-1.12
1011.504	-0.12
1012.228	0.88
1012.951	-1.12
1013.674	-0.12
1014.397	-1.12
1015.12	-0.12
