节点500_705_QEPB04081__494__20-52-54-774.txt的数据

Date: Wed Nov 12 20:52:54 CST 2025
User: PC
Spectrometer: QEPB0408
触发模式: 0
积分时间 (秒): 1.000000E-2
Scans to average: 1
启用暗噪声校正: true
启用非线性校正: false
滑动平均宽度: 0
X轴模式: Wavelengths
Number of Pixels in Spectrum: 1044
>>>>>Begin Spectral Data<<<<<
220.843	6.12
221.644	6.12
222.444	5.12
223.244	6.12
224.045	7.12
224.845	8.12
225.645	5.12
226.445	9.12
227.245	6.12
228.045	5.12
228.845	7.12
229.645	4.12
230.444	7.12
231.244	8.12
232.043	8.12
232.843	10.12
233.642	9.12
234.442	9.12
235.241	10.12
236.04	10.12
236.839	10.12
237.638	10.12
238.437	10.12
239.236	13.12
240.035	10.12
240.833	9.12
241.632	11.12
242.43	13.12
243.229	13.12
244.027	11.12
244.826	15.12
245.624	10.12
246.422	12.12
247.22	12.12
248.018	14.12
248.816	14.12
249.614	16.12
250.412	15.12
251.21	16.12
252.007	16.12
252.805	18.12
253.602	15.12
254.4	19.12
255.197	17.12
255.994	18.12
256.791	17.12
257.589	20.12
258.386	15.12
259.183	19.12
259.979	19.12
260.776	22.12
261.573	21.12
262.37	22.12
263.166	20.12
263.963	24.12
264.759	26.12
265.556	24.12
266.352	28.12
267.148	27.12
267.944	25.12
268.74	26.12
269.536	26.12
270.332	29.12
271.128	32.12
271.924	28.12
272.719	32.12
273.515	28.12
274.311	31.12
275.106	30.12
275.901	31.12
276.697	31.12
277.492	32.12
278.287	31.12
279.082	33.12
279.877	34.12
280.672	33.12
281.467	33.12
282.262	34.12
283.056	34.12
283.851	33.12
284.646	32.12
285.44	30.12
286.234	32.12
287.029	33.12
287.823	31.12
288.617	31.12
289.411	30.12
290.205	30.12
290.999	32.12
291.793	30.12
292.587	32.12
293.381	28.12
294.174	27.12
294.968	30.12
295.761	26.12
296.555	27.12
297.348	25.12
298.141	26.12
298.935	32.12
299.728	26.12
300.521	25.12
301.314	23.12
302.107	25.12
302.899	23.12
303.692	21.12
304.485	23.12
305.277	22.12
306.07	22.12
306.862	21.12
307.655	24.12
308.447	21.12
309.239	21.12
310.031	22.12
310.823	19.12
311.615	20.12
312.407	19.12
313.199	19.12
313.991	17.12
314.783	19.12
315.574	20.12
316.366	18.12
317.157	17.12
317.949	17.12
318.74	13.12
319.531	16.12
320.322	14.12
321.113	13.12
321.904	17.12
322.695	14.12
323.486	15.12
324.277	13.12
325.068	12.12
325.858	15.12
326.649	11.12
327.439	14.12
328.23	13.12
329.02	15.12
329.81	11.12
330.6	14.12
331.391	12.12
332.181	13.12
332.971	11.12
333.76	12.12
334.55	13.12
335.34	12.12
336.13	11.12
336.919	11.12
337.709	11.12
338.498	14.12
339.287	13.12
340.077	13.12
340.866	10.12
341.655	10.12
342.444	11.12
343.233	13.12
344.022	14.12
344.811	12.12
345.6	11.12
346.388	14.12
347.177	11.12
347.965	12.12
348.754	13.12
349.542	12.12
350.33	11.12
351.119	9.12
351.907	11.12
352.695	12.12
353.483	10.12
354.271	11.12
355.059	12.12
355.846	11.12
356.634	9.12
357.422	12.12
358.209	12.12
358.997	9.12
359.784	10.12
360.571	10.12
361.359	10.12
362.146	8.12
362.933	11.12
363.72	8.12
364.507	11.12
365.294	11.12
366.081	11.12
366.867	11.12
367.654	9.12
368.44	11.12
369.227	8.12
370.013	9.12
370.8	9.12
371.586	10.12
372.372	12.12
373.158	9.12
373.944	10.12
374.73	11.12
375.516	11.12
376.302	9.12
377.088	11.12
377.873	10.12
378.659	10.12
379.445	10.12
380.23	9.12
381.015	9.12
381.801	12.12
382.586	8.12
383.371	7.12
384.156	12.12
384.941	8.12
385.726	11.12
386.511	8.12
387.296	11.12
388.08	11.12
388.865	11.12
389.649	12.12
390.434	9.12
391.218	10.12
392.003	9.12
392.787	13.12
393.571	12.12
394.355	10.12
395.139	14.12
395.923	9.12
396.707	11.12
397.491	13.12
398.274	13.12
399.058	13.12
399.842	12.12
400.625	13.12
401.408	15.12
402.192	14.12
402.975	15.12
403.758	14.12
404.541	14.12
405.324	16.12
406.107	13.12
406.89	13.12
407.673	16.12
408.456	16.12
409.238	18.12
410.021	17.12
410.803	17.12
411.586	18.12
412.368	17.12
413.151	17.12
413.933	19.12
414.715	16.12
415.497	18.12
416.279	18.12
417.061	19.12
417.843	18.12
418.624	21.12
419.406	19.12
420.188	19.12
420.969	18.12
421.751	23.12
422.532	25.12
423.313	21.12
424.095	22.12
424.876	23.12
425.657	20.12
426.438	25.12
427.219	24.12
428	25.12
428.78	28.12
429.561	27.12
430.342	34.12
431.122	29.12
431.903	34.12
432.683	33.12
433.464	34.12
434.244	36.12
435.024	35.12
435.804	45.12
436.584	42.12
437.364	47.12
438.144	45.12
438.924	54.12
439.704	53.12
440.483	58.12
441.263	60.12
442.042	66.12
442.822	69.12
443.601	75.12
444.38	83.12
445.16	90.12
445.939	94.12
446.718	106.12
447.497	116.12
448.276	125.12
449.054	138.12
449.833	150.12
450.612	167.12
451.391	181.12
452.169	202.12
452.948	226.12
453.726	245.12
454.504	280.12
455.282	312.12
456.061	334.12
456.839	385.12
457.617	427.12
458.395	481.12
459.172	528.12
459.95	581.12
460.728	651.12
461.506	746.12
462.283	820.12
463.061	894.12
463.838	1004.12
464.615	1114.12
465.393	1243.12
466.17	1377.12
466.947	1519.12
467.724	1685.12
468.501	1837.12
469.278	2043.12
470.055	2282.12
470.831	2499.12
471.608	2735.12
472.385	3020.12
473.161	3321.12
473.938	3634.12
474.714	3964.12
475.49	4357.12
476.266	4772.12
477.043	5208.12
477.819	5644.12
478.595	6161.12
479.371	6724.12
480.146	7308.12
480.922	7970.12
481.698	8642.12
482.473	9374.12
483.249	10134.12
484.024	11031.12
484.8	11838.12
485.575	12898.12
486.35	13852.12
487.126	14967.12
487.901	16186.12
488.676	17386.12
489.451	18663.12
490.225	20095.12
491	21488.12
491.775	23004.12
492.55	24558.12
493.324	26094.12
494.099	27726.12
494.873	29385.12
495.647	31039.12
496.422	32656.12
497.196	34355.12
497.97	35961.12
498.744	37448.12
499.518	39000.12
500.292	40384.12
501.066	41440.12
501.839	42428.12
502.613	43310.12
503.387	44006.12
504.16	44633.12
504.934	44837.12
505.707	44962.12
506.48	44752.12
507.253	44539.12
508.027	44139.12
508.8	43334.12
509.573	42588.12
510.346	41680.12
511.118	40835.12
511.891	39751.12
512.664	38294.12
513.437	37046.12
514.209	35705.12
514.982	34457.12
515.754	33098.12
516.526	31851.12
517.298	30596.12
518.071	29440.12
518.843	28271.12
519.615	27183.12
520.387	26129.12
521.159	25065.12
521.93	23993.12
522.702	23014.12
523.474	22048.12
524.245	21128.12
525.017	20282.12
525.788	19386.12
526.56	18684.12
527.331	17868.12
528.102	16992.12
528.873	16139.12
529.644	15407.12
530.415	14744.12
531.186	14021.12
531.957	13272.12
532.728	12607.12
533.498	11973.12
534.269	11418.12
535.039	10743.12
535.81	10211.12
536.58	9617.12
537.351	9125.12
538.121	8645.12
538.891	8187.12
539.661	7747.12
540.431	7342.12
541.201	6970.12
541.971	6592.12
542.741	6242.12
543.51	5918.12
544.28	5642.12
545.05	5322.12
545.819	5139.12
546.588	4870.12
547.358	4673.12
548.127	4428.12
548.896	4186.12
549.665	3977.12
550.434	3789.12
551.203	3618.12
551.972	3411.12
552.741	3235.12
553.51	3048.12
554.278	2865.12
555.047	2731.12
555.815	2580.12
556.584	2443.12
557.352	2295.12
558.121	2182.12
558.889	2060.12
559.657	1935.12
560.425	1838.12
561.193	1744.12
561.961	1646.12
562.729	1570.12
563.496	1463.12
564.264	1391.12
565.032	1306.12
565.799	1247.12
566.567	1190.12
567.334	1125.12
568.101	1066.12
568.869	1004.12
569.636	945.12
570.403	885.12
571.17	828.12
571.937	792.12
572.704	753.12
573.471	712.12
574.237	671.12
575.004	633.12
575.771	596.12
576.537	566.12
577.303	527.12
578.07	492.12
578.836	476.12
579.602	447.12
580.368	424.12
581.134	403.12
581.9	379.12
582.666	362.12
583.432	348.12
584.198	325.12
584.964	311.12
585.729	294.12
586.495	282.12
587.26	269.12
588.025	262.12
588.791	232.12
589.556	221.12
590.321	216.12
591.086	202.12
591.851	194.12
592.616	184.12
593.381	173.12
594.146	165.12
594.911	165.12
595.675	153.12
596.44	147.12
597.204	136.12
597.969	133.12
598.733	130.12
599.497	118.12
600.261	115.12
601.025	109.12
601.79	109.12
602.553	105.12
603.317	99.12
604.081	93.12
604.845	90.12
605.609	86.12
606.372	79.12
607.136	82.12
607.899	78.12
608.662	72.12
609.426	71.12
610.189	69.12
610.952	66.12
611.715	67.12
612.478	59.12
613.241	55.12
614.004	57.12
614.767	57.12
615.529	51.12
616.292	54.12
617.055	50.12
617.817	46.12
618.579	46.12
619.342	45.12
620.104	47.12
620.866	44.12
621.628	42.12
622.39	40.12
623.152	37.12
623.914	37.12
624.676	39.12
625.438	35.12
626.199	32.12
626.961	28.12
627.722	32.12
628.484	29.12
629.245	26.12
630.006	30.12
630.768	28.12
631.529	26.12
632.29	27.12
633.051	25.12
633.812	24.12
634.573	23.12
635.333	23.12
636.094	22.12
636.855	24.12
637.615	23.12
638.376	22.12
639.136	21.12
639.896	22.12
640.657	20.12
641.417	22.12
642.177	18.12
642.937	16.12
643.697	19.12
644.457	19.12
645.216	18.12
645.976	17.12
646.736	17.12
647.495	13.12
648.255	15.12
649.014	16.12
649.774	15.12
650.533	13.12
651.292	16.12
652.051	15.12
652.81	14.12
653.569	16.12
654.328	12.12
655.087	12.12
655.846	11.12
656.604	12.12
657.363	14.12
658.121	12.12
658.88	12.12
659.638	11.12
660.397	12.12
661.155	12.12
661.913	11.12
662.671	12.12
663.429	12.12
664.187	11.12
664.945	10.12
665.703	10.12
666.46	11.12
667.218	10.12
667.976	13.12
668.733	9.12
669.49	9.12
670.248	7.12
671.005	10.12
671.762	9.12
672.519	7.12
673.276	10.12
674.033	10.12
674.79	10.12
675.547	8.12
676.304	8.12
677.06	8.12
677.817	10.12
678.574	8.12
679.33	8.12
680.086	9.12
680.843	10.12
681.599	6.12
682.355	9.12
683.111	9.12
683.867	7.12
684.623	9.12
685.379	7.12
686.135	8.12
686.89	8.12
687.646	8.12
688.402	6.12
689.157	7.12
689.912	7.12
690.668	9.12
691.423	6.12
692.178	7.12
692.933	6.12
693.688	6.12
694.443	7.12
695.198	7.12
695.953	8.12
696.708	8.12
697.462	10.12
698.217	9.12
698.972	8.12
699.726	5.12
700.48	8.12
701.235	7.12
701.989	9.12
702.743	8.12
703.497	8.12
704.251	7.12
705.005	7.12
705.759	7.12
706.513	8.12
707.266	5.12
708.02	6.12
708.774	9.12
709.527	8.12
710.28	8.12
711.034	8.12
711.787	8.12
712.54	5.12
713.293	8.12
714.046	6.12
714.799	8.12
715.552	7.12
716.305	8.12
717.058	5.12
717.81	6.12
718.563	7.12
719.315	5.12
720.068	8.12
720.82	6.12
721.573	8.12
722.325	9.12
723.077	6.12
723.829	9.12
724.581	8.12
725.333	7.12
726.085	8.12
726.836	9.12
727.588	9.12
728.34	7.12
729.091	9.12
729.843	10.12
730.594	9.12
731.346	9.12
732.097	8.12
732.848	8.12
733.599	7.12
734.35	10.12
735.101	10.12
735.852	8.12
736.603	7.12
737.354	8.12
738.104	9.12
738.855	8.12
739.605	10.12
740.356	11.12
741.106	9.12
741.856	11.12
742.607	8.12
743.357	11.12
744.107	11.12
744.857	11.12
745.607	8.12
746.357	12.12
747.106	12.12
747.856	12.12
748.606	10.12
749.355	11.12
750.105	10.12
750.854	12.12
751.603	9.12
752.353	8.12
753.102	10.12
753.851	10.12
754.6	12.12
755.349	9.12
756.098	12.12
756.847	11.12
757.595	12.12
758.344	10.12
759.093	10.12
759.841	13.12
760.589	11.12
761.338	15.12
762.086	13.12
762.834	14.12
763.582	11.12
764.331	11.12
765.079	12.12
765.826	11.12
766.574	12.12
767.322	12.12
768.07	13.12
768.817	13.12
769.565	15.12
770.312	14.12
771.06	13.12
771.807	12.12
772.554	13.12
773.302	17.12
774.049	14.12
774.796	15.12
775.543	15.12
776.29	16.12
777.036	16.12
777.783	15.12
778.53	13.12
779.276	16.12
780.023	14.12
780.769	15.12
781.516	17.12
782.262	15.12
783.008	15.12
783.754	15.12
784.5	17.12
785.246	15.12
785.992	15.12
786.738	13.12
787.484	15.12
788.23	17.12
788.975	12.12
789.721	15.12
790.466	14.12
791.212	16.12
791.957	14.12
792.702	15.12
793.447	14.12
794.193	13.12
794.938	15.12
795.683	13.12
796.427	15.12
797.172	12.12
797.917	13.12
798.662	11.12
799.406	13.12
800.151	11.12
800.895	10.12
801.64	13.12
802.384	14.12
803.128	10.12
803.872	11.12
804.616	11.12
805.36	11.12
806.104	11.12
806.848	8.12
807.592	10.12
808.336	9.12
809.079	9.12
809.823	10.12
810.566	7.12
811.31	9.12
812.053	9.12
812.796	8.12
813.539	7.12
814.283	9.12
815.026	10.12
815.769	8.12
816.511	11.12
817.254	8.12
817.997	8.12
818.74	9.12
819.482	7.12
820.225	7.12
820.967	5.12
821.71	6.12
822.452	7.12
823.194	8.12
823.936	9.12
824.678	5.12
825.42	9.12
826.162	5.12
826.904	9.12
827.646	5.12
828.388	10.12
829.129	7.12
829.871	5.12
830.612	9.12
831.354	5.12
832.095	9.12
832.836	6.12
833.577	8.12
834.319	8.12
835.06	6.12
835.801	8.12
836.542	5.12
837.282	5.12
838.023	5.12
838.764	5.12
839.504	8.12
840.245	5.12
840.985	6.12
841.726	5.12
842.466	7.12
843.206	3.12
843.946	4.12
844.687	4.12
845.427	6.12
846.166	6.12
846.906	4.12
847.646	6.12
848.386	5.12
849.125	3.12
849.865	5.12
850.605	5.12
851.344	6.12
852.083	6.12
852.823	3.12
853.562	6.12
854.301	3.12
855.04	6.12
855.779	5.12
856.518	4.12
857.257	3.12
857.995	1.12
858.734	4.12
859.473	4.12
860.211	5.12
860.95	4.12
861.688	4.12
862.426	2.12
863.165	3.12
863.903	6.12
864.641	3.12
865.379	4.12
866.117	6.12
866.855	2.12
867.593	5.12
868.33	3.12
869.068	3.12
869.806	5.12
870.543	1.12
871.28	2.12
872.018	3.12
872.755	2.12
873.492	1.12
874.229	3.12
874.967	3.12
875.703	2.12
876.44	3.12
877.177	2.12
877.914	3.12
878.651	2.12
879.387	2.12
880.124	4.12
880.86	2.12
881.597	2.12
882.333	2.12
883.069	1.12
883.806	0.12
884.542	1.12
885.278	1.12
886.014	1.12
886.749	2.12
887.485	0.12
888.221	1.12
888.957	1.12
889.692	2.12
890.428	1.12
891.163	1.12
891.899	2.12
892.634	-0.88
893.369	2.12
894.104	2.12
894.839	-0.88
895.574	0.12
896.309	1.12
897.044	1.12
897.779	3.12
898.514	2.12
899.248	1.12
899.983	0.12
900.717	0.12
901.452	2.12
902.186	1.12
902.92	3.12
903.654	1.12
904.389	-0.88
905.123	1.12
905.857	-0.88
906.59	-0.88
907.324	1.12
908.058	3.12
908.792	2.12
909.525	1.12
910.259	1.12
910.992	1.12
911.726	0.12
912.459	1.12
913.192	1.12
913.925	2.12
914.658	2.12
915.391	0.12
916.124	0.12
916.857	1.12
917.59	2.12
918.323	1.12
919.055	1.12
919.788	-0.88
920.521	1.12
921.253	0.12
921.985	2.12
922.718	-0.88
923.45	0.12
924.182	1.12
924.914	0.12
925.646	2.12
926.378	2.12
927.11	2.12
927.841	2.12
928.573	0.12
929.305	0.12
930.036	-0.88
930.768	0.12
931.499	0.12
932.23	0.12
932.962	1.12
933.693	0.12
934.424	2.12
935.155	0.12
935.886	1.12
936.617	0.12
937.348	0.12
938.078	1.12
938.809	-0.88
939.54	3.12
940.27	-0.88
941.001	2.12
941.731	2.12
942.461	0.12
943.191	3.12
943.922	1.12
944.652	0.12
945.382	2.12
946.112	2.12
946.841	-0.88
947.571	3.12
948.301	-0.88
949.031	0.12
949.76	2.12
950.49	1.12
951.219	-0.88
951.948	1.12
952.678	1.12
953.407	0.12
954.136	1.12
954.865	0.12
955.594	0.12
956.323	2.12
957.052	2.12
957.78	0.12
958.509	-0.88
959.238	1.12
959.966	-1.88
960.695	1.12
961.423	1.12
962.151	-1.88
962.88	0.12
963.608	2.12
964.336	3.12
965.064	-0.88
965.792	2.12
966.52	0.12
967.247	0.12
967.975	-0.88
968.703	1.12
969.43	2.12
970.158	-0.88
970.885	2.12
971.613	-0.88
972.34	-0.88
973.067	2.12
973.794	-0.88
974.521	1.12
975.248	2.12
975.975	1.12
976.702	1.12
977.429	0.12
978.156	0.12
978.882	1.12
979.609	1.12
980.335	0.12
981.062	1.12
981.788	0.12
982.514	-0.88
983.24	3.12
983.967	-1.88
984.693	3.12
985.419	0.12
986.144	1.12
986.87	0.12
987.596	1.12
988.322	1.12
989.047	0.12
989.773	1.12
990.498	1.12
991.224	1.12
991.949	0.12
992.674	2.12
993.399	0.12
994.124	1.12
994.849	0.12
995.574	-0.88
996.299	2.12
997.024	0.12
997.749	1.12
998.473	1.12
999.198	-0.88
999.922	3.12
1000.647	3.12
1001.371	3.12
1002.095	0.12
1002.82	0.12
1003.544	1.12
1004.268	5.12
1004.992	5.12
1005.716	5.12
1006.439	5.12
1007.163	7.12
1007.887	4.12
1008.611	-1.88
1009.334	0.12
1010.058	2.12
1010.781	1.12
1011.504	1.12
1012.228	0.12
1012.951	-0.88
1013.674	0.12
1014.397	-0.88
1015.12	-2.88
