节点500_705_QEPB04081__326__20-50-35-502.txt的数据

Date: Wed Nov 12 20:50:35 CST 2025
User: PC
Spectrometer: QEPB0408
触发模式: 0
积分时间 (秒): 1.000000E-2
Scans to average: 1
启用暗噪声校正: true
启用非线性校正: false
滑动平均宽度: 0
X轴模式: Wavelengths
Number of Pixels in Spectrum: 1044
>>>>>Begin Spectral Data<<<<<
220.843	4.75
221.644	7.75
222.444	5.75
223.244	4.75
224.045	8.75
224.845	4.75
225.645	7.75
226.445	4.75
227.245	5.75
228.045	7.75
228.845	7.75
229.645	7.75
230.444	7.75
231.244	6.75
232.043	9.75
232.843	8.75
233.642	7.75
234.442	6.75
235.241	9.75
236.04	7.75
236.839	8.75
237.638	10.75
238.437	10.75
239.236	12.75
240.035	11.75
240.833	13.75
241.632	12.75
242.43	9.75
243.229	11.75
244.027	12.75
244.826	13.75
245.624	13.75
246.422	15.75
247.22	12.75
248.018	14.75
248.816	17.75
249.614	14.75
250.412	14.75
251.21	18.75
252.007	14.75
252.805	17.75
253.602	15.75
254.4	16.75
255.197	19.75
255.994	23.75
256.791	22.75
257.589	21.75
258.386	21.75
259.183	23.75
259.979	24.75
260.776	22.75
261.573	20.75
262.37	21.75
263.166	20.75
263.963	25.75
264.759	26.75
265.556	29.75
266.352	26.75
267.148	28.75
267.944	28.75
268.74	28.75
269.536	28.75
270.332	28.75
271.128	29.75
271.924	31.75
272.719	30.75
273.515	31.75
274.311	29.75
275.106	33.75
275.901	30.75
276.697	35.75
277.492	31.75
278.287	32.75
279.082	32.75
279.877	34.75
280.672	35.75
281.467	37.75
282.262	34.75
283.056	36.75
283.851	32.75
284.646	34.75
285.44	32.75
286.234	34.75
287.029	34.75
287.823	33.75
288.617	32.75
289.411	31.75
290.205	31.75
290.999	31.75
291.793	33.75
292.587	28.75
293.381	29.75
294.174	30.75
294.968	27.75
295.761	27.75
296.555	28.75
297.348	24.75
298.141	25.75
298.935	28.75
299.728	25.75
300.521	24.75
301.314	22.75
302.107	23.75
302.899	19.75
303.692	21.75
304.485	19.75
305.277	22.75
306.07	21.75
306.862	20.75
307.655	21.75
308.447	18.75
309.239	20.75
310.031	24.75
310.823	18.75
311.615	16.75
312.407	15.75
313.199	16.75
313.991	16.75
314.783	14.75
315.574	16.75
316.366	12.75
317.157	14.75
317.949	13.75
318.74	14.75
319.531	16.75
320.322	15.75
321.113	14.75
321.904	18.75
322.695	15.75
323.486	14.75
324.277	14.75
325.068	14.75
325.858	11.75
326.649	14.75
327.439	8.75
328.23	12.75
329.02	13.75
329.81	13.75
330.6	10.75
331.391	11.75
332.181	12.75
332.971	10.75
333.76	13.75
334.55	12.75
335.34	13.75
336.13	10.75
336.919	12.75
337.709	12.75
338.498	12.75
339.287	9.75
340.077	12.75
340.866	11.75
341.655	10.75
342.444	10.75
343.233	12.75
344.022	13.75
344.811	11.75
345.6	10.75
346.388	10.75
347.177	9.75
347.965	13.75
348.754	9.75
349.542	10.75
350.33	10.75
351.119	12.75
351.907	11.75
352.695	8.75
353.483	9.75
354.271	10.75
355.059	9.75
355.846	9.75
356.634	8.75
357.422	12.75
358.209	10.75
358.997	10.75
359.784	9.75
360.571	11.75
361.359	8.75
362.146	10.75
362.933	8.75
363.72	8.75
364.507	10.75
365.294	10.75
366.081	10.75
366.867	10.75
367.654	10.75
368.44	8.75
369.227	8.75
370.013	7.75
370.8	9.75
371.586	8.75
372.372	9.75
373.158	9.75
373.944	9.75
374.73	10.75
375.516	11.75
376.302	12.75
377.088	10.75
377.873	9.75
378.659	9.75
379.445	8.75
380.23	9.75
381.015	10.75
381.801	9.75
382.586	8.75
383.371	9.75
384.156	11.75
384.941	10.75
385.726	9.75
386.511	10.75
387.296	8.75
388.08	10.75
388.865	9.75
389.649	10.75
390.434	12.75
391.218	12.75
392.003	11.75
392.787	11.75
393.571	10.75
394.355	11.75
395.139	11.75
395.923	10.75
396.707	13.75
397.491	13.75
398.274	15.75
399.058	13.75
399.842	14.75
400.625	13.75
401.408	14.75
402.192	13.75
402.975	10.75
403.758	14.75
404.541	16.75
405.324	12.75
406.107	15.75
406.89	12.75
407.673	17.75
408.456	14.75
409.238	15.75
410.021	16.75
410.803	16.75
411.586	17.75
412.368	14.75
413.151	18.75
413.933	16.75
414.715	19.75
415.497	19.75
416.279	18.75
417.061	20.75
417.843	17.75
418.624	21.75
419.406	18.75
420.188	21.75
420.969	19.75
421.751	22.75
422.532	24.75
423.313	23.75
424.095	23.75
424.876	23.75
425.657	27.75
426.438	24.75
427.219	22.75
428	29.75
428.78	27.75
429.561	29.75
430.342	29.75
431.122	33.75
431.903	32.75
432.683	34.75
433.464	35.75
434.244	35.75
435.024	40.75
435.804	38.75
436.584	41.75
437.364	45.75
438.144	45.75
438.924	47.75
439.704	54.75
440.483	57.75
441.263	60.75
442.042	63.75
442.822	71.75
443.601	73.75
444.38	76.75
445.16	81.75
445.939	89.75
446.718	100.75
447.497	113.75
448.276	121.75
449.054	131.75
449.833	148.75
450.612	159.75
451.391	176.75
452.169	192.75
452.948	215.75
453.726	243.75
454.504	267.75
455.282	298.75
456.061	335.75
456.839	371.75
457.617	409.75
458.395	457.75
459.172	514.75
459.95	567.75
460.728	635.75
461.506	706.75
462.283	792.75
463.061	874.75
463.838	981.75
464.615	1092.75
465.393	1215.75
466.17	1357.75
466.947	1503.75
467.724	1661.75
468.501	1856.75
469.278	2052.75
470.055	2253.75
470.831	2486.75
471.608	2778.75
472.385	3049.75
473.161	3371.75
473.938	3662.75
474.714	4054.75
475.49	4440.75
476.266	4861.75
477.043	5288.75
477.819	5854.75
478.595	6349.75
479.371	6967.75
480.146	7607.75
480.922	8268.75
481.698	9024.75
482.473	9802.75
483.249	10688.75
484.024	11605.75
484.8	12670.75
485.575	13714.75
486.35	14824.75
487.126	16052.75
487.901	17353.75
488.676	18714.75
489.451	20251.75
490.225	21774.75
491	23326.75
491.775	25030.75
492.55	26677.75
493.324	28379.75
494.099	30158.75
494.873	32006.75
495.647	33766.75
496.422	35571.75
497.196	37369.75
497.97	39002.75
498.744	40449.75
499.518	42111.75
500.292	43490.75
501.066	44551.75
501.839	45437.75
502.613	46169.75
503.387	46788.75
504.16	47156.75
504.934	47366.75
505.707	47366.75
506.48	46872.75
507.253	46411.75
508.027	45684.75
508.8	44686.75
509.573	43596.75
510.346	42616.75
511.118	41504.75
511.891	40304.75
512.664	38740.75
513.437	37285.75
514.209	35928.75
514.982	34522.75
515.754	33144.75
516.526	31676.75
517.298	30454.75
518.071	29267.75
518.843	28095.75
519.615	27025.75
520.387	26012.75
521.159	24948.75
521.93	23888.75
522.702	22901.75
523.474	21947.75
524.245	21025.75
525.017	20017.75
525.788	19206.75
526.56	18430.75
527.331	17564.75
528.102	16626.75
528.873	15816.75
529.644	15104.75
530.415	14426.75
531.186	13714.75
531.957	13019.75
532.728	12322.75
533.498	11702.75
534.269	11070.75
535.039	10416.75
535.81	9897.75
536.58	9368.75
537.351	8859.75
538.121	8398.75
538.891	7954.75
539.661	7534.75
540.431	7088.75
541.201	6745.75
541.971	6372.75
542.741	6027.75
543.51	5750.75
544.28	5469.75
545.05	5213.75
545.819	4948.75
546.588	4737.75
547.358	4516.75
548.127	4279.75
548.896	4075.75
549.665	3856.75
550.434	3641.75
551.203	3460.75
551.972	3275.75
552.741	3111.75
553.51	2947.75
554.278	2768.75
555.047	2600.75
555.815	2496.75
556.584	2338.75
557.352	2213.75
558.121	2064.75
558.889	1971.75
559.657	1874.75
560.425	1750.75
561.193	1674.75
561.961	1587.75
562.729	1491.75
563.496	1420.75
564.264	1323.75
565.032	1248.75
565.799	1193.75
566.567	1129.75
567.334	1073.75
568.101	1004.75
568.869	952.75
569.636	906.75
570.403	844.75
571.17	804.75
571.937	753.75
572.704	707.75
573.471	674.75
574.237	637.75
575.004	603.75
575.771	568.75
576.537	539.75
577.303	507.75
578.07	481.75
578.836	448.75
579.602	423.75
580.368	405.75
581.134	378.75
581.9	364.75
582.666	348.75
583.432	328.75
584.198	313.75
584.964	301.75
585.729	281.75
586.495	262.75
587.26	250.75
588.025	242.75
588.791	231.75
589.556	215.75
590.321	211.75
591.086	192.75
591.851	183.75
592.616	172.75
593.381	163.75
594.146	160.75
594.911	153.75
595.675	145.75
596.44	138.75
597.204	127.75
597.969	126.75
598.733	121.75
599.497	115.75
600.261	110.75
601.025	102.75
601.79	103.75
602.553	99.75
603.317	93.75
604.081	90.75
604.845	83.75
605.609	87.75
606.372	82.75
607.136	79.75
607.899	74.75
608.662	71.75
609.426	66.75
610.189	67.75
610.952	64.75
611.715	66.75
612.478	54.75
613.241	55.75
614.004	54.75
614.767	48.75
615.529	49.75
616.292	49.75
617.055	47.75
617.817	44.75
618.579	44.75
619.342	43.75
620.104	39.75
620.866	41.75
621.628	37.75
622.39	39.75
623.152	33.75
623.914	34.75
624.676	35.75
625.438	32.75
626.199	32.75
626.961	28.75
627.722	28.75
628.484	31.75
629.245	30.75
630.006	26.75
630.768	28.75
631.529	27.75
632.29	27.75
633.051	25.75
633.812	23.75
634.573	24.75
635.333	23.75
636.094	23.75
636.855	20.75
637.615	20.75
638.376	18.75
639.136	21.75
639.896	21.75
640.657	19.75
641.417	18.75
642.177	16.75
642.937	16.75
643.697	17.75
644.457	17.75
645.216	16.75
645.976	15.75
646.736	15.75
647.495	15.75
648.255	14.75
649.014	16.75
649.774	15.75
650.533	14.75
651.292	12.75
652.051	12.75
652.81	10.75
653.569	12.75
654.328	15.75
655.087	13.75
655.846	13.75
656.604	12.75
657.363	11.75
658.121	12.75
658.88	11.75
659.638	11.75
660.397	10.75
661.155	14.75
661.913	10.75
662.671	12.75
663.429	11.75
664.187	11.75
664.945	12.75
665.703	10.75
666.46	10.75
667.218	9.75
667.976	8.75
668.733	10.75
669.49	8.75
670.248	5.75
671.005	11.75
671.762	8.75
672.519	9.75
673.276	8.75
674.033	9.75
674.79	5.75
675.547	7.75
676.304	9.75
677.06	10.75
677.817	6.75
678.574	9.75
679.33	7.75
680.086	10.75
680.843	8.75
681.599	9.75
682.355	7.75
683.111	6.75
683.867	7.75
684.623	6.75
685.379	8.75
686.135	7.75
686.89	5.75
687.646	8.75
688.402	8.75
689.157	9.75
689.912	8.75
690.668	7.75
691.423	7.75
692.178	5.75
692.933	4.75
693.688	6.75
694.443	9.75
695.198	9.75
695.953	8.75
696.708	5.75
697.462	7.75
698.217	8.75
698.972	7.75
699.726	7.75
700.48	7.75
701.235	8.75
701.989	8.75
702.743	8.75
703.497	5.75
704.251	7.75
705.005	6.75
705.759	9.75
706.513	8.75
707.266	8.75
708.02	8.75
708.774	4.75
709.527	4.75
710.28	7.75
711.034	6.75
711.787	7.75
712.54	7.75
713.293	7.75
714.046	5.75
714.799	7.75
715.552	7.75
716.305	5.75
717.058	7.75
717.81	6.75
718.563	7.75
719.315	7.75
720.068	5.75
720.82	9.75
721.573	7.75
722.325	7.75
723.077	10.75
723.829	4.75
724.581	8.75
725.333	7.75
726.085	7.75
726.836	8.75
727.588	7.75
728.34	7.75
729.091	6.75
729.843	10.75
730.594	10.75
731.346	7.75
732.097	8.75
732.848	7.75
733.599	9.75
734.35	7.75
735.101	8.75
735.852	8.75
736.603	9.75
737.354	9.75
738.104	8.75
738.855	8.75
739.605	10.75
740.356	10.75
741.106	8.75
741.856	11.75
742.607	10.75
743.357	7.75
744.107	8.75
744.857	8.75
745.607	10.75
746.357	10.75
747.106	9.75
747.856	11.75
748.606	9.75
749.355	10.75
750.105	11.75
750.854	10.75
751.603	9.75
752.353	9.75
753.102	11.75
753.851	11.75
754.6	14.75
755.349	9.75
756.098	11.75
756.847	10.75
757.595	10.75
758.344	12.75
759.093	11.75
759.841	12.75
760.589	12.75
761.338	10.75
762.086	14.75
762.834	11.75
763.582	14.75
764.331	12.75
765.079	13.75
765.826	14.75
766.574	12.75
767.322	12.75
768.07	14.75
768.817	10.75
769.565	14.75
770.312	12.75
771.06	15.75
771.807	15.75
772.554	18.75
773.302	14.75
774.049	14.75
774.796	14.75
775.543	13.75
776.29	16.75
777.036	11.75
777.783	16.75
778.53	15.75
779.276	16.75
780.023	16.75
780.769	14.75
781.516	15.75
782.262	13.75
783.008	14.75
783.754	15.75
784.5	15.75
785.246	17.75
785.992	16.75
786.738	13.75
787.484	16.75
788.23	12.75
788.975	16.75
789.721	13.75
790.466	15.75
791.212	12.75
791.957	16.75
792.702	13.75
793.447	12.75
794.193	16.75
794.938	11.75
795.683	15.75
796.427	11.75
797.172	12.75
797.917	13.75
798.662	10.75
799.406	12.75
800.151	12.75
800.895	13.75
801.64	10.75
802.384	10.75
803.128	13.75
803.872	10.75
804.616	10.75
805.36	10.75
806.104	10.75
806.848	10.75
807.592	9.75
808.336	11.75
809.079	8.75
809.823	8.75
810.566	8.75
811.31	7.75
812.053	8.75
812.796	7.75
813.539	8.75
814.283	8.75
815.026	7.75
815.769	9.75
816.511	7.75
817.254	6.75
817.997	7.75
818.74	6.75
819.482	6.75
820.225	8.75
820.967	9.75
821.71	7.75
822.452	7.75
823.194	8.75
823.936	6.75
824.678	7.75
825.42	3.75
826.162	7.75
826.904	5.75
827.646	6.75
828.388	4.75
829.129	4.75
829.871	7.75
830.612	5.75
831.354	7.75
832.095	7.75
832.836	6.75
833.577	5.75
834.319	3.75
835.06	5.75
835.801	6.75
836.542	6.75
837.282	7.75
838.023	4.75
838.764	7.75
839.504	4.75
840.245	5.75
840.985	3.75
841.726	4.75
842.466	6.75
843.206	5.75
843.946	5.75
844.687	3.75
845.427	4.75
846.166	2.75
846.906	5.75
847.646	5.75
848.386	3.75
849.125	4.75
849.865	2.75
850.605	5.75
851.344	3.75
852.083	3.75
852.823	3.75
853.562	4.75
854.301	5.75
855.04	3.75
855.779	3.75
856.518	7.75
857.257	0.75
857.995	1.75
858.734	1.75
859.473	4.75
860.211	3.75
860.95	3.75
861.688	2.75
862.426	3.75
863.165	3.75
863.903	3.75
864.641	4.75
865.379	4.75
866.117	0.75
866.855	3.75
867.593	1.75
868.33	2.75
869.068	2.75
869.806	3.75
870.543	1.75
871.28	0.75
872.018	2.75
872.755	2.75
873.492	4.75
874.229	2.75
874.967	4.75
875.703	1.75
876.44	0.75
877.177	2.75
877.914	3.75
878.651	0.75
879.387	1.75
880.124	2.75
880.86	1.75
881.597	2.75
882.333	2.75
883.069	1.75
883.806	2.75
884.542	1.75
885.278	-1.25
886.014	2.75
886.749	1.75
887.485	1.75
888.221	1.75
888.957	-0.25
889.692	1.75
890.428	-0.25
891.163	0.75
891.899	1.75
892.634	-0.25
893.369	-0.25
894.104	-0.25
894.839	1.75
895.574	0.75
896.309	0.75
897.044	2.75
897.779	-0.25
898.514	1.75
899.248	0.75
899.983	2.75
900.717	-1.25
901.452	-0.25
902.186	1.75
902.92	-0.25
903.654	0.75
904.389	1.75
905.123	3.75
905.857	1.75
906.59	-0.25
907.324	1.75
908.058	-1.25
908.792	-0.25
909.525	0.75
910.259	0.75
910.992	2.75
911.726	2.75
912.459	0.75
913.192	-0.25
913.925	-1.25
914.658	-1.25
915.391	-1.25
916.124	0.75
916.857	0.75
917.59	0.75
918.323	-0.25
919.055	1.75
919.788	-0.25
920.521	-1.25
921.253	-0.25
921.985	1.75
922.718	1.75
923.45	2.75
924.182	0.75
924.914	0.75
925.646	-1.25
926.378	-0.25
927.11	0.75
927.841	1.75
928.573	-1.25
929.305	-0.25
930.036	0.75
930.768	-0.25
931.499	1.75
932.23	-1.25
932.962	0.75
933.693	1.75
934.424	-1.25
935.155	-1.25
935.886	-0.25
936.617	0.75
937.348	-1.25
938.078	2.75
938.809	0.75
939.54	-0.25
940.27	1.75
941.001	-0.25
941.731	1.75
942.461	0.75
943.191	0.75
943.922	-1.25
944.652	0.75
945.382	-0.25
946.112	1.75
946.841	-0.25
947.571	-0.25
948.301	-1.25
949.031	0.75
949.76	1.75
950.49	0.75
951.219	-0.25
951.948	-1.25
952.678	-0.25
953.407	-1.25
954.136	0.75
954.865	1.75
955.594	1.75
956.323	0.75
957.052	-1.25
957.78	0.75
958.509	-0.25
959.238	0.75
959.966	-1.25
960.695	0.75
961.423	2.75
962.151	-0.25
962.88	1.75
963.608	-1.25
964.336	0.75
965.064	1.75
965.792	-3.25
966.52	2.75
967.247	0.75
967.975	-0.25
968.703	1.75
969.43	-0.25
970.158	-0.25
970.885	-0.25
971.613	-0.25
972.34	-0.25
973.067	2.75
973.794	0.75
974.521	-0.25
975.248	1.75
975.975	0.75
976.702	0.75
977.429	0.75
978.156	1.75
978.882	-0.25
979.609	-0.25
980.335	-1.25
981.062	-0.25
981.788	-0.25
982.514	1.75
983.24	-0.25
983.967	0.75
984.693	-0.25
985.419	1.75
986.144	0.75
986.87	-0.25
987.596	0.75
988.322	1.75
989.047	1.75
989.773	0.75
990.498	-0.25
991.224	-0.25
991.949	-0.25
992.674	0.75
993.399	-0.25
994.124	0.75
994.849	0.75
995.574	-0.25
996.299	0.75
997.024	-0.25
997.749	-0.25
998.473	1.75
999.198	0.75
999.922	-0.25
1000.647	-0.25
1001.371	2.75
1002.095	-1.25
1002.82	-1.25
1003.544	-0.25
1004.268	6.75
1004.992	3.75
1005.716	2.75
1006.439	2.75
1007.163	4.75
1007.887	2.75
1008.611	0.75
1009.334	-0.25
1010.058	1.75
1010.781	2.75
1011.504	-1.25
1012.228	0.75
1012.951	-1.25
1013.674	0.75
1014.397	0.75
1015.12	-0.25
