节点500_705_QEPB04081__66__20-46-59-300.txt的数据

Date: Wed Nov 12 20:46:59 CST 2025
User: PC
Spectrometer: QEPB0408
触发模式: 0
积分时间 (秒): 1.000000E-2
Scans to average: 1
启用暗噪声校正: true
启用非线性校正: false
滑动平均宽度: 0
X轴模式: Wavelengths
Number of Pixels in Spectrum: 1044
>>>>>Begin Spectral Data<<<<<
220.843	6.88
221.644	3.88
222.444	6.88
223.244	5.88
224.045	5.88
224.845	5.88
225.645	7.88
226.445	6.88
227.245	6.88
228.045	8.88
228.845	5.88
229.645	8.88
230.444	5.88
231.244	8.88
232.043	8.88
232.843	8.88
233.642	9.88
234.442	7.88
235.241	11.88
236.04	8.88
236.839	9.88
237.638	11.88
238.437	10.88
239.236	11.88
240.035	8.88
240.833	12.88
241.632	12.88
242.43	9.88
243.229	14.88
244.027	12.88
244.826	13.88
245.624	16.88
246.422	12.88
247.22	16.88
248.018	14.88
248.816	15.88
249.614	15.88
250.412	18.88
251.21	17.88
252.007	19.88
252.805	18.88
253.602	20.88
254.4	18.88
255.197	19.88
255.994	19.88
256.791	22.88
257.589	21.88
258.386	22.88
259.183	22.88
259.979	22.88
260.776	23.88
261.573	25.88
262.37	25.88
263.166	23.88
263.963	29.88
264.759	27.88
265.556	26.88
266.352	30.88
267.148	29.88
267.944	28.88
268.74	34.88
269.536	33.88
270.332	34.88
271.128	34.88
271.924	35.88
272.719	32.88
273.515	33.88
274.311	35.88
275.106	37.88
275.901	34.88
276.697	33.88
277.492	35.88
278.287	36.88
279.082	37.88
279.877	38.88
280.672	39.88
281.467	36.88
282.262	37.88
283.056	36.88
283.851	40.88
284.646	35.88
285.44	36.88
286.234	37.88
287.029	32.88
287.823	35.88
288.617	35.88
289.411	33.88
290.205	34.88
290.999	33.88
291.793	33.88
292.587	30.88
293.381	28.88
294.174	30.88
294.968	26.88
295.761	24.88
296.555	28.88
297.348	26.88
298.141	26.88
298.935	26.88
299.728	24.88
300.521	23.88
301.314	22.88
302.107	22.88
302.899	22.88
303.692	25.88
304.485	23.88
305.277	17.88
306.07	21.88
306.862	21.88
307.655	23.88
308.447	20.88
309.239	21.88
310.031	20.88
310.823	18.88
311.615	17.88
312.407	17.88
313.199	16.88
313.991	14.88
314.783	16.88
315.574	16.88
316.366	15.88
317.157	16.88
317.949	14.88
318.74	14.88
319.531	15.88
320.322	10.88
321.113	14.88
321.904	10.88
322.695	15.88
323.486	14.88
324.277	12.88
325.068	12.88
325.858	14.88
326.649	12.88
327.439	12.88
328.23	12.88
329.02	14.88
329.81	11.88
330.6	13.88
331.391	12.88
332.181	14.88
332.971	12.88
333.76	13.88
334.55	12.88
335.34	9.88
336.13	13.88
336.919	10.88
337.709	12.88
338.498	9.88
339.287	10.88
340.077	11.88
340.866	10.88
341.655	9.88
342.444	12.88
343.233	10.88
344.022	10.88
344.811	13.88
345.6	10.88
346.388	13.88
347.177	13.88
347.965	11.88
348.754	8.88
349.542	10.88
350.33	11.88
351.119	13.88
351.907	10.88
352.695	10.88
353.483	9.88
354.271	10.88
355.059	10.88
355.846	11.88
356.634	10.88
357.422	10.88
358.209	10.88
358.997	10.88
359.784	10.88
360.571	10.88
361.359	8.88
362.146	7.88
362.933	9.88
363.72	10.88
364.507	9.88
365.294	7.88
366.081	7.88
366.867	6.88
367.654	9.88
368.44	10.88
369.227	9.88
370.013	8.88
370.8	6.88
371.586	10.88
372.372	7.88
373.158	8.88
373.944	9.88
374.73	9.88
375.516	10.88
376.302	7.88
377.088	9.88
377.873	10.88
378.659	9.88
379.445	10.88
380.23	10.88
381.015	9.88
381.801	10.88
382.586	9.88
383.371	10.88
384.156	12.88
384.941	9.88
385.726	9.88
386.511	10.88
387.296	11.88
388.08	12.88
388.865	10.88
389.649	9.88
390.434	12.88
391.218	11.88
392.003	11.88
392.787	12.88
393.571	13.88
394.355	12.88
395.139	13.88
395.923	12.88
396.707	14.88
397.491	14.88
398.274	14.88
399.058	12.88
399.842	13.88
400.625	14.88
401.408	16.88
402.192	13.88
402.975	14.88
403.758	12.88
404.541	13.88
405.324	15.88
406.107	14.88
406.89	18.88
407.673	14.88
408.456	15.88
409.238	16.88
410.021	15.88
410.803	16.88
411.586	16.88
412.368	17.88
413.151	14.88
413.933	18.88
414.715	16.88
415.497	18.88
416.279	19.88
417.061	17.88
417.843	19.88
418.624	20.88
419.406	16.88
420.188	22.88
420.969	21.88
421.751	23.88
422.532	22.88
423.313	21.88
424.095	24.88
424.876	26.88
425.657	24.88
426.438	27.88
427.219	28.88
428	27.88
428.78	30.88
429.561	30.88
430.342	29.88
431.122	34.88
431.903	30.88
432.683	33.88
433.464	37.88
434.244	36.88
435.024	37.88
435.804	40.88
436.584	47.88
437.364	46.88
438.144	45.88
438.924	46.88
439.704	57.88
440.483	55.88
441.263	60.88
442.042	62.88
442.822	66.88
443.601	71.88
444.38	79.88
445.16	82.88
445.939	88.88
446.718	96.88
447.497	105.88
448.276	112.88
449.054	124.88
449.833	142.88
450.612	151.88
451.391	170.88
452.169	180.88
452.948	206.88
453.726	219.88
454.504	254.88
455.282	274.88
456.061	314.88
456.839	348.88
457.617	380.88
458.395	425.88
459.172	478.88
459.95	535.88
460.728	596.88
461.506	671.88
462.283	749.88
463.061	831.88
463.838	928.88
464.615	1055.88
465.393	1171.88
466.17	1299.88
466.947	1445.88
467.724	1623.88
468.501	1803.88
469.278	2012.88
470.055	2205.88
470.831	2480.88
471.608	2741.88
472.385	3054.88
473.161	3357.88
473.938	3707.88
474.714	4098.88
475.49	4508.88
476.266	4967.88
477.043	5466.88
477.819	5985.88
478.595	6599.88
479.371	7241.88
480.146	7922.88
480.922	8711.88
481.698	9538.88
482.473	10428.88
483.249	11376.88
484.024	12433.88
484.8	13515.88
485.575	14724.88
486.35	16045.88
487.126	17403.88
487.901	18823.88
488.676	20448.88
489.451	22173.88
490.225	23884.88
491	25670.88
491.775	27497.88
492.55	29455.88
493.324	31364.88
494.099	33336.88
494.873	35280.88
495.647	37231.88
496.422	39126.88
497.196	41014.88
497.97	42787.88
498.744	44359.88
499.518	45835.88
500.292	47244.88
501.066	48210.88
501.839	48941.88
502.613	49476.88
503.387	49946.88
504.16	50148.88
504.934	49826.88
505.707	49577.88
506.48	48858.88
507.253	48087.88
508.027	47052.88
508.8	45732.88
509.573	44487.88
510.346	43154.88
511.118	41818.88
511.891	40302.88
512.664	38745.88
513.437	37123.88
514.209	35635.88
514.982	34249.88
515.754	32711.88
516.526	31300.88
517.298	30019.88
518.071	28810.88
518.843	27635.88
519.615	26454.88
520.387	25479.88
521.159	24459.88
521.93	23448.88
522.702	22391.88
523.474	21389.88
524.245	20547.88
525.017	19588.88
525.788	18674.88
526.56	17886.88
527.331	17022.88
528.102	16204.88
528.873	15326.88
529.644	14530.88
530.415	13841.88
531.186	13133.88
531.957	12426.88
532.728	11783.88
533.498	11120.88
534.269	10520.88
535.039	9972.88
535.81	9421.88
536.58	8904.88
537.351	8434.88
538.121	7962.88
538.891	7520.88
539.661	7105.88
540.431	6751.88
541.201	6430.88
541.971	6071.88
542.741	5739.88
543.51	5457.88
544.28	5186.88
545.05	4941.88
545.819	4707.88
546.588	4501.88
547.358	4285.88
548.127	4046.88
548.896	3827.88
549.665	3653.88
550.434	3443.88
551.203	3248.88
551.972	3116.88
552.741	2905.88
553.51	2771.88
554.278	2615.88
555.047	2443.88
555.815	2320.88
556.584	2193.88
557.352	2079.88
558.121	1970.88
558.889	1848.88
559.657	1753.88
560.425	1658.88
561.193	1565.88
561.961	1475.88
562.729	1397.88
563.496	1320.88
564.264	1238.88
565.032	1183.88
565.799	1118.88
566.567	1066.88
567.334	1005.88
568.101	948.88
568.869	891.88
569.636	852.88
570.403	795.88
571.17	751.88
571.937	715.88
572.704	675.88
573.471	643.88
574.237	603.88
575.004	567.88
575.771	539.88
576.537	492.88
577.303	468.88
578.07	448.88
578.836	417.88
579.602	400.88
580.368	379.88
581.134	352.88
581.9	344.88
582.666	328.88
583.432	316.88
584.198	287.88
584.964	269.88
585.729	262.88
586.495	253.88
587.26	242.88
588.025	220.88
588.791	214.88
589.556	204.88
590.321	189.88
591.086	181.88
591.851	172.88
592.616	164.88
593.381	158.88
594.146	153.88
594.911	147.88
595.675	135.88
596.44	133.88
597.204	125.88
597.969	120.88
598.733	116.88
599.497	116.88
600.261	106.88
601.025	104.88
601.79	94.88
602.553	91.88
603.317	88.88
604.081	88.88
604.845	83.88
605.609	78.88
606.372	76.88
607.136	75.88
607.899	71.88
608.662	61.88
609.426	66.88
610.189	62.88
610.952	61.88
611.715	58.88
612.478	55.88
613.241	56.88
614.004	51.88
614.767	53.88
615.529	49.88
616.292	45.88
617.055	44.88
617.817	44.88
618.579	43.88
619.342	43.88
620.104	42.88
620.866	39.88
621.628	42.88
622.39	38.88
623.152	36.88
623.914	32.88
624.676	33.88
625.438	32.88
626.199	30.88
626.961	31.88
627.722	30.88
628.484	26.88
629.245	30.88
630.006	31.88
630.768	25.88
631.529	25.88
632.29	24.88
633.051	22.88
633.812	23.88
634.573	19.88
635.333	23.88
636.094	21.88
636.855	20.88
637.615	20.88
638.376	18.88
639.136	17.88
639.896	19.88
640.657	17.88
641.417	19.88
642.177	18.88
642.937	17.88
643.697	18.88
644.457	16.88
645.216	16.88
645.976	18.88
646.736	15.88
647.495	16.88
648.255	14.88
649.014	15.88
649.774	16.88
650.533	14.88
651.292	15.88
652.051	12.88
652.81	12.88
653.569	10.88
654.328	12.88
655.087	12.88
655.846	10.88
656.604	13.88
657.363	10.88
658.121	11.88
658.88	13.88
659.638	12.88
660.397	11.88
661.155	11.88
661.913	11.88
662.671	9.88
663.429	11.88
664.187	10.88
664.945	8.88
665.703	12.88
666.46	8.88
667.218	11.88
667.976	9.88
668.733	7.88
669.49	10.88
670.248	8.88
671.005	10.88
671.762	5.88
672.519	9.88
673.276	8.88
674.033	10.88
674.79	10.88
675.547	9.88
676.304	9.88
677.06	7.88
677.817	10.88
678.574	9.88
679.33	9.88
680.086	11.88
680.843	6.88
681.599	9.88
682.355	6.88
683.111	10.88
683.867	9.88
684.623	6.88
685.379	7.88
686.135	7.88
686.89	6.88
687.646	6.88
688.402	9.88
689.157	8.88
689.912	8.88
690.668	7.88
691.423	9.88
692.178	8.88
692.933	7.88
693.688	7.88
694.443	7.88
695.198	7.88
695.953	8.88
696.708	4.88
697.462	7.88
698.217	6.88
698.972	8.88
699.726	8.88
700.48	8.88
701.235	8.88
701.989	8.88
702.743	7.88
703.497	9.88
704.251	8.88
705.005	6.88
705.759	7.88
706.513	7.88
707.266	6.88
708.02	7.88
708.774	8.88
709.527	6.88
710.28	8.88
711.034	8.88
711.787	7.88
712.54	4.88
713.293	7.88
714.046	6.88
714.799	4.88
715.552	7.88
716.305	8.88
717.058	7.88
717.81	9.88
718.563	6.88
719.315	5.88
720.068	7.88
720.82	6.88
721.573	7.88
722.325	8.88
723.077	8.88
723.829	7.88
724.581	8.88
725.333	8.88
726.085	7.88
726.836	7.88
727.588	6.88
728.34	8.88
729.091	7.88
729.843	8.88
730.594	11.88
731.346	9.88
732.097	9.88
732.848	10.88
733.599	10.88
734.35	7.88
735.101	8.88
735.852	9.88
736.603	10.88
737.354	8.88
738.104	10.88
738.855	10.88
739.605	11.88
740.356	10.88
741.106	9.88
741.856	9.88
742.607	10.88
743.357	11.88
744.107	8.88
744.857	9.88
745.607	10.88
746.357	8.88
747.106	10.88
747.856	11.88
748.606	11.88
749.355	11.88
750.105	11.88
750.854	8.88
751.603	12.88
752.353	10.88
753.102	10.88
753.851	11.88
754.6	13.88
755.349	12.88
756.098	11.88
756.847	10.88
757.595	11.88
758.344	12.88
759.093	11.88
759.841	12.88
760.589	14.88
761.338	12.88
762.086	14.88
762.834	14.88
763.582	11.88
764.331	13.88
765.079	15.88
765.826	12.88
766.574	13.88
767.322	12.88
768.07	17.88
768.817	16.88
769.565	15.88
770.312	14.88
771.06	14.88
771.807	17.88
772.554	14.88
773.302	16.88
774.049	13.88
774.796	15.88
775.543	17.88
776.29	13.88
777.036	15.88
777.783	16.88
778.53	17.88
779.276	14.88
780.023	18.88
780.769	16.88
781.516	17.88
782.262	15.88
783.008	16.88
783.754	14.88
784.5	16.88
785.246	17.88
785.992	15.88
786.738	14.88
787.484	15.88
788.23	12.88
788.975	16.88
789.721	15.88
790.466	16.88
791.212	12.88
791.957	17.88
792.702	15.88
793.447	12.88
794.193	16.88
794.938	14.88
795.683	16.88
796.427	14.88
797.172	10.88
797.917	14.88
798.662	9.88
799.406	12.88
800.151	13.88
800.895	12.88
801.64	11.88
802.384	10.88
803.128	14.88
803.872	10.88
804.616	12.88
805.36	9.88
806.104	10.88
806.848	10.88
807.592	11.88
808.336	9.88
809.079	9.88
809.823	9.88
810.566	9.88
811.31	7.88
812.053	11.88
812.796	10.88
813.539	9.88
814.283	8.88
815.026	6.88
815.769	7.88
816.511	8.88
817.254	9.88
817.997	7.88
818.74	8.88
819.482	6.88
820.225	7.88
820.967	7.88
821.71	4.88
822.452	10.88
823.194	3.88
823.936	4.88
824.678	5.88
825.42	4.88
826.162	5.88
826.904	5.88
827.646	5.88
828.388	6.88
829.129	5.88
829.871	6.88
830.612	3.88
831.354	6.88
832.095	4.88
832.836	4.88
833.577	4.88
834.319	4.88
835.06	4.88
835.801	6.88
836.542	5.88
837.282	3.88
838.023	5.88
838.764	5.88
839.504	5.88
840.245	5.88
840.985	5.88
841.726	5.88
842.466	4.88
843.206	5.88
843.946	7.88
844.687	2.88
845.427	6.88
846.166	4.88
846.906	5.88
847.646	6.88
848.386	5.88
849.125	5.88
849.865	6.88
850.605	4.88
851.344	1.88
852.083	3.88
852.823	4.88
853.562	2.88
854.301	5.88
855.04	3.88
855.779	6.88
856.518	4.88
857.257	5.88
857.995	4.88
858.734	3.88
859.473	4.88
860.211	2.88
860.95	4.88
861.688	1.88
862.426	2.88
863.165	2.88
863.903	2.88
864.641	1.88
865.379	0.88
866.117	3.88
866.855	-0.12
867.593	1.88
868.33	1.88
869.068	0.88
869.806	2.88
870.543	0.88
871.28	1.88
872.018	4.88
872.755	1.88
873.492	0.88
874.229	1.88
874.967	0.88
875.703	2.88
876.44	2.88
877.177	1.88
877.914	1.88
878.651	1.88
879.387	2.88
880.124	3.88
880.86	1.88
881.597	-1.12
882.333	2.88
883.069	3.88
883.806	2.88
884.542	0.88
885.278	3.88
886.014	1.88
886.749	3.88
887.485	1.88
888.221	0.88
888.957	1.88
889.692	-0.12
890.428	2.88
891.163	-0.12
891.899	-0.12
892.634	0.88
893.369	1.88
894.104	0.88
894.839	1.88
895.574	0.88
896.309	-1.12
897.044	0.88
897.779	1.88
898.514	1.88
899.248	-0.12
899.983	2.88
900.717	-1.12
901.452	2.88
902.186	2.88
902.92	1.88
903.654	0.88
904.389	-1.12
905.123	-1.12
905.857	0.88
906.59	0.88
907.324	1.88
908.058	-1.12
908.792	0.88
909.525	2.88
910.259	0.88
910.992	1.88
911.726	0.88
912.459	1.88
913.192	-1.12
913.925	-1.12
914.658	1.88
915.391	-0.12
916.124	-1.12
916.857	0.88
917.59	1.88
918.323	0.88
919.055	0.88
919.788	1.88
920.521	-0.12
921.253	4.88
921.985	0.88
922.718	0.88
923.45	2.88
924.182	-0.12
924.914	-1.12
925.646	0.88
926.378	1.88
927.11	1.88
927.841	1.88
928.573	-0.12
929.305	-1.12
930.036	1.88
930.768	0.88
931.499	-0.12
932.23	0.88
932.962	0.88
933.693	-1.12
934.424	2.88
935.155	1.88
935.886	-2.12
936.617	-0.12
937.348	-0.12
938.078	-2.12
938.809	3.88
939.54	-0.12
940.27	0.88
941.001	-3.12
941.731	-0.12
942.461	-0.12
943.191	0.88
943.922	0.88
944.652	-2.12
945.382	-1.12
946.112	1.88
946.841	-0.12
947.571	0.88
948.301	-0.12
949.031	-1.12
949.76	-1.12
950.49	0.88
951.219	-0.12
951.948	0.88
952.678	-1.12
953.407	-0.12
954.136	3.88
954.865	-1.12
955.594	1.88
956.323	0.88
957.052	-0.12
957.78	1.88
958.509	-1.12
959.238	0.88
959.966	0.88
960.695	0.88
961.423	0.88
962.151	-0.12
962.88	0.88
963.608	-1.12
964.336	0.88
965.064	0.88
965.792	-0.12
966.52	-0.12
967.247	0.88
967.975	0.88
968.703	-1.12
969.43	-0.12
970.158	-1.12
970.885	1.88
971.613	0.88
972.34	-0.12
973.067	0.88
973.794	-1.12
974.521	-0.12
975.248	-1.12
975.975	-0.12
976.702	-0.12
977.429	0.88
978.156	-0.12
978.882	-0.12
979.609	0.88
980.335	-2.12
981.062	-2.12
981.788	0.88
982.514	-0.12
983.24	1.88
983.967	0.88
984.693	-2.12
985.419	-0.12
986.144	-0.12
986.87	-1.12
987.596	-1.12
988.322	-1.12
989.047	0.88
989.773	-0.12
990.498	-1.12
991.224	0.88
991.949	-1.12
992.674	0.88
993.399	0.88
994.124	-0.12
994.849	-0.12
995.574	1.88
996.299	-1.12
997.024	-0.12
997.749	-0.12
998.473	1.88
999.198	0.88
999.922	-0.12
1000.647	1.88
1001.371	0.88
1002.095	-2.12
1002.82	0.88
1003.544	-0.12
1004.268	5.88
1004.992	2.88
1005.716	2.88
1006.439	6.88
1007.163	4.88
1007.887	6.88
1008.611	-0.12
1009.334	-2.12
1010.058	0.88
1010.781	0.88
1011.504	-2.12
1012.228	-1.12
1012.951	0.88
1013.674	0.88
1014.397	-1.12
1015.12	-0.12
