节点500_705_QEPB04081__99__20-47-32-193.txt的数据

Date: Wed Nov 12 20:47:32 CST 2025
User: PC
Spectrometer: QEPB0408
触发模式: 0
积分时间 (秒): 1.000000E-2
Scans to average: 1
启用暗噪声校正: true
启用非线性校正: false
滑动平均宽度: 0
X轴模式: Wavelengths
Number of Pixels in Spectrum: 1044
>>>>>Begin Spectral Data<<<<<
220.843	6.5
221.644	4.5
222.444	6.5
223.244	8.5
224.045	6.5
224.845	5.5
225.645	7.5
226.445	7.5
227.245	7.5
228.045	6.5
228.845	6.5
229.645	8.5
230.444	7.5
231.244	7.5
232.043	8.5
232.843	13.5
233.642	9.5
234.442	9.5
235.241	12.5
236.04	8.5
236.839	10.5
237.638	7.5
238.437	11.5
239.236	11.5
240.035	9.5
240.833	14.5
241.632	9.5
242.43	13.5
243.229	11.5
244.027	9.5
244.826	13.5
245.624	12.5
246.422	17.5
247.22	14.5
248.018	14.5
248.816	17.5
249.614	15.5
250.412	15.5
251.21	15.5
252.007	18.5
252.805	17.5
253.602	17.5
254.4	17.5
255.197	19.5
255.994	20.5
256.791	17.5
257.589	23.5
258.386	22.5
259.183	22.5
259.979	22.5
260.776	21.5
261.573	24.5
262.37	25.5
263.166	25.5
263.963	27.5
264.759	26.5
265.556	26.5
266.352	28.5
267.148	29.5
267.944	30.5
268.74	29.5
269.536	28.5
270.332	30.5
271.128	30.5
271.924	33.5
272.719	31.5
273.515	34.5
274.311	31.5
275.106	31.5
275.901	33.5
276.697	31.5
277.492	38.5
278.287	33.5
279.082	32.5
279.877	34.5
280.672	34.5
281.467	34.5
282.262	34.5
283.056	36.5
283.851	37.5
284.646	35.5
285.44	34.5
286.234	34.5
287.029	30.5
287.823	35.5
288.617	31.5
289.411	31.5
290.205	29.5
290.999	31.5
291.793	32.5
292.587	31.5
293.381	30.5
294.174	30.5
294.968	27.5
295.761	30.5
296.555	25.5
297.348	27.5
298.141	27.5
298.935	27.5
299.728	23.5
300.521	20.5
301.314	26.5
302.107	19.5
302.899	22.5
303.692	21.5
304.485	20.5
305.277	22.5
306.07	22.5
306.862	23.5
307.655	20.5
308.447	19.5
309.239	22.5
310.031	20.5
310.823	20.5
311.615	17.5
312.407	16.5
313.199	15.5
313.991	14.5
314.783	13.5
315.574	15.5
316.366	17.5
317.157	18.5
317.949	15.5
318.74	15.5
319.531	13.5
320.322	13.5
321.113	13.5
321.904	15.5
322.695	13.5
323.486	12.5
324.277	14.5
325.068	13.5
325.858	14.5
326.649	11.5
327.439	11.5
328.23	13.5
329.02	11.5
329.81	11.5
330.6	12.5
331.391	12.5
332.181	9.5
332.971	9.5
333.76	14.5
334.55	14.5
335.34	10.5
336.13	13.5
336.919	10.5
337.709	11.5
338.498	11.5
339.287	12.5
340.077	11.5
340.866	11.5
341.655	11.5
342.444	8.5
343.233	10.5
344.022	10.5
344.811	11.5
345.6	10.5
346.388	11.5
347.177	11.5
347.965	12.5
348.754	13.5
349.542	13.5
350.33	11.5
351.119	12.5
351.907	10.5
352.695	11.5
353.483	8.5
354.271	11.5
355.059	8.5
355.846	11.5
356.634	9.5
357.422	7.5
358.209	10.5
358.997	11.5
359.784	10.5
360.571	7.5
361.359	9.5
362.146	11.5
362.933	10.5
363.72	10.5
364.507	9.5
365.294	9.5
366.081	9.5
366.867	9.5
367.654	11.5
368.44	10.5
369.227	10.5
370.013	10.5
370.8	9.5
371.586	10.5
372.372	11.5
373.158	12.5
373.944	8.5
374.73	11.5
375.516	8.5
376.302	9.5
377.088	11.5
377.873	9.5
378.659	10.5
379.445	9.5
380.23	11.5
381.015	8.5
381.801	9.5
382.586	12.5
383.371	11.5
384.156	11.5
384.941	9.5
385.726	7.5
386.511	9.5
387.296	11.5
388.08	11.5
388.865	9.5
389.649	11.5
390.434	10.5
391.218	14.5
392.003	12.5
392.787	11.5
393.571	11.5
394.355	13.5
395.139	9.5
395.923	11.5
396.707	13.5
397.491	13.5
398.274	11.5
399.058	11.5
399.842	15.5
400.625	12.5
401.408	12.5
402.192	14.5
402.975	14.5
403.758	12.5
404.541	13.5
405.324	14.5
406.107	14.5
406.89	14.5
407.673	14.5
408.456	14.5
409.238	15.5
410.021	17.5
410.803	15.5
411.586	19.5
412.368	18.5
413.151	18.5
413.933	17.5
414.715	17.5
415.497	17.5
416.279	17.5
417.061	19.5
417.843	20.5
418.624	23.5
419.406	22.5
420.188	19.5
420.969	21.5
421.751	22.5
422.532	23.5
423.313	22.5
424.095	23.5
424.876	21.5
425.657	23.5
426.438	24.5
427.219	25.5
428	26.5
428.78	29.5
429.561	29.5
430.342	28.5
431.122	29.5
431.903	32.5
432.683	33.5
433.464	32.5
434.244	33.5
435.024	39.5
435.804	38.5
436.584	44.5
437.364	43.5
438.144	45.5
438.924	48.5
439.704	50.5
440.483	55.5
441.263	58.5
442.042	58.5
442.822	67.5
443.601	66.5
444.38	69.5
445.16	80.5
445.939	89.5
446.718	89.5
447.497	102.5
448.276	109.5
449.054	118.5
449.833	134.5
450.612	139.5
451.391	156.5
452.169	170.5
452.948	193.5
453.726	216.5
454.504	236.5
455.282	263.5
456.061	297.5
456.839	319.5
457.617	367.5
458.395	406.5
459.172	460.5
459.95	516.5
460.728	561.5
461.506	629.5
462.283	705.5
463.061	798.5
463.838	887.5
464.615	995.5
465.393	1102.5
466.17	1235.5
466.947	1381.5
467.724	1538.5
468.501	1707.5
469.278	1891.5
470.055	2089.5
470.831	2318.5
471.608	2581.5
472.385	2875.5
473.161	3171.5
473.938	3511.5
474.714	3861.5
475.49	4255.5
476.266	4683.5
477.043	5143.5
477.819	5683.5
478.595	6219.5
479.371	6810.5
480.146	7498.5
480.922	8172.5
481.698	8958.5
482.473	9811.5
483.249	10727.5
484.024	11671.5
484.8	12662.5
485.575	13789.5
486.35	15015.5
487.126	16275.5
487.901	17726.5
488.676	19235.5
489.451	20748.5
490.225	22343.5
491	24031.5
491.775	25718.5
492.55	27603.5
493.324	29346.5
494.099	31135.5
494.873	32956.5
495.647	34885.5
496.422	36732.5
497.196	38501.5
497.97	40097.5
498.744	41562.5
499.518	43076.5
500.292	44365.5
501.066	45245.5
501.839	45979.5
502.613	46453.5
503.387	46976.5
504.16	47123.5
504.934	47031.5
505.707	46543.5
506.48	46013.5
507.253	45311.5
508.027	44351.5
508.8	43192.5
509.573	41975.5
510.346	40759.5
511.118	39519.5
511.891	38221.5
512.664	36686.5
513.437	35101.5
514.209	33671.5
514.982	32325.5
515.754	30964.5
516.526	29607.5
517.298	28495.5
518.071	27241.5
518.843	26214.5
519.615	25078.5
520.387	24107.5
521.159	23152.5
521.93	22166.5
522.702	21188.5
523.474	20297.5
524.245	19459.5
525.017	18561.5
525.788	17727.5
526.56	16948.5
527.331	16174.5
528.102	15288.5
528.873	14479.5
529.644	13796.5
530.415	13163.5
531.186	12499.5
531.957	11826.5
532.728	11186.5
533.498	10550.5
534.269	10036.5
535.039	9442.5
535.81	8896.5
536.58	8440.5
537.351	7979.5
538.121	7562.5
538.891	7151.5
539.661	6786.5
540.431	6415.5
541.201	6071.5
541.971	5741.5
542.741	5453.5
543.51	5171.5
544.28	4934.5
545.05	4727.5
545.819	4470.5
546.588	4239.5
547.358	4094.5
548.127	3881.5
548.896	3638.5
549.665	3474.5
550.434	3257.5
551.203	3109.5
551.972	2965.5
552.741	2776.5
553.51	2617.5
554.278	2487.5
555.047	2337.5
555.815	2194.5
556.584	2090.5
557.352	1943.5
558.121	1867.5
558.889	1763.5
559.657	1670.5
560.425	1573.5
561.193	1482.5
561.961	1406.5
562.729	1336.5
563.496	1247.5
564.264	1196.5
565.032	1117.5
565.799	1072.5
566.567	1006.5
567.334	945.5
568.101	893.5
568.869	838.5
569.636	809.5
570.403	760.5
571.17	706.5
571.937	679.5
572.704	646.5
573.471	594.5
574.237	564.5
575.004	540.5
575.771	511.5
576.537	471.5
577.303	449.5
578.07	426.5
578.836	401.5
579.602	382.5
580.368	358.5
581.134	345.5
581.9	328.5
582.666	309.5
583.432	298.5
584.198	282.5
584.964	263.5
585.729	255.5
586.495	239.5
587.26	227.5
588.025	214.5
588.791	202.5
589.556	192.5
590.321	190.5
591.086	176.5
591.851	165.5
592.616	152.5
593.381	150.5
594.146	145.5
594.911	136.5
595.675	129.5
596.44	127.5
597.204	116.5
597.969	117.5
598.733	110.5
599.497	106.5
600.261	100.5
601.025	94.5
601.79	95.5
602.553	88.5
603.317	85.5
604.081	84.5
604.845	78.5
605.609	77.5
606.372	71.5
607.136	67.5
607.899	68.5
608.662	66.5
609.426	61.5
610.189	60.5
610.952	58.5
611.715	57.5
612.478	53.5
613.241	54.5
614.004	49.5
614.767	49.5
615.529	48.5
616.292	47.5
617.055	43.5
617.817	42.5
618.579	40.5
619.342	41.5
620.104	42.5
620.866	40.5
621.628	38.5
622.39	36.5
623.152	34.5
623.914	34.5
624.676	32.5
625.438	31.5
626.199	29.5
626.961	30.5
627.722	29.5
628.484	30.5
629.245	26.5
630.006	24.5
630.768	26.5
631.529	24.5
632.29	24.5
633.051	24.5
633.812	23.5
634.573	23.5
635.333	19.5
636.094	22.5
636.855	19.5
637.615	20.5
638.376	19.5
639.136	18.5
639.896	17.5
640.657	16.5
641.417	17.5
642.177	18.5
642.937	17.5
643.697	15.5
644.457	13.5
645.216	16.5
645.976	15.5
646.736	13.5
647.495	13.5
648.255	15.5
649.014	15.5
649.774	12.5
650.533	13.5
651.292	13.5
652.051	15.5
652.81	12.5
653.569	11.5
654.328	13.5
655.087	11.5
655.846	15.5
656.604	14.5
657.363	10.5
658.121	12.5
658.88	10.5
659.638	12.5
660.397	8.5
661.155	10.5
661.913	11.5
662.671	12.5
663.429	8.5
664.187	10.5
664.945	11.5
665.703	12.5
666.46	9.5
667.218	10.5
667.976	10.5
668.733	9.5
669.49	10.5
670.248	9.5
671.005	10.5
671.762	11.5
672.519	8.5
673.276	8.5
674.033	8.5
674.79	9.5
675.547	5.5
676.304	9.5
677.06	9.5
677.817	11.5
678.574	7.5
679.33	10.5
680.086	8.5
680.843	9.5
681.599	8.5
682.355	9.5
683.111	8.5
683.867	5.5
684.623	8.5
685.379	9.5
686.135	8.5
686.89	6.5
687.646	7.5
688.402	8.5
689.157	9.5
689.912	10.5
690.668	6.5
691.423	10.5
692.178	9.5
692.933	10.5
693.688	7.5
694.443	7.5
695.198	5.5
695.953	7.5
696.708	11.5
697.462	6.5
698.217	6.5
698.972	9.5
699.726	9.5
700.48	7.5
701.235	7.5
701.989	6.5
702.743	6.5
703.497	8.5
704.251	9.5
705.005	7.5
705.759	8.5
706.513	7.5
707.266	6.5
708.02	7.5
708.774	9.5
709.527	6.5
710.28	7.5
711.034	5.5
711.787	5.5
712.54	6.5
713.293	6.5
714.046	9.5
714.799	7.5
715.552	7.5
716.305	6.5
717.058	9.5
717.81	7.5
718.563	6.5
719.315	8.5
720.068	9.5
720.82	9.5
721.573	5.5
722.325	9.5
723.077	10.5
723.829	9.5
724.581	8.5
725.333	7.5
726.085	9.5
726.836	5.5
727.588	8.5
728.34	10.5
729.091	8.5
729.843	10.5
730.594	7.5
731.346	8.5
732.097	9.5
732.848	9.5
733.599	8.5
734.35	10.5
735.101	11.5
735.852	8.5
736.603	10.5
737.354	9.5
738.104	9.5
738.855	11.5
739.605	10.5
740.356	9.5
741.106	9.5
741.856	9.5
742.607	11.5
743.357	9.5
744.107	11.5
744.857	8.5
745.607	10.5
746.357	11.5
747.106	10.5
747.856	11.5
748.606	10.5
749.355	10.5
750.105	13.5
750.854	9.5
751.603	12.5
752.353	12.5
753.102	12.5
753.851	10.5
754.6	14.5
755.349	11.5
756.098	12.5
756.847	14.5
757.595	11.5
758.344	13.5
759.093	14.5
759.841	12.5
760.589	13.5
761.338	13.5
762.086	13.5
762.834	11.5
763.582	13.5
764.331	13.5
765.079	14.5
765.826	14.5
766.574	14.5
767.322	14.5
768.07	15.5
768.817	15.5
769.565	13.5
770.312	14.5
771.06	17.5
771.807	15.5
772.554	17.5
773.302	14.5
774.049	16.5
774.796	15.5
775.543	16.5
776.29	15.5
777.036	15.5
777.783	15.5
778.53	15.5
779.276	15.5
780.023	17.5
780.769	13.5
781.516	18.5
782.262	16.5
783.008	15.5
783.754	16.5
784.5	15.5
785.246	17.5
785.992	14.5
786.738	15.5
787.484	13.5
788.23	17.5
788.975	15.5
789.721	15.5
790.466	14.5
791.212	13.5
791.957	14.5
792.702	11.5
793.447	16.5
794.193	12.5
794.938	15.5
795.683	14.5
796.427	13.5
797.172	12.5
797.917	13.5
798.662	14.5
799.406	11.5
800.151	12.5
800.895	13.5
801.64	11.5
802.384	13.5
803.128	13.5
803.872	11.5
804.616	13.5
805.36	11.5
806.104	10.5
806.848	11.5
807.592	9.5
808.336	10.5
809.079	8.5
809.823	11.5
810.566	11.5
811.31	8.5
812.053	9.5
812.796	10.5
813.539	8.5
814.283	8.5
815.026	8.5
815.769	6.5
816.511	7.5
817.254	9.5
817.997	8.5
818.74	8.5
819.482	8.5
820.225	6.5
820.967	9.5
821.71	4.5
822.452	9.5
823.194	8.5
823.936	6.5
824.678	7.5
825.42	7.5
826.162	8.5
826.904	5.5
827.646	8.5
828.388	6.5
829.129	6.5
829.871	6.5
830.612	6.5
831.354	4.5
832.095	5.5
832.836	6.5
833.577	6.5
834.319	6.5
835.06	5.5
835.801	5.5
836.542	8.5
837.282	6.5
838.023	6.5
838.764	6.5
839.504	5.5
840.245	7.5
840.985	5.5
841.726	6.5
842.466	4.5
843.206	3.5
843.946	4.5
844.687	5.5
845.427	7.5
846.166	2.5
846.906	6.5
847.646	5.5
848.386	4.5
849.125	3.5
849.865	6.5
850.605	4.5
851.344	3.5
852.083	5.5
852.823	4.5
853.562	4.5
854.301	6.5
855.04	3.5
855.779	6.5
856.518	3.5
857.257	3.5
857.995	4.5
858.734	6.5
859.473	4.5
860.211	4.5
860.95	3.5
861.688	4.5
862.426	3.5
863.165	3.5
863.903	3.5
864.641	3.5
865.379	1.5
866.117	1.5
866.855	2.5
867.593	1.5
868.33	3.5
869.068	4.5
869.806	5.5
870.543	3.5
871.28	3.5
872.018	3.5
872.755	1.5
873.492	4.5
874.229	2.5
874.967	3.5
875.703	1.5
876.44	1.5
877.177	0.5
877.914	2.5
878.651	2.5
879.387	3.5
880.124	2.5
880.86	1.5
881.597	1.5
882.333	3.5
883.069	0.5
883.806	2.5
884.542	2.5
885.278	1.5
886.014	2.5
886.749	0.5
887.485	1.5
888.221	3.5
888.957	2.5
889.692	0.5
890.428	0.5
891.163	-0.5
891.899	2.5
892.634	2.5
893.369	1.5
894.104	2.5
894.839	3.5
895.574	1.5
896.309	0.5
897.044	1.5
897.779	3.5
898.514	1.5
899.248	0.5
899.983	0.5
900.717	2.5
901.452	0.5
902.186	1.5
902.92	0.5
903.654	0.5
904.389	1.5
905.123	3.5
905.857	0.5
906.59	0.5
907.324	1.5
908.058	2.5
908.792	-0.5
909.525	2.5
910.259	3.5
910.992	0.5
911.726	1.5
912.459	0.5
913.192	1.5
913.925	-0.5
914.658	0.5
915.391	-0.5
916.124	1.5
916.857	-1.5
917.59	-1.5
918.323	0.5
919.055	2.5
919.788	0.5
920.521	0.5
921.253	-0.5
921.985	1.5
922.718	0.5
923.45	3.5
924.182	1.5
924.914	-0.5
925.646	0.5
926.378	-0.5
927.11	0.5
927.841	0.5
928.573	1.5
929.305	2.5
930.036	1.5
930.768	1.5
931.499	1.5
932.23	0.5
932.962	-0.5
933.693	-1.5
934.424	0.5
935.155	-0.5
935.886	1.5
936.617	2.5
937.348	2.5
938.078	2.5
938.809	1.5
939.54	0.5
940.27	1.5
941.001	0.5
941.731	0.5
942.461	3.5
943.191	-0.5
943.922	3.5
944.652	0.5
945.382	2.5
946.112	1.5
946.841	0.5
947.571	-1.5
948.301	-1.5
949.031	-0.5
949.76	-1.5
950.49	2.5
951.219	-0.5
951.948	-0.5
952.678	1.5
953.407	-2.5
954.136	-0.5
954.865	-0.5
955.594	1.5
956.323	-0.5
957.052	1.5
957.78	1.5
958.509	0.5
959.238	0.5
959.966	-0.5
960.695	1.5
961.423	-0.5
962.151	2.5
962.88	0.5
963.608	-1.5
964.336	1.5
965.064	-0.5
965.792	3.5
966.52	0.5
967.247	2.5
967.975	1.5
968.703	0.5
969.43	0.5
970.158	-0.5
970.885	-0.5
971.613	0.5
972.34	-0.5
973.067	3.5
973.794	-0.5
974.521	0.5
975.248	0.5
975.975	2.5
976.702	0.5
977.429	1.5
978.156	3.5
978.882	1.5
979.609	-1.5
980.335	-0.5
981.062	0.5
981.788	1.5
982.514	-0.5
983.24	2.5
983.967	2.5
984.693	-0.5
985.419	3.5
986.144	-0.5
986.87	-0.5
987.596	1.5
988.322	0.5
989.047	1.5
989.773	0.5
990.498	-0.5
991.224	-0.5
991.949	1.5
992.674	0.5
993.399	-0.5
994.124	1.5
994.849	1.5
995.574	-1.5
996.299	-1.5
997.024	1.5
997.749	-0.5
998.473	2.5
999.198	0.5
999.922	-1.5
1000.647	2.5
1001.371	2.5
1002.095	0.5
1002.82	-2.5
1003.544	-3.5
1004.268	6.5
1004.992	3.5
1005.716	2.5
1006.439	7.5
1007.163	3.5
1007.887	3.5
1008.611	0.5
1009.334	1.5
1010.058	1.5
1010.781	-2.5
1011.504	0.5
1012.228	-1.5
1012.951	0.5
1013.674	-0.5
1014.397	2.5
1015.12	0.5
