节点500_705_QEPB04081__388__20-51-27-609.txt的数据

Date: Wed Nov 12 20:51:27 CST 2025
User: PC
Spectrometer: QEPB0408
触发模式: 0
积分时间 (秒): 1.000000E-2
Scans to average: 1
启用暗噪声校正: true
启用非线性校正: false
滑动平均宽度: 0
X轴模式: Wavelengths
Number of Pixels in Spectrum: 1044
>>>>>Begin Spectral Data<<<<<
220.843	5.5
221.644	4.5
222.444	5.5
223.244	7.5
224.045	8.5
224.845	6.5
225.645	5.5
226.445	8.5
227.245	7.5
228.045	11.5
228.845	10.5
229.645	7.5
230.444	7.5
231.244	8.5
232.043	8.5
232.843	10.5
233.642	11.5
234.442	10.5
235.241	9.5
236.04	9.5
236.839	11.5
237.638	8.5
238.437	11.5
239.236	10.5
240.035	12.5
240.833	10.5
241.632	11.5
242.43	12.5
243.229	13.5
244.027	11.5
244.826	14.5
245.624	12.5
246.422	13.5
247.22	17.5
248.018	14.5
248.816	14.5
249.614	14.5
250.412	18.5
251.21	11.5
252.007	18.5
252.805	18.5
253.602	17.5
254.4	19.5
255.197	19.5
255.994	21.5
256.791	20.5
257.589	21.5
258.386	20.5
259.183	21.5
259.979	24.5
260.776	21.5
261.573	23.5
262.37	27.5
263.166	25.5
263.963	27.5
264.759	24.5
265.556	27.5
266.352	26.5
267.148	29.5
267.944	30.5
268.74	29.5
269.536	32.5
270.332	29.5
271.128	31.5
271.924	31.5
272.719	34.5
273.515	32.5
274.311	30.5
275.106	30.5
275.901	32.5
276.697	32.5
277.492	36.5
278.287	34.5
279.082	35.5
279.877	35.5
280.672	34.5
281.467	36.5
282.262	31.5
283.056	33.5
283.851	33.5
284.646	34.5
285.44	33.5
286.234	32.5
287.029	34.5
287.823	32.5
288.617	31.5
289.411	33.5
290.205	33.5
290.999	32.5
291.793	32.5
292.587	30.5
293.381	30.5
294.174	31.5
294.968	30.5
295.761	28.5
296.555	25.5
297.348	23.5
298.141	26.5
298.935	29.5
299.728	24.5
300.521	26.5
301.314	21.5
302.107	24.5
302.899	24.5
303.692	25.5
304.485	23.5
305.277	24.5
306.07	22.5
306.862	22.5
307.655	22.5
308.447	22.5
309.239	24.5
310.031	19.5
310.823	19.5
311.615	18.5
312.407	19.5
313.199	20.5
313.991	17.5
314.783	16.5
315.574	15.5
316.366	17.5
317.157	16.5
317.949	14.5
318.74	17.5
319.531	13.5
320.322	14.5
321.113	14.5
321.904	15.5
322.695	15.5
323.486	11.5
324.277	13.5
325.068	12.5
325.858	14.5
326.649	15.5
327.439	15.5
328.23	14.5
329.02	13.5
329.81	11.5
330.6	14.5
331.391	13.5
332.181	11.5
332.971	11.5
333.76	12.5
334.55	12.5
335.34	11.5
336.13	12.5
336.919	12.5
337.709	13.5
338.498	11.5
339.287	13.5
340.077	12.5
340.866	11.5
341.655	14.5
342.444	11.5
343.233	12.5
344.022	11.5
344.811	11.5
345.6	14.5
346.388	11.5
347.177	11.5
347.965	12.5
348.754	11.5
349.542	11.5
350.33	13.5
351.119	12.5
351.907	11.5
352.695	14.5
353.483	9.5
354.271	10.5
355.059	11.5
355.846	9.5
356.634	11.5
357.422	11.5
358.209	13.5
358.997	10.5
359.784	12.5
360.571	8.5
361.359	8.5
362.146	10.5
362.933	7.5
363.72	11.5
364.507	12.5
365.294	11.5
366.081	9.5
366.867	10.5
367.654	10.5
368.44	9.5
369.227	11.5
370.013	10.5
370.8	8.5
371.586	9.5
372.372	9.5
373.158	11.5
373.944	8.5
374.73	12.5
375.516	10.5
376.302	9.5
377.088	10.5
377.873	10.5
378.659	11.5
379.445	10.5
380.23	11.5
381.015	9.5
381.801	10.5
382.586	13.5
383.371	11.5
384.156	11.5
384.941	12.5
385.726	11.5
386.511	10.5
387.296	8.5
388.08	13.5
388.865	14.5
389.649	11.5
390.434	13.5
391.218	9.5
392.003	12.5
392.787	12.5
393.571	13.5
394.355	11.5
395.139	14.5
395.923	12.5
396.707	12.5
397.491	14.5
398.274	11.5
399.058	14.5
399.842	15.5
400.625	12.5
401.408	13.5
402.192	14.5
402.975	14.5
403.758	13.5
404.541	12.5
405.324	13.5
406.107	14.5
406.89	15.5
407.673	13.5
408.456	15.5
409.238	15.5
410.021	14.5
410.803	19.5
411.586	17.5
412.368	15.5
413.151	15.5
413.933	17.5
414.715	19.5
415.497	19.5
416.279	20.5
417.061	16.5
417.843	20.5
418.624	17.5
419.406	20.5
420.188	21.5
420.969	20.5
421.751	21.5
422.532	22.5
423.313	24.5
424.095	27.5
424.876	24.5
425.657	23.5
426.438	26.5
427.219	30.5
428	30.5
428.78	25.5
429.561	30.5
430.342	29.5
431.122	33.5
431.903	31.5
432.683	33.5
433.464	34.5
434.244	36.5
435.024	38.5
435.804	39.5
436.584	42.5
437.364	46.5
438.144	46.5
438.924	45.5
439.704	55.5
440.483	57.5
441.263	63.5
442.042	65.5
442.822	72.5
443.601	75.5
444.38	81.5
445.16	86.5
445.939	97.5
446.718	107.5
447.497	114.5
448.276	127.5
449.054	139.5
449.833	155.5
450.612	167.5
451.391	186.5
452.169	198.5
452.948	221.5
453.726	247.5
454.504	275.5
455.282	305.5
456.061	330.5
456.839	375.5
457.617	417.5
458.395	478.5
459.172	518.5
459.95	587.5
460.728	644.5
461.506	724.5
462.283	794.5
463.061	900.5
463.838	1002.5
464.615	1103.5
465.393	1238.5
466.17	1364.5
466.947	1523.5
467.724	1675.5
468.501	1869.5
469.278	2076.5
470.055	2270.5
470.831	2516.5
471.608	2768.5
472.385	3052.5
473.161	3330.5
473.938	3679.5
474.714	4036.5
475.49	4443.5
476.266	4825.5
477.043	5293.5
477.819	5816.5
478.595	6294.5
479.371	6921.5
480.146	7486.5
480.922	8217.5
481.698	8930.5
482.473	9691.5
483.249	10518.5
484.024	11424.5
484.8	12349.5
485.575	13381.5
486.35	14502.5
487.126	15720.5
487.901	16938.5
488.676	18278.5
489.451	19671.5
490.225	21224.5
491	22739.5
491.775	24256.5
492.55	25939.5
493.324	27617.5
494.099	29379.5
494.873	31135.5
495.647	32815.5
496.422	34575.5
497.196	36367.5
497.97	37913.5
498.744	39433.5
499.518	41069.5
500.292	42433.5
501.066	43516.5
501.839	44456.5
502.613	45203.5
503.387	45847.5
504.16	46300.5
504.934	46554.5
505.707	46571.5
506.48	46239.5
507.253	45844.5
508.027	45201.5
508.8	44380.5
509.573	43359.5
510.346	42450.5
511.118	41493.5
511.891	40287.5
512.664	38826.5
513.437	37323.5
514.209	36057.5
514.982	34708.5
515.754	33380.5
516.526	31936.5
517.298	30714.5
518.071	29493.5
518.843	28325.5
519.615	27135.5
520.387	26074.5
521.159	25081.5
521.93	23929.5
522.702	23010.5
523.474	22087.5
524.245	21235.5
525.017	20253.5
525.788	19391.5
526.56	18570.5
527.331	17798.5
528.102	16914.5
528.873	16069.5
529.644	15280.5
530.415	14605.5
531.186	13929.5
531.957	13173.5
532.728	12502.5
533.498	11852.5
534.269	11213.5
535.039	10623.5
535.81	10077.5
536.58	9487.5
537.351	8970.5
538.121	8537.5
538.891	8110.5
539.661	7669.5
540.431	7189.5
541.201	6884.5
541.971	6488.5
542.741	6157.5
543.51	5829.5
544.28	5577.5
545.05	5303.5
545.819	5070.5
546.588	4788.5
547.358	4605.5
548.127	4371.5
548.896	4127.5
549.665	3939.5
550.434	3718.5
551.203	3516.5
551.972	3362.5
552.741	3181.5
553.51	3002.5
554.278	2836.5
555.047	2667.5
555.815	2537.5
556.584	2392.5
557.352	2237.5
558.121	2124.5
558.889	2010.5
559.657	1900.5
560.425	1792.5
561.193	1717.5
561.961	1598.5
562.729	1533.5
563.496	1440.5
564.264	1375.5
565.032	1303.5
565.799	1210.5
566.567	1162.5
567.334	1097.5
568.101	1035.5
568.869	975.5
569.636	920.5
570.403	865.5
571.17	819.5
571.937	767.5
572.704	736.5
573.471	684.5
574.237	650.5
575.004	615.5
575.771	566.5
576.537	546.5
577.303	522.5
578.07	489.5
578.836	456.5
579.602	438.5
580.368	413.5
581.134	392.5
581.9	375.5
582.666	354.5
583.432	338.5
584.198	326.5
584.964	310.5
585.729	285.5
586.495	271.5
587.26	260.5
588.025	247.5
588.791	233.5
589.556	219.5
590.321	205.5
591.086	195.5
591.851	195.5
592.616	182.5
593.381	168.5
594.146	162.5
594.911	159.5
595.675	154.5
596.44	140.5
597.204	139.5
597.969	133.5
598.733	129.5
599.497	120.5
600.261	117.5
601.025	111.5
601.79	108.5
602.553	101.5
603.317	99.5
604.081	92.5
604.845	88.5
605.609	82.5
606.372	84.5
607.136	79.5
607.899	74.5
608.662	70.5
609.426	69.5
610.189	63.5
610.952	67.5
611.715	58.5
612.478	60.5
613.241	59.5
614.004	57.5
614.767	56.5
615.529	52.5
616.292	50.5
617.055	50.5
617.817	47.5
618.579	48.5
619.342	43.5
620.104	42.5
620.866	43.5
621.628	39.5
622.39	38.5
623.152	36.5
623.914	34.5
624.676	35.5
625.438	35.5
626.199	34.5
626.961	31.5
627.722	30.5
628.484	31.5
629.245	31.5
630.006	26.5
630.768	32.5
631.529	25.5
632.29	26.5
633.051	25.5
633.812	23.5
634.573	24.5
635.333	23.5
636.094	23.5
636.855	26.5
637.615	21.5
638.376	21.5
639.136	18.5
639.896	22.5
640.657	18.5
641.417	20.5
642.177	21.5
642.937	16.5
643.697	18.5
644.457	14.5
645.216	17.5
645.976	15.5
646.736	15.5
647.495	17.5
648.255	15.5
649.014	17.5
649.774	15.5
650.533	16.5
651.292	18.5
652.051	12.5
652.81	11.5
653.569	12.5
654.328	15.5
655.087	12.5
655.846	13.5
656.604	15.5
657.363	10.5
658.121	13.5
658.88	11.5
659.638	11.5
660.397	10.5
661.155	11.5
661.913	11.5
662.671	11.5
663.429	11.5
664.187	11.5
664.945	11.5
665.703	10.5
666.46	9.5
667.218	10.5
667.976	9.5
668.733	9.5
669.49	9.5
670.248	10.5
671.005	10.5
671.762	9.5
672.519	10.5
673.276	9.5
674.033	8.5
674.79	9.5
675.547	8.5
676.304	10.5
677.06	8.5
677.817	8.5
678.574	8.5
679.33	9.5
680.086	10.5
680.843	8.5
681.599	9.5
682.355	11.5
683.111	10.5
683.867	11.5
684.623	6.5
685.379	10.5
686.135	6.5
686.89	7.5
687.646	7.5
688.402	8.5
689.157	9.5
689.912	7.5
690.668	9.5
691.423	9.5
692.178	8.5
692.933	9.5
693.688	8.5
694.443	7.5
695.198	8.5
695.953	8.5
696.708	6.5
697.462	8.5
698.217	11.5
698.972	9.5
699.726	8.5
700.48	9.5
701.235	8.5
701.989	9.5
702.743	8.5
703.497	7.5
704.251	7.5
705.005	7.5
705.759	7.5
706.513	7.5
707.266	9.5
708.02	6.5
708.774	9.5
709.527	7.5
710.28	9.5
711.034	7.5
711.787	5.5
712.54	7.5
713.293	8.5
714.046	12.5
714.799	7.5
715.552	10.5
716.305	7.5
717.058	7.5
717.81	8.5
718.563	7.5
719.315	6.5
720.068	8.5
720.82	5.5
721.573	8.5
722.325	7.5
723.077	9.5
723.829	5.5
724.581	8.5
725.333	8.5
726.085	9.5
726.836	9.5
727.588	6.5
728.34	7.5
729.091	8.5
729.843	8.5
730.594	11.5
731.346	7.5
732.097	8.5
732.848	8.5
733.599	10.5
734.35	8.5
735.101	10.5
735.852	9.5
736.603	8.5
737.354	8.5
738.104	9.5
738.855	10.5
739.605	14.5
740.356	8.5
741.106	11.5
741.856	10.5
742.607	10.5
743.357	10.5
744.107	10.5
744.857	9.5
745.607	10.5
746.357	11.5
747.106	12.5
747.856	10.5
748.606	11.5
749.355	9.5
750.105	13.5
750.854	9.5
751.603	13.5
752.353	11.5
753.102	10.5
753.851	9.5
754.6	11.5
755.349	16.5
756.098	12.5
756.847	14.5
757.595	12.5
758.344	11.5
759.093	11.5
759.841	14.5
760.589	12.5
761.338	14.5
762.086	12.5
762.834	10.5
763.582	13.5
764.331	14.5
765.079	12.5
765.826	13.5
766.574	12.5
767.322	12.5
768.07	11.5
768.817	15.5
769.565	12.5
770.312	11.5
771.06	15.5
771.807	14.5
772.554	14.5
773.302	16.5
774.049	16.5
774.796	13.5
775.543	14.5
776.29	16.5
777.036	15.5
777.783	15.5
778.53	17.5
779.276	17.5
780.023	17.5
780.769	14.5
781.516	16.5
782.262	15.5
783.008	17.5
783.754	14.5
784.5	15.5
785.246	17.5
785.992	16.5
786.738	17.5
787.484	14.5
788.23	16.5
788.975	16.5
789.721	14.5
790.466	17.5
791.212	16.5
791.957	12.5
792.702	15.5
793.447	14.5
794.193	13.5
794.938	15.5
795.683	14.5
796.427	15.5
797.172	14.5
797.917	16.5
798.662	11.5
799.406	11.5
800.151	11.5
800.895	12.5
801.64	12.5
802.384	13.5
803.128	13.5
803.872	10.5
804.616	10.5
805.36	11.5
806.104	11.5
806.848	12.5
807.592	10.5
808.336	11.5
809.079	11.5
809.823	10.5
810.566	8.5
811.31	9.5
812.053	11.5
812.796	9.5
813.539	8.5
814.283	9.5
815.026	9.5
815.769	9.5
816.511	10.5
817.254	10.5
817.997	9.5
818.74	7.5
819.482	7.5
820.225	8.5
820.967	8.5
821.71	8.5
822.452	7.5
823.194	8.5
823.936	6.5
824.678	9.5
825.42	4.5
826.162	6.5
826.904	8.5
827.646	5.5
828.388	5.5
829.129	5.5
829.871	5.5
830.612	7.5
831.354	7.5
832.095	5.5
832.836	8.5
833.577	8.5
834.319	6.5
835.06	7.5
835.801	5.5
836.542	5.5
837.282	4.5
838.023	6.5
838.764	4.5
839.504	6.5
840.245	4.5
840.985	7.5
841.726	4.5
842.466	7.5
843.206	7.5
843.946	5.5
844.687	5.5
845.427	5.5
846.166	4.5
846.906	5.5
847.646	8.5
848.386	3.5
849.125	6.5
849.865	6.5
850.605	4.5
851.344	4.5
852.083	3.5
852.823	6.5
853.562	3.5
854.301	3.5
855.04	4.5
855.779	5.5
856.518	5.5
857.257	3.5
857.995	4.5
858.734	4.5
859.473	4.5
860.211	5.5
860.95	3.5
861.688	3.5
862.426	3.5
863.165	4.5
863.903	2.5
864.641	1.5
865.379	6.5
866.117	2.5
866.855	3.5
867.593	3.5
868.33	2.5
869.068	3.5
869.806	2.5
870.543	2.5
871.28	2.5
872.018	5.5
872.755	3.5
873.492	1.5
874.229	1.5
874.967	3.5
875.703	3.5
876.44	3.5
877.177	2.5
877.914	4.5
878.651	-0.5
879.387	3.5
880.124	2.5
880.86	2.5
881.597	1.5
882.333	2.5
883.069	1.5
883.806	-1.5
884.542	3.5
885.278	2.5
886.014	2.5
886.749	1.5
887.485	3.5
888.221	1.5
888.957	2.5
889.692	2.5
890.428	-0.5
891.163	0.5
891.899	1.5
892.634	1.5
893.369	0.5
894.104	0.5
894.839	1.5
895.574	2.5
896.309	1.5
897.044	3.5
897.779	0.5
898.514	1.5
899.248	0.5
899.983	2.5
900.717	-1.5
901.452	1.5
902.186	1.5
902.92	2.5
903.654	2.5
904.389	-0.5
905.123	0.5
905.857	3.5
906.59	-0.5
907.324	0.5
908.058	2.5
908.792	-1.5
909.525	1.5
910.259	-0.5
910.992	3.5
911.726	2.5
912.459	1.5
913.192	2.5
913.925	0.5
914.658	3.5
915.391	1.5
916.124	0.5
916.857	1.5
917.59	1.5
918.323	1.5
919.055	-0.5
919.788	0.5
920.521	2.5
921.253	1.5
921.985	1.5
922.718	1.5
923.45	1.5
924.182	1.5
924.914	-0.5
925.646	2.5
926.378	0.5
927.11	-0.5
927.841	0.5
928.573	1.5
929.305	-0.5
930.036	0.5
930.768	2.5
931.499	1.5
932.23	1.5
932.962	-0.5
933.693	2.5
934.424	2.5
935.155	1.5
935.886	-1.5
936.617	1.5
937.348	3.5
938.078	0.5
938.809	-0.5
939.54	0.5
940.27	1.5
941.001	1.5
941.731	0.5
942.461	2.5
943.191	1.5
943.922	-0.5
944.652	-0.5
945.382	0.5
946.112	1.5
946.841	0.5
947.571	1.5
948.301	1.5
949.031	0.5
949.76	-0.5
950.49	0.5
951.219	1.5
951.948	1.5
952.678	2.5
953.407	0.5
954.136	-0.5
954.865	0.5
955.594	-0.5
956.323	0.5
957.052	0.5
957.78	2.5
958.509	0.5
959.238	1.5
959.966	1.5
960.695	-0.5
961.423	0.5
962.151	1.5
962.88	1.5
963.608	-0.5
964.336	-1.5
965.064	-0.5
965.792	-0.5
966.52	0.5
967.247	1.5
967.975	1.5
968.703	0.5
969.43	0.5
970.158	2.5
970.885	0.5
971.613	2.5
972.34	3.5
973.067	0.5
973.794	3.5
974.521	1.5
975.248	2.5
975.975	1.5
976.702	-1.5
977.429	1.5
978.156	1.5
978.882	2.5
979.609	1.5
980.335	3.5
981.062	-2.5
981.788	2.5
982.514	0.5
983.24	0.5
983.967	1.5
984.693	-0.5
985.419	1.5
986.144	-0.5
986.87	-0.5
987.596	3.5
988.322	0.5
989.047	1.5
989.773	2.5
990.498	0.5
991.224	-0.5
991.949	1.5
992.674	0.5
993.399	0.5
994.124	-0.5
994.849	1.5
995.574	-0.5
996.299	1.5
997.024	1.5
997.749	0.5
998.473	3.5
999.198	0.5
999.922	0.5
1000.647	-0.5
1001.371	3.5
1002.095	-0.5
1002.82	-0.5
1003.544	-1.5
1004.268	5.5
1004.992	4.5
1005.716	3.5
1006.439	4.5
1007.163	8.5
1007.887	7.5
1008.611	1.5
1009.334	1.5
1010.058	0.5
1010.781	-0.5
1011.504	0.5
1012.228	1.5
1012.951	-0.5
1013.674	1.5
1014.397	-2.5
1015.12	0.5
