节点500_705_QEPB04081__422__20-51-54-695.txt的数据

Date: Wed Nov 12 20:51:54 CST 2025
User: PC
Spectrometer: QEPB0408
触发模式: 0
积分时间 (秒): 1.000000E-2
Scans to average: 1
启用暗噪声校正: true
启用非线性校正: false
滑动平均宽度: 0
X轴模式: Wavelengths
Number of Pixels in Spectrum: 1044
>>>>>Begin Spectral Data<<<<<
220.843	5.25
221.644	4.25
222.444	5.25
223.244	5.25
224.045	7.25
224.845	7.25
225.645	7.25
226.445	7.25
227.245	5.25
228.045	4.25
228.845	9.25
229.645	7.25
230.444	8.25
231.244	7.25
232.043	9.25
232.843	8.25
233.642	9.25
234.442	10.25
235.241	12.25
236.04	11.25
236.839	8.25
237.638	11.25
238.437	9.25
239.236	12.25
240.035	10.25
240.833	9.25
241.632	11.25
242.43	10.25
243.229	13.25
244.027	13.25
244.826	14.25
245.624	13.25
246.422	15.25
247.22	13.25
248.018	13.25
248.816	12.25
249.614	14.25
250.412	15.25
251.21	15.25
252.007	16.25
252.805	19.25
253.602	17.25
254.4	18.25
255.197	18.25
255.994	19.25
256.791	19.25
257.589	21.25
258.386	20.25
259.183	19.25
259.979	20.25
260.776	23.25
261.573	19.25
262.37	24.25
263.166	22.25
263.963	26.25
264.759	23.25
265.556	27.25
266.352	25.25
267.148	26.25
267.944	29.25
268.74	28.25
269.536	27.25
270.332	30.25
271.128	29.25
271.924	32.25
272.719	34.25
273.515	33.25
274.311	31.25
275.106	29.25
275.901	36.25
276.697	33.25
277.492	32.25
278.287	31.25
279.082	30.25
279.877	35.25
280.672	34.25
281.467	36.25
282.262	33.25
283.056	34.25
283.851	33.25
284.646	32.25
285.44	35.25
286.234	31.25
287.029	35.25
287.823	34.25
288.617	35.25
289.411	34.25
290.205	32.25
290.999	35.25
291.793	31.25
292.587	35.25
293.381	28.25
294.174	30.25
294.968	29.25
295.761	24.25
296.555	27.25
297.348	25.25
298.141	27.25
298.935	28.25
299.728	24.25
300.521	26.25
301.314	22.25
302.107	23.25
302.899	24.25
303.692	24.25
304.485	21.25
305.277	19.25
306.07	21.25
306.862	20.25
307.655	22.25
308.447	21.25
309.239	20.25
310.031	21.25
310.823	19.25
311.615	21.25
312.407	18.25
313.199	17.25
313.991	15.25
314.783	18.25
315.574	19.25
316.366	17.25
317.157	17.25
317.949	13.25
318.74	17.25
319.531	15.25
320.322	16.25
321.113	13.25
321.904	16.25
322.695	15.25
323.486	15.25
324.277	13.25
325.068	13.25
325.858	12.25
326.649	14.25
327.439	11.25
328.23	10.25
329.02	11.25
329.81	12.25
330.6	14.25
331.391	9.25
332.181	11.25
332.971	12.25
333.76	11.25
334.55	13.25
335.34	12.25
336.13	13.25
336.919	13.25
337.709	12.25
338.498	12.25
339.287	11.25
340.077	14.25
340.866	11.25
341.655	12.25
342.444	10.25
343.233	8.25
344.022	12.25
344.811	13.25
345.6	14.25
346.388	12.25
347.177	11.25
347.965	12.25
348.754	11.25
349.542	11.25
350.33	13.25
351.119	13.25
351.907	10.25
352.695	10.25
353.483	13.25
354.271	10.25
355.059	10.25
355.846	10.25
356.634	12.25
357.422	10.25
358.209	8.25
358.997	10.25
359.784	9.25
360.571	13.25
361.359	11.25
362.146	10.25
362.933	11.25
363.72	10.25
364.507	9.25
365.294	10.25
366.081	9.25
366.867	12.25
367.654	9.25
368.44	12.25
369.227	8.25
370.013	10.25
370.8	9.25
371.586	12.25
372.372	10.25
373.158	12.25
373.944	10.25
374.73	11.25
375.516	12.25
376.302	8.25
377.088	12.25
377.873	12.25
378.659	10.25
379.445	10.25
380.23	9.25
381.015	10.25
381.801	11.25
382.586	8.25
383.371	12.25
384.156	11.25
384.941	11.25
385.726	13.25
386.511	11.25
387.296	11.25
388.08	10.25
388.865	11.25
389.649	11.25
390.434	12.25
391.218	9.25
392.003	12.25
392.787	11.25
393.571	12.25
394.355	11.25
395.139	13.25
395.923	13.25
396.707	12.25
397.491	11.25
398.274	15.25
399.058	14.25
399.842	11.25
400.625	14.25
401.408	12.25
402.192	12.25
402.975	15.25
403.758	15.25
404.541	15.25
405.324	13.25
406.107	15.25
406.89	16.25
407.673	18.25
408.456	15.25
409.238	15.25
410.021	16.25
410.803	16.25
411.586	17.25
412.368	17.25
413.151	16.25
413.933	17.25
414.715	18.25
415.497	18.25
416.279	20.25
417.061	20.25
417.843	17.25
418.624	19.25
419.406	21.25
420.188	21.25
420.969	17.25
421.751	21.25
422.532	21.25
423.313	23.25
424.095	23.25
424.876	24.25
425.657	26.25
426.438	26.25
427.219	27.25
428	27.25
428.78	29.25
429.561	29.25
430.342	29.25
431.122	28.25
431.903	33.25
432.683	32.25
433.464	35.25
434.244	36.25
435.024	41.25
435.804	41.25
436.584	43.25
437.364	48.25
438.144	46.25
438.924	53.25
439.704	55.25
440.483	58.25
441.263	61.25
442.042	66.25
442.822	69.25
443.601	73.25
444.38	84.25
445.16	89.25
445.939	97.25
446.718	106.25
447.497	114.25
448.276	124.25
449.054	138.25
449.833	151.25
450.612	167.25
451.391	183.25
452.169	196.25
452.948	225.25
453.726	243.25
454.504	274.25
455.282	304.25
456.061	341.25
456.839	374.25
457.617	424.25
458.395	468.25
459.172	530.25
459.95	590.25
460.728	642.25
461.506	716.25
462.283	808.25
463.061	896.25
463.838	991.25
464.615	1114.25
465.393	1234.25
466.17	1369.25
466.947	1525.25
467.724	1681.25
468.501	1869.25
469.278	2049.25
470.055	2262.25
470.831	2504.25
471.608	2768.25
472.385	3019.25
473.161	3351.25
473.938	3672.25
474.714	4040.25
475.49	4427.25
476.266	4815.25
477.043	5264.25
477.819	5775.25
478.595	6260.25
479.371	6859.25
480.146	7467.25
480.922	8098.25
481.698	8834.25
482.473	9594.25
483.249	10417.25
484.024	11268.25
484.8	12248.25
485.575	13246.25
486.35	14317.25
487.126	15510.25
487.901	16741.25
488.676	18020.25
489.451	19378.25
490.225	20853.25
491	22373.25
491.775	23893.25
492.55	25497.25
493.324	27150.25
494.099	28909.25
494.873	30586.25
495.647	32353.25
496.422	34046.25
497.196	35671.25
497.97	37292.25
498.744	38814.25
499.518	40441.25
500.292	41876.25
501.066	42800.25
501.839	43800.25
502.613	44656.25
503.387	45338.25
504.16	45828.25
504.934	46119.25
505.707	46137.25
506.48	45937.25
507.253	45425.25
508.027	45025.25
508.8	44117.25
509.573	43200.25
510.346	42284.25
511.118	41290.25
511.891	40118.25
512.664	38675.25
513.437	37240.25
514.209	35914.25
514.982	34665.25
515.754	33276.25
516.526	31942.25
517.298	30640.25
518.071	29502.25
518.843	28288.25
519.615	27119.25
520.387	26080.25
521.159	25065.25
521.93	24024.25
522.702	23068.25
523.474	22062.25
524.245	21152.25
525.017	20286.25
525.788	19432.25
526.56	18613.25
527.331	17801.25
528.102	16908.25
528.873	16060.25
529.644	15311.25
530.415	14597.25
531.186	13913.25
531.957	13231.25
532.728	12503.25
533.498	11846.25
534.269	11271.25
535.039	10684.25
535.81	10150.25
536.58	9544.25
537.351	9024.25
538.121	8575.25
538.891	8104.25
539.661	7709.25
540.431	7262.25
541.201	6895.25
541.971	6499.25
542.741	6175.25
543.51	5839.25
544.28	5527.25
545.05	5320.25
545.819	5067.25
546.588	4869.25
547.358	4601.25
548.127	4384.25
548.896	4162.25
549.665	3963.25
550.434	3749.25
551.203	3565.25
551.972	3389.25
552.741	3199.25
553.51	3004.25
554.278	2832.25
555.047	2684.25
555.815	2551.25
556.584	2404.25
557.352	2270.25
558.121	2151.25
558.889	2046.25
559.657	1919.25
560.425	1809.25
561.193	1725.25
561.961	1621.25
562.729	1535.25
563.496	1448.25
564.264	1385.25
565.032	1289.25
565.799	1232.25
566.567	1164.25
567.334	1101.25
568.101	1038.25
568.869	980.25
569.636	927.25
570.403	884.25
571.17	829.25
571.937	780.25
572.704	742.25
573.471	696.25
574.237	648.25
575.004	621.25
575.771	583.25
576.537	547.25
577.303	520.25
578.07	497.25
578.836	468.25
579.602	448.25
580.368	415.25
581.134	391.25
581.9	379.25
582.666	363.25
583.432	337.25
584.198	324.25
584.964	312.25
585.729	287.25
586.495	274.25
587.26	265.25
588.025	250.25
588.791	229.25
589.556	222.25
590.321	212.25
591.086	200.25
591.851	191.25
592.616	182.25
593.381	172.25
594.146	162.25
594.911	160.25
595.675	153.25
596.44	141.25
597.204	134.25
597.969	133.25
598.733	125.25
599.497	123.25
600.261	117.25
601.025	107.25
601.79	103.25
602.553	102.25
603.317	96.25
604.081	93.25
604.845	90.25
605.609	87.25
606.372	84.25
607.136	81.25
607.899	75.25
608.662	75.25
609.426	71.25
610.189	65.25
610.952	62.25
611.715	68.25
612.478	62.25
613.241	55.25
614.004	56.25
614.767	55.25
615.529	55.25
616.292	50.25
617.055	49.25
617.817	48.25
618.579	48.25
619.342	45.25
620.104	42.25
620.866	42.25
621.628	43.25
622.39	36.25
623.152	42.25
623.914	37.25
624.676	37.25
625.438	32.25
626.199	35.25
626.961	31.25
627.722	35.25
628.484	30.25
629.245	30.25
630.006	32.25
630.768	25.25
631.529	31.25
632.29	27.25
633.051	30.25
633.812	24.25
634.573	27.25
635.333	24.25
636.094	24.25
636.855	21.25
637.615	23.25
638.376	21.25
639.136	21.25
639.896	19.25
640.657	21.25
641.417	20.25
642.177	19.25
642.937	17.25
643.697	15.25
644.457	17.25
645.216	19.25
645.976	16.25
646.736	17.25
647.495	15.25
648.255	17.25
649.014	14.25
649.774	14.25
650.533	16.25
651.292	15.25
652.051	15.25
652.81	14.25
653.569	14.25
654.328	13.25
655.087	13.25
655.846	13.25
656.604	11.25
657.363	12.25
658.121	12.25
658.88	14.25
659.638	11.25
660.397	13.25
661.155	13.25
661.913	10.25
662.671	13.25
663.429	9.25
664.187	14.25
664.945	8.25
665.703	12.25
666.46	11.25
667.218	7.25
667.976	11.25
668.733	8.25
669.49	12.25
670.248	9.25
671.005	8.25
671.762	9.25
672.519	10.25
673.276	11.25
674.033	9.25
674.79	10.25
675.547	8.25
676.304	8.25
677.06	9.25
677.817	9.25
678.574	10.25
679.33	5.25
680.086	10.25
680.843	8.25
681.599	10.25
682.355	9.25
683.111	9.25
683.867	9.25
684.623	8.25
685.379	6.25
686.135	8.25
686.89	6.25
687.646	11.25
688.402	7.25
689.157	7.25
689.912	8.25
690.668	5.25
691.423	8.25
692.178	8.25
692.933	8.25
693.688	7.25
694.443	10.25
695.198	8.25
695.953	8.25
696.708	8.25
697.462	9.25
698.217	8.25
698.972	8.25
699.726	7.25
700.48	7.25
701.235	9.25
701.989	9.25
702.743	6.25
703.497	7.25
704.251	8.25
705.005	9.25
705.759	5.25
706.513	8.25
707.266	5.25
708.02	8.25
708.774	7.25
709.527	9.25
710.28	6.25
711.034	9.25
711.787	7.25
712.54	7.25
713.293	8.25
714.046	9.25
714.799	8.25
715.552	8.25
716.305	7.25
717.058	8.25
717.81	6.25
718.563	10.25
719.315	7.25
720.068	7.25
720.82	7.25
721.573	8.25
722.325	9.25
723.077	9.25
723.829	8.25
724.581	9.25
725.333	7.25
726.085	7.25
726.836	9.25
727.588	9.25
728.34	8.25
729.091	7.25
729.843	9.25
730.594	9.25
731.346	8.25
732.097	8.25
732.848	10.25
733.599	7.25
734.35	10.25
735.101	11.25
735.852	8.25
736.603	10.25
737.354	10.25
738.104	11.25
738.855	7.25
739.605	10.25
740.356	9.25
741.106	9.25
741.856	8.25
742.607	8.25
743.357	11.25
744.107	9.25
744.857	10.25
745.607	12.25
746.357	9.25
747.106	10.25
747.856	11.25
748.606	11.25
749.355	10.25
750.105	9.25
750.854	11.25
751.603	10.25
752.353	13.25
753.102	12.25
753.851	11.25
754.6	13.25
755.349	12.25
756.098	10.25
756.847	10.25
757.595	13.25
758.344	11.25
759.093	12.25
759.841	11.25
760.589	12.25
761.338	12.25
762.086	12.25
762.834	13.25
763.582	14.25
764.331	13.25
765.079	12.25
765.826	11.25
766.574	13.25
767.322	13.25
768.07	14.25
768.817	15.25
769.565	13.25
770.312	14.25
771.06	14.25
771.807	15.25
772.554	14.25
773.302	15.25
774.049	14.25
774.796	14.25
775.543	13.25
776.29	15.25
777.036	14.25
777.783	14.25
778.53	16.25
779.276	15.25
780.023	15.25
780.769	17.25
781.516	15.25
782.262	16.25
783.008	15.25
783.754	14.25
784.5	15.25
785.246	15.25
785.992	18.25
786.738	17.25
787.484	15.25
788.23	13.25
788.975	15.25
789.721	15.25
790.466	12.25
791.212	13.25
791.957	12.25
792.702	14.25
793.447	13.25
794.193	13.25
794.938	12.25
795.683	15.25
796.427	13.25
797.172	13.25
797.917	13.25
798.662	8.25
799.406	13.25
800.151	11.25
800.895	10.25
801.64	15.25
802.384	11.25
803.128	12.25
803.872	12.25
804.616	12.25
805.36	9.25
806.104	13.25
806.848	9.25
807.592	11.25
808.336	11.25
809.079	9.25
809.823	11.25
810.566	10.25
811.31	8.25
812.053	8.25
812.796	10.25
813.539	7.25
814.283	9.25
815.026	9.25
815.769	6.25
816.511	9.25
817.254	9.25
817.997	8.25
818.74	8.25
819.482	7.25
820.225	7.25
820.967	7.25
821.71	7.25
822.452	7.25
823.194	6.25
823.936	8.25
824.678	8.25
825.42	8.25
826.162	5.25
826.904	8.25
827.646	7.25
828.388	8.25
829.129	7.25
829.871	7.25
830.612	8.25
831.354	6.25
832.095	7.25
832.836	7.25
833.577	6.25
834.319	7.25
835.06	6.25
835.801	7.25
836.542	7.25
837.282	7.25
838.023	6.25
838.764	7.25
839.504	6.25
840.245	4.25
840.985	6.25
841.726	6.25
842.466	6.25
843.206	5.25
843.946	6.25
844.687	5.25
845.427	5.25
846.166	5.25
846.906	4.25
847.646	6.25
848.386	7.25
849.125	6.25
849.865	5.25
850.605	5.25
851.344	6.25
852.083	6.25
852.823	3.25
853.562	5.25
854.301	4.25
855.04	4.25
855.779	5.25
856.518	3.25
857.257	3.25
857.995	4.25
858.734	3.25
859.473	3.25
860.211	3.25
860.95	4.25
861.688	3.25
862.426	3.25
863.165	6.25
863.903	2.25
864.641	4.25
865.379	2.25
866.117	5.25
866.855	5.25
867.593	4.25
868.33	2.25
869.068	4.25
869.806	4.25
870.543	1.25
871.28	3.25
872.018	1.25
872.755	4.25
873.492	3.25
874.229	3.25
874.967	2.25
875.703	1.25
876.44	4.25
877.177	3.25
877.914	1.25
878.651	1.25
879.387	2.25
880.124	1.25
880.86	0.25
881.597	2.25
882.333	3.25
883.069	3.25
883.806	3.25
884.542	0.25
885.278	2.25
886.014	3.25
886.749	1.25
887.485	1.25
888.221	1.25
888.957	2.25
889.692	-0.75
890.428	3.25
891.163	0.25
891.899	1.25
892.634	2.25
893.369	-0.75
894.104	2.25
894.839	2.25
895.574	3.25
896.309	3.25
897.044	2.25
897.779	1.25
898.514	-0.75
899.248	1.25
899.983	1.25
900.717	0.25
901.452	0.25
902.186	3.25
902.92	1.25
903.654	1.25
904.389	1.25
905.123	2.25
905.857	2.25
906.59	0.25
907.324	1.25
908.058	0.25
908.792	2.25
909.525	3.25
910.259	1.25
910.992	-0.75
911.726	2.25
912.459	1.25
913.192	-0.75
913.925	1.25
914.658	0.25
915.391	2.25
916.124	0.25
916.857	1.25
917.59	2.25
918.323	-0.75
919.055	0.25
919.788	1.25
920.521	1.25
921.253	3.25
921.985	1.25
922.718	2.25
923.45	1.25
924.182	4.25
924.914	1.25
925.646	2.25
926.378	0.25
927.11	0.25
927.841	0.25
928.573	-0.75
929.305	1.25
930.036	2.25
930.768	0.25
931.499	1.25
932.23	0.25
932.962	1.25
933.693	0.25
934.424	0.25
935.155	1.25
935.886	-0.75
936.617	0.25
937.348	1.25
938.078	-0.75
938.809	2.25
939.54	1.25
940.27	3.25
941.001	-0.75
941.731	1.25
942.461	0.25
943.191	3.25
943.922	-0.75
944.652	-0.75
945.382	3.25
946.112	1.25
946.841	1.25
947.571	1.25
948.301	0.25
949.031	0.25
949.76	0.25
950.49	-0.75
951.219	-0.75
951.948	0.25
952.678	-0.75
953.407	3.25
954.136	1.25
954.865	3.25
955.594	-2.75
956.323	-0.75
957.052	-0.75
957.78	-1.75
958.509	1.25
959.238	1.25
959.966	-0.75
960.695	0.25
961.423	-0.75
962.151	-0.75
962.88	1.25
963.608	-0.75
964.336	-1.75
965.064	2.25
965.792	-0.75
966.52	0.25
967.247	0.25
967.975	-0.75
968.703	-0.75
969.43	1.25
970.158	1.25
970.885	1.25
971.613	0.25
972.34	1.25
973.067	0.25
973.794	1.25
974.521	0.25
975.248	-0.75
975.975	1.25
976.702	1.25
977.429	-0.75
978.156	-0.75
978.882	-1.75
979.609	2.25
980.335	2.25
981.062	-0.75
981.788	0.25
982.514	1.25
983.24	1.25
983.967	0.25
984.693	1.25
985.419	1.25
986.144	-0.75
986.87	1.25
987.596	-0.75
988.322	1.25
989.047	1.25
989.773	-0.75
990.498	0.25
991.224	2.25
991.949	1.25
992.674	1.25
993.399	0.25
994.124	-0.75
994.849	0.25
995.574	-0.75
996.299	-0.75
997.024	1.25
997.749	2.25
998.473	0.25
999.198	-1.75
999.922	2.25
1000.647	-0.75
1001.371	4.25
1002.095	-0.75
1002.82	-1.75
1003.544	0.25
1004.268	4.25
1004.992	4.25
1005.716	4.25
1006.439	3.25
1007.163	3.25
1007.887	5.25
1008.611	1.25
1009.334	-0.75
1010.058	0.25
1010.781	1.25
1011.504	-0.75
1012.228	2.25
1012.951	0.25
1013.674	-1.75
1014.397	-0.75
1015.12	0.25
