节点500_705_QEPB04081__171__20-48-42-016.txt的数据

Date: Wed Nov 12 20:48:42 CST 2025
User: PC
Spectrometer: QEPB0408
触发模式: 0
积分时间 (秒): 1.000000E-2
Scans to average: 1
启用暗噪声校正: true
启用非线性校正: false
滑动平均宽度: 0
X轴模式: Wavelengths
Number of Pixels in Spectrum: 1044
>>>>>Begin Spectral Data<<<<<
220.843	5.62
221.644	4.62
222.444	4.62
223.244	6.62
224.045	5.62
224.845	7.62
225.645	6.62
226.445	5.62
227.245	7.62
228.045	8.62
228.845	8.62
229.645	6.62
230.444	6.62
231.244	6.62
232.043	6.62
232.843	7.62
233.642	7.62
234.442	9.62
235.241	10.62
236.04	8.62
236.839	10.62
237.638	8.62
238.437	9.62
239.236	11.62
240.035	10.62
240.833	11.62
241.632	13.62
242.43	14.62
243.229	12.62
244.027	12.62
244.826	12.62
245.624	11.62
246.422	16.62
247.22	14.62
248.018	13.62
248.816	15.62
249.614	15.62
250.412	14.62
251.21	18.62
252.007	18.62
252.805	16.62
253.602	17.62
254.4	22.62
255.197	18.62
255.994	19.62
256.791	20.62
257.589	20.62
258.386	19.62
259.183	23.62
259.979	23.62
260.776	21.62
261.573	23.62
262.37	23.62
263.166	27.62
263.963	27.62
264.759	25.62
265.556	28.62
266.352	25.62
267.148	30.62
267.944	27.62
268.74	33.62
269.536	32.62
270.332	30.62
271.128	28.62
271.924	30.62
272.719	30.62
273.515	34.62
274.311	33.62
275.106	34.62
275.901	32.62
276.697	33.62
277.492	35.62
278.287	34.62
279.082	36.62
279.877	35.62
280.672	34.62
281.467	34.62
282.262	34.62
283.056	36.62
283.851	34.62
284.646	35.62
285.44	33.62
286.234	35.62
287.029	33.62
287.823	33.62
288.617	36.62
289.411	33.62
290.205	34.62
290.999	30.62
291.793	34.62
292.587	30.62
293.381	28.62
294.174	29.62
294.968	29.62
295.761	26.62
296.555	29.62
297.348	26.62
298.141	26.62
298.935	31.62
299.728	23.62
300.521	22.62
301.314	26.62
302.107	25.62
302.899	20.62
303.692	24.62
304.485	23.62
305.277	22.62
306.07	21.62
306.862	18.62
307.655	21.62
308.447	20.62
309.239	20.62
310.031	20.62
310.823	20.62
311.615	19.62
312.407	16.62
313.199	17.62
313.991	16.62
314.783	13.62
315.574	14.62
316.366	15.62
317.157	17.62
317.949	13.62
318.74	13.62
319.531	12.62
320.322	17.62
321.113	12.62
321.904	12.62
322.695	15.62
323.486	14.62
324.277	14.62
325.068	13.62
325.858	12.62
326.649	14.62
327.439	10.62
328.23	13.62
329.02	11.62
329.81	14.62
330.6	9.62
331.391	9.62
332.181	12.62
332.971	13.62
333.76	12.62
334.55	12.62
335.34	11.62
336.13	12.62
336.919	9.62
337.709	11.62
338.498	12.62
339.287	13.62
340.077	12.62
340.866	13.62
341.655	9.62
342.444	10.62
343.233	14.62
344.022	11.62
344.811	11.62
345.6	10.62
346.388	11.62
347.177	12.62
347.965	9.62
348.754	13.62
349.542	10.62
350.33	10.62
351.119	10.62
351.907	9.62
352.695	12.62
353.483	9.62
354.271	10.62
355.059	10.62
355.846	10.62
356.634	11.62
357.422	10.62
358.209	13.62
358.997	9.62
359.784	11.62
360.571	8.62
361.359	10.62
362.146	9.62
362.933	7.62
363.72	10.62
364.507	9.62
365.294	9.62
366.081	8.62
366.867	9.62
367.654	9.62
368.44	8.62
369.227	9.62
370.013	7.62
370.8	9.62
371.586	10.62
372.372	10.62
373.158	8.62
373.944	7.62
374.73	10.62
375.516	8.62
376.302	9.62
377.088	10.62
377.873	9.62
378.659	10.62
379.445	10.62
380.23	11.62
381.015	11.62
381.801	8.62
382.586	11.62
383.371	10.62
384.156	11.62
384.941	9.62
385.726	11.62
386.511	11.62
387.296	10.62
388.08	10.62
388.865	9.62
389.649	10.62
390.434	12.62
391.218	11.62
392.003	10.62
392.787	10.62
393.571	14.62
394.355	12.62
395.139	12.62
395.923	13.62
396.707	12.62
397.491	12.62
398.274	11.62
399.058	12.62
399.842	12.62
400.625	12.62
401.408	14.62
402.192	12.62
402.975	13.62
403.758	13.62
404.541	15.62
405.324	14.62
406.107	14.62
406.89	16.62
407.673	14.62
408.456	11.62
409.238	14.62
410.021	16.62
410.803	16.62
411.586	16.62
412.368	16.62
413.151	15.62
413.933	19.62
414.715	18.62
415.497	18.62
416.279	18.62
417.061	17.62
417.843	17.62
418.624	21.62
419.406	20.62
420.188	19.62
420.969	18.62
421.751	24.62
422.532	20.62
423.313	24.62
424.095	24.62
424.876	21.62
425.657	23.62
426.438	23.62
427.219	24.62
428	25.62
428.78	29.62
429.561	29.62
430.342	27.62
431.122	30.62
431.903	32.62
432.683	36.62
433.464	36.62
434.244	38.62
435.024	38.62
435.804	34.62
436.584	40.62
437.364	45.62
438.144	46.62
438.924	50.62
439.704	50.62
440.483	53.62
441.263	57.62
442.042	62.62
442.822	65.62
443.601	76.62
444.38	78.62
445.16	82.62
445.939	89.62
446.718	98.62
447.497	107.62
448.276	117.62
449.054	130.62
449.833	137.62
450.612	153.62
451.391	166.62
452.169	188.62
452.948	205.62
453.726	227.62
454.504	252.62
455.282	284.62
456.061	315.62
456.839	352.62
457.617	396.62
458.395	436.62
459.172	494.62
459.95	554.62
460.728	616.62
461.506	685.62
462.283	753.62
463.061	844.62
463.838	955.62
464.615	1050.62
465.393	1178.62
466.17	1319.62
466.947	1466.62
467.724	1621.62
468.501	1815.62
469.278	2010.62
470.055	2227.62
470.831	2478.62
471.608	2741.62
472.385	3030.62
473.161	3367.62
473.938	3682.62
474.714	4076.62
475.49	4481.62
476.266	4928.62
477.043	5399.62
477.819	5910.62
478.595	6494.62
479.371	7109.62
480.146	7782.62
480.922	8526.62
481.698	9309.62
482.473	10146.62
483.249	11081.62
484.024	12051.62
484.8	13124.62
485.575	14253.62
486.35	15502.62
487.126	16785.62
487.901	18202.62
488.676	19684.62
489.451	21245.62
490.225	22970.62
491	24537.62
491.775	26377.62
492.55	28243.62
493.324	30114.62
494.099	32016.62
494.873	33828.62
495.647	35702.62
496.422	37654.62
497.196	39499.62
497.97	41163.62
498.744	42708.62
499.518	44159.62
500.292	45637.62
501.066	46557.62
501.839	47348.62
502.613	48008.62
503.387	48498.62
504.16	48818.62
504.934	48774.62
505.707	48550.62
506.48	47992.62
507.253	47306.62
508.027	46473.62
508.8	45273.62
509.573	44077.62
510.346	42875.62
511.118	41665.62
511.891	40263.62
512.664	38737.62
513.437	37133.62
514.209	35742.62
514.982	34190.62
515.754	32743.62
516.526	31391.62
517.298	30203.62
518.071	28992.62
518.843	27781.62
519.615	26668.62
520.387	25616.62
521.159	24595.62
521.93	23533.62
522.702	22585.62
523.474	21521.62
524.245	20641.62
525.017	19752.62
525.788	18867.62
526.56	18046.62
527.331	17198.62
528.102	16368.62
528.873	15479.62
529.644	14748.62
530.415	14075.62
531.186	13329.62
531.957	12642.62
532.728	11946.62
533.498	11309.62
534.269	10693.62
535.039	10143.62
535.81	9593.62
536.58	9048.62
537.351	8565.62
538.121	8142.62
538.891	7692.62
539.661	7268.62
540.431	6876.62
541.201	6574.62
541.971	6186.62
542.741	5854.62
543.51	5539.62
544.28	5262.62
545.05	5072.62
545.819	4803.62
546.588	4576.62
547.358	4368.62
548.127	4130.62
548.896	3926.62
549.665	3686.62
550.434	3509.62
551.203	3345.62
551.972	3156.62
552.741	3012.62
553.51	2808.62
554.278	2663.62
555.047	2508.62
555.815	2365.62
556.584	2242.62
557.352	2125.62
558.121	2000.62
558.889	1875.62
559.657	1784.62
560.425	1704.62
561.193	1588.62
561.961	1530.62
562.729	1427.62
563.496	1347.62
564.264	1278.62
565.032	1206.62
565.799	1149.62
566.567	1088.62
567.334	1017.62
568.101	973.62
568.869	927.62
569.636	859.62
570.403	816.62
571.17	776.62
571.937	727.62
572.704	682.62
573.471	650.62
574.237	616.62
575.004	583.62
575.771	542.62
576.537	508.62
577.303	485.62
578.07	469.62
578.836	425.62
579.602	403.62
580.368	382.62
581.134	372.62
581.9	351.62
582.666	327.62
583.432	317.62
584.198	297.62
584.964	281.62
585.729	272.62
586.495	253.62
587.26	241.62
588.025	221.62
588.791	218.62
589.556	208.62
590.321	191.62
591.086	190.62
591.851	181.62
592.616	168.62
593.381	163.62
594.146	156.62
594.911	150.62
595.675	140.62
596.44	134.62
597.204	130.62
597.969	121.62
598.733	117.62
599.497	112.62
600.261	108.62
601.025	104.62
601.79	98.62
602.553	90.62
603.317	93.62
604.081	88.62
604.845	82.62
605.609	81.62
606.372	76.62
607.136	77.62
607.899	72.62
608.662	68.62
609.426	66.62
610.189	62.62
610.952	60.62
611.715	58.62
612.478	55.62
613.241	54.62
614.004	54.62
614.767	50.62
615.529	52.62
616.292	44.62
617.055	48.62
617.817	43.62
618.579	42.62
619.342	37.62
620.104	41.62
620.866	42.62
621.628	36.62
622.39	37.62
623.152	35.62
623.914	36.62
624.676	30.62
625.438	33.62
626.199	31.62
626.961	31.62
627.722	29.62
628.484	28.62
629.245	29.62
630.006	25.62
630.768	24.62
631.529	24.62
632.29	23.62
633.051	26.62
633.812	19.62
634.573	22.62
635.333	22.62
636.094	20.62
636.855	22.62
637.615	19.62
638.376	19.62
639.136	19.62
639.896	18.62
640.657	20.62
641.417	15.62
642.177	19.62
642.937	17.62
643.697	19.62
644.457	15.62
645.216	14.62
645.976	14.62
646.736	16.62
647.495	13.62
648.255	10.62
649.014	15.62
649.774	13.62
650.533	14.62
651.292	16.62
652.051	11.62
652.81	13.62
653.569	14.62
654.328	12.62
655.087	10.62
655.846	11.62
656.604	12.62
657.363	10.62
658.121	14.62
658.88	9.62
659.638	9.62
660.397	13.62
661.155	8.62
661.913	11.62
662.671	9.62
663.429	12.62
664.187	11.62
664.945	8.62
665.703	11.62
666.46	10.62
667.218	11.62
667.976	7.62
668.733	9.62
669.49	10.62
670.248	10.62
671.005	10.62
671.762	7.62
672.519	10.62
673.276	10.62
674.033	8.62
674.79	10.62
675.547	8.62
676.304	6.62
677.06	8.62
677.817	8.62
678.574	7.62
679.33	8.62
680.086	10.62
680.843	6.62
681.599	7.62
682.355	10.62
683.111	6.62
683.867	7.62
684.623	8.62
685.379	10.62
686.135	6.62
686.89	7.62
687.646	6.62
688.402	8.62
689.157	7.62
689.912	7.62
690.668	7.62
691.423	8.62
692.178	5.62
692.933	7.62
693.688	5.62
694.443	7.62
695.198	7.62
695.953	6.62
696.708	4.62
697.462	6.62
698.217	6.62
698.972	5.62
699.726	8.62
700.48	6.62
701.235	5.62
701.989	6.62
702.743	6.62
703.497	7.62
704.251	4.62
705.005	4.62
705.759	7.62
706.513	7.62
707.266	4.62
708.02	7.62
708.774	10.62
709.527	4.62
710.28	7.62
711.034	7.62
711.787	5.62
712.54	5.62
713.293	8.62
714.046	4.62
714.799	6.62
715.552	4.62
716.305	8.62
717.058	7.62
717.81	10.62
718.563	6.62
719.315	6.62
720.068	7.62
720.82	8.62
721.573	9.62
722.325	8.62
723.077	8.62
723.829	6.62
724.581	7.62
725.333	9.62
726.085	7.62
726.836	10.62
727.588	6.62
728.34	7.62
729.091	9.62
729.843	6.62
730.594	7.62
731.346	8.62
732.097	9.62
732.848	10.62
733.599	8.62
734.35	8.62
735.101	9.62
735.852	8.62
736.603	9.62
737.354	7.62
738.104	10.62
738.855	9.62
739.605	8.62
740.356	8.62
741.106	10.62
741.856	10.62
742.607	10.62
743.357	8.62
744.107	8.62
744.857	10.62
745.607	8.62
746.357	10.62
747.106	10.62
747.856	9.62
748.606	11.62
749.355	9.62
750.105	10.62
750.854	12.62
751.603	11.62
752.353	11.62
753.102	12.62
753.851	14.62
754.6	10.62
755.349	12.62
756.098	11.62
756.847	11.62
757.595	12.62
758.344	12.62
759.093	9.62
759.841	11.62
760.589	11.62
761.338	12.62
762.086	13.62
762.834	13.62
763.582	10.62
764.331	14.62
765.079	15.62
765.826	14.62
766.574	12.62
767.322	15.62
768.07	13.62
768.817	14.62
769.565	16.62
770.312	14.62
771.06	18.62
771.807	14.62
772.554	13.62
773.302	13.62
774.049	16.62
774.796	14.62
775.543	14.62
776.29	14.62
777.036	14.62
777.783	16.62
778.53	14.62
779.276	15.62
780.023	15.62
780.769	15.62
781.516	14.62
782.262	14.62
783.008	12.62
783.754	16.62
784.5	16.62
785.246	14.62
785.992	17.62
786.738	16.62
787.484	13.62
788.23	16.62
788.975	15.62
789.721	15.62
790.466	14.62
791.212	16.62
791.957	12.62
792.702	14.62
793.447	13.62
794.193	16.62
794.938	16.62
795.683	13.62
796.427	11.62
797.172	13.62
797.917	13.62
798.662	11.62
799.406	13.62
800.151	12.62
800.895	12.62
801.64	12.62
802.384	14.62
803.128	13.62
803.872	9.62
804.616	10.62
805.36	10.62
806.104	10.62
806.848	10.62
807.592	9.62
808.336	9.62
809.079	9.62
809.823	9.62
810.566	8.62
811.31	7.62
812.053	10.62
812.796	9.62
813.539	8.62
814.283	9.62
815.026	7.62
815.769	8.62
816.511	8.62
817.254	5.62
817.997	7.62
818.74	7.62
819.482	5.62
820.225	7.62
820.967	9.62
821.71	7.62
822.452	8.62
823.194	7.62
823.936	7.62
824.678	7.62
825.42	4.62
826.162	8.62
826.904	5.62
827.646	4.62
828.388	7.62
829.129	5.62
829.871	7.62
830.612	5.62
831.354	1.62
832.095	4.62
832.836	5.62
833.577	5.62
834.319	6.62
835.06	7.62
835.801	6.62
836.542	4.62
837.282	6.62
838.023	5.62
838.764	5.62
839.504	4.62
840.245	4.62
840.985	6.62
841.726	2.62
842.466	4.62
843.206	4.62
843.946	5.62
844.687	3.62
845.427	4.62
846.166	6.62
846.906	4.62
847.646	5.62
848.386	5.62
849.125	4.62
849.865	3.62
850.605	4.62
851.344	4.62
852.083	3.62
852.823	5.62
853.562	5.62
854.301	5.62
855.04	5.62
855.779	1.62
856.518	3.62
857.257	2.62
857.995	3.62
858.734	2.62
859.473	2.62
860.211	3.62
860.95	1.62
861.688	6.62
862.426	2.62
863.165	3.62
863.903	2.62
864.641	2.62
865.379	1.62
866.117	1.62
866.855	2.62
867.593	3.62
868.33	2.62
869.068	1.62
869.806	0.62
870.543	3.62
871.28	2.62
872.018	2.62
872.755	2.62
873.492	2.62
874.229	0.62
874.967	0.62
875.703	1.62
876.44	2.62
877.177	2.62
877.914	1.62
878.651	3.62
879.387	1.62
880.124	0.62
880.86	1.62
881.597	1.62
882.333	2.62
883.069	2.62
883.806	0.62
884.542	2.62
885.278	1.62
886.014	-0.38
886.749	1.62
887.485	2.62
888.221	-0.38
888.957	0.62
889.692	0.62
890.428	0.62
891.163	-0.38
891.899	-0.38
892.634	2.62
893.369	1.62
894.104	-0.38
894.839	2.62
895.574	0.62
896.309	0.62
897.044	-0.38
897.779	2.62
898.514	0.62
899.248	1.62
899.983	1.62
900.717	2.62
901.452	-1.38
902.186	1.62
902.92	-0.38
903.654	1.62
904.389	1.62
905.123	1.62
905.857	1.62
906.59	0.62
907.324	-1.38
908.058	1.62
908.792	0.62
909.525	-1.38
910.259	0.62
910.992	1.62
911.726	0.62
912.459	-1.38
913.192	-0.38
913.925	1.62
914.658	-1.38
915.391	0.62
916.124	-1.38
916.857	-1.38
917.59	0.62
918.323	1.62
919.055	0.62
919.788	1.62
920.521	0.62
921.253	-0.38
921.985	-1.38
922.718	0.62
923.45	-1.38
924.182	0.62
924.914	-1.38
925.646	-0.38
926.378	0.62
927.11	2.62
927.841	-0.38
928.573	1.62
929.305	-0.38
930.036	0.62
930.768	-1.38
931.499	-0.38
932.23	-1.38
932.962	-1.38
933.693	0.62
934.424	0.62
935.155	0.62
935.886	0.62
936.617	-1.38
937.348	1.62
938.078	-1.38
938.809	0.62
939.54	-2.38
940.27	1.62
941.001	-1.38
941.731	-1.38
942.461	1.62
943.191	-1.38
943.922	-1.38
944.652	1.62
945.382	0.62
946.112	0.62
946.841	-0.38
947.571	-1.38
948.301	-0.38
949.031	-1.38
949.76	-3.38
950.49	-2.38
951.219	0.62
951.948	-1.38
952.678	-0.38
953.407	-1.38
954.136	0.62
954.865	-0.38
955.594	-0.38
956.323	0.62
957.052	-0.38
957.78	0.62
958.509	1.62
959.238	-1.38
959.966	-1.38
960.695	2.62
961.423	0.62
962.151	0.62
962.88	-0.38
963.608	0.62
964.336	-1.38
965.064	1.62
965.792	-1.38
966.52	0.62
967.247	-1.38
967.975	0.62
968.703	-1.38
969.43	1.62
970.158	0.62
970.885	0.62
971.613	-0.38
972.34	0.62
973.067	-0.38
973.794	0.62
974.521	0.62
975.248	-0.38
975.975	-0.38
976.702	0.62
977.429	-0.38
978.156	1.62
978.882	-0.38
979.609	-2.38
980.335	-0.38
981.062	0.62
981.788	-1.38
982.514	0.62
983.24	-0.38
983.967	-1.38
984.693	-0.38
985.419	-2.38
986.144	0.62
986.87	-1.38
987.596	0.62
988.322	0.62
989.047	0.62
989.773	-0.38
990.498	-0.38
991.224	1.62
991.949	-0.38
992.674	0.62
993.399	-2.38
994.124	-1.38
994.849	0.62
995.574	-1.38
996.299	-1.38
997.024	0.62
997.749	0.62
998.473	-0.38
999.198	-0.38
999.922	0.62
1000.647	-0.38
1001.371	2.62
1002.095	-0.38
1002.82	-2.38
1003.544	-0.38
1004.268	3.62
1004.992	2.62
1005.716	6.62
1006.439	4.62
1007.163	4.62
1007.887	6.62
1008.611	1.62
1009.334	-1.38
1010.058	-1.38
1010.781	0.62
1011.504	-0.38
1012.228	0.62
1012.951	-0.38
1013.674	1.62
1014.397	0.62
1015.12	-1.38
