节点500_705_QEPB04081__355__20-50-58-603.txt的数据

Date: Wed Nov 12 20:50:58 CST 2025
User: PC
Spectrometer: QEPB0408
触发模式: 0
积分时间 (秒): 1.000000E-2
Scans to average: 1
启用暗噪声校正: true
启用非线性校正: false
滑动平均宽度: 0
X轴模式: Wavelengths
Number of Pixels in Spectrum: 1044
>>>>>Begin Spectral Data<<<<<
220.843	7.12
221.644	5.12
222.444	6.12
223.244	4.12
224.045	8.12
224.845	4.12
225.645	9.12
226.445	7.12
227.245	8.12
228.045	8.12
228.845	8.12
229.645	7.12
230.444	10.12
231.244	5.12
232.043	11.12
232.843	9.12
233.642	9.12
234.442	10.12
235.241	10.12
236.04	9.12
236.839	11.12
237.638	9.12
238.437	9.12
239.236	12.12
240.035	10.12
240.833	10.12
241.632	11.12
242.43	12.12
243.229	11.12
244.027	15.12
244.826	14.12
245.624	14.12
246.422	14.12
247.22	15.12
248.018	13.12
248.816	17.12
249.614	16.12
250.412	14.12
251.21	18.12
252.007	18.12
252.805	16.12
253.602	21.12
254.4	17.12
255.197	18.12
255.994	18.12
256.791	19.12
257.589	20.12
258.386	24.12
259.183	23.12
259.979	22.12
260.776	21.12
261.573	24.12
262.37	23.12
263.166	26.12
263.963	27.12
264.759	25.12
265.556	24.12
266.352	28.12
267.148	26.12
267.944	27.12
268.74	30.12
269.536	28.12
270.332	30.12
271.128	28.12
271.924	29.12
272.719	31.12
273.515	34.12
274.311	29.12
275.106	35.12
275.901	35.12
276.697	34.12
277.492	37.12
278.287	37.12
279.082	36.12
279.877	32.12
280.672	36.12
281.467	34.12
282.262	34.12
283.056	34.12
283.851	36.12
284.646	35.12
285.44	31.12
286.234	33.12
287.029	36.12
287.823	33.12
288.617	31.12
289.411	34.12
290.205	31.12
290.999	32.12
291.793	30.12
292.587	27.12
293.381	30.12
294.174	30.12
294.968	31.12
295.761	24.12
296.555	28.12
297.348	29.12
298.141	28.12
298.935	31.12
299.728	24.12
300.521	26.12
301.314	27.12
302.107	22.12
302.899	26.12
303.692	23.12
304.485	24.12
305.277	22.12
306.07	21.12
306.862	25.12
307.655	21.12
308.447	22.12
309.239	19.12
310.031	20.12
310.823	18.12
311.615	18.12
312.407	18.12
313.199	15.12
313.991	20.12
314.783	15.12
315.574	19.12
316.366	14.12
317.157	19.12
317.949	16.12
318.74	13.12
319.531	15.12
320.322	15.12
321.113	13.12
321.904	14.12
322.695	13.12
323.486	15.12
324.277	17.12
325.068	14.12
325.858	13.12
326.649	12.12
327.439	14.12
328.23	12.12
329.02	11.12
329.81	14.12
330.6	14.12
331.391	12.12
332.181	13.12
332.971	12.12
333.76	11.12
334.55	13.12
335.34	11.12
336.13	14.12
336.919	14.12
337.709	10.12
338.498	12.12
339.287	13.12
340.077	11.12
340.866	13.12
341.655	12.12
342.444	9.12
343.233	12.12
344.022	13.12
344.811	12.12
345.6	11.12
346.388	11.12
347.177	13.12
347.965	13.12
348.754	10.12
349.542	13.12
350.33	12.12
351.119	11.12
351.907	11.12
352.695	9.12
353.483	10.12
354.271	11.12
355.059	11.12
355.846	10.12
356.634	11.12
357.422	11.12
358.209	9.12
358.997	13.12
359.784	11.12
360.571	10.12
361.359	12.12
362.146	7.12
362.933	9.12
363.72	10.12
364.507	12.12
365.294	10.12
366.081	9.12
366.867	11.12
367.654	12.12
368.44	10.12
369.227	9.12
370.013	11.12
370.8	9.12
371.586	10.12
372.372	10.12
373.158	9.12
373.944	12.12
374.73	9.12
375.516	10.12
376.302	9.12
377.088	9.12
377.873	10.12
378.659	10.12
379.445	9.12
380.23	10.12
381.015	8.12
381.801	12.12
382.586	11.12
383.371	10.12
384.156	9.12
384.941	11.12
385.726	11.12
386.511	9.12
387.296	10.12
388.08	12.12
388.865	11.12
389.649	12.12
390.434	11.12
391.218	11.12
392.003	11.12
392.787	14.12
393.571	12.12
394.355	13.12
395.139	15.12
395.923	13.12
396.707	14.12
397.491	11.12
398.274	13.12
399.058	13.12
399.842	16.12
400.625	15.12
401.408	16.12
402.192	13.12
402.975	14.12
403.758	12.12
404.541	14.12
405.324	15.12
406.107	17.12
406.89	16.12
407.673	15.12
408.456	18.12
409.238	15.12
410.021	18.12
410.803	18.12
411.586	18.12
412.368	18.12
413.151	17.12
413.933	19.12
414.715	19.12
415.497	20.12
416.279	16.12
417.061	20.12
417.843	20.12
418.624	19.12
419.406	19.12
420.188	21.12
420.969	23.12
421.751	23.12
422.532	23.12
423.313	21.12
424.095	23.12
424.876	24.12
425.657	24.12
426.438	28.12
427.219	24.12
428	26.12
428.78	27.12
429.561	29.12
430.342	33.12
431.122	32.12
431.903	31.12
432.683	38.12
433.464	33.12
434.244	36.12
435.024	39.12
435.804	43.12
436.584	42.12
437.364	47.12
438.144	47.12
438.924	52.12
439.704	56.12
440.483	57.12
441.263	63.12
442.042	66.12
442.822	71.12
443.601	74.12
444.38	80.12
445.16	90.12
445.939	97.12
446.718	101.12
447.497	114.12
448.276	120.12
449.054	136.12
449.833	145.12
450.612	166.12
451.391	179.12
452.169	194.12
452.948	218.12
453.726	246.12
454.504	275.12
455.282	310.12
456.061	336.12
456.839	370.12
457.617	412.12
458.395	462.12
459.172	517.12
459.95	574.12
460.728	643.12
461.506	717.12
462.283	789.12
463.061	890.12
463.838	997.12
464.615	1096.12
465.393	1211.12
466.17	1364.12
466.947	1499.12
467.724	1666.12
468.501	1858.12
469.278	2061.12
470.055	2259.12
470.831	2498.12
471.608	2761.12
472.385	3059.12
473.161	3348.12
473.938	3688.12
474.714	4042.12
475.49	4439.12
476.266	4868.12
477.043	5327.12
477.819	5807.12
478.595	6339.12
479.371	6933.12
480.146	7566.12
480.922	8234.12
481.698	8936.12
482.473	9789.12
483.249	10642.12
484.024	11514.12
484.8	12474.12
485.575	13528.12
486.35	14682.12
487.126	15887.12
487.901	17131.12
488.676	18523.12
489.451	19997.12
490.225	21491.12
491	22952.12
491.775	24680.12
492.55	26263.12
493.324	28042.12
494.099	29748.12
494.873	31579.12
495.647	33360.12
496.422	35103.12
497.196	36840.12
497.97	38512.12
498.744	40026.12
499.518	41646.12
500.292	42976.12
501.066	43925.12
501.839	44930.12
502.613	45708.12
503.387	46300.12
504.16	46756.12
504.934	46917.12
505.707	46866.12
506.48	46548.12
507.253	46106.12
508.027	45409.12
508.8	44514.12
509.573	43522.12
510.346	42432.12
511.118	41469.12
511.891	40205.12
512.664	38755.12
513.437	37271.12
514.209	35996.12
514.982	34491.12
515.754	33157.12
516.526	31850.12
517.298	30545.12
518.071	29400.12
518.843	28198.12
519.615	27039.12
520.387	26048.12
521.159	25030.12
521.93	23875.12
522.702	22915.12
523.474	21948.12
524.245	21024.12
525.017	20074.12
525.788	19239.12
526.56	18469.12
527.331	17685.12
528.102	16737.12
528.873	15945.12
529.644	15164.12
530.415	14484.12
531.186	13765.12
531.957	13071.12
532.728	12385.12
533.498	11752.12
534.269	11128.12
535.039	10507.12
535.81	10002.12
536.58	9444.12
537.351	8917.12
538.121	8470.12
538.891	7978.12
539.661	7565.12
540.431	7145.12
541.201	6790.12
541.971	6448.12
542.741	6091.12
543.51	5770.12
544.28	5490.12
545.05	5243.12
545.819	4983.12
546.588	4760.12
547.358	4522.12
548.127	4311.12
548.896	4110.12
549.665	3899.12
550.434	3670.12
551.203	3503.12
551.972	3344.12
552.741	3125.12
553.51	2944.12
554.278	2795.12
555.047	2633.12
555.815	2493.12
556.584	2361.12
557.352	2206.12
558.121	2100.12
558.889	1990.12
559.657	1888.12
560.425	1776.12
561.193	1693.12
561.961	1613.12
562.729	1504.12
563.496	1429.12
564.264	1346.12
565.032	1259.12
565.799	1208.12
566.567	1148.12
567.334	1074.12
568.101	1030.12
568.869	966.12
569.636	899.12
570.403	860.12
571.17	799.12
571.937	760.12
572.704	717.12
573.471	672.12
574.237	654.12
575.004	609.12
575.771	572.12
576.537	540.12
577.303	513.12
578.07	490.12
578.836	455.12
579.602	435.12
580.368	411.12
581.134	391.12
581.9	362.12
582.666	346.12
583.432	329.12
584.198	321.12
584.964	305.12
585.729	283.12
586.495	268.12
587.26	255.12
588.025	241.12
588.791	231.12
589.556	218.12
590.321	210.12
591.086	198.12
591.851	184.12
592.616	173.12
593.381	172.12
594.146	168.12
594.911	157.12
595.675	150.12
596.44	143.12
597.204	138.12
597.969	128.12
598.733	125.12
599.497	117.12
600.261	113.12
601.025	109.12
601.79	103.12
602.553	101.12
603.317	99.12
604.081	91.12
604.845	94.12
605.609	89.12
606.372	84.12
607.136	77.12
607.899	77.12
608.662	73.12
609.426	70.12
610.189	70.12
610.952	61.12
611.715	63.12
612.478	62.12
613.241	60.12
614.004	55.12
614.767	54.12
615.529	53.12
616.292	49.12
617.055	51.12
617.817	46.12
618.579	50.12
619.342	45.12
620.104	42.12
620.866	40.12
621.628	40.12
622.39	41.12
623.152	39.12
623.914	37.12
624.676	36.12
625.438	33.12
626.199	32.12
626.961	33.12
627.722	30.12
628.484	30.12
629.245	28.12
630.006	31.12
630.768	26.12
631.529	29.12
632.29	27.12
633.051	24.12
633.812	22.12
634.573	24.12
635.333	23.12
636.094	23.12
636.855	20.12
637.615	22.12
638.376	21.12
639.136	22.12
639.896	20.12
640.657	22.12
641.417	19.12
642.177	16.12
642.937	21.12
643.697	17.12
644.457	17.12
645.216	15.12
645.976	17.12
646.736	14.12
647.495	17.12
648.255	16.12
649.014	13.12
649.774	12.12
650.533	13.12
651.292	14.12
652.051	15.12
652.81	13.12
653.569	15.12
654.328	13.12
655.087	14.12
655.846	15.12
656.604	11.12
657.363	11.12
658.121	13.12
658.88	10.12
659.638	11.12
660.397	12.12
661.155	11.12
661.913	10.12
662.671	11.12
663.429	13.12
664.187	12.12
664.945	12.12
665.703	13.12
666.46	11.12
667.218	14.12
667.976	9.12
668.733	11.12
669.49	11.12
670.248	8.12
671.005	8.12
671.762	13.12
672.519	9.12
673.276	9.12
674.033	9.12
674.79	7.12
675.547	8.12
676.304	11.12
677.06	9.12
677.817	10.12
678.574	8.12
679.33	8.12
680.086	8.12
680.843	11.12
681.599	8.12
682.355	7.12
683.111	8.12
683.867	6.12
684.623	9.12
685.379	9.12
686.135	10.12
686.89	10.12
687.646	8.12
688.402	9.12
689.157	8.12
689.912	9.12
690.668	9.12
691.423	6.12
692.178	7.12
692.933	8.12
693.688	9.12
694.443	8.12
695.198	6.12
695.953	8.12
696.708	7.12
697.462	10.12
698.217	7.12
698.972	11.12
699.726	7.12
700.48	9.12
701.235	8.12
701.989	9.12
702.743	8.12
703.497	7.12
704.251	8.12
705.005	8.12
705.759	7.12
706.513	7.12
707.266	9.12
708.02	7.12
708.774	8.12
709.527	11.12
710.28	8.12
711.034	7.12
711.787	9.12
712.54	6.12
713.293	9.12
714.046	9.12
714.799	10.12
715.552	8.12
716.305	5.12
717.058	7.12
717.81	8.12
718.563	7.12
719.315	9.12
720.068	7.12
720.82	6.12
721.573	9.12
722.325	8.12
723.077	8.12
723.829	10.12
724.581	7.12
725.333	8.12
726.085	9.12
726.836	7.12
727.588	11.12
728.34	8.12
729.091	9.12
729.843	11.12
730.594	7.12
731.346	9.12
732.097	11.12
732.848	10.12
733.599	7.12
734.35	8.12
735.101	9.12
735.852	7.12
736.603	8.12
737.354	8.12
738.104	12.12
738.855	10.12
739.605	10.12
740.356	11.12
741.106	10.12
741.856	10.12
742.607	9.12
743.357	9.12
744.107	10.12
744.857	10.12
745.607	13.12
746.357	10.12
747.106	12.12
747.856	10.12
748.606	11.12
749.355	12.12
750.105	10.12
750.854	12.12
751.603	13.12
752.353	12.12
753.102	11.12
753.851	9.12
754.6	11.12
755.349	11.12
756.098	12.12
756.847	13.12
757.595	13.12
758.344	11.12
759.093	12.12
759.841	13.12
760.589	14.12
761.338	12.12
762.086	14.12
762.834	12.12
763.582	14.12
764.331	11.12
765.079	14.12
765.826	12.12
766.574	12.12
767.322	13.12
768.07	12.12
768.817	18.12
769.565	15.12
770.312	14.12
771.06	14.12
771.807	15.12
772.554	15.12
773.302	17.12
774.049	17.12
774.796	15.12
775.543	11.12
776.29	17.12
777.036	14.12
777.783	19.12
778.53	15.12
779.276	15.12
780.023	14.12
780.769	13.12
781.516	15.12
782.262	15.12
783.008	15.12
783.754	18.12
784.5	14.12
785.246	14.12
785.992	14.12
786.738	14.12
787.484	14.12
788.23	15.12
788.975	16.12
789.721	15.12
790.466	14.12
791.212	15.12
791.957	18.12
792.702	16.12
793.447	13.12
794.193	14.12
794.938	14.12
795.683	15.12
796.427	14.12
797.172	16.12
797.917	13.12
798.662	11.12
799.406	15.12
800.151	12.12
800.895	11.12
801.64	15.12
802.384	12.12
803.128	11.12
803.872	11.12
804.616	11.12
805.36	10.12
806.104	11.12
806.848	11.12
807.592	14.12
808.336	12.12
809.079	9.12
809.823	12.12
810.566	10.12
811.31	11.12
812.053	9.12
812.796	10.12
813.539	9.12
814.283	9.12
815.026	8.12
815.769	10.12
816.511	8.12
817.254	7.12
817.997	7.12
818.74	10.12
819.482	8.12
820.225	6.12
820.967	8.12
821.71	9.12
822.452	7.12
823.194	7.12
823.936	7.12
824.678	6.12
825.42	7.12
826.162	5.12
826.904	8.12
827.646	7.12
828.388	8.12
829.129	8.12
829.871	5.12
830.612	5.12
831.354	5.12
832.095	5.12
832.836	6.12
833.577	7.12
834.319	7.12
835.06	7.12
835.801	7.12
836.542	10.12
837.282	6.12
838.023	8.12
838.764	6.12
839.504	6.12
840.245	7.12
840.985	5.12
841.726	5.12
842.466	6.12
843.206	7.12
843.946	5.12
844.687	3.12
845.427	5.12
846.166	6.12
846.906	6.12
847.646	5.12
848.386	7.12
849.125	5.12
849.865	3.12
850.605	6.12
851.344	5.12
852.083	4.12
852.823	7.12
853.562	4.12
854.301	6.12
855.04	2.12
855.779	7.12
856.518	4.12
857.257	7.12
857.995	5.12
858.734	3.12
859.473	5.12
860.211	4.12
860.95	3.12
861.688	4.12
862.426	4.12
863.165	4.12
863.903	2.12
864.641	3.12
865.379	0.12
866.117	0.12
866.855	6.12
867.593	3.12
868.33	4.12
869.068	3.12
869.806	3.12
870.543	4.12
871.28	2.12
872.018	5.12
872.755	4.12
873.492	3.12
874.229	2.12
874.967	2.12
875.703	4.12
876.44	0.12
877.177	3.12
877.914	4.12
878.651	2.12
879.387	2.12
880.124	1.12
880.86	1.12
881.597	2.12
882.333	1.12
883.069	0.12
883.806	3.12
884.542	1.12
885.278	2.12
886.014	2.12
886.749	4.12
887.485	3.12
888.221	0.12
888.957	1.12
889.692	0.12
890.428	2.12
891.163	3.12
891.899	3.12
892.634	0.12
893.369	0.12
894.104	2.12
894.839	2.12
895.574	-0.88
896.309	2.12
897.044	2.12
897.779	0.12
898.514	1.12
899.248	1.12
899.983	2.12
900.717	1.12
901.452	0.12
902.186	2.12
902.92	2.12
903.654	1.12
904.389	1.12
905.123	1.12
905.857	3.12
906.59	2.12
907.324	-0.88
908.058	1.12
908.792	1.12
909.525	2.12
910.259	0.12
910.992	0.12
911.726	-0.88
912.459	1.12
913.192	-0.88
913.925	1.12
914.658	3.12
915.391	1.12
916.124	2.12
916.857	1.12
917.59	1.12
918.323	1.12
919.055	3.12
919.788	0.12
920.521	0.12
921.253	1.12
921.985	2.12
922.718	-1.88
923.45	-0.88
924.182	0.12
924.914	2.12
925.646	0.12
926.378	1.12
927.11	1.12
927.841	2.12
928.573	1.12
929.305	0.12
930.036	2.12
930.768	-0.88
931.499	2.12
932.23	1.12
932.962	1.12
933.693	2.12
934.424	0.12
935.155	2.12
935.886	0.12
936.617	2.12
937.348	0.12
938.078	1.12
938.809	1.12
939.54	0.12
940.27	3.12
941.001	1.12
941.731	1.12
942.461	1.12
943.191	-0.88
943.922	0.12
944.652	0.12
945.382	0.12
946.112	2.12
946.841	1.12
947.571	4.12
948.301	0.12
949.031	1.12
949.76	0.12
950.49	2.12
951.219	1.12
951.948	1.12
952.678	-0.88
953.407	-0.88
954.136	1.12
954.865	0.12
955.594	1.12
956.323	3.12
957.052	1.12
957.78	4.12
958.509	1.12
959.238	1.12
959.966	-0.88
960.695	-0.88
961.423	1.12
962.151	0.12
962.88	2.12
963.608	-0.88
964.336	0.12
965.064	2.12
965.792	0.12
966.52	1.12
967.247	-1.88
967.975	2.12
968.703	1.12
969.43	1.12
970.158	1.12
970.885	-0.88
971.613	1.12
972.34	-0.88
973.067	0.12
973.794	3.12
974.521	-1.88
975.248	1.12
975.975	1.12
976.702	0.12
977.429	1.12
978.156	1.12
978.882	1.12
979.609	-1.88
980.335	2.12
981.062	-1.88
981.788	2.12
982.514	0.12
983.24	-0.88
983.967	1.12
984.693	-0.88
985.419	1.12
986.144	0.12
986.87	2.12
987.596	-0.88
988.322	1.12
989.047	3.12
989.773	-0.88
990.498	1.12
991.224	1.12
991.949	1.12
992.674	1.12
993.399	2.12
994.124	2.12
994.849	1.12
995.574	4.12
996.299	2.12
997.024	0.12
997.749	0.12
998.473	-0.88
999.198	1.12
999.922	1.12
1000.647	-0.88
1001.371	3.12
1002.095	1.12
1002.82	-0.88
1003.544	-0.88
1004.268	5.12
1004.992	5.12
1005.716	5.12
1006.439	3.12
1007.163	6.12
1007.887	6.12
1008.611	0.12
1009.334	1.12
1010.058	0.12
1010.781	0.12
1011.504	1.12
1012.228	1.12
1012.951	1.12
1013.674	-0.88
1014.397	-1.88
1015.12	-0.88
