节点500_705_QEPB04081__504__20-53-02-773.txt的数据

Date: Wed Nov 12 20:53:02 CST 2025
User: PC
Spectrometer: QEPB0408
触发模式: 0
积分时间 (秒): 1.000000E-2
Scans to average: 1
启用暗噪声校正: true
启用非线性校正: false
滑动平均宽度: 0
X轴模式: Wavelengths
Number of Pixels in Spectrum: 1044
>>>>>Begin Spectral Data<<<<<
220.843	8.62
221.644	7.62
222.444	6.62
223.244	6.62
224.045	5.62
224.845	6.62
225.645	7.62
226.445	7.62
227.245	7.62
228.045	7.62
228.845	5.62
229.645	7.62
230.444	8.62
231.244	9.62
232.043	9.62
232.843	8.62
233.642	10.62
234.442	9.62
235.241	8.62
236.04	7.62
236.839	11.62
237.638	11.62
238.437	10.62
239.236	10.62
240.035	11.62
240.833	13.62
241.632	12.62
242.43	12.62
243.229	11.62
244.027	11.62
244.826	14.62
245.624	13.62
246.422	16.62
247.22	13.62
248.018	13.62
248.816	13.62
249.614	15.62
250.412	15.62
251.21	15.62
252.007	15.62
252.805	15.62
253.602	14.62
254.4	15.62
255.197	16.62
255.994	20.62
256.791	17.62
257.589	19.62
258.386	19.62
259.183	21.62
259.979	20.62
260.776	22.62
261.573	22.62
262.37	20.62
263.166	25.62
263.963	22.62
264.759	22.62
265.556	25.62
266.352	25.62
267.148	25.62
267.944	26.62
268.74	27.62
269.536	30.62
270.332	28.62
271.128	29.62
271.924	33.62
272.719	29.62
273.515	30.62
274.311	28.62
275.106	32.62
275.901	31.62
276.697	30.62
277.492	29.62
278.287	32.62
279.082	30.62
279.877	31.62
280.672	37.62
281.467	32.62
282.262	31.62
283.056	32.62
283.851	32.62
284.646	34.62
285.44	31.62
286.234	31.62
287.029	33.62
287.823	31.62
288.617	33.62
289.411	30.62
290.205	31.62
290.999	30.62
291.793	33.62
292.587	31.62
293.381	28.62
294.174	29.62
294.968	29.62
295.761	28.62
296.555	27.62
297.348	25.62
298.141	27.62
298.935	27.62
299.728	24.62
300.521	25.62
301.314	25.62
302.107	23.62
302.899	23.62
303.692	23.62
304.485	21.62
305.277	25.62
306.07	22.62
306.862	24.62
307.655	21.62
308.447	23.62
309.239	23.62
310.031	22.62
310.823	19.62
311.615	16.62
312.407	20.62
313.199	18.62
313.991	16.62
314.783	17.62
315.574	18.62
316.366	13.62
317.157	14.62
317.949	15.62
318.74	15.62
319.531	17.62
320.322	15.62
321.113	15.62
321.904	14.62
322.695	14.62
323.486	14.62
324.277	12.62
325.068	15.62
325.858	15.62
326.649	10.62
327.439	13.62
328.23	14.62
329.02	11.62
329.81	11.62
330.6	14.62
331.391	10.62
332.181	11.62
332.971	13.62
333.76	13.62
334.55	10.62
335.34	15.62
336.13	11.62
336.919	11.62
337.709	13.62
338.498	11.62
339.287	12.62
340.077	13.62
340.866	14.62
341.655	14.62
342.444	14.62
343.233	12.62
344.022	11.62
344.811	11.62
345.6	11.62
346.388	12.62
347.177	9.62
347.965	11.62
348.754	13.62
349.542	9.62
350.33	10.62
351.119	12.62
351.907	9.62
352.695	10.62
353.483	8.62
354.271	11.62
355.059	11.62
355.846	11.62
356.634	13.62
357.422	9.62
358.209	11.62
358.997	10.62
359.784	10.62
360.571	9.62
361.359	9.62
362.146	10.62
362.933	11.62
363.72	11.62
364.507	8.62
365.294	9.62
366.081	12.62
366.867	10.62
367.654	10.62
368.44	9.62
369.227	10.62
370.013	11.62
370.8	10.62
371.586	11.62
372.372	8.62
373.158	11.62
373.944	9.62
374.73	7.62
375.516	8.62
376.302	10.62
377.088	9.62
377.873	12.62
378.659	9.62
379.445	8.62
380.23	12.62
381.015	12.62
381.801	8.62
382.586	10.62
383.371	8.62
384.156	9.62
384.941	11.62
385.726	11.62
386.511	10.62
387.296	11.62
388.08	11.62
388.865	9.62
389.649	9.62
390.434	12.62
391.218	11.62
392.003	11.62
392.787	9.62
393.571	11.62
394.355	11.62
395.139	7.62
395.923	11.62
396.707	13.62
397.491	12.62
398.274	13.62
399.058	12.62
399.842	14.62
400.625	12.62
401.408	13.62
402.192	14.62
402.975	13.62
403.758	15.62
404.541	14.62
405.324	16.62
406.107	15.62
406.89	16.62
407.673	19.62
408.456	17.62
409.238	16.62
410.021	15.62
410.803	15.62
411.586	17.62
412.368	15.62
413.151	15.62
413.933	19.62
414.715	17.62
415.497	19.62
416.279	19.62
417.061	20.62
417.843	18.62
418.624	20.62
419.406	17.62
420.188	20.62
420.969	17.62
421.751	19.62
422.532	22.62
423.313	24.62
424.095	23.62
424.876	24.62
425.657	25.62
426.438	23.62
427.219	28.62
428	29.62
428.78	27.62
429.561	27.62
430.342	29.62
431.122	31.62
431.903	34.62
432.683	35.62
433.464	36.62
434.244	37.62
435.024	39.62
435.804	41.62
436.584	43.62
437.364	41.62
438.144	47.62
438.924	55.62
439.704	56.62
440.483	59.62
441.263	59.62
442.042	71.62
442.822	71.62
443.601	74.62
444.38	85.62
445.16	89.62
445.939	98.62
446.718	114.62
447.497	117.62
448.276	127.62
449.054	136.62
449.833	153.62
450.612	174.62
451.391	188.62
452.169	199.62
452.948	231.62
453.726	252.62
454.504	277.62
455.282	309.62
456.061	351.62
456.839	381.62
457.617	429.62
458.395	477.62
459.172	536.62
459.95	602.62
460.728	670.62
461.506	739.62
462.283	827.62
463.061	918.62
463.838	1009.62
464.615	1116.62
465.393	1249.62
466.17	1378.62
466.947	1522.62
467.724	1687.62
468.501	1877.62
469.278	2058.62
470.055	2261.62
470.831	2508.62
471.608	2755.62
472.385	3034.62
473.161	3326.62
473.938	3634.62
474.714	3978.62
475.49	4366.62
476.266	4762.62
477.043	5192.62
477.819	5662.62
478.595	6178.62
479.371	6699.62
480.146	7277.62
480.922	7938.62
481.698	8584.62
482.473	9326.62
483.249	10116.62
484.024	10940.62
484.8	11841.62
485.575	12776.62
486.35	13784.62
487.126	14941.62
487.901	16098.62
488.676	17270.62
489.451	18602.62
490.225	19978.62
491	21475.62
491.775	22929.62
492.55	24386.62
493.324	26001.62
494.099	27649.62
494.873	29276.62
495.647	30898.62
496.422	32565.62
497.196	34220.62
497.97	35739.62
498.744	37293.62
499.518	38850.62
500.292	40199.62
501.066	41285.62
501.839	42308.62
502.613	43213.62
503.387	43859.62
504.16	44464.62
504.934	44755.62
505.707	44953.62
506.48	44702.62
507.253	44509.62
508.027	44118.62
508.8	43426.62
509.573	42533.62
510.346	41669.62
511.118	40864.62
511.891	39709.62
512.664	38389.62
513.437	37059.62
514.209	35821.62
514.982	34562.62
515.754	33154.62
516.526	31948.62
517.298	30660.62
518.071	29564.62
518.843	28356.62
519.615	27249.62
520.387	26116.62
521.159	25145.62
521.93	24052.62
522.702	23071.62
523.474	22136.62
524.245	21246.62
525.017	20326.62
525.788	19562.62
526.56	18669.62
527.331	17911.62
528.102	17017.62
528.873	16149.62
529.644	15416.62
530.415	14739.62
531.186	14048.62
531.957	13315.62
532.728	12663.62
533.498	12060.62
534.269	11386.62
535.039	10814.62
535.81	10184.62
536.58	9688.62
537.351	9165.62
538.121	8692.62
538.891	8203.62
539.661	7811.62
540.431	7342.62
541.201	6994.62
541.971	6614.62
542.741	6257.62
543.51	5957.62
544.28	5638.62
545.05	5404.62
545.819	5149.62
546.588	4909.62
547.358	4683.62
548.127	4459.62
548.896	4222.62
549.665	4025.62
550.434	3806.62
551.203	3599.62
551.972	3386.62
552.741	3246.62
553.51	3067.62
554.278	2885.62
555.047	2750.62
555.815	2609.62
556.584	2452.62
557.352	2312.62
558.121	2202.62
558.889	2084.62
559.657	1961.62
560.425	1847.62
561.193	1752.62
561.961	1665.62
562.729	1567.62
563.496	1488.62
564.264	1399.62
565.032	1318.62
565.799	1261.62
566.567	1186.62
567.334	1129.62
568.101	1052.62
568.869	1000.62
569.636	948.62
570.403	909.62
571.17	845.62
571.937	787.62
572.704	759.62
573.471	723.62
574.237	670.62
575.004	622.62
575.771	603.62
576.537	569.62
577.303	529.62
578.07	499.62
578.836	467.62
579.602	452.62
580.368	429.62
581.134	402.62
581.9	386.62
582.666	368.62
583.432	344.62
584.198	324.62
584.964	316.62
585.729	295.62
586.495	279.62
587.26	272.62
588.025	250.62
588.791	238.62
589.556	230.62
590.321	221.62
591.086	207.62
591.851	195.62
592.616	188.62
593.381	177.62
594.146	167.62
594.911	168.62
595.675	154.62
596.44	149.62
597.204	138.62
597.969	135.62
598.733	133.62
599.497	122.62
600.261	116.62
601.025	118.62
601.79	110.62
602.553	104.62
603.317	103.62
604.081	96.62
604.845	89.62
605.609	88.62
606.372	83.62
607.136	83.62
607.899	73.62
608.662	74.62
609.426	76.62
610.189	66.62
610.952	65.62
611.715	63.62
612.478	61.62
613.241	58.62
614.004	59.62
614.767	57.62
615.529	50.62
616.292	52.62
617.055	47.62
617.817	50.62
618.579	47.62
619.342	46.62
620.104	40.62
620.866	43.62
621.628	41.62
622.39	38.62
623.152	38.62
623.914	36.62
624.676	39.62
625.438	36.62
626.199	35.62
626.961	36.62
627.722	31.62
628.484	32.62
629.245	30.62
630.006	29.62
630.768	27.62
631.529	26.62
632.29	27.62
633.051	26.62
633.812	28.62
634.573	27.62
635.333	21.62
636.094	24.62
636.855	20.62
637.615	24.62
638.376	23.62
639.136	21.62
639.896	22.62
640.657	20.62
641.417	21.62
642.177	18.62
642.937	19.62
643.697	19.62
644.457	15.62
645.216	19.62
645.976	17.62
646.736	18.62
647.495	16.62
648.255	18.62
649.014	17.62
649.774	14.62
650.533	12.62
651.292	15.62
652.051	13.62
652.81	14.62
653.569	14.62
654.328	15.62
655.087	11.62
655.846	12.62
656.604	15.62
657.363	11.62
658.121	13.62
658.88	12.62
659.638	15.62
660.397	11.62
661.155	10.62
661.913	12.62
662.671	11.62
663.429	11.62
664.187	10.62
664.945	12.62
665.703	9.62
666.46	8.62
667.218	11.62
667.976	8.62
668.733	8.62
669.49	11.62
670.248	10.62
671.005	11.62
671.762	10.62
672.519	10.62
673.276	8.62
674.033	9.62
674.79	10.62
675.547	9.62
676.304	7.62
677.06	9.62
677.817	7.62
678.574	6.62
679.33	8.62
680.086	8.62
680.843	6.62
681.599	8.62
682.355	8.62
683.111	9.62
683.867	8.62
684.623	9.62
685.379	8.62
686.135	10.62
686.89	10.62
687.646	6.62
688.402	7.62
689.157	6.62
689.912	7.62
690.668	7.62
691.423	7.62
692.178	9.62
692.933	6.62
693.688	8.62
694.443	7.62
695.198	7.62
695.953	6.62
696.708	9.62
697.462	8.62
698.217	7.62
698.972	9.62
699.726	9.62
700.48	8.62
701.235	9.62
701.989	8.62
702.743	6.62
703.497	7.62
704.251	6.62
705.005	7.62
705.759	7.62
706.513	7.62
707.266	8.62
708.02	8.62
708.774	7.62
709.527	6.62
710.28	8.62
711.034	6.62
711.787	9.62
712.54	9.62
713.293	9.62
714.046	8.62
714.799	9.62
715.552	8.62
716.305	9.62
717.058	8.62
717.81	7.62
718.563	6.62
719.315	8.62
720.068	8.62
720.82	9.62
721.573	8.62
722.325	7.62
723.077	7.62
723.829	8.62
724.581	8.62
725.333	9.62
726.085	8.62
726.836	9.62
727.588	6.62
728.34	9.62
729.091	8.62
729.843	10.62
730.594	10.62
731.346	8.62
732.097	9.62
732.848	9.62
733.599	8.62
734.35	9.62
735.101	8.62
735.852	9.62
736.603	9.62
737.354	12.62
738.104	9.62
738.855	10.62
739.605	11.62
740.356	11.62
741.106	8.62
741.856	7.62
742.607	10.62
743.357	10.62
744.107	9.62
744.857	12.62
745.607	10.62
746.357	9.62
747.106	12.62
747.856	12.62
748.606	10.62
749.355	11.62
750.105	10.62
750.854	10.62
751.603	11.62
752.353	12.62
753.102	11.62
753.851	13.62
754.6	11.62
755.349	12.62
756.098	10.62
756.847	12.62
757.595	9.62
758.344	11.62
759.093	11.62
759.841	10.62
760.589	8.62
761.338	10.62
762.086	11.62
762.834	13.62
763.582	12.62
764.331	14.62
765.079	13.62
765.826	12.62
766.574	10.62
767.322	14.62
768.07	16.62
768.817	17.62
769.565	17.62
770.312	13.62
771.06	14.62
771.807	14.62
772.554	15.62
773.302	13.62
774.049	15.62
774.796	14.62
775.543	13.62
776.29	17.62
777.036	15.62
777.783	18.62
778.53	14.62
779.276	12.62
780.023	14.62
780.769	15.62
781.516	15.62
782.262	14.62
783.008	16.62
783.754	16.62
784.5	14.62
785.246	15.62
785.992	13.62
786.738	16.62
787.484	15.62
788.23	13.62
788.975	13.62
789.721	16.62
790.466	13.62
791.212	16.62
791.957	13.62
792.702	14.62
793.447	14.62
794.193	11.62
794.938	13.62
795.683	14.62
796.427	12.62
797.172	14.62
797.917	15.62
798.662	11.62
799.406	15.62
800.151	14.62
800.895	13.62
801.64	13.62
802.384	11.62
803.128	13.62
803.872	8.62
804.616	12.62
805.36	11.62
806.104	13.62
806.848	13.62
807.592	10.62
808.336	9.62
809.079	9.62
809.823	10.62
810.566	11.62
811.31	9.62
812.053	8.62
812.796	8.62
813.539	9.62
814.283	9.62
815.026	9.62
815.769	10.62
816.511	10.62
817.254	12.62
817.997	8.62
818.74	10.62
819.482	9.62
820.225	7.62
820.967	8.62
821.71	9.62
822.452	9.62
823.194	5.62
823.936	6.62
824.678	7.62
825.42	8.62
826.162	7.62
826.904	6.62
827.646	8.62
828.388	5.62
829.129	8.62
829.871	4.62
830.612	7.62
831.354	9.62
832.095	5.62
832.836	4.62
833.577	7.62
834.319	6.62
835.06	9.62
835.801	6.62
836.542	7.62
837.282	5.62
838.023	8.62
838.764	7.62
839.504	5.62
840.245	4.62
840.985	5.62
841.726	6.62
842.466	7.62
843.206	8.62
843.946	6.62
844.687	5.62
845.427	5.62
846.166	2.62
846.906	4.62
847.646	4.62
848.386	4.62
849.125	7.62
849.865	4.62
850.605	5.62
851.344	5.62
852.083	5.62
852.823	3.62
853.562	3.62
854.301	4.62
855.04	3.62
855.779	6.62
856.518	3.62
857.257	3.62
857.995	4.62
858.734	2.62
859.473	4.62
860.211	4.62
860.95	5.62
861.688	3.62
862.426	4.62
863.165	5.62
863.903	2.62
864.641	5.62
865.379	2.62
866.117	3.62
866.855	3.62
867.593	5.62
868.33	5.62
869.068	3.62
869.806	2.62
870.543	2.62
871.28	3.62
872.018	5.62
872.755	4.62
873.492	3.62
874.229	1.62
874.967	4.62
875.703	3.62
876.44	1.62
877.177	3.62
877.914	1.62
878.651	3.62
879.387	2.62
880.124	4.62
880.86	3.62
881.597	2.62
882.333	2.62
883.069	1.62
883.806	1.62
884.542	1.62
885.278	0.62
886.014	1.62
886.749	3.62
887.485	3.62
888.221	0.62
888.957	3.62
889.692	-0.38
890.428	3.62
891.163	0.62
891.899	2.62
892.634	0.62
893.369	3.62
894.104	2.62
894.839	2.62
895.574	0.62
896.309	2.62
897.044	1.62
897.779	1.62
898.514	0.62
899.248	1.62
899.983	2.62
900.717	0.62
901.452	2.62
902.186	0.62
902.92	0.62
903.654	2.62
904.389	1.62
905.123	2.62
905.857	-0.38
906.59	1.62
907.324	0.62
908.058	2.62
908.792	3.62
909.525	0.62
910.259	4.62
910.992	2.62
911.726	0.62
912.459	1.62
913.192	-0.38
913.925	1.62
914.658	-0.38
915.391	-0.38
916.124	1.62
916.857	2.62
917.59	0.62
918.323	1.62
919.055	2.62
919.788	0.62
920.521	2.62
921.253	2.62
921.985	0.62
922.718	2.62
923.45	1.62
924.182	2.62
924.914	0.62
925.646	1.62
926.378	0.62
927.11	1.62
927.841	2.62
928.573	1.62
929.305	0.62
930.036	-0.38
930.768	-0.38
931.499	1.62
932.23	0.62
932.962	0.62
933.693	0.62
934.424	1.62
935.155	0.62
935.886	0.62
936.617	-2.38
937.348	-2.38
938.078	1.62
938.809	0.62
939.54	-0.38
940.27	-0.38
941.001	-0.38
941.731	1.62
942.461	3.62
943.191	1.62
943.922	0.62
944.652	-0.38
945.382	-2.38
946.112	1.62
946.841	0.62
947.571	-0.38
948.301	2.62
949.031	1.62
949.76	-0.38
950.49	2.62
951.219	2.62
951.948	0.62
952.678	-0.38
953.407	-0.38
954.136	0.62
954.865	2.62
955.594	-0.38
956.323	-0.38
957.052	-1.38
957.78	0.62
958.509	-2.38
959.238	-0.38
959.966	1.62
960.695	0.62
961.423	1.62
962.151	2.62
962.88	-0.38
963.608	1.62
964.336	2.62
965.064	0.62
965.792	-0.38
966.52	1.62
967.247	0.62
967.975	0.62
968.703	0.62
969.43	1.62
970.158	0.62
970.885	2.62
971.613	1.62
972.34	0.62
973.067	3.62
973.794	0.62
974.521	0.62
975.248	0.62
975.975	-0.38
976.702	1.62
977.429	1.62
978.156	-0.38
978.882	0.62
979.609	0.62
980.335	0.62
981.062	1.62
981.788	3.62
982.514	1.62
983.24	0.62
983.967	2.62
984.693	-0.38
985.419	0.62
986.144	1.62
986.87	1.62
987.596	0.62
988.322	1.62
989.047	2.62
989.773	3.62
990.498	1.62
991.224	0.62
991.949	1.62
992.674	-0.38
993.399	2.62
994.124	1.62
994.849	-0.38
995.574	2.62
996.299	1.62
997.024	0.62
997.749	1.62
998.473	0.62
999.198	1.62
999.922	0.62
1000.647	1.62
1001.371	3.62
1002.095	-1.38
1002.82	-0.38
1003.544	-2.38
1004.268	4.62
1004.992	3.62
1005.716	6.62
1006.439	7.62
1007.163	6.62
1007.887	4.62
1008.611	0.62
1009.334	0.62
1010.058	-0.38
1010.781	0.62
1011.504	1.62
1012.228	1.62
1012.951	-0.38
1013.674	0.62
1014.397	-0.38
1015.12	0.62
