节点500_705_QEPB04081__662__20-55-20-803.txt的数据

Date: Wed Nov 12 20:55:20 CST 2025
User: PC
Spectrometer: QEPB0408
触发模式: 0
积分时间 (秒): 1.000000E-2
Scans to average: 1
启用暗噪声校正: true
启用非线性校正: false
滑动平均宽度: 0
X轴模式: Wavelengths
Number of Pixels in Spectrum: 1044
>>>>>Begin Spectral Data<<<<<
220.843	6.88
221.644	4.88
222.444	5.88
223.244	3.88
224.045	4.88
224.845	5.88
225.645	7.88
226.445	4.88
227.245	8.88
228.045	6.88
228.845	6.88
229.645	6.88
230.444	8.88
231.244	7.88
232.043	8.88
232.843	9.88
233.642	9.88
234.442	12.88
235.241	8.88
236.04	7.88
236.839	7.88
237.638	10.88
238.437	10.88
239.236	11.88
240.035	10.88
240.833	10.88
241.632	9.88
242.43	12.88
243.229	10.88
244.027	11.88
244.826	10.88
245.624	14.88
246.422	10.88
247.22	10.88
248.018	12.88
248.816	11.88
249.614	13.88
250.412	10.88
251.21	13.88
252.007	13.88
252.805	14.88
253.602	15.88
254.4	15.88
255.197	17.88
255.994	15.88
256.791	16.88
257.589	14.88
258.386	14.88
259.183	17.88
259.979	19.88
260.776	17.88
261.573	17.88
262.37	23.88
263.166	20.88
263.963	20.88
264.759	22.88
265.556	23.88
266.352	22.88
267.148	23.88
267.944	25.88
268.74	24.88
269.536	25.88
270.332	26.88
271.128	28.88
271.924	27.88
272.719	26.88
273.515	26.88
274.311	27.88
275.106	30.88
275.901	32.88
276.697	28.88
277.492	28.88
278.287	30.88
279.082	29.88
279.877	30.88
280.672	29.88
281.467	31.88
282.262	32.88
283.056	32.88
283.851	32.88
284.646	30.88
285.44	29.88
286.234	32.88
287.029	30.88
287.823	29.88
288.617	30.88
289.411	30.88
290.205	29.88
290.999	30.88
291.793	28.88
292.587	26.88
293.381	32.88
294.174	25.88
294.968	27.88
295.761	24.88
296.555	23.88
297.348	24.88
298.141	25.88
298.935	25.88
299.728	25.88
300.521	25.88
301.314	21.88
302.107	22.88
302.899	23.88
303.692	21.88
304.485	20.88
305.277	19.88
306.07	21.88
306.862	22.88
307.655	22.88
308.447	19.88
309.239	20.88
310.031	17.88
310.823	14.88
311.615	15.88
312.407	15.88
313.199	17.88
313.991	18.88
314.783	15.88
315.574	17.88
316.366	15.88
317.157	13.88
317.949	15.88
318.74	13.88
319.531	12.88
320.322	13.88
321.113	14.88
321.904	12.88
322.695	11.88
323.486	12.88
324.277	9.88
325.068	13.88
325.858	14.88
326.649	10.88
327.439	11.88
328.23	12.88
329.02	12.88
329.81	10.88
330.6	9.88
331.391	12.88
332.181	14.88
332.971	13.88
333.76	10.88
334.55	12.88
335.34	14.88
336.13	10.88
336.919	12.88
337.709	10.88
338.498	10.88
339.287	11.88
340.077	11.88
340.866	11.88
341.655	11.88
342.444	10.88
343.233	11.88
344.022	13.88
344.811	10.88
345.6	10.88
346.388	10.88
347.177	12.88
347.965	11.88
348.754	6.88
349.542	9.88
350.33	9.88
351.119	10.88
351.907	11.88
352.695	9.88
353.483	9.88
354.271	9.88
355.059	11.88
355.846	8.88
356.634	10.88
357.422	9.88
358.209	7.88
358.997	8.88
359.784	9.88
360.571	8.88
361.359	9.88
362.146	10.88
362.933	8.88
363.72	8.88
364.507	11.88
365.294	9.88
366.081	8.88
366.867	7.88
367.654	8.88
368.44	6.88
369.227	7.88
370.013	9.88
370.8	8.88
371.586	6.88
372.372	8.88
373.158	7.88
373.944	7.88
374.73	7.88
375.516	9.88
376.302	8.88
377.088	9.88
377.873	8.88
378.659	8.88
379.445	10.88
380.23	7.88
381.015	9.88
381.801	9.88
382.586	8.88
383.371	9.88
384.156	9.88
384.941	10.88
385.726	10.88
386.511	8.88
387.296	12.88
388.08	12.88
388.865	9.88
389.649	8.88
390.434	8.88
391.218	12.88
392.003	11.88
392.787	11.88
393.571	11.88
394.355	11.88
395.139	9.88
395.923	11.88
396.707	11.88
397.491	11.88
398.274	11.88
399.058	12.88
399.842	10.88
400.625	14.88
401.408	12.88
402.192	13.88
402.975	9.88
403.758	12.88
404.541	13.88
405.324	13.88
406.107	12.88
406.89	13.88
407.673	13.88
408.456	14.88
409.238	13.88
410.021	14.88
410.803	14.88
411.586	15.88
412.368	16.88
413.151	14.88
413.933	16.88
414.715	14.88
415.497	15.88
416.279	16.88
417.061	17.88
417.843	19.88
418.624	18.88
419.406	19.88
420.188	17.88
420.969	20.88
421.751	21.88
422.532	21.88
423.313	23.88
424.095	22.88
424.876	23.88
425.657	24.88
426.438	21.88
427.219	23.88
428	26.88
428.78	24.88
429.561	28.88
430.342	27.88
431.122	32.88
431.903	30.88
432.683	32.88
433.464	35.88
434.244	34.88
435.024	41.88
435.804	40.88
436.584	44.88
437.364	45.88
438.144	45.88
438.924	51.88
439.704	53.88
440.483	57.88
441.263	59.88
442.042	67.88
442.822	73.88
443.601	75.88
444.38	86.88
445.16	89.88
445.939	94.88
446.718	114.88
447.497	114.88
448.276	131.88
449.054	145.88
449.833	154.88
450.612	177.88
451.391	189.88
452.169	211.88
452.948	234.88
453.726	260.88
454.504	292.88
455.282	322.88
456.061	357.88
456.839	390.88
457.617	438.88
458.395	485.88
459.172	535.88
459.95	611.88
460.728	666.88
461.506	756.88
462.283	836.88
463.061	921.88
463.838	1027.88
464.615	1133.88
465.393	1250.88
466.17	1373.88
466.947	1541.88
467.724	1702.88
468.501	1877.88
469.278	2062.88
470.055	2283.88
470.831	2523.88
471.608	2757.88
472.385	3026.88
473.161	3321.88
473.938	3624.88
474.714	3948.88
475.49	4321.88
476.266	4695.88
477.043	5112.88
477.819	5582.88
478.595	6059.88
479.371	6591.88
480.146	7148.88
480.922	7748.88
481.698	8427.88
482.473	9115.88
483.249	9882.88
484.024	10648.88
484.8	11472.88
485.575	12340.88
486.35	13381.88
487.126	14412.88
487.901	15468.88
488.676	16628.88
489.451	17924.88
490.225	19169.88
491	20547.88
491.775	21875.88
492.55	23380.88
493.324	24884.88
494.099	26369.88
494.873	27952.88
495.647	29544.88
496.422	31073.88
497.196	32730.88
497.97	34223.88
498.744	35705.88
499.518	37268.88
500.292	38618.88
501.066	39722.88
501.839	40658.88
502.613	41559.88
503.387	42403.88
504.16	43053.88
504.934	43412.88
505.707	43635.88
506.48	43499.88
507.253	43405.88
508.027	43152.88
508.8	42595.88
509.573	41835.88
510.346	41207.88
511.118	40451.88
511.891	39457.88
512.664	38227.88
513.437	36900.88
514.209	35763.88
514.982	34441.88
515.754	33238.88
516.526	31960.88
517.298	30717.88
518.071	29678.88
518.843	28524.88
519.615	27320.88
520.387	26187.88
521.159	25217.88
521.93	24181.88
522.702	23282.88
523.474	22261.88
524.245	21437.88
525.017	20448.88
525.788	19664.88
526.56	18875.88
527.331	18073.88
528.102	17138.88
528.873	16373.88
529.644	15610.88
530.415	14892.88
531.186	14218.88
531.957	13566.88
532.728	12851.88
533.498	12231.88
534.269	11624.88
535.039	10978.88
535.81	10433.88
536.58	9871.88
537.351	9344.88
538.121	8884.88
538.891	8338.88
539.661	7922.88
540.431	7498.88
541.201	7164.88
541.971	6763.88
542.741	6408.88
543.51	6069.88
544.28	5801.88
545.05	5507.88
545.819	5253.88
546.588	4998.88
547.358	4760.88
548.127	4545.88
548.896	4308.88
549.665	4087.88
550.434	3906.88
551.203	3681.88
551.972	3489.88
552.741	3324.88
553.51	3136.88
554.278	2950.88
555.047	2805.88
555.815	2638.88
556.584	2509.88
557.352	2377.88
558.121	2249.88
558.889	2132.88
559.657	2020.88
560.425	1896.88
561.193	1785.88
561.961	1711.88
562.729	1614.88
563.496	1530.88
564.264	1437.88
565.032	1373.88
565.799	1282.88
566.567	1225.88
567.334	1156.88
568.101	1090.88
568.869	1022.88
569.636	965.88
570.403	920.88
571.17	865.88
571.937	817.88
572.704	772.88
573.471	736.88
574.237	689.88
575.004	646.88
575.771	604.88
576.537	579.88
577.303	543.88
578.07	518.88
578.836	486.88
579.602	456.88
580.368	436.88
581.134	411.88
581.9	392.88
582.666	373.88
583.432	362.88
584.198	336.88
584.964	324.88
585.729	304.88
586.495	286.88
587.26	269.88
588.025	258.88
588.791	246.88
589.556	232.88
590.321	222.88
591.086	208.88
591.851	197.88
592.616	189.88
593.381	180.88
594.146	172.88
594.911	168.88
595.675	156.88
596.44	152.88
597.204	143.88
597.969	139.88
598.733	130.88
599.497	126.88
600.261	117.88
601.025	116.88
601.79	108.88
602.553	102.88
603.317	103.88
604.081	95.88
604.845	93.88
605.609	90.88
606.372	87.88
607.136	83.88
607.899	77.88
608.662	72.88
609.426	72.88
610.189	71.88
610.952	65.88
611.715	65.88
612.478	62.88
613.241	61.88
614.004	58.88
614.767	57.88
615.529	52.88
616.292	51.88
617.055	51.88
617.817	46.88
618.579	46.88
619.342	45.88
620.104	46.88
620.866	39.88
621.628	41.88
622.39	37.88
623.152	35.88
623.914	39.88
624.676	34.88
625.438	34.88
626.199	35.88
626.961	30.88
627.722	28.88
628.484	30.88
629.245	27.88
630.006	28.88
630.768	29.88
631.529	25.88
632.29	22.88
633.051	26.88
633.812	25.88
634.573	24.88
635.333	23.88
636.094	22.88
636.855	22.88
637.615	21.88
638.376	19.88
639.136	20.88
639.896	21.88
640.657	19.88
641.417	18.88
642.177	19.88
642.937	20.88
643.697	18.88
644.457	20.88
645.216	17.88
645.976	17.88
646.736	14.88
647.495	15.88
648.255	11.88
649.014	17.88
649.774	12.88
650.533	14.88
651.292	13.88
652.051	14.88
652.81	13.88
653.569	10.88
654.328	11.88
655.087	12.88
655.846	8.88
656.604	12.88
657.363	12.88
658.121	12.88
658.88	8.88
659.638	13.88
660.397	12.88
661.155	13.88
661.913	13.88
662.671	11.88
663.429	11.88
664.187	12.88
664.945	10.88
665.703	10.88
666.46	8.88
667.218	9.88
667.976	9.88
668.733	8.88
669.49	10.88
670.248	7.88
671.005	9.88
671.762	9.88
672.519	9.88
673.276	9.88
674.033	7.88
674.79	5.88
675.547	8.88
676.304	6.88
677.06	7.88
677.817	9.88
678.574	8.88
679.33	6.88
680.086	7.88
680.843	6.88
681.599	6.88
682.355	8.88
683.111	7.88
683.867	8.88
684.623	5.88
685.379	9.88
686.135	7.88
686.89	8.88
687.646	6.88
688.402	5.88
689.157	7.88
689.912	5.88
690.668	8.88
691.423	8.88
692.178	8.88
692.933	9.88
693.688	6.88
694.443	7.88
695.198	6.88
695.953	6.88
696.708	7.88
697.462	5.88
698.217	5.88
698.972	6.88
699.726	6.88
700.48	5.88
701.235	6.88
701.989	4.88
702.743	7.88
703.497	7.88
704.251	5.88
705.005	6.88
705.759	5.88
706.513	8.88
707.266	9.88
708.02	5.88
708.774	4.88
709.527	5.88
710.28	6.88
711.034	4.88
711.787	4.88
712.54	7.88
713.293	7.88
714.046	7.88
714.799	4.88
715.552	7.88
716.305	5.88
717.058	6.88
717.81	8.88
718.563	5.88
719.315	5.88
720.068	6.88
720.82	8.88
721.573	6.88
722.325	4.88
723.077	6.88
723.829	3.88
724.581	8.88
725.333	5.88
726.085	7.88
726.836	9.88
727.588	9.88
728.34	7.88
729.091	6.88
729.843	7.88
730.594	8.88
731.346	8.88
732.097	7.88
732.848	6.88
733.599	7.88
734.35	8.88
735.101	6.88
735.852	7.88
736.603	8.88
737.354	7.88
738.104	7.88
738.855	9.88
739.605	7.88
740.356	6.88
741.106	10.88
741.856	8.88
742.607	10.88
743.357	8.88
744.107	9.88
744.857	10.88
745.607	10.88
746.357	8.88
747.106	11.88
747.856	7.88
748.606	8.88
749.355	12.88
750.105	10.88
750.854	9.88
751.603	9.88
752.353	8.88
753.102	8.88
753.851	10.88
754.6	9.88
755.349	10.88
756.098	9.88
756.847	11.88
757.595	9.88
758.344	11.88
759.093	9.88
759.841	11.88
760.589	10.88
761.338	12.88
762.086	10.88
762.834	14.88
763.582	12.88
764.331	10.88
765.079	10.88
765.826	10.88
766.574	13.88
767.322	13.88
768.07	14.88
768.817	11.88
769.565	11.88
770.312	13.88
771.06	14.88
771.807	12.88
772.554	14.88
773.302	14.88
774.049	13.88
774.796	12.88
775.543	13.88
776.29	15.88
777.036	11.88
777.783	15.88
778.53	11.88
779.276	13.88
780.023	14.88
780.769	13.88
781.516	16.88
782.262	12.88
783.008	14.88
783.754	11.88
784.5	12.88
785.246	13.88
785.992	11.88
786.738	15.88
787.484	13.88
788.23	15.88
788.975	14.88
789.721	14.88
790.466	13.88
791.212	14.88
791.957	12.88
792.702	13.88
793.447	13.88
794.193	14.88
794.938	11.88
795.683	13.88
796.427	11.88
797.172	11.88
797.917	9.88
798.662	10.88
799.406	12.88
800.151	10.88
800.895	9.88
801.64	12.88
802.384	9.88
803.128	12.88
803.872	9.88
804.616	11.88
805.36	11.88
806.104	10.88
806.848	9.88
807.592	11.88
808.336	10.88
809.079	11.88
809.823	6.88
810.566	10.88
811.31	9.88
812.053	9.88
812.796	5.88
813.539	10.88
814.283	7.88
815.026	8.88
815.769	8.88
816.511	6.88
817.254	7.88
817.997	8.88
818.74	8.88
819.482	7.88
820.225	6.88
820.967	8.88
821.71	6.88
822.452	7.88
823.194	5.88
823.936	5.88
824.678	8.88
825.42	4.88
826.162	8.88
826.904	5.88
827.646	5.88
828.388	5.88
829.129	5.88
829.871	4.88
830.612	1.88
831.354	4.88
832.095	5.88
832.836	7.88
833.577	6.88
834.319	5.88
835.06	5.88
835.801	9.88
836.542	8.88
837.282	4.88
838.023	7.88
838.764	7.88
839.504	6.88
840.245	6.88
840.985	4.88
841.726	5.88
842.466	5.88
843.206	3.88
843.946	5.88
844.687	2.88
845.427	6.88
846.166	2.88
846.906	7.88
847.646	5.88
848.386	3.88
849.125	4.88
849.865	3.88
850.605	5.88
851.344	3.88
852.083	4.88
852.823	2.88
853.562	2.88
854.301	5.88
855.04	4.88
855.779	4.88
856.518	4.88
857.257	3.88
857.995	5.88
858.734	1.88
859.473	1.88
860.211	4.88
860.95	3.88
861.688	3.88
862.426	3.88
863.165	3.88
863.903	4.88
864.641	4.88
865.379	1.88
866.117	1.88
866.855	2.88
867.593	0.88
868.33	0.88
869.068	2.88
869.806	4.88
870.543	0.88
871.28	2.88
872.018	1.88
872.755	1.88
873.492	3.88
874.229	2.88
874.967	-0.12
875.703	3.88
876.44	1.88
877.177	1.88
877.914	2.88
878.651	2.88
879.387	2.88
880.124	1.88
880.86	0.88
881.597	1.88
882.333	0.88
883.069	1.88
883.806	1.88
884.542	0.88
885.278	1.88
886.014	-1.12
886.749	1.88
887.485	3.88
888.221	0.88
888.957	2.88
889.692	2.88
890.428	2.88
891.163	0.88
891.899	1.88
892.634	0.88
893.369	2.88
894.104	0.88
894.839	1.88
895.574	0.88
896.309	1.88
897.044	1.88
897.779	1.88
898.514	-0.12
899.248	-0.12
899.983	2.88
900.717	-0.12
901.452	3.88
902.186	-0.12
902.92	0.88
903.654	0.88
904.389	-0.12
905.123	0.88
905.857	1.88
906.59	0.88
907.324	2.88
908.058	-0.12
908.792	-0.12
909.525	-0.12
910.259	-0.12
910.992	-0.12
911.726	0.88
912.459	-1.12
913.192	1.88
913.925	2.88
914.658	-1.12
915.391	0.88
916.124	3.88
916.857	-0.12
917.59	2.88
918.323	-2.12
919.055	0.88
919.788	1.88
920.521	0.88
921.253	0.88
921.985	2.88
922.718	0.88
923.45	-1.12
924.182	0.88
924.914	-0.12
925.646	-1.12
926.378	0.88
927.11	-0.12
927.841	-0.12
928.573	0.88
929.305	-0.12
930.036	-0.12
930.768	1.88
931.499	-0.12
932.23	-0.12
932.962	2.88
933.693	0.88
934.424	-0.12
935.155	2.88
935.886	-0.12
936.617	-0.12
937.348	-1.12
938.078	0.88
938.809	0.88
939.54	2.88
940.27	-0.12
941.001	-0.12
941.731	2.88
942.461	-1.12
943.191	0.88
943.922	-0.12
944.652	-2.12
945.382	-0.12
946.112	0.88
946.841	-1.12
947.571	-0.12
948.301	-0.12
949.031	-1.12
949.76	1.88
950.49	-0.12
951.219	-0.12
951.948	-0.12
952.678	-0.12
953.407	-1.12
954.136	0.88
954.865	-1.12
955.594	-1.12
956.323	-1.12
957.052	0.88
957.78	-1.12
958.509	-2.12
959.238	-0.12
959.966	0.88
960.695	1.88
961.423	-0.12
962.151	-0.12
962.88	0.88
963.608	1.88
964.336	1.88
965.064	-1.12
965.792	-1.12
966.52	-1.12
967.247	-1.12
967.975	1.88
968.703	-0.12
969.43	-0.12
970.158	1.88
970.885	-1.12
971.613	0.88
972.34	-0.12
973.067	3.88
973.794	-1.12
974.521	0.88
975.248	0.88
975.975	-0.12
976.702	0.88
977.429	-1.12
978.156	0.88
978.882	-1.12
979.609	-1.12
980.335	-0.12
981.062	-1.12
981.788	0.88
982.514	-1.12
983.24	1.88
983.967	-0.12
984.693	2.88
985.419	-0.12
986.144	-1.12
986.87	-1.12
987.596	-0.12
988.322	1.88
989.047	-0.12
989.773	0.88
990.498	0.88
991.224	-1.12
991.949	0.88
992.674	-0.12
993.399	-0.12
994.124	-1.12
994.849	-0.12
995.574	-1.12
996.299	-1.12
997.024	0.88
997.749	-1.12
998.473	-2.12
999.198	0.88
999.922	0.88
1000.647	-0.12
1001.371	1.88
1002.095	-1.12
1002.82	-2.12
1003.544	-0.12
1004.268	2.88
1004.992	4.88
1005.716	4.88
1006.439	5.88
1007.163	2.88
1007.887	5.88
1008.611	-0.12
1009.334	1.88
1010.058	0.88
1010.781	1.88
1011.504	-0.12
1012.228	0.88
1012.951	0.88
1013.674	-0.12
1014.397	1.88
1015.12	-1.12
