节点500_705_QEPB04081__228__20-49-09-465.txt的数据

Date: Wed Nov 12 20:49:09 CST 2025
User: PC
Spectrometer: QEPB0408
触发模式: 0
积分时间 (秒): 1.000000E-2
Scans to average: 1
启用暗噪声校正: true
启用非线性校正: false
滑动平均宽度: 0
X轴模式: Wavelengths
Number of Pixels in Spectrum: 1044
>>>>>Begin Spectral Data<<<<<
220.843	5.38
221.644	4.38
222.444	7.38
223.244	4.38
224.045	5.38
224.845	4.38
225.645	4.38
226.445	6.38
227.245	10.38
228.045	5.38
228.845	8.38
229.645	8.38
230.444	7.38
231.244	9.38
232.043	4.38
232.843	8.38
233.642	10.38
234.442	11.38
235.241	8.38
236.04	10.38
236.839	10.38
237.638	9.38
238.437	9.38
239.236	10.38
240.035	10.38
240.833	12.38
241.632	10.38
242.43	12.38
243.229	13.38
244.027	10.38
244.826	14.38
245.624	14.38
246.422	15.38
247.22	14.38
248.018	15.38
248.816	15.38
249.614	15.38
250.412	14.38
251.21	16.38
252.007	16.38
252.805	15.38
253.602	19.38
254.4	15.38
255.197	20.38
255.994	19.38
256.791	20.38
257.589	21.38
258.386	21.38
259.183	20.38
259.979	21.38
260.776	22.38
261.573	23.38
262.37	24.38
263.166	25.38
263.963	26.38
264.759	26.38
265.556	27.38
266.352	29.38
267.148	28.38
267.944	31.38
268.74	29.38
269.536	30.38
270.332	29.38
271.128	35.38
271.924	29.38
272.719	32.38
273.515	31.38
274.311	29.38
275.106	32.38
275.901	34.38
276.697	33.38
277.492	34.38
278.287	33.38
279.082	37.38
279.877	34.38
280.672	34.38
281.467	32.38
282.262	32.38
283.056	34.38
283.851	34.38
284.646	32.38
285.44	34.38
286.234	35.38
287.029	32.38
287.823	35.38
288.617	30.38
289.411	30.38
290.205	31.38
290.999	33.38
291.793	30.38
292.587	30.38
293.381	31.38
294.174	29.38
294.968	28.38
295.761	28.38
296.555	26.38
297.348	30.38
298.141	27.38
298.935	27.38
299.728	25.38
300.521	22.38
301.314	25.38
302.107	23.38
302.899	23.38
303.692	22.38
304.485	19.38
305.277	23.38
306.07	22.38
306.862	21.38
307.655	22.38
308.447	19.38
309.239	20.38
310.031	21.38
310.823	18.38
311.615	17.38
312.407	17.38
313.199	17.38
313.991	17.38
314.783	19.38
315.574	12.38
316.366	14.38
317.157	14.38
317.949	14.38
318.74	11.38
319.531	11.38
320.322	12.38
321.113	12.38
321.904	11.38
322.695	14.38
323.486	10.38
324.277	14.38
325.068	13.38
325.858	13.38
326.649	13.38
327.439	10.38
328.23	13.38
329.02	13.38
329.81	10.38
330.6	11.38
331.391	11.38
332.181	12.38
332.971	11.38
333.76	11.38
334.55	10.38
335.34	14.38
336.13	10.38
336.919	10.38
337.709	13.38
338.498	12.38
339.287	11.38
340.077	10.38
340.866	9.38
341.655	12.38
342.444	11.38
343.233	13.38
344.022	12.38
344.811	13.38
345.6	10.38
346.388	12.38
347.177	12.38
347.965	9.38
348.754	8.38
349.542	9.38
350.33	10.38
351.119	10.38
351.907	11.38
352.695	11.38
353.483	10.38
354.271	10.38
355.059	11.38
355.846	9.38
356.634	11.38
357.422	12.38
358.209	7.38
358.997	8.38
359.784	12.38
360.571	10.38
361.359	7.38
362.146	14.38
362.933	8.38
363.72	9.38
364.507	10.38
365.294	6.38
366.081	10.38
366.867	8.38
367.654	8.38
368.44	9.38
369.227	9.38
370.013	9.38
370.8	10.38
371.586	7.38
372.372	11.38
373.158	8.38
373.944	11.38
374.73	8.38
375.516	10.38
376.302	9.38
377.088	9.38
377.873	8.38
378.659	8.38
379.445	11.38
380.23	10.38
381.015	8.38
381.801	9.38
382.586	8.38
383.371	10.38
384.156	12.38
384.941	9.38
385.726	12.38
386.511	11.38
387.296	11.38
388.08	8.38
388.865	10.38
389.649	10.38
390.434	10.38
391.218	10.38
392.003	11.38
392.787	10.38
393.571	11.38
394.355	12.38
395.139	8.38
395.923	12.38
396.707	12.38
397.491	13.38
398.274	13.38
399.058	12.38
399.842	11.38
400.625	12.38
401.408	12.38
402.192	12.38
402.975	15.38
403.758	12.38
404.541	14.38
405.324	14.38
406.107	14.38
406.89	15.38
407.673	16.38
408.456	13.38
409.238	19.38
410.021	13.38
410.803	15.38
411.586	17.38
412.368	17.38
413.151	16.38
413.933	17.38
414.715	19.38
415.497	20.38
416.279	18.38
417.061	21.38
417.843	17.38
418.624	21.38
419.406	20.38
420.188	15.38
420.969	20.38
421.751	21.38
422.532	24.38
423.313	22.38
424.095	22.38
424.876	24.38
425.657	23.38
426.438	27.38
427.219	24.38
428	26.38
428.78	28.38
429.561	29.38
430.342	26.38
431.122	28.38
431.903	33.38
432.683	32.38
433.464	36.38
434.244	38.38
435.024	39.38
435.804	38.38
436.584	37.38
437.364	47.38
438.144	43.38
438.924	50.38
439.704	50.38
440.483	54.38
441.263	56.38
442.042	64.38
442.822	70.38
443.601	73.38
444.38	78.38
445.16	86.38
445.939	97.38
446.718	102.38
447.497	107.38
448.276	117.38
449.054	127.38
449.833	140.38
450.612	151.38
451.391	169.38
452.169	190.38
452.948	205.38
453.726	232.38
454.504	260.38
455.282	292.38
456.061	313.38
456.839	352.38
457.617	396.38
458.395	440.38
459.172	497.38
459.95	557.38
460.728	615.38
461.506	690.38
462.283	765.38
463.061	860.38
463.838	960.38
464.615	1070.38
465.393	1190.38
466.17	1323.38
466.947	1479.38
467.724	1638.38
468.501	1824.38
469.278	2028.38
470.055	2244.38
470.831	2479.38
471.608	2752.38
472.385	3038.38
473.161	3358.38
473.938	3685.38
474.714	4055.38
475.49	4470.38
476.266	4924.38
477.043	5350.38
477.819	5864.38
478.595	6480.38
479.371	7054.38
480.146	7748.38
480.922	8446.38
481.698	9230.38
482.473	10097.38
483.249	10981.38
484.024	11971.38
484.8	12997.38
485.575	14083.38
486.35	15368.38
487.126	16639.38
487.901	17997.38
488.676	19456.38
489.451	21024.38
490.225	22580.38
491	24312.38
491.775	26005.38
492.55	27860.38
493.324	29645.38
494.099	31556.38
494.873	33365.38
495.647	35197.38
496.422	37065.38
497.196	38979.38
497.97	40616.38
498.744	42186.38
499.518	43733.38
500.292	45030.38
501.066	46070.38
501.839	46938.38
502.613	47533.38
503.387	48028.38
504.16	48427.38
504.934	48441.38
505.707	48194.38
506.48	47799.38
507.253	47126.38
508.027	46273.38
508.8	45236.38
509.573	43991.38
510.346	42846.38
511.118	41723.38
511.891	40302.38
512.664	38674.38
513.437	37258.38
514.209	35845.38
514.982	34298.38
515.754	32936.38
516.526	31533.38
517.298	30258.38
518.071	28996.38
518.843	27845.38
519.615	26762.38
520.387	25692.38
521.159	24678.38
521.93	23629.38
522.702	22620.38
523.474	21648.38
524.245	20742.38
525.017	19819.38
525.788	18940.38
526.56	18107.38
527.331	17317.38
528.102	16414.38
528.873	15598.38
529.644	14797.38
530.415	14126.38
531.186	13461.38
531.957	12709.38
532.728	12050.38
533.498	11396.38
534.269	10773.38
535.039	10223.38
535.81	9650.38
536.58	9144.38
537.351	8633.38
538.121	8153.38
538.891	7726.38
539.661	7345.38
540.431	6920.38
541.201	6589.38
541.971	6253.38
542.741	5935.38
543.51	5594.38
544.28	5346.38
545.05	5090.38
545.819	4827.38
546.588	4622.38
547.358	4396.38
548.127	4169.38
548.896	3986.38
549.665	3754.38
550.434	3563.38
551.203	3374.38
551.972	3209.38
552.741	3010.38
553.51	2846.38
554.278	2684.38
555.047	2537.38
555.815	2413.38
556.584	2263.38
557.352	2149.38
558.121	2016.38
558.889	1898.38
559.657	1806.38
560.425	1713.38
561.193	1619.38
561.961	1536.38
562.729	1441.38
563.496	1365.38
564.264	1297.38
565.032	1228.38
565.799	1154.38
566.567	1095.38
567.334	1040.38
568.101	987.38
568.869	928.38
569.636	872.38
570.403	819.38
571.17	782.38
571.937	732.38
572.704	705.38
573.471	654.38
574.237	619.38
575.004	582.38
575.771	547.38
576.537	507.38
577.303	487.38
578.07	466.38
578.836	433.38
579.602	415.38
580.368	394.38
581.134	373.38
581.9	361.38
582.666	339.38
583.432	324.38
584.198	298.38
584.964	287.38
585.729	272.38
586.495	264.38
587.26	249.38
588.025	233.38
588.791	226.38
589.556	213.38
590.321	192.38
591.086	190.38
591.851	182.38
592.616	170.38
593.381	164.38
594.146	157.38
594.911	150.38
595.675	140.38
596.44	138.38
597.204	127.38
597.969	124.38
598.733	114.38
599.497	110.38
600.261	109.38
601.025	104.38
601.79	98.38
602.553	94.38
603.317	91.38
604.081	89.38
604.845	88.38
605.609	77.38
606.372	79.38
607.136	74.38
607.899	71.38
608.662	66.38
609.426	65.38
610.189	62.38
610.952	57.38
611.715	57.38
612.478	54.38
613.241	55.38
614.004	55.38
614.767	54.38
615.529	51.38
616.292	48.38
617.055	46.38
617.817	45.38
618.579	44.38
619.342	43.38
620.104	41.38
620.866	39.38
621.628	38.38
622.39	38.38
623.152	32.38
623.914	36.38
624.676	34.38
625.438	31.38
626.199	29.38
626.961	31.38
627.722	30.38
628.484	30.38
629.245	29.38
630.006	30.38
630.768	26.38
631.529	23.38
632.29	25.38
633.051	24.38
633.812	23.38
634.573	20.38
635.333	23.38
636.094	18.38
636.855	24.38
637.615	22.38
638.376	22.38
639.136	19.38
639.896	19.38
640.657	18.38
641.417	14.38
642.177	19.38
642.937	17.38
643.697	16.38
644.457	18.38
645.216	17.38
645.976	14.38
646.736	14.38
647.495	12.38
648.255	15.38
649.014	14.38
649.774	12.38
650.533	12.38
651.292	13.38
652.051	12.38
652.81	13.38
653.569	12.38
654.328	12.38
655.087	12.38
655.846	10.38
656.604	13.38
657.363	11.38
658.121	10.38
658.88	11.38
659.638	11.38
660.397	10.38
661.155	11.38
661.913	12.38
662.671	8.38
663.429	9.38
664.187	11.38
664.945	11.38
665.703	10.38
666.46	8.38
667.218	9.38
667.976	9.38
668.733	8.38
669.49	10.38
670.248	8.38
671.005	10.38
671.762	7.38
672.519	11.38
673.276	8.38
674.033	7.38
674.79	8.38
675.547	9.38
676.304	9.38
677.06	9.38
677.817	5.38
678.574	6.38
679.33	7.38
680.086	7.38
680.843	8.38
681.599	10.38
682.355	8.38
683.111	9.38
683.867	8.38
684.623	8.38
685.379	7.38
686.135	7.38
686.89	8.38
687.646	8.38
688.402	5.38
689.157	5.38
689.912	6.38
690.668	6.38
691.423	8.38
692.178	7.38
692.933	7.38
693.688	5.38
694.443	7.38
695.198	6.38
695.953	7.38
696.708	5.38
697.462	6.38
698.217	6.38
698.972	9.38
699.726	8.38
700.48	5.38
701.235	7.38
701.989	7.38
702.743	7.38
703.497	6.38
704.251	9.38
705.005	6.38
705.759	6.38
706.513	8.38
707.266	7.38
708.02	8.38
708.774	6.38
709.527	7.38
710.28	5.38
711.034	8.38
711.787	4.38
712.54	6.38
713.293	8.38
714.046	6.38
714.799	7.38
715.552	5.38
716.305	8.38
717.058	7.38
717.81	8.38
718.563	8.38
719.315	9.38
720.068	6.38
720.82	7.38
721.573	9.38
722.325	6.38
723.077	9.38
723.829	8.38
724.581	10.38
725.333	8.38
726.085	8.38
726.836	6.38
727.588	6.38
728.34	7.38
729.091	6.38
729.843	6.38
730.594	9.38
731.346	8.38
732.097	9.38
732.848	10.38
733.599	8.38
734.35	9.38
735.101	8.38
735.852	10.38
736.603	8.38
737.354	11.38
738.104	9.38
738.855	8.38
739.605	8.38
740.356	7.38
741.106	10.38
741.856	8.38
742.607	8.38
743.357	9.38
744.107	9.38
744.857	10.38
745.607	10.38
746.357	9.38
747.106	10.38
747.856	11.38
748.606	10.38
749.355	11.38
750.105	10.38
750.854	9.38
751.603	11.38
752.353	8.38
753.102	11.38
753.851	9.38
754.6	11.38
755.349	13.38
756.098	10.38
756.847	9.38
757.595	9.38
758.344	11.38
759.093	12.38
759.841	13.38
760.589	14.38
761.338	10.38
762.086	12.38
762.834	14.38
763.582	10.38
764.331	14.38
765.079	13.38
765.826	12.38
766.574	14.38
767.322	13.38
768.07	16.38
768.817	14.38
769.565	14.38
770.312	12.38
771.06	15.38
771.807	14.38
772.554	12.38
773.302	15.38
774.049	16.38
774.796	14.38
775.543	14.38
776.29	13.38
777.036	16.38
777.783	14.38
778.53	14.38
779.276	15.38
780.023	15.38
780.769	16.38
781.516	17.38
782.262	15.38
783.008	16.38
783.754	18.38
784.5	17.38
785.246	14.38
785.992	17.38
786.738	15.38
787.484	15.38
788.23	15.38
788.975	14.38
789.721	13.38
790.466	13.38
791.212	13.38
791.957	14.38
792.702	14.38
793.447	16.38
794.193	14.38
794.938	11.38
795.683	11.38
796.427	14.38
797.172	12.38
797.917	12.38
798.662	12.38
799.406	10.38
800.151	14.38
800.895	11.38
801.64	10.38
802.384	11.38
803.128	12.38
803.872	8.38
804.616	11.38
805.36	9.38
806.104	10.38
806.848	7.38
807.592	8.38
808.336	8.38
809.079	9.38
809.823	10.38
810.566	7.38
811.31	9.38
812.053	8.38
812.796	8.38
813.539	7.38
814.283	8.38
815.026	7.38
815.769	9.38
816.511	7.38
817.254	7.38
817.997	6.38
818.74	5.38
819.482	6.38
820.225	6.38
820.967	7.38
821.71	8.38
822.452	3.38
823.194	5.38
823.936	5.38
824.678	6.38
825.42	6.38
826.162	8.38
826.904	5.38
827.646	7.38
828.388	6.38
829.129	6.38
829.871	6.38
830.612	6.38
831.354	9.38
832.095	3.38
832.836	7.38
833.577	4.38
834.319	4.38
835.06	3.38
835.801	6.38
836.542	3.38
837.282	5.38
838.023	2.38
838.764	5.38
839.504	3.38
840.245	5.38
840.985	6.38
841.726	6.38
842.466	4.38
843.206	4.38
843.946	2.38
844.687	5.38
845.427	3.38
846.166	7.38
846.906	3.38
847.646	4.38
848.386	4.38
849.125	2.38
849.865	3.38
850.605	4.38
851.344	9.38
852.083	6.38
852.823	4.38
853.562	2.38
854.301	4.38
855.04	4.38
855.779	4.38
856.518	4.38
857.257	2.38
857.995	3.38
858.734	2.38
859.473	4.38
860.211	3.38
860.95	3.38
861.688	3.38
862.426	2.38
863.165	2.38
863.903	1.38
864.641	2.38
865.379	3.38
866.117	4.38
866.855	2.38
867.593	2.38
868.33	0.38
869.068	2.38
869.806	2.38
870.543	2.38
871.28	1.38
872.018	0.38
872.755	0.38
873.492	1.38
874.229	3.38
874.967	2.38
875.703	3.38
876.44	2.38
877.177	0.38
877.914	0.38
878.651	1.38
879.387	-1.62
880.124	1.38
880.86	1.38
881.597	1.38
882.333	-0.62
883.069	3.38
883.806	2.38
884.542	3.38
885.278	2.38
886.014	-0.62
886.749	1.38
887.485	0.38
888.221	2.38
888.957	1.38
889.692	-0.62
890.428	1.38
891.163	1.38
891.899	0.38
892.634	0.38
893.369	0.38
894.104	1.38
894.839	1.38
895.574	0.38
896.309	1.38
897.044	0.38
897.779	-0.62
898.514	0.38
899.248	2.38
899.983	-0.62
900.717	1.38
901.452	0.38
902.186	2.38
902.92	-0.62
903.654	-1.62
904.389	0.38
905.123	0.38
905.857	0.38
906.59	-0.62
907.324	-1.62
908.058	-1.62
908.792	0.38
909.525	-0.62
910.259	-0.62
910.992	0.38
911.726	0.38
912.459	0.38
913.192	0.38
913.925	0.38
914.658	1.38
915.391	1.38
916.124	-1.62
916.857	1.38
917.59	-0.62
918.323	-0.62
919.055	-0.62
919.788	2.38
920.521	1.38
921.253	0.38
921.985	1.38
922.718	0.38
923.45	1.38
924.182	0.38
924.914	-2.62
925.646	-0.62
926.378	-1.62
927.11	1.38
927.841	1.38
928.573	1.38
929.305	-0.62
930.036	0.38
930.768	-0.62
931.499	-1.62
932.23	1.38
932.962	-0.62
933.693	0.38
934.424	-1.62
935.155	1.38
935.886	-0.62
936.617	-0.62
937.348	0.38
938.078	-1.62
938.809	-0.62
939.54	2.38
940.27	-1.62
941.001	0.38
941.731	0.38
942.461	1.38
943.191	1.38
943.922	0.38
944.652	1.38
945.382	-1.62
946.112	0.38
946.841	-2.62
947.571	0.38
948.301	-2.62
949.031	-0.62
949.76	0.38
950.49	0.38
951.219	-0.62
951.948	-1.62
952.678	0.38
953.407	0.38
954.136	-1.62
954.865	1.38
955.594	-1.62
956.323	-1.62
957.052	0.38
957.78	-2.62
958.509	0.38
959.238	-1.62
959.966	-0.62
960.695	-0.62
961.423	-1.62
962.151	0.38
962.88	-0.62
963.608	-0.62
964.336	-0.62
965.064	-0.62
965.792	-1.62
966.52	-1.62
967.247	0.38
967.975	-0.62
968.703	-0.62
969.43	-0.62
970.158	0.38
970.885	-1.62
971.613	0.38
972.34	-1.62
973.067	-3.62
973.794	-1.62
974.521	-0.62
975.248	0.38
975.975	-1.62
976.702	0.38
977.429	0.38
978.156	-0.62
978.882	2.38
979.609	-0.62
980.335	-0.62
981.062	-3.62
981.788	-1.62
982.514	-1.62
983.24	-1.62
983.967	-0.62
984.693	-0.62
985.419	-0.62
986.144	-0.62
986.87	1.38
987.596	-1.62
988.322	-0.62
989.047	-1.62
989.773	0.38
990.498	1.38
991.224	0.38
991.949	-0.62
992.674	-0.62
993.399	0.38
994.124	-1.62
994.849	-1.62
995.574	-1.62
996.299	1.38
997.024	1.38
997.749	0.38
998.473	-0.62
999.198	0.38
999.922	-1.62
1000.647	1.38
1001.371	3.38
1002.095	-0.62
1002.82	-3.62
1003.544	-1.62
1004.268	4.38
1004.992	2.38
1005.716	6.38
1006.439	4.38
1007.163	5.38
1007.887	3.38
1008.611	-0.62
1009.334	-0.62
1010.058	-0.62
1010.781	1.38
1011.504	-1.62
1012.228	-0.62
1012.951	0.38
1013.674	1.38
1014.397	1.38
1015.12	-0.62
