节点500_705_QEPB04081__381__20-51-21-611.txt的数据

Date: Wed Nov 12 20:51:21 CST 2025
User: PC
Spectrometer: QEPB0408
触发模式: 0
积分时间 (秒): 1.000000E-2
Scans to average: 1
启用暗噪声校正: true
启用非线性校正: false
滑动平均宽度: 0
X轴模式: Wavelengths
Number of Pixels in Spectrum: 1044
>>>>>Begin Spectral Data<<<<<
220.843	3.88
221.644	5.88
222.444	5.88
223.244	1.88
224.045	5.88
224.845	3.88
225.645	4.88
226.445	4.88
227.245	5.88
228.045	8.88
228.845	6.88
229.645	7.88
230.444	6.88
231.244	5.88
232.043	6.88
232.843	10.88
233.642	8.88
234.442	11.88
235.241	7.88
236.04	8.88
236.839	8.88
237.638	10.88
238.437	10.88
239.236	11.88
240.035	10.88
240.833	11.88
241.632	9.88
242.43	12.88
243.229	9.88
244.027	13.88
244.826	14.88
245.624	13.88
246.422	7.88
247.22	12.88
248.018	12.88
248.816	13.88
249.614	13.88
250.412	14.88
251.21	14.88
252.007	14.88
252.805	16.88
253.602	15.88
254.4	13.88
255.197	17.88
255.994	20.88
256.791	18.88
257.589	17.88
258.386	17.88
259.183	18.88
259.979	22.88
260.776	23.88
261.573	21.88
262.37	22.88
263.166	24.88
263.963	24.88
264.759	25.88
265.556	22.88
266.352	25.88
267.148	25.88
267.944	29.88
268.74	28.88
269.536	26.88
270.332	31.88
271.128	25.88
271.924	28.88
272.719	31.88
273.515	30.88
274.311	33.88
275.106	32.88
275.901	30.88
276.697	30.88
277.492	30.88
278.287	35.88
279.082	33.88
279.877	29.88
280.672	29.88
281.467	31.88
282.262	31.88
283.056	32.88
283.851	31.88
284.646	31.88
285.44	29.88
286.234	33.88
287.029	29.88
287.823	30.88
288.617	33.88
289.411	34.88
290.205	28.88
290.999	30.88
291.793	26.88
292.587	31.88
293.381	29.88
294.174	30.88
294.968	28.88
295.761	25.88
296.555	27.88
297.348	22.88
298.141	25.88
298.935	28.88
299.728	25.88
300.521	21.88
301.314	24.88
302.107	23.88
302.899	23.88
303.692	20.88
304.485	21.88
305.277	21.88
306.07	22.88
306.862	21.88
307.655	19.88
308.447	18.88
309.239	15.88
310.031	17.88
310.823	15.88
311.615	14.88
312.407	18.88
313.199	16.88
313.991	14.88
314.783	15.88
315.574	13.88
316.366	10.88
317.157	14.88
317.949	13.88
318.74	13.88
319.531	13.88
320.322	12.88
321.113	12.88
321.904	11.88
322.695	11.88
323.486	13.88
324.277	11.88
325.068	11.88
325.858	10.88
326.649	12.88
327.439	12.88
328.23	13.88
329.02	10.88
329.81	11.88
330.6	12.88
331.391	7.88
332.181	10.88
332.971	13.88
333.76	10.88
334.55	14.88
335.34	10.88
336.13	11.88
336.919	9.88
337.709	12.88
338.498	11.88
339.287	8.88
340.077	9.88
340.866	10.88
341.655	8.88
342.444	9.88
343.233	10.88
344.022	10.88
344.811	10.88
345.6	12.88
346.388	8.88
347.177	8.88
347.965	9.88
348.754	10.88
349.542	10.88
350.33	9.88
351.119	10.88
351.907	8.88
352.695	10.88
353.483	8.88
354.271	8.88
355.059	8.88
355.846	8.88
356.634	9.88
357.422	9.88
358.209	5.88
358.997	11.88
359.784	9.88
360.571	8.88
361.359	8.88
362.146	7.88
362.933	10.88
363.72	8.88
364.507	8.88
365.294	9.88
366.081	10.88
366.867	7.88
367.654	7.88
368.44	8.88
369.227	6.88
370.013	8.88
370.8	6.88
371.586	6.88
372.372	8.88
373.158	6.88
373.944	6.88
374.73	9.88
375.516	8.88
376.302	5.88
377.088	7.88
377.873	9.88
378.659	8.88
379.445	6.88
380.23	7.88
381.015	7.88
381.801	8.88
382.586	9.88
383.371	5.88
384.156	9.88
384.941	11.88
385.726	8.88
386.511	8.88
387.296	11.88
388.08	9.88
388.865	8.88
389.649	11.88
390.434	10.88
391.218	9.88
392.003	10.88
392.787	10.88
393.571	10.88
394.355	11.88
395.139	11.88
395.923	11.88
396.707	13.88
397.491	11.88
398.274	12.88
399.058	12.88
399.842	10.88
400.625	11.88
401.408	12.88
402.192	11.88
402.975	15.88
403.758	12.88
404.541	10.88
405.324	12.88
406.107	16.88
406.89	13.88
407.673	12.88
408.456	14.88
409.238	12.88
410.021	15.88
410.803	12.88
411.586	18.88
412.368	17.88
413.151	14.88
413.933	16.88
414.715	15.88
415.497	16.88
416.279	13.88
417.061	16.88
417.843	18.88
418.624	17.88
419.406	19.88
420.188	16.88
420.969	19.88
421.751	22.88
422.532	20.88
423.313	19.88
424.095	21.88
424.876	23.88
425.657	22.88
426.438	24.88
427.219	23.88
428	26.88
428.78	28.88
429.561	27.88
430.342	30.88
431.122	29.88
431.903	33.88
432.683	32.88
433.464	31.88
434.244	37.88
435.024	34.88
435.804	38.88
436.584	40.88
437.364	42.88
438.144	44.88
438.924	49.88
439.704	52.88
440.483	56.88
441.263	57.88
442.042	62.88
442.822	70.88
443.601	69.88
444.38	81.88
445.16	83.88
445.939	92.88
446.718	99.88
447.497	116.88
448.276	121.88
449.054	137.88
449.833	141.88
450.612	163.88
451.391	177.88
452.169	193.88
452.948	225.88
453.726	244.88
454.504	268.88
455.282	303.88
456.061	327.88
456.839	367.88
457.617	415.88
458.395	460.88
459.172	520.88
459.95	579.88
460.728	658.88
461.506	731.88
462.283	797.88
463.061	887.88
463.838	1003.88
464.615	1098.88
465.393	1239.88
466.17	1365.88
466.947	1504.88
467.724	1687.88
468.501	1852.88
469.278	2049.88
470.055	2275.88
470.831	2518.88
471.608	2772.88
472.385	3033.88
473.161	3332.88
473.938	3669.88
474.714	4040.88
475.49	4443.88
476.266	4874.88
477.043	5275.88
477.819	5790.88
478.595	6330.88
479.371	6887.88
480.146	7503.88
480.922	8211.88
481.698	8926.88
482.473	9713.88
483.249	10541.88
484.024	11474.88
484.8	12410.88
485.575	13425.88
486.35	14571.88
487.126	15773.88
487.901	17007.88
488.676	18338.88
489.451	19822.88
490.225	21225.88
491	22782.88
491.775	24355.88
492.55	26038.88
493.324	27701.88
494.099	29492.88
494.873	31237.88
495.647	32979.88
496.422	34726.88
497.196	36467.88
497.97	38059.88
498.744	39683.88
499.518	41229.88
500.292	42561.88
501.066	43639.88
501.839	44486.88
502.613	45365.88
503.387	46088.88
504.16	46497.88
504.934	46730.88
505.707	46697.88
506.48	46371.88
507.253	45965.88
508.027	45334.88
508.8	44454.88
509.573	43437.88
510.346	42445.88
511.118	41432.88
511.891	40316.88
512.664	38766.88
513.437	37418.88
514.209	35990.88
514.982	34665.88
515.754	33298.88
516.526	31833.88
517.298	30701.88
518.071	29427.88
518.843	28283.88
519.615	27165.88
520.387	26064.88
521.159	25051.88
521.93	24029.88
522.702	22974.88
523.474	22013.88
524.245	21148.88
525.017	20224.88
525.788	19377.88
526.56	18613.88
527.331	17767.88
528.102	16834.88
528.873	16045.88
529.644	15263.88
530.415	14547.88
531.186	13848.88
531.957	13100.88
532.728	12463.88
533.498	11793.88
534.269	11194.88
535.039	10593.88
535.81	10058.88
536.58	9472.88
537.351	8956.88
538.121	8538.88
538.891	8058.88
539.661	7640.88
540.431	7214.88
541.201	6837.88
541.971	6483.88
542.741	6097.88
543.51	5816.88
544.28	5552.88
545.05	5283.88
545.819	5023.88
546.588	4807.88
547.358	4567.88
548.127	4365.88
548.896	4140.88
549.665	3911.88
550.434	3708.88
551.203	3531.88
551.972	3337.88
552.741	3168.88
553.51	2966.88
554.278	2822.88
555.047	2657.88
555.815	2506.88
556.584	2386.88
557.352	2241.88
558.121	2141.88
558.889	2008.88
559.657	1912.88
560.425	1804.88
561.193	1686.88
561.961	1607.88
562.729	1512.88
563.496	1435.88
564.264	1358.88
565.032	1288.88
565.799	1214.88
566.567	1163.88
567.334	1082.88
568.101	1020.88
568.869	972.88
569.636	912.88
570.403	864.88
571.17	808.88
571.937	766.88
572.704	727.88
573.471	698.88
574.237	638.88
575.004	620.88
575.771	571.88
576.537	540.88
577.303	510.88
578.07	480.88
578.836	458.88
579.602	429.88
580.368	407.88
581.134	387.88
581.9	371.88
582.666	355.88
583.432	339.88
584.198	321.88
584.964	303.88
585.729	283.88
586.495	270.88
587.26	252.88
588.025	241.88
588.791	225.88
589.556	216.88
590.321	206.88
591.086	193.88
591.851	184.88
592.616	178.88
593.381	169.88
594.146	163.88
594.911	154.88
595.675	148.88
596.44	138.88
597.204	133.88
597.969	129.88
598.733	121.88
599.497	116.88
600.261	113.88
601.025	110.88
601.79	104.88
602.553	103.88
603.317	95.88
604.081	86.88
604.845	86.88
605.609	83.88
606.372	77.88
607.136	73.88
607.899	73.88
608.662	72.88
609.426	70.88
610.189	67.88
610.952	62.88
611.715	63.88
612.478	56.88
613.241	55.88
614.004	55.88
614.767	51.88
615.529	53.88
616.292	53.88
617.055	49.88
617.817	47.88
618.579	41.88
619.342	42.88
620.104	41.88
620.866	39.88
621.628	38.88
622.39	39.88
623.152	33.88
623.914	36.88
624.676	33.88
625.438	32.88
626.199	31.88
626.961	29.88
627.722	30.88
628.484	29.88
629.245	26.88
630.006	27.88
630.768	24.88
631.529	22.88
632.29	25.88
633.051	24.88
633.812	22.88
634.573	23.88
635.333	21.88
636.094	22.88
636.855	22.88
637.615	21.88
638.376	20.88
639.136	19.88
639.896	17.88
640.657	16.88
641.417	17.88
642.177	15.88
642.937	16.88
643.697	16.88
644.457	15.88
645.216	12.88
645.976	17.88
646.736	14.88
647.495	13.88
648.255	14.88
649.014	13.88
649.774	13.88
650.533	11.88
651.292	13.88
652.051	11.88
652.81	13.88
653.569	14.88
654.328	10.88
655.087	8.88
655.846	11.88
656.604	12.88
657.363	11.88
658.121	10.88
658.88	10.88
659.638	9.88
660.397	10.88
661.155	12.88
661.913	9.88
662.671	9.88
663.429	9.88
664.187	9.88
664.945	9.88
665.703	7.88
666.46	10.88
667.218	7.88
667.976	8.88
668.733	9.88
669.49	7.88
670.248	9.88
671.005	7.88
671.762	7.88
672.519	7.88
673.276	5.88
674.033	8.88
674.79	9.88
675.547	8.88
676.304	4.88
677.06	8.88
677.817	7.88
678.574	6.88
679.33	5.88
680.086	6.88
680.843	6.88
681.599	6.88
682.355	8.88
683.111	8.88
683.867	4.88
684.623	8.88
685.379	6.88
686.135	6.88
686.89	7.88
687.646	4.88
688.402	5.88
689.157	5.88
689.912	6.88
690.668	3.88
691.423	6.88
692.178	7.88
692.933	4.88
693.688	6.88
694.443	4.88
695.198	4.88
695.953	5.88
696.708	6.88
697.462	7.88
698.217	2.88
698.972	6.88
699.726	7.88
700.48	7.88
701.235	5.88
701.989	7.88
702.743	5.88
703.497	6.88
704.251	7.88
705.005	4.88
705.759	7.88
706.513	6.88
707.266	7.88
708.02	7.88
708.774	3.88
709.527	8.88
710.28	5.88
711.034	5.88
711.787	8.88
712.54	5.88
713.293	7.88
714.046	5.88
714.799	6.88
715.552	6.88
716.305	7.88
717.058	5.88
717.81	6.88
718.563	7.88
719.315	6.88
720.068	4.88
720.82	6.88
721.573	4.88
722.325	6.88
723.077	7.88
723.829	8.88
724.581	8.88
725.333	8.88
726.085	5.88
726.836	7.88
727.588	7.88
728.34	6.88
729.091	6.88
729.843	8.88
730.594	7.88
731.346	7.88
732.097	7.88
732.848	8.88
733.599	9.88
734.35	7.88
735.101	9.88
735.852	7.88
736.603	9.88
737.354	6.88
738.104	9.88
738.855	7.88
739.605	6.88
740.356	7.88
741.106	5.88
741.856	9.88
742.607	6.88
743.357	8.88
744.107	6.88
744.857	9.88
745.607	10.88
746.357	7.88
747.106	9.88
747.856	6.88
748.606	11.88
749.355	8.88
750.105	6.88
750.854	8.88
751.603	7.88
752.353	10.88
753.102	8.88
753.851	10.88
754.6	12.88
755.349	11.88
756.098	8.88
756.847	11.88
757.595	11.88
758.344	11.88
759.093	10.88
759.841	11.88
760.589	10.88
761.338	9.88
762.086	11.88
762.834	11.88
763.582	9.88
764.331	10.88
765.079	11.88
765.826	11.88
766.574	13.88
767.322	13.88
768.07	13.88
768.817	11.88
769.565	12.88
770.312	13.88
771.06	12.88
771.807	11.88
772.554	13.88
773.302	14.88
774.049	11.88
774.796	11.88
775.543	13.88
776.29	13.88
777.036	13.88
777.783	11.88
778.53	13.88
779.276	13.88
780.023	12.88
780.769	16.88
781.516	13.88
782.262	15.88
783.008	15.88
783.754	14.88
784.5	14.88
785.246	13.88
785.992	12.88
786.738	13.88
787.484	12.88
788.23	14.88
788.975	13.88
789.721	10.88
790.466	13.88
791.212	13.88
791.957	12.88
792.702	9.88
793.447	13.88
794.193	12.88
794.938	11.88
795.683	11.88
796.427	11.88
797.172	10.88
797.917	12.88
798.662	12.88
799.406	12.88
800.151	9.88
800.895	11.88
801.64	12.88
802.384	9.88
803.128	8.88
803.872	9.88
804.616	9.88
805.36	9.88
806.104	7.88
806.848	9.88
807.592	8.88
808.336	9.88
809.079	7.88
809.823	9.88
810.566	7.88
811.31	9.88
812.053	6.88
812.796	8.88
813.539	10.88
814.283	6.88
815.026	8.88
815.769	8.88
816.511	6.88
817.254	7.88
817.997	5.88
818.74	7.88
819.482	5.88
820.225	5.88
820.967	3.88
821.71	8.88
822.452	3.88
823.194	4.88
823.936	6.88
824.678	5.88
825.42	2.88
826.162	5.88
826.904	5.88
827.646	7.88
828.388	5.88
829.129	5.88
829.871	4.88
830.612	4.88
831.354	5.88
832.095	3.88
832.836	5.88
833.577	5.88
834.319	2.88
835.06	5.88
835.801	3.88
836.542	2.88
837.282	2.88
838.023	4.88
838.764	4.88
839.504	4.88
840.245	3.88
840.985	4.88
841.726	6.88
842.466	1.88
843.206	1.88
843.946	3.88
844.687	3.88
845.427	4.88
846.166	3.88
846.906	4.88
847.646	2.88
848.386	1.88
849.125	3.88
849.865	4.88
850.605	3.88
851.344	1.88
852.083	1.88
852.823	2.88
853.562	4.88
854.301	3.88
855.04	3.88
855.779	2.88
856.518	2.88
857.257	2.88
857.995	3.88
858.734	3.88
859.473	1.88
860.211	1.88
860.95	3.88
861.688	1.88
862.426	1.88
863.165	4.88
863.903	-0.12
864.641	1.88
865.379	0.88
866.117	0.88
866.855	0.88
867.593	2.88
868.33	3.88
869.068	1.88
869.806	1.88
870.543	0.88
871.28	0.88
872.018	0.88
872.755	0.88
873.492	-0.12
874.229	0.88
874.967	1.88
875.703	2.88
876.44	2.88
877.177	1.88
877.914	-0.12
878.651	1.88
879.387	0.88
880.124	1.88
880.86	1.88
881.597	1.88
882.333	-1.12
883.069	-1.12
883.806	-0.12
884.542	1.88
885.278	-0.12
886.014	-0.12
886.749	0.88
887.485	-1.12
888.221	-0.12
888.957	2.88
889.692	1.88
890.428	1.88
891.163	-0.12
891.899	0.88
892.634	-2.12
893.369	-0.12
894.104	-0.12
894.839	1.88
895.574	-1.12
896.309	0.88
897.044	-2.12
897.779	-1.12
898.514	0.88
899.248	-0.12
899.983	1.88
900.717	-2.12
901.452	0.88
902.186	-0.12
902.92	-0.12
903.654	-0.12
904.389	-0.12
905.123	1.88
905.857	-2.12
906.59	-1.12
907.324	-1.12
908.058	-2.12
908.792	0.88
909.525	-1.12
910.259	-1.12
910.992	0.88
911.726	-2.12
912.459	0.88
913.192	-1.12
913.925	-0.12
914.658	-1.12
915.391	-2.12
916.124	1.88
916.857	-0.12
917.59	1.88
918.323	-2.12
919.055	-3.12
919.788	-2.12
920.521	-2.12
921.253	0.88
921.985	-2.12
922.718	-0.12
923.45	-2.12
924.182	0.88
924.914	0.88
925.646	1.88
926.378	-1.12
927.11	-1.12
927.841	-0.12
928.573	-2.12
929.305	-0.12
930.036	-2.12
930.768	0.88
931.499	-1.12
932.23	-0.12
932.962	-0.12
933.693	-0.12
934.424	-1.12
935.155	-0.12
935.886	-4.12
936.617	-1.12
937.348	-0.12
938.078	-0.12
938.809	-2.12
939.54	-0.12
940.27	1.88
941.001	-3.12
941.731	-0.12
942.461	-1.12
943.191	-2.12
943.922	-1.12
944.652	-1.12
945.382	0.88
946.112	-0.12
946.841	1.88
947.571	0.88
948.301	-1.12
949.031	-0.12
949.76	-0.12
950.49	-0.12
951.219	-2.12
951.948	-2.12
952.678	0.88
953.407	0.88
954.136	-1.12
954.865	-1.12
955.594	-0.12
956.323	-1.12
957.052	-1.12
957.78	-0.12
958.509	0.88
959.238	-1.12
959.966	0.88
960.695	-0.12
961.423	-0.12
962.151	-2.12
962.88	-3.12
963.608	-1.12
964.336	-0.12
965.064	-2.12
965.792	-0.12
966.52	-0.12
967.247	-0.12
967.975	-2.12
968.703	-1.12
969.43	-1.12
970.158	-0.12
970.885	-2.12
971.613	-2.12
972.34	-1.12
973.067	-0.12
973.794	-1.12
974.521	-1.12
975.248	-0.12
975.975	-1.12
976.702	1.88
977.429	-2.12
978.156	1.88
978.882	0.88
979.609	-0.12
980.335	0.88
981.062	-2.12
981.788	-1.12
982.514	-2.12
983.24	-1.12
983.967	-2.12
984.693	0.88
985.419	-2.12
986.144	-1.12
986.87	-2.12
987.596	-1.12
988.322	-1.12
989.047	-1.12
989.773	-0.12
990.498	-1.12
991.224	-1.12
991.949	-1.12
992.674	-1.12
993.399	-1.12
994.124	-1.12
994.849	-0.12
995.574	-2.12
996.299	-0.12
997.024	0.88
997.749	-4.12
998.473	-0.12
999.198	-1.12
999.922	-1.12
1000.647	-0.12
1001.371	3.88
1002.095	-4.12
1002.82	0.88
1003.544	-2.12
1004.268	1.88
1004.992	0.88
1005.716	1.88
1006.439	2.88
1007.163	2.88
1007.887	4.88
1008.611	-0.12
1009.334	-1.12
1010.058	0.88
1010.781	-2.12
1011.504	-1.12
1012.228	-2.12
1012.951	0.88
1013.674	0.88
1014.397	-0.12
1015.12	-0.12
