节点500_705_QEPB04081__421__20-51-53-698.txt的数据

Date: Wed Nov 12 20:51:53 CST 2025
User: PC
Spectrometer: QEPB0408
触发模式: 0
积分时间 (秒): 1.000000E-2
Scans to average: 1
启用暗噪声校正: true
启用非线性校正: false
滑动平均宽度: 0
X轴模式: Wavelengths
Number of Pixels in Spectrum: 1044
>>>>>Begin Spectral Data<<<<<
220.843	5.12
221.644	5.12
222.444	7.12
223.244	8.12
224.045	6.12
224.845	5.12
225.645	5.12
226.445	6.12
227.245	7.12
228.045	7.12
228.845	8.12
229.645	6.12
230.444	9.12
231.244	7.12
232.043	8.12
232.843	8.12
233.642	10.12
234.442	9.12
235.241	9.12
236.04	10.12
236.839	10.12
237.638	11.12
238.437	11.12
239.236	11.12
240.035	10.12
240.833	11.12
241.632	12.12
242.43	14.12
243.229	11.12
244.027	13.12
244.826	15.12
245.624	14.12
246.422	13.12
247.22	16.12
248.018	12.12
248.816	12.12
249.614	16.12
250.412	15.12
251.21	16.12
252.007	15.12
252.805	16.12
253.602	16.12
254.4	17.12
255.197	18.12
255.994	18.12
256.791	19.12
257.589	19.12
258.386	21.12
259.183	20.12
259.979	22.12
260.776	23.12
261.573	22.12
262.37	25.12
263.166	24.12
263.963	24.12
264.759	26.12
265.556	26.12
266.352	27.12
267.148	30.12
267.944	29.12
268.74	25.12
269.536	28.12
270.332	32.12
271.128	30.12
271.924	28.12
272.719	27.12
273.515	33.12
274.311	33.12
275.106	30.12
275.901	32.12
276.697	33.12
277.492	30.12
278.287	31.12
279.082	34.12
279.877	33.12
280.672	33.12
281.467	36.12
282.262	33.12
283.056	33.12
283.851	38.12
284.646	35.12
285.44	31.12
286.234	34.12
287.029	33.12
287.823	32.12
288.617	33.12
289.411	33.12
290.205	31.12
290.999	31.12
291.793	31.12
292.587	32.12
293.381	31.12
294.174	29.12
294.968	28.12
295.761	27.12
296.555	29.12
297.348	27.12
298.141	28.12
298.935	31.12
299.728	26.12
300.521	26.12
301.314	24.12
302.107	23.12
302.899	22.12
303.692	25.12
304.485	20.12
305.277	21.12
306.07	24.12
306.862	21.12
307.655	22.12
308.447	21.12
309.239	19.12
310.031	22.12
310.823	15.12
311.615	18.12
312.407	20.12
313.199	18.12
313.991	17.12
314.783	17.12
315.574	19.12
316.366	14.12
317.157	15.12
317.949	15.12
318.74	17.12
319.531	14.12
320.322	15.12
321.113	15.12
321.904	13.12
322.695	15.12
323.486	15.12
324.277	14.12
325.068	15.12
325.858	12.12
326.649	13.12
327.439	13.12
328.23	11.12
329.02	11.12
329.81	14.12
330.6	11.12
331.391	12.12
332.181	11.12
332.971	13.12
333.76	15.12
334.55	11.12
335.34	13.12
336.13	13.12
336.919	9.12
337.709	12.12
338.498	14.12
339.287	13.12
340.077	13.12
340.866	12.12
341.655	11.12
342.444	10.12
343.233	13.12
344.022	13.12
344.811	10.12
345.6	13.12
346.388	13.12
347.177	11.12
347.965	11.12
348.754	11.12
349.542	12.12
350.33	11.12
351.119	11.12
351.907	10.12
352.695	11.12
353.483	12.12
354.271	8.12
355.059	11.12
355.846	11.12
356.634	11.12
357.422	11.12
358.209	12.12
358.997	11.12
359.784	10.12
360.571	10.12
361.359	9.12
362.146	12.12
362.933	9.12
363.72	9.12
364.507	11.12
365.294	7.12
366.081	10.12
366.867	11.12
367.654	9.12
368.44	11.12
369.227	10.12
370.013	7.12
370.8	10.12
371.586	11.12
372.372	11.12
373.158	9.12
373.944	13.12
374.73	9.12
375.516	9.12
376.302	7.12
377.088	11.12
377.873	10.12
378.659	11.12
379.445	10.12
380.23	12.12
381.015	11.12
381.801	11.12
382.586	6.12
383.371	9.12
384.156	11.12
384.941	10.12
385.726	9.12
386.511	12.12
387.296	11.12
388.08	11.12
388.865	10.12
389.649	13.12
390.434	13.12
391.218	12.12
392.003	11.12
392.787	12.12
393.571	11.12
394.355	13.12
395.139	13.12
395.923	12.12
396.707	11.12
397.491	11.12
398.274	15.12
399.058	12.12
399.842	15.12
400.625	14.12
401.408	15.12
402.192	17.12
402.975	13.12
403.758	14.12
404.541	14.12
405.324	15.12
406.107	14.12
406.89	15.12
407.673	18.12
408.456	13.12
409.238	19.12
410.021	16.12
410.803	14.12
411.586	17.12
412.368	17.12
413.151	17.12
413.933	16.12
414.715	19.12
415.497	19.12
416.279	15.12
417.061	21.12
417.843	19.12
418.624	22.12
419.406	18.12
420.188	22.12
420.969	22.12
421.751	21.12
422.532	25.12
423.313	24.12
424.095	20.12
424.876	25.12
425.657	24.12
426.438	26.12
427.219	27.12
428	25.12
428.78	30.12
429.561	30.12
430.342	31.12
431.122	31.12
431.903	32.12
432.683	35.12
433.464	35.12
434.244	37.12
435.024	40.12
435.804	40.12
436.584	44.12
437.364	44.12
438.144	52.12
438.924	49.12
439.704	54.12
440.483	59.12
441.263	63.12
442.042	66.12
442.822	74.12
443.601	77.12
444.38	83.12
445.16	90.12
445.939	94.12
446.718	102.12
447.497	115.12
448.276	126.12
449.054	139.12
449.833	147.12
450.612	170.12
451.391	183.12
452.169	200.12
452.948	225.12
453.726	246.12
454.504	278.12
455.282	310.12
456.061	340.12
456.839	377.12
457.617	429.12
458.395	471.12
459.172	524.12
459.95	573.12
460.728	651.12
461.506	727.12
462.283	804.12
463.061	905.12
463.838	999.12
464.615	1107.12
465.393	1237.12
466.17	1367.12
466.947	1501.12
467.724	1694.12
468.501	1854.12
469.278	2051.12
470.055	2282.12
470.831	2515.12
471.608	2765.12
472.385	3035.12
473.161	3326.12
473.938	3673.12
474.714	4041.12
475.49	4421.12
476.266	4831.12
477.043	5288.12
477.819	5722.12
478.595	6232.12
479.371	6834.12
480.146	7427.12
480.922	8138.12
481.698	8817.12
482.473	9573.12
483.249	10423.12
484.024	11324.12
484.8	12232.12
485.575	13228.12
486.35	14328.12
487.126	15543.12
487.901	16674.12
488.676	17958.12
489.451	19445.12
490.225	20962.12
491	22349.12
491.775	23834.12
492.55	25545.12
493.324	27156.12
494.099	28907.12
494.873	30582.12
495.647	32324.12
496.422	34031.12
497.196	35792.12
497.97	37358.12
498.744	38900.12
499.518	40506.12
500.292	41817.12
501.066	42875.12
501.839	43795.12
502.613	44650.12
503.387	45272.12
504.16	45818.12
504.934	46014.12
505.707	46111.12
506.48	45871.12
507.253	45428.12
508.027	44935.12
508.8	44066.12
509.573	43195.12
510.346	42247.12
511.118	41277.12
511.891	40047.12
512.664	38646.12
513.437	37269.12
514.209	35931.12
514.982	34602.12
515.754	33216.12
516.526	31889.12
517.298	30644.12
518.071	29487.12
518.843	28324.12
519.615	27103.12
520.387	26079.12
521.159	25026.12
521.93	23995.12
522.702	22959.12
523.474	22008.12
524.245	21180.12
525.017	20331.12
525.788	19371.12
526.56	18630.12
527.331	17797.12
528.102	16830.12
528.873	16063.12
529.644	15280.12
530.415	14533.12
531.186	13870.12
531.957	13162.12
532.728	12531.12
533.498	11923.12
534.269	11237.12
535.039	10665.12
535.81	10067.12
536.58	9543.12
537.351	9055.12
538.121	8570.12
538.891	8111.12
539.661	7650.12
540.431	7242.12
541.201	6887.12
541.971	6534.12
542.741	6171.12
543.51	5877.12
544.28	5615.12
545.05	5322.12
545.819	5039.12
546.588	4831.12
547.358	4596.12
548.127	4341.12
548.896	4176.12
549.665	3942.12
550.434	3749.12
551.203	3541.12
551.972	3352.12
552.741	3190.12
553.51	2993.12
554.278	2827.12
555.047	2688.12
555.815	2539.12
556.584	2390.12
557.352	2277.12
558.121	2133.12
558.889	2023.12
559.657	1920.12
560.425	1807.12
561.193	1709.12
561.961	1614.12
562.729	1539.12
563.496	1463.12
564.264	1365.12
565.032	1292.12
565.799	1226.12
566.567	1163.12
567.334	1103.12
568.101	1028.12
568.869	987.12
569.636	922.12
570.403	874.12
571.17	814.12
571.937	785.12
572.704	746.12
573.471	690.12
574.237	655.12
575.004	625.12
575.771	589.12
576.537	551.12
577.303	523.12
578.07	489.12
578.836	469.12
579.602	430.12
580.368	416.12
581.134	397.12
581.9	372.12
582.666	360.12
583.432	343.12
584.198	328.12
584.964	303.12
585.729	289.12
586.495	280.12
587.26	261.12
588.025	243.12
588.791	236.12
589.556	223.12
590.321	211.12
591.086	201.12
591.851	190.12
592.616	179.12
593.381	171.12
594.146	166.12
594.911	158.12
595.675	154.12
596.44	142.12
597.204	138.12
597.969	134.12
598.733	122.12
599.497	121.12
600.261	112.12
601.025	110.12
601.79	107.12
602.553	99.12
603.317	96.12
604.081	92.12
604.845	90.12
605.609	86.12
606.372	85.12
607.136	77.12
607.899	79.12
608.662	70.12
609.426	75.12
610.189	70.12
610.952	65.12
611.715	60.12
612.478	57.12
613.241	54.12
614.004	58.12
614.767	56.12
615.529	55.12
616.292	49.12
617.055	50.12
617.817	47.12
618.579	45.12
619.342	43.12
620.104	44.12
620.866	39.12
621.628	39.12
622.39	42.12
623.152	37.12
623.914	38.12
624.676	36.12
625.438	34.12
626.199	33.12
626.961	31.12
627.722	34.12
628.484	30.12
629.245	32.12
630.006	31.12
630.768	27.12
631.529	30.12
632.29	28.12
633.051	26.12
633.812	24.12
634.573	25.12
635.333	24.12
636.094	24.12
636.855	23.12
637.615	23.12
638.376	22.12
639.136	21.12
639.896	20.12
640.657	21.12
641.417	20.12
642.177	20.12
642.937	18.12
643.697	18.12
644.457	17.12
645.216	17.12
645.976	19.12
646.736	16.12
647.495	16.12
648.255	13.12
649.014	15.12
649.774	16.12
650.533	15.12
651.292	15.12
652.051	13.12
652.81	12.12
653.569	12.12
654.328	11.12
655.087	13.12
655.846	11.12
656.604	14.12
657.363	15.12
658.121	11.12
658.88	11.12
659.638	11.12
660.397	11.12
661.155	12.12
661.913	11.12
662.671	11.12
663.429	10.12
664.187	11.12
664.945	9.12
665.703	11.12
666.46	10.12
667.218	9.12
667.976	11.12
668.733	11.12
669.49	12.12
670.248	8.12
671.005	10.12
671.762	10.12
672.519	10.12
673.276	7.12
674.033	8.12
674.79	9.12
675.547	10.12
676.304	7.12
677.06	10.12
677.817	7.12
678.574	10.12
679.33	7.12
680.086	9.12
680.843	10.12
681.599	6.12
682.355	7.12
683.111	7.12
683.867	8.12
684.623	10.12
685.379	10.12
686.135	9.12
686.89	8.12
687.646	8.12
688.402	10.12
689.157	7.12
689.912	9.12
690.668	8.12
691.423	8.12
692.178	8.12
692.933	9.12
693.688	6.12
694.443	8.12
695.198	9.12
695.953	9.12
696.708	10.12
697.462	5.12
698.217	6.12
698.972	6.12
699.726	8.12
700.48	9.12
701.235	8.12
701.989	9.12
702.743	6.12
703.497	6.12
704.251	8.12
705.005	7.12
705.759	8.12
706.513	7.12
707.266	7.12
708.02	7.12
708.774	10.12
709.527	8.12
710.28	7.12
711.034	7.12
711.787	7.12
712.54	7.12
713.293	7.12
714.046	8.12
714.799	8.12
715.552	9.12
716.305	8.12
717.058	6.12
717.81	6.12
718.563	10.12
719.315	7.12
720.068	8.12
720.82	8.12
721.573	11.12
722.325	7.12
723.077	9.12
723.829	8.12
724.581	7.12
725.333	8.12
726.085	8.12
726.836	9.12
727.588	9.12
728.34	8.12
729.091	9.12
729.843	7.12
730.594	8.12
731.346	10.12
732.097	9.12
732.848	9.12
733.599	6.12
734.35	8.12
735.101	8.12
735.852	12.12
736.603	10.12
737.354	8.12
738.104	9.12
738.855	6.12
739.605	11.12
740.356	10.12
741.106	11.12
741.856	11.12
742.607	11.12
743.357	9.12
744.107	11.12
744.857	10.12
745.607	10.12
746.357	12.12
747.106	11.12
747.856	8.12
748.606	11.12
749.355	10.12
750.105	11.12
750.854	12.12
751.603	9.12
752.353	11.12
753.102	8.12
753.851	11.12
754.6	9.12
755.349	12.12
756.098	14.12
756.847	12.12
757.595	14.12
758.344	9.12
759.093	10.12
759.841	15.12
760.589	12.12
761.338	12.12
762.086	11.12
762.834	12.12
763.582	10.12
764.331	12.12
765.079	13.12
765.826	13.12
766.574	13.12
767.322	12.12
768.07	12.12
768.817	12.12
769.565	14.12
770.312	18.12
771.06	14.12
771.807	14.12
772.554	15.12
773.302	14.12
774.049	13.12
774.796	13.12
775.543	17.12
776.29	14.12
777.036	16.12
777.783	15.12
778.53	16.12
779.276	17.12
780.023	15.12
780.769	17.12
781.516	14.12
782.262	15.12
783.008	17.12
783.754	13.12
784.5	15.12
785.246	14.12
785.992	15.12
786.738	15.12
787.484	14.12
788.23	16.12
788.975	15.12
789.721	18.12
790.466	15.12
791.212	15.12
791.957	16.12
792.702	14.12
793.447	17.12
794.193	12.12
794.938	17.12
795.683	15.12
796.427	13.12
797.172	13.12
797.917	14.12
798.662	13.12
799.406	13.12
800.151	13.12
800.895	10.12
801.64	13.12
802.384	15.12
803.128	10.12
803.872	14.12
804.616	11.12
805.36	11.12
806.104	10.12
806.848	10.12
807.592	10.12
808.336	9.12
809.079	10.12
809.823	10.12
810.566	10.12
811.31	10.12
812.053	9.12
812.796	10.12
813.539	10.12
814.283	9.12
815.026	11.12
815.769	7.12
816.511	9.12
817.254	7.12
817.997	6.12
818.74	9.12
819.482	10.12
820.225	8.12
820.967	5.12
821.71	7.12
822.452	6.12
823.194	9.12
823.936	7.12
824.678	6.12
825.42	8.12
826.162	6.12
826.904	10.12
827.646	9.12
828.388	6.12
829.129	6.12
829.871	6.12
830.612	9.12
831.354	6.12
832.095	8.12
832.836	6.12
833.577	6.12
834.319	8.12
835.06	5.12
835.801	5.12
836.542	6.12
837.282	6.12
838.023	5.12
838.764	6.12
839.504	5.12
840.245	3.12
840.985	7.12
841.726	5.12
842.466	5.12
843.206	7.12
843.946	6.12
844.687	5.12
845.427	5.12
846.166	5.12
846.906	3.12
847.646	3.12
848.386	7.12
849.125	2.12
849.865	3.12
850.605	4.12
851.344	5.12
852.083	5.12
852.823	4.12
853.562	5.12
854.301	3.12
855.04	5.12
855.779	3.12
856.518	3.12
857.257	5.12
857.995	2.12
858.734	4.12
859.473	3.12
860.211	3.12
860.95	2.12
861.688	3.12
862.426	6.12
863.165	3.12
863.903	2.12
864.641	3.12
865.379	3.12
866.117	4.12
866.855	2.12
867.593	2.12
868.33	4.12
869.068	4.12
869.806	4.12
870.543	3.12
871.28	4.12
872.018	4.12
872.755	3.12
873.492	1.12
874.229	3.12
874.967	2.12
875.703	-0.88
876.44	3.12
877.177	3.12
877.914	1.12
878.651	2.12
879.387	2.12
880.124	2.12
880.86	0.12
881.597	4.12
882.333	1.12
883.069	3.12
883.806	2.12
884.542	0.12
885.278	5.12
886.014	0.12
886.749	3.12
887.485	1.12
888.221	2.12
888.957	1.12
889.692	-0.88
890.428	0.12
891.163	1.12
891.899	2.12
892.634	1.12
893.369	0.12
894.104	2.12
894.839	1.12
895.574	3.12
896.309	2.12
897.044	4.12
897.779	1.12
898.514	1.12
899.248	2.12
899.983	3.12
900.717	2.12
901.452	1.12
902.186	0.12
902.92	0.12
903.654	1.12
904.389	2.12
905.123	0.12
905.857	1.12
906.59	1.12
907.324	0.12
908.058	1.12
908.792	1.12
909.525	2.12
910.259	-0.88
910.992	0.12
911.726	0.12
912.459	0.12
913.192	1.12
913.925	0.12
914.658	1.12
915.391	1.12
916.124	4.12
916.857	1.12
917.59	2.12
918.323	1.12
919.055	-0.88
919.788	0.12
920.521	0.12
921.253	1.12
921.985	3.12
922.718	0.12
923.45	1.12
924.182	-0.88
924.914	-0.88
925.646	1.12
926.378	-0.88
927.11	0.12
927.841	1.12
928.573	1.12
929.305	2.12
930.036	-0.88
930.768	2.12
931.499	-0.88
932.23	1.12
932.962	0.12
933.693	2.12
934.424	3.12
935.155	0.12
935.886	1.12
936.617	1.12
937.348	0.12
938.078	0.12
938.809	-0.88
939.54	1.12
940.27	-0.88
941.001	1.12
941.731	1.12
942.461	2.12
943.191	0.12
943.922	0.12
944.652	0.12
945.382	1.12
946.112	0.12
946.841	3.12
947.571	1.12
948.301	0.12
949.031	-0.88
949.76	1.12
950.49	2.12
951.219	0.12
951.948	2.12
952.678	-0.88
953.407	0.12
954.136	1.12
954.865	3.12
955.594	1.12
956.323	-0.88
957.052	0.12
957.78	0.12
958.509	-0.88
959.238	1.12
959.966	2.12
960.695	0.12
961.423	1.12
962.151	-1.88
962.88	-1.88
963.608	2.12
964.336	0.12
965.064	-1.88
965.792	1.12
966.52	0.12
967.247	3.12
967.975	1.12
968.703	1.12
969.43	2.12
970.158	1.12
970.885	2.12
971.613	2.12
972.34	1.12
973.067	1.12
973.794	0.12
974.521	2.12
975.248	2.12
975.975	2.12
976.702	1.12
977.429	0.12
978.156	1.12
978.882	-0.88
979.609	2.12
980.335	1.12
981.062	0.12
981.788	-0.88
982.514	1.12
983.24	-0.88
983.967	0.12
984.693	1.12
985.419	0.12
986.144	0.12
986.87	0.12
987.596	0.12
988.322	0.12
989.047	1.12
989.773	2.12
990.498	1.12
991.224	3.12
991.949	1.12
992.674	-0.88
993.399	-0.88
994.124	-3.88
994.849	-0.88
995.574	0.12
996.299	0.12
997.024	3.12
997.749	1.12
998.473	1.12
999.198	1.12
999.922	1.12
1000.647	1.12
1001.371	4.12
1002.095	0.12
1002.82	-0.88
1003.544	-0.88
1004.268	2.12
1004.992	5.12
1005.716	2.12
1006.439	5.12
1007.163	4.12
1007.887	4.12
1008.611	1.12
1009.334	2.12
1010.058	1.12
1010.781	1.12
1011.504	0.12
1012.228	0.12
1012.951	0.12
1013.674	1.12
1014.397	-0.88
1015.12	-2.88
