节点500_705_QEPB04081__677__20-55-33-819.txt的数据

Date: Wed Nov 12 20:55:33 CST 2025
User: PC
Spectrometer: QEPB0408
触发模式: 0
积分时间 (秒): 1.000000E-2
Scans to average: 1
启用暗噪声校正: true
启用非线性校正: false
滑动平均宽度: 0
X轴模式: Wavelengths
Number of Pixels in Spectrum: 1044
>>>>>Begin Spectral Data<<<<<
220.843	3.88
221.644	2.88
222.444	2.88
223.244	6.88
224.045	5.88
224.845	3.88
225.645	6.88
226.445	4.88
227.245	4.88
228.045	7.88
228.845	6.88
229.645	6.88
230.444	8.88
231.244	9.88
232.043	9.88
232.843	7.88
233.642	8.88
234.442	7.88
235.241	8.88
236.04	7.88
236.839	11.88
237.638	6.88
238.437	13.88
239.236	8.88
240.035	9.88
240.833	11.88
241.632	9.88
242.43	11.88
243.229	12.88
244.027	11.88
244.826	10.88
245.624	12.88
246.422	12.88
247.22	12.88
248.018	14.88
248.816	13.88
249.614	13.88
250.412	13.88
251.21	13.88
252.007	13.88
252.805	14.88
253.602	14.88
254.4	17.88
255.197	16.88
255.994	17.88
256.791	19.88
257.589	17.88
258.386	18.88
259.183	19.88
259.979	21.88
260.776	21.88
261.573	17.88
262.37	16.88
263.166	21.88
263.963	23.88
264.759	20.88
265.556	25.88
266.352	21.88
267.148	22.88
267.944	25.88
268.74	25.88
269.536	25.88
270.332	27.88
271.128	26.88
271.924	25.88
272.719	27.88
273.515	27.88
274.311	29.88
275.106	31.88
275.901	25.88
276.697	30.88
277.492	27.88
278.287	30.88
279.082	31.88
279.877	28.88
280.672	31.88
281.467	32.88
282.262	30.88
283.056	28.88
283.851	32.88
284.646	32.88
285.44	30.88
286.234	31.88
287.029	29.88
287.823	31.88
288.617	31.88
289.411	31.88
290.205	30.88
290.999	28.88
291.793	30.88
292.587	28.88
293.381	25.88
294.174	29.88
294.968	25.88
295.761	28.88
296.555	27.88
297.348	25.88
298.141	24.88
298.935	26.88
299.728	24.88
300.521	21.88
301.314	25.88
302.107	22.88
302.899	21.88
303.692	23.88
304.485	21.88
305.277	19.88
306.07	20.88
306.862	22.88
307.655	21.88
308.447	20.88
309.239	19.88
310.031	19.88
310.823	19.88
311.615	18.88
312.407	15.88
313.199	17.88
313.991	16.88
314.783	17.88
315.574	14.88
316.366	14.88
317.157	15.88
317.949	14.88
318.74	13.88
319.531	10.88
320.322	16.88
321.113	10.88
321.904	13.88
322.695	12.88
323.486	10.88
324.277	9.88
325.068	12.88
325.858	15.88
326.649	11.88
327.439	12.88
328.23	12.88
329.02	11.88
329.81	11.88
330.6	11.88
331.391	14.88
332.181	11.88
332.971	12.88
333.76	11.88
334.55	8.88
335.34	14.88
336.13	10.88
336.919	10.88
337.709	12.88
338.498	9.88
339.287	12.88
340.077	9.88
340.866	14.88
341.655	10.88
342.444	10.88
343.233	14.88
344.022	9.88
344.811	9.88
345.6	8.88
346.388	12.88
347.177	10.88
347.965	9.88
348.754	10.88
349.542	8.88
350.33	10.88
351.119	11.88
351.907	12.88
352.695	8.88
353.483	11.88
354.271	8.88
355.059	11.88
355.846	11.88
356.634	9.88
357.422	6.88
358.209	11.88
358.997	8.88
359.784	8.88
360.571	11.88
361.359	8.88
362.146	10.88
362.933	8.88
363.72	11.88
364.507	9.88
365.294	9.88
366.081	8.88
366.867	7.88
367.654	8.88
368.44	6.88
369.227	8.88
370.013	10.88
370.8	8.88
371.586	8.88
372.372	9.88
373.158	9.88
373.944	10.88
374.73	9.88
375.516	9.88
376.302	7.88
377.088	9.88
377.873	11.88
378.659	7.88
379.445	7.88
380.23	9.88
381.015	8.88
381.801	9.88
382.586	9.88
383.371	8.88
384.156	9.88
384.941	11.88
385.726	8.88
386.511	10.88
387.296	12.88
388.08	11.88
388.865	9.88
389.649	13.88
390.434	11.88
391.218	10.88
392.003	11.88
392.787	9.88
393.571	10.88
394.355	10.88
395.139	12.88
395.923	11.88
396.707	10.88
397.491	11.88
398.274	11.88
399.058	11.88
399.842	12.88
400.625	14.88
401.408	11.88
402.192	12.88
402.975	12.88
403.758	11.88
404.541	14.88
405.324	14.88
406.107	13.88
406.89	18.88
407.673	13.88
408.456	16.88
409.238	14.88
410.021	14.88
410.803	15.88
411.586	16.88
412.368	16.88
413.151	16.88
413.933	15.88
414.715	14.88
415.497	15.88
416.279	16.88
417.061	18.88
417.843	15.88
418.624	14.88
419.406	16.88
420.188	20.88
420.969	21.88
421.751	21.88
422.532	20.88
423.313	21.88
424.095	22.88
424.876	23.88
425.657	23.88
426.438	26.88
427.219	26.88
428	25.88
428.78	26.88
429.561	29.88
430.342	27.88
431.122	32.88
431.903	29.88
432.683	34.88
433.464	33.88
434.244	36.88
435.024	37.88
435.804	37.88
436.584	42.88
437.364	44.88
438.144	50.88
438.924	51.88
439.704	54.88
440.483	54.88
441.263	65.88
442.042	69.88
442.822	69.88
443.601	74.88
444.38	82.88
445.16	87.88
445.939	103.88
446.718	109.88
447.497	120.88
448.276	130.88
449.054	142.88
449.833	159.88
450.612	177.88
451.391	194.88
452.169	210.88
452.948	237.88
453.726	255.88
454.504	288.88
455.282	324.88
456.061	357.88
456.839	395.88
457.617	442.88
458.395	488.88
459.172	542.88
459.95	615.88
460.728	666.88
461.506	746.88
462.283	830.88
463.061	929.88
463.838	1027.88
464.615	1144.88
465.393	1266.88
466.17	1396.88
466.947	1550.88
467.724	1705.88
468.501	1889.88
469.278	2073.88
470.055	2280.88
470.831	2504.88
471.608	2759.88
472.385	3035.88
473.161	3292.88
473.938	3621.88
474.714	3950.88
475.49	4329.88
476.266	4735.88
477.043	5113.88
477.819	5580.88
478.595	6020.88
479.371	6569.88
480.146	7144.88
480.922	7764.88
481.698	8411.88
482.473	9079.88
483.249	9833.88
484.024	10622.88
484.8	11459.88
485.575	12366.88
486.35	13356.88
487.126	14362.88
487.901	15458.88
488.676	16640.88
489.451	17809.88
490.225	19136.88
491	20441.88
491.775	21796.88
492.55	23271.88
493.324	24781.88
494.099	26297.88
494.873	27932.88
495.647	29496.88
496.422	31058.88
497.196	32631.88
497.97	34152.88
498.744	35558.88
499.518	37126.88
500.292	38468.88
501.066	39535.88
501.839	40582.88
502.613	41490.88
503.387	42264.88
504.16	42952.88
504.934	43285.88
505.707	43652.88
506.48	43571.88
507.253	43402.88
508.027	43108.88
508.8	42611.88
509.573	41827.88
510.346	41198.88
511.118	40430.88
511.891	39454.88
512.664	38128.88
513.437	36981.88
514.209	35861.88
514.982	34490.88
515.754	33239.88
516.526	31969.88
517.298	30754.88
518.071	29596.88
518.843	28425.88
519.615	27350.88
520.387	26236.88
521.159	25251.88
521.93	24311.88
522.702	23250.88
523.474	22310.88
524.245	21397.88
525.017	20529.88
525.788	19644.88
526.56	18887.88
527.331	18112.88
528.102	17230.88
528.873	16437.88
529.644	15637.88
530.415	14936.88
531.186	14348.88
531.957	13578.88
532.728	12911.88
533.498	12260.88
534.269	11610.88
535.039	11057.88
535.81	10452.88
536.58	9894.88
537.351	9403.88
538.121	8877.88
538.891	8411.88
539.661	7961.88
540.431	7552.88
541.201	7175.88
541.971	6773.88
542.741	6450.88
543.51	6137.88
544.28	5789.88
545.05	5538.88
545.819	5273.88
546.588	5044.88
547.358	4751.88
548.127	4547.88
548.896	4303.88
549.665	4099.88
550.434	3879.88
551.203	3698.88
551.972	3497.88
552.741	3311.88
553.51	3134.88
554.278	2969.88
555.047	2799.88
555.815	2646.88
556.584	2526.88
557.352	2378.88
558.121	2249.88
558.889	2131.88
559.657	2013.88
560.425	1922.88
561.193	1812.88
561.961	1723.88
562.729	1629.88
563.496	1530.88
564.264	1444.88
565.032	1373.88
565.799	1297.88
566.567	1210.88
567.334	1150.88
568.101	1098.88
568.869	1034.88
569.636	983.88
570.403	921.88
571.17	861.88
571.937	821.88
572.704	773.88
573.471	736.88
574.237	686.88
575.004	645.88
575.771	609.88
576.537	576.88
577.303	551.88
578.07	522.88
578.836	488.88
579.602	465.88
580.368	434.88
581.134	405.88
581.9	395.88
582.666	373.88
583.432	362.88
584.198	334.88
584.964	322.88
585.729	302.88
586.495	285.88
587.26	271.88
588.025	255.88
588.791	240.88
589.556	235.88
590.321	223.88
591.086	212.88
591.851	202.88
592.616	194.88
593.381	183.88
594.146	176.88
594.911	162.88
595.675	161.88
596.44	151.88
597.204	137.88
597.969	134.88
598.733	134.88
599.497	128.88
600.261	121.88
601.025	116.88
601.79	106.88
602.553	102.88
603.317	100.88
604.081	97.88
604.845	92.88
605.609	87.88
606.372	86.88
607.136	82.88
607.899	79.88
608.662	74.88
609.426	73.88
610.189	66.88
610.952	68.88
611.715	67.88
612.478	61.88
613.241	62.88
614.004	58.88
614.767	57.88
615.529	54.88
616.292	55.88
617.055	48.88
617.817	47.88
618.579	47.88
619.342	44.88
620.104	43.88
620.866	43.88
621.628	40.88
622.39	38.88
623.152	40.88
623.914	37.88
624.676	37.88
625.438	36.88
626.199	33.88
626.961	32.88
627.722	30.88
628.484	29.88
629.245	26.88
630.006	30.88
630.768	26.88
631.529	25.88
632.29	26.88
633.051	23.88
633.812	24.88
634.573	25.88
635.333	28.88
636.094	24.88
636.855	18.88
637.615	21.88
638.376	18.88
639.136	21.88
639.896	20.88
640.657	16.88
641.417	20.88
642.177	20.88
642.937	17.88
643.697	17.88
644.457	17.88
645.216	16.88
645.976	16.88
646.736	14.88
647.495	14.88
648.255	17.88
649.014	16.88
649.774	14.88
650.533	16.88
651.292	13.88
652.051	13.88
652.81	12.88
653.569	15.88
654.328	12.88
655.087	11.88
655.846	10.88
656.604	13.88
657.363	13.88
658.121	10.88
658.88	10.88
659.638	12.88
660.397	10.88
661.155	11.88
661.913	10.88
662.671	10.88
663.429	8.88
664.187	10.88
664.945	9.88
665.703	10.88
666.46	9.88
667.218	6.88
667.976	7.88
668.733	9.88
669.49	10.88
670.248	8.88
671.005	8.88
671.762	11.88
672.519	7.88
673.276	8.88
674.033	8.88
674.79	6.88
675.547	8.88
676.304	7.88
677.06	10.88
677.817	7.88
678.574	6.88
679.33	7.88
680.086	7.88
680.843	9.88
681.599	9.88
682.355	8.88
683.111	6.88
683.867	6.88
684.623	8.88
685.379	7.88
686.135	7.88
686.89	7.88
687.646	5.88
688.402	5.88
689.157	6.88
689.912	6.88
690.668	6.88
691.423	7.88
692.178	5.88
692.933	9.88
693.688	6.88
694.443	5.88
695.198	7.88
695.953	7.88
696.708	5.88
697.462	5.88
698.217	9.88
698.972	6.88
699.726	6.88
700.48	7.88
701.235	7.88
701.989	6.88
702.743	7.88
703.497	5.88
704.251	7.88
705.005	5.88
705.759	8.88
706.513	6.88
707.266	8.88
708.02	7.88
708.774	6.88
709.527	6.88
710.28	4.88
711.034	6.88
711.787	6.88
712.54	6.88
713.293	6.88
714.046	5.88
714.799	7.88
715.552	8.88
716.305	5.88
717.058	8.88
717.81	8.88
718.563	8.88
719.315	7.88
720.068	7.88
720.82	7.88
721.573	8.88
722.325	6.88
723.077	9.88
723.829	4.88
724.581	6.88
725.333	7.88
726.085	7.88
726.836	7.88
727.588	9.88
728.34	6.88
729.091	7.88
729.843	8.88
730.594	7.88
731.346	5.88
732.097	6.88
732.848	6.88
733.599	9.88
734.35	9.88
735.101	10.88
735.852	7.88
736.603	8.88
737.354	7.88
738.104	7.88
738.855	9.88
739.605	9.88
740.356	8.88
741.106	7.88
741.856	11.88
742.607	7.88
743.357	10.88
744.107	8.88
744.857	8.88
745.607	10.88
746.357	9.88
747.106	12.88
747.856	7.88
748.606	9.88
749.355	8.88
750.105	11.88
750.854	8.88
751.603	6.88
752.353	11.88
753.102	8.88
753.851	8.88
754.6	10.88
755.349	10.88
756.098	10.88
756.847	11.88
757.595	10.88
758.344	9.88
759.093	12.88
759.841	11.88
760.589	10.88
761.338	10.88
762.086	8.88
762.834	10.88
763.582	11.88
764.331	9.88
765.079	12.88
765.826	10.88
766.574	9.88
767.322	13.88
768.07	12.88
768.817	11.88
769.565	10.88
770.312	13.88
771.06	16.88
771.807	11.88
772.554	13.88
773.302	13.88
774.049	13.88
774.796	14.88
775.543	12.88
776.29	15.88
777.036	14.88
777.783	14.88
778.53	12.88
779.276	11.88
780.023	16.88
780.769	14.88
781.516	14.88
782.262	12.88
783.008	15.88
783.754	15.88
784.5	13.88
785.246	13.88
785.992	15.88
786.738	14.88
787.484	12.88
788.23	14.88
788.975	14.88
789.721	14.88
790.466	13.88
791.212	12.88
791.957	14.88
792.702	14.88
793.447	12.88
794.193	13.88
794.938	14.88
795.683	11.88
796.427	12.88
797.172	12.88
797.917	9.88
798.662	13.88
799.406	10.88
800.151	12.88
800.895	11.88
801.64	10.88
802.384	11.88
803.128	10.88
803.872	13.88
804.616	10.88
805.36	10.88
806.104	12.88
806.848	8.88
807.592	9.88
808.336	8.88
809.079	8.88
809.823	11.88
810.566	7.88
811.31	8.88
812.053	9.88
812.796	9.88
813.539	5.88
814.283	9.88
815.026	8.88
815.769	7.88
816.511	7.88
817.254	7.88
817.997	8.88
818.74	7.88
819.482	5.88
820.225	6.88
820.967	5.88
821.71	10.88
822.452	6.88
823.194	8.88
823.936	8.88
824.678	5.88
825.42	5.88
826.162	8.88
826.904	9.88
827.646	6.88
828.388	5.88
829.129	5.88
829.871	6.88
830.612	6.88
831.354	5.88
832.095	4.88
832.836	5.88
833.577	5.88
834.319	7.88
835.06	2.88
835.801	3.88
836.542	6.88
837.282	9.88
838.023	6.88
838.764	5.88
839.504	4.88
840.245	3.88
840.985	4.88
841.726	4.88
842.466	3.88
843.206	5.88
843.946	2.88
844.687	4.88
845.427	4.88
846.166	6.88
846.906	3.88
847.646	4.88
848.386	4.88
849.125	6.88
849.865	6.88
850.605	4.88
851.344	3.88
852.083	4.88
852.823	4.88
853.562	5.88
854.301	3.88
855.04	4.88
855.779	4.88
856.518	3.88
857.257	6.88
857.995	4.88
858.734	5.88
859.473	3.88
860.211	3.88
860.95	5.88
861.688	3.88
862.426	3.88
863.165	4.88
863.903	2.88
864.641	0.88
865.379	2.88
866.117	3.88
866.855	1.88
867.593	4.88
868.33	2.88
869.068	2.88
869.806	2.88
870.543	2.88
871.28	3.88
872.018	0.88
872.755	4.88
873.492	0.88
874.229	2.88
874.967	0.88
875.703	0.88
876.44	4.88
877.177	1.88
877.914	0.88
878.651	0.88
879.387	0.88
880.124	2.88
880.86	1.88
881.597	0.88
882.333	1.88
883.069	0.88
883.806	0.88
884.542	2.88
885.278	0.88
886.014	1.88
886.749	1.88
887.485	1.88
888.221	0.88
888.957	0.88
889.692	0.88
890.428	0.88
891.163	1.88
891.899	0.88
892.634	2.88
893.369	0.88
894.104	0.88
894.839	1.88
895.574	1.88
896.309	2.88
897.044	1.88
897.779	1.88
898.514	-1.12
899.248	-0.12
899.983	1.88
900.717	1.88
901.452	0.88
902.186	0.88
902.92	-1.12
903.654	0.88
904.389	1.88
905.123	-1.12
905.857	1.88
906.59	-0.12
907.324	0.88
908.058	1.88
908.792	-0.12
909.525	1.88
910.259	-0.12
910.992	1.88
911.726	2.88
912.459	1.88
913.192	-1.12
913.925	-3.12
914.658	0.88
915.391	-0.12
916.124	-0.12
916.857	0.88
917.59	0.88
918.323	0.88
919.055	0.88
919.788	2.88
920.521	-0.12
921.253	1.88
921.985	-0.12
922.718	-0.12
923.45	0.88
924.182	-0.12
924.914	0.88
925.646	-0.12
926.378	-0.12
927.11	-0.12
927.841	-1.12
928.573	1.88
929.305	0.88
930.036	1.88
930.768	0.88
931.499	-0.12
932.23	1.88
932.962	0.88
933.693	-0.12
934.424	-0.12
935.155	4.88
935.886	0.88
936.617	0.88
937.348	1.88
938.078	-0.12
938.809	1.88
939.54	-1.12
940.27	0.88
941.001	0.88
941.731	-1.12
942.461	0.88
943.191	1.88
943.922	-1.12
944.652	0.88
945.382	1.88
946.112	0.88
946.841	-0.12
947.571	-0.12
948.301	-1.12
949.031	0.88
949.76	0.88
950.49	2.88
951.219	1.88
951.948	0.88
952.678	0.88
953.407	-1.12
954.136	0.88
954.865	1.88
955.594	-0.12
956.323	0.88
957.052	0.88
957.78	-1.12
958.509	1.88
959.238	-1.12
959.966	0.88
960.695	-1.12
961.423	1.88
962.151	-0.12
962.88	-1.12
963.608	-1.12
964.336	-1.12
965.064	-0.12
965.792	-1.12
966.52	0.88
967.247	1.88
967.975	1.88
968.703	-1.12
969.43	-1.12
970.158	1.88
970.885	-0.12
971.613	1.88
972.34	0.88
973.067	0.88
973.794	-1.12
974.521	0.88
975.248	-0.12
975.975	-1.12
976.702	-1.12
977.429	-0.12
978.156	-1.12
978.882	0.88
979.609	-1.12
980.335	-1.12
981.062	0.88
981.788	-2.12
982.514	1.88
983.24	-0.12
983.967	-1.12
984.693	-0.12
985.419	-3.12
986.144	0.88
986.87	0.88
987.596	2.88
988.322	0.88
989.047	1.88
989.773	-1.12
990.498	0.88
991.224	-1.12
991.949	-0.12
992.674	0.88
993.399	0.88
994.124	0.88
994.849	0.88
995.574	0.88
996.299	1.88
997.024	-0.12
997.749	0.88
998.473	0.88
999.198	0.88
999.922	1.88
1000.647	-1.12
1001.371	3.88
1002.095	-2.12
1002.82	-1.12
1003.544	-1.12
1004.268	2.88
1004.992	2.88
1005.716	2.88
1006.439	3.88
1007.163	2.88
1007.887	3.88
1008.611	0.88
1009.334	0.88
1010.058	0.88
1010.781	2.88
1011.504	-2.12
1012.228	0.88
1012.951	-1.12
1013.674	1.88
1014.397	0.88
1015.12	-1.12
