节点500_705_QEPB04081__392__20-51-30-617.txt的数据

Date: Wed Nov 12 20:51:30 CST 2025
User: PC
Spectrometer: QEPB0408
触发模式: 0
积分时间 (秒): 1.000000E-2
Scans to average: 1
启用暗噪声校正: true
启用非线性校正: false
滑动平均宽度: 0
X轴模式: Wavelengths
Number of Pixels in Spectrum: 1044
>>>>>Begin Spectral Data<<<<<
220.843	5.62
221.644	8.62
222.444	4.62
223.244	7.62
224.045	5.62
224.845	7.62
225.645	6.62
226.445	6.62
227.245	10.62
228.045	6.62
228.845	8.62
229.645	7.62
230.444	8.62
231.244	8.62
232.043	11.62
232.843	9.62
233.642	9.62
234.442	8.62
235.241	11.62
236.04	10.62
236.839	10.62
237.638	11.62
238.437	9.62
239.236	11.62
240.035	12.62
240.833	11.62
241.632	11.62
242.43	13.62
243.229	13.62
244.027	11.62
244.826	15.62
245.624	14.62
246.422	15.62
247.22	15.62
248.018	12.62
248.816	15.62
249.614	14.62
250.412	15.62
251.21	17.62
252.007	18.62
252.805	17.62
253.602	16.62
254.4	19.62
255.197	18.62
255.994	21.62
256.791	18.62
257.589	20.62
258.386	23.62
259.183	21.62
259.979	21.62
260.776	24.62
261.573	25.62
262.37	24.62
263.166	26.62
263.963	25.62
264.759	24.62
265.556	26.62
266.352	27.62
267.148	27.62
267.944	29.62
268.74	27.62
269.536	31.62
270.332	27.62
271.128	31.62
271.924	32.62
272.719	29.62
273.515	32.62
274.311	30.62
275.106	35.62
275.901	31.62
276.697	33.62
277.492	33.62
278.287	32.62
279.082	33.62
279.877	34.62
280.672	34.62
281.467	34.62
282.262	33.62
283.056	35.62
283.851	32.62
284.646	32.62
285.44	32.62
286.234	33.62
287.029	34.62
287.823	31.62
288.617	35.62
289.411	30.62
290.205	34.62
290.999	34.62
291.793	31.62
292.587	29.62
293.381	29.62
294.174	31.62
294.968	29.62
295.761	28.62
296.555	27.62
297.348	24.62
298.141	27.62
298.935	29.62
299.728	26.62
300.521	25.62
301.314	25.62
302.107	23.62
302.899	24.62
303.692	22.62
304.485	22.62
305.277	25.62
306.07	22.62
306.862	20.62
307.655	27.62
308.447	21.62
309.239	20.62
310.031	20.62
310.823	21.62
311.615	20.62
312.407	18.62
313.199	16.62
313.991	16.62
314.783	18.62
315.574	15.62
316.366	15.62
317.157	18.62
317.949	12.62
318.74	15.62
319.531	15.62
320.322	14.62
321.113	13.62
321.904	14.62
322.695	14.62
323.486	13.62
324.277	15.62
325.068	12.62
325.858	13.62
326.649	15.62
327.439	12.62
328.23	14.62
329.02	11.62
329.81	12.62
330.6	13.62
331.391	13.62
332.181	10.62
332.971	14.62
333.76	15.62
334.55	12.62
335.34	11.62
336.13	13.62
336.919	12.62
337.709	12.62
338.498	13.62
339.287	10.62
340.077	12.62
340.866	12.62
341.655	11.62
342.444	8.62
343.233	14.62
344.022	13.62
344.811	13.62
345.6	13.62
346.388	12.62
347.177	12.62
347.965	9.62
348.754	13.62
349.542	11.62
350.33	9.62
351.119	9.62
351.907	10.62
352.695	13.62
353.483	10.62
354.271	9.62
355.059	8.62
355.846	8.62
356.634	11.62
357.422	12.62
358.209	12.62
358.997	9.62
359.784	11.62
360.571	10.62
361.359	11.62
362.146	10.62
362.933	9.62
363.72	10.62
364.507	12.62
365.294	8.62
366.081	12.62
366.867	9.62
367.654	10.62
368.44	9.62
369.227	9.62
370.013	8.62
370.8	12.62
371.586	13.62
372.372	9.62
373.158	10.62
373.944	12.62
374.73	11.62
375.516	12.62
376.302	8.62
377.088	9.62
377.873	9.62
378.659	10.62
379.445	11.62
380.23	10.62
381.015	12.62
381.801	9.62
382.586	11.62
383.371	10.62
384.156	11.62
384.941	12.62
385.726	12.62
386.511	13.62
387.296	10.62
388.08	14.62
388.865	11.62
389.649	11.62
390.434	11.62
391.218	10.62
392.003	12.62
392.787	12.62
393.571	10.62
394.355	12.62
395.139	14.62
395.923	12.62
396.707	13.62
397.491	13.62
398.274	10.62
399.058	11.62
399.842	13.62
400.625	14.62
401.408	13.62
402.192	15.62
402.975	12.62
403.758	12.62
404.541	12.62
405.324	14.62
406.107	16.62
406.89	17.62
407.673	15.62
408.456	14.62
409.238	13.62
410.021	15.62
410.803	17.62
411.586	18.62
412.368	18.62
413.151	16.62
413.933	17.62
414.715	15.62
415.497	19.62
416.279	18.62
417.061	20.62
417.843	21.62
418.624	21.62
419.406	19.62
420.188	20.62
420.969	21.62
421.751	20.62
422.532	23.62
423.313	22.62
424.095	26.62
424.876	23.62
425.657	25.62
426.438	23.62
427.219	27.62
428	28.62
428.78	27.62
429.561	28.62
430.342	29.62
431.122	28.62
431.903	36.62
432.683	35.62
433.464	37.62
434.244	35.62
435.024	39.62
435.804	43.62
436.584	40.62
437.364	48.62
438.144	48.62
438.924	47.62
439.704	52.62
440.483	57.62
441.263	62.62
442.042	68.62
442.822	69.62
443.601	78.62
444.38	83.62
445.16	88.62
445.939	93.62
446.718	103.62
447.497	117.62
448.276	128.62
449.054	137.62
449.833	149.62
450.612	163.62
451.391	184.62
452.169	200.62
452.948	223.62
453.726	241.62
454.504	266.62
455.282	300.62
456.061	335.62
456.839	380.62
457.617	420.62
458.395	472.62
459.172	517.62
459.95	581.62
460.728	647.62
461.506	720.62
462.283	802.62
463.061	903.62
463.838	986.62
464.615	1118.62
465.393	1237.62
466.17	1387.62
466.947	1513.62
467.724	1683.62
468.501	1862.62
469.278	2061.62
470.055	2269.62
470.831	2489.62
471.608	2776.62
472.385	3045.62
473.161	3355.62
473.938	3676.62
474.714	4047.62
475.49	4435.62
476.266	4847.62
477.043	5292.62
477.819	5808.62
478.595	6303.62
479.371	6883.62
480.146	7498.62
480.922	8184.62
481.698	8910.62
482.473	9693.62
483.249	10512.62
484.024	11413.62
484.8	12395.62
485.575	13382.62
486.35	14473.62
487.126	15659.62
487.901	16950.62
488.676	18221.62
489.451	19610.62
490.225	21084.62
491	22663.62
491.775	24155.62
492.55	25881.62
493.324	27579.62
494.099	29262.62
494.873	31040.62
495.647	32819.62
496.422	34504.62
497.196	36178.62
497.97	37869.62
498.744	39376.62
499.518	40991.62
500.292	42326.62
501.066	43399.62
501.839	44357.62
502.613	45062.62
503.387	45778.62
504.16	46325.62
504.934	46520.62
505.707	46515.62
506.48	46226.62
507.253	45827.62
508.027	45223.62
508.8	44334.62
509.573	43365.62
510.346	42474.62
511.118	41398.62
511.891	40321.62
512.664	38772.62
513.437	37318.62
514.209	36029.62
514.982	34715.62
515.754	33281.62
516.526	31932.62
517.298	30666.62
518.071	29475.62
518.843	28361.62
519.615	27132.62
520.387	26093.62
521.159	25078.62
521.93	24017.62
522.702	23042.62
523.474	22087.62
524.245	21181.62
525.017	20235.62
525.788	19374.62
526.56	18564.62
527.331	17769.62
528.102	16845.62
528.873	16064.62
529.644	15289.62
530.415	14568.62
531.186	13882.62
531.957	13202.62
532.728	12507.62
533.498	11827.62
534.269	11221.62
535.039	10615.62
535.81	10086.62
536.58	9511.62
537.351	9042.62
538.121	8545.62
538.891	8070.62
539.661	7636.62
540.431	7239.62
541.201	6860.62
541.971	6491.62
542.741	6160.62
543.51	5839.62
544.28	5587.62
545.05	5279.62
545.819	5068.62
546.588	4826.62
547.358	4601.62
548.127	4345.62
548.896	4151.62
549.665	3918.62
550.434	3720.62
551.203	3549.62
551.972	3360.62
552.741	3168.62
553.51	2994.62
554.278	2823.62
555.047	2678.62
555.815	2534.62
556.584	2396.62
557.352	2255.62
558.121	2120.62
558.889	2030.62
559.657	1909.62
560.425	1820.62
561.193	1707.62
561.961	1608.62
562.729	1532.62
563.496	1445.62
564.264	1364.62
565.032	1291.62
565.799	1230.62
566.567	1156.62
567.334	1090.62
568.101	1022.62
568.869	976.62
569.636	920.62
570.403	864.62
571.17	825.62
571.937	766.62
572.704	736.62
573.471	685.62
574.237	654.62
575.004	616.62
575.771	580.62
576.537	543.62
577.303	517.62
578.07	486.62
578.836	466.62
579.602	427.62
580.368	415.62
581.134	395.62
581.9	369.62
582.666	354.62
583.432	341.62
584.198	319.62
584.964	308.62
585.729	287.62
586.495	278.62
587.26	264.62
588.025	247.62
588.791	231.62
589.556	224.62
590.321	205.62
591.086	205.62
591.851	186.62
592.616	183.62
593.381	174.62
594.146	163.62
594.911	157.62
595.675	147.62
596.44	148.62
597.204	132.62
597.969	130.62
598.733	125.62
599.497	119.62
600.261	114.62
601.025	104.62
601.79	106.62
602.553	102.62
603.317	99.62
604.081	95.62
604.845	91.62
605.609	87.62
606.372	79.62
607.136	80.62
607.899	74.62
608.662	73.62
609.426	70.62
610.189	62.62
610.952	69.62
611.715	60.62
612.478	61.62
613.241	62.62
614.004	54.62
614.767	54.62
615.529	56.62
616.292	52.62
617.055	52.62
617.817	46.62
618.579	46.62
619.342	42.62
620.104	40.62
620.866	41.62
621.628	38.62
622.39	37.62
623.152	39.62
623.914	39.62
624.676	31.62
625.438	33.62
626.199	33.62
626.961	29.62
627.722	31.62
628.484	28.62
629.245	29.62
630.006	29.62
630.768	28.62
631.529	27.62
632.29	25.62
633.051	26.62
633.812	26.62
634.573	25.62
635.333	21.62
636.094	24.62
636.855	26.62
637.615	21.62
638.376	23.62
639.136	21.62
639.896	21.62
640.657	19.62
641.417	20.62
642.177	17.62
642.937	15.62
643.697	19.62
644.457	17.62
645.216	16.62
645.976	15.62
646.736	19.62
647.495	18.62
648.255	15.62
649.014	13.62
649.774	15.62
650.533	14.62
651.292	13.62
652.051	14.62
652.81	14.62
653.569	14.62
654.328	14.62
655.087	17.62
655.846	13.62
656.604	14.62
657.363	13.62
658.121	12.62
658.88	12.62
659.638	12.62
660.397	12.62
661.155	13.62
661.913	12.62
662.671	12.62
663.429	15.62
664.187	13.62
664.945	13.62
665.703	9.62
666.46	8.62
667.218	9.62
667.976	10.62
668.733	11.62
669.49	11.62
670.248	10.62
671.005	12.62
671.762	8.62
672.519	9.62
673.276	8.62
674.033	9.62
674.79	8.62
675.547	10.62
676.304	11.62
677.06	9.62
677.817	8.62
678.574	6.62
679.33	9.62
680.086	12.62
680.843	9.62
681.599	10.62
682.355	6.62
683.111	8.62
683.867	7.62
684.623	7.62
685.379	8.62
686.135	7.62
686.89	9.62
687.646	8.62
688.402	9.62
689.157	8.62
689.912	6.62
690.668	8.62
691.423	9.62
692.178	6.62
692.933	8.62
693.688	11.62
694.443	9.62
695.198	7.62
695.953	10.62
696.708	6.62
697.462	6.62
698.217	8.62
698.972	7.62
699.726	7.62
700.48	10.62
701.235	7.62
701.989	9.62
702.743	6.62
703.497	6.62
704.251	8.62
705.005	6.62
705.759	6.62
706.513	7.62
707.266	9.62
708.02	9.62
708.774	6.62
709.527	8.62
710.28	7.62
711.034	8.62
711.787	7.62
712.54	5.62
713.293	8.62
714.046	8.62
714.799	9.62
715.552	8.62
716.305	8.62
717.058	9.62
717.81	8.62
718.563	5.62
719.315	7.62
720.068	9.62
720.82	7.62
721.573	9.62
722.325	9.62
723.077	8.62
723.829	9.62
724.581	9.62
725.333	10.62
726.085	7.62
726.836	8.62
727.588	7.62
728.34	10.62
729.091	10.62
729.843	8.62
730.594	11.62
731.346	8.62
732.097	8.62
732.848	9.62
733.599	11.62
734.35	7.62
735.101	9.62
735.852	11.62
736.603	9.62
737.354	8.62
738.104	10.62
738.855	11.62
739.605	9.62
740.356	10.62
741.106	11.62
741.856	11.62
742.607	10.62
743.357	11.62
744.107	11.62
744.857	11.62
745.607	9.62
746.357	7.62
747.106	11.62
747.856	9.62
748.606	10.62
749.355	7.62
750.105	9.62
750.854	10.62
751.603	10.62
752.353	10.62
753.102	9.62
753.851	11.62
754.6	13.62
755.349	11.62
756.098	13.62
756.847	14.62
757.595	11.62
758.344	11.62
759.093	13.62
759.841	13.62
760.589	13.62
761.338	12.62
762.086	13.62
762.834	14.62
763.582	13.62
764.331	14.62
765.079	13.62
765.826	14.62
766.574	11.62
767.322	15.62
768.07	12.62
768.817	15.62
769.565	14.62
770.312	11.62
771.06	14.62
771.807	13.62
772.554	14.62
773.302	17.62
774.049	15.62
774.796	15.62
775.543	15.62
776.29	16.62
777.036	17.62
777.783	15.62
778.53	14.62
779.276	19.62
780.023	15.62
780.769	15.62
781.516	16.62
782.262	16.62
783.008	17.62
783.754	16.62
784.5	14.62
785.246	15.62
785.992	18.62
786.738	15.62
787.484	15.62
788.23	15.62
788.975	16.62
789.721	15.62
790.466	16.62
791.212	17.62
791.957	14.62
792.702	15.62
793.447	13.62
794.193	15.62
794.938	15.62
795.683	13.62
796.427	14.62
797.172	15.62
797.917	13.62
798.662	13.62
799.406	11.62
800.151	14.62
800.895	15.62
801.64	14.62
802.384	11.62
803.128	11.62
803.872	13.62
804.616	10.62
805.36	12.62
806.104	10.62
806.848	9.62
807.592	13.62
808.336	12.62
809.079	10.62
809.823	9.62
810.566	11.62
811.31	11.62
812.053	9.62
812.796	8.62
813.539	9.62
814.283	8.62
815.026	10.62
815.769	10.62
816.511	9.62
817.254	8.62
817.997	7.62
818.74	8.62
819.482	11.62
820.225	8.62
820.967	6.62
821.71	10.62
822.452	8.62
823.194	7.62
823.936	8.62
824.678	7.62
825.42	6.62
826.162	6.62
826.904	7.62
827.646	6.62
828.388	7.62
829.129	5.62
829.871	7.62
830.612	7.62
831.354	6.62
832.095	5.62
832.836	7.62
833.577	4.62
834.319	5.62
835.06	4.62
835.801	8.62
836.542	6.62
837.282	9.62
838.023	7.62
838.764	4.62
839.504	6.62
840.245	3.62
840.985	7.62
841.726	7.62
842.466	4.62
843.206	6.62
843.946	7.62
844.687	6.62
845.427	4.62
846.166	4.62
846.906	6.62
847.646	6.62
848.386	6.62
849.125	4.62
849.865	5.62
850.605	5.62
851.344	6.62
852.083	3.62
852.823	8.62
853.562	3.62
854.301	4.62
855.04	3.62
855.779	6.62
856.518	3.62
857.257	6.62
857.995	5.62
858.734	5.62
859.473	3.62
860.211	3.62
860.95	1.62
861.688	4.62
862.426	2.62
863.165	3.62
863.903	3.62
864.641	4.62
865.379	5.62
866.117	2.62
866.855	1.62
867.593	4.62
868.33	1.62
869.068	2.62
869.806	1.62
870.543	2.62
871.28	3.62
872.018	3.62
872.755	3.62
873.492	1.62
874.229	6.62
874.967	5.62
875.703	3.62
876.44	3.62
877.177	1.62
877.914	3.62
878.651	1.62
879.387	1.62
880.124	2.62
880.86	2.62
881.597	2.62
882.333	0.62
883.069	1.62
883.806	1.62
884.542	2.62
885.278	2.62
886.014	3.62
886.749	3.62
887.485	2.62
888.221	1.62
888.957	1.62
889.692	4.62
890.428	3.62
891.163	-0.38
891.899	1.62
892.634	2.62
893.369	-0.38
894.104	0.62
894.839	1.62
895.574	2.62
896.309	1.62
897.044	2.62
897.779	0.62
898.514	3.62
899.248	1.62
899.983	0.62
900.717	1.62
901.452	3.62
902.186	3.62
902.92	0.62
903.654	0.62
904.389	-0.38
905.123	1.62
905.857	0.62
906.59	0.62
907.324	3.62
908.058	2.62
908.792	0.62
909.525	-0.38
910.259	2.62
910.992	2.62
911.726	4.62
912.459	0.62
913.192	-0.38
913.925	-0.38
914.658	2.62
915.391	0.62
916.124	0.62
916.857	2.62
917.59	1.62
918.323	-0.38
919.055	0.62
919.788	2.62
920.521	0.62
921.253	1.62
921.985	1.62
922.718	-0.38
923.45	0.62
924.182	-0.38
924.914	2.62
925.646	1.62
926.378	-0.38
927.11	-0.38
927.841	-0.38
928.573	-0.38
929.305	-0.38
930.036	-0.38
930.768	1.62
931.499	-0.38
932.23	-0.38
932.962	2.62
933.693	1.62
934.424	2.62
935.155	1.62
935.886	0.62
936.617	0.62
937.348	-0.38
938.078	2.62
938.809	-0.38
939.54	0.62
940.27	0.62
941.001	1.62
941.731	-0.38
942.461	0.62
943.191	1.62
943.922	0.62
944.652	0.62
945.382	0.62
946.112	0.62
946.841	-0.38
947.571	-0.38
948.301	2.62
949.031	-1.38
949.76	2.62
950.49	-0.38
951.219	1.62
951.948	0.62
952.678	3.62
953.407	3.62
954.136	1.62
954.865	1.62
955.594	-1.38
956.323	1.62
957.052	2.62
957.78	-0.38
958.509	0.62
959.238	-1.38
959.966	1.62
960.695	0.62
961.423	-0.38
962.151	1.62
962.88	0.62
963.608	1.62
964.336	-0.38
965.064	1.62
965.792	0.62
966.52	-0.38
967.247	2.62
967.975	2.62
968.703	2.62
969.43	-0.38
970.158	0.62
970.885	1.62
971.613	2.62
972.34	0.62
973.067	0.62
973.794	-0.38
974.521	1.62
975.248	2.62
975.975	2.62
976.702	-0.38
977.429	0.62
978.156	-0.38
978.882	2.62
979.609	0.62
980.335	1.62
981.062	2.62
981.788	-0.38
982.514	1.62
983.24	1.62
983.967	0.62
984.693	0.62
985.419	-0.38
986.144	1.62
986.87	0.62
987.596	1.62
988.322	0.62
989.047	1.62
989.773	2.62
990.498	-1.38
991.224	2.62
991.949	1.62
992.674	0.62
993.399	1.62
994.124	-0.38
994.849	1.62
995.574	2.62
996.299	1.62
997.024	1.62
997.749	0.62
998.473	0.62
999.198	-2.38
999.922	1.62
1000.647	-0.38
1001.371	2.62
1002.095	-3.38
1002.82	0.62
1003.544	-0.38
1004.268	7.62
1004.992	6.62
1005.716	4.62
1006.439	4.62
1007.163	5.62
1007.887	6.62
1008.611	0.62
1009.334	0.62
1010.058	1.62
1010.781	0.62
1011.504	0.62
1012.228	1.62
1012.951	-1.38
1013.674	0.62
1014.397	1.62
1015.12	-0.38
