节点500_705_QEPB04081__442__20-52-10-736.txt的数据

Date: Wed Nov 12 20:52:10 CST 2025
User: PC
Spectrometer: QEPB0408
触发模式: 0
积分时间 (秒): 1.000000E-2
Scans to average: 1
启用暗噪声校正: true
启用非线性校正: false
滑动平均宽度: 0
X轴模式: Wavelengths
Number of Pixels in Spectrum: 1044
>>>>>Begin Spectral Data<<<<<
220.843	6.25
221.644	5.25
222.444	5.25
223.244	6.25
224.045	6.25
224.845	7.25
225.645	6.25
226.445	8.25
227.245	7.25
228.045	6.25
228.845	10.25
229.645	9.25
230.444	10.25
231.244	8.25
232.043	6.25
232.843	11.25
233.642	8.25
234.442	8.25
235.241	10.25
236.04	9.25
236.839	10.25
237.638	10.25
238.437	11.25
239.236	12.25
240.035	11.25
240.833	11.25
241.632	13.25
242.43	13.25
243.229	12.25
244.027	12.25
244.826	14.25
245.624	12.25
246.422	15.25
247.22	13.25
248.018	14.25
248.816	15.25
249.614	19.25
250.412	15.25
251.21	13.25
252.007	16.25
252.805	16.25
253.602	17.25
254.4	17.25
255.197	18.25
255.994	18.25
256.791	18.25
257.589	23.25
258.386	18.25
259.183	22.25
259.979	21.25
260.776	22.25
261.573	22.25
262.37	24.25
263.166	27.25
263.963	23.25
264.759	22.25
265.556	21.25
266.352	22.25
267.148	24.25
267.944	26.25
268.74	32.25
269.536	28.25
270.332	29.25
271.128	29.25
271.924	31.25
272.719	30.25
273.515	30.25
274.311	32.25
275.106	35.25
275.901	33.25
276.697	31.25
277.492	30.25
278.287	36.25
279.082	32.25
279.877	33.25
280.672	34.25
281.467	34.25
282.262	35.25
283.056	31.25
283.851	32.25
284.646	31.25
285.44	33.25
286.234	35.25
287.029	30.25
287.823	31.25
288.617	29.25
289.411	34.25
290.205	30.25
290.999	30.25
291.793	32.25
292.587	27.25
293.381	31.25
294.174	29.25
294.968	33.25
295.761	29.25
296.555	26.25
297.348	29.25
298.141	27.25
298.935	29.25
299.728	24.25
300.521	27.25
301.314	23.25
302.107	23.25
302.899	24.25
303.692	25.25
304.485	24.25
305.277	23.25
306.07	22.25
306.862	23.25
307.655	22.25
308.447	24.25
309.239	24.25
310.031	19.25
310.823	21.25
311.615	20.25
312.407	21.25
313.199	19.25
313.991	17.25
314.783	17.25
315.574	18.25
316.366	18.25
317.157	17.25
317.949	16.25
318.74	15.25
319.531	15.25
320.322	17.25
321.113	12.25
321.904	15.25
322.695	18.25
323.486	16.25
324.277	14.25
325.068	13.25
325.858	15.25
326.649	13.25
327.439	14.25
328.23	13.25
329.02	13.25
329.81	14.25
330.6	9.25
331.391	10.25
332.181	12.25
332.971	10.25
333.76	12.25
334.55	14.25
335.34	13.25
336.13	10.25
336.919	10.25
337.709	11.25
338.498	13.25
339.287	15.25
340.077	11.25
340.866	11.25
341.655	10.25
342.444	11.25
343.233	10.25
344.022	9.25
344.811	13.25
345.6	10.25
346.388	13.25
347.177	13.25
347.965	12.25
348.754	11.25
349.542	13.25
350.33	10.25
351.119	9.25
351.907	11.25
352.695	10.25
353.483	10.25
354.271	11.25
355.059	11.25
355.846	8.25
356.634	14.25
357.422	12.25
358.209	9.25
358.997	9.25
359.784	11.25
360.571	9.25
361.359	10.25
362.146	8.25
362.933	11.25
363.72	11.25
364.507	11.25
365.294	11.25
366.081	10.25
366.867	8.25
367.654	7.25
368.44	10.25
369.227	10.25
370.013	11.25
370.8	9.25
371.586	9.25
372.372	9.25
373.158	12.25
373.944	9.25
374.73	11.25
375.516	11.25
376.302	9.25
377.088	7.25
377.873	11.25
378.659	11.25
379.445	7.25
380.23	9.25
381.015	10.25
381.801	9.25
382.586	10.25
383.371	10.25
384.156	10.25
384.941	9.25
385.726	8.25
386.511	8.25
387.296	14.25
388.08	11.25
388.865	9.25
389.649	14.25
390.434	11.25
391.218	13.25
392.003	11.25
392.787	12.25
393.571	14.25
394.355	14.25
395.139	11.25
395.923	12.25
396.707	14.25
397.491	12.25
398.274	12.25
399.058	15.25
399.842	14.25
400.625	12.25
401.408	14.25
402.192	13.25
402.975	11.25
403.758	14.25
404.541	16.25
405.324	15.25
406.107	12.25
406.89	13.25
407.673	14.25
408.456	18.25
409.238	15.25
410.021	16.25
410.803	16.25
411.586	18.25
412.368	16.25
413.151	17.25
413.933	17.25
414.715	17.25
415.497	20.25
416.279	18.25
417.061	20.25
417.843	19.25
418.624	21.25
419.406	18.25
420.188	18.25
420.969	24.25
421.751	20.25
422.532	21.25
423.313	23.25
424.095	20.25
424.876	22.25
425.657	24.25
426.438	26.25
427.219	28.25
428	25.25
428.78	26.25
429.561	28.25
430.342	31.25
431.122	28.25
431.903	33.25
432.683	34.25
433.464	33.25
434.244	35.25
435.024	40.25
435.804	40.25
436.584	45.25
437.364	45.25
438.144	45.25
438.924	48.25
439.704	52.25
440.483	57.25
441.263	59.25
442.042	61.25
442.822	72.25
443.601	76.25
444.38	84.25
445.16	92.25
445.939	98.25
446.718	107.25
447.497	120.25
448.276	123.25
449.054	136.25
449.833	151.25
450.612	170.25
451.391	181.25
452.169	201.25
452.948	230.25
453.726	247.25
454.504	274.25
455.282	307.25
456.061	333.25
456.839	389.25
457.617	425.25
458.395	479.25
459.172	520.25
459.95	589.25
460.728	658.25
461.506	725.25
462.283	793.25
463.061	904.25
463.838	991.25
464.615	1114.25
465.393	1218.25
466.17	1367.25
466.947	1504.25
467.724	1667.25
468.501	1863.25
469.278	2059.25
470.055	2273.25
470.831	2493.25
471.608	2758.25
472.385	3039.25
473.161	3351.25
473.938	3657.25
474.714	4006.25
475.49	4401.25
476.266	4807.25
477.043	5230.25
477.819	5722.25
478.595	6244.25
479.371	6780.25
480.146	7422.25
480.922	8067.25
481.698	8748.25
482.473	9536.25
483.249	10367.25
484.024	11212.25
484.8	12152.25
485.575	13072.25
486.35	14166.25
487.126	15340.25
487.901	16483.25
488.676	17753.25
489.451	19099.25
490.225	20550.25
491	22017.25
491.775	23553.25
492.55	25166.25
493.324	26827.25
494.099	28482.25
494.873	30138.25
495.647	31933.25
496.422	33563.25
497.196	35269.25
497.97	36845.25
498.744	38397.25
499.518	39948.25
500.292	41296.25
501.066	42341.25
501.839	43259.25
502.613	44274.25
503.387	44875.25
504.16	45458.25
504.934	45644.25
505.707	45725.25
506.48	45507.25
507.253	45113.25
508.027	44670.25
508.8	43904.25
509.573	43055.25
510.346	42126.25
511.118	41192.25
511.891	40076.25
512.664	38568.25
513.437	37239.25
514.209	35942.25
514.982	34583.25
515.754	33280.25
516.526	32034.25
517.298	30684.25
518.071	29474.25
518.843	28382.25
519.615	27138.25
520.387	26117.25
521.159	25073.25
521.93	24085.25
522.702	23060.25
523.474	22080.25
524.245	21188.25
525.017	20297.25
525.788	19429.25
526.56	18647.25
527.331	17850.25
528.102	16944.25
528.873	16150.25
529.644	15341.25
530.415	14629.25
531.186	13950.25
531.957	13273.25
532.728	12587.25
533.498	11947.25
534.269	11330.25
535.039	10716.25
535.81	10176.25
536.58	9622.25
537.351	9096.25
538.121	8635.25
538.891	8150.25
539.661	7708.25
540.431	7287.25
541.201	6933.25
541.971	6555.25
542.741	6205.25
543.51	5865.25
544.28	5610.25
545.05	5319.25
545.819	5089.25
546.588	4865.25
547.358	4627.25
548.127	4399.25
548.896	4175.25
549.665	3972.25
550.434	3777.25
551.203	3559.25
551.972	3425.25
552.741	3208.25
553.51	3036.25
554.278	2855.25
555.047	2691.25
555.815	2556.25
556.584	2424.25
557.352	2283.25
558.121	2167.25
558.889	2039.25
559.657	1914.25
560.425	1831.25
561.193	1715.25
561.961	1657.25
562.729	1535.25
563.496	1464.25
564.264	1385.25
565.032	1298.25
565.799	1231.25
566.567	1173.25
567.334	1110.25
568.101	1042.25
568.869	988.25
569.636	934.25
570.403	881.25
571.17	836.25
571.937	789.25
572.704	741.25
573.471	686.25
574.237	660.25
575.004	632.25
575.771	592.25
576.537	547.25
577.303	519.25
578.07	499.25
578.836	466.25
579.602	441.25
580.368	421.25
581.134	400.25
581.9	373.25
582.666	360.25
583.432	340.25
584.198	328.25
584.964	310.25
585.729	290.25
586.495	279.25
587.26	263.25
588.025	245.25
588.791	237.25
589.556	226.25
590.321	213.25
591.086	199.25
591.851	198.25
592.616	183.25
593.381	172.25
594.146	162.25
594.911	156.25
595.675	156.25
596.44	147.25
597.204	136.25
597.969	135.25
598.733	131.25
599.497	117.25
600.261	117.25
601.025	111.25
601.79	106.25
602.553	100.25
603.317	101.25
604.081	92.25
604.845	92.25
605.609	82.25
606.372	82.25
607.136	79.25
607.899	75.25
608.662	74.25
609.426	67.25
610.189	71.25
610.952	65.25
611.715	61.25
612.478	64.25
613.241	59.25
614.004	61.25
614.767	55.25
615.529	57.25
616.292	53.25
617.055	51.25
617.817	49.25
618.579	45.25
619.342	45.25
620.104	43.25
620.866	45.25
621.628	41.25
622.39	38.25
623.152	36.25
623.914	36.25
624.676	37.25
625.438	34.25
626.199	36.25
626.961	32.25
627.722	31.25
628.484	30.25
629.245	31.25
630.006	29.25
630.768	28.25
631.529	26.25
632.29	27.25
633.051	24.25
633.812	23.25
634.573	22.25
635.333	26.25
636.094	23.25
636.855	22.25
637.615	22.25
638.376	19.25
639.136	25.25
639.896	20.25
640.657	18.25
641.417	17.25
642.177	17.25
642.937	21.25
643.697	20.25
644.457	15.25
645.216	17.25
645.976	16.25
646.736	19.25
647.495	12.25
648.255	15.25
649.014	15.25
649.774	15.25
650.533	15.25
651.292	14.25
652.051	16.25
652.81	14.25
653.569	14.25
654.328	11.25
655.087	12.25
655.846	12.25
656.604	11.25
657.363	11.25
658.121	14.25
658.88	10.25
659.638	12.25
660.397	12.25
661.155	13.25
661.913	9.25
662.671	12.25
663.429	12.25
664.187	8.25
664.945	10.25
665.703	12.25
666.46	11.25
667.218	10.25
667.976	10.25
668.733	10.25
669.49	11.25
670.248	8.25
671.005	10.25
671.762	9.25
672.519	7.25
673.276	11.25
674.033	10.25
674.79	8.25
675.547	10.25
676.304	10.25
677.06	10.25
677.817	9.25
678.574	5.25
679.33	10.25
680.086	10.25
680.843	10.25
681.599	9.25
682.355	9.25
683.111	8.25
683.867	10.25
684.623	10.25
685.379	7.25
686.135	9.25
686.89	8.25
687.646	7.25
688.402	9.25
689.157	9.25
689.912	7.25
690.668	9.25
691.423	8.25
692.178	8.25
692.933	9.25
693.688	6.25
694.443	10.25
695.198	8.25
695.953	8.25
696.708	6.25
697.462	8.25
698.217	4.25
698.972	7.25
699.726	9.25
700.48	8.25
701.235	9.25
701.989	7.25
702.743	8.25
703.497	7.25
704.251	9.25
705.005	6.25
705.759	9.25
706.513	7.25
707.266	9.25
708.02	9.25
708.774	4.25
709.527	7.25
710.28	6.25
711.034	7.25
711.787	8.25
712.54	7.25
713.293	8.25
714.046	8.25
714.799	8.25
715.552	8.25
716.305	8.25
717.058	9.25
717.81	6.25
718.563	7.25
719.315	7.25
720.068	10.25
720.82	9.25
721.573	6.25
722.325	9.25
723.077	8.25
723.829	8.25
724.581	9.25
725.333	7.25
726.085	7.25
726.836	8.25
727.588	7.25
728.34	7.25
729.091	11.25
729.843	10.25
730.594	10.25
731.346	8.25
732.097	9.25
732.848	9.25
733.599	11.25
734.35	11.25
735.101	10.25
735.852	7.25
736.603	10.25
737.354	6.25
738.104	9.25
738.855	10.25
739.605	10.25
740.356	9.25
741.106	8.25
741.856	10.25
742.607	10.25
743.357	12.25
744.107	9.25
744.857	12.25
745.607	10.25
746.357	6.25
747.106	8.25
747.856	11.25
748.606	11.25
749.355	10.25
750.105	9.25
750.854	11.25
751.603	9.25
752.353	11.25
753.102	11.25
753.851	9.25
754.6	13.25
755.349	11.25
756.098	9.25
756.847	12.25
757.595	11.25
758.344	13.25
759.093	10.25
759.841	13.25
760.589	10.25
761.338	13.25
762.086	9.25
762.834	13.25
763.582	14.25
764.331	9.25
765.079	14.25
765.826	12.25
766.574	14.25
767.322	13.25
768.07	12.25
768.817	14.25
769.565	13.25
770.312	15.25
771.06	12.25
771.807	14.25
772.554	16.25
773.302	12.25
774.049	16.25
774.796	14.25
775.543	14.25
776.29	16.25
777.036	15.25
777.783	11.25
778.53	15.25
779.276	16.25
780.023	15.25
780.769	17.25
781.516	17.25
782.262	13.25
783.008	16.25
783.754	14.25
784.5	14.25
785.246	15.25
785.992	13.25
786.738	13.25
787.484	15.25
788.23	13.25
788.975	17.25
789.721	16.25
790.466	15.25
791.212	14.25
791.957	15.25
792.702	14.25
793.447	15.25
794.193	12.25
794.938	15.25
795.683	13.25
796.427	14.25
797.172	16.25
797.917	12.25
798.662	13.25
799.406	13.25
800.151	13.25
800.895	14.25
801.64	12.25
802.384	11.25
803.128	11.25
803.872	11.25
804.616	12.25
805.36	10.25
806.104	10.25
806.848	11.25
807.592	11.25
808.336	7.25
809.079	10.25
809.823	8.25
810.566	10.25
811.31	9.25
812.053	10.25
812.796	10.25
813.539	7.25
814.283	7.25
815.026	9.25
815.769	10.25
816.511	8.25
817.254	8.25
817.997	9.25
818.74	9.25
819.482	8.25
820.225	6.25
820.967	8.25
821.71	8.25
822.452	7.25
823.194	6.25
823.936	5.25
824.678	6.25
825.42	8.25
826.162	7.25
826.904	8.25
827.646	9.25
828.388	6.25
829.129	8.25
829.871	4.25
830.612	5.25
831.354	7.25
832.095	7.25
832.836	7.25
833.577	6.25
834.319	10.25
835.06	5.25
835.801	6.25
836.542	6.25
837.282	5.25
838.023	6.25
838.764	6.25
839.504	3.25
840.245	4.25
840.985	6.25
841.726	5.25
842.466	5.25
843.206	3.25
843.946	4.25
844.687	5.25
845.427	3.25
846.166	4.25
846.906	6.25
847.646	6.25
848.386	3.25
849.125	6.25
849.865	6.25
850.605	5.25
851.344	3.25
852.083	8.25
852.823	6.25
853.562	7.25
854.301	5.25
855.04	4.25
855.779	3.25
856.518	5.25
857.257	3.25
857.995	5.25
858.734	3.25
859.473	3.25
860.211	3.25
860.95	4.25
861.688	3.25
862.426	5.25
863.165	6.25
863.903	2.25
864.641	5.25
865.379	2.25
866.117	3.25
866.855	3.25
867.593	2.25
868.33	4.25
869.068	3.25
869.806	3.25
870.543	2.25
871.28	2.25
872.018	3.25
872.755	3.25
873.492	2.25
874.229	2.25
874.967	3.25
875.703	2.25
876.44	4.25
877.177	4.25
877.914	2.25
878.651	2.25
879.387	3.25
880.124	2.25
880.86	1.25
881.597	3.25
882.333	2.25
883.069	1.25
883.806	1.25
884.542	1.25
885.278	4.25
886.014	2.25
886.749	2.25
887.485	3.25
888.221	1.25
888.957	2.25
889.692	2.25
890.428	0.25
891.163	2.25
891.899	1.25
892.634	2.25
893.369	1.25
894.104	2.25
894.839	2.25
895.574	0.25
896.309	0.25
897.044	1.25
897.779	2.25
898.514	2.25
899.248	0.25
899.983	3.25
900.717	-0.75
901.452	3.25
902.186	1.25
902.92	2.25
903.654	-0.75
904.389	0.25
905.123	2.25
905.857	-0.75
906.59	2.25
907.324	2.25
908.058	1.25
908.792	3.25
909.525	-0.75
910.259	1.25
910.992	1.25
911.726	1.25
912.459	1.25
913.192	0.25
913.925	1.25
914.658	-0.75
915.391	1.25
916.124	-0.75
916.857	2.25
917.59	2.25
918.323	1.25
919.055	0.25
919.788	1.25
920.521	1.25
921.253	0.25
921.985	1.25
922.718	0.25
923.45	1.25
924.182	0.25
924.914	1.25
925.646	-0.75
926.378	0.25
927.11	1.25
927.841	1.25
928.573	0.25
929.305	0.25
930.036	1.25
930.768	1.25
931.499	2.25
932.23	0.25
932.962	1.25
933.693	-0.75
934.424	3.25
935.155	0.25
935.886	-0.75
936.617	1.25
937.348	1.25
938.078	1.25
938.809	-1.75
939.54	0.25
940.27	-0.75
941.001	0.25
941.731	0.25
942.461	-0.75
943.191	1.25
943.922	0.25
944.652	0.25
945.382	-1.75
946.112	3.25
946.841	0.25
947.571	0.25
948.301	4.25
949.031	0.25
949.76	1.25
950.49	0.25
951.219	1.25
951.948	2.25
952.678	0.25
953.407	2.25
954.136	0.25
954.865	1.25
955.594	0.25
956.323	-0.75
957.052	1.25
957.78	-0.75
958.509	-0.75
959.238	1.25
959.966	1.25
960.695	2.25
961.423	-0.75
962.151	0.25
962.88	-0.75
963.608	0.25
964.336	2.25
965.064	-0.75
965.792	2.25
966.52	-1.75
967.247	2.25
967.975	0.25
968.703	0.25
969.43	1.25
970.158	1.25
970.885	0.25
971.613	-0.75
972.34	-0.75
973.067	-0.75
973.794	-0.75
974.521	2.25
975.248	-0.75
975.975	0.25
976.702	0.25
977.429	-0.75
978.156	1.25
978.882	3.25
979.609	2.25
980.335	0.25
981.062	1.25
981.788	-0.75
982.514	0.25
983.24	0.25
983.967	0.25
984.693	1.25
985.419	0.25
986.144	0.25
986.87	0.25
987.596	-1.75
988.322	3.25
989.047	-0.75
989.773	1.25
990.498	1.25
991.224	-1.75
991.949	0.25
992.674	1.25
993.399	1.25
994.124	0.25
994.849	1.25
995.574	0.25
996.299	0.25
997.024	1.25
997.749	0.25
998.473	3.25
999.198	0.25
999.922	0.25
1000.647	1.25
1001.371	1.25
1002.095	1.25
1002.82	-0.75
1003.544	-2.75
1004.268	4.25
1004.992	3.25
1005.716	4.25
1006.439	4.25
1007.163	5.25
1007.887	5.25
1008.611	-0.75
1009.334	1.25
1010.058	0.25
1010.781	0.25
1011.504	-0.75
1012.228	-0.75
1012.951	0.25
1013.674	-0.75
1014.397	0.25
1015.12	1.25
