节点500_705_QEPB04081__590__20-54-18-802.txt的数据

Date: Wed Nov 12 20:54:18 CST 2025
User: PC
Spectrometer: QEPB0408
触发模式: 0
积分时间 (秒): 1.000000E-2
Scans to average: 1
启用暗噪声校正: true
启用非线性校正: false
滑动平均宽度: 0
X轴模式: Wavelengths
Number of Pixels in Spectrum: 1044
>>>>>Begin Spectral Data<<<<<
220.843	4.88
221.644	4.88
222.444	5.88
223.244	5.88
224.045	6.88
224.845	5.88
225.645	5.88
226.445	8.88
227.245	10.88
228.045	6.88
228.845	8.88
229.645	6.88
230.444	6.88
231.244	6.88
232.043	8.88
232.843	4.88
233.642	8.88
234.442	9.88
235.241	10.88
236.04	8.88
236.839	10.88
237.638	8.88
238.437	10.88
239.236	12.88
240.035	8.88
240.833	10.88
241.632	10.88
242.43	10.88
243.229	11.88
244.027	11.88
244.826	10.88
245.624	10.88
246.422	12.88
247.22	11.88
248.018	12.88
248.816	13.88
249.614	13.88
250.412	14.88
251.21	12.88
252.007	14.88
252.805	14.88
253.602	14.88
254.4	15.88
255.197	14.88
255.994	18.88
256.791	16.88
257.589	18.88
258.386	17.88
259.183	18.88
259.979	19.88
260.776	18.88
261.573	17.88
262.37	22.88
263.166	21.88
263.963	25.88
264.759	21.88
265.556	24.88
266.352	24.88
267.148	22.88
267.944	25.88
268.74	24.88
269.536	26.88
270.332	24.88
271.128	25.88
271.924	27.88
272.719	27.88
273.515	29.88
274.311	24.88
275.106	28.88
275.901	29.88
276.697	30.88
277.492	30.88
278.287	29.88
279.082	33.88
279.877	30.88
280.672	31.88
281.467	31.88
282.262	28.88
283.056	30.88
283.851	31.88
284.646	30.88
285.44	30.88
286.234	29.88
287.029	29.88
287.823	30.88
288.617	35.88
289.411	30.88
290.205	30.88
290.999	27.88
291.793	28.88
292.587	29.88
293.381	28.88
294.174	30.88
294.968	26.88
295.761	26.88
296.555	27.88
297.348	23.88
298.141	26.88
298.935	27.88
299.728	22.88
300.521	23.88
301.314	25.88
302.107	22.88
302.899	22.88
303.692	21.88
304.485	21.88
305.277	23.88
306.07	18.88
306.862	22.88
307.655	20.88
308.447	17.88
309.239	19.88
310.031	18.88
310.823	17.88
311.615	17.88
312.407	18.88
313.199	15.88
313.991	18.88
314.783	17.88
315.574	16.88
316.366	15.88
317.157	18.88
317.949	12.88
318.74	17.88
319.531	16.88
320.322	12.88
321.113	14.88
321.904	12.88
322.695	13.88
323.486	10.88
324.277	13.88
325.068	14.88
325.858	12.88
326.649	12.88
327.439	12.88
328.23	11.88
329.02	12.88
329.81	12.88
330.6	10.88
331.391	11.88
332.181	13.88
332.971	12.88
333.76	13.88
334.55	9.88
335.34	11.88
336.13	13.88
336.919	10.88
337.709	13.88
338.498	12.88
339.287	11.88
340.077	10.88
340.866	8.88
341.655	14.88
342.444	9.88
343.233	10.88
344.022	10.88
344.811	6.88
345.6	13.88
346.388	8.88
347.177	14.88
347.965	10.88
348.754	10.88
349.542	10.88
350.33	9.88
351.119	10.88
351.907	6.88
352.695	11.88
353.483	10.88
354.271	9.88
355.059	10.88
355.846	8.88
356.634	10.88
357.422	10.88
358.209	6.88
358.997	8.88
359.784	10.88
360.571	10.88
361.359	10.88
362.146	10.88
362.933	8.88
363.72	10.88
364.507	8.88
365.294	7.88
366.081	9.88
366.867	8.88
367.654	9.88
368.44	9.88
369.227	9.88
370.013	9.88
370.8	6.88
371.586	9.88
372.372	8.88
373.158	10.88
373.944	9.88
374.73	7.88
375.516	9.88
376.302	10.88
377.088	10.88
377.873	7.88
378.659	7.88
379.445	10.88
380.23	8.88
381.015	11.88
381.801	8.88
382.586	11.88
383.371	8.88
384.156	9.88
384.941	12.88
385.726	10.88
386.511	10.88
387.296	8.88
388.08	8.88
388.865	10.88
389.649	9.88
390.434	10.88
391.218	12.88
392.003	11.88
392.787	11.88
393.571	10.88
394.355	10.88
395.139	10.88
395.923	10.88
396.707	13.88
397.491	10.88
398.274	10.88
399.058	13.88
399.842	11.88
400.625	13.88
401.408	13.88
402.192	12.88
402.975	12.88
403.758	15.88
404.541	11.88
405.324	15.88
406.107	14.88
406.89	14.88
407.673	13.88
408.456	12.88
409.238	15.88
410.021	16.88
410.803	16.88
411.586	17.88
412.368	14.88
413.151	15.88
413.933	13.88
414.715	16.88
415.497	15.88
416.279	17.88
417.061	17.88
417.843	18.88
418.624	22.88
419.406	16.88
420.188	21.88
420.969	19.88
421.751	21.88
422.532	23.88
423.313	22.88
424.095	22.88
424.876	21.88
425.657	23.88
426.438	27.88
427.219	24.88
428	25.88
428.78	26.88
429.561	27.88
430.342	27.88
431.122	33.88
431.903	30.88
432.683	33.88
433.464	34.88
434.244	34.88
435.024	37.88
435.804	39.88
436.584	42.88
437.364	44.88
438.144	46.88
438.924	52.88
439.704	57.88
440.483	57.88
441.263	61.88
442.042	68.88
442.822	73.88
443.601	77.88
444.38	83.88
445.16	92.88
445.939	95.88
446.718	110.88
447.497	118.88
448.276	127.88
449.054	141.88
449.833	158.88
450.612	166.88
451.391	193.88
452.169	209.88
452.948	238.88
453.726	255.88
454.504	280.88
455.282	316.88
456.061	356.88
456.839	391.88
457.617	435.88
458.395	488.88
459.172	546.88
459.95	609.88
460.728	666.88
461.506	742.88
462.283	823.88
463.061	920.88
463.838	1017.88
464.615	1121.88
465.393	1256.88
466.17	1379.88
466.947	1552.88
467.724	1699.88
468.501	1889.88
469.278	2063.88
470.055	2278.88
470.831	2520.88
471.608	2758.88
472.385	3013.88
473.161	3296.88
473.938	3596.88
474.714	3970.88
475.49	4319.88
476.266	4711.88
477.043	5127.88
477.819	5587.88
478.595	6054.88
479.371	6606.88
480.146	7150.88
480.922	7782.88
481.698	8466.88
482.473	9106.88
483.249	9889.88
484.024	10670.88
484.8	11555.88
485.575	12423.88
486.35	13441.88
487.126	14507.88
487.901	15562.88
488.676	16676.88
489.451	17977.88
490.225	19269.88
491	20592.88
491.775	22003.88
492.55	23552.88
493.324	25022.88
494.099	26582.88
494.873	28191.88
495.647	29733.88
496.422	31298.88
497.196	32917.88
497.97	34449.88
498.744	35952.88
499.518	37438.88
500.292	38770.88
501.066	39839.88
501.839	40844.88
502.613	41800.88
503.387	42498.88
504.16	43206.88
504.934	43683.88
505.707	43745.88
506.48	43754.88
507.253	43563.88
508.027	43217.88
508.8	42677.88
509.573	41930.88
510.346	41304.88
511.118	40435.88
511.891	39474.88
512.664	38109.88
513.437	36969.88
514.209	35757.88
514.982	34476.88
515.754	33266.88
516.526	31984.88
517.298	30740.88
518.071	29624.88
518.843	28429.88
519.615	27270.88
520.387	26199.88
521.159	25191.88
521.93	24168.88
522.702	23241.88
523.474	22290.88
524.245	21332.88
525.017	20511.88
525.788	19628.88
526.56	18815.88
527.331	18074.88
528.102	17201.88
528.873	16361.88
529.644	15598.88
530.415	14860.88
531.186	14162.88
531.957	13537.88
532.728	12878.88
533.498	12206.88
534.269	11588.88
535.039	10992.88
535.81	10383.88
536.58	9872.88
537.351	9333.88
538.121	8825.88
538.891	8348.88
539.661	7907.88
540.431	7482.88
541.201	7118.88
541.971	6752.88
542.741	6361.88
543.51	6039.88
544.28	5770.88
545.05	5510.88
545.819	5265.88
546.588	5001.88
547.358	4755.88
548.127	4536.88
548.896	4297.88
549.665	4078.88
550.434	3891.88
551.203	3665.88
551.972	3498.88
552.741	3327.88
553.51	3120.88
554.278	2967.88
555.047	2788.88
555.815	2658.88
556.584	2501.88
557.352	2367.88
558.121	2239.88
558.889	2111.88
559.657	1988.88
560.425	1895.88
561.193	1801.88
561.961	1704.88
562.729	1607.88
563.496	1520.88
564.264	1454.88
565.032	1368.88
565.799	1288.88
566.567	1209.88
567.334	1145.88
568.101	1085.88
568.869	1026.88
569.636	977.88
570.403	898.88
571.17	862.88
571.937	819.88
572.704	763.88
573.471	733.88
574.237	689.88
575.004	653.88
575.771	598.88
576.537	583.88
577.303	543.88
578.07	511.88
578.836	485.88
579.602	451.88
580.368	432.88
581.134	414.88
581.9	397.88
582.666	370.88
583.432	358.88
584.198	334.88
584.964	322.88
585.729	303.88
586.495	284.88
587.26	274.88
588.025	258.88
588.791	246.88
589.556	230.88
590.321	226.88
591.086	210.88
591.851	195.88
592.616	192.88
593.381	176.88
594.146	173.88
594.911	162.88
595.675	152.88
596.44	145.88
597.204	149.88
597.969	135.88
598.733	131.88
599.497	125.88
600.261	119.88
601.025	116.88
601.79	116.88
602.553	104.88
603.317	103.88
604.081	94.88
604.845	91.88
605.609	90.88
606.372	82.88
607.136	84.88
607.899	77.88
608.662	70.88
609.426	72.88
610.189	71.88
610.952	66.88
611.715	60.88
612.478	63.88
613.241	60.88
614.004	61.88
614.767	55.88
615.529	51.88
616.292	51.88
617.055	50.88
617.817	48.88
618.579	47.88
619.342	45.88
620.104	42.88
620.866	44.88
621.628	42.88
622.39	41.88
623.152	37.88
623.914	36.88
624.676	36.88
625.438	35.88
626.199	33.88
626.961	34.88
627.722	32.88
628.484	31.88
629.245	28.88
630.006	25.88
630.768	28.88
631.529	26.88
632.29	24.88
633.051	27.88
633.812	28.88
634.573	26.88
635.333	24.88
636.094	25.88
636.855	22.88
637.615	20.88
638.376	21.88
639.136	21.88
639.896	21.88
640.657	22.88
641.417	18.88
642.177	18.88
642.937	17.88
643.697	16.88
644.457	17.88
645.216	15.88
645.976	14.88
646.736	17.88
647.495	14.88
648.255	15.88
649.014	16.88
649.774	12.88
650.533	13.88
651.292	15.88
652.051	13.88
652.81	10.88
653.569	10.88
654.328	15.88
655.087	10.88
655.846	13.88
656.604	11.88
657.363	11.88
658.121	12.88
658.88	10.88
659.638	12.88
660.397	13.88
661.155	9.88
661.913	9.88
662.671	9.88
663.429	10.88
664.187	8.88
664.945	8.88
665.703	12.88
666.46	7.88
667.218	9.88
667.976	8.88
668.733	9.88
669.49	10.88
670.248	10.88
671.005	8.88
671.762	8.88
672.519	10.88
673.276	7.88
674.033	10.88
674.79	7.88
675.547	8.88
676.304	8.88
677.06	8.88
677.817	8.88
678.574	7.88
679.33	8.88
680.086	6.88
680.843	8.88
681.599	9.88
682.355	9.88
683.111	6.88
683.867	5.88
684.623	7.88
685.379	7.88
686.135	6.88
686.89	7.88
687.646	7.88
688.402	9.88
689.157	8.88
689.912	6.88
690.668	8.88
691.423	7.88
692.178	8.88
692.933	5.88
693.688	6.88
694.443	7.88
695.198	6.88
695.953	7.88
696.708	7.88
697.462	9.88
698.217	4.88
698.972	5.88
699.726	8.88
700.48	4.88
701.235	7.88
701.989	5.88
702.743	6.88
703.497	4.88
704.251	7.88
705.005	7.88
705.759	6.88
706.513	9.88
707.266	7.88
708.02	5.88
708.774	10.88
709.527	6.88
710.28	8.88
711.034	6.88
711.787	5.88
712.54	7.88
713.293	5.88
714.046	6.88
714.799	6.88
715.552	7.88
716.305	6.88
717.058	7.88
717.81	6.88
718.563	6.88
719.315	7.88
720.068	6.88
720.82	6.88
721.573	7.88
722.325	7.88
723.077	6.88
723.829	7.88
724.581	7.88
725.333	9.88
726.085	8.88
726.836	5.88
727.588	8.88
728.34	7.88
729.091	6.88
729.843	6.88
730.594	6.88
731.346	7.88
732.097	8.88
732.848	9.88
733.599	6.88
734.35	10.88
735.101	10.88
735.852	9.88
736.603	6.88
737.354	5.88
738.104	9.88
738.855	9.88
739.605	7.88
740.356	10.88
741.106	7.88
741.856	7.88
742.607	9.88
743.357	9.88
744.107	8.88
744.857	8.88
745.607	11.88
746.357	10.88
747.106	9.88
747.856	11.88
748.606	7.88
749.355	9.88
750.105	8.88
750.854	9.88
751.603	9.88
752.353	10.88
753.102	10.88
753.851	9.88
754.6	10.88
755.349	9.88
756.098	10.88
756.847	12.88
757.595	9.88
758.344	9.88
759.093	9.88
759.841	9.88
760.589	8.88
761.338	12.88
762.086	10.88
762.834	10.88
763.582	13.88
764.331	12.88
765.079	13.88
765.826	11.88
766.574	12.88
767.322	11.88
768.07	11.88
768.817	11.88
769.565	12.88
770.312	13.88
771.06	10.88
771.807	12.88
772.554	13.88
773.302	11.88
774.049	14.88
774.796	14.88
775.543	12.88
776.29	16.88
777.036	14.88
777.783	12.88
778.53	14.88
779.276	14.88
780.023	15.88
780.769	16.88
781.516	14.88
782.262	14.88
783.008	14.88
783.754	14.88
784.5	14.88
785.246	14.88
785.992	15.88
786.738	13.88
787.484	14.88
788.23	16.88
788.975	13.88
789.721	12.88
790.466	13.88
791.212	12.88
791.957	14.88
792.702	14.88
793.447	12.88
794.193	11.88
794.938	11.88
795.683	13.88
796.427	16.88
797.172	13.88
797.917	12.88
798.662	11.88
799.406	10.88
800.151	12.88
800.895	14.88
801.64	12.88
802.384	10.88
803.128	12.88
803.872	10.88
804.616	11.88
805.36	11.88
806.104	10.88
806.848	8.88
807.592	9.88
808.336	8.88
809.079	9.88
809.823	10.88
810.566	8.88
811.31	9.88
812.053	7.88
812.796	7.88
813.539	7.88
814.283	9.88
815.026	8.88
815.769	10.88
816.511	7.88
817.254	7.88
817.997	8.88
818.74	7.88
819.482	7.88
820.225	5.88
820.967	7.88
821.71	7.88
822.452	5.88
823.194	7.88
823.936	6.88
824.678	5.88
825.42	4.88
826.162	7.88
826.904	6.88
827.646	4.88
828.388	6.88
829.129	5.88
829.871	2.88
830.612	5.88
831.354	5.88
832.095	5.88
832.836	6.88
833.577	5.88
834.319	4.88
835.06	7.88
835.801	6.88
836.542	4.88
837.282	2.88
838.023	4.88
838.764	5.88
839.504	5.88
840.245	5.88
840.985	4.88
841.726	5.88
842.466	4.88
843.206	4.88
843.946	6.88
844.687	8.88
845.427	2.88
846.166	4.88
846.906	6.88
847.646	4.88
848.386	3.88
849.125	5.88
849.865	3.88
850.605	6.88
851.344	4.88
852.083	4.88
852.823	3.88
853.562	3.88
854.301	4.88
855.04	4.88
855.779	2.88
856.518	3.88
857.257	4.88
857.995	2.88
858.734	2.88
859.473	2.88
860.211	2.88
860.95	3.88
861.688	6.88
862.426	2.88
863.165	1.88
863.903	4.88
864.641	1.88
865.379	3.88
866.117	1.88
866.855	1.88
867.593	1.88
868.33	3.88
869.068	1.88
869.806	2.88
870.543	2.88
871.28	-0.12
872.018	2.88
872.755	1.88
873.492	1.88
874.229	4.88
874.967	1.88
875.703	-0.12
876.44	2.88
877.177	2.88
877.914	1.88
878.651	3.88
879.387	0.88
880.124	-1.12
880.86	1.88
881.597	1.88
882.333	0.88
883.069	3.88
883.806	5.88
884.542	2.88
885.278	1.88
886.014	0.88
886.749	0.88
887.485	0.88
888.221	1.88
888.957	2.88
889.692	0.88
890.428	1.88
891.163	0.88
891.899	0.88
892.634	0.88
893.369	0.88
894.104	-0.12
894.839	2.88
895.574	0.88
896.309	2.88
897.044	1.88
897.779	0.88
898.514	1.88
899.248	0.88
899.983	-0.12
900.717	-0.12
901.452	1.88
902.186	0.88
902.92	-0.12
903.654	-0.12
904.389	-1.12
905.123	2.88
905.857	0.88
906.59	1.88
907.324	4.88
908.058	1.88
908.792	0.88
909.525	0.88
910.259	0.88
910.992	2.88
911.726	0.88
912.459	-1.12
913.192	-2.12
913.925	-0.12
914.658	-0.12
915.391	1.88
916.124	0.88
916.857	-0.12
917.59	-0.12
918.323	1.88
919.055	1.88
919.788	1.88
920.521	1.88
921.253	-0.12
921.985	0.88
922.718	0.88
923.45	-0.12
924.182	0.88
924.914	0.88
925.646	0.88
926.378	-0.12
927.11	0.88
927.841	0.88
928.573	-1.12
929.305	1.88
930.036	2.88
930.768	0.88
931.499	-0.12
932.23	-0.12
932.962	0.88
933.693	0.88
934.424	-0.12
935.155	-1.12
935.886	-1.12
936.617	-1.12
937.348	0.88
938.078	0.88
938.809	0.88
939.54	-1.12
940.27	0.88
941.001	-3.12
941.731	0.88
942.461	1.88
943.191	1.88
943.922	0.88
944.652	-1.12
945.382	-1.12
946.112	1.88
946.841	1.88
947.571	-0.12
948.301	1.88
949.031	1.88
949.76	0.88
950.49	0.88
951.219	-2.12
951.948	0.88
952.678	1.88
953.407	-0.12
954.136	0.88
954.865	-1.12
955.594	0.88
956.323	-1.12
957.052	-0.12
957.78	0.88
958.509	-1.12
959.238	1.88
959.966	-0.12
960.695	0.88
961.423	-0.12
962.151	0.88
962.88	1.88
963.608	-0.12
964.336	1.88
965.064	-1.12
965.792	2.88
966.52	-1.12
967.247	-2.12
967.975	0.88
968.703	0.88
969.43	-1.12
970.158	0.88
970.885	-0.12
971.613	-1.12
972.34	0.88
973.067	1.88
973.794	0.88
974.521	0.88
975.248	0.88
975.975	-0.12
976.702	-0.12
977.429	0.88
978.156	1.88
978.882	1.88
979.609	-0.12
980.335	0.88
981.062	0.88
981.788	2.88
982.514	1.88
983.24	0.88
983.967	0.88
984.693	-1.12
985.419	0.88
986.144	-2.12
986.87	-0.12
987.596	1.88
988.322	-0.12
989.047	0.88
989.773	1.88
990.498	0.88
991.224	0.88
991.949	1.88
992.674	-0.12
993.399	-0.12
994.124	-0.12
994.849	-2.12
995.574	1.88
996.299	-1.12
997.024	0.88
997.749	-0.12
998.473	2.88
999.198	1.88
999.922	-0.12
1000.647	-0.12
1001.371	3.88
1002.095	-3.12
1002.82	-2.12
1003.544	-0.12
1004.268	3.88
1004.992	1.88
1005.716	4.88
1006.439	5.88
1007.163	6.88
1007.887	5.88
1008.611	-1.12
1009.334	1.88
1010.058	-0.12
1010.781	-0.12
1011.504	0.88
1012.228	0.88
1012.951	0.88
1013.674	-0.12
1014.397	-2.12
1015.12	2.88
