节点500_705_QEPB04081__621__20-54-46-771.txt的数据

Date: Wed Nov 12 20:54:46 CST 2025
User: PC
Spectrometer: QEPB0408
触发模式: 0
积分时间 (秒): 1.000000E-2
Scans to average: 1
启用暗噪声校正: true
启用非线性校正: false
滑动平均宽度: 0
X轴模式: Wavelengths
Number of Pixels in Spectrum: 1044
>>>>>Begin Spectral Data<<<<<
220.843	4.12
221.644	5.12
222.444	7.12
223.244	5.12
224.045	7.12
224.845	5.12
225.645	9.12
226.445	7.12
227.245	6.12
228.045	7.12
228.845	8.12
229.645	7.12
230.444	6.12
231.244	7.12
232.043	10.12
232.843	9.12
233.642	11.12
234.442	5.12
235.241	11.12
236.04	11.12
236.839	11.12
237.638	11.12
238.437	10.12
239.236	11.12
240.035	11.12
240.833	13.12
241.632	13.12
242.43	11.12
243.229	12.12
244.027	10.12
244.826	14.12
245.624	13.12
246.422	15.12
247.22	15.12
248.018	15.12
248.816	15.12
249.614	11.12
250.412	17.12
251.21	13.12
252.007	15.12
252.805	15.12
253.602	15.12
254.4	17.12
255.197	18.12
255.994	18.12
256.791	18.12
257.589	21.12
258.386	19.12
259.183	21.12
259.979	22.12
260.776	22.12
261.573	20.12
262.37	24.12
263.166	22.12
263.963	22.12
264.759	20.12
265.556	22.12
266.352	23.12
267.148	24.12
267.944	27.12
268.74	25.12
269.536	26.12
270.332	27.12
271.128	29.12
271.924	28.12
272.719	27.12
273.515	29.12
274.311	30.12
275.106	31.12
275.901	31.12
276.697	28.12
277.492	31.12
278.287	32.12
279.082	31.12
279.877	31.12
280.672	34.12
281.467	34.12
282.262	31.12
283.056	31.12
283.851	31.12
284.646	33.12
285.44	34.12
286.234	32.12
287.029	31.12
287.823	30.12
288.617	32.12
289.411	31.12
290.205	28.12
290.999	31.12
291.793	27.12
292.587	32.12
293.381	28.12
294.174	29.12
294.968	29.12
295.761	25.12
296.555	26.12
297.348	25.12
298.141	26.12
298.935	26.12
299.728	26.12
300.521	22.12
301.314	24.12
302.107	26.12
302.899	21.12
303.692	23.12
304.485	22.12
305.277	22.12
306.07	21.12
306.862	20.12
307.655	22.12
308.447	22.12
309.239	22.12
310.031	18.12
310.823	18.12
311.615	18.12
312.407	17.12
313.199	20.12
313.991	15.12
314.783	18.12
315.574	17.12
316.366	18.12
317.157	16.12
317.949	15.12
318.74	15.12
319.531	11.12
320.322	15.12
321.113	15.12
321.904	14.12
322.695	14.12
323.486	13.12
324.277	13.12
325.068	11.12
325.858	14.12
326.649	11.12
327.439	13.12
328.23	12.12
329.02	11.12
329.81	11.12
330.6	12.12
331.391	11.12
332.181	11.12
332.971	10.12
333.76	11.12
334.55	12.12
335.34	11.12
336.13	12.12
336.919	11.12
337.709	13.12
338.498	13.12
339.287	15.12
340.077	14.12
340.866	9.12
341.655	15.12
342.444	10.12
343.233	12.12
344.022	11.12
344.811	12.12
345.6	12.12
346.388	11.12
347.177	12.12
347.965	11.12
348.754	10.12
349.542	10.12
350.33	11.12
351.119	12.12
351.907	10.12
352.695	12.12
353.483	10.12
354.271	11.12
355.059	13.12
355.846	8.12
356.634	9.12
357.422	10.12
358.209	13.12
358.997	10.12
359.784	12.12
360.571	12.12
361.359	11.12
362.146	11.12
362.933	10.12
363.72	11.12
364.507	9.12
365.294	11.12
366.081	8.12
366.867	10.12
367.654	10.12
368.44	13.12
369.227	8.12
370.013	8.12
370.8	8.12
371.586	12.12
372.372	8.12
373.158	10.12
373.944	10.12
374.73	9.12
375.516	8.12
376.302	11.12
377.088	9.12
377.873	8.12
378.659	11.12
379.445	11.12
380.23	11.12
381.015	13.12
381.801	9.12
382.586	10.12
383.371	8.12
384.156	10.12
384.941	9.12
385.726	10.12
386.511	9.12
387.296	8.12
388.08	12.12
388.865	11.12
389.649	12.12
390.434	11.12
391.218	10.12
392.003	14.12
392.787	10.12
393.571	14.12
394.355	11.12
395.139	11.12
395.923	13.12
396.707	11.12
397.491	12.12
398.274	10.12
399.058	11.12
399.842	14.12
400.625	12.12
401.408	13.12
402.192	13.12
402.975	16.12
403.758	13.12
404.541	15.12
405.324	14.12
406.107	13.12
406.89	16.12
407.673	14.12
408.456	14.12
409.238	16.12
410.021	15.12
410.803	15.12
411.586	19.12
412.368	15.12
413.151	15.12
413.933	18.12
414.715	17.12
415.497	18.12
416.279	18.12
417.061	17.12
417.843	19.12
418.624	20.12
419.406	20.12
420.188	18.12
420.969	20.12
421.751	22.12
422.532	19.12
423.313	22.12
424.095	22.12
424.876	22.12
425.657	26.12
426.438	25.12
427.219	25.12
428	27.12
428.78	29.12
429.561	25.12
430.342	26.12
431.122	31.12
431.903	34.12
432.683	36.12
433.464	33.12
434.244	35.12
435.024	39.12
435.804	42.12
436.584	45.12
437.364	47.12
438.144	46.12
438.924	54.12
439.704	53.12
440.483	61.12
441.263	62.12
442.042	68.12
442.822	72.12
443.601	78.12
444.38	85.12
445.16	93.12
445.939	99.12
446.718	110.12
447.497	119.12
448.276	132.12
449.054	142.12
449.833	162.12
450.612	170.12
451.391	187.12
452.169	212.12
452.948	238.12
453.726	258.12
454.504	290.12
455.282	320.12
456.061	356.12
456.839	399.12
457.617	448.12
458.395	492.12
459.172	541.12
459.95	608.12
460.728	673.12
461.506	754.12
462.283	831.12
463.061	920.12
463.838	1023.12
464.615	1135.12
465.393	1264.12
466.17	1381.12
466.947	1547.12
467.724	1702.12
468.501	1869.12
469.278	2077.12
470.055	2271.12
470.831	2505.12
471.608	2770.12
472.385	3005.12
473.161	3305.12
473.938	3614.12
474.714	3961.12
475.49	4308.12
476.266	4687.12
477.043	5133.12
477.819	5566.12
478.595	6053.12
479.371	6561.12
480.146	7116.12
480.922	7753.12
481.698	8350.12
482.473	9095.12
483.249	9879.12
484.024	10655.12
484.8	11465.12
485.575	12377.12
486.35	13365.12
487.126	14337.12
487.901	15510.12
488.676	16619.12
489.451	17924.12
490.225	19162.12
491	20517.12
491.775	21875.12
492.55	23356.12
493.324	24893.12
494.099	26377.12
494.873	28026.12
495.647	29566.12
496.422	31128.12
497.196	32718.12
497.97	34276.12
498.744	35725.12
499.518	37220.12
500.292	38509.12
501.066	39725.12
501.839	40670.12
502.613	41586.12
503.387	42440.12
504.16	42980.12
504.934	43452.12
505.707	43701.12
506.48	43575.12
507.253	43445.12
508.027	43142.12
508.8	42559.12
509.573	41949.12
510.346	41185.12
511.118	40479.12
511.891	39479.12
512.664	38151.12
513.437	36847.12
514.209	35709.12
514.982	34497.12
515.754	33246.12
516.526	32007.12
517.298	30728.12
518.071	29636.12
518.843	28484.12
519.615	27277.12
520.387	26215.12
521.159	25270.12
521.93	24248.12
522.702	23215.12
523.474	22270.12
524.245	21386.12
525.017	20461.12
525.788	19656.12
526.56	18850.12
527.331	18092.12
528.102	17228.12
528.873	16296.12
529.644	15606.12
530.415	14903.12
531.186	14245.12
531.957	13530.12
532.728	12870.12
533.498	12237.12
534.269	11576.12
535.039	10983.12
535.81	10432.12
536.58	9872.12
537.351	9333.12
538.121	8909.12
538.891	8379.12
539.661	7940.12
540.431	7499.12
541.201	7108.12
541.971	6753.12
542.741	6397.12
543.51	6038.12
544.28	5797.12
545.05	5493.12
545.819	5245.12
546.588	5019.12
547.358	4783.12
548.127	4527.12
548.896	4285.12
549.665	4089.12
550.434	3903.12
551.203	3707.12
551.972	3519.12
552.741	3323.12
553.51	3135.12
554.278	3002.12
555.047	2808.12
555.815	2634.12
556.584	2521.12
557.352	2376.12
558.121	2242.12
558.889	2103.12
559.657	2017.12
560.425	1899.12
561.193	1821.12
561.961	1722.12
562.729	1603.12
563.496	1523.12
564.264	1440.12
565.032	1359.12
565.799	1292.12
566.567	1221.12
567.334	1151.12
568.101	1089.12
568.869	1030.12
569.636	976.12
570.403	905.12
571.17	862.12
571.937	810.12
572.704	771.12
573.471	731.12
574.237	696.12
575.004	644.12
575.771	611.12
576.537	576.12
577.303	540.12
578.07	513.12
578.836	487.12
579.602	460.12
580.368	440.12
581.134	418.12
581.9	394.12
582.666	375.12
583.432	363.12
584.198	341.12
584.964	328.12
585.729	306.12
586.495	292.12
587.26	273.12
588.025	256.12
588.791	235.12
589.556	235.12
590.321	223.12
591.086	207.12
591.851	200.12
592.616	188.12
593.381	183.12
594.146	171.12
594.911	168.12
595.675	156.12
596.44	146.12
597.204	140.12
597.969	137.12
598.733	132.12
599.497	126.12
600.261	118.12
601.025	117.12
601.79	111.12
602.553	105.12
603.317	102.12
604.081	97.12
604.845	92.12
605.609	89.12
606.372	83.12
607.136	84.12
607.899	78.12
608.662	79.12
609.426	71.12
610.189	69.12
610.952	67.12
611.715	63.12
612.478	62.12
613.241	60.12
614.004	57.12
614.767	55.12
615.529	55.12
616.292	55.12
617.055	49.12
617.817	47.12
618.579	49.12
619.342	48.12
620.104	46.12
620.866	44.12
621.628	41.12
622.39	40.12
623.152	40.12
623.914	41.12
624.676	35.12
625.438	37.12
626.199	32.12
626.961	34.12
627.722	34.12
628.484	31.12
629.245	30.12
630.006	31.12
630.768	27.12
631.529	30.12
632.29	29.12
633.051	27.12
633.812	28.12
634.573	25.12
635.333	27.12
636.094	23.12
636.855	25.12
637.615	22.12
638.376	22.12
639.136	20.12
639.896	24.12
640.657	20.12
641.417	21.12
642.177	19.12
642.937	18.12
643.697	21.12
644.457	15.12
645.216	18.12
645.976	15.12
646.736	15.12
647.495	16.12
648.255	17.12
649.014	13.12
649.774	12.12
650.533	14.12
651.292	11.12
652.051	14.12
652.81	13.12
653.569	13.12
654.328	17.12
655.087	12.12
655.846	14.12
656.604	12.12
657.363	15.12
658.121	11.12
658.88	11.12
659.638	13.12
660.397	12.12
661.155	12.12
661.913	11.12
662.671	9.12
663.429	11.12
664.187	8.12
664.945	11.12
665.703	10.12
666.46	13.12
667.218	10.12
667.976	11.12
668.733	12.12
669.49	7.12
670.248	12.12
671.005	9.12
671.762	10.12
672.519	11.12
673.276	10.12
674.033	11.12
674.79	7.12
675.547	11.12
676.304	10.12
677.06	7.12
677.817	6.12
678.574	10.12
679.33	9.12
680.086	9.12
680.843	7.12
681.599	8.12
682.355	9.12
683.111	7.12
683.867	6.12
684.623	7.12
685.379	8.12
686.135	9.12
686.89	8.12
687.646	7.12
688.402	11.12
689.157	9.12
689.912	6.12
690.668	8.12
691.423	8.12
692.178	8.12
692.933	7.12
693.688	8.12
694.443	7.12
695.198	6.12
695.953	9.12
696.708	5.12
697.462	6.12
698.217	8.12
698.972	7.12
699.726	7.12
700.48	7.12
701.235	7.12
701.989	6.12
702.743	7.12
703.497	6.12
704.251	7.12
705.005	6.12
705.759	7.12
706.513	9.12
707.266	7.12
708.02	9.12
708.774	7.12
709.527	4.12
710.28	7.12
711.034	6.12
711.787	8.12
712.54	6.12
713.293	8.12
714.046	7.12
714.799	8.12
715.552	6.12
716.305	6.12
717.058	7.12
717.81	8.12
718.563	10.12
719.315	9.12
720.068	7.12
720.82	7.12
721.573	8.12
722.325	8.12
723.077	8.12
723.829	8.12
724.581	8.12
725.333	10.12
726.085	8.12
726.836	9.12
727.588	9.12
728.34	8.12
729.091	6.12
729.843	9.12
730.594	8.12
731.346	8.12
732.097	8.12
732.848	9.12
733.599	9.12
734.35	6.12
735.101	8.12
735.852	9.12
736.603	10.12
737.354	11.12
738.104	11.12
738.855	10.12
739.605	7.12
740.356	11.12
741.106	7.12
741.856	8.12
742.607	11.12
743.357	10.12
744.107	8.12
744.857	9.12
745.607	9.12
746.357	11.12
747.106	9.12
747.856	9.12
748.606	7.12
749.355	11.12
750.105	13.12
750.854	11.12
751.603	14.12
752.353	10.12
753.102	11.12
753.851	11.12
754.6	10.12
755.349	11.12
756.098	12.12
756.847	13.12
757.595	10.12
758.344	11.12
759.093	10.12
759.841	13.12
760.589	13.12
761.338	10.12
762.086	12.12
762.834	10.12
763.582	10.12
764.331	10.12
765.079	13.12
765.826	12.12
766.574	13.12
767.322	13.12
768.07	11.12
768.817	16.12
769.565	14.12
770.312	14.12
771.06	13.12
771.807	13.12
772.554	14.12
773.302	14.12
774.049	16.12
774.796	15.12
775.543	13.12
776.29	15.12
777.036	15.12
777.783	14.12
778.53	15.12
779.276	15.12
780.023	12.12
780.769	16.12
781.516	15.12
782.262	13.12
783.008	15.12
783.754	13.12
784.5	15.12
785.246	17.12
785.992	14.12
786.738	17.12
787.484	16.12
788.23	15.12
788.975	15.12
789.721	16.12
790.466	14.12
791.212	13.12
791.957	13.12
792.702	14.12
793.447	14.12
794.193	13.12
794.938	15.12
795.683	13.12
796.427	13.12
797.172	14.12
797.917	13.12
798.662	11.12
799.406	12.12
800.151	11.12
800.895	11.12
801.64	12.12
802.384	11.12
803.128	10.12
803.872	9.12
804.616	10.12
805.36	11.12
806.104	13.12
806.848	10.12
807.592	11.12
808.336	11.12
809.079	9.12
809.823	9.12
810.566	11.12
811.31	11.12
812.053	7.12
812.796	11.12
813.539	9.12
814.283	8.12
815.026	10.12
815.769	9.12
816.511	9.12
817.254	8.12
817.997	9.12
818.74	7.12
819.482	9.12
820.225	8.12
820.967	9.12
821.71	10.12
822.452	9.12
823.194	8.12
823.936	9.12
824.678	7.12
825.42	9.12
826.162	6.12
826.904	6.12
827.646	8.12
828.388	6.12
829.129	6.12
829.871	10.12
830.612	6.12
831.354	5.12
832.095	5.12
832.836	8.12
833.577	4.12
834.319	7.12
835.06	8.12
835.801	5.12
836.542	6.12
837.282	6.12
838.023	6.12
838.764	7.12
839.504	7.12
840.245	7.12
840.985	4.12
841.726	7.12
842.466	3.12
843.206	7.12
843.946	6.12
844.687	7.12
845.427	6.12
846.166	3.12
846.906	5.12
847.646	7.12
848.386	6.12
849.125	3.12
849.865	3.12
850.605	5.12
851.344	3.12
852.083	7.12
852.823	5.12
853.562	3.12
854.301	6.12
855.04	6.12
855.779	4.12
856.518	4.12
857.257	3.12
857.995	3.12
858.734	6.12
859.473	4.12
860.211	3.12
860.95	5.12
861.688	2.12
862.426	5.12
863.165	3.12
863.903	3.12
864.641	2.12
865.379	4.12
866.117	4.12
866.855	2.12
867.593	0.12
868.33	4.12
869.068	3.12
869.806	6.12
870.543	2.12
871.28	2.12
872.018	3.12
872.755	2.12
873.492	4.12
874.229	2.12
874.967	4.12
875.703	2.12
876.44	2.12
877.177	1.12
877.914	2.12
878.651	2.12
879.387	3.12
880.124	2.12
880.86	1.12
881.597	2.12
882.333	0.12
883.069	2.12
883.806	4.12
884.542	1.12
885.278	2.12
886.014	2.12
886.749	1.12
887.485	3.12
888.221	2.12
888.957	1.12
889.692	2.12
890.428	1.12
891.163	1.12
891.899	1.12
892.634	1.12
893.369	0.12
894.104	2.12
894.839	2.12
895.574	1.12
896.309	1.12
897.044	2.12
897.779	1.12
898.514	1.12
899.248	1.12
899.983	1.12
900.717	0.12
901.452	0.12
902.186	-0.88
902.92	0.12
903.654	3.12
904.389	1.12
905.123	1.12
905.857	2.12
906.59	2.12
907.324	2.12
908.058	2.12
908.792	3.12
909.525	1.12
910.259	2.12
910.992	1.12
911.726	3.12
912.459	1.12
913.192	2.12
913.925	1.12
914.658	0.12
915.391	1.12
916.124	0.12
916.857	1.12
917.59	0.12
918.323	1.12
919.055	2.12
919.788	0.12
920.521	2.12
921.253	0.12
921.985	-2.88
922.718	-0.88
923.45	0.12
924.182	2.12
924.914	1.12
925.646	1.12
926.378	0.12
927.11	-0.88
927.841	1.12
928.573	0.12
929.305	-0.88
930.036	1.12
930.768	1.12
931.499	1.12
932.23	0.12
932.962	1.12
933.693	0.12
934.424	1.12
935.155	1.12
935.886	1.12
936.617	2.12
937.348	0.12
938.078	2.12
938.809	1.12
939.54	1.12
940.27	-0.88
941.001	1.12
941.731	3.12
942.461	0.12
943.191	1.12
943.922	1.12
944.652	0.12
945.382	1.12
946.112	0.12
946.841	0.12
947.571	1.12
948.301	0.12
949.031	2.12
949.76	-0.88
950.49	2.12
951.219	0.12
951.948	1.12
952.678	0.12
953.407	1.12
954.136	-0.88
954.865	0.12
955.594	1.12
956.323	3.12
957.052	0.12
957.78	0.12
958.509	2.12
959.238	1.12
959.966	0.12
960.695	-0.88
961.423	0.12
962.151	1.12
962.88	1.12
963.608	-0.88
964.336	4.12
965.064	-0.88
965.792	0.12
966.52	-0.88
967.247	-0.88
967.975	-0.88
968.703	0.12
969.43	2.12
970.158	0.12
970.885	2.12
971.613	2.12
972.34	0.12
973.067	1.12
973.794	1.12
974.521	2.12
975.248	0.12
975.975	1.12
976.702	1.12
977.429	1.12
978.156	0.12
978.882	-0.88
979.609	0.12
980.335	0.12
981.062	1.12
981.788	0.12
982.514	0.12
983.24	1.12
983.967	0.12
984.693	1.12
985.419	1.12
986.144	0.12
986.87	2.12
987.596	-0.88
988.322	2.12
989.047	0.12
989.773	0.12
990.498	0.12
991.224	-0.88
991.949	2.12
992.674	2.12
993.399	0.12
994.124	0.12
994.849	0.12
995.574	1.12
996.299	0.12
997.024	3.12
997.749	1.12
998.473	1.12
999.198	4.12
999.922	1.12
1000.647	-0.88
1001.371	5.12
1002.095	-0.88
1002.82	0.12
1003.544	-1.88
1004.268	7.12
1004.992	3.12
1005.716	4.12
1006.439	5.12
1007.163	5.12
1007.887	4.12
1008.611	2.12
1009.334	1.12
1010.058	0.12
1010.781	-1.88
1011.504	1.12
1012.228	-1.88
1012.951	1.12
1013.674	-1.88
1014.397	-0.88
1015.12	-0.88
