节点500_705_QEPB04081__534__20-53-30-727.txt的数据

Date: Wed Nov 12 20:53:30 CST 2025
User: PC
Spectrometer: QEPB0408
触发模式: 0
积分时间 (秒): 1.000000E-2
Scans to average: 1
启用暗噪声校正: true
启用非线性校正: false
滑动平均宽度: 0
X轴模式: Wavelengths
Number of Pixels in Spectrum: 1044
>>>>>Begin Spectral Data<<<<<
220.843	6.5
221.644	5.5
222.444	6.5
223.244	5.5
224.045	6.5
224.845	4.5
225.645	8.5
226.445	4.5
227.245	7.5
228.045	7.5
228.845	6.5
229.645	8.5
230.444	7.5
231.244	8.5
232.043	9.5
232.843	9.5
233.642	7.5
234.442	10.5
235.241	8.5
236.04	8.5
236.839	8.5
237.638	8.5
238.437	10.5
239.236	9.5
240.035	10.5
240.833	9.5
241.632	10.5
242.43	10.5
243.229	8.5
244.027	12.5
244.826	13.5
245.624	10.5
246.422	10.5
247.22	13.5
248.018	11.5
248.816	14.5
249.614	15.5
250.412	15.5
251.21	15.5
252.007	13.5
252.805	13.5
253.602	16.5
254.4	14.5
255.197	14.5
255.994	18.5
256.791	18.5
257.589	21.5
258.386	15.5
259.183	17.5
259.979	22.5
260.776	19.5
261.573	23.5
262.37	21.5
263.166	22.5
263.963	19.5
264.759	21.5
265.556	24.5
266.352	22.5
267.148	23.5
267.944	26.5
268.74	22.5
269.536	25.5
270.332	27.5
271.128	29.5
271.924	29.5
272.719	30.5
273.515	28.5
274.311	30.5
275.106	30.5
275.901	29.5
276.697	32.5
277.492	32.5
278.287	30.5
279.082	32.5
279.877	30.5
280.672	34.5
281.467	30.5
282.262	30.5
283.056	31.5
283.851	30.5
284.646	30.5
285.44	28.5
286.234	33.5
287.029	30.5
287.823	32.5
288.617	30.5
289.411	30.5
290.205	29.5
290.999	30.5
291.793	30.5
292.587	30.5
293.381	27.5
294.174	29.5
294.968	25.5
295.761	27.5
296.555	27.5
297.348	24.5
298.141	26.5
298.935	27.5
299.728	24.5
300.521	23.5
301.314	25.5
302.107	22.5
302.899	21.5
303.692	23.5
304.485	18.5
305.277	22.5
306.07	21.5
306.862	21.5
307.655	21.5
308.447	20.5
309.239	16.5
310.031	21.5
310.823	20.5
311.615	17.5
312.407	17.5
313.199	15.5
313.991	14.5
314.783	16.5
315.574	14.5
316.366	17.5
317.157	17.5
317.949	15.5
318.74	14.5
319.531	14.5
320.322	12.5
321.113	12.5
321.904	15.5
322.695	14.5
323.486	13.5
324.277	14.5
325.068	12.5
325.858	10.5
326.649	13.5
327.439	10.5
328.23	12.5
329.02	12.5
329.81	8.5
330.6	10.5
331.391	14.5
332.181	11.5
332.971	10.5
333.76	10.5
334.55	12.5
335.34	12.5
336.13	11.5
336.919	12.5
337.709	8.5
338.498	10.5
339.287	11.5
340.077	10.5
340.866	10.5
341.655	12.5
342.444	12.5
343.233	10.5
344.022	8.5
344.811	8.5
345.6	10.5
346.388	11.5
347.177	10.5
347.965	12.5
348.754	9.5
349.542	8.5
350.33	9.5
351.119	11.5
351.907	8.5
352.695	13.5
353.483	10.5
354.271	10.5
355.059	8.5
355.846	8.5
356.634	10.5
357.422	8.5
358.209	9.5
358.997	9.5
359.784	9.5
360.571	8.5
361.359	10.5
362.146	7.5
362.933	9.5
363.72	8.5
364.507	10.5
365.294	11.5
366.081	10.5
366.867	8.5
367.654	8.5
368.44	6.5
369.227	6.5
370.013	10.5
370.8	8.5
371.586	8.5
372.372	9.5
373.158	8.5
373.944	6.5
374.73	8.5
375.516	8.5
376.302	7.5
377.088	8.5
377.873	7.5
378.659	9.5
379.445	8.5
380.23	9.5
381.015	8.5
381.801	8.5
382.586	10.5
383.371	7.5
384.156	10.5
384.941	8.5
385.726	9.5
386.511	12.5
387.296	8.5
388.08	9.5
388.865	9.5
389.649	10.5
390.434	7.5
391.218	10.5
392.003	10.5
392.787	10.5
393.571	12.5
394.355	10.5
395.139	10.5
395.923	11.5
396.707	11.5
397.491	11.5
398.274	12.5
399.058	13.5
399.842	11.5
400.625	14.5
401.408	13.5
402.192	13.5
402.975	14.5
403.758	13.5
404.541	13.5
405.324	12.5
406.107	14.5
406.89	15.5
407.673	15.5
408.456	16.5
409.238	16.5
410.021	15.5
410.803	17.5
411.586	17.5
412.368	16.5
413.151	15.5
413.933	16.5
414.715	15.5
415.497	16.5
416.279	16.5
417.061	17.5
417.843	18.5
418.624	19.5
419.406	18.5
420.188	18.5
420.969	19.5
421.751	21.5
422.532	21.5
423.313	22.5
424.095	20.5
424.876	22.5
425.657	22.5
426.438	24.5
427.219	21.5
428	24.5
428.78	26.5
429.561	24.5
430.342	28.5
431.122	30.5
431.903	30.5
432.683	29.5
433.464	33.5
434.244	35.5
435.024	38.5
435.804	40.5
436.584	42.5
437.364	43.5
438.144	50.5
438.924	53.5
439.704	55.5
440.483	61.5
441.263	63.5
442.042	64.5
442.822	69.5
443.601	78.5
444.38	87.5
445.16	89.5
445.939	99.5
446.718	109.5
447.497	117.5
448.276	123.5
449.054	138.5
449.833	154.5
450.612	170.5
451.391	192.5
452.169	203.5
452.948	233.5
453.726	245.5
454.504	280.5
455.282	314.5
456.061	352.5
456.839	390.5
457.617	425.5
458.395	474.5
459.172	536.5
459.95	591.5
460.728	660.5
461.506	733.5
462.283	823.5
463.061	925.5
463.838	1018.5
464.615	1121.5
465.393	1238.5
466.17	1380.5
466.947	1533.5
467.724	1698.5
468.501	1867.5
469.278	2064.5
470.055	2287.5
470.831	2497.5
471.608	2744.5
472.385	3014.5
473.161	3315.5
473.938	3617.5
474.714	3976.5
475.49	4332.5
476.266	4756.5
477.043	5178.5
477.819	5624.5
478.595	6134.5
479.371	6638.5
480.146	7234.5
480.922	7888.5
481.698	8509.5
482.473	9232.5
483.249	10001.5
484.024	10831.5
484.8	11706.5
485.575	12651.5
486.35	13688.5
487.126	14779.5
487.901	15854.5
488.676	17055.5
489.451	18381.5
490.225	19751.5
491	21074.5
491.775	22554.5
492.55	23993.5
493.324	25562.5
494.099	27184.5
494.873	28780.5
495.647	30415.5
496.422	32079.5
497.196	33658.5
497.97	35271.5
498.744	36649.5
499.518	38301.5
500.292	39582.5
501.066	40622.5
501.839	41618.5
502.613	42562.5
503.387	43313.5
504.16	43863.5
504.934	44254.5
505.707	44442.5
506.48	44325.5
507.253	44130.5
508.027	43712.5
508.8	43037.5
509.573	42320.5
510.346	41579.5
511.118	40659.5
511.891	39608.5
512.664	38343.5
513.437	36977.5
514.209	35798.5
514.982	34482.5
515.754	33166.5
516.526	31907.5
517.298	30679.5
518.071	29603.5
518.843	28359.5
519.615	27175.5
520.387	26119.5
521.159	25193.5
521.93	24095.5
522.702	23097.5
523.474	22150.5
524.245	21317.5
525.017	20372.5
525.788	19516.5
526.56	18744.5
527.331	17953.5
528.102	17076.5
528.873	16269.5
529.644	15501.5
530.415	14752.5
531.186	14073.5
531.957	13425.5
532.728	12773.5
533.498	12113.5
534.269	11485.5
535.039	10908.5
535.81	10276.5
536.58	9745.5
537.351	9243.5
538.121	8750.5
538.891	8305.5
539.661	7806.5
540.431	7373.5
541.201	7039.5
541.971	6683.5
542.741	6314.5
543.51	5975.5
544.28	5716.5
545.05	5441.5
545.819	5178.5
546.588	4951.5
547.358	4729.5
548.127	4468.5
548.896	4269.5
549.665	4026.5
550.434	3834.5
551.203	3648.5
551.972	3448.5
552.741	3275.5
553.51	3080.5
554.278	2899.5
555.047	2743.5
555.815	2602.5
556.584	2472.5
557.352	2309.5
558.121	2205.5
558.889	2085.5
559.657	1961.5
560.425	1860.5
561.193	1770.5
561.961	1676.5
562.729	1564.5
563.496	1486.5
564.264	1413.5
565.032	1329.5
565.799	1267.5
566.567	1202.5
567.334	1132.5
568.101	1080.5
568.869	1005.5
569.636	953.5
570.403	890.5
571.17	845.5
571.937	811.5
572.704	755.5
573.471	723.5
574.237	669.5
575.004	644.5
575.771	597.5
576.537	564.5
577.303	532.5
578.07	514.5
578.836	485.5
579.602	458.5
580.368	432.5
581.134	409.5
581.9	392.5
582.666	370.5
583.432	356.5
584.198	334.5
584.964	308.5
585.729	294.5
586.495	286.5
587.26	263.5
588.025	256.5
588.791	247.5
589.556	217.5
590.321	219.5
591.086	207.5
591.851	191.5
592.616	186.5
593.381	179.5
594.146	174.5
594.911	161.5
595.675	154.5
596.44	153.5
597.204	134.5
597.969	131.5
598.733	128.5
599.497	123.5
600.261	119.5
601.025	110.5
601.79	108.5
602.553	106.5
603.317	97.5
604.081	90.5
604.845	91.5
605.609	85.5
606.372	84.5
607.136	78.5
607.899	75.5
608.662	72.5
609.426	70.5
610.189	66.5
610.952	67.5
611.715	64.5
612.478	67.5
613.241	52.5
614.004	58.5
614.767	55.5
615.529	50.5
616.292	51.5
617.055	50.5
617.817	45.5
618.579	47.5
619.342	44.5
620.104	42.5
620.866	41.5
621.628	38.5
622.39	35.5
623.152	38.5
623.914	32.5
624.676	36.5
625.438	34.5
626.199	33.5
626.961	29.5
627.722	31.5
628.484	28.5
629.245	29.5
630.006	27.5
630.768	30.5
631.529	26.5
632.29	25.5
633.051	27.5
633.812	25.5
634.573	22.5
635.333	22.5
636.094	21.5
636.855	21.5
637.615	21.5
638.376	20.5
639.136	20.5
639.896	18.5
640.657	19.5
641.417	19.5
642.177	21.5
642.937	18.5
643.697	18.5
644.457	15.5
645.216	16.5
645.976	17.5
646.736	16.5
647.495	15.5
648.255	16.5
649.014	14.5
649.774	18.5
650.533	12.5
651.292	11.5
652.051	12.5
652.81	13.5
653.569	13.5
654.328	12.5
655.087	10.5
655.846	11.5
656.604	14.5
657.363	13.5
658.121	10.5
658.88	11.5
659.638	10.5
660.397	8.5
661.155	9.5
661.913	12.5
662.671	12.5
663.429	8.5
664.187	8.5
664.945	8.5
665.703	10.5
666.46	8.5
667.218	8.5
667.976	9.5
668.733	10.5
669.49	7.5
670.248	11.5
671.005	8.5
671.762	10.5
672.519	8.5
673.276	6.5
674.033	7.5
674.79	8.5
675.547	6.5
676.304	7.5
677.06	8.5
677.817	9.5
678.574	6.5
679.33	8.5
680.086	8.5
680.843	8.5
681.599	7.5
682.355	9.5
683.111	7.5
683.867	7.5
684.623	8.5
685.379	8.5
686.135	8.5
686.89	6.5
687.646	7.5
688.402	6.5
689.157	5.5
689.912	6.5
690.668	7.5
691.423	7.5
692.178	6.5
692.933	7.5
693.688	6.5
694.443	6.5
695.198	7.5
695.953	5.5
696.708	4.5
697.462	6.5
698.217	7.5
698.972	6.5
699.726	6.5
700.48	10.5
701.235	7.5
701.989	6.5
702.743	6.5
703.497	5.5
704.251	6.5
705.005	9.5
705.759	8.5
706.513	7.5
707.266	6.5
708.02	7.5
708.774	4.5
709.527	7.5
710.28	6.5
711.034	6.5
711.787	6.5
712.54	3.5
713.293	6.5
714.046	6.5
714.799	7.5
715.552	6.5
716.305	6.5
717.058	6.5
717.81	7.5
718.563	5.5
719.315	9.5
720.068	6.5
720.82	8.5
721.573	7.5
722.325	6.5
723.077	7.5
723.829	6.5
724.581	7.5
725.333	9.5
726.085	8.5
726.836	6.5
727.588	8.5
728.34	9.5
729.091	9.5
729.843	7.5
730.594	6.5
731.346	8.5
732.097	5.5
732.848	8.5
733.599	9.5
734.35	7.5
735.101	9.5
735.852	8.5
736.603	7.5
737.354	7.5
738.104	9.5
738.855	7.5
739.605	7.5
740.356	7.5
741.106	9.5
741.856	7.5
742.607	7.5
743.357	11.5
744.107	8.5
744.857	9.5
745.607	8.5
746.357	8.5
747.106	8.5
747.856	11.5
748.606	8.5
749.355	9.5
750.105	9.5
750.854	9.5
751.603	7.5
752.353	10.5
753.102	11.5
753.851	8.5
754.6	11.5
755.349	7.5
756.098	10.5
756.847	10.5
757.595	9.5
758.344	9.5
759.093	9.5
759.841	11.5
760.589	9.5
761.338	11.5
762.086	11.5
762.834	11.5
763.582	12.5
764.331	9.5
765.079	12.5
765.826	9.5
766.574	9.5
767.322	11.5
768.07	14.5
768.817	13.5
769.565	12.5
770.312	12.5
771.06	11.5
771.807	11.5
772.554	14.5
773.302	13.5
774.049	12.5
774.796	11.5
775.543	17.5
776.29	12.5
777.036	13.5
777.783	13.5
778.53	12.5
779.276	13.5
780.023	15.5
780.769	12.5
781.516	14.5
782.262	14.5
783.008	16.5
783.754	13.5
784.5	15.5
785.246	14.5
785.992	16.5
786.738	16.5
787.484	13.5
788.23	15.5
788.975	14.5
789.721	16.5
790.466	14.5
791.212	12.5
791.957	14.5
792.702	10.5
793.447	13.5
794.193	11.5
794.938	13.5
795.683	13.5
796.427	10.5
797.172	12.5
797.917	11.5
798.662	10.5
799.406	12.5
800.151	10.5
800.895	10.5
801.64	10.5
802.384	11.5
803.128	14.5
803.872	10.5
804.616	10.5
805.36	10.5
806.104	7.5
806.848	8.5
807.592	10.5
808.336	9.5
809.079	9.5
809.823	9.5
810.566	6.5
811.31	10.5
812.053	9.5
812.796	9.5
813.539	7.5
814.283	7.5
815.026	8.5
815.769	6.5
816.511	6.5
817.254	7.5
817.997	6.5
818.74	7.5
819.482	8.5
820.225	9.5
820.967	6.5
821.71	9.5
822.452	8.5
823.194	6.5
823.936	6.5
824.678	6.5
825.42	6.5
826.162	6.5
826.904	7.5
827.646	7.5
828.388	7.5
829.129	7.5
829.871	3.5
830.612	3.5
831.354	7.5
832.095	8.5
832.836	6.5
833.577	6.5
834.319	5.5
835.06	4.5
835.801	7.5
836.542	6.5
837.282	5.5
838.023	5.5
838.764	5.5
839.504	5.5
840.245	4.5
840.985	7.5
841.726	2.5
842.466	4.5
843.206	7.5
843.946	4.5
844.687	7.5
845.427	2.5
846.166	4.5
846.906	5.5
847.646	5.5
848.386	5.5
849.125	5.5
849.865	5.5
850.605	2.5
851.344	5.5
852.083	4.5
852.823	3.5
853.562	3.5
854.301	4.5
855.04	3.5
855.779	3.5
856.518	1.5
857.257	3.5
857.995	1.5
858.734	3.5
859.473	4.5
860.211	4.5
860.95	5.5
861.688	1.5
862.426	3.5
863.165	2.5
863.903	2.5
864.641	3.5
865.379	2.5
866.117	2.5
866.855	0.5
867.593	2.5
868.33	1.5
869.068	2.5
869.806	0.5
870.543	1.5
871.28	2.5
872.018	4.5
872.755	0.5
873.492	-0.5
874.229	2.5
874.967	3.5
875.703	-1.5
876.44	3.5
877.177	1.5
877.914	2.5
878.651	0.5
879.387	2.5
880.124	2.5
880.86	1.5
881.597	2.5
882.333	1.5
883.069	0.5
883.806	0.5
884.542	0.5
885.278	2.5
886.014	1.5
886.749	0.5
887.485	1.5
888.221	-0.5
888.957	3.5
889.692	0.5
890.428	0.5
891.163	2.5
891.899	-1.5
892.634	1.5
893.369	-1.5
894.104	0.5
894.839	0.5
895.574	1.5
896.309	-1.5
897.044	1.5
897.779	1.5
898.514	-0.5
899.248	1.5
899.983	-0.5
900.717	0.5
901.452	3.5
902.186	-0.5
902.92	1.5
903.654	0.5
904.389	0.5
905.123	0.5
905.857	-1.5
906.59	0.5
907.324	-0.5
908.058	1.5
908.792	-0.5
909.525	-0.5
910.259	-1.5
910.992	-1.5
911.726	-0.5
912.459	0.5
913.192	0.5
913.925	1.5
914.658	1.5
915.391	-0.5
916.124	0.5
916.857	0.5
917.59	-1.5
918.323	0.5
919.055	0.5
919.788	-0.5
920.521	1.5
921.253	0.5
921.985	-1.5
922.718	1.5
923.45	-2.5
924.182	-1.5
924.914	0.5
925.646	1.5
926.378	1.5
927.11	2.5
927.841	-1.5
928.573	-0.5
929.305	-1.5
930.036	-0.5
930.768	0.5
931.499	0.5
932.23	-0.5
932.962	0.5
933.693	-0.5
934.424	-1.5
935.155	0.5
935.886	-0.5
936.617	-1.5
937.348	-1.5
938.078	1.5
938.809	-0.5
939.54	-1.5
940.27	-0.5
941.001	0.5
941.731	-1.5
942.461	1.5
943.191	-0.5
943.922	0.5
944.652	1.5
945.382	0.5
946.112	-0.5
946.841	0.5
947.571	0.5
948.301	1.5
949.031	-0.5
949.76	-0.5
950.49	-1.5
951.219	-0.5
951.948	0.5
952.678	-1.5
953.407	0.5
954.136	2.5
954.865	-1.5
955.594	-2.5
956.323	-0.5
957.052	-0.5
957.78	0.5
958.509	2.5
959.238	-3.5
959.966	0.5
960.695	0.5
961.423	0.5
962.151	2.5
962.88	-1.5
963.608	0.5
964.336	1.5
965.064	-2.5
965.792	-1.5
966.52	0.5
967.247	-1.5
967.975	1.5
968.703	1.5
969.43	-3.5
970.158	-2.5
970.885	-0.5
971.613	-0.5
972.34	-0.5
973.067	-2.5
973.794	-1.5
974.521	-0.5
975.248	-1.5
975.975	0.5
976.702	-0.5
977.429	0.5
978.156	0.5
978.882	-3.5
979.609	-1.5
980.335	-3.5
981.062	1.5
981.788	0.5
982.514	-0.5
983.24	0.5
983.967	-1.5
984.693	0.5
985.419	0.5
986.144	0.5
986.87	-0.5
987.596	1.5
988.322	-1.5
989.047	-1.5
989.773	-0.5
990.498	0.5
991.224	-1.5
991.949	-0.5
992.674	-1.5
993.399	0.5
994.124	-0.5
994.849	-0.5
995.574	-1.5
996.299	-1.5
997.024	1.5
997.749	0.5
998.473	0.5
999.198	-1.5
999.922	-0.5
1000.647	1.5
1001.371	0.5
1002.095	-0.5
1002.82	-1.5
1003.544	-1.5
1004.268	3.5
1004.992	4.5
1005.716	4.5
1006.439	5.5
1007.163	5.5
1007.887	3.5
1008.611	0.5
1009.334	-1.5
1010.058	0.5
1010.781	1.5
1011.504	0.5
1012.228	0.5
1012.951	1.5
1013.674	0.5
1014.397	1.5
1015.12	-0.5
