节点500_705_QEPB04081__72__20-47-05-278.txt的数据

Date: Wed Nov 12 20:47:05 CST 2025
User: PC
Spectrometer: QEPB0408
触发模式: 0
积分时间 (秒): 1.000000E-2
Scans to average: 1
启用暗噪声校正: true
启用非线性校正: false
滑动平均宽度: 0
X轴模式: Wavelengths
Number of Pixels in Spectrum: 1044
>>>>>Begin Spectral Data<<<<<
220.843	3.38
221.644	6.38
222.444	4.38
223.244	5.38
224.045	4.38
224.845	4.38
225.645	7.38
226.445	7.38
227.245	8.38
228.045	7.38
228.845	7.38
229.645	7.38
230.444	7.38
231.244	8.38
232.043	8.38
232.843	10.38
233.642	12.38
234.442	8.38
235.241	8.38
236.04	10.38
236.839	9.38
237.638	9.38
238.437	11.38
239.236	10.38
240.035	11.38
240.833	14.38
241.632	13.38
242.43	13.38
243.229	13.38
244.027	13.38
244.826	12.38
245.624	12.38
246.422	13.38
247.22	13.38
248.018	17.38
248.816	14.38
249.614	16.38
250.412	14.38
251.21	16.38
252.007	17.38
252.805	18.38
253.602	19.38
254.4	15.38
255.197	20.38
255.994	20.38
256.791	23.38
257.589	21.38
258.386	21.38
259.183	20.38
259.979	23.38
260.776	27.38
261.573	25.38
262.37	23.38
263.166	26.38
263.963	24.38
264.759	29.38
265.556	27.38
266.352	29.38
267.148	30.38
267.944	27.38
268.74	29.38
269.536	33.38
270.332	33.38
271.128	33.38
271.924	33.38
272.719	33.38
273.515	32.38
274.311	34.38
275.106	34.38
275.901	36.38
276.697	34.38
277.492	34.38
278.287	36.38
279.082	34.38
279.877	35.38
280.672	35.38
281.467	33.38
282.262	36.38
283.056	35.38
283.851	36.38
284.646	36.38
285.44	33.38
286.234	32.38
287.029	32.38
287.823	36.38
288.617	36.38
289.411	31.38
290.205	30.38
290.999	33.38
291.793	31.38
292.587	31.38
293.381	32.38
294.174	29.38
294.968	30.38
295.761	26.38
296.555	25.38
297.348	28.38
298.141	24.38
298.935	28.38
299.728	23.38
300.521	23.38
301.314	21.38
302.107	22.38
302.899	23.38
303.692	21.38
304.485	22.38
305.277	22.38
306.07	20.38
306.862	20.38
307.655	20.38
308.447	22.38
309.239	21.38
310.031	19.38
310.823	16.38
311.615	19.38
312.407	19.38
313.199	16.38
313.991	15.38
314.783	15.38
315.574	14.38
316.366	16.38
317.157	11.38
317.949	15.38
318.74	13.38
319.531	16.38
320.322	14.38
321.113	12.38
321.904	14.38
322.695	11.38
323.486	15.38
324.277	13.38
325.068	15.38
325.858	12.38
326.649	13.38
327.439	12.38
328.23	12.38
329.02	12.38
329.81	12.38
330.6	9.38
331.391	12.38
332.181	10.38
332.971	11.38
333.76	12.38
334.55	12.38
335.34	10.38
336.13	11.38
336.919	11.38
337.709	13.38
338.498	9.38
339.287	11.38
340.077	10.38
340.866	10.38
341.655	10.38
342.444	10.38
343.233	9.38
344.022	8.38
344.811	11.38
345.6	9.38
346.388	12.38
347.177	12.38
347.965	11.38
348.754	10.38
349.542	9.38
350.33	11.38
351.119	12.38
351.907	10.38
352.695	10.38
353.483	9.38
354.271	12.38
355.059	10.38
355.846	7.38
356.634	10.38
357.422	9.38
358.209	8.38
358.997	9.38
359.784	10.38
360.571	10.38
361.359	10.38
362.146	7.38
362.933	9.38
363.72	8.38
364.507	8.38
365.294	9.38
366.081	6.38
366.867	10.38
367.654	8.38
368.44	10.38
369.227	10.38
370.013	8.38
370.8	7.38
371.586	8.38
372.372	9.38
373.158	8.38
373.944	10.38
374.73	9.38
375.516	7.38
376.302	11.38
377.088	9.38
377.873	8.38
378.659	10.38
379.445	8.38
380.23	7.38
381.015	10.38
381.801	9.38
382.586	8.38
383.371	11.38
384.156	8.38
384.941	9.38
385.726	10.38
386.511	12.38
387.296	10.38
388.08	9.38
388.865	9.38
389.649	12.38
390.434	10.38
391.218	12.38
392.003	10.38
392.787	14.38
393.571	10.38
394.355	10.38
395.139	13.38
395.923	8.38
396.707	11.38
397.491	12.38
398.274	13.38
399.058	13.38
399.842	13.38
400.625	14.38
401.408	13.38
402.192	15.38
402.975	12.38
403.758	14.38
404.541	14.38
405.324	14.38
406.107	14.38
406.89	13.38
407.673	16.38
408.456	15.38
409.238	13.38
410.021	16.38
410.803	16.38
411.586	17.38
412.368	16.38
413.151	14.38
413.933	21.38
414.715	17.38
415.497	20.38
416.279	19.38
417.061	17.38
417.843	19.38
418.624	19.38
419.406	19.38
420.188	25.38
420.969	21.38
421.751	22.38
422.532	17.38
423.313	24.38
424.095	22.38
424.876	27.38
425.657	26.38
426.438	24.38
427.219	28.38
428	26.38
428.78	28.38
429.561	27.38
430.342	32.38
431.122	29.38
431.903	33.38
432.683	31.38
433.464	36.38
434.244	39.38
435.024	39.38
435.804	40.38
436.584	42.38
437.364	43.38
438.144	47.38
438.924	52.38
439.704	53.38
440.483	54.38
441.263	58.38
442.042	62.38
442.822	65.38
443.601	73.38
444.38	80.38
445.16	84.38
445.939	90.38
446.718	99.38
447.497	105.38
448.276	116.38
449.054	131.38
449.833	136.38
450.612	150.38
451.391	160.38
452.169	182.38
452.948	203.38
453.726	223.38
454.504	255.38
455.282	273.38
456.061	303.38
456.839	344.38
457.617	386.38
458.395	428.38
459.172	479.38
459.95	541.38
460.728	596.38
461.506	674.38
462.283	750.38
463.061	830.38
463.838	935.38
464.615	1058.38
465.393	1169.38
466.17	1301.38
466.947	1454.38
467.724	1627.38
468.501	1810.38
469.278	2003.38
470.055	2231.38
470.831	2475.38
471.608	2733.38
472.385	3041.38
473.161	3367.38
473.938	3709.38
474.714	4103.38
475.49	4499.38
476.266	4977.38
477.043	5464.38
477.819	6028.38
478.595	6558.38
479.371	7198.38
480.146	7914.38
480.922	8686.38
481.698	9506.38
482.473	10412.38
483.249	11408.38
484.024	12360.38
484.8	13532.38
485.575	14657.38
486.35	16021.38
487.126	17401.38
487.901	18839.38
488.676	20418.38
489.451	22144.38
490.225	23879.38
491	25618.38
491.775	27459.38
492.55	29375.38
493.324	31278.38
494.099	33228.38
494.873	35160.38
495.647	37163.38
496.422	39036.38
497.196	40975.38
497.97	42651.38
498.744	44265.38
499.518	45813.38
500.292	47195.38
501.066	48132.38
501.839	48834.38
502.613	49539.38
503.387	49891.38
504.16	50060.38
504.934	49917.38
505.707	49470.38
506.48	48776.38
507.253	48117.38
508.027	46982.38
508.8	45715.38
509.573	44446.38
510.346	43207.38
511.118	41859.38
511.891	40434.38
512.664	38650.38
513.437	37155.38
514.209	35552.38
514.982	34252.38
515.754	32701.38
516.526	31362.38
517.298	30130.38
518.071	28885.38
518.843	27685.38
519.615	26537.38
520.387	25483.38
521.159	24496.38
521.93	23423.38
522.702	22418.38
523.474	21421.38
524.245	20519.38
525.017	19614.38
525.788	18705.38
526.56	17902.38
527.331	17119.38
528.102	16149.38
528.873	15316.38
529.644	14585.38
530.415	13856.38
531.186	13196.38
531.957	12476.38
532.728	11758.38
533.498	11159.38
534.269	10550.38
535.039	9977.38
535.81	9400.38
536.58	8896.38
537.351	8421.38
538.121	7969.38
538.891	7584.38
539.661	7167.38
540.431	6762.38
541.201	6423.38
541.971	6112.38
542.741	5750.38
543.51	5480.38
544.28	5176.38
545.05	4963.38
545.819	4702.38
546.588	4501.38
547.358	4272.38
548.127	4063.38
548.896	3870.38
549.665	3647.38
550.434	3465.38
551.203	3279.38
551.972	3113.38
552.741	2930.38
553.51	2751.38
554.278	2609.38
555.047	2449.38
555.815	2315.38
556.584	2191.38
557.352	2083.38
558.121	1955.38
558.889	1841.38
559.657	1747.38
560.425	1656.38
561.193	1554.38
561.961	1486.38
562.729	1397.38
563.496	1314.38
564.264	1255.38
565.032	1176.38
565.799	1121.38
566.567	1053.38
567.334	1016.38
568.101	948.38
568.869	886.38
569.636	848.38
570.403	798.38
571.17	752.38
571.937	717.38
572.704	670.38
573.471	630.38
574.237	600.38
575.004	563.38
575.771	530.38
576.537	497.38
577.303	472.38
578.07	449.38
578.836	423.38
579.602	397.38
580.368	379.38
581.134	360.38
581.9	346.38
582.666	333.38
583.432	310.38
584.198	286.38
584.964	277.38
585.729	264.38
586.495	246.38
587.26	236.38
588.025	224.38
588.791	211.38
589.556	201.38
590.321	193.38
591.086	177.38
591.851	174.38
592.616	166.38
593.381	159.38
594.146	150.38
594.911	144.38
595.675	135.38
596.44	130.38
597.204	127.38
597.969	116.38
598.733	116.38
599.497	111.38
600.261	106.38
601.025	104.38
601.79	98.38
602.553	96.38
603.317	89.38
604.081	85.38
604.845	84.38
605.609	79.38
606.372	76.38
607.136	75.38
607.899	67.38
608.662	70.38
609.426	64.38
610.189	61.38
610.952	58.38
611.715	56.38
612.478	58.38
613.241	55.38
614.004	52.38
614.767	48.38
615.529	51.38
616.292	45.38
617.055	46.38
617.817	44.38
618.579	41.38
619.342	38.38
620.104	38.38
620.866	40.38
621.628	37.38
622.39	38.38
623.152	37.38
623.914	35.38
624.676	32.38
625.438	30.38
626.199	30.38
626.961	30.38
627.722	29.38
628.484	30.38
629.245	26.38
630.006	29.38
630.768	26.38
631.529	26.38
632.29	25.38
633.051	23.38
633.812	23.38
634.573	23.38
635.333	23.38
636.094	18.38
636.855	19.38
637.615	22.38
638.376	21.38
639.136	21.38
639.896	18.38
640.657	20.38
641.417	19.38
642.177	19.38
642.937	17.38
643.697	16.38
644.457	17.38
645.216	16.38
645.976	15.38
646.736	15.38
647.495	14.38
648.255	13.38
649.014	14.38
649.774	15.38
650.533	14.38
651.292	12.38
652.051	10.38
652.81	12.38
653.569	13.38
654.328	12.38
655.087	11.38
655.846	10.38
656.604	11.38
657.363	10.38
658.121	9.38
658.88	13.38
659.638	10.38
660.397	12.38
661.155	12.38
661.913	11.38
662.671	12.38
663.429	10.38
664.187	9.38
664.945	10.38
665.703	11.38
666.46	9.38
667.218	9.38
667.976	8.38
668.733	12.38
669.49	10.38
670.248	8.38
671.005	7.38
671.762	8.38
672.519	10.38
673.276	7.38
674.033	8.38
674.79	10.38
675.547	6.38
676.304	8.38
677.06	5.38
677.817	6.38
678.574	8.38
679.33	7.38
680.086	5.38
680.843	6.38
681.599	6.38
682.355	8.38
683.111	8.38
683.867	7.38
684.623	9.38
685.379	8.38
686.135	6.38
686.89	6.38
687.646	8.38
688.402	10.38
689.157	6.38
689.912	6.38
690.668	5.38
691.423	8.38
692.178	6.38
692.933	7.38
693.688	5.38
694.443	6.38
695.198	8.38
695.953	6.38
696.708	8.38
697.462	7.38
698.217	3.38
698.972	5.38
699.726	7.38
700.48	6.38
701.235	5.38
701.989	8.38
702.743	6.38
703.497	8.38
704.251	7.38
705.005	8.38
705.759	8.38
706.513	7.38
707.266	6.38
708.02	6.38
708.774	5.38
709.527	7.38
710.28	8.38
711.034	8.38
711.787	7.38
712.54	8.38
713.293	7.38
714.046	7.38
714.799	5.38
715.552	6.38
716.305	7.38
717.058	9.38
717.81	7.38
718.563	8.38
719.315	7.38
720.068	8.38
720.82	8.38
721.573	7.38
722.325	6.38
723.077	7.38
723.829	9.38
724.581	8.38
725.333	5.38
726.085	8.38
726.836	9.38
727.588	10.38
728.34	10.38
729.091	8.38
729.843	6.38
730.594	8.38
731.346	8.38
732.097	7.38
732.848	10.38
733.599	8.38
734.35	8.38
735.101	9.38
735.852	10.38
736.603	9.38
737.354	7.38
738.104	8.38
738.855	8.38
739.605	11.38
740.356	9.38
741.106	8.38
741.856	10.38
742.607	10.38
743.357	10.38
744.107	10.38
744.857	11.38
745.607	12.38
746.357	9.38
747.106	11.38
747.856	8.38
748.606	10.38
749.355	11.38
750.105	10.38
750.854	11.38
751.603	11.38
752.353	10.38
753.102	11.38
753.851	12.38
754.6	12.38
755.349	10.38
756.098	11.38
756.847	13.38
757.595	13.38
758.344	12.38
759.093	11.38
759.841	12.38
760.589	14.38
761.338	16.38
762.086	12.38
762.834	14.38
763.582	13.38
764.331	13.38
765.079	14.38
765.826	14.38
766.574	14.38
767.322	14.38
768.07	16.38
768.817	14.38
769.565	15.38
770.312	17.38
771.06	12.38
771.807	12.38
772.554	15.38
773.302	14.38
774.049	14.38
774.796	17.38
775.543	14.38
776.29	16.38
777.036	15.38
777.783	15.38
778.53	14.38
779.276	17.38
780.023	17.38
780.769	14.38
781.516	16.38
782.262	16.38
783.008	17.38
783.754	16.38
784.5	11.38
785.246	16.38
785.992	15.38
786.738	15.38
787.484	16.38
788.23	16.38
788.975	15.38
789.721	14.38
790.466	14.38
791.212	13.38
791.957	16.38
792.702	13.38
793.447	14.38
794.193	14.38
794.938	14.38
795.683	13.38
796.427	12.38
797.172	12.38
797.917	15.38
798.662	11.38
799.406	12.38
800.151	11.38
800.895	12.38
801.64	12.38
802.384	12.38
803.128	10.38
803.872	12.38
804.616	11.38
805.36	12.38
806.104	9.38
806.848	9.38
807.592	8.38
808.336	11.38
809.079	9.38
809.823	10.38
810.566	6.38
811.31	8.38
812.053	7.38
812.796	10.38
813.539	8.38
814.283	9.38
815.026	6.38
815.769	8.38
816.511	8.38
817.254	5.38
817.997	8.38
818.74	7.38
819.482	6.38
820.225	7.38
820.967	7.38
821.71	7.38
822.452	2.38
823.194	4.38
823.936	4.38
824.678	5.38
825.42	6.38
826.162	5.38
826.904	7.38
827.646	4.38
828.388	8.38
829.129	8.38
829.871	7.38
830.612	6.38
831.354	6.38
832.095	8.38
832.836	4.38
833.577	5.38
834.319	4.38
835.06	2.38
835.801	4.38
836.542	7.38
837.282	2.38
838.023	6.38
838.764	3.38
839.504	3.38
840.245	4.38
840.985	6.38
841.726	5.38
842.466	3.38
843.206	5.38
843.946	5.38
844.687	4.38
845.427	4.38
846.166	5.38
846.906	4.38
847.646	5.38
848.386	3.38
849.125	4.38
849.865	4.38
850.605	3.38
851.344	6.38
852.083	4.38
852.823	3.38
853.562	2.38
854.301	0.38
855.04	3.38
855.779	2.38
856.518	4.38
857.257	4.38
857.995	3.38
858.734	5.38
859.473	2.38
860.211	2.38
860.95	5.38
861.688	2.38
862.426	3.38
863.165	2.38
863.903	3.38
864.641	3.38
865.379	0.38
866.117	4.38
866.855	3.38
867.593	3.38
868.33	0.38
869.068	4.38
869.806	2.38
870.543	0.38
871.28	1.38
872.018	2.38
872.755	3.38
873.492	3.38
874.229	1.38
874.967	0.38
875.703	2.38
876.44	4.38
877.177	-1.62
877.914	2.38
878.651	2.38
879.387	2.38
880.124	1.38
880.86	1.38
881.597	0.38
882.333	1.38
883.069	1.38
883.806	-1.62
884.542	0.38
885.278	0.38
886.014	2.38
886.749	1.38
887.485	1.38
888.221	2.38
888.957	1.38
889.692	-1.62
890.428	1.38
891.163	-0.62
891.899	-0.62
892.634	0.38
893.369	1.38
894.104	2.38
894.839	-1.62
895.574	1.38
896.309	0.38
897.044	-0.62
897.779	1.38
898.514	-0.62
899.248	2.38
899.983	0.38
900.717	-0.62
901.452	0.38
902.186	1.38
902.92	1.38
903.654	1.38
904.389	0.38
905.123	1.38
905.857	0.38
906.59	0.38
907.324	1.38
908.058	-0.62
908.792	-1.62
909.525	0.38
910.259	1.38
910.992	0.38
911.726	0.38
912.459	1.38
913.192	-0.62
913.925	0.38
914.658	0.38
915.391	-1.62
916.124	-1.62
916.857	0.38
917.59	-2.62
918.323	-1.62
919.055	1.38
919.788	-2.62
920.521	-0.62
921.253	-0.62
921.985	2.38
922.718	-0.62
923.45	0.38
924.182	0.38
924.914	0.38
925.646	0.38
926.378	-1.62
927.11	0.38
927.841	-0.62
928.573	-0.62
929.305	0.38
930.036	-0.62
930.768	-1.62
931.499	1.38
932.23	0.38
932.962	-3.62
933.693	-0.62
934.424	1.38
935.155	-1.62
935.886	-0.62
936.617	1.38
937.348	-1.62
938.078	2.38
938.809	-1.62
939.54	-1.62
940.27	1.38
941.001	1.38
941.731	-0.62
942.461	0.38
943.191	-1.62
943.922	-0.62
944.652	0.38
945.382	2.38
946.112	1.38
946.841	1.38
947.571	0.38
948.301	-2.62
949.031	-0.62
949.76	-0.62
950.49	-1.62
951.219	-0.62
951.948	-1.62
952.678	-0.62
953.407	0.38
954.136	-0.62
954.865	0.38
955.594	0.38
956.323	0.38
957.052	0.38
957.78	0.38
958.509	-0.62
959.238	-0.62
959.966	0.38
960.695	-1.62
961.423	0.38
962.151	-0.62
962.88	-0.62
963.608	0.38
964.336	-0.62
965.064	-0.62
965.792	-1.62
966.52	-0.62
967.247	0.38
967.975	-2.62
968.703	-0.62
969.43	0.38
970.158	-1.62
970.885	0.38
971.613	-0.62
972.34	0.38
973.067	0.38
973.794	0.38
974.521	0.38
975.248	0.38
975.975	-1.62
976.702	-0.62
977.429	-1.62
978.156	-1.62
978.882	-1.62
979.609	1.38
980.335	-1.62
981.062	-0.62
981.788	-1.62
982.514	1.38
983.24	1.38
983.967	-0.62
984.693	-1.62
985.419	-1.62
986.144	1.38
986.87	0.38
987.596	1.38
988.322	-0.62
989.047	-3.62
989.773	-1.62
990.498	-0.62
991.224	-0.62
991.949	-1.62
992.674	0.38
993.399	1.38
994.124	0.38
994.849	-0.62
995.574	0.38
996.299	-1.62
997.024	0.38
997.749	-1.62
998.473	-0.62
999.198	-0.62
999.922	0.38
1000.647	-1.62
1001.371	2.38
1002.095	1.38
1002.82	-1.62
1003.544	-1.62
1004.268	4.38
1004.992	3.38
1005.716	2.38
1006.439	4.38
1007.163	5.38
1007.887	3.38
1008.611	0.38
1009.334	0.38
1010.058	1.38
1010.781	1.38
1011.504	-1.62
1012.228	-1.62
1012.951	-1.62
1013.674	2.38
1014.397	0.38
1015.12	-1.62
