节点500_705_QEPB04081__663__20-55-21-804.txt的数据

Date: Wed Nov 12 20:55:21 CST 2025
User: PC
Spectrometer: QEPB0408
触发模式: 0
积分时间 (秒): 1.000000E-2
Scans to average: 1
启用暗噪声校正: true
启用非线性校正: false
滑动平均宽度: 0
X轴模式: Wavelengths
Number of Pixels in Spectrum: 1044
>>>>>Begin Spectral Data<<<<<
220.843	7.75
221.644	5.75
222.444	4.75
223.244	6.75
224.045	7.75
224.845	6.75
225.645	6.75
226.445	3.75
227.245	5.75
228.045	6.75
228.845	7.75
229.645	8.75
230.444	7.75
231.244	5.75
232.043	7.75
232.843	6.75
233.642	9.75
234.442	9.75
235.241	10.75
236.04	7.75
236.839	10.75
237.638	7.75
238.437	9.75
239.236	9.75
240.035	13.75
240.833	10.75
241.632	9.75
242.43	10.75
243.229	11.75
244.027	11.75
244.826	12.75
245.624	11.75
246.422	11.75
247.22	11.75
248.018	11.75
248.816	12.75
249.614	15.75
250.412	15.75
251.21	16.75
252.007	13.75
252.805	13.75
253.602	15.75
254.4	15.75
255.197	16.75
255.994	16.75
256.791	15.75
257.589	18.75
258.386	17.75
259.183	21.75
259.979	16.75
260.776	17.75
261.573	18.75
262.37	20.75
263.166	21.75
263.963	20.75
264.759	21.75
265.556	24.75
266.352	22.75
267.148	26.75
267.944	24.75
268.74	25.75
269.536	27.75
270.332	27.75
271.128	27.75
271.924	27.75
272.719	29.75
273.515	27.75
274.311	30.75
275.106	30.75
275.901	30.75
276.697	32.75
277.492	27.75
278.287	32.75
279.082	30.75
279.877	28.75
280.672	30.75
281.467	31.75
282.262	32.75
283.056	30.75
283.851	30.75
284.646	32.75
285.44	29.75
286.234	29.75
287.029	29.75
287.823	34.75
288.617	29.75
289.411	27.75
290.205	29.75
290.999	27.75
291.793	29.75
292.587	29.75
293.381	29.75
294.174	25.75
294.968	27.75
295.761	27.75
296.555	24.75
297.348	27.75
298.141	26.75
298.935	26.75
299.728	22.75
300.521	24.75
301.314	22.75
302.107	22.75
302.899	21.75
303.692	23.75
304.485	22.75
305.277	21.75
306.07	20.75
306.862	22.75
307.655	21.75
308.447	22.75
309.239	19.75
310.031	18.75
310.823	18.75
311.615	18.75
312.407	16.75
313.199	14.75
313.991	16.75
314.783	14.75
315.574	15.75
316.366	13.75
317.157	16.75
317.949	13.75
318.74	14.75
319.531	13.75
320.322	14.75
321.113	13.75
321.904	11.75
322.695	11.75
323.486	12.75
324.277	12.75
325.068	13.75
325.858	12.75
326.649	12.75
327.439	12.75
328.23	11.75
329.02	12.75
329.81	13.75
330.6	12.75
331.391	10.75
332.181	12.75
332.971	11.75
333.76	10.75
334.55	11.75
335.34	12.75
336.13	13.75
336.919	11.75
337.709	12.75
338.498	10.75
339.287	12.75
340.077	12.75
340.866	11.75
341.655	12.75
342.444	9.75
343.233	10.75
344.022	10.75
344.811	12.75
345.6	10.75
346.388	10.75
347.177	11.75
347.965	9.75
348.754	8.75
349.542	10.75
350.33	8.75
351.119	10.75
351.907	11.75
352.695	9.75
353.483	10.75
354.271	11.75
355.059	9.75
355.846	8.75
356.634	8.75
357.422	10.75
358.209	8.75
358.997	12.75
359.784	9.75
360.571	8.75
361.359	9.75
362.146	9.75
362.933	9.75
363.72	8.75
364.507	8.75
365.294	9.75
366.081	9.75
366.867	10.75
367.654	7.75
368.44	8.75
369.227	6.75
370.013	8.75
370.8	8.75
371.586	5.75
372.372	7.75
373.158	8.75
373.944	10.75
374.73	9.75
375.516	9.75
376.302	10.75
377.088	7.75
377.873	9.75
378.659	9.75
379.445	9.75
380.23	10.75
381.015	9.75
381.801	10.75
382.586	8.75
383.371	8.75
384.156	6.75
384.941	10.75
385.726	8.75
386.511	9.75
387.296	9.75
388.08	12.75
388.865	12.75
389.649	10.75
390.434	10.75
391.218	9.75
392.003	12.75
392.787	11.75
393.571	9.75
394.355	10.75
395.139	12.75
395.923	12.75
396.707	14.75
397.491	9.75
398.274	12.75
399.058	14.75
399.842	9.75
400.625	12.75
401.408	12.75
402.192	13.75
402.975	14.75
403.758	12.75
404.541	14.75
405.324	14.75
406.107	12.75
406.89	9.75
407.673	14.75
408.456	11.75
409.238	15.75
410.021	14.75
410.803	13.75
411.586	16.75
412.368	17.75
413.151	14.75
413.933	17.75
414.715	16.75
415.497	16.75
416.279	16.75
417.061	16.75
417.843	18.75
418.624	19.75
419.406	20.75
420.188	18.75
420.969	20.75
421.751	19.75
422.532	22.75
423.313	21.75
424.095	24.75
424.876	23.75
425.657	22.75
426.438	23.75
427.219	26.75
428	28.75
428.78	27.75
429.561	25.75
430.342	29.75
431.122	25.75
431.903	29.75
432.683	34.75
433.464	34.75
434.244	31.75
435.024	36.75
435.804	40.75
436.584	41.75
437.364	47.75
438.144	51.75
438.924	51.75
439.704	53.75
440.483	56.75
441.263	64.75
442.042	64.75
442.822	73.75
443.601	79.75
444.38	83.75
445.16	90.75
445.939	100.75
446.718	107.75
447.497	113.75
448.276	132.75
449.054	146.75
449.833	153.75
450.612	174.75
451.391	190.75
452.169	211.75
452.948	230.75
453.726	260.75
454.504	281.75
455.282	324.75
456.061	353.75
456.839	398.75
457.617	440.75
458.395	491.75
459.172	546.75
459.95	608.75
460.728	673.75
461.506	752.75
462.283	829.75
463.061	927.75
463.838	1035.75
464.615	1150.75
465.393	1258.75
466.17	1390.75
466.947	1543.75
467.724	1698.75
468.501	1862.75
469.278	2075.75
470.055	2277.75
470.831	2513.75
471.608	2746.75
472.385	3018.75
473.161	3317.75
473.938	3611.75
474.714	3960.75
475.49	4308.75
476.266	4680.75
477.043	5140.75
477.819	5582.75
478.595	6068.75
479.371	6586.75
480.146	7146.75
480.922	7734.75
481.698	8434.75
482.473	9082.75
483.249	9856.75
484.024	10669.75
484.8	11447.75
485.575	12373.75
486.35	13374.75
487.126	14407.75
487.901	15506.75
488.676	16657.75
489.451	17915.75
490.225	19173.75
491	20549.75
491.775	21928.75
492.55	23383.75
493.324	24895.75
494.099	26383.75
494.873	28059.75
495.647	29491.75
496.422	31138.75
497.196	32797.75
497.97	34304.75
498.744	35719.75
499.518	37278.75
500.292	38588.75
501.066	39729.75
501.839	40652.75
502.613	41588.75
503.387	42352.75
504.16	42984.75
504.934	43429.75
505.707	43774.75
506.48	43532.75
507.253	43459.75
508.027	43253.75
508.8	42679.75
509.573	41913.75
510.346	41176.75
511.118	40342.75
511.891	39454.75
512.664	38173.75
513.437	37031.75
514.209	35845.75
514.982	34532.75
515.754	33283.75
516.526	31932.75
517.298	30639.75
518.071	29594.75
518.843	28537.75
519.615	27292.75
520.387	26279.75
521.159	25269.75
521.93	24241.75
522.702	23258.75
523.474	22285.75
524.245	21414.75
525.017	20509.75
525.788	19634.75
526.56	18886.75
527.331	18061.75
528.102	17237.75
528.873	16360.75
529.644	15624.75
530.415	14940.75
531.186	14271.75
531.957	13580.75
532.728	12841.75
533.498	12243.75
534.269	11610.75
535.039	11013.75
535.81	10444.75
536.58	9885.75
537.351	9334.75
538.121	8843.75
538.891	8399.75
539.661	7933.75
540.431	7499.75
541.201	7161.75
541.971	6781.75
542.741	6418.75
543.51	6097.75
544.28	5789.75
545.05	5495.75
545.819	5277.75
546.588	5011.75
547.358	4769.75
548.127	4529.75
548.896	4316.75
549.665	4087.75
550.434	3902.75
551.203	3694.75
551.972	3517.75
552.741	3319.75
553.51	3159.75
554.278	2955.75
555.047	2807.75
555.815	2672.75
556.584	2517.75
557.352	2382.75
558.121	2250.75
558.889	2136.75
559.657	2020.75
560.425	1902.75
561.193	1798.75
561.961	1722.75
562.729	1614.75
563.496	1516.75
564.264	1450.75
565.032	1373.75
565.799	1297.75
566.567	1214.75
567.334	1159.75
568.101	1089.75
568.869	1034.75
569.636	972.75
570.403	921.75
571.17	863.75
571.937	816.75
572.704	778.75
573.471	729.75
574.237	681.75
575.004	655.75
575.771	617.75
576.537	572.75
577.303	538.75
578.07	523.75
578.836	481.75
579.602	460.75
580.368	440.75
581.134	410.75
581.9	394.75
582.666	376.75
583.432	349.75
584.198	334.75
584.964	319.75
585.729	303.75
586.495	287.75
587.26	264.75
588.025	258.75
588.791	243.75
589.556	233.75
590.321	218.75
591.086	204.75
591.851	194.75
592.616	188.75
593.381	182.75
594.146	167.75
594.911	166.75
595.675	158.75
596.44	148.75
597.204	143.75
597.969	137.75
598.733	126.75
599.497	122.75
600.261	123.75
601.025	115.75
601.79	109.75
602.553	110.75
603.317	102.75
604.081	96.75
604.845	94.75
605.609	89.75
606.372	88.75
607.136	78.75
607.899	77.75
608.662	74.75
609.426	73.75
610.189	70.75
610.952	67.75
611.715	64.75
612.478	62.75
613.241	62.75
614.004	56.75
614.767	56.75
615.529	53.75
616.292	52.75
617.055	51.75
617.817	48.75
618.579	46.75
619.342	43.75
620.104	44.75
620.866	43.75
621.628	42.75
622.39	42.75
623.152	35.75
623.914	37.75
624.676	32.75
625.438	36.75
626.199	32.75
626.961	34.75
627.722	33.75
628.484	30.75
629.245	31.75
630.006	26.75
630.768	28.75
631.529	29.75
632.29	25.75
633.051	26.75
633.812	26.75
634.573	24.75
635.333	23.75
636.094	22.75
636.855	23.75
637.615	20.75
638.376	22.75
639.136	24.75
639.896	20.75
640.657	20.75
641.417	17.75
642.177	18.75
642.937	17.75
643.697	18.75
644.457	17.75
645.216	16.75
645.976	13.75
646.736	18.75
647.495	14.75
648.255	14.75
649.014	14.75
649.774	14.75
650.533	13.75
651.292	13.75
652.051	12.75
652.81	13.75
653.569	14.75
654.328	13.75
655.087	9.75
655.846	13.75
656.604	16.75
657.363	10.75
658.121	14.75
658.88	12.75
659.638	10.75
660.397	11.75
661.155	12.75
661.913	13.75
662.671	9.75
663.429	6.75
664.187	7.75
664.945	8.75
665.703	9.75
666.46	9.75
667.218	9.75
667.976	9.75
668.733	9.75
669.49	9.75
670.248	9.75
671.005	12.75
671.762	9.75
672.519	9.75
673.276	9.75
674.033	6.75
674.79	10.75
675.547	8.75
676.304	8.75
677.06	8.75
677.817	8.75
678.574	8.75
679.33	7.75
680.086	8.75
680.843	7.75
681.599	8.75
682.355	7.75
683.111	6.75
683.867	8.75
684.623	7.75
685.379	8.75
686.135	7.75
686.89	5.75
687.646	4.75
688.402	9.75
689.157	9.75
689.912	8.75
690.668	9.75
691.423	5.75
692.178	7.75
692.933	6.75
693.688	8.75
694.443	7.75
695.198	4.75
695.953	5.75
696.708	5.75
697.462	5.75
698.217	6.75
698.972	5.75
699.726	6.75
700.48	8.75
701.235	4.75
701.989	7.75
702.743	6.75
703.497	7.75
704.251	6.75
705.005	5.75
705.759	6.75
706.513	5.75
707.266	9.75
708.02	8.75
708.774	7.75
709.527	7.75
710.28	5.75
711.034	6.75
711.787	6.75
712.54	7.75
713.293	3.75
714.046	6.75
714.799	7.75
715.552	4.75
716.305	7.75
717.058	6.75
717.81	8.75
718.563	5.75
719.315	7.75
720.068	10.75
720.82	7.75
721.573	6.75
722.325	5.75
723.077	7.75
723.829	7.75
724.581	8.75
725.333	6.75
726.085	7.75
726.836	7.75
727.588	5.75
728.34	7.75
729.091	7.75
729.843	7.75
730.594	7.75
731.346	5.75
732.097	9.75
732.848	7.75
733.599	10.75
734.35	7.75
735.101	10.75
735.852	8.75
736.603	5.75
737.354	10.75
738.104	7.75
738.855	8.75
739.605	8.75
740.356	7.75
741.106	10.75
741.856	6.75
742.607	8.75
743.357	8.75
744.107	9.75
744.857	9.75
745.607	9.75
746.357	11.75
747.106	11.75
747.856	10.75
748.606	8.75
749.355	7.75
750.105	8.75
750.854	7.75
751.603	10.75
752.353	7.75
753.102	9.75
753.851	9.75
754.6	9.75
755.349	11.75
756.098	9.75
756.847	11.75
757.595	10.75
758.344	9.75
759.093	8.75
759.841	10.75
760.589	11.75
761.338	13.75
762.086	13.75
762.834	12.75
763.582	10.75
764.331	12.75
765.079	11.75
765.826	12.75
766.574	13.75
767.322	11.75
768.07	11.75
768.817	11.75
769.565	11.75
770.312	10.75
771.06	14.75
771.807	12.75
772.554	13.75
773.302	13.75
774.049	13.75
774.796	14.75
775.543	12.75
776.29	12.75
777.036	16.75
777.783	12.75
778.53	13.75
779.276	15.75
780.023	14.75
780.769	12.75
781.516	13.75
782.262	13.75
783.008	15.75
783.754	14.75
784.5	14.75
785.246	13.75
785.992	13.75
786.738	16.75
787.484	14.75
788.23	11.75
788.975	13.75
789.721	13.75
790.466	14.75
791.212	13.75
791.957	11.75
792.702	13.75
793.447	13.75
794.193	12.75
794.938	12.75
795.683	12.75
796.427	13.75
797.172	12.75
797.917	12.75
798.662	9.75
799.406	9.75
800.151	11.75
800.895	10.75
801.64	13.75
802.384	11.75
803.128	13.75
803.872	10.75
804.616	11.75
805.36	10.75
806.104	9.75
806.848	13.75
807.592	7.75
808.336	9.75
809.079	8.75
809.823	7.75
810.566	8.75
811.31	5.75
812.053	7.75
812.796	7.75
813.539	7.75
814.283	6.75
815.026	9.75
815.769	9.75
816.511	7.75
817.254	8.75
817.997	7.75
818.74	5.75
819.482	6.75
820.225	6.75
820.967	6.75
821.71	9.75
822.452	7.75
823.194	6.75
823.936	5.75
824.678	5.75
825.42	7.75
826.162	7.75
826.904	7.75
827.646	6.75
828.388	6.75
829.129	5.75
829.871	4.75
830.612	5.75
831.354	6.75
832.095	2.75
832.836	4.75
833.577	9.75
834.319	4.75
835.06	3.75
835.801	4.75
836.542	5.75
837.282	6.75
838.023	6.75
838.764	4.75
839.504	7.75
840.245	5.75
840.985	2.75
841.726	4.75
842.466	6.75
843.206	4.75
843.946	3.75
844.687	5.75
845.427	4.75
846.166	2.75
846.906	4.75
847.646	6.75
848.386	6.75
849.125	2.75
849.865	6.75
850.605	3.75
851.344	2.75
852.083	7.75
852.823	2.75
853.562	5.75
854.301	4.75
855.04	7.75
855.779	4.75
856.518	4.75
857.257	2.75
857.995	6.75
858.734	2.75
859.473	2.75
860.211	5.75
860.95	2.75
861.688	3.75
862.426	4.75
863.165	3.75
863.903	2.75
864.641	3.75
865.379	3.75
866.117	3.75
866.855	1.75
867.593	3.75
868.33	1.75
869.068	2.75
869.806	2.75
870.543	3.75
871.28	-0.25
872.018	2.75
872.755	4.75
873.492	3.75
874.229	2.75
874.967	2.75
875.703	1.75
876.44	2.75
877.177	1.75
877.914	3.75
878.651	3.75
879.387	0.75
880.124	0.75
880.86	2.75
881.597	0.75
882.333	3.75
883.069	2.75
883.806	1.75
884.542	1.75
885.278	2.75
886.014	2.75
886.749	1.75
887.485	1.75
888.221	1.75
888.957	0.75
889.692	0.75
890.428	-0.25
891.163	1.75
891.899	2.75
892.634	0.75
893.369	1.75
894.104	0.75
894.839	2.75
895.574	1.75
896.309	0.75
897.044	-0.25
897.779	0.75
898.514	2.75
899.248	2.75
899.983	-0.25
900.717	0.75
901.452	-1.25
902.186	1.75
902.92	-0.25
903.654	1.75
904.389	-1.25
905.123	1.75
905.857	1.75
906.59	1.75
907.324	-1.25
908.058	0.75
908.792	3.75
909.525	-0.25
910.259	-0.25
910.992	0.75
911.726	-1.25
912.459	1.75
913.192	-3.25
913.925	0.75
914.658	-1.25
915.391	-1.25
916.124	-0.25
916.857	-1.25
917.59	-1.25
918.323	1.75
919.055	-2.25
919.788	0.75
920.521	-0.25
921.253	0.75
921.985	-1.25
922.718	-2.25
923.45	1.75
924.182	0.75
924.914	0.75
925.646	0.75
926.378	1.75
927.11	0.75
927.841	-1.25
928.573	-0.25
929.305	-0.25
930.036	2.75
930.768	-0.25
931.499	-0.25
932.23	0.75
932.962	4.75
933.693	0.75
934.424	-0.25
935.155	-0.25
935.886	-1.25
936.617	-2.25
937.348	-0.25
938.078	0.75
938.809	0.75
939.54	0.75
940.27	1.75
941.001	-1.25
941.731	-0.25
942.461	-2.25
943.191	0.75
943.922	0.75
944.652	-0.25
945.382	-0.25
946.112	1.75
946.841	-0.25
947.571	-1.25
948.301	-1.25
949.031	1.75
949.76	-2.25
950.49	-0.25
951.219	-0.25
951.948	-0.25
952.678	-0.25
953.407	-2.25
954.136	1.75
954.865	-1.25
955.594	0.75
956.323	0.75
957.052	0.75
957.78	1.75
958.509	-1.25
959.238	-0.25
959.966	0.75
960.695	-0.25
961.423	-0.25
962.151	-0.25
962.88	2.75
963.608	-0.25
964.336	-0.25
965.064	2.75
965.792	-0.25
966.52	-1.25
967.247	0.75
967.975	-0.25
968.703	0.75
969.43	0.75
970.158	-0.25
970.885	-2.25
971.613	-0.25
972.34	-0.25
973.067	0.75
973.794	-0.25
974.521	-0.25
975.248	-1.25
975.975	0.75
976.702	0.75
977.429	0.75
978.156	0.75
978.882	-3.25
979.609	0.75
980.335	1.75
981.062	-0.25
981.788	-0.25
982.514	0.75
983.24	0.75
983.967	2.75
984.693	2.75
985.419	-1.25
986.144	-1.25
986.87	0.75
987.596	1.75
988.322	-0.25
989.047	-1.25
989.773	1.75
990.498	1.75
991.224	-0.25
991.949	1.75
992.674	0.75
993.399	-0.25
994.124	-1.25
994.849	0.75
995.574	-0.25
996.299	-1.25
997.024	-0.25
997.749	-0.25
998.473	-1.25
999.198	-1.25
999.922	0.75
1000.647	-0.25
1001.371	2.75
1002.095	-1.25
1002.82	-0.25
1003.544	-0.25
1004.268	4.75
1004.992	1.75
1005.716	4.75
1006.439	4.75
1007.163	5.75
1007.887	4.75
1008.611	1.75
1009.334	-0.25
1010.058	-0.25
1010.781	-0.25
1011.504	0.75
1012.228	0.75
1012.951	-1.25
1013.674	-0.25
1014.397	0.75
1015.12	-0.25
