节点500_705_QEPB04081__277__20-49-55-423.txt的数据

Date: Wed Nov 12 20:49:55 CST 2025
User: PC
Spectrometer: QEPB0408
触发模式: 0
积分时间 (秒): 1.000000E-2
Scans to average: 1
启用暗噪声校正: true
启用非线性校正: false
滑动平均宽度: 0
X轴模式: Wavelengths
Number of Pixels in Spectrum: 1044
>>>>>Begin Spectral Data<<<<<
220.843	7.38
221.644	6.38
222.444	6.38
223.244	6.38
224.045	8.38
224.845	9.38
225.645	10.38
226.445	9.38
227.245	9.38
228.045	10.38
228.845	7.38
229.645	8.38
230.444	10.38
231.244	8.38
232.043	8.38
232.843	10.38
233.642	10.38
234.442	11.38
235.241	9.38
236.04	11.38
236.839	10.38
237.638	11.38
238.437	9.38
239.236	14.38
240.035	12.38
240.833	13.38
241.632	12.38
242.43	10.38
243.229	13.38
244.027	13.38
244.826	13.38
245.624	13.38
246.422	12.38
247.22	15.38
248.018	15.38
248.816	17.38
249.614	13.38
250.412	19.38
251.21	13.38
252.007	16.38
252.805	18.38
253.602	18.38
254.4	19.38
255.197	21.38
255.994	20.38
256.791	22.38
257.589	22.38
258.386	23.38
259.183	23.38
259.979	21.38
260.776	24.38
261.573	27.38
262.37	24.38
263.166	25.38
263.963	23.38
264.759	26.38
265.556	26.38
266.352	28.38
267.148	27.38
267.944	29.38
268.74	29.38
269.536	28.38
270.332	32.38
271.128	31.38
271.924	28.38
272.719	31.38
273.515	34.38
274.311	37.38
275.106	34.38
275.901	31.38
276.697	31.38
277.492	32.38
278.287	35.38
279.082	36.38
279.877	36.38
280.672	33.38
281.467	34.38
282.262	35.38
283.056	37.38
283.851	33.38
284.646	35.38
285.44	33.38
286.234	35.38
287.029	35.38
287.823	33.38
288.617	34.38
289.411	33.38
290.205	32.38
290.999	34.38
291.793	34.38
292.587	36.38
293.381	28.38
294.174	29.38
294.968	31.38
295.761	27.38
296.555	29.38
297.348	26.38
298.141	31.38
298.935	34.38
299.728	27.38
300.521	26.38
301.314	21.38
302.107	24.38
302.899	22.38
303.692	25.38
304.485	23.38
305.277	23.38
306.07	23.38
306.862	25.38
307.655	23.38
308.447	21.38
309.239	18.38
310.031	20.38
310.823	16.38
311.615	19.38
312.407	19.38
313.199	18.38
313.991	15.38
314.783	16.38
315.574	17.38
316.366	15.38
317.157	15.38
317.949	15.38
318.74	14.38
319.531	15.38
320.322	16.38
321.113	17.38
321.904	12.38
322.695	14.38
323.486	16.38
324.277	11.38
325.068	14.38
325.858	13.38
326.649	14.38
327.439	12.38
328.23	13.38
329.02	12.38
329.81	14.38
330.6	11.38
331.391	15.38
332.181	12.38
332.971	14.38
333.76	13.38
334.55	12.38
335.34	11.38
336.13	15.38
336.919	11.38
337.709	13.38
338.498	11.38
339.287	12.38
340.077	12.38
340.866	12.38
341.655	12.38
342.444	9.38
343.233	12.38
344.022	10.38
344.811	12.38
345.6	13.38
346.388	12.38
347.177	11.38
347.965	12.38
348.754	9.38
349.542	12.38
350.33	13.38
351.119	9.38
351.907	12.38
352.695	13.38
353.483	15.38
354.271	11.38
355.059	12.38
355.846	9.38
356.634	9.38
357.422	11.38
358.209	11.38
358.997	10.38
359.784	12.38
360.571	10.38
361.359	11.38
362.146	12.38
362.933	10.38
363.72	10.38
364.507	13.38
365.294	9.38
366.081	10.38
366.867	8.38
367.654	10.38
368.44	12.38
369.227	10.38
370.013	11.38
370.8	11.38
371.586	11.38
372.372	10.38
373.158	10.38
373.944	10.38
374.73	10.38
375.516	11.38
376.302	10.38
377.088	10.38
377.873	9.38
378.659	8.38
379.445	9.38
380.23	9.38
381.015	10.38
381.801	10.38
382.586	10.38
383.371	12.38
384.156	13.38
384.941	11.38
385.726	11.38
386.511	11.38
387.296	14.38
388.08	12.38
388.865	11.38
389.649	11.38
390.434	13.38
391.218	15.38
392.003	12.38
392.787	12.38
393.571	13.38
394.355	14.38
395.139	13.38
395.923	11.38
396.707	11.38
397.491	12.38
398.274	15.38
399.058	18.38
399.842	15.38
400.625	14.38
401.408	13.38
402.192	16.38
402.975	14.38
403.758	13.38
404.541	13.38
405.324	13.38
406.107	13.38
406.89	15.38
407.673	16.38
408.456	16.38
409.238	13.38
410.021	18.38
410.803	19.38
411.586	15.38
412.368	17.38
413.151	17.38
413.933	20.38
414.715	17.38
415.497	19.38
416.279	18.38
417.061	18.38
417.843	19.38
418.624	21.38
419.406	20.38
420.188	21.38
420.969	22.38
421.751	22.38
422.532	25.38
423.313	25.38
424.095	22.38
424.876	25.38
425.657	25.38
426.438	26.38
427.219	26.38
428	27.38
428.78	27.38
429.561	30.38
430.342	31.38
431.122	31.38
431.903	33.38
432.683	33.38
433.464	35.38
434.244	37.38
435.024	40.38
435.804	44.38
436.584	46.38
437.364	45.38
438.144	45.38
438.924	49.38
439.704	54.38
440.483	58.38
441.263	59.38
442.042	66.38
442.822	70.38
443.601	76.38
444.38	79.38
445.16	87.38
445.939	98.38
446.718	99.38
447.497	106.38
448.276	123.38
449.054	127.38
449.833	146.38
450.612	165.38
451.391	172.38
452.169	197.38
452.948	208.38
453.726	241.38
454.504	266.38
455.282	296.38
456.061	328.38
456.839	365.38
457.617	403.38
458.395	451.38
459.172	503.38
459.95	568.38
460.728	636.38
461.506	701.38
462.283	790.38
463.061	864.38
463.838	960.38
464.615	1083.38
465.393	1201.38
466.17	1340.38
466.947	1497.38
467.724	1636.38
468.501	1825.38
469.278	2037.38
470.055	2272.38
470.831	2496.38
471.608	2748.38
472.385	3038.38
473.161	3324.38
473.938	3689.38
474.714	4050.38
475.49	4462.38
476.266	4893.38
477.043	5330.38
477.819	5838.38
478.595	6424.38
479.371	6985.38
480.146	7651.38
480.922	8345.38
481.698	9099.38
482.473	9883.38
483.249	10809.38
484.024	11733.38
484.8	12735.38
485.575	13845.38
486.35	14991.38
487.126	16263.38
487.901	17596.38
488.676	18995.38
489.451	20522.38
490.225	22001.38
491	23640.38
491.775	25292.38
492.55	27027.38
493.324	28918.38
494.099	30669.38
494.873	32488.38
495.647	34230.38
496.422	36111.38
497.196	37980.38
497.97	39625.38
498.744	41065.38
499.518	42684.38
500.292	43973.38
501.066	44986.38
501.839	45943.38
502.613	46695.38
503.387	47257.38
504.16	47625.38
504.934	47710.38
505.707	47535.38
506.48	47259.38
507.253	46601.38
508.027	45875.38
508.8	44848.38
509.573	43726.38
510.346	42670.38
511.118	41524.38
511.891	40271.38
512.664	38752.38
513.437	37149.38
514.209	35837.38
514.982	34464.38
515.754	33000.38
516.526	31605.38
517.298	30447.38
518.071	29197.38
518.843	28023.38
519.615	26901.38
520.387	25878.38
521.159	24789.38
521.93	23702.38
522.702	22762.38
523.474	21823.38
524.245	20882.38
525.017	19949.38
525.788	19123.38
526.56	18294.38
527.331	17485.38
528.102	16539.38
528.873	15739.38
529.644	14971.38
530.415	14305.38
531.186	13549.38
531.957	12849.38
532.728	12165.38
533.498	11583.38
534.269	10936.38
535.039	10355.38
535.81	9828.38
536.58	9245.38
537.351	8720.38
538.121	8327.38
538.891	7850.38
539.661	7417.38
540.431	7040.38
541.201	6707.38
541.971	6328.38
542.741	6012.38
543.51	5679.38
544.28	5387.38
545.05	5155.38
545.819	4918.38
546.588	4679.38
547.358	4462.38
548.127	4240.38
548.896	4004.38
549.665	3820.38
550.434	3595.38
551.203	3418.38
551.972	3263.38
552.741	3073.38
553.51	2879.38
554.278	2732.38
555.047	2576.38
555.815	2435.38
556.584	2301.38
557.352	2163.38
558.121	2083.38
558.889	1948.38
559.657	1834.38
560.425	1736.38
561.193	1645.38
561.961	1562.38
562.729	1462.38
563.496	1391.38
564.264	1325.38
565.032	1237.38
565.799	1187.38
566.567	1118.38
567.334	1058.38
568.101	998.38
568.869	945.38
569.636	888.38
570.403	843.38
571.17	793.38
571.937	754.38
572.704	704.38
573.471	674.38
574.237	640.38
575.004	593.38
575.771	559.38
576.537	527.38
577.303	495.38
578.07	478.38
578.836	445.38
579.602	420.38
580.368	395.38
581.134	376.38
581.9	355.38
582.666	345.38
583.432	326.38
584.198	311.38
584.964	297.38
585.729	281.38
586.495	264.38
587.26	250.38
588.025	243.38
588.791	223.38
589.556	216.38
590.321	205.38
591.086	196.38
591.851	179.38
592.616	177.38
593.381	167.38
594.146	156.38
594.911	152.38
595.675	146.38
596.44	135.38
597.204	128.38
597.969	128.38
598.733	123.38
599.497	117.38
600.261	110.38
601.025	103.38
601.79	102.38
602.553	97.38
603.317	95.38
604.081	88.38
604.845	87.38
605.609	86.38
606.372	80.38
607.136	75.38
607.899	73.38
608.662	69.38
609.426	68.38
610.189	67.38
610.952	63.38
611.715	64.38
612.478	58.38
613.241	58.38
614.004	56.38
614.767	53.38
615.529	51.38
616.292	49.38
617.055	47.38
617.817	45.38
618.579	44.38
619.342	41.38
620.104	41.38
620.866	41.38
621.628	39.38
622.39	38.38
623.152	38.38
623.914	36.38
624.676	37.38
625.438	33.38
626.199	31.38
626.961	31.38
627.722	29.38
628.484	32.38
629.245	30.38
630.006	30.38
630.768	29.38
631.529	24.38
632.29	26.38
633.051	26.38
633.812	22.38
634.573	25.38
635.333	21.38
636.094	22.38
636.855	21.38
637.615	23.38
638.376	21.38
639.136	21.38
639.896	20.38
640.657	20.38
641.417	20.38
642.177	16.38
642.937	20.38
643.697	18.38
644.457	19.38
645.216	17.38
645.976	15.38
646.736	18.38
647.495	16.38
648.255	19.38
649.014	15.38
649.774	15.38
650.533	14.38
651.292	14.38
652.051	16.38
652.81	13.38
653.569	13.38
654.328	13.38
655.087	12.38
655.846	15.38
656.604	14.38
657.363	13.38
658.121	11.38
658.88	10.38
659.638	14.38
660.397	12.38
661.155	12.38
661.913	12.38
662.671	11.38
663.429	10.38
664.187	10.38
664.945	11.38
665.703	10.38
666.46	14.38
667.218	10.38
667.976	11.38
668.733	11.38
669.49	9.38
670.248	9.38
671.005	11.38
671.762	11.38
672.519	10.38
673.276	9.38
674.033	10.38
674.79	10.38
675.547	11.38
676.304	10.38
677.06	10.38
677.817	6.38
678.574	8.38
679.33	9.38
680.086	10.38
680.843	9.38
681.599	11.38
682.355	6.38
683.111	7.38
683.867	7.38
684.623	8.38
685.379	8.38
686.135	8.38
686.89	7.38
687.646	7.38
688.402	8.38
689.157	6.38
689.912	9.38
690.668	6.38
691.423	9.38
692.178	9.38
692.933	8.38
693.688	8.38
694.443	8.38
695.198	9.38
695.953	9.38
696.708	7.38
697.462	9.38
698.217	8.38
698.972	8.38
699.726	9.38
700.48	7.38
701.235	7.38
701.989	7.38
702.743	9.38
703.497	8.38
704.251	7.38
705.005	6.38
705.759	7.38
706.513	8.38
707.266	9.38
708.02	9.38
708.774	8.38
709.527	8.38
710.28	7.38
711.034	7.38
711.787	10.38
712.54	9.38
713.293	7.38
714.046	9.38
714.799	6.38
715.552	6.38
716.305	7.38
717.058	9.38
717.81	11.38
718.563	8.38
719.315	7.38
720.068	6.38
720.82	9.38
721.573	9.38
722.325	9.38
723.077	8.38
723.829	9.38
724.581	9.38
725.333	9.38
726.085	12.38
726.836	10.38
727.588	9.38
728.34	8.38
729.091	8.38
729.843	5.38
730.594	9.38
731.346	9.38
732.097	7.38
732.848	9.38
733.599	10.38
734.35	10.38
735.101	10.38
735.852	10.38
736.603	9.38
737.354	10.38
738.104	10.38
738.855	10.38
739.605	10.38
740.356	10.38
741.106	11.38
741.856	14.38
742.607	11.38
743.357	11.38
744.107	12.38
744.857	11.38
745.607	10.38
746.357	10.38
747.106	11.38
747.856	11.38
748.606	10.38
749.355	12.38
750.105	9.38
750.854	10.38
751.603	12.38
752.353	12.38
753.102	10.38
753.851	13.38
754.6	11.38
755.349	12.38
756.098	12.38
756.847	11.38
757.595	12.38
758.344	11.38
759.093	15.38
759.841	12.38
760.589	11.38
761.338	12.38
762.086	10.38
762.834	13.38
763.582	15.38
764.331	15.38
765.079	16.38
765.826	15.38
766.574	14.38
767.322	13.38
768.07	14.38
768.817	15.38
769.565	15.38
770.312	15.38
771.06	15.38
771.807	13.38
772.554	13.38
773.302	13.38
774.049	16.38
774.796	16.38
775.543	15.38
776.29	15.38
777.036	14.38
777.783	16.38
778.53	15.38
779.276	17.38
780.023	17.38
780.769	17.38
781.516	18.38
782.262	15.38
783.008	15.38
783.754	16.38
784.5	14.38
785.246	17.38
785.992	14.38
786.738	15.38
787.484	19.38
788.23	15.38
788.975	18.38
789.721	16.38
790.466	16.38
791.212	13.38
791.957	15.38
792.702	13.38
793.447	14.38
794.193	18.38
794.938	14.38
795.683	15.38
796.427	12.38
797.172	14.38
797.917	14.38
798.662	14.38
799.406	15.38
800.151	14.38
800.895	12.38
801.64	10.38
802.384	13.38
803.128	11.38
803.872	12.38
804.616	11.38
805.36	11.38
806.104	10.38
806.848	10.38
807.592	12.38
808.336	12.38
809.079	10.38
809.823	8.38
810.566	11.38
811.31	10.38
812.053	9.38
812.796	9.38
813.539	10.38
814.283	10.38
815.026	9.38
815.769	9.38
816.511	8.38
817.254	7.38
817.997	7.38
818.74	10.38
819.482	8.38
820.225	8.38
820.967	9.38
821.71	3.38
822.452	8.38
823.194	5.38
823.936	7.38
824.678	8.38
825.42	8.38
826.162	6.38
826.904	6.38
827.646	6.38
828.388	6.38
829.129	6.38
829.871	7.38
830.612	6.38
831.354	8.38
832.095	4.38
832.836	8.38
833.577	8.38
834.319	7.38
835.06	7.38
835.801	5.38
836.542	8.38
837.282	6.38
838.023	7.38
838.764	7.38
839.504	6.38
840.245	8.38
840.985	4.38
841.726	8.38
842.466	6.38
843.206	6.38
843.946	6.38
844.687	4.38
845.427	6.38
846.166	6.38
846.906	4.38
847.646	5.38
848.386	3.38
849.125	5.38
849.865	5.38
850.605	6.38
851.344	5.38
852.083	4.38
852.823	3.38
853.562	3.38
854.301	3.38
855.04	3.38
855.779	5.38
856.518	3.38
857.257	2.38
857.995	4.38
858.734	3.38
859.473	2.38
860.211	3.38
860.95	4.38
861.688	2.38
862.426	3.38
863.165	5.38
863.903	3.38
864.641	6.38
865.379	6.38
866.117	3.38
866.855	2.38
867.593	2.38
868.33	4.38
869.068	5.38
869.806	3.38
870.543	4.38
871.28	2.38
872.018	0.38
872.755	2.38
873.492	3.38
874.229	3.38
874.967	1.38
875.703	1.38
876.44	1.38
877.177	2.38
877.914	1.38
878.651	1.38
879.387	1.38
880.124	2.38
880.86	2.38
881.597	2.38
882.333	1.38
883.069	1.38
883.806	2.38
884.542	0.38
885.278	1.38
886.014	5.38
886.749	3.38
887.485	1.38
888.221	2.38
888.957	1.38
889.692	2.38
890.428	2.38
891.163	2.38
891.899	1.38
892.634	2.38
893.369	2.38
894.104	1.38
894.839	3.38
895.574	0.38
896.309	2.38
897.044	1.38
897.779	2.38
898.514	-0.62
899.248	-0.62
899.983	2.38
900.717	2.38
901.452	3.38
902.186	2.38
902.92	1.38
903.654	2.38
904.389	-0.62
905.123	1.38
905.857	1.38
906.59	1.38
907.324	1.38
908.058	0.38
908.792	1.38
909.525	0.38
910.259	1.38
910.992	-1.62
911.726	1.38
912.459	1.38
913.192	0.38
913.925	1.38
914.658	2.38
915.391	1.38
916.124	1.38
916.857	1.38
917.59	1.38
918.323	0.38
919.055	3.38
919.788	1.38
920.521	-0.62
921.253	2.38
921.985	1.38
922.718	1.38
923.45	-0.62
924.182	-0.62
924.914	-0.62
925.646	0.38
926.378	0.38
927.11	3.38
927.841	2.38
928.573	1.38
929.305	2.38
930.036	1.38
930.768	-2.62
931.499	5.38
932.23	-0.62
932.962	-0.62
933.693	0.38
934.424	-0.62
935.155	1.38
935.886	0.38
936.617	0.38
937.348	0.38
938.078	0.38
938.809	1.38
939.54	1.38
940.27	3.38
941.001	0.38
941.731	1.38
942.461	0.38
943.191	0.38
943.922	0.38
944.652	0.38
945.382	2.38
946.112	-0.62
946.841	0.38
947.571	0.38
948.301	0.38
949.031	2.38
949.76	-0.62
950.49	-1.62
951.219	1.38
951.948	2.38
952.678	1.38
953.407	0.38
954.136	2.38
954.865	-0.62
955.594	1.38
956.323	2.38
957.052	-0.62
957.78	3.38
958.509	0.38
959.238	1.38
959.966	1.38
960.695	0.38
961.423	0.38
962.151	1.38
962.88	1.38
963.608	-0.62
964.336	-0.62
965.064	2.38
965.792	-0.62
966.52	2.38
967.247	1.38
967.975	0.38
968.703	0.38
969.43	1.38
970.158	-0.62
970.885	-0.62
971.613	0.38
972.34	1.38
973.067	2.38
973.794	1.38
974.521	1.38
975.248	0.38
975.975	-1.62
976.702	0.38
977.429	1.38
978.156	-0.62
978.882	3.38
979.609	2.38
980.335	3.38
981.062	0.38
981.788	2.38
982.514	-0.62
983.24	0.38
983.967	0.38
984.693	-2.62
985.419	1.38
986.144	2.38
986.87	2.38
987.596	3.38
988.322	-1.62
989.047	0.38
989.773	2.38
990.498	0.38
991.224	2.38
991.949	-0.62
992.674	2.38
993.399	-0.62
994.124	2.38
994.849	-1.62
995.574	1.38
996.299	3.38
997.024	-0.62
997.749	0.38
998.473	2.38
999.198	-0.62
999.922	1.38
1000.647	2.38
1001.371	4.38
1002.095	-1.62
1002.82	-0.62
1003.544	-2.62
1004.268	7.38
1004.992	4.38
1005.716	4.38
1006.439	5.38
1007.163	6.38
1007.887	6.38
1008.611	0.38
1009.334	1.38
1010.058	1.38
1010.781	0.38
1011.504	-0.62
1012.228	1.38
1012.951	-1.62
1013.674	0.38
1014.397	1.38
1015.12	0.38
