节点500_705_QEPB04081__505__20-53-03-767.txt的数据

Date: Wed Nov 12 20:53:03 CST 2025
User: PC
Spectrometer: QEPB0408
触发模式: 0
积分时间 (秒): 1.000000E-2
Scans to average: 1
启用暗噪声校正: true
启用非线性校正: false
滑动平均宽度: 0
X轴模式: Wavelengths
Number of Pixels in Spectrum: 1044
>>>>>Begin Spectral Data<<<<<
220.843	7.62
221.644	6.62
222.444	4.62
223.244	3.62
224.045	2.62
224.845	5.62
225.645	6.62
226.445	6.62
227.245	9.62
228.045	5.62
228.845	2.62
229.645	9.62
230.444	8.62
231.244	7.62
232.043	6.62
232.843	5.62
233.642	9.62
234.442	7.62
235.241	7.62
236.04	9.62
236.839	9.62
237.638	9.62
238.437	13.62
239.236	12.62
240.035	10.62
240.833	12.62
241.632	10.62
242.43	12.62
243.229	12.62
244.027	9.62
244.826	13.62
245.624	11.62
246.422	11.62
247.22	15.62
248.018	11.62
248.816	13.62
249.614	14.62
250.412	14.62
251.21	15.62
252.007	13.62
252.805	18.62
253.602	14.62
254.4	12.62
255.197	16.62
255.994	18.62
256.791	16.62
257.589	18.62
258.386	18.62
259.183	16.62
259.979	19.62
260.776	18.62
261.573	21.62
262.37	24.62
263.166	25.62
263.963	23.62
264.759	25.62
265.556	24.62
266.352	21.62
267.148	26.62
267.944	23.62
268.74	25.62
269.536	27.62
270.332	27.62
271.128	30.62
271.924	29.62
272.719	27.62
273.515	29.62
274.311	27.62
275.106	28.62
275.901	30.62
276.697	27.62
277.492	31.62
278.287	28.62
279.082	32.62
279.877	30.62
280.672	31.62
281.467	30.62
282.262	30.62
283.056	30.62
283.851	32.62
284.646	32.62
285.44	33.62
286.234	29.62
287.029	30.62
287.823	32.62
288.617	29.62
289.411	30.62
290.205	29.62
290.999	30.62
291.793	28.62
292.587	29.62
293.381	28.62
294.174	30.62
294.968	26.62
295.761	26.62
296.555	28.62
297.348	28.62
298.141	23.62
298.935	27.62
299.728	27.62
300.521	22.62
301.314	24.62
302.107	26.62
302.899	22.62
303.692	22.62
304.485	19.62
305.277	23.62
306.07	23.62
306.862	21.62
307.655	20.62
308.447	19.62
309.239	19.62
310.031	17.62
310.823	17.62
311.615	18.62
312.407	17.62
313.199	18.62
313.991	17.62
314.783	15.62
315.574	16.62
316.366	16.62
317.157	15.62
317.949	12.62
318.74	16.62
319.531	14.62
320.322	14.62
321.113	11.62
321.904	14.62
322.695	16.62
323.486	12.62
324.277	11.62
325.068	10.62
325.858	14.62
326.649	14.62
327.439	12.62
328.23	12.62
329.02	11.62
329.81	12.62
330.6	12.62
331.391	10.62
332.181	11.62
332.971	8.62
333.76	12.62
334.55	10.62
335.34	10.62
336.13	10.62
336.919	8.62
337.709	12.62
338.498	10.62
339.287	8.62
340.077	10.62
340.866	9.62
341.655	10.62
342.444	9.62
343.233	10.62
344.022	10.62
344.811	11.62
345.6	9.62
346.388	10.62
347.177	10.62
347.965	10.62
348.754	13.62
349.542	10.62
350.33	8.62
351.119	9.62
351.907	10.62
352.695	12.62
353.483	9.62
354.271	11.62
355.059	9.62
355.846	10.62
356.634	9.62
357.422	8.62
358.209	8.62
358.997	10.62
359.784	7.62
360.571	8.62
361.359	6.62
362.146	7.62
362.933	7.62
363.72	8.62
364.507	8.62
365.294	8.62
366.081	8.62
366.867	8.62
367.654	8.62
368.44	9.62
369.227	9.62
370.013	10.62
370.8	6.62
371.586	8.62
372.372	9.62
373.158	10.62
373.944	8.62
374.73	6.62
375.516	7.62
376.302	8.62
377.088	9.62
377.873	10.62
378.659	7.62
379.445	11.62
380.23	10.62
381.015	10.62
381.801	9.62
382.586	12.62
383.371	9.62
384.156	9.62
384.941	9.62
385.726	12.62
386.511	9.62
387.296	9.62
388.08	9.62
388.865	12.62
389.649	7.62
390.434	11.62
391.218	9.62
392.003	10.62
392.787	10.62
393.571	9.62
394.355	8.62
395.139	12.62
395.923	12.62
396.707	10.62
397.491	10.62
398.274	10.62
399.058	11.62
399.842	11.62
400.625	14.62
401.408	13.62
402.192	12.62
402.975	15.62
403.758	12.62
404.541	14.62
405.324	13.62
406.107	15.62
406.89	14.62
407.673	14.62
408.456	15.62
409.238	14.62
410.021	15.62
410.803	16.62
411.586	13.62
412.368	17.62
413.151	15.62
413.933	14.62
414.715	20.62
415.497	15.62
416.279	17.62
417.061	20.62
417.843	15.62
418.624	16.62
419.406	20.62
420.188	21.62
420.969	19.62
421.751	20.62
422.532	21.62
423.313	23.62
424.095	19.62
424.876	19.62
425.657	21.62
426.438	25.62
427.219	25.62
428	24.62
428.78	25.62
429.561	29.62
430.342	27.62
431.122	30.62
431.903	30.62
432.683	30.62
433.464	35.62
434.244	35.62
435.024	36.62
435.804	38.62
436.584	41.62
437.364	46.62
438.144	46.62
438.924	48.62
439.704	54.62
440.483	56.62
441.263	64.62
442.042	65.62
442.822	66.62
443.601	76.62
444.38	80.62
445.16	85.62
445.939	98.62
446.718	104.62
447.497	113.62
448.276	125.62
449.054	136.62
449.833	157.62
450.612	168.62
451.391	183.62
452.169	201.62
452.948	224.62
453.726	252.62
454.504	282.62
455.282	316.62
456.061	349.62
456.839	380.62
457.617	426.62
458.395	473.62
459.172	528.62
459.95	589.62
460.728	664.62
461.506	733.62
462.283	815.62
463.061	901.62
463.838	1002.62
464.615	1118.62
465.393	1238.62
466.17	1376.62
466.947	1522.62
467.724	1684.62
468.501	1868.62
469.278	2045.62
470.055	2272.62
470.831	2501.62
471.608	2745.62
472.385	3012.62
473.161	3318.62
473.938	3623.62
474.714	3995.62
475.49	4362.62
476.266	4754.62
477.043	5171.62
477.819	5657.62
478.595	6161.62
479.371	6696.62
480.146	7284.62
480.922	7913.62
481.698	8632.62
482.473	9314.62
483.249	10076.62
484.024	10936.62
484.8	11815.62
485.575	12747.62
486.35	13814.62
487.126	14937.62
487.901	16070.62
488.676	17281.62
489.451	18619.62
490.225	19974.62
491	21444.62
491.775	22790.62
492.55	24429.62
493.324	25928.62
494.099	27544.62
494.873	29198.62
495.647	30841.62
496.422	32517.62
497.196	34122.62
497.97	35745.62
498.744	37308.62
499.518	38812.62
500.292	40174.62
501.066	41178.62
501.839	42211.62
502.613	43063.62
503.387	43791.62
504.16	44424.62
504.934	44726.62
505.707	44926.62
506.48	44640.62
507.253	44500.62
508.027	44000.62
508.8	43329.62
509.573	42472.62
510.346	41738.62
511.118	40780.62
511.891	39719.62
512.664	38357.62
513.437	37076.62
514.209	35750.62
514.982	34489.62
515.754	33165.62
516.526	31865.62
517.298	30664.62
518.071	29451.62
518.843	28265.62
519.615	27138.62
520.387	26064.62
521.159	25089.62
521.93	24040.62
522.702	23082.62
523.474	22163.62
524.245	21214.62
525.017	20299.62
525.788	19487.62
526.56	18695.62
527.331	17905.62
528.102	16966.62
528.873	16189.62
529.644	15446.62
530.415	14739.62
531.186	14037.62
531.957	13303.62
532.728	12630.62
533.498	12008.62
534.269	11375.62
535.039	10816.62
535.81	10225.62
536.58	9651.62
537.351	9174.62
538.121	8654.62
538.891	8192.62
539.661	7778.62
540.431	7345.62
541.201	6988.62
541.971	6630.62
542.741	6280.62
543.51	5941.62
544.28	5681.62
545.05	5411.62
545.819	5133.62
546.588	4916.62
547.358	4681.62
548.127	4434.62
548.896	4210.62
549.665	4011.62
550.434	3801.62
551.203	3616.62
551.972	3440.62
552.741	3254.62
553.51	3066.62
554.278	2886.62
555.047	2741.62
555.815	2592.62
556.584	2432.62
557.352	2336.62
558.121	2188.62
558.889	2074.62
559.657	1949.62
560.425	1833.62
561.193	1757.62
561.961	1660.62
562.729	1561.62
563.496	1463.62
564.264	1402.62
565.032	1325.62
565.799	1255.62
566.567	1177.62
567.334	1130.62
568.101	1061.62
568.869	1002.62
569.636	943.62
570.403	887.62
571.17	842.62
571.937	798.62
572.704	750.62
573.471	698.62
574.237	671.62
575.004	627.62
575.771	596.62
576.537	561.62
577.303	538.62
578.07	494.62
578.836	475.62
579.602	446.62
580.368	420.62
581.134	398.62
581.9	382.62
582.666	366.62
583.432	349.62
584.198	324.62
584.964	312.62
585.729	300.62
586.495	275.62
587.26	265.62
588.025	255.62
588.791	234.62
589.556	218.62
590.321	217.62
591.086	206.62
591.851	192.62
592.616	181.62
593.381	175.62
594.146	169.62
594.911	156.62
595.675	154.62
596.44	145.62
597.204	141.62
597.969	133.62
598.733	120.62
599.497	123.62
600.261	113.62
601.025	109.62
601.79	106.62
602.553	97.62
603.317	96.62
604.081	91.62
604.845	88.62
605.609	86.62
606.372	80.62
607.136	77.62
607.899	77.62
608.662	75.62
609.426	67.62
610.189	71.62
610.952	64.62
611.715	64.62
612.478	60.62
613.241	58.62
614.004	57.62
614.767	55.62
615.529	54.62
616.292	49.62
617.055	51.62
617.817	46.62
618.579	41.62
619.342	43.62
620.104	43.62
620.866	40.62
621.628	41.62
622.39	39.62
623.152	39.62
623.914	37.62
624.676	34.62
625.438	36.62
626.199	30.62
626.961	33.62
627.722	28.62
628.484	28.62
629.245	33.62
630.006	26.62
630.768	23.62
631.529	26.62
632.29	26.62
633.051	25.62
633.812	24.62
634.573	23.62
635.333	26.62
636.094	23.62
636.855	22.62
637.615	19.62
638.376	23.62
639.136	18.62
639.896	19.62
640.657	17.62
641.417	18.62
642.177	16.62
642.937	15.62
643.697	12.62
644.457	18.62
645.216	15.62
645.976	16.62
646.736	15.62
647.495	14.62
648.255	14.62
649.014	17.62
649.774	13.62
650.533	13.62
651.292	13.62
652.051	14.62
652.81	13.62
653.569	13.62
654.328	14.62
655.087	11.62
655.846	11.62
656.604	11.62
657.363	7.62
658.121	12.62
658.88	9.62
659.638	11.62
660.397	10.62
661.155	12.62
661.913	11.62
662.671	11.62
663.429	13.62
664.187	9.62
664.945	7.62
665.703	9.62
666.46	7.62
667.218	8.62
667.976	9.62
668.733	6.62
669.49	9.62
670.248	7.62
671.005	9.62
671.762	9.62
672.519	8.62
673.276	5.62
674.033	10.62
674.79	9.62
675.547	8.62
676.304	7.62
677.06	6.62
677.817	5.62
678.574	6.62
679.33	6.62
680.086	8.62
680.843	7.62
681.599	7.62
682.355	3.62
683.111	5.62
683.867	9.62
684.623	5.62
685.379	5.62
686.135	5.62
686.89	9.62
687.646	7.62
688.402	8.62
689.157	6.62
689.912	7.62
690.668	6.62
691.423	6.62
692.178	7.62
692.933	6.62
693.688	6.62
694.443	5.62
695.198	7.62
695.953	7.62
696.708	8.62
697.462	8.62
698.217	8.62
698.972	7.62
699.726	6.62
700.48	5.62
701.235	6.62
701.989	6.62
702.743	5.62
703.497	9.62
704.251	5.62
705.005	8.62
705.759	6.62
706.513	5.62
707.266	8.62
708.02	5.62
708.774	9.62
709.527	6.62
710.28	5.62
711.034	4.62
711.787	7.62
712.54	9.62
713.293	5.62
714.046	9.62
714.799	7.62
715.552	6.62
716.305	7.62
717.058	6.62
717.81	9.62
718.563	5.62
719.315	8.62
720.068	6.62
720.82	8.62
721.573	6.62
722.325	7.62
723.077	7.62
723.829	7.62
724.581	9.62
725.333	6.62
726.085	9.62
726.836	6.62
727.588	9.62
728.34	7.62
729.091	5.62
729.843	10.62
730.594	4.62
731.346	4.62
732.097	8.62
732.848	10.62
733.599	6.62
734.35	8.62
735.101	9.62
735.852	8.62
736.603	9.62
737.354	8.62
738.104	5.62
738.855	9.62
739.605	8.62
740.356	8.62
741.106	10.62
741.856	7.62
742.607	11.62
743.357	7.62
744.107	8.62
744.857	9.62
745.607	8.62
746.357	10.62
747.106	9.62
747.856	8.62
748.606	8.62
749.355	8.62
750.105	8.62
750.854	9.62
751.603	9.62
752.353	7.62
753.102	10.62
753.851	10.62
754.6	12.62
755.349	10.62
756.098	7.62
756.847	10.62
757.595	10.62
758.344	9.62
759.093	13.62
759.841	9.62
760.589	10.62
761.338	10.62
762.086	10.62
762.834	13.62
763.582	11.62
764.331	9.62
765.079	10.62
765.826	14.62
766.574	10.62
767.322	14.62
768.07	13.62
768.817	13.62
769.565	10.62
770.312	11.62
771.06	13.62
771.807	14.62
772.554	13.62
773.302	14.62
774.049	13.62
774.796	11.62
775.543	12.62
776.29	14.62
777.036	15.62
777.783	12.62
778.53	14.62
779.276	12.62
780.023	13.62
780.769	14.62
781.516	12.62
782.262	15.62
783.008	11.62
783.754	16.62
784.5	11.62
785.246	16.62
785.992	13.62
786.738	15.62
787.484	16.62
788.23	10.62
788.975	12.62
789.721	14.62
790.466	14.62
791.212	14.62
791.957	14.62
792.702	13.62
793.447	14.62
794.193	10.62
794.938	12.62
795.683	11.62
796.427	13.62
797.172	13.62
797.917	13.62
798.662	14.62
799.406	10.62
800.151	10.62
800.895	12.62
801.64	13.62
802.384	10.62
803.128	10.62
803.872	8.62
804.616	9.62
805.36	10.62
806.104	10.62
806.848	10.62
807.592	10.62
808.336	9.62
809.079	10.62
809.823	9.62
810.566	7.62
811.31	8.62
812.053	10.62
812.796	7.62
813.539	7.62
814.283	6.62
815.026	5.62
815.769	5.62
816.511	6.62
817.254	7.62
817.997	10.62
818.74	8.62
819.482	6.62
820.225	8.62
820.967	8.62
821.71	5.62
822.452	6.62
823.194	7.62
823.936	6.62
824.678	6.62
825.42	5.62
826.162	6.62
826.904	6.62
827.646	6.62
828.388	8.62
829.129	6.62
829.871	6.62
830.612	5.62
831.354	6.62
832.095	4.62
832.836	6.62
833.577	4.62
834.319	7.62
835.06	7.62
835.801	6.62
836.542	5.62
837.282	5.62
838.023	5.62
838.764	6.62
839.504	5.62
840.245	4.62
840.985	5.62
841.726	5.62
842.466	6.62
843.206	3.62
843.946	4.62
844.687	2.62
845.427	5.62
846.166	5.62
846.906	3.62
847.646	3.62
848.386	3.62
849.125	3.62
849.865	4.62
850.605	5.62
851.344	2.62
852.083	1.62
852.823	3.62
853.562	3.62
854.301	4.62
855.04	4.62
855.779	2.62
856.518	2.62
857.257	4.62
857.995	2.62
858.734	0.62
859.473	3.62
860.211	2.62
860.95	3.62
861.688	2.62
862.426	2.62
863.165	1.62
863.903	2.62
864.641	2.62
865.379	1.62
866.117	2.62
866.855	2.62
867.593	0.62
868.33	3.62
869.068	2.62
869.806	1.62
870.543	-0.38
871.28	2.62
872.018	1.62
872.755	1.62
873.492	3.62
874.229	1.62
874.967	2.62
875.703	1.62
876.44	3.62
877.177	1.62
877.914	-0.38
878.651	1.62
879.387	2.62
880.124	1.62
880.86	0.62
881.597	0.62
882.333	0.62
883.069	0.62
883.806	1.62
884.542	1.62
885.278	-1.38
886.014	-0.38
886.749	-0.38
887.485	2.62
888.221	-0.38
888.957	3.62
889.692	-0.38
890.428	-1.38
891.163	2.62
891.899	0.62
892.634	0.62
893.369	0.62
894.104	1.62
894.839	2.62
895.574	-1.38
896.309	3.62
897.044	-0.38
897.779	2.62
898.514	0.62
899.248	0.62
899.983	-0.38
900.717	-0.38
901.452	-0.38
902.186	0.62
902.92	-1.38
903.654	3.62
904.389	-1.38
905.123	1.62
905.857	1.62
906.59	-1.38
907.324	1.62
908.058	0.62
908.792	-1.38
909.525	-0.38
910.259	0.62
910.992	0.62
911.726	0.62
912.459	0.62
913.192	-0.38
913.925	0.62
914.658	0.62
915.391	2.62
916.124	0.62
916.857	1.62
917.59	1.62
918.323	-2.38
919.055	-0.38
919.788	-1.38
920.521	1.62
921.253	1.62
921.985	-1.38
922.718	-1.38
923.45	0.62
924.182	-0.38
924.914	0.62
925.646	0.62
926.378	-0.38
927.11	-1.38
927.841	0.62
928.573	-0.38
929.305	0.62
930.036	1.62
930.768	-0.38
931.499	0.62
932.23	-0.38
932.962	1.62
933.693	-0.38
934.424	0.62
935.155	-0.38
935.886	-1.38
936.617	-1.38
937.348	-1.38
938.078	1.62
938.809	-1.38
939.54	-1.38
940.27	0.62
941.001	-0.38
941.731	0.62
942.461	-0.38
943.191	-1.38
943.922	1.62
944.652	-1.38
945.382	-0.38
946.112	-0.38
946.841	-1.38
947.571	0.62
948.301	-0.38
949.031	2.62
949.76	-0.38
950.49	0.62
951.219	-1.38
951.948	0.62
952.678	0.62
953.407	-2.38
954.136	-1.38
954.865	-0.38
955.594	-0.38
956.323	0.62
957.052	1.62
957.78	-1.38
958.509	-1.38
959.238	0.62
959.966	1.62
960.695	1.62
961.423	-0.38
962.151	0.62
962.88	-0.38
963.608	0.62
964.336	-1.38
965.064	-2.38
965.792	-0.38
966.52	2.62
967.247	-1.38
967.975	-0.38
968.703	-1.38
969.43	-0.38
970.158	-0.38
970.885	1.62
971.613	-1.38
972.34	-2.38
973.067	-1.38
973.794	0.62
974.521	-2.38
975.248	0.62
975.975	-1.38
976.702	0.62
977.429	-1.38
978.156	-1.38
978.882	1.62
979.609	0.62
980.335	1.62
981.062	0.62
981.788	1.62
982.514	0.62
983.24	-0.38
983.967	-0.38
984.693	-2.38
985.419	-0.38
986.144	-2.38
986.87	-0.38
987.596	1.62
988.322	-0.38
989.047	-1.38
989.773	-1.38
990.498	1.62
991.224	0.62
991.949	0.62
992.674	0.62
993.399	-1.38
994.124	1.62
994.849	-1.38
995.574	0.62
996.299	0.62
997.024	-1.38
997.749	-1.38
998.473	0.62
999.198	-0.38
999.922	-0.38
1000.647	1.62
1001.371	3.62
1002.095	-1.38
1002.82	-1.38
1003.544	-1.38
1004.268	5.62
1004.992	3.62
1005.716	1.62
1006.439	4.62
1007.163	3.62
1007.887	5.62
1008.611	0.62
1009.334	-0.38
1010.058	-0.38
1010.781	-0.38
1011.504	0.62
1012.228	-1.38
1012.951	0.62
1013.674	0.62
1014.397	0.62
1015.12	-1.38
