节点500_705_QEPB04081__375__20-51-16-596.txt的数据

Date: Wed Nov 12 20:51:16 CST 2025
User: PC
Spectrometer: QEPB0408
触发模式: 0
积分时间 (秒): 1.000000E-2
Scans to average: 1
启用暗噪声校正: true
启用非线性校正: false
滑动平均宽度: 0
X轴模式: Wavelengths
Number of Pixels in Spectrum: 1044
>>>>>Begin Spectral Data<<<<<
220.843	7.12
221.644	3.12
222.444	6.12
223.244	5.12
224.045	5.12
224.845	9.12
225.645	6.12
226.445	7.12
227.245	6.12
228.045	9.12
228.845	8.12
229.645	7.12
230.444	9.12
231.244	8.12
232.043	13.12
232.843	8.12
233.642	9.12
234.442	11.12
235.241	7.12
236.04	9.12
236.839	10.12
237.638	11.12
238.437	11.12
239.236	11.12
240.035	12.12
240.833	11.12
241.632	10.12
242.43	13.12
243.229	13.12
244.027	12.12
244.826	14.12
245.624	13.12
246.422	13.12
247.22	18.12
248.018	14.12
248.816	14.12
249.614	17.12
250.412	15.12
251.21	14.12
252.007	16.12
252.805	15.12
253.602	19.12
254.4	16.12
255.197	19.12
255.994	18.12
256.791	21.12
257.589	18.12
258.386	22.12
259.183	22.12
259.979	18.12
260.776	23.12
261.573	23.12
262.37	20.12
263.166	22.12
263.963	23.12
264.759	24.12
265.556	24.12
266.352	27.12
267.148	27.12
267.944	27.12
268.74	26.12
269.536	30.12
270.332	31.12
271.128	27.12
271.924	32.12
272.719	34.12
273.515	32.12
274.311	31.12
275.106	31.12
275.901	38.12
276.697	29.12
277.492	34.12
278.287	29.12
279.082	35.12
279.877	33.12
280.672	30.12
281.467	34.12
282.262	36.12
283.056	34.12
283.851	31.12
284.646	36.12
285.44	33.12
286.234	34.12
287.029	35.12
287.823	32.12
288.617	31.12
289.411	37.12
290.205	29.12
290.999	31.12
291.793	32.12
292.587	33.12
293.381	28.12
294.174	26.12
294.968	31.12
295.761	31.12
296.555	25.12
297.348	27.12
298.141	23.12
298.935	28.12
299.728	26.12
300.521	25.12
301.314	28.12
302.107	25.12
302.899	22.12
303.692	19.12
304.485	26.12
305.277	20.12
306.07	22.12
306.862	23.12
307.655	21.12
308.447	19.12
309.239	24.12
310.031	20.12
310.823	20.12
311.615	18.12
312.407	21.12
313.199	14.12
313.991	17.12
314.783	16.12
315.574	18.12
316.366	15.12
317.157	15.12
317.949	15.12
318.74	18.12
319.531	15.12
320.322	13.12
321.113	18.12
321.904	15.12
322.695	11.12
323.486	12.12
324.277	14.12
325.068	12.12
325.858	13.12
326.649	14.12
327.439	12.12
328.23	11.12
329.02	12.12
329.81	10.12
330.6	13.12
331.391	15.12
332.181	10.12
332.971	11.12
333.76	14.12
334.55	13.12
335.34	12.12
336.13	12.12
336.919	11.12
337.709	10.12
338.498	14.12
339.287	12.12
340.077	11.12
340.866	13.12
341.655	11.12
342.444	10.12
343.233	10.12
344.022	11.12
344.811	11.12
345.6	10.12
346.388	10.12
347.177	12.12
347.965	11.12
348.754	11.12
349.542	11.12
350.33	14.12
351.119	11.12
351.907	12.12
352.695	11.12
353.483	12.12
354.271	10.12
355.059	11.12
355.846	10.12
356.634	11.12
357.422	11.12
358.209	11.12
358.997	10.12
359.784	9.12
360.571	9.12
361.359	11.12
362.146	9.12
362.933	9.12
363.72	13.12
364.507	11.12
365.294	7.12
366.081	11.12
366.867	11.12
367.654	8.12
368.44	12.12
369.227	9.12
370.013	9.12
370.8	11.12
371.586	10.12
372.372	10.12
373.158	9.12
373.944	11.12
374.73	8.12
375.516	9.12
376.302	11.12
377.088	10.12
377.873	13.12
378.659	11.12
379.445	8.12
380.23	10.12
381.015	10.12
381.801	11.12
382.586	11.12
383.371	11.12
384.156	7.12
384.941	11.12
385.726	13.12
386.511	9.12
387.296	11.12
388.08	13.12
388.865	12.12
389.649	11.12
390.434	9.12
391.218	10.12
392.003	12.12
392.787	13.12
393.571	11.12
394.355	11.12
395.139	9.12
395.923	11.12
396.707	15.12
397.491	14.12
398.274	13.12
399.058	12.12
399.842	16.12
400.625	13.12
401.408	15.12
402.192	12.12
402.975	15.12
403.758	14.12
404.541	14.12
405.324	14.12
406.107	15.12
406.89	14.12
407.673	16.12
408.456	15.12
409.238	15.12
410.021	17.12
410.803	17.12
411.586	17.12
412.368	18.12
413.151	17.12
413.933	20.12
414.715	19.12
415.497	16.12
416.279	20.12
417.061	19.12
417.843	18.12
418.624	23.12
419.406	18.12
420.188	19.12
420.969	21.12
421.751	20.12
422.532	21.12
423.313	25.12
424.095	22.12
424.876	25.12
425.657	26.12
426.438	24.12
427.219	26.12
428	27.12
428.78	25.12
429.561	30.12
430.342	31.12
431.122	31.12
431.903	32.12
432.683	35.12
433.464	35.12
434.244	39.12
435.024	38.12
435.804	41.12
436.584	45.12
437.364	45.12
438.144	49.12
438.924	49.12
439.704	51.12
440.483	53.12
441.263	62.12
442.042	69.12
442.822	71.12
443.601	75.12
444.38	82.12
445.16	87.12
445.939	95.12
446.718	101.12
447.497	113.12
448.276	122.12
449.054	130.12
449.833	146.12
450.612	160.12
451.391	179.12
452.169	199.12
452.948	216.12
453.726	243.12
454.504	269.12
455.282	296.12
456.061	337.12
456.839	376.12
457.617	420.12
458.395	464.12
459.172	519.12
459.95	580.12
460.728	642.12
461.506	722.12
462.283	800.12
463.061	896.12
463.838	1001.12
464.615	1103.12
465.393	1218.12
466.17	1366.12
466.947	1519.12
467.724	1674.12
468.501	1859.12
469.278	2087.12
470.055	2255.12
470.831	2513.12
471.608	2765.12
472.385	3045.12
473.161	3371.12
473.938	3695.12
474.714	4063.12
475.49	4460.12
476.266	4857.12
477.043	5289.12
477.819	5779.12
478.595	6345.12
479.371	6919.12
480.146	7557.12
480.922	8219.12
481.698	8962.12
482.473	9767.12
483.249	10584.12
484.024	11461.12
484.8	12421.12
485.575	13499.12
486.35	14583.12
487.126	15750.12
487.901	17096.12
488.676	18367.12
489.451	19857.12
490.225	21373.12
491	22861.12
491.775	24402.12
492.55	26130.12
493.324	27831.12
494.099	29463.12
494.873	31301.12
495.647	33133.12
496.422	34861.12
497.196	36566.12
497.97	38230.12
498.744	39720.12
499.518	41330.12
500.292	42760.12
501.066	43798.12
501.839	44707.12
502.613	45479.12
503.387	46124.12
504.16	46532.12
504.934	46753.12
505.707	46733.12
506.48	46456.12
507.253	46047.12
508.027	45403.12
508.8	44475.12
509.573	43507.12
510.346	42506.12
511.118	41523.12
511.891	40217.12
512.664	38728.12
513.437	37295.12
514.209	35989.12
514.982	34594.12
515.754	33262.12
516.526	31876.12
517.298	30620.12
518.071	29436.12
518.843	28226.12
519.615	27106.12
520.387	26069.12
521.159	25070.12
521.93	23947.12
522.702	22996.12
523.474	22031.12
524.245	21151.12
525.017	20176.12
525.788	19327.12
526.56	18512.12
527.331	17716.12
528.102	16808.12
528.873	15972.12
529.644	15198.12
530.415	14540.12
531.186	13849.12
531.957	13111.12
532.728	12464.12
533.498	11811.12
534.269	11163.12
535.039	10599.12
535.81	9980.12
536.58	9461.12
537.351	8985.12
538.121	8491.12
538.891	8042.12
539.661	7573.12
540.431	7179.12
541.201	6832.12
541.971	6476.12
542.741	6139.12
543.51	5793.12
544.28	5544.12
545.05	5247.12
545.819	5023.12
546.588	4800.12
547.358	4569.12
548.127	4355.12
548.896	4138.12
549.665	3919.12
550.434	3685.12
551.203	3498.12
551.972	3339.12
552.741	3158.12
553.51	2971.12
554.278	2804.12
555.047	2649.12
555.815	2504.12
556.584	2376.12
557.352	2233.12
558.121	2131.12
558.889	1996.12
559.657	1901.12
560.425	1794.12
561.193	1697.12
561.961	1602.12
562.729	1516.12
563.496	1437.12
564.264	1354.12
565.032	1286.12
565.799	1215.12
566.567	1143.12
567.334	1087.12
568.101	1028.12
568.869	971.12
569.636	915.12
570.403	857.12
571.17	806.12
571.937	760.12
572.704	719.12
573.471	691.12
574.237	645.12
575.004	612.12
575.771	577.12
576.537	545.12
577.303	506.12
578.07	478.12
578.836	457.12
579.602	429.12
580.368	414.12
581.134	391.12
581.9	369.12
582.666	347.12
583.432	342.12
584.198	313.12
584.964	296.12
585.729	291.12
586.495	271.12
587.26	260.12
588.025	240.12
588.791	231.12
589.556	223.12
590.321	212.12
591.086	196.12
591.851	195.12
592.616	181.12
593.381	173.12
594.146	165.12
594.911	154.12
595.675	149.12
596.44	141.12
597.204	135.12
597.969	127.12
598.733	122.12
599.497	113.12
600.261	115.12
601.025	106.12
601.79	106.12
602.553	101.12
603.317	97.12
604.081	92.12
604.845	92.12
605.609	87.12
606.372	81.12
607.136	79.12
607.899	78.12
608.662	73.12
609.426	65.12
610.189	70.12
610.952	60.12
611.715	61.12
612.478	61.12
613.241	58.12
614.004	54.12
614.767	56.12
615.529	52.12
616.292	49.12
617.055	47.12
617.817	46.12
618.579	46.12
619.342	45.12
620.104	42.12
620.866	40.12
621.628	41.12
622.39	40.12
623.152	38.12
623.914	38.12
624.676	35.12
625.438	35.12
626.199	33.12
626.961	32.12
627.722	31.12
628.484	30.12
629.245	32.12
630.006	30.12
630.768	27.12
631.529	27.12
632.29	26.12
633.051	22.12
633.812	24.12
634.573	25.12
635.333	23.12
636.094	21.12
636.855	22.12
637.615	20.12
638.376	22.12
639.136	20.12
639.896	22.12
640.657	19.12
641.417	19.12
642.177	18.12
642.937	19.12
643.697	18.12
644.457	18.12
645.216	18.12
645.976	18.12
646.736	15.12
647.495	15.12
648.255	17.12
649.014	14.12
649.774	12.12
650.533	16.12
651.292	10.12
652.051	14.12
652.81	12.12
653.569	15.12
654.328	15.12
655.087	11.12
655.846	15.12
656.604	11.12
657.363	13.12
658.121	12.12
658.88	11.12
659.638	13.12
660.397	12.12
661.155	14.12
661.913	12.12
662.671	12.12
663.429	12.12
664.187	11.12
664.945	12.12
665.703	10.12
666.46	9.12
667.218	9.12
667.976	9.12
668.733	8.12
669.49	10.12
670.248	9.12
671.005	7.12
671.762	10.12
672.519	9.12
673.276	9.12
674.033	11.12
674.79	7.12
675.547	9.12
676.304	10.12
677.06	9.12
677.817	9.12
678.574	7.12
679.33	12.12
680.086	9.12
680.843	9.12
681.599	10.12
682.355	11.12
683.111	6.12
683.867	9.12
684.623	9.12
685.379	8.12
686.135	8.12
686.89	7.12
687.646	7.12
688.402	8.12
689.157	7.12
689.912	10.12
690.668	7.12
691.423	8.12
692.178	7.12
692.933	9.12
693.688	6.12
694.443	8.12
695.198	10.12
695.953	7.12
696.708	9.12
697.462	9.12
698.217	7.12
698.972	7.12
699.726	8.12
700.48	10.12
701.235	8.12
701.989	10.12
702.743	11.12
703.497	5.12
704.251	9.12
705.005	9.12
705.759	7.12
706.513	7.12
707.266	6.12
708.02	9.12
708.774	7.12
709.527	8.12
710.28	8.12
711.034	7.12
711.787	8.12
712.54	7.12
713.293	9.12
714.046	8.12
714.799	9.12
715.552	8.12
716.305	6.12
717.058	6.12
717.81	6.12
718.563	9.12
719.315	7.12
720.068	10.12
720.82	9.12
721.573	11.12
722.325	11.12
723.077	7.12
723.829	9.12
724.581	7.12
725.333	9.12
726.085	7.12
726.836	9.12
727.588	7.12
728.34	5.12
729.091	8.12
729.843	9.12
730.594	8.12
731.346	10.12
732.097	7.12
732.848	9.12
733.599	11.12
734.35	11.12
735.101	10.12
735.852	10.12
736.603	10.12
737.354	9.12
738.104	8.12
738.855	9.12
739.605	9.12
740.356	10.12
741.106	9.12
741.856	9.12
742.607	11.12
743.357	11.12
744.107	10.12
744.857	9.12
745.607	11.12
746.357	10.12
747.106	13.12
747.856	12.12
748.606	12.12
749.355	10.12
750.105	12.12
750.854	10.12
751.603	11.12
752.353	10.12
753.102	13.12
753.851	13.12
754.6	13.12
755.349	11.12
756.098	13.12
756.847	12.12
757.595	11.12
758.344	10.12
759.093	12.12
759.841	13.12
760.589	10.12
761.338	13.12
762.086	12.12
762.834	13.12
763.582	13.12
764.331	14.12
765.079	15.12
765.826	11.12
766.574	14.12
767.322	15.12
768.07	12.12
768.817	16.12
769.565	14.12
770.312	12.12
771.06	14.12
771.807	17.12
772.554	14.12
773.302	13.12
774.049	16.12
774.796	16.12
775.543	15.12
776.29	16.12
777.036	15.12
777.783	15.12
778.53	17.12
779.276	16.12
780.023	15.12
780.769	17.12
781.516	12.12
782.262	13.12
783.008	19.12
783.754	18.12
784.5	14.12
785.246	14.12
785.992	13.12
786.738	17.12
787.484	12.12
788.23	15.12
788.975	18.12
789.721	16.12
790.466	16.12
791.212	12.12
791.957	14.12
792.702	13.12
793.447	15.12
794.193	14.12
794.938	11.12
795.683	15.12
796.427	13.12
797.172	12.12
797.917	13.12
798.662	14.12
799.406	13.12
800.151	13.12
800.895	12.12
801.64	11.12
802.384	12.12
803.128	11.12
803.872	10.12
804.616	14.12
805.36	11.12
806.104	11.12
806.848	9.12
807.592	11.12
808.336	11.12
809.079	11.12
809.823	12.12
810.566	7.12
811.31	9.12
812.053	8.12
812.796	7.12
813.539	9.12
814.283	9.12
815.026	9.12
815.769	8.12
816.511	9.12
817.254	8.12
817.997	11.12
818.74	7.12
819.482	9.12
820.225	7.12
820.967	7.12
821.71	5.12
822.452	7.12
823.194	8.12
823.936	8.12
824.678	7.12
825.42	10.12
826.162	8.12
826.904	6.12
827.646	6.12
828.388	5.12
829.129	8.12
829.871	6.12
830.612	5.12
831.354	9.12
832.095	7.12
832.836	7.12
833.577	7.12
834.319	9.12
835.06	8.12
835.801	7.12
836.542	9.12
837.282	6.12
838.023	7.12
838.764	4.12
839.504	6.12
840.245	7.12
840.985	7.12
841.726	7.12
842.466	5.12
843.206	5.12
843.946	5.12
844.687	5.12
845.427	6.12
846.166	8.12
846.906	6.12
847.646	5.12
848.386	4.12
849.125	3.12
849.865	3.12
850.605	5.12
851.344	4.12
852.083	7.12
852.823	6.12
853.562	5.12
854.301	4.12
855.04	5.12
855.779	5.12
856.518	1.12
857.257	5.12
857.995	5.12
858.734	3.12
859.473	3.12
860.211	4.12
860.95	3.12
861.688	4.12
862.426	3.12
863.165	2.12
863.903	2.12
864.641	4.12
865.379	5.12
866.117	2.12
866.855	1.12
867.593	3.12
868.33	2.12
869.068	3.12
869.806	3.12
870.543	3.12
871.28	2.12
872.018	3.12
872.755	3.12
873.492	1.12
874.229	1.12
874.967	3.12
875.703	3.12
876.44	1.12
877.177	3.12
877.914	1.12
878.651	-0.88
879.387	-0.88
880.124	1.12
880.86	2.12
881.597	1.12
882.333	2.12
883.069	3.12
883.806	4.12
884.542	3.12
885.278	0.12
886.014	-1.88
886.749	0.12
887.485	1.12
888.221	3.12
888.957	4.12
889.692	2.12
890.428	0.12
891.163	3.12
891.899	0.12
892.634	3.12
893.369	0.12
894.104	2.12
894.839	0.12
895.574	1.12
896.309	2.12
897.044	0.12
897.779	0.12
898.514	0.12
899.248	2.12
899.983	1.12
900.717	1.12
901.452	2.12
902.186	5.12
902.92	1.12
903.654	-0.88
904.389	1.12
905.123	0.12
905.857	2.12
906.59	0.12
907.324	1.12
908.058	0.12
908.792	2.12
909.525	0.12
910.259	1.12
910.992	-0.88
911.726	-0.88
912.459	1.12
913.192	-0.88
913.925	1.12
914.658	1.12
915.391	2.12
916.124	0.12
916.857	-0.88
917.59	0.12
918.323	1.12
919.055	4.12
919.788	1.12
920.521	1.12
921.253	3.12
921.985	1.12
922.718	1.12
923.45	-0.88
924.182	-0.88
924.914	1.12
925.646	-1.88
926.378	-1.88
927.11	0.12
927.841	2.12
928.573	-0.88
929.305	1.12
930.036	1.12
930.768	0.12
931.499	0.12
932.23	1.12
932.962	0.12
933.693	-0.88
934.424	1.12
935.155	1.12
935.886	0.12
936.617	1.12
937.348	-0.88
938.078	2.12
938.809	-2.88
939.54	0.12
940.27	1.12
941.001	0.12
941.731	0.12
942.461	1.12
943.191	2.12
943.922	3.12
944.652	-0.88
945.382	2.12
946.112	0.12
946.841	2.12
947.571	0.12
948.301	-1.88
949.031	0.12
949.76	0.12
950.49	1.12
951.219	0.12
951.948	1.12
952.678	1.12
953.407	0.12
954.136	-0.88
954.865	2.12
955.594	1.12
956.323	-0.88
957.052	0.12
957.78	0.12
958.509	1.12
959.238	3.12
959.966	-1.88
960.695	-0.88
961.423	2.12
962.151	0.12
962.88	0.12
963.608	-1.88
964.336	2.12
965.064	1.12
965.792	0.12
966.52	1.12
967.247	-0.88
967.975	-0.88
968.703	-0.88
969.43	0.12
970.158	0.12
970.885	0.12
971.613	0.12
972.34	0.12
973.067	-0.88
973.794	0.12
974.521	-0.88
975.248	0.12
975.975	1.12
976.702	0.12
977.429	1.12
978.156	1.12
978.882	-0.88
979.609	2.12
980.335	-0.88
981.062	0.12
981.788	0.12
982.514	-0.88
983.24	1.12
983.967	-0.88
984.693	1.12
985.419	-0.88
986.144	-0.88
986.87	0.12
987.596	0.12
988.322	3.12
989.047	1.12
989.773	-0.88
990.498	2.12
991.224	0.12
991.949	0.12
992.674	2.12
993.399	1.12
994.124	0.12
994.849	0.12
995.574	0.12
996.299	-0.88
997.024	-1.88
997.749	-0.88
998.473	0.12
999.198	2.12
999.922	2.12
1000.647	2.12
1001.371	6.12
1002.095	-2.88
1002.82	-2.88
1003.544	-0.88
1004.268	3.12
1004.992	4.12
1005.716	4.12
1006.439	5.12
1007.163	5.12
1007.887	5.12
1008.611	-0.88
1009.334	1.12
1010.058	1.12
1010.781	1.12
1011.504	-0.88
1012.228	1.12
1012.951	-0.88
1013.674	0.12
1014.397	1.12
1015.12	0.12
