节点500_705_QEPB04081__82__20-47-15-269.txt的数据

Date: Wed Nov 12 20:47:15 CST 2025
User: PC
Spectrometer: QEPB0408
触发模式: 0
积分时间 (秒): 1.000000E-2
Scans to average: 1
启用暗噪声校正: true
启用非线性校正: false
滑动平均宽度: 0
X轴模式: Wavelengths
Number of Pixels in Spectrum: 1044
>>>>>Begin Spectral Data<<<<<
220.843	7.38
221.644	5.38
222.444	5.38
223.244	5.38
224.045	5.38
224.845	6.38
225.645	6.38
226.445	5.38
227.245	4.38
228.045	8.38
228.845	8.38
229.645	7.38
230.444	6.38
231.244	7.38
232.043	7.38
232.843	7.38
233.642	10.38
234.442	10.38
235.241	8.38
236.04	9.38
236.839	10.38
237.638	13.38
238.437	9.38
239.236	11.38
240.035	12.38
240.833	12.38
241.632	12.38
242.43	9.38
243.229	13.38
244.027	15.38
244.826	11.38
245.624	14.38
246.422	13.38
247.22	13.38
248.018	15.38
248.816	17.38
249.614	14.38
250.412	13.38
251.21	18.38
252.007	19.38
252.805	19.38
253.602	17.38
254.4	18.38
255.197	18.38
255.994	19.38
256.791	21.38
257.589	19.38
258.386	22.38
259.183	20.38
259.979	24.38
260.776	23.38
261.573	24.38
262.37	25.38
263.166	25.38
263.963	27.38
264.759	28.38
265.556	29.38
266.352	28.38
267.148	29.38
267.944	31.38
268.74	33.38
269.536	31.38
270.332	33.38
271.128	32.38
271.924	35.38
272.719	34.38
273.515	33.38
274.311	33.38
275.106	36.38
275.901	32.38
276.697	36.38
277.492	35.38
278.287	38.38
279.082	35.38
279.877	37.38
280.672	34.38
281.467	35.38
282.262	33.38
283.056	35.38
283.851	36.38
284.646	36.38
285.44	37.38
286.234	34.38
287.029	38.38
287.823	36.38
288.617	33.38
289.411	34.38
290.205	30.38
290.999	29.38
291.793	31.38
292.587	34.38
293.381	31.38
294.174	29.38
294.968	31.38
295.761	28.38
296.555	27.38
297.348	26.38
298.141	27.38
298.935	29.38
299.728	26.38
300.521	25.38
301.314	24.38
302.107	23.38
302.899	23.38
303.692	22.38
304.485	24.38
305.277	23.38
306.07	21.38
306.862	23.38
307.655	22.38
308.447	21.38
309.239	23.38
310.031	22.38
310.823	16.38
311.615	19.38
312.407	14.38
313.199	18.38
313.991	18.38
314.783	15.38
315.574	16.38
316.366	17.38
317.157	16.38
317.949	12.38
318.74	12.38
319.531	16.38
320.322	12.38
321.113	13.38
321.904	15.38
322.695	13.38
323.486	12.38
324.277	14.38
325.068	13.38
325.858	10.38
326.649	14.38
327.439	11.38
328.23	12.38
329.02	12.38
329.81	11.38
330.6	11.38
331.391	11.38
332.181	12.38
332.971	11.38
333.76	13.38
334.55	9.38
335.34	10.38
336.13	10.38
336.919	12.38
337.709	12.38
338.498	12.38
339.287	13.38
340.077	10.38
340.866	10.38
341.655	12.38
342.444	10.38
343.233	12.38
344.022	8.38
344.811	9.38
345.6	10.38
346.388	11.38
347.177	11.38
347.965	10.38
348.754	11.38
349.542	10.38
350.33	9.38
351.119	9.38
351.907	11.38
352.695	10.38
353.483	12.38
354.271	7.38
355.059	12.38
355.846	10.38
356.634	13.38
357.422	12.38
358.209	10.38
358.997	11.38
359.784	9.38
360.571	9.38
361.359	10.38
362.146	10.38
362.933	8.38
363.72	12.38
364.507	8.38
365.294	11.38
366.081	10.38
366.867	9.38
367.654	10.38
368.44	6.38
369.227	9.38
370.013	12.38
370.8	7.38
371.586	10.38
372.372	10.38
373.158	9.38
373.944	8.38
374.73	9.38
375.516	8.38
376.302	10.38
377.088	11.38
377.873	9.38
378.659	9.38
379.445	11.38
380.23	10.38
381.015	9.38
381.801	11.38
382.586	10.38
383.371	11.38
384.156	10.38
384.941	10.38
385.726	9.38
386.511	10.38
387.296	12.38
388.08	12.38
388.865	12.38
389.649	9.38
390.434	12.38
391.218	11.38
392.003	11.38
392.787	14.38
393.571	11.38
394.355	14.38
395.139	11.38
395.923	12.38
396.707	13.38
397.491	12.38
398.274	13.38
399.058	13.38
399.842	14.38
400.625	12.38
401.408	12.38
402.192	16.38
402.975	11.38
403.758	13.38
404.541	17.38
405.324	15.38
406.107	18.38
406.89	14.38
407.673	14.38
408.456	15.38
409.238	16.38
410.021	18.38
410.803	16.38
411.586	18.38
412.368	19.38
413.151	17.38
413.933	17.38
414.715	16.38
415.497	18.38
416.279	18.38
417.061	16.38
417.843	21.38
418.624	21.38
419.406	18.38
420.188	19.38
420.969	22.38
421.751	21.38
422.532	25.38
423.313	22.38
424.095	23.38
424.876	25.38
425.657	24.38
426.438	27.38
427.219	25.38
428	29.38
428.78	26.38
429.561	28.38
430.342	29.38
431.122	29.38
431.903	33.38
432.683	32.38
433.464	35.38
434.244	36.38
435.024	40.38
435.804	39.38
436.584	42.38
437.364	44.38
438.144	46.38
438.924	50.38
439.704	53.38
440.483	54.38
441.263	58.38
442.042	67.38
442.822	66.38
443.601	74.38
444.38	79.38
445.16	87.38
445.939	88.38
446.718	101.38
447.497	104.38
448.276	117.38
449.054	125.38
449.833	134.38
450.612	150.38
451.391	167.38
452.169	185.38
452.948	197.38
453.726	224.38
454.504	251.38
455.282	279.38
456.061	309.38
456.839	348.38
457.617	388.38
458.395	433.38
459.172	477.38
459.95	538.38
460.728	599.38
461.506	665.38
462.283	752.38
463.061	829.38
463.838	922.38
464.615	1054.38
465.393	1177.38
466.17	1312.38
466.947	1442.38
467.724	1627.38
468.501	1811.38
469.278	1997.38
470.055	2231.38
470.831	2458.38
471.608	2736.38
472.385	3013.38
473.161	3366.38
473.938	3681.38
474.714	4103.38
475.49	4508.38
476.266	4937.38
477.043	5442.38
477.819	5996.38
478.595	6561.38
479.371	7190.38
480.146	7879.38
480.922	8661.38
481.698	9490.38
482.473	10361.38
483.249	11307.38
484.024	12350.38
484.8	13463.38
485.575	14675.38
486.35	15967.38
487.126	17312.38
487.901	18741.38
488.676	20325.38
489.451	22064.38
490.225	23728.38
491	25480.38
491.775	27329.38
492.55	29318.38
493.324	31114.38
494.099	33113.38
494.873	35092.38
495.647	37034.38
496.422	38986.38
497.196	40892.38
497.97	42450.38
498.744	44121.38
499.518	45665.38
500.292	47006.38
501.066	47846.38
501.839	48669.38
502.613	49313.38
503.387	49697.38
504.16	49974.38
504.934	49725.38
505.707	49417.38
506.48	48676.38
507.253	47964.38
508.027	47020.38
508.8	45739.38
509.573	44468.38
510.346	43019.38
511.118	41796.38
511.891	40333.38
512.664	38654.38
513.437	37070.38
514.209	35625.38
514.982	34244.38
515.754	32744.38
516.526	31406.38
517.298	30036.38
518.071	28868.38
518.843	27717.38
519.615	26529.38
520.387	25475.38
521.159	24496.38
521.93	23448.38
522.702	22384.38
523.474	21470.38
524.245	20528.38
525.017	19616.38
525.788	18765.38
526.56	17927.38
527.331	17111.38
528.102	16140.38
528.873	15321.38
529.644	14631.38
530.415	13875.38
531.186	13206.38
531.957	12449.38
532.728	11827.38
533.498	11150.38
534.269	10556.38
535.039	9941.38
535.81	9444.38
536.58	8928.38
537.351	8438.38
538.121	7981.38
538.891	7564.38
539.661	7182.38
540.431	6763.38
541.201	6395.38
541.971	6085.38
542.741	5745.38
543.51	5446.38
544.28	5200.38
545.05	4966.38
545.819	4727.38
546.588	4530.38
547.358	4306.38
548.127	4074.38
548.896	3855.38
549.665	3646.38
550.434	3463.38
551.203	3266.38
551.972	3108.38
552.741	2921.38
553.51	2777.38
554.278	2610.38
555.047	2455.38
555.815	2331.38
556.584	2188.38
557.352	2073.38
558.121	1948.38
558.889	1875.38
559.657	1756.38
560.425	1660.38
561.193	1560.38
561.961	1490.38
562.729	1395.38
563.496	1318.38
564.264	1254.38
565.032	1181.38
565.799	1128.38
566.567	1047.38
567.334	1004.38
568.101	946.38
568.869	887.38
569.636	843.38
570.403	801.38
571.17	757.38
571.937	715.38
572.704	675.38
573.471	644.38
574.237	600.38
575.004	561.38
575.771	521.38
576.537	503.38
577.303	477.38
578.07	456.38
578.836	420.38
579.602	389.38
580.368	381.38
581.134	355.38
581.9	339.38
582.666	326.38
583.432	318.38
584.198	294.38
584.964	276.38
585.729	258.38
586.495	255.38
587.26	240.38
588.025	224.38
588.791	211.38
589.556	204.38
590.321	193.38
591.086	187.38
591.851	172.38
592.616	170.38
593.381	160.38
594.146	147.38
594.911	146.38
595.675	137.38
596.44	129.38
597.204	126.38
597.969	118.38
598.733	110.38
599.497	112.38
600.261	107.38
601.025	103.38
601.79	98.38
602.553	92.38
603.317	90.38
604.081	82.38
604.845	84.38
605.609	78.38
606.372	79.38
607.136	72.38
607.899	68.38
608.662	68.38
609.426	68.38
610.189	59.38
610.952	57.38
611.715	58.38
612.478	56.38
613.241	55.38
614.004	49.38
614.767	51.38
615.529	46.38
616.292	47.38
617.055	43.38
617.817	43.38
618.579	44.38
619.342	40.38
620.104	40.38
620.866	39.38
621.628	40.38
622.39	38.38
623.152	34.38
623.914	34.38
624.676	34.38
625.438	32.38
626.199	31.38
626.961	33.38
627.722	29.38
628.484	29.38
629.245	29.38
630.006	27.38
630.768	27.38
631.529	25.38
632.29	24.38
633.051	24.38
633.812	21.38
634.573	21.38
635.333	24.38
636.094	23.38
636.855	18.38
637.615	20.38
638.376	21.38
639.136	17.38
639.896	18.38
640.657	22.38
641.417	19.38
642.177	18.38
642.937	17.38
643.697	17.38
644.457	17.38
645.216	16.38
645.976	17.38
646.736	17.38
647.495	15.38
648.255	15.38
649.014	14.38
649.774	14.38
650.533	13.38
651.292	14.38
652.051	12.38
652.81	14.38
653.569	14.38
654.328	11.38
655.087	13.38
655.846	11.38
656.604	12.38
657.363	11.38
658.121	11.38
658.88	10.38
659.638	11.38
660.397	11.38
661.155	10.38
661.913	10.38
662.671	9.38
663.429	13.38
664.187	9.38
664.945	8.38
665.703	11.38
666.46	10.38
667.218	9.38
667.976	8.38
668.733	11.38
669.49	10.38
670.248	8.38
671.005	6.38
671.762	7.38
672.519	10.38
673.276	9.38
674.033	5.38
674.79	9.38
675.547	7.38
676.304	8.38
677.06	6.38
677.817	10.38
678.574	7.38
679.33	7.38
680.086	7.38
680.843	5.38
681.599	10.38
682.355	8.38
683.111	8.38
683.867	7.38
684.623	7.38
685.379	8.38
686.135	8.38
686.89	8.38
687.646	7.38
688.402	10.38
689.157	9.38
689.912	6.38
690.668	7.38
691.423	6.38
692.178	8.38
692.933	7.38
693.688	5.38
694.443	6.38
695.198	5.38
695.953	8.38
696.708	5.38
697.462	8.38
698.217	7.38
698.972	5.38
699.726	10.38
700.48	5.38
701.235	6.38
701.989	7.38
702.743	7.38
703.497	7.38
704.251	6.38
705.005	9.38
705.759	8.38
706.513	7.38
707.266	8.38
708.02	5.38
708.774	7.38
709.527	6.38
710.28	7.38
711.034	8.38
711.787	6.38
712.54	9.38
713.293	9.38
714.046	7.38
714.799	4.38
715.552	9.38
716.305	6.38
717.058	6.38
717.81	7.38
718.563	6.38
719.315	7.38
720.068	8.38
720.82	8.38
721.573	7.38
722.325	9.38
723.077	7.38
723.829	7.38
724.581	8.38
725.333	9.38
726.085	5.38
726.836	9.38
727.588	10.38
728.34	9.38
729.091	10.38
729.843	8.38
730.594	6.38
731.346	9.38
732.097	10.38
732.848	7.38
733.599	10.38
734.35	8.38
735.101	7.38
735.852	10.38
736.603	8.38
737.354	12.38
738.104	12.38
738.855	5.38
739.605	10.38
740.356	12.38
741.106	13.38
741.856	7.38
742.607	7.38
743.357	12.38
744.107	9.38
744.857	11.38
745.607	11.38
746.357	12.38
747.106	11.38
747.856	13.38
748.606	11.38
749.355	11.38
750.105	11.38
750.854	10.38
751.603	11.38
752.353	10.38
753.102	14.38
753.851	12.38
754.6	10.38
755.349	13.38
756.098	14.38
756.847	12.38
757.595	10.38
758.344	12.38
759.093	14.38
759.841	12.38
760.589	14.38
761.338	10.38
762.086	17.38
762.834	11.38
763.582	13.38
764.331	13.38
765.079	13.38
765.826	13.38
766.574	13.38
767.322	14.38
768.07	11.38
768.817	11.38
769.565	14.38
770.312	14.38
771.06	15.38
771.807	16.38
772.554	14.38
773.302	14.38
774.049	17.38
774.796	19.38
775.543	13.38
776.29	15.38
777.036	12.38
777.783	15.38
778.53	16.38
779.276	16.38
780.023	17.38
780.769	16.38
781.516	14.38
782.262	16.38
783.008	17.38
783.754	16.38
784.5	16.38
785.246	17.38
785.992	16.38
786.738	17.38
787.484	15.38
788.23	16.38
788.975	16.38
789.721	14.38
790.466	14.38
791.212	14.38
791.957	17.38
792.702	15.38
793.447	13.38
794.193	14.38
794.938	12.38
795.683	14.38
796.427	13.38
797.172	12.38
797.917	12.38
798.662	13.38
799.406	14.38
800.151	13.38
800.895	9.38
801.64	12.38
802.384	10.38
803.128	13.38
803.872	10.38
804.616	11.38
805.36	10.38
806.104	9.38
806.848	8.38
807.592	9.38
808.336	9.38
809.079	8.38
809.823	10.38
810.566	8.38
811.31	7.38
812.053	10.38
812.796	8.38
813.539	9.38
814.283	7.38
815.026	6.38
815.769	9.38
816.511	8.38
817.254	8.38
817.997	10.38
818.74	8.38
819.482	8.38
820.225	6.38
820.967	8.38
821.71	8.38
822.452	8.38
823.194	8.38
823.936	6.38
824.678	7.38
825.42	8.38
826.162	5.38
826.904	8.38
827.646	5.38
828.388	7.38
829.129	5.38
829.871	6.38
830.612	2.38
831.354	4.38
832.095	6.38
832.836	4.38
833.577	5.38
834.319	5.38
835.06	7.38
835.801	6.38
836.542	4.38
837.282	8.38
838.023	4.38
838.764	4.38
839.504	4.38
840.245	6.38
840.985	4.38
841.726	7.38
842.466	5.38
843.206	5.38
843.946	6.38
844.687	3.38
845.427	7.38
846.166	5.38
846.906	5.38
847.646	4.38
848.386	4.38
849.125	4.38
849.865	4.38
850.605	5.38
851.344	1.38
852.083	4.38
852.823	6.38
853.562	2.38
854.301	2.38
855.04	5.38
855.779	1.38
856.518	5.38
857.257	4.38
857.995	3.38
858.734	1.38
859.473	5.38
860.211	2.38
860.95	5.38
861.688	3.38
862.426	2.38
863.165	2.38
863.903	-0.62
864.641	2.38
865.379	2.38
866.117	2.38
866.855	4.38
867.593	2.38
868.33	1.38
869.068	4.38
869.806	3.38
870.543	1.38
871.28	-0.62
872.018	3.38
872.755	2.38
873.492	2.38
874.229	1.38
874.967	-0.62
875.703	1.38
876.44	-0.62
877.177	2.38
877.914	3.38
878.651	2.38
879.387	1.38
880.124	-0.62
880.86	2.38
881.597	1.38
882.333	2.38
883.069	0.38
883.806	2.38
884.542	2.38
885.278	0.38
886.014	1.38
886.749	0.38
887.485	0.38
888.221	2.38
888.957	0.38
889.692	2.38
890.428	2.38
891.163	1.38
891.899	1.38
892.634	1.38
893.369	1.38
894.104	-0.62
894.839	1.38
895.574	-0.62
896.309	2.38
897.044	1.38
897.779	-0.62
898.514	2.38
899.248	0.38
899.983	1.38
900.717	0.38
901.452	0.38
902.186	0.38
902.92	1.38
903.654	0.38
904.389	1.38
905.123	-1.62
905.857	1.38
906.59	1.38
907.324	2.38
908.058	1.38
908.792	0.38
909.525	0.38
910.259	0.38
910.992	-0.62
911.726	-0.62
912.459	0.38
913.192	-1.62
913.925	2.38
914.658	2.38
915.391	2.38
916.124	-0.62
916.857	-0.62
917.59	-0.62
918.323	0.38
919.055	0.38
919.788	1.38
920.521	-0.62
921.253	-0.62
921.985	1.38
922.718	-0.62
923.45	1.38
924.182	-1.62
924.914	-0.62
925.646	-0.62
926.378	0.38
927.11	-0.62
927.841	0.38
928.573	1.38
929.305	-2.62
930.036	0.38
930.768	1.38
931.499	-0.62
932.23	-1.62
932.962	0.38
933.693	1.38
934.424	0.38
935.155	-0.62
935.886	-1.62
936.617	1.38
937.348	-1.62
938.078	-0.62
938.809	0.38
939.54	-0.62
940.27	-0.62
941.001	0.38
941.731	0.38
942.461	-1.62
943.191	-0.62
943.922	-0.62
944.652	-2.62
945.382	2.38
946.112	-0.62
946.841	-0.62
947.571	-1.62
948.301	-0.62
949.031	-1.62
949.76	-0.62
950.49	-0.62
951.219	-0.62
951.948	0.38
952.678	-1.62
953.407	-0.62
954.136	-0.62
954.865	-0.62
955.594	1.38
956.323	0.38
957.052	1.38
957.78	1.38
958.509	0.38
959.238	2.38
959.966	-1.62
960.695	2.38
961.423	-1.62
962.151	-1.62
962.88	-0.62
963.608	-0.62
964.336	-0.62
965.064	-1.62
965.792	1.38
966.52	0.38
967.247	1.38
967.975	0.38
968.703	-1.62
969.43	2.38
970.158	-2.62
970.885	3.38
971.613	0.38
972.34	-0.62
973.067	-1.62
973.794	-0.62
974.521	2.38
975.248	-1.62
975.975	0.38
976.702	0.38
977.429	-1.62
978.156	0.38
978.882	-1.62
979.609	0.38
980.335	-1.62
981.062	-0.62
981.788	0.38
982.514	-1.62
983.24	-1.62
983.967	-0.62
984.693	-1.62
985.419	-0.62
986.144	0.38
986.87	0.38
987.596	-1.62
988.322	1.38
989.047	0.38
989.773	0.38
990.498	1.38
991.224	-0.62
991.949	1.38
992.674	1.38
993.399	-0.62
994.124	2.38
994.849	-0.62
995.574	0.38
996.299	-0.62
997.024	0.38
997.749	1.38
998.473	0.38
999.198	1.38
999.922	-0.62
1000.647	1.38
1001.371	3.38
1002.095	-2.62
1002.82	1.38
1003.544	-1.62
1004.268	1.38
1004.992	4.38
1005.716	3.38
1006.439	5.38
1007.163	7.38
1007.887	7.38
1008.611	-1.62
1009.334	1.38
1010.058	0.38
1010.781	0.38
1011.504	4.38
1012.228	-1.62
1012.951	-0.62
1013.674	-0.62
1014.397	0.38
1015.12	0.38
