节点500_705_QEPB04081__481__20-52-43-766.txt的数据

Date: Wed Nov 12 20:52:43 CST 2025
User: PC
Spectrometer: QEPB0408
触发模式: 0
积分时间 (秒): 1.000000E-2
Scans to average: 1
启用暗噪声校正: true
启用非线性校正: false
滑动平均宽度: 0
X轴模式: Wavelengths
Number of Pixels in Spectrum: 1044
>>>>>Begin Spectral Data<<<<<
220.843	6.12
221.644	6.12
222.444	6.12
223.244	6.12
224.045	6.12
224.845	6.12
225.645	7.12
226.445	6.12
227.245	7.12
228.045	9.12
228.845	9.12
229.645	7.12
230.444	6.12
231.244	7.12
232.043	8.12
232.843	8.12
233.642	7.12
234.442	7.12
235.241	7.12
236.04	10.12
236.839	10.12
237.638	11.12
238.437	13.12
239.236	9.12
240.035	9.12
240.833	10.12
241.632	12.12
242.43	11.12
243.229	13.12
244.027	10.12
244.826	12.12
245.624	13.12
246.422	15.12
247.22	14.12
248.018	13.12
248.816	15.12
249.614	15.12
250.412	17.12
251.21	16.12
252.007	15.12
252.805	19.12
253.602	15.12
254.4	14.12
255.197	17.12
255.994	18.12
256.791	19.12
257.589	21.12
258.386	19.12
259.183	19.12
259.979	22.12
260.776	24.12
261.573	21.12
262.37	24.12
263.166	21.12
263.963	25.12
264.759	23.12
265.556	23.12
266.352	27.12
267.148	27.12
267.944	28.12
268.74	28.12
269.536	29.12
270.332	26.12
271.128	31.12
271.924	30.12
272.719	29.12
273.515	28.12
274.311	29.12
275.106	28.12
275.901	33.12
276.697	32.12
277.492	31.12
278.287	33.12
279.082	33.12
279.877	31.12
280.672	33.12
281.467	35.12
282.262	32.12
283.056	30.12
283.851	35.12
284.646	31.12
285.44	31.12
286.234	32.12
287.029	31.12
287.823	33.12
288.617	33.12
289.411	31.12
290.205	31.12
290.999	31.12
291.793	30.12
292.587	29.12
293.381	27.12
294.174	32.12
294.968	27.12
295.761	29.12
296.555	26.12
297.348	27.12
298.141	25.12
298.935	27.12
299.728	25.12
300.521	25.12
301.314	23.12
302.107	25.12
302.899	24.12
303.692	24.12
304.485	21.12
305.277	22.12
306.07	24.12
306.862	24.12
307.655	23.12
308.447	20.12
309.239	19.12
310.031	21.12
310.823	19.12
311.615	18.12
312.407	19.12
313.199	19.12
313.991	19.12
314.783	15.12
315.574	16.12
316.366	15.12
317.157	14.12
317.949	14.12
318.74	15.12
319.531	17.12
320.322	13.12
321.113	15.12
321.904	16.12
322.695	12.12
323.486	13.12
324.277	11.12
325.068	13.12
325.858	13.12
326.649	10.12
327.439	12.12
328.23	10.12
329.02	11.12
329.81	11.12
330.6	14.12
331.391	12.12
332.181	10.12
332.971	13.12
333.76	10.12
334.55	13.12
335.34	11.12
336.13	11.12
336.919	13.12
337.709	13.12
338.498	11.12
339.287	12.12
340.077	12.12
340.866	12.12
341.655	12.12
342.444	12.12
343.233	12.12
344.022	10.12
344.811	11.12
345.6	11.12
346.388	14.12
347.177	10.12
347.965	11.12
348.754	8.12
349.542	9.12
350.33	10.12
351.119	10.12
351.907	12.12
352.695	11.12
353.483	11.12
354.271	9.12
355.059	8.12
355.846	10.12
356.634	10.12
357.422	9.12
358.209	12.12
358.997	15.12
359.784	9.12
360.571	11.12
361.359	10.12
362.146	7.12
362.933	11.12
363.72	8.12
364.507	12.12
365.294	9.12
366.081	10.12
366.867	11.12
367.654	10.12
368.44	10.12
369.227	11.12
370.013	9.12
370.8	10.12
371.586	8.12
372.372	10.12
373.158	13.12
373.944	8.12
374.73	11.12
375.516	10.12
376.302	8.12
377.088	11.12
377.873	9.12
378.659	9.12
379.445	9.12
380.23	10.12
381.015	9.12
381.801	11.12
382.586	7.12
383.371	11.12
384.156	12.12
384.941	8.12
385.726	11.12
386.511	9.12
387.296	13.12
388.08	10.12
388.865	11.12
389.649	12.12
390.434	10.12
391.218	10.12
392.003	12.12
392.787	13.12
393.571	12.12
394.355	12.12
395.139	10.12
395.923	11.12
396.707	14.12
397.491	14.12
398.274	14.12
399.058	11.12
399.842	13.12
400.625	15.12
401.408	11.12
402.192	13.12
402.975	13.12
403.758	14.12
404.541	19.12
405.324	13.12
406.107	13.12
406.89	12.12
407.673	15.12
408.456	14.12
409.238	16.12
410.021	17.12
410.803	15.12
411.586	16.12
412.368	17.12
413.151	16.12
413.933	19.12
414.715	18.12
415.497	18.12
416.279	15.12
417.061	21.12
417.843	17.12
418.624	19.12
419.406	19.12
420.188	21.12
420.969	21.12
421.751	21.12
422.532	20.12
423.313	23.12
424.095	24.12
424.876	25.12
425.657	21.12
426.438	24.12
427.219	26.12
428	27.12
428.78	27.12
429.561	28.12
430.342	31.12
431.122	33.12
431.903	32.12
432.683	35.12
433.464	31.12
434.244	37.12
435.024	37.12
435.804	38.12
436.584	43.12
437.364	47.12
438.144	50.12
438.924	52.12
439.704	57.12
440.483	59.12
441.263	65.12
442.042	60.12
442.822	72.12
443.601	74.12
444.38	79.12
445.16	91.12
445.939	99.12
446.718	107.12
447.497	115.12
448.276	125.12
449.054	140.12
449.833	152.12
450.612	172.12
451.391	188.12
452.169	202.12
452.948	221.12
453.726	251.12
454.504	273.12
455.282	309.12
456.061	343.12
456.839	381.12
457.617	429.12
458.395	475.12
459.172	529.12
459.95	589.12
460.728	654.12
461.506	719.12
462.283	806.12
463.061	892.12
463.838	1000.12
464.615	1108.12
465.393	1239.12
466.17	1365.12
466.947	1523.12
467.724	1670.12
468.501	1861.12
469.278	2052.12
470.055	2257.12
470.831	2500.12
471.608	2721.12
472.385	3010.12
473.161	3301.12
473.938	3642.12
474.714	3975.12
475.49	4362.12
476.266	4739.12
477.043	5177.12
477.819	5650.12
478.595	6192.12
479.371	6699.12
480.146	7286.12
480.922	7935.12
481.698	8614.12
482.473	9358.12
483.249	10099.12
484.024	10960.12
484.8	11856.12
485.575	12836.12
486.35	13819.12
487.126	14921.12
487.901	16145.12
488.676	17427.12
489.451	18762.12
490.225	20038.12
491	21540.12
491.775	22944.12
492.55	24597.12
493.324	26166.12
494.099	27784.12
494.873	29419.12
495.647	31130.12
496.422	32721.12
497.196	34431.12
497.97	36101.12
498.744	37460.12
499.518	39051.12
500.292	40440.12
501.066	41382.12
501.839	42345.12
502.613	43273.12
503.387	43955.12
504.16	44508.12
504.934	44796.12
505.707	44877.12
506.48	44772.12
507.253	44480.12
508.027	43974.12
508.8	43318.12
509.573	42400.12
510.346	41569.12
511.118	40730.12
511.891	39622.12
512.664	38213.12
513.437	36912.12
514.209	35654.12
514.982	34311.12
515.754	33002.12
516.526	31773.12
517.298	30504.12
518.071	29281.12
518.843	28179.12
519.615	27019.12
520.387	25976.12
521.159	24974.12
521.93	23886.12
522.702	22940.12
523.474	21975.12
524.245	21043.12
525.017	20202.12
525.788	19327.12
526.56	18602.12
527.331	17743.12
528.102	16858.12
528.873	16063.12
529.644	15316.12
530.415	14636.12
531.186	13947.12
531.957	13251.12
532.728	12572.12
533.498	11891.12
534.269	11316.12
535.039	10716.12
535.81	10129.12
536.58	9580.12
537.351	9108.12
538.121	8646.12
538.891	8153.12
539.661	7676.12
540.431	7293.12
541.201	6935.12
541.971	6570.12
542.741	6199.12
543.51	5922.12
544.28	5604.12
545.05	5365.12
545.819	5119.12
546.588	4860.12
547.358	4638.12
548.127	4397.12
548.896	4183.12
549.665	3979.12
550.434	3731.12
551.203	3569.12
551.972	3393.12
552.741	3221.12
553.51	3032.12
554.278	2864.12
555.047	2713.12
555.815	2561.12
556.584	2435.12
557.352	2293.12
558.121	2169.12
558.889	2031.12
559.657	1931.12
560.425	1825.12
561.193	1741.12
561.961	1656.12
562.729	1555.12
563.496	1480.12
564.264	1387.12
565.032	1305.12
565.799	1235.12
566.567	1180.12
567.334	1109.12
568.101	1061.12
568.869	978.12
569.636	937.12
570.403	879.12
571.17	831.12
571.937	785.12
572.704	737.12
573.471	706.12
574.237	658.12
575.004	624.12
575.771	584.12
576.537	562.12
577.303	527.12
578.07	502.12
578.836	479.12
579.602	447.12
580.368	420.12
581.134	396.12
581.9	380.12
582.666	361.12
583.432	345.12
584.198	325.12
584.964	317.12
585.729	292.12
586.495	281.12
587.26	264.12
588.025	250.12
588.791	238.12
589.556	228.12
590.321	216.12
591.086	201.12
591.851	188.12
592.616	181.12
593.381	176.12
594.146	168.12
594.911	157.12
595.675	154.12
596.44	147.12
597.204	140.12
597.969	135.12
598.733	129.12
599.497	120.12
600.261	110.12
601.025	111.12
601.79	107.12
602.553	103.12
603.317	101.12
604.081	95.12
604.845	88.12
605.609	85.12
606.372	85.12
607.136	79.12
607.899	79.12
608.662	74.12
609.426	69.12
610.189	67.12
610.952	69.12
611.715	63.12
612.478	60.12
613.241	57.12
614.004	56.12
614.767	56.12
615.529	52.12
616.292	49.12
617.055	48.12
617.817	45.12
618.579	46.12
619.342	43.12
620.104	41.12
620.866	42.12
621.628	38.12
622.39	40.12
623.152	33.12
623.914	37.12
624.676	32.12
625.438	35.12
626.199	34.12
626.961	31.12
627.722	30.12
628.484	31.12
629.245	30.12
630.006	29.12
630.768	28.12
631.529	26.12
632.29	27.12
633.051	27.12
633.812	24.12
634.573	24.12
635.333	26.12
636.094	23.12
636.855	22.12
637.615	24.12
638.376	22.12
639.136	19.12
639.896	19.12
640.657	18.12
641.417	18.12
642.177	16.12
642.937	18.12
643.697	17.12
644.457	19.12
645.216	19.12
645.976	15.12
646.736	17.12
647.495	14.12
648.255	21.12
649.014	16.12
649.774	15.12
650.533	15.12
651.292	13.12
652.051	16.12
652.81	15.12
653.569	17.12
654.328	11.12
655.087	13.12
655.846	13.12
656.604	11.12
657.363	10.12
658.121	11.12
658.88	14.12
659.638	9.12
660.397	11.12
661.155	13.12
661.913	13.12
662.671	13.12
663.429	11.12
664.187	14.12
664.945	9.12
665.703	9.12
666.46	9.12
667.218	11.12
667.976	10.12
668.733	8.12
669.49	9.12
670.248	11.12
671.005	9.12
671.762	8.12
672.519	10.12
673.276	11.12
674.033	8.12
674.79	10.12
675.547	10.12
676.304	9.12
677.06	9.12
677.817	9.12
678.574	8.12
679.33	9.12
680.086	7.12
680.843	10.12
681.599	8.12
682.355	10.12
683.111	6.12
683.867	11.12
684.623	9.12
685.379	8.12
686.135	6.12
686.89	8.12
687.646	6.12
688.402	6.12
689.157	7.12
689.912	7.12
690.668	8.12
691.423	9.12
692.178	9.12
692.933	8.12
693.688	9.12
694.443	5.12
695.198	9.12
695.953	7.12
696.708	6.12
697.462	6.12
698.217	7.12
698.972	8.12
699.726	8.12
700.48	9.12
701.235	7.12
701.989	8.12
702.743	9.12
703.497	5.12
704.251	6.12
705.005	7.12
705.759	6.12
706.513	7.12
707.266	6.12
708.02	6.12
708.774	6.12
709.527	5.12
710.28	8.12
711.034	7.12
711.787	7.12
712.54	8.12
713.293	8.12
714.046	7.12
714.799	7.12
715.552	10.12
716.305	8.12
717.058	8.12
717.81	5.12
718.563	8.12
719.315	7.12
720.068	8.12
720.82	10.12
721.573	8.12
722.325	9.12
723.077	8.12
723.829	6.12
724.581	6.12
725.333	7.12
726.085	7.12
726.836	8.12
727.588	10.12
728.34	10.12
729.091	8.12
729.843	8.12
730.594	9.12
731.346	11.12
732.097	10.12
732.848	10.12
733.599	7.12
734.35	7.12
735.101	9.12
735.852	11.12
736.603	8.12
737.354	8.12
738.104	10.12
738.855	11.12
739.605	9.12
740.356	8.12
741.106	9.12
741.856	8.12
742.607	9.12
743.357	9.12
744.107	7.12
744.857	11.12
745.607	8.12
746.357	11.12
747.106	11.12
747.856	9.12
748.606	10.12
749.355	9.12
750.105	10.12
750.854	9.12
751.603	11.12
752.353	12.12
753.102	11.12
753.851	10.12
754.6	10.12
755.349	8.12
756.098	8.12
756.847	11.12
757.595	11.12
758.344	11.12
759.093	11.12
759.841	9.12
760.589	11.12
761.338	13.12
762.086	13.12
762.834	12.12
763.582	11.12
764.331	14.12
765.079	13.12
765.826	14.12
766.574	12.12
767.322	13.12
768.07	12.12
768.817	13.12
769.565	11.12
770.312	15.12
771.06	12.12
771.807	16.12
772.554	16.12
773.302	13.12
774.049	13.12
774.796	15.12
775.543	15.12
776.29	15.12
777.036	14.12
777.783	14.12
778.53	11.12
779.276	15.12
780.023	13.12
780.769	16.12
781.516	14.12
782.262	13.12
783.008	15.12
783.754	12.12
784.5	15.12
785.246	17.12
785.992	15.12
786.738	17.12
787.484	15.12
788.23	16.12
788.975	14.12
789.721	12.12
790.466	14.12
791.212	12.12
791.957	13.12
792.702	11.12
793.447	14.12
794.193	13.12
794.938	12.12
795.683	15.12
796.427	11.12
797.172	13.12
797.917	12.12
798.662	13.12
799.406	10.12
800.151	12.12
800.895	14.12
801.64	10.12
802.384	12.12
803.128	8.12
803.872	10.12
804.616	11.12
805.36	9.12
806.104	11.12
806.848	9.12
807.592	10.12
808.336	12.12
809.079	10.12
809.823	10.12
810.566	11.12
811.31	10.12
812.053	9.12
812.796	10.12
813.539	11.12
814.283	10.12
815.026	10.12
815.769	8.12
816.511	10.12
817.254	9.12
817.997	9.12
818.74	7.12
819.482	8.12
820.225	7.12
820.967	8.12
821.71	9.12
822.452	8.12
823.194	6.12
823.936	7.12
824.678	5.12
825.42	5.12
826.162	5.12
826.904	7.12
827.646	6.12
828.388	7.12
829.129	6.12
829.871	6.12
830.612	6.12
831.354	4.12
832.095	7.12
832.836	5.12
833.577	7.12
834.319	6.12
835.06	5.12
835.801	7.12
836.542	3.12
837.282	5.12
838.023	6.12
838.764	7.12
839.504	7.12
840.245	5.12
840.985	7.12
841.726	6.12
842.466	4.12
843.206	8.12
843.946	3.12
844.687	7.12
845.427	7.12
846.166	5.12
846.906	5.12
847.646	6.12
848.386	4.12
849.125	4.12
849.865	6.12
850.605	3.12
851.344	3.12
852.083	5.12
852.823	3.12
853.562	6.12
854.301	5.12
855.04	4.12
855.779	1.12
856.518	4.12
857.257	5.12
857.995	4.12
858.734	4.12
859.473	4.12
860.211	3.12
860.95	4.12
861.688	5.12
862.426	5.12
863.165	1.12
863.903	1.12
864.641	1.12
865.379	2.12
866.117	4.12
866.855	2.12
867.593	4.12
868.33	1.12
869.068	3.12
869.806	2.12
870.543	3.12
871.28	5.12
872.018	2.12
872.755	4.12
873.492	2.12
874.229	2.12
874.967	3.12
875.703	0.12
876.44	3.12
877.177	3.12
877.914	2.12
878.651	2.12
879.387	1.12
880.124	1.12
880.86	0.12
881.597	2.12
882.333	1.12
883.069	2.12
883.806	1.12
884.542	-1.88
885.278	3.12
886.014	1.12
886.749	0.12
887.485	3.12
888.221	1.12
888.957	1.12
889.692	1.12
890.428	3.12
891.163	2.12
891.899	1.12
892.634	1.12
893.369	2.12
894.104	2.12
894.839	2.12
895.574	0.12
896.309	1.12
897.044	2.12
897.779	2.12
898.514	2.12
899.248	0.12
899.983	2.12
900.717	2.12
901.452	0.12
902.186	0.12
902.92	2.12
903.654	-0.88
904.389	1.12
905.123	-0.88
905.857	0.12
906.59	1.12
907.324	2.12
908.058	1.12
908.792	2.12
909.525	1.12
910.259	3.12
910.992	0.12
911.726	2.12
912.459	-0.88
913.192	1.12
913.925	-0.88
914.658	0.12
915.391	3.12
916.124	0.12
916.857	0.12
917.59	0.12
918.323	1.12
919.055	0.12
919.788	-1.88
920.521	4.12
921.253	-1.88
921.985	0.12
922.718	-1.88
923.45	2.12
924.182	-0.88
924.914	-0.88
925.646	-0.88
926.378	2.12
927.11	1.12
927.841	3.12
928.573	-0.88
929.305	0.12
930.036	-0.88
930.768	1.12
931.499	0.12
932.23	1.12
932.962	-0.88
933.693	0.12
934.424	-0.88
935.155	0.12
935.886	1.12
936.617	0.12
937.348	1.12
938.078	-0.88
938.809	0.12
939.54	1.12
940.27	-0.88
941.001	-0.88
941.731	0.12
942.461	2.12
943.191	0.12
943.922	-0.88
944.652	-0.88
945.382	1.12
946.112	1.12
946.841	0.12
947.571	-0.88
948.301	0.12
949.031	-0.88
949.76	-0.88
950.49	1.12
951.219	2.12
951.948	0.12
952.678	0.12
953.407	1.12
954.136	0.12
954.865	2.12
955.594	-0.88
956.323	-0.88
957.052	2.12
957.78	-1.88
958.509	1.12
959.238	3.12
959.966	0.12
960.695	0.12
961.423	-1.88
962.151	4.12
962.88	-0.88
963.608	-0.88
964.336	-0.88
965.064	-0.88
965.792	0.12
966.52	0.12
967.247	-0.88
967.975	1.12
968.703	2.12
969.43	1.12
970.158	0.12
970.885	2.12
971.613	0.12
972.34	0.12
973.067	-0.88
973.794	-1.88
974.521	2.12
975.248	0.12
975.975	1.12
976.702	0.12
977.429	1.12
978.156	1.12
978.882	1.12
979.609	0.12
980.335	-1.88
981.062	0.12
981.788	2.12
982.514	-0.88
983.24	1.12
983.967	0.12
984.693	2.12
985.419	0.12
986.144	-0.88
986.87	0.12
987.596	1.12
988.322	3.12
989.047	-0.88
989.773	1.12
990.498	3.12
991.224	-0.88
991.949	0.12
992.674	3.12
993.399	1.12
994.124	-0.88
994.849	3.12
995.574	1.12
996.299	0.12
997.024	2.12
997.749	0.12
998.473	2.12
999.198	1.12
999.922	1.12
1000.647	1.12
1001.371	4.12
1002.095	0.12
1002.82	-1.88
1003.544	-1.88
1004.268	5.12
1004.992	3.12
1005.716	3.12
1006.439	3.12
1007.163	7.12
1007.887	3.12
1008.611	-0.88
1009.334	0.12
1010.058	-0.88
1010.781	1.12
1011.504	0.12
1012.228	-0.88
1012.951	1.12
1013.674	-1.88
1014.397	1.12
1015.12	-0.88
