节点500_705_QEPB04081__256__20-49-34-437.txt的数据

Date: Wed Nov 12 20:49:34 CST 2025
User: PC
Spectrometer: QEPB0408
触发模式: 0
积分时间 (秒): 1.000000E-2
Scans to average: 1
启用暗噪声校正: true
启用非线性校正: false
滑动平均宽度: 0
X轴模式: Wavelengths
Number of Pixels in Spectrum: 1044
>>>>>Begin Spectral Data<<<<<
220.843	4.62
221.644	3.62
222.444	5.62
223.244	6.62
224.045	6.62
224.845	7.62
225.645	6.62
226.445	6.62
227.245	7.62
228.045	3.62
228.845	8.62
229.645	6.62
230.444	9.62
231.244	4.62
232.043	8.62
232.843	6.62
233.642	9.62
234.442	5.62
235.241	8.62
236.04	10.62
236.839	9.62
237.638	11.62
238.437	10.62
239.236	13.62
240.035	12.62
240.833	10.62
241.632	11.62
242.43	11.62
243.229	10.62
244.027	12.62
244.826	15.62
245.624	13.62
246.422	15.62
247.22	16.62
248.018	14.62
248.816	14.62
249.614	15.62
250.412	14.62
251.21	17.62
252.007	14.62
252.805	17.62
253.602	18.62
254.4	17.62
255.197	15.62
255.994	19.62
256.791	23.62
257.589	20.62
258.386	18.62
259.183	21.62
259.979	18.62
260.776	23.62
261.573	22.62
262.37	25.62
263.166	24.62
263.963	28.62
264.759	28.62
265.556	27.62
266.352	26.62
267.148	25.62
267.944	29.62
268.74	30.62
269.536	33.62
270.332	32.62
271.128	29.62
271.924	33.62
272.719	37.62
273.515	33.62
274.311	33.62
275.106	30.62
275.901	32.62
276.697	33.62
277.492	33.62
278.287	32.62
279.082	34.62
279.877	35.62
280.672	31.62
281.467	34.62
282.262	38.62
283.056	35.62
283.851	34.62
284.646	34.62
285.44	35.62
286.234	33.62
287.029	34.62
287.823	32.62
288.617	33.62
289.411	35.62
290.205	32.62
290.999	30.62
291.793	30.62
292.587	33.62
293.381	30.62
294.174	31.62
294.968	29.62
295.761	29.62
296.555	28.62
297.348	24.62
298.141	26.62
298.935	27.62
299.728	22.62
300.521	26.62
301.314	24.62
302.107	23.62
302.899	21.62
303.692	23.62
304.485	20.62
305.277	21.62
306.07	23.62
306.862	20.62
307.655	21.62
308.447	18.62
309.239	18.62
310.031	22.62
310.823	17.62
311.615	20.62
312.407	18.62
313.199	18.62
313.991	16.62
314.783	14.62
315.574	15.62
316.366	16.62
317.157	15.62
317.949	13.62
318.74	13.62
319.531	15.62
320.322	13.62
321.113	13.62
321.904	15.62
322.695	14.62
323.486	12.62
324.277	13.62
325.068	11.62
325.858	14.62
326.649	10.62
327.439	11.62
328.23	9.62
329.02	13.62
329.81	10.62
330.6	10.62
331.391	11.62
332.181	10.62
332.971	13.62
333.76	11.62
334.55	12.62
335.34	12.62
336.13	10.62
336.919	10.62
337.709	9.62
338.498	13.62
339.287	11.62
340.077	10.62
340.866	11.62
341.655	12.62
342.444	11.62
343.233	13.62
344.022	11.62
344.811	13.62
345.6	11.62
346.388	8.62
347.177	11.62
347.965	10.62
348.754	9.62
349.542	8.62
350.33	10.62
351.119	8.62
351.907	11.62
352.695	11.62
353.483	10.62
354.271	10.62
355.059	9.62
355.846	10.62
356.634	9.62
357.422	12.62
358.209	10.62
358.997	12.62
359.784	10.62
360.571	11.62
361.359	10.62
362.146	10.62
362.933	10.62
363.72	11.62
364.507	9.62
365.294	10.62
366.081	6.62
366.867	10.62
367.654	8.62
368.44	9.62
369.227	7.62
370.013	8.62
370.8	6.62
371.586	10.62
372.372	10.62
373.158	9.62
373.944	10.62
374.73	7.62
375.516	10.62
376.302	9.62
377.088	9.62
377.873	9.62
378.659	9.62
379.445	10.62
380.23	11.62
381.015	10.62
381.801	8.62
382.586	9.62
383.371	10.62
384.156	10.62
384.941	12.62
385.726	11.62
386.511	8.62
387.296	10.62
388.08	7.62
388.865	10.62
389.649	9.62
390.434	9.62
391.218	10.62
392.003	13.62
392.787	11.62
393.571	11.62
394.355	13.62
395.139	10.62
395.923	10.62
396.707	13.62
397.491	11.62
398.274	11.62
399.058	14.62
399.842	11.62
400.625	15.62
401.408	14.62
402.192	13.62
402.975	14.62
403.758	12.62
404.541	17.62
405.324	13.62
406.107	16.62
406.89	13.62
407.673	13.62
408.456	17.62
409.238	14.62
410.021	15.62
410.803	16.62
411.586	13.62
412.368	17.62
413.151	17.62
413.933	15.62
414.715	16.62
415.497	20.62
416.279	14.62
417.061	20.62
417.843	20.62
418.624	20.62
419.406	23.62
420.188	20.62
420.969	20.62
421.751	21.62
422.532	23.62
423.313	22.62
424.095	20.62
424.876	22.62
425.657	23.62
426.438	24.62
427.219	27.62
428	29.62
428.78	25.62
429.561	26.62
430.342	28.62
431.122	32.62
431.903	32.62
432.683	32.62
433.464	32.62
434.244	34.62
435.024	39.62
435.804	41.62
436.584	44.62
437.364	45.62
438.144	46.62
438.924	47.62
439.704	52.62
440.483	57.62
441.263	59.62
442.042	65.62
442.822	66.62
443.601	74.62
444.38	80.62
445.16	78.62
445.939	90.62
446.718	97.62
447.497	108.62
448.276	121.62
449.054	129.62
449.833	140.62
450.612	157.62
451.391	170.62
452.169	189.62
452.948	215.62
453.726	234.62
454.504	259.62
455.282	291.62
456.061	328.62
456.839	361.62
457.617	398.62
458.395	450.62
459.172	496.62
459.95	562.62
460.728	619.62
461.506	690.62
462.283	776.62
463.061	861.62
463.838	962.62
464.615	1085.62
465.393	1193.62
466.17	1322.62
466.947	1488.62
467.724	1649.62
468.501	1835.62
469.278	2016.62
470.055	2250.62
470.831	2501.62
471.608	2748.62
472.385	3045.62
473.161	3354.62
473.938	3691.62
474.714	4049.62
475.49	4452.62
476.266	4896.62
477.043	5364.62
477.819	5865.62
478.595	6438.62
479.371	7046.62
480.146	7696.62
480.922	8428.62
481.698	9205.62
482.473	10026.62
483.249	10930.62
484.024	11881.62
484.8	12868.62
485.575	13945.62
486.35	15142.62
487.126	16416.62
487.901	17833.62
488.676	19252.62
489.451	20778.62
490.225	22387.62
491	24100.62
491.775	25735.62
492.55	27490.62
493.324	29358.62
494.099	31136.62
494.873	33005.62
495.647	34889.62
496.422	36658.62
497.196	38510.62
497.97	40077.62
498.744	41659.62
499.518	43281.62
500.292	44639.62
501.066	45670.62
501.839	46496.62
502.613	47161.62
503.387	47743.62
504.16	48068.62
504.934	48129.62
505.707	47903.62
506.48	47543.62
507.253	46888.62
508.027	46087.62
508.8	44989.62
509.573	43968.62
510.346	42762.62
511.118	41625.62
511.891	40344.62
512.664	38770.62
513.437	37249.62
514.209	35879.62
514.982	34334.62
515.754	32977.62
516.526	31547.62
517.298	30288.62
518.071	29125.62
518.843	27973.62
519.615	26766.62
520.387	25738.62
521.159	24724.62
521.93	23702.62
522.702	22719.62
523.474	21762.62
524.245	20801.62
525.017	19854.62
525.788	18961.62
526.56	18225.62
527.331	17414.62
528.102	16476.62
528.873	15618.62
529.644	14921.62
530.415	14221.62
531.186	13554.62
531.957	12757.62
532.728	12156.62
533.498	11483.62
534.269	10870.62
535.039	10276.62
535.81	9754.62
536.58	9167.62
537.351	8671.62
538.121	8264.62
538.891	7812.62
539.661	7380.62
540.431	6964.62
541.201	6620.62
541.971	6264.62
542.741	5959.62
543.51	5648.62
544.28	5361.62
545.05	5118.62
545.819	4840.62
546.588	4654.62
547.358	4412.62
548.127	4176.62
548.896	3965.62
549.665	3776.62
550.434	3562.62
551.203	3393.62
551.972	3236.62
552.741	3021.62
553.51	2875.62
554.278	2705.62
555.047	2560.62
555.815	2412.62
556.584	2296.62
557.352	2150.62
558.121	2044.62
558.889	1924.62
559.657	1814.62
560.425	1716.62
561.193	1638.62
561.961	1546.62
562.729	1458.62
563.496	1365.62
564.264	1294.62
565.032	1236.62
565.799	1162.62
566.567	1112.62
567.334	1028.62
568.101	983.62
568.869	931.62
569.636	876.62
570.403	833.62
571.17	792.62
571.937	750.62
572.704	715.62
573.471	661.62
574.237	620.62
575.004	594.62
575.771	552.62
576.537	516.62
577.303	490.62
578.07	467.62
578.836	437.62
579.602	413.62
580.368	394.62
581.134	376.62
581.9	357.62
582.666	341.62
583.432	320.62
584.198	311.62
584.964	290.62
585.729	274.62
586.495	261.62
587.26	244.62
588.025	234.62
588.791	216.62
589.556	213.62
590.321	199.62
591.086	188.62
591.851	178.62
592.616	173.62
593.381	165.62
594.146	161.62
594.911	152.62
595.675	144.62
596.44	141.62
597.204	129.62
597.969	129.62
598.733	121.62
599.497	119.62
600.261	106.62
601.025	104.62
601.79	102.62
602.553	94.62
603.317	90.62
604.081	85.62
604.845	84.62
605.609	83.62
606.372	78.62
607.136	79.62
607.899	74.62
608.662	70.62
609.426	69.62
610.189	64.62
610.952	64.62
611.715	58.62
612.478	57.62
613.241	54.62
614.004	57.62
614.767	51.62
615.529	53.62
616.292	47.62
617.055	49.62
617.817	46.62
618.579	44.62
619.342	39.62
620.104	42.62
620.866	39.62
621.628	38.62
622.39	37.62
623.152	38.62
623.914	35.62
624.676	35.62
625.438	34.62
626.199	30.62
626.961	30.62
627.722	29.62
628.484	30.62
629.245	26.62
630.006	30.62
630.768	26.62
631.529	25.62
632.29	24.62
633.051	24.62
633.812	26.62
634.573	22.62
635.333	22.62
636.094	20.62
636.855	20.62
637.615	19.62
638.376	20.62
639.136	16.62
639.896	19.62
640.657	18.62
641.417	18.62
642.177	17.62
642.937	18.62
643.697	16.62
644.457	17.62
645.216	17.62
645.976	14.62
646.736	14.62
647.495	16.62
648.255	18.62
649.014	16.62
649.774	13.62
650.533	13.62
651.292	12.62
652.051	14.62
652.81	13.62
653.569	11.62
654.328	16.62
655.087	12.62
655.846	11.62
656.604	10.62
657.363	14.62
658.121	12.62
658.88	10.62
659.638	14.62
660.397	10.62
661.155	12.62
661.913	8.62
662.671	9.62
663.429	10.62
664.187	8.62
664.945	10.62
665.703	9.62
666.46	11.62
667.218	9.62
667.976	8.62
668.733	9.62
669.49	7.62
670.248	8.62
671.005	10.62
671.762	8.62
672.519	9.62
673.276	11.62
674.033	9.62
674.79	7.62
675.547	11.62
676.304	10.62
677.06	8.62
677.817	8.62
678.574	5.62
679.33	9.62
680.086	9.62
680.843	9.62
681.599	8.62
682.355	6.62
683.111	8.62
683.867	7.62
684.623	5.62
685.379	8.62
686.135	9.62
686.89	6.62
687.646	6.62
688.402	7.62
689.157	8.62
689.912	7.62
690.668	7.62
691.423	7.62
692.178	7.62
692.933	8.62
693.688	7.62
694.443	6.62
695.198	7.62
695.953	7.62
696.708	7.62
697.462	7.62
698.217	8.62
698.972	8.62
699.726	6.62
700.48	7.62
701.235	9.62
701.989	8.62
702.743	8.62
703.497	7.62
704.251	4.62
705.005	6.62
705.759	5.62
706.513	8.62
707.266	10.62
708.02	9.62
708.774	8.62
709.527	5.62
710.28	9.62
711.034	7.62
711.787	6.62
712.54	8.62
713.293	6.62
714.046	10.62
714.799	7.62
715.552	8.62
716.305	6.62
717.058	6.62
717.81	8.62
718.563	7.62
719.315	6.62
720.068	9.62
720.82	6.62
721.573	7.62
722.325	8.62
723.077	6.62
723.829	5.62
724.581	8.62
725.333	6.62
726.085	9.62
726.836	7.62
727.588	8.62
728.34	8.62
729.091	7.62
729.843	9.62
730.594	7.62
731.346	7.62
732.097	10.62
732.848	9.62
733.599	9.62
734.35	6.62
735.101	7.62
735.852	9.62
736.603	9.62
737.354	7.62
738.104	8.62
738.855	10.62
739.605	10.62
740.356	8.62
741.106	11.62
741.856	11.62
742.607	8.62
743.357	8.62
744.107	9.62
744.857	11.62
745.607	10.62
746.357	7.62
747.106	10.62
747.856	12.62
748.606	10.62
749.355	11.62
750.105	9.62
750.854	9.62
751.603	13.62
752.353	12.62
753.102	12.62
753.851	8.62
754.6	10.62
755.349	12.62
756.098	11.62
756.847	11.62
757.595	14.62
758.344	11.62
759.093	9.62
759.841	10.62
760.589	11.62
761.338	12.62
762.086	12.62
762.834	12.62
763.582	13.62
764.331	13.62
765.079	14.62
765.826	12.62
766.574	16.62
767.322	14.62
768.07	14.62
768.817	17.62
769.565	14.62
770.312	12.62
771.06	14.62
771.807	14.62
772.554	14.62
773.302	12.62
774.049	13.62
774.796	15.62
775.543	15.62
776.29	18.62
777.036	13.62
777.783	15.62
778.53	16.62
779.276	15.62
780.023	14.62
780.769	15.62
781.516	15.62
782.262	13.62
783.008	14.62
783.754	14.62
784.5	14.62
785.246	16.62
785.992	14.62
786.738	17.62
787.484	14.62
788.23	14.62
788.975	16.62
789.721	13.62
790.466	14.62
791.212	12.62
791.957	15.62
792.702	14.62
793.447	14.62
794.193	15.62
794.938	14.62
795.683	14.62
796.427	12.62
797.172	13.62
797.917	12.62
798.662	10.62
799.406	10.62
800.151	11.62
800.895	10.62
801.64	9.62
802.384	10.62
803.128	11.62
803.872	11.62
804.616	9.62
805.36	9.62
806.104	9.62
806.848	9.62
807.592	7.62
808.336	12.62
809.079	9.62
809.823	10.62
810.566	11.62
811.31	10.62
812.053	8.62
812.796	7.62
813.539	7.62
814.283	8.62
815.026	8.62
815.769	6.62
816.511	5.62
817.254	8.62
817.997	7.62
818.74	9.62
819.482	8.62
820.225	7.62
820.967	7.62
821.71	5.62
822.452	8.62
823.194	2.62
823.936	8.62
824.678	6.62
825.42	5.62
826.162	6.62
826.904	7.62
827.646	5.62
828.388	7.62
829.129	5.62
829.871	8.62
830.612	7.62
831.354	7.62
832.095	5.62
832.836	5.62
833.577	5.62
834.319	6.62
835.06	6.62
835.801	2.62
836.542	5.62
837.282	3.62
838.023	5.62
838.764	5.62
839.504	7.62
840.245	6.62
840.985	2.62
841.726	5.62
842.466	5.62
843.206	5.62
843.946	4.62
844.687	6.62
845.427	6.62
846.166	3.62
846.906	5.62
847.646	6.62
848.386	3.62
849.125	5.62
849.865	2.62
850.605	4.62
851.344	7.62
852.083	5.62
852.823	4.62
853.562	2.62
854.301	5.62
855.04	4.62
855.779	0.62
856.518	3.62
857.257	2.62
857.995	1.62
858.734	2.62
859.473	4.62
860.211	3.62
860.95	1.62
861.688	1.62
862.426	3.62
863.165	0.62
863.903	2.62
864.641	3.62
865.379	0.62
866.117	1.62
866.855	5.62
867.593	2.62
868.33	2.62
869.068	-0.38
869.806	2.62
870.543	2.62
871.28	1.62
872.018	4.62
872.755	0.62
873.492	3.62
874.229	2.62
874.967	2.62
875.703	3.62
876.44	0.62
877.177	0.62
877.914	-0.38
878.651	2.62
879.387	1.62
880.124	1.62
880.86	2.62
881.597	-1.38
882.333	1.62
883.069	2.62
883.806	2.62
884.542	2.62
885.278	2.62
886.014	1.62
886.749	2.62
887.485	0.62
888.221	0.62
888.957	1.62
889.692	2.62
890.428	1.62
891.163	-0.38
891.899	0.62
892.634	0.62
893.369	1.62
894.104	0.62
894.839	-0.38
895.574	1.62
896.309	1.62
897.044	1.62
897.779	0.62
898.514	0.62
899.248	2.62
899.983	2.62
900.717	0.62
901.452	0.62
902.186	0.62
902.92	0.62
903.654	1.62
904.389	1.62
905.123	-0.38
905.857	0.62
906.59	0.62
907.324	-0.38
908.058	0.62
908.792	1.62
909.525	0.62
910.259	-0.38
910.992	2.62
911.726	-0.38
912.459	-1.38
913.192	-1.38
913.925	0.62
914.658	2.62
915.391	0.62
916.124	2.62
916.857	1.62
917.59	-0.38
918.323	-0.38
919.055	0.62
919.788	-0.38
920.521	-0.38
921.253	-0.38
921.985	1.62
922.718	1.62
923.45	0.62
924.182	0.62
924.914	0.62
925.646	-3.38
926.378	0.62
927.11	-1.38
927.841	-0.38
928.573	-0.38
929.305	-0.38
930.036	0.62
930.768	-2.38
931.499	0.62
932.23	0.62
932.962	0.62
933.693	-0.38
934.424	-2.38
935.155	-0.38
935.886	-1.38
936.617	0.62
937.348	-0.38
938.078	-0.38
938.809	-0.38
939.54	-0.38
940.27	1.62
941.001	0.62
941.731	1.62
942.461	0.62
943.191	-0.38
943.922	2.62
944.652	0.62
945.382	0.62
946.112	3.62
946.841	0.62
947.571	1.62
948.301	1.62
949.031	1.62
949.76	-1.38
950.49	-0.38
951.219	0.62
951.948	-1.38
952.678	-1.38
953.407	-0.38
954.136	-0.38
954.865	2.62
955.594	-2.38
956.323	1.62
957.052	1.62
957.78	1.62
958.509	0.62
959.238	-0.38
959.966	-1.38
960.695	-0.38
961.423	-0.38
962.151	-1.38
962.88	-1.38
963.608	0.62
964.336	-1.38
965.064	2.62
965.792	-1.38
966.52	1.62
967.247	0.62
967.975	1.62
968.703	-1.38
969.43	-0.38
970.158	-2.38
970.885	-1.38
971.613	-0.38
972.34	0.62
973.067	0.62
973.794	0.62
974.521	1.62
975.248	-0.38
975.975	-0.38
976.702	1.62
977.429	-1.38
978.156	0.62
978.882	-1.38
979.609	-2.38
980.335	0.62
981.062	0.62
981.788	-0.38
982.514	0.62
983.24	1.62
983.967	-1.38
984.693	-1.38
985.419	0.62
986.144	-1.38
986.87	-0.38
987.596	-1.38
988.322	0.62
989.047	1.62
989.773	0.62
990.498	-1.38
991.224	-1.38
991.949	-2.38
992.674	1.62
993.399	-1.38
994.124	-0.38
994.849	0.62
995.574	-0.38
996.299	1.62
997.024	1.62
997.749	2.62
998.473	0.62
999.198	-0.38
999.922	0.62
1000.647	-0.38
1001.371	3.62
1002.095	1.62
1002.82	-2.38
1003.544	-1.38
1004.268	1.62
1004.992	2.62
1005.716	5.62
1006.439	4.62
1007.163	5.62
1007.887	3.62
1008.611	-1.38
1009.334	-1.38
1010.058	0.62
1010.781	1.62
1011.504	0.62
1012.228	0.62
1012.951	-1.38
1013.674	-0.38
1014.397	0.62
1015.12	-0.38
