节点500_705_QEPB04081__154__20-48-25-078.txt的数据

Date: Wed Nov 12 20:48:25 CST 2025
User: PC
Spectrometer: QEPB0408
触发模式: 0
积分时间 (秒): 1.000000E-2
Scans to average: 1
启用暗噪声校正: true
启用非线性校正: false
滑动平均宽度: 0
X轴模式: Wavelengths
Number of Pixels in Spectrum: 1044
>>>>>Begin Spectral Data<<<<<
220.843	4.75
221.644	5.75
222.444	7.75
223.244	6.75
224.045	8.75
224.845	5.75
225.645	6.75
226.445	8.75
227.245	10.75
228.045	8.75
228.845	7.75
229.645	6.75
230.444	8.75
231.244	9.75
232.043	9.75
232.843	11.75
233.642	9.75
234.442	9.75
235.241	10.75
236.04	10.75
236.839	11.75
237.638	13.75
238.437	11.75
239.236	12.75
240.035	10.75
240.833	14.75
241.632	12.75
242.43	14.75
243.229	15.75
244.027	15.75
244.826	16.75
245.624	13.75
246.422	16.75
247.22	13.75
248.018	15.75
248.816	15.75
249.614	15.75
250.412	15.75
251.21	18.75
252.007	19.75
252.805	18.75
253.602	20.75
254.4	19.75
255.197	19.75
255.994	19.75
256.791	23.75
257.589	19.75
258.386	22.75
259.183	21.75
259.979	25.75
260.776	25.75
261.573	24.75
262.37	28.75
263.166	26.75
263.963	27.75
264.759	29.75
265.556	29.75
266.352	29.75
267.148	26.75
267.944	31.75
268.74	30.75
269.536	29.75
270.332	34.75
271.128	34.75
271.924	35.75
272.719	31.75
273.515	33.75
274.311	35.75
275.106	36.75
275.901	35.75
276.697	32.75
277.492	36.75
278.287	33.75
279.082	36.75
279.877	38.75
280.672	34.75
281.467	35.75
282.262	38.75
283.056	35.75
283.851	35.75
284.646	37.75
285.44	35.75
286.234	33.75
287.029	33.75
287.823	33.75
288.617	32.75
289.411	34.75
290.205	37.75
290.999	31.75
291.793	32.75
292.587	31.75
293.381	32.75
294.174	31.75
294.968	29.75
295.761	26.75
296.555	29.75
297.348	26.75
298.141	23.75
298.935	29.75
299.728	30.75
300.521	26.75
301.314	27.75
302.107	23.75
302.899	22.75
303.692	23.75
304.485	24.75
305.277	21.75
306.07	25.75
306.862	23.75
307.655	20.75
308.447	20.75
309.239	24.75
310.031	19.75
310.823	21.75
311.615	18.75
312.407	19.75
313.199	20.75
313.991	16.75
314.783	16.75
315.574	16.75
316.366	17.75
317.157	16.75
317.949	16.75
318.74	13.75
319.531	14.75
320.322	15.75
321.113	15.75
321.904	16.75
322.695	13.75
323.486	12.75
324.277	15.75
325.068	15.75
325.858	13.75
326.649	14.75
327.439	11.75
328.23	15.75
329.02	12.75
329.81	11.75
330.6	13.75
331.391	14.75
332.181	12.75
332.971	13.75
333.76	12.75
334.55	13.75
335.34	11.75
336.13	12.75
336.919	11.75
337.709	12.75
338.498	12.75
339.287	15.75
340.077	11.75
340.866	11.75
341.655	13.75
342.444	11.75
343.233	14.75
344.022	9.75
344.811	11.75
345.6	10.75
346.388	13.75
347.177	12.75
347.965	13.75
348.754	13.75
349.542	9.75
350.33	11.75
351.119	12.75
351.907	9.75
352.695	9.75
353.483	10.75
354.271	13.75
355.059	13.75
355.846	11.75
356.634	10.75
357.422	9.75
358.209	10.75
358.997	10.75
359.784	10.75
360.571	10.75
361.359	9.75
362.146	10.75
362.933	12.75
363.72	13.75
364.507	8.75
365.294	10.75
366.081	10.75
366.867	9.75
367.654	11.75
368.44	9.75
369.227	10.75
370.013	8.75
370.8	10.75
371.586	11.75
372.372	11.75
373.158	10.75
373.944	11.75
374.73	10.75
375.516	10.75
376.302	11.75
377.088	10.75
377.873	11.75
378.659	10.75
379.445	9.75
380.23	7.75
381.015	9.75
381.801	9.75
382.586	8.75
383.371	11.75
384.156	11.75
384.941	11.75
385.726	11.75
386.511	13.75
387.296	12.75
388.08	15.75
388.865	11.75
389.649	13.75
390.434	13.75
391.218	13.75
392.003	13.75
392.787	11.75
393.571	9.75
394.355	15.75
395.139	13.75
395.923	13.75
396.707	12.75
397.491	13.75
398.274	14.75
399.058	15.75
399.842	10.75
400.625	15.75
401.408	14.75
402.192	13.75
402.975	16.75
403.758	17.75
404.541	15.75
405.324	15.75
406.107	13.75
406.89	17.75
407.673	15.75
408.456	16.75
409.238	17.75
410.021	19.75
410.803	17.75
411.586	19.75
412.368	20.75
413.151	21.75
413.933	16.75
414.715	19.75
415.497	19.75
416.279	20.75
417.061	18.75
417.843	20.75
418.624	17.75
419.406	20.75
420.188	21.75
420.969	20.75
421.751	24.75
422.532	24.75
423.313	24.75
424.095	25.75
424.876	25.75
425.657	24.75
426.438	25.75
427.219	30.75
428	28.75
428.78	30.75
429.561	27.75
430.342	30.75
431.122	29.75
431.903	33.75
432.683	33.75
433.464	34.75
434.244	38.75
435.024	38.75
435.804	39.75
436.584	43.75
437.364	44.75
438.144	48.75
438.924	51.75
439.704	55.75
440.483	55.75
441.263	62.75
442.042	65.75
442.822	69.75
443.601	73.75
444.38	80.75
445.16	81.75
445.939	86.75
446.718	100.75
447.497	109.75
448.276	118.75
449.054	129.75
449.833	141.75
450.612	160.75
451.391	172.75
452.169	186.75
452.948	202.75
453.726	229.75
454.504	257.75
455.282	289.75
456.061	315.75
456.839	357.75
457.617	382.75
458.395	437.75
459.172	488.75
459.95	547.75
460.728	607.75
461.506	686.75
462.283	765.75
463.061	857.75
463.838	942.75
464.615	1059.75
465.393	1180.75
466.17	1307.75
466.947	1478.75
467.724	1625.75
468.501	1812.75
469.278	2030.75
470.055	2230.75
470.831	2477.75
471.608	2730.75
472.385	3051.75
473.161	3377.75
473.938	3694.75
474.714	4058.75
475.49	4487.75
476.266	4937.75
477.043	5414.75
477.819	5930.75
478.595	6556.75
479.371	7131.75
480.146	7807.75
480.922	8563.75
481.698	9362.75
482.473	10205.75
483.249	11163.75
484.024	12171.75
484.8	13183.75
485.575	14364.75
486.35	15611.75
487.126	16943.75
487.901	18339.75
488.676	19839.75
489.451	21481.75
490.225	23125.75
491	24825.75
491.775	26659.75
492.55	28477.75
493.324	30393.75
494.099	32303.75
494.873	34082.75
495.647	36041.75
496.422	37923.75
497.196	39829.75
497.97	41527.75
498.744	43022.75
499.518	44658.75
500.292	46007.75
501.066	46839.75
501.839	47732.75
502.613	48375.75
503.387	48886.75
504.16	49114.75
504.934	49042.75
505.707	48768.75
506.48	48211.75
507.253	47548.75
508.027	46648.75
508.8	45424.75
509.573	44229.75
510.346	43025.75
511.118	41851.75
511.891	40443.75
512.664	38745.75
513.437	37245.75
514.209	35818.75
514.982	34315.75
515.754	32953.75
516.526	31569.75
517.298	30195.75
518.071	29063.75
518.843	27819.75
519.615	26744.75
520.387	25653.75
521.159	24649.75
521.93	23566.75
522.702	22554.75
523.474	21647.75
524.245	20685.75
525.017	19774.75
525.788	18912.75
526.56	18050.75
527.331	17315.75
528.102	16394.75
528.873	15519.75
529.644	14797.75
530.415	14047.75
531.186	13352.75
531.957	12645.75
532.728	11991.75
533.498	11308.75
534.269	10729.75
535.039	10131.75
535.81	9604.75
536.58	9049.75
537.351	8578.75
538.121	8170.75
538.891	7658.75
539.661	7275.75
540.431	6868.75
541.201	6523.75
541.971	6170.75
542.741	5830.75
543.51	5555.75
544.28	5310.75
545.05	5026.75
545.819	4800.75
546.588	4567.75
547.358	4365.75
548.127	4137.75
548.896	3926.75
549.665	3709.75
550.434	3526.75
551.203	3318.75
551.972	3158.75
552.741	2991.75
553.51	2831.75
554.278	2667.75
555.047	2507.75
555.815	2374.75
556.584	2242.75
557.352	2119.75
558.121	1999.75
558.889	1893.75
559.657	1803.75
560.425	1670.75
561.193	1597.75
561.961	1514.75
562.729	1435.75
563.496	1343.75
564.264	1283.75
565.032	1218.75
565.799	1144.75
566.567	1077.75
567.334	1027.75
568.101	971.75
568.869	915.75
569.636	856.75
570.403	815.75
571.17	773.75
571.937	724.75
572.704	689.75
573.471	649.75
574.237	614.75
575.004	581.75
575.771	542.75
576.537	513.75
577.303	478.75
578.07	455.75
578.836	431.75
579.602	401.75
580.368	386.75
581.134	369.75
581.9	355.75
582.666	339.75
583.432	320.75
584.198	294.75
584.964	290.75
585.729	271.75
586.495	260.75
587.26	245.75
588.025	234.75
588.791	218.75
589.556	203.75
590.321	196.75
591.086	184.75
591.851	174.75
592.616	171.75
593.381	163.75
594.146	152.75
594.911	146.75
595.675	140.75
596.44	135.75
597.204	122.75
597.969	130.75
598.733	113.75
599.497	112.75
600.261	112.75
601.025	102.75
601.79	102.75
602.553	97.75
603.317	95.75
604.081	88.75
604.845	84.75
605.609	79.75
606.372	75.75
607.136	77.75
607.899	69.75
608.662	70.75
609.426	66.75
610.189	64.75
610.952	62.75
611.715	59.75
612.478	59.75
613.241	55.75
614.004	55.75
614.767	52.75
615.529	49.75
616.292	50.75
617.055	41.75
617.817	47.75
618.579	44.75
619.342	44.75
620.104	42.75
620.866	42.75
621.628	40.75
622.39	37.75
623.152	34.75
623.914	37.75
624.676	32.75
625.438	36.75
626.199	31.75
626.961	29.75
627.722	31.75
628.484	28.75
629.245	29.75
630.006	30.75
630.768	30.75
631.529	26.75
632.29	27.75
633.051	23.75
633.812	25.75
634.573	22.75
635.333	22.75
636.094	23.75
636.855	24.75
637.615	20.75
638.376	22.75
639.136	18.75
639.896	22.75
640.657	19.75
641.417	18.75
642.177	21.75
642.937	17.75
643.697	15.75
644.457	18.75
645.216	16.75
645.976	18.75
646.736	15.75
647.495	15.75
648.255	15.75
649.014	13.75
649.774	16.75
650.533	16.75
651.292	15.75
652.051	12.75
652.81	14.75
653.569	14.75
654.328	12.75
655.087	13.75
655.846	11.75
656.604	12.75
657.363	14.75
658.121	13.75
658.88	10.75
659.638	11.75
660.397	14.75
661.155	13.75
661.913	12.75
662.671	10.75
663.429	9.75
664.187	11.75
664.945	11.75
665.703	9.75
666.46	9.75
667.218	12.75
667.976	9.75
668.733	9.75
669.49	10.75
670.248	9.75
671.005	10.75
671.762	11.75
672.519	9.75
673.276	11.75
674.033	9.75
674.79	11.75
675.547	8.75
676.304	10.75
677.06	9.75
677.817	9.75
678.574	8.75
679.33	8.75
680.086	10.75
680.843	7.75
681.599	9.75
682.355	8.75
683.111	9.75
683.867	9.75
684.623	9.75
685.379	9.75
686.135	8.75
686.89	6.75
687.646	8.75
688.402	9.75
689.157	7.75
689.912	9.75
690.668	6.75
691.423	9.75
692.178	9.75
692.933	10.75
693.688	7.75
694.443	10.75
695.198	5.75
695.953	5.75
696.708	7.75
697.462	8.75
698.217	10.75
698.972	6.75
699.726	9.75
700.48	9.75
701.235	8.75
701.989	7.75
702.743	8.75
703.497	9.75
704.251	7.75
705.005	8.75
705.759	6.75
706.513	7.75
707.266	8.75
708.02	7.75
708.774	8.75
709.527	8.75
710.28	8.75
711.034	7.75
711.787	8.75
712.54	9.75
713.293	6.75
714.046	7.75
714.799	9.75
715.552	10.75
716.305	9.75
717.058	6.75
717.81	10.75
718.563	8.75
719.315	10.75
720.068	6.75
720.82	8.75
721.573	10.75
722.325	5.75
723.077	9.75
723.829	10.75
724.581	9.75
725.333	8.75
726.085	7.75
726.836	10.75
727.588	9.75
728.34	8.75
729.091	9.75
729.843	5.75
730.594	8.75
731.346	9.75
732.097	11.75
732.848	8.75
733.599	9.75
734.35	10.75
735.101	10.75
735.852	11.75
736.603	8.75
737.354	11.75
738.104	11.75
738.855	10.75
739.605	11.75
740.356	9.75
741.106	12.75
741.856	10.75
742.607	12.75
743.357	12.75
744.107	11.75
744.857	12.75
745.607	11.75
746.357	11.75
747.106	10.75
747.856	10.75
748.606	12.75
749.355	10.75
750.105	13.75
750.854	13.75
751.603	11.75
752.353	13.75
753.102	9.75
753.851	11.75
754.6	13.75
755.349	13.75
756.098	13.75
756.847	13.75
757.595	12.75
758.344	12.75
759.093	13.75
759.841	13.75
760.589	12.75
761.338	14.75
762.086	12.75
762.834	11.75
763.582	14.75
764.331	14.75
765.079	14.75
765.826	14.75
766.574	14.75
767.322	15.75
768.07	12.75
768.817	14.75
769.565	18.75
770.312	13.75
771.06	16.75
771.807	15.75
772.554	14.75
773.302	18.75
774.049	12.75
774.796	17.75
775.543	19.75
776.29	15.75
777.036	17.75
777.783	15.75
778.53	16.75
779.276	18.75
780.023	18.75
780.769	17.75
781.516	15.75
782.262	18.75
783.008	17.75
783.754	15.75
784.5	15.75
785.246	17.75
785.992	15.75
786.738	13.75
787.484	14.75
788.23	14.75
788.975	14.75
789.721	17.75
790.466	15.75
791.212	15.75
791.957	15.75
792.702	13.75
793.447	15.75
794.193	14.75
794.938	15.75
795.683	14.75
796.427	14.75
797.172	15.75
797.917	15.75
798.662	12.75
799.406	13.75
800.151	13.75
800.895	11.75
801.64	15.75
802.384	12.75
803.128	11.75
803.872	13.75
804.616	9.75
805.36	14.75
806.104	13.75
806.848	11.75
807.592	10.75
808.336	11.75
809.079	9.75
809.823	8.75
810.566	10.75
811.31	9.75
812.053	9.75
812.796	7.75
813.539	10.75
814.283	10.75
815.026	9.75
815.769	7.75
816.511	8.75
817.254	8.75
817.997	7.75
818.74	9.75
819.482	9.75
820.225	9.75
820.967	8.75
821.71	8.75
822.452	7.75
823.194	8.75
823.936	7.75
824.678	7.75
825.42	9.75
826.162	7.75
826.904	7.75
827.646	4.75
828.388	9.75
829.129	6.75
829.871	7.75
830.612	8.75
831.354	5.75
832.095	5.75
832.836	3.75
833.577	7.75
834.319	7.75
835.06	5.75
835.801	5.75
836.542	5.75
837.282	9.75
838.023	7.75
838.764	8.75
839.504	5.75
840.245	6.75
840.985	4.75
841.726	3.75
842.466	3.75
843.206	4.75
843.946	6.75
844.687	6.75
845.427	4.75
846.166	7.75
846.906	4.75
847.646	7.75
848.386	7.75
849.125	6.75
849.865	5.75
850.605	4.75
851.344	2.75
852.083	3.75
852.823	5.75
853.562	3.75
854.301	5.75
855.04	4.75
855.779	4.75
856.518	2.75
857.257	4.75
857.995	4.75
858.734	2.75
859.473	3.75
860.211	6.75
860.95	4.75
861.688	4.75
862.426	3.75
863.165	2.75
863.903	4.75
864.641	2.75
865.379	3.75
866.117	6.75
866.855	3.75
867.593	3.75
868.33	1.75
869.068	5.75
869.806	3.75
870.543	2.75
871.28	4.75
872.018	4.75
872.755	1.75
873.492	0.75
874.229	1.75
874.967	-0.25
875.703	3.75
876.44	2.75
877.177	0.75
877.914	3.75
878.651	0.75
879.387	2.75
880.124	5.75
880.86	4.75
881.597	1.75
882.333	0.75
883.069	3.75
883.806	2.75
884.542	3.75
885.278	1.75
886.014	3.75
886.749	1.75
887.485	0.75
888.221	3.75
888.957	2.75
889.692	3.75
890.428	1.75
891.163	2.75
891.899	1.75
892.634	-0.25
893.369	0.75
894.104	2.75
894.839	3.75
895.574	2.75
896.309	2.75
897.044	2.75
897.779	-2.25
898.514	2.75
899.248	2.75
899.983	1.75
900.717	2.75
901.452	2.75
902.186	1.75
902.92	-0.25
903.654	-0.25
904.389	0.75
905.123	2.75
905.857	2.75
906.59	1.75
907.324	1.75
908.058	-0.25
908.792	1.75
909.525	1.75
910.259	0.75
910.992	2.75
911.726	1.75
912.459	0.75
913.192	2.75
913.925	-0.25
914.658	0.75
915.391	0.75
916.124	-0.25
916.857	2.75
917.59	1.75
918.323	0.75
919.055	0.75
919.788	1.75
920.521	2.75
921.253	2.75
921.985	-0.25
922.718	-0.25
923.45	2.75
924.182	-1.25
924.914	-0.25
925.646	0.75
926.378	1.75
927.11	-0.25
927.841	0.75
928.573	0.75
929.305	0.75
930.036	4.75
930.768	-0.25
931.499	1.75
932.23	1.75
932.962	1.75
933.693	-0.25
934.424	2.75
935.155	-0.25
935.886	2.75
936.617	0.75
937.348	1.75
938.078	1.75
938.809	0.75
939.54	0.75
940.27	1.75
941.001	-0.25
941.731	1.75
942.461	1.75
943.191	0.75
943.922	2.75
944.652	0.75
945.382	1.75
946.112	3.75
946.841	2.75
947.571	0.75
948.301	-0.25
949.031	1.75
949.76	2.75
950.49	2.75
951.219	1.75
951.948	1.75
952.678	1.75
953.407	1.75
954.136	1.75
954.865	1.75
955.594	0.75
956.323	2.75
957.052	-0.25
957.78	0.75
958.509	1.75
959.238	-0.25
959.966	1.75
960.695	0.75
961.423	0.75
962.151	-0.25
962.88	2.75
963.608	2.75
964.336	-0.25
965.064	1.75
965.792	-0.25
966.52	1.75
967.247	0.75
967.975	0.75
968.703	0.75
969.43	-0.25
970.158	0.75
970.885	0.75
971.613	1.75
972.34	0.75
973.067	0.75
973.794	0.75
974.521	-0.25
975.248	2.75
975.975	1.75
976.702	1.75
977.429	2.75
978.156	-0.25
978.882	0.75
979.609	2.75
980.335	1.75
981.062	0.75
981.788	-0.25
982.514	1.75
983.24	-2.25
983.967	0.75
984.693	1.75
985.419	0.75
986.144	1.75
986.87	0.75
987.596	0.75
988.322	2.75
989.047	2.75
989.773	-0.25
990.498	-1.25
991.224	0.75
991.949	0.75
992.674	-0.25
993.399	1.75
994.124	-0.25
994.849	-1.25
995.574	1.75
996.299	2.75
997.024	0.75
997.749	0.75
998.473	2.75
999.198	0.75
999.922	0.75
1000.647	-1.25
1001.371	2.75
1002.095	-1.25
1002.82	-2.25
1003.544	-2.25
1004.268	5.75
1004.992	2.75
1005.716	7.75
1006.439	7.75
1007.163	8.75
1007.887	8.75
1008.611	1.75
1009.334	2.75
1010.058	-0.25
1010.781	1.75
1011.504	0.75
1012.228	1.75
1012.951	-1.25
1013.674	1.75
1014.397	0.75
1015.12	1.75
