节点500_705_QEPB04081__519__20-53-15-769.txt的数据

Date: Wed Nov 12 20:53:15 CST 2025
User: PC
Spectrometer: QEPB0408
触发模式: 0
积分时间 (秒): 1.000000E-2
Scans to average: 1
启用暗噪声校正: true
启用非线性校正: false
滑动平均宽度: 0
X轴模式: Wavelengths
Number of Pixels in Spectrum: 1044
>>>>>Begin Spectral Data<<<<<
220.843	6.38
221.644	5.38
222.444	4.38
223.244	7.38
224.045	6.38
224.845	6.38
225.645	9.38
226.445	4.38
227.245	6.38
228.045	9.38
228.845	7.38
229.645	6.38
230.444	9.38
231.244	8.38
232.043	9.38
232.843	11.38
233.642	7.38
234.442	9.38
235.241	9.38
236.04	12.38
236.839	9.38
237.638	10.38
238.437	10.38
239.236	10.38
240.035	13.38
240.833	12.38
241.632	11.38
242.43	11.38
243.229	12.38
244.027	10.38
244.826	12.38
245.624	13.38
246.422	11.38
247.22	15.38
248.018	15.38
248.816	14.38
249.614	17.38
250.412	15.38
251.21	14.38
252.007	15.38
252.805	18.38
253.602	17.38
254.4	18.38
255.197	15.38
255.994	15.38
256.791	21.38
257.589	17.38
258.386	18.38
259.183	18.38
259.979	20.38
260.776	23.38
261.573	24.38
262.37	25.38
263.166	21.38
263.963	22.38
264.759	25.38
265.556	24.38
266.352	26.38
267.148	25.38
267.944	25.38
268.74	26.38
269.536	27.38
270.332	28.38
271.128	31.38
271.924	31.38
272.719	30.38
273.515	28.38
274.311	32.38
275.106	31.38
275.901	30.38
276.697	29.38
277.492	28.38
278.287	35.38
279.082	29.38
279.877	31.38
280.672	33.38
281.467	36.38
282.262	31.38
283.056	33.38
283.851	33.38
284.646	29.38
285.44	34.38
286.234	30.38
287.029	31.38
287.823	33.38
288.617	32.38
289.411	31.38
290.205	31.38
290.999	32.38
291.793	33.38
292.587	29.38
293.381	29.38
294.174	29.38
294.968	29.38
295.761	27.38
296.555	23.38
297.348	24.38
298.141	28.38
298.935	29.38
299.728	24.38
300.521	26.38
301.314	24.38
302.107	22.38
302.899	22.38
303.692	21.38
304.485	23.38
305.277	21.38
306.07	24.38
306.862	22.38
307.655	22.38
308.447	21.38
309.239	20.38
310.031	22.38
310.823	23.38
311.615	20.38
312.407	19.38
313.199	17.38
313.991	19.38
314.783	17.38
315.574	19.38
316.366	17.38
317.157	15.38
317.949	15.38
318.74	15.38
319.531	16.38
320.322	13.38
321.113	13.38
321.904	13.38
322.695	12.38
323.486	15.38
324.277	15.38
325.068	13.38
325.858	11.38
326.649	11.38
327.439	14.38
328.23	9.38
329.02	14.38
329.81	11.38
330.6	12.38
331.391	13.38
332.181	13.38
332.971	10.38
333.76	10.38
334.55	13.38
335.34	11.38
336.13	11.38
336.919	11.38
337.709	12.38
338.498	12.38
339.287	10.38
340.077	13.38
340.866	13.38
341.655	13.38
342.444	14.38
343.233	11.38
344.022	10.38
344.811	11.38
345.6	10.38
346.388	12.38
347.177	13.38
347.965	12.38
348.754	9.38
349.542	13.38
350.33	13.38
351.119	9.38
351.907	11.38
352.695	11.38
353.483	13.38
354.271	12.38
355.059	10.38
355.846	12.38
356.634	10.38
357.422	10.38
358.209	9.38
358.997	10.38
359.784	9.38
360.571	12.38
361.359	11.38
362.146	11.38
362.933	8.38
363.72	10.38
364.507	10.38
365.294	12.38
366.081	7.38
366.867	9.38
367.654	8.38
368.44	10.38
369.227	7.38
370.013	10.38
370.8	10.38
371.586	10.38
372.372	10.38
373.158	10.38
373.944	7.38
374.73	10.38
375.516	10.38
376.302	9.38
377.088	11.38
377.873	9.38
378.659	9.38
379.445	11.38
380.23	11.38
381.015	10.38
381.801	12.38
382.586	10.38
383.371	12.38
384.156	13.38
384.941	9.38
385.726	13.38
386.511	11.38
387.296	13.38
388.08	13.38
388.865	10.38
389.649	11.38
390.434	11.38
391.218	11.38
392.003	10.38
392.787	11.38
393.571	13.38
394.355	13.38
395.139	13.38
395.923	13.38
396.707	13.38
397.491	13.38
398.274	13.38
399.058	14.38
399.842	12.38
400.625	11.38
401.408	13.38
402.192	15.38
402.975	16.38
403.758	13.38
404.541	16.38
405.324	11.38
406.107	16.38
406.89	14.38
407.673	15.38
408.456	17.38
409.238	15.38
410.021	17.38
410.803	15.38
411.586	15.38
412.368	17.38
413.151	17.38
413.933	18.38
414.715	17.38
415.497	19.38
416.279	14.38
417.061	20.38
417.843	15.38
418.624	17.38
419.406	20.38
420.188	22.38
420.969	22.38
421.751	20.38
422.532	21.38
423.313	21.38
424.095	24.38
424.876	25.38
425.657	21.38
426.438	24.38
427.219	27.38
428	28.38
428.78	27.38
429.561	28.38
430.342	30.38
431.122	31.38
431.903	31.38
432.683	33.38
433.464	37.38
434.244	39.38
435.024	37.38
435.804	38.38
436.584	44.38
437.364	45.38
438.144	48.38
438.924	48.38
439.704	55.38
440.483	59.38
441.263	65.38
442.042	69.38
442.822	73.38
443.601	77.38
444.38	81.38
445.16	88.38
445.939	100.38
446.718	106.38
447.497	117.38
448.276	130.38
449.054	137.38
449.833	155.38
450.612	169.38
451.391	189.38
452.169	205.38
452.948	230.38
453.726	250.38
454.504	276.38
455.282	311.38
456.061	354.38
456.839	395.38
457.617	426.38
458.395	476.38
459.172	530.38
459.95	592.38
460.728	653.38
461.506	734.38
462.283	817.38
463.061	912.38
463.838	1024.38
464.615	1115.38
465.393	1240.38
466.17	1391.38
466.947	1522.38
467.724	1687.38
468.501	1858.38
469.278	2065.38
470.055	2255.38
470.831	2487.38
471.608	2772.38
472.385	3027.38
473.161	3345.38
473.938	3642.38
474.714	3973.38
475.49	4348.38
476.266	4753.38
477.043	5176.38
477.819	5639.38
478.595	6155.38
479.371	6687.38
480.146	7259.38
480.922	7915.38
481.698	8565.38
482.473	9286.38
483.249	10081.38
484.024	10893.38
484.8	11755.38
485.575	12728.38
486.35	13762.38
487.126	14813.38
487.901	16007.38
488.676	17159.38
489.451	18511.38
490.225	19924.38
491	21240.38
491.775	22718.38
492.55	24286.38
493.324	25826.38
494.099	27460.38
494.873	29012.38
495.647	30777.38
496.422	32356.38
497.196	34033.38
497.97	35598.38
498.744	37075.38
499.518	38543.38
500.292	39967.38
501.066	40976.38
501.839	41966.38
502.613	42815.38
503.387	43744.38
504.16	44247.38
504.934	44538.38
505.707	44634.38
506.48	44550.38
507.253	44282.38
508.027	43920.38
508.8	43194.38
509.573	42441.38
510.346	41630.38
511.118	40764.38
511.891	39727.38
512.664	38272.38
513.437	37096.38
514.209	35791.38
514.982	34472.38
515.754	33197.38
516.526	31959.38
517.298	30637.38
518.071	29497.38
518.843	28258.38
519.615	27204.38
520.387	26069.38
521.159	25102.38
521.93	24037.38
522.702	23052.38
523.474	22106.38
524.245	21261.38
525.017	20356.38
525.788	19486.38
526.56	18648.38
527.331	17901.38
528.102	17008.38
528.873	16204.38
529.644	15471.38
530.415	14759.38
531.186	14130.38
531.957	13347.38
532.728	12676.38
533.498	12017.38
534.269	11389.38
535.039	10853.38
535.81	10255.38
536.58	9681.38
537.351	9166.38
538.121	8697.38
538.891	8245.38
539.661	7782.38
540.431	7356.38
541.201	6994.38
541.971	6655.38
542.741	6289.38
543.51	5937.38
544.28	5690.38
545.05	5415.38
545.819	5153.38
546.588	4899.38
547.358	4690.38
548.127	4427.38
548.896	4224.38
549.665	4008.38
550.434	3818.38
551.203	3624.38
551.972	3442.38
552.741	3247.38
553.51	3074.38
554.278	2893.38
555.047	2740.38
555.815	2597.38
556.584	2460.38
557.352	2311.38
558.121	2196.38
558.889	2072.38
559.657	1957.38
560.425	1863.38
561.193	1767.38
561.961	1668.38
562.729	1585.38
563.496	1495.38
564.264	1395.38
565.032	1327.38
565.799	1251.38
566.567	1203.38
567.334	1130.38
568.101	1059.38
568.869	1007.38
569.636	945.38
570.403	883.38
571.17	851.38
571.937	801.38
572.704	759.38
573.471	713.38
574.237	673.38
575.004	630.38
575.771	606.38
576.537	553.38
577.303	523.38
578.07	498.38
578.836	473.38
579.602	448.38
580.368	423.38
581.134	410.38
581.9	380.38
582.666	371.38
583.432	353.38
584.198	333.38
584.964	313.38
585.729	294.38
586.495	283.38
587.26	264.38
588.025	257.38
588.791	240.38
589.556	224.38
590.321	213.38
591.086	204.38
591.851	197.38
592.616	184.38
593.381	172.38
594.146	170.38
594.911	166.38
595.675	154.38
596.44	149.38
597.204	145.38
597.969	133.38
598.733	130.38
599.497	124.38
600.261	118.38
601.025	110.38
601.79	107.38
602.553	110.38
603.317	102.38
604.081	95.38
604.845	92.38
605.609	89.38
606.372	86.38
607.136	81.38
607.899	76.38
608.662	74.38
609.426	71.38
610.189	69.38
610.952	68.38
611.715	61.38
612.478	62.38
613.241	61.38
614.004	59.38
614.767	58.38
615.529	52.38
616.292	53.38
617.055	50.38
617.817	48.38
618.579	49.38
619.342	44.38
620.104	44.38
620.866	46.38
621.628	41.38
622.39	39.38
623.152	40.38
623.914	38.38
624.676	39.38
625.438	34.38
626.199	34.38
626.961	33.38
627.722	29.38
628.484	32.38
629.245	30.38
630.006	29.38
630.768	27.38
631.529	27.38
632.29	26.38
633.051	24.38
633.812	25.38
634.573	24.38
635.333	26.38
636.094	24.38
636.855	24.38
637.615	23.38
638.376	23.38
639.136	23.38
639.896	21.38
640.657	21.38
641.417	20.38
642.177	17.38
642.937	17.38
643.697	19.38
644.457	19.38
645.216	19.38
645.976	18.38
646.736	15.38
647.495	15.38
648.255	18.38
649.014	16.38
649.774	15.38
650.533	15.38
651.292	15.38
652.051	16.38
652.81	15.38
653.569	14.38
654.328	14.38
655.087	14.38
655.846	13.38
656.604	14.38
657.363	11.38
658.121	10.38
658.88	12.38
659.638	9.38
660.397	12.38
661.155	12.38
661.913	11.38
662.671	13.38
663.429	13.38
664.187	9.38
664.945	11.38
665.703	12.38
666.46	11.38
667.218	12.38
667.976	14.38
668.733	9.38
669.49	11.38
670.248	9.38
671.005	8.38
671.762	9.38
672.519	8.38
673.276	10.38
674.033	8.38
674.79	9.38
675.547	11.38
676.304	7.38
677.06	9.38
677.817	10.38
678.574	10.38
679.33	8.38
680.086	9.38
680.843	9.38
681.599	8.38
682.355	9.38
683.111	9.38
683.867	10.38
684.623	9.38
685.379	7.38
686.135	8.38
686.89	5.38
687.646	8.38
688.402	9.38
689.157	9.38
689.912	6.38
690.668	9.38
691.423	9.38
692.178	9.38
692.933	8.38
693.688	6.38
694.443	8.38
695.198	9.38
695.953	7.38
696.708	6.38
697.462	7.38
698.217	5.38
698.972	8.38
699.726	6.38
700.48	6.38
701.235	5.38
701.989	8.38
702.743	8.38
703.497	7.38
704.251	7.38
705.005	6.38
705.759	7.38
706.513	7.38
707.266	7.38
708.02	7.38
708.774	7.38
709.527	6.38
710.28	9.38
711.034	8.38
711.787	8.38
712.54	6.38
713.293	9.38
714.046	7.38
714.799	9.38
715.552	7.38
716.305	10.38
717.058	8.38
717.81	6.38
718.563	9.38
719.315	7.38
720.068	8.38
720.82	8.38
721.573	8.38
722.325	8.38
723.077	9.38
723.829	10.38
724.581	7.38
725.333	8.38
726.085	8.38
726.836	9.38
727.588	10.38
728.34	8.38
729.091	10.38
729.843	10.38
730.594	9.38
731.346	10.38
732.097	8.38
732.848	10.38
733.599	9.38
734.35	10.38
735.101	9.38
735.852	7.38
736.603	9.38
737.354	10.38
738.104	8.38
738.855	11.38
739.605	10.38
740.356	10.38
741.106	10.38
741.856	11.38
742.607	8.38
743.357	12.38
744.107	10.38
744.857	9.38
745.607	11.38
746.357	8.38
747.106	10.38
747.856	10.38
748.606	10.38
749.355	9.38
750.105	11.38
750.854	8.38
751.603	11.38
752.353	12.38
753.102	13.38
753.851	12.38
754.6	12.38
755.349	9.38
756.098	12.38
756.847	10.38
757.595	13.38
758.344	11.38
759.093	13.38
759.841	10.38
760.589	10.38
761.338	13.38
762.086	11.38
762.834	15.38
763.582	12.38
764.331	13.38
765.079	13.38
765.826	11.38
766.574	15.38
767.322	14.38
768.07	12.38
768.817	12.38
769.565	13.38
770.312	14.38
771.06	12.38
771.807	17.38
772.554	16.38
773.302	13.38
774.049	13.38
774.796	13.38
775.543	15.38
776.29	13.38
777.036	15.38
777.783	14.38
778.53	15.38
779.276	15.38
780.023	15.38
780.769	14.38
781.516	14.38
782.262	14.38
783.008	17.38
783.754	15.38
784.5	15.38
785.246	15.38
785.992	16.38
786.738	14.38
787.484	12.38
788.23	15.38
788.975	11.38
789.721	15.38
790.466	15.38
791.212	14.38
791.957	14.38
792.702	14.38
793.447	12.38
794.193	14.38
794.938	14.38
795.683	14.38
796.427	13.38
797.172	15.38
797.917	15.38
798.662	14.38
799.406	13.38
800.151	14.38
800.895	11.38
801.64	13.38
802.384	13.38
803.128	10.38
803.872	11.38
804.616	9.38
805.36	10.38
806.104	14.38
806.848	10.38
807.592	12.38
808.336	11.38
809.079	10.38
809.823	11.38
810.566	10.38
811.31	9.38
812.053	10.38
812.796	9.38
813.539	10.38
814.283	9.38
815.026	9.38
815.769	8.38
816.511	8.38
817.254	7.38
817.997	10.38
818.74	8.38
819.482	7.38
820.225	6.38
820.967	9.38
821.71	6.38
822.452	7.38
823.194	9.38
823.936	8.38
824.678	9.38
825.42	8.38
826.162	7.38
826.904	7.38
827.646	7.38
828.388	8.38
829.129	8.38
829.871	7.38
830.612	8.38
831.354	4.38
832.095	7.38
832.836	5.38
833.577	6.38
834.319	8.38
835.06	6.38
835.801	4.38
836.542	6.38
837.282	5.38
838.023	6.38
838.764	4.38
839.504	5.38
840.245	8.38
840.985	7.38
841.726	5.38
842.466	4.38
843.206	8.38
843.946	7.38
844.687	7.38
845.427	7.38
846.166	5.38
846.906	6.38
847.646	4.38
848.386	6.38
849.125	5.38
849.865	5.38
850.605	5.38
851.344	6.38
852.083	5.38
852.823	3.38
853.562	8.38
854.301	2.38
855.04	5.38
855.779	4.38
856.518	7.38
857.257	2.38
857.995	5.38
858.734	6.38
859.473	4.38
860.211	4.38
860.95	2.38
861.688	3.38
862.426	4.38
863.165	3.38
863.903	3.38
864.641	4.38
865.379	3.38
866.117	3.38
866.855	1.38
867.593	2.38
868.33	3.38
869.068	3.38
869.806	5.38
870.543	2.38
871.28	2.38
872.018	3.38
872.755	2.38
873.492	1.38
874.229	2.38
874.967	4.38
875.703	3.38
876.44	3.38
877.177	-0.62
877.914	2.38
878.651	3.38
879.387	3.38
880.124	3.38
880.86	1.38
881.597	0.38
882.333	2.38
883.069	2.38
883.806	1.38
884.542	3.38
885.278	2.38
886.014	0.38
886.749	1.38
887.485	3.38
888.221	1.38
888.957	3.38
889.692	-0.62
890.428	0.38
891.163	0.38
891.899	2.38
892.634	1.38
893.369	1.38
894.104	1.38
894.839	-0.62
895.574	0.38
896.309	3.38
897.044	0.38
897.779	1.38
898.514	3.38
899.248	2.38
899.983	0.38
900.717	4.38
901.452	3.38
902.186	2.38
902.92	2.38
903.654	-2.62
904.389	-0.62
905.123	1.38
905.857	0.38
906.59	1.38
907.324	1.38
908.058	1.38
908.792	-0.62
909.525	2.38
910.259	1.38
910.992	-0.62
911.726	2.38
912.459	2.38
913.192	0.38
913.925	0.38
914.658	0.38
915.391	0.38
916.124	1.38
916.857	1.38
917.59	0.38
918.323	1.38
919.055	2.38
919.788	2.38
920.521	2.38
921.253	-0.62
921.985	1.38
922.718	0.38
923.45	3.38
924.182	1.38
924.914	2.38
925.646	3.38
926.378	1.38
927.11	2.38
927.841	1.38
928.573	0.38
929.305	1.38
930.036	0.38
930.768	1.38
931.499	-1.62
932.23	-1.62
932.962	2.38
933.693	-0.62
934.424	2.38
935.155	-1.62
935.886	3.38
936.617	0.38
937.348	-0.62
938.078	0.38
938.809	0.38
939.54	1.38
940.27	0.38
941.001	1.38
941.731	-1.62
942.461	1.38
943.191	1.38
943.922	-0.62
944.652	1.38
945.382	-0.62
946.112	-0.62
946.841	0.38
947.571	0.38
948.301	-0.62
949.031	1.38
949.76	1.38
950.49	-0.62
951.219	0.38
951.948	1.38
952.678	0.38
953.407	2.38
954.136	-0.62
954.865	-0.62
955.594	0.38
956.323	1.38
957.052	2.38
957.78	1.38
958.509	3.38
959.238	2.38
959.966	0.38
960.695	2.38
961.423	-0.62
962.151	-0.62
962.88	2.38
963.608	0.38
964.336	2.38
965.064	0.38
965.792	-0.62
966.52	1.38
967.247	1.38
967.975	3.38
968.703	2.38
969.43	-0.62
970.158	-0.62
970.885	1.38
971.613	0.38
972.34	2.38
973.067	1.38
973.794	-0.62
974.521	0.38
975.248	2.38
975.975	0.38
976.702	0.38
977.429	0.38
978.156	1.38
978.882	0.38
979.609	0.38
980.335	0.38
981.062	-0.62
981.788	0.38
982.514	1.38
983.24	-0.62
983.967	0.38
984.693	0.38
985.419	-0.62
986.144	0.38
986.87	0.38
987.596	-1.62
988.322	0.38
989.047	2.38
989.773	1.38
990.498	0.38
991.224	1.38
991.949	1.38
992.674	1.38
993.399	-0.62
994.124	3.38
994.849	1.38
995.574	2.38
996.299	0.38
997.024	1.38
997.749	0.38
998.473	2.38
999.198	2.38
999.922	2.38
1000.647	-0.62
1001.371	4.38
1002.095	-0.62
1002.82	-1.62
1003.544	-2.62
1004.268	5.38
1004.992	3.38
1005.716	4.38
1006.439	4.38
1007.163	3.38
1007.887	3.38
1008.611	1.38
1009.334	0.38
1010.058	-0.62
1010.781	1.38
1011.504	2.38
1012.228	1.38
1012.951	-0.62
1013.674	-0.62
1014.397	1.38
1015.12	0.38
