节点500_705_QEPB04081__455__20-52-20-751.txt的数据

Date: Wed Nov 12 20:52:20 CST 2025
User: PC
Spectrometer: QEPB0408
触发模式: 0
积分时间 (秒): 1.000000E-2
Scans to average: 1
启用暗噪声校正: true
启用非线性校正: false
滑动平均宽度: 0
X轴模式: Wavelengths
Number of Pixels in Spectrum: 1044
>>>>>Begin Spectral Data<<<<<
220.843	5.88
221.644	0.88
222.444	5.88
223.244	7.88
224.045	6.88
224.845	5.88
225.645	6.88
226.445	7.88
227.245	7.88
228.045	5.88
228.845	7.88
229.645	8.88
230.444	7.88
231.244	7.88
232.043	7.88
232.843	8.88
233.642	10.88
234.442	8.88
235.241	11.88
236.04	7.88
236.839	9.88
237.638	9.88
238.437	9.88
239.236	10.88
240.035	9.88
240.833	11.88
241.632	10.88
242.43	12.88
243.229	9.88
244.027	11.88
244.826	12.88
245.624	12.88
246.422	11.88
247.22	14.88
248.018	12.88
248.816	15.88
249.614	12.88
250.412	12.88
251.21	12.88
252.007	14.88
252.805	15.88
253.602	15.88
254.4	17.88
255.197	20.88
255.994	17.88
256.791	18.88
257.589	16.88
258.386	18.88
259.183	21.88
259.979	20.88
260.776	18.88
261.573	23.88
262.37	24.88
263.166	23.88
263.963	26.88
264.759	21.88
265.556	23.88
266.352	25.88
267.148	24.88
267.944	26.88
268.74	25.88
269.536	30.88
270.332	26.88
271.128	27.88
271.924	28.88
272.719	29.88
273.515	34.88
274.311	28.88
275.106	29.88
275.901	31.88
276.697	30.88
277.492	30.88
278.287	30.88
279.082	33.88
279.877	32.88
280.672	31.88
281.467	30.88
282.262	32.88
283.056	32.88
283.851	33.88
284.646	30.88
285.44	32.88
286.234	29.88
287.029	32.88
287.823	31.88
288.617	33.88
289.411	30.88
290.205	31.88
290.999	32.88
291.793	30.88
292.587	31.88
293.381	28.88
294.174	26.88
294.968	29.88
295.761	28.88
296.555	28.88
297.348	23.88
298.141	25.88
298.935	28.88
299.728	27.88
300.521	27.88
301.314	23.88
302.107	25.88
302.899	22.88
303.692	25.88
304.485	20.88
305.277	21.88
306.07	20.88
306.862	20.88
307.655	21.88
308.447	18.88
309.239	20.88
310.031	18.88
310.823	18.88
311.615	18.88
312.407	18.88
313.199	15.88
313.991	13.88
314.783	17.88
315.574	15.88
316.366	15.88
317.157	14.88
317.949	12.88
318.74	12.88
319.531	15.88
320.322	14.88
321.113	14.88
321.904	12.88
322.695	13.88
323.486	9.88
324.277	11.88
325.068	11.88
325.858	14.88
326.649	14.88
327.439	14.88
328.23	11.88
329.02	13.88
329.81	8.88
330.6	11.88
331.391	11.88
332.181	10.88
332.971	8.88
333.76	11.88
334.55	11.88
335.34	12.88
336.13	11.88
336.919	10.88
337.709	11.88
338.498	10.88
339.287	10.88
340.077	12.88
340.866	11.88
341.655	13.88
342.444	10.88
343.233	11.88
344.022	11.88
344.811	12.88
345.6	14.88
346.388	10.88
347.177	11.88
347.965	11.88
348.754	9.88
349.542	10.88
350.33	11.88
351.119	10.88
351.907	9.88
352.695	12.88
353.483	9.88
354.271	9.88
355.059	11.88
355.846	10.88
356.634	7.88
357.422	12.88
358.209	10.88
358.997	10.88
359.784	11.88
360.571	7.88
361.359	8.88
362.146	7.88
362.933	9.88
363.72	8.88
364.507	8.88
365.294	8.88
366.081	7.88
366.867	9.88
367.654	9.88
368.44	10.88
369.227	9.88
370.013	9.88
370.8	11.88
371.586	10.88
372.372	8.88
373.158	9.88
373.944	11.88
374.73	8.88
375.516	8.88
376.302	10.88
377.088	7.88
377.873	8.88
378.659	10.88
379.445	10.88
380.23	7.88
381.015	8.88
381.801	9.88
382.586	9.88
383.371	7.88
384.156	8.88
384.941	9.88
385.726	10.88
386.511	9.88
387.296	12.88
388.08	6.88
388.865	11.88
389.649	10.88
390.434	10.88
391.218	11.88
392.003	11.88
392.787	10.88
393.571	13.88
394.355	14.88
395.139	11.88
395.923	12.88
396.707	11.88
397.491	10.88
398.274	14.88
399.058	12.88
399.842	11.88
400.625	17.88
401.408	10.88
402.192	13.88
402.975	11.88
403.758	14.88
404.541	10.88
405.324	12.88
406.107	13.88
406.89	15.88
407.673	13.88
408.456	15.88
409.238	17.88
410.021	13.88
410.803	17.88
411.586	15.88
412.368	14.88
413.151	14.88
413.933	15.88
414.715	15.88
415.497	20.88
416.279	14.88
417.061	18.88
417.843	22.88
418.624	15.88
419.406	20.88
420.188	19.88
420.969	19.88
421.751	22.88
422.532	22.88
423.313	22.88
424.095	23.88
424.876	23.88
425.657	23.88
426.438	24.88
427.219	24.88
428	27.88
428.78	26.88
429.561	27.88
430.342	28.88
431.122	29.88
431.903	30.88
432.683	34.88
433.464	35.88
434.244	34.88
435.024	37.88
435.804	38.88
436.584	45.88
437.364	48.88
438.144	48.88
438.924	53.88
439.704	49.88
440.483	56.88
441.263	59.88
442.042	65.88
442.822	69.88
443.601	75.88
444.38	82.88
445.16	90.88
445.939	92.88
446.718	105.88
447.497	112.88
448.276	130.88
449.054	138.88
449.833	152.88
450.612	164.88
451.391	183.88
452.169	204.88
452.948	226.88
453.726	250.88
454.504	273.88
455.282	304.88
456.061	341.88
456.839	372.88
457.617	420.88
458.395	473.88
459.172	535.88
459.95	584.88
460.728	656.88
461.506	735.88
462.283	808.88
463.061	899.88
463.838	1009.88
464.615	1107.88
465.393	1241.88
466.17	1380.88
466.947	1507.88
467.724	1669.88
468.501	1854.88
469.278	2048.88
470.055	2270.88
470.831	2511.88
471.608	2760.88
472.385	3031.88
473.161	3326.88
473.938	3626.88
474.714	4015.88
475.49	4398.88
476.266	4793.88
477.043	5231.88
477.819	5674.88
478.595	6204.88
479.371	6765.88
480.146	7374.88
480.922	8008.88
481.698	8722.88
482.473	9462.88
483.249	10244.88
484.024	11097.88
484.8	12088.88
485.575	12989.88
486.35	14112.88
487.126	15253.88
487.901	16400.88
488.676	17704.88
489.451	19035.88
490.225	20421.88
491	21887.88
491.775	23360.88
492.55	24947.88
493.324	26621.88
494.099	28244.88
494.873	29973.88
495.647	31607.88
496.422	33342.88
497.196	34965.88
497.97	36673.88
498.744	38120.88
499.518	39732.88
500.292	41045.88
501.066	42112.88
501.839	43083.88
502.613	43959.88
503.387	44724.88
504.16	45152.88
504.934	45404.88
505.707	45497.88
506.48	45356.88
507.253	44903.88
508.027	44581.88
508.8	43714.88
509.573	42910.88
510.346	42014.88
511.118	41119.88
511.891	40031.88
512.664	38534.88
513.437	37216.88
514.209	35974.88
514.982	34587.88
515.754	33309.88
516.526	31893.88
517.298	30640.88
518.071	29509.88
518.843	28386.88
519.615	27181.88
520.387	26097.88
521.159	25127.88
521.93	24089.88
522.702	23073.88
523.474	22045.88
524.245	21192.88
525.017	20276.88
525.788	19471.88
526.56	18690.88
527.331	17905.88
528.102	16979.88
528.873	16154.88
529.644	15400.88
530.415	14721.88
531.186	13986.88
531.957	13267.88
532.728	12611.88
533.498	12000.88
534.269	11310.88
535.039	10769.88
535.81	10168.88
536.58	9601.88
537.351	9087.88
538.121	8624.88
538.891	8171.88
539.661	7740.88
540.431	7293.88
541.201	6957.88
541.971	6571.88
542.741	6227.88
543.51	5944.88
544.28	5591.88
545.05	5335.88
545.819	5119.88
546.588	4870.88
547.358	4641.88
548.127	4420.88
548.896	4166.88
549.665	3975.88
550.434	3790.88
551.203	3601.88
551.972	3399.88
552.741	3210.88
553.51	3049.88
554.278	2866.88
555.047	2709.88
555.815	2555.88
556.584	2414.88
557.352	2307.88
558.121	2157.88
558.889	2058.88
559.657	1944.88
560.425	1833.88
561.193	1740.88
561.961	1653.88
562.729	1540.88
563.496	1460.88
564.264	1394.88
565.032	1318.88
565.799	1235.88
566.567	1178.88
567.334	1110.88
568.101	1054.88
568.869	1001.88
569.636	946.88
570.403	877.88
571.17	842.88
571.937	794.88
572.704	754.88
573.471	712.88
574.237	672.88
575.004	620.88
575.771	579.88
576.537	557.88
577.303	532.88
578.07	497.88
578.836	473.88
579.602	441.88
580.368	429.88
581.134	401.88
581.9	378.88
582.666	361.88
583.432	341.88
584.198	326.88
584.964	308.88
585.729	292.88
586.495	276.88
587.26	262.88
588.025	245.88
588.791	227.88
589.556	224.88
590.321	212.88
591.086	203.88
591.851	188.88
592.616	186.88
593.381	174.88
594.146	171.88
594.911	155.88
595.675	152.88
596.44	153.88
597.204	138.88
597.969	127.88
598.733	129.88
599.497	119.88
600.261	117.88
601.025	116.88
601.79	102.88
602.553	105.88
603.317	97.88
604.081	90.88
604.845	89.88
605.609	85.88
606.372	83.88
607.136	81.88
607.899	77.88
608.662	73.88
609.426	72.88
610.189	63.88
610.952	61.88
611.715	64.88
612.478	60.88
613.241	56.88
614.004	54.88
614.767	55.88
615.529	55.88
616.292	50.88
617.055	47.88
617.817	46.88
618.579	41.88
619.342	46.88
620.104	44.88
620.866	41.88
621.628	39.88
622.39	39.88
623.152	35.88
623.914	36.88
624.676	32.88
625.438	33.88
626.199	32.88
626.961	30.88
627.722	30.88
628.484	30.88
629.245	25.88
630.006	27.88
630.768	27.88
631.529	26.88
632.29	25.88
633.051	25.88
633.812	21.88
634.573	23.88
635.333	20.88
636.094	21.88
636.855	23.88
637.615	18.88
638.376	21.88
639.136	20.88
639.896	20.88
640.657	21.88
641.417	18.88
642.177	17.88
642.937	15.88
643.697	16.88
644.457	16.88
645.216	15.88
645.976	16.88
646.736	14.88
647.495	14.88
648.255	11.88
649.014	16.88
649.774	14.88
650.533	12.88
651.292	13.88
652.051	12.88
652.81	11.88
653.569	11.88
654.328	14.88
655.087	10.88
655.846	12.88
656.604	14.88
657.363	11.88
658.121	13.88
658.88	11.88
659.638	11.88
660.397	11.88
661.155	8.88
661.913	10.88
662.671	10.88
663.429	10.88
664.187	11.88
664.945	10.88
665.703	10.88
666.46	10.88
667.218	9.88
667.976	10.88
668.733	9.88
669.49	11.88
670.248	10.88
671.005	12.88
671.762	10.88
672.519	9.88
673.276	8.88
674.033	8.88
674.79	8.88
675.547	6.88
676.304	7.88
677.06	8.88
677.817	6.88
678.574	7.88
679.33	7.88
680.086	9.88
680.843	5.88
681.599	8.88
682.355	6.88
683.111	7.88
683.867	6.88
684.623	5.88
685.379	5.88
686.135	6.88
686.89	8.88
687.646	7.88
688.402	4.88
689.157	8.88
689.912	6.88
690.668	6.88
691.423	8.88
692.178	7.88
692.933	8.88
693.688	6.88
694.443	6.88
695.198	8.88
695.953	7.88
696.708	6.88
697.462	6.88
698.217	9.88
698.972	4.88
699.726	8.88
700.48	6.88
701.235	6.88
701.989	8.88
702.743	8.88
703.497	5.88
704.251	6.88
705.005	8.88
705.759	7.88
706.513	7.88
707.266	9.88
708.02	6.88
708.774	7.88
709.527	7.88
710.28	8.88
711.034	8.88
711.787	5.88
712.54	7.88
713.293	6.88
714.046	6.88
714.799	8.88
715.552	6.88
716.305	6.88
717.058	7.88
717.81	9.88
718.563	7.88
719.315	7.88
720.068	8.88
720.82	5.88
721.573	6.88
722.325	9.88
723.077	5.88
723.829	6.88
724.581	6.88
725.333	8.88
726.085	6.88
726.836	7.88
727.588	6.88
728.34	8.88
729.091	9.88
729.843	9.88
730.594	7.88
731.346	6.88
732.097	10.88
732.848	8.88
733.599	10.88
734.35	9.88
735.101	8.88
735.852	9.88
736.603	5.88
737.354	13.88
738.104	9.88
738.855	9.88
739.605	8.88
740.356	6.88
741.106	9.88
741.856	10.88
742.607	9.88
743.357	10.88
744.107	9.88
744.857	10.88
745.607	8.88
746.357	11.88
747.106	8.88
747.856	5.88
748.606	10.88
749.355	9.88
750.105	10.88
750.854	9.88
751.603	11.88
752.353	8.88
753.102	10.88
753.851	9.88
754.6	9.88
755.349	14.88
756.098	10.88
756.847	10.88
757.595	13.88
758.344	10.88
759.093	9.88
759.841	11.88
760.589	11.88
761.338	12.88
762.086	9.88
762.834	11.88
763.582	11.88
764.331	12.88
765.079	11.88
765.826	13.88
766.574	14.88
767.322	12.88
768.07	12.88
768.817	11.88
769.565	12.88
770.312	14.88
771.06	12.88
771.807	14.88
772.554	11.88
773.302	12.88
774.049	12.88
774.796	12.88
775.543	15.88
776.29	15.88
777.036	12.88
777.783	14.88
778.53	14.88
779.276	13.88
780.023	14.88
780.769	14.88
781.516	12.88
782.262	14.88
783.008	13.88
783.754	15.88
784.5	16.88
785.246	17.88
785.992	14.88
786.738	13.88
787.484	14.88
788.23	13.88
788.975	17.88
789.721	12.88
790.466	13.88
791.212	14.88
791.957	13.88
792.702	14.88
793.447	14.88
794.193	13.88
794.938	12.88
795.683	11.88
796.427	14.88
797.172	12.88
797.917	14.88
798.662	12.88
799.406	11.88
800.151	12.88
800.895	7.88
801.64	11.88
802.384	12.88
803.128	9.88
803.872	10.88
804.616	11.88
805.36	9.88
806.104	9.88
806.848	10.88
807.592	10.88
808.336	8.88
809.079	9.88
809.823	9.88
810.566	9.88
811.31	8.88
812.053	11.88
812.796	7.88
813.539	7.88
814.283	7.88
815.026	8.88
815.769	7.88
816.511	8.88
817.254	8.88
817.997	10.88
818.74	8.88
819.482	6.88
820.225	7.88
820.967	9.88
821.71	7.88
822.452	6.88
823.194	5.88
823.936	8.88
824.678	8.88
825.42	5.88
826.162	6.88
826.904	6.88
827.646	8.88
828.388	7.88
829.129	4.88
829.871	5.88
830.612	4.88
831.354	4.88
832.095	4.88
832.836	6.88
833.577	7.88
834.319	5.88
835.06	5.88
835.801	6.88
836.542	5.88
837.282	4.88
838.023	5.88
838.764	5.88
839.504	5.88
840.245	4.88
840.985	5.88
841.726	7.88
842.466	5.88
843.206	3.88
843.946	5.88
844.687	4.88
845.427	4.88
846.166	4.88
846.906	4.88
847.646	5.88
848.386	2.88
849.125	2.88
849.865	5.88
850.605	4.88
851.344	5.88
852.083	4.88
852.823	5.88
853.562	2.88
854.301	3.88
855.04	0.88
855.779	4.88
856.518	4.88
857.257	1.88
857.995	5.88
858.734	0.88
859.473	5.88
860.211	3.88
860.95	3.88
861.688	2.88
862.426	2.88
863.165	1.88
863.903	3.88
864.641	-0.12
865.379	2.88
866.117	3.88
866.855	2.88
867.593	2.88
868.33	4.88
869.068	3.88
869.806	0.88
870.543	-0.12
871.28	1.88
872.018	2.88
872.755	3.88
873.492	3.88
874.229	2.88
874.967	0.88
875.703	3.88
876.44	-1.12
877.177	-0.12
877.914	0.88
878.651	1.88
879.387	2.88
880.124	1.88
880.86	3.88
881.597	2.88
882.333	1.88
883.069	1.88
883.806	0.88
884.542	2.88
885.278	0.88
886.014	2.88
886.749	1.88
887.485	1.88
888.221	-0.12
888.957	1.88
889.692	0.88
890.428	-0.12
891.163	1.88
891.899	2.88
892.634	0.88
893.369	1.88
894.104	-0.12
894.839	1.88
895.574	0.88
896.309	0.88
897.044	0.88
897.779	1.88
898.514	1.88
899.248	0.88
899.983	0.88
900.717	0.88
901.452	1.88
902.186	2.88
902.92	0.88
903.654	2.88
904.389	1.88
905.123	-0.12
905.857	2.88
906.59	1.88
907.324	0.88
908.058	-0.12
908.792	2.88
909.525	-0.12
910.259	0.88
910.992	2.88
911.726	1.88
912.459	0.88
913.192	-1.12
913.925	0.88
914.658	0.88
915.391	0.88
916.124	1.88
916.857	0.88
917.59	-0.12
918.323	1.88
919.055	-1.12
919.788	-1.12
920.521	-1.12
921.253	1.88
921.985	-0.12
922.718	0.88
923.45	-0.12
924.182	0.88
924.914	-0.12
925.646	-1.12
926.378	2.88
927.11	-0.12
927.841	-0.12
928.573	1.88
929.305	-1.12
930.036	-1.12
930.768	1.88
931.499	-0.12
932.23	0.88
932.962	0.88
933.693	-0.12
934.424	0.88
935.155	1.88
935.886	-0.12
936.617	-0.12
937.348	-0.12
938.078	0.88
938.809	-1.12
939.54	-2.12
940.27	1.88
941.001	-3.12
941.731	0.88
942.461	0.88
943.191	-3.12
943.922	1.88
944.652	1.88
945.382	-0.12
946.112	-1.12
946.841	-0.12
947.571	1.88
948.301	1.88
949.031	0.88
949.76	-2.12
950.49	-1.12
951.219	-1.12
951.948	-0.12
952.678	0.88
953.407	0.88
954.136	0.88
954.865	-1.12
955.594	0.88
956.323	-0.12
957.052	0.88
957.78	2.88
958.509	-1.12
959.238	-0.12
959.966	-2.12
960.695	1.88
961.423	0.88
962.151	-1.12
962.88	1.88
963.608	0.88
964.336	-0.12
965.064	-0.12
965.792	-0.12
966.52	0.88
967.247	-0.12
967.975	0.88
968.703	0.88
969.43	-1.12
970.158	-0.12
970.885	0.88
971.613	1.88
972.34	0.88
973.067	-3.12
973.794	-0.12
974.521	-0.12
975.248	2.88
975.975	-0.12
976.702	1.88
977.429	0.88
978.156	-2.12
978.882	-0.12
979.609	-0.12
980.335	2.88
981.062	0.88
981.788	-0.12
982.514	-1.12
983.24	-2.12
983.967	1.88
984.693	0.88
985.419	0.88
986.144	-1.12
986.87	-1.12
987.596	0.88
988.322	0.88
989.047	0.88
989.773	-0.12
990.498	0.88
991.224	0.88
991.949	0.88
992.674	0.88
993.399	-0.12
994.124	0.88
994.849	-1.12
995.574	-1.12
996.299	-3.12
997.024	-0.12
997.749	1.88
998.473	-0.12
999.198	0.88
999.922	-0.12
1000.647	-0.12
1001.371	2.88
1002.095	-2.12
1002.82	0.88
1003.544	-0.12
1004.268	6.88
1004.992	2.88
1005.716	3.88
1006.439	5.88
1007.163	6.88
1007.887	7.88
1008.611	-0.12
1009.334	-0.12
1010.058	0.88
1010.781	-1.12
1011.504	1.88
1012.228	-2.12
1012.951	0.88
1013.674	-0.12
1014.397	-1.12
1015.12	-1.12
