节点500_705_QEPB04081__318__20-50-29-482.txt的数据

Date: Wed Nov 12 20:50:29 CST 2025
User: PC
Spectrometer: QEPB0408
触发模式: 0
积分时间 (秒): 1.000000E-2
Scans to average: 1
启用暗噪声校正: true
启用非线性校正: false
滑动平均宽度: 0
X轴模式: Wavelengths
Number of Pixels in Spectrum: 1044
>>>>>Begin Spectral Data<<<<<
220.843	5.5
221.644	5.5
222.444	4.5
223.244	2.5
224.045	5.5
224.845	6.5
225.645	6.5
226.445	7.5
227.245	5.5
228.045	6.5
228.845	8.5
229.645	8.5
230.444	5.5
231.244	6.5
232.043	8.5
232.843	7.5
233.642	7.5
234.442	7.5
235.241	8.5
236.04	12.5
236.839	12.5
237.638	12.5
238.437	10.5
239.236	12.5
240.035	11.5
240.833	11.5
241.632	12.5
242.43	10.5
243.229	10.5
244.027	12.5
244.826	13.5
245.624	11.5
246.422	13.5
247.22	13.5
248.018	13.5
248.816	13.5
249.614	14.5
250.412	14.5
251.21	19.5
252.007	15.5
252.805	16.5
253.602	18.5
254.4	17.5
255.197	20.5
255.994	21.5
256.791	16.5
257.589	21.5
258.386	19.5
259.183	21.5
259.979	21.5
260.776	22.5
261.573	23.5
262.37	21.5
263.166	22.5
263.963	24.5
264.759	27.5
265.556	26.5
266.352	25.5
267.148	30.5
267.944	27.5
268.74	28.5
269.536	30.5
270.332	31.5
271.128	32.5
271.924	32.5
272.719	33.5
273.515	31.5
274.311	29.5
275.106	28.5
275.901	32.5
276.697	34.5
277.492	28.5
278.287	33.5
279.082	32.5
279.877	32.5
280.672	34.5
281.467	31.5
282.262	35.5
283.056	32.5
283.851	39.5
284.646	34.5
285.44	34.5
286.234	30.5
287.029	30.5
287.823	33.5
288.617	29.5
289.411	30.5
290.205	31.5
290.999	29.5
291.793	33.5
292.587	29.5
293.381	28.5
294.174	27.5
294.968	28.5
295.761	26.5
296.555	25.5
297.348	27.5
298.141	26.5
298.935	28.5
299.728	26.5
300.521	24.5
301.314	24.5
302.107	24.5
302.899	23.5
303.692	23.5
304.485	20.5
305.277	24.5
306.07	23.5
306.862	21.5
307.655	20.5
308.447	20.5
309.239	18.5
310.031	18.5
310.823	19.5
311.615	17.5
312.407	18.5
313.199	15.5
313.991	15.5
314.783	16.5
315.574	12.5
316.366	15.5
317.157	17.5
317.949	16.5
318.74	13.5
319.531	12.5
320.322	13.5
321.113	15.5
321.904	12.5
322.695	13.5
323.486	11.5
324.277	13.5
325.068	10.5
325.858	13.5
326.649	12.5
327.439	13.5
328.23	11.5
329.02	12.5
329.81	11.5
330.6	13.5
331.391	13.5
332.181	11.5
332.971	9.5
333.76	12.5
334.55	9.5
335.34	9.5
336.13	12.5
336.919	10.5
337.709	9.5
338.498	10.5
339.287	9.5
340.077	10.5
340.866	12.5
341.655	10.5
342.444	12.5
343.233	9.5
344.022	10.5
344.811	8.5
345.6	8.5
346.388	10.5
347.177	9.5
347.965	10.5
348.754	10.5
349.542	9.5
350.33	12.5
351.119	10.5
351.907	11.5
352.695	9.5
353.483	8.5
354.271	10.5
355.059	12.5
355.846	10.5
356.634	9.5
357.422	9.5
358.209	8.5
358.997	9.5
359.784	10.5
360.571	8.5
361.359	8.5
362.146	8.5
362.933	7.5
363.72	7.5
364.507	8.5
365.294	9.5
366.081	8.5
366.867	9.5
367.654	8.5
368.44	9.5
369.227	10.5
370.013	7.5
370.8	10.5
371.586	10.5
372.372	9.5
373.158	7.5
373.944	8.5
374.73	9.5
375.516	8.5
376.302	8.5
377.088	8.5
377.873	8.5
378.659	8.5
379.445	9.5
380.23	8.5
381.015	10.5
381.801	9.5
382.586	9.5
383.371	10.5
384.156	11.5
384.941	11.5
385.726	10.5
386.511	9.5
387.296	9.5
388.08	11.5
388.865	8.5
389.649	12.5
390.434	10.5
391.218	10.5
392.003	11.5
392.787	10.5
393.571	11.5
394.355	10.5
395.139	13.5
395.923	11.5
396.707	12.5
397.491	13.5
398.274	12.5
399.058	12.5
399.842	10.5
400.625	15.5
401.408	11.5
402.192	12.5
402.975	14.5
403.758	15.5
404.541	10.5
405.324	13.5
406.107	13.5
406.89	16.5
407.673	17.5
408.456	15.5
409.238	16.5
410.021	13.5
410.803	17.5
411.586	16.5
412.368	17.5
413.151	15.5
413.933	19.5
414.715	19.5
415.497	17.5
416.279	16.5
417.061	17.5
417.843	20.5
418.624	20.5
419.406	18.5
420.188	20.5
420.969	19.5
421.751	21.5
422.532	23.5
423.313	20.5
424.095	20.5
424.876	22.5
425.657	28.5
426.438	27.5
427.219	25.5
428	28.5
428.78	27.5
429.561	26.5
430.342	29.5
431.122	34.5
431.903	33.5
432.683	32.5
433.464	36.5
434.244	35.5
435.024	40.5
435.804	37.5
436.584	44.5
437.364	45.5
438.144	46.5
438.924	55.5
439.704	53.5
440.483	56.5
441.263	59.5
442.042	64.5
442.822	69.5
443.601	72.5
444.38	83.5
445.16	84.5
445.939	91.5
446.718	100.5
447.497	109.5
448.276	118.5
449.054	132.5
449.833	147.5
450.612	158.5
451.391	177.5
452.169	197.5
452.948	214.5
453.726	238.5
454.504	260.5
455.282	300.5
456.061	326.5
456.839	375.5
457.617	408.5
458.395	443.5
459.172	507.5
459.95	570.5
460.728	637.5
461.506	704.5
462.283	782.5
463.061	876.5
463.838	974.5
464.615	1093.5
465.393	1217.5
466.17	1361.5
466.947	1511.5
467.724	1658.5
468.501	1839.5
469.278	2041.5
470.055	2269.5
470.831	2479.5
471.608	2740.5
472.385	3047.5
473.161	3370.5
473.938	3697.5
474.714	4060.5
475.49	4452.5
476.266	4865.5
477.043	5329.5
477.819	5836.5
478.595	6385.5
479.371	6985.5
480.146	7599.5
480.922	8298.5
481.698	9083.5
482.473	9875.5
483.249	10725.5
484.024	11650.5
484.8	12645.5
485.575	13715.5
486.35	14865.5
487.126	16120.5
487.901	17426.5
488.676	18773.5
489.451	20269.5
490.225	21834.5
491	23351.5
491.775	25017.5
492.55	26754.5
493.324	28553.5
494.099	30329.5
494.873	32115.5
495.647	33855.5
496.422	35651.5
497.196	37437.5
497.97	39203.5
498.744	40615.5
499.518	42281.5
500.292	43686.5
501.066	44679.5
501.839	45593.5
502.613	46327.5
503.387	46911.5
504.16	47348.5
504.934	47405.5
505.707	47273.5
506.48	46966.5
507.253	46463.5
508.027	45656.5
508.8	44743.5
509.573	43735.5
510.346	42697.5
511.118	41539.5
511.891	40316.5
512.664	38756.5
513.437	37297.5
514.209	35833.5
514.982	34545.5
515.754	33083.5
516.526	31775.5
517.298	30536.5
518.071	29229.5
518.843	28095.5
519.615	26987.5
520.387	25908.5
521.159	24922.5
521.93	23837.5
522.702	22858.5
523.474	21936.5
524.245	20986.5
525.017	20051.5
525.788	19195.5
526.56	18357.5
527.331	17515.5
528.102	16657.5
528.873	15844.5
529.644	15098.5
530.415	14422.5
531.186	13714.5
531.957	12961.5
532.728	12300.5
533.498	11644.5
534.269	11042.5
535.039	10390.5
535.81	9897.5
536.58	9308.5
537.351	8830.5
538.121	8394.5
538.891	7938.5
539.661	7505.5
540.431	7093.5
541.201	6743.5
541.971	6362.5
542.741	6013.5
543.51	5737.5
544.28	5458.5
545.05	5195.5
545.819	4942.5
546.588	4713.5
547.358	4483.5
548.127	4276.5
548.896	4062.5
549.665	3841.5
550.434	3641.5
551.203	3431.5
551.972	3258.5
552.741	3098.5
553.51	2928.5
554.278	2767.5
555.047	2603.5
555.815	2460.5
556.584	2319.5
557.352	2197.5
558.121	2069.5
558.889	1961.5
559.657	1856.5
560.425	1760.5
561.193	1672.5
561.961	1573.5
562.729	1485.5
563.496	1397.5
564.264	1328.5
565.032	1259.5
565.799	1181.5
566.567	1113.5
567.334	1069.5
568.101	1007.5
568.869	953.5
569.636	890.5
570.403	858.5
571.17	797.5
571.937	751.5
572.704	708.5
573.471	674.5
574.237	634.5
575.004	602.5
575.771	563.5
576.537	519.5
577.303	494.5
578.07	477.5
578.836	446.5
579.602	426.5
580.368	404.5
581.134	380.5
581.9	368.5
582.666	340.5
583.432	337.5
584.198	310.5
584.964	292.5
585.729	283.5
586.495	266.5
587.26	248.5
588.025	232.5
588.791	227.5
589.556	217.5
590.321	210.5
591.086	191.5
591.851	181.5
592.616	175.5
593.381	167.5
594.146	161.5
594.911	149.5
595.675	146.5
596.44	136.5
597.204	129.5
597.969	128.5
598.733	124.5
599.497	113.5
600.261	110.5
601.025	106.5
601.79	107.5
602.553	98.5
603.317	94.5
604.081	90.5
604.845	86.5
605.609	83.5
606.372	79.5
607.136	76.5
607.899	72.5
608.662	68.5
609.426	68.5
610.189	67.5
610.952	62.5
611.715	58.5
612.478	59.5
613.241	57.5
614.004	55.5
614.767	53.5
615.529	52.5
616.292	48.5
617.055	49.5
617.817	45.5
618.579	43.5
619.342	42.5
620.104	43.5
620.866	37.5
621.628	38.5
622.39	35.5
623.152	37.5
623.914	36.5
624.676	34.5
625.438	34.5
626.199	32.5
626.961	32.5
627.722	30.5
628.484	31.5
629.245	28.5
630.006	27.5
630.768	28.5
631.529	25.5
632.29	22.5
633.051	26.5
633.812	24.5
634.573	20.5
635.333	24.5
636.094	23.5
636.855	21.5
637.615	19.5
638.376	20.5
639.136	21.5
639.896	17.5
640.657	18.5
641.417	19.5
642.177	18.5
642.937	19.5
643.697	17.5
644.457	17.5
645.216	15.5
645.976	15.5
646.736	15.5
647.495	16.5
648.255	13.5
649.014	14.5
649.774	14.5
650.533	14.5
651.292	14.5
652.051	13.5
652.81	13.5
653.569	12.5
654.328	14.5
655.087	12.5
655.846	10.5
656.604	14.5
657.363	12.5
658.121	10.5
658.88	10.5
659.638	9.5
660.397	12.5
661.155	12.5
661.913	11.5
662.671	11.5
663.429	10.5
664.187	9.5
664.945	8.5
665.703	8.5
666.46	8.5
667.218	8.5
667.976	9.5
668.733	8.5
669.49	10.5
670.248	9.5
671.005	8.5
671.762	6.5
672.519	9.5
673.276	10.5
674.033	8.5
674.79	11.5
675.547	8.5
676.304	8.5
677.06	7.5
677.817	7.5
678.574	10.5
679.33	6.5
680.086	6.5
680.843	8.5
681.599	5.5
682.355	7.5
683.111	8.5
683.867	6.5
684.623	7.5
685.379	7.5
686.135	6.5
686.89	6.5
687.646	7.5
688.402	6.5
689.157	8.5
689.912	6.5
690.668	3.5
691.423	4.5
692.178	6.5
692.933	7.5
693.688	7.5
694.443	7.5
695.198	5.5
695.953	9.5
696.708	7.5
697.462	7.5
698.217	7.5
698.972	6.5
699.726	7.5
700.48	6.5
701.235	6.5
701.989	10.5
702.743	6.5
703.497	7.5
704.251	7.5
705.005	7.5
705.759	5.5
706.513	5.5
707.266	6.5
708.02	7.5
708.774	7.5
709.527	7.5
710.28	5.5
711.034	4.5
711.787	5.5
712.54	7.5
713.293	8.5
714.046	6.5
714.799	7.5
715.552	8.5
716.305	6.5
717.058	8.5
717.81	8.5
718.563	10.5
719.315	5.5
720.068	7.5
720.82	7.5
721.573	10.5
722.325	8.5
723.077	8.5
723.829	7.5
724.581	8.5
725.333	10.5
726.085	7.5
726.836	9.5
727.588	7.5
728.34	7.5
729.091	10.5
729.843	9.5
730.594	8.5
731.346	11.5
732.097	6.5
732.848	7.5
733.599	7.5
734.35	8.5
735.101	9.5
735.852	9.5
736.603	10.5
737.354	8.5
738.104	8.5
738.855	6.5
739.605	7.5
740.356	9.5
741.106	8.5
741.856	8.5
742.607	8.5
743.357	8.5
744.107	10.5
744.857	9.5
745.607	8.5
746.357	11.5
747.106	10.5
747.856	11.5
748.606	9.5
749.355	8.5
750.105	12.5
750.854	10.5
751.603	9.5
752.353	10.5
753.102	10.5
753.851	10.5
754.6	10.5
755.349	12.5
756.098	11.5
756.847	8.5
757.595	9.5
758.344	10.5
759.093	11.5
759.841	11.5
760.589	12.5
761.338	12.5
762.086	10.5
762.834	12.5
763.582	12.5
764.331	12.5
765.079	12.5
765.826	12.5
766.574	14.5
767.322	12.5
768.07	13.5
768.817	12.5
769.565	16.5
770.312	15.5
771.06	14.5
771.807	13.5
772.554	10.5
773.302	15.5
774.049	13.5
774.796	15.5
775.543	16.5
776.29	17.5
777.036	18.5
777.783	14.5
778.53	15.5
779.276	14.5
780.023	14.5
780.769	14.5
781.516	16.5
782.262	13.5
783.008	14.5
783.754	15.5
784.5	14.5
785.246	16.5
785.992	16.5
786.738	13.5
787.484	13.5
788.23	14.5
788.975	17.5
789.721	16.5
790.466	13.5
791.212	15.5
791.957	15.5
792.702	11.5
793.447	15.5
794.193	13.5
794.938	14.5
795.683	13.5
796.427	13.5
797.172	12.5
797.917	13.5
798.662	13.5
799.406	11.5
800.151	12.5
800.895	11.5
801.64	10.5
802.384	12.5
803.128	12.5
803.872	9.5
804.616	10.5
805.36	11.5
806.104	12.5
806.848	8.5
807.592	9.5
808.336	9.5
809.079	11.5
809.823	10.5
810.566	9.5
811.31	6.5
812.053	8.5
812.796	8.5
813.539	9.5
814.283	7.5
815.026	7.5
815.769	8.5
816.511	8.5
817.254	6.5
817.997	7.5
818.74	6.5
819.482	4.5
820.225	7.5
820.967	6.5
821.71	6.5
822.452	5.5
823.194	8.5
823.936	5.5
824.678	7.5
825.42	6.5
826.162	6.5
826.904	7.5
827.646	6.5
828.388	6.5
829.129	5.5
829.871	4.5
830.612	6.5
831.354	5.5
832.095	6.5
832.836	5.5
833.577	5.5
834.319	4.5
835.06	4.5
835.801	6.5
836.542	6.5
837.282	6.5
838.023	5.5
838.764	6.5
839.504	6.5
840.245	6.5
840.985	6.5
841.726	5.5
842.466	6.5
843.206	4.5
843.946	4.5
844.687	5.5
845.427	4.5
846.166	3.5
846.906	5.5
847.646	3.5
848.386	5.5
849.125	4.5
849.865	6.5
850.605	4.5
851.344	4.5
852.083	4.5
852.823	2.5
853.562	3.5
854.301	3.5
855.04	5.5
855.779	5.5
856.518	1.5
857.257	5.5
857.995	0.5
858.734	5.5
859.473	3.5
860.211	2.5
860.95	3.5
861.688	2.5
862.426	1.5
863.165	4.5
863.903	2.5
864.641	2.5
865.379	0.5
866.117	3.5
866.855	1.5
867.593	2.5
868.33	2.5
869.068	3.5
869.806	0.5
870.543	1.5
871.28	1.5
872.018	3.5
872.755	2.5
873.492	2.5
874.229	-0.5
874.967	1.5
875.703	-0.5
876.44	4.5
877.177	0.5
877.914	0.5
878.651	1.5
879.387	1.5
880.124	2.5
880.86	0.5
881.597	3.5
882.333	0.5
883.069	0.5
883.806	0.5
884.542	1.5
885.278	1.5
886.014	2.5
886.749	1.5
887.485	0.5
888.221	0.5
888.957	1.5
889.692	-0.5
890.428	1.5
891.163	-1.5
891.899	1.5
892.634	2.5
893.369	0.5
894.104	1.5
894.839	0.5
895.574	0.5
896.309	-0.5
897.044	0.5
897.779	2.5
898.514	1.5
899.248	2.5
899.983	0.5
900.717	2.5
901.452	2.5
902.186	-0.5
902.92	1.5
903.654	-0.5
904.389	0.5
905.123	1.5
905.857	-1.5
906.59	2.5
907.324	-0.5
908.058	1.5
908.792	-0.5
909.525	0.5
910.259	-1.5
910.992	0.5
911.726	0.5
912.459	0.5
913.192	-0.5
913.925	-1.5
914.658	0.5
915.391	0.5
916.124	-1.5
916.857	-1.5
917.59	-1.5
918.323	-1.5
919.055	0.5
919.788	-1.5
920.521	0.5
921.253	0.5
921.985	1.5
922.718	1.5
923.45	-0.5
924.182	-3.5
924.914	-2.5
925.646	-0.5
926.378	-1.5
927.11	0.5
927.841	-1.5
928.573	-1.5
929.305	0.5
930.036	0.5
930.768	0.5
931.499	1.5
932.23	-0.5
932.962	-0.5
933.693	-1.5
934.424	2.5
935.155	0.5
935.886	0.5
936.617	-1.5
937.348	0.5
938.078	0.5
938.809	-0.5
939.54	-0.5
940.27	-0.5
941.001	0.5
941.731	-1.5
942.461	1.5
943.191	0.5
943.922	1.5
944.652	1.5
945.382	2.5
946.112	0.5
946.841	-0.5
947.571	-1.5
948.301	-0.5
949.031	-1.5
949.76	1.5
950.49	0.5
951.219	1.5
951.948	-1.5
952.678	0.5
953.407	-0.5
954.136	-1.5
954.865	0.5
955.594	3.5
956.323	1.5
957.052	0.5
957.78	-0.5
958.509	-0.5
959.238	-1.5
959.966	-1.5
960.695	0.5
961.423	0.5
962.151	0.5
962.88	-1.5
963.608	-0.5
964.336	1.5
965.064	-1.5
965.792	0.5
966.52	1.5
967.247	-1.5
967.975	-0.5
968.703	-2.5
969.43	0.5
970.158	-1.5
970.885	1.5
971.613	0.5
972.34	-1.5
973.067	0.5
973.794	-1.5
974.521	0.5
975.248	1.5
975.975	1.5
976.702	-1.5
977.429	-0.5
978.156	0.5
978.882	1.5
979.609	0.5
980.335	-1.5
981.062	0.5
981.788	0.5
982.514	0.5
983.24	2.5
983.967	-0.5
984.693	-0.5
985.419	1.5
986.144	-1.5
986.87	0.5
987.596	-1.5
988.322	0.5
989.047	-1.5
989.773	0.5
990.498	0.5
991.224	-1.5
991.949	-1.5
992.674	-1.5
993.399	0.5
994.124	-0.5
994.849	-1.5
995.574	-0.5
996.299	-2.5
997.024	1.5
997.749	1.5
998.473	0.5
999.198	0.5
999.922	-0.5
1000.647	1.5
1001.371	2.5
1002.095	0.5
1002.82	0.5
1003.544	-0.5
1004.268	2.5
1004.992	2.5
1005.716	3.5
1006.439	4.5
1007.163	4.5
1007.887	4.5
1008.611	-0.5
1009.334	0.5
1010.058	0.5
1010.781	0.5
1011.504	-1.5
1012.228	0.5
1012.951	0.5
1013.674	-0.5
1014.397	-1.5
1015.12	-1.5
