节点500_705_QEPB04081__96__20-47-29-208.txt的数据

Date: Wed Nov 12 20:47:29 CST 2025
User: PC
Spectrometer: QEPB0408
触发模式: 0
积分时间 (秒): 1.000000E-2
Scans to average: 1
启用暗噪声校正: true
启用非线性校正: false
滑动平均宽度: 0
X轴模式: Wavelengths
Number of Pixels in Spectrum: 1044
>>>>>Begin Spectral Data<<<<<
220.843	3.62
221.644	5.62
222.444	5.62
223.244	5.62
224.045	5.62
224.845	6.62
225.645	7.62
226.445	4.62
227.245	4.62
228.045	7.62
228.845	6.62
229.645	7.62
230.444	7.62
231.244	9.62
232.043	6.62
232.843	10.62
233.642	8.62
234.442	11.62
235.241	9.62
236.04	8.62
236.839	8.62
237.638	11.62
238.437	10.62
239.236	14.62
240.035	10.62
240.833	10.62
241.632	14.62
242.43	13.62
243.229	14.62
244.027	12.62
244.826	12.62
245.624	15.62
246.422	14.62
247.22	15.62
248.018	14.62
248.816	14.62
249.614	14.62
250.412	15.62
251.21	16.62
252.007	16.62
252.805	20.62
253.602	17.62
254.4	18.62
255.197	19.62
255.994	21.62
256.791	21.62
257.589	19.62
258.386	23.62
259.183	22.62
259.979	23.62
260.776	22.62
261.573	24.62
262.37	22.62
263.166	26.62
263.963	28.62
264.759	29.62
265.556	27.62
266.352	28.62
267.148	27.62
267.944	30.62
268.74	31.62
269.536	28.62
270.332	31.62
271.128	30.62
271.924	35.62
272.719	30.62
273.515	34.62
274.311	37.62
275.106	33.62
275.901	34.62
276.697	33.62
277.492	37.62
278.287	36.62
279.082	36.62
279.877	35.62
280.672	35.62
281.467	34.62
282.262	33.62
283.056	36.62
283.851	34.62
284.646	34.62
285.44	34.62
286.234	33.62
287.029	37.62
287.823	35.62
288.617	35.62
289.411	32.62
290.205	31.62
290.999	30.62
291.793	29.62
292.587	34.62
293.381	29.62
294.174	33.62
294.968	30.62
295.761	25.62
296.555	22.62
297.348	26.62
298.141	25.62
298.935	31.62
299.728	26.62
300.521	24.62
301.314	23.62
302.107	24.62
302.899	25.62
303.692	24.62
304.485	22.62
305.277	22.62
306.07	22.62
306.862	20.62
307.655	20.62
308.447	19.62
309.239	19.62
310.031	21.62
310.823	20.62
311.615	20.62
312.407	19.62
313.199	15.62
313.991	17.62
314.783	14.62
315.574	16.62
316.366	15.62
317.157	17.62
317.949	14.62
318.74	12.62
319.531	15.62
320.322	13.62
321.113	12.62
321.904	11.62
322.695	12.62
323.486	13.62
324.277	11.62
325.068	14.62
325.858	13.62
326.649	12.62
327.439	16.62
328.23	12.62
329.02	12.62
329.81	12.62
330.6	11.62
331.391	12.62
332.181	12.62
332.971	13.62
333.76	8.62
334.55	13.62
335.34	10.62
336.13	11.62
336.919	12.62
337.709	12.62
338.498	11.62
339.287	12.62
340.077	11.62
340.866	10.62
341.655	9.62
342.444	12.62
343.233	11.62
344.022	12.62
344.811	11.62
345.6	11.62
346.388	10.62
347.177	14.62
347.965	9.62
348.754	12.62
349.542	11.62
350.33	9.62
351.119	13.62
351.907	10.62
352.695	10.62
353.483	11.62
354.271	11.62
355.059	10.62
355.846	11.62
356.634	7.62
357.422	10.62
358.209	7.62
358.997	9.62
359.784	11.62
360.571	10.62
361.359	10.62
362.146	7.62
362.933	10.62
363.72	8.62
364.507	10.62
365.294	7.62
366.081	9.62
366.867	8.62
367.654	8.62
368.44	8.62
369.227	7.62
370.013	8.62
370.8	9.62
371.586	6.62
372.372	9.62
373.158	9.62
373.944	10.62
374.73	9.62
375.516	9.62
376.302	7.62
377.088	9.62
377.873	9.62
378.659	7.62
379.445	11.62
380.23	8.62
381.015	7.62
381.801	7.62
382.586	10.62
383.371	9.62
384.156	10.62
384.941	10.62
385.726	9.62
386.511	11.62
387.296	10.62
388.08	8.62
388.865	11.62
389.649	10.62
390.434	10.62
391.218	11.62
392.003	13.62
392.787	12.62
393.571	11.62
394.355	16.62
395.139	11.62
395.923	14.62
396.707	11.62
397.491	10.62
398.274	14.62
399.058	13.62
399.842	12.62
400.625	14.62
401.408	12.62
402.192	13.62
402.975	14.62
403.758	13.62
404.541	15.62
405.324	15.62
406.107	15.62
406.89	16.62
407.673	17.62
408.456	14.62
409.238	16.62
410.021	18.62
410.803	17.62
411.586	17.62
412.368	18.62
413.151	15.62
413.933	18.62
414.715	16.62
415.497	17.62
416.279	20.62
417.061	18.62
417.843	16.62
418.624	20.62
419.406	17.62
420.188	21.62
420.969	22.62
421.751	22.62
422.532	26.62
423.313	20.62
424.095	25.62
424.876	24.62
425.657	24.62
426.438	25.62
427.219	25.62
428	26.62
428.78	29.62
429.561	27.62
430.342	29.62
431.122	29.62
431.903	33.62
432.683	34.62
433.464	38.62
434.244	34.62
435.024	39.62
435.804	39.62
436.584	39.62
437.364	47.62
438.144	45.62
438.924	47.62
439.704	51.62
440.483	57.62
441.263	56.62
442.042	60.62
442.822	70.62
443.601	70.62
444.38	76.62
445.16	84.62
445.939	90.62
446.718	101.62
447.497	107.62
448.276	116.62
449.054	122.62
449.833	133.62
450.612	155.62
451.391	164.62
452.169	184.62
452.948	203.62
453.726	224.62
454.504	248.62
455.282	274.62
456.061	309.62
456.839	347.62
457.617	386.62
458.395	427.62
459.172	485.62
459.95	540.62
460.728	603.62
461.506	680.62
462.283	753.62
463.061	840.62
463.838	941.62
464.615	1054.62
465.393	1170.62
466.17	1300.62
466.947	1451.62
467.724	1618.62
468.501	1806.62
469.278	2007.62
470.055	2208.62
470.831	2459.62
471.608	2760.62
472.385	3039.62
473.161	3355.62
473.938	3690.62
474.714	4082.62
475.49	4498.62
476.266	4964.62
477.043	5438.62
477.819	5991.62
478.595	6576.62
479.371	7229.62
480.146	7855.62
480.922	8639.62
481.698	9466.62
482.473	10387.62
483.249	11302.62
484.024	12321.62
484.8	13434.62
485.575	14580.62
486.35	15950.62
487.126	17263.62
487.901	18753.62
488.676	20307.62
489.451	21964.62
490.225	23640.62
491	25335.62
491.775	27331.62
492.55	29163.62
493.324	31085.62
494.099	33033.62
494.873	34896.62
495.647	36886.62
496.422	38868.62
497.196	40693.62
497.97	42358.62
498.744	43989.62
499.518	45554.62
500.292	46920.62
501.066	47832.62
501.839	48582.62
502.613	49213.62
503.387	49607.62
504.16	49892.62
504.934	49699.62
505.707	49337.62
506.48	48679.62
507.253	47904.62
508.027	46916.62
508.8	45699.62
509.573	44390.62
510.346	43170.62
511.118	41872.62
511.891	40436.62
512.664	38778.62
513.437	37198.62
514.209	35647.62
514.982	34206.62
515.754	32704.62
516.526	31367.62
517.298	30095.62
518.071	28908.62
518.843	27655.62
519.615	26480.62
520.387	25516.62
521.159	24516.62
521.93	23457.62
522.702	22422.62
523.474	21473.62
524.245	20536.62
525.017	19638.62
525.788	18754.62
526.56	17933.62
527.331	17129.62
528.102	16251.62
528.873	15405.62
529.644	14642.62
530.415	13928.62
531.186	13198.62
531.957	12521.62
532.728	11855.62
533.498	11212.62
534.269	10591.62
535.039	9997.62
535.81	9470.62
536.58	8928.62
537.351	8427.62
538.121	8048.62
538.891	7606.62
539.661	7172.62
540.431	6753.62
541.201	6420.62
541.971	6089.62
542.741	5770.62
543.51	5487.62
544.28	5213.62
545.05	4998.62
545.819	4741.62
546.588	4488.62
547.358	4297.62
548.127	4079.62
548.896	3867.62
549.665	3659.62
550.434	3472.62
551.203	3264.62
551.972	3111.62
552.741	2937.62
553.51	2779.62
554.278	2625.62
555.047	2469.62
555.815	2328.62
556.584	2221.62
557.352	2081.62
558.121	1968.62
558.889	1855.62
559.657	1750.62
560.425	1660.62
561.193	1569.62
561.961	1496.62
562.729	1415.62
563.496	1317.62
564.264	1251.62
565.032	1192.62
565.799	1116.62
566.567	1064.62
567.334	1001.62
568.101	943.62
568.869	884.62
569.636	846.62
570.403	799.62
571.17	765.62
571.937	718.62
572.704	679.62
573.471	645.62
574.237	597.62
575.004	557.62
575.771	525.62
576.537	496.62
577.303	481.62
578.07	455.62
578.836	415.62
579.602	400.62
580.368	380.62
581.134	355.62
581.9	346.62
582.666	328.62
583.432	320.62
584.198	293.62
584.964	282.62
585.729	264.62
586.495	257.62
587.26	242.62
588.025	222.62
588.791	211.62
589.556	201.62
590.321	194.62
591.086	182.62
591.851	173.62
592.616	164.62
593.381	159.62
594.146	152.62
594.911	147.62
595.675	136.62
596.44	134.62
597.204	124.62
597.969	119.62
598.733	117.62
599.497	113.62
600.261	107.62
601.025	103.62
601.79	100.62
602.553	98.62
603.317	94.62
604.081	86.62
604.845	80.62
605.609	81.62
606.372	78.62
607.136	71.62
607.899	72.62
608.662	67.62
609.426	66.62
610.189	60.62
610.952	60.62
611.715	56.62
612.478	58.62
613.241	56.62
614.004	51.62
614.767	53.62
615.529	48.62
616.292	49.62
617.055	47.62
617.817	44.62
618.579	44.62
619.342	42.62
620.104	39.62
620.866	38.62
621.628	36.62
622.39	34.62
623.152	31.62
623.914	35.62
624.676	32.62
625.438	33.62
626.199	30.62
626.961	31.62
627.722	29.62
628.484	27.62
629.245	27.62
630.006	26.62
630.768	25.62
631.529	26.62
632.29	20.62
633.051	22.62
633.812	23.62
634.573	22.62
635.333	22.62
636.094	24.62
636.855	22.62
637.615	19.62
638.376	21.62
639.136	21.62
639.896	18.62
640.657	20.62
641.417	17.62
642.177	19.62
642.937	16.62
643.697	16.62
644.457	17.62
645.216	17.62
645.976	15.62
646.736	14.62
647.495	14.62
648.255	16.62
649.014	12.62
649.774	15.62
650.533	16.62
651.292	14.62
652.051	13.62
652.81	12.62
653.569	13.62
654.328	12.62
655.087	14.62
655.846	11.62
656.604	12.62
657.363	12.62
658.121	12.62
658.88	14.62
659.638	10.62
660.397	10.62
661.155	10.62
661.913	9.62
662.671	10.62
663.429	11.62
664.187	9.62
664.945	7.62
665.703	11.62
666.46	11.62
667.218	9.62
667.976	9.62
668.733	8.62
669.49	10.62
670.248	10.62
671.005	10.62
671.762	9.62
672.519	8.62
673.276	10.62
674.033	8.62
674.79	9.62
675.547	7.62
676.304	6.62
677.06	8.62
677.817	9.62
678.574	7.62
679.33	9.62
680.086	9.62
680.843	7.62
681.599	7.62
682.355	5.62
683.111	11.62
683.867	7.62
684.623	8.62
685.379	8.62
686.135	8.62
686.89	6.62
687.646	6.62
688.402	8.62
689.157	8.62
689.912	5.62
690.668	11.62
691.423	7.62
692.178	8.62
692.933	7.62
693.688	6.62
694.443	6.62
695.198	7.62
695.953	7.62
696.708	6.62
697.462	5.62
698.217	8.62
698.972	6.62
699.726	7.62
700.48	7.62
701.235	7.62
701.989	6.62
702.743	6.62
703.497	6.62
704.251	8.62
705.005	7.62
705.759	8.62
706.513	6.62
707.266	7.62
708.02	7.62
708.774	7.62
709.527	8.62
710.28	9.62
711.034	9.62
711.787	7.62
712.54	7.62
713.293	4.62
714.046	7.62
714.799	8.62
715.552	9.62
716.305	7.62
717.058	6.62
717.81	8.62
718.563	6.62
719.315	9.62
720.068	7.62
720.82	6.62
721.573	8.62
722.325	8.62
723.077	8.62
723.829	6.62
724.581	8.62
725.333	6.62
726.085	5.62
726.836	8.62
727.588	9.62
728.34	8.62
729.091	8.62
729.843	7.62
730.594	11.62
731.346	5.62
732.097	8.62
732.848	10.62
733.599	9.62
734.35	10.62
735.101	7.62
735.852	10.62
736.603	9.62
737.354	10.62
738.104	8.62
738.855	11.62
739.605	9.62
740.356	7.62
741.106	12.62
741.856	7.62
742.607	9.62
743.357	11.62
744.107	10.62
744.857	9.62
745.607	10.62
746.357	10.62
747.106	10.62
747.856	10.62
748.606	10.62
749.355	8.62
750.105	10.62
750.854	13.62
751.603	10.62
752.353	10.62
753.102	11.62
753.851	13.62
754.6	10.62
755.349	11.62
756.098	9.62
756.847	14.62
757.595	13.62
758.344	14.62
759.093	12.62
759.841	14.62
760.589	13.62
761.338	11.62
762.086	16.62
762.834	14.62
763.582	10.62
764.331	12.62
765.079	12.62
765.826	13.62
766.574	14.62
767.322	13.62
768.07	14.62
768.817	12.62
769.565	16.62
770.312	11.62
771.06	16.62
771.807	15.62
772.554	13.62
773.302	17.62
774.049	14.62
774.796	14.62
775.543	15.62
776.29	15.62
777.036	14.62
777.783	17.62
778.53	16.62
779.276	14.62
780.023	17.62
780.769	14.62
781.516	15.62
782.262	15.62
783.008	17.62
783.754	16.62
784.5	17.62
785.246	14.62
785.992	18.62
786.738	12.62
787.484	17.62
788.23	18.62
788.975	14.62
789.721	14.62
790.466	17.62
791.212	17.62
791.957	14.62
792.702	14.62
793.447	12.62
794.193	14.62
794.938	14.62
795.683	15.62
796.427	13.62
797.172	12.62
797.917	12.62
798.662	12.62
799.406	11.62
800.151	12.62
800.895	10.62
801.64	11.62
802.384	12.62
803.128	13.62
803.872	9.62
804.616	11.62
805.36	10.62
806.104	9.62
806.848	10.62
807.592	10.62
808.336	6.62
809.079	8.62
809.823	10.62
810.566	10.62
811.31	9.62
812.053	8.62
812.796	7.62
813.539	8.62
814.283	8.62
815.026	6.62
815.769	8.62
816.511	7.62
817.254	10.62
817.997	5.62
818.74	5.62
819.482	8.62
820.225	7.62
820.967	5.62
821.71	7.62
822.452	6.62
823.194	8.62
823.936	6.62
824.678	8.62
825.42	7.62
826.162	6.62
826.904	5.62
827.646	6.62
828.388	6.62
829.129	4.62
829.871	5.62
830.612	6.62
831.354	6.62
832.095	9.62
832.836	5.62
833.577	6.62
834.319	6.62
835.06	7.62
835.801	5.62
836.542	5.62
837.282	7.62
838.023	1.62
838.764	4.62
839.504	4.62
840.245	4.62
840.985	4.62
841.726	5.62
842.466	6.62
843.206	4.62
843.946	6.62
844.687	5.62
845.427	4.62
846.166	4.62
846.906	5.62
847.646	2.62
848.386	3.62
849.125	6.62
849.865	5.62
850.605	2.62
851.344	4.62
852.083	4.62
852.823	4.62
853.562	5.62
854.301	3.62
855.04	4.62
855.779	4.62
856.518	3.62
857.257	2.62
857.995	3.62
858.734	2.62
859.473	3.62
860.211	3.62
860.95	0.62
861.688	4.62
862.426	2.62
863.165	2.62
863.903	3.62
864.641	2.62
865.379	0.62
866.117	2.62
866.855	3.62
867.593	1.62
868.33	1.62
869.068	4.62
869.806	0.62
870.543	3.62
871.28	1.62
872.018	3.62
872.755	0.62
873.492	1.62
874.229	3.62
874.967	2.62
875.703	1.62
876.44	1.62
877.177	3.62
877.914	1.62
878.651	0.62
879.387	1.62
880.124	1.62
880.86	2.62
881.597	0.62
882.333	1.62
883.069	-1.38
883.806	3.62
884.542	2.62
885.278	0.62
886.014	1.62
886.749	-0.38
887.485	0.62
888.221	1.62
888.957	0.62
889.692	0.62
890.428	-0.38
891.163	1.62
891.899	0.62
892.634	2.62
893.369	1.62
894.104	0.62
894.839	2.62
895.574	1.62
896.309	3.62
897.044	2.62
897.779	0.62
898.514	1.62
899.248	0.62
899.983	1.62
900.717	-1.38
901.452	0.62
902.186	-0.38
902.92	0.62
903.654	-1.38
904.389	-0.38
905.123	0.62
905.857	0.62
906.59	1.62
907.324	2.62
908.058	0.62
908.792	0.62
909.525	-0.38
910.259	0.62
910.992	0.62
911.726	-1.38
912.459	0.62
913.192	0.62
913.925	1.62
914.658	2.62
915.391	0.62
916.124	-1.38
916.857	-1.38
917.59	2.62
918.323	1.62
919.055	-0.38
919.788	-0.38
920.521	-0.38
921.253	1.62
921.985	0.62
922.718	0.62
923.45	-1.38
924.182	0.62
924.914	2.62
925.646	-1.38
926.378	0.62
927.11	-1.38
927.841	-0.38
928.573	-1.38
929.305	0.62
930.036	0.62
930.768	0.62
931.499	-0.38
932.23	0.62
932.962	2.62
933.693	1.62
934.424	-2.38
935.155	-0.38
935.886	0.62
936.617	0.62
937.348	0.62
938.078	-2.38
938.809	1.62
939.54	-0.38
940.27	-0.38
941.001	1.62
941.731	2.62
942.461	0.62
943.191	-1.38
943.922	0.62
944.652	-0.38
945.382	-0.38
946.112	0.62
946.841	-0.38
947.571	1.62
948.301	-0.38
949.031	-2.38
949.76	-0.38
950.49	0.62
951.219	-0.38
951.948	-1.38
952.678	0.62
953.407	0.62
954.136	-0.38
954.865	-0.38
955.594	-0.38
956.323	-0.38
957.052	-3.38
957.78	-0.38
958.509	0.62
959.238	-2.38
959.966	0.62
960.695	-0.38
961.423	0.62
962.151	-0.38
962.88	2.62
963.608	0.62
964.336	-1.38
965.064	-1.38
965.792	-1.38
966.52	-0.38
967.247	-1.38
967.975	0.62
968.703	0.62
969.43	-0.38
970.158	0.62
970.885	-1.38
971.613	1.62
972.34	-0.38
973.067	0.62
973.794	1.62
974.521	0.62
975.248	-1.38
975.975	0.62
976.702	1.62
977.429	-0.38
978.156	-0.38
978.882	-1.38
979.609	-2.38
980.335	1.62
981.062	0.62
981.788	-0.38
982.514	-0.38
983.24	-1.38
983.967	-0.38
984.693	0.62
985.419	-0.38
986.144	2.62
986.87	-0.38
987.596	0.62
988.322	-2.38
989.047	-0.38
989.773	1.62
990.498	-1.38
991.224	-1.38
991.949	0.62
992.674	-0.38
993.399	-1.38
994.124	-0.38
994.849	-1.38
995.574	1.62
996.299	1.62
997.024	-1.38
997.749	0.62
998.473	0.62
999.198	0.62
999.922	-3.38
1000.647	0.62
1001.371	3.62
1002.095	-1.38
1002.82	-2.38
1003.544	1.62
1004.268	4.62
1004.992	3.62
1005.716	3.62
1006.439	5.62
1007.163	5.62
1007.887	4.62
1008.611	-0.38
1009.334	-0.38
1010.058	0.62
1010.781	-0.38
1011.504	-0.38
1012.228	1.62
1012.951	-2.38
1013.674	0.62
1014.397	-0.38
1015.12	0.62
