节点500_705_QEPB04081__640__20-55-01-819.txt的数据

Date: Wed Nov 12 20:55:01 CST 2025
User: PC
Spectrometer: QEPB0408
触发模式: 0
积分时间 (秒): 1.000000E-2
Scans to average: 1
启用暗噪声校正: true
启用非线性校正: false
滑动平均宽度: 0
X轴模式: Wavelengths
Number of Pixels in Spectrum: 1044
>>>>>Begin Spectral Data<<<<<
220.843	4.62
221.644	3.62
222.444	5.62
223.244	6.62
224.045	6.62
224.845	5.62
225.645	6.62
226.445	5.62
227.245	6.62
228.045	7.62
228.845	8.62
229.645	7.62
230.444	8.62
231.244	7.62
232.043	10.62
232.843	8.62
233.642	7.62
234.442	9.62
235.241	8.62
236.04	10.62
236.839	10.62
237.638	7.62
238.437	10.62
239.236	10.62
240.035	8.62
240.833	9.62
241.632	8.62
242.43	12.62
243.229	11.62
244.027	11.62
244.826	9.62
245.624	10.62
246.422	11.62
247.22	14.62
248.018	14.62
248.816	16.62
249.614	10.62
250.412	14.62
251.21	15.62
252.007	13.62
252.805	16.62
253.602	15.62
254.4	17.62
255.197	17.62
255.994	17.62
256.791	18.62
257.589	20.62
258.386	21.62
259.183	17.62
259.979	19.62
260.776	21.62
261.573	20.62
262.37	27.62
263.166	20.62
263.963	22.62
264.759	27.62
265.556	22.62
266.352	25.62
267.148	24.62
267.944	24.62
268.74	23.62
269.536	24.62
270.332	26.62
271.128	25.62
271.924	28.62
272.719	26.62
273.515	28.62
274.311	29.62
275.106	26.62
275.901	28.62
276.697	32.62
277.492	32.62
278.287	30.62
279.082	31.62
279.877	30.62
280.672	32.62
281.467	34.62
282.262	32.62
283.056	32.62
283.851	32.62
284.646	29.62
285.44	29.62
286.234	29.62
287.029	34.62
287.823	32.62
288.617	32.62
289.411	30.62
290.205	29.62
290.999	27.62
291.793	32.62
292.587	29.62
293.381	33.62
294.174	28.62
294.968	25.62
295.761	27.62
296.555	28.62
297.348	26.62
298.141	26.62
298.935	28.62
299.728	25.62
300.521	25.62
301.314	22.62
302.107	27.62
302.899	21.62
303.692	20.62
304.485	21.62
305.277	20.62
306.07	24.62
306.862	22.62
307.655	18.62
308.447	20.62
309.239	18.62
310.031	19.62
310.823	18.62
311.615	19.62
312.407	16.62
313.199	15.62
313.991	17.62
314.783	15.62
315.574	16.62
316.366	16.62
317.157	14.62
317.949	14.62
318.74	14.62
319.531	14.62
320.322	16.62
321.113	14.62
321.904	14.62
322.695	13.62
323.486	15.62
324.277	13.62
325.068	12.62
325.858	11.62
326.649	13.62
327.439	13.62
328.23	10.62
329.02	13.62
329.81	10.62
330.6	12.62
331.391	12.62
332.181	11.62
332.971	9.62
333.76	10.62
334.55	12.62
335.34	10.62
336.13	13.62
336.919	13.62
337.709	13.62
338.498	10.62
339.287	10.62
340.077	12.62
340.866	12.62
341.655	10.62
342.444	11.62
343.233	12.62
344.022	12.62
344.811	10.62
345.6	11.62
346.388	10.62
347.177	11.62
347.965	10.62
348.754	10.62
349.542	11.62
350.33	9.62
351.119	10.62
351.907	10.62
352.695	7.62
353.483	12.62
354.271	11.62
355.059	10.62
355.846	9.62
356.634	10.62
357.422	9.62
358.209	9.62
358.997	10.62
359.784	10.62
360.571	10.62
361.359	9.62
362.146	10.62
362.933	8.62
363.72	5.62
364.507	8.62
365.294	8.62
366.081	7.62
366.867	9.62
367.654	7.62
368.44	10.62
369.227	10.62
370.013	8.62
370.8	7.62
371.586	8.62
372.372	7.62
373.158	7.62
373.944	10.62
374.73	10.62
375.516	8.62
376.302	8.62
377.088	10.62
377.873	8.62
378.659	8.62
379.445	7.62
380.23	7.62
381.015	9.62
381.801	10.62
382.586	7.62
383.371	8.62
384.156	7.62
384.941	8.62
385.726	11.62
386.511	9.62
387.296	10.62
388.08	11.62
388.865	10.62
389.649	9.62
390.434	9.62
391.218	11.62
392.003	10.62
392.787	11.62
393.571	11.62
394.355	14.62
395.139	10.62
395.923	10.62
396.707	14.62
397.491	9.62
398.274	12.62
399.058	10.62
399.842	13.62
400.625	12.62
401.408	13.62
402.192	12.62
402.975	11.62
403.758	10.62
404.541	12.62
405.324	12.62
406.107	13.62
406.89	14.62
407.673	12.62
408.456	13.62
409.238	14.62
410.021	17.62
410.803	14.62
411.586	17.62
412.368	14.62
413.151	14.62
413.933	18.62
414.715	16.62
415.497	17.62
416.279	14.62
417.061	18.62
417.843	19.62
418.624	19.62
419.406	17.62
420.188	18.62
420.969	20.62
421.751	21.62
422.532	23.62
423.313	22.62
424.095	24.62
424.876	22.62
425.657	22.62
426.438	24.62
427.219	24.62
428	26.62
428.78	26.62
429.561	27.62
430.342	26.62
431.122	29.62
431.903	30.62
432.683	34.62
433.464	35.62
434.244	34.62
435.024	38.62
435.804	40.62
436.584	44.62
437.364	43.62
438.144	48.62
438.924	51.62
439.704	54.62
440.483	57.62
441.263	62.62
442.042	67.62
442.822	74.62
443.601	75.62
444.38	86.62
445.16	91.62
445.939	101.62
446.718	105.62
447.497	115.62
448.276	132.62
449.054	145.62
449.833	153.62
450.612	170.62
451.391	186.62
452.169	215.62
452.948	236.62
453.726	264.62
454.504	286.62
455.282	318.62
456.061	356.62
456.839	394.62
457.617	452.62
458.395	495.62
459.172	548.62
459.95	603.62
460.728	677.62
461.506	748.62
462.283	824.62
463.061	917.62
463.838	1016.62
464.615	1134.62
465.393	1257.62
466.17	1382.62
466.947	1544.62
467.724	1703.62
468.501	1877.62
469.278	2073.62
470.055	2278.62
470.831	2516.62
471.608	2766.62
472.385	3005.62
473.161	3297.62
473.938	3618.62
474.714	3979.62
475.49	4330.62
476.266	4711.62
477.043	5122.62
477.819	5584.62
478.595	6064.62
479.371	6586.62
480.146	7144.62
480.922	7757.62
481.698	8379.62
482.473	9114.62
483.249	9897.62
484.024	10613.62
484.8	11476.62
485.575	12352.62
486.35	13353.62
487.126	14388.62
487.901	15468.62
488.676	16639.62
489.451	17865.62
490.225	19177.62
491	20465.62
491.775	21905.62
492.55	23380.62
493.324	24852.62
494.099	26451.62
494.873	27982.62
495.647	29481.62
496.422	31085.62
497.196	32719.62
497.97	34261.62
498.744	35709.62
499.518	37217.62
500.292	38547.62
501.066	39679.62
501.839	40632.62
502.613	41543.62
503.387	42350.62
504.16	43059.62
504.934	43407.62
505.707	43684.62
506.48	43623.62
507.253	43500.62
508.027	43302.62
508.8	42599.62
509.573	41856.62
510.346	41197.62
511.118	40469.62
511.891	39475.62
512.664	38210.62
513.437	36963.62
514.209	35705.62
514.982	34544.62
515.754	33257.62
516.526	32025.62
517.298	30807.62
518.071	29620.62
518.843	28466.62
519.615	27362.62
520.387	26300.62
521.159	25309.62
521.93	24205.62
522.702	23304.62
523.474	22311.62
524.245	21446.62
525.017	20571.62
525.788	19683.62
526.56	18927.62
527.331	18118.62
528.102	17166.62
528.873	16391.62
529.644	15678.62
530.415	15037.62
531.186	14330.62
531.957	13547.62
532.728	12871.62
533.498	12292.62
534.269	11624.62
535.039	11018.62
535.81	10437.62
536.58	9898.62
537.351	9377.62
538.121	8916.62
538.891	8446.62
539.661	7945.62
540.431	7502.62
541.201	7134.62
541.971	6748.62
542.741	6411.62
543.51	6056.62
544.28	5760.62
545.05	5500.62
545.819	5257.62
546.588	5025.62
547.358	4781.62
548.127	4542.62
548.896	4330.62
549.665	4104.62
550.434	3907.62
551.203	3702.62
551.972	3505.62
552.741	3316.62
553.51	3157.62
554.278	2971.62
555.047	2802.62
555.815	2675.62
556.584	2519.62
557.352	2383.62
558.121	2255.62
558.889	2109.62
559.657	2026.62
560.425	1906.62
561.193	1801.62
561.961	1714.62
562.729	1614.62
563.496	1521.62
564.264	1442.62
565.032	1367.62
565.799	1274.62
566.567	1218.62
567.334	1160.62
568.101	1097.62
568.869	1042.62
569.636	986.62
570.403	912.62
571.17	864.62
571.937	820.62
572.704	786.62
573.471	728.62
574.237	682.62
575.004	648.62
575.771	606.62
576.537	582.62
577.303	555.62
578.07	517.62
578.836	485.62
579.602	459.62
580.368	444.62
581.134	418.62
581.9	399.62
582.666	381.62
583.432	359.62
584.198	343.62
584.964	326.62
585.729	299.62
586.495	287.62
587.26	273.62
588.025	259.62
588.791	247.62
589.556	233.62
590.321	224.62
591.086	207.62
591.851	197.62
592.616	194.62
593.381	182.62
594.146	170.62
594.911	171.62
595.675	155.62
596.44	157.62
597.204	144.62
597.969	140.62
598.733	131.62
599.497	122.62
600.261	120.62
601.025	112.62
601.79	108.62
602.553	103.62
603.317	100.62
604.081	100.62
604.845	89.62
605.609	89.62
606.372	85.62
607.136	86.62
607.899	76.62
608.662	74.62
609.426	75.62
610.189	70.62
610.952	69.62
611.715	67.62
612.478	61.62
613.241	62.62
614.004	56.62
614.767	58.62
615.529	55.62
616.292	50.62
617.055	50.62
617.817	46.62
618.579	44.62
619.342	46.62
620.104	43.62
620.866	43.62
621.628	41.62
622.39	40.62
623.152	37.62
623.914	39.62
624.676	38.62
625.438	35.62
626.199	31.62
626.961	29.62
627.722	30.62
628.484	29.62
629.245	27.62
630.006	28.62
630.768	27.62
631.529	27.62
632.29	27.62
633.051	25.62
633.812	25.62
634.573	24.62
635.333	23.62
636.094	22.62
636.855	19.62
637.615	21.62
638.376	20.62
639.136	21.62
639.896	18.62
640.657	19.62
641.417	18.62
642.177	19.62
642.937	17.62
643.697	17.62
644.457	18.62
645.216	13.62
645.976	16.62
646.736	15.62
647.495	14.62
648.255	15.62
649.014	16.62
649.774	13.62
650.533	14.62
651.292	13.62
652.051	13.62
652.81	13.62
653.569	13.62
654.328	12.62
655.087	13.62
655.846	12.62
656.604	12.62
657.363	11.62
658.121	12.62
658.88	10.62
659.638	11.62
660.397	11.62
661.155	11.62
661.913	10.62
662.671	9.62
663.429	10.62
664.187	11.62
664.945	10.62
665.703	10.62
666.46	8.62
667.218	9.62
667.976	9.62
668.733	10.62
669.49	9.62
670.248	9.62
671.005	9.62
671.762	8.62
672.519	9.62
673.276	9.62
674.033	9.62
674.79	6.62
675.547	7.62
676.304	10.62
677.06	6.62
677.817	8.62
678.574	5.62
679.33	6.62
680.086	8.62
680.843	8.62
681.599	8.62
682.355	6.62
683.111	8.62
683.867	9.62
684.623	7.62
685.379	10.62
686.135	9.62
686.89	9.62
687.646	7.62
688.402	9.62
689.157	6.62
689.912	5.62
690.668	8.62
691.423	6.62
692.178	6.62
692.933	8.62
693.688	3.62
694.443	8.62
695.198	7.62
695.953	8.62
696.708	6.62
697.462	6.62
698.217	8.62
698.972	5.62
699.726	6.62
700.48	6.62
701.235	7.62
701.989	9.62
702.743	5.62
703.497	7.62
704.251	6.62
705.005	8.62
705.759	6.62
706.513	6.62
707.266	7.62
708.02	7.62
708.774	7.62
709.527	7.62
710.28	7.62
711.034	5.62
711.787	5.62
712.54	4.62
713.293	6.62
714.046	5.62
714.799	6.62
715.552	6.62
716.305	5.62
717.058	7.62
717.81	9.62
718.563	6.62
719.315	7.62
720.068	9.62
720.82	8.62
721.573	5.62
722.325	8.62
723.077	7.62
723.829	7.62
724.581	7.62
725.333	8.62
726.085	5.62
726.836	9.62
727.588	4.62
728.34	9.62
729.091	10.62
729.843	8.62
730.594	10.62
731.346	9.62
732.097	7.62
732.848	7.62
733.599	11.62
734.35	8.62
735.101	6.62
735.852	8.62
736.603	6.62
737.354	8.62
738.104	8.62
738.855	7.62
739.605	7.62
740.356	9.62
741.106	7.62
741.856	6.62
742.607	9.62
743.357	10.62
744.107	8.62
744.857	9.62
745.607	7.62
746.357	9.62
747.106	8.62
747.856	8.62
748.606	7.62
749.355	9.62
750.105	10.62
750.854	9.62
751.603	9.62
752.353	10.62
753.102	11.62
753.851	8.62
754.6	11.62
755.349	10.62
756.098	9.62
756.847	9.62
757.595	9.62
758.344	9.62
759.093	11.62
759.841	10.62
760.589	11.62
761.338	12.62
762.086	13.62
762.834	8.62
763.582	12.62
764.331	13.62
765.079	12.62
765.826	11.62
766.574	10.62
767.322	13.62
768.07	12.62
768.817	10.62
769.565	12.62
770.312	12.62
771.06	12.62
771.807	12.62
772.554	13.62
773.302	14.62
774.049	10.62
774.796	10.62
775.543	14.62
776.29	13.62
777.036	10.62
777.783	12.62
778.53	14.62
779.276	12.62
780.023	12.62
780.769	14.62
781.516	13.62
782.262	16.62
783.008	10.62
783.754	11.62
784.5	14.62
785.246	14.62
785.992	12.62
786.738	12.62
787.484	14.62
788.23	10.62
788.975	14.62
789.721	12.62
790.466	13.62
791.212	12.62
791.957	13.62
792.702	15.62
793.447	14.62
794.193	11.62
794.938	14.62
795.683	13.62
796.427	13.62
797.172	13.62
797.917	12.62
798.662	12.62
799.406	10.62
800.151	12.62
800.895	10.62
801.64	13.62
802.384	8.62
803.128	11.62
803.872	10.62
804.616	11.62
805.36	13.62
806.104	8.62
806.848	7.62
807.592	7.62
808.336	12.62
809.079	10.62
809.823	8.62
810.566	8.62
811.31	8.62
812.053	14.62
812.796	8.62
813.539	10.62
814.283	6.62
815.026	9.62
815.769	11.62
816.511	7.62
817.254	7.62
817.997	7.62
818.74	8.62
819.482	8.62
820.225	6.62
820.967	7.62
821.71	7.62
822.452	6.62
823.194	5.62
823.936	6.62
824.678	6.62
825.42	4.62
826.162	7.62
826.904	5.62
827.646	7.62
828.388	7.62
829.129	5.62
829.871	6.62
830.612	6.62
831.354	8.62
832.095	6.62
832.836	7.62
833.577	5.62
834.319	4.62
835.06	7.62
835.801	6.62
836.542	5.62
837.282	6.62
838.023	3.62
838.764	8.62
839.504	6.62
840.245	9.62
840.985	6.62
841.726	4.62
842.466	6.62
843.206	4.62
843.946	6.62
844.687	6.62
845.427	5.62
846.166	3.62
846.906	5.62
847.646	5.62
848.386	2.62
849.125	6.62
849.865	4.62
850.605	4.62
851.344	3.62
852.083	4.62
852.823	5.62
853.562	3.62
854.301	2.62
855.04	4.62
855.779	4.62
856.518	4.62
857.257	3.62
857.995	6.62
858.734	3.62
859.473	4.62
860.211	2.62
860.95	2.62
861.688	3.62
862.426	2.62
863.165	3.62
863.903	2.62
864.641	3.62
865.379	2.62
866.117	1.62
866.855	2.62
867.593	2.62
868.33	3.62
869.068	1.62
869.806	2.62
870.543	0.62
871.28	1.62
872.018	2.62
872.755	2.62
873.492	0.62
874.229	3.62
874.967	2.62
875.703	1.62
876.44	3.62
877.177	1.62
877.914	1.62
878.651	1.62
879.387	1.62
880.124	1.62
880.86	2.62
881.597	-0.38
882.333	0.62
883.069	1.62
883.806	-1.38
884.542	2.62
885.278	0.62
886.014	1.62
886.749	0.62
887.485	1.62
888.221	0.62
888.957	1.62
889.692	1.62
890.428	0.62
891.163	1.62
891.899	1.62
892.634	-0.38
893.369	1.62
894.104	0.62
894.839	1.62
895.574	2.62
896.309	-0.38
897.044	0.62
897.779	0.62
898.514	1.62
899.248	1.62
899.983	2.62
900.717	0.62
901.452	-0.38
902.186	-1.38
902.92	1.62
903.654	2.62
904.389	-0.38
905.123	1.62
905.857	0.62
906.59	-0.38
907.324	2.62
908.058	1.62
908.792	2.62
909.525	3.62
910.259	0.62
910.992	1.62
911.726	0.62
912.459	2.62
913.192	0.62
913.925	0.62
914.658	-0.38
915.391	-1.38
916.124	0.62
916.857	1.62
917.59	1.62
918.323	0.62
919.055	0.62
919.788	0.62
920.521	0.62
921.253	0.62
921.985	1.62
922.718	0.62
923.45	-1.38
924.182	-0.38
924.914	1.62
925.646	2.62
926.378	-1.38
927.11	1.62
927.841	-0.38
928.573	0.62
929.305	-0.38
930.036	0.62
930.768	-0.38
931.499	0.62
932.23	-0.38
932.962	-0.38
933.693	1.62
934.424	-1.38
935.155	1.62
935.886	-1.38
936.617	-1.38
937.348	-0.38
938.078	-0.38
938.809	1.62
939.54	-1.38
940.27	0.62
941.001	-0.38
941.731	0.62
942.461	-0.38
943.191	-1.38
943.922	0.62
944.652	0.62
945.382	0.62
946.112	0.62
946.841	0.62
947.571	-0.38
948.301	-3.38
949.031	0.62
949.76	-2.38
950.49	-0.38
951.219	-1.38
951.948	0.62
952.678	1.62
953.407	-1.38
954.136	1.62
954.865	1.62
955.594	-0.38
956.323	1.62
957.052	-1.38
957.78	-1.38
958.509	0.62
959.238	0.62
959.966	-2.38
960.695	0.62
961.423	-2.38
962.151	-0.38
962.88	0.62
963.608	-1.38
964.336	-2.38
965.064	-1.38
965.792	0.62
966.52	0.62
967.247	-1.38
967.975	-0.38
968.703	-1.38
969.43	1.62
970.158	0.62
970.885	0.62
971.613	1.62
972.34	0.62
973.067	0.62
973.794	0.62
974.521	-1.38
975.248	1.62
975.975	0.62
976.702	2.62
977.429	-0.38
978.156	-0.38
978.882	-0.38
979.609	-0.38
980.335	-3.38
981.062	-0.38
981.788	0.62
982.514	0.62
983.24	-0.38
983.967	-2.38
984.693	-0.38
985.419	-0.38
986.144	-1.38
986.87	-0.38
987.596	-0.38
988.322	0.62
989.047	-0.38
989.773	-0.38
990.498	0.62
991.224	-1.38
991.949	-0.38
992.674	0.62
993.399	0.62
994.124	-0.38
994.849	-0.38
995.574	-1.38
996.299	-0.38
997.024	0.62
997.749	0.62
998.473	-0.38
999.198	0.62
999.922	0.62
1000.647	1.62
1001.371	3.62
1002.095	-2.38
1002.82	-1.38
1003.544	-1.38
1004.268	2.62
1004.992	4.62
1005.716	2.62
1006.439	3.62
1007.163	6.62
1007.887	6.62
1008.611	-0.38
1009.334	-1.38
1010.058	-0.38
1010.781	-1.38
1011.504	-1.38
1012.228	0.62
1012.951	0.62
1013.674	0.62
1014.397	-1.38
1015.12	1.62
