节点500_705_QEPB04081__239__20-49-18-465.txt的数据

Date: Wed Nov 12 20:49:18 CST 2025
User: PC
Spectrometer: QEPB0408
触发模式: 0
积分时间 (秒): 1.000000E-2
Scans to average: 1
启用暗噪声校正: true
启用非线性校正: false
滑动平均宽度: 0
X轴模式: Wavelengths
Number of Pixels in Spectrum: 1044
>>>>>Begin Spectral Data<<<<<
220.843	5.12
221.644	7.12
222.444	5.12
223.244	6.12
224.045	5.12
224.845	6.12
225.645	7.12
226.445	4.12
227.245	9.12
228.045	8.12
228.845	5.12
229.645	9.12
230.444	6.12
231.244	7.12
232.043	7.12
232.843	9.12
233.642	11.12
234.442	12.12
235.241	11.12
236.04	12.12
236.839	13.12
237.638	10.12
238.437	10.12
239.236	12.12
240.035	13.12
240.833	14.12
241.632	12.12
242.43	12.12
243.229	14.12
244.027	14.12
244.826	15.12
245.624	11.12
246.422	13.12
247.22	15.12
248.018	15.12
248.816	15.12
249.614	16.12
250.412	18.12
251.21	18.12
252.007	19.12
252.805	17.12
253.602	17.12
254.4	18.12
255.197	19.12
255.994	21.12
256.791	22.12
257.589	23.12
258.386	20.12
259.183	22.12
259.979	21.12
260.776	22.12
261.573	25.12
262.37	26.12
263.166	24.12
263.963	26.12
264.759	27.12
265.556	28.12
266.352	27.12
267.148	30.12
267.944	27.12
268.74	29.12
269.536	33.12
270.332	31.12
271.128	29.12
271.924	34.12
272.719	34.12
273.515	35.12
274.311	35.12
275.106	37.12
275.901	35.12
276.697	33.12
277.492	34.12
278.287	35.12
279.082	34.12
279.877	38.12
280.672	36.12
281.467	33.12
282.262	35.12
283.056	33.12
283.851	36.12
284.646	34.12
285.44	33.12
286.234	34.12
287.029	33.12
287.823	33.12
288.617	34.12
289.411	33.12
290.205	35.12
290.999	30.12
291.793	31.12
292.587	29.12
293.381	29.12
294.174	30.12
294.968	30.12
295.761	31.12
296.555	28.12
297.348	25.12
298.141	27.12
298.935	31.12
299.728	26.12
300.521	27.12
301.314	27.12
302.107	24.12
302.899	22.12
303.692	21.12
304.485	23.12
305.277	25.12
306.07	20.12
306.862	23.12
307.655	21.12
308.447	22.12
309.239	21.12
310.031	21.12
310.823	21.12
311.615	18.12
312.407	16.12
313.199	18.12
313.991	19.12
314.783	18.12
315.574	16.12
316.366	15.12
317.157	16.12
317.949	14.12
318.74	17.12
319.531	14.12
320.322	13.12
321.113	14.12
321.904	12.12
322.695	14.12
323.486	12.12
324.277	13.12
325.068	14.12
325.858	13.12
326.649	11.12
327.439	14.12
328.23	13.12
329.02	12.12
329.81	13.12
330.6	15.12
331.391	12.12
332.181	13.12
332.971	10.12
333.76	14.12
334.55	13.12
335.34	13.12
336.13	13.12
336.919	11.12
337.709	12.12
338.498	11.12
339.287	14.12
340.077	11.12
340.866	13.12
341.655	10.12
342.444	11.12
343.233	14.12
344.022	14.12
344.811	13.12
345.6	10.12
346.388	11.12
347.177	12.12
347.965	11.12
348.754	13.12
349.542	11.12
350.33	12.12
351.119	11.12
351.907	9.12
352.695	9.12
353.483	10.12
354.271	12.12
355.059	13.12
355.846	9.12
356.634	11.12
357.422	10.12
358.209	11.12
358.997	9.12
359.784	11.12
360.571	11.12
361.359	12.12
362.146	10.12
362.933	10.12
363.72	10.12
364.507	12.12
365.294	11.12
366.081	10.12
366.867	10.12
367.654	10.12
368.44	12.12
369.227	11.12
370.013	11.12
370.8	8.12
371.586	11.12
372.372	11.12
373.158	9.12
373.944	11.12
374.73	10.12
375.516	12.12
376.302	10.12
377.088	12.12
377.873	11.12
378.659	7.12
379.445	9.12
380.23	11.12
381.015	11.12
381.801	7.12
382.586	11.12
383.371	10.12
384.156	12.12
384.941	11.12
385.726	11.12
386.511	12.12
387.296	9.12
388.08	10.12
388.865	12.12
389.649	9.12
390.434	15.12
391.218	11.12
392.003	10.12
392.787	11.12
393.571	12.12
394.355	12.12
395.139	11.12
395.923	15.12
396.707	13.12
397.491	14.12
398.274	13.12
399.058	12.12
399.842	15.12
400.625	15.12
401.408	14.12
402.192	13.12
402.975	15.12
403.758	17.12
404.541	16.12
405.324	16.12
406.107	14.12
406.89	16.12
407.673	17.12
408.456	15.12
409.238	15.12
410.021	15.12
410.803	17.12
411.586	18.12
412.368	20.12
413.151	14.12
413.933	18.12
414.715	19.12
415.497	18.12
416.279	22.12
417.061	19.12
417.843	19.12
418.624	20.12
419.406	22.12
420.188	23.12
420.969	20.12
421.751	21.12
422.532	25.12
423.313	24.12
424.095	25.12
424.876	23.12
425.657	25.12
426.438	24.12
427.219	28.12
428	26.12
428.78	28.12
429.561	29.12
430.342	30.12
431.122	33.12
431.903	31.12
432.683	30.12
433.464	37.12
434.244	37.12
435.024	37.12
435.804	42.12
436.584	43.12
437.364	41.12
438.144	43.12
438.924	51.12
439.704	53.12
440.483	57.12
441.263	59.12
442.042	64.12
442.822	71.12
443.601	72.12
444.38	77.12
445.16	86.12
445.939	93.12
446.718	105.12
447.497	104.12
448.276	118.12
449.054	132.12
449.833	144.12
450.612	154.12
451.391	169.12
452.169	192.12
452.948	209.12
453.726	230.12
454.504	259.12
455.282	291.12
456.061	321.12
456.839	355.12
457.617	399.12
458.395	445.12
459.172	498.12
459.95	557.12
460.728	623.12
461.506	680.12
462.283	760.12
463.061	858.12
463.838	958.12
464.615	1060.12
465.393	1181.12
466.17	1327.12
466.947	1474.12
467.724	1636.12
468.501	1826.12
469.278	2019.12
470.055	2234.12
470.831	2466.12
471.608	2724.12
472.385	3029.12
473.161	3359.12
473.938	3696.12
474.714	4044.12
475.49	4413.12
476.266	4909.12
477.043	5340.12
477.819	5845.12
478.595	6392.12
479.371	7036.12
480.146	7667.12
480.922	8373.12
481.698	9185.12
482.473	10031.12
483.249	10906.12
484.024	11850.12
484.8	12881.12
485.575	13987.12
486.35	15189.12
487.126	16428.12
487.901	17870.12
488.676	19243.12
489.451	20865.12
490.225	22417.12
491	24053.12
491.775	25791.12
492.55	27596.12
493.324	29392.12
494.099	31161.12
494.873	33063.12
495.647	34880.12
496.422	36727.12
497.196	38578.12
497.97	40213.12
498.744	41705.12
499.518	43408.12
500.292	44694.12
501.066	45701.12
501.839	46490.12
502.613	47193.12
503.387	47742.12
504.16	48062.12
504.934	48048.12
505.707	47906.12
506.48	47363.12
507.253	46708.12
508.027	45927.12
508.8	44893.12
509.573	43700.12
510.346	42517.12
511.118	41461.12
511.891	40102.12
512.664	38520.12
513.437	36997.12
514.209	35562.12
514.982	34139.12
515.754	32759.12
516.526	31346.12
517.298	30171.12
518.071	28803.12
518.843	27775.12
519.615	26639.12
520.387	25577.12
521.159	24528.12
521.93	23482.12
522.702	22557.12
523.474	21575.12
524.245	20637.12
525.017	19735.12
525.788	18867.12
526.56	18085.12
527.331	17248.12
528.102	16310.12
528.873	15482.12
529.644	14798.12
530.415	14072.12
531.186	13357.12
531.957	12673.12
532.728	12013.12
533.498	11370.12
534.269	10751.12
535.039	10212.12
535.81	9652.12
536.58	9100.12
537.351	8571.12
538.121	8210.12
538.891	7726.12
539.661	7311.12
540.431	6889.12
541.201	6546.12
541.971	6217.12
542.741	5889.12
543.51	5576.12
544.28	5317.12
545.05	5066.12
545.819	4815.12
546.588	4596.12
547.358	4388.12
548.127	4164.12
548.896	3962.12
549.665	3726.12
550.434	3541.12
551.203	3353.12
551.972	3153.12
552.741	3012.12
553.51	2847.12
554.278	2693.12
555.047	2528.12
555.815	2390.12
556.584	2257.12
557.352	2133.12
558.121	2025.12
558.889	1907.12
559.657	1783.12
560.425	1695.12
561.193	1603.12
561.961	1538.12
562.729	1441.12
563.496	1362.12
564.264	1285.12
565.032	1217.12
565.799	1148.12
566.567	1096.12
567.334	1024.12
568.101	979.12
568.869	925.12
569.636	882.12
570.403	817.12
571.17	776.12
571.937	728.12
572.704	701.12
573.471	653.12
574.237	606.12
575.004	581.12
575.771	539.12
576.537	517.12
577.303	484.12
578.07	459.12
578.836	433.12
579.602	408.12
580.368	393.12
581.134	367.12
581.9	354.12
582.666	335.12
583.432	318.12
584.198	302.12
584.964	284.12
585.729	279.12
586.495	257.12
587.26	247.12
588.025	236.12
588.791	219.12
589.556	205.12
590.321	199.12
591.086	186.12
591.851	181.12
592.616	168.12
593.381	163.12
594.146	156.12
594.911	146.12
595.675	143.12
596.44	137.12
597.204	129.12
597.969	125.12
598.733	121.12
599.497	112.12
600.261	107.12
601.025	103.12
601.79	99.12
602.553	98.12
603.317	91.12
604.081	85.12
604.845	82.12
605.609	81.12
606.372	83.12
607.136	77.12
607.899	74.12
608.662	68.12
609.426	70.12
610.189	67.12
610.952	58.12
611.715	59.12
612.478	57.12
613.241	57.12
614.004	54.12
614.767	55.12
615.529	50.12
616.292	50.12
617.055	45.12
617.817	44.12
618.579	42.12
619.342	43.12
620.104	38.12
620.866	41.12
621.628	42.12
622.39	38.12
623.152	38.12
623.914	35.12
624.676	32.12
625.438	34.12
626.199	31.12
626.961	31.12
627.722	32.12
628.484	29.12
629.245	29.12
630.006	27.12
630.768	26.12
631.529	27.12
632.29	25.12
633.051	27.12
633.812	25.12
634.573	24.12
635.333	25.12
636.094	22.12
636.855	24.12
637.615	22.12
638.376	21.12
639.136	18.12
639.896	18.12
640.657	19.12
641.417	19.12
642.177	18.12
642.937	18.12
643.697	15.12
644.457	16.12
645.216	16.12
645.976	17.12
646.736	14.12
647.495	18.12
648.255	14.12
649.014	15.12
649.774	15.12
650.533	15.12
651.292	14.12
652.051	12.12
652.81	15.12
653.569	14.12
654.328	13.12
655.087	11.12
655.846	11.12
656.604	13.12
657.363	12.12
658.121	14.12
658.88	13.12
659.638	11.12
660.397	9.12
661.155	13.12
661.913	11.12
662.671	11.12
663.429	10.12
664.187	10.12
664.945	13.12
665.703	9.12
666.46	11.12
667.218	9.12
667.976	11.12
668.733	9.12
669.49	10.12
670.248	8.12
671.005	8.12
671.762	6.12
672.519	12.12
673.276	8.12
674.033	8.12
674.79	9.12
675.547	9.12
676.304	7.12
677.06	11.12
677.817	10.12
678.574	10.12
679.33	9.12
680.086	11.12
680.843	9.12
681.599	8.12
682.355	9.12
683.111	8.12
683.867	10.12
684.623	5.12
685.379	11.12
686.135	7.12
686.89	8.12
687.646	7.12
688.402	9.12
689.157	6.12
689.912	8.12
690.668	10.12
691.423	8.12
692.178	9.12
692.933	8.12
693.688	7.12
694.443	7.12
695.198	5.12
695.953	7.12
696.708	7.12
697.462	6.12
698.217	8.12
698.972	7.12
699.726	8.12
700.48	6.12
701.235	7.12
701.989	9.12
702.743	8.12
703.497	8.12
704.251	7.12
705.005	7.12
705.759	7.12
706.513	6.12
707.266	6.12
708.02	6.12
708.774	8.12
709.527	8.12
710.28	8.12
711.034	9.12
711.787	8.12
712.54	9.12
713.293	7.12
714.046	5.12
714.799	6.12
715.552	6.12
716.305	9.12
717.058	9.12
717.81	10.12
718.563	8.12
719.315	8.12
720.068	7.12
720.82	8.12
721.573	7.12
722.325	9.12
723.077	7.12
723.829	7.12
724.581	7.12
725.333	7.12
726.085	8.12
726.836	9.12
727.588	8.12
728.34	7.12
729.091	8.12
729.843	8.12
730.594	9.12
731.346	9.12
732.097	8.12
732.848	8.12
733.599	10.12
734.35	12.12
735.101	8.12
735.852	9.12
736.603	9.12
737.354	11.12
738.104	10.12
738.855	9.12
739.605	12.12
740.356	8.12
741.106	8.12
741.856	12.12
742.607	11.12
743.357	11.12
744.107	12.12
744.857	10.12
745.607	8.12
746.357	10.12
747.106	10.12
747.856	11.12
748.606	9.12
749.355	9.12
750.105	11.12
750.854	10.12
751.603	11.12
752.353	12.12
753.102	11.12
753.851	12.12
754.6	13.12
755.349	12.12
756.098	13.12
756.847	13.12
757.595	15.12
758.344	9.12
759.093	13.12
759.841	12.12
760.589	12.12
761.338	15.12
762.086	11.12
762.834	14.12
763.582	14.12
764.331	17.12
765.079	14.12
765.826	13.12
766.574	14.12
767.322	16.12
768.07	15.12
768.817	13.12
769.565	17.12
770.312	14.12
771.06	15.12
771.807	16.12
772.554	15.12
773.302	16.12
774.049	17.12
774.796	15.12
775.543	17.12
776.29	15.12
777.036	16.12
777.783	13.12
778.53	16.12
779.276	16.12
780.023	16.12
780.769	14.12
781.516	15.12
782.262	16.12
783.008	16.12
783.754	17.12
784.5	14.12
785.246	13.12
785.992	17.12
786.738	15.12
787.484	15.12
788.23	16.12
788.975	17.12
789.721	16.12
790.466	17.12
791.212	17.12
791.957	16.12
792.702	15.12
793.447	14.12
794.193	12.12
794.938	13.12
795.683	15.12
796.427	14.12
797.172	14.12
797.917	13.12
798.662	15.12
799.406	15.12
800.151	15.12
800.895	14.12
801.64	12.12
802.384	12.12
803.128	10.12
803.872	12.12
804.616	11.12
805.36	12.12
806.104	11.12
806.848	10.12
807.592	10.12
808.336	8.12
809.079	11.12
809.823	7.12
810.566	11.12
811.31	10.12
812.053	8.12
812.796	11.12
813.539	8.12
814.283	10.12
815.026	8.12
815.769	8.12
816.511	7.12
817.254	9.12
817.997	7.12
818.74	9.12
819.482	9.12
820.225	11.12
820.967	6.12
821.71	7.12
822.452	6.12
823.194	7.12
823.936	8.12
824.678	6.12
825.42	8.12
826.162	4.12
826.904	5.12
827.646	6.12
828.388	7.12
829.129	6.12
829.871	7.12
830.612	7.12
831.354	6.12
832.095	3.12
832.836	5.12
833.577	8.12
834.319	8.12
835.06	3.12
835.801	8.12
836.542	6.12
837.282	5.12
838.023	6.12
838.764	5.12
839.504	7.12
840.245	6.12
840.985	6.12
841.726	7.12
842.466	5.12
843.206	8.12
843.946	6.12
844.687	9.12
845.427	5.12
846.166	6.12
846.906	6.12
847.646	6.12
848.386	6.12
849.125	4.12
849.865	7.12
850.605	3.12
851.344	4.12
852.083	4.12
852.823	6.12
853.562	4.12
854.301	3.12
855.04	3.12
855.779	5.12
856.518	4.12
857.257	4.12
857.995	5.12
858.734	2.12
859.473	3.12
860.211	3.12
860.95	3.12
861.688	3.12
862.426	4.12
863.165	3.12
863.903	3.12
864.641	6.12
865.379	4.12
866.117	5.12
866.855	1.12
867.593	3.12
868.33	2.12
869.068	3.12
869.806	3.12
870.543	3.12
871.28	3.12
872.018	0.12
872.755	5.12
873.492	1.12
874.229	3.12
874.967	6.12
875.703	2.12
876.44	2.12
877.177	2.12
877.914	5.12
878.651	1.12
879.387	1.12
880.124	2.12
880.86	2.12
881.597	1.12
882.333	1.12
883.069	4.12
883.806	3.12
884.542	-1.88
885.278	1.12
886.014	1.12
886.749	2.12
887.485	4.12
888.221	2.12
888.957	0.12
889.692	1.12
890.428	3.12
891.163	3.12
891.899	2.12
892.634	0.12
893.369	0.12
894.104	2.12
894.839	3.12
895.574	3.12
896.309	1.12
897.044	1.12
897.779	-1.88
898.514	0.12
899.248	2.12
899.983	1.12
900.717	1.12
901.452	1.12
902.186	2.12
902.92	3.12
903.654	-0.88
904.389	2.12
905.123	1.12
905.857	4.12
906.59	0.12
907.324	-1.88
908.058	-0.88
908.792	-0.88
909.525	2.12
910.259	2.12
910.992	0.12
911.726	2.12
912.459	1.12
913.192	0.12
913.925	3.12
914.658	2.12
915.391	1.12
916.124	1.12
916.857	-1.88
917.59	1.12
918.323	0.12
919.055	1.12
919.788	1.12
920.521	1.12
921.253	-2.88
921.985	2.12
922.718	1.12
923.45	1.12
924.182	2.12
924.914	0.12
925.646	-0.88
926.378	0.12
927.11	-0.88
927.841	-0.88
928.573	-0.88
929.305	1.12
930.036	-0.88
930.768	-0.88
931.499	2.12
932.23	1.12
932.962	0.12
933.693	-0.88
934.424	-0.88
935.155	0.12
935.886	0.12
936.617	-2.88
937.348	1.12
938.078	-0.88
938.809	1.12
939.54	1.12
940.27	-0.88
941.001	-2.88
941.731	0.12
942.461	0.12
943.191	-0.88
943.922	0.12
944.652	-0.88
945.382	-1.88
946.112	1.12
946.841	-0.88
947.571	2.12
948.301	-0.88
949.031	-0.88
949.76	3.12
950.49	0.12
951.219	-1.88
951.948	-0.88
952.678	0.12
953.407	0.12
954.136	-0.88
954.865	1.12
955.594	-0.88
956.323	1.12
957.052	2.12
957.78	0.12
958.509	2.12
959.238	-2.88
959.966	2.12
960.695	0.12
961.423	-1.88
962.151	0.12
962.88	-0.88
963.608	4.12
964.336	0.12
965.064	-0.88
965.792	0.12
966.52	1.12
967.247	2.12
967.975	-0.88
968.703	-0.88
969.43	-0.88
970.158	0.12
970.885	1.12
971.613	-0.88
972.34	1.12
973.067	0.12
973.794	3.12
974.521	1.12
975.248	2.12
975.975	2.12
976.702	0.12
977.429	2.12
978.156	0.12
978.882	3.12
979.609	-0.88
980.335	-0.88
981.062	1.12
981.788	0.12
982.514	1.12
983.24	2.12
983.967	1.12
984.693	1.12
985.419	3.12
986.144	0.12
986.87	1.12
987.596	0.12
988.322	1.12
989.047	0.12
989.773	0.12
990.498	-0.88
991.224	1.12
991.949	0.12
992.674	0.12
993.399	1.12
994.124	-1.88
994.849	2.12
995.574	0.12
996.299	2.12
997.024	3.12
997.749	0.12
998.473	-0.88
999.198	-0.88
999.922	2.12
1000.647	-0.88
1001.371	4.12
1002.095	-0.88
1002.82	-0.88
1003.544	-2.88
1004.268	5.12
1004.992	4.12
1005.716	2.12
1006.439	3.12
1007.163	5.12
1007.887	6.12
1008.611	2.12
1009.334	0.12
1010.058	-0.88
1010.781	1.12
1011.504	-0.88
1012.228	1.12
1012.951	1.12
1013.674	0.12
1014.397	-0.88
1015.12	0.12
