节点500_705_QEPB04081__303__20-50-18-404.txt的数据

Date: Wed Nov 12 20:50:18 CST 2025
User: PC
Spectrometer: QEPB0408
触发模式: 0
积分时间 (秒): 1.000000E-2
Scans to average: 1
启用暗噪声校正: true
启用非线性校正: false
滑动平均宽度: 0
X轴模式: Wavelengths
Number of Pixels in Spectrum: 1044
>>>>>Begin Spectral Data<<<<<
220.843	2.88
221.644	5.88
222.444	6.88
223.244	3.88
224.045	5.88
224.845	4.88
225.645	8.88
226.445	5.88
227.245	6.88
228.045	7.88
228.845	5.88
229.645	6.88
230.444	7.88
231.244	10.88
232.043	8.88
232.843	7.88
233.642	8.88
234.442	6.88
235.241	12.88
236.04	10.88
236.839	8.88
237.638	12.88
238.437	9.88
239.236	11.88
240.035	9.88
240.833	11.88
241.632	12.88
242.43	13.88
243.229	14.88
244.027	11.88
244.826	13.88
245.624	13.88
246.422	13.88
247.22	12.88
248.018	14.88
248.816	12.88
249.614	13.88
250.412	13.88
251.21	16.88
252.007	16.88
252.805	16.88
253.602	17.88
254.4	16.88
255.197	19.88
255.994	19.88
256.791	17.88
257.589	19.88
258.386	20.88
259.183	22.88
259.979	23.88
260.776	22.88
261.573	20.88
262.37	23.88
263.166	23.88
263.963	24.88
264.759	23.88
265.556	29.88
266.352	24.88
267.148	26.88
267.944	30.88
268.74	26.88
269.536	30.88
270.332	30.88
271.128	30.88
271.924	30.88
272.719	30.88
273.515	32.88
274.311	30.88
275.106	32.88
275.901	31.88
276.697	32.88
277.492	33.88
278.287	33.88
279.082	35.88
279.877	37.88
280.672	30.88
281.467	31.88
282.262	34.88
283.056	36.88
283.851	33.88
284.646	37.88
285.44	31.88
286.234	34.88
287.029	31.88
287.823	34.88
288.617	33.88
289.411	32.88
290.205	32.88
290.999	32.88
291.793	31.88
292.587	29.88
293.381	31.88
294.174	30.88
294.968	28.88
295.761	27.88
296.555	25.88
297.348	25.88
298.141	26.88
298.935	31.88
299.728	26.88
300.521	23.88
301.314	24.88
302.107	26.88
302.899	23.88
303.692	22.88
304.485	23.88
305.277	22.88
306.07	22.88
306.862	20.88
307.655	22.88
308.447	19.88
309.239	20.88
310.031	21.88
310.823	20.88
311.615	18.88
312.407	16.88
313.199	19.88
313.991	16.88
314.783	19.88
315.574	15.88
316.366	17.88
317.157	14.88
317.949	15.88
318.74	17.88
319.531	13.88
320.322	10.88
321.113	16.88
321.904	11.88
322.695	12.88
323.486	15.88
324.277	12.88
325.068	12.88
325.858	12.88
326.649	17.88
327.439	13.88
328.23	13.88
329.02	11.88
329.81	12.88
330.6	11.88
331.391	10.88
332.181	12.88
332.971	10.88
333.76	11.88
334.55	11.88
335.34	9.88
336.13	12.88
336.919	12.88
337.709	11.88
338.498	10.88
339.287	10.88
340.077	9.88
340.866	10.88
341.655	13.88
342.444	10.88
343.233	12.88
344.022	11.88
344.811	15.88
345.6	11.88
346.388	9.88
347.177	10.88
347.965	14.88
348.754	11.88
349.542	9.88
350.33	10.88
351.119	12.88
351.907	12.88
352.695	14.88
353.483	11.88
354.271	10.88
355.059	10.88
355.846	8.88
356.634	11.88
357.422	10.88
358.209	9.88
358.997	10.88
359.784	9.88
360.571	11.88
361.359	10.88
362.146	10.88
362.933	10.88
363.72	10.88
364.507	8.88
365.294	6.88
366.081	9.88
366.867	9.88
367.654	8.88
368.44	11.88
369.227	9.88
370.013	10.88
370.8	7.88
371.586	8.88
372.372	10.88
373.158	10.88
373.944	11.88
374.73	8.88
375.516	10.88
376.302	11.88
377.088	8.88
377.873	9.88
378.659	7.88
379.445	10.88
380.23	10.88
381.015	10.88
381.801	8.88
382.586	9.88
383.371	12.88
384.156	9.88
384.941	10.88
385.726	10.88
386.511	9.88
387.296	10.88
388.08	10.88
388.865	12.88
389.649	11.88
390.434	10.88
391.218	12.88
392.003	9.88
392.787	11.88
393.571	11.88
394.355	11.88
395.139	10.88
395.923	15.88
396.707	11.88
397.491	12.88
398.274	12.88
399.058	11.88
399.842	15.88
400.625	14.88
401.408	12.88
402.192	13.88
402.975	14.88
403.758	13.88
404.541	11.88
405.324	14.88
406.107	14.88
406.89	13.88
407.673	16.88
408.456	13.88
409.238	20.88
410.021	16.88
410.803	15.88
411.586	18.88
412.368	15.88
413.151	16.88
413.933	17.88
414.715	16.88
415.497	19.88
416.279	19.88
417.061	18.88
417.843	16.88
418.624	18.88
419.406	21.88
420.188	21.88
420.969	23.88
421.751	22.88
422.532	20.88
423.313	22.88
424.095	22.88
424.876	24.88
425.657	22.88
426.438	27.88
427.219	22.88
428	24.88
428.78	26.88
429.561	26.88
430.342	30.88
431.122	30.88
431.903	30.88
432.683	30.88
433.464	33.88
434.244	38.88
435.024	35.88
435.804	40.88
436.584	40.88
437.364	45.88
438.144	46.88
438.924	50.88
439.704	53.88
440.483	55.88
441.263	58.88
442.042	64.88
442.822	69.88
443.601	73.88
444.38	78.88
445.16	85.88
445.939	90.88
446.718	98.88
447.497	114.88
448.276	121.88
449.054	135.88
449.833	139.88
450.612	163.88
451.391	175.88
452.169	194.88
452.948	213.88
453.726	243.88
454.504	268.88
455.282	291.88
456.061	326.88
456.839	360.88
457.617	397.88
458.395	462.88
459.172	500.88
459.95	561.88
460.728	618.88
461.506	711.88
462.283	779.88
463.061	881.88
463.838	977.88
464.615	1085.88
465.393	1210.88
466.17	1338.88
466.947	1485.88
467.724	1658.88
468.501	1854.88
469.278	2033.88
470.055	2256.88
470.831	2497.88
471.608	2747.88
472.385	3029.88
473.161	3361.88
473.938	3691.88
474.714	4055.88
475.49	4448.88
476.266	4889.88
477.043	5355.88
477.819	5852.88
478.595	6385.88
479.371	6974.88
480.146	7599.88
480.922	8320.88
481.698	9007.88
482.473	9870.88
483.249	10718.88
484.024	11664.88
484.8	12684.88
485.575	13694.88
486.35	14893.88
487.126	16103.88
487.901	17423.88
488.676	18855.88
489.451	20354.88
490.225	21840.88
491	23445.88
491.775	25034.88
492.55	26869.88
493.324	28591.88
494.099	30369.88
494.873	32165.88
495.647	33981.88
496.422	35848.88
497.196	37590.88
497.97	39190.88
498.744	40707.88
499.518	42344.88
500.292	43666.88
501.066	44716.88
501.839	45560.88
502.613	46339.88
503.387	46969.88
504.16	47346.88
504.934	47498.88
505.707	47362.88
506.48	47006.88
507.253	46515.88
508.027	45688.88
508.8	44761.88
509.573	43667.88
510.346	42581.88
511.118	41470.88
511.891	40270.88
512.664	38697.88
513.437	37219.88
514.209	35776.88
514.982	34494.88
515.754	33075.88
516.526	31707.88
517.298	30463.88
518.071	29189.88
518.843	27992.88
519.615	26907.88
520.387	25917.88
521.159	24911.88
521.93	23818.88
522.702	22792.88
523.474	21967.88
524.245	20931.88
525.017	19973.88
525.788	19141.88
526.56	18310.88
527.331	17520.88
528.102	16569.88
528.873	15809.88
529.644	15061.88
530.415	14332.88
531.186	13656.88
531.957	12915.88
532.728	12257.88
533.498	11573.88
534.269	10983.88
535.039	10415.88
535.81	9851.88
536.58	9282.88
537.351	8807.88
538.121	8366.88
538.891	7885.88
539.661	7487.88
540.431	7032.88
541.201	6716.88
541.971	6360.88
542.741	6008.88
543.51	5710.88
544.28	5411.88
545.05	5161.88
545.819	4953.88
546.588	4707.88
547.358	4505.88
548.127	4270.88
548.896	4033.88
549.665	3827.88
550.434	3626.88
551.203	3465.88
551.972	3254.88
552.741	3073.88
553.51	2930.88
554.278	2740.88
555.047	2595.88
555.815	2457.88
556.584	2308.88
557.352	2199.88
558.121	2075.88
558.889	1956.88
559.657	1834.88
560.425	1739.88
561.193	1649.88
561.961	1575.88
562.729	1490.88
563.496	1394.88
564.264	1330.88
565.032	1252.88
565.799	1185.88
566.567	1117.88
567.334	1066.88
568.101	1001.88
568.869	951.88
569.636	895.88
570.403	850.88
571.17	807.88
571.937	756.88
572.704	718.88
573.471	662.88
574.237	632.88
575.004	599.88
575.771	568.88
576.537	525.88
577.303	506.88
578.07	475.88
578.836	436.88
579.602	430.88
580.368	402.88
581.134	385.88
581.9	361.88
582.666	338.88
583.432	334.88
584.198	309.88
584.964	296.88
585.729	278.88
586.495	267.88
587.26	255.88
588.025	237.88
588.791	226.88
589.556	214.88
590.321	206.88
591.086	190.88
591.851	181.88
592.616	175.88
593.381	167.88
594.146	159.88
594.911	146.88
595.675	145.88
596.44	140.88
597.204	130.88
597.969	126.88
598.733	119.88
599.497	116.88
600.261	113.88
601.025	108.88
601.79	102.88
602.553	98.88
603.317	93.88
604.081	90.88
604.845	86.88
605.609	77.88
606.372	79.88
607.136	75.88
607.899	74.88
608.662	64.88
609.426	62.88
610.189	68.88
610.952	62.88
611.715	58.88
612.478	58.88
613.241	58.88
614.004	53.88
614.767	52.88
615.529	50.88
616.292	47.88
617.055	45.88
617.817	47.88
618.579	44.88
619.342	44.88
620.104	39.88
620.866	45.88
621.628	39.88
622.39	36.88
623.152	37.88
623.914	37.88
624.676	33.88
625.438	31.88
626.199	32.88
626.961	30.88
627.722	30.88
628.484	32.88
629.245	27.88
630.006	26.88
630.768	25.88
631.529	26.88
632.29	26.88
633.051	21.88
633.812	24.88
634.573	25.88
635.333	22.88
636.094	22.88
636.855	19.88
637.615	22.88
638.376	21.88
639.136	21.88
639.896	21.88
640.657	18.88
641.417	17.88
642.177	17.88
642.937	19.88
643.697	17.88
644.457	18.88
645.216	20.88
645.976	13.88
646.736	17.88
647.495	18.88
648.255	15.88
649.014	12.88
649.774	12.88
650.533	13.88
651.292	15.88
652.051	16.88
652.81	12.88
653.569	11.88
654.328	14.88
655.087	12.88
655.846	13.88
656.604	13.88
657.363	9.88
658.121	10.88
658.88	14.88
659.638	10.88
660.397	11.88
661.155	11.88
661.913	11.88
662.671	10.88
663.429	12.88
664.187	7.88
664.945	9.88
665.703	9.88
666.46	10.88
667.218	10.88
667.976	10.88
668.733	8.88
669.49	9.88
670.248	12.88
671.005	7.88
671.762	6.88
672.519	12.88
673.276	8.88
674.033	8.88
674.79	7.88
675.547	7.88
676.304	9.88
677.06	7.88
677.817	8.88
678.574	7.88
679.33	9.88
680.086	6.88
680.843	7.88
681.599	9.88
682.355	6.88
683.111	6.88
683.867	7.88
684.623	8.88
685.379	7.88
686.135	6.88
686.89	8.88
687.646	5.88
688.402	8.88
689.157	7.88
689.912	5.88
690.668	8.88
691.423	6.88
692.178	8.88
692.933	7.88
693.688	7.88
694.443	8.88
695.198	8.88
695.953	7.88
696.708	6.88
697.462	7.88
698.217	6.88
698.972	8.88
699.726	8.88
700.48	6.88
701.235	5.88
701.989	7.88
702.743	8.88
703.497	7.88
704.251	7.88
705.005	5.88
705.759	9.88
706.513	8.88
707.266	7.88
708.02	6.88
708.774	5.88
709.527	4.88
710.28	8.88
711.034	8.88
711.787	5.88
712.54	5.88
713.293	6.88
714.046	8.88
714.799	7.88
715.552	6.88
716.305	5.88
717.058	6.88
717.81	8.88
718.563	7.88
719.315	6.88
720.068	8.88
720.82	10.88
721.573	11.88
722.325	7.88
723.077	8.88
723.829	7.88
724.581	8.88
725.333	6.88
726.085	8.88
726.836	7.88
727.588	7.88
728.34	8.88
729.091	7.88
729.843	8.88
730.594	10.88
731.346	9.88
732.097	9.88
732.848	6.88
733.599	9.88
734.35	9.88
735.101	8.88
735.852	8.88
736.603	8.88
737.354	7.88
738.104	8.88
738.855	9.88
739.605	9.88
740.356	10.88
741.106	10.88
741.856	11.88
742.607	10.88
743.357	11.88
744.107	10.88
744.857	9.88
745.607	9.88
746.357	10.88
747.106	10.88
747.856	8.88
748.606	10.88
749.355	9.88
750.105	10.88
750.854	9.88
751.603	13.88
752.353	12.88
753.102	12.88
753.851	9.88
754.6	9.88
755.349	11.88
756.098	12.88
756.847	12.88
757.595	12.88
758.344	10.88
759.093	12.88
759.841	10.88
760.589	12.88
761.338	11.88
762.086	10.88
762.834	11.88
763.582	11.88
764.331	13.88
765.079	13.88
765.826	14.88
766.574	12.88
767.322	16.88
768.07	14.88
768.817	14.88
769.565	14.88
770.312	10.88
771.06	16.88
771.807	13.88
772.554	14.88
773.302	16.88
774.049	14.88
774.796	15.88
775.543	13.88
776.29	14.88
777.036	15.88
777.783	14.88
778.53	15.88
779.276	18.88
780.023	17.88
780.769	15.88
781.516	15.88
782.262	16.88
783.008	16.88
783.754	17.88
784.5	16.88
785.246	14.88
785.992	15.88
786.738	14.88
787.484	15.88
788.23	16.88
788.975	14.88
789.721	14.88
790.466	12.88
791.212	15.88
791.957	15.88
792.702	16.88
793.447	13.88
794.193	11.88
794.938	12.88
795.683	12.88
796.427	12.88
797.172	13.88
797.917	10.88
798.662	12.88
799.406	13.88
800.151	12.88
800.895	10.88
801.64	13.88
802.384	8.88
803.128	13.88
803.872	12.88
804.616	12.88
805.36	8.88
806.104	10.88
806.848	7.88
807.592	8.88
808.336	11.88
809.079	9.88
809.823	8.88
810.566	10.88
811.31	10.88
812.053	9.88
812.796	6.88
813.539	6.88
814.283	6.88
815.026	7.88
815.769	8.88
816.511	8.88
817.254	8.88
817.997	8.88
818.74	8.88
819.482	6.88
820.225	6.88
820.967	7.88
821.71	9.88
822.452	5.88
823.194	5.88
823.936	6.88
824.678	5.88
825.42	7.88
826.162	7.88
826.904	7.88
827.646	8.88
828.388	6.88
829.129	4.88
829.871	6.88
830.612	6.88
831.354	5.88
832.095	7.88
832.836	4.88
833.577	3.88
834.319	3.88
835.06	5.88
835.801	7.88
836.542	6.88
837.282	3.88
838.023	5.88
838.764	5.88
839.504	5.88
840.245	5.88
840.985	5.88
841.726	5.88
842.466	6.88
843.206	6.88
843.946	7.88
844.687	6.88
845.427	4.88
846.166	4.88
846.906	4.88
847.646	5.88
848.386	3.88
849.125	4.88
849.865	4.88
850.605	7.88
851.344	4.88
852.083	4.88
852.823	4.88
853.562	5.88
854.301	4.88
855.04	4.88
855.779	3.88
856.518	5.88
857.257	2.88
857.995	3.88
858.734	2.88
859.473	3.88
860.211	3.88
860.95	3.88
861.688	3.88
862.426	3.88
863.165	4.88
863.903	3.88
864.641	1.88
865.379	2.88
866.117	2.88
866.855	-0.12
867.593	4.88
868.33	5.88
869.068	2.88
869.806	4.88
870.543	1.88
871.28	1.88
872.018	2.88
872.755	1.88
873.492	0.88
874.229	4.88
874.967	1.88
875.703	4.88
876.44	-0.12
877.177	1.88
877.914	0.88
878.651	2.88
879.387	1.88
880.124	3.88
880.86	1.88
881.597	1.88
882.333	2.88
883.069	2.88
883.806	1.88
884.542	3.88
885.278	2.88
886.014	2.88
886.749	1.88
887.485	-0.12
888.221	1.88
888.957	2.88
889.692	-0.12
890.428	0.88
891.163	0.88
891.899	1.88
892.634	0.88
893.369	-1.12
894.104	0.88
894.839	0.88
895.574	0.88
896.309	2.88
897.044	1.88
897.779	1.88
898.514	1.88
899.248	1.88
899.983	0.88
900.717	2.88
901.452	0.88
902.186	4.88
902.92	1.88
903.654	-1.12
904.389	0.88
905.123	-0.12
905.857	0.88
906.59	2.88
907.324	0.88
908.058	0.88
908.792	-0.12
909.525	1.88
910.259	0.88
910.992	1.88
911.726	0.88
912.459	-0.12
913.192	-1.12
913.925	0.88
914.658	0.88
915.391	0.88
916.124	1.88
916.857	0.88
917.59	0.88
918.323	2.88
919.055	2.88
919.788	0.88
920.521	0.88
921.253	2.88
921.985	0.88
922.718	0.88
923.45	0.88
924.182	0.88
924.914	1.88
925.646	-0.12
926.378	1.88
927.11	-1.12
927.841	1.88
928.573	1.88
929.305	0.88
930.036	1.88
930.768	1.88
931.499	0.88
932.23	1.88
932.962	-2.12
933.693	0.88
934.424	0.88
935.155	1.88
935.886	-1.12
936.617	-0.12
937.348	1.88
938.078	2.88
938.809	-0.12
939.54	-3.12
940.27	0.88
941.001	-1.12
941.731	-2.12
942.461	2.88
943.191	-0.12
943.922	0.88
944.652	-1.12
945.382	-1.12
946.112	1.88
946.841	1.88
947.571	-0.12
948.301	1.88
949.031	2.88
949.76	1.88
950.49	-1.12
951.219	0.88
951.948	-1.12
952.678	-1.12
953.407	0.88
954.136	-1.12
954.865	-1.12
955.594	-0.12
956.323	0.88
957.052	-1.12
957.78	-0.12
958.509	0.88
959.238	-1.12
959.966	-1.12
960.695	2.88
961.423	0.88
962.151	1.88
962.88	-0.12
963.608	0.88
964.336	-0.12
965.064	0.88
965.792	0.88
966.52	-0.12
967.247	1.88
967.975	-2.12
968.703	1.88
969.43	-1.12
970.158	-0.12
970.885	-0.12
971.613	-1.12
972.34	-2.12
973.067	-1.12
973.794	-0.12
974.521	-1.12
975.248	-1.12
975.975	-0.12
976.702	-0.12
977.429	-0.12
978.156	0.88
978.882	0.88
979.609	0.88
980.335	-0.12
981.062	1.88
981.788	2.88
982.514	-0.12
983.24	0.88
983.967	-0.12
984.693	-0.12
985.419	-1.12
986.144	0.88
986.87	1.88
987.596	1.88
988.322	1.88
989.047	-0.12
989.773	-1.12
990.498	0.88
991.224	-0.12
991.949	-1.12
992.674	1.88
993.399	-4.12
994.124	-0.12
994.849	0.88
995.574	0.88
996.299	-1.12
997.024	0.88
997.749	-1.12
998.473	-0.12
999.198	0.88
999.922	0.88
1000.647	0.88
1001.371	3.88
1002.095	-1.12
1002.82	-1.12
1003.544	-3.12
1004.268	5.88
1004.992	2.88
1005.716	3.88
1006.439	5.88
1007.163	4.88
1007.887	5.88
1008.611	-1.12
1009.334	-0.12
1010.058	-0.12
1010.781	0.88
1011.504	1.88
1012.228	-2.12
1012.951	0.88
1013.674	-2.12
1014.397	1.88
1015.12	0.88
