节点500_705_QEPB04081__644__20-55-04-823.txt的数据

Date: Wed Nov 12 20:55:04 CST 2025
User: PC
Spectrometer: QEPB0408
触发模式: 0
积分时间 (秒): 1.000000E-2
Scans to average: 1
启用暗噪声校正: true
启用非线性校正: false
滑动平均宽度: 0
X轴模式: Wavelengths
Number of Pixels in Spectrum: 1044
>>>>>Begin Spectral Data<<<<<
220.843	3.5
221.644	6.5
222.444	6.5
223.244	4.5
224.045	7.5
224.845	6.5
225.645	6.5
226.445	5.5
227.245	6.5
228.045	7.5
228.845	10.5
229.645	9.5
230.444	6.5
231.244	7.5
232.043	8.5
232.843	8.5
233.642	9.5
234.442	9.5
235.241	9.5
236.04	8.5
236.839	10.5
237.638	9.5
238.437	9.5
239.236	12.5
240.035	8.5
240.833	9.5
241.632	9.5
242.43	12.5
243.229	13.5
244.027	14.5
244.826	12.5
245.624	13.5
246.422	15.5
247.22	12.5
248.018	12.5
248.816	13.5
249.614	13.5
250.412	16.5
251.21	16.5
252.007	12.5
252.805	15.5
253.602	18.5
254.4	18.5
255.197	16.5
255.994	19.5
256.791	18.5
257.589	16.5
258.386	21.5
259.183	21.5
259.979	19.5
260.776	21.5
261.573	20.5
262.37	23.5
263.166	23.5
263.963	22.5
264.759	25.5
265.556	24.5
266.352	25.5
267.148	23.5
267.944	27.5
268.74	27.5
269.536	23.5
270.332	25.5
271.128	27.5
271.924	28.5
272.719	27.5
273.515	34.5
274.311	29.5
275.106	27.5
275.901	35.5
276.697	33.5
277.492	31.5
278.287	29.5
279.082	35.5
279.877	31.5
280.672	33.5
281.467	29.5
282.262	30.5
283.056	33.5
283.851	33.5
284.646	31.5
285.44	31.5
286.234	31.5
287.029	29.5
287.823	37.5
288.617	29.5
289.411	29.5
290.205	31.5
290.999	28.5
291.793	31.5
292.587	26.5
293.381	28.5
294.174	30.5
294.968	27.5
295.761	29.5
296.555	27.5
297.348	25.5
298.141	27.5
298.935	25.5
299.728	27.5
300.521	26.5
301.314	23.5
302.107	23.5
302.899	23.5
303.692	24.5
304.485	21.5
305.277	21.5
306.07	20.5
306.862	22.5
307.655	23.5
308.447	21.5
309.239	20.5
310.031	19.5
310.823	17.5
311.615	19.5
312.407	19.5
313.199	17.5
313.991	15.5
314.783	17.5
315.574	18.5
316.366	18.5
317.157	17.5
317.949	12.5
318.74	17.5
319.531	17.5
320.322	15.5
321.113	15.5
321.904	13.5
322.695	15.5
323.486	13.5
324.277	14.5
325.068	13.5
325.858	16.5
326.649	12.5
327.439	11.5
328.23	11.5
329.02	11.5
329.81	11.5
330.6	14.5
331.391	11.5
332.181	15.5
332.971	11.5
333.76	14.5
334.55	13.5
335.34	10.5
336.13	12.5
336.919	10.5
337.709	12.5
338.498	12.5
339.287	13.5
340.077	11.5
340.866	13.5
341.655	11.5
342.444	9.5
343.233	12.5
344.022	9.5
344.811	12.5
345.6	12.5
346.388	11.5
347.177	11.5
347.965	8.5
348.754	12.5
349.542	11.5
350.33	11.5
351.119	11.5
351.907	8.5
352.695	12.5
353.483	13.5
354.271	11.5
355.059	10.5
355.846	9.5
356.634	11.5
357.422	11.5
358.209	10.5
358.997	10.5
359.784	10.5
360.571	11.5
361.359	10.5
362.146	10.5
362.933	9.5
363.72	11.5
364.507	10.5
365.294	8.5
366.081	14.5
366.867	9.5
367.654	9.5
368.44	8.5
369.227	9.5
370.013	11.5
370.8	9.5
371.586	8.5
372.372	9.5
373.158	10.5
373.944	8.5
374.73	10.5
375.516	9.5
376.302	7.5
377.088	9.5
377.873	11.5
378.659	10.5
379.445	11.5
380.23	10.5
381.015	9.5
381.801	9.5
382.586	10.5
383.371	8.5
384.156	10.5
384.941	10.5
385.726	7.5
386.511	11.5
387.296	12.5
388.08	10.5
388.865	13.5
389.649	9.5
390.434	12.5
391.218	10.5
392.003	11.5
392.787	13.5
393.571	10.5
394.355	12.5
395.139	11.5
395.923	13.5
396.707	13.5
397.491	14.5
398.274	11.5
399.058	11.5
399.842	11.5
400.625	12.5
401.408	14.5
402.192	12.5
402.975	13.5
403.758	15.5
404.541	14.5
405.324	12.5
406.107	13.5
406.89	15.5
407.673	15.5
408.456	12.5
409.238	15.5
410.021	13.5
410.803	16.5
411.586	15.5
412.368	16.5
413.151	15.5
413.933	15.5
414.715	17.5
415.497	19.5
416.279	18.5
417.061	17.5
417.843	19.5
418.624	19.5
419.406	18.5
420.188	20.5
420.969	17.5
421.751	21.5
422.532	20.5
423.313	22.5
424.095	20.5
424.876	26.5
425.657	21.5
426.438	25.5
427.219	28.5
428	27.5
428.78	29.5
429.561	28.5
430.342	31.5
431.122	32.5
431.903	31.5
432.683	32.5
433.464	35.5
434.244	36.5
435.024	39.5
435.804	40.5
436.584	44.5
437.364	46.5
438.144	50.5
438.924	52.5
439.704	51.5
440.483	57.5
441.263	63.5
442.042	67.5
442.822	67.5
443.601	76.5
444.38	86.5
445.16	94.5
445.939	102.5
446.718	111.5
447.497	120.5
448.276	124.5
449.054	145.5
449.833	159.5
450.612	171.5
451.391	192.5
452.169	210.5
452.948	233.5
453.726	268.5
454.504	284.5
455.282	316.5
456.061	367.5
456.839	388.5
457.617	447.5
458.395	499.5
459.172	533.5
459.95	601.5
460.728	665.5
461.506	748.5
462.283	833.5
463.061	932.5
463.838	1021.5
464.615	1137.5
465.393	1259.5
466.17	1403.5
466.947	1530.5
467.724	1697.5
468.501	1879.5
469.278	2056.5
470.055	2264.5
470.831	2513.5
471.608	2755.5
472.385	3011.5
473.161	3311.5
473.938	3608.5
474.714	3951.5
475.49	4310.5
476.266	4705.5
477.043	5118.5
477.819	5570.5
478.595	6054.5
479.371	6545.5
480.146	7110.5
480.922	7757.5
481.698	8435.5
482.473	9106.5
483.249	9830.5
484.024	10646.5
484.8	11494.5
485.575	12352.5
486.35	13345.5
487.126	14375.5
487.901	15418.5
488.676	16594.5
489.451	17862.5
490.225	19095.5
491	20514.5
491.775	21883.5
492.55	23346.5
493.324	24807.5
494.099	26377.5
494.873	27927.5
495.647	29488.5
496.422	31052.5
497.196	32663.5
497.97	34211.5
498.744	35636.5
499.518	37121.5
500.292	38538.5
501.066	39579.5
501.839	40567.5
502.613	41527.5
503.387	42315.5
504.16	42991.5
504.934	43294.5
505.707	43588.5
506.48	43477.5
507.253	43471.5
508.027	43142.5
508.8	42614.5
509.573	41869.5
510.346	41174.5
511.118	40390.5
511.891	39397.5
512.664	38168.5
513.437	36970.5
514.209	35690.5
514.982	34435.5
515.754	33236.5
516.526	31928.5
517.298	30778.5
518.071	29593.5
518.843	28427.5
519.615	27302.5
520.387	26295.5
521.159	25231.5
521.93	24170.5
522.702	23227.5
523.474	22277.5
524.245	21416.5
525.017	20430.5
525.788	19661.5
526.56	18911.5
527.331	18063.5
528.102	17216.5
528.873	16399.5
529.644	15626.5
530.415	14904.5
531.186	14288.5
531.957	13583.5
532.728	12864.5
533.498	12192.5
534.269	11656.5
535.039	10989.5
535.81	10455.5
536.58	9849.5
537.351	9362.5
538.121	8870.5
538.891	8401.5
539.661	7943.5
540.431	7526.5
541.201	7155.5
541.971	6782.5
542.741	6401.5
543.51	6058.5
544.28	5798.5
545.05	5507.5
545.819	5270.5
546.588	5025.5
547.358	4787.5
548.127	4520.5
548.896	4308.5
549.665	4150.5
550.434	3912.5
551.203	3709.5
551.972	3517.5
552.741	3333.5
553.51	3134.5
554.278	2974.5
555.047	2807.5
555.815	2657.5
556.584	2530.5
557.352	2398.5
558.121	2232.5
558.889	2120.5
559.657	2004.5
560.425	1891.5
561.193	1797.5
561.961	1720.5
562.729	1628.5
563.496	1523.5
564.264	1454.5
565.032	1354.5
565.799	1301.5
566.567	1225.5
567.334	1155.5
568.101	1084.5
568.869	1020.5
569.636	963.5
570.403	909.5
571.17	854.5
571.937	810.5
572.704	780.5
573.471	734.5
574.237	690.5
575.004	644.5
575.771	605.5
576.537	581.5
577.303	545.5
578.07	518.5
578.836	490.5
579.602	457.5
580.368	445.5
581.134	415.5
581.9	399.5
582.666	381.5
583.432	362.5
584.198	347.5
584.964	321.5
585.729	307.5
586.495	292.5
587.26	277.5
588.025	259.5
588.791	246.5
589.556	230.5
590.321	222.5
591.086	205.5
591.851	198.5
592.616	193.5
593.381	182.5
594.146	171.5
594.911	166.5
595.675	159.5
596.44	154.5
597.204	145.5
597.969	142.5
598.733	127.5
599.497	125.5
600.261	118.5
601.025	113.5
601.79	111.5
602.553	105.5
603.317	103.5
604.081	92.5
604.845	95.5
605.609	91.5
606.372	86.5
607.136	83.5
607.899	81.5
608.662	77.5
609.426	72.5
610.189	69.5
610.952	67.5
611.715	69.5
612.478	61.5
613.241	61.5
614.004	58.5
614.767	58.5
615.529	55.5
616.292	55.5
617.055	49.5
617.817	48.5
618.579	45.5
619.342	47.5
620.104	40.5
620.866	42.5
621.628	42.5
622.39	41.5
623.152	39.5
623.914	37.5
624.676	35.5
625.438	36.5
626.199	37.5
626.961	33.5
627.722	27.5
628.484	31.5
629.245	31.5
630.006	29.5
630.768	31.5
631.529	27.5
632.29	29.5
633.051	23.5
633.812	23.5
634.573	27.5
635.333	21.5
636.094	25.5
636.855	21.5
637.615	22.5
638.376	22.5
639.136	20.5
639.896	21.5
640.657	19.5
641.417	19.5
642.177	18.5
642.937	19.5
643.697	18.5
644.457	15.5
645.216	13.5
645.976	16.5
646.736	17.5
647.495	14.5
648.255	16.5
649.014	14.5
649.774	13.5
650.533	14.5
651.292	15.5
652.051	16.5
652.81	12.5
653.569	14.5
654.328	15.5
655.087	13.5
655.846	14.5
656.604	11.5
657.363	13.5
658.121	15.5
658.88	12.5
659.638	10.5
660.397	12.5
661.155	9.5
661.913	11.5
662.671	11.5
663.429	11.5
664.187	9.5
664.945	11.5
665.703	10.5
666.46	11.5
667.218	11.5
667.976	8.5
668.733	10.5
669.49	10.5
670.248	11.5
671.005	7.5
671.762	11.5
672.519	8.5
673.276	7.5
674.033	10.5
674.79	10.5
675.547	8.5
676.304	10.5
677.06	6.5
677.817	11.5
678.574	9.5
679.33	11.5
680.086	8.5
680.843	8.5
681.599	8.5
682.355	9.5
683.111	9.5
683.867	10.5
684.623	9.5
685.379	10.5
686.135	7.5
686.89	9.5
687.646	8.5
688.402	7.5
689.157	8.5
689.912	7.5
690.668	7.5
691.423	7.5
692.178	9.5
692.933	8.5
693.688	9.5
694.443	5.5
695.198	8.5
695.953	9.5
696.708	6.5
697.462	8.5
698.217	7.5
698.972	6.5
699.726	6.5
700.48	5.5
701.235	10.5
701.989	6.5
702.743	8.5
703.497	7.5
704.251	7.5
705.005	8.5
705.759	5.5
706.513	7.5
707.266	7.5
708.02	9.5
708.774	8.5
709.527	7.5
710.28	7.5
711.034	6.5
711.787	9.5
712.54	6.5
713.293	7.5
714.046	8.5
714.799	6.5
715.552	8.5
716.305	6.5
717.058	8.5
717.81	7.5
718.563	7.5
719.315	5.5
720.068	6.5
720.82	7.5
721.573	6.5
722.325	9.5
723.077	9.5
723.829	9.5
724.581	9.5
725.333	6.5
726.085	8.5
726.836	10.5
727.588	8.5
728.34	9.5
729.091	8.5
729.843	10.5
730.594	8.5
731.346	9.5
732.097	10.5
732.848	9.5
733.599	9.5
734.35	8.5
735.101	9.5
735.852	8.5
736.603	10.5
737.354	8.5
738.104	9.5
738.855	8.5
739.605	7.5
740.356	10.5
741.106	7.5
741.856	10.5
742.607	10.5
743.357	10.5
744.107	8.5
744.857	10.5
745.607	9.5
746.357	11.5
747.106	11.5
747.856	9.5
748.606	9.5
749.355	10.5
750.105	8.5
750.854	11.5
751.603	11.5
752.353	11.5
753.102	9.5
753.851	9.5
754.6	12.5
755.349	10.5
756.098	10.5
756.847	9.5
757.595	10.5
758.344	12.5
759.093	9.5
759.841	10.5
760.589	12.5
761.338	11.5
762.086	14.5
762.834	11.5
763.582	11.5
764.331	11.5
765.079	12.5
765.826	12.5
766.574	15.5
767.322	14.5
768.07	15.5
768.817	13.5
769.565	14.5
770.312	11.5
771.06	14.5
771.807	10.5
772.554	14.5
773.302	14.5
774.049	14.5
774.796	13.5
775.543	12.5
776.29	10.5
777.036	12.5
777.783	13.5
778.53	14.5
779.276	15.5
780.023	15.5
780.769	18.5
781.516	15.5
782.262	15.5
783.008	16.5
783.754	12.5
784.5	14.5
785.246	15.5
785.992	13.5
786.738	14.5
787.484	12.5
788.23	15.5
788.975	14.5
789.721	14.5
790.466	13.5
791.212	15.5
791.957	13.5
792.702	15.5
793.447	11.5
794.193	15.5
794.938	9.5
795.683	13.5
796.427	11.5
797.172	16.5
797.917	13.5
798.662	16.5
799.406	9.5
800.151	11.5
800.895	11.5
801.64	11.5
802.384	15.5
803.128	11.5
803.872	11.5
804.616	14.5
805.36	11.5
806.104	11.5
806.848	11.5
807.592	8.5
808.336	8.5
809.079	11.5
809.823	8.5
810.566	10.5
811.31	11.5
812.053	10.5
812.796	7.5
813.539	10.5
814.283	7.5
815.026	7.5
815.769	10.5
816.511	8.5
817.254	9.5
817.997	9.5
818.74	8.5
819.482	7.5
820.225	7.5
820.967	7.5
821.71	7.5
822.452	8.5
823.194	7.5
823.936	6.5
824.678	8.5
825.42	7.5
826.162	6.5
826.904	7.5
827.646	8.5
828.388	6.5
829.129	6.5
829.871	7.5
830.612	4.5
831.354	6.5
832.095	5.5
832.836	5.5
833.577	8.5
834.319	7.5
835.06	4.5
835.801	6.5
836.542	7.5
837.282	5.5
838.023	5.5
838.764	6.5
839.504	6.5
840.245	6.5
840.985	7.5
841.726	5.5
842.466	4.5
843.206	5.5
843.946	5.5
844.687	7.5
845.427	5.5
846.166	4.5
846.906	4.5
847.646	4.5
848.386	5.5
849.125	6.5
849.865	4.5
850.605	7.5
851.344	5.5
852.083	3.5
852.823	6.5
853.562	5.5
854.301	4.5
855.04	3.5
855.779	2.5
856.518	3.5
857.257	4.5
857.995	3.5
858.734	5.5
859.473	2.5
860.211	6.5
860.95	4.5
861.688	2.5
862.426	4.5
863.165	3.5
863.903	3.5
864.641	1.5
865.379	1.5
866.117	5.5
866.855	5.5
867.593	1.5
868.33	3.5
869.068	3.5
869.806	3.5
870.543	3.5
871.28	2.5
872.018	1.5
872.755	3.5
873.492	2.5
874.229	1.5
874.967	3.5
875.703	1.5
876.44	2.5
877.177	0.5
877.914	5.5
878.651	4.5
879.387	1.5
880.124	2.5
880.86	3.5
881.597	1.5
882.333	1.5
883.069	0.5
883.806	3.5
884.542	3.5
885.278	0.5
886.014	1.5
886.749	0.5
887.485	5.5
888.221	5.5
888.957	-0.5
889.692	2.5
890.428	3.5
891.163	0.5
891.899	2.5
892.634	1.5
893.369	0.5
894.104	2.5
894.839	-0.5
895.574	3.5
896.309	1.5
897.044	0.5
897.779	3.5
898.514	3.5
899.248	3.5
899.983	2.5
900.717	1.5
901.452	1.5
902.186	1.5
902.92	-0.5
903.654	-0.5
904.389	0.5
905.123	1.5
905.857	-1.5
906.59	2.5
907.324	0.5
908.058	-0.5
908.792	2.5
909.525	1.5
910.259	2.5
910.992	0.5
911.726	2.5
912.459	3.5
913.192	2.5
913.925	0.5
914.658	0.5
915.391	-0.5
916.124	1.5
916.857	4.5
917.59	1.5
918.323	0.5
919.055	2.5
919.788	2.5
920.521	2.5
921.253	0.5
921.985	1.5
922.718	2.5
923.45	1.5
924.182	-0.5
924.914	-0.5
925.646	1.5
926.378	0.5
927.11	1.5
927.841	-0.5
928.573	2.5
929.305	1.5
930.036	-0.5
930.768	1.5
931.499	2.5
932.23	1.5
932.962	1.5
933.693	-0.5
934.424	2.5
935.155	-1.5
935.886	1.5
936.617	1.5
937.348	-0.5
938.078	1.5
938.809	0.5
939.54	0.5
940.27	0.5
941.001	1.5
941.731	1.5
942.461	1.5
943.191	1.5
943.922	-0.5
944.652	-0.5
945.382	1.5
946.112	2.5
946.841	0.5
947.571	0.5
948.301	3.5
949.031	0.5
949.76	1.5
950.49	-0.5
951.219	0.5
951.948	3.5
952.678	-0.5
953.407	0.5
954.136	-0.5
954.865	0.5
955.594	0.5
956.323	0.5
957.052	5.5
957.78	1.5
958.509	2.5
959.238	-0.5
959.966	1.5
960.695	1.5
961.423	1.5
962.151	1.5
962.88	-1.5
963.608	2.5
964.336	2.5
965.064	0.5
965.792	2.5
966.52	1.5
967.247	2.5
967.975	1.5
968.703	-0.5
969.43	2.5
970.158	0.5
970.885	-0.5
971.613	2.5
972.34	1.5
973.067	1.5
973.794	1.5
974.521	3.5
975.248	-1.5
975.975	1.5
976.702	3.5
977.429	-0.5
978.156	1.5
978.882	-1.5
979.609	1.5
980.335	1.5
981.062	1.5
981.788	1.5
982.514	-0.5
983.24	0.5
983.967	0.5
984.693	1.5
985.419	1.5
986.144	1.5
986.87	-1.5
987.596	-1.5
988.322	1.5
989.047	-0.5
989.773	2.5
990.498	1.5
991.224	-1.5
991.949	3.5
992.674	0.5
993.399	0.5
994.124	1.5
994.849	0.5
995.574	0.5
996.299	0.5
997.024	1.5
997.749	-0.5
998.473	1.5
999.198	0.5
999.922	-0.5
1000.647	0.5
1001.371	3.5
1002.095	-1.5
1002.82	0.5
1003.544	-0.5
1004.268	4.5
1004.992	6.5
1005.716	2.5
1006.439	6.5
1007.163	5.5
1007.887	7.5
1008.611	1.5
1009.334	1.5
1010.058	-0.5
1010.781	1.5
1011.504	1.5
1012.228	-0.5
1012.951	1.5
1013.674	-1.5
1014.397	0.5
1015.12	-2.5
