节点500_705_QEPB04081__140__20-48-12-091.txt的数据

Date: Wed Nov 12 20:48:12 CST 2025
User: PC
Spectrometer: QEPB0408
触发模式: 0
积分时间 (秒): 1.000000E-2
Scans to average: 1
启用暗噪声校正: true
启用非线性校正: false
滑动平均宽度: 0
X轴模式: Wavelengths
Number of Pixels in Spectrum: 1044
>>>>>Begin Spectral Data<<<<<
220.843	5.5
221.644	6.5
222.444	6.5
223.244	6.5
224.045	7.5
224.845	6.5
225.645	8.5
226.445	5.5
227.245	7.5
228.045	8.5
228.845	9.5
229.645	9.5
230.444	8.5
231.244	10.5
232.043	10.5
232.843	8.5
233.642	13.5
234.442	9.5
235.241	10.5
236.04	11.5
236.839	12.5
237.638	12.5
238.437	13.5
239.236	14.5
240.035	12.5
240.833	13.5
241.632	13.5
242.43	12.5
243.229	12.5
244.027	12.5
244.826	13.5
245.624	15.5
246.422	16.5
247.22	15.5
248.018	16.5
248.816	15.5
249.614	17.5
250.412	16.5
251.21	17.5
252.007	16.5
252.805	18.5
253.602	16.5
254.4	19.5
255.197	18.5
255.994	21.5
256.791	20.5
257.589	21.5
258.386	21.5
259.183	22.5
259.979	24.5
260.776	24.5
261.573	24.5
262.37	27.5
263.166	28.5
263.963	29.5
264.759	25.5
265.556	31.5
266.352	30.5
267.148	31.5
267.944	30.5
268.74	32.5
269.536	30.5
270.332	32.5
271.128	34.5
271.924	34.5
272.719	32.5
273.515	35.5
274.311	34.5
275.106	34.5
275.901	38.5
276.697	34.5
277.492	35.5
278.287	34.5
279.082	36.5
279.877	37.5
280.672	35.5
281.467	35.5
282.262	35.5
283.056	38.5
283.851	36.5
284.646	38.5
285.44	34.5
286.234	39.5
287.029	35.5
287.823	34.5
288.617	34.5
289.411	34.5
290.205	34.5
290.999	34.5
291.793	36.5
292.587	34.5
293.381	31.5
294.174	33.5
294.968	29.5
295.761	31.5
296.555	27.5
297.348	28.5
298.141	27.5
298.935	28.5
299.728	23.5
300.521	24.5
301.314	25.5
302.107	26.5
302.899	25.5
303.692	22.5
304.485	22.5
305.277	23.5
306.07	21.5
306.862	22.5
307.655	21.5
308.447	19.5
309.239	22.5
310.031	24.5
310.823	18.5
311.615	19.5
312.407	18.5
313.199	17.5
313.991	13.5
314.783	20.5
315.574	18.5
316.366	15.5
317.157	17.5
317.949	15.5
318.74	15.5
319.531	18.5
320.322	14.5
321.113	14.5
321.904	15.5
322.695	15.5
323.486	14.5
324.277	13.5
325.068	13.5
325.858	10.5
326.649	14.5
327.439	14.5
328.23	11.5
329.02	11.5
329.81	12.5
330.6	13.5
331.391	12.5
332.181	12.5
332.971	10.5
333.76	15.5
334.55	12.5
335.34	11.5
336.13	14.5
336.919	12.5
337.709	12.5
338.498	14.5
339.287	13.5
340.077	13.5
340.866	11.5
341.655	13.5
342.444	11.5
343.233	11.5
344.022	11.5
344.811	15.5
345.6	12.5
346.388	11.5
347.177	8.5
347.965	11.5
348.754	11.5
349.542	13.5
350.33	9.5
351.119	11.5
351.907	11.5
352.695	12.5
353.483	11.5
354.271	13.5
355.059	12.5
355.846	13.5
356.634	10.5
357.422	11.5
358.209	11.5
358.997	10.5
359.784	11.5
360.571	14.5
361.359	13.5
362.146	10.5
362.933	9.5
363.72	11.5
364.507	9.5
365.294	10.5
366.081	10.5
366.867	10.5
367.654	9.5
368.44	10.5
369.227	9.5
370.013	11.5
370.8	10.5
371.586	10.5
372.372	10.5
373.158	8.5
373.944	13.5
374.73	12.5
375.516	11.5
376.302	12.5
377.088	8.5
377.873	12.5
378.659	9.5
379.445	13.5
380.23	8.5
381.015	13.5
381.801	7.5
382.586	10.5
383.371	12.5
384.156	11.5
384.941	13.5
385.726	12.5
386.511	11.5
387.296	14.5
388.08	11.5
388.865	13.5
389.649	11.5
390.434	10.5
391.218	13.5
392.003	12.5
392.787	14.5
393.571	12.5
394.355	11.5
395.139	12.5
395.923	13.5
396.707	13.5
397.491	17.5
398.274	15.5
399.058	12.5
399.842	13.5
400.625	12.5
401.408	15.5
402.192	16.5
402.975	15.5
403.758	15.5
404.541	15.5
405.324	18.5
406.107	16.5
406.89	20.5
407.673	16.5
408.456	15.5
409.238	19.5
410.021	16.5
410.803	18.5
411.586	17.5
412.368	19.5
413.151	19.5
413.933	16.5
414.715	21.5
415.497	19.5
416.279	17.5
417.061	20.5
417.843	19.5
418.624	22.5
419.406	22.5
420.188	24.5
420.969	23.5
421.751	25.5
422.532	24.5
423.313	20.5
424.095	25.5
424.876	27.5
425.657	27.5
426.438	29.5
427.219	25.5
428	29.5
428.78	30.5
429.561	29.5
430.342	30.5
431.122	34.5
431.903	33.5
432.683	34.5
433.464	37.5
434.244	34.5
435.024	39.5
435.804	43.5
436.584	43.5
437.364	45.5
438.144	47.5
438.924	49.5
439.704	54.5
440.483	58.5
441.263	61.5
442.042	61.5
442.822	71.5
443.601	70.5
444.38	78.5
445.16	83.5
445.939	91.5
446.718	101.5
447.497	108.5
448.276	114.5
449.054	123.5
449.833	140.5
450.612	153.5
451.391	164.5
452.169	190.5
452.948	207.5
453.726	228.5
454.504	258.5
455.282	287.5
456.061	307.5
456.839	351.5
457.617	402.5
458.395	443.5
459.172	492.5
459.95	540.5
460.728	614.5
461.506	694.5
462.283	763.5
463.061	855.5
463.838	951.5
464.615	1061.5
465.393	1183.5
466.17	1319.5
466.947	1464.5
467.724	1636.5
468.501	1812.5
469.278	2025.5
470.055	2230.5
470.831	2488.5
471.608	2766.5
472.385	3037.5
473.161	3353.5
473.938	3683.5
474.714	4079.5
475.49	4498.5
476.266	4965.5
477.043	5420.5
477.819	5946.5
478.595	6543.5
479.371	7149.5
480.146	7815.5
480.922	8594.5
481.698	9376.5
482.473	10283.5
483.249	11169.5
484.024	12204.5
484.8	13256.5
485.575	14379.5
486.35	15697.5
487.126	17019.5
487.901	18416.5
488.676	19981.5
489.451	21613.5
490.225	23271.5
491	24947.5
491.775	26721.5
492.55	28600.5
493.324	30471.5
494.099	32312.5
494.873	34273.5
495.647	36278.5
496.422	38139.5
497.196	39976.5
497.97	41605.5
498.744	43179.5
499.518	44849.5
500.292	46093.5
501.066	47064.5
501.839	47922.5
502.613	48532.5
503.387	48973.5
504.16	49274.5
504.934	49212.5
505.707	48815.5
506.48	48384.5
507.253	47676.5
508.027	46723.5
508.8	45568.5
509.573	44275.5
510.346	42980.5
511.118	41878.5
511.891	40421.5
512.664	38742.5
513.437	37179.5
514.209	35733.5
514.982	34270.5
515.754	32904.5
516.526	31468.5
517.298	30211.5
518.071	28895.5
518.843	27786.5
519.615	26668.5
520.387	25657.5
521.159	24628.5
521.93	23508.5
522.702	22573.5
523.474	21606.5
524.245	20655.5
525.017	19752.5
525.788	18897.5
526.56	18035.5
527.331	17204.5
528.102	16312.5
528.873	15524.5
529.644	14739.5
530.415	13982.5
531.186	13300.5
531.957	12638.5
532.728	11963.5
533.498	11276.5
534.269	10685.5
535.039	10080.5
535.81	9575.5
536.58	9040.5
537.351	8533.5
538.121	8135.5
538.891	7687.5
539.661	7261.5
540.431	6812.5
541.201	6515.5
541.971	6167.5
542.741	5822.5
543.51	5529.5
544.28	5287.5
545.05	5012.5
545.819	4769.5
546.588	4577.5
547.358	4356.5
548.127	4127.5
548.896	3934.5
549.665	3712.5
550.434	3514.5
551.203	3323.5
551.972	3148.5
552.741	2949.5
553.51	2813.5
554.278	2650.5
555.047	2512.5
555.815	2347.5
556.584	2221.5
557.352	2126.5
558.121	1981.5
558.889	1874.5
559.657	1785.5
560.425	1687.5
561.193	1593.5
561.961	1503.5
562.729	1432.5
563.496	1348.5
564.264	1261.5
565.032	1203.5
565.799	1131.5
566.567	1071.5
567.334	1018.5
568.101	976.5
568.869	913.5
569.636	855.5
570.403	816.5
571.17	758.5
571.937	726.5
572.704	681.5
573.471	652.5
574.237	611.5
575.004	573.5
575.771	549.5
576.537	502.5
577.303	485.5
578.07	459.5
578.836	421.5
579.602	411.5
580.368	389.5
581.134	366.5
581.9	349.5
582.666	333.5
583.432	320.5
584.198	301.5
584.964	281.5
585.729	266.5
586.495	256.5
587.26	242.5
588.025	224.5
588.791	217.5
589.556	202.5
590.321	195.5
591.086	186.5
591.851	177.5
592.616	165.5
593.381	159.5
594.146	156.5
594.911	152.5
595.675	137.5
596.44	138.5
597.204	132.5
597.969	124.5
598.733	121.5
599.497	112.5
600.261	105.5
601.025	101.5
601.79	104.5
602.553	98.5
603.317	91.5
604.081	92.5
604.845	82.5
605.609	82.5
606.372	81.5
607.136	78.5
607.899	70.5
608.662	72.5
609.426	68.5
610.189	67.5
610.952	64.5
611.715	62.5
612.478	55.5
613.241	55.5
614.004	54.5
614.767	53.5
615.529	49.5
616.292	50.5
617.055	48.5
617.817	43.5
618.579	46.5
619.342	40.5
620.104	41.5
620.866	43.5
621.628	37.5
622.39	37.5
623.152	39.5
623.914	39.5
624.676	34.5
625.438	34.5
626.199	32.5
626.961	29.5
627.722	33.5
628.484	31.5
629.245	30.5
630.006	28.5
630.768	29.5
631.529	28.5
632.29	26.5
633.051	26.5
633.812	23.5
634.573	21.5
635.333	22.5
636.094	20.5
636.855	25.5
637.615	20.5
638.376	24.5
639.136	23.5
639.896	19.5
640.657	21.5
641.417	18.5
642.177	19.5
642.937	16.5
643.697	18.5
644.457	17.5
645.216	18.5
645.976	17.5
646.736	15.5
647.495	16.5
648.255	15.5
649.014	16.5
649.774	19.5
650.533	13.5
651.292	15.5
652.051	12.5
652.81	15.5
653.569	12.5
654.328	15.5
655.087	14.5
655.846	15.5
656.604	10.5
657.363	12.5
658.121	10.5
658.88	13.5
659.638	11.5
660.397	11.5
661.155	11.5
661.913	11.5
662.671	11.5
663.429	11.5
664.187	10.5
664.945	11.5
665.703	12.5
666.46	12.5
667.218	9.5
667.976	10.5
668.733	10.5
669.49	10.5
670.248	12.5
671.005	8.5
671.762	11.5
672.519	11.5
673.276	8.5
674.033	8.5
674.79	10.5
675.547	11.5
676.304	10.5
677.06	9.5
677.817	9.5
678.574	8.5
679.33	7.5
680.086	8.5
680.843	9.5
681.599	10.5
682.355	7.5
683.111	8.5
683.867	10.5
684.623	7.5
685.379	8.5
686.135	10.5
686.89	7.5
687.646	7.5
688.402	10.5
689.157	9.5
689.912	9.5
690.668	5.5
691.423	7.5
692.178	6.5
692.933	10.5
693.688	6.5
694.443	10.5
695.198	8.5
695.953	5.5
696.708	9.5
697.462	7.5
698.217	6.5
698.972	9.5
699.726	9.5
700.48	6.5
701.235	9.5
701.989	8.5
702.743	9.5
703.497	6.5
704.251	7.5
705.005	7.5
705.759	8.5
706.513	6.5
707.266	8.5
708.02	9.5
708.774	6.5
709.527	7.5
710.28	6.5
711.034	8.5
711.787	8.5
712.54	9.5
713.293	7.5
714.046	7.5
714.799	9.5
715.552	8.5
716.305	6.5
717.058	9.5
717.81	6.5
718.563	7.5
719.315	8.5
720.068	12.5
720.82	10.5
721.573	9.5
722.325	8.5
723.077	9.5
723.829	7.5
724.581	7.5
725.333	8.5
726.085	9.5
726.836	9.5
727.588	8.5
728.34	10.5
729.091	10.5
729.843	8.5
730.594	9.5
731.346	9.5
732.097	9.5
732.848	9.5
733.599	10.5
734.35	10.5
735.101	10.5
735.852	12.5
736.603	9.5
737.354	9.5
738.104	12.5
738.855	11.5
739.605	10.5
740.356	12.5
741.106	10.5
741.856	11.5
742.607	10.5
743.357	8.5
744.107	10.5
744.857	11.5
745.607	11.5
746.357	9.5
747.106	11.5
747.856	7.5
748.606	11.5
749.355	11.5
750.105	11.5
750.854	12.5
751.603	11.5
752.353	12.5
753.102	10.5
753.851	14.5
754.6	13.5
755.349	12.5
756.098	14.5
756.847	13.5
757.595	13.5
758.344	15.5
759.093	15.5
759.841	14.5
760.589	16.5
761.338	13.5
762.086	14.5
762.834	12.5
763.582	11.5
764.331	15.5
765.079	14.5
765.826	15.5
766.574	15.5
767.322	15.5
768.07	17.5
768.817	15.5
769.565	14.5
770.312	15.5
771.06	13.5
771.807	15.5
772.554	17.5
773.302	18.5
774.049	16.5
774.796	18.5
775.543	17.5
776.29	15.5
777.036	19.5
777.783	15.5
778.53	15.5
779.276	19.5
780.023	15.5
780.769	16.5
781.516	16.5
782.262	19.5
783.008	16.5
783.754	17.5
784.5	18.5
785.246	16.5
785.992	18.5
786.738	19.5
787.484	18.5
788.23	16.5
788.975	15.5
789.721	15.5
790.466	15.5
791.212	18.5
791.957	16.5
792.702	14.5
793.447	14.5
794.193	15.5
794.938	18.5
795.683	14.5
796.427	13.5
797.172	15.5
797.917	10.5
798.662	11.5
799.406	13.5
800.151	14.5
800.895	13.5
801.64	13.5
802.384	11.5
803.128	11.5
803.872	11.5
804.616	13.5
805.36	12.5
806.104	12.5
806.848	14.5
807.592	10.5
808.336	10.5
809.079	13.5
809.823	10.5
810.566	10.5
811.31	8.5
812.053	11.5
812.796	9.5
813.539	7.5
814.283	9.5
815.026	8.5
815.769	9.5
816.511	9.5
817.254	9.5
817.997	9.5
818.74	8.5
819.482	8.5
820.225	8.5
820.967	10.5
821.71	8.5
822.452	7.5
823.194	8.5
823.936	7.5
824.678	8.5
825.42	9.5
826.162	3.5
826.904	6.5
827.646	7.5
828.388	7.5
829.129	7.5
829.871	7.5
830.612	7.5
831.354	7.5
832.095	5.5
832.836	7.5
833.577	7.5
834.319	4.5
835.06	3.5
835.801	7.5
836.542	5.5
837.282	8.5
838.023	6.5
838.764	5.5
839.504	5.5
840.245	5.5
840.985	7.5
841.726	8.5
842.466	5.5
843.206	8.5
843.946	5.5
844.687	4.5
845.427	3.5
846.166	5.5
846.906	4.5
847.646	5.5
848.386	6.5
849.125	7.5
849.865	5.5
850.605	2.5
851.344	5.5
852.083	5.5
852.823	4.5
853.562	7.5
854.301	3.5
855.04	5.5
855.779	4.5
856.518	4.5
857.257	3.5
857.995	3.5
858.734	4.5
859.473	1.5
860.211	3.5
860.95	5.5
861.688	3.5
862.426	6.5
863.165	4.5
863.903	2.5
864.641	3.5
865.379	5.5
866.117	4.5
866.855	3.5
867.593	4.5
868.33	2.5
869.068	4.5
869.806	3.5
870.543	2.5
871.28	1.5
872.018	-0.5
872.755	3.5
873.492	2.5
874.229	2.5
874.967	3.5
875.703	2.5
876.44	1.5
877.177	3.5
877.914	3.5
878.651	2.5
879.387	1.5
880.124	3.5
880.86	2.5
881.597	3.5
882.333	3.5
883.069	3.5
883.806	3.5
884.542	3.5
885.278	0.5
886.014	1.5
886.749	0.5
887.485	1.5
888.221	3.5
888.957	1.5
889.692	1.5
890.428	-0.5
891.163	1.5
891.899	4.5
892.634	1.5
893.369	2.5
894.104	-0.5
894.839	2.5
895.574	1.5
896.309	1.5
897.044	0.5
897.779	1.5
898.514	2.5
899.248	2.5
899.983	2.5
900.717	0.5
901.452	1.5
902.186	2.5
902.92	-1.5
903.654	2.5
904.389	2.5
905.123	1.5
905.857	0.5
906.59	3.5
907.324	1.5
908.058	4.5
908.792	1.5
909.525	3.5
910.259	3.5
910.992	2.5
911.726	2.5
912.459	0.5
913.192	-0.5
913.925	2.5
914.658	0.5
915.391	-1.5
916.124	1.5
916.857	1.5
917.59	-0.5
918.323	2.5
919.055	2.5
919.788	0.5
920.521	0.5
921.253	0.5
921.985	1.5
922.718	-0.5
923.45	2.5
924.182	1.5
924.914	1.5
925.646	2.5
926.378	3.5
927.11	-0.5
927.841	0.5
928.573	2.5
929.305	1.5
930.036	0.5
930.768	0.5
931.499	2.5
932.23	1.5
932.962	1.5
933.693	-1.5
934.424	2.5
935.155	-2.5
935.886	1.5
936.617	0.5
937.348	1.5
938.078	1.5
938.809	2.5
939.54	0.5
940.27	-1.5
941.001	1.5
941.731	-1.5
942.461	0.5
943.191	1.5
943.922	-1.5
944.652	2.5
945.382	2.5
946.112	3.5
946.841	1.5
947.571	3.5
948.301	-0.5
949.031	-1.5
949.76	-0.5
950.49	-0.5
951.219	1.5
951.948	0.5
952.678	-1.5
953.407	2.5
954.136	2.5
954.865	1.5
955.594	2.5
956.323	3.5
957.052	-0.5
957.78	-0.5
958.509	2.5
959.238	1.5
959.966	1.5
960.695	2.5
961.423	-0.5
962.151	-0.5
962.88	0.5
963.608	0.5
964.336	1.5
965.064	2.5
965.792	-0.5
966.52	1.5
967.247	0.5
967.975	-0.5
968.703	1.5
969.43	1.5
970.158	-0.5
970.885	1.5
971.613	-0.5
972.34	1.5
973.067	0.5
973.794	1.5
974.521	-0.5
975.248	0.5
975.975	0.5
976.702	2.5
977.429	-0.5
978.156	1.5
978.882	1.5
979.609	1.5
980.335	2.5
981.062	2.5
981.788	2.5
982.514	1.5
983.24	1.5
983.967	1.5
984.693	0.5
985.419	-0.5
986.144	1.5
986.87	2.5
987.596	3.5
988.322	0.5
989.047	1.5
989.773	2.5
990.498	2.5
991.224	0.5
991.949	-0.5
992.674	1.5
993.399	0.5
994.124	-0.5
994.849	1.5
995.574	0.5
996.299	-1.5
997.024	0.5
997.749	0.5
998.473	1.5
999.198	1.5
999.922	0.5
1000.647	1.5
1001.371	4.5
1002.095	0.5
1002.82	-1.5
1003.544	-3.5
1004.268	4.5
1004.992	4.5
1005.716	6.5
1006.439	8.5
1007.163	6.5
1007.887	6.5
1008.611	2.5
1009.334	1.5
1010.058	-0.5
1010.781	1.5
1011.504	-0.5
1012.228	1.5
1012.951	0.5
1013.674	1.5
1014.397	0.5
1015.12	-2.5
