节点500_705_QEPB04081__176__20-48-46-053.txt的数据

Date: Wed Nov 12 20:48:46 CST 2025
User: PC
Spectrometer: QEPB0408
触发模式: 0
积分时间 (秒): 1.000000E-2
Scans to average: 1
启用暗噪声校正: true
启用非线性校正: false
滑动平均宽度: 0
X轴模式: Wavelengths
Number of Pixels in Spectrum: 1044
>>>>>Begin Spectral Data<<<<<
220.843	6
221.644	6
222.444	5
223.244	6
224.045	8
224.845	7
225.645	8
226.445	9
227.245	6
228.045	11
228.845	8
229.645	8
230.444	8
231.244	8
232.043	11
232.843	9
233.642	8
234.442	8
235.241	12
236.04	10
236.839	9
237.638	12
238.437	11
239.236	12
240.035	10
240.833	13
241.632	15
242.43	13
243.229	14
244.027	14
244.826	15
245.624	14
246.422	13
247.22	15
248.018	16
248.816	19
249.614	13
250.412	18
251.21	17
252.007	19
252.805	19
253.602	18
254.4	20
255.197	20
255.994	19
256.791	20
257.589	22
258.386	24
259.183	24
259.979	23
260.776	24
261.573	24
262.37	24
263.166	27
263.963	28
264.759	27
265.556	27
266.352	29
267.148	26
267.944	31
268.74	32
269.536	33
270.332	34
271.128	31
271.924	34
272.719	34
273.515	31
274.311	34
275.106	34
275.901	34
276.697	33
277.492	36
278.287	35
279.082	35
279.877	36
280.672	37
281.467	33
282.262	37
283.056	37
283.851	38
284.646	37
285.44	35
286.234	36
287.029	34
287.823	33
288.617	36
289.411	35
290.205	32
290.999	30
291.793	34
292.587	33
293.381	31
294.174	35
294.968	31
295.761	26
296.555	26
297.348	27
298.141	27
298.935	30
299.728	29
300.521	24
301.314	25
302.107	22
302.899	25
303.692	25
304.485	23
305.277	22
306.07	22
306.862	22
307.655	21
308.447	21
309.239	22
310.031	21
310.823	19
311.615	19
312.407	15
313.199	18
313.991	17
314.783	18
315.574	15
316.366	15
317.157	16
317.949	13
318.74	17
319.531	14
320.322	13
321.113	15
321.904	11
322.695	15
323.486	13
324.277	12
325.068	13
325.858	13
326.649	15
327.439	15
328.23	14
329.02	12
329.81	14
330.6	13
331.391	11
332.181	12
332.971	13
333.76	11
334.55	9
335.34	13
336.13	11
336.919	11
337.709	11
338.498	11
339.287	12
340.077	12
340.866	14
341.655	9
342.444	12
343.233	13
344.022	9
344.811	11
345.6	12
346.388	12
347.177	12
347.965	10
348.754	15
349.542	14
350.33	10
351.119	10
351.907	11
352.695	12
353.483	13
354.271	10
355.059	10
355.846	11
356.634	11
357.422	10
358.209	14
358.997	9
359.784	10
360.571	9
361.359	12
362.146	13
362.933	12
363.72	11
364.507	11
365.294	13
366.081	12
366.867	10
367.654	13
368.44	9
369.227	8
370.013	11
370.8	9
371.586	11
372.372	10
373.158	11
373.944	11
374.73	11
375.516	10
376.302	8
377.088	13
377.873	11
378.659	10
379.445	10
380.23	9
381.015	13
381.801	10
382.586	10
383.371	10
384.156	10
384.941	12
385.726	12
386.511	13
387.296	10
388.08	11
388.865	11
389.649	11
390.434	11
391.218	14
392.003	11
392.787	13
393.571	13
394.355	11
395.139	12
395.923	12
396.707	14
397.491	14
398.274	12
399.058	15
399.842	16
400.625	15
401.408	14
402.192	13
402.975	15
403.758	13
404.541	15
405.324	17
406.107	14
406.89	18
407.673	16
408.456	16
409.238	19
410.021	17
410.803	18
411.586	17
412.368	18
413.151	15
413.933	17
414.715	19
415.497	16
416.279	18
417.061	19
417.843	20
418.624	21
419.406	20
420.188	23
420.969	23
421.751	23
422.532	23
423.313	23
424.095	24
424.876	23
425.657	27
426.438	28
427.219	27
428	27
428.78	25
429.561	30
430.342	28
431.122	31
431.903	32
432.683	34
433.464	37
434.244	36
435.024	38
435.804	42
436.584	46
437.364	47
438.144	47
438.924	52
439.704	51
440.483	54
441.263	59
442.042	63
442.822	67
443.601	73
444.38	75
445.16	87
445.939	94
446.718	101
447.497	111
448.276	117
449.054	127
449.833	144
450.612	149
451.391	171
452.169	183
452.948	207
453.726	229
454.504	255
455.282	283
456.061	315
456.839	353
457.617	394
458.395	441
459.172	493
459.95	537
460.728	620
461.506	682
462.283	767
463.061	865
463.838	947
464.615	1068
465.393	1195
466.17	1313
466.947	1483
467.724	1629
468.501	1825
469.278	2027
470.055	2231
470.831	2486
471.608	2747
472.385	3043
473.161	3333
473.938	3693
474.714	4052
475.49	4454
476.266	4920
477.043	5372
477.819	5909
478.595	6468
479.371	7090
480.146	7804
480.922	8502
481.698	9313
482.473	10134
483.249	11098
484.024	12040
484.8	13089
485.575	14199
486.35	15487
487.126	16768
487.901	18223
488.676	19669
489.451	21221
490.225	22907
491	24555
491.775	26298
492.55	28146
493.324	30011
494.099	31845
494.873	33752
495.647	35677
496.422	37550
497.196	39482
497.97	41019
498.744	42553
499.518	44171
500.292	45559
501.066	46488
501.839	47288
502.613	47910
503.387	48484
504.16	48797
504.934	48729
505.707	48420
506.48	47893
507.253	47270
508.027	46420
508.8	45240
509.573	44061
510.346	42887
511.118	41669
511.891	40282
512.664	38697
513.437	37109
514.209	35695
514.982	34185
515.754	32859
516.526	31485
517.298	30191
518.071	28967
518.843	27800
519.615	26658
520.387	25635
521.159	24625
521.93	23535
522.702	22522
523.474	21548
524.245	20690
525.017	19757
525.788	18922
526.56	18097
527.331	17242
528.102	16360
528.873	15513
529.644	14760
530.415	14072
531.186	13385
531.957	12635
532.728	11988
533.498	11370
534.269	10750
535.039	10082
535.81	9611
536.58	9113
537.351	8581
538.121	8154
538.891	7695
539.661	7273
540.431	6901
541.201	6543
541.971	6188
542.741	5856
543.51	5579
544.28	5303
545.05	5059
545.819	4799
546.588	4601
547.358	4374
548.127	4150
548.896	3938
549.665	3720
550.434	3522
551.203	3343
551.972	3184
552.741	3002
553.51	2808
554.278	2667
555.047	2507
555.815	2387
556.584	2239
557.352	2120
558.121	1996
558.889	1887
559.657	1780
560.425	1692
561.193	1595
561.961	1509
562.729	1442
563.496	1344
564.264	1268
565.032	1213
565.799	1149
566.567	1092
567.334	1034
568.101	971
568.869	917
569.636	861
570.403	823
571.17	769
571.937	715
572.704	696
573.471	660
574.237	611
575.004	580
575.771	539
576.537	513
577.303	483
578.07	459
578.836	438
579.602	415
580.368	390
581.134	365
581.9	358
582.666	330
583.432	311
584.198	304
584.964	288
585.729	275
586.495	258
587.26	241
588.025	230
588.791	219
589.556	204
590.321	193
591.086	189
591.851	174
592.616	172
593.381	160
594.146	150
594.911	148
595.675	138
596.44	136
597.204	128
597.969	122
598.733	115
599.497	113
600.261	111
601.025	103
601.79	102
602.553	94
603.317	92
604.081	87
604.845	83
605.609	81
606.372	79
607.136	78
607.899	69
608.662	71
609.426	65
610.189	64
610.952	63
611.715	59
612.478	55
613.241	57
614.004	54
614.767	54
615.529	48
616.292	50
617.055	51
617.817	46
618.579	44
619.342	42
620.104	43
620.866	39
621.628	38
622.39	37
623.152	38
623.914	35
624.676	30
625.438	35
626.199	29
626.961	33
627.722	28
628.484	30
629.245	27
630.006	29
630.768	25
631.529	25
632.29	28
633.051	27
633.812	25
634.573	24
635.333	25
636.094	19
636.855	21
637.615	21
638.376	19
639.136	19
639.896	21
640.657	20
641.417	17
642.177	18
642.937	18
643.697	16
644.457	19
645.216	16
645.976	16
646.736	15
647.495	15
648.255	15
649.014	16
649.774	14
650.533	11
651.292	15
652.051	15
652.81	15
653.569	15
654.328	11
655.087	12
655.846	14
656.604	14
657.363	15
658.121	13
658.88	11
659.638	11
660.397	13
661.155	10
661.913	13
662.671	11
663.429	9
664.187	11
664.945	11
665.703	8
666.46	12
667.218	11
667.976	11
668.733	10
669.49	8
670.248	11
671.005	10
671.762	10
672.519	11
673.276	8
674.033	8
674.79	11
675.547	7
676.304	7
677.06	8
677.817	11
678.574	10
679.33	9
680.086	9
680.843	8
681.599	8
682.355	8
683.111	6
683.867	8
684.623	8
685.379	7
686.135	8
686.89	10
687.646	7
688.402	9
689.157	8
689.912	7
690.668	10
691.423	9
692.178	8
692.933	6
693.688	7
694.443	10
695.198	7
695.953	7
696.708	9
697.462	8
698.217	9
698.972	7
699.726	7
700.48	8
701.235	7
701.989	9
702.743	5
703.497	8
704.251	8
705.005	10
705.759	7
706.513	5
707.266	6
708.02	7
708.774	9
709.527	7
710.28	8
711.034	7
711.787	7
712.54	7
713.293	8
714.046	9
714.799	9
715.552	7
716.305	9
717.058	8
717.81	9
718.563	9
719.315	8
720.068	11
720.82	7
721.573	8
722.325	8
723.077	9
723.829	10
724.581	8
725.333	8
726.085	10
726.836	7
727.588	8
728.34	8
729.091	9
729.843	8
730.594	10
731.346	10
732.097	11
732.848	10
733.599	8
734.35	9
735.101	9
735.852	9
736.603	10
737.354	9
738.104	8
738.855	11
739.605	9
740.356	9
741.106	9
741.856	10
742.607	14
743.357	9
744.107	10
744.857	11
745.607	9
746.357	11
747.106	13
747.856	11
748.606	10
749.355	9
750.105	12
750.854	9
751.603	12
752.353	11
753.102	11
753.851	13
754.6	11
755.349	13
756.098	14
756.847	14
757.595	15
758.344	13
759.093	14
759.841	13
760.589	15
761.338	17
762.086	11
762.834	13
763.582	13
764.331	16
765.079	15
765.826	14
766.574	15
767.322	16
768.07	17
768.817	13
769.565	13
770.312	13
771.06	16
771.807	15
772.554	14
773.302	17
774.049	14
774.796	18
775.543	14
776.29	14
777.036	18
777.783	15
778.53	18
779.276	15
780.023	16
780.769	15
781.516	15
782.262	18
783.008	15
783.754	14
784.5	19
785.246	14
785.992	18
786.738	18
787.484	18
788.23	16
788.975	16
789.721	16
790.466	15
791.212	16
791.957	14
792.702	15
793.447	14
794.193	13
794.938	15
795.683	14
796.427	16
797.172	13
797.917	15
798.662	13
799.406	13
800.151	13
800.895	13
801.64	14
802.384	13
803.128	15
803.872	13
804.616	11
805.36	11
806.104	11
806.848	12
807.592	9
808.336	11
809.079	9
809.823	10
810.566	13
811.31	11
812.053	11
812.796	9
813.539	10
814.283	11
815.026	8
815.769	10
816.511	8
817.254	8
817.997	7
818.74	9
819.482	9
820.225	7
820.967	9
821.71	9
822.452	5
823.194	6
823.936	8
824.678	7
825.42	9
826.162	9
826.904	7
827.646	6
828.388	7
829.129	5
829.871	7
830.612	8
831.354	5
832.095	7
832.836	4
833.577	6
834.319	9
835.06	7
835.801	6
836.542	6
837.282	5
838.023	3
838.764	7
839.504	7
840.245	5
840.985	7
841.726	3
842.466	7
843.206	5
843.946	6
844.687	5
845.427	6
846.166	8
846.906	6
847.646	6
848.386	8
849.125	7
849.865	3
850.605	4
851.344	5
852.083	5
852.823	5
853.562	5
854.301	2
855.04	5
855.779	6
856.518	5
857.257	4
857.995	3
858.734	4
859.473	2
860.211	5
860.95	3
861.688	4
862.426	3
863.165	3
863.903	1
864.641	2
865.379	4
866.117	2
866.855	3
867.593	1
868.33	3
869.068	4
869.806	1
870.543	3
871.28	5
872.018	2
872.755	1
873.492	3
874.229	0
874.967	3
875.703	5
876.44	1
877.177	1
877.914	3
878.651	1
879.387	0
880.124	1
880.86	2
881.597	2
882.333	-1
883.069	3
883.806	-1
884.542	2
885.278	2
886.014	1
886.749	2
887.485	0
888.221	0
888.957	3
889.692	2
890.428	1
891.163	0
891.899	-2
892.634	1
893.369	1
894.104	2
894.839	-2
895.574	2
896.309	0
897.044	4
897.779	3
898.514	2
899.248	2
899.983	0
900.717	-1
901.452	0
902.186	2
902.92	1
903.654	1
904.389	3
905.123	1
905.857	2
906.59	0
907.324	0
908.058	2
908.792	0
909.525	1
910.259	2
910.992	2
911.726	0
912.459	1
913.192	-1
913.925	0
914.658	1
915.391	0
916.124	2
916.857	2
917.59	1
918.323	0
919.055	-1
919.788	2
920.521	-1
921.253	2
921.985	-1
922.718	0
923.45	1
924.182	0
924.914	2
925.646	1
926.378	1
927.11	1
927.841	0
928.573	2
929.305	1
930.036	2
930.768	-1
931.499	0
932.23	-1
932.962	2
933.693	1
934.424	1
935.155	1
935.886	-1
936.617	-2
937.348	-2
938.078	-1
938.809	1
939.54	-1
940.27	0
941.001	4
941.731	0
942.461	1
943.191	-1
943.922	2
944.652	2
945.382	-3
946.112	1
946.841	3
947.571	0
948.301	2
949.031	-2
949.76	1
950.49	0
951.219	3
951.948	-1
952.678	1
953.407	0
954.136	1
954.865	1
955.594	1
956.323	1
957.052	0
957.78	-1
958.509	1
959.238	0
959.966	1
960.695	-1
961.423	1
962.151	0
962.88	1
963.608	1
964.336	0
965.064	1
965.792	0
966.52	0
967.247	0
967.975	0
968.703	1
969.43	-1
970.158	3
970.885	0
971.613	0
972.34	1
973.067	1
973.794	2
974.521	0
975.248	1
975.975	0
976.702	1
977.429	3
978.156	1
978.882	1
979.609	0
980.335	0
981.062	1
981.788	0
982.514	3
983.24	1
983.967	0
984.693	0
985.419	2
986.144	0
986.87	1
987.596	2
988.322	1
989.047	1
989.773	1
990.498	-1
991.224	-1
991.949	1
992.674	1
993.399	1
994.124	-2
994.849	-1
995.574	-1
996.299	2
997.024	-1
997.749	0
998.473	3
999.198	0
999.922	0
1000.647	2
1001.371	4
1002.095	-2
1002.82	-1
1003.544	-3
1004.268	3
1004.992	3
1005.716	6
1006.439	6
1007.163	8
1007.887	6
1008.611	1
1009.334	0
1010.058	2
1010.781	1
1011.504	-1
1012.228	1
1012.951	1
1013.674	1
1014.397	-1
1015.12	1
