节点500_705_QEPB04081__224__20-49-06-455.txt的数据

Date: Wed Nov 12 20:49:06 CST 2025
User: PC
Spectrometer: QEPB0408
触发模式: 0
积分时间 (秒): 1.000000E-2
Scans to average: 1
启用暗噪声校正: true
启用非线性校正: false
滑动平均宽度: 0
X轴模式: Wavelengths
Number of Pixels in Spectrum: 1044
>>>>>Begin Spectral Data<<<<<
220.843	4.5
221.644	6.5
222.444	6.5
223.244	2.5
224.045	7.5
224.845	8.5
225.645	10.5
226.445	6.5
227.245	7.5
228.045	9.5
228.845	6.5
229.645	10.5
230.444	10.5
231.244	6.5
232.043	7.5
232.843	9.5
233.642	10.5
234.442	9.5
235.241	10.5
236.04	8.5
236.839	11.5
237.638	12.5
238.437	11.5
239.236	12.5
240.035	11.5
240.833	12.5
241.632	13.5
242.43	11.5
243.229	14.5
244.027	13.5
244.826	15.5
245.624	13.5
246.422	17.5
247.22	14.5
248.018	15.5
248.816	15.5
249.614	15.5
250.412	18.5
251.21	16.5
252.007	17.5
252.805	16.5
253.602	19.5
254.4	17.5
255.197	18.5
255.994	20.5
256.791	19.5
257.589	19.5
258.386	22.5
259.183	21.5
259.979	24.5
260.776	22.5
261.573	25.5
262.37	22.5
263.166	26.5
263.963	28.5
264.759	28.5
265.556	31.5
266.352	29.5
267.148	30.5
267.944	30.5
268.74	33.5
269.536	31.5
270.332	33.5
271.128	32.5
271.924	33.5
272.719	34.5
273.515	31.5
274.311	34.5
275.106	34.5
275.901	34.5
276.697	35.5
277.492	34.5
278.287	35.5
279.082	39.5
279.877	32.5
280.672	36.5
281.467	33.5
282.262	38.5
283.056	36.5
283.851	32.5
284.646	36.5
285.44	35.5
286.234	31.5
287.029	35.5
287.823	35.5
288.617	30.5
289.411	33.5
290.205	31.5
290.999	31.5
291.793	34.5
292.587	34.5
293.381	32.5
294.174	30.5
294.968	31.5
295.761	30.5
296.555	30.5
297.348	28.5
298.141	27.5
298.935	28.5
299.728	26.5
300.521	24.5
301.314	23.5
302.107	25.5
302.899	27.5
303.692	25.5
304.485	24.5
305.277	24.5
306.07	23.5
306.862	23.5
307.655	23.5
308.447	19.5
309.239	21.5
310.031	22.5
310.823	22.5
311.615	19.5
312.407	19.5
313.199	17.5
313.991	19.5
314.783	18.5
315.574	16.5
316.366	18.5
317.157	16.5
317.949	14.5
318.74	15.5
319.531	17.5
320.322	14.5
321.113	14.5
321.904	14.5
322.695	13.5
323.486	11.5
324.277	13.5
325.068	15.5
325.858	15.5
326.649	13.5
327.439	13.5
328.23	13.5
329.02	15.5
329.81	16.5
330.6	13.5
331.391	12.5
332.181	12.5
332.971	11.5
333.76	14.5
334.55	13.5
335.34	14.5
336.13	11.5
336.919	13.5
337.709	14.5
338.498	13.5
339.287	12.5
340.077	8.5
340.866	15.5
341.655	9.5
342.444	12.5
343.233	11.5
344.022	11.5
344.811	13.5
345.6	11.5
346.388	11.5
347.177	12.5
347.965	11.5
348.754	11.5
349.542	11.5
350.33	11.5
351.119	13.5
351.907	14.5
352.695	15.5
353.483	10.5
354.271	12.5
355.059	8.5
355.846	10.5
356.634	11.5
357.422	10.5
358.209	10.5
358.997	11.5
359.784	11.5
360.571	13.5
361.359	10.5
362.146	11.5
362.933	8.5
363.72	11.5
364.507	11.5
365.294	10.5
366.081	9.5
366.867	10.5
367.654	14.5
368.44	11.5
369.227	9.5
370.013	9.5
370.8	9.5
371.586	8.5
372.372	10.5
373.158	12.5
373.944	10.5
374.73	10.5
375.516	10.5
376.302	8.5
377.088	10.5
377.873	11.5
378.659	8.5
379.445	11.5
380.23	11.5
381.015	10.5
381.801	13.5
382.586	9.5
383.371	11.5
384.156	13.5
384.941	10.5
385.726	8.5
386.511	12.5
387.296	11.5
388.08	11.5
388.865	14.5
389.649	10.5
390.434	12.5
391.218	11.5
392.003	13.5
392.787	12.5
393.571	11.5
394.355	12.5
395.139	13.5
395.923	15.5
396.707	11.5
397.491	14.5
398.274	13.5
399.058	13.5
399.842	15.5
400.625	17.5
401.408	16.5
402.192	13.5
402.975	15.5
403.758	14.5
404.541	16.5
405.324	16.5
406.107	13.5
406.89	16.5
407.673	16.5
408.456	15.5
409.238	18.5
410.021	15.5
410.803	17.5
411.586	18.5
412.368	18.5
413.151	15.5
413.933	19.5
414.715	21.5
415.497	17.5
416.279	20.5
417.061	19.5
417.843	18.5
418.624	20.5
419.406	23.5
420.188	22.5
420.969	22.5
421.751	23.5
422.532	20.5
423.313	26.5
424.095	25.5
424.876	23.5
425.657	23.5
426.438	25.5
427.219	27.5
428	29.5
428.78	28.5
429.561	32.5
430.342	28.5
431.122	32.5
431.903	33.5
432.683	33.5
433.464	38.5
434.244	35.5
435.024	38.5
435.804	42.5
436.584	42.5
437.364	46.5
438.144	51.5
438.924	54.5
439.704	52.5
440.483	59.5
441.263	59.5
442.042	65.5
442.822	71.5
443.601	72.5
444.38	80.5
445.16	88.5
445.939	89.5
446.718	102.5
447.497	113.5
448.276	113.5
449.054	131.5
449.833	141.5
450.612	153.5
451.391	173.5
452.169	190.5
452.948	209.5
453.726	231.5
454.504	249.5
455.282	291.5
456.061	317.5
456.839	349.5
457.617	395.5
458.395	449.5
459.172	486.5
459.95	551.5
460.728	626.5
461.506	687.5
462.283	776.5
463.061	846.5
463.838	953.5
464.615	1073.5
465.393	1179.5
466.17	1338.5
466.947	1478.5
467.724	1647.5
468.501	1822.5
469.278	2012.5
470.055	2240.5
470.831	2467.5
471.608	2737.5
472.385	3052.5
473.161	3345.5
473.938	3703.5
474.714	4087.5
475.49	4482.5
476.266	4922.5
477.043	5375.5
477.819	5909.5
478.595	6501.5
479.371	7087.5
480.146	7730.5
480.922	8451.5
481.698	9260.5
482.473	10075.5
483.249	10991.5
484.024	11943.5
484.8	12996.5
485.575	14155.5
486.35	15329.5
487.126	16647.5
487.901	18016.5
488.676	19478.5
489.451	21052.5
490.225	22676.5
491	24303.5
491.775	26058.5
492.55	27917.5
493.324	29675.5
494.099	31522.5
494.873	33434.5
495.647	35266.5
496.422	37131.5
497.196	39050.5
497.97	40705.5
498.744	42124.5
499.518	43822.5
500.292	45126.5
501.066	46117.5
501.839	46942.5
502.613	47537.5
503.387	48131.5
504.16	48494.5
504.934	48459.5
505.707	48216.5
506.48	47767.5
507.253	47090.5
508.027	46274.5
508.8	45189.5
509.573	44038.5
510.346	42893.5
511.118	41640.5
511.891	40291.5
512.664	38719.5
513.437	37216.5
514.209	35711.5
514.982	34331.5
515.754	32911.5
516.526	31444.5
517.298	30245.5
518.071	29024.5
518.843	27829.5
519.615	26794.5
520.387	25689.5
521.159	24667.5
521.93	23616.5
522.702	22595.5
523.474	21626.5
524.245	20753.5
525.017	19807.5
525.788	18927.5
526.56	18109.5
527.331	17268.5
528.102	16396.5
528.873	15539.5
529.644	14810.5
530.415	14162.5
531.186	13427.5
531.957	12677.5
532.728	12015.5
533.498	11361.5
534.269	10777.5
535.039	10221.5
535.81	9653.5
536.58	9110.5
537.351	8647.5
538.121	8181.5
538.891	7761.5
539.661	7334.5
540.431	6943.5
541.201	6575.5
541.971	6227.5
542.741	5877.5
543.51	5593.5
544.28	5354.5
545.05	5075.5
545.819	4849.5
546.588	4639.5
547.358	4396.5
548.127	4171.5
548.896	3957.5
549.665	3745.5
550.434	3547.5
551.203	3370.5
551.972	3185.5
552.741	3015.5
553.51	2860.5
554.278	2697.5
555.047	2527.5
555.815	2403.5
556.584	2264.5
557.352	2150.5
558.121	2016.5
558.889	1900.5
559.657	1803.5
560.425	1700.5
561.193	1611.5
561.961	1539.5
562.729	1455.5
563.496	1369.5
564.264	1293.5
565.032	1223.5
565.799	1149.5
566.567	1091.5
567.334	1016.5
568.101	979.5
568.869	911.5
569.636	873.5
570.403	823.5
571.17	774.5
571.937	738.5
572.704	688.5
573.471	674.5
574.237	612.5
575.004	578.5
575.771	544.5
576.537	517.5
577.303	495.5
578.07	466.5
578.836	438.5
579.602	419.5
580.368	391.5
581.134	371.5
581.9	358.5
582.666	336.5
583.432	319.5
584.198	306.5
584.964	291.5
585.729	264.5
586.495	256.5
587.26	246.5
588.025	229.5
588.791	217.5
589.556	211.5
590.321	201.5
591.086	191.5
591.851	178.5
592.616	171.5
593.381	164.5
594.146	153.5
594.911	146.5
595.675	145.5
596.44	142.5
597.204	129.5
597.969	127.5
598.733	118.5
599.497	115.5
600.261	111.5
601.025	101.5
601.79	100.5
602.553	94.5
603.317	91.5
604.081	93.5
604.845	87.5
605.609	82.5
606.372	75.5
607.136	78.5
607.899	72.5
608.662	72.5
609.426	70.5
610.189	61.5
610.952	63.5
611.715	58.5
612.478	59.5
613.241	54.5
614.004	54.5
614.767	54.5
615.529	51.5
616.292	50.5
617.055	43.5
617.817	46.5
618.579	43.5
619.342	42.5
620.104	41.5
620.866	38.5
621.628	38.5
622.39	35.5
623.152	37.5
623.914	37.5
624.676	32.5
625.438	34.5
626.199	30.5
626.961	31.5
627.722	29.5
628.484	27.5
629.245	31.5
630.006	26.5
630.768	28.5
631.529	26.5
632.29	28.5
633.051	24.5
633.812	22.5
634.573	24.5
635.333	23.5
636.094	23.5
636.855	23.5
637.615	21.5
638.376	20.5
639.136	18.5
639.896	21.5
640.657	21.5
641.417	19.5
642.177	17.5
642.937	17.5
643.697	17.5
644.457	15.5
645.216	17.5
645.976	16.5
646.736	16.5
647.495	14.5
648.255	15.5
649.014	14.5
649.774	11.5
650.533	16.5
651.292	14.5
652.051	13.5
652.81	15.5
653.569	14.5
654.328	13.5
655.087	13.5
655.846	12.5
656.604	12.5
657.363	12.5
658.121	14.5
658.88	13.5
659.638	12.5
660.397	12.5
661.155	10.5
661.913	13.5
662.671	8.5
663.429	14.5
664.187	9.5
664.945	10.5
665.703	9.5
666.46	8.5
667.218	10.5
667.976	9.5
668.733	10.5
669.49	11.5
670.248	10.5
671.005	10.5
671.762	12.5
672.519	10.5
673.276	9.5
674.033	10.5
674.79	7.5
675.547	6.5
676.304	9.5
677.06	9.5
677.817	9.5
678.574	9.5
679.33	8.5
680.086	8.5
680.843	7.5
681.599	9.5
682.355	7.5
683.111	7.5
683.867	6.5
684.623	8.5
685.379	8.5
686.135	8.5
686.89	7.5
687.646	9.5
688.402	7.5
689.157	9.5
689.912	6.5
690.668	8.5
691.423	8.5
692.178	7.5
692.933	8.5
693.688	7.5
694.443	7.5
695.198	9.5
695.953	7.5
696.708	6.5
697.462	8.5
698.217	9.5
698.972	8.5
699.726	8.5
700.48	8.5
701.235	7.5
701.989	8.5
702.743	6.5
703.497	7.5
704.251	8.5
705.005	7.5
705.759	10.5
706.513	6.5
707.266	8.5
708.02	6.5
708.774	9.5
709.527	9.5
710.28	6.5
711.034	8.5
711.787	7.5
712.54	8.5
713.293	8.5
714.046	11.5
714.799	8.5
715.552	5.5
716.305	9.5
717.058	9.5
717.81	10.5
718.563	10.5
719.315	9.5
720.068	9.5
720.82	8.5
721.573	9.5
722.325	8.5
723.077	9.5
723.829	7.5
724.581	10.5
725.333	9.5
726.085	7.5
726.836	10.5
727.588	7.5
728.34	11.5
729.091	8.5
729.843	9.5
730.594	10.5
731.346	10.5
732.097	10.5
732.848	11.5
733.599	8.5
734.35	7.5
735.101	9.5
735.852	10.5
736.603	10.5
737.354	12.5
738.104	9.5
738.855	10.5
739.605	7.5
740.356	13.5
741.106	11.5
741.856	10.5
742.607	10.5
743.357	12.5
744.107	9.5
744.857	11.5
745.607	9.5
746.357	14.5
747.106	9.5
747.856	11.5
748.606	12.5
749.355	9.5
750.105	12.5
750.854	12.5
751.603	12.5
752.353	13.5
753.102	12.5
753.851	13.5
754.6	10.5
755.349	10.5
756.098	13.5
756.847	14.5
757.595	13.5
758.344	13.5
759.093	15.5
759.841	13.5
760.589	13.5
761.338	14.5
762.086	13.5
762.834	14.5
763.582	12.5
764.331	14.5
765.079	15.5
765.826	13.5
766.574	13.5
767.322	12.5
768.07	16.5
768.817	15.5
769.565	15.5
770.312	17.5
771.06	18.5
771.807	17.5
772.554	15.5
773.302	16.5
774.049	15.5
774.796	18.5
775.543	17.5
776.29	15.5
777.036	19.5
777.783	16.5
778.53	17.5
779.276	15.5
780.023	19.5
780.769	17.5
781.516	17.5
782.262	15.5
783.008	17.5
783.754	17.5
784.5	16.5
785.246	19.5
785.992	18.5
786.738	17.5
787.484	18.5
788.23	17.5
788.975	17.5
789.721	18.5
790.466	13.5
791.212	15.5
791.957	16.5
792.702	18.5
793.447	15.5
794.193	15.5
794.938	13.5
795.683	10.5
796.427	16.5
797.172	14.5
797.917	14.5
798.662	13.5
799.406	12.5
800.151	15.5
800.895	13.5
801.64	14.5
802.384	13.5
803.128	13.5
803.872	13.5
804.616	13.5
805.36	11.5
806.104	10.5
806.848	10.5
807.592	10.5
808.336	12.5
809.079	11.5
809.823	10.5
810.566	10.5
811.31	8.5
812.053	11.5
812.796	7.5
813.539	8.5
814.283	11.5
815.026	8.5
815.769	8.5
816.511	9.5
817.254	8.5
817.997	6.5
818.74	9.5
819.482	7.5
820.225	7.5
820.967	8.5
821.71	7.5
822.452	8.5
823.194	9.5
823.936	7.5
824.678	7.5
825.42	8.5
826.162	7.5
826.904	6.5
827.646	9.5
828.388	7.5
829.129	5.5
829.871	11.5
830.612	7.5
831.354	7.5
832.095	8.5
832.836	6.5
833.577	8.5
834.319	5.5
835.06	7.5
835.801	9.5
836.542	4.5
837.282	7.5
838.023	6.5
838.764	6.5
839.504	9.5
840.245	7.5
840.985	6.5
841.726	6.5
842.466	5.5
843.206	5.5
843.946	7.5
844.687	6.5
845.427	7.5
846.166	6.5
846.906	5.5
847.646	6.5
848.386	5.5
849.125	4.5
849.865	4.5
850.605	6.5
851.344	6.5
852.083	5.5
852.823	4.5
853.562	4.5
854.301	6.5
855.04	5.5
855.779	4.5
856.518	4.5
857.257	3.5
857.995	5.5
858.734	5.5
859.473	5.5
860.211	2.5
860.95	3.5
861.688	5.5
862.426	4.5
863.165	3.5
863.903	2.5
864.641	2.5
865.379	4.5
866.117	0.5
866.855	3.5
867.593	6.5
868.33	6.5
869.068	4.5
869.806	4.5
870.543	2.5
871.28	3.5
872.018	1.5
872.755	1.5
873.492	3.5
874.229	0.5
874.967	2.5
875.703	3.5
876.44	1.5
877.177	3.5
877.914	1.5
878.651	3.5
879.387	2.5
880.124	2.5
880.86	3.5
881.597	0.5
882.333	2.5
883.069	1.5
883.806	3.5
884.542	2.5
885.278	2.5
886.014	2.5
886.749	2.5
887.485	0.5
888.221	3.5
888.957	1.5
889.692	2.5
890.428	3.5
891.163	1.5
891.899	-0.5
892.634	1.5
893.369	3.5
894.104	0.5
894.839	3.5
895.574	1.5
896.309	0.5
897.044	1.5
897.779	0.5
898.514	2.5
899.248	0.5
899.983	0.5
900.717	2.5
901.452	2.5
902.186	0.5
902.92	1.5
903.654	1.5
904.389	1.5
905.123	-0.5
905.857	1.5
906.59	2.5
907.324	0.5
908.058	0.5
908.792	1.5
909.525	3.5
910.259	1.5
910.992	3.5
911.726	0.5
912.459	1.5
913.192	1.5
913.925	1.5
914.658	3.5
915.391	1.5
916.124	1.5
916.857	1.5
917.59	3.5
918.323	1.5
919.055	0.5
919.788	3.5
920.521	0.5
921.253	1.5
921.985	0.5
922.718	1.5
923.45	0.5
924.182	-1.5
924.914	1.5
925.646	1.5
926.378	2.5
927.11	1.5
927.841	0.5
928.573	-0.5
929.305	-0.5
930.036	2.5
930.768	1.5
931.499	-0.5
932.23	2.5
932.962	0.5
933.693	1.5
934.424	-2.5
935.155	1.5
935.886	1.5
936.617	0.5
937.348	1.5
938.078	0.5
938.809	0.5
939.54	-0.5
940.27	0.5
941.001	3.5
941.731	1.5
942.461	1.5
943.191	0.5
943.922	0.5
944.652	0.5
945.382	-0.5
946.112	2.5
946.841	-0.5
947.571	1.5
948.301	1.5
949.031	1.5
949.76	2.5
950.49	1.5
951.219	0.5
951.948	0.5
952.678	2.5
953.407	-1.5
954.136	2.5
954.865	1.5
955.594	-0.5
956.323	-0.5
957.052	2.5
957.78	0.5
958.509	2.5
959.238	1.5
959.966	-1.5
960.695	-0.5
961.423	1.5
962.151	1.5
962.88	0.5
963.608	0.5
964.336	0.5
965.064	0.5
965.792	0.5
966.52	1.5
967.247	1.5
967.975	-0.5
968.703	1.5
969.43	0.5
970.158	4.5
970.885	-2.5
971.613	2.5
972.34	0.5
973.067	0.5
973.794	0.5
974.521	2.5
975.248	2.5
975.975	0.5
976.702	-0.5
977.429	1.5
978.156	-0.5
978.882	1.5
979.609	0.5
980.335	2.5
981.062	0.5
981.788	1.5
982.514	-0.5
983.24	-1.5
983.967	3.5
984.693	1.5
985.419	-0.5
986.144	2.5
986.87	-0.5
987.596	2.5
988.322	0.5
989.047	2.5
989.773	-0.5
990.498	1.5
991.224	-0.5
991.949	3.5
992.674	1.5
993.399	3.5
994.124	2.5
994.849	0.5
995.574	0.5
996.299	0.5
997.024	1.5
997.749	0.5
998.473	0.5
999.198	0.5
999.922	2.5
1000.647	0.5
1001.371	4.5
1002.095	-0.5
1002.82	-1.5
1003.544	-0.5
1004.268	5.5
1004.992	3.5
1005.716	4.5
1006.439	4.5
1007.163	4.5
1007.887	6.5
1008.611	1.5
1009.334	-0.5
1010.058	-1.5
1010.781	-0.5
1011.504	-0.5
1012.228	1.5
1012.951	-0.5
1013.674	-1.5
1014.397	0.5
1015.12	-0.5
