节点500_705_QEPB04081__659__20-55-18-797.txt的数据

Date: Wed Nov 12 20:55:18 CST 2025
User: PC
Spectrometer: QEPB0408
触发模式: 0
积分时间 (秒): 1.000000E-2
Scans to average: 1
启用暗噪声校正: true
启用非线性校正: false
滑动平均宽度: 0
X轴模式: Wavelengths
Number of Pixels in Spectrum: 1044
>>>>>Begin Spectral Data<<<<<
220.843	6.62
221.644	5.62
222.444	3.62
223.244	5.62
224.045	6.62
224.845	7.62
225.645	5.62
226.445	4.62
227.245	8.62
228.045	5.62
228.845	7.62
229.645	9.62
230.444	8.62
231.244	8.62
232.043	9.62
232.843	9.62
233.642	9.62
234.442	9.62
235.241	8.62
236.04	9.62
236.839	10.62
237.638	8.62
238.437	12.62
239.236	10.62
240.035	10.62
240.833	10.62
241.632	9.62
242.43	12.62
243.229	11.62
244.027	12.62
244.826	14.62
245.624	12.62
246.422	14.62
247.22	14.62
248.018	13.62
248.816	12.62
249.614	14.62
250.412	17.62
251.21	15.62
252.007	15.62
252.805	15.62
253.602	18.62
254.4	14.62
255.197	18.62
255.994	18.62
256.791	18.62
257.589	19.62
258.386	17.62
259.183	19.62
259.979	19.62
260.776	22.62
261.573	22.62
262.37	19.62
263.166	23.62
263.963	22.62
264.759	24.62
265.556	24.62
266.352	25.62
267.148	25.62
267.944	26.62
268.74	23.62
269.536	25.62
270.332	28.62
271.128	26.62
271.924	30.62
272.719	31.62
273.515	30.62
274.311	30.62
275.106	27.62
275.901	30.62
276.697	30.62
277.492	28.62
278.287	29.62
279.082	31.62
279.877	29.62
280.672	30.62
281.467	31.62
282.262	33.62
283.056	27.62
283.851	32.62
284.646	33.62
285.44	33.62
286.234	31.62
287.029	29.62
287.823	31.62
288.617	29.62
289.411	31.62
290.205	30.62
290.999	29.62
291.793	28.62
292.587	27.62
293.381	31.62
294.174	28.62
294.968	27.62
295.761	25.62
296.555	26.62
297.348	26.62
298.141	26.62
298.935	30.62
299.728	27.62
300.521	25.62
301.314	25.62
302.107	24.62
302.899	24.62
303.692	22.62
304.485	22.62
305.277	21.62
306.07	21.62
306.862	22.62
307.655	19.62
308.447	22.62
309.239	21.62
310.031	21.62
310.823	20.62
311.615	15.62
312.407	17.62
313.199	17.62
313.991	17.62
314.783	15.62
315.574	15.62
316.366	12.62
317.157	18.62
317.949	15.62
318.74	13.62
319.531	13.62
320.322	13.62
321.113	14.62
321.904	14.62
322.695	12.62
323.486	15.62
324.277	13.62
325.068	12.62
325.858	15.62
326.649	13.62
327.439	14.62
328.23	10.62
329.02	16.62
329.81	11.62
330.6	12.62
331.391	11.62
332.181	12.62
332.971	11.62
333.76	11.62
334.55	12.62
335.34	14.62
336.13	12.62
336.919	12.62
337.709	11.62
338.498	12.62
339.287	13.62
340.077	10.62
340.866	10.62
341.655	9.62
342.444	10.62
343.233	11.62
344.022	14.62
344.811	11.62
345.6	11.62
346.388	11.62
347.177	12.62
347.965	10.62
348.754	10.62
349.542	11.62
350.33	12.62
351.119	10.62
351.907	12.62
352.695	8.62
353.483	13.62
354.271	12.62
355.059	9.62
355.846	10.62
356.634	10.62
357.422	12.62
358.209	9.62
358.997	9.62
359.784	11.62
360.571	10.62
361.359	12.62
362.146	9.62
362.933	10.62
363.72	9.62
364.507	10.62
365.294	10.62
366.081	9.62
366.867	8.62
367.654	12.62
368.44	11.62
369.227	9.62
370.013	7.62
370.8	12.62
371.586	8.62
372.372	9.62
373.158	9.62
373.944	7.62
374.73	11.62
375.516	8.62
376.302	9.62
377.088	11.62
377.873	9.62
378.659	9.62
379.445	10.62
380.23	11.62
381.015	7.62
381.801	10.62
382.586	11.62
383.371	8.62
384.156	11.62
384.941	9.62
385.726	12.62
386.511	11.62
387.296	7.62
388.08	11.62
388.865	10.62
389.649	13.62
390.434	10.62
391.218	12.62
392.003	11.62
392.787	10.62
393.571	9.62
394.355	12.62
395.139	11.62
395.923	11.62
396.707	14.62
397.491	14.62
398.274	9.62
399.058	10.62
399.842	10.62
400.625	14.62
401.408	14.62
402.192	15.62
402.975	13.62
403.758	14.62
404.541	15.62
405.324	15.62
406.107	14.62
406.89	15.62
407.673	14.62
408.456	13.62
409.238	13.62
410.021	16.62
410.803	15.62
411.586	17.62
412.368	13.62
413.151	19.62
413.933	19.62
414.715	19.62
415.497	17.62
416.279	20.62
417.061	21.62
417.843	20.62
418.624	20.62
419.406	21.62
420.188	19.62
420.969	20.62
421.751	19.62
422.532	23.62
423.313	25.62
424.095	22.62
424.876	24.62
425.657	25.62
426.438	24.62
427.219	23.62
428	25.62
428.78	24.62
429.561	24.62
430.342	30.62
431.122	31.62
431.903	35.62
432.683	35.62
433.464	34.62
434.244	38.62
435.024	37.62
435.804	39.62
436.584	40.62
437.364	46.62
438.144	50.62
438.924	53.62
439.704	58.62
440.483	59.62
441.263	61.62
442.042	67.62
442.822	69.62
443.601	78.62
444.38	83.62
445.16	93.62
445.939	98.62
446.718	110.62
447.497	123.62
448.276	126.62
449.054	150.62
449.833	151.62
450.612	168.62
451.391	198.62
452.169	209.62
452.948	230.62
453.726	259.62
454.504	287.62
455.282	327.62
456.061	359.62
456.839	398.62
457.617	436.62
458.395	484.62
459.172	535.62
459.95	614.62
460.728	676.62
461.506	746.62
462.283	822.62
463.061	919.62
463.838	1032.62
464.615	1137.62
465.393	1255.62
466.17	1379.62
466.947	1535.62
467.724	1697.62
468.501	1881.62
469.278	2063.62
470.055	2291.62
470.831	2501.62
471.608	2752.62
472.385	2999.62
473.161	3326.62
473.938	3598.62
474.714	3967.62
475.49	4305.62
476.266	4701.62
477.043	5109.62
477.819	5557.62
478.595	6043.62
479.371	6571.62
480.146	7148.62
480.922	7762.62
481.698	8374.62
482.473	9085.62
483.249	9816.62
484.024	10613.62
484.8	11452.62
485.575	12338.62
486.35	13354.62
487.126	14353.62
487.901	15413.62
488.676	16601.62
489.451	17860.62
490.225	19084.62
491	20487.62
491.775	21825.62
492.55	23267.62
493.324	24785.62
494.099	26373.62
494.873	27889.62
495.647	29458.62
496.422	31084.62
497.196	32565.62
497.97	34159.62
498.744	35679.62
499.518	37155.62
500.292	38546.62
501.066	39571.62
501.839	40528.62
502.613	41418.62
503.387	42332.62
504.16	42927.62
504.934	43247.62
505.707	43563.62
506.48	43511.62
507.253	43355.62
508.027	43082.62
508.8	42496.62
509.573	41819.62
510.346	41089.62
511.118	40261.62
511.891	39299.62
512.664	38130.62
513.437	36915.62
514.209	35639.62
514.982	34417.62
515.754	33188.62
516.526	31850.62
517.298	30705.62
518.071	29544.62
518.843	28410.62
519.615	27288.62
520.387	26219.62
521.159	25188.62
521.93	24175.62
522.702	23186.62
523.474	22276.62
524.245	21342.62
525.017	20473.62
525.788	19641.62
526.56	18806.62
527.331	18032.62
528.102	17164.62
528.873	16318.62
529.644	15614.62
530.415	14908.62
531.186	14209.62
531.957	13499.62
532.728	12769.62
533.498	12195.62
534.269	11547.62
535.039	10975.62
535.81	10411.62
536.58	9843.62
537.351	9309.62
538.121	8812.62
538.891	8362.62
539.661	7921.62
540.431	7489.62
541.201	7121.62
541.971	6754.62
542.741	6385.62
543.51	6038.62
544.28	5768.62
545.05	5495.62
545.819	5251.62
546.588	5001.62
547.358	4753.62
548.127	4507.62
548.896	4313.62
549.665	4099.62
550.434	3886.62
551.203	3698.62
551.972	3505.62
552.741	3327.62
553.51	3130.62
554.278	2958.62
555.047	2781.62
555.815	2647.62
556.584	2516.62
557.352	2372.62
558.121	2243.62
558.889	2119.62
559.657	2025.62
560.425	1905.62
561.193	1791.62
561.961	1706.62
562.729	1610.62
563.496	1515.62
564.264	1424.62
565.032	1361.62
565.799	1279.62
566.567	1223.62
567.334	1150.62
568.101	1090.62
568.869	1026.62
569.636	979.62
570.403	919.62
571.17	860.62
571.937	811.62
572.704	770.62
573.471	737.62
574.237	683.62
575.004	647.62
575.771	611.62
576.537	574.62
577.303	550.62
578.07	520.62
578.836	484.62
579.602	458.62
580.368	430.62
581.134	413.62
581.9	398.62
582.666	377.62
583.432	361.62
584.198	336.62
584.964	321.62
585.729	304.62
586.495	290.62
587.26	275.62
588.025	258.62
588.791	246.62
589.556	233.62
590.321	219.62
591.086	213.62
591.851	198.62
592.616	185.62
593.381	183.62
594.146	168.62
594.911	163.62
595.675	163.62
596.44	149.62
597.204	143.62
597.969	138.62
598.733	133.62
599.497	122.62
600.261	121.62
601.025	113.62
601.79	109.62
602.553	108.62
603.317	102.62
604.081	99.62
604.845	95.62
605.609	89.62
606.372	84.62
607.136	85.62
607.899	79.62
608.662	74.62
609.426	75.62
610.189	70.62
610.952	68.62
611.715	63.62
612.478	61.62
613.241	63.62
614.004	56.62
614.767	56.62
615.529	51.62
616.292	53.62
617.055	53.62
617.817	48.62
618.579	48.62
619.342	48.62
620.104	46.62
620.866	42.62
621.628	44.62
622.39	45.62
623.152	39.62
623.914	39.62
624.676	37.62
625.438	34.62
626.199	37.62
626.961	31.62
627.722	33.62
628.484	29.62
629.245	31.62
630.006	27.62
630.768	29.62
631.529	27.62
632.29	26.62
633.051	27.62
633.812	22.62
634.573	23.62
635.333	24.62
636.094	22.62
636.855	23.62
637.615	20.62
638.376	21.62
639.136	21.62
639.896	21.62
640.657	20.62
641.417	21.62
642.177	18.62
642.937	18.62
643.697	20.62
644.457	17.62
645.216	15.62
645.976	15.62
646.736	13.62
647.495	17.62
648.255	14.62
649.014	13.62
649.774	14.62
650.533	14.62
651.292	16.62
652.051	14.62
652.81	15.62
653.569	15.62
654.328	13.62
655.087	14.62
655.846	9.62
656.604	13.62
657.363	16.62
658.121	11.62
658.88	10.62
659.638	13.62
660.397	15.62
661.155	9.62
661.913	9.62
662.671	10.62
663.429	9.62
664.187	12.62
664.945	11.62
665.703	10.62
666.46	10.62
667.218	10.62
667.976	10.62
668.733	9.62
669.49	9.62
670.248	7.62
671.005	11.62
671.762	7.62
672.519	7.62
673.276	10.62
674.033	10.62
674.79	10.62
675.547	9.62
676.304	8.62
677.06	8.62
677.817	11.62
678.574	10.62
679.33	7.62
680.086	9.62
680.843	5.62
681.599	7.62
682.355	10.62
683.111	8.62
683.867	8.62
684.623	7.62
685.379	8.62
686.135	9.62
686.89	7.62
687.646	8.62
688.402	7.62
689.157	8.62
689.912	6.62
690.668	8.62
691.423	7.62
692.178	7.62
692.933	7.62
693.688	7.62
694.443	7.62
695.198	6.62
695.953	4.62
696.708	5.62
697.462	7.62
698.217	9.62
698.972	7.62
699.726	9.62
700.48	9.62
701.235	8.62
701.989	10.62
702.743	8.62
703.497	9.62
704.251	6.62
705.005	8.62
705.759	7.62
706.513	8.62
707.266	6.62
708.02	8.62
708.774	7.62
709.527	9.62
710.28	7.62
711.034	8.62
711.787	7.62
712.54	9.62
713.293	7.62
714.046	8.62
714.799	9.62
715.552	7.62
716.305	7.62
717.058	8.62
717.81	9.62
718.563	6.62
719.315	9.62
720.068	9.62
720.82	7.62
721.573	7.62
722.325	6.62
723.077	8.62
723.829	6.62
724.581	9.62
725.333	8.62
726.085	5.62
726.836	7.62
727.588	11.62
728.34	9.62
729.091	8.62
729.843	6.62
730.594	8.62
731.346	9.62
732.097	9.62
732.848	8.62
733.599	7.62
734.35	8.62
735.101	9.62
735.852	8.62
736.603	7.62
737.354	8.62
738.104	10.62
738.855	9.62
739.605	11.62
740.356	10.62
741.106	7.62
741.856	11.62
742.607	11.62
743.357	11.62
744.107	11.62
744.857	10.62
745.607	10.62
746.357	9.62
747.106	9.62
747.856	11.62
748.606	10.62
749.355	11.62
750.105	11.62
750.854	8.62
751.603	10.62
752.353	10.62
753.102	10.62
753.851	12.62
754.6	11.62
755.349	10.62
756.098	11.62
756.847	8.62
757.595	11.62
758.344	10.62
759.093	10.62
759.841	12.62
760.589	12.62
761.338	11.62
762.086	13.62
762.834	12.62
763.582	10.62
764.331	12.62
765.079	13.62
765.826	11.62
766.574	14.62
767.322	12.62
768.07	11.62
768.817	12.62
769.565	12.62
770.312	15.62
771.06	13.62
771.807	15.62
772.554	15.62
773.302	12.62
774.049	12.62
774.796	10.62
775.543	15.62
776.29	12.62
777.036	15.62
777.783	14.62
778.53	14.62
779.276	14.62
780.023	14.62
780.769	15.62
781.516	13.62
782.262	17.62
783.008	15.62
783.754	16.62
784.5	15.62
785.246	14.62
785.992	14.62
786.738	11.62
787.484	14.62
788.23	11.62
788.975	14.62
789.721	13.62
790.466	15.62
791.212	13.62
791.957	16.62
792.702	16.62
793.447	13.62
794.193	10.62
794.938	14.62
795.683	13.62
796.427	14.62
797.172	12.62
797.917	13.62
798.662	11.62
799.406	14.62
800.151	11.62
800.895	12.62
801.64	12.62
802.384	11.62
803.128	10.62
803.872	13.62
804.616	9.62
805.36	11.62
806.104	11.62
806.848	12.62
807.592	11.62
808.336	8.62
809.079	8.62
809.823	9.62
810.566	9.62
811.31	8.62
812.053	9.62
812.796	11.62
813.539	6.62
814.283	9.62
815.026	7.62
815.769	9.62
816.511	9.62
817.254	8.62
817.997	7.62
818.74	6.62
819.482	8.62
820.225	9.62
820.967	10.62
821.71	7.62
822.452	7.62
823.194	8.62
823.936	6.62
824.678	7.62
825.42	5.62
826.162	7.62
826.904	7.62
827.646	5.62
828.388	9.62
829.129	7.62
829.871	5.62
830.612	6.62
831.354	7.62
832.095	8.62
832.836	5.62
833.577	4.62
834.319	7.62
835.06	4.62
835.801	5.62
836.542	5.62
837.282	8.62
838.023	6.62
838.764	7.62
839.504	4.62
840.245	6.62
840.985	5.62
841.726	7.62
842.466	10.62
843.206	5.62
843.946	5.62
844.687	7.62
845.427	3.62
846.166	5.62
846.906	4.62
847.646	6.62
848.386	3.62
849.125	7.62
849.865	6.62
850.605	7.62
851.344	3.62
852.083	6.62
852.823	4.62
853.562	4.62
854.301	5.62
855.04	5.62
855.779	6.62
856.518	5.62
857.257	2.62
857.995	1.62
858.734	4.62
859.473	2.62
860.211	4.62
860.95	1.62
861.688	4.62
862.426	0.62
863.165	5.62
863.903	6.62
864.641	5.62
865.379	3.62
866.117	4.62
866.855	1.62
867.593	3.62
868.33	2.62
869.068	4.62
869.806	3.62
870.543	3.62
871.28	0.62
872.018	4.62
872.755	3.62
873.492	3.62
874.229	3.62
874.967	2.62
875.703	1.62
876.44	4.62
877.177	1.62
877.914	3.62
878.651	2.62
879.387	1.62
880.124	-0.38
880.86	4.62
881.597	3.62
882.333	2.62
883.069	3.62
883.806	-0.38
884.542	0.62
885.278	3.62
886.014	-0.38
886.749	3.62
887.485	0.62
888.221	1.62
888.957	1.62
889.692	0.62
890.428	2.62
891.163	2.62
891.899	2.62
892.634	2.62
893.369	2.62
894.104	-0.38
894.839	1.62
895.574	0.62
896.309	0.62
897.044	0.62
897.779	-0.38
898.514	3.62
899.248	0.62
899.983	-0.38
900.717	2.62
901.452	1.62
902.186	1.62
902.92	0.62
903.654	0.62
904.389	2.62
905.123	0.62
905.857	2.62
906.59	2.62
907.324	-0.38
908.058	1.62
908.792	-0.38
909.525	1.62
910.259	0.62
910.992	1.62
911.726	1.62
912.459	0.62
913.192	1.62
913.925	0.62
914.658	2.62
915.391	1.62
916.124	0.62
916.857	0.62
917.59	1.62
918.323	-0.38
919.055	0.62
919.788	0.62
920.521	1.62
921.253	0.62
921.985	1.62
922.718	1.62
923.45	0.62
924.182	-1.38
924.914	-0.38
925.646	1.62
926.378	-0.38
927.11	2.62
927.841	0.62
928.573	2.62
929.305	-0.38
930.036	1.62
930.768	1.62
931.499	0.62
932.23	1.62
932.962	-0.38
933.693	1.62
934.424	0.62
935.155	2.62
935.886	1.62
936.617	-0.38
937.348	2.62
938.078	1.62
938.809	1.62
939.54	0.62
940.27	1.62
941.001	2.62
941.731	0.62
942.461	0.62
943.191	0.62
943.922	1.62
944.652	0.62
945.382	0.62
946.112	1.62
946.841	-0.38
947.571	1.62
948.301	2.62
949.031	0.62
949.76	0.62
950.49	-0.38
951.219	1.62
951.948	2.62
952.678	1.62
953.407	-0.38
954.136	1.62
954.865	0.62
955.594	-2.38
956.323	1.62
957.052	0.62
957.78	1.62
958.509	-2.38
959.238	-0.38
959.966	1.62
960.695	-1.38
961.423	2.62
962.151	0.62
962.88	-0.38
963.608	1.62
964.336	0.62
965.064	0.62
965.792	1.62
966.52	2.62
967.247	-0.38
967.975	0.62
968.703	1.62
969.43	-0.38
970.158	2.62
970.885	1.62
971.613	2.62
972.34	-0.38
973.067	-0.38
973.794	2.62
974.521	-1.38
975.248	3.62
975.975	-1.38
976.702	0.62
977.429	0.62
978.156	2.62
978.882	0.62
979.609	0.62
980.335	1.62
981.062	1.62
981.788	-0.38
982.514	-0.38
983.24	-0.38
983.967	2.62
984.693	1.62
985.419	-0.38
986.144	1.62
986.87	0.62
987.596	2.62
988.322	-0.38
989.047	2.62
989.773	-0.38
990.498	2.62
991.224	-1.38
991.949	0.62
992.674	2.62
993.399	1.62
994.124	-1.38
994.849	-0.38
995.574	1.62
996.299	0.62
997.024	-0.38
997.749	0.62
998.473	2.62
999.198	0.62
999.922	1.62
1000.647	-1.38
1001.371	2.62
1002.095	-0.38
1002.82	-2.38
1003.544	-0.38
1004.268	3.62
1004.992	2.62
1005.716	5.62
1006.439	3.62
1007.163	4.62
1007.887	6.62
1008.611	3.62
1009.334	1.62
1010.058	1.62
1010.781	0.62
1011.504	2.62
1012.228	1.62
1012.951	-2.38
1013.674	2.62
1014.397	-0.38
1015.12	0.62
