节点500_705_QEPB04081__221__20-49-03-480.txt的数据

Date: Wed Nov 12 20:49:03 CST 2025
User: PC
Spectrometer: QEPB0408
触发模式: 0
积分时间 (秒): 1.000000E-2
Scans to average: 1
启用暗噪声校正: true
启用非线性校正: false
滑动平均宽度: 0
X轴模式: Wavelengths
Number of Pixels in Spectrum: 1044
>>>>>Begin Spectral Data<<<<<
220.843	5.5
221.644	6.5
222.444	6.5
223.244	4.5
224.045	11.5
224.845	8.5
225.645	7.5
226.445	6.5
227.245	8.5
228.045	8.5
228.845	10.5
229.645	8.5
230.444	7.5
231.244	10.5
232.043	10.5
232.843	11.5
233.642	10.5
234.442	9.5
235.241	13.5
236.04	10.5
236.839	11.5
237.638	11.5
238.437	13.5
239.236	12.5
240.035	12.5
240.833	13.5
241.632	11.5
242.43	13.5
243.229	11.5
244.027	14.5
244.826	16.5
245.624	13.5
246.422	18.5
247.22	14.5
248.018	15.5
248.816	14.5
249.614	15.5
250.412	17.5
251.21	18.5
252.007	18.5
252.805	13.5
253.602	15.5
254.4	19.5
255.197	18.5
255.994	23.5
256.791	22.5
257.589	22.5
258.386	21.5
259.183	23.5
259.979	23.5
260.776	27.5
261.573	25.5
262.37	27.5
263.166	28.5
263.963	27.5
264.759	27.5
265.556	29.5
266.352	28.5
267.148	29.5
267.944	28.5
268.74	27.5
269.536	31.5
270.332	33.5
271.128	34.5
271.924	29.5
272.719	34.5
273.515	34.5
274.311	34.5
275.106	35.5
275.901	38.5
276.697	36.5
277.492	34.5
278.287	35.5
279.082	36.5
279.877	35.5
280.672	37.5
281.467	37.5
282.262	31.5
283.056	34.5
283.851	36.5
284.646	34.5
285.44	36.5
286.234	35.5
287.029	35.5
287.823	34.5
288.617	34.5
289.411	32.5
290.205	34.5
290.999	33.5
291.793	33.5
292.587	34.5
293.381	31.5
294.174	31.5
294.968	30.5
295.761	27.5
296.555	30.5
297.348	25.5
298.141	30.5
298.935	25.5
299.728	27.5
300.521	23.5
301.314	24.5
302.107	25.5
302.899	22.5
303.692	22.5
304.485	24.5
305.277	22.5
306.07	23.5
306.862	24.5
307.655	21.5
308.447	21.5
309.239	21.5
310.031	19.5
310.823	21.5
311.615	21.5
312.407	15.5
313.199	19.5
313.991	17.5
314.783	19.5
315.574	15.5
316.366	16.5
317.157	13.5
317.949	18.5
318.74	14.5
319.531	13.5
320.322	13.5
321.113	13.5
321.904	11.5
322.695	16.5
323.486	12.5
324.277	13.5
325.068	12.5
325.858	14.5
326.649	12.5
327.439	11.5
328.23	11.5
329.02	13.5
329.81	12.5
330.6	12.5
331.391	12.5
332.181	11.5
332.971	15.5
333.76	11.5
334.55	15.5
335.34	11.5
336.13	11.5
336.919	14.5
337.709	14.5
338.498	13.5
339.287	12.5
340.077	12.5
340.866	11.5
341.655	11.5
342.444	13.5
343.233	12.5
344.022	13.5
344.811	11.5
345.6	14.5
346.388	12.5
347.177	12.5
347.965	13.5
348.754	11.5
349.542	14.5
350.33	11.5
351.119	10.5
351.907	9.5
352.695	12.5
353.483	7.5
354.271	12.5
355.059	11.5
355.846	13.5
356.634	10.5
357.422	12.5
358.209	13.5
358.997	11.5
359.784	10.5
360.571	11.5
361.359	9.5
362.146	10.5
362.933	9.5
363.72	10.5
364.507	10.5
365.294	9.5
366.081	10.5
366.867	11.5
367.654	10.5
368.44	9.5
369.227	10.5
370.013	11.5
370.8	9.5
371.586	12.5
372.372	9.5
373.158	10.5
373.944	11.5
374.73	11.5
375.516	8.5
376.302	7.5
377.088	8.5
377.873	11.5
378.659	11.5
379.445	10.5
380.23	10.5
381.015	11.5
381.801	9.5
382.586	9.5
383.371	12.5
384.156	10.5
384.941	10.5
385.726	11.5
386.511	11.5
387.296	10.5
388.08	11.5
388.865	11.5
389.649	11.5
390.434	12.5
391.218	10.5
392.003	12.5
392.787	13.5
393.571	12.5
394.355	14.5
395.139	12.5
395.923	15.5
396.707	12.5
397.491	12.5
398.274	14.5
399.058	13.5
399.842	13.5
400.625	13.5
401.408	14.5
402.192	14.5
402.975	12.5
403.758	15.5
404.541	14.5
405.324	16.5
406.107	15.5
406.89	15.5
407.673	17.5
408.456	15.5
409.238	16.5
410.021	16.5
410.803	14.5
411.586	17.5
412.368	19.5
413.151	20.5
413.933	18.5
414.715	19.5
415.497	21.5
416.279	21.5
417.061	21.5
417.843	21.5
418.624	20.5
419.406	19.5
420.188	22.5
420.969	22.5
421.751	21.5
422.532	22.5
423.313	23.5
424.095	23.5
424.876	24.5
425.657	27.5
426.438	27.5
427.219	27.5
428	27.5
428.78	28.5
429.561	29.5
430.342	31.5
431.122	29.5
431.903	33.5
432.683	35.5
433.464	36.5
434.244	37.5
435.024	40.5
435.804	42.5
436.584	45.5
437.364	46.5
438.144	47.5
438.924	53.5
439.704	56.5
440.483	58.5
441.263	59.5
442.042	65.5
442.822	72.5
443.601	73.5
444.38	79.5
445.16	81.5
445.939	91.5
446.718	98.5
447.497	108.5
448.276	120.5
449.054	130.5
449.833	143.5
450.612	161.5
451.391	171.5
452.169	187.5
452.948	207.5
453.726	228.5
454.504	259.5
455.282	290.5
456.061	322.5
456.839	356.5
457.617	398.5
458.395	446.5
459.172	499.5
459.95	547.5
460.728	621.5
461.506	686.5
462.283	756.5
463.061	859.5
463.838	950.5
464.615	1066.5
465.393	1197.5
466.17	1333.5
466.947	1487.5
467.724	1634.5
468.501	1837.5
469.278	2038.5
470.055	2244.5
470.831	2484.5
471.608	2752.5
472.385	3019.5
473.161	3345.5
473.938	3674.5
474.714	4043.5
475.49	4476.5
476.266	4938.5
477.043	5371.5
477.819	5887.5
478.595	6477.5
479.371	7071.5
480.146	7737.5
480.922	8483.5
481.698	9259.5
482.473	10095.5
483.249	10978.5
484.024	11969.5
484.8	13001.5
485.575	14130.5
486.35	15369.5
487.126	16649.5
487.901	18034.5
488.676	19508.5
489.451	21052.5
490.225	22696.5
491	24340.5
491.775	26081.5
492.55	27928.5
493.324	29732.5
494.099	31569.5
494.873	33424.5
495.647	35329.5
496.422	37160.5
497.196	39009.5
497.97	40682.5
498.744	42228.5
499.518	43785.5
500.292	45130.5
501.066	46114.5
501.839	46949.5
502.613	47683.5
503.387	48253.5
504.16	48511.5
504.934	48529.5
505.707	48234.5
506.48	47800.5
507.253	47163.5
508.027	46260.5
508.8	45186.5
509.573	43973.5
510.346	42870.5
511.118	41665.5
511.891	40301.5
512.664	38672.5
513.437	37166.5
514.209	35777.5
514.982	34358.5
515.754	32840.5
516.526	31496.5
517.298	30291.5
518.071	29077.5
518.843	27815.5
519.615	26725.5
520.387	25722.5
521.159	24669.5
521.93	23603.5
522.702	22563.5
523.474	21700.5
524.245	20699.5
525.017	19819.5
525.788	18914.5
526.56	18094.5
527.331	17268.5
528.102	16390.5
528.873	15602.5
529.644	14811.5
530.415	14146.5
531.186	13447.5
531.957	12657.5
532.728	12034.5
533.498	11420.5
534.269	10772.5
535.039	10216.5
535.81	9681.5
536.58	9123.5
537.351	8618.5
538.121	8199.5
538.891	7724.5
539.661	7321.5
540.431	6903.5
541.201	6588.5
541.971	6242.5
542.741	5892.5
543.51	5565.5
544.28	5326.5
545.05	5067.5
545.819	4862.5
546.588	4606.5
547.358	4393.5
548.127	4159.5
548.896	3946.5
549.665	3755.5
550.434	3540.5
551.203	3363.5
551.972	3205.5
552.741	3026.5
553.51	2840.5
554.278	2661.5
555.047	2529.5
555.815	2408.5
556.584	2270.5
557.352	2138.5
558.121	2022.5
558.889	1908.5
559.657	1818.5
560.425	1697.5
561.193	1615.5
561.961	1525.5
562.729	1445.5
563.496	1375.5
564.264	1292.5
565.032	1219.5
565.799	1144.5
566.567	1089.5
567.334	1034.5
568.101	975.5
568.869	927.5
569.636	876.5
570.403	829.5
571.17	779.5
571.937	736.5
572.704	691.5
573.471	652.5
574.237	615.5
575.004	590.5
575.771	539.5
576.537	512.5
577.303	491.5
578.07	462.5
578.836	439.5
579.602	414.5
580.368	394.5
581.134	365.5
581.9	356.5
582.666	340.5
583.432	327.5
584.198	304.5
584.964	285.5
585.729	269.5
586.495	264.5
587.26	249.5
588.025	233.5
588.791	215.5
589.556	204.5
590.321	197.5
591.086	184.5
591.851	183.5
592.616	169.5
593.381	161.5
594.146	155.5
594.911	148.5
595.675	144.5
596.44	136.5
597.204	132.5
597.969	125.5
598.733	119.5
599.497	116.5
600.261	108.5
601.025	106.5
601.79	100.5
602.553	99.5
603.317	91.5
604.081	87.5
604.845	87.5
605.609	82.5
606.372	75.5
607.136	76.5
607.899	71.5
608.662	69.5
609.426	66.5
610.189	66.5
610.952	60.5
611.715	61.5
612.478	60.5
613.241	57.5
614.004	57.5
614.767	53.5
615.529	47.5
616.292	47.5
617.055	47.5
617.817	43.5
618.579	44.5
619.342	43.5
620.104	41.5
620.866	40.5
621.628	39.5
622.39	36.5
623.152	36.5
623.914	38.5
624.676	34.5
625.438	32.5
626.199	32.5
626.961	31.5
627.722	33.5
628.484	31.5
629.245	30.5
630.006	30.5
630.768	27.5
631.529	26.5
632.29	24.5
633.051	25.5
633.812	22.5
634.573	22.5
635.333	24.5
636.094	23.5
636.855	25.5
637.615	20.5
638.376	20.5
639.136	19.5
639.896	17.5
640.657	19.5
641.417	20.5
642.177	19.5
642.937	22.5
643.697	17.5
644.457	19.5
645.216	18.5
645.976	17.5
646.736	18.5
647.495	13.5
648.255	15.5
649.014	16.5
649.774	17.5
650.533	14.5
651.292	12.5
652.051	14.5
652.81	14.5
653.569	13.5
654.328	12.5
655.087	13.5
655.846	13.5
656.604	10.5
657.363	11.5
658.121	12.5
658.88	11.5
659.638	9.5
660.397	11.5
661.155	8.5
661.913	9.5
662.671	8.5
663.429	11.5
664.187	13.5
664.945	11.5
665.703	10.5
666.46	9.5
667.218	10.5
667.976	10.5
668.733	9.5
669.49	8.5
670.248	9.5
671.005	7.5
671.762	9.5
672.519	10.5
673.276	11.5
674.033	8.5
674.79	12.5
675.547	11.5
676.304	8.5
677.06	8.5
677.817	10.5
678.574	10.5
679.33	8.5
680.086	7.5
680.843	7.5
681.599	8.5
682.355	10.5
683.111	8.5
683.867	9.5
684.623	9.5
685.379	7.5
686.135	8.5
686.89	6.5
687.646	8.5
688.402	9.5
689.157	8.5
689.912	8.5
690.668	7.5
691.423	7.5
692.178	7.5
692.933	9.5
693.688	8.5
694.443	8.5
695.198	9.5
695.953	9.5
696.708	9.5
697.462	7.5
698.217	8.5
698.972	6.5
699.726	7.5
700.48	11.5
701.235	9.5
701.989	9.5
702.743	7.5
703.497	11.5
704.251	9.5
705.005	8.5
705.759	8.5
706.513	6.5
707.266	8.5
708.02	8.5
708.774	8.5
709.527	6.5
710.28	7.5
711.034	7.5
711.787	5.5
712.54	10.5
713.293	7.5
714.046	7.5
714.799	8.5
715.552	8.5
716.305	9.5
717.058	7.5
717.81	8.5
718.563	8.5
719.315	8.5
720.068	6.5
720.82	8.5
721.573	8.5
722.325	10.5
723.077	10.5
723.829	10.5
724.581	5.5
725.333	10.5
726.085	9.5
726.836	7.5
727.588	6.5
728.34	10.5
729.091	9.5
729.843	9.5
730.594	11.5
731.346	11.5
732.097	10.5
732.848	9.5
733.599	12.5
734.35	9.5
735.101	8.5
735.852	8.5
736.603	11.5
737.354	10.5
738.104	11.5
738.855	7.5
739.605	12.5
740.356	10.5
741.106	10.5
741.856	10.5
742.607	9.5
743.357	10.5
744.107	9.5
744.857	10.5
745.607	10.5
746.357	13.5
747.106	10.5
747.856	14.5
748.606	12.5
749.355	11.5
750.105	12.5
750.854	11.5
751.603	11.5
752.353	14.5
753.102	12.5
753.851	15.5
754.6	11.5
755.349	13.5
756.098	13.5
756.847	9.5
757.595	15.5
758.344	12.5
759.093	11.5
759.841	12.5
760.589	13.5
761.338	14.5
762.086	11.5
762.834	13.5
763.582	12.5
764.331	16.5
765.079	15.5
765.826	13.5
766.574	17.5
767.322	13.5
768.07	13.5
768.817	14.5
769.565	16.5
770.312	13.5
771.06	16.5
771.807	16.5
772.554	13.5
773.302	15.5
774.049	13.5
774.796	15.5
775.543	15.5
776.29	14.5
777.036	18.5
777.783	14.5
778.53	14.5
779.276	18.5
780.023	18.5
780.769	17.5
781.516	15.5
782.262	15.5
783.008	16.5
783.754	15.5
784.5	15.5
785.246	15.5
785.992	15.5
786.738	16.5
787.484	15.5
788.23	17.5
788.975	13.5
789.721	15.5
790.466	15.5
791.212	16.5
791.957	15.5
792.702	17.5
793.447	13.5
794.193	15.5
794.938	16.5
795.683	15.5
796.427	15.5
797.172	14.5
797.917	13.5
798.662	11.5
799.406	11.5
800.151	14.5
800.895	12.5
801.64	12.5
802.384	11.5
803.128	10.5
803.872	14.5
804.616	11.5
805.36	10.5
806.104	11.5
806.848	11.5
807.592	13.5
808.336	9.5
809.079	11.5
809.823	10.5
810.566	12.5
811.31	9.5
812.053	8.5
812.796	10.5
813.539	10.5
814.283	9.5
815.026	7.5
815.769	10.5
816.511	9.5
817.254	8.5
817.997	8.5
818.74	9.5
819.482	9.5
820.225	8.5
820.967	8.5
821.71	10.5
822.452	7.5
823.194	8.5
823.936	8.5
824.678	7.5
825.42	4.5
826.162	6.5
826.904	7.5
827.646	5.5
828.388	9.5
829.129	5.5
829.871	6.5
830.612	6.5
831.354	4.5
832.095	8.5
832.836	6.5
833.577	6.5
834.319	4.5
835.06	4.5
835.801	9.5
836.542	4.5
837.282	7.5
838.023	7.5
838.764	4.5
839.504	6.5
840.245	6.5
840.985	6.5
841.726	4.5
842.466	5.5
843.206	4.5
843.946	5.5
844.687	6.5
845.427	6.5
846.166	5.5
846.906	4.5
847.646	4.5
848.386	5.5
849.125	6.5
849.865	6.5
850.605	5.5
851.344	5.5
852.083	4.5
852.823	4.5
853.562	4.5
854.301	3.5
855.04	4.5
855.779	4.5
856.518	5.5
857.257	4.5
857.995	2.5
858.734	4.5
859.473	3.5
860.211	5.5
860.95	4.5
861.688	3.5
862.426	2.5
863.165	2.5
863.903	5.5
864.641	1.5
865.379	6.5
866.117	4.5
866.855	2.5
867.593	5.5
868.33	2.5
869.068	3.5
869.806	2.5
870.543	3.5
871.28	2.5
872.018	1.5
872.755	2.5
873.492	1.5
874.229	3.5
874.967	3.5
875.703	-0.5
876.44	2.5
877.177	3.5
877.914	-0.5
878.651	3.5
879.387	2.5
880.124	2.5
880.86	2.5
881.597	4.5
882.333	0.5
883.069	3.5
883.806	3.5
884.542	1.5
885.278	2.5
886.014	2.5
886.749	3.5
887.485	1.5
888.221	1.5
888.957	2.5
889.692	0.5
890.428	1.5
891.163	0.5
891.899	1.5
892.634	-0.5
893.369	0.5
894.104	3.5
894.839	1.5
895.574	1.5
896.309	3.5
897.044	-0.5
897.779	3.5
898.514	2.5
899.248	3.5
899.983	-0.5
900.717	0.5
901.452	1.5
902.186	1.5
902.92	-0.5
903.654	1.5
904.389	3.5
905.123	2.5
905.857	0.5
906.59	1.5
907.324	1.5
908.058	1.5
908.792	-1.5
909.525	2.5
910.259	3.5
910.992	2.5
911.726	0.5
912.459	1.5
913.192	0.5
913.925	1.5
914.658	3.5
915.391	0.5
916.124	0.5
916.857	0.5
917.59	0.5
918.323	-1.5
919.055	2.5
919.788	1.5
920.521	1.5
921.253	0.5
921.985	1.5
922.718	0.5
923.45	3.5
924.182	-0.5
924.914	2.5
925.646	-0.5
926.378	1.5
927.11	0.5
927.841	1.5
928.573	-0.5
929.305	0.5
930.036	0.5
930.768	0.5
931.499	0.5
932.23	2.5
932.962	2.5
933.693	0.5
934.424	0.5
935.155	2.5
935.886	-0.5
936.617	1.5
937.348	0.5
938.078	-0.5
938.809	3.5
939.54	-0.5
940.27	1.5
941.001	-0.5
941.731	2.5
942.461	0.5
943.191	1.5
943.922	-1.5
944.652	2.5
945.382	0.5
946.112	3.5
946.841	-0.5
947.571	1.5
948.301	4.5
949.031	0.5
949.76	-1.5
950.49	1.5
951.219	2.5
951.948	0.5
952.678	0.5
953.407	0.5
954.136	-0.5
954.865	2.5
955.594	1.5
956.323	-0.5
957.052	1.5
957.78	1.5
958.509	2.5
959.238	0.5
959.966	3.5
960.695	1.5
961.423	1.5
962.151	1.5
962.88	-0.5
963.608	0.5
964.336	0.5
965.064	1.5
965.792	0.5
966.52	-0.5
967.247	3.5
967.975	-1.5
968.703	1.5
969.43	1.5
970.158	1.5
970.885	0.5
971.613	1.5
972.34	1.5
973.067	0.5
973.794	3.5
974.521	2.5
975.248	1.5
975.975	1.5
976.702	-0.5
977.429	0.5
978.156	3.5
978.882	1.5
979.609	1.5
980.335	0.5
981.062	2.5
981.788	-0.5
982.514	0.5
983.24	1.5
983.967	-0.5
984.693	1.5
985.419	-0.5
986.144	-0.5
986.87	1.5
987.596	0.5
988.322	-0.5
989.047	0.5
989.773	2.5
990.498	0.5
991.224	1.5
991.949	0.5
992.674	0.5
993.399	0.5
994.124	1.5
994.849	2.5
995.574	2.5
996.299	-2.5
997.024	-1.5
997.749	2.5
998.473	3.5
999.198	0.5
999.922	2.5
1000.647	0.5
1001.371	2.5
1002.095	-1.5
1002.82	-1.5
1003.544	-1.5
1004.268	5.5
1004.992	3.5
1005.716	5.5
1006.439	4.5
1007.163	6.5
1007.887	7.5
1008.611	3.5
1009.334	2.5
1010.058	0.5
1010.781	1.5
1011.504	2.5
1012.228	2.5
1012.951	-1.5
1013.674	-0.5
1014.397	1.5
1015.12	2.5
