节点500_705_QEPB04081__147__20-48-19-084.txt的数据

Date: Wed Nov 12 20:48:19 CST 2025
User: PC
Spectrometer: QEPB0408
触发模式: 0
积分时间 (秒): 1.000000E-2
Scans to average: 1
启用暗噪声校正: true
启用非线性校正: false
滑动平均宽度: 0
X轴模式: Wavelengths
Number of Pixels in Spectrum: 1044
>>>>>Begin Spectral Data<<<<<
220.843	4.75
221.644	5.75
222.444	3.75
223.244	4.75
224.045	6.75
224.845	5.75
225.645	7.75
226.445	7.75
227.245	6.75
228.045	6.75
228.845	7.75
229.645	8.75
230.444	8.75
231.244	7.75
232.043	9.75
232.843	7.75
233.642	8.75
234.442	9.75
235.241	8.75
236.04	9.75
236.839	10.75
237.638	11.75
238.437	9.75
239.236	11.75
240.035	10.75
240.833	11.75
241.632	11.75
242.43	12.75
243.229	14.75
244.027	10.75
244.826	13.75
245.624	13.75
246.422	14.75
247.22	16.75
248.018	15.75
248.816	17.75
249.614	13.75
250.412	18.75
251.21	15.75
252.007	14.75
252.805	16.75
253.602	14.75
254.4	18.75
255.197	19.75
255.994	21.75
256.791	19.75
257.589	21.75
258.386	23.75
259.183	20.75
259.979	22.75
260.776	24.75
261.573	24.75
262.37	24.75
263.166	23.75
263.963	29.75
264.759	26.75
265.556	29.75
266.352	27.75
267.148	29.75
267.944	31.75
268.74	30.75
269.536	30.75
270.332	30.75
271.128	34.75
271.924	32.75
272.719	33.75
273.515	34.75
274.311	34.75
275.106	32.75
275.901	36.75
276.697	34.75
277.492	31.75
278.287	37.75
279.082	38.75
279.877	33.75
280.672	35.75
281.467	33.75
282.262	36.75
283.056	38.75
283.851	36.75
284.646	36.75
285.44	32.75
286.234	35.75
287.029	34.75
287.823	37.75
288.617	32.75
289.411	32.75
290.205	32.75
290.999	30.75
291.793	29.75
292.587	33.75
293.381	28.75
294.174	30.75
294.968	30.75
295.761	28.75
296.555	28.75
297.348	24.75
298.141	25.75
298.935	25.75
299.728	27.75
300.521	23.75
301.314	24.75
302.107	26.75
302.899	22.75
303.692	21.75
304.485	24.75
305.277	21.75
306.07	22.75
306.862	20.75
307.655	20.75
308.447	21.75
309.239	23.75
310.031	21.75
310.823	18.75
311.615	18.75
312.407	16.75
313.199	20.75
313.991	15.75
314.783	16.75
315.574	16.75
316.366	17.75
317.157	15.75
317.949	10.75
318.74	13.75
319.531	14.75
320.322	14.75
321.113	14.75
321.904	12.75
322.695	12.75
323.486	16.75
324.277	12.75
325.068	14.75
325.858	15.75
326.649	12.75
327.439	12.75
328.23	14.75
329.02	12.75
329.81	11.75
330.6	12.75
331.391	11.75
332.181	10.75
332.971	10.75
333.76	13.75
334.55	10.75
335.34	14.75
336.13	8.75
336.919	11.75
337.709	13.75
338.498	12.75
339.287	11.75
340.077	13.75
340.866	11.75
341.655	12.75
342.444	12.75
343.233	13.75
344.022	12.75
344.811	11.75
345.6	11.75
346.388	11.75
347.177	11.75
347.965	13.75
348.754	12.75
349.542	9.75
350.33	8.75
351.119	10.75
351.907	9.75
352.695	10.75
353.483	10.75
354.271	9.75
355.059	9.75
355.846	11.75
356.634	12.75
357.422	10.75
358.209	10.75
358.997	10.75
359.784	11.75
360.571	10.75
361.359	8.75
362.146	10.75
362.933	8.75
363.72	8.75
364.507	8.75
365.294	8.75
366.081	11.75
366.867	6.75
367.654	11.75
368.44	8.75
369.227	7.75
370.013	8.75
370.8	7.75
371.586	8.75
372.372	8.75
373.158	9.75
373.944	8.75
374.73	10.75
375.516	9.75
376.302	9.75
377.088	12.75
377.873	9.75
378.659	8.75
379.445	9.75
380.23	11.75
381.015	11.75
381.801	8.75
382.586	12.75
383.371	8.75
384.156	10.75
384.941	9.75
385.726	11.75
386.511	10.75
387.296	14.75
388.08	8.75
388.865	12.75
389.649	12.75
390.434	12.75
391.218	9.75
392.003	13.75
392.787	12.75
393.571	11.75
394.355	13.75
395.139	13.75
395.923	13.75
396.707	12.75
397.491	13.75
398.274	12.75
399.058	11.75
399.842	14.75
400.625	13.75
401.408	14.75
402.192	13.75
402.975	12.75
403.758	16.75
404.541	13.75
405.324	17.75
406.107	14.75
406.89	14.75
407.673	14.75
408.456	14.75
409.238	16.75
410.021	13.75
410.803	16.75
411.586	16.75
412.368	17.75
413.151	18.75
413.933	18.75
414.715	18.75
415.497	18.75
416.279	19.75
417.061	19.75
417.843	17.75
418.624	18.75
419.406	21.75
420.188	20.75
420.969	21.75
421.751	22.75
422.532	22.75
423.313	23.75
424.095	23.75
424.876	24.75
425.657	25.75
426.438	27.75
427.219	25.75
428	26.75
428.78	25.75
429.561	30.75
430.342	30.75
431.122	30.75
431.903	30.75
432.683	33.75
433.464	34.75
434.244	38.75
435.024	39.75
435.804	42.75
436.584	42.75
437.364	46.75
438.144	46.75
438.924	49.75
439.704	52.75
440.483	55.75
441.263	60.75
442.042	63.75
442.822	68.75
443.601	71.75
444.38	79.75
445.16	84.75
445.939	91.75
446.718	95.75
447.497	105.75
448.276	116.75
449.054	128.75
449.833	140.75
450.612	157.75
451.391	171.75
452.169	185.75
452.948	205.75
453.726	230.75
454.504	251.75
455.282	282.75
456.061	315.75
456.839	355.75
457.617	393.75
458.395	446.75
459.172	489.75
459.95	552.75
460.728	608.75
461.506	685.75
462.283	752.75
463.061	851.75
463.838	949.75
464.615	1045.75
465.393	1203.75
466.17	1312.75
466.947	1480.75
467.724	1647.75
468.501	1820.75
469.278	2011.75
470.055	2247.75
470.831	2469.75
471.608	2744.75
472.385	3036.75
473.161	3353.75
473.938	3676.75
474.714	4086.75
475.49	4479.75
476.266	4936.75
477.043	5428.75
477.819	5946.75
478.595	6550.75
479.371	7145.75
480.146	7821.75
480.922	8583.75
481.698	9413.75
482.473	10226.75
483.249	11161.75
484.024	12169.75
484.8	13237.75
485.575	14391.75
486.35	15606.75
487.126	16988.75
487.901	18354.75
488.676	19901.75
489.451	21547.75
490.225	23173.75
491	24892.75
491.775	26628.75
492.55	28534.75
493.324	30359.75
494.099	32264.75
494.873	34131.75
495.647	36138.75
496.422	38039.75
497.196	39905.75
497.97	41603.75
498.744	43138.75
499.518	44702.75
500.292	46033.75
501.066	46966.75
501.839	47874.75
502.613	48415.75
503.387	48908.75
504.16	49251.75
504.934	49169.75
505.707	48772.75
506.48	48305.75
507.253	47587.75
508.027	46617.75
508.8	45508.75
509.573	44219.75
510.346	43126.75
511.118	41849.75
511.891	40463.75
512.664	38763.75
513.437	37197.75
514.209	35723.75
514.982	34286.75
515.754	32912.75
516.526	31520.75
517.298	30270.75
518.071	29030.75
518.843	27844.75
519.615	26678.75
520.387	25573.75
521.159	24652.75
521.93	23570.75
522.702	22569.75
523.474	21583.75
524.245	20688.75
525.017	19708.75
525.788	18854.75
526.56	18121.75
527.331	17225.75
528.102	16314.75
528.873	15459.75
529.644	14750.75
530.415	13998.75
531.186	13401.75
531.957	12592.75
532.728	11962.75
533.498	11287.75
534.269	10741.75
535.039	10134.75
535.81	9599.75
536.58	9046.75
537.351	8552.75
538.121	8118.75
538.891	7708.75
539.661	7282.75
540.431	6896.75
541.201	6522.75
541.971	6174.75
542.741	5860.75
543.51	5542.75
544.28	5289.75
545.05	5072.75
545.819	4805.75
546.588	4563.75
547.358	4353.75
548.127	4128.75
548.896	3921.75
549.665	3709.75
550.434	3502.75
551.203	3325.75
551.972	3155.75
552.741	2995.75
553.51	2810.75
554.278	2659.75
555.047	2501.75
555.815	2367.75
556.584	2233.75
557.352	2118.75
558.121	1995.75
558.889	1875.75
559.657	1768.75
560.425	1689.75
561.193	1613.75
561.961	1502.75
562.729	1432.75
563.496	1333.75
564.264	1264.75
565.032	1214.75
565.799	1150.75
566.567	1080.75
567.334	1024.75
568.101	969.75
568.869	922.75
569.636	864.75
570.403	818.75
571.17	766.75
571.937	727.75
572.704	691.75
573.471	645.75
574.237	606.75
575.004	574.75
575.771	532.75
576.537	514.75
577.303	485.75
578.07	453.75
578.836	436.75
579.602	409.75
580.368	389.75
581.134	363.75
581.9	359.75
582.666	331.75
583.432	317.75
584.198	299.75
584.964	285.75
585.729	268.75
586.495	258.75
587.26	240.75
588.025	230.75
588.791	215.75
589.556	205.75
590.321	200.75
591.086	190.75
591.851	174.75
592.616	173.75
593.381	164.75
594.146	154.75
594.911	145.75
595.675	138.75
596.44	137.75
597.204	122.75
597.969	126.75
598.733	113.75
599.497	112.75
600.261	105.75
601.025	105.75
601.79	103.75
602.553	94.75
603.317	89.75
604.081	87.75
604.845	81.75
605.609	82.75
606.372	79.75
607.136	74.75
607.899	71.75
608.662	67.75
609.426	70.75
610.189	66.75
610.952	63.75
611.715	60.75
612.478	56.75
613.241	52.75
614.004	49.75
614.767	50.75
615.529	48.75
616.292	45.75
617.055	46.75
617.817	45.75
618.579	43.75
619.342	38.75
620.104	41.75
620.866	38.75
621.628	36.75
622.39	37.75
623.152	34.75
623.914	36.75
624.676	30.75
625.438	34.75
626.199	29.75
626.961	30.75
627.722	30.75
628.484	28.75
629.245	30.75
630.006	28.75
630.768	26.75
631.529	28.75
632.29	23.75
633.051	27.75
633.812	19.75
634.573	20.75
635.333	22.75
636.094	21.75
636.855	18.75
637.615	20.75
638.376	21.75
639.136	20.75
639.896	19.75
640.657	16.75
641.417	18.75
642.177	18.75
642.937	16.75
643.697	14.75
644.457	18.75
645.216	17.75
645.976	14.75
646.736	16.75
647.495	16.75
648.255	14.75
649.014	16.75
649.774	15.75
650.533	12.75
651.292	14.75
652.051	10.75
652.81	14.75
653.569	13.75
654.328	11.75
655.087	12.75
655.846	9.75
656.604	13.75
657.363	12.75
658.121	12.75
658.88	10.75
659.638	11.75
660.397	11.75
661.155	8.75
661.913	10.75
662.671	8.75
663.429	10.75
664.187	10.75
664.945	7.75
665.703	10.75
666.46	12.75
667.218	8.75
667.976	8.75
668.733	9.75
669.49	10.75
670.248	8.75
671.005	9.75
671.762	8.75
672.519	9.75
673.276	9.75
674.033	8.75
674.79	6.75
675.547	7.75
676.304	9.75
677.06	7.75
677.817	9.75
678.574	10.75
679.33	8.75
680.086	6.75
680.843	8.75
681.599	8.75
682.355	9.75
683.111	7.75
683.867	9.75
684.623	7.75
685.379	9.75
686.135	6.75
686.89	7.75
687.646	8.75
688.402	5.75
689.157	9.75
689.912	8.75
690.668	6.75
691.423	7.75
692.178	9.75
692.933	9.75
693.688	7.75
694.443	7.75
695.198	7.75
695.953	8.75
696.708	7.75
697.462	5.75
698.217	9.75
698.972	5.75
699.726	8.75
700.48	5.75
701.235	7.75
701.989	6.75
702.743	7.75
703.497	6.75
704.251	5.75
705.005	8.75
705.759	7.75
706.513	5.75
707.266	7.75
708.02	4.75
708.774	7.75
709.527	7.75
710.28	8.75
711.034	7.75
711.787	7.75
712.54	7.75
713.293	6.75
714.046	7.75
714.799	6.75
715.552	4.75
716.305	8.75
717.058	6.75
717.81	9.75
718.563	9.75
719.315	8.75
720.068	6.75
720.82	10.75
721.573	9.75
722.325	8.75
723.077	7.75
723.829	7.75
724.581	9.75
725.333	9.75
726.085	8.75
726.836	6.75
727.588	9.75
728.34	6.75
729.091	8.75
729.843	8.75
730.594	7.75
731.346	7.75
732.097	10.75
732.848	7.75
733.599	8.75
734.35	8.75
735.101	7.75
735.852	8.75
736.603	8.75
737.354	10.75
738.104	10.75
738.855	6.75
739.605	11.75
740.356	9.75
741.106	9.75
741.856	10.75
742.607	11.75
743.357	7.75
744.107	12.75
744.857	11.75
745.607	10.75
746.357	11.75
747.106	11.75
747.856	8.75
748.606	10.75
749.355	10.75
750.105	11.75
750.854	10.75
751.603	11.75
752.353	11.75
753.102	12.75
753.851	12.75
754.6	11.75
755.349	12.75
756.098	12.75
756.847	10.75
757.595	13.75
758.344	9.75
759.093	13.75
759.841	12.75
760.589	11.75
761.338	11.75
762.086	11.75
762.834	13.75
763.582	13.75
764.331	15.75
765.079	10.75
765.826	12.75
766.574	12.75
767.322	13.75
768.07	14.75
768.817	13.75
769.565	14.75
770.312	13.75
771.06	13.75
771.807	14.75
772.554	17.75
773.302	17.75
774.049	12.75
774.796	14.75
775.543	15.75
776.29	17.75
777.036	13.75
777.783	15.75
778.53	14.75
779.276	18.75
780.023	16.75
780.769	16.75
781.516	15.75
782.262	18.75
783.008	15.75
783.754	13.75
784.5	12.75
785.246	17.75
785.992	15.75
786.738	15.75
787.484	14.75
788.23	16.75
788.975	14.75
789.721	12.75
790.466	13.75
791.212	18.75
791.957	15.75
792.702	14.75
793.447	16.75
794.193	12.75
794.938	13.75
795.683	14.75
796.427	12.75
797.172	13.75
797.917	12.75
798.662	13.75
799.406	11.75
800.151	13.75
800.895	10.75
801.64	11.75
802.384	12.75
803.128	11.75
803.872	9.75
804.616	10.75
805.36	11.75
806.104	10.75
806.848	13.75
807.592	10.75
808.336	10.75
809.079	11.75
809.823	8.75
810.566	9.75
811.31	9.75
812.053	7.75
812.796	9.75
813.539	6.75
814.283	6.75
815.026	5.75
815.769	8.75
816.511	9.75
817.254	7.75
817.997	7.75
818.74	8.75
819.482	5.75
820.225	7.75
820.967	8.75
821.71	6.75
822.452	8.75
823.194	5.75
823.936	5.75
824.678	6.75
825.42	7.75
826.162	5.75
826.904	6.75
827.646	6.75
828.388	6.75
829.129	5.75
829.871	5.75
830.612	4.75
831.354	5.75
832.095	6.75
832.836	5.75
833.577	4.75
834.319	6.75
835.06	3.75
835.801	5.75
836.542	1.75
837.282	4.75
838.023	3.75
838.764	5.75
839.504	3.75
840.245	5.75
840.985	5.75
841.726	4.75
842.466	4.75
843.206	3.75
843.946	5.75
844.687	5.75
845.427	4.75
846.166	6.75
846.906	4.75
847.646	4.75
848.386	6.75
849.125	4.75
849.865	4.75
850.605	4.75
851.344	1.75
852.083	3.75
852.823	4.75
853.562	3.75
854.301	2.75
855.04	4.75
855.779	4.75
856.518	3.75
857.257	3.75
857.995	5.75
858.734	5.75
859.473	2.75
860.211	5.75
860.95	0.75
861.688	2.75
862.426	4.75
863.165	1.75
863.903	3.75
864.641	3.75
865.379	5.75
866.117	4.75
866.855	3.75
867.593	2.75
868.33	1.75
869.068	2.75
869.806	2.75
870.543	2.75
871.28	2.75
872.018	0.75
872.755	4.75
873.492	0.75
874.229	3.75
874.967	3.75
875.703	0.75
876.44	0.75
877.177	-0.25
877.914	2.75
878.651	0.75
879.387	-0.25
880.124	1.75
880.86	0.75
881.597	3.75
882.333	-0.25
883.069	0.75
883.806	-1.25
884.542	1.75
885.278	1.75
886.014	1.75
886.749	2.75
887.485	0.75
888.221	3.75
888.957	0.75
889.692	0.75
890.428	2.75
891.163	-1.25
891.899	-0.25
892.634	-1.25
893.369	2.75
894.104	1.75
894.839	1.75
895.574	1.75
896.309	2.75
897.044	1.75
897.779	0.75
898.514	-0.25
899.248	-0.25
899.983	0.75
900.717	0.75
901.452	0.75
902.186	1.75
902.92	0.75
903.654	0.75
904.389	-1.25
905.123	-0.25
905.857	1.75
906.59	1.75
907.324	1.75
908.058	0.75
908.792	-1.25
909.525	1.75
910.259	1.75
910.992	0.75
911.726	0.75
912.459	0.75
913.192	-0.25
913.925	-2.25
914.658	1.75
915.391	-0.25
916.124	0.75
916.857	-0.25
917.59	-1.25
918.323	-0.25
919.055	0.75
919.788	-0.25
920.521	0.75
921.253	-0.25
921.985	-0.25
922.718	-1.25
923.45	-0.25
924.182	0.75
924.914	0.75
925.646	0.75
926.378	-1.25
927.11	1.75
927.841	-1.25
928.573	-2.25
929.305	-1.25
930.036	-1.25
930.768	-0.25
931.499	0.75
932.23	0.75
932.962	-0.25
933.693	0.75
934.424	2.75
935.155	0.75
935.886	-1.25
936.617	-1.25
937.348	0.75
938.078	-0.25
938.809	1.75
939.54	-1.25
940.27	1.75
941.001	2.75
941.731	-0.25
942.461	0.75
943.191	1.75
943.922	-2.25
944.652	1.75
945.382	-0.25
946.112	-1.25
946.841	-0.25
947.571	0.75
948.301	0.75
949.031	-0.25
949.76	1.75
950.49	-1.25
951.219	0.75
951.948	-0.25
952.678	0.75
953.407	-1.25
954.136	-0.25
954.865	-0.25
955.594	-0.25
956.323	-0.25
957.052	-1.25
957.78	0.75
958.509	-0.25
959.238	0.75
959.966	-0.25
960.695	-1.25
961.423	-0.25
962.151	2.75
962.88	-1.25
963.608	1.75
964.336	0.75
965.064	-0.25
965.792	0.75
966.52	-1.25
967.247	0.75
967.975	-2.25
968.703	0.75
969.43	-0.25
970.158	-1.25
970.885	-1.25
971.613	-0.25
972.34	-0.25
973.067	0.75
973.794	-0.25
974.521	-3.25
975.248	-1.25
975.975	1.75
976.702	-0.25
977.429	1.75
978.156	-0.25
978.882	-0.25
979.609	0.75
980.335	-1.25
981.062	-1.25
981.788	-3.25
982.514	-0.25
983.24	0.75
983.967	0.75
984.693	0.75
985.419	0.75
986.144	-0.25
986.87	-0.25
987.596	0.75
988.322	1.75
989.047	0.75
989.773	-1.25
990.498	-1.25
991.224	-1.25
991.949	1.75
992.674	-0.25
993.399	-0.25
994.124	-1.25
994.849	-0.25
995.574	-1.25
996.299	-0.25
997.024	-1.25
997.749	-0.25
998.473	0.75
999.198	0.75
999.922	1.75
1000.647	-2.25
1001.371	5.75
1002.095	-1.25
1002.82	-1.25
1003.544	-2.25
1004.268	2.75
1004.992	3.75
1005.716	5.75
1006.439	4.75
1007.163	2.75
1007.887	5.75
1008.611	-0.25
1009.334	1.75
1010.058	2.75
1010.781	-0.25
1011.504	0.75
1012.228	-1.25
1012.951	-1.25
1013.674	-0.25
1014.397	1.75
1015.12	-1.25
