节点500_705_QEPB04081__630__20-54-53-791.txt的数据

Date: Wed Nov 12 20:54:53 CST 2025
User: PC
Spectrometer: QEPB0408
触发模式: 0
积分时间 (秒): 1.000000E-2
Scans to average: 1
启用暗噪声校正: true
启用非线性校正: false
滑动平均宽度: 0
X轴模式: Wavelengths
Number of Pixels in Spectrum: 1044
>>>>>Begin Spectral Data<<<<<
220.843	6.88
221.644	4.88
222.444	5.88
223.244	8.88
224.045	4.88
224.845	8.88
225.645	3.88
226.445	5.88
227.245	7.88
228.045	6.88
228.845	6.88
229.645	5.88
230.444	7.88
231.244	5.88
232.043	8.88
232.843	9.88
233.642	8.88
234.442	10.88
235.241	11.88
236.04	7.88
236.839	9.88
237.638	11.88
238.437	11.88
239.236	11.88
240.035	10.88
240.833	13.88
241.632	10.88
242.43	11.88
243.229	13.88
244.027	11.88
244.826	11.88
245.624	13.88
246.422	12.88
247.22	14.88
248.018	14.88
248.816	14.88
249.614	12.88
250.412	12.88
251.21	13.88
252.007	13.88
252.805	16.88
253.602	16.88
254.4	18.88
255.197	17.88
255.994	14.88
256.791	17.88
257.589	17.88
258.386	15.88
259.183	19.88
259.979	17.88
260.776	19.88
261.573	18.88
262.37	21.88
263.166	18.88
263.963	22.88
264.759	21.88
265.556	22.88
266.352	23.88
267.148	24.88
267.944	26.88
268.74	26.88
269.536	26.88
270.332	25.88
271.128	26.88
271.924	24.88
272.719	29.88
273.515	27.88
274.311	29.88
275.106	28.88
275.901	30.88
276.697	30.88
277.492	28.88
278.287	33.88
279.082	30.88
279.877	29.88
280.672	30.88
281.467	30.88
282.262	30.88
283.056	28.88
283.851	30.88
284.646	31.88
285.44	32.88
286.234	28.88
287.029	30.88
287.823	30.88
288.617	28.88
289.411	31.88
290.205	28.88
290.999	32.88
291.793	28.88
292.587	27.88
293.381	30.88
294.174	29.88
294.968	26.88
295.761	24.88
296.555	28.88
297.348	24.88
298.141	24.88
298.935	27.88
299.728	22.88
300.521	22.88
301.314	23.88
302.107	24.88
302.899	26.88
303.692	20.88
304.485	22.88
305.277	19.88
306.07	23.88
306.862	20.88
307.655	21.88
308.447	21.88
309.239	19.88
310.031	20.88
310.823	18.88
311.615	20.88
312.407	19.88
313.199	17.88
313.991	15.88
314.783	17.88
315.574	18.88
316.366	13.88
317.157	13.88
317.949	12.88
318.74	11.88
319.531	15.88
320.322	10.88
321.113	14.88
321.904	12.88
322.695	13.88
323.486	14.88
324.277	13.88
325.068	11.88
325.858	14.88
326.649	13.88
327.439	11.88
328.23	11.88
329.02	12.88
329.81	10.88
330.6	10.88
331.391	10.88
332.181	10.88
332.971	11.88
333.76	10.88
334.55	11.88
335.34	13.88
336.13	10.88
336.919	10.88
337.709	11.88
338.498	12.88
339.287	10.88
340.077	11.88
340.866	11.88
341.655	11.88
342.444	10.88
343.233	10.88
344.022	10.88
344.811	9.88
345.6	9.88
346.388	9.88
347.177	9.88
347.965	10.88
348.754	9.88
349.542	12.88
350.33	10.88
351.119	10.88
351.907	10.88
352.695	9.88
353.483	9.88
354.271	8.88
355.059	10.88
355.846	9.88
356.634	10.88
357.422	10.88
358.209	7.88
358.997	10.88
359.784	9.88
360.571	9.88
361.359	10.88
362.146	8.88
362.933	8.88
363.72	8.88
364.507	8.88
365.294	8.88
366.081	10.88
366.867	8.88
367.654	8.88
368.44	7.88
369.227	10.88
370.013	10.88
370.8	7.88
371.586	8.88
372.372	8.88
373.158	8.88
373.944	10.88
374.73	10.88
375.516	10.88
376.302	9.88
377.088	9.88
377.873	8.88
378.659	7.88
379.445	7.88
380.23	10.88
381.015	9.88
381.801	7.88
382.586	10.88
383.371	10.88
384.156	7.88
384.941	11.88
385.726	9.88
386.511	11.88
387.296	8.88
388.08	8.88
388.865	11.88
389.649	12.88
390.434	8.88
391.218	11.88
392.003	9.88
392.787	12.88
393.571	9.88
394.355	9.88
395.139	11.88
395.923	11.88
396.707	12.88
397.491	10.88
398.274	13.88
399.058	11.88
399.842	11.88
400.625	14.88
401.408	13.88
402.192	12.88
402.975	15.88
403.758	12.88
404.541	11.88
405.324	12.88
406.107	12.88
406.89	12.88
407.673	14.88
408.456	14.88
409.238	15.88
410.021	14.88
410.803	16.88
411.586	14.88
412.368	15.88
413.151	17.88
413.933	16.88
414.715	14.88
415.497	16.88
416.279	17.88
417.061	18.88
417.843	17.88
418.624	18.88
419.406	24.88
420.188	21.88
420.969	20.88
421.751	21.88
422.532	19.88
423.313	20.88
424.095	21.88
424.876	24.88
425.657	22.88
426.438	25.88
427.219	23.88
428	23.88
428.78	26.88
429.561	29.88
430.342	30.88
431.122	30.88
431.903	30.88
432.683	30.88
433.464	36.88
434.244	36.88
435.024	40.88
435.804	40.88
436.584	40.88
437.364	43.88
438.144	48.88
438.924	51.88
439.704	54.88
440.483	61.88
441.263	62.88
442.042	67.88
442.822	73.88
443.601	78.88
444.38	83.88
445.16	89.88
445.939	100.88
446.718	104.88
447.497	120.88
448.276	131.88
449.054	143.88
449.833	154.88
450.612	175.88
451.391	189.88
452.169	209.88
452.948	238.88
453.726	261.88
454.504	286.88
455.282	323.88
456.061	352.88
456.839	395.88
457.617	438.88
458.395	490.88
459.172	538.88
459.95	609.88
460.728	671.88
461.506	750.88
462.283	842.88
463.061	928.88
463.838	1024.88
464.615	1130.88
465.393	1275.88
466.17	1382.88
466.947	1549.88
467.724	1708.88
468.501	1871.88
469.278	2090.88
470.055	2274.88
470.831	2517.88
471.608	2755.88
472.385	2995.88
473.161	3321.88
473.938	3606.88
474.714	3933.88
475.49	4315.88
476.266	4718.88
477.043	5127.88
477.819	5569.88
478.595	6090.88
479.371	6580.88
480.146	7166.88
480.922	7759.88
481.698	8413.88
482.473	9089.88
483.249	9827.88
484.024	10634.88
484.8	11506.88
485.575	12368.88
486.35	13358.88
487.126	14405.88
487.901	15494.88
488.676	16595.88
489.451	17896.88
490.225	19161.88
491	20539.88
491.775	21920.88
492.55	23345.88
493.324	24888.88
494.099	26424.88
494.873	27950.88
495.647	29626.88
496.422	31171.88
497.196	32812.88
497.97	34280.88
498.744	35710.88
499.518	37252.88
500.292	38631.88
501.066	39717.88
501.839	40660.88
502.613	41638.88
503.387	42408.88
504.16	43110.88
504.934	43465.88
505.707	43796.88
506.48	43705.88
507.253	43489.88
508.027	43243.88
508.8	42633.88
509.573	42032.88
510.346	41234.88
511.118	40500.88
511.891	39494.88
512.664	38238.88
513.437	37049.88
514.209	35862.88
514.982	34514.88
515.754	33337.88
516.526	32043.88
517.298	30866.88
518.071	29679.88
518.843	28526.88
519.615	27409.88
520.387	26298.88
521.159	25290.88
521.93	24313.88
522.702	23327.88
523.474	22338.88
524.245	21416.88
525.017	20542.88
525.788	19701.88
526.56	18889.88
527.331	18107.88
528.102	17212.88
528.873	16357.88
529.644	15685.88
530.415	14931.88
531.186	14270.88
531.957	13556.88
532.728	12919.88
533.498	12191.88
534.269	11598.88
535.039	11010.88
535.81	10452.88
536.58	9888.88
537.351	9360.88
538.121	8883.88
538.891	8414.88
539.661	7979.88
540.431	7485.88
541.201	7153.88
541.971	6761.88
542.741	6408.88
543.51	6095.88
544.28	5781.88
545.05	5529.88
545.819	5251.88
546.588	5035.88
547.358	4778.88
548.127	4544.88
548.896	4319.88
549.665	4098.88
550.434	3914.88
551.203	3694.88
551.972	3510.88
552.741	3345.88
553.51	3155.88
554.278	2962.88
555.047	2788.88
555.815	2659.88
556.584	2504.88
557.352	2376.88
558.121	2253.88
558.889	2121.88
559.657	2016.88
560.425	1900.88
561.193	1790.88
561.961	1709.88
562.729	1616.88
563.496	1518.88
564.264	1443.88
565.032	1361.88
565.799	1308.88
566.567	1209.88
567.334	1167.88
568.101	1084.88
568.869	1034.88
569.636	970.88
570.403	920.88
571.17	864.88
571.937	821.88
572.704	775.88
573.471	734.88
574.237	690.88
575.004	653.88
575.771	615.88
576.537	575.88
577.303	550.88
578.07	515.88
578.836	488.88
579.602	457.88
580.368	434.88
581.134	417.88
581.9	396.88
582.666	383.88
583.432	349.88
584.198	342.88
584.964	325.88
585.729	307.88
586.495	288.88
587.26	274.88
588.025	260.88
588.791	244.88
589.556	228.88
590.321	216.88
591.086	205.88
591.851	194.88
592.616	192.88
593.381	182.88
594.146	172.88
594.911	163.88
595.675	157.88
596.44	151.88
597.204	147.88
597.969	137.88
598.733	134.88
599.497	124.88
600.261	124.88
601.025	113.88
601.79	109.88
602.553	103.88
603.317	100.88
604.081	98.88
604.845	91.88
605.609	87.88
606.372	88.88
607.136	81.88
607.899	77.88
608.662	75.88
609.426	77.88
610.189	69.88
610.952	66.88
611.715	65.88
612.478	63.88
613.241	60.88
614.004	55.88
614.767	59.88
615.529	51.88
616.292	48.88
617.055	48.88
617.817	48.88
618.579	50.88
619.342	48.88
620.104	42.88
620.866	39.88
621.628	43.88
622.39	40.88
623.152	39.88
623.914	35.88
624.676	35.88
625.438	33.88
626.199	31.88
626.961	29.88
627.722	30.88
628.484	31.88
629.245	28.88
630.006	29.88
630.768	25.88
631.529	25.88
632.29	27.88
633.051	26.88
633.812	24.88
634.573	26.88
635.333	24.88
636.094	24.88
636.855	23.88
637.615	22.88
638.376	21.88
639.136	19.88
639.896	19.88
640.657	19.88
641.417	19.88
642.177	19.88
642.937	17.88
643.697	17.88
644.457	16.88
645.216	15.88
645.976	15.88
646.736	14.88
647.495	16.88
648.255	14.88
649.014	13.88
649.774	14.88
650.533	14.88
651.292	15.88
652.051	14.88
652.81	14.88
653.569	11.88
654.328	15.88
655.087	13.88
655.846	10.88
656.604	13.88
657.363	10.88
658.121	12.88
658.88	11.88
659.638	12.88
660.397	11.88
661.155	11.88
661.913	9.88
662.671	11.88
663.429	11.88
664.187	9.88
664.945	10.88
665.703	12.88
666.46	9.88
667.218	11.88
667.976	11.88
668.733	10.88
669.49	10.88
670.248	8.88
671.005	8.88
671.762	9.88
672.519	8.88
673.276	6.88
674.033	5.88
674.79	8.88
675.547	10.88
676.304	9.88
677.06	7.88
677.817	6.88
678.574	9.88
679.33	8.88
680.086	7.88
680.843	5.88
681.599	9.88
682.355	8.88
683.111	8.88
683.867	10.88
684.623	5.88
685.379	7.88
686.135	6.88
686.89	7.88
687.646	7.88
688.402	6.88
689.157	9.88
689.912	7.88
690.668	8.88
691.423	7.88
692.178	8.88
692.933	8.88
693.688	5.88
694.443	8.88
695.198	6.88
695.953	8.88
696.708	5.88
697.462	8.88
698.217	4.88
698.972	8.88
699.726	9.88
700.48	6.88
701.235	5.88
701.989	7.88
702.743	6.88
703.497	7.88
704.251	6.88
705.005	5.88
705.759	6.88
706.513	7.88
707.266	6.88
708.02	7.88
708.774	6.88
709.527	4.88
710.28	7.88
711.034	7.88
711.787	8.88
712.54	7.88
713.293	7.88
714.046	9.88
714.799	2.88
715.552	8.88
716.305	9.88
717.058	7.88
717.81	7.88
718.563	6.88
719.315	6.88
720.068	5.88
720.82	2.88
721.573	6.88
722.325	8.88
723.077	6.88
723.829	6.88
724.581	7.88
725.333	6.88
726.085	8.88
726.836	8.88
727.588	7.88
728.34	7.88
729.091	9.88
729.843	7.88
730.594	8.88
731.346	8.88
732.097	9.88
732.848	7.88
733.599	8.88
734.35	8.88
735.101	5.88
735.852	7.88
736.603	6.88
737.354	9.88
738.104	5.88
738.855	8.88
739.605	10.88
740.356	8.88
741.106	12.88
741.856	9.88
742.607	9.88
743.357	9.88
744.107	8.88
744.857	10.88
745.607	8.88
746.357	7.88
747.106	9.88
747.856	8.88
748.606	11.88
749.355	9.88
750.105	7.88
750.854	9.88
751.603	9.88
752.353	10.88
753.102	9.88
753.851	8.88
754.6	9.88
755.349	10.88
756.098	10.88
756.847	9.88
757.595	10.88
758.344	9.88
759.093	12.88
759.841	12.88
760.589	10.88
761.338	12.88
762.086	10.88
762.834	12.88
763.582	11.88
764.331	12.88
765.079	10.88
765.826	10.88
766.574	13.88
767.322	12.88
768.07	13.88
768.817	13.88
769.565	10.88
770.312	12.88
771.06	11.88
771.807	12.88
772.554	12.88
773.302	12.88
774.049	11.88
774.796	15.88
775.543	12.88
776.29	16.88
777.036	12.88
777.783	12.88
778.53	15.88
779.276	14.88
780.023	17.88
780.769	12.88
781.516	14.88
782.262	12.88
783.008	14.88
783.754	17.88
784.5	15.88
785.246	14.88
785.992	13.88
786.738	13.88
787.484	14.88
788.23	15.88
788.975	14.88
789.721	12.88
790.466	14.88
791.212	13.88
791.957	10.88
792.702	14.88
793.447	11.88
794.193	11.88
794.938	14.88
795.683	11.88
796.427	13.88
797.172	10.88
797.917	11.88
798.662	12.88
799.406	13.88
800.151	14.88
800.895	10.88
801.64	14.88
802.384	10.88
803.128	12.88
803.872	10.88
804.616	11.88
805.36	10.88
806.104	10.88
806.848	10.88
807.592	11.88
808.336	8.88
809.079	8.88
809.823	9.88
810.566	11.88
811.31	7.88
812.053	6.88
812.796	7.88
813.539	10.88
814.283	8.88
815.026	7.88
815.769	6.88
816.511	8.88
817.254	8.88
817.997	8.88
818.74	6.88
819.482	5.88
820.225	4.88
820.967	6.88
821.71	5.88
822.452	6.88
823.194	6.88
823.936	7.88
824.678	9.88
825.42	5.88
826.162	5.88
826.904	8.88
827.646	6.88
828.388	8.88
829.129	3.88
829.871	7.88
830.612	9.88
831.354	2.88
832.095	6.88
832.836	7.88
833.577	6.88
834.319	4.88
835.06	5.88
835.801	6.88
836.542	5.88
837.282	4.88
838.023	5.88
838.764	6.88
839.504	6.88
840.245	3.88
840.985	5.88
841.726	5.88
842.466	5.88
843.206	6.88
843.946	4.88
844.687	4.88
845.427	6.88
846.166	5.88
846.906	5.88
847.646	5.88
848.386	5.88
849.125	4.88
849.865	7.88
850.605	5.88
851.344	2.88
852.083	4.88
852.823	4.88
853.562	4.88
854.301	4.88
855.04	4.88
855.779	2.88
856.518	4.88
857.257	4.88
857.995	5.88
858.734	6.88
859.473	2.88
860.211	1.88
860.95	4.88
861.688	4.88
862.426	2.88
863.165	2.88
863.903	4.88
864.641	1.88
865.379	4.88
866.117	0.88
866.855	1.88
867.593	2.88
868.33	1.88
869.068	1.88
869.806	1.88
870.543	2.88
871.28	-0.12
872.018	2.88
872.755	0.88
873.492	3.88
874.229	2.88
874.967	1.88
875.703	2.88
876.44	1.88
877.177	0.88
877.914	2.88
878.651	0.88
879.387	1.88
880.124	0.88
880.86	1.88
881.597	-0.12
882.333	1.88
883.069	1.88
883.806	2.88
884.542	2.88
885.278	0.88
886.014	2.88
886.749	3.88
887.485	-1.12
888.221	2.88
888.957	-0.12
889.692	0.88
890.428	2.88
891.163	1.88
891.899	0.88
892.634	1.88
893.369	2.88
894.104	0.88
894.839	0.88
895.574	1.88
896.309	0.88
897.044	0.88
897.779	0.88
898.514	1.88
899.248	1.88
899.983	1.88
900.717	-0.12
901.452	-0.12
902.186	2.88
902.92	1.88
903.654	-0.12
904.389	1.88
905.123	0.88
905.857	0.88
906.59	0.88
907.324	2.88
908.058	0.88
908.792	0.88
909.525	-0.12
910.259	0.88
910.992	-1.12
911.726	-0.12
912.459	0.88
913.192	-0.12
913.925	-1.12
914.658	2.88
915.391	-0.12
916.124	0.88
916.857	0.88
917.59	0.88
918.323	-1.12
919.055	-1.12
919.788	1.88
920.521	2.88
921.253	-0.12
921.985	-1.12
922.718	2.88
923.45	0.88
924.182	-1.12
924.914	1.88
925.646	0.88
926.378	-1.12
927.11	-1.12
927.841	-0.12
928.573	-0.12
929.305	-1.12
930.036	1.88
930.768	1.88
931.499	0.88
932.23	0.88
932.962	-2.12
933.693	-0.12
934.424	-0.12
935.155	1.88
935.886	0.88
936.617	1.88
937.348	-0.12
938.078	-1.12
938.809	-0.12
939.54	-0.12
940.27	-1.12
941.001	-1.12
941.731	0.88
942.461	1.88
943.191	-1.12
943.922	0.88
944.652	0.88
945.382	0.88
946.112	-1.12
946.841	0.88
947.571	0.88
948.301	-0.12
949.031	-1.12
949.76	-3.12
950.49	-0.12
951.219	1.88
951.948	-1.12
952.678	1.88
953.407	-1.12
954.136	2.88
954.865	-1.12
955.594	0.88
956.323	-1.12
957.052	0.88
957.78	1.88
958.509	-2.12
959.238	-0.12
959.966	-1.12
960.695	0.88
961.423	-0.12
962.151	-0.12
962.88	-1.12
963.608	-1.12
964.336	-0.12
965.064	-0.12
965.792	-1.12
966.52	-0.12
967.247	1.88
967.975	-0.12
968.703	0.88
969.43	-1.12
970.158	0.88
970.885	-1.12
971.613	0.88
972.34	1.88
973.067	-0.12
973.794	0.88
974.521	-0.12
975.248	0.88
975.975	1.88
976.702	0.88
977.429	1.88
978.156	0.88
978.882	-0.12
979.609	-0.12
980.335	-0.12
981.062	0.88
981.788	2.88
982.514	-1.12
983.24	0.88
983.967	-0.12
984.693	0.88
985.419	0.88
986.144	0.88
986.87	0.88
987.596	0.88
988.322	-1.12
989.047	-0.12
989.773	-1.12
990.498	0.88
991.224	0.88
991.949	0.88
992.674	2.88
993.399	-0.12
994.124	1.88
994.849	-0.12
995.574	-1.12
996.299	-0.12
997.024	-1.12
997.749	-1.12
998.473	-1.12
999.198	0.88
999.922	0.88
1000.647	-0.12
1001.371	2.88
1002.095	-0.12
1002.82	-2.12
1003.544	-0.12
1004.268	2.88
1004.992	1.88
1005.716	1.88
1006.439	4.88
1007.163	6.88
1007.887	6.88
1008.611	-0.12
1009.334	-0.12
1010.058	-1.12
1010.781	1.88
1011.504	-0.12
1012.228	-1.12
1012.951	-1.12
1013.674	-0.12
1014.397	-1.12
1015.12	1.88
