节点500_705_QEPB04081__550__20-53-45-727.txt的数据

Date: Wed Nov 12 20:53:45 CST 2025
User: PC
Spectrometer: QEPB0408
触发模式: 0
积分时间 (秒): 1.000000E-2
Scans to average: 1
启用暗噪声校正: true
启用非线性校正: false
滑动平均宽度: 0
X轴模式: Wavelengths
Number of Pixels in Spectrum: 1044
>>>>>Begin Spectral Data<<<<<
220.843	6.25
221.644	5.25
222.444	7.25
223.244	6.25
224.045	7.25
224.845	7.25
225.645	6.25
226.445	9.25
227.245	8.25
228.045	8.25
228.845	8.25
229.645	7.25
230.444	7.25
231.244	8.25
232.043	9.25
232.843	10.25
233.642	11.25
234.442	7.25
235.241	9.25
236.04	12.25
236.839	11.25
237.638	10.25
238.437	9.25
239.236	12.25
240.035	9.25
240.833	11.25
241.632	11.25
242.43	11.25
243.229	12.25
244.027	13.25
244.826	12.25
245.624	13.25
246.422	12.25
247.22	12.25
248.018	16.25
248.816	15.25
249.614	13.25
250.412	17.25
251.21	17.25
252.007	17.25
252.805	18.25
253.602	18.25
254.4	17.25
255.197	20.25
255.994	17.25
256.791	19.25
257.589	20.25
258.386	20.25
259.183	20.25
259.979	21.25
260.776	20.25
261.573	20.25
262.37	19.25
263.166	22.25
263.963	22.25
264.759	25.25
265.556	25.25
266.352	27.25
267.148	26.25
267.944	26.25
268.74	25.25
269.536	26.25
270.332	28.25
271.128	27.25
271.924	27.25
272.719	31.25
273.515	27.25
274.311	31.25
275.106	28.25
275.901	29.25
276.697	33.25
277.492	34.25
278.287	29.25
279.082	33.25
279.877	35.25
280.672	32.25
281.467	33.25
282.262	31.25
283.056	33.25
283.851	30.25
284.646	31.25
285.44	29.25
286.234	29.25
287.029	32.25
287.823	33.25
288.617	31.25
289.411	34.25
290.205	29.25
290.999	30.25
291.793	31.25
292.587	32.25
293.381	31.25
294.174	27.25
294.968	28.25
295.761	25.25
296.555	27.25
297.348	26.25
298.141	27.25
298.935	30.25
299.728	25.25
300.521	24.25
301.314	25.25
302.107	23.25
302.899	20.25
303.692	22.25
304.485	22.25
305.277	24.25
306.07	23.25
306.862	20.25
307.655	23.25
308.447	21.25
309.239	20.25
310.031	19.25
310.823	18.25
311.615	20.25
312.407	19.25
313.199	17.25
313.991	17.25
314.783	16.25
315.574	15.25
316.366	16.25
317.157	19.25
317.949	13.25
318.74	15.25
319.531	14.25
320.322	16.25
321.113	15.25
321.904	14.25
322.695	13.25
323.486	14.25
324.277	11.25
325.068	12.25
325.858	12.25
326.649	12.25
327.439	12.25
328.23	11.25
329.02	15.25
329.81	12.25
330.6	13.25
331.391	11.25
332.181	13.25
332.971	12.25
333.76	14.25
334.55	10.25
335.34	13.25
336.13	13.25
336.919	11.25
337.709	14.25
338.498	11.25
339.287	8.25
340.077	13.25
340.866	12.25
341.655	11.25
342.444	13.25
343.233	11.25
344.022	12.25
344.811	11.25
345.6	11.25
346.388	11.25
347.177	13.25
347.965	10.25
348.754	13.25
349.542	10.25
350.33	10.25
351.119	12.25
351.907	11.25
352.695	10.25
353.483	11.25
354.271	9.25
355.059	9.25
355.846	10.25
356.634	10.25
357.422	12.25
358.209	9.25
358.997	10.25
359.784	9.25
360.571	10.25
361.359	10.25
362.146	9.25
362.933	11.25
363.72	7.25
364.507	11.25
365.294	8.25
366.081	11.25
366.867	9.25
367.654	10.25
368.44	9.25
369.227	11.25
370.013	10.25
370.8	7.25
371.586	11.25
372.372	10.25
373.158	8.25
373.944	9.25
374.73	10.25
375.516	9.25
376.302	9.25
377.088	11.25
377.873	9.25
378.659	10.25
379.445	10.25
380.23	8.25
381.015	11.25
381.801	9.25
382.586	9.25
383.371	10.25
384.156	10.25
384.941	9.25
385.726	8.25
386.511	10.25
387.296	7.25
388.08	11.25
388.865	11.25
389.649	10.25
390.434	13.25
391.218	13.25
392.003	10.25
392.787	11.25
393.571	11.25
394.355	12.25
395.139	11.25
395.923	10.25
396.707	11.25
397.491	12.25
398.274	11.25
399.058	13.25
399.842	15.25
400.625	14.25
401.408	13.25
402.192	12.25
402.975	13.25
403.758	15.25
404.541	13.25
405.324	13.25
406.107	15.25
406.89	15.25
407.673	18.25
408.456	14.25
409.238	17.25
410.021	16.25
410.803	16.25
411.586	14.25
412.368	18.25
413.151	17.25
413.933	18.25
414.715	15.25
415.497	20.25
416.279	17.25
417.061	20.25
417.843	17.25
418.624	19.25
419.406	22.25
420.188	20.25
420.969	22.25
421.751	19.25
422.532	20.25
423.313	22.25
424.095	24.25
424.876	23.25
425.657	28.25
426.438	23.25
427.219	27.25
428	27.25
428.78	26.25
429.561	30.25
430.342	30.25
431.122	28.25
431.903	32.25
432.683	32.25
433.464	36.25
434.244	36.25
435.024	35.25
435.804	42.25
436.584	44.25
437.364	48.25
438.144	47.25
438.924	52.25
439.704	55.25
440.483	59.25
441.263	64.25
442.042	66.25
442.822	74.25
443.601	78.25
444.38	81.25
445.16	94.25
445.939	98.25
446.718	106.25
447.497	116.25
448.276	132.25
449.054	137.25
449.833	162.25
450.612	168.25
451.391	185.25
452.169	201.25
452.948	228.25
453.726	253.25
454.504	286.25
455.282	319.25
456.061	353.25
456.839	394.25
457.617	428.25
458.395	486.25
459.172	550.25
459.95	597.25
460.728	666.25
461.506	737.25
462.283	830.25
463.061	914.25
463.838	1019.25
464.615	1127.25
465.393	1256.25
466.17	1385.25
466.947	1534.25
467.724	1702.25
468.501	1870.25
469.278	2078.25
470.055	2282.25
470.831	2512.25
471.608	2748.25
472.385	3022.25
473.161	3313.25
473.938	3622.25
474.714	3952.25
475.49	4353.25
476.266	4739.25
477.043	5167.25
477.819	5634.25
478.595	6107.25
479.371	6637.25
480.146	7219.25
480.922	7831.25
481.698	8476.25
482.473	9218.25
483.249	9944.25
484.024	10815.25
484.8	11622.25
485.575	12541.25
486.35	13537.25
487.126	14674.25
487.901	15766.25
488.676	16924.25
489.451	18213.25
490.225	19606.25
491	20995.25
491.775	22297.25
492.55	23839.25
493.324	25380.25
494.099	26939.25
494.873	28547.25
495.647	30213.25
496.422	31788.25
497.196	33405.25
497.97	34964.25
498.744	36402.25
499.518	38018.25
500.292	39329.25
501.066	40419.25
501.839	41360.25
502.613	42343.25
503.387	43095.25
504.16	43682.25
504.934	44065.25
505.707	44234.25
506.48	44122.25
507.253	43940.25
508.027	43589.25
508.8	42943.25
509.573	42275.25
510.346	41513.25
511.118	40594.25
511.891	39529.25
512.664	38291.25
513.437	36979.25
514.209	35849.25
514.982	34500.25
515.754	33232.25
516.526	31957.25
517.298	30692.25
518.071	29557.25
518.843	28431.25
519.615	27189.25
520.387	26198.25
521.159	25197.25
521.93	24170.25
522.702	23183.25
523.474	22170.25
524.245	21299.25
525.017	20444.25
525.788	19554.25
526.56	18770.25
527.331	18023.25
528.102	17115.25
528.873	16307.25
529.644	15519.25
530.415	14862.25
531.186	14148.25
531.957	13446.25
532.728	12811.25
533.498	12165.25
534.269	11537.25
535.039	10912.25
535.81	10356.25
536.58	9787.25
537.351	9280.25
538.121	8774.25
538.891	8336.25
539.661	7881.25
540.431	7465.25
541.201	7072.25
541.971	6683.25
542.741	6328.25
543.51	6027.25
544.28	5744.25
545.05	5484.25
545.819	5198.25
546.588	4972.25
547.358	4726.25
548.127	4491.25
548.896	4267.25
549.665	4079.25
550.434	3857.25
551.203	3659.25
551.972	3476.25
552.741	3305.25
553.51	3127.25
554.278	2942.25
555.047	2771.25
555.815	2616.25
556.584	2466.25
557.352	2331.25
558.121	2224.25
558.889	2090.25
559.657	1978.25
560.425	1872.25
561.193	1789.25
561.961	1683.25
562.729	1597.25
563.496	1498.25
564.264	1423.25
565.032	1349.25
565.799	1267.25
566.567	1200.25
567.334	1133.25
568.101	1079.25
568.869	1017.25
569.636	954.25
570.403	901.25
571.17	846.25
571.937	795.25
572.704	754.25
573.471	729.25
574.237	681.25
575.004	642.25
575.771	588.25
576.537	571.25
577.303	537.25
578.07	516.25
578.836	475.25
579.602	456.25
580.368	439.25
581.134	413.25
581.9	392.25
582.666	373.25
583.432	360.25
584.198	338.25
584.964	316.25
585.729	302.25
586.495	286.25
587.26	274.25
588.025	256.25
588.791	243.25
589.556	238.25
590.321	223.25
591.086	206.25
591.851	196.25
592.616	188.25
593.381	174.25
594.146	172.25
594.911	166.25
595.675	151.25
596.44	151.25
597.204	138.25
597.969	139.25
598.733	127.25
599.497	128.25
600.261	115.25
601.025	113.25
601.79	112.25
602.553	107.25
603.317	99.25
604.081	96.25
604.845	96.25
605.609	91.25
606.372	87.25
607.136	83.25
607.899	79.25
608.662	81.25
609.426	73.25
610.189	70.25
610.952	69.25
611.715	66.25
612.478	61.25
613.241	61.25
614.004	58.25
614.767	58.25
615.529	54.25
616.292	54.25
617.055	51.25
617.817	47.25
618.579	49.25
619.342	44.25
620.104	45.25
620.866	41.25
621.628	44.25
622.39	36.25
623.152	38.25
623.914	36.25
624.676	37.25
625.438	38.25
626.199	36.25
626.961	33.25
627.722	31.25
628.484	31.25
629.245	29.25
630.006	31.25
630.768	29.25
631.529	26.25
632.29	24.25
633.051	29.25
633.812	26.25
634.573	24.25
635.333	23.25
636.094	22.25
636.855	24.25
637.615	21.25
638.376	18.25
639.136	23.25
639.896	20.25
640.657	22.25
641.417	19.25
642.177	20.25
642.937	16.25
643.697	20.25
644.457	18.25
645.216	17.25
645.976	15.25
646.736	15.25
647.495	16.25
648.255	15.25
649.014	13.25
649.774	16.25
650.533	15.25
651.292	15.25
652.051	11.25
652.81	15.25
653.569	11.25
654.328	14.25
655.087	9.25
655.846	14.25
656.604	14.25
657.363	13.25
658.121	13.25
658.88	10.25
659.638	11.25
660.397	13.25
661.155	10.25
661.913	12.25
662.671	11.25
663.429	14.25
664.187	12.25
664.945	10.25
665.703	10.25
666.46	12.25
667.218	10.25
667.976	11.25
668.733	10.25
669.49	11.25
670.248	8.25
671.005	10.25
671.762	9.25
672.519	8.25
673.276	8.25
674.033	11.25
674.79	8.25
675.547	8.25
676.304	8.25
677.06	9.25
677.817	8.25
678.574	9.25
679.33	8.25
680.086	8.25
680.843	8.25
681.599	10.25
682.355	7.25
683.111	9.25
683.867	7.25
684.623	7.25
685.379	10.25
686.135	9.25
686.89	11.25
687.646	7.25
688.402	8.25
689.157	7.25
689.912	10.25
690.668	6.25
691.423	9.25
692.178	8.25
692.933	8.25
693.688	10.25
694.443	7.25
695.198	6.25
695.953	9.25
696.708	9.25
697.462	8.25
698.217	4.25
698.972	8.25
699.726	8.25
700.48	7.25
701.235	9.25
701.989	6.25
702.743	7.25
703.497	6.25
704.251	7.25
705.005	5.25
705.759	7.25
706.513	9.25
707.266	10.25
708.02	5.25
708.774	7.25
709.527	7.25
710.28	8.25
711.034	6.25
711.787	9.25
712.54	5.25
713.293	10.25
714.046	8.25
714.799	7.25
715.552	7.25
716.305	7.25
717.058	8.25
717.81	10.25
718.563	8.25
719.315	8.25
720.068	7.25
720.82	9.25
721.573	10.25
722.325	9.25
723.077	7.25
723.829	8.25
724.581	9.25
725.333	10.25
726.085	9.25
726.836	7.25
727.588	9.25
728.34	9.25
729.091	7.25
729.843	10.25
730.594	8.25
731.346	10.25
732.097	8.25
732.848	9.25
733.599	9.25
734.35	8.25
735.101	8.25
735.852	10.25
736.603	8.25
737.354	8.25
738.104	7.25
738.855	9.25
739.605	8.25
740.356	10.25
741.106	11.25
741.856	10.25
742.607	9.25
743.357	7.25
744.107	9.25
744.857	7.25
745.607	10.25
746.357	10.25
747.106	11.25
747.856	11.25
748.606	10.25
749.355	10.25
750.105	10.25
750.854	9.25
751.603	10.25
752.353	11.25
753.102	11.25
753.851	13.25
754.6	10.25
755.349	12.25
756.098	12.25
756.847	12.25
757.595	11.25
758.344	14.25
759.093	11.25
759.841	12.25
760.589	11.25
761.338	9.25
762.086	11.25
762.834	11.25
763.582	13.25
764.331	11.25
765.079	15.25
765.826	11.25
766.574	11.25
767.322	12.25
768.07	15.25
768.817	13.25
769.565	13.25
770.312	13.25
771.06	12.25
771.807	15.25
772.554	13.25
773.302	13.25
774.049	11.25
774.796	14.25
775.543	15.25
776.29	14.25
777.036	14.25
777.783	15.25
778.53	13.25
779.276	15.25
780.023	15.25
780.769	15.25
781.516	17.25
782.262	14.25
783.008	13.25
783.754	15.25
784.5	15.25
785.246	17.25
785.992	15.25
786.738	16.25
787.484	16.25
788.23	15.25
788.975	18.25
789.721	13.25
790.466	16.25
791.212	14.25
791.957	12.25
792.702	12.25
793.447	12.25
794.193	13.25
794.938	14.25
795.683	12.25
796.427	14.25
797.172	14.25
797.917	13.25
798.662	10.25
799.406	12.25
800.151	13.25
800.895	12.25
801.64	12.25
802.384	14.25
803.128	10.25
803.872	10.25
804.616	13.25
805.36	12.25
806.104	10.25
806.848	10.25
807.592	10.25
808.336	10.25
809.079	9.25
809.823	10.25
810.566	12.25
811.31	9.25
812.053	9.25
812.796	10.25
813.539	7.25
814.283	9.25
815.026	9.25
815.769	10.25
816.511	8.25
817.254	9.25
817.997	9.25
818.74	8.25
819.482	9.25
820.225	7.25
820.967	9.25
821.71	6.25
822.452	8.25
823.194	6.25
823.936	7.25
824.678	7.25
825.42	6.25
826.162	8.25
826.904	8.25
827.646	7.25
828.388	5.25
829.129	8.25
829.871	6.25
830.612	5.25
831.354	7.25
832.095	6.25
832.836	5.25
833.577	5.25
834.319	4.25
835.06	6.25
835.801	7.25
836.542	5.25
837.282	6.25
838.023	8.25
838.764	6.25
839.504	3.25
840.245	7.25
840.985	6.25
841.726	6.25
842.466	5.25
843.206	6.25
843.946	9.25
844.687	5.25
845.427	3.25
846.166	7.25
846.906	4.25
847.646	6.25
848.386	4.25
849.125	3.25
849.865	3.25
850.605	9.25
851.344	3.25
852.083	5.25
852.823	3.25
853.562	3.25
854.301	3.25
855.04	6.25
855.779	3.25
856.518	5.25
857.257	5.25
857.995	5.25
858.734	3.25
859.473	3.25
860.211	1.25
860.95	3.25
861.688	4.25
862.426	3.25
863.165	4.25
863.903	1.25
864.641	3.25
865.379	4.25
866.117	4.25
866.855	4.25
867.593	3.25
868.33	5.25
869.068	1.25
869.806	4.25
870.543	4.25
871.28	2.25
872.018	1.25
872.755	3.25
873.492	1.25
874.229	3.25
874.967	5.25
875.703	2.25
876.44	3.25
877.177	3.25
877.914	0.25
878.651	2.25
879.387	2.25
880.124	2.25
880.86	3.25
881.597	1.25
882.333	2.25
883.069	2.25
883.806	3.25
884.542	3.25
885.278	4.25
886.014	0.25
886.749	1.25
887.485	3.25
888.221	3.25
888.957	-0.75
889.692	0.25
890.428	0.25
891.163	3.25
891.899	2.25
892.634	1.25
893.369	1.25
894.104	3.25
894.839	3.25
895.574	0.25
896.309	3.25
897.044	0.25
897.779	1.25
898.514	1.25
899.248	1.25
899.983	1.25
900.717	0.25
901.452	0.25
902.186	2.25
902.92	-0.75
903.654	1.25
904.389	2.25
905.123	0.25
905.857	1.25
906.59	1.25
907.324	2.25
908.058	1.25
908.792	2.25
909.525	2.25
910.259	2.25
910.992	1.25
911.726	1.25
912.459	0.25
913.192	2.25
913.925	0.25
914.658	-0.75
915.391	1.25
916.124	0.25
916.857	1.25
917.59	1.25
918.323	0.25
919.055	1.25
919.788	1.25
920.521	3.25
921.253	2.25
921.985	2.25
922.718	1.25
923.45	-0.75
924.182	0.25
924.914	0.25
925.646	-0.75
926.378	3.25
927.11	1.25
927.841	3.25
928.573	-1.75
929.305	-0.75
930.036	3.25
930.768	2.25
931.499	1.25
932.23	1.25
932.962	1.25
933.693	3.25
934.424	2.25
935.155	1.25
935.886	0.25
936.617	2.25
937.348	-1.75
938.078	3.25
938.809	1.25
939.54	-1.75
940.27	2.25
941.001	-0.75
941.731	2.25
942.461	0.25
943.191	3.25
943.922	1.25
944.652	-0.75
945.382	-0.75
946.112	2.25
946.841	3.25
947.571	0.25
948.301	1.25
949.031	-1.75
949.76	0.25
950.49	0.25
951.219	0.25
951.948	2.25
952.678	1.25
953.407	-0.75
954.136	-0.75
954.865	0.25
955.594	-0.75
956.323	1.25
957.052	1.25
957.78	2.25
958.509	2.25
959.238	1.25
959.966	-0.75
960.695	1.25
961.423	-0.75
962.151	1.25
962.88	-0.75
963.608	-0.75
964.336	1.25
965.064	0.25
965.792	0.25
966.52	2.25
967.247	-0.75
967.975	2.25
968.703	-1.75
969.43	2.25
970.158	2.25
970.885	1.25
971.613	2.25
972.34	-0.75
973.067	0.25
973.794	-0.75
974.521	-1.75
975.248	-0.75
975.975	-0.75
976.702	2.25
977.429	1.25
978.156	1.25
978.882	0.25
979.609	2.25
980.335	1.25
981.062	-0.75
981.788	0.25
982.514	-0.75
983.24	2.25
983.967	0.25
984.693	0.25
985.419	2.25
986.144	0.25
986.87	0.25
987.596	-0.75
988.322	2.25
989.047	0.25
989.773	1.25
990.498	1.25
991.224	3.25
991.949	2.25
992.674	0.25
993.399	1.25
994.124	-0.75
994.849	0.25
995.574	3.25
996.299	-0.75
997.024	1.25
997.749	0.25
998.473	0.25
999.198	1.25
999.922	0.25
1000.647	-0.75
1001.371	4.25
1002.095	0.25
1002.82	-2.75
1003.544	0.25
1004.268	5.25
1004.992	5.25
1005.716	6.25
1006.439	3.25
1007.163	5.25
1007.887	4.25
1008.611	0.25
1009.334	1.25
1010.058	1.25
1010.781	0.25
1011.504	3.25
1012.228	0.25
1012.951	0.25
1013.674	1.25
1014.397	-2.75
1015.12	-0.75
