节点500_705_QEPB04081__625__20-54-49-788.txt的数据

Date: Wed Nov 12 20:54:49 CST 2025
User: PC
Spectrometer: QEPB0408
触发模式: 0
积分时间 (秒): 1.000000E-2
Scans to average: 1
启用暗噪声校正: true
启用非线性校正: false
滑动平均宽度: 0
X轴模式: Wavelengths
Number of Pixels in Spectrum: 1044
>>>>>Begin Spectral Data<<<<<
220.843	6.38
221.644	3.38
222.444	7.38
223.244	7.38
224.045	1.38
224.845	7.38
225.645	5.38
226.445	7.38
227.245	7.38
228.045	6.38
228.845	9.38
229.645	11.38
230.444	7.38
231.244	9.38
232.043	7.38
232.843	9.38
233.642	10.38
234.442	8.38
235.241	9.38
236.04	9.38
236.839	12.38
237.638	7.38
238.437	10.38
239.236	10.38
240.035	10.38
240.833	11.38
241.632	9.38
242.43	12.38
243.229	14.38
244.027	10.38
244.826	10.38
245.624	11.38
246.422	13.38
247.22	12.38
248.018	16.38
248.816	13.38
249.614	15.38
250.412	14.38
251.21	14.38
252.007	14.38
252.805	19.38
253.602	17.38
254.4	19.38
255.197	17.38
255.994	17.38
256.791	17.38
257.589	19.38
258.386	19.38
259.183	18.38
259.979	19.38
260.776	22.38
261.573	19.38
262.37	18.38
263.166	19.38
263.963	22.38
264.759	22.38
265.556	25.38
266.352	24.38
267.148	25.38
267.944	24.38
268.74	25.38
269.536	27.38
270.332	26.38
271.128	30.38
271.924	26.38
272.719	27.38
273.515	32.38
274.311	31.38
275.106	30.38
275.901	28.38
276.697	28.38
277.492	30.38
278.287	30.38
279.082	27.38
279.877	31.38
280.672	31.38
281.467	30.38
282.262	30.38
283.056	33.38
283.851	34.38
284.646	30.38
285.44	30.38
286.234	31.38
287.029	31.38
287.823	33.38
288.617	31.38
289.411	34.38
290.205	31.38
290.999	33.38
291.793	30.38
292.587	30.38
293.381	29.38
294.174	31.38
294.968	30.38
295.761	29.38
296.555	24.38
297.348	28.38
298.141	27.38
298.935	26.38
299.728	24.38
300.521	24.38
301.314	22.38
302.107	23.38
302.899	24.38
303.692	21.38
304.485	24.38
305.277	19.38
306.07	21.38
306.862	21.38
307.655	20.38
308.447	15.38
309.239	21.38
310.031	23.38
310.823	20.38
311.615	18.38
312.407	18.38
313.199	18.38
313.991	16.38
314.783	18.38
315.574	18.38
316.366	16.38
317.157	15.38
317.949	17.38
318.74	17.38
319.531	14.38
320.322	13.38
321.113	15.38
321.904	15.38
322.695	13.38
323.486	14.38
324.277	16.38
325.068	13.38
325.858	11.38
326.649	11.38
327.439	13.38
328.23	13.38
329.02	12.38
329.81	11.38
330.6	12.38
331.391	11.38
332.181	12.38
332.971	9.38
333.76	12.38
334.55	12.38
335.34	12.38
336.13	12.38
336.919	14.38
337.709	13.38
338.498	11.38
339.287	14.38
340.077	9.38
340.866	12.38
341.655	11.38
342.444	13.38
343.233	10.38
344.022	11.38
344.811	14.38
345.6	8.38
346.388	13.38
347.177	14.38
347.965	12.38
348.754	11.38
349.542	10.38
350.33	12.38
351.119	9.38
351.907	13.38
352.695	12.38
353.483	10.38
354.271	10.38
355.059	10.38
355.846	10.38
356.634	10.38
357.422	11.38
358.209	11.38
358.997	10.38
359.784	11.38
360.571	9.38
361.359	12.38
362.146	10.38
362.933	10.38
363.72	9.38
364.507	9.38
365.294	7.38
366.081	9.38
366.867	9.38
367.654	9.38
368.44	8.38
369.227	8.38
370.013	9.38
370.8	10.38
371.586	9.38
372.372	10.38
373.158	10.38
373.944	9.38
374.73	11.38
375.516	7.38
376.302	9.38
377.088	8.38
377.873	8.38
378.659	9.38
379.445	11.38
380.23	11.38
381.015	11.38
381.801	10.38
382.586	10.38
383.371	10.38
384.156	11.38
384.941	7.38
385.726	9.38
386.511	11.38
387.296	11.38
388.08	10.38
388.865	11.38
389.649	9.38
390.434	12.38
391.218	11.38
392.003	11.38
392.787	11.38
393.571	10.38
394.355	11.38
395.139	11.38
395.923	14.38
396.707	10.38
397.491	13.38
398.274	16.38
399.058	13.38
399.842	14.38
400.625	16.38
401.408	15.38
402.192	13.38
402.975	13.38
403.758	11.38
404.541	16.38
405.324	14.38
406.107	15.38
406.89	17.38
407.673	15.38
408.456	13.38
409.238	16.38
410.021	15.38
410.803	15.38
411.586	14.38
412.368	18.38
413.151	18.38
413.933	15.38
414.715	15.38
415.497	16.38
416.279	19.38
417.061	18.38
417.843	19.38
418.624	19.38
419.406	22.38
420.188	18.38
420.969	22.38
421.751	23.38
422.532	22.38
423.313	23.38
424.095	23.38
424.876	22.38
425.657	23.38
426.438	25.38
427.219	27.38
428	28.38
428.78	29.38
429.561	30.38
430.342	31.38
431.122	29.38
431.903	30.38
432.683	34.38
433.464	36.38
434.244	41.38
435.024	41.38
435.804	40.38
436.584	47.38
437.364	44.38
438.144	49.38
438.924	49.38
439.704	57.38
440.483	58.38
441.263	60.38
442.042	73.38
442.822	70.38
443.601	75.38
444.38	89.38
445.16	94.38
445.939	101.38
446.718	110.38
447.497	122.38
448.276	133.38
449.054	143.38
449.833	159.38
450.612	169.38
451.391	190.38
452.169	209.38
452.948	233.38
453.726	264.38
454.504	291.38
455.282	317.38
456.061	351.38
456.839	395.38
457.617	449.38
458.395	484.38
459.172	542.38
459.95	608.38
460.728	674.38
461.506	739.38
462.283	821.38
463.061	929.38
463.838	1018.38
464.615	1139.38
465.393	1249.38
466.17	1387.38
466.947	1544.38
467.724	1687.38
468.501	1882.38
469.278	2073.38
470.055	2275.38
470.831	2491.38
471.608	2757.38
472.385	3018.38
473.161	3300.38
473.938	3605.38
474.714	3959.38
475.49	4318.38
476.266	4662.38
477.043	5112.38
477.819	5562.38
478.595	6068.38
479.371	6568.38
480.146	7109.38
480.922	7751.38
481.698	8416.38
482.473	9094.38
483.249	9812.38
484.024	10649.38
484.8	11419.38
485.575	12347.38
486.35	13293.38
487.126	14372.38
487.901	15465.38
488.676	16579.38
489.451	17864.38
490.225	19139.38
491	20447.38
491.775	21881.38
492.55	23393.38
493.324	24820.38
494.099	26363.38
494.873	27919.38
495.647	29504.38
496.422	31075.38
497.196	32665.38
497.97	34174.38
498.744	35623.38
499.518	37204.38
500.292	38535.38
501.066	39620.38
501.839	40649.38
502.613	41518.38
503.387	42358.38
504.16	42998.38
504.934	43474.38
505.707	43611.38
506.48	43538.38
507.253	43349.38
508.027	43158.38
508.8	42562.38
509.573	41852.38
510.346	41129.38
511.118	40343.38
511.891	39456.38
512.664	38134.38
513.437	36862.38
514.209	35688.38
514.982	34404.38
515.754	33227.38
516.526	31938.38
517.298	30778.38
518.071	29582.38
518.843	28397.38
519.615	27318.38
520.387	26246.38
521.159	25234.38
521.93	24213.38
522.702	23240.38
523.474	22245.38
524.245	21363.38
525.017	20466.38
525.788	19664.38
526.56	18879.38
527.331	18043.38
528.102	17221.38
528.873	16355.38
529.644	15597.38
530.415	14886.38
531.186	14295.38
531.957	13538.38
532.728	12849.38
533.498	12220.38
534.269	11602.38
535.039	10996.38
535.81	10418.38
536.58	9839.38
537.351	9321.38
538.121	8869.38
538.891	8371.38
539.661	7910.38
540.431	7516.38
541.201	7125.38
541.971	6770.38
542.741	6406.38
543.51	6058.38
544.28	5781.38
545.05	5488.38
545.819	5266.38
546.588	5040.38
547.358	4794.38
548.127	4521.38
548.896	4315.38
549.665	4103.38
550.434	3876.38
551.203	3681.38
551.972	3513.38
552.741	3314.38
553.51	3119.38
554.278	2955.38
555.047	2803.38
555.815	2655.38
556.584	2506.38
557.352	2370.38
558.121	2238.38
558.889	2135.38
559.657	2022.38
560.425	1903.38
561.193	1815.38
561.961	1700.38
562.729	1611.38
563.496	1528.38
564.264	1448.38
565.032	1359.38
565.799	1288.38
566.567	1218.38
567.334	1146.38
568.101	1091.38
568.869	1025.38
569.636	973.38
570.403	902.38
571.17	860.38
571.937	817.38
572.704	767.38
573.471	730.38
574.237	686.38
575.004	651.38
575.771	607.38
576.537	571.38
577.303	538.38
578.07	514.38
578.836	495.38
579.602	457.38
580.368	438.38
581.134	418.38
581.9	391.38
582.666	376.38
583.432	363.38
584.198	337.38
584.964	329.38
585.729	306.38
586.495	289.38
587.26	273.38
588.025	261.38
588.791	242.38
589.556	236.38
590.321	223.38
591.086	206.38
591.851	196.38
592.616	191.38
593.381	182.38
594.146	175.38
594.911	162.38
595.675	157.38
596.44	152.38
597.204	142.38
597.969	140.38
598.733	131.38
599.497	130.38
600.261	116.38
601.025	117.38
601.79	111.38
602.553	108.38
603.317	101.38
604.081	100.38
604.845	91.38
605.609	89.38
606.372	88.38
607.136	84.38
607.899	80.38
608.662	76.38
609.426	76.38
610.189	70.38
610.952	64.38
611.715	64.38
612.478	65.38
613.241	61.38
614.004	58.38
614.767	54.38
615.529	55.38
616.292	55.38
617.055	51.38
617.817	48.38
618.579	44.38
619.342	45.38
620.104	44.38
620.866	43.38
621.628	44.38
622.39	43.38
623.152	38.38
623.914	37.38
624.676	37.38
625.438	33.38
626.199	35.38
626.961	36.38
627.722	31.38
628.484	31.38
629.245	34.38
630.006	31.38
630.768	30.38
631.529	29.38
632.29	27.38
633.051	27.38
633.812	25.38
634.573	24.38
635.333	25.38
636.094	24.38
636.855	22.38
637.615	24.38
638.376	21.38
639.136	25.38
639.896	21.38
640.657	18.38
641.417	21.38
642.177	20.38
642.937	16.38
643.697	16.38
644.457	17.38
645.216	17.38
645.976	16.38
646.736	13.38
647.495	15.38
648.255	13.38
649.014	15.38
649.774	15.38
650.533	15.38
651.292	15.38
652.051	13.38
652.81	15.38
653.569	12.38
654.328	14.38
655.087	16.38
655.846	14.38
656.604	12.38
657.363	13.38
658.121	13.38
658.88	14.38
659.638	12.38
660.397	11.38
661.155	10.38
661.913	10.38
662.671	11.38
663.429	8.38
664.187	12.38
664.945	13.38
665.703	9.38
666.46	11.38
667.218	9.38
667.976	12.38
668.733	10.38
669.49	9.38
670.248	10.38
671.005	10.38
671.762	10.38
672.519	7.38
673.276	9.38
674.033	10.38
674.79	11.38
675.547	9.38
676.304	8.38
677.06	12.38
677.817	9.38
678.574	9.38
679.33	9.38
680.086	10.38
680.843	9.38
681.599	7.38
682.355	10.38
683.111	6.38
683.867	8.38
684.623	9.38
685.379	7.38
686.135	9.38
686.89	7.38
687.646	6.38
688.402	7.38
689.157	6.38
689.912	7.38
690.668	7.38
691.423	11.38
692.178	8.38
692.933	8.38
693.688	8.38
694.443	7.38
695.198	8.38
695.953	8.38
696.708	9.38
697.462	10.38
698.217	8.38
698.972	11.38
699.726	6.38
700.48	7.38
701.235	8.38
701.989	7.38
702.743	7.38
703.497	4.38
704.251	9.38
705.005	6.38
705.759	8.38
706.513	9.38
707.266	7.38
708.02	9.38
708.774	7.38
709.527	8.38
710.28	8.38
711.034	7.38
711.787	8.38
712.54	6.38
713.293	8.38
714.046	4.38
714.799	6.38
715.552	8.38
716.305	7.38
717.058	8.38
717.81	7.38
718.563	9.38
719.315	6.38
720.068	8.38
720.82	7.38
721.573	7.38
722.325	9.38
723.077	7.38
723.829	7.38
724.581	9.38
725.333	7.38
726.085	8.38
726.836	8.38
727.588	8.38
728.34	8.38
729.091	9.38
729.843	11.38
730.594	9.38
731.346	8.38
732.097	8.38
732.848	9.38
733.599	8.38
734.35	7.38
735.101	8.38
735.852	8.38
736.603	10.38
737.354	8.38
738.104	12.38
738.855	9.38
739.605	7.38
740.356	10.38
741.106	9.38
741.856	8.38
742.607	11.38
743.357	8.38
744.107	9.38
744.857	11.38
745.607	9.38
746.357	10.38
747.106	11.38
747.856	9.38
748.606	10.38
749.355	9.38
750.105	8.38
750.854	10.38
751.603	8.38
752.353	12.38
753.102	9.38
753.851	10.38
754.6	11.38
755.349	10.38
756.098	11.38
756.847	12.38
757.595	10.38
758.344	11.38
759.093	8.38
759.841	12.38
760.589	11.38
761.338	11.38
762.086	12.38
762.834	12.38
763.582	11.38
764.331	13.38
765.079	9.38
765.826	13.38
766.574	13.38
767.322	13.38
768.07	12.38
768.817	12.38
769.565	12.38
770.312	14.38
771.06	11.38
771.807	13.38
772.554	15.38
773.302	12.38
774.049	12.38
774.796	13.38
775.543	15.38
776.29	14.38
777.036	12.38
777.783	14.38
778.53	13.38
779.276	15.38
780.023	15.38
780.769	16.38
781.516	13.38
782.262	14.38
783.008	15.38
783.754	13.38
784.5	17.38
785.246	15.38
785.992	15.38
786.738	15.38
787.484	13.38
788.23	13.38
788.975	15.38
789.721	13.38
790.466	12.38
791.212	11.38
791.957	12.38
792.702	12.38
793.447	14.38
794.193	14.38
794.938	13.38
795.683	14.38
796.427	13.38
797.172	15.38
797.917	13.38
798.662	15.38
799.406	12.38
800.151	12.38
800.895	11.38
801.64	11.38
802.384	12.38
803.128	13.38
803.872	14.38
804.616	11.38
805.36	11.38
806.104	11.38
806.848	8.38
807.592	9.38
808.336	11.38
809.079	9.38
809.823	9.38
810.566	9.38
811.31	10.38
812.053	10.38
812.796	9.38
813.539	11.38
814.283	10.38
815.026	11.38
815.769	9.38
816.511	7.38
817.254	6.38
817.997	8.38
818.74	8.38
819.482	8.38
820.225	8.38
820.967	7.38
821.71	8.38
822.452	7.38
823.194	6.38
823.936	6.38
824.678	8.38
825.42	9.38
826.162	8.38
826.904	8.38
827.646	6.38
828.388	6.38
829.129	9.38
829.871	7.38
830.612	8.38
831.354	4.38
832.095	7.38
832.836	6.38
833.577	3.38
834.319	6.38
835.06	6.38
835.801	7.38
836.542	6.38
837.282	5.38
838.023	6.38
838.764	6.38
839.504	5.38
840.245	7.38
840.985	6.38
841.726	5.38
842.466	6.38
843.206	3.38
843.946	8.38
844.687	6.38
845.427	3.38
846.166	4.38
846.906	4.38
847.646	6.38
848.386	3.38
849.125	2.38
849.865	7.38
850.605	4.38
851.344	4.38
852.083	5.38
852.823	3.38
853.562	5.38
854.301	3.38
855.04	5.38
855.779	5.38
856.518	5.38
857.257	6.38
857.995	1.38
858.734	6.38
859.473	2.38
860.211	3.38
860.95	3.38
861.688	4.38
862.426	6.38
863.165	1.38
863.903	4.38
864.641	3.38
865.379	3.38
866.117	2.38
866.855	1.38
867.593	4.38
868.33	3.38
869.068	1.38
869.806	2.38
870.543	1.38
871.28	3.38
872.018	1.38
872.755	2.38
873.492	4.38
874.229	2.38
874.967	3.38
875.703	1.38
876.44	4.38
877.177	1.38
877.914	1.38
878.651	3.38
879.387	1.38
880.124	2.38
880.86	2.38
881.597	3.38
882.333	1.38
883.069	3.38
883.806	0.38
884.542	2.38
885.278	1.38
886.014	1.38
886.749	2.38
887.485	2.38
888.221	2.38
888.957	1.38
889.692	1.38
890.428	2.38
891.163	1.38
891.899	4.38
892.634	2.38
893.369	3.38
894.104	1.38
894.839	1.38
895.574	2.38
896.309	0.38
897.044	1.38
897.779	1.38
898.514	-0.62
899.248	3.38
899.983	0.38
900.717	-0.62
901.452	0.38
902.186	0.38
902.92	3.38
903.654	-1.62
904.389	0.38
905.123	1.38
905.857	-0.62
906.59	1.38
907.324	0.38
908.058	1.38
908.792	1.38
909.525	1.38
910.259	2.38
910.992	0.38
911.726	2.38
912.459	1.38
913.192	0.38
913.925	2.38
914.658	1.38
915.391	1.38
916.124	1.38
916.857	0.38
917.59	1.38
918.323	1.38
919.055	0.38
919.788	0.38
920.521	1.38
921.253	1.38
921.985	1.38
922.718	0.38
923.45	1.38
924.182	2.38
924.914	1.38
925.646	0.38
926.378	0.38
927.11	2.38
927.841	0.38
928.573	1.38
929.305	2.38
930.036	1.38
930.768	1.38
931.499	1.38
932.23	2.38
932.962	0.38
933.693	0.38
934.424	3.38
935.155	1.38
935.886	0.38
936.617	0.38
937.348	0.38
938.078	1.38
938.809	-0.62
939.54	-0.62
940.27	-0.62
941.001	1.38
941.731	1.38
942.461	0.38
943.191	1.38
943.922	-1.62
944.652	1.38
945.382	0.38
946.112	-0.62
946.841	1.38
947.571	-0.62
948.301	1.38
949.031	1.38
949.76	3.38
950.49	0.38
951.219	-0.62
951.948	0.38
952.678	-0.62
953.407	1.38
954.136	0.38
954.865	1.38
955.594	1.38
956.323	1.38
957.052	1.38
957.78	2.38
958.509	2.38
959.238	-0.62
959.966	0.38
960.695	3.38
961.423	-0.62
962.151	-0.62
962.88	-0.62
963.608	3.38
964.336	0.38
965.064	2.38
965.792	0.38
966.52	0.38
967.247	2.38
967.975	0.38
968.703	3.38
969.43	3.38
970.158	2.38
970.885	0.38
971.613	0.38
972.34	0.38
973.067	0.38
973.794	0.38
974.521	0.38
975.248	1.38
975.975	1.38
976.702	0.38
977.429	2.38
978.156	1.38
978.882	-0.62
979.609	2.38
980.335	-0.62
981.062	3.38
981.788	-0.62
982.514	0.38
983.24	0.38
983.967	-0.62
984.693	3.38
985.419	1.38
986.144	1.38
986.87	1.38
987.596	0.38
988.322	0.38
989.047	0.38
989.773	1.38
990.498	0.38
991.224	3.38
991.949	0.38
992.674	1.38
993.399	2.38
994.124	-0.62
994.849	0.38
995.574	-0.62
996.299	1.38
997.024	1.38
997.749	0.38
998.473	2.38
999.198	1.38
999.922	2.38
1000.647	0.38
1001.371	1.38
1002.095	-1.62
1002.82	0.38
1003.544	-1.62
1004.268	4.38
1004.992	4.38
1005.716	2.38
1006.439	6.38
1007.163	6.38
1007.887	6.38
1008.611	1.38
1009.334	1.38
1010.058	-1.62
1010.781	0.38
1011.504	1.38
1012.228	1.38
1012.951	0.38
1013.674	1.38
1014.397	-0.62
1015.12	0.38
