节点500_705_QEPB04081__561__20-53-54-741.txt的数据

Date: Wed Nov 12 20:53:54 CST 2025
User: PC
Spectrometer: QEPB0408
触发模式: 0
积分时间 (秒): 1.000000E-2
Scans to average: 1
启用暗噪声校正: true
启用非线性校正: false
滑动平均宽度: 0
X轴模式: Wavelengths
Number of Pixels in Spectrum: 1044
>>>>>Begin Spectral Data<<<<<
220.843	5.5
221.644	3.5
222.444	4.5
223.244	4.5
224.045	7.5
224.845	6.5
225.645	4.5
226.445	5.5
227.245	4.5
228.045	9.5
228.845	8.5
229.645	5.5
230.444	8.5
231.244	5.5
232.043	6.5
232.843	8.5
233.642	7.5
234.442	10.5
235.241	9.5
236.04	10.5
236.839	9.5
237.638	9.5
238.437	9.5
239.236	11.5
240.035	10.5
240.833	9.5
241.632	11.5
242.43	11.5
243.229	12.5
244.027	12.5
244.826	10.5
245.624	15.5
246.422	11.5
247.22	13.5
248.018	14.5
248.816	14.5
249.614	14.5
250.412	14.5
251.21	13.5
252.007	14.5
252.805	14.5
253.602	17.5
254.4	13.5
255.197	16.5
255.994	16.5
256.791	19.5
257.589	19.5
258.386	14.5
259.183	22.5
259.979	19.5
260.776	17.5
261.573	20.5
262.37	19.5
263.166	21.5
263.963	23.5
264.759	20.5
265.556	22.5
266.352	23.5
267.148	25.5
267.944	24.5
268.74	26.5
269.536	25.5
270.332	26.5
271.128	25.5
271.924	25.5
272.719	28.5
273.515	26.5
274.311	30.5
275.106	26.5
275.901	31.5
276.697	30.5
277.492	31.5
278.287	28.5
279.082	30.5
279.877	30.5
280.672	28.5
281.467	34.5
282.262	31.5
283.056	30.5
283.851	30.5
284.646	31.5
285.44	31.5
286.234	30.5
287.029	28.5
287.823	30.5
288.617	35.5
289.411	32.5
290.205	28.5
290.999	30.5
291.793	32.5
292.587	33.5
293.381	28.5
294.174	27.5
294.968	28.5
295.761	26.5
296.555	28.5
297.348	27.5
298.141	27.5
298.935	25.5
299.728	23.5
300.521	25.5
301.314	24.5
302.107	23.5
302.899	25.5
303.692	22.5
304.485	22.5
305.277	19.5
306.07	23.5
306.862	23.5
307.655	21.5
308.447	19.5
309.239	19.5
310.031	19.5
310.823	16.5
311.615	20.5
312.407	17.5
313.199	16.5
313.991	16.5
314.783	17.5
315.574	16.5
316.366	16.5
317.157	13.5
317.949	14.5
318.74	12.5
319.531	14.5
320.322	14.5
321.113	14.5
321.904	11.5
322.695	14.5
323.486	11.5
324.277	12.5
325.068	15.5
325.858	12.5
326.649	13.5
327.439	13.5
328.23	14.5
329.02	11.5
329.81	12.5
330.6	13.5
331.391	12.5
332.181	10.5
332.971	9.5
333.76	12.5
334.55	14.5
335.34	11.5
336.13	13.5
336.919	12.5
337.709	10.5
338.498	11.5
339.287	10.5
340.077	11.5
340.866	14.5
341.655	11.5
342.444	11.5
343.233	13.5
344.022	11.5
344.811	12.5
345.6	12.5
346.388	8.5
347.177	12.5
347.965	8.5
348.754	10.5
349.542	12.5
350.33	8.5
351.119	10.5
351.907	11.5
352.695	9.5
353.483	11.5
354.271	9.5
355.059	8.5
355.846	12.5
356.634	9.5
357.422	12.5
358.209	10.5
358.997	10.5
359.784	10.5
360.571	10.5
361.359	10.5
362.146	7.5
362.933	8.5
363.72	7.5
364.507	10.5
365.294	9.5
366.081	8.5
366.867	8.5
367.654	7.5
368.44	10.5
369.227	10.5
370.013	10.5
370.8	9.5
371.586	9.5
372.372	8.5
373.158	8.5
373.944	8.5
374.73	10.5
375.516	10.5
376.302	10.5
377.088	8.5
377.873	11.5
378.659	8.5
379.445	9.5
380.23	6.5
381.015	9.5
381.801	9.5
382.586	8.5
383.371	11.5
384.156	10.5
384.941	9.5
385.726	9.5
386.511	9.5
387.296	9.5
388.08	9.5
388.865	12.5
389.649	9.5
390.434	10.5
391.218	10.5
392.003	10.5
392.787	9.5
393.571	10.5
394.355	10.5
395.139	12.5
395.923	9.5
396.707	12.5
397.491	7.5
398.274	10.5
399.058	12.5
399.842	13.5
400.625	12.5
401.408	11.5
402.192	12.5
402.975	13.5
403.758	14.5
404.541	14.5
405.324	11.5
406.107	13.5
406.89	12.5
407.673	17.5
408.456	13.5
409.238	17.5
410.021	18.5
410.803	11.5
411.586	13.5
412.368	10.5
413.151	15.5
413.933	18.5
414.715	13.5
415.497	16.5
416.279	18.5
417.061	18.5
417.843	18.5
418.624	20.5
419.406	18.5
420.188	21.5
420.969	20.5
421.751	20.5
422.532	23.5
423.313	21.5
424.095	21.5
424.876	25.5
425.657	22.5
426.438	25.5
427.219	23.5
428	24.5
428.78	26.5
429.561	27.5
430.342	28.5
431.122	30.5
431.903	29.5
432.683	31.5
433.464	34.5
434.244	39.5
435.024	39.5
435.804	37.5
436.584	41.5
437.364	47.5
438.144	46.5
438.924	52.5
439.704	54.5
440.483	57.5
441.263	63.5
442.042	63.5
442.822	70.5
443.601	74.5
444.38	83.5
445.16	88.5
445.939	98.5
446.718	104.5
447.497	111.5
448.276	128.5
449.054	144.5
449.833	152.5
450.612	167.5
451.391	194.5
452.169	207.5
452.948	230.5
453.726	255.5
454.504	281.5
455.282	316.5
456.061	355.5
456.839	387.5
457.617	440.5
458.395	482.5
459.172	535.5
459.95	605.5
460.728	666.5
461.506	743.5
462.283	822.5
463.061	913.5
463.838	1020.5
464.615	1135.5
465.393	1253.5
466.17	1398.5
466.947	1537.5
467.724	1698.5
468.501	1865.5
469.278	2073.5
470.055	2270.5
470.831	2507.5
471.608	2761.5
472.385	3020.5
473.161	3330.5
473.938	3612.5
474.714	3986.5
475.49	4349.5
476.266	4730.5
477.043	5145.5
477.819	5591.5
478.595	6091.5
479.371	6645.5
480.146	7205.5
480.922	7836.5
481.698	8464.5
482.473	9187.5
483.249	9942.5
484.024	10770.5
484.8	11618.5
485.575	12518.5
486.35	13556.5
487.126	14585.5
487.901	15732.5
488.676	16923.5
489.451	18170.5
490.225	19494.5
491	20813.5
491.775	22246.5
492.55	23756.5
493.324	25280.5
494.099	26862.5
494.873	28379.5
495.647	30072.5
496.422	31622.5
497.196	33305.5
497.97	34864.5
498.744	36305.5
499.518	37844.5
500.292	39185.5
501.066	40210.5
501.839	41228.5
502.613	42197.5
503.387	42945.5
504.16	43543.5
504.934	43868.5
505.707	44184.5
506.48	44090.5
507.253	43833.5
508.027	43526.5
508.8	42822.5
509.573	42185.5
510.346	41420.5
511.118	40680.5
511.891	39568.5
512.664	38201.5
513.437	37015.5
514.209	35824.5
514.982	34546.5
515.754	33221.5
516.526	31955.5
517.298	30809.5
518.071	29656.5
518.843	28518.5
519.615	27304.5
520.387	26222.5
521.159	25205.5
521.93	24203.5
522.702	23185.5
523.474	22250.5
524.245	21343.5
525.017	20476.5
525.788	19576.5
526.56	18880.5
527.331	18033.5
528.102	17207.5
528.873	16323.5
529.644	15571.5
530.415	14866.5
531.186	14157.5
531.957	13507.5
532.728	12789.5
533.498	12121.5
534.269	11519.5
535.039	10987.5
535.81	10348.5
536.58	9801.5
537.351	9327.5
538.121	8800.5
538.891	8342.5
539.661	7874.5
540.431	7456.5
541.201	7086.5
541.971	6736.5
542.741	6361.5
543.51	6031.5
544.28	5750.5
545.05	5461.5
545.819	5211.5
546.588	4978.5
547.358	4750.5
548.127	4492.5
548.896	4269.5
549.665	4069.5
550.434	3864.5
551.203	3665.5
551.972	3469.5
552.741	3296.5
553.51	3102.5
554.278	2937.5
555.047	2769.5
555.815	2649.5
556.584	2490.5
557.352	2354.5
558.121	2233.5
558.889	2106.5
559.657	2009.5
560.425	1884.5
561.193	1796.5
561.961	1702.5
562.729	1605.5
563.496	1522.5
564.264	1416.5
565.032	1351.5
565.799	1281.5
566.567	1200.5
567.334	1142.5
568.101	1089.5
568.869	1015.5
569.636	976.5
570.403	910.5
571.17	867.5
571.937	807.5
572.704	769.5
573.471	719.5
574.237	688.5
575.004	647.5
575.771	608.5
576.537	567.5
577.303	546.5
578.07	512.5
578.836	487.5
579.602	451.5
580.368	427.5
581.134	414.5
581.9	384.5
582.666	371.5
583.432	354.5
584.198	332.5
584.964	313.5
585.729	302.5
586.495	291.5
587.26	279.5
588.025	258.5
588.791	244.5
589.556	234.5
590.321	217.5
591.086	204.5
591.851	196.5
592.616	190.5
593.381	178.5
594.146	175.5
594.911	165.5
595.675	153.5
596.44	148.5
597.204	144.5
597.969	138.5
598.733	136.5
599.497	125.5
600.261	114.5
601.025	111.5
601.79	107.5
602.553	104.5
603.317	97.5
604.081	97.5
604.845	95.5
605.609	91.5
606.372	85.5
607.136	80.5
607.899	74.5
608.662	77.5
609.426	74.5
610.189	72.5
610.952	68.5
611.715	66.5
612.478	60.5
613.241	59.5
614.004	61.5
614.767	57.5
615.529	51.5
616.292	52.5
617.055	49.5
617.817	44.5
618.579	49.5
619.342	46.5
620.104	44.5
620.866	43.5
621.628	45.5
622.39	38.5
623.152	36.5
623.914	37.5
624.676	36.5
625.438	32.5
626.199	33.5
626.961	30.5
627.722	33.5
628.484	30.5
629.245	28.5
630.006	30.5
630.768	30.5
631.529	28.5
632.29	24.5
633.051	23.5
633.812	23.5
634.573	23.5
635.333	20.5
636.094	23.5
636.855	21.5
637.615	18.5
638.376	21.5
639.136	19.5
639.896	21.5
640.657	19.5
641.417	16.5
642.177	19.5
642.937	18.5
643.697	18.5
644.457	18.5
645.216	17.5
645.976	15.5
646.736	13.5
647.495	12.5
648.255	16.5
649.014	14.5
649.774	12.5
650.533	13.5
651.292	12.5
652.051	12.5
652.81	12.5
653.569	11.5
654.328	11.5
655.087	16.5
655.846	10.5
656.604	12.5
657.363	12.5
658.121	10.5
658.88	9.5
659.638	12.5
660.397	11.5
661.155	11.5
661.913	10.5
662.671	8.5
663.429	10.5
664.187	12.5
664.945	9.5
665.703	9.5
666.46	8.5
667.218	9.5
667.976	9.5
668.733	8.5
669.49	8.5
670.248	7.5
671.005	5.5
671.762	6.5
672.519	9.5
673.276	7.5
674.033	9.5
674.79	10.5
675.547	7.5
676.304	7.5
677.06	9.5
677.817	7.5
678.574	5.5
679.33	9.5
680.086	9.5
680.843	6.5
681.599	7.5
682.355	7.5
683.111	6.5
683.867	5.5
684.623	8.5
685.379	6.5
686.135	7.5
686.89	8.5
687.646	8.5
688.402	5.5
689.157	7.5
689.912	7.5
690.668	7.5
691.423	7.5
692.178	5.5
692.933	8.5
693.688	9.5
694.443	7.5
695.198	3.5
695.953	6.5
696.708	8.5
697.462	6.5
698.217	7.5
698.972	4.5
699.726	8.5
700.48	6.5
701.235	6.5
701.989	6.5
702.743	7.5
703.497	6.5
704.251	5.5
705.005	7.5
705.759	10.5
706.513	7.5
707.266	7.5
708.02	6.5
708.774	6.5
709.527	7.5
710.28	5.5
711.034	7.5
711.787	5.5
712.54	6.5
713.293	5.5
714.046	6.5
714.799	7.5
715.552	8.5
716.305	7.5
717.058	6.5
717.81	7.5
718.563	7.5
719.315	5.5
720.068	6.5
720.82	6.5
721.573	8.5
722.325	8.5
723.077	8.5
723.829	5.5
724.581	8.5
725.333	6.5
726.085	9.5
726.836	8.5
727.588	6.5
728.34	8.5
729.091	7.5
729.843	7.5
730.594	8.5
731.346	4.5
732.097	8.5
732.848	9.5
733.599	8.5
734.35	8.5
735.101	8.5
735.852	8.5
736.603	7.5
737.354	6.5
738.104	9.5
738.855	7.5
739.605	10.5
740.356	5.5
741.106	8.5
741.856	9.5
742.607	5.5
743.357	9.5
744.107	10.5
744.857	10.5
745.607	11.5
746.357	10.5
747.106	11.5
747.856	9.5
748.606	8.5
749.355	8.5
750.105	8.5
750.854	9.5
751.603	11.5
752.353	10.5
753.102	9.5
753.851	9.5
754.6	9.5
755.349	11.5
756.098	10.5
756.847	9.5
757.595	12.5
758.344	10.5
759.093	9.5
759.841	11.5
760.589	10.5
761.338	8.5
762.086	10.5
762.834	10.5
763.582	11.5
764.331	11.5
765.079	9.5
765.826	13.5
766.574	10.5
767.322	13.5
768.07	12.5
768.817	13.5
769.565	12.5
770.312	12.5
771.06	12.5
771.807	14.5
772.554	13.5
773.302	13.5
774.049	12.5
774.796	14.5
775.543	13.5
776.29	13.5
777.036	12.5
777.783	16.5
778.53	15.5
779.276	17.5
780.023	14.5
780.769	14.5
781.516	13.5
782.262	15.5
783.008	10.5
783.754	15.5
784.5	12.5
785.246	13.5
785.992	11.5
786.738	12.5
787.484	14.5
788.23	14.5
788.975	15.5
789.721	12.5
790.466	14.5
791.212	12.5
791.957	12.5
792.702	15.5
793.447	14.5
794.193	12.5
794.938	13.5
795.683	10.5
796.427	13.5
797.172	10.5
797.917	13.5
798.662	12.5
799.406	12.5
800.151	12.5
800.895	9.5
801.64	10.5
802.384	10.5
803.128	8.5
803.872	13.5
804.616	11.5
805.36	11.5
806.104	10.5
806.848	9.5
807.592	9.5
808.336	11.5
809.079	10.5
809.823	8.5
810.566	11.5
811.31	10.5
812.053	8.5
812.796	8.5
813.539	7.5
814.283	7.5
815.026	7.5
815.769	7.5
816.511	9.5
817.254	9.5
817.997	8.5
818.74	6.5
819.482	9.5
820.225	6.5
820.967	6.5
821.71	5.5
822.452	8.5
823.194	7.5
823.936	4.5
824.678	9.5
825.42	6.5
826.162	6.5
826.904	4.5
827.646	3.5
828.388	7.5
829.129	5.5
829.871	8.5
830.612	8.5
831.354	5.5
832.095	6.5
832.836	4.5
833.577	7.5
834.319	5.5
835.06	6.5
835.801	5.5
836.542	4.5
837.282	7.5
838.023	5.5
838.764	6.5
839.504	5.5
840.245	5.5
840.985	6.5
841.726	6.5
842.466	7.5
843.206	5.5
843.946	3.5
844.687	5.5
845.427	4.5
846.166	6.5
846.906	4.5
847.646	5.5
848.386	1.5
849.125	5.5
849.865	3.5
850.605	3.5
851.344	4.5
852.083	2.5
852.823	3.5
853.562	2.5
854.301	3.5
855.04	3.5
855.779	3.5
856.518	4.5
857.257	5.5
857.995	6.5
858.734	2.5
859.473	5.5
860.211	2.5
860.95	1.5
861.688	3.5
862.426	2.5
863.165	3.5
863.903	3.5
864.641	2.5
865.379	2.5
866.117	1.5
866.855	2.5
867.593	0.5
868.33	0.5
869.068	4.5
869.806	1.5
870.543	1.5
871.28	-0.5
872.018	3.5
872.755	0.5
873.492	4.5
874.229	1.5
874.967	0.5
875.703	2.5
876.44	-0.5
877.177	1.5
877.914	0.5
878.651	2.5
879.387	2.5
880.124	-0.5
880.86	1.5
881.597	-2.5
882.333	1.5
883.069	3.5
883.806	0.5
884.542	0.5
885.278	2.5
886.014	0.5
886.749	0.5
887.485	2.5
888.221	1.5
888.957	1.5
889.692	0.5
890.428	0.5
891.163	0.5
891.899	0.5
892.634	-1.5
893.369	2.5
894.104	1.5
894.839	0.5
895.574	1.5
896.309	0.5
897.044	1.5
897.779	1.5
898.514	-0.5
899.248	-0.5
899.983	-0.5
900.717	1.5
901.452	1.5
902.186	-0.5
902.92	0.5
903.654	-1.5
904.389	-1.5
905.123	0.5
905.857	0.5
906.59	1.5
907.324	2.5
908.058	0.5
908.792	0.5
909.525	1.5
910.259	0.5
910.992	0.5
911.726	0.5
912.459	-1.5
913.192	0.5
913.925	0.5
914.658	0.5
915.391	0.5
916.124	0.5
916.857	0.5
917.59	0.5
918.323	-1.5
919.055	2.5
919.788	-0.5
920.521	1.5
921.253	-1.5
921.985	1.5
922.718	1.5
923.45	-1.5
924.182	1.5
924.914	-1.5
925.646	-0.5
926.378	0.5
927.11	-2.5
927.841	1.5
928.573	1.5
929.305	-0.5
930.036	1.5
930.768	-1.5
931.499	0.5
932.23	0.5
932.962	0.5
933.693	-0.5
934.424	0.5
935.155	0.5
935.886	-1.5
936.617	1.5
937.348	0.5
938.078	0.5
938.809	-0.5
939.54	0.5
940.27	-1.5
941.001	0.5
941.731	-0.5
942.461	-0.5
943.191	0.5
943.922	1.5
944.652	0.5
945.382	-1.5
946.112	-0.5
946.841	1.5
947.571	-1.5
948.301	-1.5
949.031	0.5
949.76	0.5
950.49	0.5
951.219	0.5
951.948	-0.5
952.678	-0.5
953.407	0.5
954.136	1.5
954.865	1.5
955.594	-1.5
956.323	0.5
957.052	-0.5
957.78	2.5
958.509	-3.5
959.238	1.5
959.966	-0.5
960.695	1.5
961.423	-2.5
962.151	-0.5
962.88	0.5
963.608	-1.5
964.336	-1.5
965.064	1.5
965.792	0.5
966.52	0.5
967.247	0.5
967.975	-0.5
968.703	1.5
969.43	0.5
970.158	0.5
970.885	-0.5
971.613	2.5
972.34	-1.5
973.067	-2.5
973.794	-0.5
974.521	-0.5
975.248	-0.5
975.975	-0.5
976.702	0.5
977.429	1.5
978.156	-1.5
978.882	-0.5
979.609	-0.5
980.335	1.5
981.062	-1.5
981.788	1.5
982.514	-1.5
983.24	-1.5
983.967	1.5
984.693	-1.5
985.419	0.5
986.144	-0.5
986.87	1.5
987.596	-1.5
988.322	-1.5
989.047	1.5
989.773	-0.5
990.498	1.5
991.224	-0.5
991.949	1.5
992.674	0.5
993.399	-1.5
994.124	-0.5
994.849	-1.5
995.574	0.5
996.299	-1.5
997.024	0.5
997.749	-1.5
998.473	-0.5
999.198	2.5
999.922	-0.5
1000.647	0.5
1001.371	2.5
1002.095	-1.5
1002.82	-0.5
1003.544	0.5
1004.268	4.5
1004.992	7.5
1005.716	0.5
1006.439	1.5
1007.163	4.5
1007.887	3.5
1008.611	0.5
1009.334	-1.5
1010.058	0.5
1010.781	-2.5
1011.504	1.5
1012.228	1.5
1012.951	1.5
1013.674	-1.5
1014.397	-1.5
1015.12	0.5
