节点500_705_QEPB04081__671__20-55-27-828.txt的数据

Date: Wed Nov 12 20:55:27 CST 2025
User: PC
Spectrometer: QEPB0408
触发模式: 0
积分时间 (秒): 1.000000E-2
Scans to average: 1
启用暗噪声校正: true
启用非线性校正: false
滑动平均宽度: 0
X轴模式: Wavelengths
Number of Pixels in Spectrum: 1044
>>>>>Begin Spectral Data<<<<<
220.843	3.38
221.644	5.38
222.444	6.38
223.244	3.38
224.045	8.38
224.845	7.38
225.645	8.38
226.445	5.38
227.245	6.38
228.045	9.38
228.845	8.38
229.645	7.38
230.444	7.38
231.244	8.38
232.043	8.38
232.843	11.38
233.642	9.38
234.442	8.38
235.241	9.38
236.04	8.38
236.839	10.38
237.638	10.38
238.437	8.38
239.236	12.38
240.035	12.38
240.833	11.38
241.632	10.38
242.43	10.38
243.229	12.38
244.027	10.38
244.826	15.38
245.624	13.38
246.422	10.38
247.22	12.38
248.018	13.38
248.816	13.38
249.614	13.38
250.412	15.38
251.21	15.38
252.007	15.38
252.805	15.38
253.602	12.38
254.4	18.38
255.197	17.38
255.994	18.38
256.791	16.38
257.589	18.38
258.386	18.38
259.183	22.38
259.979	20.38
260.776	21.38
261.573	21.38
262.37	21.38
263.166	22.38
263.963	24.38
264.759	20.38
265.556	25.38
266.352	24.38
267.148	26.38
267.944	25.38
268.74	28.38
269.536	26.38
270.332	27.38
271.128	29.38
271.924	31.38
272.719	29.38
273.515	29.38
274.311	30.38
275.106	30.38
275.901	30.38
276.697	32.38
277.492	29.38
278.287	31.38
279.082	32.38
279.877	32.38
280.672	37.38
281.467	33.38
282.262	29.38
283.056	31.38
283.851	33.38
284.646	32.38
285.44	30.38
286.234	34.38
287.029	30.38
287.823	34.38
288.617	31.38
289.411	31.38
290.205	34.38
290.999	29.38
291.793	29.38
292.587	33.38
293.381	28.38
294.174	28.38
294.968	26.38
295.761	25.38
296.555	26.38
297.348	25.38
298.141	28.38
298.935	25.38
299.728	26.38
300.521	25.38
301.314	26.38
302.107	23.38
302.899	22.38
303.692	23.38
304.485	20.38
305.277	24.38
306.07	22.38
306.862	21.38
307.655	20.38
308.447	20.38
309.239	23.38
310.031	22.38
310.823	19.38
311.615	17.38
312.407	17.38
313.199	18.38
313.991	13.38
314.783	17.38
315.574	18.38
316.366	14.38
317.157	16.38
317.949	17.38
318.74	15.38
319.531	14.38
320.322	15.38
321.113	14.38
321.904	14.38
322.695	14.38
323.486	12.38
324.277	11.38
325.068	10.38
325.858	11.38
326.649	16.38
327.439	12.38
328.23	14.38
329.02	11.38
329.81	13.38
330.6	11.38
331.391	13.38
332.181	12.38
332.971	11.38
333.76	13.38
334.55	12.38
335.34	14.38
336.13	14.38
336.919	12.38
337.709	12.38
338.498	10.38
339.287	12.38
340.077	11.38
340.866	10.38
341.655	13.38
342.444	9.38
343.233	11.38
344.022	10.38
344.811	12.38
345.6	10.38
346.388	10.38
347.177	10.38
347.965	8.38
348.754	12.38
349.542	11.38
350.33	10.38
351.119	12.38
351.907	9.38
352.695	12.38
353.483	12.38
354.271	11.38
355.059	10.38
355.846	11.38
356.634	12.38
357.422	9.38
358.209	10.38
358.997	9.38
359.784	11.38
360.571	9.38
361.359	12.38
362.146	9.38
362.933	10.38
363.72	9.38
364.507	11.38
365.294	10.38
366.081	9.38
366.867	6.38
367.654	9.38
368.44	7.38
369.227	9.38
370.013	9.38
370.8	10.38
371.586	7.38
372.372	7.38
373.158	9.38
373.944	7.38
374.73	9.38
375.516	8.38
376.302	10.38
377.088	11.38
377.873	10.38
378.659	12.38
379.445	10.38
380.23	8.38
381.015	11.38
381.801	6.38
382.586	10.38
383.371	8.38
384.156	9.38
384.941	11.38
385.726	10.38
386.511	8.38
387.296	10.38
388.08	10.38
388.865	10.38
389.649	11.38
390.434	11.38
391.218	13.38
392.003	9.38
392.787	12.38
393.571	12.38
394.355	14.38
395.139	13.38
395.923	11.38
396.707	11.38
397.491	13.38
398.274	13.38
399.058	10.38
399.842	13.38
400.625	11.38
401.408	12.38
402.192	13.38
402.975	14.38
403.758	15.38
404.541	12.38
405.324	15.38
406.107	14.38
406.89	14.38
407.673	14.38
408.456	15.38
409.238	15.38
410.021	18.38
410.803	14.38
411.586	15.38
412.368	17.38
413.151	16.38
413.933	15.38
414.715	14.38
415.497	17.38
416.279	18.38
417.061	15.38
417.843	20.38
418.624	15.38
419.406	23.38
420.188	22.38
420.969	17.38
421.751	23.38
422.532	22.38
423.313	19.38
424.095	21.38
424.876	22.38
425.657	21.38
426.438	26.38
427.219	25.38
428	25.38
428.78	29.38
429.561	27.38
430.342	29.38
431.122	31.38
431.903	34.38
432.683	31.38
433.464	33.38
434.244	37.38
435.024	39.38
435.804	44.38
436.584	42.38
437.364	45.38
438.144	47.38
438.924	49.38
439.704	53.38
440.483	56.38
441.263	61.38
442.042	64.38
442.822	73.38
443.601	81.38
444.38	80.38
445.16	89.38
445.939	102.38
446.718	107.38
447.497	118.38
448.276	127.38
449.054	144.38
449.833	163.38
450.612	174.38
451.391	190.38
452.169	206.38
452.948	232.38
453.726	258.38
454.504	287.38
455.282	317.38
456.061	358.38
456.839	396.38
457.617	444.38
458.395	493.38
459.172	542.38
459.95	616.38
460.728	674.38
461.506	753.38
462.283	824.38
463.061	924.38
463.838	1019.38
464.615	1145.38
465.393	1266.38
466.17	1392.38
466.947	1545.38
467.724	1712.38
468.501	1895.38
469.278	2073.38
470.055	2291.38
470.831	2497.38
471.608	2754.38
472.385	3034.38
473.161	3322.38
473.938	3607.38
474.714	3967.38
475.49	4345.38
476.266	4683.38
477.043	5131.38
477.819	5566.38
478.595	6066.38
479.371	6587.38
480.146	7164.38
480.922	7751.38
481.698	8429.38
482.473	9126.38
483.249	9860.38
484.024	10621.38
484.8	11460.38
485.575	12356.38
486.35	13377.38
487.126	14360.38
487.901	15486.38
488.676	16619.38
489.451	17855.38
490.225	19215.38
491	20494.38
491.775	21877.38
492.55	23342.38
493.324	24863.38
494.099	26380.38
494.873	27976.38
495.647	29563.38
496.422	31155.38
497.196	32642.38
497.97	34169.38
498.744	35677.38
499.518	37243.38
500.292	38592.38
501.066	39708.38
501.839	40643.38
502.613	41579.38
503.387	42326.38
504.16	42960.38
504.934	43433.38
505.707	43582.38
506.48	43567.38
507.253	43436.38
508.027	43183.38
508.8	42644.38
509.573	41964.38
510.346	41240.38
511.118	40393.38
511.891	39531.38
512.664	38179.38
513.437	36955.38
514.209	35863.38
514.982	34505.38
515.754	33308.38
516.526	31963.38
517.298	30796.38
518.071	29726.38
518.843	28533.38
519.615	27344.38
520.387	26285.38
521.159	25344.38
521.93	24190.38
522.702	23233.38
523.474	22299.38
524.245	21409.38
525.017	20505.38
525.788	19714.38
526.56	18918.38
527.331	18122.38
528.102	17219.38
528.873	16439.38
529.644	15654.38
530.415	14977.38
531.186	14277.38
531.957	13567.38
532.728	12890.38
533.498	12195.38
534.269	11641.38
535.039	11020.38
535.81	10467.38
536.58	9882.38
537.351	9377.38
538.121	8890.38
538.891	8405.38
539.661	7958.38
540.431	7498.38
541.201	7164.38
541.971	6811.38
542.741	6419.38
543.51	6095.38
544.28	5823.38
545.05	5492.38
545.819	5283.38
546.588	5044.38
547.358	4778.38
548.127	4550.38
548.896	4320.38
549.665	4100.38
550.434	3896.38
551.203	3695.38
551.972	3531.38
552.741	3339.38
553.51	3141.38
554.278	2954.38
555.047	2796.38
555.815	2677.38
556.584	2526.38
557.352	2383.38
558.121	2259.38
558.889	2133.38
559.657	2009.38
560.425	1917.38
561.193	1806.38
561.961	1715.38
562.729	1610.38
563.496	1518.38
564.264	1451.38
565.032	1354.38
565.799	1291.38
566.567	1219.38
567.334	1161.38
568.101	1092.38
568.869	1039.38
569.636	979.38
570.403	924.38
571.17	883.38
571.937	820.38
572.704	783.38
573.471	730.38
574.237	699.38
575.004	653.38
575.771	606.38
576.537	574.38
577.303	549.38
578.07	520.38
578.836	487.38
579.602	471.38
580.368	439.38
581.134	420.38
581.9	397.38
582.666	377.38
583.432	356.38
584.198	338.38
584.964	321.38
585.729	296.38
586.495	298.38
587.26	274.38
588.025	262.38
588.791	243.38
589.556	228.38
590.321	226.38
591.086	214.38
591.851	200.38
592.616	190.38
593.381	190.38
594.146	172.38
594.911	165.38
595.675	158.38
596.44	148.38
597.204	148.38
597.969	143.38
598.733	133.38
599.497	124.38
600.261	119.38
601.025	118.38
601.79	110.38
602.553	107.38
603.317	101.38
604.081	95.38
604.845	94.38
605.609	86.38
606.372	87.38
607.136	85.38
607.899	77.38
608.662	73.38
609.426	71.38
610.189	68.38
610.952	69.38
611.715	63.38
612.478	63.38
613.241	65.38
614.004	60.38
614.767	58.38
615.529	53.38
616.292	52.38
617.055	50.38
617.817	50.38
618.579	46.38
619.342	46.38
620.104	44.38
620.866	42.38
621.628	45.38
622.39	39.38
623.152	43.38
623.914	35.38
624.676	39.38
625.438	33.38
626.199	33.38
626.961	32.38
627.722	32.38
628.484	32.38
629.245	30.38
630.006	30.38
630.768	30.38
631.529	29.38
632.29	27.38
633.051	25.38
633.812	24.38
634.573	23.38
635.333	25.38
636.094	25.38
636.855	24.38
637.615	25.38
638.376	22.38
639.136	22.38
639.896	19.38
640.657	19.38
641.417	21.38
642.177	18.38
642.937	18.38
643.697	16.38
644.457	19.38
645.216	15.38
645.976	15.38
646.736	16.38
647.495	16.38
648.255	18.38
649.014	14.38
649.774	15.38
650.533	15.38
651.292	16.38
652.051	17.38
652.81	11.38
653.569	15.38
654.328	14.38
655.087	13.38
655.846	12.38
656.604	12.38
657.363	14.38
658.121	12.38
658.88	12.38
659.638	11.38
660.397	12.38
661.155	13.38
661.913	11.38
662.671	13.38
663.429	11.38
664.187	11.38
664.945	11.38
665.703	9.38
666.46	8.38
667.218	9.38
667.976	11.38
668.733	10.38
669.49	11.38
670.248	11.38
671.005	9.38
671.762	7.38
672.519	9.38
673.276	11.38
674.033	9.38
674.79	9.38
675.547	9.38
676.304	7.38
677.06	9.38
677.817	10.38
678.574	9.38
679.33	10.38
680.086	9.38
680.843	9.38
681.599	9.38
682.355	9.38
683.111	6.38
683.867	6.38
684.623	9.38
685.379	9.38
686.135	7.38
686.89	6.38
687.646	7.38
688.402	5.38
689.157	8.38
689.912	9.38
690.668	6.38
691.423	9.38
692.178	7.38
692.933	8.38
693.688	10.38
694.443	6.38
695.198	8.38
695.953	5.38
696.708	8.38
697.462	5.38
698.217	9.38
698.972	10.38
699.726	9.38
700.48	8.38
701.235	8.38
701.989	6.38
702.743	9.38
703.497	6.38
704.251	9.38
705.005	5.38
705.759	7.38
706.513	7.38
707.266	7.38
708.02	6.38
708.774	8.38
709.527	8.38
710.28	7.38
711.034	8.38
711.787	8.38
712.54	9.38
713.293	9.38
714.046	7.38
714.799	10.38
715.552	3.38
716.305	10.38
717.058	7.38
717.81	7.38
718.563	9.38
719.315	7.38
720.068	8.38
720.82	9.38
721.573	7.38
722.325	10.38
723.077	10.38
723.829	8.38
724.581	6.38
725.333	8.38
726.085	9.38
726.836	8.38
727.588	7.38
728.34	7.38
729.091	7.38
729.843	9.38
730.594	8.38
731.346	7.38
732.097	9.38
732.848	10.38
733.599	7.38
734.35	8.38
735.101	9.38
735.852	9.38
736.603	9.38
737.354	10.38
738.104	11.38
738.855	10.38
739.605	11.38
740.356	11.38
741.106	10.38
741.856	10.38
742.607	10.38
743.357	9.38
744.107	10.38
744.857	8.38
745.607	8.38
746.357	7.38
747.106	9.38
747.856	11.38
748.606	11.38
749.355	10.38
750.105	11.38
750.854	8.38
751.603	9.38
752.353	11.38
753.102	12.38
753.851	13.38
754.6	10.38
755.349	10.38
756.098	11.38
756.847	11.38
757.595	12.38
758.344	11.38
759.093	10.38
759.841	11.38
760.589	8.38
761.338	12.38
762.086	14.38
762.834	11.38
763.582	13.38
764.331	13.38
765.079	15.38
765.826	12.38
766.574	9.38
767.322	12.38
768.07	13.38
768.817	15.38
769.565	12.38
770.312	13.38
771.06	14.38
771.807	14.38
772.554	13.38
773.302	11.38
774.049	11.38
774.796	13.38
775.543	13.38
776.29	14.38
777.036	14.38
777.783	13.38
778.53	15.38
779.276	13.38
780.023	15.38
780.769	14.38
781.516	13.38
782.262	15.38
783.008	12.38
783.754	13.38
784.5	17.38
785.246	15.38
785.992	17.38
786.738	16.38
787.484	14.38
788.23	13.38
788.975	13.38
789.721	17.38
790.466	11.38
791.212	16.38
791.957	13.38
792.702	14.38
793.447	14.38
794.193	11.38
794.938	14.38
795.683	11.38
796.427	14.38
797.172	11.38
797.917	14.38
798.662	11.38
799.406	9.38
800.151	13.38
800.895	10.38
801.64	12.38
802.384	13.38
803.128	10.38
803.872	11.38
804.616	13.38
805.36	10.38
806.104	13.38
806.848	10.38
807.592	11.38
808.336	11.38
809.079	11.38
809.823	11.38
810.566	9.38
811.31	10.38
812.053	11.38
812.796	8.38
813.539	8.38
814.283	11.38
815.026	8.38
815.769	7.38
816.511	10.38
817.254	6.38
817.997	6.38
818.74	8.38
819.482	8.38
820.225	7.38
820.967	7.38
821.71	7.38
822.452	9.38
823.194	9.38
823.936	6.38
824.678	5.38
825.42	9.38
826.162	4.38
826.904	7.38
827.646	5.38
828.388	7.38
829.129	6.38
829.871	8.38
830.612	6.38
831.354	9.38
832.095	7.38
832.836	6.38
833.577	5.38
834.319	6.38
835.06	6.38
835.801	6.38
836.542	6.38
837.282	5.38
838.023	7.38
838.764	3.38
839.504	7.38
840.245	5.38
840.985	6.38
841.726	6.38
842.466	6.38
843.206	5.38
843.946	3.38
844.687	6.38
845.427	5.38
846.166	5.38
846.906	7.38
847.646	4.38
848.386	6.38
849.125	4.38
849.865	4.38
850.605	6.38
851.344	5.38
852.083	4.38
852.823	6.38
853.562	4.38
854.301	3.38
855.04	1.38
855.779	4.38
856.518	5.38
857.257	1.38
857.995	4.38
858.734	5.38
859.473	2.38
860.211	2.38
860.95	4.38
861.688	2.38
862.426	5.38
863.165	4.38
863.903	6.38
864.641	5.38
865.379	3.38
866.117	3.38
866.855	1.38
867.593	3.38
868.33	5.38
869.068	4.38
869.806	2.38
870.543	2.38
871.28	4.38
872.018	0.38
872.755	2.38
873.492	2.38
874.229	3.38
874.967	2.38
875.703	0.38
876.44	2.38
877.177	3.38
877.914	2.38
878.651	1.38
879.387	3.38
880.124	3.38
880.86	1.38
881.597	2.38
882.333	-0.62
883.069	3.38
883.806	3.38
884.542	1.38
885.278	2.38
886.014	2.38
886.749	3.38
887.485	2.38
888.221	3.38
888.957	5.38
889.692	1.38
890.428	3.38
891.163	1.38
891.899	2.38
892.634	2.38
893.369	1.38
894.104	3.38
894.839	1.38
895.574	1.38
896.309	2.38
897.044	2.38
897.779	0.38
898.514	0.38
899.248	2.38
899.983	1.38
900.717	3.38
901.452	-0.62
902.186	1.38
902.92	2.38
903.654	1.38
904.389	1.38
905.123	1.38
905.857	0.38
906.59	2.38
907.324	1.38
908.058	1.38
908.792	0.38
909.525	3.38
910.259	-0.62
910.992	1.38
911.726	0.38
912.459	2.38
913.192	2.38
913.925	-0.62
914.658	1.38
915.391	0.38
916.124	0.38
916.857	1.38
917.59	1.38
918.323	2.38
919.055	-0.62
919.788	-0.62
920.521	1.38
921.253	-0.62
921.985	-0.62
922.718	1.38
923.45	2.38
924.182	1.38
924.914	-0.62
925.646	0.38
926.378	0.38
927.11	-0.62
927.841	0.38
928.573	1.38
929.305	2.38
930.036	-2.62
930.768	1.38
931.499	-0.62
932.23	0.38
932.962	0.38
933.693	1.38
934.424	1.38
935.155	-0.62
935.886	-0.62
936.617	-0.62
937.348	2.38
938.078	-0.62
938.809	0.38
939.54	0.38
940.27	4.38
941.001	0.38
941.731	-1.62
942.461	3.38
943.191	-0.62
943.922	1.38
944.652	-1.62
945.382	1.38
946.112	-0.62
946.841	1.38
947.571	0.38
948.301	0.38
949.031	2.38
949.76	-0.62
950.49	-0.62
951.219	0.38
951.948	-0.62
952.678	1.38
953.407	3.38
954.136	-0.62
954.865	1.38
955.594	0.38
956.323	3.38
957.052	1.38
957.78	1.38
958.509	1.38
959.238	0.38
959.966	0.38
960.695	-0.62
961.423	3.38
962.151	0.38
962.88	1.38
963.608	0.38
964.336	0.38
965.064	0.38
965.792	1.38
966.52	1.38
967.247	-0.62
967.975	1.38
968.703	0.38
969.43	-0.62
970.158	2.38
970.885	2.38
971.613	0.38
972.34	1.38
973.067	-0.62
973.794	1.38
974.521	1.38
975.248	1.38
975.975	2.38
976.702	2.38
977.429	2.38
978.156	0.38
978.882	1.38
979.609	1.38
980.335	1.38
981.062	0.38
981.788	-2.62
982.514	1.38
983.24	1.38
983.967	2.38
984.693	-0.62
985.419	2.38
986.144	0.38
986.87	-0.62
987.596	0.38
988.322	1.38
989.047	1.38
989.773	1.38
990.498	1.38
991.224	-0.62
991.949	1.38
992.674	2.38
993.399	-0.62
994.124	1.38
994.849	-0.62
995.574	1.38
996.299	-0.62
997.024	-0.62
997.749	1.38
998.473	1.38
999.198	-1.62
999.922	2.38
1000.647	1.38
1001.371	2.38
1002.095	-0.62
1002.82	1.38
1003.544	-2.62
1004.268	3.38
1004.992	6.38
1005.716	3.38
1006.439	4.38
1007.163	6.38
1007.887	9.38
1008.611	1.38
1009.334	0.38
1010.058	2.38
1010.781	-0.62
1011.504	0.38
1012.228	1.38
1012.951	0.38
1013.674	0.38
1014.397	-1.62
1015.12	0.38
