节点500_705_QEPB04081__61__20-46-54-306.txt的数据

Date: Wed Nov 12 20:46:54 CST 2025
User: PC
Spectrometer: QEPB0408
触发模式: 0
积分时间 (秒): 1.000000E-2
Scans to average: 1
启用暗噪声校正: true
启用非线性校正: false
滑动平均宽度: 0
X轴模式: Wavelengths
Number of Pixels in Spectrum: 1044
>>>>>Begin Spectral Data<<<<<
220.843	7.75
221.644	2.75
222.444	5.75
223.244	5.75
224.045	3.75
224.845	4.75
225.645	6.75
226.445	6.75
227.245	7.75
228.045	7.75
228.845	6.75
229.645	9.75
230.444	8.75
231.244	6.75
232.043	10.75
232.843	8.75
233.642	8.75
234.442	11.75
235.241	9.75
236.04	11.75
236.839	13.75
237.638	10.75
238.437	9.75
239.236	11.75
240.035	10.75
240.833	13.75
241.632	13.75
242.43	13.75
243.229	10.75
244.027	10.75
244.826	13.75
245.624	13.75
246.422	12.75
247.22	16.75
248.018	14.75
248.816	15.75
249.614	18.75
250.412	15.75
251.21	17.75
252.007	19.75
252.805	18.75
253.602	18.75
254.4	20.75
255.197	20.75
255.994	18.75
256.791	20.75
257.589	23.75
258.386	25.75
259.183	21.75
259.979	24.75
260.776	20.75
261.573	24.75
262.37	26.75
263.166	24.75
263.963	28.75
264.759	27.75
265.556	30.75
266.352	28.75
267.148	29.75
267.944	32.75
268.74	30.75
269.536	32.75
270.332	30.75
271.128	33.75
271.924	31.75
272.719	32.75
273.515	34.75
274.311	38.75
275.106	33.75
275.901	36.75
276.697	34.75
277.492	38.75
278.287	34.75
279.082	36.75
279.877	36.75
280.672	35.75
281.467	38.75
282.262	35.75
283.056	36.75
283.851	35.75
284.646	32.75
285.44	34.75
286.234	35.75
287.029	38.75
287.823	33.75
288.617	37.75
289.411	35.75
290.205	28.75
290.999	33.75
291.793	29.75
292.587	31.75
293.381	30.75
294.174	32.75
294.968	30.75
295.761	28.75
296.555	29.75
297.348	26.75
298.141	30.75
298.935	28.75
299.728	25.75
300.521	27.75
301.314	27.75
302.107	24.75
302.899	19.75
303.692	23.75
304.485	23.75
305.277	23.75
306.07	20.75
306.862	21.75
307.655	21.75
308.447	19.75
309.239	19.75
310.031	20.75
310.823	18.75
311.615	18.75
312.407	15.75
313.199	17.75
313.991	14.75
314.783	16.75
315.574	15.75
316.366	14.75
317.157	16.75
317.949	16.75
318.74	18.75
319.531	14.75
320.322	13.75
321.113	12.75
321.904	13.75
322.695	11.75
323.486	13.75
324.277	14.75
325.068	12.75
325.858	12.75
326.649	14.75
327.439	13.75
328.23	14.75
329.02	10.75
329.81	11.75
330.6	12.75
331.391	11.75
332.181	11.75
332.971	8.75
333.76	11.75
334.55	12.75
335.34	12.75
336.13	10.75
336.919	12.75
337.709	11.75
338.498	11.75
339.287	10.75
340.077	11.75
340.866	9.75
341.655	11.75
342.444	10.75
343.233	11.75
344.022	10.75
344.811	11.75
345.6	13.75
346.388	11.75
347.177	11.75
347.965	12.75
348.754	10.75
349.542	11.75
350.33	11.75
351.119	10.75
351.907	11.75
352.695	8.75
353.483	12.75
354.271	9.75
355.059	8.75
355.846	7.75
356.634	10.75
357.422	10.75
358.209	10.75
358.997	11.75
359.784	11.75
360.571	9.75
361.359	10.75
362.146	9.75
362.933	10.75
363.72	11.75
364.507	8.75
365.294	7.75
366.081	10.75
366.867	9.75
367.654	11.75
368.44	9.75
369.227	8.75
370.013	10.75
370.8	8.75
371.586	10.75
372.372	10.75
373.158	9.75
373.944	10.75
374.73	7.75
375.516	10.75
376.302	9.75
377.088	12.75
377.873	9.75
378.659	8.75
379.445	8.75
380.23	8.75
381.015	11.75
381.801	9.75
382.586	10.75
383.371	8.75
384.156	9.75
384.941	8.75
385.726	9.75
386.511	10.75
387.296	11.75
388.08	9.75
388.865	10.75
389.649	13.75
390.434	12.75
391.218	10.75
392.003	11.75
392.787	11.75
393.571	11.75
394.355	12.75
395.139	10.75
395.923	14.75
396.707	12.75
397.491	14.75
398.274	12.75
399.058	13.75
399.842	12.75
400.625	13.75
401.408	13.75
402.192	13.75
402.975	12.75
403.758	13.75
404.541	16.75
405.324	16.75
406.107	14.75
406.89	16.75
407.673	14.75
408.456	13.75
409.238	14.75
410.021	16.75
410.803	16.75
411.586	16.75
412.368	18.75
413.151	17.75
413.933	19.75
414.715	20.75
415.497	19.75
416.279	21.75
417.061	14.75
417.843	18.75
418.624	21.75
419.406	19.75
420.188	18.75
420.969	21.75
421.751	21.75
422.532	22.75
423.313	20.75
424.095	23.75
424.876	25.75
425.657	27.75
426.438	27.75
427.219	28.75
428	29.75
428.78	27.75
429.561	29.75
430.342	26.75
431.122	32.75
431.903	31.75
432.683	34.75
433.464	36.75
434.244	36.75
435.024	40.75
435.804	37.75
436.584	40.75
437.364	42.75
438.144	45.75
438.924	49.75
439.704	50.75
440.483	53.75
441.263	61.75
442.042	60.75
442.822	68.75
443.601	68.75
444.38	78.75
445.16	80.75
445.939	90.75
446.718	100.75
447.497	108.75
448.276	109.75
449.054	125.75
449.833	133.75
450.612	152.75
451.391	166.75
452.169	178.75
452.948	200.75
453.726	225.75
454.504	248.75
455.282	278.75
456.061	310.75
456.839	338.75
457.617	384.75
458.395	419.75
459.172	476.75
459.95	521.75
460.728	594.75
461.506	672.75
462.283	745.75
463.061	826.75
463.838	940.75
464.615	1034.75
465.393	1172.75
466.17	1300.75
466.947	1463.75
467.724	1618.75
468.501	1796.75
469.278	2000.75
470.055	2218.75
470.831	2456.75
471.608	2730.75
472.385	3029.75
473.161	3355.75
473.938	3694.75
474.714	4079.75
475.49	4514.75
476.266	4938.75
477.043	5448.75
477.819	5996.75
478.595	6577.75
479.371	7243.75
480.146	7949.75
480.922	8707.75
481.698	9514.75
482.473	10436.75
483.249	11401.75
484.024	12424.75
484.8	13562.75
485.575	14704.75
486.35	16078.75
487.126	17473.75
487.901	18910.75
488.676	20476.75
489.451	22181.75
490.225	23876.75
491	25706.75
491.775	27517.75
492.55	29479.75
493.324	31387.75
494.099	33377.75
494.873	35352.75
495.647	37327.75
496.422	39239.75
497.196	41078.75
497.97	42854.75
498.744	44360.75
499.518	45991.75
500.292	47285.75
501.066	48269.75
501.839	49004.75
502.613	49539.75
503.387	49991.75
504.16	50209.75
504.934	50072.75
505.707	49605.75
506.48	48991.75
507.253	48160.75
508.027	47033.75
508.8	45838.75
509.573	44508.75
510.346	43102.75
511.118	41876.75
511.891	40345.75
512.664	38821.75
513.437	37128.75
514.209	35587.75
514.982	34153.75
515.754	32728.75
516.526	31292.75
517.298	29992.75
518.071	28810.75
518.843	27645.75
519.615	26544.75
520.387	25471.75
521.159	24447.75
521.93	23386.75
522.702	22386.75
523.474	21447.75
524.245	20506.75
525.017	19574.75
525.788	18710.75
526.56	17896.75
527.331	17039.75
528.102	16175.75
528.873	15319.75
529.644	14540.75
530.415	13838.75
531.186	13155.75
531.957	12433.75
532.728	11740.75
533.498	11147.75
534.269	10501.75
535.039	9936.75
535.81	9350.75
536.58	8894.75
537.351	8459.75
538.121	7989.75
538.891	7541.75
539.661	7125.75
540.431	6752.75
541.201	6416.75
541.971	6056.75
542.741	5732.75
543.51	5476.75
544.28	5188.75
545.05	4955.75
545.819	4696.75
546.588	4470.75
547.358	4279.75
548.127	4045.75
548.896	3816.75
549.665	3614.75
550.434	3440.75
551.203	3248.75
551.972	3094.75
552.741	2940.75
553.51	2743.75
554.278	2573.75
555.047	2445.75
555.815	2318.75
556.584	2186.75
557.352	2070.75
558.121	1951.75
558.889	1827.75
559.657	1740.75
560.425	1648.75
561.193	1559.75
561.961	1474.75
562.729	1397.75
563.496	1305.75
564.264	1243.75
565.032	1174.75
565.799	1109.75
566.567	1054.75
567.334	995.75
568.101	932.75
568.869	897.75
569.636	839.75
570.403	790.75
571.17	753.75
571.937	710.75
572.704	677.75
573.471	631.75
574.237	596.75
575.004	559.75
575.771	527.75
576.537	489.75
577.303	470.75
578.07	446.75
578.836	415.75
579.602	392.75
580.368	381.75
581.134	364.75
581.9	342.75
582.666	315.75
583.432	307.75
584.198	293.75
584.964	282.75
585.729	265.75
586.495	253.75
587.26	236.75
588.025	222.75
588.791	215.75
589.556	201.75
590.321	196.75
591.086	179.75
591.851	176.75
592.616	169.75
593.381	165.75
594.146	150.75
594.911	145.75
595.675	140.75
596.44	133.75
597.204	128.75
597.969	116.75
598.733	113.75
599.497	110.75
600.261	105.75
601.025	102.75
601.79	100.75
602.553	94.75
603.317	88.75
604.081	85.75
604.845	82.75
605.609	77.75
606.372	74.75
607.136	72.75
607.899	70.75
608.662	69.75
609.426	62.75
610.189	60.75
610.952	56.75
611.715	54.75
612.478	55.75
613.241	54.75
614.004	58.75
614.767	48.75
615.529	47.75
616.292	48.75
617.055	44.75
617.817	44.75
618.579	41.75
619.342	41.75
620.104	38.75
620.866	35.75
621.628	39.75
622.39	32.75
623.152	34.75
623.914	34.75
624.676	30.75
625.438	28.75
626.199	30.75
626.961	30.75
627.722	28.75
628.484	28.75
629.245	28.75
630.006	26.75
630.768	22.75
631.529	24.75
632.29	23.75
633.051	27.75
633.812	25.75
634.573	22.75
635.333	21.75
636.094	21.75
636.855	20.75
637.615	19.75
638.376	21.75
639.136	19.75
639.896	21.75
640.657	18.75
641.417	18.75
642.177	16.75
642.937	16.75
643.697	18.75
644.457	15.75
645.216	16.75
645.976	15.75
646.736	13.75
647.495	13.75
648.255	13.75
649.014	14.75
649.774	12.75
650.533	14.75
651.292	14.75
652.051	13.75
652.81	11.75
653.569	11.75
654.328	12.75
655.087	12.75
655.846	11.75
656.604	12.75
657.363	12.75
658.121	14.75
658.88	12.75
659.638	9.75
660.397	11.75
661.155	10.75
661.913	9.75
662.671	9.75
663.429	9.75
664.187	10.75
664.945	9.75
665.703	10.75
666.46	9.75
667.218	14.75
667.976	8.75
668.733	10.75
669.49	11.75
670.248	8.75
671.005	8.75
671.762	8.75
672.519	10.75
673.276	8.75
674.033	7.75
674.79	7.75
675.547	6.75
676.304	8.75
677.06	8.75
677.817	10.75
678.574	9.75
679.33	7.75
680.086	9.75
680.843	7.75
681.599	8.75
682.355	8.75
683.111	7.75
683.867	9.75
684.623	7.75
685.379	6.75
686.135	6.75
686.89	6.75
687.646	8.75
688.402	7.75
689.157	3.75
689.912	4.75
690.668	7.75
691.423	6.75
692.178	8.75
692.933	4.75
693.688	5.75
694.443	7.75
695.198	5.75
695.953	10.75
696.708	5.75
697.462	8.75
698.217	8.75
698.972	7.75
699.726	6.75
700.48	7.75
701.235	6.75
701.989	7.75
702.743	7.75
703.497	9.75
704.251	8.75
705.005	7.75
705.759	5.75
706.513	7.75
707.266	7.75
708.02	7.75
708.774	8.75
709.527	7.75
710.28	6.75
711.034	8.75
711.787	7.75
712.54	6.75
713.293	8.75
714.046	7.75
714.799	7.75
715.552	8.75
716.305	6.75
717.058	8.75
717.81	7.75
718.563	7.75
719.315	7.75
720.068	8.75
720.82	9.75
721.573	5.75
722.325	8.75
723.077	10.75
723.829	8.75
724.581	8.75
725.333	7.75
726.085	8.75
726.836	8.75
727.588	4.75
728.34	8.75
729.091	8.75
729.843	7.75
730.594	6.75
731.346	5.75
732.097	8.75
732.848	9.75
733.599	10.75
734.35	9.75
735.101	9.75
735.852	9.75
736.603	7.75
737.354	10.75
738.104	9.75
738.855	8.75
739.605	8.75
740.356	9.75
741.106	10.75
741.856	11.75
742.607	12.75
743.357	9.75
744.107	12.75
744.857	10.75
745.607	9.75
746.357	11.75
747.106	11.75
747.856	9.75
748.606	11.75
749.355	12.75
750.105	5.75
750.854	7.75
751.603	9.75
752.353	11.75
753.102	12.75
753.851	11.75
754.6	10.75
755.349	11.75
756.098	9.75
756.847	11.75
757.595	14.75
758.344	10.75
759.093	11.75
759.841	14.75
760.589	10.75
761.338	14.75
762.086	13.75
762.834	10.75
763.582	13.75
764.331	11.75
765.079	14.75
765.826	17.75
766.574	14.75
767.322	17.75
768.07	14.75
768.817	14.75
769.565	15.75
770.312	16.75
771.06	14.75
771.807	16.75
772.554	17.75
773.302	15.75
774.049	16.75
774.796	14.75
775.543	14.75
776.29	16.75
777.036	14.75
777.783	16.75
778.53	17.75
779.276	16.75
780.023	17.75
780.769	14.75
781.516	14.75
782.262	12.75
783.008	16.75
783.754	14.75
784.5	16.75
785.246	16.75
785.992	16.75
786.738	16.75
787.484	17.75
788.23	15.75
788.975	14.75
789.721	13.75
790.466	16.75
791.212	15.75
791.957	14.75
792.702	13.75
793.447	12.75
794.193	13.75
794.938	15.75
795.683	14.75
796.427	15.75
797.172	15.75
797.917	11.75
798.662	14.75
799.406	11.75
800.151	10.75
800.895	12.75
801.64	12.75
802.384	9.75
803.128	11.75
803.872	12.75
804.616	10.75
805.36	12.75
806.104	11.75
806.848	9.75
807.592	10.75
808.336	9.75
809.079	9.75
809.823	10.75
810.566	8.75
811.31	6.75
812.053	9.75
812.796	9.75
813.539	8.75
814.283	6.75
815.026	7.75
815.769	7.75
816.511	8.75
817.254	7.75
817.997	5.75
818.74	7.75
819.482	6.75
820.225	6.75
820.967	6.75
821.71	5.75
822.452	8.75
823.194	4.75
823.936	7.75
824.678	6.75
825.42	8.75
826.162	8.75
826.904	6.75
827.646	6.75
828.388	6.75
829.129	3.75
829.871	7.75
830.612	3.75
831.354	5.75
832.095	6.75
832.836	3.75
833.577	5.75
834.319	5.75
835.06	7.75
835.801	4.75
836.542	4.75
837.282	2.75
838.023	6.75
838.764	4.75
839.504	6.75
840.245	5.75
840.985	4.75
841.726	3.75
842.466	7.75
843.206	4.75
843.946	6.75
844.687	6.75
845.427	3.75
846.166	3.75
846.906	2.75
847.646	4.75
848.386	4.75
849.125	5.75
849.865	4.75
850.605	4.75
851.344	4.75
852.083	6.75
852.823	5.75
853.562	4.75
854.301	1.75
855.04	4.75
855.779	2.75
856.518	4.75
857.257	2.75
857.995	4.75
858.734	4.75
859.473	2.75
860.211	3.75
860.95	2.75
861.688	3.75
862.426	0.75
863.165	0.75
863.903	0.75
864.641	3.75
865.379	2.75
866.117	1.75
866.855	2.75
867.593	3.75
868.33	3.75
869.068	2.75
869.806	1.75
870.543	1.75
871.28	2.75
872.018	2.75
872.755	0.75
873.492	2.75
874.229	-1.25
874.967	0.75
875.703	1.75
876.44	1.75
877.177	0.75
877.914	-0.25
878.651	1.75
879.387	-1.25
880.124	0.75
880.86	0.75
881.597	-0.25
882.333	0.75
883.069	1.75
883.806	2.75
884.542	1.75
885.278	2.75
886.014	-1.25
886.749	-0.25
887.485	1.75
888.221	-0.25
888.957	2.75
889.692	1.75
890.428	-1.25
891.163	3.75
891.899	-0.25
892.634	-1.25
893.369	1.75
894.104	0.75
894.839	1.75
895.574	0.75
896.309	1.75
897.044	2.75
897.779	1.75
898.514	0.75
899.248	2.75
899.983	-0.25
900.717	-2.25
901.452	0.75
902.186	1.75
902.92	0.75
903.654	0.75
904.389	-1.25
905.123	2.75
905.857	-1.25
906.59	0.75
907.324	0.75
908.058	0.75
908.792	-1.25
909.525	-0.25
910.259	1.75
910.992	-0.25
911.726	-1.25
912.459	0.75
913.192	1.75
913.925	1.75
914.658	-0.25
915.391	-2.25
916.124	-0.25
916.857	0.75
917.59	-1.25
918.323	-1.25
919.055	0.75
919.788	-0.25
920.521	-0.25
921.253	-0.25
921.985	-0.25
922.718	-0.25
923.45	-1.25
924.182	-0.25
924.914	-0.25
925.646	-0.25
926.378	1.75
927.11	-0.25
927.841	-1.25
928.573	0.75
929.305	-0.25
930.036	-0.25
930.768	0.75
931.499	-0.25
932.23	-0.25
932.962	-0.25
933.693	-0.25
934.424	0.75
935.155	1.75
935.886	0.75
936.617	0.75
937.348	-1.25
938.078	-0.25
938.809	-0.25
939.54	-1.25
940.27	-0.25
941.001	-1.25
941.731	-2.25
942.461	-0.25
943.191	1.75
943.922	0.75
944.652	-1.25
945.382	-2.25
946.112	-1.25
946.841	0.75
947.571	-1.25
948.301	0.75
949.031	-0.25
949.76	1.75
950.49	-0.25
951.219	-2.25
951.948	0.75
952.678	0.75
953.407	-0.25
954.136	1.75
954.865	-0.25
955.594	-1.25
956.323	-1.25
957.052	0.75
957.78	-2.25
958.509	0.75
959.238	-0.25
959.966	-1.25
960.695	1.75
961.423	-1.25
962.151	-0.25
962.88	1.75
963.608	-0.25
964.336	-0.25
965.064	-1.25
965.792	-0.25
966.52	1.75
967.247	-1.25
967.975	-1.25
968.703	-1.25
969.43	-1.25
970.158	0.75
970.885	0.75
971.613	-0.25
972.34	-1.25
973.067	-1.25
973.794	0.75
974.521	0.75
975.248	-1.25
975.975	0.75
976.702	-0.25
977.429	0.75
978.156	-0.25
978.882	0.75
979.609	-0.25
980.335	-2.25
981.062	0.75
981.788	-0.25
982.514	-1.25
983.24	-1.25
983.967	0.75
984.693	-1.25
985.419	-1.25
986.144	-0.25
986.87	-1.25
987.596	-1.25
988.322	-0.25
989.047	-2.25
989.773	0.75
990.498	-1.25
991.224	-1.25
991.949	0.75
992.674	-1.25
993.399	1.75
994.124	-1.25
994.849	-1.25
995.574	-1.25
996.299	-2.25
997.024	-0.25
997.749	-0.25
998.473	-0.25
999.198	0.75
999.922	-0.25
1000.647	-0.25
1001.371	4.75
1002.095	0.75
1002.82	-2.25
1003.544	-1.25
1004.268	1.75
1004.992	5.75
1005.716	4.75
1006.439	2.75
1007.163	4.75
1007.887	4.75
1008.611	0.75
1009.334	-0.25
1010.058	0.75
1010.781	0.75
1011.504	0.75
1012.228	0.75
1012.951	-1.25
1013.674	-1.25
1014.397	0.75
1015.12	-0.25
