节点500_705_QEPB04081__232__20-49-12-473.txt的数据

Date: Wed Nov 12 20:49:12 CST 2025
User: PC
Spectrometer: QEPB0408
触发模式: 0
积分时间 (秒): 1.000000E-2
Scans to average: 1
启用暗噪声校正: true
启用非线性校正: false
滑动平均宽度: 0
X轴模式: Wavelengths
Number of Pixels in Spectrum: 1044
>>>>>Begin Spectral Data<<<<<
220.843	4.12
221.644	5.12
222.444	7.12
223.244	5.12
224.045	7.12
224.845	6.12
225.645	6.12
226.445	7.12
227.245	7.12
228.045	5.12
228.845	7.12
229.645	8.12
230.444	8.12
231.244	8.12
232.043	9.12
232.843	9.12
233.642	10.12
234.442	8.12
235.241	7.12
236.04	9.12
236.839	10.12
237.638	10.12
238.437	12.12
239.236	11.12
240.035	14.12
240.833	11.12
241.632	14.12
242.43	13.12
243.229	14.12
244.027	15.12
244.826	15.12
245.624	14.12
246.422	13.12
247.22	15.12
248.018	16.12
248.816	15.12
249.614	16.12
250.412	17.12
251.21	18.12
252.007	19.12
252.805	18.12
253.602	17.12
254.4	20.12
255.197	22.12
255.994	16.12
256.791	21.12
257.589	22.12
258.386	21.12
259.183	24.12
259.979	24.12
260.776	25.12
261.573	22.12
262.37	23.12
263.166	27.12
263.963	31.12
264.759	29.12
265.556	29.12
266.352	29.12
267.148	31.12
267.944	29.12
268.74	29.12
269.536	28.12
270.332	32.12
271.128	33.12
271.924	32.12
272.719	32.12
273.515	32.12
274.311	35.12
275.106	33.12
275.901	36.12
276.697	37.12
277.492	36.12
278.287	38.12
279.082	35.12
279.877	36.12
280.672	34.12
281.467	36.12
282.262	38.12
283.056	38.12
283.851	37.12
284.646	32.12
285.44	36.12
286.234	35.12
287.029	34.12
287.823	31.12
288.617	33.12
289.411	36.12
290.205	34.12
290.999	34.12
291.793	32.12
292.587	33.12
293.381	32.12
294.174	29.12
294.968	30.12
295.761	25.12
296.555	28.12
297.348	27.12
298.141	26.12
298.935	31.12
299.728	29.12
300.521	26.12
301.314	24.12
302.107	27.12
302.899	23.12
303.692	26.12
304.485	21.12
305.277	21.12
306.07	22.12
306.862	23.12
307.655	22.12
308.447	21.12
309.239	21.12
310.031	20.12
310.823	20.12
311.615	20.12
312.407	18.12
313.199	18.12
313.991	16.12
314.783	19.12
315.574	15.12
316.366	18.12
317.157	15.12
317.949	16.12
318.74	16.12
319.531	15.12
320.322	13.12
321.113	15.12
321.904	14.12
322.695	15.12
323.486	16.12
324.277	16.12
325.068	15.12
325.858	14.12
326.649	14.12
327.439	13.12
328.23	11.12
329.02	13.12
329.81	13.12
330.6	11.12
331.391	11.12
332.181	13.12
332.971	13.12
333.76	11.12
334.55	13.12
335.34	12.12
336.13	12.12
336.919	13.12
337.709	14.12
338.498	12.12
339.287	12.12
340.077	11.12
340.866	14.12
341.655	12.12
342.444	12.12
343.233	10.12
344.022	11.12
344.811	11.12
345.6	11.12
346.388	11.12
347.177	11.12
347.965	13.12
348.754	11.12
349.542	11.12
350.33	13.12
351.119	10.12
351.907	12.12
352.695	8.12
353.483	11.12
354.271	10.12
355.059	9.12
355.846	12.12
356.634	11.12
357.422	11.12
358.209	11.12
358.997	11.12
359.784	10.12
360.571	11.12
361.359	9.12
362.146	11.12
362.933	10.12
363.72	9.12
364.507	10.12
365.294	12.12
366.081	8.12
366.867	14.12
367.654	11.12
368.44	9.12
369.227	9.12
370.013	7.12
370.8	10.12
371.586	13.12
372.372	12.12
373.158	11.12
373.944	10.12
374.73	10.12
375.516	7.12
376.302	10.12
377.088	9.12
377.873	10.12
378.659	10.12
379.445	10.12
380.23	9.12
381.015	12.12
381.801	11.12
382.586	11.12
383.371	11.12
384.156	9.12
384.941	14.12
385.726	13.12
386.511	12.12
387.296	11.12
388.08	10.12
388.865	13.12
389.649	13.12
390.434	12.12
391.218	13.12
392.003	14.12
392.787	14.12
393.571	13.12
394.355	12.12
395.139	11.12
395.923	13.12
396.707	14.12
397.491	15.12
398.274	13.12
399.058	13.12
399.842	14.12
400.625	15.12
401.408	11.12
402.192	14.12
402.975	15.12
403.758	13.12
404.541	15.12
405.324	17.12
406.107	15.12
406.89	16.12
407.673	17.12
408.456	17.12
409.238	16.12
410.021	17.12
410.803	18.12
411.586	19.12
412.368	17.12
413.151	18.12
413.933	18.12
414.715	17.12
415.497	21.12
416.279	20.12
417.061	19.12
417.843	17.12
418.624	21.12
419.406	20.12
420.188	23.12
420.969	23.12
421.751	22.12
422.532	25.12
423.313	23.12
424.095	23.12
424.876	22.12
425.657	23.12
426.438	24.12
427.219	27.12
428	29.12
428.78	28.12
429.561	25.12
430.342	33.12
431.122	30.12
431.903	32.12
432.683	34.12
433.464	37.12
434.244	40.12
435.024	38.12
435.804	40.12
436.584	40.12
437.364	47.12
438.144	48.12
438.924	51.12
439.704	55.12
440.483	53.12
441.263	62.12
442.042	66.12
442.822	64.12
443.601	76.12
444.38	78.12
445.16	86.12
445.939	90.12
446.718	97.12
447.497	111.12
448.276	120.12
449.054	134.12
449.833	142.12
450.612	155.12
451.391	179.12
452.169	190.12
452.948	213.12
453.726	234.12
454.504	253.12
455.282	284.12
456.061	320.12
456.839	360.12
457.617	397.12
458.395	450.12
459.172	488.12
459.95	553.12
460.728	613.12
461.506	687.12
462.283	763.12
463.061	868.12
463.838	969.12
464.615	1073.12
465.393	1193.12
466.17	1322.12
466.947	1473.12
467.724	1651.12
468.501	1827.12
469.278	2032.12
470.055	2230.12
470.831	2474.12
471.608	2739.12
472.385	3012.12
473.161	3377.12
473.938	3695.12
474.714	4039.12
475.49	4486.12
476.266	4929.12
477.043	5362.12
477.819	5870.12
478.595	6493.12
479.371	7069.12
480.146	7720.12
480.922	8441.12
481.698	9231.12
482.473	10102.12
483.249	10981.12
484.024	11888.12
484.8	12981.12
485.575	14066.12
486.35	15291.12
487.126	16601.12
487.901	17984.12
488.676	19454.12
489.451	20970.12
490.225	22579.12
491	24237.12
491.775	25952.12
492.55	27813.12
493.324	29612.12
494.099	31448.12
494.873	33326.12
495.647	35210.12
496.422	37039.12
497.196	38918.12
497.97	40530.12
498.744	42088.12
499.518	43617.12
500.292	45005.12
501.066	46028.12
501.839	46854.12
502.613	47575.12
503.387	47989.12
504.16	48295.12
504.934	48393.12
505.707	48095.12
506.48	47665.12
507.253	47061.12
508.027	46173.12
508.8	45184.12
509.573	44022.12
510.346	42840.12
511.118	41641.12
511.891	40328.12
512.664	38716.12
513.437	37101.12
514.209	35721.12
514.982	34385.12
515.754	32849.12
516.526	31570.12
517.298	30281.12
518.071	29071.12
518.843	27925.12
519.615	26741.12
520.387	25754.12
521.159	24687.12
521.93	23607.12
522.702	22652.12
523.474	21702.12
524.245	20753.12
525.017	19787.12
525.788	18943.12
526.56	18134.12
527.331	17269.12
528.102	16378.12
528.873	15569.12
529.644	14787.12
530.415	14118.12
531.186	13408.12
531.957	12697.12
532.728	12055.12
533.498	11431.12
534.269	10774.12
535.039	10203.12
535.81	9694.12
536.58	9162.12
537.351	8644.12
538.121	8196.12
538.891	7771.12
539.661	7363.12
540.431	6958.12
541.201	6607.12
541.971	6258.12
542.741	5891.12
543.51	5617.12
544.28	5362.12
545.05	5084.12
545.819	4851.12
546.588	4636.12
547.358	4399.12
548.127	4182.12
548.896	3946.12
549.665	3749.12
550.434	3534.12
551.203	3353.12
551.972	3191.12
552.741	3018.12
553.51	2863.12
554.278	2694.12
555.047	2522.12
555.815	2401.12
556.584	2277.12
557.352	2136.12
558.121	2019.12
558.889	1906.12
559.657	1795.12
560.425	1704.12
561.193	1626.12
561.961	1514.12
562.729	1450.12
563.496	1362.12
564.264	1299.12
565.032	1224.12
565.799	1147.12
566.567	1101.12
567.334	1046.12
568.101	994.12
568.869	922.12
569.636	879.12
570.403	811.12
571.17	790.12
571.937	733.12
572.704	703.12
573.471	666.12
574.237	617.12
575.004	570.12
575.771	546.12
576.537	515.12
577.303	501.12
578.07	472.12
578.836	430.12
579.602	415.12
580.368	390.12
581.134	379.12
581.9	356.12
582.666	337.12
583.432	326.12
584.198	308.12
584.964	291.12
585.729	278.12
586.495	262.12
587.26	245.12
588.025	234.12
588.791	216.12
589.556	209.12
590.321	197.12
591.086	190.12
591.851	181.12
592.616	166.12
593.381	165.12
594.146	152.12
594.911	150.12
595.675	142.12
596.44	133.12
597.204	128.12
597.969	125.12
598.733	117.12
599.497	115.12
600.261	110.12
601.025	106.12
601.79	106.12
602.553	97.12
603.317	94.12
604.081	87.12
604.845	86.12
605.609	81.12
606.372	83.12
607.136	76.12
607.899	72.12
608.662	73.12
609.426	68.12
610.189	67.12
610.952	60.12
611.715	62.12
612.478	61.12
613.241	55.12
614.004	55.12
614.767	51.12
615.529	52.12
616.292	49.12
617.055	49.12
617.817	49.12
618.579	44.12
619.342	45.12
620.104	38.12
620.866	42.12
621.628	41.12
622.39	38.12
623.152	36.12
623.914	32.12
624.676	31.12
625.438	30.12
626.199	33.12
626.961	34.12
627.722	29.12
628.484	28.12
629.245	30.12
630.006	28.12
630.768	27.12
631.529	28.12
632.29	25.12
633.051	23.12
633.812	23.12
634.573	23.12
635.333	24.12
636.094	24.12
636.855	23.12
637.615	22.12
638.376	20.12
639.136	18.12
639.896	19.12
640.657	19.12
641.417	19.12
642.177	18.12
642.937	17.12
643.697	17.12
644.457	17.12
645.216	19.12
645.976	15.12
646.736	16.12
647.495	17.12
648.255	13.12
649.014	12.12
649.774	16.12
650.533	14.12
651.292	13.12
652.051	15.12
652.81	12.12
653.569	14.12
654.328	14.12
655.087	10.12
655.846	15.12
656.604	14.12
657.363	15.12
658.121	11.12
658.88	10.12
659.638	14.12
660.397	11.12
661.155	14.12
661.913	11.12
662.671	10.12
663.429	12.12
664.187	9.12
664.945	11.12
665.703	11.12
666.46	8.12
667.218	10.12
667.976	11.12
668.733	11.12
669.49	13.12
670.248	11.12
671.005	12.12
671.762	8.12
672.519	10.12
673.276	10.12
674.033	11.12
674.79	10.12
675.547	10.12
676.304	9.12
677.06	11.12
677.817	8.12
678.574	8.12
679.33	8.12
680.086	8.12
680.843	8.12
681.599	10.12
682.355	7.12
683.111	9.12
683.867	9.12
684.623	9.12
685.379	8.12
686.135	7.12
686.89	7.12
687.646	8.12
688.402	7.12
689.157	9.12
689.912	6.12
690.668	7.12
691.423	7.12
692.178	11.12
692.933	7.12
693.688	10.12
694.443	10.12
695.198	7.12
695.953	8.12
696.708	7.12
697.462	9.12
698.217	10.12
698.972	9.12
699.726	9.12
700.48	5.12
701.235	8.12
701.989	7.12
702.743	8.12
703.497	6.12
704.251	7.12
705.005	6.12
705.759	8.12
706.513	8.12
707.266	8.12
708.02	6.12
708.774	7.12
709.527	8.12
710.28	7.12
711.034	7.12
711.787	8.12
712.54	8.12
713.293	8.12
714.046	10.12
714.799	7.12
715.552	8.12
716.305	9.12
717.058	9.12
717.81	8.12
718.563	6.12
719.315	10.12
720.068	8.12
720.82	11.12
721.573	8.12
722.325	7.12
723.077	8.12
723.829	8.12
724.581	7.12
725.333	7.12
726.085	10.12
726.836	9.12
727.588	8.12
728.34	10.12
729.091	7.12
729.843	12.12
730.594	8.12
731.346	10.12
732.097	10.12
732.848	9.12
733.599	10.12
734.35	11.12
735.101	10.12
735.852	8.12
736.603	9.12
737.354	11.12
738.104	10.12
738.855	11.12
739.605	7.12
740.356	12.12
741.106	12.12
741.856	11.12
742.607	11.12
743.357	10.12
744.107	11.12
744.857	11.12
745.607	13.12
746.357	10.12
747.106	12.12
747.856	11.12
748.606	13.12
749.355	12.12
750.105	9.12
750.854	11.12
751.603	11.12
752.353	12.12
753.102	13.12
753.851	12.12
754.6	13.12
755.349	11.12
756.098	11.12
756.847	12.12
757.595	13.12
758.344	14.12
759.093	12.12
759.841	13.12
760.589	13.12
761.338	11.12
762.086	14.12
762.834	14.12
763.582	14.12
764.331	15.12
765.079	12.12
765.826	12.12
766.574	12.12
767.322	16.12
768.07	13.12
768.817	14.12
769.565	15.12
770.312	14.12
771.06	14.12
771.807	14.12
772.554	17.12
773.302	15.12
774.049	14.12
774.796	17.12
775.543	16.12
776.29	17.12
777.036	15.12
777.783	15.12
778.53	17.12
779.276	16.12
780.023	15.12
780.769	14.12
781.516	17.12
782.262	18.12
783.008	14.12
783.754	16.12
784.5	15.12
785.246	17.12
785.992	17.12
786.738	19.12
787.484	15.12
788.23	16.12
788.975	14.12
789.721	17.12
790.466	18.12
791.212	15.12
791.957	17.12
792.702	16.12
793.447	13.12
794.193	16.12
794.938	13.12
795.683	14.12
796.427	18.12
797.172	11.12
797.917	12.12
798.662	11.12
799.406	11.12
800.151	13.12
800.895	13.12
801.64	11.12
802.384	14.12
803.128	14.12
803.872	12.12
804.616	15.12
805.36	11.12
806.104	11.12
806.848	10.12
807.592	12.12
808.336	13.12
809.079	12.12
809.823	9.12
810.566	9.12
811.31	9.12
812.053	9.12
812.796	9.12
813.539	10.12
814.283	7.12
815.026	8.12
815.769	9.12
816.511	6.12
817.254	8.12
817.997	9.12
818.74	10.12
819.482	9.12
820.225	8.12
820.967	9.12
821.71	7.12
822.452	8.12
823.194	8.12
823.936	10.12
824.678	8.12
825.42	9.12
826.162	5.12
826.904	6.12
827.646	7.12
828.388	8.12
829.129	9.12
829.871	9.12
830.612	8.12
831.354	4.12
832.095	5.12
832.836	9.12
833.577	5.12
834.319	9.12
835.06	6.12
835.801	5.12
836.542	8.12
837.282	8.12
838.023	6.12
838.764	7.12
839.504	5.12
840.245	6.12
840.985	7.12
841.726	7.12
842.466	6.12
843.206	5.12
843.946	5.12
844.687	6.12
845.427	8.12
846.166	5.12
846.906	7.12
847.646	4.12
848.386	6.12
849.125	6.12
849.865	6.12
850.605	4.12
851.344	4.12
852.083	6.12
852.823	3.12
853.562	3.12
854.301	5.12
855.04	4.12
855.779	5.12
856.518	5.12
857.257	1.12
857.995	4.12
858.734	3.12
859.473	5.12
860.211	6.12
860.95	6.12
861.688	3.12
862.426	3.12
863.165	4.12
863.903	3.12
864.641	4.12
865.379	5.12
866.117	3.12
866.855	4.12
867.593	4.12
868.33	5.12
869.068	4.12
869.806	4.12
870.543	3.12
871.28	3.12
872.018	3.12
872.755	0.12
873.492	2.12
874.229	4.12
874.967	2.12
875.703	4.12
876.44	2.12
877.177	3.12
877.914	0.12
878.651	2.12
879.387	0.12
880.124	1.12
880.86	1.12
881.597	3.12
882.333	2.12
883.069	1.12
883.806	4.12
884.542	3.12
885.278	2.12
886.014	3.12
886.749	2.12
887.485	4.12
888.221	2.12
888.957	1.12
889.692	1.12
890.428	2.12
891.163	3.12
891.899	1.12
892.634	1.12
893.369	1.12
894.104	-1.88
894.839	2.12
895.574	3.12
896.309	1.12
897.044	2.12
897.779	-0.88
898.514	2.12
899.248	-0.88
899.983	3.12
900.717	3.12
901.452	1.12
902.186	2.12
902.92	0.12
903.654	0.12
904.389	1.12
905.123	1.12
905.857	0.12
906.59	1.12
907.324	2.12
908.058	1.12
908.792	2.12
909.525	1.12
910.259	1.12
910.992	1.12
911.726	1.12
912.459	0.12
913.192	1.12
913.925	0.12
914.658	1.12
915.391	-0.88
916.124	2.12
916.857	2.12
917.59	2.12
918.323	0.12
919.055	0.12
919.788	3.12
920.521	2.12
921.253	2.12
921.985	-0.88
922.718	-0.88
923.45	3.12
924.182	0.12
924.914	-0.88
925.646	1.12
926.378	0.12
927.11	0.12
927.841	1.12
928.573	3.12
929.305	0.12
930.036	4.12
930.768	0.12
931.499	1.12
932.23	-0.88
932.962	2.12
933.693	-0.88
934.424	1.12
935.155	1.12
935.886	1.12
936.617	1.12
937.348	0.12
938.078	0.12
938.809	2.12
939.54	1.12
940.27	0.12
941.001	3.12
941.731	0.12
942.461	-0.88
943.191	2.12
943.922	-0.88
944.652	0.12
945.382	3.12
946.112	1.12
946.841	2.12
947.571	0.12
948.301	-0.88
949.031	2.12
949.76	1.12
950.49	1.12
951.219	1.12
951.948	-0.88
952.678	-1.88
953.407	2.12
954.136	2.12
954.865	0.12
955.594	-1.88
956.323	3.12
957.052	0.12
957.78	1.12
958.509	1.12
959.238	0.12
959.966	2.12
960.695	0.12
961.423	1.12
962.151	-0.88
962.88	1.12
963.608	0.12
964.336	0.12
965.064	1.12
965.792	3.12
966.52	2.12
967.247	-0.88
967.975	1.12
968.703	0.12
969.43	0.12
970.158	1.12
970.885	-0.88
971.613	3.12
972.34	0.12
973.067	1.12
973.794	2.12
974.521	0.12
975.248	1.12
975.975	-0.88
976.702	-0.88
977.429	-0.88
978.156	0.12
978.882	1.12
979.609	1.12
980.335	1.12
981.062	1.12
981.788	-0.88
982.514	1.12
983.24	0.12
983.967	1.12
984.693	0.12
985.419	2.12
986.144	2.12
986.87	0.12
987.596	-0.88
988.322	-0.88
989.047	1.12
989.773	1.12
990.498	2.12
991.224	2.12
991.949	0.12
992.674	0.12
993.399	-0.88
994.124	0.12
994.849	0.12
995.574	1.12
996.299	0.12
997.024	2.12
997.749	1.12
998.473	3.12
999.198	0.12
999.922	0.12
1000.647	-1.88
1001.371	6.12
1002.095	-2.88
1002.82	1.12
1003.544	-0.88
1004.268	7.12
1004.992	6.12
1005.716	5.12
1006.439	4.12
1007.163	6.12
1007.887	6.12
1008.611	1.12
1009.334	1.12
1010.058	0.12
1010.781	-0.88
1011.504	-0.88
1012.228	2.12
1012.951	-0.88
1013.674	0.12
1014.397	-2.88
1015.12	0.12
