节点500_705_QEPB04081__656__20-55-15-809.txt的数据

Date: Wed Nov 12 20:55:15 CST 2025
User: PC
Spectrometer: QEPB0408
触发模式: 0
积分时间 (秒): 1.000000E-2
Scans to average: 1
启用暗噪声校正: true
启用非线性校正: false
滑动平均宽度: 0
X轴模式: Wavelengths
Number of Pixels in Spectrum: 1044
>>>>>Begin Spectral Data<<<<<
220.843	2.5
221.644	5.5
222.444	2.5
223.244	5.5
224.045	8.5
224.845	4.5
225.645	4.5
226.445	6.5
227.245	4.5
228.045	3.5
228.845	7.5
229.645	6.5
230.444	3.5
231.244	5.5
232.043	4.5
232.843	7.5
233.642	5.5
234.442	7.5
235.241	7.5
236.04	6.5
236.839	8.5
237.638	7.5
238.437	7.5
239.236	7.5
240.035	9.5
240.833	7.5
241.632	8.5
242.43	8.5
243.229	10.5
244.027	9.5
244.826	12.5
245.624	8.5
246.422	8.5
247.22	9.5
248.018	11.5
248.816	11.5
249.614	9.5
250.412	13.5
251.21	13.5
252.007	11.5
252.805	9.5
253.602	15.5
254.4	14.5
255.197	14.5
255.994	14.5
256.791	15.5
257.589	14.5
258.386	14.5
259.183	17.5
259.979	17.5
260.776	14.5
261.573	19.5
262.37	16.5
263.166	19.5
263.963	20.5
264.759	21.5
265.556	20.5
266.352	19.5
267.148	21.5
267.944	19.5
268.74	21.5
269.536	20.5
270.332	22.5
271.128	22.5
271.924	27.5
272.719	23.5
273.515	26.5
274.311	24.5
275.106	26.5
275.901	25.5
276.697	27.5
277.492	25.5
278.287	25.5
279.082	26.5
279.877	24.5
280.672	25.5
281.467	25.5
282.262	26.5
283.056	28.5
283.851	24.5
284.646	27.5
285.44	25.5
286.234	28.5
287.029	25.5
287.823	29.5
288.617	22.5
289.411	25.5
290.205	24.5
290.999	28.5
291.793	25.5
292.587	25.5
293.381	26.5
294.174	21.5
294.968	22.5
295.761	23.5
296.555	23.5
297.348	22.5
298.141	23.5
298.935	23.5
299.728	21.5
300.521	20.5
301.314	21.5
302.107	18.5
302.899	20.5
303.692	15.5
304.485	19.5
305.277	18.5
306.07	17.5
306.862	20.5
307.655	14.5
308.447	19.5
309.239	18.5
310.031	19.5
310.823	14.5
311.615	14.5
312.407	16.5
313.199	14.5
313.991	14.5
314.783	12.5
315.574	12.5
316.366	12.5
317.157	13.5
317.949	14.5
318.74	10.5
319.531	10.5
320.322	14.5
321.113	10.5
321.904	11.5
322.695	9.5
323.486	8.5
324.277	10.5
325.068	10.5
325.858	8.5
326.649	10.5
327.439	12.5
328.23	8.5
329.02	8.5
329.81	12.5
330.6	8.5
331.391	10.5
332.181	9.5
332.971	10.5
333.76	10.5
334.55	10.5
335.34	9.5
336.13	8.5
336.919	9.5
337.709	8.5
338.498	9.5
339.287	8.5
340.077	9.5
340.866	9.5
341.655	10.5
342.444	8.5
343.233	8.5
344.022	7.5
344.811	9.5
345.6	9.5
346.388	9.5
347.177	8.5
347.965	10.5
348.754	8.5
349.542	10.5
350.33	8.5
351.119	7.5
351.907	9.5
352.695	9.5
353.483	7.5
354.271	9.5
355.059	7.5
355.846	8.5
356.634	7.5
357.422	9.5
358.209	6.5
358.997	8.5
359.784	12.5
360.571	10.5
361.359	8.5
362.146	5.5
362.933	11.5
363.72	7.5
364.507	9.5
365.294	6.5
366.081	8.5
366.867	5.5
367.654	8.5
368.44	7.5
369.227	8.5
370.013	6.5
370.8	5.5
371.586	7.5
372.372	10.5
373.158	7.5
373.944	6.5
374.73	6.5
375.516	7.5
376.302	7.5
377.088	7.5
377.873	6.5
378.659	10.5
379.445	8.5
380.23	6.5
381.015	6.5
381.801	6.5
382.586	5.5
383.371	6.5
384.156	7.5
384.941	10.5
385.726	9.5
386.511	8.5
387.296	6.5
388.08	9.5
388.865	6.5
389.649	9.5
390.434	10.5
391.218	9.5
392.003	9.5
392.787	9.5
393.571	9.5
394.355	8.5
395.139	9.5
395.923	9.5
396.707	10.5
397.491	10.5
398.274	8.5
399.058	9.5
399.842	10.5
400.625	11.5
401.408	11.5
402.192	8.5
402.975	12.5
403.758	10.5
404.541	8.5
405.324	9.5
406.107	12.5
406.89	13.5
407.673	12.5
408.456	13.5
409.238	12.5
410.021	13.5
410.803	14.5
411.586	13.5
412.368	13.5
413.151	12.5
413.933	13.5
414.715	13.5
415.497	15.5
416.279	14.5
417.061	15.5
417.843	14.5
418.624	14.5
419.406	17.5
420.188	17.5
420.969	19.5
421.751	17.5
422.532	17.5
423.313	19.5
424.095	16.5
424.876	22.5
425.657	19.5
426.438	23.5
427.219	22.5
428	22.5
428.78	26.5
429.561	21.5
430.342	24.5
431.122	25.5
431.903	27.5
432.683	29.5
433.464	33.5
434.244	31.5
435.024	34.5
435.804	34.5
436.584	39.5
437.364	38.5
438.144	40.5
438.924	41.5
439.704	45.5
440.483	51.5
441.263	54.5
442.042	63.5
442.822	65.5
443.601	70.5
444.38	71.5
445.16	81.5
445.939	86.5
446.718	97.5
447.497	101.5
448.276	111.5
449.054	129.5
449.833	136.5
450.612	147.5
451.391	170.5
452.169	186.5
452.948	203.5
453.726	227.5
454.504	253.5
455.282	287.5
456.061	315.5
456.839	349.5
457.617	396.5
458.395	429.5
459.172	476.5
459.95	529.5
460.728	591.5
461.506	662.5
462.283	746.5
463.061	811.5
463.838	913.5
464.615	1000.5
465.393	1104.5
466.17	1229.5
466.947	1349.5
467.724	1497.5
468.501	1662.5
469.278	1836.5
470.055	2014.5
470.831	2201.5
471.608	2421.5
472.385	2654.5
473.161	2914.5
473.938	3198.5
474.714	3463.5
475.49	3790.5
476.266	4170.5
477.043	4504.5
477.819	4919.5
478.595	5335.5
479.371	5818.5
480.146	6283.5
480.922	6866.5
481.698	7442.5
482.473	8035.5
483.249	8686.5
484.024	9349.5
484.8	10108.5
485.575	10923.5
486.35	11766.5
487.126	12699.5
487.901	13661.5
488.676	14638.5
489.451	15787.5
490.225	16927.5
491	18136.5
491.775	19292.5
492.55	20679.5
493.324	21910.5
494.099	23331.5
494.873	24646.5
495.647	26029.5
496.422	27434.5
497.196	28874.5
497.97	30258.5
498.744	31535.5
499.518	32837.5
500.292	34090.5
501.066	34980.5
501.839	35812.5
502.613	36681.5
503.387	37512.5
504.16	37976.5
504.934	38366.5
505.707	38607.5
506.48	38494.5
507.253	38366.5
508.027	38208.5
508.8	37632.5
509.573	37023.5
510.346	36318.5
511.118	35677.5
511.891	34778.5
512.664	33656.5
513.437	32625.5
514.209	31535.5
514.982	30446.5
515.754	29300.5
516.526	28230.5
517.298	27103.5
518.071	26136.5
518.843	25136.5
519.615	24096.5
520.387	23120.5
521.159	22254.5
521.93	21364.5
522.702	20414.5
523.474	19594.5
524.245	18845.5
525.017	17985.5
525.788	17342.5
526.56	16601.5
527.331	15947.5
528.102	15162.5
528.873	14450.5
529.644	13727.5
530.415	13109.5
531.186	12572.5
531.957	11889.5
532.728	11368.5
533.498	10793.5
534.269	10215.5
535.039	9704.5
535.81	9204.5
536.58	8661.5
537.351	8224.5
538.121	7812.5
538.891	7413.5
539.661	6994.5
540.431	6600.5
541.201	6298.5
541.971	5973.5
542.741	5638.5
543.51	5354.5
544.28	5093.5
545.05	4855.5
545.819	4626.5
546.588	4405.5
547.358	4232.5
548.127	3998.5
548.896	3795.5
549.665	3632.5
550.434	3451.5
551.203	3258.5
551.972	3106.5
552.741	2942.5
553.51	2755.5
554.278	2608.5
555.047	2467.5
555.815	2369.5
556.584	2224.5
557.352	2089.5
558.121	1992.5
558.889	1875.5
559.657	1777.5
560.425	1690.5
561.193	1591.5
561.961	1519.5
562.729	1427.5
563.496	1349.5
564.264	1260.5
565.032	1205.5
565.799	1136.5
566.567	1071.5
567.334	1011.5
568.101	976.5
568.869	913.5
569.636	858.5
570.403	808.5
571.17	746.5
571.937	710.5
572.704	677.5
573.471	641.5
574.237	611.5
575.004	567.5
575.771	527.5
576.537	514.5
577.303	481.5
578.07	456.5
578.836	432.5
579.602	407.5
580.368	387.5
581.134	359.5
581.9	344.5
582.666	335.5
583.432	311.5
584.198	292.5
584.964	282.5
585.729	270.5
586.495	250.5
587.26	241.5
588.025	225.5
588.791	210.5
589.556	201.5
590.321	193.5
591.086	189.5
591.851	176.5
592.616	171.5
593.381	154.5
594.146	152.5
594.911	145.5
595.675	142.5
596.44	131.5
597.204	127.5
597.969	114.5
598.733	112.5
599.497	107.5
600.261	104.5
601.025	103.5
601.79	99.5
602.553	96.5
603.317	87.5
604.081	82.5
604.845	79.5
605.609	82.5
606.372	78.5
607.136	69.5
607.899	67.5
608.662	68.5
609.426	62.5
610.189	60.5
610.952	60.5
611.715	58.5
612.478	52.5
613.241	52.5
614.004	49.5
614.767	48.5
615.529	42.5
616.292	46.5
617.055	46.5
617.817	41.5
618.579	38.5
619.342	38.5
620.104	37.5
620.866	34.5
621.628	34.5
622.39	32.5
623.152	34.5
623.914	30.5
624.676	29.5
625.438	26.5
626.199	28.5
626.961	28.5
627.722	27.5
628.484	29.5
629.245	27.5
630.006	25.5
630.768	21.5
631.529	23.5
632.29	21.5
633.051	22.5
633.812	22.5
634.573	23.5
635.333	19.5
636.094	20.5
636.855	19.5
637.615	18.5
638.376	19.5
639.136	18.5
639.896	14.5
640.657	17.5
641.417	14.5
642.177	17.5
642.937	16.5
643.697	14.5
644.457	15.5
645.216	14.5
645.976	14.5
646.736	13.5
647.495	15.5
648.255	11.5
649.014	13.5
649.774	15.5
650.533	12.5
651.292	11.5
652.051	10.5
652.81	10.5
653.569	11.5
654.328	10.5
655.087	9.5
655.846	9.5
656.604	8.5
657.363	9.5
658.121	11.5
658.88	11.5
659.638	8.5
660.397	9.5
661.155	9.5
661.913	10.5
662.671	8.5
663.429	7.5
664.187	9.5
664.945	8.5
665.703	10.5
666.46	7.5
667.218	9.5
667.976	7.5
668.733	8.5
669.49	7.5
670.248	8.5
671.005	11.5
671.762	8.5
672.519	5.5
673.276	7.5
674.033	8.5
674.79	8.5
675.547	6.5
676.304	5.5
677.06	5.5
677.817	5.5
678.574	8.5
679.33	6.5
680.086	7.5
680.843	6.5
681.599	4.5
682.355	7.5
683.111	7.5
683.867	6.5
684.623	5.5
685.379	4.5
686.135	8.5
686.89	4.5
687.646	8.5
688.402	6.5
689.157	7.5
689.912	5.5
690.668	6.5
691.423	6.5
692.178	4.5
692.933	8.5
693.688	6.5
694.443	6.5
695.198	5.5
695.953	3.5
696.708	7.5
697.462	4.5
698.217	8.5
698.972	5.5
699.726	6.5
700.48	4.5
701.235	6.5
701.989	6.5
702.743	5.5
703.497	7.5
704.251	4.5
705.005	4.5
705.759	8.5
706.513	6.5
707.266	3.5
708.02	7.5
708.774	6.5
709.527	7.5
710.28	7.5
711.034	5.5
711.787	5.5
712.54	7.5
713.293	4.5
714.046	7.5
714.799	7.5
715.552	3.5
716.305	7.5
717.058	7.5
717.81	5.5
718.563	6.5
719.315	5.5
720.068	6.5
720.82	6.5
721.573	5.5
722.325	6.5
723.077	7.5
723.829	6.5
724.581	6.5
725.333	4.5
726.085	4.5
726.836	6.5
727.588	7.5
728.34	7.5
729.091	6.5
729.843	6.5
730.594	9.5
731.346	6.5
732.097	6.5
732.848	5.5
733.599	8.5
734.35	4.5
735.101	6.5
735.852	10.5
736.603	5.5
737.354	8.5
738.104	3.5
738.855	4.5
739.605	6.5
740.356	8.5
741.106	8.5
741.856	10.5
742.607	7.5
743.357	7.5
744.107	6.5
744.857	8.5
745.607	8.5
746.357	7.5
747.106	8.5
747.856	6.5
748.606	8.5
749.355	7.5
750.105	8.5
750.854	9.5
751.603	6.5
752.353	10.5
753.102	8.5
753.851	8.5
754.6	6.5
755.349	8.5
756.098	8.5
756.847	9.5
757.595	10.5
758.344	7.5
759.093	10.5
759.841	8.5
760.589	8.5
761.338	7.5
762.086	8.5
762.834	13.5
763.582	9.5
764.331	10.5
765.079	8.5
765.826	10.5
766.574	9.5
767.322	11.5
768.07	10.5
768.817	10.5
769.565	10.5
770.312	10.5
771.06	10.5
771.807	10.5
772.554	10.5
773.302	11.5
774.049	10.5
774.796	10.5
775.543	11.5
776.29	11.5
777.036	9.5
777.783	9.5
778.53	13.5
779.276	11.5
780.023	11.5
780.769	12.5
781.516	10.5
782.262	9.5
783.008	12.5
783.754	12.5
784.5	12.5
785.246	10.5
785.992	15.5
786.738	11.5
787.484	14.5
788.23	9.5
788.975	11.5
789.721	11.5
790.466	10.5
791.212	11.5
791.957	11.5
792.702	11.5
793.447	9.5
794.193	12.5
794.938	11.5
795.683	10.5
796.427	9.5
797.172	8.5
797.917	9.5
798.662	11.5
799.406	10.5
800.151	9.5
800.895	10.5
801.64	11.5
802.384	8.5
803.128	9.5
803.872	6.5
804.616	8.5
805.36	9.5
806.104	9.5
806.848	9.5
807.592	8.5
808.336	5.5
809.079	7.5
809.823	8.5
810.566	8.5
811.31	6.5
812.053	8.5
812.796	6.5
813.539	5.5
814.283	5.5
815.026	4.5
815.769	5.5
816.511	10.5
817.254	5.5
817.997	9.5
818.74	6.5
819.482	6.5
820.225	6.5
820.967	8.5
821.71	5.5
822.452	4.5
823.194	6.5
823.936	5.5
824.678	5.5
825.42	5.5
826.162	5.5
826.904	6.5
827.646	6.5
828.388	7.5
829.129	5.5
829.871	5.5
830.612	2.5
831.354	5.5
832.095	4.5
832.836	3.5
833.577	2.5
834.319	3.5
835.06	4.5
835.801	6.5
836.542	4.5
837.282	4.5
838.023	6.5
838.764	4.5
839.504	2.5
840.245	2.5
840.985	4.5
841.726	1.5
842.466	3.5
843.206	2.5
843.946	2.5
844.687	2.5
845.427	1.5
846.166	4.5
846.906	4.5
847.646	4.5
848.386	1.5
849.125	1.5
849.865	5.5
850.605	5.5
851.344	4.5
852.083	2.5
852.823	5.5
853.562	1.5
854.301	1.5
855.04	5.5
855.779	2.5
856.518	5.5
857.257	1.5
857.995	5.5
858.734	2.5
859.473	2.5
860.211	2.5
860.95	2.5
861.688	2.5
862.426	1.5
863.165	2.5
863.903	2.5
864.641	1.5
865.379	2.5
866.117	1.5
866.855	3.5
867.593	3.5
868.33	2.5
869.068	3.5
869.806	1.5
870.543	0.5
871.28	3.5
872.018	1.5
872.755	2.5
873.492	1.5
874.229	0.5
874.967	1.5
875.703	2.5
876.44	-1.5
877.177	-0.5
877.914	0.5
878.651	1.5
879.387	1.5
880.124	-1.5
880.86	1.5
881.597	2.5
882.333	1.5
883.069	1.5
883.806	0.5
884.542	0.5
885.278	-0.5
886.014	-0.5
886.749	-0.5
887.485	0.5
888.221	0.5
888.957	0.5
889.692	0.5
890.428	1.5
891.163	-1.5
891.899	1.5
892.634	-0.5
893.369	1.5
894.104	-0.5
894.839	-0.5
895.574	-1.5
896.309	0.5
897.044	0.5
897.779	-0.5
898.514	-0.5
899.248	0.5
899.983	-1.5
900.717	-0.5
901.452	-1.5
902.186	0.5
902.92	-0.5
903.654	0.5
904.389	-0.5
905.123	2.5
905.857	0.5
906.59	-0.5
907.324	0.5
908.058	0.5
908.792	1.5
909.525	1.5
910.259	-2.5
910.992	0.5
911.726	0.5
912.459	1.5
913.192	0.5
913.925	1.5
914.658	-0.5
915.391	1.5
916.124	-0.5
916.857	0.5
917.59	0.5
918.323	0.5
919.055	-0.5
919.788	-0.5
920.521	-0.5
921.253	0.5
921.985	-0.5
922.718	-0.5
923.45	-0.5
924.182	0.5
924.914	-0.5
925.646	-1.5
926.378	0.5
927.11	-0.5
927.841	0.5
928.573	0.5
929.305	0.5
930.036	1.5
930.768	-0.5
931.499	0.5
932.23	-1.5
932.962	-0.5
933.693	0.5
934.424	0.5
935.155	-2.5
935.886	2.5
936.617	-1.5
937.348	-0.5
938.078	0.5
938.809	1.5
939.54	-0.5
940.27	2.5
941.001	-1.5
941.731	-0.5
942.461	-0.5
943.191	-0.5
943.922	0.5
944.652	0.5
945.382	0.5
946.112	-1.5
946.841	-1.5
947.571	-0.5
948.301	-0.5
949.031	0.5
949.76	-1.5
950.49	-0.5
951.219	-1.5
951.948	0.5
952.678	0.5
953.407	0.5
954.136	1.5
954.865	-0.5
955.594	-1.5
956.323	1.5
957.052	-2.5
957.78	0.5
958.509	0.5
959.238	-0.5
959.966	-2.5
960.695	0.5
961.423	-2.5
962.151	0.5
962.88	-1.5
963.608	0.5
964.336	0.5
965.064	-1.5
965.792	-3.5
966.52	0.5
967.247	-0.5
967.975	-0.5
968.703	-1.5
969.43	0.5
970.158	1.5
970.885	-1.5
971.613	1.5
972.34	0.5
973.067	-2.5
973.794	0.5
974.521	0.5
975.248	1.5
975.975	-1.5
976.702	-1.5
977.429	0.5
978.156	0.5
978.882	-1.5
979.609	-2.5
980.335	-0.5
981.062	2.5
981.788	-2.5
982.514	-0.5
983.24	-0.5
983.967	-1.5
984.693	-1.5
985.419	-0.5
986.144	-0.5
986.87	-0.5
987.596	-0.5
988.322	-2.5
989.047	0.5
989.773	1.5
990.498	3.5
991.224	-1.5
991.949	-2.5
992.674	0.5
993.399	-1.5
994.124	1.5
994.849	-1.5
995.574	0.5
996.299	1.5
997.024	-3.5
997.749	0.5
998.473	-1.5
999.198	2.5
999.922	0.5
1000.647	-1.5
1001.371	1.5
1002.095	1.5
1002.82	-0.5
1003.544	-2.5
1004.268	3.5
1004.992	3.5
1005.716	2.5
1006.439	3.5
1007.163	4.5
1007.887	2.5
1008.611	0.5
1009.334	2.5
1010.058	0.5
1010.781	-0.5
1011.504	0.5
1012.228	-1.5
1012.951	-2.5
1013.674	0.5
1014.397	-0.5
1015.12	2.5
