节点500_705_QEPB04081__126__20-47-59-076.txt的数据

Date: Wed Nov 12 20:47:59 CST 2025
User: PC
Spectrometer: QEPB0408
触发模式: 0
积分时间 (秒): 1.000000E-2
Scans to average: 1
启用暗噪声校正: true
启用非线性校正: false
滑动平均宽度: 0
X轴模式: Wavelengths
Number of Pixels in Spectrum: 1044
>>>>>Begin Spectral Data<<<<<
220.843	6.5
221.644	6.5
222.444	5.5
223.244	6.5
224.045	7.5
224.845	6.5
225.645	6.5
226.445	8.5
227.245	11.5
228.045	11.5
228.845	8.5
229.645	8.5
230.444	10.5
231.244	10.5
232.043	13.5
232.843	9.5
233.642	10.5
234.442	11.5
235.241	11.5
236.04	12.5
236.839	11.5
237.638	13.5
238.437	11.5
239.236	8.5
240.035	13.5
240.833	12.5
241.632	12.5
242.43	11.5
243.229	12.5
244.027	14.5
244.826	15.5
245.624	15.5
246.422	15.5
247.22	17.5
248.018	16.5
248.816	17.5
249.614	15.5
250.412	15.5
251.21	18.5
252.007	17.5
252.805	19.5
253.602	18.5
254.4	20.5
255.197	19.5
255.994	24.5
256.791	23.5
257.589	22.5
258.386	23.5
259.183	22.5
259.979	27.5
260.776	24.5
261.573	26.5
262.37	25.5
263.166	26.5
263.963	27.5
264.759	25.5
265.556	29.5
266.352	28.5
267.148	30.5
267.944	30.5
268.74	34.5
269.536	30.5
270.332	33.5
271.128	34.5
271.924	32.5
272.719	35.5
273.515	32.5
274.311	31.5
275.106	38.5
275.901	34.5
276.697	36.5
277.492	35.5
278.287	34.5
279.082	38.5
279.877	40.5
280.672	37.5
281.467	38.5
282.262	37.5
283.056	38.5
283.851	34.5
284.646	38.5
285.44	35.5
286.234	33.5
287.029	34.5
287.823	35.5
288.617	35.5
289.411	31.5
290.205	34.5
290.999	35.5
291.793	33.5
292.587	35.5
293.381	30.5
294.174	34.5
294.968	28.5
295.761	29.5
296.555	29.5
297.348	26.5
298.141	29.5
298.935	30.5
299.728	26.5
300.521	27.5
301.314	25.5
302.107	26.5
302.899	24.5
303.692	24.5
304.485	24.5
305.277	25.5
306.07	23.5
306.862	21.5
307.655	22.5
308.447	23.5
309.239	23.5
310.031	20.5
310.823	18.5
311.615	17.5
312.407	17.5
313.199	17.5
313.991	15.5
314.783	16.5
315.574	17.5
316.366	16.5
317.157	15.5
317.949	15.5
318.74	14.5
319.531	14.5
320.322	14.5
321.113	15.5
321.904	15.5
322.695	15.5
323.486	13.5
324.277	12.5
325.068	14.5
325.858	13.5
326.649	15.5
327.439	15.5
328.23	14.5
329.02	15.5
329.81	14.5
330.6	12.5
331.391	14.5
332.181	11.5
332.971	13.5
333.76	12.5
334.55	14.5
335.34	13.5
336.13	13.5
336.919	13.5
337.709	11.5
338.498	13.5
339.287	12.5
340.077	11.5
340.866	11.5
341.655	13.5
342.444	12.5
343.233	12.5
344.022	14.5
344.811	14.5
345.6	9.5
346.388	11.5
347.177	11.5
347.965	12.5
348.754	13.5
349.542	13.5
350.33	11.5
351.119	10.5
351.907	11.5
352.695	13.5
353.483	13.5
354.271	11.5
355.059	12.5
355.846	11.5
356.634	12.5
357.422	11.5
358.209	10.5
358.997	11.5
359.784	10.5
360.571	11.5
361.359	10.5
362.146	12.5
362.933	9.5
363.72	10.5
364.507	9.5
365.294	10.5
366.081	12.5
366.867	9.5
367.654	10.5
368.44	10.5
369.227	9.5
370.013	7.5
370.8	10.5
371.586	11.5
372.372	7.5
373.158	10.5
373.944	10.5
374.73	9.5
375.516	9.5
376.302	10.5
377.088	11.5
377.873	11.5
378.659	10.5
379.445	10.5
380.23	10.5
381.015	12.5
381.801	8.5
382.586	12.5
383.371	12.5
384.156	11.5
384.941	9.5
385.726	12.5
386.511	13.5
387.296	11.5
388.08	13.5
388.865	11.5
389.649	9.5
390.434	14.5
391.218	9.5
392.003	9.5
392.787	10.5
393.571	11.5
394.355	12.5
395.139	12.5
395.923	13.5
396.707	12.5
397.491	15.5
398.274	15.5
399.058	13.5
399.842	15.5
400.625	14.5
401.408	17.5
402.192	16.5
402.975	13.5
403.758	14.5
404.541	15.5
405.324	13.5
406.107	13.5
406.89	17.5
407.673	16.5
408.456	15.5
409.238	19.5
410.021	16.5
410.803	21.5
411.586	17.5
412.368	16.5
413.151	19.5
413.933	17.5
414.715	20.5
415.497	19.5
416.279	20.5
417.061	21.5
417.843	22.5
418.624	19.5
419.406	19.5
420.188	23.5
420.969	23.5
421.751	23.5
422.532	25.5
423.313	24.5
424.095	26.5
424.876	25.5
425.657	26.5
426.438	27.5
427.219	27.5
428	28.5
428.78	29.5
429.561	31.5
430.342	29.5
431.122	35.5
431.903	34.5
432.683	34.5
433.464	36.5
434.244	36.5
435.024	36.5
435.804	39.5
436.584	43.5
437.364	47.5
438.144	46.5
438.924	53.5
439.704	53.5
440.483	58.5
441.263	60.5
442.042	64.5
442.822	66.5
443.601	72.5
444.38	75.5
445.16	82.5
445.939	88.5
446.718	97.5
447.497	109.5
448.276	121.5
449.054	124.5
449.833	142.5
450.612	158.5
451.391	165.5
452.169	185.5
452.948	207.5
453.726	231.5
454.504	255.5
455.282	278.5
456.061	317.5
456.839	357.5
457.617	391.5
458.395	431.5
459.172	495.5
459.95	545.5
460.728	607.5
461.506	686.5
462.283	753.5
463.061	855.5
463.838	953.5
464.615	1062.5
465.393	1190.5
466.17	1316.5
466.947	1481.5
467.724	1639.5
468.501	1813.5
469.278	2017.5
470.055	2230.5
470.831	2477.5
471.608	2748.5
472.385	3021.5
473.161	3361.5
473.938	3716.5
474.714	4063.5
475.49	4494.5
476.266	4972.5
477.043	5423.5
477.819	5977.5
478.595	6550.5
479.371	7170.5
480.146	7880.5
480.922	8601.5
481.698	9452.5
482.473	10307.5
483.249	11224.5
484.024	12203.5
484.8	13293.5
485.575	14484.5
486.35	15730.5
487.126	17123.5
487.901	18550.5
488.676	20098.5
489.451	21719.5
490.225	23408.5
491	25058.5
491.775	26843.5
492.55	28799.5
493.324	30681.5
494.099	32562.5
494.873	34547.5
495.647	36401.5
496.422	38415.5
497.196	40280.5
497.97	41895.5
498.744	43518.5
499.518	45073.5
500.292	46362.5
501.066	47253.5
501.839	48055.5
502.613	48687.5
503.387	49203.5
504.16	49530.5
504.934	49305.5
505.707	49006.5
506.48	48411.5
507.253	47746.5
508.027	46804.5
508.8	45617.5
509.573	44337.5
510.346	43056.5
511.118	41873.5
511.891	40448.5
512.664	38852.5
513.437	37186.5
514.209	35806.5
514.982	34323.5
515.754	32936.5
516.526	31445.5
517.298	30195.5
518.071	28909.5
518.843	27822.5
519.615	26613.5
520.387	25694.5
521.159	24632.5
521.93	23536.5
522.702	22563.5
523.474	21591.5
524.245	20675.5
525.017	19703.5
525.788	18828.5
526.56	18075.5
527.331	17231.5
528.102	16291.5
528.873	15465.5
529.644	14754.5
530.415	14019.5
531.186	13302.5
531.957	12631.5
532.728	11934.5
533.498	11287.5
534.269	10650.5
535.039	10115.5
535.81	9591.5
536.58	9027.5
537.351	8492.5
538.121	8094.5
538.891	7641.5
539.661	7239.5
540.431	6866.5
541.201	6519.5
541.971	6172.5
542.741	5827.5
543.51	5550.5
544.28	5265.5
545.05	5026.5
545.819	4802.5
546.588	4553.5
547.358	4370.5
548.127	4104.5
548.896	3895.5
549.665	3711.5
550.434	3500.5
551.203	3323.5
551.972	3146.5
552.741	2983.5
553.51	2811.5
554.278	2649.5
555.047	2482.5
555.815	2363.5
556.584	2235.5
557.352	2102.5
558.121	1984.5
558.889	1872.5
559.657	1777.5
560.425	1683.5
561.193	1581.5
561.961	1510.5
562.729	1415.5
563.496	1329.5
564.264	1267.5
565.032	1206.5
565.799	1134.5
566.567	1086.5
567.334	1020.5
568.101	966.5
568.869	917.5
569.636	858.5
570.403	814.5
571.17	767.5
571.937	724.5
572.704	687.5
573.471	642.5
574.237	597.5
575.004	574.5
575.771	535.5
576.537	511.5
577.303	486.5
578.07	451.5
578.836	429.5
579.602	397.5
580.368	381.5
581.134	367.5
581.9	344.5
582.666	331.5
583.432	318.5
584.198	296.5
584.964	285.5
585.729	267.5
586.495	256.5
587.26	240.5
588.025	230.5
588.791	214.5
589.556	207.5
590.321	196.5
591.086	187.5
591.851	173.5
592.616	170.5
593.381	161.5
594.146	156.5
594.911	145.5
595.675	143.5
596.44	137.5
597.204	127.5
597.969	126.5
598.733	123.5
599.497	113.5
600.261	110.5
601.025	104.5
601.79	100.5
602.553	96.5
603.317	91.5
604.081	87.5
604.845	86.5
605.609	79.5
606.372	74.5
607.136	75.5
607.899	71.5
608.662	71.5
609.426	68.5
610.189	62.5
610.952	61.5
611.715	60.5
612.478	58.5
613.241	55.5
614.004	53.5
614.767	55.5
615.529	51.5
616.292	50.5
617.055	46.5
617.817	43.5
618.579	43.5
619.342	42.5
620.104	42.5
620.866	41.5
621.628	39.5
622.39	37.5
623.152	39.5
623.914	38.5
624.676	31.5
625.438	37.5
626.199	32.5
626.961	33.5
627.722	31.5
628.484	30.5
629.245	30.5
630.006	28.5
630.768	26.5
631.529	26.5
632.29	27.5
633.051	23.5
633.812	26.5
634.573	27.5
635.333	26.5
636.094	25.5
636.855	22.5
637.615	22.5
638.376	22.5
639.136	20.5
639.896	21.5
640.657	19.5
641.417	17.5
642.177	20.5
642.937	19.5
643.697	19.5
644.457	18.5
645.216	17.5
645.976	15.5
646.736	18.5
647.495	15.5
648.255	16.5
649.014	16.5
649.774	14.5
650.533	17.5
651.292	16.5
652.051	12.5
652.81	15.5
653.569	15.5
654.328	14.5
655.087	14.5
655.846	14.5
656.604	15.5
657.363	12.5
658.121	12.5
658.88	14.5
659.638	13.5
660.397	11.5
661.155	13.5
661.913	13.5
662.671	11.5
663.429	12.5
664.187	13.5
664.945	10.5
665.703	10.5
666.46	11.5
667.218	10.5
667.976	9.5
668.733	13.5
669.49	8.5
670.248	9.5
671.005	10.5
671.762	8.5
672.519	11.5
673.276	11.5
674.033	9.5
674.79	8.5
675.547	8.5
676.304	7.5
677.06	9.5
677.817	9.5
678.574	6.5
679.33	7.5
680.086	9.5
680.843	11.5
681.599	9.5
682.355	10.5
683.111	9.5
683.867	10.5
684.623	6.5
685.379	8.5
686.135	8.5
686.89	9.5
687.646	7.5
688.402	9.5
689.157	9.5
689.912	5.5
690.668	10.5
691.423	8.5
692.178	8.5
692.933	8.5
693.688	9.5
694.443	10.5
695.198	8.5
695.953	9.5
696.708	9.5
697.462	9.5
698.217	10.5
698.972	7.5
699.726	7.5
700.48	8.5
701.235	9.5
701.989	9.5
702.743	9.5
703.497	10.5
704.251	9.5
705.005	8.5
705.759	5.5
706.513	8.5
707.266	8.5
708.02	7.5
708.774	10.5
709.527	10.5
710.28	8.5
711.034	7.5
711.787	9.5
712.54	8.5
713.293	6.5
714.046	8.5
714.799	10.5
715.552	11.5
716.305	10.5
717.058	10.5
717.81	8.5
718.563	7.5
719.315	10.5
720.068	11.5
720.82	8.5
721.573	6.5
722.325	8.5
723.077	11.5
723.829	10.5
724.581	11.5
725.333	9.5
726.085	7.5
726.836	9.5
727.588	7.5
728.34	10.5
729.091	9.5
729.843	9.5
730.594	9.5
731.346	10.5
732.097	7.5
732.848	9.5
733.599	10.5
734.35	10.5
735.101	11.5
735.852	10.5
736.603	7.5
737.354	10.5
738.104	10.5
738.855	10.5
739.605	12.5
740.356	12.5
741.106	12.5
741.856	11.5
742.607	13.5
743.357	9.5
744.107	10.5
744.857	15.5
745.607	9.5
746.357	12.5
747.106	11.5
747.856	11.5
748.606	10.5
749.355	13.5
750.105	12.5
750.854	12.5
751.603	13.5
752.353	11.5
753.102	12.5
753.851	11.5
754.6	11.5
755.349	14.5
756.098	15.5
756.847	15.5
757.595	12.5
758.344	15.5
759.093	13.5
759.841	13.5
760.589	12.5
761.338	14.5
762.086	15.5
762.834	15.5
763.582	15.5
764.331	13.5
765.079	15.5
765.826	15.5
766.574	16.5
767.322	14.5
768.07	15.5
768.817	13.5
769.565	16.5
770.312	17.5
771.06	13.5
771.807	18.5
772.554	15.5
773.302	16.5
774.049	14.5
774.796	15.5
775.543	15.5
776.29	17.5
777.036	17.5
777.783	14.5
778.53	15.5
779.276	18.5
780.023	17.5
780.769	16.5
781.516	17.5
782.262	19.5
783.008	17.5
783.754	16.5
784.5	17.5
785.246	19.5
785.992	17.5
786.738	15.5
787.484	18.5
788.23	17.5
788.975	16.5
789.721	14.5
790.466	16.5
791.212	15.5
791.957	15.5
792.702	17.5
793.447	17.5
794.193	17.5
794.938	12.5
795.683	17.5
796.427	13.5
797.172	15.5
797.917	13.5
798.662	12.5
799.406	12.5
800.151	14.5
800.895	13.5
801.64	13.5
802.384	11.5
803.128	13.5
803.872	11.5
804.616	14.5
805.36	11.5
806.104	11.5
806.848	10.5
807.592	12.5
808.336	11.5
809.079	11.5
809.823	10.5
810.566	11.5
811.31	9.5
812.053	9.5
812.796	9.5
813.539	10.5
814.283	11.5
815.026	10.5
815.769	9.5
816.511	9.5
817.254	10.5
817.997	8.5
818.74	10.5
819.482	9.5
820.225	5.5
820.967	10.5
821.71	7.5
822.452	7.5
823.194	9.5
823.936	8.5
824.678	7.5
825.42	9.5
826.162	9.5
826.904	6.5
827.646	7.5
828.388	7.5
829.129	5.5
829.871	7.5
830.612	7.5
831.354	5.5
832.095	5.5
832.836	6.5
833.577	5.5
834.319	6.5
835.06	7.5
835.801	6.5
836.542	7.5
837.282	6.5
838.023	6.5
838.764	5.5
839.504	3.5
840.245	5.5
840.985	7.5
841.726	5.5
842.466	7.5
843.206	6.5
843.946	5.5
844.687	7.5
845.427	8.5
846.166	4.5
846.906	5.5
847.646	6.5
848.386	4.5
849.125	6.5
849.865	5.5
850.605	8.5
851.344	5.5
852.083	4.5
852.823	6.5
853.562	4.5
854.301	6.5
855.04	4.5
855.779	6.5
856.518	4.5
857.257	4.5
857.995	4.5
858.734	4.5
859.473	5.5
860.211	3.5
860.95	3.5
861.688	5.5
862.426	3.5
863.165	2.5
863.903	5.5
864.641	3.5
865.379	3.5
866.117	2.5
866.855	3.5
867.593	0.5
868.33	4.5
869.068	3.5
869.806	3.5
870.543	5.5
871.28	2.5
872.018	4.5
872.755	2.5
873.492	3.5
874.229	3.5
874.967	2.5
875.703	3.5
876.44	3.5
877.177	2.5
877.914	2.5
878.651	3.5
879.387	1.5
880.124	1.5
880.86	4.5
881.597	1.5
882.333	1.5
883.069	3.5
883.806	1.5
884.542	1.5
885.278	1.5
886.014	1.5
886.749	0.5
887.485	3.5
888.221	2.5
888.957	1.5
889.692	3.5
890.428	3.5
891.163	0.5
891.899	1.5
892.634	0.5
893.369	2.5
894.104	0.5
894.839	3.5
895.574	2.5
896.309	1.5
897.044	0.5
897.779	2.5
898.514	1.5
899.248	-0.5
899.983	3.5
900.717	3.5
901.452	2.5
902.186	3.5
902.92	1.5
903.654	2.5
904.389	3.5
905.123	3.5
905.857	2.5
906.59	1.5
907.324	2.5
908.058	3.5
908.792	1.5
909.525	3.5
910.259	-0.5
910.992	1.5
911.726	3.5
912.459	0.5
913.192	1.5
913.925	2.5
914.658	1.5
915.391	2.5
916.124	2.5
916.857	0.5
917.59	2.5
918.323	1.5
919.055	0.5
919.788	0.5
920.521	-1.5
921.253	3.5
921.985	-0.5
922.718	1.5
923.45	1.5
924.182	3.5
924.914	0.5
925.646	1.5
926.378	1.5
927.11	1.5
927.841	-1.5
928.573	2.5
929.305	1.5
930.036	1.5
930.768	0.5
931.499	0.5
932.23	0.5
932.962	1.5
933.693	3.5
934.424	2.5
935.155	2.5
935.886	1.5
936.617	1.5
937.348	5.5
938.078	1.5
938.809	1.5
939.54	1.5
940.27	2.5
941.001	1.5
941.731	-1.5
942.461	0.5
943.191	0.5
943.922	0.5
944.652	1.5
945.382	1.5
946.112	1.5
946.841	1.5
947.571	1.5
948.301	-0.5
949.031	1.5
949.76	3.5
950.49	-0.5
951.219	1.5
951.948	2.5
952.678	0.5
953.407	0.5
954.136	-0.5
954.865	1.5
955.594	1.5
956.323	-0.5
957.052	1.5
957.78	1.5
958.509	3.5
959.238	1.5
959.966	2.5
960.695	0.5
961.423	-0.5
962.151	2.5
962.88	0.5
963.608	1.5
964.336	-0.5
965.064	-0.5
965.792	-0.5
966.52	2.5
967.247	-0.5
967.975	-0.5
968.703	1.5
969.43	2.5
970.158	-0.5
970.885	1.5
971.613	2.5
972.34	1.5
973.067	-0.5
973.794	0.5
974.521	-0.5
975.248	1.5
975.975	1.5
976.702	1.5
977.429	0.5
978.156	3.5
978.882	0.5
979.609	0.5
980.335	2.5
981.062	-0.5
981.788	1.5
982.514	1.5
983.24	1.5
983.967	0.5
984.693	-1.5
985.419	0.5
986.144	2.5
986.87	0.5
987.596	0.5
988.322	1.5
989.047	1.5
989.773	1.5
990.498	3.5
991.224	-0.5
991.949	-1.5
992.674	2.5
993.399	1.5
994.124	1.5
994.849	-2.5
995.574	2.5
996.299	1.5
997.024	3.5
997.749	1.5
998.473	-1.5
999.198	2.5
999.922	2.5
1000.647	1.5
1001.371	5.5
1002.095	-0.5
1002.82	-1.5
1003.544	-1.5
1004.268	7.5
1004.992	7.5
1005.716	4.5
1006.439	5.5
1007.163	5.5
1007.887	6.5
1008.611	0.5
1009.334	0.5
1010.058	0.5
1010.781	0.5
1011.504	1.5
1012.228	0.5
1012.951	1.5
1013.674	-1.5
1014.397	-1.5
1015.12	-0.5
