节点500_705_QEPB04081__74__20-47-07-273.txt的数据

Date: Wed Nov 12 20:47:07 CST 2025
User: PC
Spectrometer: QEPB0408
触发模式: 0
积分时间 (秒): 1.000000E-2
Scans to average: 1
启用暗噪声校正: true
启用非线性校正: false
滑动平均宽度: 0
X轴模式: Wavelengths
Number of Pixels in Spectrum: 1044
>>>>>Begin Spectral Data<<<<<
220.843	5.75
221.644	5.75
222.444	5.75
223.244	6.75
224.045	7.75
224.845	5.75
225.645	6.75
226.445	7.75
227.245	7.75
228.045	10.75
228.845	9.75
229.645	8.75
230.444	12.75
231.244	10.75
232.043	9.75
232.843	8.75
233.642	13.75
234.442	9.75
235.241	12.75
236.04	10.75
236.839	10.75
237.638	11.75
238.437	12.75
239.236	13.75
240.035	12.75
240.833	14.75
241.632	13.75
242.43	16.75
243.229	13.75
244.027	14.75
244.826	11.75
245.624	14.75
246.422	15.75
247.22	17.75
248.018	15.75
248.816	18.75
249.614	16.75
250.412	18.75
251.21	18.75
252.007	17.75
252.805	19.75
253.602	16.75
254.4	21.75
255.197	19.75
255.994	21.75
256.791	19.75
257.589	21.75
258.386	23.75
259.183	26.75
259.979	24.75
260.776	26.75
261.573	23.75
262.37	28.75
263.166	26.75
263.963	28.75
264.759	27.75
265.556	29.75
266.352	30.75
267.148	31.75
267.944	35.75
268.74	31.75
269.536	35.75
270.332	31.75
271.128	36.75
271.924	37.75
272.719	34.75
273.515	36.75
274.311	32.75
275.106	34.75
275.901	33.75
276.697	36.75
277.492	37.75
278.287	35.75
279.082	38.75
279.877	35.75
280.672	38.75
281.467	37.75
282.262	35.75
283.056	36.75
283.851	37.75
284.646	34.75
285.44	37.75
286.234	35.75
287.029	39.75
287.823	36.75
288.617	39.75
289.411	34.75
290.205	33.75
290.999	32.75
291.793	30.75
292.587	35.75
293.381	30.75
294.174	33.75
294.968	30.75
295.761	27.75
296.555	29.75
297.348	26.75
298.141	27.75
298.935	28.75
299.728	26.75
300.521	29.75
301.314	27.75
302.107	23.75
302.899	23.75
303.692	23.75
304.485	23.75
305.277	23.75
306.07	22.75
306.862	20.75
307.655	26.75
308.447	21.75
309.239	20.75
310.031	24.75
310.823	20.75
311.615	21.75
312.407	17.75
313.199	19.75
313.991	17.75
314.783	18.75
315.574	18.75
316.366	17.75
317.157	18.75
317.949	16.75
318.74	17.75
319.531	18.75
320.322	15.75
321.113	15.75
321.904	13.75
322.695	13.75
323.486	14.75
324.277	13.75
325.068	13.75
325.858	13.75
326.649	14.75
327.439	13.75
328.23	13.75
329.02	12.75
329.81	13.75
330.6	11.75
331.391	12.75
332.181	14.75
332.971	10.75
333.76	11.75
334.55	13.75
335.34	14.75
336.13	12.75
336.919	10.75
337.709	14.75
338.498	13.75
339.287	13.75
340.077	11.75
340.866	12.75
341.655	11.75
342.444	11.75
343.233	12.75
344.022	11.75
344.811	13.75
345.6	11.75
346.388	10.75
347.177	13.75
347.965	11.75
348.754	13.75
349.542	13.75
350.33	9.75
351.119	10.75
351.907	12.75
352.695	11.75
353.483	11.75
354.271	14.75
355.059	10.75
355.846	9.75
356.634	12.75
357.422	13.75
358.209	11.75
358.997	12.75
359.784	10.75
360.571	10.75
361.359	8.75
362.146	10.75
362.933	9.75
363.72	10.75
364.507	9.75
365.294	10.75
366.081	9.75
366.867	12.75
367.654	11.75
368.44	9.75
369.227	10.75
370.013	12.75
370.8	11.75
371.586	12.75
372.372	7.75
373.158	11.75
373.944	11.75
374.73	8.75
375.516	11.75
376.302	13.75
377.088	9.75
377.873	11.75
378.659	13.75
379.445	10.75
380.23	11.75
381.015	11.75
381.801	12.75
382.586	12.75
383.371	10.75
384.156	14.75
384.941	12.75
385.726	10.75
386.511	12.75
387.296	13.75
388.08	13.75
388.865	15.75
389.649	11.75
390.434	12.75
391.218	10.75
392.003	11.75
392.787	13.75
393.571	12.75
394.355	10.75
395.139	11.75
395.923	14.75
396.707	12.75
397.491	15.75
398.274	15.75
399.058	15.75
399.842	15.75
400.625	16.75
401.408	14.75
402.192	15.75
402.975	13.75
403.758	15.75
404.541	12.75
405.324	15.75
406.107	14.75
406.89	15.75
407.673	18.75
408.456	14.75
409.238	17.75
410.021	15.75
410.803	17.75
411.586	16.75
412.368	19.75
413.151	15.75
413.933	19.75
414.715	19.75
415.497	22.75
416.279	19.75
417.061	19.75
417.843	24.75
418.624	21.75
419.406	21.75
420.188	24.75
420.969	22.75
421.751	25.75
422.532	23.75
423.313	23.75
424.095	25.75
424.876	26.75
425.657	27.75
426.438	27.75
427.219	24.75
428	28.75
428.78	27.75
429.561	29.75
430.342	29.75
431.122	31.75
431.903	35.75
432.683	33.75
433.464	34.75
434.244	37.75
435.024	40.75
435.804	43.75
436.584	45.75
437.364	49.75
438.144	46.75
438.924	50.75
439.704	56.75
440.483	58.75
441.263	58.75
442.042	65.75
442.822	66.75
443.601	73.75
444.38	76.75
445.16	84.75
445.939	95.75
446.718	100.75
447.497	107.75
448.276	116.75
449.054	127.75
449.833	136.75
450.612	152.75
451.391	162.75
452.169	186.75
452.948	203.75
453.726	228.75
454.504	251.75
455.282	286.75
456.061	307.75
456.839	340.75
457.617	387.75
458.395	422.75
459.172	489.75
459.95	538.75
460.728	608.75
461.506	674.75
462.283	757.75
463.061	836.75
463.838	934.75
464.615	1051.75
465.393	1171.75
466.17	1308.75
466.947	1458.75
467.724	1616.75
468.501	1815.75
469.278	2020.75
470.055	2193.75
470.831	2468.75
471.608	2731.75
472.385	3017.75
473.161	3340.75
473.938	3685.75
474.714	4095.75
475.49	4505.75
476.266	4947.75
477.043	5433.75
477.819	6010.75
478.595	6576.75
479.371	7211.75
480.146	7887.75
480.922	8718.75
481.698	9508.75
482.473	10425.75
483.249	11357.75
484.024	12412.75
484.8	13487.75
485.575	14709.75
486.35	15996.75
487.126	17417.75
487.901	18812.75
488.676	20435.75
489.451	22097.75
490.225	23790.75
491	25618.75
491.775	27359.75
492.55	29320.75
493.324	31257.75
494.099	33182.75
494.873	35146.75
495.647	37122.75
496.422	39118.75
497.196	41007.75
497.97	42609.75
498.744	44278.75
499.518	45838.75
500.292	47109.75
501.066	48069.75
501.839	48854.75
502.613	49406.75
503.387	49821.75
504.16	50059.75
504.934	49902.75
505.707	49458.75
506.48	48742.75
507.253	48013.75
508.027	47119.75
508.8	45754.75
509.573	44467.75
510.346	43189.75
511.118	41907.75
511.891	40511.75
512.664	38688.75
513.437	37106.75
514.209	35584.75
514.982	34190.75
515.754	32674.75
516.526	31273.75
517.298	30066.75
518.071	28865.75
518.843	27628.75
519.615	26535.75
520.387	25487.75
521.159	24446.75
521.93	23369.75
522.702	22385.75
523.474	21454.75
524.245	20559.75
525.017	19630.75
525.788	18732.75
526.56	17915.75
527.331	17020.75
528.102	16184.75
528.873	15343.75
529.644	14627.75
530.415	13890.75
531.186	13134.75
531.957	12435.75
532.728	11820.75
533.498	11155.75
534.269	10583.75
535.039	10002.75
535.81	9428.75
536.58	8890.75
537.351	8431.75
538.121	7975.75
538.891	7566.75
539.661	7127.75
540.431	6765.75
541.201	6438.75
541.971	6118.75
542.741	5754.75
543.51	5476.75
544.28	5202.75
545.05	4942.75
545.819	4721.75
546.588	4491.75
547.358	4299.75
548.127	4096.75
548.896	3871.75
549.665	3637.75
550.434	3445.75
551.203	3268.75
551.972	3122.75
552.741	2961.75
553.51	2764.75
554.278	2606.75
555.047	2477.75
555.815	2322.75
556.584	2200.75
557.352	2070.75
558.121	1968.75
558.889	1864.75
559.657	1753.75
560.425	1640.75
561.193	1571.75
561.961	1481.75
562.729	1420.75
563.496	1313.75
564.264	1256.75
565.032	1176.75
565.799	1109.75
566.567	1069.75
567.334	1000.75
568.101	945.75
568.869	901.75
569.636	838.75
570.403	798.75
571.17	745.75
571.937	716.75
572.704	673.75
573.471	632.75
574.237	602.75
575.004	562.75
575.771	529.75
576.537	513.75
577.303	469.75
578.07	451.75
578.836	415.75
579.602	399.75
580.368	373.75
581.134	360.75
581.9	344.75
582.666	324.75
583.432	306.75
584.198	297.75
584.964	279.75
585.729	264.75
586.495	249.75
587.26	238.75
588.025	225.75
588.791	212.75
589.556	200.75
590.321	190.75
591.086	181.75
591.851	174.75
592.616	168.75
593.381	160.75
594.146	153.75
594.911	146.75
595.675	141.75
596.44	132.75
597.204	126.75
597.969	122.75
598.733	112.75
599.497	111.75
600.261	109.75
601.025	105.75
601.79	100.75
602.553	94.75
603.317	89.75
604.081	85.75
604.845	84.75
605.609	81.75
606.372	76.75
607.136	73.75
607.899	72.75
608.662	71.75
609.426	67.75
610.189	63.75
610.952	63.75
611.715	60.75
612.478	60.75
613.241	55.75
614.004	54.75
614.767	53.75
615.529	48.75
616.292	45.75
617.055	47.75
617.817	44.75
618.579	46.75
619.342	43.75
620.104	44.75
620.866	39.75
621.628	41.75
622.39	37.75
623.152	34.75
623.914	37.75
624.676	36.75
625.438	34.75
626.199	28.75
626.961	31.75
627.722	30.75
628.484	31.75
629.245	24.75
630.006	26.75
630.768	28.75
631.529	27.75
632.29	26.75
633.051	27.75
633.812	22.75
634.573	26.75
635.333	23.75
636.094	23.75
636.855	22.75
637.615	20.75
638.376	20.75
639.136	19.75
639.896	19.75
640.657	21.75
641.417	20.75
642.177	21.75
642.937	19.75
643.697	20.75
644.457	15.75
645.216	18.75
645.976	16.75
646.736	17.75
647.495	18.75
648.255	16.75
649.014	15.75
649.774	15.75
650.533	18.75
651.292	15.75
652.051	11.75
652.81	14.75
653.569	13.75
654.328	13.75
655.087	12.75
655.846	15.75
656.604	12.75
657.363	14.75
658.121	13.75
658.88	12.75
659.638	14.75
660.397	12.75
661.155	10.75
661.913	11.75
662.671	11.75
663.429	13.75
664.187	15.75
664.945	11.75
665.703	11.75
666.46	10.75
667.218	10.75
667.976	11.75
668.733	9.75
669.49	10.75
670.248	8.75
671.005	11.75
671.762	12.75
672.519	10.75
673.276	9.75
674.033	8.75
674.79	9.75
675.547	11.75
676.304	10.75
677.06	9.75
677.817	10.75
678.574	10.75
679.33	10.75
680.086	6.75
680.843	8.75
681.599	9.75
682.355	9.75
683.111	10.75
683.867	9.75
684.623	8.75
685.379	9.75
686.135	9.75
686.89	11.75
687.646	7.75
688.402	9.75
689.157	7.75
689.912	8.75
690.668	9.75
691.423	8.75
692.178	8.75
692.933	9.75
693.688	8.75
694.443	8.75
695.198	7.75
695.953	9.75
696.708	5.75
697.462	10.75
698.217	9.75
698.972	8.75
699.726	9.75
700.48	6.75
701.235	8.75
701.989	7.75
702.743	7.75
703.497	5.75
704.251	7.75
705.005	8.75
705.759	6.75
706.513	10.75
707.266	6.75
708.02	9.75
708.774	8.75
709.527	7.75
710.28	9.75
711.034	9.75
711.787	9.75
712.54	8.75
713.293	7.75
714.046	9.75
714.799	7.75
715.552	11.75
716.305	9.75
717.058	7.75
717.81	9.75
718.563	5.75
719.315	9.75
720.068	9.75
720.82	9.75
721.573	9.75
722.325	9.75
723.077	9.75
723.829	8.75
724.581	10.75
725.333	9.75
726.085	7.75
726.836	7.75
727.588	8.75
728.34	9.75
729.091	9.75
729.843	10.75
730.594	8.75
731.346	9.75
732.097	11.75
732.848	10.75
733.599	12.75
734.35	8.75
735.101	10.75
735.852	11.75
736.603	10.75
737.354	13.75
738.104	9.75
738.855	10.75
739.605	7.75
740.356	11.75
741.106	11.75
741.856	10.75
742.607	10.75
743.357	15.75
744.107	13.75
744.857	12.75
745.607	8.75
746.357	11.75
747.106	11.75
747.856	11.75
748.606	10.75
749.355	13.75
750.105	8.75
750.854	12.75
751.603	12.75
752.353	12.75
753.102	12.75
753.851	13.75
754.6	10.75
755.349	11.75
756.098	11.75
756.847	13.75
757.595	11.75
758.344	14.75
759.093	12.75
759.841	13.75
760.589	14.75
761.338	14.75
762.086	13.75
762.834	12.75
763.582	14.75
764.331	15.75
765.079	14.75
765.826	12.75
766.574	14.75
767.322	16.75
768.07	15.75
768.817	15.75
769.565	15.75
770.312	13.75
771.06	17.75
771.807	19.75
772.554	17.75
773.302	19.75
774.049	15.75
774.796	19.75
775.543	16.75
776.29	18.75
777.036	16.75
777.783	18.75
778.53	18.75
779.276	16.75
780.023	18.75
780.769	18.75
781.516	16.75
782.262	17.75
783.008	18.75
783.754	18.75
784.5	16.75
785.246	18.75
785.992	15.75
786.738	15.75
787.484	16.75
788.23	15.75
788.975	18.75
789.721	17.75
790.466	15.75
791.212	15.75
791.957	15.75
792.702	15.75
793.447	15.75
794.193	17.75
794.938	15.75
795.683	13.75
796.427	14.75
797.172	13.75
797.917	13.75
798.662	14.75
799.406	12.75
800.151	13.75
800.895	13.75
801.64	14.75
802.384	13.75
803.128	15.75
803.872	13.75
804.616	10.75
805.36	10.75
806.104	12.75
806.848	12.75
807.592	9.75
808.336	12.75
809.079	10.75
809.823	8.75
810.566	11.75
811.31	7.75
812.053	12.75
812.796	9.75
813.539	9.75
814.283	8.75
815.026	9.75
815.769	9.75
816.511	8.75
817.254	8.75
817.997	10.75
818.74	9.75
819.482	8.75
820.225	10.75
820.967	7.75
821.71	5.75
822.452	9.75
823.194	11.75
823.936	5.75
824.678	9.75
825.42	7.75
826.162	8.75
826.904	6.75
827.646	8.75
828.388	7.75
829.129	7.75
829.871	7.75
830.612	2.75
831.354	5.75
832.095	6.75
832.836	8.75
833.577	6.75
834.319	4.75
835.06	7.75
835.801	7.75
836.542	8.75
837.282	8.75
838.023	5.75
838.764	5.75
839.504	3.75
840.245	3.75
840.985	5.75
841.726	5.75
842.466	7.75
843.206	5.75
843.946	4.75
844.687	6.75
845.427	7.75
846.166	7.75
846.906	7.75
847.646	6.75
848.386	8.75
849.125	4.75
849.865	4.75
850.605	3.75
851.344	4.75
852.083	4.75
852.823	4.75
853.562	3.75
854.301	2.75
855.04	3.75
855.779	3.75
856.518	3.75
857.257	3.75
857.995	5.75
858.734	4.75
859.473	4.75
860.211	4.75
860.95	4.75
861.688	4.75
862.426	3.75
863.165	4.75
863.903	5.75
864.641	3.75
865.379	6.75
866.117	2.75
866.855	3.75
867.593	3.75
868.33	3.75
869.068	2.75
869.806	3.75
870.543	4.75
871.28	0.75
872.018	3.75
872.755	3.75
873.492	2.75
874.229	4.75
874.967	2.75
875.703	2.75
876.44	2.75
877.177	3.75
877.914	-0.25
878.651	1.75
879.387	3.75
880.124	4.75
880.86	2.75
881.597	2.75
882.333	1.75
883.069	3.75
883.806	1.75
884.542	0.75
885.278	2.75
886.014	3.75
886.749	0.75
887.485	3.75
888.221	1.75
888.957	0.75
889.692	1.75
890.428	2.75
891.163	3.75
891.899	3.75
892.634	-0.25
893.369	1.75
894.104	2.75
894.839	3.75
895.574	2.75
896.309	2.75
897.044	1.75
897.779	3.75
898.514	1.75
899.248	0.75
899.983	2.75
900.717	-0.25
901.452	-0.25
902.186	1.75
902.92	-0.25
903.654	2.75
904.389	-0.25
905.123	2.75
905.857	0.75
906.59	1.75
907.324	1.75
908.058	0.75
908.792	1.75
909.525	1.75
910.259	2.75
910.992	1.75
911.726	2.75
912.459	4.75
913.192	2.75
913.925	3.75
914.658	1.75
915.391	-0.25
916.124	0.75
916.857	2.75
917.59	2.75
918.323	-0.25
919.055	-0.25
919.788	2.75
920.521	-0.25
921.253	1.75
921.985	1.75
922.718	2.75
923.45	-0.25
924.182	0.75
924.914	1.75
925.646	-0.25
926.378	1.75
927.11	-0.25
927.841	1.75
928.573	1.75
929.305	-0.25
930.036	0.75
930.768	0.75
931.499	3.75
932.23	2.75
932.962	1.75
933.693	2.75
934.424	-0.25
935.155	2.75
935.886	0.75
936.617	3.75
937.348	1.75
938.078	2.75
938.809	-0.25
939.54	-0.25
940.27	2.75
941.001	2.75
941.731	1.75
942.461	3.75
943.191	-1.25
943.922	1.75
944.652	0.75
945.382	-0.25
946.112	0.75
946.841	2.75
947.571	0.75
948.301	-1.25
949.031	1.75
949.76	-0.25
950.49	0.75
951.219	-0.25
951.948	-0.25
952.678	1.75
953.407	2.75
954.136	1.75
954.865	0.75
955.594	-0.25
956.323	1.75
957.052	3.75
957.78	2.75
958.509	1.75
959.238	0.75
959.966	1.75
960.695	1.75
961.423	0.75
962.151	0.75
962.88	-0.25
963.608	1.75
964.336	0.75
965.064	0.75
965.792	1.75
966.52	3.75
967.247	-1.25
967.975	3.75
968.703	-0.25
969.43	1.75
970.158	0.75
970.885	1.75
971.613	2.75
972.34	0.75
973.067	1.75
973.794	-0.25
974.521	-0.25
975.248	-1.25
975.975	-0.25
976.702	1.75
977.429	1.75
978.156	0.75
978.882	1.75
979.609	1.75
980.335	1.75
981.062	0.75
981.788	2.75
982.514	0.75
983.24	2.75
983.967	1.75
984.693	-2.25
985.419	2.75
986.144	0.75
986.87	2.75
987.596	-0.25
988.322	0.75
989.047	0.75
989.773	-0.25
990.498	0.75
991.224	0.75
991.949	0.75
992.674	0.75
993.399	-0.25
994.124	1.75
994.849	-0.25
995.574	2.75
996.299	0.75
997.024	2.75
997.749	1.75
998.473	0.75
999.198	1.75
999.922	2.75
1000.647	1.75
1001.371	3.75
1002.095	-3.25
1002.82	-1.25
1003.544	0.75
1004.268	6.75
1004.992	4.75
1005.716	8.75
1006.439	4.75
1007.163	7.75
1007.887	5.75
1008.611	1.75
1009.334	-1.25
1010.058	1.75
1010.781	2.75
1011.504	0.75
1012.228	-0.25
1012.951	-1.25
1013.674	0.75
1014.397	-0.25
1015.12	0.75
