节点500_705_QEPB04081__553__20-53-48-737.txt的数据

Date: Wed Nov 12 20:53:48 CST 2025
User: PC
Spectrometer: QEPB0408
触发模式: 0
积分时间 (秒): 1.000000E-2
Scans to average: 1
启用暗噪声校正: true
启用非线性校正: false
滑动平均宽度: 0
X轴模式: Wavelengths
Number of Pixels in Spectrum: 1044
>>>>>Begin Spectral Data<<<<<
220.843	3.88
221.644	5.88
222.444	4.88
223.244	3.88
224.045	7.88
224.845	7.88
225.645	7.88
226.445	5.88
227.245	5.88
228.045	7.88
228.845	7.88
229.645	7.88
230.444	6.88
231.244	8.88
232.043	8.88
232.843	8.88
233.642	8.88
234.442	9.88
235.241	12.88
236.04	10.88
236.839	9.88
237.638	7.88
238.437	10.88
239.236	10.88
240.035	12.88
240.833	7.88
241.632	11.88
242.43	12.88
243.229	13.88
244.027	10.88
244.826	13.88
245.624	13.88
246.422	13.88
247.22	13.88
248.018	13.88
248.816	13.88
249.614	16.88
250.412	12.88
251.21	14.88
252.007	14.88
252.805	15.88
253.602	14.88
254.4	14.88
255.197	15.88
255.994	16.88
256.791	15.88
257.589	18.88
258.386	17.88
259.183	19.88
259.979	20.88
260.776	22.88
261.573	18.88
262.37	25.88
263.166	20.88
263.963	22.88
264.759	18.88
265.556	22.88
266.352	22.88
267.148	22.88
267.944	29.88
268.74	24.88
269.536	24.88
270.332	28.88
271.128	25.88
271.924	28.88
272.719	26.88
273.515	31.88
274.311	31.88
275.106	30.88
275.901	30.88
276.697	30.88
277.492	30.88
278.287	29.88
279.082	30.88
279.877	30.88
280.672	30.88
281.467	29.88
282.262	29.88
283.056	29.88
283.851	34.88
284.646	31.88
285.44	29.88
286.234	30.88
287.029	29.88
287.823	30.88
288.617	30.88
289.411	29.88
290.205	29.88
290.999	27.88
291.793	31.88
292.587	32.88
293.381	26.88
294.174	31.88
294.968	28.88
295.761	27.88
296.555	27.88
297.348	23.88
298.141	24.88
298.935	28.88
299.728	25.88
300.521	22.88
301.314	26.88
302.107	21.88
302.899	20.88
303.692	24.88
304.485	24.88
305.277	18.88
306.07	21.88
306.862	21.88
307.655	20.88
308.447	18.88
309.239	18.88
310.031	18.88
310.823	17.88
311.615	18.88
312.407	17.88
313.199	16.88
313.991	14.88
314.783	17.88
315.574	15.88
316.366	14.88
317.157	15.88
317.949	13.88
318.74	14.88
319.531	14.88
320.322	14.88
321.113	15.88
321.904	15.88
322.695	12.88
323.486	14.88
324.277	12.88
325.068	12.88
325.858	12.88
326.649	15.88
327.439	13.88
328.23	12.88
329.02	13.88
329.81	12.88
330.6	12.88
331.391	12.88
332.181	10.88
332.971	9.88
333.76	11.88
334.55	12.88
335.34	12.88
336.13	13.88
336.919	9.88
337.709	12.88
338.498	8.88
339.287	10.88
340.077	12.88
340.866	10.88
341.655	8.88
342.444	11.88
343.233	12.88
344.022	9.88
344.811	12.88
345.6	11.88
346.388	12.88
347.177	13.88
347.965	9.88
348.754	12.88
349.542	10.88
350.33	10.88
351.119	10.88
351.907	10.88
352.695	10.88
353.483	7.88
354.271	11.88
355.059	12.88
355.846	10.88
356.634	10.88
357.422	7.88
358.209	9.88
358.997	10.88
359.784	10.88
360.571	8.88
361.359	9.88
362.146	9.88
362.933	8.88
363.72	10.88
364.507	12.88
365.294	7.88
366.081	11.88
366.867	7.88
367.654	10.88
368.44	7.88
369.227	8.88
370.013	11.88
370.8	9.88
371.586	8.88
372.372	7.88
373.158	5.88
373.944	9.88
374.73	8.88
375.516	8.88
376.302	7.88
377.088	10.88
377.873	11.88
378.659	9.88
379.445	8.88
380.23	8.88
381.015	10.88
381.801	5.88
382.586	10.88
383.371	9.88
384.156	9.88
384.941	11.88
385.726	9.88
386.511	10.88
387.296	8.88
388.08	9.88
388.865	11.88
389.649	10.88
390.434	11.88
391.218	10.88
392.003	11.88
392.787	10.88
393.571	10.88
394.355	11.88
395.139	9.88
395.923	10.88
396.707	10.88
397.491	11.88
398.274	11.88
399.058	11.88
399.842	12.88
400.625	12.88
401.408	12.88
402.192	13.88
402.975	12.88
403.758	13.88
404.541	11.88
405.324	12.88
406.107	13.88
406.89	14.88
407.673	12.88
408.456	10.88
409.238	14.88
410.021	15.88
410.803	15.88
411.586	15.88
412.368	16.88
413.151	15.88
413.933	14.88
414.715	17.88
415.497	14.88
416.279	16.88
417.061	18.88
417.843	18.88
418.624	17.88
419.406	15.88
420.188	19.88
420.969	17.88
421.751	19.88
422.532	21.88
423.313	21.88
424.095	22.88
424.876	22.88
425.657	24.88
426.438	22.88
427.219	23.88
428	26.88
428.78	26.88
429.561	26.88
430.342	29.88
431.122	32.88
431.903	30.88
432.683	34.88
433.464	33.88
434.244	34.88
435.024	39.88
435.804	39.88
436.584	41.88
437.364	49.88
438.144	48.88
438.924	53.88
439.704	54.88
440.483	58.88
441.263	64.88
442.042	66.88
442.822	69.88
443.601	78.88
444.38	83.88
445.16	88.88
445.939	99.88
446.718	105.88
447.497	116.88
448.276	128.88
449.054	139.88
449.833	153.88
450.612	165.88
451.391	194.88
452.169	210.88
452.948	234.88
453.726	261.88
454.504	280.88
455.282	311.88
456.061	347.88
456.839	387.88
457.617	440.88
458.395	491.88
459.172	540.88
459.95	596.88
460.728	668.88
461.506	740.88
462.283	820.88
463.061	912.88
463.838	1017.88
464.615	1122.88
465.393	1249.88
466.17	1378.88
466.947	1530.88
467.724	1714.88
468.501	1870.88
469.278	2066.88
470.055	2280.88
470.831	2498.88
471.608	2768.88
472.385	3026.88
473.161	3309.88
473.938	3609.88
474.714	3993.88
475.49	4333.88
476.266	4741.88
477.043	5183.88
477.819	5595.88
478.595	6103.88
479.371	6618.88
480.146	7182.88
480.922	7868.88
481.698	8491.88
482.473	9174.88
483.249	9931.88
484.024	10710.88
484.8	11670.88
485.575	12509.88
486.35	13551.88
487.126	14621.88
487.901	15691.88
488.676	16947.88
489.451	18176.88
490.225	19556.88
491	20927.88
491.775	22309.88
492.55	23822.88
493.324	25342.88
494.099	26964.88
494.873	28497.88
495.647	30107.88
496.422	31683.88
497.196	33326.88
497.97	34846.88
498.744	36343.88
499.518	37902.88
500.292	39258.88
501.066	40361.88
501.839	41310.88
502.613	42306.88
503.387	43031.88
504.16	43592.88
504.934	43985.88
505.707	44241.88
506.48	44020.88
507.253	43922.88
508.027	43552.88
508.8	42870.88
509.573	42125.88
510.346	41449.88
511.118	40551.88
511.891	39570.88
512.664	38296.88
513.437	37016.88
514.209	35839.88
514.982	34469.88
515.754	33275.88
516.526	32002.88
517.298	30640.88
518.071	29594.88
518.843	28448.88
519.615	27291.88
520.387	26234.88
521.159	25184.88
521.93	24200.88
522.702	23146.88
523.474	22229.88
524.245	21335.88
525.017	20456.88
525.788	19591.88
526.56	18847.88
527.331	18018.88
528.102	17119.88
528.873	16347.88
529.644	15528.88
530.415	14821.88
531.186	14166.88
531.957	13453.88
532.728	12788.88
533.498	12093.88
534.269	11510.88
535.039	10919.88
535.81	10338.88
536.58	9774.88
537.351	9265.88
538.121	8782.88
538.891	8323.88
539.661	7849.88
540.431	7437.88
541.201	7062.88
541.971	6739.88
542.741	6370.88
543.51	6020.88
544.28	5722.88
545.05	5440.88
545.819	5194.88
546.588	4978.88
547.358	4731.88
548.127	4490.88
548.896	4257.88
549.665	4061.88
550.434	3872.88
551.203	3636.88
551.972	3481.88
552.741	3290.88
553.51	3106.88
554.278	2912.88
555.047	2769.88
555.815	2633.88
556.584	2496.88
557.352	2337.88
558.121	2227.88
558.889	2097.88
559.657	1997.88
560.425	1877.88
561.193	1793.88
561.961	1689.88
562.729	1586.88
563.496	1507.88
564.264	1433.88
565.032	1348.88
565.799	1270.88
566.567	1210.88
567.334	1138.88
568.101	1075.88
568.869	1023.88
569.636	969.88
570.403	908.88
571.17	842.88
571.937	814.88
572.704	757.88
573.471	723.88
574.237	678.88
575.004	640.88
575.771	598.88
576.537	562.88
577.303	545.88
578.07	499.88
578.836	480.88
579.602	454.88
580.368	430.88
581.134	420.88
581.9	394.88
582.666	371.88
583.432	354.88
584.198	336.88
584.964	318.88
585.729	291.88
586.495	284.88
587.26	268.88
588.025	260.88
588.791	243.88
589.556	227.88
590.321	217.88
591.086	208.88
591.851	193.88
592.616	185.88
593.381	179.88
594.146	169.88
594.911	157.88
595.675	150.88
596.44	149.88
597.204	136.88
597.969	133.88
598.733	134.88
599.497	123.88
600.261	118.88
601.025	113.88
601.79	108.88
602.553	100.88
603.317	99.88
604.081	96.88
604.845	95.88
605.609	92.88
606.372	82.88
607.136	81.88
607.899	80.88
608.662	78.88
609.426	73.88
610.189	66.88
610.952	65.88
611.715	63.88
612.478	61.88
613.241	59.88
614.004	55.88
614.767	58.88
615.529	54.88
616.292	52.88
617.055	51.88
617.817	49.88
618.579	47.88
619.342	45.88
620.104	42.88
620.866	41.88
621.628	41.88
622.39	37.88
623.152	41.88
623.914	34.88
624.676	32.88
625.438	34.88
626.199	33.88
626.961	30.88
627.722	30.88
628.484	32.88
629.245	26.88
630.006	29.88
630.768	28.88
631.529	27.88
632.29	26.88
633.051	26.88
633.812	23.88
634.573	25.88
635.333	22.88
636.094	21.88
636.855	19.88
637.615	20.88
638.376	22.88
639.136	18.88
639.896	20.88
640.657	16.88
641.417	20.88
642.177	16.88
642.937	17.88
643.697	19.88
644.457	19.88
645.216	17.88
645.976	14.88
646.736	17.88
647.495	18.88
648.255	14.88
649.014	14.88
649.774	14.88
650.533	16.88
651.292	11.88
652.051	14.88
652.81	11.88
653.569	12.88
654.328	14.88
655.087	10.88
655.846	10.88
656.604	14.88
657.363	11.88
658.121	11.88
658.88	9.88
659.638	10.88
660.397	12.88
661.155	9.88
661.913	9.88
662.671	9.88
663.429	11.88
664.187	11.88
664.945	11.88
665.703	8.88
666.46	9.88
667.218	9.88
667.976	8.88
668.733	9.88
669.49	10.88
670.248	8.88
671.005	6.88
671.762	8.88
672.519	9.88
673.276	7.88
674.033	8.88
674.79	9.88
675.547	5.88
676.304	6.88
677.06	7.88
677.817	9.88
678.574	7.88
679.33	8.88
680.086	8.88
680.843	6.88
681.599	9.88
682.355	6.88
683.111	7.88
683.867	8.88
684.623	9.88
685.379	8.88
686.135	6.88
686.89	8.88
687.646	7.88
688.402	8.88
689.157	6.88
689.912	4.88
690.668	6.88
691.423	5.88
692.178	7.88
692.933	7.88
693.688	7.88
694.443	9.88
695.198	7.88
695.953	5.88
696.708	5.88
697.462	7.88
698.217	9.88
698.972	6.88
699.726	4.88
700.48	8.88
701.235	6.88
701.989	8.88
702.743	6.88
703.497	7.88
704.251	6.88
705.005	8.88
705.759	5.88
706.513	6.88
707.266	8.88
708.02	6.88
708.774	5.88
709.527	8.88
710.28	5.88
711.034	5.88
711.787	6.88
712.54	7.88
713.293	8.88
714.046	7.88
714.799	4.88
715.552	7.88
716.305	6.88
717.058	4.88
717.81	8.88
718.563	7.88
719.315	6.88
720.068	8.88
720.82	7.88
721.573	7.88
722.325	7.88
723.077	7.88
723.829	5.88
724.581	8.88
725.333	7.88
726.085	8.88
726.836	7.88
727.588	6.88
728.34	6.88
729.091	7.88
729.843	7.88
730.594	7.88
731.346	8.88
732.097	9.88
732.848	7.88
733.599	8.88
734.35	8.88
735.101	7.88
735.852	8.88
736.603	7.88
737.354	8.88
738.104	8.88
738.855	9.88
739.605	8.88
740.356	8.88
741.106	7.88
741.856	6.88
742.607	6.88
743.357	7.88
744.107	9.88
744.857	8.88
745.607	10.88
746.357	8.88
747.106	10.88
747.856	8.88
748.606	8.88
749.355	9.88
750.105	8.88
750.854	6.88
751.603	9.88
752.353	8.88
753.102	11.88
753.851	7.88
754.6	11.88
755.349	10.88
756.098	12.88
756.847	9.88
757.595	10.88
758.344	11.88
759.093	10.88
759.841	9.88
760.589	11.88
761.338	11.88
762.086	12.88
762.834	11.88
763.582	11.88
764.331	10.88
765.079	12.88
765.826	11.88
766.574	10.88
767.322	10.88
768.07	11.88
768.817	13.88
769.565	12.88
770.312	14.88
771.06	14.88
771.807	11.88
772.554	12.88
773.302	12.88
774.049	12.88
774.796	12.88
775.543	13.88
776.29	16.88
777.036	12.88
777.783	13.88
778.53	12.88
779.276	15.88
780.023	14.88
780.769	11.88
781.516	13.88
782.262	14.88
783.008	16.88
783.754	14.88
784.5	12.88
785.246	12.88
785.992	13.88
786.738	13.88
787.484	12.88
788.23	13.88
788.975	14.88
789.721	13.88
790.466	14.88
791.212	10.88
791.957	12.88
792.702	12.88
793.447	11.88
794.193	12.88
794.938	13.88
795.683	10.88
796.427	13.88
797.172	10.88
797.917	14.88
798.662	14.88
799.406	12.88
800.151	10.88
800.895	11.88
801.64	13.88
802.384	11.88
803.128	13.88
803.872	8.88
804.616	9.88
805.36	10.88
806.104	11.88
806.848	12.88
807.592	8.88
808.336	10.88
809.079	9.88
809.823	9.88
810.566	10.88
811.31	7.88
812.053	7.88
812.796	6.88
813.539	8.88
814.283	8.88
815.026	7.88
815.769	7.88
816.511	7.88
817.254	7.88
817.997	6.88
818.74	6.88
819.482	7.88
820.225	8.88
820.967	8.88
821.71	4.88
822.452	8.88
823.194	6.88
823.936	4.88
824.678	7.88
825.42	8.88
826.162	4.88
826.904	6.88
827.646	8.88
828.388	7.88
829.129	6.88
829.871	4.88
830.612	7.88
831.354	5.88
832.095	6.88
832.836	6.88
833.577	6.88
834.319	2.88
835.06	5.88
835.801	4.88
836.542	6.88
837.282	6.88
838.023	5.88
838.764	5.88
839.504	5.88
840.245	7.88
840.985	3.88
841.726	5.88
842.466	4.88
843.206	4.88
843.946	4.88
844.687	5.88
845.427	5.88
846.166	7.88
846.906	6.88
847.646	6.88
848.386	4.88
849.125	5.88
849.865	4.88
850.605	3.88
851.344	1.88
852.083	4.88
852.823	3.88
853.562	4.88
854.301	5.88
855.04	3.88
855.779	5.88
856.518	4.88
857.257	4.88
857.995	4.88
858.734	4.88
859.473	5.88
860.211	2.88
860.95	5.88
861.688	2.88
862.426	1.88
863.165	3.88
863.903	2.88
864.641	3.88
865.379	1.88
866.117	4.88
866.855	1.88
867.593	2.88
868.33	1.88
869.068	1.88
869.806	3.88
870.543	4.88
871.28	0.88
872.018	2.88
872.755	0.88
873.492	1.88
874.229	1.88
874.967	0.88
875.703	1.88
876.44	1.88
877.177	1.88
877.914	2.88
878.651	4.88
879.387	2.88
880.124	2.88
880.86	0.88
881.597	0.88
882.333	2.88
883.069	1.88
883.806	2.88
884.542	2.88
885.278	0.88
886.014	1.88
886.749	-0.12
887.485	2.88
888.221	-1.12
888.957	0.88
889.692	1.88
890.428	0.88
891.163	0.88
891.899	0.88
892.634	3.88
893.369	0.88
894.104	-0.12
894.839	0.88
895.574	1.88
896.309	2.88
897.044	-1.12
897.779	1.88
898.514	4.88
899.248	-0.12
899.983	0.88
900.717	0.88
901.452	-0.12
902.186	1.88
902.92	0.88
903.654	-0.12
904.389	0.88
905.123	2.88
905.857	-1.12
906.59	-0.12
907.324	1.88
908.058	-0.12
908.792	1.88
909.525	-0.12
910.259	1.88
910.992	-0.12
911.726	0.88
912.459	1.88
913.192	-0.12
913.925	1.88
914.658	0.88
915.391	-0.12
916.124	0.88
916.857	-0.12
917.59	1.88
918.323	-0.12
919.055	-0.12
919.788	0.88
920.521	-1.12
921.253	-0.12
921.985	-1.12
922.718	1.88
923.45	-0.12
924.182	0.88
924.914	-1.12
925.646	-1.12
926.378	-0.12
927.11	0.88
927.841	0.88
928.573	0.88
929.305	-1.12
930.036	0.88
930.768	-0.12
931.499	-1.12
932.23	-0.12
932.962	0.88
933.693	-0.12
934.424	-1.12
935.155	1.88
935.886	-1.12
936.617	-0.12
937.348	-1.12
938.078	-0.12
938.809	-0.12
939.54	-1.12
940.27	0.88
941.001	-1.12
941.731	0.88
942.461	-1.12
943.191	1.88
943.922	-0.12
944.652	1.88
945.382	0.88
946.112	0.88
946.841	-0.12
947.571	2.88
948.301	0.88
949.031	0.88
949.76	-2.12
950.49	-1.12
951.219	-3.12
951.948	-0.12
952.678	-0.12
953.407	-1.12
954.136	0.88
954.865	0.88
955.594	1.88
956.323	-0.12
957.052	-0.12
957.78	-1.12
958.509	0.88
959.238	0.88
959.966	-0.12
960.695	-1.12
961.423	0.88
962.151	-0.12
962.88	-0.12
963.608	0.88
964.336	1.88
965.064	0.88
965.792	0.88
966.52	0.88
967.247	-1.12
967.975	-1.12
968.703	1.88
969.43	0.88
970.158	-2.12
970.885	0.88
971.613	0.88
972.34	-0.12
973.067	1.88
973.794	-2.12
974.521	-0.12
975.248	1.88
975.975	-1.12
976.702	0.88
977.429	2.88
978.156	2.88
978.882	-1.12
979.609	1.88
980.335	0.88
981.062	-0.12
981.788	-1.12
982.514	-1.12
983.24	0.88
983.967	0.88
984.693	-0.12
985.419	0.88
986.144	-0.12
986.87	-1.12
987.596	-0.12
988.322	0.88
989.047	1.88
989.773	-0.12
990.498	0.88
991.224	-1.12
991.949	-0.12
992.674	-0.12
993.399	-1.12
994.124	-1.12
994.849	1.88
995.574	0.88
996.299	0.88
997.024	1.88
997.749	-0.12
998.473	2.88
999.198	-0.12
999.922	-0.12
1000.647	0.88
1001.371	2.88
1002.095	-1.12
1002.82	0.88
1003.544	-1.12
1004.268	2.88
1004.992	5.88
1005.716	4.88
1006.439	2.88
1007.163	4.88
1007.887	4.88
1008.611	0.88
1009.334	-1.12
1010.058	0.88
1010.781	1.88
1011.504	-0.12
1012.228	0.88
1012.951	-1.12
1013.674	-1.12
1014.397	0.88
1015.12	-0.12
