节点500_705_QEPB04081__208__20-48-58-495.txt的数据

Date: Wed Nov 12 20:48:58 CST 2025
User: PC
Spectrometer: QEPB0408
触发模式: 0
积分时间 (秒): 1.000000E-2
Scans to average: 1
启用暗噪声校正: true
启用非线性校正: false
滑动平均宽度: 0
X轴模式: Wavelengths
Number of Pixels in Spectrum: 1044
>>>>>Begin Spectral Data<<<<<
220.843	7.12
221.644	5.12
222.444	4.12
223.244	5.12
224.045	6.12
224.845	9.12
225.645	8.12
226.445	6.12
227.245	7.12
228.045	5.12
228.845	7.12
229.645	8.12
230.444	10.12
231.244	11.12
232.043	10.12
232.843	10.12
233.642	9.12
234.442	12.12
235.241	9.12
236.04	9.12
236.839	9.12
237.638	10.12
238.437	12.12
239.236	10.12
240.035	11.12
240.833	13.12
241.632	12.12
242.43	12.12
243.229	14.12
244.027	17.12
244.826	13.12
245.624	13.12
246.422	14.12
247.22	16.12
248.018	13.12
248.816	16.12
249.614	15.12
250.412	15.12
251.21	15.12
252.007	18.12
252.805	20.12
253.602	20.12
254.4	18.12
255.197	21.12
255.994	17.12
256.791	22.12
257.589	22.12
258.386	21.12
259.183	24.12
259.979	24.12
260.776	24.12
261.573	22.12
262.37	25.12
263.166	26.12
263.963	25.12
264.759	28.12
265.556	29.12
266.352	28.12
267.148	31.12
267.944	30.12
268.74	34.12
269.536	32.12
270.332	33.12
271.128	32.12
271.924	32.12
272.719	36.12
273.515	33.12
274.311	33.12
275.106	34.12
275.901	38.12
276.697	33.12
277.492	39.12
278.287	35.12
279.082	35.12
279.877	35.12
280.672	35.12
281.467	37.12
282.262	33.12
283.056	34.12
283.851	40.12
284.646	32.12
285.44	34.12
286.234	34.12
287.029	34.12
287.823	35.12
288.617	33.12
289.411	33.12
290.205	31.12
290.999	33.12
291.793	33.12
292.587	32.12
293.381	33.12
294.174	31.12
294.968	31.12
295.761	24.12
296.555	27.12
297.348	27.12
298.141	27.12
298.935	32.12
299.728	27.12
300.521	26.12
301.314	25.12
302.107	25.12
302.899	20.12
303.692	22.12
304.485	22.12
305.277	23.12
306.07	22.12
306.862	24.12
307.655	24.12
308.447	24.12
309.239	20.12
310.031	20.12
310.823	21.12
311.615	19.12
312.407	19.12
313.199	15.12
313.991	18.12
314.783	17.12
315.574	17.12
316.366	18.12
317.157	15.12
317.949	15.12
318.74	14.12
319.531	16.12
320.322	16.12
321.113	15.12
321.904	15.12
322.695	14.12
323.486	14.12
324.277	11.12
325.068	14.12
325.858	15.12
326.649	12.12
327.439	14.12
328.23	11.12
329.02	15.12
329.81	12.12
330.6	13.12
331.391	12.12
332.181	11.12
332.971	13.12
333.76	12.12
334.55	11.12
335.34	12.12
336.13	13.12
336.919	12.12
337.709	12.12
338.498	12.12
339.287	12.12
340.077	12.12
340.866	12.12
341.655	12.12
342.444	13.12
343.233	11.12
344.022	13.12
344.811	9.12
345.6	14.12
346.388	11.12
347.177	12.12
347.965	12.12
348.754	11.12
349.542	12.12
350.33	11.12
351.119	11.12
351.907	9.12
352.695	10.12
353.483	10.12
354.271	10.12
355.059	9.12
355.846	11.12
356.634	12.12
357.422	13.12
358.209	10.12
358.997	10.12
359.784	9.12
360.571	11.12
361.359	12.12
362.146	9.12
362.933	11.12
363.72	13.12
364.507	10.12
365.294	12.12
366.081	11.12
366.867	10.12
367.654	9.12
368.44	10.12
369.227	9.12
370.013	11.12
370.8	10.12
371.586	8.12
372.372	12.12
373.158	8.12
373.944	12.12
374.73	10.12
375.516	8.12
376.302	12.12
377.088	10.12
377.873	12.12
378.659	10.12
379.445	10.12
380.23	10.12
381.015	12.12
381.801	12.12
382.586	11.12
383.371	11.12
384.156	13.12
384.941	12.12
385.726	13.12
386.511	11.12
387.296	10.12
388.08	11.12
388.865	12.12
389.649	12.12
390.434	14.12
391.218	11.12
392.003	13.12
392.787	12.12
393.571	11.12
394.355	12.12
395.139	11.12
395.923	14.12
396.707	11.12
397.491	13.12
398.274	15.12
399.058	14.12
399.842	11.12
400.625	12.12
401.408	13.12
402.192	16.12
402.975	14.12
403.758	17.12
404.541	16.12
405.324	15.12
406.107	15.12
406.89	14.12
407.673	17.12
408.456	14.12
409.238	15.12
410.021	17.12
410.803	16.12
411.586	19.12
412.368	19.12
413.151	19.12
413.933	20.12
414.715	18.12
415.497	17.12
416.279	15.12
417.061	19.12
417.843	23.12
418.624	19.12
419.406	23.12
420.188	19.12
420.969	25.12
421.751	22.12
422.532	25.12
423.313	24.12
424.095	23.12
424.876	27.12
425.657	25.12
426.438	28.12
427.219	29.12
428	27.12
428.78	27.12
429.561	29.12
430.342	35.12
431.122	33.12
431.903	36.12
432.683	33.12
433.464	38.12
434.244	37.12
435.024	39.12
435.804	42.12
436.584	43.12
437.364	47.12
438.144	47.12
438.924	48.12
439.704	52.12
440.483	52.12
441.263	62.12
442.042	67.12
442.822	68.12
443.601	75.12
444.38	77.12
445.16	88.12
445.939	97.12
446.718	98.12
447.497	108.12
448.276	119.12
449.054	130.12
449.833	139.12
450.612	155.12
451.391	174.12
452.169	189.12
452.948	217.12
453.726	226.12
454.504	259.12
455.282	287.12
456.061	319.12
456.839	361.12
457.617	394.12
458.395	440.12
459.172	489.12
459.95	556.12
460.728	611.12
461.506	703.12
462.283	761.12
463.061	869.12
463.838	952.12
464.615	1070.12
465.393	1193.12
466.17	1319.12
466.947	1483.12
467.724	1650.12
468.501	1822.12
469.278	2013.12
470.055	2262.12
470.831	2486.12
471.608	2751.12
472.385	3018.12
473.161	3353.12
473.938	3688.12
474.714	4080.12
475.49	4462.12
476.266	4925.12
477.043	5389.12
477.819	5895.12
478.595	6482.12
479.371	7114.12
480.146	7734.12
480.922	8529.12
481.698	9225.12
482.473	10129.12
483.249	10988.12
484.024	12013.12
484.8	13038.12
485.575	14148.12
486.35	15413.12
487.126	16698.12
487.901	18085.12
488.676	19538.12
489.451	21130.12
490.225	22735.12
491	24445.12
491.775	26165.12
492.55	27996.12
493.324	29771.12
494.099	31594.12
494.873	33537.12
495.647	35421.12
496.422	37273.12
497.196	39194.12
497.97	40834.12
498.744	42321.12
499.518	43951.12
500.292	45230.12
501.066	46240.12
501.839	47089.12
502.613	47721.12
503.387	48288.12
504.16	48601.12
504.934	48542.12
505.707	48359.12
506.48	47838.12
507.253	47141.12
508.027	46303.12
508.8	45148.12
509.573	43991.12
510.346	42887.12
511.118	41704.12
511.891	40357.12
512.664	38720.12
513.437	37236.12
514.209	35790.12
514.982	34312.12
515.754	32899.12
516.526	31517.12
517.298	30256.12
518.071	29026.12
518.843	27853.12
519.615	26754.12
520.387	25657.12
521.159	24623.12
521.93	23593.12
522.702	22604.12
523.474	21626.12
524.245	20731.12
525.017	19775.12
525.788	18879.12
526.56	18100.12
527.331	17240.12
528.102	16393.12
528.873	15582.12
529.644	14794.12
530.415	14070.12
531.186	13406.12
531.957	12686.12
532.728	12019.12
533.498	11400.12
534.269	10758.12
535.039	10210.12
535.81	9679.12
536.58	9115.12
537.351	8602.12
538.121	8162.12
538.891	7762.12
539.661	7349.12
540.431	6898.12
541.201	6565.12
541.971	6215.12
542.741	5907.12
543.51	5589.12
544.28	5342.12
545.05	5080.12
545.819	4845.12
546.588	4591.12
547.358	4391.12
548.127	4172.12
548.896	3948.12
549.665	3721.12
550.434	3526.12
551.203	3377.12
551.972	3183.12
552.741	2984.12
553.51	2841.12
554.278	2691.12
555.047	2535.12
555.815	2380.12
556.584	2258.12
557.352	2153.12
558.121	2032.12
558.889	1893.12
559.657	1799.12
560.425	1704.12
561.193	1619.12
561.961	1533.12
562.729	1431.12
563.496	1347.12
564.264	1285.12
565.032	1217.12
565.799	1149.12
566.567	1075.12
567.334	1030.12
568.101	966.12
568.869	907.12
569.636	871.12
570.403	832.12
571.17	771.12
571.937	738.12
572.704	689.12
573.471	647.12
574.237	621.12
575.004	584.12
575.771	535.12
576.537	516.12
577.303	492.12
578.07	464.12
578.836	429.12
579.602	408.12
580.368	395.12
581.134	378.12
581.9	353.12
582.666	333.12
583.432	319.12
584.198	314.12
584.964	290.12
585.729	274.12
586.495	267.12
587.26	242.12
588.025	233.12
588.791	219.12
589.556	199.12
590.321	200.12
591.086	186.12
591.851	183.12
592.616	176.12
593.381	166.12
594.146	156.12
594.911	148.12
595.675	139.12
596.44	136.12
597.204	129.12
597.969	127.12
598.733	119.12
599.497	114.12
600.261	104.12
601.025	101.12
601.79	100.12
602.553	97.12
603.317	89.12
604.081	87.12
604.845	85.12
605.609	84.12
606.372	76.12
607.136	75.12
607.899	74.12
608.662	70.12
609.426	63.12
610.189	67.12
610.952	61.12
611.715	61.12
612.478	58.12
613.241	57.12
614.004	57.12
614.767	54.12
615.529	53.12
616.292	50.12
617.055	46.12
617.817	44.12
618.579	43.12
619.342	41.12
620.104	41.12
620.866	38.12
621.628	39.12
622.39	38.12
623.152	35.12
623.914	36.12
624.676	33.12
625.438	30.12
626.199	30.12
626.961	33.12
627.722	29.12
628.484	27.12
629.245	29.12
630.006	29.12
630.768	25.12
631.529	24.12
632.29	23.12
633.051	26.12
633.812	26.12
634.573	26.12
635.333	21.12
636.094	22.12
636.855	22.12
637.615	19.12
638.376	21.12
639.136	20.12
639.896	17.12
640.657	17.12
641.417	15.12
642.177	19.12
642.937	19.12
643.697	20.12
644.457	18.12
645.216	15.12
645.976	15.12
646.736	13.12
647.495	18.12
648.255	16.12
649.014	17.12
649.774	14.12
650.533	11.12
651.292	12.12
652.051	14.12
652.81	15.12
653.569	13.12
654.328	11.12
655.087	12.12
655.846	14.12
656.604	13.12
657.363	11.12
658.121	12.12
658.88	12.12
659.638	12.12
660.397	13.12
661.155	11.12
661.913	11.12
662.671	11.12
663.429	11.12
664.187	12.12
664.945	11.12
665.703	10.12
666.46	10.12
667.218	9.12
667.976	9.12
668.733	11.12
669.49	10.12
670.248	8.12
671.005	9.12
671.762	12.12
672.519	10.12
673.276	10.12
674.033	9.12
674.79	5.12
675.547	9.12
676.304	11.12
677.06	7.12
677.817	7.12
678.574	8.12
679.33	8.12
680.086	7.12
680.843	10.12
681.599	9.12
682.355	10.12
683.111	8.12
683.867	8.12
684.623	9.12
685.379	7.12
686.135	7.12
686.89	5.12
687.646	7.12
688.402	8.12
689.157	8.12
689.912	9.12
690.668	7.12
691.423	7.12
692.178	9.12
692.933	10.12
693.688	7.12
694.443	7.12
695.198	7.12
695.953	10.12
696.708	8.12
697.462	7.12
698.217	9.12
698.972	9.12
699.726	9.12
700.48	5.12
701.235	8.12
701.989	6.12
702.743	8.12
703.497	7.12
704.251	10.12
705.005	10.12
705.759	8.12
706.513	7.12
707.266	6.12
708.02	7.12
708.774	9.12
709.527	8.12
710.28	8.12
711.034	7.12
711.787	9.12
712.54	8.12
713.293	8.12
714.046	10.12
714.799	7.12
715.552	7.12
716.305	8.12
717.058	8.12
717.81	6.12
718.563	12.12
719.315	9.12
720.068	8.12
720.82	9.12
721.573	7.12
722.325	8.12
723.077	10.12
723.829	7.12
724.581	11.12
725.333	8.12
726.085	10.12
726.836	10.12
727.588	10.12
728.34	6.12
729.091	9.12
729.843	10.12
730.594	7.12
731.346	9.12
732.097	9.12
732.848	5.12
733.599	9.12
734.35	8.12
735.101	10.12
735.852	10.12
736.603	10.12
737.354	8.12
738.104	9.12
738.855	11.12
739.605	8.12
740.356	13.12
741.106	9.12
741.856	12.12
742.607	9.12
743.357	12.12
744.107	8.12
744.857	11.12
745.607	10.12
746.357	12.12
747.106	11.12
747.856	11.12
748.606	9.12
749.355	11.12
750.105	13.12
750.854	11.12
751.603	11.12
752.353	13.12
753.102	11.12
753.851	11.12
754.6	12.12
755.349	12.12
756.098	13.12
756.847	10.12
757.595	11.12
758.344	11.12
759.093	11.12
759.841	14.12
760.589	14.12
761.338	13.12
762.086	14.12
762.834	15.12
763.582	12.12
764.331	14.12
765.079	17.12
765.826	15.12
766.574	13.12
767.322	16.12
768.07	13.12
768.817	17.12
769.565	15.12
770.312	16.12
771.06	15.12
771.807	17.12
772.554	16.12
773.302	15.12
774.049	15.12
774.796	17.12
775.543	15.12
776.29	16.12
777.036	14.12
777.783	18.12
778.53	18.12
779.276	18.12
780.023	17.12
780.769	17.12
781.516	16.12
782.262	14.12
783.008	17.12
783.754	16.12
784.5	17.12
785.246	14.12
785.992	16.12
786.738	17.12
787.484	16.12
788.23	16.12
788.975	17.12
789.721	16.12
790.466	17.12
791.212	12.12
791.957	17.12
792.702	12.12
793.447	15.12
794.193	14.12
794.938	13.12
795.683	14.12
796.427	13.12
797.172	13.12
797.917	13.12
798.662	14.12
799.406	15.12
800.151	13.12
800.895	14.12
801.64	12.12
802.384	12.12
803.128	14.12
803.872	14.12
804.616	11.12
805.36	12.12
806.104	10.12
806.848	13.12
807.592	11.12
808.336	11.12
809.079	10.12
809.823	11.12
810.566	11.12
811.31	10.12
812.053	9.12
812.796	11.12
813.539	9.12
814.283	9.12
815.026	10.12
815.769	9.12
816.511	6.12
817.254	9.12
817.997	8.12
818.74	9.12
819.482	7.12
820.225	6.12
820.967	8.12
821.71	7.12
822.452	5.12
823.194	5.12
823.936	12.12
824.678	5.12
825.42	6.12
826.162	8.12
826.904	7.12
827.646	6.12
828.388	6.12
829.129	8.12
829.871	4.12
830.612	5.12
831.354	10.12
832.095	6.12
832.836	9.12
833.577	6.12
834.319	7.12
835.06	7.12
835.801	7.12
836.542	7.12
837.282	6.12
838.023	4.12
838.764	7.12
839.504	5.12
840.245	6.12
840.985	6.12
841.726	6.12
842.466	5.12
843.206	6.12
843.946	6.12
844.687	5.12
845.427	6.12
846.166	5.12
846.906	6.12
847.646	5.12
848.386	7.12
849.125	6.12
849.865	4.12
850.605	6.12
851.344	5.12
852.083	5.12
852.823	5.12
853.562	5.12
854.301	5.12
855.04	3.12
855.779	5.12
856.518	3.12
857.257	5.12
857.995	3.12
858.734	3.12
859.473	5.12
860.211	6.12
860.95	3.12
861.688	5.12
862.426	3.12
863.165	3.12
863.903	4.12
864.641	4.12
865.379	3.12
866.117	1.12
866.855	3.12
867.593	0.12
868.33	3.12
869.068	4.12
869.806	3.12
870.543	6.12
871.28	2.12
872.018	4.12
872.755	3.12
873.492	3.12
874.229	2.12
874.967	1.12
875.703	3.12
876.44	2.12
877.177	4.12
877.914	3.12
878.651	1.12
879.387	4.12
880.124	0.12
880.86	3.12
881.597	2.12
882.333	5.12
883.069	3.12
883.806	3.12
884.542	3.12
885.278	0.12
886.014	3.12
886.749	3.12
887.485	-0.88
888.221	4.12
888.957	1.12
889.692	3.12
890.428	1.12
891.163	1.12
891.899	-0.88
892.634	1.12
893.369	2.12
894.104	0.12
894.839	2.12
895.574	1.12
896.309	2.12
897.044	4.12
897.779	2.12
898.514	3.12
899.248	1.12
899.983	2.12
900.717	-0.88
901.452	1.12
902.186	1.12
902.92	1.12
903.654	1.12
904.389	1.12
905.123	-0.88
905.857	2.12
906.59	2.12
907.324	3.12
908.058	1.12
908.792	1.12
909.525	1.12
910.259	1.12
910.992	2.12
911.726	-0.88
912.459	0.12
913.192	0.12
913.925	1.12
914.658	0.12
915.391	0.12
916.124	2.12
916.857	0.12
917.59	1.12
918.323	1.12
919.055	0.12
919.788	-0.88
920.521	1.12
921.253	2.12
921.985	1.12
922.718	1.12
923.45	2.12
924.182	1.12
924.914	-0.88
925.646	0.12
926.378	1.12
927.11	-0.88
927.841	2.12
928.573	0.12
929.305	3.12
930.036	2.12
930.768	-1.88
931.499	3.12
932.23	1.12
932.962	0.12
933.693	1.12
934.424	0.12
935.155	0.12
935.886	2.12
936.617	1.12
937.348	0.12
938.078	1.12
938.809	1.12
939.54	1.12
940.27	2.12
941.001	2.12
941.731	1.12
942.461	2.12
943.191	1.12
943.922	0.12
944.652	2.12
945.382	2.12
946.112	-0.88
946.841	1.12
947.571	-0.88
948.301	1.12
949.031	-0.88
949.76	3.12
950.49	-0.88
951.219	3.12
951.948	1.12
952.678	2.12
953.407	-0.88
954.136	0.12
954.865	-0.88
955.594	0.12
956.323	0.12
957.052	0.12
957.78	1.12
958.509	-0.88
959.238	2.12
959.966	1.12
960.695	0.12
961.423	1.12
962.151	1.12
962.88	2.12
963.608	1.12
964.336	0.12
965.064	3.12
965.792	-0.88
966.52	2.12
967.247	-1.88
967.975	1.12
968.703	-1.88
969.43	1.12
970.158	0.12
970.885	-0.88
971.613	3.12
972.34	-1.88
973.067	-0.88
973.794	2.12
974.521	1.12
975.248	1.12
975.975	2.12
976.702	1.12
977.429	2.12
978.156	2.12
978.882	3.12
979.609	1.12
980.335	0.12
981.062	0.12
981.788	1.12
982.514	0.12
983.24	0.12
983.967	2.12
984.693	-1.88
985.419	1.12
986.144	-0.88
986.87	-1.88
987.596	1.12
988.322	-1.88
989.047	1.12
989.773	1.12
990.498	-0.88
991.224	1.12
991.949	1.12
992.674	3.12
993.399	0.12
994.124	1.12
994.849	1.12
995.574	-1.88
996.299	1.12
997.024	0.12
997.749	2.12
998.473	0.12
999.198	-0.88
999.922	-0.88
1000.647	1.12
1001.371	4.12
1002.095	-0.88
1002.82	-2.88
1003.544	0.12
1004.268	5.12
1004.992	4.12
1005.716	4.12
1006.439	6.12
1007.163	4.12
1007.887	5.12
1008.611	-0.88
1009.334	2.12
1010.058	3.12
1010.781	2.12
1011.504	0.12
1012.228	2.12
1012.951	-0.88
1013.674	0.12
1014.397	0.12
1015.12	0.12
