节点500_705_QEPB04081__649__20-55-08-838.txt的数据

Date: Wed Nov 12 20:55:08 CST 2025
User: PC
Spectrometer: QEPB0408
触发模式: 0
积分时间 (秒): 1.000000E-2
Scans to average: 1
启用暗噪声校正: true
启用非线性校正: false
滑动平均宽度: 0
X轴模式: Wavelengths
Number of Pixels in Spectrum: 1044
>>>>>Begin Spectral Data<<<<<
220.843	6.25
221.644	6.25
222.444	7.25
223.244	6.25
224.045	8.25
224.845	5.25
225.645	6.25
226.445	6.25
227.245	7.25
228.045	8.25
228.845	8.25
229.645	6.25
230.444	9.25
231.244	8.25
232.043	9.25
232.843	8.25
233.642	9.25
234.442	10.25
235.241	10.25
236.04	10.25
236.839	9.25
237.638	10.25
238.437	8.25
239.236	8.25
240.035	12.25
240.833	8.25
241.632	12.25
242.43	12.25
243.229	11.25
244.027	11.25
244.826	11.25
245.624	13.25
246.422	11.25
247.22	14.25
248.018	12.25
248.816	14.25
249.614	13.25
250.412	11.25
251.21	14.25
252.007	16.25
252.805	18.25
253.602	15.25
254.4	16.25
255.197	19.25
255.994	19.25
256.791	16.25
257.589	18.25
258.386	18.25
259.183	18.25
259.979	18.25
260.776	21.25
261.573	21.25
262.37	18.25
263.166	22.25
263.963	24.25
264.759	23.25
265.556	24.25
266.352	26.25
267.148	26.25
267.944	25.25
268.74	25.25
269.536	24.25
270.332	26.25
271.128	27.25
271.924	25.25
272.719	31.25
273.515	27.25
274.311	28.25
275.106	30.25
275.901	27.25
276.697	30.25
277.492	28.25
278.287	30.25
279.082	33.25
279.877	32.25
280.672	34.25
281.467	32.25
282.262	31.25
283.056	32.25
283.851	30.25
284.646	31.25
285.44	32.25
286.234	35.25
287.029	32.25
287.823	34.25
288.617	30.25
289.411	30.25
290.205	29.25
290.999	32.25
291.793	31.25
292.587	30.25
293.381	28.25
294.174	27.25
294.968	30.25
295.761	27.25
296.555	26.25
297.348	22.25
298.141	27.25
298.935	30.25
299.728	24.25
300.521	25.25
301.314	25.25
302.107	23.25
302.899	21.25
303.692	22.25
304.485	24.25
305.277	19.25
306.07	23.25
306.862	24.25
307.655	19.25
308.447	22.25
309.239	22.25
310.031	21.25
310.823	22.25
311.615	19.25
312.407	17.25
313.199	18.25
313.991	16.25
314.783	18.25
315.574	15.25
316.366	16.25
317.157	16.25
317.949	16.25
318.74	16.25
319.531	15.25
320.322	14.25
321.113	12.25
321.904	9.25
322.695	14.25
323.486	15.25
324.277	10.25
325.068	13.25
325.858	14.25
326.649	13.25
327.439	14.25
328.23	13.25
329.02	14.25
329.81	14.25
330.6	11.25
331.391	15.25
332.181	14.25
332.971	12.25
333.76	11.25
334.55	12.25
335.34	12.25
336.13	11.25
336.919	12.25
337.709	10.25
338.498	12.25
339.287	12.25
340.077	11.25
340.866	11.25
341.655	10.25
342.444	11.25
343.233	11.25
344.022	12.25
344.811	12.25
345.6	9.25
346.388	12.25
347.177	11.25
347.965	11.25
348.754	10.25
349.542	10.25
350.33	12.25
351.119	11.25
351.907	12.25
352.695	11.25
353.483	10.25
354.271	12.25
355.059	11.25
355.846	13.25
356.634	8.25
357.422	9.25
358.209	8.25
358.997	10.25
359.784	8.25
360.571	9.25
361.359	9.25
362.146	11.25
362.933	9.25
363.72	12.25
364.507	9.25
365.294	11.25
366.081	10.25
366.867	8.25
367.654	9.25
368.44	12.25
369.227	9.25
370.013	11.25
370.8	9.25
371.586	8.25
372.372	10.25
373.158	9.25
373.944	9.25
374.73	8.25
375.516	10.25
376.302	8.25
377.088	10.25
377.873	8.25
378.659	8.25
379.445	7.25
380.23	11.25
381.015	10.25
381.801	9.25
382.586	9.25
383.371	8.25
384.156	11.25
384.941	9.25
385.726	10.25
386.511	11.25
387.296	12.25
388.08	11.25
388.865	10.25
389.649	11.25
390.434	9.25
391.218	10.25
392.003	8.25
392.787	12.25
393.571	12.25
394.355	13.25
395.139	14.25
395.923	11.25
396.707	13.25
397.491	12.25
398.274	11.25
399.058	13.25
399.842	12.25
400.625	14.25
401.408	13.25
402.192	15.25
402.975	12.25
403.758	14.25
404.541	13.25
405.324	13.25
406.107	15.25
406.89	15.25
407.673	14.25
408.456	14.25
409.238	14.25
410.021	15.25
410.803	14.25
411.586	17.25
412.368	15.25
413.151	16.25
413.933	15.25
414.715	17.25
415.497	15.25
416.279	16.25
417.061	18.25
417.843	21.25
418.624	17.25
419.406	19.25
420.188	21.25
420.969	20.25
421.751	22.25
422.532	22.25
423.313	23.25
424.095	24.25
424.876	25.25
425.657	22.25
426.438	24.25
427.219	27.25
428	26.25
428.78	27.25
429.561	31.25
430.342	33.25
431.122	31.25
431.903	32.25
432.683	34.25
433.464	38.25
434.244	38.25
435.024	39.25
435.804	42.25
436.584	43.25
437.364	47.25
438.144	46.25
438.924	51.25
439.704	55.25
440.483	59.25
441.263	61.25
442.042	67.25
442.822	73.25
443.601	74.25
444.38	87.25
445.16	90.25
445.939	97.25
446.718	106.25
447.497	120.25
448.276	127.25
449.054	141.25
449.833	155.25
450.612	169.25
451.391	192.25
452.169	214.25
452.948	237.25
453.726	248.25
454.504	289.25
455.282	321.25
456.061	356.25
456.839	394.25
457.617	447.25
458.395	483.25
459.172	537.25
459.95	612.25
460.728	671.25
461.506	745.25
462.283	841.25
463.061	918.25
463.838	1038.25
464.615	1144.25
465.393	1250.25
466.17	1392.25
466.947	1547.25
467.724	1685.25
468.501	1900.25
469.278	2065.25
470.055	2278.25
470.831	2498.25
471.608	2751.25
472.385	3022.25
473.161	3318.25
473.938	3624.25
474.714	3976.25
475.49	4323.25
476.266	4723.25
477.043	5123.25
477.819	5582.25
478.595	6055.25
479.371	6575.25
480.146	7143.25
480.922	7784.25
481.698	8421.25
482.473	9125.25
483.249	9901.25
484.024	10670.25
484.8	11477.25
485.575	12407.25
486.35	13353.25
487.126	14426.25
487.901	15502.25
488.676	16660.25
489.451	17892.25
490.225	19240.25
491	20572.25
491.775	21911.25
492.55	23383.25
493.324	24888.25
494.099	26504.25
494.873	28025.25
495.647	29603.25
496.422	31110.25
497.196	32767.25
497.97	34376.25
498.744	35802.25
499.518	37342.25
500.292	38637.25
501.066	39737.25
501.839	40720.25
502.613	41669.25
503.387	42377.25
504.16	43056.25
504.934	43482.25
505.707	43710.25
506.48	43695.25
507.253	43615.25
508.027	43263.25
508.8	42709.25
509.573	42053.25
510.346	41309.25
511.118	40466.25
511.891	39563.25
512.664	38261.25
513.437	36998.25
514.209	35860.25
514.982	34575.25
515.754	33333.25
516.526	31978.25
517.298	30840.25
518.071	29655.25
518.843	28559.25
519.615	27387.25
520.387	26263.25
521.159	25332.25
521.93	24239.25
522.702	23284.25
523.474	22286.25
524.245	21455.25
525.017	20549.25
525.788	19679.25
526.56	18968.25
527.331	18084.25
528.102	17249.25
528.873	16439.25
529.644	15631.25
530.415	14946.25
531.186	14249.25
531.957	13578.25
532.728	12957.25
533.498	12237.25
534.269	11621.25
535.039	11010.25
535.81	10451.25
536.58	9904.25
537.351	9359.25
538.121	8924.25
538.891	8429.25
539.661	7967.25
540.431	7535.25
541.201	7161.25
541.971	6785.25
542.741	6422.25
543.51	6099.25
544.28	5791.25
545.05	5505.25
545.819	5250.25
546.588	5023.25
547.358	4819.25
548.127	4543.25
548.896	4325.25
549.665	4091.25
550.434	3892.25
551.203	3710.25
551.972	3542.25
552.741	3317.25
553.51	3139.25
554.278	2956.25
555.047	2804.25
555.815	2653.25
556.584	2542.25
557.352	2373.25
558.121	2262.25
558.889	2118.25
559.657	1999.25
560.425	1903.25
561.193	1807.25
561.961	1715.25
562.729	1620.25
563.496	1528.25
564.264	1435.25
565.032	1359.25
565.799	1287.25
566.567	1222.25
567.334	1159.25
568.101	1087.25
568.869	1039.25
569.636	976.25
570.403	915.25
571.17	863.25
571.937	828.25
572.704	782.25
573.471	721.25
574.237	680.25
575.004	651.25
575.771	596.25
576.537	574.25
577.303	542.25
578.07	520.25
578.836	481.25
579.602	468.25
580.368	438.25
581.134	417.25
581.9	396.25
582.666	378.25
583.432	356.25
584.198	341.25
584.964	328.25
585.729	303.25
586.495	286.25
587.26	272.25
588.025	257.25
588.791	240.25
589.556	239.25
590.321	219.25
591.086	214.25
591.851	196.25
592.616	189.25
593.381	182.25
594.146	174.25
594.911	166.25
595.675	157.25
596.44	146.25
597.204	141.25
597.969	136.25
598.733	134.25
599.497	127.25
600.261	122.25
601.025	112.25
601.79	109.25
602.553	107.25
603.317	100.25
604.081	99.25
604.845	92.25
605.609	87.25
606.372	91.25
607.136	82.25
607.899	78.25
608.662	77.25
609.426	72.25
610.189	69.25
610.952	66.25
611.715	65.25
612.478	62.25
613.241	63.25
614.004	55.25
614.767	55.25
615.529	50.25
616.292	55.25
617.055	52.25
617.817	51.25
618.579	51.25
619.342	46.25
620.104	44.25
620.866	39.25
621.628	40.25
622.39	39.25
623.152	40.25
623.914	37.25
624.676	40.25
625.438	36.25
626.199	36.25
626.961	33.25
627.722	32.25
628.484	32.25
629.245	29.25
630.006	29.25
630.768	27.25
631.529	27.25
632.29	29.25
633.051	29.25
633.812	24.25
634.573	26.25
635.333	23.25
636.094	24.25
636.855	24.25
637.615	21.25
638.376	20.25
639.136	21.25
639.896	21.25
640.657	21.25
641.417	17.25
642.177	19.25
642.937	21.25
643.697	17.25
644.457	14.25
645.216	16.25
645.976	17.25
646.736	15.25
647.495	16.25
648.255	14.25
649.014	13.25
649.774	14.25
650.533	16.25
651.292	12.25
652.051	14.25
652.81	14.25
653.569	15.25
654.328	14.25
655.087	14.25
655.846	13.25
656.604	13.25
657.363	11.25
658.121	12.25
658.88	13.25
659.638	11.25
660.397	11.25
661.155	12.25
661.913	13.25
662.671	13.25
663.429	8.25
664.187	11.25
664.945	11.25
665.703	9.25
666.46	10.25
667.218	11.25
667.976	12.25
668.733	10.25
669.49	10.25
670.248	12.25
671.005	8.25
671.762	9.25
672.519	8.25
673.276	9.25
674.033	10.25
674.79	8.25
675.547	11.25
676.304	9.25
677.06	9.25
677.817	9.25
678.574	9.25
679.33	8.25
680.086	9.25
680.843	8.25
681.599	7.25
682.355	10.25
683.111	8.25
683.867	9.25
684.623	7.25
685.379	8.25
686.135	8.25
686.89	6.25
687.646	8.25
688.402	9.25
689.157	8.25
689.912	8.25
690.668	9.25
691.423	8.25
692.178	7.25
692.933	7.25
693.688	8.25
694.443	5.25
695.198	7.25
695.953	6.25
696.708	8.25
697.462	6.25
698.217	8.25
698.972	6.25
699.726	6.25
700.48	7.25
701.235	9.25
701.989	7.25
702.743	8.25
703.497	7.25
704.251	7.25
705.005	7.25
705.759	8.25
706.513	7.25
707.266	9.25
708.02	8.25
708.774	7.25
709.527	7.25
710.28	8.25
711.034	8.25
711.787	6.25
712.54	6.25
713.293	8.25
714.046	7.25
714.799	8.25
715.552	6.25
716.305	8.25
717.058	8.25
717.81	8.25
718.563	8.25
719.315	7.25
720.068	8.25
720.82	9.25
721.573	8.25
722.325	7.25
723.077	9.25
723.829	9.25
724.581	8.25
725.333	8.25
726.085	11.25
726.836	7.25
727.588	10.25
728.34	10.25
729.091	8.25
729.843	8.25
730.594	8.25
731.346	9.25
732.097	10.25
732.848	7.25
733.599	7.25
734.35	11.25
735.101	8.25
735.852	9.25
736.603	9.25
737.354	7.25
738.104	10.25
738.855	8.25
739.605	7.25
740.356	7.25
741.106	10.25
741.856	11.25
742.607	8.25
743.357	9.25
744.107	8.25
744.857	11.25
745.607	9.25
746.357	10.25
747.106	10.25
747.856	10.25
748.606	11.25
749.355	9.25
750.105	11.25
750.854	14.25
751.603	11.25
752.353	11.25
753.102	8.25
753.851	10.25
754.6	10.25
755.349	13.25
756.098	12.25
756.847	11.25
757.595	11.25
758.344	11.25
759.093	10.25
759.841	11.25
760.589	11.25
761.338	10.25
762.086	12.25
762.834	13.25
763.582	12.25
764.331	11.25
765.079	13.25
765.826	12.25
766.574	12.25
767.322	13.25
768.07	13.25
768.817	15.25
769.565	12.25
770.312	13.25
771.06	13.25
771.807	12.25
772.554	13.25
773.302	12.25
774.049	11.25
774.796	16.25
775.543	14.25
776.29	13.25
777.036	15.25
777.783	14.25
778.53	15.25
779.276	14.25
780.023	13.25
780.769	15.25
781.516	11.25
782.262	14.25
783.008	14.25
783.754	14.25
784.5	14.25
785.246	16.25
785.992	17.25
786.738	15.25
787.484	15.25
788.23	15.25
788.975	14.25
789.721	13.25
790.466	15.25
791.212	16.25
791.957	13.25
792.702	11.25
793.447	13.25
794.193	11.25
794.938	13.25
795.683	13.25
796.427	14.25
797.172	15.25
797.917	12.25
798.662	11.25
799.406	10.25
800.151	15.25
800.895	13.25
801.64	11.25
802.384	13.25
803.128	12.25
803.872	12.25
804.616	10.25
805.36	13.25
806.104	9.25
806.848	10.25
807.592	9.25
808.336	9.25
809.079	8.25
809.823	10.25
810.566	11.25
811.31	11.25
812.053	9.25
812.796	12.25
813.539	6.25
814.283	9.25
815.026	8.25
815.769	8.25
816.511	9.25
817.254	9.25
817.997	8.25
818.74	7.25
819.482	7.25
820.225	8.25
820.967	8.25
821.71	9.25
822.452	8.25
823.194	7.25
823.936	8.25
824.678	11.25
825.42	7.25
826.162	6.25
826.904	8.25
827.646	7.25
828.388	7.25
829.129	8.25
829.871	7.25
830.612	5.25
831.354	6.25
832.095	7.25
832.836	5.25
833.577	8.25
834.319	6.25
835.06	3.25
835.801	7.25
836.542	7.25
837.282	8.25
838.023	6.25
838.764	5.25
839.504	4.25
840.245	5.25
840.985	6.25
841.726	5.25
842.466	8.25
843.206	6.25
843.946	6.25
844.687	5.25
845.427	5.25
846.166	5.25
846.906	8.25
847.646	6.25
848.386	4.25
849.125	4.25
849.865	3.25
850.605	6.25
851.344	5.25
852.083	4.25
852.823	5.25
853.562	6.25
854.301	2.25
855.04	5.25
855.779	4.25
856.518	4.25
857.257	5.25
857.995	5.25
858.734	5.25
859.473	3.25
860.211	5.25
860.95	2.25
861.688	4.25
862.426	3.25
863.165	3.25
863.903	5.25
864.641	3.25
865.379	3.25
866.117	3.25
866.855	3.25
867.593	2.25
868.33	3.25
869.068	3.25
869.806	3.25
870.543	2.25
871.28	3.25
872.018	3.25
872.755	4.25
873.492	3.25
874.229	5.25
874.967	3.25
875.703	2.25
876.44	3.25
877.177	0.25
877.914	0.25
878.651	3.25
879.387	3.25
880.124	2.25
880.86	2.25
881.597	2.25
882.333	2.25
883.069	3.25
883.806	2.25
884.542	1.25
885.278	4.25
886.014	2.25
886.749	3.25
887.485	2.25
888.221	0.25
888.957	1.25
889.692	0.25
890.428	4.25
891.163	1.25
891.899	1.25
892.634	0.25
893.369	2.25
894.104	2.25
894.839	1.25
895.574	0.25
896.309	-0.75
897.044	3.25
897.779	1.25
898.514	1.25
899.248	1.25
899.983	0.25
900.717	0.25
901.452	2.25
902.186	1.25
902.92	2.25
903.654	2.25
904.389	1.25
905.123	0.25
905.857	3.25
906.59	1.25
907.324	0.25
908.058	2.25
908.792	2.25
909.525	1.25
910.259	0.25
910.992	2.25
911.726	2.25
912.459	0.25
913.192	0.25
913.925	4.25
914.658	2.25
915.391	3.25
916.124	0.25
916.857	2.25
917.59	-0.75
918.323	1.25
919.055	0.25
919.788	3.25
920.521	0.25
921.253	1.25
921.985	1.25
922.718	0.25
923.45	1.25
924.182	2.25
924.914	-0.75
925.646	-0.75
926.378	-1.75
927.11	-0.75
927.841	0.25
928.573	1.25
929.305	-0.75
930.036	-0.75
930.768	-1.75
931.499	2.25
932.23	-1.75
932.962	1.25
933.693	1.25
934.424	-1.75
935.155	0.25
935.886	1.25
936.617	0.25
937.348	1.25
938.078	0.25
938.809	-0.75
939.54	-0.75
940.27	0.25
941.001	1.25
941.731	0.25
942.461	1.25
943.191	1.25
943.922	0.25
944.652	0.25
945.382	-0.75
946.112	2.25
946.841	0.25
947.571	1.25
948.301	1.25
949.031	-0.75
949.76	1.25
950.49	-0.75
951.219	0.25
951.948	2.25
952.678	-0.75
953.407	2.25
954.136	1.25
954.865	1.25
955.594	-1.75
956.323	1.25
957.052	2.25
957.78	2.25
958.509	0.25
959.238	0.25
959.966	0.25
960.695	-0.75
961.423	-0.75
962.151	3.25
962.88	2.25
963.608	2.25
964.336	1.25
965.064	0.25
965.792	3.25
966.52	0.25
967.247	-0.75
967.975	-0.75
968.703	-0.75
969.43	-0.75
970.158	2.25
970.885	1.25
971.613	2.25
972.34	-0.75
973.067	-0.75
973.794	0.25
974.521	-1.75
975.248	0.25
975.975	0.25
976.702	2.25
977.429	1.25
978.156	-1.75
978.882	0.25
979.609	1.25
980.335	1.25
981.062	2.25
981.788	0.25
982.514	0.25
983.24	0.25
983.967	0.25
984.693	-0.75
985.419	2.25
986.144	1.25
986.87	-0.75
987.596	2.25
988.322	1.25
989.047	3.25
989.773	-0.75
990.498	-0.75
991.224	1.25
991.949	2.25
992.674	-0.75
993.399	-0.75
994.124	0.25
994.849	-0.75
995.574	2.25
996.299	0.25
997.024	-1.75
997.749	3.25
998.473	1.25
999.198	2.25
999.922	1.25
1000.647	1.25
1001.371	3.25
1002.095	-0.75
1002.82	-0.75
1003.544	-1.75
1004.268	5.25
1004.992	3.25
1005.716	5.25
1006.439	2.25
1007.163	6.25
1007.887	4.25
1008.611	1.25
1009.334	-0.75
1010.058	3.25
1010.781	-0.75
1011.504	2.25
1012.228	-1.75
1012.951	1.25
1013.674	1.25
1014.397	-1.75
1015.12	-0.75
