节点500_705_QEPB04081__530__20-53-26-743.txt的数据

Date: Wed Nov 12 20:53:26 CST 2025
User: PC
Spectrometer: QEPB0408
触发模式: 0
积分时间 (秒): 1.000000E-2
Scans to average: 1
启用暗噪声校正: true
启用非线性校正: false
滑动平均宽度: 0
X轴模式: Wavelengths
Number of Pixels in Spectrum: 1044
>>>>>Begin Spectral Data<<<<<
220.843	4.62
221.644	4.62
222.444	6.62
223.244	3.62
224.045	4.62
224.845	5.62
225.645	5.62
226.445	5.62
227.245	6.62
228.045	8.62
228.845	4.62
229.645	6.62
230.444	8.62
231.244	7.62
232.043	7.62
232.843	9.62
233.642	7.62
234.442	9.62
235.241	8.62
236.04	9.62
236.839	9.62
237.638	10.62
238.437	10.62
239.236	7.62
240.035	10.62
240.833	12.62
241.632	11.62
242.43	10.62
243.229	12.62
244.027	12.62
244.826	11.62
245.624	11.62
246.422	13.62
247.22	12.62
248.018	9.62
248.816	14.62
249.614	14.62
250.412	13.62
251.21	15.62
252.007	14.62
252.805	15.62
253.602	16.62
254.4	15.62
255.197	15.62
255.994	15.62
256.791	16.62
257.589	18.62
258.386	20.62
259.183	20.62
259.979	20.62
260.776	21.62
261.573	18.62
262.37	20.62
263.166	23.62
263.963	21.62
264.759	25.62
265.556	22.62
266.352	24.62
267.148	23.62
267.944	21.62
268.74	28.62
269.536	26.62
270.332	28.62
271.128	27.62
271.924	28.62
272.719	31.62
273.515	28.62
274.311	30.62
275.106	28.62
275.901	30.62
276.697	29.62
277.492	30.62
278.287	30.62
279.082	26.62
279.877	33.62
280.672	29.62
281.467	34.62
282.262	33.62
283.056	31.62
283.851	30.62
284.646	30.62
285.44	34.62
286.234	30.62
287.029	32.62
287.823	31.62
288.617	33.62
289.411	30.62
290.205	26.62
290.999	28.62
291.793	32.62
292.587	30.62
293.381	28.62
294.174	26.62
294.968	29.62
295.761	26.62
296.555	27.62
297.348	28.62
298.141	26.62
298.935	27.62
299.728	22.62
300.521	23.62
301.314	22.62
302.107	22.62
302.899	21.62
303.692	21.62
304.485	22.62
305.277	21.62
306.07	22.62
306.862	21.62
307.655	20.62
308.447	21.62
309.239	17.62
310.031	20.62
310.823	19.62
311.615	17.62
312.407	21.62
313.199	18.62
313.991	15.62
314.783	18.62
315.574	15.62
316.366	14.62
317.157	13.62
317.949	16.62
318.74	12.62
319.531	16.62
320.322	13.62
321.113	12.62
321.904	13.62
322.695	12.62
323.486	13.62
324.277	13.62
325.068	12.62
325.858	12.62
326.649	12.62
327.439	11.62
328.23	11.62
329.02	11.62
329.81	8.62
330.6	11.62
331.391	14.62
332.181	10.62
332.971	10.62
333.76	12.62
334.55	13.62
335.34	10.62
336.13	12.62
336.919	13.62
337.709	12.62
338.498	12.62
339.287	9.62
340.077	12.62
340.866	10.62
341.655	8.62
342.444	13.62
343.233	10.62
344.022	9.62
344.811	11.62
345.6	12.62
346.388	10.62
347.177	10.62
347.965	10.62
348.754	9.62
349.542	12.62
350.33	9.62
351.119	9.62
351.907	11.62
352.695	7.62
353.483	8.62
354.271	10.62
355.059	12.62
355.846	11.62
356.634	10.62
357.422	11.62
358.209	7.62
358.997	8.62
359.784	9.62
360.571	10.62
361.359	11.62
362.146	10.62
362.933	8.62
363.72	8.62
364.507	10.62
365.294	9.62
366.081	10.62
366.867	10.62
367.654	7.62
368.44	6.62
369.227	6.62
370.013	10.62
370.8	8.62
371.586	8.62
372.372	8.62
373.158	6.62
373.944	9.62
374.73	7.62
375.516	8.62
376.302	8.62
377.088	10.62
377.873	8.62
378.659	10.62
379.445	10.62
380.23	9.62
381.015	9.62
381.801	10.62
382.586	10.62
383.371	12.62
384.156	9.62
384.941	10.62
385.726	9.62
386.511	11.62
387.296	11.62
388.08	8.62
388.865	10.62
389.649	10.62
390.434	10.62
391.218	9.62
392.003	10.62
392.787	9.62
393.571	10.62
394.355	13.62
395.139	10.62
395.923	10.62
396.707	12.62
397.491	10.62
398.274	12.62
399.058	13.62
399.842	11.62
400.625	10.62
401.408	11.62
402.192	14.62
402.975	10.62
403.758	13.62
404.541	14.62
405.324	12.62
406.107	12.62
406.89	12.62
407.673	15.62
408.456	14.62
409.238	17.62
410.021	13.62
410.803	14.62
411.586	16.62
412.368	14.62
413.151	16.62
413.933	16.62
414.715	16.62
415.497	17.62
416.279	16.62
417.061	15.62
417.843	18.62
418.624	18.62
419.406	17.62
420.188	15.62
420.969	19.62
421.751	20.62
422.532	20.62
423.313	23.62
424.095	24.62
424.876	22.62
425.657	24.62
426.438	22.62
427.219	25.62
428	26.62
428.78	26.62
429.561	26.62
430.342	29.62
431.122	32.62
431.903	30.62
432.683	37.62
433.464	38.62
434.244	38.62
435.024	39.62
435.804	41.62
436.584	39.62
437.364	47.62
438.144	48.62
438.924	49.62
439.704	52.62
440.483	57.62
441.263	61.62
442.042	68.62
442.822	74.62
443.601	74.62
444.38	83.62
445.16	94.62
445.939	95.62
446.718	106.62
447.497	115.62
448.276	130.62
449.054	138.62
449.833	150.62
450.612	168.62
451.391	186.62
452.169	207.62
452.948	233.62
453.726	257.62
454.504	282.62
455.282	309.62
456.061	345.62
456.839	394.62
457.617	430.62
458.395	483.62
459.172	535.62
459.95	598.62
460.728	667.62
461.506	734.62
462.283	811.62
463.061	906.62
463.838	1019.62
464.615	1113.62
465.393	1262.62
466.17	1380.62
466.947	1517.62
467.724	1679.62
468.501	1866.62
469.278	2068.62
470.055	2269.62
470.831	2495.62
471.608	2755.62
472.385	3020.62
473.161	3323.62
473.938	3628.62
474.714	3987.62
475.49	4354.62
476.266	4762.62
477.043	5134.62
477.819	5631.62
478.595	6111.62
479.371	6657.62
480.146	7245.62
480.922	7886.62
481.698	8535.62
482.473	9242.62
483.249	10034.62
484.024	10867.62
484.8	11701.62
485.575	12609.62
486.35	13670.62
487.126	14746.62
487.901	15912.62
488.676	17085.62
489.451	18396.62
490.225	19729.62
491	21148.62
491.775	22553.62
492.55	24144.62
493.324	25609.62
494.099	27252.62
494.873	28879.62
495.647	30529.62
496.422	32075.62
497.196	33811.62
497.97	35293.62
498.744	36769.62
499.518	38374.62
500.292	39697.62
501.066	40738.62
501.839	41699.62
502.613	42610.62
503.387	43493.62
504.16	43973.62
504.934	44253.62
505.707	44558.62
506.48	44375.62
507.253	44072.62
508.027	43724.62
508.8	43099.62
509.573	42267.62
510.346	41486.62
511.118	40711.62
511.891	39582.62
512.664	38302.62
513.437	36987.62
514.209	35698.62
514.982	34522.62
515.754	33251.62
516.526	31922.62
517.298	30653.62
518.071	29597.62
518.843	28357.62
519.615	27128.62
520.387	26114.62
521.159	25084.62
521.93	24058.62
522.702	23084.62
523.474	22136.62
524.245	21214.62
525.017	20391.62
525.788	19570.62
526.56	18706.62
527.331	17907.62
528.102	17022.62
528.873	16205.62
529.644	15500.62
530.415	14814.62
531.186	14082.62
531.957	13366.62
532.728	12714.62
533.498	12111.62
534.269	11448.62
535.039	10843.62
535.81	10306.62
536.58	9689.62
537.351	9213.62
538.121	8744.62
538.891	8235.62
539.661	7834.62
540.431	7394.62
541.201	7036.62
541.971	6690.62
542.741	6341.62
543.51	5974.62
544.28	5693.62
545.05	5405.62
545.819	5191.62
546.588	4947.62
547.358	4686.62
548.127	4452.62
548.896	4245.62
549.665	3995.62
550.434	3802.62
551.203	3613.62
551.972	3458.62
552.741	3269.62
553.51	3086.62
554.278	2891.62
555.047	2748.62
555.815	2594.62
556.584	2474.62
557.352	2331.62
558.121	2196.62
558.889	2087.62
559.657	1959.62
560.425	1860.62
561.193	1753.62
561.961	1678.62
562.729	1582.62
563.496	1492.62
564.264	1415.62
565.032	1347.62
565.799	1261.62
566.567	1207.62
567.334	1138.62
568.101	1050.62
568.869	1011.62
569.636	945.62
570.403	889.62
571.17	853.62
571.937	807.62
572.704	756.62
573.471	716.62
574.237	673.62
575.004	635.62
575.771	591.62
576.537	559.62
577.303	532.62
578.07	500.62
578.836	481.62
579.602	445.62
580.368	433.62
581.134	414.62
581.9	390.62
582.666	369.62
583.432	345.62
584.198	335.62
584.964	310.62
585.729	303.62
586.495	281.62
587.26	264.62
588.025	255.62
588.791	229.62
589.556	228.62
590.321	219.62
591.086	208.62
591.851	192.62
592.616	187.62
593.381	180.62
594.146	167.62
594.911	159.62
595.675	154.62
596.44	150.62
597.204	138.62
597.969	133.62
598.733	130.62
599.497	123.62
600.261	114.62
601.025	107.62
601.79	104.62
602.553	105.62
603.317	95.62
604.081	92.62
604.845	92.62
605.609	86.62
606.372	84.62
607.136	79.62
607.899	73.62
608.662	75.62
609.426	70.62
610.189	69.62
610.952	66.62
611.715	66.62
612.478	61.62
613.241	57.62
614.004	60.62
614.767	54.62
615.529	52.62
616.292	50.62
617.055	49.62
617.817	49.62
618.579	44.62
619.342	44.62
620.104	43.62
620.866	41.62
621.628	38.62
622.39	42.62
623.152	40.62
623.914	37.62
624.676	34.62
625.438	33.62
626.199	31.62
626.961	30.62
627.722	32.62
628.484	29.62
629.245	30.62
630.006	28.62
630.768	24.62
631.529	29.62
632.29	26.62
633.051	25.62
633.812	22.62
634.573	24.62
635.333	22.62
636.094	22.62
636.855	20.62
637.615	21.62
638.376	19.62
639.136	19.62
639.896	17.62
640.657	21.62
641.417	18.62
642.177	20.62
642.937	19.62
643.697	17.62
644.457	16.62
645.216	16.62
645.976	14.62
646.736	14.62
647.495	17.62
648.255	15.62
649.014	15.62
649.774	14.62
650.533	14.62
651.292	12.62
652.051	12.62
652.81	14.62
653.569	11.62
654.328	10.62
655.087	14.62
655.846	14.62
656.604	10.62
657.363	12.62
658.121	10.62
658.88	13.62
659.638	11.62
660.397	12.62
661.155	10.62
661.913	11.62
662.671	13.62
663.429	10.62
664.187	11.62
664.945	10.62
665.703	10.62
666.46	11.62
667.218	8.62
667.976	9.62
668.733	7.62
669.49	8.62
670.248	10.62
671.005	10.62
671.762	12.62
672.519	10.62
673.276	8.62
674.033	9.62
674.79	8.62
675.547	6.62
676.304	8.62
677.06	8.62
677.817	7.62
678.574	11.62
679.33	7.62
680.086	9.62
680.843	7.62
681.599	6.62
682.355	5.62
683.111	7.62
683.867	7.62
684.623	6.62
685.379	10.62
686.135	7.62
686.89	8.62
687.646	6.62
688.402	8.62
689.157	7.62
689.912	7.62
690.668	8.62
691.423	7.62
692.178	8.62
692.933	9.62
693.688	9.62
694.443	9.62
695.198	7.62
695.953	6.62
696.708	9.62
697.462	7.62
698.217	6.62
698.972	5.62
699.726	6.62
700.48	8.62
701.235	6.62
701.989	6.62
702.743	7.62
703.497	7.62
704.251	8.62
705.005	7.62
705.759	5.62
706.513	4.62
707.266	7.62
708.02	4.62
708.774	5.62
709.527	5.62
710.28	9.62
711.034	6.62
711.787	7.62
712.54	8.62
713.293	5.62
714.046	6.62
714.799	7.62
715.552	5.62
716.305	6.62
717.058	7.62
717.81	9.62
718.563	4.62
719.315	5.62
720.068	8.62
720.82	6.62
721.573	5.62
722.325	7.62
723.077	7.62
723.829	5.62
724.581	6.62
725.333	7.62
726.085	6.62
726.836	8.62
727.588	4.62
728.34	7.62
729.091	8.62
729.843	7.62
730.594	8.62
731.346	6.62
732.097	8.62
732.848	7.62
733.599	9.62
734.35	9.62
735.101	9.62
735.852	7.62
736.603	10.62
737.354	5.62
738.104	9.62
738.855	8.62
739.605	6.62
740.356	10.62
741.106	9.62
741.856	9.62
742.607	7.62
743.357	10.62
744.107	10.62
744.857	10.62
745.607	10.62
746.357	10.62
747.106	9.62
747.856	10.62
748.606	8.62
749.355	9.62
750.105	8.62
750.854	9.62
751.603	9.62
752.353	11.62
753.102	9.62
753.851	11.62
754.6	9.62
755.349	10.62
756.098	11.62
756.847	9.62
757.595	9.62
758.344	13.62
759.093	13.62
759.841	10.62
760.589	11.62
761.338	11.62
762.086	12.62
762.834	10.62
763.582	10.62
764.331	13.62
765.079	8.62
765.826	13.62
766.574	11.62
767.322	11.62
768.07	12.62
768.817	12.62
769.565	13.62
770.312	14.62
771.06	12.62
771.807	14.62
772.554	11.62
773.302	14.62
774.049	14.62
774.796	13.62
775.543	15.62
776.29	10.62
777.036	12.62
777.783	11.62
778.53	17.62
779.276	11.62
780.023	10.62
780.769	14.62
781.516	11.62
782.262	13.62
783.008	14.62
783.754	16.62
784.5	14.62
785.246	14.62
785.992	14.62
786.738	14.62
787.484	15.62
788.23	14.62
788.975	14.62
789.721	12.62
790.466	13.62
791.212	11.62
791.957	13.62
792.702	14.62
793.447	14.62
794.193	15.62
794.938	14.62
795.683	13.62
796.427	14.62
797.172	12.62
797.917	9.62
798.662	14.62
799.406	12.62
800.151	11.62
800.895	10.62
801.64	12.62
802.384	10.62
803.128	11.62
803.872	8.62
804.616	11.62
805.36	12.62
806.104	8.62
806.848	9.62
807.592	10.62
808.336	8.62
809.079	11.62
809.823	10.62
810.566	10.62
811.31	9.62
812.053	9.62
812.796	10.62
813.539	7.62
814.283	8.62
815.026	8.62
815.769	8.62
816.511	8.62
817.254	6.62
817.997	8.62
818.74	8.62
819.482	6.62
820.225	4.62
820.967	8.62
821.71	5.62
822.452	6.62
823.194	6.62
823.936	5.62
824.678	5.62
825.42	7.62
826.162	7.62
826.904	5.62
827.646	6.62
828.388	8.62
829.129	5.62
829.871	5.62
830.612	6.62
831.354	5.62
832.095	6.62
832.836	6.62
833.577	5.62
834.319	5.62
835.06	6.62
835.801	4.62
836.542	6.62
837.282	5.62
838.023	5.62
838.764	8.62
839.504	4.62
840.245	2.62
840.985	5.62
841.726	4.62
842.466	6.62
843.206	4.62
843.946	5.62
844.687	5.62
845.427	2.62
846.166	5.62
846.906	5.62
847.646	5.62
848.386	5.62
849.125	5.62
849.865	4.62
850.605	4.62
851.344	6.62
852.083	3.62
852.823	4.62
853.562	4.62
854.301	1.62
855.04	3.62
855.779	1.62
856.518	4.62
857.257	2.62
857.995	2.62
858.734	2.62
859.473	2.62
860.211	6.62
860.95	3.62
861.688	2.62
862.426	4.62
863.165	4.62
863.903	2.62
864.641	3.62
865.379	2.62
866.117	3.62
866.855	3.62
867.593	3.62
868.33	2.62
869.068	0.62
869.806	2.62
870.543	1.62
871.28	2.62
872.018	3.62
872.755	1.62
873.492	0.62
874.229	3.62
874.967	0.62
875.703	1.62
876.44	0.62
877.177	-0.38
877.914	1.62
878.651	1.62
879.387	0.62
880.124	2.62
880.86	1.62
881.597	0.62
882.333	-2.38
883.069	3.62
883.806	2.62
884.542	3.62
885.278	1.62
886.014	2.62
886.749	1.62
887.485	1.62
888.221	1.62
888.957	1.62
889.692	1.62
890.428	1.62
891.163	0.62
891.899	1.62
892.634	0.62
893.369	2.62
894.104	-0.38
894.839	1.62
895.574	2.62
896.309	-0.38
897.044	2.62
897.779	1.62
898.514	-0.38
899.248	0.62
899.983	1.62
900.717	1.62
901.452	1.62
902.186	2.62
902.92	-1.38
903.654	1.62
904.389	1.62
905.123	-1.38
905.857	1.62
906.59	0.62
907.324	3.62
908.058	-0.38
908.792	2.62
909.525	-0.38
910.259	-1.38
910.992	-0.38
911.726	1.62
912.459	-0.38
913.192	-1.38
913.925	0.62
914.658	-0.38
915.391	0.62
916.124	-1.38
916.857	1.62
917.59	1.62
918.323	1.62
919.055	0.62
919.788	0.62
920.521	1.62
921.253	0.62
921.985	-0.38
922.718	-0.38
923.45	0.62
924.182	0.62
924.914	0.62
925.646	0.62
926.378	0.62
927.11	-0.38
927.841	0.62
928.573	2.62
929.305	-2.38
930.036	-1.38
930.768	1.62
931.499	-1.38
932.23	-1.38
932.962	0.62
933.693	1.62
934.424	0.62
935.155	0.62
935.886	0.62
936.617	-2.38
937.348	-0.38
938.078	0.62
938.809	-0.38
939.54	0.62
940.27	-1.38
941.001	-0.38
941.731	-1.38
942.461	1.62
943.191	1.62
943.922	0.62
944.652	0.62
945.382	-1.38
946.112	0.62
946.841	-1.38
947.571	-1.38
948.301	-2.38
949.031	0.62
949.76	0.62
950.49	-0.38
951.219	-0.38
951.948	0.62
952.678	-1.38
953.407	-0.38
954.136	-1.38
954.865	-1.38
955.594	0.62
956.323	0.62
957.052	-0.38
957.78	2.62
958.509	-0.38
959.238	-0.38
959.966	-1.38
960.695	-0.38
961.423	1.62
962.151	0.62
962.88	-0.38
963.608	0.62
964.336	0.62
965.064	-0.38
965.792	-1.38
966.52	0.62
967.247	0.62
967.975	-0.38
968.703	0.62
969.43	0.62
970.158	0.62
970.885	-0.38
971.613	1.62
972.34	0.62
973.067	-0.38
973.794	-1.38
974.521	-0.38
975.248	2.62
975.975	-0.38
976.702	0.62
977.429	0.62
978.156	-1.38
978.882	-0.38
979.609	0.62
980.335	1.62
981.062	0.62
981.788	1.62
982.514	1.62
983.24	0.62
983.967	-0.38
984.693	0.62
985.419	1.62
986.144	0.62
986.87	-1.38
987.596	0.62
988.322	0.62
989.047	0.62
989.773	-0.38
990.498	0.62
991.224	-0.38
991.949	1.62
992.674	0.62
993.399	-0.38
994.124	0.62
994.849	-0.38
995.574	-0.38
996.299	-1.38
997.024	0.62
997.749	2.62
998.473	-0.38
999.198	0.62
999.922	0.62
1000.647	-0.38
1001.371	2.62
1002.095	-0.38
1002.82	-1.38
1003.544	-0.38
1004.268	3.62
1004.992	5.62
1005.716	2.62
1006.439	3.62
1007.163	5.62
1007.887	7.62
1008.611	0.62
1009.334	-1.38
1010.058	-0.38
1010.781	-0.38
1011.504	-0.38
1012.228	-0.38
1012.951	-1.38
1013.674	-0.38
1014.397	0.62
1015.12	0.62
