节点500_705_QEPB04081__292__20-50-09-400.txt的数据

Date: Wed Nov 12 20:50:09 CST 2025
User: PC
Spectrometer: QEPB0408
触发模式: 0
积分时间 (秒): 1.000000E-2
Scans to average: 1
启用暗噪声校正: true
启用非线性校正: false
滑动平均宽度: 0
X轴模式: Wavelengths
Number of Pixels in Spectrum: 1044
>>>>>Begin Spectral Data<<<<<
220.843	4.62
221.644	6.62
222.444	5.62
223.244	4.62
224.045	6.62
224.845	5.62
225.645	6.62
226.445	6.62
227.245	7.62
228.045	8.62
228.845	7.62
229.645	6.62
230.444	6.62
231.244	10.62
232.043	5.62
232.843	9.62
233.642	7.62
234.442	10.62
235.241	8.62
236.04	10.62
236.839	10.62
237.638	8.62
238.437	12.62
239.236	11.62
240.035	10.62
240.833	13.62
241.632	10.62
242.43	8.62
243.229	11.62
244.027	9.62
244.826	12.62
245.624	14.62
246.422	13.62
247.22	12.62
248.018	14.62
248.816	19.62
249.614	16.62
250.412	17.62
251.21	14.62
252.007	15.62
252.805	13.62
253.602	18.62
254.4	17.62
255.197	19.62
255.994	19.62
256.791	19.62
257.589	20.62
258.386	21.62
259.183	23.62
259.979	23.62
260.776	21.62
261.573	24.62
262.37	24.62
263.166	23.62
263.963	21.62
264.759	25.62
265.556	25.62
266.352	26.62
267.148	27.62
267.944	26.62
268.74	27.62
269.536	29.62
270.332	28.62
271.128	32.62
271.924	28.62
272.719	31.62
273.515	30.62
274.311	33.62
275.106	32.62
275.901	31.62
276.697	34.62
277.492	33.62
278.287	32.62
279.082	33.62
279.877	35.62
280.672	34.62
281.467	33.62
282.262	33.62
283.056	33.62
283.851	35.62
284.646	30.62
285.44	31.62
286.234	31.62
287.029	37.62
287.823	34.62
288.617	34.62
289.411	31.62
290.205	31.62
290.999	32.62
291.793	31.62
292.587	30.62
293.381	33.62
294.174	28.62
294.968	30.62
295.761	28.62
296.555	26.62
297.348	27.62
298.141	25.62
298.935	31.62
299.728	24.62
300.521	22.62
301.314	25.62
302.107	23.62
302.899	21.62
303.692	22.62
304.485	23.62
305.277	22.62
306.07	22.62
306.862	23.62
307.655	20.62
308.447	22.62
309.239	19.62
310.031	21.62
310.823	18.62
311.615	21.62
312.407	16.62
313.199	14.62
313.991	16.62
314.783	14.62
315.574	15.62
316.366	17.62
317.157	15.62
317.949	11.62
318.74	15.62
319.531	16.62
320.322	13.62
321.113	11.62
321.904	16.62
322.695	13.62
323.486	14.62
324.277	12.62
325.068	11.62
325.858	9.62
326.649	12.62
327.439	10.62
328.23	13.62
329.02	11.62
329.81	9.62
330.6	11.62
331.391	12.62
332.181	11.62
332.971	14.62
333.76	11.62
334.55	11.62
335.34	10.62
336.13	9.62
336.919	11.62
337.709	11.62
338.498	10.62
339.287	10.62
340.077	10.62
340.866	11.62
341.655	11.62
342.444	14.62
343.233	12.62
344.022	10.62
344.811	10.62
345.6	9.62
346.388	8.62
347.177	11.62
347.965	8.62
348.754	10.62
349.542	9.62
350.33	9.62
351.119	10.62
351.907	10.62
352.695	9.62
353.483	11.62
354.271	12.62
355.059	9.62
355.846	8.62
356.634	9.62
357.422	11.62
358.209	10.62
358.997	7.62
359.784	11.62
360.571	10.62
361.359	9.62
362.146	9.62
362.933	9.62
363.72	10.62
364.507	9.62
365.294	11.62
366.081	7.62
366.867	9.62
367.654	6.62
368.44	8.62
369.227	9.62
370.013	6.62
370.8	11.62
371.586	7.62
372.372	9.62
373.158	10.62
373.944	7.62
374.73	9.62
375.516	9.62
376.302	10.62
377.088	8.62
377.873	8.62
378.659	8.62
379.445	9.62
380.23	11.62
381.015	11.62
381.801	13.62
382.586	10.62
383.371	11.62
384.156	10.62
384.941	8.62
385.726	11.62
386.511	10.62
387.296	12.62
388.08	11.62
388.865	10.62
389.649	13.62
390.434	8.62
391.218	11.62
392.003	7.62
392.787	10.62
393.571	12.62
394.355	10.62
395.139	12.62
395.923	12.62
396.707	10.62
397.491	14.62
398.274	12.62
399.058	13.62
399.842	11.62
400.625	13.62
401.408	12.62
402.192	13.62
402.975	13.62
403.758	12.62
404.541	12.62
405.324	12.62
406.107	15.62
406.89	16.62
407.673	13.62
408.456	14.62
409.238	14.62
410.021	17.62
410.803	14.62
411.586	17.62
412.368	18.62
413.151	14.62
413.933	18.62
414.715	17.62
415.497	20.62
416.279	16.62
417.061	17.62
417.843	15.62
418.624	18.62
419.406	19.62
420.188	21.62
420.969	20.62
421.751	19.62
422.532	19.62
423.313	22.62
424.095	24.62
424.876	22.62
425.657	22.62
426.438	26.62
427.219	25.62
428	27.62
428.78	27.62
429.561	27.62
430.342	29.62
431.122	31.62
431.903	32.62
432.683	33.62
433.464	32.62
434.244	34.62
435.024	35.62
435.804	41.62
436.584	40.62
437.364	44.62
438.144	47.62
438.924	47.62
439.704	54.62
440.483	57.62
441.263	60.62
442.042	64.62
442.822	67.62
443.601	72.62
444.38	81.62
445.16	81.62
445.939	95.62
446.718	98.62
447.497	109.62
448.276	123.62
449.054	130.62
449.833	145.62
450.612	161.62
451.391	171.62
452.169	193.62
452.948	214.62
453.726	243.62
454.504	261.62
455.282	293.62
456.061	327.62
456.839	366.62
457.617	407.62
458.395	450.62
459.172	504.62
459.95	557.62
460.728	631.62
461.506	711.62
462.283	781.62
463.061	868.62
463.838	987.62
464.615	1069.62
465.393	1210.62
466.17	1332.62
466.947	1484.62
467.724	1641.62
468.501	1841.62
469.278	2031.62
470.055	2272.62
470.831	2484.62
471.608	2773.62
472.385	3037.62
473.161	3345.62
473.938	3716.62
474.714	4068.62
475.49	4449.62
476.266	4898.62
477.043	5344.62
477.819	5830.62
478.595	6383.62
479.371	6992.62
480.146	7641.62
480.922	8336.62
481.698	9083.62
482.473	9861.62
483.249	10766.62
484.024	11681.62
484.8	12685.62
485.575	13787.62
486.35	14953.62
487.126	16152.62
487.901	17482.62
488.676	18827.62
489.451	20452.62
490.225	21922.62
491	23534.62
491.775	25169.62
492.55	26920.62
493.324	28668.62
494.099	30420.62
494.873	32295.62
495.647	34089.62
496.422	35895.62
497.196	37616.62
497.97	39302.62
498.744	40836.62
499.518	42396.62
500.292	43782.62
501.066	44901.62
501.839	45687.62
502.613	46392.62
503.387	47018.62
504.16	47370.62
504.934	47498.62
505.707	47392.62
506.48	47054.62
507.253	46531.62
508.027	45815.62
508.8	44747.62
509.573	43788.62
510.346	42712.62
511.118	41598.62
511.891	40259.62
512.664	38781.62
513.437	37231.62
514.209	35887.62
514.982	34433.62
515.754	33052.62
516.526	31744.62
517.298	30460.62
518.071	29178.62
518.843	28016.62
519.615	26889.62
520.387	25875.62
521.159	24857.62
521.93	23804.62
522.702	22837.62
523.474	21900.62
524.245	20962.62
525.017	20032.62
525.788	19117.62
526.56	18282.62
527.331	17483.62
528.102	16632.62
528.873	15761.62
529.644	15050.62
530.415	14327.62
531.186	13653.62
531.957	12875.62
532.728	12247.62
533.498	11606.62
534.269	11004.62
535.039	10409.62
535.81	9883.62
536.58	9301.62
537.351	8782.62
538.121	8354.62
538.891	7897.62
539.661	7478.62
540.431	7078.62
541.201	6721.62
541.971	6374.62
542.741	6006.62
543.51	5710.62
544.28	5434.62
545.05	5183.62
545.819	4937.62
546.588	4670.62
547.358	4487.62
548.127	4258.62
548.896	4042.62
549.665	3832.62
550.434	3625.62
551.203	3458.62
551.972	3252.62
552.741	3083.62
553.51	2905.62
554.278	2745.62
555.047	2598.62
555.815	2460.62
556.584	2315.62
557.352	2210.62
558.121	2066.62
558.889	1957.62
559.657	1845.62
560.425	1761.62
561.193	1641.62
561.961	1573.62
562.729	1493.62
563.496	1400.62
564.264	1328.62
565.032	1250.62
565.799	1187.62
566.567	1125.62
567.334	1067.62
568.101	1011.62
568.869	953.62
569.636	890.62
570.403	846.62
571.17	800.62
571.937	748.62
572.704	709.62
573.471	673.62
574.237	635.62
575.004	593.62
575.771	565.62
576.537	527.62
577.303	503.62
578.07	465.62
578.836	442.62
579.602	409.62
580.368	398.62
581.134	382.62
581.9	356.62
582.666	355.62
583.432	334.62
584.198	307.62
584.964	293.62
585.729	282.62
586.495	270.62
587.26	250.62
588.025	235.62
588.791	226.62
589.556	215.62
590.321	207.62
591.086	194.62
591.851	182.62
592.616	175.62
593.381	166.62
594.146	154.62
594.911	154.62
595.675	145.62
596.44	142.62
597.204	137.62
597.969	130.62
598.733	119.62
599.497	122.62
600.261	109.62
601.025	107.62
601.79	102.62
602.553	98.62
603.317	98.62
604.081	90.62
604.845	88.62
605.609	80.62
606.372	82.62
607.136	75.62
607.899	71.62
608.662	70.62
609.426	70.62
610.189	66.62
610.952	63.62
611.715	60.62
612.478	54.62
613.241	55.62
614.004	54.62
614.767	52.62
615.529	51.62
616.292	52.62
617.055	50.62
617.817	48.62
618.579	43.62
619.342	43.62
620.104	41.62
620.866	40.62
621.628	37.62
622.39	36.62
623.152	37.62
623.914	37.62
624.676	34.62
625.438	32.62
626.199	32.62
626.961	32.62
627.722	28.62
628.484	26.62
629.245	27.62
630.006	26.62
630.768	26.62
631.529	24.62
632.29	26.62
633.051	26.62
633.812	25.62
634.573	18.62
635.333	21.62
636.094	18.62
636.855	20.62
637.615	23.62
638.376	20.62
639.136	19.62
639.896	18.62
640.657	19.62
641.417	16.62
642.177	16.62
642.937	18.62
643.697	16.62
644.457	15.62
645.216	18.62
645.976	17.62
646.736	15.62
647.495	16.62
648.255	12.62
649.014	15.62
649.774	13.62
650.533	15.62
651.292	14.62
652.051	15.62
652.81	14.62
653.569	10.62
654.328	15.62
655.087	12.62
655.846	10.62
656.604	14.62
657.363	12.62
658.121	10.62
658.88	7.62
659.638	12.62
660.397	10.62
661.155	10.62
661.913	12.62
662.671	13.62
663.429	10.62
664.187	8.62
664.945	10.62
665.703	7.62
666.46	8.62
667.218	7.62
667.976	10.62
668.733	10.62
669.49	9.62
670.248	7.62
671.005	10.62
671.762	8.62
672.519	7.62
673.276	9.62
674.033	9.62
674.79	11.62
675.547	9.62
676.304	6.62
677.06	11.62
677.817	9.62
678.574	8.62
679.33	9.62
680.086	7.62
680.843	6.62
681.599	7.62
682.355	6.62
683.111	6.62
683.867	8.62
684.623	9.62
685.379	8.62
686.135	6.62
686.89	10.62
687.646	8.62
688.402	6.62
689.157	8.62
689.912	7.62
690.668	7.62
691.423	5.62
692.178	7.62
692.933	7.62
693.688	7.62
694.443	6.62
695.198	6.62
695.953	6.62
696.708	8.62
697.462	8.62
698.217	8.62
698.972	6.62
699.726	5.62
700.48	6.62
701.235	6.62
701.989	5.62
702.743	6.62
703.497	7.62
704.251	8.62
705.005	6.62
705.759	7.62
706.513	5.62
707.266	7.62
708.02	7.62
708.774	7.62
709.527	6.62
710.28	7.62
711.034	5.62
711.787	7.62
712.54	9.62
713.293	7.62
714.046	7.62
714.799	8.62
715.552	5.62
716.305	7.62
717.058	7.62
717.81	6.62
718.563	6.62
719.315	7.62
720.068	4.62
720.82	7.62
721.573	7.62
722.325	9.62
723.077	5.62
723.829	5.62
724.581	8.62
725.333	5.62
726.085	7.62
726.836	8.62
727.588	8.62
728.34	6.62
729.091	6.62
729.843	8.62
730.594	8.62
731.346	9.62
732.097	8.62
732.848	7.62
733.599	7.62
734.35	8.62
735.101	10.62
735.852	10.62
736.603	5.62
737.354	11.62
738.104	6.62
738.855	12.62
739.605	9.62
740.356	10.62
741.106	8.62
741.856	10.62
742.607	9.62
743.357	11.62
744.107	11.62
744.857	10.62
745.607	10.62
746.357	8.62
747.106	10.62
747.856	10.62
748.606	7.62
749.355	10.62
750.105	10.62
750.854	12.62
751.603	10.62
752.353	7.62
753.102	9.62
753.851	10.62
754.6	8.62
755.349	10.62
756.098	13.62
756.847	14.62
757.595	12.62
758.344	13.62
759.093	11.62
759.841	10.62
760.589	10.62
761.338	12.62
762.086	12.62
762.834	11.62
763.582	13.62
764.331	11.62
765.079	12.62
765.826	13.62
766.574	14.62
767.322	14.62
768.07	13.62
768.817	13.62
769.565	12.62
770.312	11.62
771.06	14.62
771.807	16.62
772.554	14.62
773.302	12.62
774.049	12.62
774.796	15.62
775.543	14.62
776.29	14.62
777.036	14.62
777.783	16.62
778.53	15.62
779.276	14.62
780.023	15.62
780.769	14.62
781.516	16.62
782.262	15.62
783.008	14.62
783.754	15.62
784.5	16.62
785.246	16.62
785.992	14.62
786.738	15.62
787.484	14.62
788.23	17.62
788.975	14.62
789.721	14.62
790.466	14.62
791.212	12.62
791.957	11.62
792.702	14.62
793.447	11.62
794.193	16.62
794.938	10.62
795.683	13.62
796.427	14.62
797.172	14.62
797.917	14.62
798.662	13.62
799.406	14.62
800.151	9.62
800.895	11.62
801.64	10.62
802.384	11.62
803.128	12.62
803.872	10.62
804.616	9.62
805.36	9.62
806.104	9.62
806.848	10.62
807.592	10.62
808.336	10.62
809.079	7.62
809.823	8.62
810.566	8.62
811.31	9.62
812.053	10.62
812.796	8.62
813.539	7.62
814.283	9.62
815.026	9.62
815.769	7.62
816.511	5.62
817.254	9.62
817.997	7.62
818.74	8.62
819.482	7.62
820.225	5.62
820.967	8.62
821.71	7.62
822.452	5.62
823.194	5.62
823.936	6.62
824.678	7.62
825.42	6.62
826.162	6.62
826.904	4.62
827.646	7.62
828.388	6.62
829.129	3.62
829.871	7.62
830.612	7.62
831.354	7.62
832.095	5.62
832.836	5.62
833.577	6.62
834.319	6.62
835.06	6.62
835.801	6.62
836.542	2.62
837.282	5.62
838.023	4.62
838.764	5.62
839.504	3.62
840.245	5.62
840.985	5.62
841.726	3.62
842.466	6.62
843.206	6.62
843.946	6.62
844.687	4.62
845.427	6.62
846.166	5.62
846.906	3.62
847.646	5.62
848.386	6.62
849.125	4.62
849.865	3.62
850.605	4.62
851.344	4.62
852.083	2.62
852.823	3.62
853.562	3.62
854.301	2.62
855.04	4.62
855.779	2.62
856.518	4.62
857.257	3.62
857.995	4.62
858.734	4.62
859.473	4.62
860.211	3.62
860.95	0.62
861.688	3.62
862.426	0.62
863.165	5.62
863.903	5.62
864.641	1.62
865.379	2.62
866.117	1.62
866.855	3.62
867.593	3.62
868.33	3.62
869.068	2.62
869.806	4.62
870.543	1.62
871.28	1.62
872.018	1.62
872.755	1.62
873.492	1.62
874.229	3.62
874.967	2.62
875.703	3.62
876.44	4.62
877.177	4.62
877.914	1.62
878.651	0.62
879.387	2.62
880.124	-0.38
880.86	1.62
881.597	-1.38
882.333	1.62
883.069	2.62
883.806	0.62
884.542	2.62
885.278	1.62
886.014	-0.38
886.749	0.62
887.485	0.62
888.221	1.62
888.957	-0.38
889.692	2.62
890.428	2.62
891.163	2.62
891.899	1.62
892.634	0.62
893.369	0.62
894.104	1.62
894.839	1.62
895.574	1.62
896.309	1.62
897.044	1.62
897.779	-0.38
898.514	2.62
899.248	0.62
899.983	0.62
900.717	1.62
901.452	1.62
902.186	1.62
902.92	1.62
903.654	2.62
904.389	-0.38
905.123	1.62
905.857	-1.38
906.59	-1.38
907.324	0.62
908.058	-0.38
908.792	0.62
909.525	2.62
910.259	0.62
910.992	-0.38
911.726	1.62
912.459	1.62
913.192	-1.38
913.925	0.62
914.658	0.62
915.391	1.62
916.124	-1.38
916.857	-1.38
917.59	1.62
918.323	0.62
919.055	-2.38
919.788	-0.38
920.521	-1.38
921.253	2.62
921.985	1.62
922.718	2.62
923.45	-0.38
924.182	-1.38
924.914	1.62
925.646	-0.38
926.378	-0.38
927.11	-2.38
927.841	-1.38
928.573	1.62
929.305	-0.38
930.036	1.62
930.768	1.62
931.499	-0.38
932.23	0.62
932.962	-1.38
933.693	1.62
934.424	0.62
935.155	1.62
935.886	-1.38
936.617	1.62
937.348	-1.38
938.078	-0.38
938.809	0.62
939.54	0.62
940.27	0.62
941.001	0.62
941.731	-0.38
942.461	0.62
943.191	-0.38
943.922	1.62
944.652	0.62
945.382	0.62
946.112	-0.38
946.841	-0.38
947.571	-1.38
948.301	0.62
949.031	2.62
949.76	0.62
950.49	1.62
951.219	1.62
951.948	-1.38
952.678	0.62
953.407	2.62
954.136	-0.38
954.865	-1.38
955.594	0.62
956.323	0.62
957.052	-2.38
957.78	-0.38
958.509	0.62
959.238	-0.38
959.966	-0.38
960.695	0.62
961.423	-1.38
962.151	1.62
962.88	1.62
963.608	0.62
964.336	-0.38
965.064	1.62
965.792	-1.38
966.52	2.62
967.247	2.62
967.975	-0.38
968.703	1.62
969.43	-2.38
970.158	0.62
970.885	-1.38
971.613	0.62
972.34	-0.38
973.067	-1.38
973.794	-0.38
974.521	-0.38
975.248	-0.38
975.975	-0.38
976.702	-2.38
977.429	0.62
978.156	-2.38
978.882	3.62
979.609	1.62
980.335	0.62
981.062	0.62
981.788	0.62
982.514	1.62
983.24	0.62
983.967	0.62
984.693	0.62
985.419	-1.38
986.144	-0.38
986.87	-0.38
987.596	0.62
988.322	-3.38
989.047	1.62
989.773	0.62
990.498	2.62
991.224	0.62
991.949	1.62
992.674	-0.38
993.399	1.62
994.124	2.62
994.849	0.62
995.574	-1.38
996.299	1.62
997.024	-1.38
997.749	2.62
998.473	-0.38
999.198	-0.38
999.922	-0.38
1000.647	-1.38
1001.371	3.62
1002.095	-2.38
1002.82	-0.38
1003.544	-1.38
1004.268	3.62
1004.992	3.62
1005.716	4.62
1006.439	3.62
1007.163	4.62
1007.887	5.62
1008.611	2.62
1009.334	-0.38
1010.058	0.62
1010.781	0.62
1011.504	1.62
1012.228	0.62
1012.951	-1.38
1013.674	2.62
1014.397	-1.38
1015.12	0.62
