节点500_705_QEPB04081__67__20-47-00-293.txt的数据

Date: Wed Nov 12 20:47:00 CST 2025
User: PC
Spectrometer: QEPB0408
触发模式: 0
积分时间 (秒): 1.000000E-2
Scans to average: 1
启用暗噪声校正: true
启用非线性校正: false
滑动平均宽度: 0
X轴模式: Wavelengths
Number of Pixels in Spectrum: 1044
>>>>>Begin Spectral Data<<<<<
220.843	10.12
221.644	3.12
222.444	7.12
223.244	7.12
224.045	7.12
224.845	6.12
225.645	8.12
226.445	8.12
227.245	7.12
228.045	8.12
228.845	8.12
229.645	8.12
230.444	10.12
231.244	7.12
232.043	9.12
232.843	9.12
233.642	10.12
234.442	10.12
235.241	11.12
236.04	11.12
236.839	10.12
237.638	11.12
238.437	10.12
239.236	13.12
240.035	13.12
240.833	9.12
241.632	13.12
242.43	15.12
243.229	15.12
244.027	15.12
244.826	14.12
245.624	14.12
246.422	13.12
247.22	16.12
248.018	15.12
248.816	18.12
249.614	17.12
250.412	15.12
251.21	18.12
252.007	18.12
252.805	21.12
253.602	21.12
254.4	16.12
255.197	19.12
255.994	21.12
256.791	22.12
257.589	19.12
258.386	23.12
259.183	21.12
259.979	25.12
260.776	24.12
261.573	27.12
262.37	25.12
263.166	27.12
263.963	32.12
264.759	28.12
265.556	30.12
266.352	28.12
267.148	27.12
267.944	32.12
268.74	34.12
269.536	32.12
270.332	32.12
271.128	31.12
271.924	35.12
272.719	33.12
273.515	36.12
274.311	38.12
275.106	37.12
275.901	37.12
276.697	36.12
277.492	35.12
278.287	41.12
279.082	39.12
279.877	36.12
280.672	37.12
281.467	36.12
282.262	35.12
283.056	37.12
283.851	35.12
284.646	36.12
285.44	38.12
286.234	35.12
287.029	34.12
287.823	36.12
288.617	33.12
289.411	34.12
290.205	34.12
290.999	33.12
291.793	35.12
292.587	31.12
293.381	36.12
294.174	30.12
294.968	32.12
295.761	29.12
296.555	29.12
297.348	27.12
298.141	26.12
298.935	30.12
299.728	26.12
300.521	26.12
301.314	24.12
302.107	25.12
302.899	24.12
303.692	24.12
304.485	24.12
305.277	21.12
306.07	23.12
306.862	20.12
307.655	25.12
308.447	23.12
309.239	18.12
310.031	23.12
310.823	19.12
311.615	19.12
312.407	19.12
313.199	21.12
313.991	19.12
314.783	16.12
315.574	19.12
316.366	15.12
317.157	15.12
317.949	19.12
318.74	15.12
319.531	11.12
320.322	12.12
321.113	19.12
321.904	16.12
322.695	13.12
323.486	13.12
324.277	13.12
325.068	10.12
325.858	13.12
326.649	15.12
327.439	11.12
328.23	15.12
329.02	12.12
329.81	13.12
330.6	14.12
331.391	12.12
332.181	13.12
332.971	13.12
333.76	13.12
334.55	11.12
335.34	12.12
336.13	14.12
336.919	15.12
337.709	11.12
338.498	11.12
339.287	11.12
340.077	15.12
340.866	13.12
341.655	13.12
342.444	12.12
343.233	13.12
344.022	9.12
344.811	8.12
345.6	10.12
346.388	11.12
347.177	12.12
347.965	12.12
348.754	11.12
349.542	11.12
350.33	10.12
351.119	13.12
351.907	10.12
352.695	11.12
353.483	10.12
354.271	9.12
355.059	12.12
355.846	9.12
356.634	9.12
357.422	11.12
358.209	12.12
358.997	12.12
359.784	11.12
360.571	10.12
361.359	9.12
362.146	11.12
362.933	13.12
363.72	13.12
364.507	9.12
365.294	9.12
366.081	11.12
366.867	9.12
367.654	9.12
368.44	11.12
369.227	11.12
370.013	10.12
370.8	12.12
371.586	11.12
372.372	10.12
373.158	10.12
373.944	8.12
374.73	9.12
375.516	11.12
376.302	10.12
377.088	10.12
377.873	10.12
378.659	10.12
379.445	11.12
380.23	9.12
381.015	11.12
381.801	11.12
382.586	12.12
383.371	9.12
384.156	9.12
384.941	13.12
385.726	11.12
386.511	14.12
387.296	14.12
388.08	11.12
388.865	11.12
389.649	13.12
390.434	14.12
391.218	13.12
392.003	13.12
392.787	11.12
393.571	10.12
394.355	13.12
395.139	13.12
395.923	15.12
396.707	13.12
397.491	15.12
398.274	13.12
399.058	14.12
399.842	12.12
400.625	15.12
401.408	17.12
402.192	15.12
402.975	13.12
403.758	15.12
404.541	16.12
405.324	15.12
406.107	14.12
406.89	17.12
407.673	15.12
408.456	16.12
409.238	19.12
410.021	14.12
410.803	17.12
411.586	19.12
412.368	19.12
413.151	17.12
413.933	17.12
414.715	21.12
415.497	19.12
416.279	19.12
417.061	22.12
417.843	20.12
418.624	21.12
419.406	19.12
420.188	23.12
420.969	20.12
421.751	20.12
422.532	20.12
423.313	24.12
424.095	24.12
424.876	25.12
425.657	25.12
426.438	26.12
427.219	30.12
428	30.12
428.78	27.12
429.561	29.12
430.342	31.12
431.122	34.12
431.903	34.12
432.683	35.12
433.464	39.12
434.244	37.12
435.024	37.12
435.804	41.12
436.584	42.12
437.364	45.12
438.144	45.12
438.924	53.12
439.704	51.12
440.483	55.12
441.263	58.12
442.042	63.12
442.822	69.12
443.601	71.12
444.38	76.12
445.16	86.12
445.939	93.12
446.718	99.12
447.497	103.12
448.276	114.12
449.054	127.12
449.833	136.12
450.612	153.12
451.391	169.12
452.169	184.12
452.948	206.12
453.726	230.12
454.504	249.12
455.282	280.12
456.061	310.12
456.839	339.12
457.617	389.12
458.395	429.12
459.172	482.12
459.95	535.12
460.728	597.12
461.506	671.12
462.283	747.12
463.061	837.12
463.838	936.12
464.615	1046.12
465.393	1177.12
466.17	1304.12
466.947	1457.12
467.724	1607.12
468.501	1795.12
469.278	2002.12
470.055	2214.12
470.831	2463.12
471.608	2733.12
472.385	3026.12
473.161	3347.12
473.938	3694.12
474.714	4069.12
475.49	4495.12
476.266	4973.12
477.043	5432.12
477.819	5979.12
478.595	6569.12
479.371	7200.12
480.146	7946.12
480.922	8714.12
481.698	9521.12
482.473	10428.12
483.249	11405.12
484.024	12440.12
484.8	13514.12
485.575	14699.12
486.35	16046.12
487.126	17439.12
487.901	18938.12
488.676	20476.12
489.451	22176.12
490.225	23858.12
491	25664.12
491.775	27462.12
492.55	29410.12
493.324	31372.12
494.099	33345.12
494.873	35277.12
495.647	37246.12
496.422	39181.12
497.196	41087.12
497.97	42731.12
498.744	44351.12
499.518	45916.12
500.292	47171.12
501.066	48189.12
501.839	48935.12
502.613	49442.12
503.387	49898.12
504.16	50009.12
504.934	49874.12
505.707	49513.12
506.48	48907.12
507.253	48176.12
508.027	47022.12
508.8	45798.12
509.573	44464.12
510.346	43127.12
511.118	41859.12
511.891	40361.12
512.664	38680.12
513.437	37171.12
514.209	35646.12
514.982	34200.12
515.754	32783.12
516.526	31314.12
517.298	30025.12
518.071	28819.12
518.843	27679.12
519.615	26580.12
520.387	25447.12
521.159	24449.12
521.93	23419.12
522.702	22412.12
523.474	21474.12
524.245	20476.12
525.017	19584.12
525.788	18697.12
526.56	17899.12
527.331	17090.12
528.102	16191.12
528.873	15371.12
529.644	14600.12
530.415	13844.12
531.186	13177.12
531.957	12410.12
532.728	11786.12
533.498	11146.12
534.269	10537.12
535.039	9999.12
535.81	9390.12
536.58	8903.12
537.351	8454.12
538.121	8005.12
538.891	7522.12
539.661	7136.12
540.431	6744.12
541.201	6422.12
541.971	6055.12
542.741	5794.12
543.51	5463.12
544.28	5223.12
545.05	4947.12
545.819	4733.12
546.588	4507.12
547.358	4260.12
548.127	4042.12
548.896	3859.12
549.665	3651.12
550.434	3456.12
551.203	3258.12
551.972	3100.12
552.741	2919.12
553.51	2767.12
554.278	2598.12
555.047	2462.12
555.815	2305.12
556.584	2201.12
557.352	2073.12
558.121	1970.12
558.889	1841.12
559.657	1755.12
560.425	1654.12
561.193	1569.12
561.961	1487.12
562.729	1387.12
563.496	1321.12
564.264	1242.12
565.032	1179.12
565.799	1129.12
566.567	1055.12
567.334	987.12
568.101	955.12
568.869	900.12
569.636	849.12
570.403	805.12
571.17	748.12
571.937	698.12
572.704	669.12
573.471	638.12
574.237	595.12
575.004	565.12
575.771	535.12
576.537	498.12
577.303	463.12
578.07	448.12
578.836	426.12
579.602	394.12
580.368	379.12
581.134	364.12
581.9	341.12
582.666	327.12
583.432	315.12
584.198	293.12
584.964	275.12
585.729	261.12
586.495	249.12
587.26	246.12
588.025	224.12
588.791	217.12
589.556	205.12
590.321	191.12
591.086	185.12
591.851	177.12
592.616	168.12
593.381	158.12
594.146	151.12
594.911	144.12
595.675	138.12
596.44	129.12
597.204	126.12
597.969	119.12
598.733	118.12
599.497	109.12
600.261	104.12
601.025	102.12
601.79	98.12
602.553	93.12
603.317	87.12
604.081	86.12
604.845	81.12
605.609	79.12
606.372	79.12
607.136	72.12
607.899	71.12
608.662	69.12
609.426	68.12
610.189	59.12
610.952	59.12
611.715	54.12
612.478	59.12
613.241	58.12
614.004	58.12
614.767	52.12
615.529	48.12
616.292	47.12
617.055	48.12
617.817	42.12
618.579	47.12
619.342	42.12
620.104	42.12
620.866	40.12
621.628	39.12
622.39	36.12
623.152	36.12
623.914	35.12
624.676	32.12
625.438	33.12
626.199	31.12
626.961	33.12
627.722	29.12
628.484	31.12
629.245	30.12
630.006	27.12
630.768	30.12
631.529	24.12
632.29	26.12
633.051	28.12
633.812	24.12
634.573	24.12
635.333	20.12
636.094	23.12
636.855	23.12
637.615	18.12
638.376	22.12
639.136	19.12
639.896	21.12
640.657	18.12
641.417	18.12
642.177	21.12
642.937	16.12
643.697	20.12
644.457	19.12
645.216	17.12
645.976	14.12
646.736	16.12
647.495	14.12
648.255	14.12
649.014	20.12
649.774	15.12
650.533	14.12
651.292	14.12
652.051	13.12
652.81	14.12
653.569	15.12
654.328	14.12
655.087	13.12
655.846	14.12
656.604	14.12
657.363	14.12
658.121	13.12
658.88	12.12
659.638	13.12
660.397	11.12
661.155	10.12
661.913	9.12
662.671	8.12
663.429	12.12
664.187	8.12
664.945	13.12
665.703	10.12
666.46	9.12
667.218	9.12
667.976	11.12
668.733	11.12
669.49	11.12
670.248	9.12
671.005	10.12
671.762	9.12
672.519	13.12
673.276	10.12
674.033	9.12
674.79	7.12
675.547	10.12
676.304	7.12
677.06	8.12
677.817	10.12
678.574	9.12
679.33	10.12
680.086	8.12
680.843	7.12
681.599	9.12
682.355	7.12
683.111	9.12
683.867	10.12
684.623	9.12
685.379	9.12
686.135	8.12
686.89	7.12
687.646	8.12
688.402	9.12
689.157	6.12
689.912	6.12
690.668	7.12
691.423	7.12
692.178	7.12
692.933	8.12
693.688	8.12
694.443	8.12
695.198	8.12
695.953	7.12
696.708	8.12
697.462	6.12
698.217	9.12
698.972	9.12
699.726	8.12
700.48	7.12
701.235	8.12
701.989	9.12
702.743	7.12
703.497	7.12
704.251	8.12
705.005	7.12
705.759	7.12
706.513	9.12
707.266	7.12
708.02	7.12
708.774	7.12
709.527	7.12
710.28	8.12
711.034	7.12
711.787	9.12
712.54	5.12
713.293	5.12
714.046	8.12
714.799	8.12
715.552	7.12
716.305	9.12
717.058	6.12
717.81	7.12
718.563	8.12
719.315	9.12
720.068	7.12
720.82	10.12
721.573	11.12
722.325	5.12
723.077	10.12
723.829	10.12
724.581	10.12
725.333	10.12
726.085	9.12
726.836	9.12
727.588	11.12
728.34	10.12
729.091	8.12
729.843	11.12
730.594	10.12
731.346	9.12
732.097	10.12
732.848	10.12
733.599	10.12
734.35	8.12
735.101	10.12
735.852	12.12
736.603	11.12
737.354	10.12
738.104	9.12
738.855	12.12
739.605	10.12
740.356	12.12
741.106	9.12
741.856	11.12
742.607	10.12
743.357	10.12
744.107	9.12
744.857	11.12
745.607	11.12
746.357	12.12
747.106	11.12
747.856	13.12
748.606	11.12
749.355	13.12
750.105	13.12
750.854	12.12
751.603	12.12
752.353	11.12
753.102	12.12
753.851	14.12
754.6	11.12
755.349	15.12
756.098	14.12
756.847	15.12
757.595	14.12
758.344	12.12
759.093	13.12
759.841	10.12
760.589	15.12
761.338	13.12
762.086	15.12
762.834	13.12
763.582	15.12
764.331	14.12
765.079	13.12
765.826	15.12
766.574	13.12
767.322	15.12
768.07	16.12
768.817	17.12
769.565	17.12
770.312	13.12
771.06	16.12
771.807	16.12
772.554	17.12
773.302	17.12
774.049	15.12
774.796	17.12
775.543	14.12
776.29	17.12
777.036	15.12
777.783	19.12
778.53	16.12
779.276	15.12
780.023	18.12
780.769	16.12
781.516	16.12
782.262	18.12
783.008	18.12
783.754	15.12
784.5	17.12
785.246	18.12
785.992	15.12
786.738	19.12
787.484	13.12
788.23	15.12
788.975	19.12
789.721	15.12
790.466	17.12
791.212	16.12
791.957	15.12
792.702	15.12
793.447	15.12
794.193	14.12
794.938	12.12
795.683	15.12
796.427	15.12
797.172	14.12
797.917	15.12
798.662	12.12
799.406	15.12
800.151	13.12
800.895	11.12
801.64	13.12
802.384	12.12
803.128	12.12
803.872	11.12
804.616	13.12
805.36	11.12
806.104	9.12
806.848	10.12
807.592	6.12
808.336	12.12
809.079	7.12
809.823	8.12
810.566	10.12
811.31	8.12
812.053	9.12
812.796	7.12
813.539	10.12
814.283	9.12
815.026	10.12
815.769	11.12
816.511	7.12
817.254	9.12
817.997	9.12
818.74	6.12
819.482	7.12
820.225	6.12
820.967	6.12
821.71	7.12
822.452	9.12
823.194	5.12
823.936	8.12
824.678	7.12
825.42	8.12
826.162	9.12
826.904	10.12
827.646	9.12
828.388	8.12
829.129	6.12
829.871	7.12
830.612	6.12
831.354	6.12
832.095	7.12
832.836	7.12
833.577	4.12
834.319	6.12
835.06	5.12
835.801	6.12
836.542	7.12
837.282	6.12
838.023	5.12
838.764	6.12
839.504	4.12
840.245	6.12
840.985	5.12
841.726	5.12
842.466	7.12
843.206	7.12
843.946	6.12
844.687	5.12
845.427	4.12
846.166	6.12
846.906	4.12
847.646	3.12
848.386	3.12
849.125	6.12
849.865	6.12
850.605	7.12
851.344	3.12
852.083	6.12
852.823	5.12
853.562	6.12
854.301	5.12
855.04	2.12
855.779	3.12
856.518	5.12
857.257	2.12
857.995	5.12
858.734	3.12
859.473	5.12
860.211	3.12
860.95	2.12
861.688	4.12
862.426	3.12
863.165	3.12
863.903	2.12
864.641	3.12
865.379	4.12
866.117	3.12
866.855	5.12
867.593	3.12
868.33	2.12
869.068	3.12
869.806	1.12
870.543	3.12
871.28	3.12
872.018	2.12
872.755	4.12
873.492	4.12
874.229	1.12
874.967	3.12
875.703	3.12
876.44	1.12
877.177	2.12
877.914	1.12
878.651	2.12
879.387	3.12
880.124	2.12
880.86	2.12
881.597	0.12
882.333	2.12
883.069	2.12
883.806	1.12
884.542	2.12
885.278	1.12
886.014	2.12
886.749	3.12
887.485	3.12
888.221	1.12
888.957	0.12
889.692	2.12
890.428	1.12
891.163	3.12
891.899	2.12
892.634	2.12
893.369	-0.88
894.104	-0.88
894.839	2.12
895.574	0.12
896.309	1.12
897.044	0.12
897.779	2.12
898.514	3.12
899.248	1.12
899.983	2.12
900.717	2.12
901.452	2.12
902.186	-0.88
902.92	-0.88
903.654	1.12
904.389	-0.88
905.123	1.12
905.857	3.12
906.59	0.12
907.324	1.12
908.058	2.12
908.792	0.12
909.525	1.12
910.259	1.12
910.992	2.12
911.726	0.12
912.459	2.12
913.192	0.12
913.925	2.12
914.658	-0.88
915.391	2.12
916.124	0.12
916.857	-1.88
917.59	3.12
918.323	-0.88
919.055	-0.88
919.788	1.12
920.521	3.12
921.253	0.12
921.985	1.12
922.718	-0.88
923.45	0.12
924.182	2.12
924.914	0.12
925.646	-0.88
926.378	3.12
927.11	-0.88
927.841	1.12
928.573	1.12
929.305	2.12
930.036	-0.88
930.768	0.12
931.499	3.12
932.23	-0.88
932.962	1.12
933.693	1.12
934.424	2.12
935.155	2.12
935.886	0.12
936.617	4.12
937.348	2.12
938.078	0.12
938.809	3.12
939.54	-2.88
940.27	0.12
941.001	1.12
941.731	-0.88
942.461	0.12
943.191	-1.88
943.922	-0.88
944.652	1.12
945.382	-0.88
946.112	2.12
946.841	1.12
947.571	0.12
948.301	1.12
949.031	3.12
949.76	-1.88
950.49	0.12
951.219	0.12
951.948	1.12
952.678	3.12
953.407	1.12
954.136	-0.88
954.865	3.12
955.594	1.12
956.323	-1.88
957.052	0.12
957.78	0.12
958.509	-0.88
959.238	1.12
959.966	2.12
960.695	-0.88
961.423	-0.88
962.151	1.12
962.88	1.12
963.608	1.12
964.336	-0.88
965.064	1.12
965.792	1.12
966.52	0.12
967.247	-1.88
967.975	-0.88
968.703	-0.88
969.43	1.12
970.158	-0.88
970.885	-0.88
971.613	0.12
972.34	-0.88
973.067	1.12
973.794	-1.88
974.521	1.12
975.248	2.12
975.975	-2.88
976.702	1.12
977.429	-2.88
978.156	0.12
978.882	1.12
979.609	1.12
980.335	-0.88
981.062	-0.88
981.788	0.12
982.514	1.12
983.24	1.12
983.967	0.12
984.693	1.12
985.419	1.12
986.144	-2.88
986.87	2.12
987.596	-0.88
988.322	2.12
989.047	1.12
989.773	0.12
990.498	0.12
991.224	-1.88
991.949	0.12
992.674	1.12
993.399	0.12
994.124	2.12
994.849	2.12
995.574	3.12
996.299	0.12
997.024	-0.88
997.749	1.12
998.473	-0.88
999.198	-0.88
999.922	-0.88
1000.647	4.12
1001.371	5.12
1002.095	-1.88
1002.82	-1.88
1003.544	-1.88
1004.268	5.12
1004.992	7.12
1005.716	4.12
1006.439	5.12
1007.163	7.12
1007.887	4.12
1008.611	-0.88
1009.334	-0.88
1010.058	-0.88
1010.781	-0.88
1011.504	-0.88
1012.228	0.12
1012.951	0.12
1013.674	0.12
1014.397	0.12
1015.12	0.12
