节点500_705_QEPB04081__430__20-52-01-701.txt的数据

Date: Wed Nov 12 20:52:01 CST 2025
User: PC
Spectrometer: QEPB0408
触发模式: 0
积分时间 (秒): 1.000000E-2
Scans to average: 1
启用暗噪声校正: true
启用非线性校正: false
滑动平均宽度: 0
X轴模式: Wavelengths
Number of Pixels in Spectrum: 1044
>>>>>Begin Spectral Data<<<<<
220.843	7.38
221.644	6.38
222.444	5.38
223.244	6.38
224.045	6.38
224.845	9.38
225.645	6.38
226.445	7.38
227.245	5.38
228.045	8.38
228.845	8.38
229.645	6.38
230.444	7.38
231.244	8.38
232.043	8.38
232.843	9.38
233.642	13.38
234.442	8.38
235.241	9.38
236.04	11.38
236.839	8.38
237.638	9.38
238.437	9.38
239.236	12.38
240.035	13.38
240.833	12.38
241.632	9.38
242.43	11.38
243.229	12.38
244.027	13.38
244.826	13.38
245.624	14.38
246.422	15.38
247.22	14.38
248.018	14.38
248.816	12.38
249.614	15.38
250.412	12.38
251.21	15.38
252.007	14.38
252.805	16.38
253.602	18.38
254.4	16.38
255.197	17.38
255.994	18.38
256.791	16.38
257.589	21.38
258.386	18.38
259.183	20.38
259.979	18.38
260.776	21.38
261.573	22.38
262.37	23.38
263.166	23.38
263.963	23.38
264.759	25.38
265.556	25.38
266.352	24.38
267.148	24.38
267.944	25.38
268.74	29.38
269.536	30.38
270.332	27.38
271.128	29.38
271.924	29.38
272.719	32.38
273.515	31.38
274.311	35.38
275.106	32.38
275.901	34.38
276.697	33.38
277.492	32.38
278.287	36.38
279.082	31.38
279.877	34.38
280.672	36.38
281.467	30.38
282.262	33.38
283.056	35.38
283.851	37.38
284.646	31.38
285.44	34.38
286.234	33.38
287.029	33.38
287.823	33.38
288.617	30.38
289.411	30.38
290.205	27.38
290.999	32.38
291.793	27.38
292.587	32.38
293.381	29.38
294.174	30.38
294.968	28.38
295.761	27.38
296.555	29.38
297.348	27.38
298.141	25.38
298.935	31.38
299.728	26.38
300.521	27.38
301.314	26.38
302.107	23.38
302.899	21.38
303.692	22.38
304.485	22.38
305.277	19.38
306.07	25.38
306.862	24.38
307.655	21.38
308.447	20.38
309.239	20.38
310.031	20.38
310.823	20.38
311.615	18.38
312.407	19.38
313.199	17.38
313.991	17.38
314.783	13.38
315.574	19.38
316.366	16.38
317.157	13.38
317.949	19.38
318.74	15.38
319.531	17.38
320.322	16.38
321.113	14.38
321.904	13.38
322.695	14.38
323.486	17.38
324.277	14.38
325.068	13.38
325.858	12.38
326.649	11.38
327.439	10.38
328.23	10.38
329.02	10.38
329.81	15.38
330.6	14.38
331.391	11.38
332.181	15.38
332.971	11.38
333.76	12.38
334.55	12.38
335.34	12.38
336.13	10.38
336.919	15.38
337.709	10.38
338.498	11.38
339.287	12.38
340.077	13.38
340.866	11.38
341.655	12.38
342.444	13.38
343.233	12.38
344.022	11.38
344.811	10.38
345.6	10.38
346.388	12.38
347.177	11.38
347.965	12.38
348.754	12.38
349.542	13.38
350.33	10.38
351.119	11.38
351.907	12.38
352.695	10.38
353.483	12.38
354.271	7.38
355.059	12.38
355.846	10.38
356.634	10.38
357.422	11.38
358.209	9.38
358.997	11.38
359.784	8.38
360.571	10.38
361.359	11.38
362.146	11.38
362.933	11.38
363.72	11.38
364.507	9.38
365.294	8.38
366.081	10.38
366.867	11.38
367.654	10.38
368.44	10.38
369.227	10.38
370.013	12.38
370.8	9.38
371.586	9.38
372.372	8.38
373.158	11.38
373.944	9.38
374.73	11.38
375.516	11.38
376.302	11.38
377.088	11.38
377.873	10.38
378.659	10.38
379.445	9.38
380.23	10.38
381.015	8.38
381.801	9.38
382.586	9.38
383.371	11.38
384.156	10.38
384.941	11.38
385.726	11.38
386.511	12.38
387.296	11.38
388.08	11.38
388.865	11.38
389.649	15.38
390.434	10.38
391.218	13.38
392.003	11.38
392.787	12.38
393.571	10.38
394.355	13.38
395.139	11.38
395.923	12.38
396.707	14.38
397.491	11.38
398.274	15.38
399.058	13.38
399.842	14.38
400.625	11.38
401.408	13.38
402.192	13.38
402.975	12.38
403.758	15.38
404.541	13.38
405.324	16.38
406.107	16.38
406.89	14.38
407.673	14.38
408.456	15.38
409.238	18.38
410.021	17.38
410.803	15.38
411.586	14.38
412.368	17.38
413.151	17.38
413.933	18.38
414.715	18.38
415.497	17.38
416.279	15.38
417.061	17.38
417.843	18.38
418.624	17.38
419.406	19.38
420.188	19.38
420.969	18.38
421.751	21.38
422.532	24.38
423.313	22.38
424.095	23.38
424.876	22.38
425.657	24.38
426.438	26.38
427.219	28.38
428	27.38
428.78	26.38
429.561	27.38
430.342	33.38
431.122	29.38
431.903	33.38
432.683	34.38
433.464	37.38
434.244	34.38
435.024	38.38
435.804	42.38
436.584	43.38
437.364	46.38
438.144	46.38
438.924	52.38
439.704	52.38
440.483	57.38
441.263	60.38
442.042	67.38
442.822	69.38
443.601	76.38
444.38	81.38
445.16	86.38
445.939	96.38
446.718	104.38
447.497	113.38
448.276	127.38
449.054	137.38
449.833	149.38
450.612	166.38
451.391	183.38
452.169	205.38
452.948	223.38
453.726	244.38
454.504	276.38
455.282	305.38
456.061	343.38
456.839	372.38
457.617	425.38
458.395	475.38
459.172	520.38
459.95	573.38
460.728	658.38
461.506	713.38
462.283	814.38
463.061	905.38
463.838	1008.38
464.615	1113.38
465.393	1218.38
466.17	1367.38
466.947	1512.38
467.724	1675.38
468.501	1864.38
469.278	2058.38
470.055	2283.38
470.831	2518.38
471.608	2768.38
472.385	3026.38
473.161	3361.38
473.938	3683.38
474.714	4018.38
475.49	4414.38
476.266	4825.38
477.043	5273.38
477.819	5761.38
478.595	6257.38
479.371	6842.38
480.146	7405.38
480.922	8130.38
481.698	8763.38
482.473	9562.38
483.249	10366.38
484.024	11284.38
484.8	12140.38
485.575	13132.38
486.35	14298.38
487.126	15378.38
487.901	16607.38
488.676	17864.38
489.451	19294.38
490.225	20731.38
491	22144.38
491.775	23686.38
492.55	25354.38
493.324	26952.38
494.099	28707.38
494.873	30428.38
495.647	32142.38
496.422	33793.38
497.196	35525.38
497.97	37163.38
498.744	38616.38
499.518	40211.38
500.292	41689.38
501.066	42632.38
501.839	43565.38
502.613	44414.38
503.387	45187.38
504.16	45682.38
504.934	45815.38
505.707	45980.38
506.48	45654.38
507.253	45333.38
508.027	44738.38
508.8	44066.38
509.573	43136.38
510.346	42139.38
511.118	41214.38
511.891	40099.38
512.664	38631.38
513.437	37198.38
514.209	35872.38
514.982	34652.38
515.754	33253.38
516.526	31964.38
517.298	30690.38
518.071	29456.38
518.843	28336.38
519.615	27240.38
520.387	26095.38
521.159	25033.38
521.93	24042.38
522.702	23030.38
523.474	22063.38
524.245	21178.38
525.017	20260.38
525.788	19451.38
526.56	18698.38
527.331	17791.38
528.102	16939.38
528.873	16048.38
529.644	15340.38
530.415	14650.38
531.186	13909.38
531.957	13238.38
532.728	12558.38
533.498	11945.38
534.269	11282.38
535.039	10676.38
535.81	10135.38
536.58	9553.38
537.351	9059.38
538.121	8607.38
538.891	8131.38
539.661	7663.38
540.431	7268.38
541.201	6895.38
541.971	6576.38
542.741	6175.38
543.51	5875.38
544.28	5599.38
545.05	5317.38
545.819	5071.38
546.588	4838.38
547.358	4630.38
548.127	4383.38
548.896	4161.38
549.665	3950.38
550.434	3773.38
551.203	3563.38
551.972	3370.38
552.741	3218.38
553.51	3001.38
554.278	2855.38
555.047	2699.38
555.815	2547.38
556.584	2393.38
557.352	2278.38
558.121	2156.38
558.889	2025.38
559.657	1944.38
560.425	1832.38
561.193	1731.38
561.961	1629.38
562.729	1546.38
563.496	1457.38
564.264	1373.38
565.032	1294.38
565.799	1255.38
566.567	1164.38
567.334	1107.38
568.101	1047.38
568.869	989.38
569.636	924.38
570.403	873.38
571.17	834.38
571.937	769.38
572.704	730.38
573.471	699.38
574.237	661.38
575.004	626.38
575.771	583.38
576.537	553.38
577.303	527.38
578.07	490.38
578.836	469.38
579.602	435.38
580.368	422.38
581.134	398.38
581.9	380.38
582.666	363.38
583.432	337.38
584.198	314.38
584.964	312.38
585.729	299.38
586.495	275.38
587.26	264.38
588.025	239.38
588.791	239.38
589.556	221.38
590.321	212.38
591.086	203.38
591.851	190.38
592.616	179.38
593.381	174.38
594.146	161.38
594.911	160.38
595.675	155.38
596.44	144.38
597.204	139.38
597.969	130.38
598.733	131.38
599.497	120.38
600.261	110.38
601.025	113.38
601.79	103.38
602.553	105.38
603.317	96.38
604.081	92.38
604.845	88.38
605.609	85.38
606.372	82.38
607.136	78.38
607.899	78.38
608.662	73.38
609.426	71.38
610.189	68.38
610.952	65.38
611.715	62.38
612.478	60.38
613.241	59.38
614.004	58.38
614.767	55.38
615.529	54.38
616.292	48.38
617.055	45.38
617.817	46.38
618.579	44.38
619.342	45.38
620.104	43.38
620.866	42.38
621.628	41.38
622.39	39.38
623.152	40.38
623.914	38.38
624.676	37.38
625.438	35.38
626.199	31.38
626.961	30.38
627.722	33.38
628.484	32.38
629.245	31.38
630.006	29.38
630.768	28.38
631.529	30.38
632.29	26.38
633.051	27.38
633.812	25.38
634.573	26.38
635.333	25.38
636.094	26.38
636.855	22.38
637.615	20.38
638.376	24.38
639.136	20.38
639.896	19.38
640.657	22.38
641.417	19.38
642.177	19.38
642.937	18.38
643.697	17.38
644.457	19.38
645.216	18.38
645.976	17.38
646.736	16.38
647.495	18.38
648.255	15.38
649.014	13.38
649.774	13.38
650.533	12.38
651.292	15.38
652.051	13.38
652.81	13.38
653.569	13.38
654.328	14.38
655.087	15.38
655.846	14.38
656.604	10.38
657.363	11.38
658.121	13.38
658.88	12.38
659.638	10.38
660.397	10.38
661.155	11.38
661.913	11.38
662.671	11.38
663.429	11.38
664.187	12.38
664.945	10.38
665.703	12.38
666.46	10.38
667.218	12.38
667.976	12.38
668.733	12.38
669.49	11.38
670.248	9.38
671.005	10.38
671.762	9.38
672.519	7.38
673.276	10.38
674.033	9.38
674.79	11.38
675.547	9.38
676.304	8.38
677.06	5.38
677.817	6.38
678.574	10.38
679.33	8.38
680.086	10.38
680.843	8.38
681.599	9.38
682.355	12.38
683.111	6.38
683.867	8.38
684.623	9.38
685.379	9.38
686.135	8.38
686.89	7.38
687.646	9.38
688.402	8.38
689.157	9.38
689.912	8.38
690.668	8.38
691.423	9.38
692.178	6.38
692.933	10.38
693.688	6.38
694.443	9.38
695.198	7.38
695.953	8.38
696.708	8.38
697.462	6.38
698.217	8.38
698.972	8.38
699.726	8.38
700.48	11.38
701.235	6.38
701.989	8.38
702.743	5.38
703.497	10.38
704.251	7.38
705.005	7.38
705.759	9.38
706.513	7.38
707.266	7.38
708.02	7.38
708.774	7.38
709.527	7.38
710.28	6.38
711.034	7.38
711.787	8.38
712.54	8.38
713.293	7.38
714.046	8.38
714.799	7.38
715.552	8.38
716.305	11.38
717.058	8.38
717.81	8.38
718.563	8.38
719.315	6.38
720.068	8.38
720.82	6.38
721.573	10.38
722.325	9.38
723.077	8.38
723.829	7.38
724.581	6.38
725.333	7.38
726.085	6.38
726.836	10.38
727.588	9.38
728.34	6.38
729.091	9.38
729.843	9.38
730.594	8.38
731.346	10.38
732.097	8.38
732.848	10.38
733.599	8.38
734.35	9.38
735.101	10.38
735.852	10.38
736.603	9.38
737.354	10.38
738.104	8.38
738.855	8.38
739.605	10.38
740.356	9.38
741.106	10.38
741.856	11.38
742.607	12.38
743.357	9.38
744.107	9.38
744.857	11.38
745.607	12.38
746.357	12.38
747.106	10.38
747.856	9.38
748.606	12.38
749.355	9.38
750.105	9.38
750.854	11.38
751.603	12.38
752.353	12.38
753.102	10.38
753.851	13.38
754.6	12.38
755.349	10.38
756.098	12.38
756.847	12.38
757.595	15.38
758.344	12.38
759.093	12.38
759.841	11.38
760.589	11.38
761.338	15.38
762.086	11.38
762.834	12.38
763.582	14.38
764.331	13.38
765.079	14.38
765.826	11.38
766.574	12.38
767.322	16.38
768.07	11.38
768.817	13.38
769.565	14.38
770.312	15.38
771.06	13.38
771.807	15.38
772.554	13.38
773.302	15.38
774.049	17.38
774.796	13.38
775.543	16.38
776.29	16.38
777.036	13.38
777.783	15.38
778.53	13.38
779.276	14.38
780.023	14.38
780.769	15.38
781.516	14.38
782.262	13.38
783.008	18.38
783.754	15.38
784.5	13.38
785.246	18.38
785.992	15.38
786.738	15.38
787.484	15.38
788.23	13.38
788.975	16.38
789.721	17.38
790.466	13.38
791.212	14.38
791.957	15.38
792.702	12.38
793.447	17.38
794.193	13.38
794.938	13.38
795.683	16.38
796.427	11.38
797.172	11.38
797.917	12.38
798.662	13.38
799.406	12.38
800.151	12.38
800.895	12.38
801.64	9.38
802.384	10.38
803.128	13.38
803.872	13.38
804.616	12.38
805.36	11.38
806.104	11.38
806.848	11.38
807.592	14.38
808.336	10.38
809.079	10.38
809.823	9.38
810.566	11.38
811.31	8.38
812.053	7.38
812.796	9.38
813.539	9.38
814.283	9.38
815.026	8.38
815.769	10.38
816.511	8.38
817.254	11.38
817.997	9.38
818.74	6.38
819.482	5.38
820.225	10.38
820.967	6.38
821.71	7.38
822.452	6.38
823.194	7.38
823.936	7.38
824.678	7.38
825.42	5.38
826.162	7.38
826.904	8.38
827.646	6.38
828.388	8.38
829.129	8.38
829.871	4.38
830.612	7.38
831.354	7.38
832.095	5.38
832.836	5.38
833.577	5.38
834.319	8.38
835.06	5.38
835.801	8.38
836.542	5.38
837.282	8.38
838.023	6.38
838.764	5.38
839.504	8.38
840.245	4.38
840.985	8.38
841.726	7.38
842.466	5.38
843.206	5.38
843.946	6.38
844.687	5.38
845.427	5.38
846.166	7.38
846.906	7.38
847.646	6.38
848.386	1.38
849.125	6.38
849.865	4.38
850.605	3.38
851.344	6.38
852.083	7.38
852.823	4.38
853.562	3.38
854.301	4.38
855.04	3.38
855.779	5.38
856.518	4.38
857.257	4.38
857.995	4.38
858.734	5.38
859.473	5.38
860.211	4.38
860.95	4.38
861.688	2.38
862.426	4.38
863.165	2.38
863.903	1.38
864.641	4.38
865.379	4.38
866.117	3.38
866.855	5.38
867.593	2.38
868.33	2.38
869.068	3.38
869.806	2.38
870.543	3.38
871.28	3.38
872.018	3.38
872.755	2.38
873.492	3.38
874.229	2.38
874.967	3.38
875.703	3.38
876.44	2.38
877.177	1.38
877.914	0.38
878.651	2.38
879.387	2.38
880.124	2.38
880.86	2.38
881.597	0.38
882.333	3.38
883.069	2.38
883.806	5.38
884.542	0.38
885.278	1.38
886.014	0.38
886.749	3.38
887.485	1.38
888.221	4.38
888.957	1.38
889.692	1.38
890.428	0.38
891.163	1.38
891.899	1.38
892.634	-0.62
893.369	-0.62
894.104	1.38
894.839	-0.62
895.574	2.38
896.309	1.38
897.044	0.38
897.779	2.38
898.514	0.38
899.248	3.38
899.983	1.38
900.717	1.38
901.452	-0.62
902.186	-0.62
902.92	-0.62
903.654	1.38
904.389	2.38
905.123	1.38
905.857	1.38
906.59	-0.62
907.324	2.38
908.058	2.38
908.792	1.38
909.525	1.38
910.259	0.38
910.992	1.38
911.726	0.38
912.459	-0.62
913.192	-0.62
913.925	2.38
914.658	0.38
915.391	2.38
916.124	-0.62
916.857	2.38
917.59	-0.62
918.323	1.38
919.055	0.38
919.788	-1.62
920.521	1.38
921.253	0.38
921.985	3.38
922.718	-0.62
923.45	2.38
924.182	2.38
924.914	1.38
925.646	2.38
926.378	-0.62
927.11	2.38
927.841	0.38
928.573	4.38
929.305	1.38
930.036	0.38
930.768	1.38
931.499	1.38
932.23	0.38
932.962	0.38
933.693	1.38
934.424	1.38
935.155	0.38
935.886	2.38
936.617	-1.62
937.348	3.38
938.078	-0.62
938.809	0.38
939.54	0.38
940.27	0.38
941.001	1.38
941.731	1.38
942.461	-0.62
943.191	0.38
943.922	0.38
944.652	1.38
945.382	0.38
946.112	-0.62
946.841	0.38
947.571	1.38
948.301	1.38
949.031	-0.62
949.76	2.38
950.49	2.38
951.219	4.38
951.948	-0.62
952.678	0.38
953.407	0.38
954.136	-1.62
954.865	1.38
955.594	1.38
956.323	-2.62
957.052	1.38
957.78	-0.62
958.509	1.38
959.238	1.38
959.966	1.38
960.695	0.38
961.423	0.38
962.151	2.38
962.88	0.38
963.608	1.38
964.336	1.38
965.064	2.38
965.792	2.38
966.52	0.38
967.247	-0.62
967.975	-0.62
968.703	2.38
969.43	0.38
970.158	1.38
970.885	0.38
971.613	-0.62
972.34	1.38
973.067	0.38
973.794	2.38
974.521	2.38
975.248	1.38
975.975	2.38
976.702	2.38
977.429	-1.62
978.156	0.38
978.882	2.38
979.609	0.38
980.335	-0.62
981.062	0.38
981.788	-0.62
982.514	0.38
983.24	0.38
983.967	0.38
984.693	2.38
985.419	-0.62
986.144	0.38
986.87	0.38
987.596	1.38
988.322	0.38
989.047	1.38
989.773	1.38
990.498	-1.62
991.224	1.38
991.949	3.38
992.674	1.38
993.399	1.38
994.124	2.38
994.849	0.38
995.574	-1.62
996.299	2.38
997.024	0.38
997.749	2.38
998.473	2.38
999.198	2.38
999.922	1.38
1000.647	1.38
1001.371	2.38
1002.095	-0.62
1002.82	-1.62
1003.544	-0.62
1004.268	5.38
1004.992	7.38
1005.716	6.38
1006.439	6.38
1007.163	5.38
1007.887	5.38
1008.611	1.38
1009.334	-0.62
1010.058	0.38
1010.781	2.38
1011.504	2.38
1012.228	1.38
1012.951	0.38
1013.674	-1.62
1014.397	1.38
1015.12	0.38
