节点500_705_QEPB04081__439__20-52-08-721.txt的数据

Date: Wed Nov 12 20:52:08 CST 2025
User: PC
Spectrometer: QEPB0408
触发模式: 0
积分时间 (秒): 1.000000E-2
Scans to average: 1
启用暗噪声校正: true
启用非线性校正: false
滑动平均宽度: 0
X轴模式: Wavelengths
Number of Pixels in Spectrum: 1044
>>>>>Begin Spectral Data<<<<<
220.843	3.25
221.644	4.25
222.444	4.25
223.244	2.25
224.045	5.25
224.845	7.25
225.645	6.25
226.445	5.25
227.245	5.25
228.045	6.25
228.845	6.25
229.645	7.25
230.444	8.25
231.244	6.25
232.043	8.25
232.843	7.25
233.642	8.25
234.442	6.25
235.241	7.25
236.04	9.25
236.839	10.25
237.638	9.25
238.437	9.25
239.236	10.25
240.035	13.25
240.833	9.25
241.632	12.25
242.43	11.25
243.229	13.25
244.027	11.25
244.826	12.25
245.624	12.25
246.422	11.25
247.22	15.25
248.018	11.25
248.816	13.25
249.614	11.25
250.412	12.25
251.21	15.25
252.007	14.25
252.805	16.25
253.602	18.25
254.4	19.25
255.197	18.25
255.994	18.25
256.791	18.25
257.589	18.25
258.386	18.25
259.183	18.25
259.979	20.25
260.776	20.25
261.573	19.25
262.37	25.25
263.166	23.25
263.963	26.25
264.759	24.25
265.556	26.25
266.352	24.25
267.148	25.25
267.944	24.25
268.74	25.25
269.536	26.25
270.332	29.25
271.128	26.25
271.924	28.25
272.719	30.25
273.515	30.25
274.311	30.25
275.106	33.25
275.901	32.25
276.697	30.25
277.492	29.25
278.287	30.25
279.082	35.25
279.877	33.25
280.672	34.25
281.467	30.25
282.262	34.25
283.056	33.25
283.851	31.25
284.646	31.25
285.44	29.25
286.234	33.25
287.029	33.25
287.823	28.25
288.617	35.25
289.411	30.25
290.205	31.25
290.999	29.25
291.793	32.25
292.587	28.25
293.381	28.25
294.174	30.25
294.968	29.25
295.761	26.25
296.555	25.25
297.348	25.25
298.141	24.25
298.935	28.25
299.728	21.25
300.521	25.25
301.314	24.25
302.107	24.25
302.899	22.25
303.692	26.25
304.485	24.25
305.277	20.25
306.07	20.25
306.862	19.25
307.655	21.25
308.447	22.25
309.239	19.25
310.031	19.25
310.823	17.25
311.615	18.25
312.407	17.25
313.199	18.25
313.991	17.25
314.783	16.25
315.574	17.25
316.366	16.25
317.157	17.25
317.949	15.25
318.74	14.25
319.531	13.25
320.322	14.25
321.113	15.25
321.904	12.25
322.695	13.25
323.486	13.25
324.277	14.25
325.068	12.25
325.858	13.25
326.649	12.25
327.439	10.25
328.23	13.25
329.02	13.25
329.81	12.25
330.6	13.25
331.391	9.25
332.181	13.25
332.971	13.25
333.76	13.25
334.55	11.25
335.34	12.25
336.13	10.25
336.919	11.25
337.709	11.25
338.498	10.25
339.287	10.25
340.077	14.25
340.866	10.25
341.655	11.25
342.444	10.25
343.233	10.25
344.022	9.25
344.811	10.25
345.6	10.25
346.388	10.25
347.177	10.25
347.965	11.25
348.754	8.25
349.542	9.25
350.33	8.25
351.119	11.25
351.907	12.25
352.695	11.25
353.483	12.25
354.271	11.25
355.059	10.25
355.846	8.25
356.634	10.25
357.422	11.25
358.209	8.25
358.997	9.25
359.784	10.25
360.571	12.25
361.359	8.25
362.146	7.25
362.933	8.25
363.72	10.25
364.507	10.25
365.294	8.25
366.081	9.25
366.867	9.25
367.654	8.25
368.44	8.25
369.227	7.25
370.013	8.25
370.8	9.25
371.586	8.25
372.372	10.25
373.158	9.25
373.944	9.25
374.73	9.25
375.516	9.25
376.302	8.25
377.088	8.25
377.873	10.25
378.659	8.25
379.445	10.25
380.23	9.25
381.015	10.25
381.801	5.25
382.586	7.25
383.371	9.25
384.156	9.25
384.941	11.25
385.726	10.25
386.511	10.25
387.296	11.25
388.08	9.25
388.865	11.25
389.649	10.25
390.434	11.25
391.218	10.25
392.003	10.25
392.787	9.25
393.571	9.25
394.355	13.25
395.139	8.25
395.923	12.25
396.707	12.25
397.491	10.25
398.274	10.25
399.058	12.25
399.842	13.25
400.625	12.25
401.408	12.25
402.192	14.25
402.975	12.25
403.758	13.25
404.541	15.25
405.324	14.25
406.107	15.25
406.89	12.25
407.673	14.25
408.456	14.25
409.238	15.25
410.021	16.25
410.803	14.25
411.586	18.25
412.368	14.25
413.151	18.25
413.933	18.25
414.715	18.25
415.497	19.25
416.279	16.25
417.061	18.25
417.843	18.25
418.624	21.25
419.406	18.25
420.188	20.25
420.969	19.25
421.751	18.25
422.532	21.25
423.313	25.25
424.095	23.25
424.876	19.25
425.657	22.25
426.438	24.25
427.219	25.25
428	26.25
428.78	26.25
429.561	26.25
430.342	27.25
431.122	32.25
431.903	34.25
432.683	33.25
433.464	36.25
434.244	37.25
435.024	37.25
435.804	44.25
436.584	39.25
437.364	45.25
438.144	51.25
438.924	46.25
439.704	50.25
440.483	56.25
441.263	59.25
442.042	65.25
442.822	72.25
443.601	76.25
444.38	86.25
445.16	91.25
445.939	92.25
446.718	104.25
447.497	117.25
448.276	131.25
449.054	138.25
449.833	147.25
450.612	168.25
451.391	184.25
452.169	204.25
452.948	223.25
453.726	242.25
454.504	282.25
455.282	306.25
456.061	348.25
456.839	376.25
457.617	418.25
458.395	466.25
459.172	526.25
459.95	583.25
460.728	661.25
461.506	727.25
462.283	808.25
463.061	908.25
463.838	1013.25
464.615	1112.25
465.393	1245.25
466.17	1376.25
466.947	1532.25
467.724	1672.25
468.501	1863.25
469.278	2062.25
470.055	2261.25
470.831	2485.25
471.608	2771.25
472.385	3032.25
473.161	3332.25
473.938	3650.25
474.714	4026.25
475.49	4401.25
476.266	4797.25
477.043	5249.25
477.819	5722.25
478.595	6233.25
479.371	6815.25
480.146	7409.25
480.922	8060.25
481.698	8791.25
482.473	9510.25
483.249	10340.25
484.024	11191.25
484.8	12146.25
485.575	13116.25
486.35	14179.25
487.126	15343.25
487.901	16550.25
488.676	17776.25
489.451	19169.25
490.225	20611.25
491	22110.25
491.775	23591.25
492.55	25210.25
493.324	26852.25
494.099	28539.25
494.873	30227.25
495.647	31947.25
496.422	33605.25
497.196	35382.25
497.97	36919.25
498.744	38383.25
499.518	40042.25
500.292	41373.25
501.066	42358.25
501.839	43332.25
502.613	44268.25
503.387	44948.25
504.16	45451.25
504.934	45692.25
505.707	45748.25
506.48	45573.25
507.253	45266.25
508.027	44680.25
508.8	43856.25
509.573	43030.25
510.346	42125.25
511.118	41181.25
511.891	40010.25
512.664	38531.25
513.437	37259.25
514.209	35965.25
514.982	34552.25
515.754	33276.25
516.526	31897.25
517.298	30698.25
518.071	29486.25
518.843	28349.25
519.615	27133.25
520.387	26099.25
521.159	25082.25
521.93	24049.25
522.702	23004.25
523.474	22076.25
524.245	21190.25
525.017	20270.25
525.788	19454.25
526.56	18705.25
527.331	17859.25
528.102	16969.25
528.873	16131.25
529.644	15348.25
530.415	14675.25
531.186	13985.25
531.957	13222.25
532.728	12615.25
533.498	11977.25
534.269	11293.25
535.039	10756.25
535.81	10156.25
536.58	9597.25
537.351	9049.25
538.121	8625.25
538.891	8151.25
539.661	7664.25
540.431	7278.25
541.201	6937.25
541.971	6575.25
542.741	6213.25
543.51	5888.25
544.28	5597.25
545.05	5331.25
545.819	5069.25
546.588	4845.25
547.358	4632.25
548.127	4376.25
548.896	4192.25
549.665	3964.25
550.434	3757.25
551.203	3561.25
551.972	3383.25
552.741	3206.25
553.51	3024.25
554.278	2848.25
555.047	2709.25
555.815	2538.25
556.584	2410.25
557.352	2274.25
558.121	2167.25
558.889	2017.25
559.657	1927.25
560.425	1818.25
561.193	1719.25
561.961	1642.25
562.729	1550.25
563.496	1461.25
564.264	1380.25
565.032	1303.25
565.799	1226.25
566.567	1168.25
567.334	1103.25
568.101	1033.25
568.869	994.25
569.636	934.25
570.403	875.25
571.17	839.25
571.937	789.25
572.704	738.25
573.471	694.25
574.237	651.25
575.004	622.25
575.771	587.25
576.537	555.25
577.303	523.25
578.07	490.25
578.836	449.25
579.602	425.25
580.368	410.25
581.134	396.25
581.9	380.25
582.666	356.25
583.432	346.25
584.198	325.25
584.964	308.25
585.729	292.25
586.495	279.25
587.26	257.25
588.025	248.25
588.791	233.25
589.556	223.25
590.321	208.25
591.086	202.25
591.851	194.25
592.616	182.25
593.381	174.25
594.146	168.25
594.911	156.25
595.675	154.25
596.44	142.25
597.204	136.25
597.969	132.25
598.733	124.25
599.497	120.25
600.261	113.25
601.025	110.25
601.79	106.25
602.553	103.25
603.317	99.25
604.081	94.25
604.845	92.25
605.609	82.25
606.372	81.25
607.136	82.25
607.899	77.25
608.662	69.25
609.426	70.25
610.189	68.25
610.952	63.25
611.715	64.25
612.478	59.25
613.241	56.25
614.004	55.25
614.767	57.25
615.529	51.25
616.292	53.25
617.055	49.25
617.817	44.25
618.579	45.25
619.342	47.25
620.104	42.25
620.866	44.25
621.628	38.25
622.39	40.25
623.152	38.25
623.914	35.25
624.676	35.25
625.438	34.25
626.199	33.25
626.961	34.25
627.722	34.25
628.484	29.25
629.245	29.25
630.006	29.25
630.768	27.25
631.529	26.25
632.29	23.25
633.051	26.25
633.812	25.25
634.573	23.25
635.333	25.25
636.094	21.25
636.855	24.25
637.615	22.25
638.376	21.25
639.136	21.25
639.896	20.25
640.657	18.25
641.417	20.25
642.177	18.25
642.937	17.25
643.697	16.25
644.457	18.25
645.216	15.25
645.976	14.25
646.736	16.25
647.495	15.25
648.255	14.25
649.014	17.25
649.774	15.25
650.533	15.25
651.292	14.25
652.051	14.25
652.81	12.25
653.569	13.25
654.328	13.25
655.087	15.25
655.846	11.25
656.604	13.25
657.363	12.25
658.121	11.25
658.88	12.25
659.638	9.25
660.397	12.25
661.155	10.25
661.913	10.25
662.671	10.25
663.429	8.25
664.187	10.25
664.945	8.25
665.703	10.25
666.46	9.25
667.218	6.25
667.976	10.25
668.733	8.25
669.49	8.25
670.248	11.25
671.005	10.25
671.762	8.25
672.519	8.25
673.276	8.25
674.033	7.25
674.79	8.25
675.547	8.25
676.304	9.25
677.06	7.25
677.817	7.25
678.574	8.25
679.33	5.25
680.086	9.25
680.843	7.25
681.599	9.25
682.355	7.25
683.111	6.25
683.867	5.25
684.623	7.25
685.379	6.25
686.135	8.25
686.89	7.25
687.646	9.25
688.402	8.25
689.157	8.25
689.912	8.25
690.668	7.25
691.423	6.25
692.178	6.25
692.933	7.25
693.688	6.25
694.443	6.25
695.198	8.25
695.953	5.25
696.708	8.25
697.462	6.25
698.217	9.25
698.972	6.25
699.726	6.25
700.48	5.25
701.235	7.25
701.989	8.25
702.743	4.25
703.497	5.25
704.251	7.25
705.005	6.25
705.759	6.25
706.513	6.25
707.266	5.25
708.02	7.25
708.774	5.25
709.527	7.25
710.28	4.25
711.034	6.25
711.787	7.25
712.54	7.25
713.293	5.25
714.046	7.25
714.799	9.25
715.552	8.25
716.305	6.25
717.058	7.25
717.81	8.25
718.563	10.25
719.315	8.25
720.068	7.25
720.82	7.25
721.573	9.25
722.325	5.25
723.077	5.25
723.829	8.25
724.581	8.25
725.333	9.25
726.085	6.25
726.836	10.25
727.588	5.25
728.34	6.25
729.091	6.25
729.843	5.25
730.594	8.25
731.346	6.25
732.097	8.25
732.848	7.25
733.599	8.25
734.35	10.25
735.101	9.25
735.852	9.25
736.603	9.25
737.354	9.25
738.104	9.25
738.855	7.25
739.605	10.25
740.356	9.25
741.106	8.25
741.856	10.25
742.607	11.25
743.357	10.25
744.107	9.25
744.857	8.25
745.607	10.25
746.357	10.25
747.106	8.25
747.856	9.25
748.606	10.25
749.355	9.25
750.105	9.25
750.854	10.25
751.603	10.25
752.353	9.25
753.102	8.25
753.851	8.25
754.6	11.25
755.349	12.25
756.098	9.25
756.847	9.25
757.595	15.25
758.344	11.25
759.093	10.25
759.841	11.25
760.589	9.25
761.338	13.25
762.086	14.25
762.834	13.25
763.582	11.25
764.331	13.25
765.079	11.25
765.826	14.25
766.574	12.25
767.322	13.25
768.07	10.25
768.817	13.25
769.565	11.25
770.312	12.25
771.06	12.25
771.807	13.25
772.554	11.25
773.302	16.25
774.049	11.25
774.796	14.25
775.543	14.25
776.29	14.25
777.036	17.25
777.783	15.25
778.53	14.25
779.276	11.25
780.023	16.25
780.769	17.25
781.516	15.25
782.262	14.25
783.008	12.25
783.754	15.25
784.5	15.25
785.246	13.25
785.992	12.25
786.738	15.25
787.484	10.25
788.23	14.25
788.975	17.25
789.721	16.25
790.466	12.25
791.212	13.25
791.957	13.25
792.702	13.25
793.447	14.25
794.193	14.25
794.938	12.25
795.683	14.25
796.427	11.25
797.172	11.25
797.917	12.25
798.662	13.25
799.406	10.25
800.151	13.25
800.895	11.25
801.64	10.25
802.384	10.25
803.128	11.25
803.872	9.25
804.616	12.25
805.36	9.25
806.104	10.25
806.848	12.25
807.592	8.25
808.336	9.25
809.079	11.25
809.823	7.25
810.566	8.25
811.31	8.25
812.053	8.25
812.796	9.25
813.539	5.25
814.283	7.25
815.026	7.25
815.769	7.25
816.511	7.25
817.254	7.25
817.997	5.25
818.74	6.25
819.482	6.25
820.225	6.25
820.967	7.25
821.71	9.25
822.452	4.25
823.194	7.25
823.936	6.25
824.678	7.25
825.42	6.25
826.162	6.25
826.904	5.25
827.646	7.25
828.388	7.25
829.129	4.25
829.871	7.25
830.612	5.25
831.354	4.25
832.095	5.25
832.836	6.25
833.577	5.25
834.319	4.25
835.06	6.25
835.801	6.25
836.542	4.25
837.282	5.25
838.023	5.25
838.764	5.25
839.504	4.25
840.245	5.25
840.985	5.25
841.726	5.25
842.466	4.25
843.206	5.25
843.946	3.25
844.687	3.25
845.427	4.25
846.166	4.25
846.906	2.25
847.646	4.25
848.386	3.25
849.125	3.25
849.865	4.25
850.605	3.25
851.344	6.25
852.083	2.25
852.823	4.25
853.562	2.25
854.301	2.25
855.04	4.25
855.779	3.25
856.518	4.25
857.257	1.25
857.995	3.25
858.734	5.25
859.473	3.25
860.211	2.25
860.95	2.25
861.688	1.25
862.426	2.25
863.165	3.25
863.903	3.25
864.641	1.25
865.379	2.25
866.117	2.25
866.855	1.25
867.593	1.25
868.33	2.25
869.068	0.25
869.806	0.25
870.543	0.25
871.28	0.25
872.018	2.25
872.755	3.25
873.492	1.25
874.229	2.25
874.967	1.25
875.703	2.25
876.44	1.25
877.177	3.25
877.914	-0.75
878.651	1.25
879.387	0.25
880.124	-0.75
880.86	2.25
881.597	0.25
882.333	-0.75
883.069	0.25
883.806	1.25
884.542	3.25
885.278	1.25
886.014	-0.75
886.749	2.25
887.485	-0.75
888.221	1.25
888.957	2.25
889.692	1.25
890.428	-0.75
891.163	2.25
891.899	-1.75
892.634	-1.75
893.369	2.25
894.104	-1.75
894.839	-0.75
895.574	2.25
896.309	-0.75
897.044	1.25
897.779	0.25
898.514	1.25
899.248	3.25
899.983	0.25
900.717	0.25
901.452	-1.75
902.186	0.25
902.92	-1.75
903.654	0.25
904.389	-1.75
905.123	0.25
905.857	0.25
906.59	-2.75
907.324	0.25
908.058	-0.75
908.792	0.25
909.525	1.25
910.259	0.25
910.992	1.25
911.726	-0.75
912.459	1.25
913.192	1.25
913.925	0.25
914.658	-0.75
915.391	-1.75
916.124	1.25
916.857	-1.75
917.59	1.25
918.323	0.25
919.055	0.25
919.788	-1.75
920.521	0.25
921.253	2.25
921.985	-1.75
922.718	-1.75
923.45	0.25
924.182	0.25
924.914	1.25
925.646	-1.75
926.378	0.25
927.11	0.25
927.841	0.25
928.573	0.25
929.305	-0.75
930.036	0.25
930.768	-1.75
931.499	0.25
932.23	-0.75
932.962	0.25
933.693	-1.75
934.424	1.25
935.155	-0.75
935.886	-1.75
936.617	2.25
937.348	2.25
938.078	-0.75
938.809	0.25
939.54	0.25
940.27	0.25
941.001	-1.75
941.731	-0.75
942.461	0.25
943.191	0.25
943.922	-2.75
944.652	-0.75
945.382	-0.75
946.112	2.25
946.841	-0.75
947.571	-1.75
948.301	0.25
949.031	0.25
949.76	-2.75
950.49	-0.75
951.219	-0.75
951.948	0.25
952.678	0.25
953.407	-0.75
954.136	-0.75
954.865	1.25
955.594	-1.75
956.323	1.25
957.052	-0.75
957.78	-0.75
958.509	0.25
959.238	1.25
959.966	-0.75
960.695	-1.75
961.423	0.25
962.151	-0.75
962.88	-3.75
963.608	-0.75
964.336	-0.75
965.064	-1.75
965.792	0.25
966.52	1.25
967.247	0.25
967.975	-2.75
968.703	-0.75
969.43	-1.75
970.158	-0.75
970.885	-0.75
971.613	-1.75
972.34	0.25
973.067	-1.75
973.794	1.25
974.521	-0.75
975.248	0.25
975.975	-0.75
976.702	0.25
977.429	-1.75
978.156	1.25
978.882	-0.75
979.609	1.25
980.335	-1.75
981.062	0.25
981.788	-0.75
982.514	-1.75
983.24	1.25
983.967	0.25
984.693	-1.75
985.419	-0.75
986.144	0.25
986.87	0.25
987.596	2.25
988.322	-1.75
989.047	0.25
989.773	1.25
990.498	-0.75
991.224	0.25
991.949	-1.75
992.674	1.25
993.399	-1.75
994.124	-1.75
994.849	-0.75
995.574	-1.75
996.299	1.25
997.024	0.25
997.749	-0.75
998.473	1.25
999.198	-0.75
999.922	-0.75
1000.647	0.25
1001.371	3.25
1002.095	-0.75
1002.82	0.25
1003.544	-2.75
1004.268	4.25
1004.992	6.25
1005.716	5.25
1006.439	4.25
1007.163	4.25
1007.887	2.25
1008.611	-1.75
1009.334	-1.75
1010.058	-1.75
1010.781	-0.75
1011.504	-1.75
1012.228	0.25
1012.951	0.25
1013.674	-0.75
1014.397	1.25
1015.12	-0.75
