节点500_705_QEPB04081__314__20-50-25-483.txt的数据

Date: Wed Nov 12 20:50:25 CST 2025
User: PC
Spectrometer: QEPB0408
触发模式: 0
积分时间 (秒): 1.000000E-2
Scans to average: 1
启用暗噪声校正: true
启用非线性校正: false
滑动平均宽度: 0
X轴模式: Wavelengths
Number of Pixels in Spectrum: 1044
>>>>>Begin Spectral Data<<<<<
220.843	5.75
221.644	6.75
222.444	7.75
223.244	6.75
224.045	7.75
224.845	8.75
225.645	5.75
226.445	7.75
227.245	7.75
228.045	6.75
228.845	6.75
229.645	7.75
230.444	8.75
231.244	10.75
232.043	11.75
232.843	10.75
233.642	10.75
234.442	9.75
235.241	11.75
236.04	11.75
236.839	9.75
237.638	13.75
238.437	8.75
239.236	12.75
240.035	12.75
240.833	11.75
241.632	11.75
242.43	14.75
243.229	13.75
244.027	14.75
244.826	14.75
245.624	16.75
246.422	13.75
247.22	14.75
248.018	15.75
248.816	15.75
249.614	15.75
250.412	17.75
251.21	15.75
252.007	17.75
252.805	18.75
253.602	17.75
254.4	17.75
255.197	22.75
255.994	20.75
256.791	19.75
257.589	18.75
258.386	24.75
259.183	22.75
259.979	23.75
260.776	25.75
261.573	24.75
262.37	25.75
263.166	25.75
263.963	25.75
264.759	29.75
265.556	30.75
266.352	27.75
267.148	28.75
267.944	32.75
268.74	30.75
269.536	28.75
270.332	30.75
271.128	27.75
271.924	31.75
272.719	31.75
273.515	33.75
274.311	34.75
275.106	34.75
275.901	33.75
276.697	31.75
277.492	34.75
278.287	35.75
279.082	33.75
279.877	38.75
280.672	35.75
281.467	35.75
282.262	33.75
283.056	36.75
283.851	37.75
284.646	35.75
285.44	33.75
286.234	34.75
287.029	31.75
287.823	36.75
288.617	30.75
289.411	31.75
290.205	31.75
290.999	34.75
291.793	32.75
292.587	31.75
293.381	32.75
294.174	31.75
294.968	30.75
295.761	29.75
296.555	29.75
297.348	29.75
298.141	25.75
298.935	30.75
299.728	24.75
300.521	26.75
301.314	25.75
302.107	22.75
302.899	24.75
303.692	22.75
304.485	22.75
305.277	21.75
306.07	21.75
306.862	21.75
307.655	20.75
308.447	22.75
309.239	21.75
310.031	19.75
310.823	19.75
311.615	20.75
312.407	18.75
313.199	17.75
313.991	18.75
314.783	15.75
315.574	18.75
316.366	15.75
317.157	15.75
317.949	17.75
318.74	15.75
319.531	14.75
320.322	14.75
321.113	14.75
321.904	13.75
322.695	15.75
323.486	14.75
324.277	13.75
325.068	11.75
325.858	14.75
326.649	13.75
327.439	15.75
328.23	10.75
329.02	13.75
329.81	12.75
330.6	12.75
331.391	13.75
332.181	12.75
332.971	12.75
333.76	11.75
334.55	15.75
335.34	13.75
336.13	13.75
336.919	14.75
337.709	12.75
338.498	13.75
339.287	12.75
340.077	14.75
340.866	12.75
341.655	11.75
342.444	13.75
343.233	10.75
344.022	13.75
344.811	12.75
345.6	11.75
346.388	15.75
347.177	11.75
347.965	13.75
348.754	14.75
349.542	12.75
350.33	13.75
351.119	10.75
351.907	9.75
352.695	12.75
353.483	11.75
354.271	11.75
355.059	12.75
355.846	9.75
356.634	10.75
357.422	11.75
358.209	11.75
358.997	11.75
359.784	9.75
360.571	12.75
361.359	11.75
362.146	12.75
362.933	12.75
363.72	9.75
364.507	10.75
365.294	10.75
366.081	10.75
366.867	8.75
367.654	11.75
368.44	8.75
369.227	9.75
370.013	12.75
370.8	13.75
371.586	9.75
372.372	9.75
373.158	9.75
373.944	10.75
374.73	11.75
375.516	9.75
376.302	10.75
377.088	7.75
377.873	10.75
378.659	13.75
379.445	11.75
380.23	12.75
381.015	11.75
381.801	12.75
382.586	9.75
383.371	12.75
384.156	10.75
384.941	10.75
385.726	14.75
386.511	11.75
387.296	13.75
388.08	9.75
388.865	12.75
389.649	10.75
390.434	11.75
391.218	12.75
392.003	13.75
392.787	13.75
393.571	14.75
394.355	13.75
395.139	16.75
395.923	12.75
396.707	13.75
397.491	12.75
398.274	14.75
399.058	13.75
399.842	13.75
400.625	12.75
401.408	12.75
402.192	13.75
402.975	14.75
403.758	12.75
404.541	13.75
405.324	13.75
406.107	17.75
406.89	15.75
407.673	16.75
408.456	14.75
409.238	18.75
410.021	16.75
410.803	19.75
411.586	18.75
412.368	15.75
413.151	17.75
413.933	18.75
414.715	17.75
415.497	18.75
416.279	21.75
417.061	21.75
417.843	19.75
418.624	18.75
419.406	20.75
420.188	19.75
420.969	22.75
421.751	23.75
422.532	22.75
423.313	23.75
424.095	23.75
424.876	25.75
425.657	25.75
426.438	27.75
427.219	28.75
428	25.75
428.78	30.75
429.561	30.75
430.342	29.75
431.122	32.75
431.903	32.75
432.683	33.75
433.464	38.75
434.244	35.75
435.024	41.75
435.804	42.75
436.584	44.75
437.364	44.75
438.144	47.75
438.924	49.75
439.704	55.75
440.483	56.75
441.263	63.75
442.042	62.75
442.822	70.75
443.601	75.75
444.38	82.75
445.16	89.75
445.939	93.75
446.718	101.75
447.497	107.75
448.276	118.75
449.054	131.75
449.833	148.75
450.612	161.75
451.391	175.75
452.169	198.75
452.948	215.75
453.726	234.75
454.504	273.75
455.282	297.75
456.061	329.75
456.839	373.75
457.617	406.75
458.395	461.75
459.172	512.75
459.95	560.75
460.728	646.75
461.506	710.75
462.283	784.75
463.061	870.75
463.838	967.75
464.615	1101.75
465.393	1214.75
466.17	1349.75
466.947	1496.75
467.724	1654.75
468.501	1841.75
469.278	2059.75
470.055	2251.75
470.831	2492.75
471.608	2773.75
472.385	3037.75
473.161	3357.75
473.938	3684.75
474.714	4065.75
475.49	4439.75
476.266	4888.75
477.043	5333.75
477.819	5887.75
478.595	6432.75
479.371	7001.75
480.146	7623.75
480.922	8332.75
481.698	9053.75
482.473	9923.75
483.249	10760.75
484.024	11647.75
484.8	12680.75
485.575	13708.75
486.35	14912.75
487.126	16153.75
487.901	17467.75
488.676	18850.75
489.451	20325.75
490.225	21849.75
491	23478.75
491.775	25113.75
492.55	26839.75
493.324	28654.75
494.099	30337.75
494.873	32132.75
495.647	33929.75
496.422	35780.75
497.196	37533.75
497.97	39184.75
498.744	40693.75
499.518	42346.75
500.292	43682.75
501.066	44730.75
501.839	45659.75
502.613	46321.75
503.387	46971.75
504.16	47353.75
504.934	47491.75
505.707	47339.75
506.48	46920.75
507.253	46457.75
508.027	45738.75
508.8	44819.75
509.573	43786.75
510.346	42647.75
511.118	41499.75
511.891	40274.75
512.664	38717.75
513.437	37291.75
514.209	35868.75
514.982	34549.75
515.754	33075.75
516.526	31782.75
517.298	30444.75
518.071	29209.75
518.843	28035.75
519.615	26989.75
520.387	25933.75
521.159	24925.75
521.93	23845.75
522.702	22832.75
523.474	21837.75
524.245	20961.75
525.017	20029.75
525.788	19127.75
526.56	18371.75
527.331	17495.75
528.102	16661.75
528.873	15846.75
529.644	15127.75
530.415	14395.75
531.186	13683.75
531.957	12953.75
532.728	12301.75
533.498	11607.75
534.269	10963.75
535.039	10415.75
535.81	9876.75
536.58	9324.75
537.351	8833.75
538.121	8368.75
538.891	7917.75
539.661	7470.75
540.431	7076.75
541.201	6734.75
541.971	6368.75
542.741	6045.75
543.51	5701.75
544.28	5449.75
545.05	5184.75
545.819	4946.75
546.588	4704.75
547.358	4507.75
548.127	4258.75
548.896	4066.75
549.665	3841.75
550.434	3640.75
551.203	3453.75
551.972	3286.75
552.741	3100.75
553.51	2909.75
554.278	2746.75
555.047	2605.75
555.815	2469.75
556.584	2333.75
557.352	2197.75
558.121	2072.75
558.889	1962.75
559.657	1842.75
560.425	1750.75
561.193	1673.75
561.961	1572.75
562.729	1485.75
563.496	1403.75
564.264	1319.75
565.032	1255.75
565.799	1194.75
566.567	1130.75
567.334	1065.75
568.101	1007.75
568.869	960.75
569.636	895.75
570.403	854.75
571.17	804.75
571.937	753.75
572.704	711.75
573.471	667.75
574.237	631.75
575.004	604.75
575.771	568.75
576.537	537.75
577.303	502.75
578.07	486.75
578.836	454.75
579.602	428.75
580.368	395.75
581.134	383.75
581.9	371.75
582.666	346.75
583.432	330.75
584.198	314.75
584.964	301.75
585.729	283.75
586.495	267.75
587.26	250.75
588.025	237.75
588.791	224.75
589.556	216.75
590.321	202.75
591.086	194.75
591.851	182.75
592.616	176.75
593.381	168.75
594.146	162.75
594.911	153.75
595.675	140.75
596.44	135.75
597.204	136.75
597.969	121.75
598.733	125.75
599.497	115.75
600.261	114.75
601.025	105.75
601.79	102.75
602.553	98.75
603.317	97.75
604.081	85.75
604.845	87.75
605.609	87.75
606.372	82.75
607.136	75.75
607.899	72.75
608.662	72.75
609.426	68.75
610.189	69.75
610.952	65.75
611.715	62.75
612.478	58.75
613.241	56.75
614.004	54.75
614.767	53.75
615.529	49.75
616.292	49.75
617.055	49.75
617.817	49.75
618.579	45.75
619.342	42.75
620.104	44.75
620.866	40.75
621.628	39.75
622.39	39.75
623.152	37.75
623.914	37.75
624.676	36.75
625.438	36.75
626.199	34.75
626.961	33.75
627.722	33.75
628.484	31.75
629.245	28.75
630.006	25.75
630.768	27.75
631.529	26.75
632.29	25.75
633.051	22.75
633.812	24.75
634.573	23.75
635.333	21.75
636.094	28.75
636.855	22.75
637.615	23.75
638.376	22.75
639.136	21.75
639.896	21.75
640.657	19.75
641.417	18.75
642.177	17.75
642.937	15.75
643.697	18.75
644.457	18.75
645.216	17.75
645.976	16.75
646.736	17.75
647.495	19.75
648.255	14.75
649.014	15.75
649.774	15.75
650.533	18.75
651.292	14.75
652.051	16.75
652.81	15.75
653.569	13.75
654.328	15.75
655.087	14.75
655.846	13.75
656.604	12.75
657.363	11.75
658.121	13.75
658.88	12.75
659.638	11.75
660.397	11.75
661.155	12.75
661.913	11.75
662.671	11.75
663.429	9.75
664.187	10.75
664.945	11.75
665.703	8.75
666.46	11.75
667.218	12.75
667.976	13.75
668.733	11.75
669.49	11.75
670.248	7.75
671.005	10.75
671.762	9.75
672.519	9.75
673.276	8.75
674.033	11.75
674.79	11.75
675.547	10.75
676.304	11.75
677.06	10.75
677.817	8.75
678.574	8.75
679.33	8.75
680.086	9.75
680.843	5.75
681.599	8.75
682.355	9.75
683.111	10.75
683.867	9.75
684.623	7.75
685.379	8.75
686.135	6.75
686.89	8.75
687.646	10.75
688.402	10.75
689.157	9.75
689.912	7.75
690.668	10.75
691.423	7.75
692.178	9.75
692.933	8.75
693.688	7.75
694.443	10.75
695.198	7.75
695.953	8.75
696.708	11.75
697.462	7.75
698.217	8.75
698.972	7.75
699.726	8.75
700.48	7.75
701.235	9.75
701.989	8.75
702.743	7.75
703.497	8.75
704.251	8.75
705.005	9.75
705.759	6.75
706.513	8.75
707.266	8.75
708.02	9.75
708.774	6.75
709.527	8.75
710.28	7.75
711.034	6.75
711.787	4.75
712.54	9.75
713.293	6.75
714.046	10.75
714.799	9.75
715.552	10.75
716.305	7.75
717.058	7.75
717.81	9.75
718.563	8.75
719.315	7.75
720.068	6.75
720.82	10.75
721.573	9.75
722.325	10.75
723.077	10.75
723.829	7.75
724.581	8.75
725.333	9.75
726.085	9.75
726.836	9.75
727.588	8.75
728.34	10.75
729.091	7.75
729.843	12.75
730.594	9.75
731.346	11.75
732.097	9.75
732.848	8.75
733.599	8.75
734.35	8.75
735.101	9.75
735.852	7.75
736.603	10.75
737.354	10.75
738.104	9.75
738.855	10.75
739.605	12.75
740.356	10.75
741.106	12.75
741.856	10.75
742.607	12.75
743.357	11.75
744.107	11.75
744.857	12.75
745.607	14.75
746.357	10.75
747.106	7.75
747.856	9.75
748.606	9.75
749.355	11.75
750.105	11.75
750.854	8.75
751.603	11.75
752.353	12.75
753.102	9.75
753.851	10.75
754.6	13.75
755.349	11.75
756.098	10.75
756.847	13.75
757.595	9.75
758.344	13.75
759.093	12.75
759.841	13.75
760.589	13.75
761.338	12.75
762.086	16.75
762.834	14.75
763.582	11.75
764.331	11.75
765.079	12.75
765.826	14.75
766.574	15.75
767.322	14.75
768.07	13.75
768.817	13.75
769.565	16.75
770.312	13.75
771.06	16.75
771.807	16.75
772.554	12.75
773.302	15.75
774.049	14.75
774.796	19.75
775.543	14.75
776.29	15.75
777.036	15.75
777.783	17.75
778.53	17.75
779.276	15.75
780.023	16.75
780.769	13.75
781.516	16.75
782.262	16.75
783.008	16.75
783.754	18.75
784.5	15.75
785.246	16.75
785.992	19.75
786.738	15.75
787.484	17.75
788.23	17.75
788.975	19.75
789.721	15.75
790.466	13.75
791.212	15.75
791.957	16.75
792.702	13.75
793.447	14.75
794.193	13.75
794.938	15.75
795.683	15.75
796.427	15.75
797.172	11.75
797.917	13.75
798.662	11.75
799.406	13.75
800.151	13.75
800.895	13.75
801.64	14.75
802.384	11.75
803.128	13.75
803.872	10.75
804.616	12.75
805.36	9.75
806.104	10.75
806.848	10.75
807.592	11.75
808.336	11.75
809.079	10.75
809.823	12.75
810.566	12.75
811.31	8.75
812.053	9.75
812.796	8.75
813.539	9.75
814.283	10.75
815.026	11.75
815.769	8.75
816.511	9.75
817.254	6.75
817.997	8.75
818.74	8.75
819.482	8.75
820.225	10.75
820.967	8.75
821.71	7.75
822.452	7.75
823.194	8.75
823.936	5.75
824.678	8.75
825.42	9.75
826.162	7.75
826.904	8.75
827.646	4.75
828.388	7.75
829.129	6.75
829.871	8.75
830.612	5.75
831.354	5.75
832.095	6.75
832.836	8.75
833.577	7.75
834.319	8.75
835.06	4.75
835.801	8.75
836.542	5.75
837.282	7.75
838.023	6.75
838.764	5.75
839.504	4.75
840.245	6.75
840.985	7.75
841.726	5.75
842.466	6.75
843.206	6.75
843.946	6.75
844.687	7.75
845.427	5.75
846.166	5.75
846.906	3.75
847.646	5.75
848.386	6.75
849.125	4.75
849.865	5.75
850.605	3.75
851.344	6.75
852.083	5.75
852.823	5.75
853.562	6.75
854.301	3.75
855.04	4.75
855.779	3.75
856.518	5.75
857.257	6.75
857.995	2.75
858.734	4.75
859.473	4.75
860.211	2.75
860.95	4.75
861.688	4.75
862.426	6.75
863.165	3.75
863.903	4.75
864.641	3.75
865.379	3.75
866.117	5.75
866.855	3.75
867.593	3.75
868.33	0.75
869.068	4.75
869.806	3.75
870.543	2.75
871.28	2.75
872.018	3.75
872.755	3.75
873.492	2.75
874.229	5.75
874.967	2.75
875.703	3.75
876.44	2.75
877.177	2.75
877.914	3.75
878.651	2.75
879.387	2.75
880.124	1.75
880.86	2.75
881.597	2.75
882.333	3.75
883.069	2.75
883.806	2.75
884.542	1.75
885.278	1.75
886.014	3.75
886.749	2.75
887.485	-0.25
888.221	2.75
888.957	1.75
889.692	0.75
890.428	4.75
891.163	1.75
891.899	1.75
892.634	1.75
893.369	1.75
894.104	1.75
894.839	-0.25
895.574	3.75
896.309	-0.25
897.044	2.75
897.779	1.75
898.514	0.75
899.248	2.75
899.983	-0.25
900.717	0.75
901.452	-0.25
902.186	1.75
902.92	-0.25
903.654	2.75
904.389	1.75
905.123	0.75
905.857	4.75
906.59	3.75
907.324	2.75
908.058	0.75
908.792	2.75
909.525	0.75
910.259	-0.25
910.992	0.75
911.726	-1.25
912.459	0.75
913.192	2.75
913.925	-0.25
914.658	1.75
915.391	-0.25
916.124	1.75
916.857	3.75
917.59	0.75
918.323	0.75
919.055	-1.25
919.788	1.75
920.521	3.75
921.253	4.75
921.985	1.75
922.718	-0.25
923.45	0.75
924.182	0.75
924.914	1.75
925.646	1.75
926.378	1.75
927.11	1.75
927.841	-1.25
928.573	2.75
929.305	0.75
930.036	0.75
930.768	1.75
931.499	-1.25
932.23	2.75
932.962	-0.25
933.693	0.75
934.424	1.75
935.155	0.75
935.886	-0.25
936.617	-0.25
937.348	3.75
938.078	0.75
938.809	1.75
939.54	0.75
940.27	-1.25
941.001	2.75
941.731	-0.25
942.461	2.75
943.191	0.75
943.922	0.75
944.652	-1.25
945.382	0.75
946.112	0.75
946.841	0.75
947.571	1.75
948.301	0.75
949.031	-0.25
949.76	1.75
950.49	1.75
951.219	2.75
951.948	-0.25
952.678	3.75
953.407	-0.25
954.136	0.75
954.865	-0.25
955.594	1.75
956.323	0.75
957.052	1.75
957.78	0.75
958.509	0.75
959.238	-0.25
959.966	0.75
960.695	0.75
961.423	-0.25
962.151	1.75
962.88	-0.25
963.608	1.75
964.336	-0.25
965.064	3.75
965.792	1.75
966.52	1.75
967.247	2.75
967.975	0.75
968.703	-0.25
969.43	0.75
970.158	2.75
970.885	0.75
971.613	0.75
972.34	1.75
973.067	2.75
973.794	2.75
974.521	1.75
975.248	1.75
975.975	2.75
976.702	0.75
977.429	0.75
978.156	0.75
978.882	1.75
979.609	-0.25
980.335	1.75
981.062	1.75
981.788	0.75
982.514	3.75
983.24	0.75
983.967	0.75
984.693	-1.25
985.419	1.75
986.144	0.75
986.87	0.75
987.596	1.75
988.322	1.75
989.047	0.75
989.773	1.75
990.498	1.75
991.224	0.75
991.949	0.75
992.674	2.75
993.399	0.75
994.124	-1.25
994.849	3.75
995.574	-0.25
996.299	-2.25
997.024	0.75
997.749	-0.25
998.473	0.75
999.198	-0.25
999.922	1.75
1000.647	1.75
1001.371	4.75
1002.095	-0.25
1002.82	-1.25
1003.544	-1.25
1004.268	5.75
1004.992	5.75
1005.716	4.75
1006.439	5.75
1007.163	5.75
1007.887	6.75
1008.611	3.75
1009.334	2.75
1010.058	0.75
1010.781	3.75
1011.504	1.75
1012.228	0.75
1012.951	0.75
1013.674	0.75
1014.397	-1.25
1015.12	-2.25
