节点500_705_QEPB04081__492__20-52-52-779.txt的数据

Date: Wed Nov 12 20:52:52 CST 2025
User: PC
Spectrometer: QEPB0408
触发模式: 0
积分时间 (秒): 1.000000E-2
Scans to average: 1
启用暗噪声校正: true
启用非线性校正: false
滑动平均宽度: 0
X轴模式: Wavelengths
Number of Pixels in Spectrum: 1044
>>>>>Begin Spectral Data<<<<<
220.843	7.5
221.644	5.5
222.444	5.5
223.244	6.5
224.045	5.5
224.845	3.5
225.645	6.5
226.445	6.5
227.245	8.5
228.045	7.5
228.845	6.5
229.645	8.5
230.444	8.5
231.244	8.5
232.043	7.5
232.843	8.5
233.642	6.5
234.442	11.5
235.241	10.5
236.04	11.5
236.839	9.5
237.638	9.5
238.437	11.5
239.236	9.5
240.035	12.5
240.833	10.5
241.632	13.5
242.43	10.5
243.229	11.5
244.027	13.5
244.826	12.5
245.624	13.5
246.422	15.5
247.22	13.5
248.018	11.5
248.816	15.5
249.614	17.5
250.412	15.5
251.21	14.5
252.007	16.5
252.805	15.5
253.602	18.5
254.4	16.5
255.197	17.5
255.994	18.5
256.791	18.5
257.589	19.5
258.386	23.5
259.183	22.5
259.979	19.5
260.776	23.5
261.573	19.5
262.37	20.5
263.166	24.5
263.963	27.5
264.759	24.5
265.556	28.5
266.352	28.5
267.148	25.5
267.944	25.5
268.74	26.5
269.536	28.5
270.332	27.5
271.128	30.5
271.924	26.5
272.719	30.5
273.515	28.5
274.311	28.5
275.106	32.5
275.901	31.5
276.697	31.5
277.492	32.5
278.287	31.5
279.082	33.5
279.877	33.5
280.672	37.5
281.467	32.5
282.262	31.5
283.056	31.5
283.851	31.5
284.646	35.5
285.44	30.5
286.234	34.5
287.029	31.5
287.823	29.5
288.617	35.5
289.411	31.5
290.205	33.5
290.999	31.5
291.793	29.5
292.587	28.5
293.381	32.5
294.174	29.5
294.968	27.5
295.761	26.5
296.555	29.5
297.348	26.5
298.141	23.5
298.935	25.5
299.728	26.5
300.521	24.5
301.314	25.5
302.107	24.5
302.899	23.5
303.692	23.5
304.485	25.5
305.277	23.5
306.07	21.5
306.862	20.5
307.655	19.5
308.447	20.5
309.239	23.5
310.031	19.5
310.823	19.5
311.615	16.5
312.407	20.5
313.199	15.5
313.991	17.5
314.783	19.5
315.574	16.5
316.366	16.5
317.157	15.5
317.949	12.5
318.74	14.5
319.531	16.5
320.322	15.5
321.113	16.5
321.904	13.5
322.695	15.5
323.486	13.5
324.277	13.5
325.068	14.5
325.858	13.5
326.649	14.5
327.439	12.5
328.23	11.5
329.02	13.5
329.81	15.5
330.6	11.5
331.391	9.5
332.181	12.5
332.971	12.5
333.76	12.5
334.55	13.5
335.34	15.5
336.13	11.5
336.919	10.5
337.709	13.5
338.498	13.5
339.287	10.5
340.077	12.5
340.866	13.5
341.655	11.5
342.444	15.5
343.233	9.5
344.022	10.5
344.811	12.5
345.6	11.5
346.388	10.5
347.177	11.5
347.965	10.5
348.754	11.5
349.542	10.5
350.33	11.5
351.119	10.5
351.907	13.5
352.695	12.5
353.483	10.5
354.271	14.5
355.059	11.5
355.846	11.5
356.634	9.5
357.422	10.5
358.209	14.5
358.997	10.5
359.784	11.5
360.571	11.5
361.359	10.5
362.146	10.5
362.933	7.5
363.72	8.5
364.507	10.5
365.294	10.5
366.081	8.5
366.867	13.5
367.654	10.5
368.44	7.5
369.227	11.5
370.013	10.5
370.8	11.5
371.586	9.5
372.372	8.5
373.158	9.5
373.944	10.5
374.73	10.5
375.516	11.5
376.302	11.5
377.088	12.5
377.873	9.5
378.659	12.5
379.445	9.5
380.23	9.5
381.015	10.5
381.801	11.5
382.586	9.5
383.371	9.5
384.156	10.5
384.941	8.5
385.726	11.5
386.511	11.5
387.296	11.5
388.08	13.5
388.865	11.5
389.649	12.5
390.434	9.5
391.218	10.5
392.003	14.5
392.787	11.5
393.571	12.5
394.355	14.5
395.139	10.5
395.923	13.5
396.707	10.5
397.491	14.5
398.274	11.5
399.058	14.5
399.842	13.5
400.625	11.5
401.408	13.5
402.192	13.5
402.975	14.5
403.758	15.5
404.541	12.5
405.324	11.5
406.107	13.5
406.89	15.5
407.673	12.5
408.456	15.5
409.238	15.5
410.021	17.5
410.803	17.5
411.586	15.5
412.368	16.5
413.151	15.5
413.933	17.5
414.715	17.5
415.497	17.5
416.279	17.5
417.061	18.5
417.843	19.5
418.624	20.5
419.406	20.5
420.188	22.5
420.969	22.5
421.751	24.5
422.532	23.5
423.313	21.5
424.095	24.5
424.876	23.5
425.657	24.5
426.438	28.5
427.219	24.5
428	27.5
428.78	29.5
429.561	28.5
430.342	28.5
431.122	33.5
431.903	31.5
432.683	36.5
433.464	36.5
434.244	34.5
435.024	37.5
435.804	41.5
436.584	41.5
437.364	43.5
438.144	48.5
438.924	50.5
439.704	57.5
440.483	56.5
441.263	60.5
442.042	67.5
442.822	69.5
443.601	80.5
444.38	84.5
445.16	89.5
445.939	99.5
446.718	107.5
447.497	120.5
448.276	124.5
449.054	137.5
449.833	153.5
450.612	169.5
451.391	182.5
452.169	207.5
452.948	231.5
453.726	250.5
454.504	270.5
455.282	309.5
456.061	345.5
456.839	385.5
457.617	426.5
458.395	471.5
459.172	526.5
459.95	588.5
460.728	658.5
461.506	741.5
462.283	804.5
463.061	899.5
463.838	1016.5
464.615	1115.5
465.393	1248.5
466.17	1375.5
466.947	1525.5
467.724	1683.5
468.501	1874.5
469.278	2051.5
470.055	2265.5
470.831	2500.5
471.608	2746.5
472.385	3031.5
473.161	3303.5
473.938	3656.5
474.714	3966.5
475.49	4360.5
476.266	4779.5
477.043	5178.5
477.819	5701.5
478.595	6165.5
479.371	6712.5
480.146	7254.5
480.922	7975.5
481.698	8619.5
482.473	9327.5
483.249	10149.5
484.024	10997.5
484.8	11886.5
485.575	12848.5
486.35	13873.5
487.126	14980.5
487.901	16176.5
488.676	17361.5
489.451	18751.5
490.225	20126.5
491	21582.5
491.775	23007.5
492.55	24608.5
493.324	26108.5
494.099	27786.5
494.873	29483.5
495.647	31108.5
496.422	32709.5
497.196	34521.5
497.97	35988.5
498.744	37421.5
499.518	39035.5
500.292	40410.5
501.066	41450.5
501.839	42484.5
502.613	43277.5
503.387	44158.5
504.16	44500.5
504.934	44914.5
505.707	45044.5
506.48	44820.5
507.253	44577.5
508.027	44089.5
508.8	43407.5
509.573	42647.5
510.346	41812.5
511.118	40838.5
511.891	39784.5
512.664	38350.5
513.437	37057.5
514.209	35779.5
514.982	34441.5
515.754	33126.5
516.526	31830.5
517.298	30555.5
518.071	29437.5
518.843	28324.5
519.615	27115.5
520.387	26052.5
521.159	25015.5
521.93	24029.5
522.702	23044.5
523.474	22060.5
524.245	21219.5
525.017	20294.5
525.788	19444.5
526.56	18676.5
527.331	17848.5
528.102	16913.5
528.873	16112.5
529.644	15327.5
530.415	14705.5
531.186	13993.5
531.957	13277.5
532.728	12613.5
533.498	12027.5
534.269	11343.5
535.039	10776.5
535.81	10174.5
536.58	9615.5
537.351	9132.5
538.121	8679.5
538.891	8181.5
539.661	7752.5
540.431	7297.5
541.201	6978.5
541.971	6595.5
542.741	6251.5
543.51	5924.5
544.28	5657.5
545.05	5390.5
545.819	5104.5
546.588	4893.5
547.358	4668.5
548.127	4440.5
548.896	4174.5
549.665	3985.5
550.434	3789.5
551.203	3591.5
551.972	3412.5
552.741	3239.5
553.51	3022.5
554.278	2901.5
555.047	2727.5
555.815	2579.5
556.584	2427.5
557.352	2297.5
558.121	2182.5
558.889	2051.5
559.657	1945.5
560.425	1856.5
561.193	1742.5
561.961	1652.5
562.729	1577.5
563.496	1461.5
564.264	1396.5
565.032	1319.5
565.799	1243.5
566.567	1193.5
567.334	1106.5
568.101	1066.5
568.869	994.5
569.636	931.5
570.403	877.5
571.17	829.5
571.937	783.5
572.704	742.5
573.471	708.5
574.237	665.5
575.004	624.5
575.771	598.5
576.537	548.5
577.303	525.5
578.07	498.5
578.836	467.5
579.602	449.5
580.368	422.5
581.134	406.5
581.9	379.5
582.666	368.5
583.432	346.5
584.198	327.5
584.964	308.5
585.729	299.5
586.495	283.5
587.26	269.5
588.025	246.5
588.791	232.5
589.556	225.5
590.321	218.5
591.086	203.5
591.851	195.5
592.616	182.5
593.381	173.5
594.146	170.5
594.911	159.5
595.675	153.5
596.44	143.5
597.204	136.5
597.969	128.5
598.733	126.5
599.497	123.5
600.261	117.5
601.025	110.5
601.79	106.5
602.553	101.5
603.317	98.5
604.081	94.5
604.845	93.5
605.609	87.5
606.372	89.5
607.136	81.5
607.899	76.5
608.662	73.5
609.426	69.5
610.189	66.5
610.952	65.5
611.715	63.5
612.478	62.5
613.241	60.5
614.004	58.5
614.767	58.5
615.529	54.5
616.292	51.5
617.055	49.5
617.817	47.5
618.579	44.5
619.342	44.5
620.104	43.5
620.866	41.5
621.628	40.5
622.39	40.5
623.152	39.5
623.914	38.5
624.676	32.5
625.438	31.5
626.199	34.5
626.961	34.5
627.722	34.5
628.484	30.5
629.245	30.5
630.006	29.5
630.768	27.5
631.529	26.5
632.29	26.5
633.051	26.5
633.812	23.5
634.573	25.5
635.333	23.5
636.094	22.5
636.855	22.5
637.615	24.5
638.376	21.5
639.136	22.5
639.896	18.5
640.657	20.5
641.417	19.5
642.177	17.5
642.937	18.5
643.697	18.5
644.457	15.5
645.216	15.5
645.976	16.5
646.736	16.5
647.495	15.5
648.255	15.5
649.014	15.5
649.774	13.5
650.533	18.5
651.292	13.5
652.051	15.5
652.81	13.5
653.569	13.5
654.328	14.5
655.087	13.5
655.846	14.5
656.604	12.5
657.363	12.5
658.121	13.5
658.88	11.5
659.638	12.5
660.397	10.5
661.155	12.5
661.913	11.5
662.671	13.5
663.429	11.5
664.187	9.5
664.945	10.5
665.703	11.5
666.46	10.5
667.218	10.5
667.976	7.5
668.733	10.5
669.49	8.5
670.248	10.5
671.005	10.5
671.762	7.5
672.519	9.5
673.276	9.5
674.033	9.5
674.79	10.5
675.547	9.5
676.304	11.5
677.06	6.5
677.817	9.5
678.574	9.5
679.33	9.5
680.086	9.5
680.843	6.5
681.599	8.5
682.355	9.5
683.111	9.5
683.867	9.5
684.623	7.5
685.379	9.5
686.135	9.5
686.89	7.5
687.646	10.5
688.402	7.5
689.157	9.5
689.912	8.5
690.668	7.5
691.423	7.5
692.178	10.5
692.933	8.5
693.688	6.5
694.443	9.5
695.198	6.5
695.953	8.5
696.708	7.5
697.462	10.5
698.217	7.5
698.972	6.5
699.726	8.5
700.48	8.5
701.235	8.5
701.989	8.5
702.743	8.5
703.497	7.5
704.251	7.5
705.005	8.5
705.759	8.5
706.513	11.5
707.266	8.5
708.02	6.5
708.774	6.5
709.527	6.5
710.28	8.5
711.034	4.5
711.787	10.5
712.54	7.5
713.293	8.5
714.046	7.5
714.799	8.5
715.552	7.5
716.305	8.5
717.058	7.5
717.81	6.5
718.563	9.5
719.315	9.5
720.068	9.5
720.82	7.5
721.573	6.5
722.325	6.5
723.077	7.5
723.829	10.5
724.581	9.5
725.333	9.5
726.085	8.5
726.836	10.5
727.588	8.5
728.34	8.5
729.091	8.5
729.843	8.5
730.594	9.5
731.346	9.5
732.097	8.5
732.848	9.5
733.599	10.5
734.35	8.5
735.101	9.5
735.852	6.5
736.603	9.5
737.354	10.5
738.104	9.5
738.855	12.5
739.605	7.5
740.356	9.5
741.106	9.5
741.856	11.5
742.607	11.5
743.357	10.5
744.107	11.5
744.857	7.5
745.607	11.5
746.357	9.5
747.106	7.5
747.856	10.5
748.606	12.5
749.355	11.5
750.105	10.5
750.854	10.5
751.603	12.5
752.353	11.5
753.102	12.5
753.851	13.5
754.6	10.5
755.349	9.5
756.098	11.5
756.847	12.5
757.595	10.5
758.344	13.5
759.093	10.5
759.841	10.5
760.589	13.5
761.338	10.5
762.086	13.5
762.834	13.5
763.582	12.5
764.331	13.5
765.079	11.5
765.826	13.5
766.574	11.5
767.322	13.5
768.07	15.5
768.817	14.5
769.565	13.5
770.312	12.5
771.06	13.5
771.807	14.5
772.554	14.5
773.302	15.5
774.049	15.5
774.796	15.5
775.543	14.5
776.29	15.5
777.036	13.5
777.783	14.5
778.53	14.5
779.276	15.5
780.023	14.5
780.769	14.5
781.516	15.5
782.262	16.5
783.008	14.5
783.754	14.5
784.5	15.5
785.246	14.5
785.992	11.5
786.738	16.5
787.484	14.5
788.23	13.5
788.975	15.5
789.721	15.5
790.466	17.5
791.212	14.5
791.957	15.5
792.702	15.5
793.447	15.5
794.193	15.5
794.938	12.5
795.683	13.5
796.427	13.5
797.172	14.5
797.917	15.5
798.662	11.5
799.406	15.5
800.151	12.5
800.895	12.5
801.64	10.5
802.384	11.5
803.128	11.5
803.872	11.5
804.616	10.5
805.36	12.5
806.104	10.5
806.848	11.5
807.592	10.5
808.336	12.5
809.079	8.5
809.823	11.5
810.566	11.5
811.31	10.5
812.053	10.5
812.796	10.5
813.539	8.5
814.283	10.5
815.026	8.5
815.769	9.5
816.511	7.5
817.254	8.5
817.997	5.5
818.74	8.5
819.482	10.5
820.225	7.5
820.967	9.5
821.71	8.5
822.452	7.5
823.194	7.5
823.936	8.5
824.678	6.5
825.42	6.5
826.162	5.5
826.904	6.5
827.646	7.5
828.388	8.5
829.129	6.5
829.871	8.5
830.612	5.5
831.354	6.5
832.095	7.5
832.836	8.5
833.577	5.5
834.319	9.5
835.06	8.5
835.801	6.5
836.542	6.5
837.282	6.5
838.023	6.5
838.764	6.5
839.504	5.5
840.245	5.5
840.985	7.5
841.726	6.5
842.466	6.5
843.206	5.5
843.946	9.5
844.687	4.5
845.427	5.5
846.166	5.5
846.906	4.5
847.646	5.5
848.386	4.5
849.125	6.5
849.865	5.5
850.605	5.5
851.344	7.5
852.083	5.5
852.823	5.5
853.562	5.5
854.301	5.5
855.04	2.5
855.779	2.5
856.518	3.5
857.257	3.5
857.995	4.5
858.734	5.5
859.473	5.5
860.211	3.5
860.95	3.5
861.688	2.5
862.426	3.5
863.165	5.5
863.903	2.5
864.641	5.5
865.379	5.5
866.117	4.5
866.855	4.5
867.593	3.5
868.33	4.5
869.068	4.5
869.806	3.5
870.543	3.5
871.28	2.5
872.018	2.5
872.755	4.5
873.492	2.5
874.229	2.5
874.967	3.5
875.703	2.5
876.44	3.5
877.177	3.5
877.914	2.5
878.651	2.5
879.387	7.5
880.124	0.5
880.86	3.5
881.597	-0.5
882.333	1.5
883.069	4.5
883.806	-0.5
884.542	2.5
885.278	1.5
886.014	0.5
886.749	3.5
887.485	2.5
888.221	4.5
888.957	-0.5
889.692	1.5
890.428	2.5
891.163	2.5
891.899	0.5
892.634	0.5
893.369	1.5
894.104	0.5
894.839	2.5
895.574	1.5
896.309	-0.5
897.044	2.5
897.779	2.5
898.514	1.5
899.248	0.5
899.983	1.5
900.717	3.5
901.452	3.5
902.186	1.5
902.92	1.5
903.654	0.5
904.389	1.5
905.123	1.5
905.857	3.5
906.59	1.5
907.324	1.5
908.058	1.5
908.792	1.5
909.525	1.5
910.259	3.5
910.992	-0.5
911.726	-0.5
912.459	2.5
913.192	1.5
913.925	0.5
914.658	-0.5
915.391	1.5
916.124	0.5
916.857	1.5
917.59	1.5
918.323	-1.5
919.055	0.5
919.788	1.5
920.521	-0.5
921.253	0.5
921.985	1.5
922.718	1.5
923.45	-0.5
924.182	0.5
924.914	1.5
925.646	0.5
926.378	1.5
927.11	-1.5
927.841	1.5
928.573	0.5
929.305	1.5
930.036	1.5
930.768	-0.5
931.499	1.5
932.23	2.5
932.962	-0.5
933.693	2.5
934.424	0.5
935.155	2.5
935.886	1.5
936.617	1.5
937.348	1.5
938.078	2.5
938.809	2.5
939.54	-0.5
940.27	-0.5
941.001	-1.5
941.731	-2.5
942.461	3.5
943.191	0.5
943.922	1.5
944.652	0.5
945.382	-0.5
946.112	-2.5
946.841	0.5
947.571	-0.5
948.301	0.5
949.031	1.5
949.76	-0.5
950.49	0.5
951.219	-0.5
951.948	-0.5
952.678	2.5
953.407	0.5
954.136	-0.5
954.865	1.5
955.594	3.5
956.323	-0.5
957.052	1.5
957.78	0.5
958.509	1.5
959.238	1.5
959.966	0.5
960.695	-1.5
961.423	1.5
962.151	1.5
962.88	-0.5
963.608	-0.5
964.336	3.5
965.064	1.5
965.792	-0.5
966.52	1.5
967.247	0.5
967.975	0.5
968.703	1.5
969.43	-0.5
970.158	0.5
970.885	-0.5
971.613	0.5
972.34	1.5
973.067	0.5
973.794	0.5
974.521	-0.5
975.248	-1.5
975.975	-0.5
976.702	2.5
977.429	1.5
978.156	-2.5
978.882	0.5
979.609	-0.5
980.335	2.5
981.062	1.5
981.788	3.5
982.514	-0.5
983.24	-1.5
983.967	-0.5
984.693	-0.5
985.419	3.5
986.144	0.5
986.87	1.5
987.596	2.5
988.322	0.5
989.047	2.5
989.773	0.5
990.498	1.5
991.224	-0.5
991.949	2.5
992.674	1.5
993.399	2.5
994.124	0.5
994.849	0.5
995.574	3.5
996.299	-0.5
997.024	-0.5
997.749	0.5
998.473	0.5
999.198	0.5
999.922	0.5
1000.647	0.5
1001.371	4.5
1002.095	0.5
1002.82	-1.5
1003.544	-3.5
1004.268	3.5
1004.992	3.5
1005.716	4.5
1006.439	5.5
1007.163	6.5
1007.887	6.5
1008.611	0.5
1009.334	2.5
1010.058	1.5
1010.781	-0.5
1011.504	0.5
1012.228	-0.5
1012.951	-0.5
1013.674	0.5
1014.397	0.5
1015.12	-0.5
