节点500_705_QEPB04081__586__20-54-14-803.txt的数据

Date: Wed Nov 12 20:54:14 CST 2025
User: PC
Spectrometer: QEPB0408
触发模式: 0
积分时间 (秒): 1.000000E-2
Scans to average: 1
启用暗噪声校正: true
启用非线性校正: false
滑动平均宽度: 0
X轴模式: Wavelengths
Number of Pixels in Spectrum: 1044
>>>>>Begin Spectral Data<<<<<
220.843	5.62
221.644	5.62
222.444	3.62
223.244	6.62
224.045	4.62
224.845	5.62
225.645	7.62
226.445	6.62
227.245	5.62
228.045	4.62
228.845	7.62
229.645	7.62
230.444	5.62
231.244	6.62
232.043	5.62
232.843	7.62
233.642	7.62
234.442	9.62
235.241	8.62
236.04	8.62
236.839	10.62
237.638	11.62
238.437	12.62
239.236	7.62
240.035	11.62
240.833	9.62
241.632	10.62
242.43	12.62
243.229	10.62
244.027	10.62
244.826	14.62
245.624	12.62
246.422	13.62
247.22	11.62
248.018	11.62
248.816	15.62
249.614	14.62
250.412	14.62
251.21	18.62
252.007	15.62
252.805	16.62
253.602	13.62
254.4	14.62
255.197	16.62
255.994	17.62
256.791	18.62
257.589	18.62
258.386	19.62
259.183	17.62
259.979	17.62
260.776	17.62
261.573	21.62
262.37	21.62
263.166	23.62
263.963	23.62
264.759	25.62
265.556	21.62
266.352	23.62
267.148	23.62
267.944	26.62
268.74	24.62
269.536	28.62
270.332	27.62
271.128	29.62
271.924	26.62
272.719	30.62
273.515	29.62
274.311	26.62
275.106	32.62
275.901	26.62
276.697	29.62
277.492	31.62
278.287	31.62
279.082	30.62
279.877	30.62
280.672	33.62
281.467	31.62
282.262	30.62
283.056	30.62
283.851	29.62
284.646	30.62
285.44	32.62
286.234	29.62
287.029	33.62
287.823	32.62
288.617	27.62
289.411	32.62
290.205	26.62
290.999	27.62
291.793	28.62
292.587	29.62
293.381	31.62
294.174	26.62
294.968	26.62
295.761	27.62
296.555	25.62
297.348	23.62
298.141	24.62
298.935	32.62
299.728	24.62
300.521	23.62
301.314	25.62
302.107	21.62
302.899	24.62
303.692	20.62
304.485	25.62
305.277	23.62
306.07	21.62
306.862	22.62
307.655	20.62
308.447	18.62
309.239	22.62
310.031	21.62
310.823	18.62
311.615	18.62
312.407	19.62
313.199	17.62
313.991	17.62
314.783	15.62
315.574	12.62
316.366	16.62
317.157	15.62
317.949	16.62
318.74	12.62
319.531	15.62
320.322	12.62
321.113	16.62
321.904	14.62
322.695	11.62
323.486	14.62
324.277	13.62
325.068	12.62
325.858	11.62
326.649	14.62
327.439	11.62
328.23	10.62
329.02	10.62
329.81	11.62
330.6	12.62
331.391	11.62
332.181	12.62
332.971	12.62
333.76	10.62
334.55	12.62
335.34	12.62
336.13	13.62
336.919	10.62
337.709	11.62
338.498	10.62
339.287	9.62
340.077	10.62
340.866	11.62
341.655	11.62
342.444	12.62
343.233	10.62
344.022	10.62
344.811	10.62
345.6	10.62
346.388	12.62
347.177	9.62
347.965	11.62
348.754	8.62
349.542	11.62
350.33	8.62
351.119	10.62
351.907	10.62
352.695	9.62
353.483	8.62
354.271	6.62
355.059	8.62
355.846	10.62
356.634	8.62
357.422	8.62
358.209	8.62
358.997	7.62
359.784	9.62
360.571	8.62
361.359	8.62
362.146	10.62
362.933	9.62
363.72	7.62
364.507	10.62
365.294	8.62
366.081	10.62
366.867	9.62
367.654	7.62
368.44	11.62
369.227	8.62
370.013	8.62
370.8	8.62
371.586	5.62
372.372	7.62
373.158	9.62
373.944	8.62
374.73	7.62
375.516	9.62
376.302	9.62
377.088	9.62
377.873	6.62
378.659	9.62
379.445	9.62
380.23	8.62
381.015	10.62
381.801	8.62
382.586	7.62
383.371	10.62
384.156	9.62
384.941	10.62
385.726	11.62
386.511	9.62
387.296	8.62
388.08	8.62
388.865	12.62
389.649	10.62
390.434	11.62
391.218	10.62
392.003	8.62
392.787	11.62
393.571	13.62
394.355	11.62
395.139	9.62
395.923	11.62
396.707	11.62
397.491	14.62
398.274	9.62
399.058	14.62
399.842	13.62
400.625	14.62
401.408	11.62
402.192	11.62
402.975	12.62
403.758	12.62
404.541	12.62
405.324	13.62
406.107	17.62
406.89	14.62
407.673	14.62
408.456	14.62
409.238	14.62
410.021	13.62
410.803	14.62
411.586	16.62
412.368	14.62
413.151	17.62
413.933	17.62
414.715	14.62
415.497	19.62
416.279	18.62
417.061	18.62
417.843	15.62
418.624	17.62
419.406	18.62
420.188	18.62
420.969	18.62
421.751	18.62
422.532	20.62
423.313	21.62
424.095	22.62
424.876	25.62
425.657	23.62
426.438	22.62
427.219	25.62
428	26.62
428.78	25.62
429.561	27.62
430.342	30.62
431.122	29.62
431.903	31.62
432.683	32.62
433.464	33.62
434.244	37.62
435.024	37.62
435.804	39.62
436.584	43.62
437.364	45.62
438.144	46.62
438.924	50.62
439.704	55.62
440.483	56.62
441.263	64.62
442.042	67.62
442.822	71.62
443.601	80.62
444.38	81.62
445.16	92.62
445.939	100.62
446.718	107.62
447.497	114.62
448.276	127.62
449.054	138.62
449.833	158.62
450.612	173.62
451.391	193.62
452.169	214.62
452.948	232.62
453.726	256.62
454.504	280.62
455.282	315.62
456.061	355.62
456.839	391.62
457.617	434.62
458.395	484.62
459.172	537.62
459.95	607.62
460.728	674.62
461.506	748.62
462.283	821.62
463.061	926.62
463.838	1038.62
464.615	1131.62
465.393	1255.62
466.17	1403.62
466.947	1536.62
467.724	1710.62
468.501	1868.62
469.278	2080.62
470.055	2265.62
470.831	2505.62
471.608	2771.62
472.385	3012.62
473.161	3310.62
473.938	3643.62
474.714	3955.62
475.49	4346.62
476.266	4716.62
477.043	5153.62
477.819	5617.62
478.595	6071.62
479.371	6589.62
480.146	7163.62
480.922	7793.62
481.698	8432.62
482.473	9132.62
483.249	9894.62
484.024	10717.62
484.8	11529.62
485.575	12439.62
486.35	13432.62
487.126	14478.62
487.901	15610.62
488.676	16762.62
489.451	17994.62
490.225	19307.62
491	20647.62
491.775	22045.62
492.55	23546.62
493.324	25062.62
494.099	26642.62
494.873	28216.62
495.647	29765.62
496.422	31391.62
497.196	33023.62
497.97	34577.62
498.744	35969.62
499.518	37531.62
500.292	38959.62
501.066	40030.62
501.839	40872.62
502.613	41828.62
503.387	42683.62
504.16	43166.62
504.934	43656.62
505.707	43868.62
506.48	43869.62
507.253	43601.62
508.027	43368.62
508.8	42697.62
509.573	42025.62
510.346	41263.62
511.118	40543.62
511.891	39536.62
512.664	38288.62
513.437	36991.62
514.209	35888.62
514.982	34579.62
515.754	33249.62
516.526	32013.62
517.298	30781.62
518.071	29640.62
518.843	28550.62
519.615	27325.62
520.387	26202.62
521.159	25261.62
521.93	24221.62
522.702	23234.62
523.474	22229.62
524.245	21433.62
525.017	20563.62
525.788	19623.62
526.56	18893.62
527.331	18131.62
528.102	17212.62
528.873	16405.62
529.644	15622.62
530.415	14900.62
531.186	14292.62
531.957	13541.62
532.728	12903.62
533.498	12229.62
534.269	11599.62
535.039	11014.62
535.81	10422.62
536.58	9840.62
537.351	9357.62
538.121	8855.62
538.891	8357.62
539.661	7934.62
540.431	7468.62
541.201	7126.62
541.971	6764.62
542.741	6406.62
543.51	6052.62
544.28	5776.62
545.05	5502.62
545.819	5251.62
546.588	5006.62
547.358	4766.62
548.127	4527.62
548.896	4304.62
549.665	4093.62
550.434	3882.62
551.203	3673.62
551.972	3503.62
552.741	3304.62
553.51	3118.62
554.278	2967.62
555.047	2799.62
555.815	2638.62
556.584	2513.62
557.352	2366.62
558.121	2231.62
558.889	2127.62
559.657	1993.62
560.425	1901.62
561.193	1788.62
561.961	1720.62
562.729	1618.62
563.496	1523.62
564.264	1432.62
565.032	1355.62
565.799	1286.62
566.567	1229.62
567.334	1146.62
568.101	1086.62
568.869	1026.62
569.636	966.62
570.403	918.62
571.17	874.62
571.937	818.62
572.704	771.62
573.471	738.62
574.237	694.62
575.004	647.62
575.771	612.62
576.537	580.62
577.303	543.62
578.07	515.62
578.836	489.62
579.602	458.62
580.368	435.62
581.134	420.62
581.9	394.62
582.666	368.62
583.432	349.62
584.198	333.62
584.964	328.62
585.729	309.62
586.495	282.62
587.26	275.62
588.025	269.62
588.791	245.62
589.556	231.62
590.321	214.62
591.086	210.62
591.851	194.62
592.616	187.62
593.381	178.62
594.146	175.62
594.911	165.62
595.675	158.62
596.44	153.62
597.204	143.62
597.969	136.62
598.733	129.62
599.497	129.62
600.261	123.62
601.025	116.62
601.79	111.62
602.553	106.62
603.317	100.62
604.081	98.62
604.845	88.62
605.609	90.62
606.372	88.62
607.136	83.62
607.899	78.62
608.662	76.62
609.426	73.62
610.189	68.62
610.952	69.62
611.715	66.62
612.478	63.62
613.241	57.62
614.004	58.62
614.767	54.62
615.529	51.62
616.292	50.62
617.055	48.62
617.817	45.62
618.579	48.62
619.342	47.62
620.104	46.62
620.866	40.62
621.628	42.62
622.39	38.62
623.152	40.62
623.914	34.62
624.676	37.62
625.438	36.62
626.199	32.62
626.961	31.62
627.722	32.62
628.484	28.62
629.245	33.62
630.006	28.62
630.768	27.62
631.529	26.62
632.29	25.62
633.051	25.62
633.812	24.62
634.573	24.62
635.333	21.62
636.094	21.62
636.855	24.62
637.615	19.62
638.376	18.62
639.136	19.62
639.896	18.62
640.657	19.62
641.417	20.62
642.177	17.62
642.937	18.62
643.697	14.62
644.457	17.62
645.216	16.62
645.976	16.62
646.736	16.62
647.495	18.62
648.255	15.62
649.014	11.62
649.774	13.62
650.533	13.62
651.292	11.62
652.051	14.62
652.81	14.62
653.569	12.62
654.328	11.62
655.087	14.62
655.846	9.62
656.604	12.62
657.363	11.62
658.121	13.62
658.88	11.62
659.638	10.62
660.397	13.62
661.155	10.62
661.913	10.62
662.671	10.62
663.429	12.62
664.187	9.62
664.945	9.62
665.703	8.62
666.46	9.62
667.218	9.62
667.976	11.62
668.733	9.62
669.49	9.62
670.248	10.62
671.005	8.62
671.762	5.62
672.519	8.62
673.276	7.62
674.033	8.62
674.79	8.62
675.547	8.62
676.304	6.62
677.06	7.62
677.817	8.62
678.574	7.62
679.33	6.62
680.086	6.62
680.843	7.62
681.599	10.62
682.355	8.62
683.111	5.62
683.867	8.62
684.623	4.62
685.379	9.62
686.135	7.62
686.89	7.62
687.646	4.62
688.402	5.62
689.157	7.62
689.912	7.62
690.668	7.62
691.423	7.62
692.178	7.62
692.933	8.62
693.688	7.62
694.443	6.62
695.198	5.62
695.953	6.62
696.708	8.62
697.462	7.62
698.217	7.62
698.972	4.62
699.726	6.62
700.48	4.62
701.235	6.62
701.989	7.62
702.743	4.62
703.497	10.62
704.251	7.62
705.005	8.62
705.759	6.62
706.513	7.62
707.266	8.62
708.02	7.62
708.774	5.62
709.527	5.62
710.28	7.62
711.034	8.62
711.787	7.62
712.54	8.62
713.293	6.62
714.046	8.62
714.799	7.62
715.552	8.62
716.305	7.62
717.058	8.62
717.81	9.62
718.563	5.62
719.315	7.62
720.068	7.62
720.82	7.62
721.573	6.62
722.325	8.62
723.077	8.62
723.829	8.62
724.581	8.62
725.333	7.62
726.085	6.62
726.836	7.62
727.588	8.62
728.34	8.62
729.091	7.62
729.843	4.62
730.594	6.62
731.346	9.62
732.097	7.62
732.848	6.62
733.599	7.62
734.35	7.62
735.101	8.62
735.852	7.62
736.603	8.62
737.354	9.62
738.104	6.62
738.855	9.62
739.605	8.62
740.356	8.62
741.106	9.62
741.856	10.62
742.607	8.62
743.357	8.62
744.107	8.62
744.857	8.62
745.607	8.62
746.357	9.62
747.106	8.62
747.856	10.62
748.606	8.62
749.355	8.62
750.105	11.62
750.854	9.62
751.603	8.62
752.353	10.62
753.102	11.62
753.851	10.62
754.6	10.62
755.349	10.62
756.098	9.62
756.847	11.62
757.595	8.62
758.344	9.62
759.093	11.62
759.841	10.62
760.589	11.62
761.338	11.62
762.086	10.62
762.834	11.62
763.582	12.62
764.331	12.62
765.079	11.62
765.826	12.62
766.574	12.62
767.322	11.62
768.07	13.62
768.817	9.62
769.565	11.62
770.312	12.62
771.06	10.62
771.807	13.62
772.554	13.62
773.302	12.62
774.049	11.62
774.796	12.62
775.543	13.62
776.29	13.62
777.036	12.62
777.783	9.62
778.53	14.62
779.276	12.62
780.023	14.62
780.769	12.62
781.516	14.62
782.262	13.62
783.008	11.62
783.754	15.62
784.5	16.62
785.246	15.62
785.992	15.62
786.738	13.62
787.484	15.62
788.23	15.62
788.975	12.62
789.721	14.62
790.466	14.62
791.212	14.62
791.957	13.62
792.702	11.62
793.447	11.62
794.193	13.62
794.938	11.62
795.683	12.62
796.427	11.62
797.172	10.62
797.917	12.62
798.662	10.62
799.406	11.62
800.151	9.62
800.895	11.62
801.64	11.62
802.384	11.62
803.128	12.62
803.872	9.62
804.616	12.62
805.36	9.62
806.104	8.62
806.848	8.62
807.592	12.62
808.336	7.62
809.079	10.62
809.823	9.62
810.566	8.62
811.31	8.62
812.053	8.62
812.796	9.62
813.539	6.62
814.283	7.62
815.026	9.62
815.769	8.62
816.511	7.62
817.254	6.62
817.997	8.62
818.74	7.62
819.482	9.62
820.225	5.62
820.967	6.62
821.71	5.62
822.452	6.62
823.194	7.62
823.936	7.62
824.678	5.62
825.42	6.62
826.162	4.62
826.904	5.62
827.646	7.62
828.388	3.62
829.129	5.62
829.871	8.62
830.612	5.62
831.354	8.62
832.095	3.62
832.836	6.62
833.577	5.62
834.319	5.62
835.06	6.62
835.801	4.62
836.542	6.62
837.282	4.62
838.023	5.62
838.764	4.62
839.504	6.62
840.245	5.62
840.985	4.62
841.726	4.62
842.466	3.62
843.206	4.62
843.946	5.62
844.687	4.62
845.427	3.62
846.166	5.62
846.906	4.62
847.646	5.62
848.386	6.62
849.125	4.62
849.865	5.62
850.605	4.62
851.344	4.62
852.083	3.62
852.823	4.62
853.562	4.62
854.301	4.62
855.04	0.62
855.779	3.62
856.518	4.62
857.257	4.62
857.995	4.62
858.734	2.62
859.473	5.62
860.211	4.62
860.95	1.62
861.688	3.62
862.426	0.62
863.165	1.62
863.903	3.62
864.641	5.62
865.379	2.62
866.117	1.62
866.855	0.62
867.593	2.62
868.33	3.62
869.068	1.62
869.806	0.62
870.543	3.62
871.28	2.62
872.018	1.62
872.755	2.62
873.492	0.62
874.229	0.62
874.967	4.62
875.703	2.62
876.44	0.62
877.177	3.62
877.914	1.62
878.651	-0.38
879.387	1.62
880.124	0.62
880.86	-0.38
881.597	2.62
882.333	2.62
883.069	0.62
883.806	0.62
884.542	0.62
885.278	0.62
886.014	1.62
886.749	-0.38
887.485	-0.38
888.221	0.62
888.957	1.62
889.692	2.62
890.428	2.62
891.163	2.62
891.899	2.62
892.634	0.62
893.369	1.62
894.104	-1.38
894.839	0.62
895.574	0.62
896.309	0.62
897.044	1.62
897.779	2.62
898.514	0.62
899.248	1.62
899.983	1.62
900.717	0.62
901.452	-0.38
902.186	0.62
902.92	0.62
903.654	0.62
904.389	-0.38
905.123	1.62
905.857	1.62
906.59	-1.38
907.324	-0.38
908.058	0.62
908.792	1.62
909.525	-1.38
910.259	0.62
910.992	0.62
911.726	-0.38
912.459	0.62
913.192	-1.38
913.925	0.62
914.658	-0.38
915.391	-1.38
916.124	0.62
916.857	-1.38
917.59	-0.38
918.323	-0.38
919.055	-0.38
919.788	-0.38
920.521	-0.38
921.253	0.62
921.985	0.62
922.718	1.62
923.45	0.62
924.182	-0.38
924.914	-0.38
925.646	0.62
926.378	2.62
927.11	0.62
927.841	0.62
928.573	-0.38
929.305	0.62
930.036	-0.38
930.768	2.62
931.499	1.62
932.23	-0.38
932.962	-1.38
933.693	-1.38
934.424	1.62
935.155	-1.38
935.886	1.62
936.617	0.62
937.348	0.62
938.078	1.62
938.809	-0.38
939.54	-0.38
940.27	0.62
941.001	0.62
941.731	1.62
942.461	0.62
943.191	0.62
943.922	-0.38
944.652	-0.38
945.382	1.62
946.112	-1.38
946.841	0.62
947.571	-1.38
948.301	-1.38
949.031	-1.38
949.76	1.62
950.49	0.62
951.219	1.62
951.948	1.62
952.678	-1.38
953.407	1.62
954.136	1.62
954.865	1.62
955.594	3.62
956.323	-0.38
957.052	1.62
957.78	0.62
958.509	-1.38
959.238	1.62
959.966	-1.38
960.695	-0.38
961.423	0.62
962.151	-2.38
962.88	0.62
963.608	-1.38
964.336	0.62
965.064	-0.38
965.792	-0.38
966.52	1.62
967.247	-0.38
967.975	2.62
968.703	0.62
969.43	-0.38
970.158	-0.38
970.885	0.62
971.613	-0.38
972.34	-0.38
973.067	1.62
973.794	-1.38
974.521	-0.38
975.248	1.62
975.975	-0.38
976.702	-1.38
977.429	0.62
978.156	-0.38
978.882	-0.38
979.609	0.62
980.335	-1.38
981.062	-0.38
981.788	0.62
982.514	-0.38
983.24	0.62
983.967	-1.38
984.693	-0.38
985.419	0.62
986.144	-0.38
986.87	0.62
987.596	-2.38
988.322	2.62
989.047	-0.38
989.773	0.62
990.498	0.62
991.224	0.62
991.949	0.62
992.674	1.62
993.399	0.62
994.124	0.62
994.849	-1.38
995.574	-0.38
996.299	-0.38
997.024	2.62
997.749	-1.38
998.473	-1.38
999.198	0.62
999.922	-0.38
1000.647	-0.38
1001.371	1.62
1002.095	-1.38
1002.82	0.62
1003.544	0.62
1004.268	3.62
1004.992	5.62
1005.716	3.62
1006.439	2.62
1007.163	5.62
1007.887	4.62
1008.611	1.62
1009.334	-2.38
1010.058	-0.38
1010.781	0.62
1011.504	1.62
1012.228	-1.38
1012.951	1.62
1013.674	-0.38
1014.397	-2.38
1015.12	-0.38
