节点500_705_QEPB04081__172__20-48-43-033.txt的数据

Date: Wed Nov 12 20:48:43 CST 2025
User: PC
Spectrometer: QEPB0408
触发模式: 0
积分时间 (秒): 1.000000E-2
Scans to average: 1
启用暗噪声校正: true
启用非线性校正: false
滑动平均宽度: 0
X轴模式: Wavelengths
Number of Pixels in Spectrum: 1044
>>>>>Begin Spectral Data<<<<<
220.843	3.25
221.644	3.25
222.444	4.25
223.244	4.25
224.045	6.25
224.845	7.25
225.645	5.25
226.445	8.25
227.245	4.25
228.045	8.25
228.845	6.25
229.645	8.25
230.444	9.25
231.244	8.25
232.043	8.25
232.843	8.25
233.642	9.25
234.442	10.25
235.241	10.25
236.04	14.25
236.839	8.25
237.638	12.25
238.437	13.25
239.236	11.25
240.035	12.25
240.833	12.25
241.632	12.25
242.43	12.25
243.229	12.25
244.027	11.25
244.826	14.25
245.624	15.25
246.422	13.25
247.22	14.25
248.018	16.25
248.816	12.25
249.614	14.25
250.412	13.25
251.21	20.25
252.007	16.25
252.805	15.25
253.602	18.25
254.4	19.25
255.197	19.25
255.994	18.25
256.791	20.25
257.589	18.25
258.386	21.25
259.183	23.25
259.979	21.25
260.776	22.25
261.573	21.25
262.37	24.25
263.166	28.25
263.963	25.25
264.759	27.25
265.556	26.25
266.352	31.25
267.148	28.25
267.944	32.25
268.74	30.25
269.536	31.25
270.332	32.25
271.128	31.25
271.924	32.25
272.719	30.25
273.515	34.25
274.311	34.25
275.106	35.25
275.901	33.25
276.697	32.25
277.492	34.25
278.287	34.25
279.082	35.25
279.877	34.25
280.672	35.25
281.467	34.25
282.262	33.25
283.056	35.25
283.851	34.25
284.646	34.25
285.44	34.25
286.234	35.25
287.029	35.25
287.823	34.25
288.617	34.25
289.411	33.25
290.205	30.25
290.999	29.25
291.793	34.25
292.587	31.25
293.381	32.25
294.174	29.25
294.968	28.25
295.761	28.25
296.555	27.25
297.348	26.25
298.141	25.25
298.935	33.25
299.728	27.25
300.521	26.25
301.314	23.25
302.107	24.25
302.899	25.25
303.692	21.25
304.485	23.25
305.277	23.25
306.07	23.25
306.862	21.25
307.655	20.25
308.447	20.25
309.239	22.25
310.031	18.25
310.823	18.25
311.615	19.25
312.407	16.25
313.199	17.25
313.991	18.25
314.783	17.25
315.574	15.25
316.366	16.25
317.157	14.25
317.949	16.25
318.74	15.25
319.531	16.25
320.322	13.25
321.113	13.25
321.904	14.25
322.695	13.25
323.486	12.25
324.277	12.25
325.068	12.25
325.858	14.25
326.649	12.25
327.439	11.25
328.23	13.25
329.02	11.25
329.81	10.25
330.6	14.25
331.391	10.25
332.181	13.25
332.971	14.25
333.76	11.25
334.55	12.25
335.34	11.25
336.13	11.25
336.919	13.25
337.709	13.25
338.498	13.25
339.287	9.25
340.077	10.25
340.866	8.25
341.655	12.25
342.444	13.25
343.233	12.25
344.022	12.25
344.811	11.25
345.6	9.25
346.388	12.25
347.177	10.25
347.965	14.25
348.754	8.25
349.542	13.25
350.33	10.25
351.119	9.25
351.907	9.25
352.695	10.25
353.483	11.25
354.271	9.25
355.059	11.25
355.846	8.25
356.634	9.25
357.422	9.25
358.209	9.25
358.997	8.25
359.784	9.25
360.571	8.25
361.359	7.25
362.146	8.25
362.933	10.25
363.72	10.25
364.507	10.25
365.294	7.25
366.081	10.25
366.867	10.25
367.654	11.25
368.44	10.25
369.227	8.25
370.013	8.25
370.8	12.25
371.586	8.25
372.372	8.25
373.158	8.25
373.944	10.25
374.73	10.25
375.516	10.25
376.302	10.25
377.088	9.25
377.873	10.25
378.659	10.25
379.445	9.25
380.23	9.25
381.015	12.25
381.801	9.25
382.586	10.25
383.371	9.25
384.156	8.25
384.941	12.25
385.726	9.25
386.511	10.25
387.296	9.25
388.08	9.25
388.865	10.25
389.649	10.25
390.434	13.25
391.218	12.25
392.003	10.25
392.787	12.25
393.571	11.25
394.355	12.25
395.139	11.25
395.923	12.25
396.707	10.25
397.491	11.25
398.274	13.25
399.058	12.25
399.842	15.25
400.625	15.25
401.408	12.25
402.192	12.25
402.975	11.25
403.758	14.25
404.541	16.25
405.324	15.25
406.107	14.25
406.89	12.25
407.673	15.25
408.456	13.25
409.238	18.25
410.021	18.25
410.803	16.25
411.586	18.25
412.368	15.25
413.151	16.25
413.933	18.25
414.715	14.25
415.497	19.25
416.279	18.25
417.061	19.25
417.843	19.25
418.624	18.25
419.406	23.25
420.188	20.25
420.969	22.25
421.751	21.25
422.532	24.25
423.313	26.25
424.095	23.25
424.876	24.25
425.657	26.25
426.438	24.25
427.219	25.25
428	29.25
428.78	28.25
429.561	27.25
430.342	30.25
431.122	30.25
431.903	32.25
432.683	32.25
433.464	36.25
434.244	35.25
435.024	38.25
435.804	40.25
436.584	43.25
437.364	44.25
438.144	46.25
438.924	50.25
439.704	55.25
440.483	54.25
441.263	55.25
442.042	65.25
442.822	67.25
443.601	72.25
444.38	76.25
445.16	86.25
445.939	92.25
446.718	98.25
447.497	107.25
448.276	116.25
449.054	126.25
449.833	141.25
450.612	156.25
451.391	168.25
452.169	185.25
452.948	201.25
453.726	228.25
454.504	259.25
455.282	284.25
456.061	318.25
456.839	358.25
457.617	394.25
458.395	441.25
459.172	492.25
459.95	550.25
460.728	614.25
461.506	672.25
462.283	776.25
463.061	868.25
463.838	952.25
464.615	1058.25
465.393	1185.25
466.17	1329.25
466.947	1457.25
467.724	1656.25
468.501	1799.25
469.278	2002.25
470.055	2224.25
470.831	2472.25
471.608	2743.25
472.385	3024.25
473.161	3372.25
473.938	3663.25
474.714	4032.25
475.49	4508.25
476.266	4905.25
477.043	5376.25
477.819	5917.25
478.595	6490.25
479.371	7079.25
480.146	7779.25
480.922	8497.25
481.698	9297.25
482.473	10190.25
483.249	11087.25
484.024	12030.25
484.8	13108.25
485.575	14252.25
486.35	15510.25
487.126	16842.25
487.901	18201.25
488.676	19701.25
489.451	21292.25
490.225	22899.25
491	24610.25
491.775	26435.25
492.55	28196.25
493.324	30134.25
494.099	31916.25
494.873	33792.25
495.647	35721.25
496.422	37598.25
497.196	39483.25
497.97	41146.25
498.744	42601.25
499.518	44272.25
500.292	45566.25
501.066	46550.25
501.839	47423.25
502.613	48111.25
503.387	48482.25
504.16	48847.25
504.934	48767.25
505.707	48542.25
506.48	47981.25
507.253	47450.25
508.027	46417.25
508.8	45267.25
509.573	44098.25
510.346	42824.25
511.118	41603.25
511.891	40243.25
512.664	38690.25
513.437	37079.25
514.209	35684.25
514.982	34297.25
515.754	32875.25
516.526	31437.25
517.298	30154.25
518.071	28997.25
518.843	27835.25
519.615	26706.25
520.387	25627.25
521.159	24541.25
521.93	23554.25
522.702	22538.25
523.474	21626.25
524.245	20650.25
525.017	19627.25
525.788	18883.25
526.56	18037.25
527.331	17237.25
528.102	16345.25
528.873	15540.25
529.644	14760.25
530.415	14056.25
531.186	13383.25
531.957	12623.25
532.728	11973.25
533.498	11327.25
534.269	10708.25
535.039	10125.25
535.81	9571.25
536.58	9050.25
537.351	8583.25
538.121	8098.25
538.891	7688.25
539.661	7270.25
540.431	6863.25
541.201	6507.25
541.971	6220.25
542.741	5860.25
543.51	5520.25
544.28	5300.25
545.05	5046.25
545.819	4822.25
546.588	4576.25
547.358	4354.25
548.127	4135.25
548.896	3945.25
549.665	3729.25
550.434	3510.25
551.203	3330.25
551.972	3177.25
552.741	3005.25
553.51	2802.25
554.278	2661.25
555.047	2513.25
555.815	2384.25
556.584	2229.25
557.352	2124.25
558.121	2011.25
558.889	1886.25
559.657	1790.25
560.425	1692.25
561.193	1595.25
561.961	1506.25
562.729	1437.25
563.496	1348.25
564.264	1281.25
565.032	1203.25
565.799	1155.25
566.567	1094.25
567.334	1038.25
568.101	967.25
568.869	910.25
569.636	864.25
570.403	806.25
571.17	766.25
571.937	738.25
572.704	696.25
573.471	651.25
574.237	616.25
575.004	581.25
575.771	542.25
576.537	512.25
577.303	478.25
578.07	456.25
578.836	430.25
579.602	403.25
580.368	392.25
581.134	367.25
581.9	351.25
582.666	337.25
583.432	315.25
584.198	299.25
584.964	282.25
585.729	268.25
586.495	258.25
587.26	241.25
588.025	234.25
588.791	219.25
589.556	198.25
590.321	196.25
591.086	187.25
591.851	173.25
592.616	171.25
593.381	162.25
594.146	153.25
594.911	147.25
595.675	136.25
596.44	136.25
597.204	129.25
597.969	119.25
598.733	116.25
599.497	112.25
600.261	110.25
601.025	100.25
601.79	98.25
602.553	95.25
603.317	92.25
604.081	84.25
604.845	82.25
605.609	82.25
606.372	74.25
607.136	70.25
607.899	71.25
608.662	70.25
609.426	69.25
610.189	62.25
610.952	62.25
611.715	59.25
612.478	57.25
613.241	55.25
614.004	51.25
614.767	48.25
615.529	49.25
616.292	46.25
617.055	45.25
617.817	47.25
618.579	44.25
619.342	40.25
620.104	42.25
620.866	38.25
621.628	38.25
622.39	38.25
623.152	32.25
623.914	34.25
624.676	33.25
625.438	33.25
626.199	31.25
626.961	29.25
627.722	29.25
628.484	27.25
629.245	29.25
630.006	30.25
630.768	26.25
631.529	26.25
632.29	26.25
633.051	24.25
633.812	24.25
634.573	23.25
635.333	20.25
636.094	21.25
636.855	20.25
637.615	21.25
638.376	20.25
639.136	19.25
639.896	16.25
640.657	18.25
641.417	17.25
642.177	20.25
642.937	16.25
643.697	17.25
644.457	14.25
645.216	16.25
645.976	15.25
646.736	16.25
647.495	15.25
648.255	13.25
649.014	15.25
649.774	14.25
650.533	14.25
651.292	16.25
652.051	14.25
652.81	12.25
653.569	12.25
654.328	13.25
655.087	11.25
655.846	11.25
656.604	12.25
657.363	11.25
658.121	7.25
658.88	11.25
659.638	8.25
660.397	10.25
661.155	11.25
661.913	11.25
662.671	9.25
663.429	9.25
664.187	9.25
664.945	8.25
665.703	7.25
666.46	9.25
667.218	8.25
667.976	9.25
668.733	8.25
669.49	9.25
670.248	8.25
671.005	8.25
671.762	10.25
672.519	8.25
673.276	9.25
674.033	8.25
674.79	8.25
675.547	8.25
676.304	5.25
677.06	8.25
677.817	8.25
678.574	10.25
679.33	10.25
680.086	7.25
680.843	9.25
681.599	4.25
682.355	7.25
683.111	6.25
683.867	9.25
684.623	7.25
685.379	6.25
686.135	7.25
686.89	7.25
687.646	8.25
688.402	7.25
689.157	8.25
689.912	7.25
690.668	7.25
691.423	6.25
692.178	8.25
692.933	6.25
693.688	8.25
694.443	6.25
695.198	7.25
695.953	6.25
696.708	8.25
697.462	9.25
698.217	8.25
698.972	5.25
699.726	6.25
700.48	9.25
701.235	8.25
701.989	6.25
702.743	7.25
703.497	10.25
704.251	9.25
705.005	8.25
705.759	8.25
706.513	9.25
707.266	7.25
708.02	5.25
708.774	8.25
709.527	4.25
710.28	5.25
711.034	5.25
711.787	6.25
712.54	8.25
713.293	8.25
714.046	6.25
714.799	7.25
715.552	7.25
716.305	5.25
717.058	6.25
717.81	7.25
718.563	6.25
719.315	6.25
720.068	8.25
720.82	9.25
721.573	8.25
722.325	7.25
723.077	9.25
723.829	8.25
724.581	7.25
725.333	12.25
726.085	7.25
726.836	7.25
727.588	9.25
728.34	7.25
729.091	9.25
729.843	9.25
730.594	8.25
731.346	8.25
732.097	9.25
732.848	9.25
733.599	10.25
734.35	8.25
735.101	10.25
735.852	7.25
736.603	9.25
737.354	8.25
738.104	8.25
738.855	9.25
739.605	9.25
740.356	10.25
741.106	12.25
741.856	8.25
742.607	9.25
743.357	10.25
744.107	11.25
744.857	10.25
745.607	10.25
746.357	9.25
747.106	10.25
747.856	11.25
748.606	10.25
749.355	10.25
750.105	10.25
750.854	10.25
751.603	10.25
752.353	10.25
753.102	10.25
753.851	10.25
754.6	13.25
755.349	10.25
756.098	10.25
756.847	10.25
757.595	10.25
758.344	15.25
759.093	12.25
759.841	15.25
760.589	12.25
761.338	12.25
762.086	14.25
762.834	14.25
763.582	11.25
764.331	10.25
765.079	13.25
765.826	13.25
766.574	11.25
767.322	13.25
768.07	14.25
768.817	16.25
769.565	14.25
770.312	15.25
771.06	14.25
771.807	17.25
772.554	14.25
773.302	13.25
774.049	14.25
774.796	18.25
775.543	14.25
776.29	13.25
777.036	18.25
777.783	13.25
778.53	14.25
779.276	16.25
780.023	14.25
780.769	16.25
781.516	18.25
782.262	16.25
783.008	16.25
783.754	16.25
784.5	16.25
785.246	17.25
785.992	16.25
786.738	15.25
787.484	17.25
788.23	16.25
788.975	13.25
789.721	15.25
790.466	13.25
791.212	16.25
791.957	14.25
792.702	14.25
793.447	13.25
794.193	12.25
794.938	15.25
795.683	14.25
796.427	10.25
797.172	14.25
797.917	16.25
798.662	16.25
799.406	11.25
800.151	13.25
800.895	12.25
801.64	9.25
802.384	11.25
803.128	10.25
803.872	11.25
804.616	11.25
805.36	10.25
806.104	10.25
806.848	9.25
807.592	10.25
808.336	7.25
809.079	10.25
809.823	10.25
810.566	10.25
811.31	10.25
812.053	9.25
812.796	6.25
813.539	8.25
814.283	7.25
815.026	5.25
815.769	7.25
816.511	8.25
817.254	8.25
817.997	6.25
818.74	7.25
819.482	5.25
820.225	8.25
820.967	9.25
821.71	7.25
822.452	7.25
823.194	5.25
823.936	6.25
824.678	6.25
825.42	6.25
826.162	7.25
826.904	5.25
827.646	7.25
828.388	6.25
829.129	8.25
829.871	5.25
830.612	5.25
831.354	8.25
832.095	4.25
832.836	7.25
833.577	5.25
834.319	8.25
835.06	6.25
835.801	5.25
836.542	5.25
837.282	5.25
838.023	5.25
838.764	6.25
839.504	4.25
840.245	4.25
840.985	6.25
841.726	7.25
842.466	4.25
843.206	2.25
843.946	3.25
844.687	4.25
845.427	4.25
846.166	6.25
846.906	5.25
847.646	2.25
848.386	4.25
849.125	5.25
849.865	4.25
850.605	2.25
851.344	2.25
852.083	3.25
852.823	0.25
853.562	2.25
854.301	3.25
855.04	2.25
855.779	2.25
856.518	4.25
857.257	5.25
857.995	2.25
858.734	5.25
859.473	1.25
860.211	1.25
860.95	5.25
861.688	3.25
862.426	1.25
863.165	3.25
863.903	4.25
864.641	0.25
865.379	2.25
866.117	3.25
866.855	1.25
867.593	1.25
868.33	2.25
869.068	1.25
869.806	2.25
870.543	1.25
871.28	4.25
872.018	2.25
872.755	3.25
873.492	2.25
874.229	1.25
874.967	3.25
875.703	-0.75
876.44	0.25
877.177	2.25
877.914	1.25
878.651	2.25
879.387	2.25
880.124	1.25
880.86	0.25
881.597	0.25
882.333	2.25
883.069	2.25
883.806	2.25
884.542	1.25
885.278	0.25
886.014	1.25
886.749	1.25
887.485	2.25
888.221	0.25
888.957	2.25
889.692	1.25
890.428	3.25
891.163	-1.75
891.899	2.25
892.634	1.25
893.369	0.25
894.104	3.25
894.839	0.25
895.574	1.25
896.309	1.25
897.044	1.25
897.779	1.25
898.514	-1.75
899.248	2.25
899.983	1.25
900.717	2.25
901.452	-0.75
902.186	1.25
902.92	-0.75
903.654	2.25
904.389	-0.75
905.123	2.25
905.857	-0.75
906.59	0.25
907.324	-1.75
908.058	1.25
908.792	1.25
909.525	0.25
910.259	0.25
910.992	-0.75
911.726	0.25
912.459	0.25
913.192	0.25
913.925	0.25
914.658	2.25
915.391	-1.75
916.124	-1.75
916.857	0.25
917.59	0.25
918.323	-0.75
919.055	0.25
919.788	1.25
920.521	-0.75
921.253	0.25
921.985	2.25
922.718	-0.75
923.45	0.25
924.182	0.25
924.914	-1.75
925.646	1.25
926.378	0.25
927.11	0.25
927.841	-0.75
928.573	1.25
929.305	2.25
930.036	-0.75
930.768	-0.75
931.499	0.25
932.23	-2.75
932.962	1.25
933.693	-2.75
934.424	1.25
935.155	0.25
935.886	0.25
936.617	0.25
937.348	1.25
938.078	1.25
938.809	-0.75
939.54	0.25
940.27	-0.75
941.001	-1.75
941.731	1.25
942.461	-0.75
943.191	0.25
943.922	-1.75
944.652	0.25
945.382	-0.75
946.112	-0.75
946.841	2.25
947.571	-1.75
948.301	-1.75
949.031	2.25
949.76	-1.75
950.49	0.25
951.219	0.25
951.948	-1.75
952.678	-0.75
953.407	1.25
954.136	-0.75
954.865	1.25
955.594	2.25
956.323	-0.75
957.052	0.25
957.78	0.25
958.509	1.25
959.238	-0.75
959.966	0.25
960.695	0.25
961.423	-1.75
962.151	2.25
962.88	-0.75
963.608	-1.75
964.336	1.25
965.064	-0.75
965.792	-1.75
966.52	0.25
967.247	1.25
967.975	-1.75
968.703	-1.75
969.43	1.25
970.158	0.25
970.885	1.25
971.613	-1.75
972.34	-1.75
973.067	-1.75
973.794	-1.75
974.521	1.25
975.248	-1.75
975.975	0.25
976.702	0.25
977.429	0.25
978.156	-1.75
978.882	-1.75
979.609	0.25
980.335	-1.75
981.062	0.25
981.788	-0.75
982.514	0.25
983.24	0.25
983.967	-0.75
984.693	0.25
985.419	1.25
986.144	1.25
986.87	1.25
987.596	-1.75
988.322	2.25
989.047	0.25
989.773	2.25
990.498	0.25
991.224	-0.75
991.949	0.25
992.674	-1.75
993.399	-1.75
994.124	-0.75
994.849	-0.75
995.574	-0.75
996.299	1.25
997.024	0.25
997.749	-1.75
998.473	1.25
999.198	-1.75
999.922	-1.75
1000.647	-0.75
1001.371	4.25
1002.095	-1.75
1002.82	-1.75
1003.544	0.25
1004.268	4.25
1004.992	7.25
1005.716	2.25
1006.439	3.25
1007.163	6.25
1007.887	6.25
1008.611	0.25
1009.334	0.25
1010.058	2.25
1010.781	-0.75
1011.504	0.25
1012.228	-1.75
1012.951	-0.75
1013.674	-1.75
1014.397	2.25
1015.12	-0.75
