节点500_705_QEPB04081__5__20-45-58-376.txt的数据

Date: Wed Nov 12 20:45:58 CST 2025
User: PC
Spectrometer: QEPB0408
触发模式: 0
积分时间 (秒): 1.000000E-2
Scans to average: 1
启用暗噪声校正: true
启用非线性校正: false
滑动平均宽度: 0
X轴模式: Wavelengths
Number of Pixels in Spectrum: 1044
>>>>>Begin Spectral Data<<<<<
220.843	6.62
221.644	4.62
222.444	5.62
223.244	4.62
224.045	5.62
224.845	7.62
225.645	6.62
226.445	3.62
227.245	8.62
228.045	8.62
228.845	5.62
229.645	7.62
230.444	6.62
231.244	10.62
232.043	8.62
232.843	8.62
233.642	9.62
234.442	9.62
235.241	12.62
236.04	9.62
236.839	10.62
237.638	10.62
238.437	11.62
239.236	13.62
240.035	10.62
240.833	12.62
241.632	11.62
242.43	13.62
243.229	14.62
244.027	12.62
244.826	13.62
245.624	14.62
246.422	14.62
247.22	14.62
248.018	17.62
248.816	16.62
249.614	18.62
250.412	16.62
251.21	21.62
252.007	18.62
252.805	18.62
253.602	18.62
254.4	21.62
255.197	21.62
255.994	21.62
256.791	20.62
257.589	20.62
258.386	20.62
259.183	23.62
259.979	24.62
260.776	23.62
261.573	24.62
262.37	27.62
263.166	23.62
263.963	28.62
264.759	27.62
265.556	30.62
266.352	28.62
267.148	30.62
267.944	29.62
268.74	30.62
269.536	33.62
270.332	29.62
271.128	33.62
271.924	36.62
272.719	34.62
273.515	37.62
274.311	32.62
275.106	34.62
275.901	39.62
276.697	38.62
277.492	37.62
278.287	40.62
279.082	35.62
279.877	35.62
280.672	36.62
281.467	37.62
282.262	36.62
283.056	36.62
283.851	36.62
284.646	36.62
285.44	37.62
286.234	31.62
287.029	35.62
287.823	32.62
288.617	34.62
289.411	34.62
290.205	33.62
290.999	32.62
291.793	30.62
292.587	32.62
293.381	33.62
294.174	30.62
294.968	29.62
295.761	28.62
296.555	29.62
297.348	25.62
298.141	28.62
298.935	28.62
299.728	26.62
300.521	26.62
301.314	22.62
302.107	22.62
302.899	22.62
303.692	23.62
304.485	22.62
305.277	23.62
306.07	24.62
306.862	23.62
307.655	22.62
308.447	19.62
309.239	21.62
310.031	21.62
310.823	19.62
311.615	18.62
312.407	18.62
313.199	14.62
313.991	14.62
314.783	14.62
315.574	14.62
316.366	17.62
317.157	17.62
317.949	14.62
318.74	12.62
319.531	15.62
320.322	12.62
321.113	13.62
321.904	14.62
322.695	11.62
323.486	13.62
324.277	15.62
325.068	13.62
325.858	11.62
326.649	15.62
327.439	12.62
328.23	10.62
329.02	11.62
329.81	13.62
330.6	10.62
331.391	9.62
332.181	9.62
332.971	9.62
333.76	14.62
334.55	12.62
335.34	10.62
336.13	12.62
336.919	12.62
337.709	14.62
338.498	11.62
339.287	15.62
340.077	11.62
340.866	10.62
341.655	11.62
342.444	10.62
343.233	11.62
344.022	11.62
344.811	10.62
345.6	10.62
346.388	10.62
347.177	13.62
347.965	9.62
348.754	8.62
349.542	10.62
350.33	11.62
351.119	11.62
351.907	10.62
352.695	12.62
353.483	11.62
354.271	10.62
355.059	10.62
355.846	10.62
356.634	9.62
357.422	9.62
358.209	9.62
358.997	10.62
359.784	11.62
360.571	10.62
361.359	9.62
362.146	10.62
362.933	12.62
363.72	10.62
364.507	8.62
365.294	9.62
366.081	8.62
366.867	7.62
367.654	9.62
368.44	9.62
369.227	9.62
370.013	10.62
370.8	11.62
371.586	9.62
372.372	11.62
373.158	9.62
373.944	8.62
374.73	10.62
375.516	10.62
376.302	10.62
377.088	10.62
377.873	9.62
378.659	9.62
379.445	12.62
380.23	9.62
381.015	12.62
381.801	11.62
382.586	9.62
383.371	12.62
384.156	10.62
384.941	10.62
385.726	10.62
386.511	8.62
387.296	10.62
388.08	12.62
388.865	11.62
389.649	8.62
390.434	13.62
391.218	10.62
392.003	13.62
392.787	13.62
393.571	13.62
394.355	12.62
395.139	11.62
395.923	13.62
396.707	11.62
397.491	14.62
398.274	14.62
399.058	12.62
399.842	13.62
400.625	14.62
401.408	11.62
402.192	14.62
402.975	14.62
403.758	14.62
404.541	16.62
405.324	17.62
406.107	16.62
406.89	14.62
407.673	16.62
408.456	16.62
409.238	18.62
410.021	17.62
410.803	17.62
411.586	16.62
412.368	18.62
413.151	18.62
413.933	18.62
414.715	18.62
415.497	16.62
416.279	17.62
417.061	20.62
417.843	20.62
418.624	17.62
419.406	20.62
420.188	21.62
420.969	22.62
421.751	21.62
422.532	24.62
423.313	24.62
424.095	26.62
424.876	23.62
425.657	23.62
426.438	27.62
427.219	28.62
428	28.62
428.78	25.62
429.561	29.62
430.342	29.62
431.122	32.62
431.903	32.62
432.683	35.62
433.464	34.62
434.244	38.62
435.024	41.62
435.804	39.62
436.584	41.62
437.364	47.62
438.144	48.62
438.924	49.62
439.704	53.62
440.483	52.62
441.263	62.62
442.042	64.62
442.822	64.62
443.601	71.62
444.38	74.62
445.16	81.62
445.939	89.62
446.718	97.62
447.497	106.62
448.276	115.62
449.054	125.62
449.833	136.62
450.612	148.62
451.391	161.62
452.169	180.62
452.948	191.62
453.726	220.62
454.504	249.62
455.282	269.62
456.061	294.62
456.839	334.62
457.617	373.62
458.395	416.62
459.172	470.62
459.95	522.62
460.728	583.62
461.506	657.62
462.283	741.62
463.061	828.62
463.838	921.62
464.615	1026.62
465.393	1153.62
466.17	1296.62
466.947	1445.62
467.724	1615.62
468.501	1788.62
469.278	2006.62
470.055	2214.62
470.831	2473.62
471.608	2756.62
472.385	3030.62
473.161	3366.62
473.938	3730.62
474.714	4113.62
475.49	4563.62
476.266	5055.62
477.043	5564.62
477.819	6135.62
478.595	6731.62
479.371	7394.62
480.146	8127.62
480.922	8916.62
481.698	9823.62
482.473	10770.62
483.249	11764.62
484.024	12821.62
484.8	14022.62
485.575	15283.62
486.35	16725.62
487.126	18128.62
487.901	19664.62
488.676	21394.62
489.451	23207.62
490.225	24980.62
491	26935.62
491.775	28785.62
492.55	30913.62
493.324	32904.62
494.099	34876.62
494.873	36930.62
495.647	38960.62
496.422	41033.62
497.196	42909.62
497.97	44658.62
498.744	46256.62
499.518	47914.62
500.292	49210.62
501.066	49961.62
501.839	50574.62
502.613	51232.62
503.387	51520.62
504.16	51556.62
504.934	51267.62
505.707	50666.62
506.48	49940.62
507.253	48940.62
508.027	47857.62
508.8	46505.62
509.573	45042.62
510.346	43575.62
511.118	42151.62
511.891	40611.62
512.664	38908.62
513.437	37320.62
514.209	35738.62
514.982	34288.62
515.754	32802.62
516.526	31338.62
517.298	30049.62
518.071	28828.62
518.843	27704.62
519.615	26485.62
520.387	25436.62
521.159	24438.62
521.93	23416.62
522.702	22375.62
523.474	21371.62
524.245	20492.62
525.017	19569.62
525.788	18636.62
526.56	17826.62
527.331	16999.62
528.102	16043.62
528.873	15241.62
529.644	14456.62
530.415	13780.62
531.186	13030.62
531.957	12345.62
532.728	11688.62
533.498	10997.62
534.269	10411.62
535.039	9880.62
535.81	9293.62
536.58	8810.62
537.351	8336.62
538.121	7900.62
538.891	7450.62
539.661	7048.62
540.431	6651.62
541.201	6330.62
541.971	5990.62
542.741	5685.62
543.51	5386.62
544.28	5138.62
545.05	4874.62
545.819	4648.62
546.588	4420.62
547.358	4232.62
548.127	4017.62
548.896	3807.62
549.665	3580.62
550.434	3403.62
551.203	3213.62
551.972	3062.62
552.741	2889.62
553.51	2720.62
554.278	2554.62
555.047	2413.62
555.815	2269.62
556.584	2148.62
557.352	2036.62
558.121	1924.62
558.889	1811.62
559.657	1699.62
560.425	1620.62
561.193	1526.62
561.961	1439.62
562.729	1369.62
563.496	1299.62
564.264	1221.62
565.032	1158.62
565.799	1095.62
566.567	1034.62
567.334	985.62
568.101	934.62
568.869	881.62
569.636	828.62
570.403	785.62
571.17	730.62
571.937	694.62
572.704	653.62
573.471	623.62
574.237	579.62
575.004	543.62
575.771	524.62
576.537	487.62
577.303	474.62
578.07	437.62
578.836	415.62
579.602	386.62
580.368	363.62
581.134	355.62
581.9	334.62
582.666	313.62
583.432	302.62
584.198	282.62
584.964	266.62
585.729	255.62
586.495	245.62
587.26	236.62
588.025	217.62
588.791	209.62
589.556	201.62
590.321	189.62
591.086	177.62
591.851	171.62
592.616	158.62
593.381	154.62
594.146	146.62
594.911	140.62
595.675	138.62
596.44	128.62
597.204	122.62
597.969	119.62
598.733	114.62
599.497	106.62
600.261	104.62
601.025	100.62
601.79	95.62
602.553	91.62
603.317	88.62
604.081	86.62
604.845	82.62
605.609	79.62
606.372	73.62
607.136	76.62
607.899	67.62
608.662	65.62
609.426	64.62
610.189	59.62
610.952	61.62
611.715	55.62
612.478	55.62
613.241	51.62
614.004	53.62
614.767	50.62
615.529	48.62
616.292	49.62
617.055	43.62
617.817	44.62
618.579	43.62
619.342	40.62
620.104	40.62
620.866	38.62
621.628	36.62
622.39	36.62
623.152	38.62
623.914	33.62
624.676	30.62
625.438	33.62
626.199	28.62
626.961	28.62
627.722	30.62
628.484	29.62
629.245	26.62
630.006	24.62
630.768	24.62
631.529	26.62
632.29	27.62
633.051	26.62
633.812	20.62
634.573	21.62
635.333	21.62
636.094	18.62
636.855	18.62
637.615	21.62
638.376	21.62
639.136	21.62
639.896	21.62
640.657	19.62
641.417	19.62
642.177	19.62
642.937	18.62
643.697	15.62
644.457	15.62
645.216	18.62
645.976	13.62
646.736	14.62
647.495	15.62
648.255	15.62
649.014	16.62
649.774	12.62
650.533	15.62
651.292	12.62
652.051	15.62
652.81	11.62
653.569	12.62
654.328	12.62
655.087	10.62
655.846	14.62
656.604	11.62
657.363	14.62
658.121	10.62
658.88	9.62
659.638	12.62
660.397	10.62
661.155	10.62
661.913	12.62
662.671	10.62
663.429	10.62
664.187	8.62
664.945	11.62
665.703	11.62
666.46	11.62
667.218	10.62
667.976	9.62
668.733	8.62
669.49	8.62
670.248	10.62
671.005	8.62
671.762	6.62
672.519	9.62
673.276	7.62
674.033	9.62
674.79	8.62
675.547	10.62
676.304	11.62
677.06	9.62
677.817	8.62
678.574	9.62
679.33	9.62
680.086	8.62
680.843	8.62
681.599	6.62
682.355	7.62
683.111	7.62
683.867	7.62
684.623	8.62
685.379	8.62
686.135	8.62
686.89	9.62
687.646	6.62
688.402	7.62
689.157	7.62
689.912	8.62
690.668	8.62
691.423	8.62
692.178	6.62
692.933	5.62
693.688	7.62
694.443	6.62
695.198	6.62
695.953	6.62
696.708	7.62
697.462	7.62
698.217	6.62
698.972	6.62
699.726	6.62
700.48	8.62
701.235	7.62
701.989	7.62
702.743	7.62
703.497	5.62
704.251	5.62
705.005	8.62
705.759	8.62
706.513	6.62
707.266	5.62
708.02	8.62
708.774	6.62
709.527	7.62
710.28	8.62
711.034	9.62
711.787	7.62
712.54	7.62
713.293	8.62
714.046	6.62
714.799	8.62
715.552	6.62
716.305	8.62
717.058	7.62
717.81	7.62
718.563	7.62
719.315	9.62
720.068	8.62
720.82	6.62
721.573	8.62
722.325	6.62
723.077	9.62
723.829	7.62
724.581	7.62
725.333	7.62
726.085	7.62
726.836	9.62
727.588	8.62
728.34	7.62
729.091	8.62
729.843	8.62
730.594	9.62
731.346	11.62
732.097	9.62
732.848	7.62
733.599	7.62
734.35	8.62
735.101	9.62
735.852	10.62
736.603	8.62
737.354	10.62
738.104	12.62
738.855	8.62
739.605	9.62
740.356	11.62
741.106	9.62
741.856	10.62
742.607	11.62
743.357	11.62
744.107	11.62
744.857	10.62
745.607	9.62
746.357	12.62
747.106	11.62
747.856	11.62
748.606	11.62
749.355	15.62
750.105	12.62
750.854	11.62
751.603	9.62
752.353	13.62
753.102	12.62
753.851	12.62
754.6	14.62
755.349	10.62
756.098	11.62
756.847	12.62
757.595	12.62
758.344	13.62
759.093	10.62
759.841	15.62
760.589	13.62
761.338	11.62
762.086	12.62
762.834	14.62
763.582	14.62
764.331	14.62
765.079	15.62
765.826	13.62
766.574	14.62
767.322	15.62
768.07	14.62
768.817	17.62
769.565	14.62
770.312	15.62
771.06	17.62
771.807	13.62
772.554	18.62
773.302	13.62
774.049	16.62
774.796	15.62
775.543	16.62
776.29	14.62
777.036	15.62
777.783	13.62
778.53	17.62
779.276	17.62
780.023	16.62
780.769	18.62
781.516	18.62
782.262	15.62
783.008	16.62
783.754	15.62
784.5	18.62
785.246	14.62
785.992	18.62
786.738	15.62
787.484	16.62
788.23	18.62
788.975	13.62
789.721	17.62
790.466	15.62
791.212	14.62
791.957	14.62
792.702	14.62
793.447	14.62
794.193	16.62
794.938	14.62
795.683	13.62
796.427	14.62
797.172	13.62
797.917	13.62
798.662	14.62
799.406	14.62
800.151	13.62
800.895	13.62
801.64	14.62
802.384	10.62
803.128	11.62
803.872	11.62
804.616	11.62
805.36	11.62
806.104	12.62
806.848	10.62
807.592	11.62
808.336	10.62
809.079	10.62
809.823	8.62
810.566	8.62
811.31	9.62
812.053	8.62
812.796	11.62
813.539	8.62
814.283	8.62
815.026	8.62
815.769	8.62
816.511	8.62
817.254	6.62
817.997	7.62
818.74	9.62
819.482	8.62
820.225	8.62
820.967	6.62
821.71	9.62
822.452	9.62
823.194	5.62
823.936	6.62
824.678	7.62
825.42	5.62
826.162	6.62
826.904	8.62
827.646	6.62
828.388	4.62
829.129	6.62
829.871	6.62
830.612	5.62
831.354	4.62
832.095	4.62
832.836	5.62
833.577	3.62
834.319	5.62
835.06	6.62
835.801	8.62
836.542	7.62
837.282	5.62
838.023	5.62
838.764	6.62
839.504	6.62
840.245	8.62
840.985	5.62
841.726	6.62
842.466	4.62
843.206	5.62
843.946	4.62
844.687	4.62
845.427	3.62
846.166	4.62
846.906	2.62
847.646	1.62
848.386	6.62
849.125	3.62
849.865	6.62
850.605	4.62
851.344	4.62
852.083	4.62
852.823	2.62
853.562	4.62
854.301	3.62
855.04	5.62
855.779	3.62
856.518	3.62
857.257	2.62
857.995	5.62
858.734	4.62
859.473	4.62
860.211	4.62
860.95	2.62
861.688	3.62
862.426	4.62
863.165	2.62
863.903	2.62
864.641	2.62
865.379	4.62
866.117	1.62
866.855	2.62
867.593	3.62
868.33	0.62
869.068	2.62
869.806	0.62
870.543	2.62
871.28	2.62
872.018	-0.38
872.755	2.62
873.492	1.62
874.229	1.62
874.967	3.62
875.703	-0.38
876.44	1.62
877.177	0.62
877.914	-0.38
878.651	0.62
879.387	0.62
880.124	2.62
880.86	1.62
881.597	0.62
882.333	-2.38
883.069	1.62
883.806	2.62
884.542	-0.38
885.278	2.62
886.014	1.62
886.749	1.62
887.485	0.62
888.221	0.62
888.957	1.62
889.692	-0.38
890.428	1.62
891.163	-0.38
891.899	-0.38
892.634	0.62
893.369	0.62
894.104	2.62
894.839	2.62
895.574	0.62
896.309	-2.38
897.044	0.62
897.779	2.62
898.514	2.62
899.248	1.62
899.983	0.62
900.717	0.62
901.452	1.62
902.186	-1.38
902.92	0.62
903.654	2.62
904.389	-0.38
905.123	-2.38
905.857	0.62
906.59	3.62
907.324	0.62
908.058	2.62
908.792	-0.38
909.525	1.62
910.259	0.62
910.992	-0.38
911.726	0.62
912.459	-3.38
913.192	0.62
913.925	-0.38
914.658	0.62
915.391	0.62
916.124	-1.38
916.857	0.62
917.59	-0.38
918.323	0.62
919.055	-0.38
919.788	0.62
920.521	1.62
921.253	-0.38
921.985	-0.38
922.718	-1.38
923.45	1.62
924.182	-1.38
924.914	0.62
925.646	1.62
926.378	0.62
927.11	1.62
927.841	-1.38
928.573	0.62
929.305	-0.38
930.036	0.62
930.768	-0.38
931.499	-1.38
932.23	0.62
932.962	0.62
933.693	0.62
934.424	-0.38
935.155	-1.38
935.886	0.62
936.617	-2.38
937.348	-0.38
938.078	0.62
938.809	-0.38
939.54	0.62
940.27	-0.38
941.001	-0.38
941.731	-0.38
942.461	-1.38
943.191	1.62
943.922	-1.38
944.652	-0.38
945.382	-1.38
946.112	-0.38
946.841	0.62
947.571	-0.38
948.301	-1.38
949.031	-1.38
949.76	-1.38
950.49	-0.38
951.219	-1.38
951.948	-0.38
952.678	-0.38
953.407	-0.38
954.136	-0.38
954.865	0.62
955.594	0.62
956.323	-1.38
957.052	1.62
957.78	-0.38
958.509	0.62
959.238	-2.38
959.966	0.62
960.695	1.62
961.423	2.62
962.151	-1.38
962.88	-3.38
963.608	1.62
964.336	-2.38
965.064	1.62
965.792	-0.38
966.52	-1.38
967.247	-0.38
967.975	-1.38
968.703	1.62
969.43	-1.38
970.158	-1.38
970.885	-1.38
971.613	-1.38
972.34	0.62
973.067	-0.38
973.794	0.62
974.521	-1.38
975.248	-2.38
975.975	-0.38
976.702	-1.38
977.429	-1.38
978.156	-0.38
978.882	-0.38
979.609	1.62
980.335	-1.38
981.062	1.62
981.788	-1.38
982.514	1.62
983.24	0.62
983.967	0.62
984.693	-0.38
985.419	-1.38
986.144	1.62
986.87	-1.38
987.596	0.62
988.322	-1.38
989.047	2.62
989.773	0.62
990.498	-0.38
991.224	-0.38
991.949	-0.38
992.674	0.62
993.399	-0.38
994.124	-1.38
994.849	-0.38
995.574	-0.38
996.299	-1.38
997.024	2.62
997.749	-1.38
998.473	-0.38
999.198	-1.38
999.922	-0.38
1000.647	-3.38
1001.371	4.62
1002.095	-2.38
1002.82	-0.38
1003.544	-0.38
1004.268	3.62
1004.992	4.62
1005.716	7.62
1006.439	4.62
1007.163	3.62
1007.887	5.62
1008.611	2.62
1009.334	-1.38
1010.058	-2.38
1010.781	0.62
1011.504	0.62
1012.228	2.62
1012.951	0.62
1013.674	0.62
1014.397	0.62
1015.12	-3.38
