节点500_705_QEPB04081__128__20-48-01-077.txt的数据

Date: Wed Nov 12 20:48:01 CST 2025
User: PC
Spectrometer: QEPB0408
触发模式: 0
积分时间 (秒): 1.000000E-2
Scans to average: 1
启用暗噪声校正: true
启用非线性校正: false
滑动平均宽度: 0
X轴模式: Wavelengths
Number of Pixels in Spectrum: 1044
>>>>>Begin Spectral Data<<<<<
220.843	4.75
221.644	5.75
222.444	6.75
223.244	4.75
224.045	6.75
224.845	6.75
225.645	4.75
226.445	7.75
227.245	8.75
228.045	6.75
228.845	10.75
229.645	8.75
230.444	6.75
231.244	8.75
232.043	11.75
232.843	9.75
233.642	9.75
234.442	8.75
235.241	8.75
236.04	10.75
236.839	10.75
237.638	10.75
238.437	10.75
239.236	9.75
240.035	9.75
240.833	12.75
241.632	12.75
242.43	13.75
243.229	12.75
244.027	12.75
244.826	17.75
245.624	12.75
246.422	14.75
247.22	16.75
248.018	17.75
248.816	14.75
249.614	13.75
250.412	16.75
251.21	14.75
252.007	17.75
252.805	20.75
253.602	17.75
254.4	20.75
255.197	18.75
255.994	22.75
256.791	20.75
257.589	21.75
258.386	21.75
259.183	22.75
259.979	26.75
260.776	26.75
261.573	23.75
262.37	22.75
263.166	26.75
263.963	25.75
264.759	24.75
265.556	28.75
266.352	30.75
267.148	30.75
267.944	29.75
268.74	30.75
269.536	31.75
270.332	33.75
271.128	30.75
271.924	32.75
272.719	32.75
273.515	32.75
274.311	29.75
275.106	34.75
275.901	34.75
276.697	36.75
277.492	35.75
278.287	36.75
279.082	36.75
279.877	35.75
280.672	35.75
281.467	38.75
282.262	34.75
283.056	34.75
283.851	34.75
284.646	33.75
285.44	33.75
286.234	33.75
287.029	35.75
287.823	33.75
288.617	32.75
289.411	29.75
290.205	34.75
290.999	33.75
291.793	34.75
292.587	32.75
293.381	27.75
294.174	33.75
294.968	27.75
295.761	29.75
296.555	25.75
297.348	26.75
298.141	23.75
298.935	28.75
299.728	26.75
300.521	26.75
301.314	27.75
302.107	23.75
302.899	22.75
303.692	24.75
304.485	18.75
305.277	21.75
306.07	20.75
306.862	20.75
307.655	21.75
308.447	20.75
309.239	20.75
310.031	19.75
310.823	20.75
311.615	19.75
312.407	19.75
313.199	20.75
313.991	17.75
314.783	18.75
315.574	12.75
316.366	14.75
317.157	15.75
317.949	14.75
318.74	14.75
319.531	14.75
320.322	15.75
321.113	14.75
321.904	10.75
322.695	15.75
323.486	10.75
324.277	13.75
325.068	12.75
325.858	11.75
326.649	12.75
327.439	14.75
328.23	13.75
329.02	11.75
329.81	13.75
330.6	13.75
331.391	15.75
332.181	11.75
332.971	10.75
333.76	13.75
334.55	12.75
335.34	12.75
336.13	14.75
336.919	10.75
337.709	10.75
338.498	14.75
339.287	9.75
340.077	10.75
340.866	7.75
341.655	10.75
342.444	11.75
343.233	13.75
344.022	10.75
344.811	12.75
345.6	10.75
346.388	10.75
347.177	9.75
347.965	9.75
348.754	11.75
349.542	9.75
350.33	10.75
351.119	11.75
351.907	8.75
352.695	9.75
353.483	9.75
354.271	8.75
355.059	9.75
355.846	9.75
356.634	10.75
357.422	10.75
358.209	12.75
358.997	9.75
359.784	11.75
360.571	9.75
361.359	9.75
362.146	10.75
362.933	8.75
363.72	7.75
364.507	11.75
365.294	9.75
366.081	9.75
366.867	9.75
367.654	10.75
368.44	7.75
369.227	10.75
370.013	9.75
370.8	9.75
371.586	11.75
372.372	12.75
373.158	10.75
373.944	9.75
374.73	8.75
375.516	7.75
376.302	9.75
377.088	9.75
377.873	8.75
378.659	11.75
379.445	10.75
380.23	10.75
381.015	10.75
381.801	10.75
382.586	8.75
383.371	8.75
384.156	11.75
384.941	10.75
385.726	10.75
386.511	13.75
387.296	10.75
388.08	10.75
388.865	10.75
389.649	9.75
390.434	10.75
391.218	10.75
392.003	11.75
392.787	9.75
393.571	10.75
394.355	13.75
395.139	11.75
395.923	11.75
396.707	13.75
397.491	12.75
398.274	12.75
399.058	14.75
399.842	16.75
400.625	10.75
401.408	16.75
402.192	14.75
402.975	18.75
403.758	13.75
404.541	14.75
405.324	16.75
406.107	17.75
406.89	18.75
407.673	15.75
408.456	14.75
409.238	15.75
410.021	17.75
410.803	17.75
411.586	17.75
412.368	18.75
413.151	18.75
413.933	19.75
414.715	17.75
415.497	16.75
416.279	20.75
417.061	18.75
417.843	19.75
418.624	21.75
419.406	21.75
420.188	23.75
420.969	18.75
421.751	22.75
422.532	22.75
423.313	22.75
424.095	23.75
424.876	24.75
425.657	24.75
426.438	25.75
427.219	27.75
428	24.75
428.78	26.75
429.561	33.75
430.342	26.75
431.122	33.75
431.903	31.75
432.683	33.75
433.464	37.75
434.244	41.75
435.024	39.75
435.804	39.75
436.584	38.75
437.364	45.75
438.144	50.75
438.924	49.75
439.704	53.75
440.483	54.75
441.263	62.75
442.042	66.75
442.822	65.75
443.601	74.75
444.38	77.75
445.16	83.75
445.939	90.75
446.718	99.75
447.497	108.75
448.276	118.75
449.054	124.75
449.833	140.75
450.612	155.75
451.391	169.75
452.169	187.75
452.948	207.75
453.726	228.75
454.504	252.75
455.282	288.75
456.061	319.75
456.839	351.75
457.617	390.75
458.395	435.75
459.172	483.75
459.95	544.75
460.728	608.75
461.506	677.75
462.283	761.75
463.061	848.75
463.838	946.75
464.615	1062.75
465.393	1182.75
466.17	1312.75
466.947	1466.75
467.724	1634.75
468.501	1815.75
469.278	2014.75
470.055	2230.75
470.831	2453.75
471.608	2754.75
472.385	3017.75
473.161	3363.75
473.938	3721.75
474.714	4089.75
475.49	4486.75
476.266	4938.75
477.043	5423.75
477.819	5972.75
478.595	6538.75
479.371	7175.75
480.146	7834.75
480.922	8625.75
481.698	9411.75
482.473	10313.75
483.249	11197.75
484.024	12210.75
484.8	13282.75
485.575	14501.75
486.35	15732.75
487.126	17092.75
487.901	18495.75
488.676	19979.75
489.451	21636.75
490.225	23352.75
491	25104.75
491.775	26837.75
492.55	28716.75
493.324	30718.75
494.099	32512.75
494.873	34439.75
495.647	36384.75
496.422	38293.75
497.196	40181.75
497.97	41867.75
498.744	43332.75
499.518	44959.75
500.292	46368.75
501.066	47321.75
501.839	48029.75
502.613	48778.75
503.387	49128.75
504.16	49429.75
504.934	49368.75
505.707	48987.75
506.48	48362.75
507.253	47683.75
508.027	46786.75
508.8	45564.75
509.573	44419.75
510.346	43017.75
511.118	41770.75
511.891	40443.75
512.664	38779.75
513.437	37253.75
514.209	35714.75
514.982	34247.75
515.754	32816.75
516.526	31438.75
517.298	30229.75
518.071	28936.75
518.843	27818.75
519.615	26656.75
520.387	25596.75
521.159	24591.75
521.93	23572.75
522.702	22608.75
523.474	21609.75
524.245	20635.75
525.017	19690.75
525.788	18839.75
526.56	17973.75
527.331	17223.75
528.102	16294.75
528.873	15469.75
529.644	14763.75
530.415	13993.75
531.186	13311.75
531.957	12636.75
532.728	11946.75
533.498	11269.75
534.269	10707.75
535.039	10094.75
535.81	9525.75
536.58	9025.75
537.351	8516.75
538.121	8078.75
538.891	7690.75
539.661	7252.75
540.431	6840.75
541.201	6481.75
541.971	6159.75
542.741	5795.75
543.51	5512.75
544.28	5244.75
545.05	5015.75
545.819	4778.75
546.588	4557.75
547.358	4359.75
548.127	4126.75
548.896	3900.75
549.665	3679.75
550.434	3504.75
551.203	3315.75
551.972	3142.75
552.741	2974.75
553.51	2779.75
554.278	2641.75
555.047	2501.75
555.815	2373.75
556.584	2233.75
557.352	2086.75
558.121	1966.75
558.889	1878.75
559.657	1765.75
560.425	1681.75
561.193	1591.75
561.961	1508.75
562.729	1421.75
563.496	1346.75
564.264	1262.75
565.032	1206.75
565.799	1128.75
566.567	1081.75
567.334	1019.75
568.101	959.75
568.869	906.75
569.636	854.75
570.403	803.75
571.17	771.75
571.937	711.75
572.704	683.75
573.471	644.75
574.237	604.75
575.004	558.75
575.771	537.75
576.537	504.75
577.303	486.75
578.07	455.75
578.836	431.75
579.602	400.75
580.368	379.75
581.134	367.75
581.9	343.75
582.666	335.75
583.432	318.75
584.198	302.75
584.964	281.75
585.729	274.75
586.495	253.75
587.26	242.75
588.025	222.75
588.791	221.75
589.556	203.75
590.321	194.75
591.086	190.75
591.851	177.75
592.616	171.75
593.381	162.75
594.146	151.75
594.911	145.75
595.675	141.75
596.44	131.75
597.204	128.75
597.969	123.75
598.733	119.75
599.497	112.75
600.261	110.75
601.025	100.75
601.79	104.75
602.553	93.75
603.317	89.75
604.081	89.75
604.845	86.75
605.609	83.75
606.372	81.75
607.136	73.75
607.899	72.75
608.662	66.75
609.426	62.75
610.189	63.75
610.952	61.75
611.715	57.75
612.478	53.75
613.241	58.75
614.004	55.75
614.767	54.75
615.529	52.75
616.292	48.75
617.055	49.75
617.817	40.75
618.579	45.75
619.342	42.75
620.104	40.75
620.866	39.75
621.628	37.75
622.39	37.75
623.152	34.75
623.914	33.75
624.676	35.75
625.438	33.75
626.199	33.75
626.961	32.75
627.722	28.75
628.484	27.75
629.245	26.75
630.006	27.75
630.768	26.75
631.529	25.75
632.29	22.75
633.051	22.75
633.812	23.75
634.573	25.75
635.333	26.75
636.094	24.75
636.855	21.75
637.615	17.75
638.376	20.75
639.136	18.75
639.896	18.75
640.657	19.75
641.417	17.75
642.177	18.75
642.937	17.75
643.697	19.75
644.457	17.75
645.216	17.75
645.976	16.75
646.736	15.75
647.495	14.75
648.255	15.75
649.014	15.75
649.774	16.75
650.533	14.75
651.292	12.75
652.051	13.75
652.81	14.75
653.569	11.75
654.328	16.75
655.087	14.75
655.846	10.75
656.604	12.75
657.363	10.75
658.121	11.75
658.88	12.75
659.638	12.75
660.397	12.75
661.155	11.75
661.913	11.75
662.671	12.75
663.429	10.75
664.187	8.75
664.945	10.75
665.703	8.75
666.46	11.75
667.218	10.75
667.976	9.75
668.733	11.75
669.49	10.75
670.248	9.75
671.005	11.75
671.762	8.75
672.519	9.75
673.276	10.75
674.033	9.75
674.79	9.75
675.547	6.75
676.304	11.75
677.06	6.75
677.817	10.75
678.574	7.75
679.33	7.75
680.086	9.75
680.843	7.75
681.599	8.75
682.355	8.75
683.111	7.75
683.867	8.75
684.623	6.75
685.379	6.75
686.135	9.75
686.89	6.75
687.646	8.75
688.402	8.75
689.157	6.75
689.912	6.75
690.668	8.75
691.423	7.75
692.178	6.75
692.933	7.75
693.688	6.75
694.443	6.75
695.198	6.75
695.953	9.75
696.708	10.75
697.462	6.75
698.217	8.75
698.972	7.75
699.726	7.75
700.48	6.75
701.235	7.75
701.989	9.75
702.743	8.75
703.497	6.75
704.251	8.75
705.005	7.75
705.759	8.75
706.513	8.75
707.266	8.75
708.02	5.75
708.774	8.75
709.527	5.75
710.28	8.75
711.034	8.75
711.787	8.75
712.54	8.75
713.293	6.75
714.046	8.75
714.799	8.75
715.552	8.75
716.305	7.75
717.058	7.75
717.81	8.75
718.563	5.75
719.315	6.75
720.068	7.75
720.82	8.75
721.573	7.75
722.325	10.75
723.077	8.75
723.829	6.75
724.581	7.75
725.333	9.75
726.085	9.75
726.836	7.75
727.588	7.75
728.34	6.75
729.091	8.75
729.843	9.75
730.594	9.75
731.346	8.75
732.097	11.75
732.848	9.75
733.599	8.75
734.35	9.75
735.101	10.75
735.852	9.75
736.603	9.75
737.354	10.75
738.104	6.75
738.855	11.75
739.605	9.75
740.356	8.75
741.106	8.75
741.856	10.75
742.607	10.75
743.357	11.75
744.107	9.75
744.857	9.75
745.607	9.75
746.357	9.75
747.106	10.75
747.856	11.75
748.606	9.75
749.355	12.75
750.105	9.75
750.854	11.75
751.603	11.75
752.353	10.75
753.102	11.75
753.851	13.75
754.6	13.75
755.349	13.75
756.098	10.75
756.847	14.75
757.595	12.75
758.344	12.75
759.093	13.75
759.841	11.75
760.589	11.75
761.338	13.75
762.086	10.75
762.834	12.75
763.582	14.75
764.331	15.75
765.079	14.75
765.826	13.75
766.574	15.75
767.322	14.75
768.07	12.75
768.817	13.75
769.565	16.75
770.312	13.75
771.06	13.75
771.807	16.75
772.554	14.75
773.302	16.75
774.049	14.75
774.796	13.75
775.543	14.75
776.29	15.75
777.036	17.75
777.783	15.75
778.53	17.75
779.276	17.75
780.023	14.75
780.769	19.75
781.516	16.75
782.262	16.75
783.008	12.75
783.754	18.75
784.5	16.75
785.246	15.75
785.992	17.75
786.738	14.75
787.484	12.75
788.23	15.75
788.975	14.75
789.721	14.75
790.466	16.75
791.212	14.75
791.957	16.75
792.702	14.75
793.447	10.75
794.193	14.75
794.938	12.75
795.683	13.75
796.427	13.75
797.172	14.75
797.917	10.75
798.662	11.75
799.406	12.75
800.151	12.75
800.895	11.75
801.64	11.75
802.384	12.75
803.128	14.75
803.872	11.75
804.616	10.75
805.36	11.75
806.104	8.75
806.848	9.75
807.592	12.75
808.336	9.75
809.079	9.75
809.823	12.75
810.566	10.75
811.31	9.75
812.053	9.75
812.796	7.75
813.539	10.75
814.283	7.75
815.026	9.75
815.769	6.75
816.511	6.75
817.254	9.75
817.997	8.75
818.74	5.75
819.482	7.75
820.225	5.75
820.967	8.75
821.71	5.75
822.452	8.75
823.194	8.75
823.936	5.75
824.678	6.75
825.42	3.75
826.162	8.75
826.904	6.75
827.646	6.75
828.388	5.75
829.129	7.75
829.871	7.75
830.612	8.75
831.354	8.75
832.095	6.75
832.836	4.75
833.577	4.75
834.319	6.75
835.06	6.75
835.801	6.75
836.542	4.75
837.282	5.75
838.023	6.75
838.764	9.75
839.504	5.75
840.245	6.75
840.985	5.75
841.726	5.75
842.466	5.75
843.206	4.75
843.946	4.75
844.687	3.75
845.427	6.75
846.166	3.75
846.906	4.75
847.646	5.75
848.386	3.75
849.125	6.75
849.865	4.75
850.605	5.75
851.344	3.75
852.083	6.75
852.823	2.75
853.562	2.75
854.301	4.75
855.04	5.75
855.779	2.75
856.518	4.75
857.257	1.75
857.995	0.75
858.734	2.75
859.473	4.75
860.211	2.75
860.95	4.75
861.688	2.75
862.426	2.75
863.165	5.75
863.903	2.75
864.641	1.75
865.379	0.75
866.117	0.75
866.855	3.75
867.593	1.75
868.33	3.75
869.068	1.75
869.806	2.75
870.543	1.75
871.28	2.75
872.018	3.75
872.755	2.75
873.492	1.75
874.229	0.75
874.967	2.75
875.703	0.75
876.44	-0.25
877.177	3.75
877.914	0.75
878.651	0.75
879.387	5.75
880.124	1.75
880.86	1.75
881.597	2.75
882.333	1.75
883.069	1.75
883.806	2.75
884.542	0.75
885.278	1.75
886.014	0.75
886.749	-0.25
887.485	1.75
888.221	-0.25
888.957	-1.25
889.692	2.75
890.428	0.75
891.163	2.75
891.899	1.75
892.634	-1.25
893.369	2.75
894.104	0.75
894.839	-0.25
895.574	1.75
896.309	2.75
897.044	-0.25
897.779	1.75
898.514	-1.25
899.248	1.75
899.983	1.75
900.717	0.75
901.452	2.75
902.186	1.75
902.92	-0.25
903.654	-1.25
904.389	-0.25
905.123	1.75
905.857	0.75
906.59	-0.25
907.324	0.75
908.058	1.75
908.792	0.75
909.525	-0.25
910.259	-1.25
910.992	2.75
911.726	-0.25
912.459	1.75
913.192	1.75
913.925	-0.25
914.658	1.75
915.391	0.75
916.124	1.75
916.857	0.75
917.59	0.75
918.323	2.75
919.055	0.75
919.788	-0.25
920.521	1.75
921.253	2.75
921.985	2.75
922.718	1.75
923.45	2.75
924.182	0.75
924.914	0.75
925.646	-0.25
926.378	-1.25
927.11	2.75
927.841	0.75
928.573	0.75
929.305	0.75
930.036	2.75
930.768	-0.25
931.499	1.75
932.23	-2.25
932.962	-1.25
933.693	1.75
934.424	-1.25
935.155	-0.25
935.886	-2.25
936.617	0.75
937.348	0.75
938.078	-2.25
938.809	-0.25
939.54	0.75
940.27	1.75
941.001	0.75
941.731	-0.25
942.461	0.75
943.191	-1.25
943.922	2.75
944.652	-0.25
945.382	-0.25
946.112	-0.25
946.841	0.75
947.571	0.75
948.301	0.75
949.031	2.75
949.76	-1.25
950.49	-0.25
951.219	-0.25
951.948	-0.25
952.678	0.75
953.407	0.75
954.136	-1.25
954.865	1.75
955.594	-1.25
956.323	-0.25
957.052	0.75
957.78	0.75
958.509	-2.25
959.238	-0.25
959.966	-0.25
960.695	0.75
961.423	-1.25
962.151	-1.25
962.88	0.75
963.608	1.75
964.336	-1.25
965.064	0.75
965.792	0.75
966.52	3.75
967.247	0.75
967.975	-1.25
968.703	-0.25
969.43	-1.25
970.158	0.75
970.885	0.75
971.613	0.75
972.34	0.75
973.067	-0.25
973.794	0.75
974.521	-0.25
975.248	0.75
975.975	0.75
976.702	1.75
977.429	0.75
978.156	-1.25
978.882	-0.25
979.609	1.75
980.335	0.75
981.062	-0.25
981.788	1.75
982.514	-0.25
983.24	-0.25
983.967	0.75
984.693	-1.25
985.419	0.75
986.144	0.75
986.87	1.75
987.596	1.75
988.322	0.75
989.047	-0.25
989.773	-1.25
990.498	-1.25
991.224	0.75
991.949	0.75
992.674	0.75
993.399	-1.25
994.124	1.75
994.849	0.75
995.574	1.75
996.299	1.75
997.024	-0.25
997.749	0.75
998.473	-1.25
999.198	-0.25
999.922	-0.25
1000.647	0.75
1001.371	2.75
1002.095	0.75
1002.82	-1.25
1003.544	-3.25
1004.268	5.75
1004.992	2.75
1005.716	5.75
1006.439	6.75
1007.163	2.75
1007.887	6.75
1008.611	2.75
1009.334	1.75
1010.058	-0.25
1010.781	0.75
1011.504	0.75
1012.228	-0.25
1012.951	-0.25
1013.674	-0.25
1014.397	0.75
1015.12	0.75
