节点500_705_QEPB04081__444__20-52-12-718.txt的数据

Date: Wed Nov 12 20:52:12 CST 2025
User: PC
Spectrometer: QEPB0408
触发模式: 0
积分时间 (秒): 1.000000E-2
Scans to average: 1
启用暗噪声校正: true
启用非线性校正: false
滑动平均宽度: 0
X轴模式: Wavelengths
Number of Pixels in Spectrum: 1044
>>>>>Begin Spectral Data<<<<<
220.843	7.12
221.644	4.12
222.444	7.12
223.244	6.12
224.045	7.12
224.845	7.12
225.645	10.12
226.445	9.12
227.245	6.12
228.045	10.12
228.845	7.12
229.645	8.12
230.444	3.12
231.244	10.12
232.043	7.12
232.843	8.12
233.642	9.12
234.442	9.12
235.241	9.12
236.04	8.12
236.839	11.12
237.638	11.12
238.437	9.12
239.236	11.12
240.035	10.12
240.833	10.12
241.632	14.12
242.43	9.12
243.229	12.12
244.027	11.12
244.826	13.12
245.624	14.12
246.422	13.12
247.22	15.12
248.018	15.12
248.816	16.12
249.614	16.12
250.412	18.12
251.21	17.12
252.007	15.12
252.805	19.12
253.602	18.12
254.4	18.12
255.197	18.12
255.994	18.12
256.791	18.12
257.589	19.12
258.386	18.12
259.183	20.12
259.979	20.12
260.776	20.12
261.573	23.12
262.37	23.12
263.166	25.12
263.963	23.12
264.759	22.12
265.556	24.12
266.352	28.12
267.148	26.12
267.944	28.12
268.74	28.12
269.536	28.12
270.332	27.12
271.128	29.12
271.924	31.12
272.719	30.12
273.515	34.12
274.311	27.12
275.106	31.12
275.901	32.12
276.697	33.12
277.492	32.12
278.287	36.12
279.082	34.12
279.877	31.12
280.672	33.12
281.467	36.12
282.262	31.12
283.056	34.12
283.851	33.12
284.646	34.12
285.44	33.12
286.234	30.12
287.029	31.12
287.823	34.12
288.617	34.12
289.411	32.12
290.205	32.12
290.999	35.12
291.793	31.12
292.587	30.12
293.381	32.12
294.174	29.12
294.968	29.12
295.761	30.12
296.555	29.12
297.348	27.12
298.141	28.12
298.935	30.12
299.728	28.12
300.521	26.12
301.314	26.12
302.107	25.12
302.899	21.12
303.692	21.12
304.485	23.12
305.277	23.12
306.07	24.12
306.862	20.12
307.655	20.12
308.447	22.12
309.239	20.12
310.031	22.12
310.823	20.12
311.615	21.12
312.407	19.12
313.199	18.12
313.991	18.12
314.783	15.12
315.574	17.12
316.366	14.12
317.157	16.12
317.949	14.12
318.74	16.12
319.531	16.12
320.322	16.12
321.113	16.12
321.904	14.12
322.695	14.12
323.486	13.12
324.277	12.12
325.068	14.12
325.858	13.12
326.649	13.12
327.439	13.12
328.23	13.12
329.02	12.12
329.81	11.12
330.6	13.12
331.391	12.12
332.181	13.12
332.971	14.12
333.76	15.12
334.55	13.12
335.34	10.12
336.13	11.12
336.919	10.12
337.709	13.12
338.498	10.12
339.287	10.12
340.077	10.12
340.866	12.12
341.655	10.12
342.444	11.12
343.233	13.12
344.022	12.12
344.811	8.12
345.6	12.12
346.388	10.12
347.177	11.12
347.965	13.12
348.754	12.12
349.542	10.12
350.33	13.12
351.119	14.12
351.907	9.12
352.695	11.12
353.483	12.12
354.271	11.12
355.059	12.12
355.846	8.12
356.634	8.12
357.422	12.12
358.209	9.12
358.997	13.12
359.784	8.12
360.571	10.12
361.359	11.12
362.146	10.12
362.933	11.12
363.72	10.12
364.507	8.12
365.294	12.12
366.081	8.12
366.867	9.12
367.654	9.12
368.44	11.12
369.227	7.12
370.013	10.12
370.8	9.12
371.586	9.12
372.372	9.12
373.158	10.12
373.944	9.12
374.73	9.12
375.516	9.12
376.302	11.12
377.088	8.12
377.873	8.12
378.659	8.12
379.445	12.12
380.23	7.12
381.015	10.12
381.801	11.12
382.586	10.12
383.371	10.12
384.156	10.12
384.941	10.12
385.726	12.12
386.511	11.12
387.296	9.12
388.08	11.12
388.865	9.12
389.649	11.12
390.434	8.12
391.218	12.12
392.003	12.12
392.787	13.12
393.571	14.12
394.355	12.12
395.139	13.12
395.923	14.12
396.707	13.12
397.491	11.12
398.274	15.12
399.058	12.12
399.842	13.12
400.625	11.12
401.408	15.12
402.192	12.12
402.975	13.12
403.758	16.12
404.541	13.12
405.324	16.12
406.107	14.12
406.89	16.12
407.673	16.12
408.456	17.12
409.238	16.12
410.021	15.12
410.803	15.12
411.586	15.12
412.368	19.12
413.151	16.12
413.933	17.12
414.715	18.12
415.497	17.12
416.279	17.12
417.061	18.12
417.843	19.12
418.624	19.12
419.406	19.12
420.188	22.12
420.969	24.12
421.751	20.12
422.532	24.12
423.313	23.12
424.095	24.12
424.876	22.12
425.657	26.12
426.438	25.12
427.219	27.12
428	28.12
428.78	29.12
429.561	28.12
430.342	24.12
431.122	31.12
431.903	31.12
432.683	36.12
433.464	37.12
434.244	36.12
435.024	39.12
435.804	41.12
436.584	44.12
437.364	47.12
438.144	48.12
438.924	52.12
439.704	53.12
440.483	61.12
441.263	59.12
442.042	67.12
442.822	70.12
443.601	79.12
444.38	83.12
445.16	89.12
445.939	95.12
446.718	106.12
447.497	111.12
448.276	126.12
449.054	135.12
449.833	154.12
450.612	167.12
451.391	179.12
452.169	200.12
452.948	225.12
453.726	254.12
454.504	277.12
455.282	304.12
456.061	351.12
456.839	376.12
457.617	415.12
458.395	467.12
459.172	532.12
459.95	587.12
460.728	649.12
461.506	721.12
462.283	814.12
463.061	897.12
463.838	998.12
464.615	1109.12
465.393	1235.12
466.17	1377.12
466.947	1514.12
467.724	1679.12
468.501	1873.12
469.278	2062.12
470.055	2270.12
470.831	2510.12
471.608	2757.12
472.385	3045.12
473.161	3343.12
473.938	3667.12
474.714	4029.12
475.49	4394.12
476.266	4822.12
477.043	5212.12
477.819	5743.12
478.595	6227.12
479.371	6803.12
480.146	7409.12
480.922	8042.12
481.698	8733.12
482.473	9507.12
483.249	10327.12
484.024	11154.12
484.8	12107.12
485.575	13091.12
486.35	14164.12
487.126	15224.12
487.901	16501.12
488.676	17737.12
489.451	19150.12
490.225	20582.12
491	22018.12
491.775	23580.12
492.55	25148.12
493.324	26845.12
494.099	28438.12
494.873	30122.12
495.647	31837.12
496.422	33527.12
497.196	35223.12
497.97	36844.12
498.744	38310.12
499.518	39926.12
500.292	41268.12
501.066	42298.12
501.839	43350.12
502.613	44156.12
503.387	44820.12
504.16	45368.12
504.934	45665.12
505.707	45771.12
506.48	45558.12
507.253	45105.12
508.027	44673.12
508.8	43920.12
509.573	43032.12
510.346	42103.12
511.118	41138.12
511.891	40005.12
512.664	38621.12
513.437	37313.12
514.209	35982.12
514.982	34605.12
515.754	33268.12
516.526	31939.12
517.298	30714.12
518.071	29560.12
518.843	28404.12
519.615	27179.12
520.387	26110.12
521.159	25095.12
521.93	24062.12
522.702	23016.12
523.474	22113.12
524.245	21248.12
525.017	20332.12
525.788	19454.12
526.56	18715.12
527.331	17840.12
528.102	16938.12
528.873	16170.12
529.644	15369.12
530.415	14640.12
531.186	13955.12
531.957	13270.12
532.728	12599.12
533.498	11967.12
534.269	11330.12
535.039	10733.12
535.81	10164.12
536.58	9623.12
537.351	9109.12
538.121	8602.12
538.891	8165.12
539.661	7688.12
540.431	7311.12
541.201	6938.12
541.971	6574.12
542.741	6241.12
543.51	5895.12
544.28	5630.12
545.05	5372.12
545.819	5104.12
546.588	4850.12
547.358	4637.12
548.127	4405.12
548.896	4205.12
549.665	3967.12
550.434	3777.12
551.203	3569.12
551.972	3381.12
552.741	3222.12
553.51	3039.12
554.278	2858.12
555.047	2694.12
555.815	2569.12
556.584	2439.12
557.352	2264.12
558.121	2165.12
558.889	2050.12
559.657	1914.12
560.425	1839.12
561.193	1734.12
561.961	1629.12
562.729	1541.12
563.496	1474.12
564.264	1392.12
565.032	1313.12
565.799	1243.12
566.567	1168.12
567.334	1128.12
568.101	1064.12
568.869	1005.12
569.636	936.12
570.403	883.12
571.17	837.12
571.937	787.12
572.704	738.12
573.471	699.12
574.237	664.12
575.004	627.12
575.771	587.12
576.537	560.12
577.303	524.12
578.07	498.12
578.836	465.12
579.602	449.12
580.368	419.12
581.134	404.12
581.9	383.12
582.666	354.12
583.432	348.12
584.198	331.12
584.964	307.12
585.729	293.12
586.495	275.12
587.26	260.12
588.025	251.12
588.791	239.12
589.556	220.12
590.321	214.12
591.086	202.12
591.851	191.12
592.616	187.12
593.381	175.12
594.146	165.12
594.911	163.12
595.675	150.12
596.44	144.12
597.204	140.12
597.969	134.12
598.733	129.12
599.497	120.12
600.261	117.12
601.025	112.12
601.79	108.12
602.553	106.12
603.317	100.12
604.081	95.12
604.845	90.12
605.609	86.12
606.372	83.12
607.136	83.12
607.899	77.12
608.662	73.12
609.426	73.12
610.189	67.12
610.952	69.12
611.715	63.12
612.478	60.12
613.241	60.12
614.004	56.12
614.767	55.12
615.529	51.12
616.292	52.12
617.055	51.12
617.817	47.12
618.579	46.12
619.342	46.12
620.104	45.12
620.866	41.12
621.628	38.12
622.39	41.12
623.152	38.12
623.914	38.12
624.676	33.12
625.438	38.12
626.199	34.12
626.961	33.12
627.722	33.12
628.484	32.12
629.245	28.12
630.006	27.12
630.768	27.12
631.529	26.12
632.29	27.12
633.051	27.12
633.812	25.12
634.573	24.12
635.333	20.12
636.094	24.12
636.855	21.12
637.615	22.12
638.376	23.12
639.136	21.12
639.896	19.12
640.657	19.12
641.417	18.12
642.177	18.12
642.937	17.12
643.697	18.12
644.457	16.12
645.216	17.12
645.976	16.12
646.736	15.12
647.495	15.12
648.255	17.12
649.014	17.12
649.774	15.12
650.533	13.12
651.292	14.12
652.051	12.12
652.81	14.12
653.569	10.12
654.328	17.12
655.087	12.12
655.846	13.12
656.604	12.12
657.363	14.12
658.121	15.12
658.88	13.12
659.638	12.12
660.397	11.12
661.155	10.12
661.913	13.12
662.671	11.12
663.429	15.12
664.187	13.12
664.945	11.12
665.703	9.12
666.46	10.12
667.218	10.12
667.976	10.12
668.733	11.12
669.49	9.12
670.248	9.12
671.005	10.12
671.762	9.12
672.519	10.12
673.276	9.12
674.033	8.12
674.79	10.12
675.547	9.12
676.304	8.12
677.06	8.12
677.817	7.12
678.574	9.12
679.33	10.12
680.086	5.12
680.843	6.12
681.599	9.12
682.355	8.12
683.111	5.12
683.867	9.12
684.623	8.12
685.379	5.12
686.135	7.12
686.89	9.12
687.646	7.12
688.402	8.12
689.157	8.12
689.912	8.12
690.668	7.12
691.423	7.12
692.178	7.12
692.933	5.12
693.688	10.12
694.443	8.12
695.198	6.12
695.953	7.12
696.708	7.12
697.462	8.12
698.217	9.12
698.972	4.12
699.726	8.12
700.48	7.12
701.235	8.12
701.989	7.12
702.743	7.12
703.497	8.12
704.251	5.12
705.005	8.12
705.759	7.12
706.513	7.12
707.266	8.12
708.02	8.12
708.774	7.12
709.527	8.12
710.28	9.12
711.034	8.12
711.787	7.12
712.54	9.12
713.293	7.12
714.046	8.12
714.799	7.12
715.552	8.12
716.305	6.12
717.058	9.12
717.81	8.12
718.563	7.12
719.315	8.12
720.068	7.12
720.82	8.12
721.573	8.12
722.325	8.12
723.077	8.12
723.829	6.12
724.581	10.12
725.333	9.12
726.085	7.12
726.836	8.12
727.588	9.12
728.34	9.12
729.091	9.12
729.843	8.12
730.594	9.12
731.346	7.12
732.097	9.12
732.848	8.12
733.599	10.12
734.35	9.12
735.101	9.12
735.852	8.12
736.603	9.12
737.354	12.12
738.104	9.12
738.855	11.12
739.605	9.12
740.356	9.12
741.106	10.12
741.856	10.12
742.607	12.12
743.357	11.12
744.107	11.12
744.857	9.12
745.607	10.12
746.357	12.12
747.106	7.12
747.856	11.12
748.606	11.12
749.355	9.12
750.105	11.12
750.854	9.12
751.603	12.12
752.353	10.12
753.102	13.12
753.851	14.12
754.6	14.12
755.349	11.12
756.098	8.12
756.847	11.12
757.595	11.12
758.344	11.12
759.093	11.12
759.841	9.12
760.589	13.12
761.338	12.12
762.086	15.12
762.834	13.12
763.582	13.12
764.331	12.12
765.079	12.12
765.826	13.12
766.574	13.12
767.322	12.12
768.07	13.12
768.817	14.12
769.565	14.12
770.312	14.12
771.06	15.12
771.807	15.12
772.554	15.12
773.302	14.12
774.049	14.12
774.796	16.12
775.543	13.12
776.29	14.12
777.036	14.12
777.783	14.12
778.53	15.12
779.276	16.12
780.023	14.12
780.769	17.12
781.516	14.12
782.262	17.12
783.008	13.12
783.754	18.12
784.5	15.12
785.246	15.12
785.992	14.12
786.738	15.12
787.484	15.12
788.23	15.12
788.975	17.12
789.721	15.12
790.466	15.12
791.212	15.12
791.957	15.12
792.702	15.12
793.447	14.12
794.193	16.12
794.938	13.12
795.683	15.12
796.427	13.12
797.172	14.12
797.917	14.12
798.662	13.12
799.406	11.12
800.151	13.12
800.895	11.12
801.64	12.12
802.384	13.12
803.128	9.12
803.872	13.12
804.616	10.12
805.36	12.12
806.104	8.12
806.848	11.12
807.592	12.12
808.336	10.12
809.079	11.12
809.823	9.12
810.566	9.12
811.31	9.12
812.053	8.12
812.796	8.12
813.539	8.12
814.283	9.12
815.026	7.12
815.769	9.12
816.511	9.12
817.254	8.12
817.997	9.12
818.74	6.12
819.482	11.12
820.225	8.12
820.967	8.12
821.71	9.12
822.452	7.12
823.194	9.12
823.936	4.12
824.678	6.12
825.42	9.12
826.162	7.12
826.904	7.12
827.646	7.12
828.388	6.12
829.129	8.12
829.871	7.12
830.612	8.12
831.354	6.12
832.095	7.12
832.836	6.12
833.577	5.12
834.319	7.12
835.06	6.12
835.801	7.12
836.542	5.12
837.282	6.12
838.023	5.12
838.764	4.12
839.504	6.12
840.245	6.12
840.985	5.12
841.726	6.12
842.466	6.12
843.206	5.12
843.946	5.12
844.687	4.12
845.427	6.12
846.166	7.12
846.906	4.12
847.646	5.12
848.386	8.12
849.125	5.12
849.865	4.12
850.605	2.12
851.344	6.12
852.083	6.12
852.823	6.12
853.562	3.12
854.301	8.12
855.04	5.12
855.779	5.12
856.518	5.12
857.257	4.12
857.995	4.12
858.734	4.12
859.473	3.12
860.211	5.12
860.95	1.12
861.688	2.12
862.426	1.12
863.165	4.12
863.903	4.12
864.641	1.12
865.379	3.12
866.117	2.12
866.855	2.12
867.593	3.12
868.33	3.12
869.068	5.12
869.806	2.12
870.543	2.12
871.28	1.12
872.018	4.12
872.755	3.12
873.492	0.12
874.229	3.12
874.967	3.12
875.703	3.12
876.44	3.12
877.177	3.12
877.914	3.12
878.651	1.12
879.387	0.12
880.124	3.12
880.86	1.12
881.597	2.12
882.333	2.12
883.069	2.12
883.806	2.12
884.542	1.12
885.278	3.12
886.014	3.12
886.749	1.12
887.485	-0.88
888.221	2.12
888.957	-1.88
889.692	0.12
890.428	1.12
891.163	2.12
891.899	2.12
892.634	2.12
893.369	2.12
894.104	0.12
894.839	2.12
895.574	3.12
896.309	0.12
897.044	1.12
897.779	0.12
898.514	2.12
899.248	2.12
899.983	0.12
900.717	0.12
901.452	2.12
902.186	0.12
902.92	-0.88
903.654	3.12
904.389	1.12
905.123	2.12
905.857	0.12
906.59	0.12
907.324	2.12
908.058	0.12
908.792	0.12
909.525	0.12
910.259	2.12
910.992	2.12
911.726	0.12
912.459	-0.88
913.192	0.12
913.925	1.12
914.658	3.12
915.391	1.12
916.124	2.12
916.857	2.12
917.59	0.12
918.323	2.12
919.055	0.12
919.788	1.12
920.521	-0.88
921.253	3.12
921.985	1.12
922.718	-0.88
923.45	0.12
924.182	-0.88
924.914	0.12
925.646	-0.88
926.378	2.12
927.11	0.12
927.841	1.12
928.573	-0.88
929.305	-0.88
930.036	2.12
930.768	0.12
931.499	2.12
932.23	1.12
932.962	3.12
933.693	-0.88
934.424	-0.88
935.155	1.12
935.886	1.12
936.617	0.12
937.348	-1.88
938.078	1.12
938.809	2.12
939.54	-2.88
940.27	0.12
941.001	-0.88
941.731	1.12
942.461	0.12
943.191	-1.88
943.922	2.12
944.652	1.12
945.382	2.12
946.112	3.12
946.841	-0.88
947.571	1.12
948.301	1.12
949.031	1.12
949.76	1.12
950.49	0.12
951.219	-0.88
951.948	-0.88
952.678	1.12
953.407	0.12
954.136	0.12
954.865	0.12
955.594	1.12
956.323	1.12
957.052	-2.88
957.78	2.12
958.509	0.12
959.238	1.12
959.966	-0.88
960.695	2.12
961.423	-0.88
962.151	1.12
962.88	-1.88
963.608	0.12
964.336	-0.88
965.064	1.12
965.792	0.12
966.52	0.12
967.247	0.12
967.975	-0.88
968.703	1.12
969.43	0.12
970.158	1.12
970.885	1.12
971.613	-0.88
972.34	-0.88
973.067	0.12
973.794	0.12
974.521	1.12
975.248	-0.88
975.975	-0.88
976.702	1.12
977.429	2.12
978.156	-0.88
978.882	0.12
979.609	-0.88
980.335	1.12
981.062	1.12
981.788	1.12
982.514	-0.88
983.24	0.12
983.967	1.12
984.693	-2.88
985.419	3.12
986.144	-0.88
986.87	-0.88
987.596	0.12
988.322	-0.88
989.047	1.12
989.773	-0.88
990.498	3.12
991.224	0.12
991.949	-0.88
992.674	-0.88
993.399	-0.88
994.124	2.12
994.849	0.12
995.574	0.12
996.299	0.12
997.024	-0.88
997.749	-0.88
998.473	1.12
999.198	1.12
999.922	0.12
1000.647	0.12
1001.371	2.12
1002.095	-0.88
1002.82	-2.88
1003.544	1.12
1004.268	4.12
1004.992	4.12
1005.716	4.12
1006.439	5.12
1007.163	7.12
1007.887	6.12
1008.611	1.12
1009.334	-1.88
1010.058	2.12
1010.781	-0.88
1011.504	2.12
1012.228	1.12
1012.951	-0.88
1013.674	0.12
1014.397	-0.88
1015.12	2.12
