节点500_705_QEPB04081__680__20-55-36-809.txt的数据

Date: Wed Nov 12 20:55:36 CST 2025
User: PC
Spectrometer: QEPB0408
触发模式: 0
积分时间 (秒): 1.000000E-2
Scans to average: 1
启用暗噪声校正: true
启用非线性校正: false
滑动平均宽度: 0
X轴模式: Wavelengths
Number of Pixels in Spectrum: 1044
>>>>>Begin Spectral Data<<<<<
220.843	5.12
221.644	4.12
222.444	7.12
223.244	3.12
224.045	4.12
224.845	8.12
225.645	6.12
226.445	7.12
227.245	6.12
228.045	6.12
228.845	5.12
229.645	5.12
230.444	7.12
231.244	9.12
232.043	9.12
232.843	7.12
233.642	8.12
234.442	9.12
235.241	7.12
236.04	10.12
236.839	10.12
237.638	8.12
238.437	9.12
239.236	9.12
240.035	10.12
240.833	11.12
241.632	9.12
242.43	10.12
243.229	9.12
244.027	11.12
244.826	10.12
245.624	12.12
246.422	12.12
247.22	13.12
248.018	13.12
248.816	14.12
249.614	12.12
250.412	12.12
251.21	15.12
252.007	15.12
252.805	16.12
253.602	15.12
254.4	13.12
255.197	18.12
255.994	16.12
256.791	15.12
257.589	20.12
258.386	18.12
259.183	18.12
259.979	21.12
260.776	20.12
261.573	22.12
262.37	23.12
263.166	21.12
263.963	25.12
264.759	21.12
265.556	24.12
266.352	25.12
267.148	22.12
267.944	25.12
268.74	24.12
269.536	28.12
270.332	27.12
271.128	23.12
271.924	26.12
272.719	27.12
273.515	29.12
274.311	31.12
275.106	29.12
275.901	30.12
276.697	30.12
277.492	28.12
278.287	29.12
279.082	30.12
279.877	32.12
280.672	28.12
281.467	31.12
282.262	30.12
283.056	30.12
283.851	32.12
284.646	32.12
285.44	28.12
286.234	31.12
287.029	30.12
287.823	28.12
288.617	29.12
289.411	31.12
290.205	31.12
290.999	31.12
291.793	26.12
292.587	29.12
293.381	27.12
294.174	28.12
294.968	27.12
295.761	27.12
296.555	27.12
297.348	22.12
298.141	28.12
298.935	27.12
299.728	27.12
300.521	25.12
301.314	24.12
302.107	24.12
302.899	23.12
303.692	20.12
304.485	22.12
305.277	24.12
306.07	23.12
306.862	22.12
307.655	24.12
308.447	21.12
309.239	21.12
310.031	22.12
310.823	17.12
311.615	20.12
312.407	18.12
313.199	17.12
313.991	21.12
314.783	17.12
315.574	16.12
316.366	16.12
317.157	15.12
317.949	15.12
318.74	14.12
319.531	13.12
320.322	15.12
321.113	15.12
321.904	14.12
322.695	14.12
323.486	14.12
324.277	14.12
325.068	13.12
325.858	11.12
326.649	10.12
327.439	14.12
328.23	12.12
329.02	12.12
329.81	14.12
330.6	13.12
331.391	11.12
332.181	15.12
332.971	14.12
333.76	9.12
334.55	13.12
335.34	11.12
336.13	13.12
336.919	11.12
337.709	10.12
338.498	11.12
339.287	13.12
340.077	10.12
340.866	9.12
341.655	12.12
342.444	12.12
343.233	11.12
344.022	12.12
344.811	10.12
345.6	12.12
346.388	10.12
347.177	12.12
347.965	11.12
348.754	10.12
349.542	12.12
350.33	10.12
351.119	10.12
351.907	11.12
352.695	9.12
353.483	9.12
354.271	11.12
355.059	11.12
355.846	9.12
356.634	8.12
357.422	9.12
358.209	8.12
358.997	9.12
359.784	10.12
360.571	10.12
361.359	10.12
362.146	8.12
362.933	8.12
363.72	12.12
364.507	12.12
365.294	8.12
366.081	10.12
366.867	9.12
367.654	10.12
368.44	10.12
369.227	10.12
370.013	9.12
370.8	7.12
371.586	10.12
372.372	8.12
373.158	10.12
373.944	10.12
374.73	9.12
375.516	10.12
376.302	10.12
377.088	11.12
377.873	11.12
378.659	9.12
379.445	11.12
380.23	11.12
381.015	9.12
381.801	11.12
382.586	10.12
383.371	11.12
384.156	10.12
384.941	10.12
385.726	8.12
386.511	11.12
387.296	12.12
388.08	10.12
388.865	12.12
389.649	9.12
390.434	10.12
391.218	10.12
392.003	10.12
392.787	11.12
393.571	12.12
394.355	14.12
395.139	14.12
395.923	13.12
396.707	13.12
397.491	11.12
398.274	12.12
399.058	11.12
399.842	13.12
400.625	14.12
401.408	11.12
402.192	14.12
402.975	13.12
403.758	14.12
404.541	15.12
405.324	15.12
406.107	16.12
406.89	14.12
407.673	15.12
408.456	14.12
409.238	16.12
410.021	17.12
410.803	14.12
411.586	14.12
412.368	17.12
413.151	16.12
413.933	14.12
414.715	19.12
415.497	20.12
416.279	19.12
417.061	18.12
417.843	17.12
418.624	19.12
419.406	20.12
420.188	21.12
420.969	22.12
421.751	19.12
422.532	19.12
423.313	20.12
424.095	21.12
424.876	24.12
425.657	26.12
426.438	23.12
427.219	27.12
428	25.12
428.78	28.12
429.561	27.12
430.342	30.12
431.122	33.12
431.903	34.12
432.683	32.12
433.464	35.12
434.244	35.12
435.024	39.12
435.804	40.12
436.584	44.12
437.364	46.12
438.144	48.12
438.924	53.12
439.704	54.12
440.483	59.12
441.263	62.12
442.042	67.12
442.822	72.12
443.601	80.12
444.38	83.12
445.16	92.12
445.939	103.12
446.718	110.12
447.497	114.12
448.276	131.12
449.054	141.12
449.833	157.12
450.612	176.12
451.391	192.12
452.169	209.12
452.948	238.12
453.726	262.12
454.504	285.12
455.282	315.12
456.061	362.12
456.839	407.12
457.617	435.12
458.395	492.12
459.172	538.12
459.95	615.12
460.728	674.12
461.506	751.12
462.283	822.12
463.061	930.12
463.838	1028.12
464.615	1135.12
465.393	1272.12
466.17	1399.12
466.947	1542.12
467.724	1715.12
468.501	1889.12
469.278	2070.12
470.055	2284.12
470.831	2509.12
471.608	2771.12
472.385	3027.12
473.161	3295.12
473.938	3626.12
474.714	3963.12
475.49	4316.12
476.266	4706.12
477.043	5164.12
477.819	5592.12
478.595	6079.12
479.371	6579.12
480.146	7127.12
480.922	7747.12
481.698	8363.12
482.473	9090.12
483.249	9853.12
484.024	10618.12
484.8	11503.12
485.575	12321.12
486.35	13314.12
487.126	14377.12
487.901	15501.12
488.676	16587.12
489.451	17804.12
490.225	19159.12
491	20528.12
491.775	21832.12
492.55	23296.12
493.324	24834.12
494.099	26360.12
494.873	27922.12
495.647	29485.12
496.422	30971.12
497.196	32695.12
497.97	34119.12
498.744	35602.12
499.518	37090.12
500.292	38559.12
501.066	39584.12
501.839	40590.12
502.613	41456.12
503.387	42310.12
504.16	42977.12
504.934	43345.12
505.707	43624.12
506.48	43551.12
507.253	43416.12
508.027	43119.12
508.8	42519.12
509.573	41901.12
510.346	41215.12
511.118	40427.12
511.891	39472.12
512.664	38165.12
513.437	36998.12
514.209	35846.12
514.982	34511.12
515.754	33298.12
516.526	32050.12
517.298	30873.12
518.071	29656.12
518.843	28537.12
519.615	27320.12
520.387	26315.12
521.159	25295.12
521.93	24301.12
522.702	23282.12
523.474	22357.12
524.245	21448.12
525.017	20520.12
525.788	19682.12
526.56	18950.12
527.331	18135.12
528.102	17294.12
528.873	16424.12
529.644	15687.12
530.415	14971.12
531.186	14282.12
531.957	13589.12
532.728	12945.12
533.498	12293.12
534.269	11687.12
535.039	11038.12
535.81	10470.12
536.58	9930.12
537.351	9387.12
538.121	8890.12
538.891	8454.12
539.661	7940.12
540.431	7546.12
541.201	7166.12
541.971	6827.12
542.741	6433.12
543.51	6109.12
544.28	5787.12
545.05	5540.12
545.819	5272.12
546.588	5032.12
547.358	4820.12
548.127	4554.12
548.896	4329.12
549.665	4123.12
550.434	3915.12
551.203	3690.12
551.972	3526.12
552.741	3336.12
553.51	3155.12
554.278	2987.12
555.047	2820.12
555.815	2662.12
556.584	2507.12
557.352	2372.12
558.121	2264.12
558.889	2110.12
559.657	2015.12
560.425	1896.12
561.193	1819.12
561.961	1726.12
562.729	1627.12
563.496	1523.12
564.264	1452.12
565.032	1367.12
565.799	1295.12
566.567	1218.12
567.334	1159.12
568.101	1097.12
568.869	1043.12
569.636	974.12
570.403	914.12
571.17	880.12
571.937	819.12
572.704	773.12
573.471	725.12
574.237	690.12
575.004	657.12
575.771	610.12
576.537	581.12
577.303	554.12
578.07	515.12
578.836	484.12
579.602	469.12
580.368	442.12
581.134	423.12
581.9	393.12
582.666	382.12
583.432	364.12
584.198	339.12
584.964	324.12
585.729	311.12
586.495	295.12
587.26	266.12
588.025	264.12
588.791	246.12
589.556	232.12
590.321	225.12
591.086	210.12
591.851	204.12
592.616	189.12
593.381	184.12
594.146	172.12
594.911	164.12
595.675	155.12
596.44	152.12
597.204	147.12
597.969	138.12
598.733	135.12
599.497	129.12
600.261	120.12
601.025	114.12
601.79	109.12
602.553	106.12
603.317	98.12
604.081	97.12
604.845	92.12
605.609	89.12
606.372	85.12
607.136	85.12
607.899	78.12
608.662	73.12
609.426	72.12
610.189	70.12
610.952	65.12
611.715	61.12
612.478	68.12
613.241	61.12
614.004	58.12
614.767	58.12
615.529	51.12
616.292	54.12
617.055	49.12
617.817	49.12
618.579	48.12
619.342	46.12
620.104	44.12
620.866	42.12
621.628	42.12
622.39	43.12
623.152	41.12
623.914	38.12
624.676	36.12
625.438	35.12
626.199	31.12
626.961	30.12
627.722	34.12
628.484	30.12
629.245	30.12
630.006	29.12
630.768	29.12
631.529	27.12
632.29	29.12
633.051	27.12
633.812	23.12
634.573	25.12
635.333	21.12
636.094	23.12
636.855	24.12
637.615	22.12
638.376	24.12
639.136	19.12
639.896	19.12
640.657	22.12
641.417	21.12
642.177	21.12
642.937	18.12
643.697	17.12
644.457	18.12
645.216	18.12
645.976	19.12
646.736	17.12
647.495	17.12
648.255	15.12
649.014	15.12
649.774	15.12
650.533	17.12
651.292	16.12
652.051	14.12
652.81	14.12
653.569	14.12
654.328	15.12
655.087	12.12
655.846	11.12
656.604	14.12
657.363	11.12
658.121	13.12
658.88	13.12
659.638	13.12
660.397	10.12
661.155	10.12
661.913	12.12
662.671	8.12
663.429	11.12
664.187	11.12
664.945	13.12
665.703	8.12
666.46	11.12
667.218	10.12
667.976	8.12
668.733	12.12
669.49	10.12
670.248	10.12
671.005	6.12
671.762	7.12
672.519	10.12
673.276	9.12
674.033	9.12
674.79	9.12
675.547	11.12
676.304	8.12
677.06	7.12
677.817	11.12
678.574	8.12
679.33	11.12
680.086	6.12
680.843	7.12
681.599	12.12
682.355	9.12
683.111	7.12
683.867	7.12
684.623	8.12
685.379	7.12
686.135	7.12
686.89	7.12
687.646	7.12
688.402	7.12
689.157	8.12
689.912	10.12
690.668	7.12
691.423	7.12
692.178	10.12
692.933	5.12
693.688	9.12
694.443	7.12
695.198	7.12
695.953	8.12
696.708	7.12
697.462	8.12
698.217	8.12
698.972	7.12
699.726	8.12
700.48	7.12
701.235	9.12
701.989	8.12
702.743	5.12
703.497	6.12
704.251	7.12
705.005	6.12
705.759	5.12
706.513	9.12
707.266	7.12
708.02	5.12
708.774	7.12
709.527	8.12
710.28	6.12
711.034	7.12
711.787	8.12
712.54	8.12
713.293	6.12
714.046	6.12
714.799	7.12
715.552	8.12
716.305	7.12
717.058	7.12
717.81	7.12
718.563	5.12
719.315	9.12
720.068	8.12
720.82	6.12
721.573	9.12
722.325	5.12
723.077	8.12
723.829	9.12
724.581	9.12
725.333	10.12
726.085	9.12
726.836	6.12
727.588	9.12
728.34	9.12
729.091	9.12
729.843	7.12
730.594	8.12
731.346	8.12
732.097	11.12
732.848	9.12
733.599	9.12
734.35	6.12
735.101	12.12
735.852	9.12
736.603	9.12
737.354	7.12
738.104	9.12
738.855	11.12
739.605	10.12
740.356	9.12
741.106	9.12
741.856	9.12
742.607	9.12
743.357	8.12
744.107	10.12
744.857	10.12
745.607	11.12
746.357	10.12
747.106	8.12
747.856	10.12
748.606	9.12
749.355	11.12
750.105	10.12
750.854	11.12
751.603	10.12
752.353	8.12
753.102	8.12
753.851	12.12
754.6	11.12
755.349	11.12
756.098	11.12
756.847	11.12
757.595	12.12
758.344	11.12
759.093	13.12
759.841	12.12
760.589	12.12
761.338	12.12
762.086	13.12
762.834	12.12
763.582	9.12
764.331	12.12
765.079	10.12
765.826	13.12
766.574	11.12
767.322	13.12
768.07	12.12
768.817	13.12
769.565	14.12
770.312	14.12
771.06	13.12
771.807	12.12
772.554	15.12
773.302	13.12
774.049	15.12
774.796	15.12
775.543	15.12
776.29	15.12
777.036	13.12
777.783	13.12
778.53	15.12
779.276	14.12
780.023	16.12
780.769	15.12
781.516	15.12
782.262	16.12
783.008	15.12
783.754	15.12
784.5	12.12
785.246	15.12
785.992	18.12
786.738	16.12
787.484	14.12
788.23	14.12
788.975	14.12
789.721	15.12
790.466	16.12
791.212	13.12
791.957	15.12
792.702	13.12
793.447	11.12
794.193	15.12
794.938	13.12
795.683	14.12
796.427	13.12
797.172	13.12
797.917	13.12
798.662	11.12
799.406	14.12
800.151	11.12
800.895	13.12
801.64	9.12
802.384	13.12
803.128	12.12
803.872	10.12
804.616	10.12
805.36	11.12
806.104	10.12
806.848	11.12
807.592	12.12
808.336	9.12
809.079	7.12
809.823	12.12
810.566	12.12
811.31	9.12
812.053	8.12
812.796	12.12
813.539	10.12
814.283	7.12
815.026	11.12
815.769	9.12
816.511	9.12
817.254	9.12
817.997	5.12
818.74	8.12
819.482	10.12
820.225	7.12
820.967	7.12
821.71	6.12
822.452	6.12
823.194	8.12
823.936	9.12
824.678	8.12
825.42	7.12
826.162	7.12
826.904	8.12
827.646	8.12
828.388	6.12
829.129	8.12
829.871	9.12
830.612	7.12
831.354	7.12
832.095	5.12
832.836	7.12
833.577	5.12
834.319	6.12
835.06	6.12
835.801	6.12
836.542	6.12
837.282	7.12
838.023	8.12
838.764	7.12
839.504	3.12
840.245	4.12
840.985	6.12
841.726	6.12
842.466	7.12
843.206	5.12
843.946	7.12
844.687	5.12
845.427	7.12
846.166	3.12
846.906	6.12
847.646	6.12
848.386	5.12
849.125	2.12
849.865	4.12
850.605	5.12
851.344	7.12
852.083	5.12
852.823	6.12
853.562	4.12
854.301	4.12
855.04	2.12
855.779	4.12
856.518	5.12
857.257	4.12
857.995	4.12
858.734	2.12
859.473	6.12
860.211	3.12
860.95	3.12
861.688	5.12
862.426	5.12
863.165	3.12
863.903	2.12
864.641	3.12
865.379	1.12
866.117	4.12
866.855	3.12
867.593	3.12
868.33	2.12
869.068	-0.88
869.806	4.12
870.543	2.12
871.28	2.12
872.018	3.12
872.755	1.12
873.492	2.12
874.229	4.12
874.967	3.12
875.703	2.12
876.44	-0.88
877.177	2.12
877.914	1.12
878.651	3.12
879.387	0.12
880.124	2.12
880.86	1.12
881.597	2.12
882.333	3.12
883.069	0.12
883.806	3.12
884.542	1.12
885.278	3.12
886.014	1.12
886.749	1.12
887.485	2.12
888.221	2.12
888.957	2.12
889.692	3.12
890.428	0.12
891.163	1.12
891.899	1.12
892.634	1.12
893.369	1.12
894.104	2.12
894.839	2.12
895.574	1.12
896.309	2.12
897.044	1.12
897.779	2.12
898.514	0.12
899.248	-1.88
899.983	1.12
900.717	2.12
901.452	1.12
902.186	0.12
902.92	4.12
903.654	1.12
904.389	0.12
905.123	1.12
905.857	1.12
906.59	2.12
907.324	0.12
908.058	1.12
908.792	-0.88
909.525	-0.88
910.259	3.12
910.992	2.12
911.726	1.12
912.459	0.12
913.192	0.12
913.925	1.12
914.658	1.12
915.391	2.12
916.124	0.12
916.857	1.12
917.59	1.12
918.323	1.12
919.055	-0.88
919.788	-0.88
920.521	0.12
921.253	1.12
921.985	0.12
922.718	0.12
923.45	1.12
924.182	4.12
924.914	1.12
925.646	2.12
926.378	3.12
927.11	2.12
927.841	-0.88
928.573	0.12
929.305	0.12
930.036	1.12
930.768	3.12
931.499	0.12
932.23	-0.88
932.962	2.12
933.693	0.12
934.424	-0.88
935.155	1.12
935.886	0.12
936.617	-0.88
937.348	-0.88
938.078	0.12
938.809	-0.88
939.54	2.12
940.27	1.12
941.001	-0.88
941.731	-0.88
942.461	-1.88
943.191	0.12
943.922	2.12
944.652	2.12
945.382	1.12
946.112	2.12
946.841	2.12
947.571	-0.88
948.301	0.12
949.031	-0.88
949.76	1.12
950.49	-2.88
951.219	-0.88
951.948	1.12
952.678	-2.88
953.407	-0.88
954.136	1.12
954.865	1.12
955.594	0.12
956.323	-0.88
957.052	1.12
957.78	0.12
958.509	2.12
959.238	1.12
959.966	0.12
960.695	2.12
961.423	0.12
962.151	2.12
962.88	1.12
963.608	1.12
964.336	1.12
965.064	-0.88
965.792	-0.88
966.52	0.12
967.247	2.12
967.975	-0.88
968.703	2.12
969.43	0.12
970.158	-1.88
970.885	1.12
971.613	0.12
972.34	1.12
973.067	2.12
973.794	1.12
974.521	1.12
975.248	0.12
975.975	2.12
976.702	-0.88
977.429	1.12
978.156	0.12
978.882	-1.88
979.609	3.12
980.335	1.12
981.062	0.12
981.788	2.12
982.514	0.12
983.24	-0.88
983.967	-2.88
984.693	0.12
985.419	1.12
986.144	2.12
986.87	0.12
987.596	-0.88
988.322	3.12
989.047	2.12
989.773	-0.88
990.498	1.12
991.224	0.12
991.949	0.12
992.674	-1.88
993.399	2.12
994.124	-0.88
994.849	0.12
995.574	-0.88
996.299	-0.88
997.024	3.12
997.749	0.12
998.473	1.12
999.198	2.12
999.922	-0.88
1000.647	1.12
1001.371	4.12
1002.095	-1.88
1002.82	-0.88
1003.544	-0.88
1004.268	4.12
1004.992	5.12
1005.716	5.12
1006.439	4.12
1007.163	5.12
1007.887	2.12
1008.611	0.12
1009.334	1.12
1010.058	0.12
1010.781	1.12
1011.504	2.12
1012.228	-0.88
1012.951	1.12
1013.674	-1.88
1014.397	1.12
1015.12	-0.88
