节点500_705_QEPB04081__14__20-46-07-369.txt的数据

Date: Wed Nov 12 20:46:07 CST 2025
User: PC
Spectrometer: QEPB0408
触发模式: 0
积分时间 (秒): 1.000000E-2
Scans to average: 1
启用暗噪声校正: true
启用非线性校正: false
滑动平均宽度: 0
X轴模式: Wavelengths
Number of Pixels in Spectrum: 1044
>>>>>Begin Spectral Data<<<<<
220.843	6.75
221.644	4.75
222.444	5.75
223.244	7.75
224.045	6.75
224.845	7.75
225.645	7.75
226.445	6.75
227.245	7.75
228.045	6.75
228.845	7.75
229.645	8.75
230.444	5.75
231.244	7.75
232.043	8.75
232.843	9.75
233.642	9.75
234.442	9.75
235.241	11.75
236.04	10.75
236.839	9.75
237.638	9.75
238.437	14.75
239.236	11.75
240.035	10.75
240.833	13.75
241.632	13.75
242.43	13.75
243.229	12.75
244.027	15.75
244.826	13.75
245.624	16.75
246.422	14.75
247.22	16.75
248.018	16.75
248.816	14.75
249.614	16.75
250.412	17.75
251.21	17.75
252.007	19.75
252.805	20.75
253.602	19.75
254.4	17.75
255.197	21.75
255.994	18.75
256.791	23.75
257.589	20.75
258.386	23.75
259.183	22.75
259.979	24.75
260.776	24.75
261.573	26.75
262.37	27.75
263.166	26.75
263.963	27.75
264.759	29.75
265.556	31.75
266.352	30.75
267.148	29.75
267.944	32.75
268.74	30.75
269.536	29.75
270.332	32.75
271.128	36.75
271.924	33.75
272.719	34.75
273.515	37.75
274.311	36.75
275.106	32.75
275.901	39.75
276.697	34.75
277.492	37.75
278.287	38.75
279.082	35.75
279.877	34.75
280.672	36.75
281.467	33.75
282.262	34.75
283.056	35.75
283.851	36.75
284.646	33.75
285.44	34.75
286.234	34.75
287.029	34.75
287.823	36.75
288.617	31.75
289.411	34.75
290.205	32.75
290.999	33.75
291.793	33.75
292.587	33.75
293.381	29.75
294.174	27.75
294.968	30.75
295.761	27.75
296.555	28.75
297.348	26.75
298.141	26.75
298.935	26.75
299.728	25.75
300.521	29.75
301.314	24.75
302.107	23.75
302.899	23.75
303.692	23.75
304.485	24.75
305.277	23.75
306.07	18.75
306.862	23.75
307.655	23.75
308.447	22.75
309.239	20.75
310.031	17.75
310.823	17.75
311.615	16.75
312.407	17.75
313.199	15.75
313.991	17.75
314.783	12.75
315.574	18.75
316.366	14.75
317.157	16.75
317.949	14.75
318.74	13.75
319.531	16.75
320.322	14.75
321.113	14.75
321.904	14.75
322.695	10.75
323.486	12.75
324.277	12.75
325.068	12.75
325.858	10.75
326.649	11.75
327.439	14.75
328.23	12.75
329.02	12.75
329.81	11.75
330.6	12.75
331.391	11.75
332.181	11.75
332.971	11.75
333.76	11.75
334.55	14.75
335.34	12.75
336.13	13.75
336.919	11.75
337.709	10.75
338.498	10.75
339.287	12.75
340.077	12.75
340.866	10.75
341.655	12.75
342.444	9.75
343.233	10.75
344.022	12.75
344.811	10.75
345.6	11.75
346.388	12.75
347.177	11.75
347.965	10.75
348.754	10.75
349.542	11.75
350.33	10.75
351.119	10.75
351.907	11.75
352.695	11.75
353.483	12.75
354.271	10.75
355.059	11.75
355.846	10.75
356.634	13.75
357.422	12.75
358.209	7.75
358.997	11.75
359.784	10.75
360.571	8.75
361.359	12.75
362.146	8.75
362.933	8.75
363.72	7.75
364.507	12.75
365.294	9.75
366.081	8.75
366.867	9.75
367.654	9.75
368.44	10.75
369.227	9.75
370.013	10.75
370.8	9.75
371.586	9.75
372.372	12.75
373.158	7.75
373.944	10.75
374.73	9.75
375.516	9.75
376.302	9.75
377.088	9.75
377.873	10.75
378.659	9.75
379.445	10.75
380.23	10.75
381.015	10.75
381.801	10.75
382.586	8.75
383.371	11.75
384.156	9.75
384.941	11.75
385.726	12.75
386.511	11.75
387.296	10.75
388.08	9.75
388.865	12.75
389.649	10.75
390.434	10.75
391.218	11.75
392.003	9.75
392.787	12.75
393.571	12.75
394.355	13.75
395.139	12.75
395.923	14.75
396.707	14.75
397.491	14.75
398.274	17.75
399.058	16.75
399.842	14.75
400.625	13.75
401.408	10.75
402.192	13.75
402.975	12.75
403.758	15.75
404.541	13.75
405.324	14.75
406.107	16.75
406.89	16.75
407.673	14.75
408.456	16.75
409.238	15.75
410.021	20.75
410.803	16.75
411.586	21.75
412.368	15.75
413.151	18.75
413.933	17.75
414.715	17.75
415.497	19.75
416.279	17.75
417.061	18.75
417.843	20.75
418.624	21.75
419.406	20.75
420.188	22.75
420.969	22.75
421.751	20.75
422.532	21.75
423.313	21.75
424.095	23.75
424.876	26.75
425.657	22.75
426.438	26.75
427.219	26.75
428	26.75
428.78	29.75
429.561	30.75
430.342	28.75
431.122	32.75
431.903	36.75
432.683	34.75
433.464	33.75
434.244	34.75
435.024	36.75
435.804	41.75
436.584	44.75
437.364	43.75
438.144	43.75
438.924	53.75
439.704	52.75
440.483	54.75
441.263	58.75
442.042	62.75
442.822	70.75
443.601	69.75
444.38	75.75
445.16	81.75
445.939	87.75
446.718	98.75
447.497	103.75
448.276	109.75
449.054	123.75
449.833	135.75
450.612	145.75
451.391	165.75
452.169	183.75
452.948	199.75
453.726	217.75
454.504	241.75
455.282	268.75
456.061	301.75
456.839	344.75
457.617	373.75
458.395	413.75
459.172	473.75
459.95	529.75
460.728	584.75
461.506	661.75
462.283	735.75
463.061	833.75
463.838	925.75
464.615	1034.75
465.393	1139.75
466.17	1278.75
466.947	1432.75
467.724	1605.75
468.501	1784.75
469.278	1987.75
470.055	2223.75
470.831	2456.75
471.608	2718.75
472.385	3044.75
473.161	3362.75
473.938	3692.75
474.714	4105.75
475.49	4519.75
476.266	4993.75
477.043	5504.75
477.819	6063.75
478.595	6674.75
479.371	7347.75
480.146	8042.75
480.922	8861.75
481.698	9727.75
482.473	10650.75
483.249	11658.75
484.024	12686.75
484.8	13857.75
485.575	15167.75
486.35	16544.75
487.126	17943.75
487.901	19433.75
488.676	21146.75
489.451	22888.75
490.225	24624.75
491	26598.75
491.775	28436.75
492.55	30558.75
493.324	32493.75
494.099	34541.75
494.873	36497.75
495.647	38542.75
496.422	40536.75
497.196	42508.75
497.97	44217.75
498.744	45814.75
499.518	47349.75
500.292	48655.75
501.066	49512.75
501.839	50198.75
502.613	50771.75
503.387	50996.75
504.16	51190.75
504.934	50963.75
505.707	50310.75
506.48	49567.75
507.253	48736.75
508.027	47556.75
508.8	46261.75
509.573	44838.75
510.346	43463.75
511.118	42074.75
511.891	40428.75
512.664	38745.75
513.437	37094.75
514.209	35629.75
514.982	34180.75
515.754	32681.75
516.526	31299.75
517.298	30012.75
518.071	28726.75
518.843	27621.75
519.615	26462.75
520.387	25346.75
521.159	24399.75
521.93	23279.75
522.702	22288.75
523.474	21353.75
524.245	20455.75
525.017	19425.75
525.788	18634.75
526.56	17802.75
527.331	16962.75
528.102	16030.75
528.873	15145.75
529.644	14447.75
530.415	13673.75
531.186	12967.75
531.957	12295.75
532.728	11617.75
533.498	11026.75
534.269	10432.75
535.039	9851.75
535.81	9285.75
536.58	8784.75
537.351	8313.75
538.121	7888.75
538.891	7452.75
539.661	7063.75
540.431	6662.75
541.201	6303.75
541.971	5987.75
542.741	5668.75
543.51	5404.75
544.28	5125.75
545.05	4883.75
545.819	4653.75
546.588	4434.75
547.358	4201.75
548.127	4008.75
548.896	3788.75
549.665	3588.75
550.434	3384.75
551.203	3227.75
551.972	3024.75
552.741	2887.75
553.51	2719.75
554.278	2573.75
555.047	2402.75
555.815	2278.75
556.584	2142.75
557.352	2049.75
558.121	1918.75
558.889	1802.75
559.657	1719.75
560.425	1614.75
561.193	1529.75
561.961	1464.75
562.729	1358.75
563.496	1305.75
564.264	1223.75
565.032	1167.75
565.799	1114.75
566.567	1036.75
567.334	984.75
568.101	935.75
568.869	861.75
569.636	822.75
570.403	787.75
571.17	750.75
571.937	693.75
572.704	666.75
573.471	625.75
574.237	597.75
575.004	548.75
575.771	517.75
576.537	487.75
577.303	462.75
578.07	441.75
578.836	414.75
579.602	386.75
580.368	374.75
581.134	356.75
581.9	341.75
582.666	317.75
583.432	303.75
584.198	283.75
584.964	277.75
585.729	258.75
586.495	238.75
587.26	234.75
588.025	215.75
588.791	202.75
589.556	203.75
590.321	187.75
591.086	183.75
591.851	173.75
592.616	163.75
593.381	159.75
594.146	149.75
594.911	140.75
595.675	134.75
596.44	132.75
597.204	126.75
597.969	115.75
598.733	118.75
599.497	109.75
600.261	107.75
601.025	97.75
601.79	94.75
602.553	89.75
603.317	86.75
604.081	83.75
604.845	80.75
605.609	76.75
606.372	77.75
607.136	71.75
607.899	72.75
608.662	60.75
609.426	69.75
610.189	61.75
610.952	56.75
611.715	57.75
612.478	54.75
613.241	52.75
614.004	51.75
614.767	49.75
615.529	49.75
616.292	46.75
617.055	45.75
617.817	44.75
618.579	43.75
619.342	43.75
620.104	42.75
620.866	38.75
621.628	37.75
622.39	38.75
623.152	33.75
623.914	33.75
624.676	36.75
625.438	31.75
626.199	29.75
626.961	31.75
627.722	31.75
628.484	26.75
629.245	28.75
630.006	26.75
630.768	25.75
631.529	23.75
632.29	25.75
633.051	24.75
633.812	22.75
634.573	22.75
635.333	22.75
636.094	20.75
636.855	22.75
637.615	19.75
638.376	19.75
639.136	18.75
639.896	18.75
640.657	20.75
641.417	18.75
642.177	18.75
642.937	20.75
643.697	15.75
644.457	14.75
645.216	16.75
645.976	15.75
646.736	11.75
647.495	14.75
648.255	16.75
649.014	12.75
649.774	13.75
650.533	13.75
651.292	18.75
652.051	11.75
652.81	13.75
653.569	15.75
654.328	16.75
655.087	12.75
655.846	10.75
656.604	10.75
657.363	9.75
658.121	12.75
658.88	11.75
659.638	12.75
660.397	10.75
661.155	9.75
661.913	12.75
662.671	11.75
663.429	9.75
664.187	10.75
664.945	9.75
665.703	9.75
666.46	9.75
667.218	10.75
667.976	8.75
668.733	10.75
669.49	7.75
670.248	9.75
671.005	7.75
671.762	8.75
672.519	12.75
673.276	8.75
674.033	8.75
674.79	7.75
675.547	7.75
676.304	8.75
677.06	5.75
677.817	6.75
678.574	7.75
679.33	8.75
680.086	8.75
680.843	7.75
681.599	8.75
682.355	7.75
683.111	10.75
683.867	6.75
684.623	7.75
685.379	10.75
686.135	7.75
686.89	7.75
687.646	7.75
688.402	6.75
689.157	7.75
689.912	7.75
690.668	8.75
691.423	6.75
692.178	8.75
692.933	9.75
693.688	7.75
694.443	8.75
695.198	7.75
695.953	8.75
696.708	7.75
697.462	8.75
698.217	8.75
698.972	6.75
699.726	6.75
700.48	5.75
701.235	7.75
701.989	8.75
702.743	5.75
703.497	8.75
704.251	5.75
705.005	6.75
705.759	8.75
706.513	7.75
707.266	5.75
708.02	7.75
708.774	8.75
709.527	6.75
710.28	7.75
711.034	3.75
711.787	9.75
712.54	7.75
713.293	5.75
714.046	8.75
714.799	8.75
715.552	6.75
716.305	9.75
717.058	7.75
717.81	6.75
718.563	9.75
719.315	8.75
720.068	7.75
720.82	9.75
721.573	9.75
722.325	5.75
723.077	8.75
723.829	7.75
724.581	6.75
725.333	9.75
726.085	9.75
726.836	9.75
727.588	10.75
728.34	7.75
729.091	10.75
729.843	9.75
730.594	9.75
731.346	10.75
732.097	10.75
732.848	8.75
733.599	6.75
734.35	10.75
735.101	8.75
735.852	10.75
736.603	10.75
737.354	8.75
738.104	9.75
738.855	9.75
739.605	8.75
740.356	10.75
741.106	11.75
741.856	9.75
742.607	8.75
743.357	12.75
744.107	10.75
744.857	10.75
745.607	15.75
746.357	11.75
747.106	10.75
747.856	12.75
748.606	12.75
749.355	10.75
750.105	13.75
750.854	10.75
751.603	12.75
752.353	11.75
753.102	11.75
753.851	12.75
754.6	12.75
755.349	14.75
756.098	11.75
756.847	12.75
757.595	14.75
758.344	12.75
759.093	14.75
759.841	13.75
760.589	12.75
761.338	13.75
762.086	14.75
762.834	13.75
763.582	15.75
764.331	14.75
765.079	13.75
765.826	15.75
766.574	14.75
767.322	15.75
768.07	15.75
768.817	16.75
769.565	16.75
770.312	15.75
771.06	14.75
771.807	15.75
772.554	14.75
773.302	14.75
774.049	17.75
774.796	16.75
775.543	16.75
776.29	15.75
777.036	14.75
777.783	18.75
778.53	15.75
779.276	17.75
780.023	19.75
780.769	14.75
781.516	16.75
782.262	17.75
783.008	17.75
783.754	16.75
784.5	17.75
785.246	16.75
785.992	16.75
786.738	16.75
787.484	15.75
788.23	16.75
788.975	18.75
789.721	17.75
790.466	15.75
791.212	14.75
791.957	11.75
792.702	15.75
793.447	14.75
794.193	13.75
794.938	14.75
795.683	14.75
796.427	12.75
797.172	13.75
797.917	14.75
798.662	12.75
799.406	11.75
800.151	13.75
800.895	11.75
801.64	13.75
802.384	10.75
803.128	9.75
803.872	11.75
804.616	9.75
805.36	13.75
806.104	10.75
806.848	9.75
807.592	8.75
808.336	11.75
809.079	10.75
809.823	9.75
810.566	10.75
811.31	8.75
812.053	8.75
812.796	8.75
813.539	8.75
814.283	11.75
815.026	5.75
815.769	9.75
816.511	7.75
817.254	8.75
817.997	5.75
818.74	6.75
819.482	6.75
820.225	9.75
820.967	8.75
821.71	8.75
822.452	5.75
823.194	4.75
823.936	5.75
824.678	6.75
825.42	6.75
826.162	5.75
826.904	5.75
827.646	5.75
828.388	5.75
829.129	5.75
829.871	6.75
830.612	5.75
831.354	7.75
832.095	4.75
832.836	4.75
833.577	5.75
834.319	7.75
835.06	5.75
835.801	5.75
836.542	7.75
837.282	5.75
838.023	4.75
838.764	5.75
839.504	6.75
840.245	4.75
840.985	6.75
841.726	6.75
842.466	3.75
843.206	5.75
843.946	5.75
844.687	3.75
845.427	3.75
846.166	6.75
846.906	5.75
847.646	4.75
848.386	4.75
849.125	5.75
849.865	2.75
850.605	4.75
851.344	4.75
852.083	3.75
852.823	7.75
853.562	3.75
854.301	4.75
855.04	3.75
855.779	2.75
856.518	2.75
857.257	3.75
857.995	3.75
858.734	3.75
859.473	2.75
860.211	2.75
860.95	1.75
861.688	5.75
862.426	3.75
863.165	1.75
863.903	4.75
864.641	4.75
865.379	4.75
866.117	2.75
866.855	4.75
867.593	2.75
868.33	4.75
869.068	2.75
869.806	1.75
870.543	0.75
871.28	1.75
872.018	2.75
872.755	0.75
873.492	1.75
874.229	3.75
874.967	4.75
875.703	2.75
876.44	0.75
877.177	1.75
877.914	0.75
878.651	-2.25
879.387	2.75
880.124	1.75
880.86	1.75
881.597	0.75
882.333	3.75
883.069	-0.25
883.806	1.75
884.542	1.75
885.278	0.75
886.014	1.75
886.749	0.75
887.485	2.75
888.221	2.75
888.957	1.75
889.692	-1.25
890.428	-1.25
891.163	2.75
891.899	1.75
892.634	0.75
893.369	2.75
894.104	-0.25
894.839	1.75
895.574	0.75
896.309	-0.25
897.044	0.75
897.779	0.75
898.514	0.75
899.248	1.75
899.983	1.75
900.717	-0.25
901.452	1.75
902.186	1.75
902.92	2.75
903.654	1.75
904.389	-0.25
905.123	0.75
905.857	2.75
906.59	1.75
907.324	1.75
908.058	2.75
908.792	1.75
909.525	-0.25
910.259	1.75
910.992	-0.25
911.726	-1.25
912.459	0.75
913.192	-1.25
913.925	0.75
914.658	1.75
915.391	-0.25
916.124	-0.25
916.857	0.75
917.59	0.75
918.323	-1.25
919.055	-0.25
919.788	1.75
920.521	0.75
921.253	0.75
921.985	-0.25
922.718	0.75
923.45	-1.25
924.182	-2.25
924.914	1.75
925.646	-1.25
926.378	-0.25
927.11	-2.25
927.841	0.75
928.573	0.75
929.305	2.75
930.036	1.75
930.768	-1.25
931.499	1.75
932.23	-0.25
932.962	-1.25
933.693	1.75
934.424	2.75
935.155	-0.25
935.886	-1.25
936.617	-1.25
937.348	1.75
938.078	0.75
938.809	-0.25
939.54	1.75
940.27	0.75
941.001	-1.25
941.731	0.75
942.461	-0.25
943.191	0.75
943.922	-1.25
944.652	0.75
945.382	-2.25
946.112	-0.25
946.841	1.75
947.571	-0.25
948.301	0.75
949.031	-1.25
949.76	0.75
950.49	0.75
951.219	-0.25
951.948	0.75
952.678	0.75
953.407	-0.25
954.136	1.75
954.865	-1.25
955.594	0.75
956.323	0.75
957.052	-1.25
957.78	2.75
958.509	-2.25
959.238	0.75
959.966	-2.25
960.695	0.75
961.423	-0.25
962.151	-0.25
962.88	0.75
963.608	0.75
964.336	2.75
965.064	1.75
965.792	2.75
966.52	-1.25
967.247	-0.25
967.975	1.75
968.703	0.75
969.43	1.75
970.158	1.75
970.885	-1.25
971.613	1.75
972.34	-0.25
973.067	2.75
973.794	-2.25
974.521	-0.25
975.248	0.75
975.975	0.75
976.702	0.75
977.429	1.75
978.156	-0.25
978.882	-0.25
979.609	-2.25
980.335	0.75
981.062	-1.25
981.788	-0.25
982.514	-0.25
983.24	-2.25
983.967	-0.25
984.693	-0.25
985.419	-0.25
986.144	-1.25
986.87	1.75
987.596	-1.25
988.322	-1.25
989.047	0.75
989.773	-3.25
990.498	-0.25
991.224	-0.25
991.949	0.75
992.674	-1.25
993.399	1.75
994.124	-1.25
994.849	1.75
995.574	0.75
996.299	-1.25
997.024	0.75
997.749	-1.25
998.473	0.75
999.198	-1.25
999.922	0.75
1000.647	1.75
1001.371	3.75
1002.095	-0.25
1002.82	-2.25
1003.544	-0.25
1004.268	4.75
1004.992	4.75
1005.716	6.75
1006.439	6.75
1007.163	7.75
1007.887	6.75
1008.611	1.75
1009.334	1.75
1010.058	0.75
1010.781	-0.25
1011.504	-0.25
1012.228	0.75
1012.951	-0.25
1013.674	0.75
1014.397	-2.25
1015.12	0.75
