节点500_705_QEPB04081__512__20-53-10-754.txt的数据

Date: Wed Nov 12 20:53:10 CST 2025
User: PC
Spectrometer: QEPB0408
触发模式: 0
积分时间 (秒): 1.000000E-2
Scans to average: 1
启用暗噪声校正: true
启用非线性校正: false
滑动平均宽度: 0
X轴模式: Wavelengths
Number of Pixels in Spectrum: 1044
>>>>>Begin Spectral Data<<<<<
220.843	4.62
221.644	5.62
222.444	3.62
223.244	6.62
224.045	9.62
224.845	6.62
225.645	5.62
226.445	5.62
227.245	4.62
228.045	6.62
228.845	5.62
229.645	9.62
230.444	7.62
231.244	9.62
232.043	8.62
232.843	7.62
233.642	8.62
234.442	6.62
235.241	9.62
236.04	9.62
236.839	7.62
237.638	11.62
238.437	6.62
239.236	8.62
240.035	11.62
240.833	11.62
241.632	8.62
242.43	9.62
243.229	9.62
244.027	8.62
244.826	13.62
245.624	11.62
246.422	11.62
247.22	12.62
248.018	11.62
248.816	14.62
249.614	13.62
250.412	14.62
251.21	12.62
252.007	14.62
252.805	15.62
253.602	14.62
254.4	15.62
255.197	15.62
255.994	15.62
256.791	16.62
257.589	19.62
258.386	16.62
259.183	16.62
259.979	19.62
260.776	22.62
261.573	19.62
262.37	20.62
263.166	19.62
263.963	22.62
264.759	22.62
265.556	23.62
266.352	24.62
267.148	22.62
267.944	23.62
268.74	24.62
269.536	24.62
270.332	29.62
271.128	26.62
271.924	28.62
272.719	27.62
273.515	26.62
274.311	29.62
275.106	29.62
275.901	26.62
276.697	28.62
277.492	32.62
278.287	31.62
279.082	32.62
279.877	29.62
280.672	26.62
281.467	30.62
282.262	28.62
283.056	30.62
283.851	29.62
284.646	31.62
285.44	31.62
286.234	31.62
287.029	28.62
287.823	33.62
288.617	28.62
289.411	33.62
290.205	32.62
290.999	28.62
291.793	28.62
292.587	32.62
293.381	27.62
294.174	28.62
294.968	26.62
295.761	25.62
296.555	26.62
297.348	21.62
298.141	24.62
298.935	26.62
299.728	25.62
300.521	23.62
301.314	23.62
302.107	23.62
302.899	23.62
303.692	23.62
304.485	19.62
305.277	20.62
306.07	23.62
306.862	21.62
307.655	20.62
308.447	17.62
309.239	21.62
310.031	19.62
310.823	15.62
311.615	17.62
312.407	14.62
313.199	16.62
313.991	17.62
314.783	17.62
315.574	16.62
316.366	14.62
317.157	15.62
317.949	12.62
318.74	15.62
319.531	12.62
320.322	14.62
321.113	14.62
321.904	14.62
322.695	12.62
323.486	12.62
324.277	11.62
325.068	11.62
325.858	11.62
326.649	11.62
327.439	14.62
328.23	12.62
329.02	13.62
329.81	11.62
330.6	9.62
331.391	10.62
332.181	11.62
332.971	9.62
333.76	12.62
334.55	10.62
335.34	9.62
336.13	10.62
336.919	11.62
337.709	9.62
338.498	10.62
339.287	9.62
340.077	10.62
340.866	10.62
341.655	11.62
342.444	10.62
343.233	11.62
344.022	13.62
344.811	8.62
345.6	10.62
346.388	10.62
347.177	10.62
347.965	10.62
348.754	9.62
349.542	9.62
350.33	7.62
351.119	10.62
351.907	11.62
352.695	11.62
353.483	7.62
354.271	11.62
355.059	7.62
355.846	8.62
356.634	10.62
357.422	9.62
358.209	9.62
358.997	9.62
359.784	9.62
360.571	11.62
361.359	9.62
362.146	10.62
362.933	10.62
363.72	7.62
364.507	9.62
365.294	8.62
366.081	6.62
366.867	8.62
367.654	9.62
368.44	8.62
369.227	6.62
370.013	7.62
370.8	5.62
371.586	8.62
372.372	8.62
373.158	9.62
373.944	9.62
374.73	7.62
375.516	9.62
376.302	8.62
377.088	9.62
377.873	10.62
378.659	9.62
379.445	8.62
380.23	8.62
381.015	7.62
381.801	8.62
382.586	8.62
383.371	10.62
384.156	8.62
384.941	9.62
385.726	7.62
386.511	10.62
387.296	9.62
388.08	10.62
388.865	11.62
389.649	10.62
390.434	9.62
391.218	8.62
392.003	10.62
392.787	11.62
393.571	9.62
394.355	13.62
395.139	8.62
395.923	11.62
396.707	14.62
397.491	12.62
398.274	11.62
399.058	12.62
399.842	10.62
400.625	10.62
401.408	14.62
402.192	14.62
402.975	11.62
403.758	14.62
404.541	13.62
405.324	14.62
406.107	13.62
406.89	13.62
407.673	13.62
408.456	12.62
409.238	14.62
410.021	15.62
410.803	17.62
411.586	14.62
412.368	14.62
413.151	14.62
413.933	16.62
414.715	18.62
415.497	16.62
416.279	18.62
417.061	16.62
417.843	18.62
418.624	18.62
419.406	15.62
420.188	20.62
420.969	17.62
421.751	19.62
422.532	21.62
423.313	20.62
424.095	24.62
424.876	21.62
425.657	25.62
426.438	23.62
427.219	24.62
428	26.62
428.78	26.62
429.561	29.62
430.342	27.62
431.122	28.62
431.903	32.62
432.683	30.62
433.464	33.62
434.244	36.62
435.024	36.62
435.804	39.62
436.584	42.62
437.364	46.62
438.144	51.62
438.924	51.62
439.704	50.62
440.483	53.62
441.263	60.62
442.042	62.62
442.822	67.62
443.601	76.62
444.38	80.62
445.16	85.62
445.939	96.62
446.718	102.62
447.497	112.62
448.276	125.62
449.054	135.62
449.833	150.62
450.612	164.62
451.391	177.62
452.169	199.62
452.948	215.62
453.726	239.62
454.504	273.62
455.282	300.62
456.061	331.62
456.839	371.62
457.617	411.62
458.395	456.62
459.172	512.62
459.95	564.62
460.728	644.62
461.506	705.62
462.283	785.62
463.061	877.62
463.838	981.62
464.615	1085.62
465.393	1202.62
466.17	1331.62
466.947	1470.62
467.724	1629.62
468.501	1803.62
469.278	1991.62
470.055	2200.62
470.831	2411.62
471.608	2687.62
472.385	2920.62
473.161	3195.62
473.938	3494.62
474.714	3867.62
475.49	4229.62
476.266	4597.62
477.043	5019.62
477.819	5462.62
478.595	5930.62
479.371	6471.62
480.146	7012.62
480.922	7649.62
481.698	8273.62
482.473	8985.62
483.249	9754.62
484.024	10556.62
484.8	11358.62
485.575	12277.62
486.35	13340.62
487.126	14362.62
487.901	15500.62
488.676	16693.62
489.451	17955.62
490.225	19245.62
491	20619.62
491.775	21972.62
492.55	23526.62
493.324	25033.62
494.099	26561.62
494.873	28131.62
495.647	29712.62
496.422	31353.62
497.196	32940.62
497.97	34450.62
498.744	35921.62
499.518	37401.62
500.292	38778.62
501.066	39736.62
501.839	40689.62
502.613	41561.62
503.387	42209.62
504.16	42879.62
504.934	43078.62
505.707	43284.62
506.48	43103.62
507.253	42873.62
508.027	42551.62
508.8	41796.62
509.573	40999.62
510.346	40220.62
511.118	39397.62
511.891	38371.62
512.664	37051.62
513.437	35823.62
514.209	34559.62
514.982	33326.62
515.754	32080.62
516.526	30819.62
517.298	29598.62
518.071	28532.62
518.843	27334.62
519.615	26279.62
520.387	25262.62
521.159	24290.62
521.93	23238.62
522.702	22286.62
523.474	21374.62
524.245	20516.62
525.017	19640.62
525.788	18872.62
526.56	18084.62
527.331	17229.62
528.102	16461.62
528.873	15660.62
529.644	14943.62
530.415	14250.62
531.186	13574.62
531.957	12879.62
532.728	12266.62
533.498	11623.62
534.269	11060.62
535.039	10476.62
535.81	9868.62
536.58	9384.62
537.351	8905.62
538.121	8409.62
538.891	7983.62
539.661	7536.62
540.431	7111.62
541.201	6744.62
541.971	6405.62
542.741	6042.62
543.51	5753.62
544.28	5474.62
545.05	5213.62
545.819	4957.62
546.588	4742.62
547.358	4530.62
548.127	4300.62
548.896	4116.62
549.665	3905.62
550.434	3673.62
551.203	3524.62
551.972	3333.62
552.741	3126.62
553.51	2954.62
554.278	2792.62
555.047	2635.62
555.815	2502.62
556.584	2368.62
557.352	2242.62
558.121	2118.62
558.889	2002.62
559.657	1892.62
560.425	1804.62
561.193	1694.62
561.961	1614.62
562.729	1528.62
563.496	1436.62
564.264	1364.62
565.032	1288.62
565.799	1215.62
566.567	1148.62
567.334	1072.62
568.101	1031.62
568.869	967.62
569.636	922.62
570.403	869.62
571.17	816.62
571.937	772.62
572.704	734.62
573.471	684.62
574.237	645.62
575.004	621.62
575.771	570.62
576.537	538.62
577.303	516.62
578.07	486.62
578.836	461.62
579.602	432.62
580.368	421.62
581.134	394.62
581.9	364.62
582.666	360.62
583.432	333.62
584.198	318.62
584.964	305.62
585.729	286.62
586.495	270.62
587.26	257.62
588.025	248.62
588.791	233.62
589.556	216.62
590.321	210.62
591.086	195.62
591.851	185.62
592.616	177.62
593.381	168.62
594.146	165.62
594.911	155.62
595.675	147.62
596.44	144.62
597.204	132.62
597.969	131.62
598.733	124.62
599.497	120.62
600.261	112.62
601.025	108.62
601.79	103.62
602.553	99.62
603.317	97.62
604.081	94.62
604.845	91.62
605.609	82.62
606.372	78.62
607.136	75.62
607.899	73.62
608.662	70.62
609.426	70.62
610.189	66.62
610.952	62.62
611.715	60.62
612.478	62.62
613.241	54.62
614.004	53.62
614.767	54.62
615.529	52.62
616.292	50.62
617.055	46.62
617.817	47.62
618.579	45.62
619.342	40.62
620.104	41.62
620.866	40.62
621.628	39.62
622.39	37.62
623.152	36.62
623.914	37.62
624.676	31.62
625.438	34.62
626.199	29.62
626.961	30.62
627.722	30.62
628.484	27.62
629.245	29.62
630.006	26.62
630.768	28.62
631.529	23.62
632.29	24.62
633.051	26.62
633.812	23.62
634.573	21.62
635.333	22.62
636.094	23.62
636.855	22.62
637.615	21.62
638.376	19.62
639.136	20.62
639.896	17.62
640.657	18.62
641.417	17.62
642.177	17.62
642.937	17.62
643.697	15.62
644.457	16.62
645.216	16.62
645.976	17.62
646.736	13.62
647.495	15.62
648.255	16.62
649.014	14.62
649.774	13.62
650.533	12.62
651.292	13.62
652.051	11.62
652.81	16.62
653.569	12.62
654.328	14.62
655.087	10.62
655.846	10.62
656.604	11.62
657.363	12.62
658.121	11.62
658.88	10.62
659.638	11.62
660.397	8.62
661.155	9.62
661.913	10.62
662.671	12.62
663.429	10.62
664.187	9.62
664.945	7.62
665.703	9.62
666.46	10.62
667.218	8.62
667.976	7.62
668.733	8.62
669.49	9.62
670.248	9.62
671.005	8.62
671.762	7.62
672.519	9.62
673.276	5.62
674.033	6.62
674.79	7.62
675.547	7.62
676.304	7.62
677.06	7.62
677.817	7.62
678.574	8.62
679.33	6.62
680.086	8.62
680.843	8.62
681.599	8.62
682.355	7.62
683.111	8.62
683.867	6.62
684.623	7.62
685.379	8.62
686.135	8.62
686.89	9.62
687.646	9.62
688.402	6.62
689.157	6.62
689.912	6.62
690.668	6.62
691.423	4.62
692.178	6.62
692.933	4.62
693.688	6.62
694.443	6.62
695.198	5.62
695.953	7.62
696.708	7.62
697.462	7.62
698.217	7.62
698.972	7.62
699.726	6.62
700.48	4.62
701.235	7.62
701.989	2.62
702.743	5.62
703.497	7.62
704.251	7.62
705.005	9.62
705.759	8.62
706.513	7.62
707.266	8.62
708.02	4.62
708.774	5.62
709.527	7.62
710.28	9.62
711.034	7.62
711.787	6.62
712.54	4.62
713.293	7.62
714.046	7.62
714.799	7.62
715.552	7.62
716.305	6.62
717.058	6.62
717.81	6.62
718.563	7.62
719.315	6.62
720.068	6.62
720.82	5.62
721.573	7.62
722.325	5.62
723.077	8.62
723.829	5.62
724.581	7.62
725.333	6.62
726.085	10.62
726.836	8.62
727.588	10.62
728.34	7.62
729.091	6.62
729.843	10.62
730.594	8.62
731.346	4.62
732.097	8.62
732.848	7.62
733.599	8.62
734.35	6.62
735.101	7.62
735.852	8.62
736.603	6.62
737.354	7.62
738.104	6.62
738.855	8.62
739.605	8.62
740.356	7.62
741.106	7.62
741.856	9.62
742.607	9.62
743.357	7.62
744.107	8.62
744.857	10.62
745.607	9.62
746.357	10.62
747.106	8.62
747.856	9.62
748.606	9.62
749.355	10.62
750.105	8.62
750.854	10.62
751.603	10.62
752.353	10.62
753.102	11.62
753.851	8.62
754.6	8.62
755.349	10.62
756.098	10.62
756.847	11.62
757.595	10.62
758.344	10.62
759.093	11.62
759.841	13.62
760.589	11.62
761.338	11.62
762.086	12.62
762.834	10.62
763.582	10.62
764.331	13.62
765.079	11.62
765.826	11.62
766.574	12.62
767.322	11.62
768.07	10.62
768.817	10.62
769.565	12.62
770.312	8.62
771.06	14.62
771.807	10.62
772.554	12.62
773.302	13.62
774.049	13.62
774.796	13.62
775.543	14.62
776.29	13.62
777.036	14.62
777.783	13.62
778.53	12.62
779.276	14.62
780.023	14.62
780.769	13.62
781.516	15.62
782.262	14.62
783.008	12.62
783.754	12.62
784.5	14.62
785.246	14.62
785.992	15.62
786.738	13.62
787.484	13.62
788.23	15.62
788.975	12.62
789.721	14.62
790.466	11.62
791.212	12.62
791.957	12.62
792.702	12.62
793.447	10.62
794.193	13.62
794.938	12.62
795.683	13.62
796.427	14.62
797.172	12.62
797.917	13.62
798.662	10.62
799.406	14.62
800.151	13.62
800.895	12.62
801.64	11.62
802.384	9.62
803.128	11.62
803.872	10.62
804.616	8.62
805.36	9.62
806.104	9.62
806.848	11.62
807.592	7.62
808.336	10.62
809.079	7.62
809.823	7.62
810.566	9.62
811.31	9.62
812.053	6.62
812.796	9.62
813.539	10.62
814.283	8.62
815.026	8.62
815.769	5.62
816.511	6.62
817.254	9.62
817.997	5.62
818.74	6.62
819.482	8.62
820.225	4.62
820.967	6.62
821.71	6.62
822.452	6.62
823.194	8.62
823.936	8.62
824.678	7.62
825.42	4.62
826.162	8.62
826.904	5.62
827.646	5.62
828.388	5.62
829.129	6.62
829.871	4.62
830.612	6.62
831.354	4.62
832.095	4.62
832.836	6.62
833.577	6.62
834.319	5.62
835.06	5.62
835.801	5.62
836.542	4.62
837.282	5.62
838.023	5.62
838.764	7.62
839.504	4.62
840.245	6.62
840.985	5.62
841.726	7.62
842.466	4.62
843.206	4.62
843.946	4.62
844.687	5.62
845.427	4.62
846.166	5.62
846.906	4.62
847.646	5.62
848.386	3.62
849.125	4.62
849.865	4.62
850.605	2.62
851.344	5.62
852.083	4.62
852.823	4.62
853.562	4.62
854.301	3.62
855.04	4.62
855.779	4.62
856.518	2.62
857.257	3.62
857.995	3.62
858.734	5.62
859.473	2.62
860.211	2.62
860.95	3.62
861.688	5.62
862.426	4.62
863.165	2.62
863.903	3.62
864.641	2.62
865.379	1.62
866.117	3.62
866.855	2.62
867.593	1.62
868.33	2.62
869.068	2.62
869.806	2.62
870.543	3.62
871.28	2.62
872.018	3.62
872.755	2.62
873.492	2.62
874.229	2.62
874.967	0.62
875.703	2.62
876.44	2.62
877.177	1.62
877.914	1.62
878.651	0.62
879.387	1.62
880.124	0.62
880.86	1.62
881.597	0.62
882.333	1.62
883.069	1.62
883.806	1.62
884.542	2.62
885.278	2.62
886.014	2.62
886.749	-0.38
887.485	0.62
888.221	1.62
888.957	2.62
889.692	1.62
890.428	1.62
891.163	1.62
891.899	-1.38
892.634	0.62
893.369	0.62
894.104	2.62
894.839	1.62
895.574	0.62
896.309	0.62
897.044	1.62
897.779	0.62
898.514	-1.38
899.248	1.62
899.983	0.62
900.717	0.62
901.452	-1.38
902.186	1.62
902.92	0.62
903.654	0.62
904.389	-1.38
905.123	-0.38
905.857	1.62
906.59	-0.38
907.324	1.62
908.058	-0.38
908.792	0.62
909.525	2.62
910.259	-1.38
910.992	-0.38
911.726	0.62
912.459	-1.38
913.192	-0.38
913.925	0.62
914.658	0.62
915.391	-0.38
916.124	0.62
916.857	-1.38
917.59	1.62
918.323	-0.38
919.055	0.62
919.788	1.62
920.521	-0.38
921.253	2.62
921.985	1.62
922.718	-2.38
923.45	-2.38
924.182	-2.38
924.914	-1.38
925.646	1.62
926.378	3.62
927.11	0.62
927.841	-0.38
928.573	-1.38
929.305	0.62
930.036	-0.38
930.768	-0.38
931.499	0.62
932.23	0.62
932.962	0.62
933.693	0.62
934.424	-0.38
935.155	-1.38
935.886	-0.38
936.617	-1.38
937.348	-0.38
938.078	-1.38
938.809	-1.38
939.54	-3.38
940.27	1.62
941.001	-1.38
941.731	-1.38
942.461	-0.38
943.191	-1.38
943.922	1.62
944.652	0.62
945.382	-0.38
946.112	0.62
946.841	1.62
947.571	1.62
948.301	-1.38
949.031	1.62
949.76	-1.38
950.49	0.62
951.219	-1.38
951.948	-1.38
952.678	-0.38
953.407	-2.38
954.136	-0.38
954.865	0.62
955.594	-0.38
956.323	-0.38
957.052	1.62
957.78	-0.38
958.509	0.62
959.238	-0.38
959.966	0.62
960.695	0.62
961.423	-0.38
962.151	-0.38
962.88	1.62
963.608	-0.38
964.336	0.62
965.064	1.62
965.792	-1.38
966.52	-0.38
967.247	0.62
967.975	-1.38
968.703	-0.38
969.43	-2.38
970.158	-0.38
970.885	-1.38
971.613	-1.38
972.34	-1.38
973.067	0.62
973.794	-1.38
974.521	-1.38
975.248	-1.38
975.975	-0.38
976.702	-0.38
977.429	-1.38
978.156	0.62
978.882	0.62
979.609	-0.38
980.335	1.62
981.062	0.62
981.788	1.62
982.514	0.62
983.24	-1.38
983.967	-0.38
984.693	-0.38
985.419	-0.38
986.144	-0.38
986.87	0.62
987.596	0.62
988.322	-1.38
989.047	1.62
989.773	-2.38
990.498	0.62
991.224	0.62
991.949	1.62
992.674	-1.38
993.399	-0.38
994.124	0.62
994.849	-1.38
995.574	0.62
996.299	1.62
997.024	-1.38
997.749	1.62
998.473	-1.38
999.198	-0.38
999.922	-0.38
1000.647	0.62
1001.371	0.62
1002.095	-2.38
1002.82	-0.38
1003.544	1.62
1004.268	4.62
1004.992	2.62
1005.716	2.62
1006.439	6.62
1007.163	5.62
1007.887	6.62
1008.611	1.62
1009.334	0.62
1010.058	-1.38
1010.781	-0.38
1011.504	0.62
1012.228	0.62
1012.951	-0.38
1013.674	0.62
1014.397	-1.38
1015.12	1.62
