节点500_705_QEPB04081__41__20-46-34-284.txt的数据

Date: Wed Nov 12 20:46:34 CST 2025
User: PC
Spectrometer: QEPB0408
触发模式: 0
积分时间 (秒): 1.000000E-2
Scans to average: 1
启用暗噪声校正: true
启用非线性校正: false
滑动平均宽度: 0
X轴模式: Wavelengths
Number of Pixels in Spectrum: 1044
>>>>>Begin Spectral Data<<<<<
220.843	6.75
221.644	5.75
222.444	5.75
223.244	5.75
224.045	5.75
224.845	6.75
225.645	5.75
226.445	7.75
227.245	5.75
228.045	7.75
228.845	9.75
229.645	7.75
230.444	8.75
231.244	9.75
232.043	10.75
232.843	8.75
233.642	7.75
234.442	8.75
235.241	10.75
236.04	10.75
236.839	10.75
237.638	14.75
238.437	12.75
239.236	13.75
240.035	12.75
240.833	10.75
241.632	12.75
242.43	12.75
243.229	14.75
244.027	12.75
244.826	15.75
245.624	13.75
246.422	17.75
247.22	15.75
248.018	15.75
248.816	14.75
249.614	15.75
250.412	14.75
251.21	16.75
252.007	18.75
252.805	18.75
253.602	20.75
254.4	19.75
255.197	18.75
255.994	18.75
256.791	23.75
257.589	18.75
258.386	23.75
259.183	20.75
259.979	22.75
260.776	24.75
261.573	22.75
262.37	24.75
263.166	26.75
263.963	28.75
264.759	28.75
265.556	26.75
266.352	30.75
267.148	28.75
267.944	28.75
268.74	30.75
269.536	31.75
270.332	31.75
271.128	34.75
271.924	35.75
272.719	38.75
273.515	35.75
274.311	34.75
275.106	36.75
275.901	35.75
276.697	37.75
277.492	38.75
278.287	37.75
279.082	36.75
279.877	37.75
280.672	34.75
281.467	39.75
282.262	36.75
283.056	39.75
283.851	37.75
284.646	37.75
285.44	35.75
286.234	37.75
287.029	35.75
287.823	32.75
288.617	34.75
289.411	37.75
290.205	32.75
290.999	33.75
291.793	33.75
292.587	34.75
293.381	33.75
294.174	30.75
294.968	29.75
295.761	28.75
296.555	29.75
297.348	27.75
298.141	27.75
298.935	29.75
299.728	26.75
300.521	24.75
301.314	21.75
302.107	24.75
302.899	26.75
303.692	23.75
304.485	24.75
305.277	20.75
306.07	22.75
306.862	24.75
307.655	21.75
308.447	20.75
309.239	21.75
310.031	21.75
310.823	18.75
311.615	18.75
312.407	17.75
313.199	18.75
313.991	15.75
314.783	18.75
315.574	20.75
316.366	13.75
317.157	15.75
317.949	13.75
318.74	14.75
319.531	14.75
320.322	14.75
321.113	13.75
321.904	9.75
322.695	10.75
323.486	12.75
324.277	14.75
325.068	13.75
325.858	13.75
326.649	14.75
327.439	9.75
328.23	10.75
329.02	11.75
329.81	12.75
330.6	12.75
331.391	13.75
332.181	13.75
332.971	13.75
333.76	11.75
334.55	14.75
335.34	10.75
336.13	13.75
336.919	10.75
337.709	10.75
338.498	12.75
339.287	11.75
340.077	11.75
340.866	13.75
341.655	12.75
342.444	9.75
343.233	11.75
344.022	13.75
344.811	11.75
345.6	14.75
346.388	9.75
347.177	10.75
347.965	10.75
348.754	11.75
349.542	10.75
350.33	10.75
351.119	9.75
351.907	10.75
352.695	10.75
353.483	10.75
354.271	9.75
355.059	10.75
355.846	10.75
356.634	10.75
357.422	10.75
358.209	9.75
358.997	11.75
359.784	12.75
360.571	9.75
361.359	8.75
362.146	12.75
362.933	10.75
363.72	10.75
364.507	8.75
365.294	7.75
366.081	8.75
366.867	8.75
367.654	9.75
368.44	10.75
369.227	9.75
370.013	9.75
370.8	8.75
371.586	9.75
372.372	9.75
373.158	8.75
373.944	8.75
374.73	9.75
375.516	10.75
376.302	10.75
377.088	9.75
377.873	10.75
378.659	10.75
379.445	10.75
380.23	9.75
381.015	10.75
381.801	9.75
382.586	12.75
383.371	9.75
384.156	9.75
384.941	11.75
385.726	8.75
386.511	11.75
387.296	13.75
388.08	10.75
388.865	12.75
389.649	11.75
390.434	11.75
391.218	13.75
392.003	10.75
392.787	10.75
393.571	10.75
394.355	11.75
395.139	12.75
395.923	14.75
396.707	13.75
397.491	12.75
398.274	12.75
399.058	11.75
399.842	13.75
400.625	13.75
401.408	12.75
402.192	13.75
402.975	14.75
403.758	14.75
404.541	13.75
405.324	14.75
406.107	14.75
406.89	15.75
407.673	17.75
408.456	15.75
409.238	13.75
410.021	16.75
410.803	15.75
411.586	16.75
412.368	17.75
413.151	19.75
413.933	16.75
414.715	19.75
415.497	20.75
416.279	21.75
417.061	16.75
417.843	18.75
418.624	18.75
419.406	20.75
420.188	24.75
420.969	21.75
421.751	20.75
422.532	23.75
423.313	23.75
424.095	23.75
424.876	27.75
425.657	23.75
426.438	27.75
427.219	28.75
428	29.75
428.78	27.75
429.561	30.75
430.342	31.75
431.122	32.75
431.903	32.75
432.683	35.75
433.464	34.75
434.244	37.75
435.024	38.75
435.804	38.75
436.584	41.75
437.364	43.75
438.144	47.75
438.924	49.75
439.704	51.75
440.483	55.75
441.263	57.75
442.042	64.75
442.822	66.75
443.601	70.75
444.38	79.75
445.16	82.75
445.939	89.75
446.718	98.75
447.497	100.75
448.276	114.75
449.054	121.75
449.833	134.75
450.612	147.75
451.391	164.75
452.169	180.75
452.948	199.75
453.726	219.75
454.504	248.75
455.282	276.75
456.061	301.75
456.839	339.75
457.617	377.75
458.395	420.75
459.172	471.75
459.95	526.75
460.728	588.75
461.506	656.75
462.283	743.75
463.061	827.75
463.838	915.75
464.615	1040.75
465.393	1149.75
466.17	1284.75
466.947	1446.75
467.724	1590.75
468.501	1784.75
469.278	1989.75
470.055	2207.75
470.831	2453.75
471.608	2723.75
472.385	3030.75
473.161	3357.75
473.938	3707.75
474.714	4086.75
475.49	4525.75
476.266	4993.75
477.043	5473.75
477.819	6027.75
478.595	6639.75
479.371	7273.75
480.146	8010.75
480.922	8787.75
481.698	9617.75
482.473	10573.75
483.249	11516.75
484.024	12558.75
484.8	13724.75
485.575	14987.75
486.35	16281.75
487.126	17694.75
487.901	19197.75
488.676	20783.75
489.451	22546.75
490.225	24299.75
491	26158.75
491.775	28011.75
492.55	30076.75
493.324	31968.75
494.099	33976.75
494.873	36026.75
495.647	37869.75
496.422	39930.75
497.196	41901.75
497.97	43543.75
498.744	45082.75
499.518	46755.75
500.292	48075.75
501.066	48908.75
501.839	49553.75
502.613	50222.75
503.387	50559.75
504.16	50726.75
504.934	50391.75
505.707	49933.75
506.48	49211.75
507.253	48404.75
508.027	47356.75
508.8	46007.75
509.573	44695.75
510.346	43219.75
511.118	41795.75
511.891	40350.75
512.664	38607.75
513.437	37077.75
514.209	35575.75
514.982	34099.75
515.754	32592.75
516.526	31271.75
517.298	29888.75
518.071	28756.75
518.843	27539.75
519.615	26398.75
520.387	25343.75
521.159	24338.75
521.93	23298.75
522.702	22244.75
523.474	21329.75
524.245	20443.75
525.017	19443.75
525.788	18663.75
526.56	17763.75
527.331	16974.75
528.102	16055.75
528.873	15196.75
529.644	14429.75
530.415	13780.75
531.186	13050.75
531.957	12320.75
532.728	11696.75
533.498	11011.75
534.269	10439.75
535.039	9888.75
535.81	9339.75
536.58	8813.75
537.351	8366.75
538.121	7915.75
538.891	7487.75
539.661	7087.75
540.431	6695.75
541.201	6330.75
541.971	5988.75
542.741	5698.75
543.51	5406.75
544.28	5150.75
545.05	4900.75
545.819	4685.75
546.588	4465.75
547.358	4227.75
548.127	4039.75
548.896	3796.75
549.665	3571.75
550.434	3401.75
551.203	3251.75
551.972	3062.75
552.741	2885.75
553.51	2729.75
554.278	2567.75
555.047	2414.75
555.815	2284.75
556.584	2162.75
557.352	2042.75
558.121	1936.75
558.889	1831.75
559.657	1712.75
560.425	1641.75
561.193	1537.75
561.961	1461.75
562.729	1387.75
563.496	1317.75
564.264	1224.75
565.032	1148.75
565.799	1104.75
566.567	1054.75
567.334	986.75
568.101	943.75
568.869	881.75
569.636	835.75
570.403	784.75
571.17	750.75
571.937	696.75
572.704	666.75
573.471	626.75
574.237	598.75
575.004	545.75
575.771	525.75
576.537	480.75
577.303	453.75
578.07	444.75
578.836	411.75
579.602	391.75
580.368	367.75
581.134	360.75
581.9	330.75
582.666	323.75
583.432	307.75
584.198	298.75
584.964	276.75
585.729	260.75
586.495	245.75
587.26	229.75
588.025	218.75
588.791	210.75
589.556	201.75
590.321	193.75
591.086	181.75
591.851	169.75
592.616	163.75
593.381	158.75
594.146	148.75
594.911	142.75
595.675	139.75
596.44	131.75
597.204	116.75
597.969	119.75
598.733	114.75
599.497	109.75
600.261	103.75
601.025	101.75
601.79	96.75
602.553	94.75
603.317	90.75
604.081	85.75
604.845	82.75
605.609	75.75
606.372	76.75
607.136	71.75
607.899	70.75
608.662	68.75
609.426	62.75
610.189	62.75
610.952	60.75
611.715	62.75
612.478	55.75
613.241	54.75
614.004	54.75
614.767	47.75
615.529	46.75
616.292	46.75
617.055	45.75
617.817	41.75
618.579	40.75
619.342	41.75
620.104	40.75
620.866	39.75
621.628	35.75
622.39	34.75
623.152	35.75
623.914	36.75
624.676	34.75
625.438	31.75
626.199	29.75
626.961	28.75
627.722	26.75
628.484	28.75
629.245	27.75
630.006	29.75
630.768	26.75
631.529	27.75
632.29	23.75
633.051	21.75
633.812	24.75
634.573	23.75
635.333	22.75
636.094	20.75
636.855	22.75
637.615	18.75
638.376	18.75
639.136	18.75
639.896	16.75
640.657	16.75
641.417	17.75
642.177	18.75
642.937	17.75
643.697	20.75
644.457	17.75
645.216	15.75
645.976	16.75
646.736	14.75
647.495	16.75
648.255	12.75
649.014	13.75
649.774	16.75
650.533	13.75
651.292	12.75
652.051	14.75
652.81	14.75
653.569	14.75
654.328	13.75
655.087	11.75
655.846	14.75
656.604	13.75
657.363	10.75
658.121	13.75
658.88	11.75
659.638	9.75
660.397	10.75
661.155	10.75
661.913	8.75
662.671	9.75
663.429	12.75
664.187	10.75
664.945	7.75
665.703	10.75
666.46	7.75
667.218	11.75
667.976	9.75
668.733	9.75
669.49	9.75
670.248	7.75
671.005	9.75
671.762	8.75
672.519	8.75
673.276	7.75
674.033	8.75
674.79	9.75
675.547	8.75
676.304	7.75
677.06	7.75
677.817	8.75
678.574	8.75
679.33	8.75
680.086	7.75
680.843	8.75
681.599	9.75
682.355	8.75
683.111	9.75
683.867	6.75
684.623	7.75
685.379	8.75
686.135	6.75
686.89	9.75
687.646	6.75
688.402	6.75
689.157	6.75
689.912	8.75
690.668	10.75
691.423	6.75
692.178	10.75
692.933	7.75
693.688	9.75
694.443	6.75
695.198	6.75
695.953	7.75
696.708	9.75
697.462	5.75
698.217	8.75
698.972	6.75
699.726	6.75
700.48	6.75
701.235	8.75
701.989	9.75
702.743	6.75
703.497	9.75
704.251	9.75
705.005	7.75
705.759	8.75
706.513	5.75
707.266	6.75
708.02	6.75
708.774	9.75
709.527	7.75
710.28	7.75
711.034	7.75
711.787	7.75
712.54	6.75
713.293	7.75
714.046	5.75
714.799	5.75
715.552	7.75
716.305	8.75
717.058	7.75
717.81	8.75
718.563	5.75
719.315	8.75
720.068	8.75
720.82	7.75
721.573	8.75
722.325	7.75
723.077	6.75
723.829	6.75
724.581	8.75
725.333	8.75
726.085	10.75
726.836	7.75
727.588	5.75
728.34	8.75
729.091	8.75
729.843	8.75
730.594	9.75
731.346	9.75
732.097	7.75
732.848	8.75
733.599	9.75
734.35	8.75
735.101	9.75
735.852	10.75
736.603	9.75
737.354	10.75
738.104	7.75
738.855	11.75
739.605	11.75
740.356	8.75
741.106	10.75
741.856	10.75
742.607	11.75
743.357	11.75
744.107	10.75
744.857	12.75
745.607	11.75
746.357	11.75
747.106	11.75
747.856	10.75
748.606	9.75
749.355	7.75
750.105	10.75
750.854	10.75
751.603	10.75
752.353	10.75
753.102	13.75
753.851	11.75
754.6	10.75
755.349	12.75
756.098	11.75
756.847	13.75
757.595	11.75
758.344	13.75
759.093	11.75
759.841	12.75
760.589	14.75
761.338	12.75
762.086	11.75
762.834	11.75
763.582	16.75
764.331	14.75
765.079	12.75
765.826	15.75
766.574	13.75
767.322	14.75
768.07	17.75
768.817	14.75
769.565	18.75
770.312	17.75
771.06	14.75
771.807	14.75
772.554	16.75
773.302	16.75
774.049	14.75
774.796	15.75
775.543	15.75
776.29	17.75
777.036	14.75
777.783	15.75
778.53	16.75
779.276	16.75
780.023	18.75
780.769	15.75
781.516	16.75
782.262	14.75
783.008	17.75
783.754	14.75
784.5	17.75
785.246	19.75
785.992	14.75
786.738	17.75
787.484	17.75
788.23	18.75
788.975	16.75
789.721	15.75
790.466	15.75
791.212	17.75
791.957	14.75
792.702	15.75
793.447	13.75
794.193	15.75
794.938	14.75
795.683	14.75
796.427	13.75
797.172	11.75
797.917	10.75
798.662	11.75
799.406	11.75
800.151	10.75
800.895	14.75
801.64	12.75
802.384	10.75
803.128	11.75
803.872	10.75
804.616	10.75
805.36	10.75
806.104	8.75
806.848	11.75
807.592	12.75
808.336	10.75
809.079	9.75
809.823	10.75
810.566	8.75
811.31	8.75
812.053	9.75
812.796	9.75
813.539	8.75
814.283	8.75
815.026	7.75
815.769	7.75
816.511	8.75
817.254	9.75
817.997	8.75
818.74	9.75
819.482	6.75
820.225	9.75
820.967	7.75
821.71	4.75
822.452	5.75
823.194	5.75
823.936	7.75
824.678	5.75
825.42	6.75
826.162	6.75
826.904	6.75
827.646	8.75
828.388	7.75
829.129	6.75
829.871	5.75
830.612	3.75
831.354	9.75
832.095	7.75
832.836	7.75
833.577	7.75
834.319	4.75
835.06	4.75
835.801	6.75
836.542	5.75
837.282	7.75
838.023	6.75
838.764	6.75
839.504	4.75
840.245	5.75
840.985	5.75
841.726	3.75
842.466	4.75
843.206	3.75
843.946	6.75
844.687	3.75
845.427	5.75
846.166	4.75
846.906	2.75
847.646	2.75
848.386	1.75
849.125	4.75
849.865	3.75
850.605	6.75
851.344	3.75
852.083	1.75
852.823	2.75
853.562	3.75
854.301	2.75
855.04	2.75
855.779	1.75
856.518	2.75
857.257	1.75
857.995	2.75
858.734	2.75
859.473	2.75
860.211	4.75
860.95	3.75
861.688	5.75
862.426	2.75
863.165	3.75
863.903	1.75
864.641	1.75
865.379	3.75
866.117	2.75
866.855	2.75
867.593	2.75
868.33	1.75
869.068	3.75
869.806	1.75
870.543	1.75
871.28	2.75
872.018	2.75
872.755	1.75
873.492	1.75
874.229	2.75
874.967	4.75
875.703	0.75
876.44	0.75
877.177	1.75
877.914	1.75
878.651	1.75
879.387	1.75
880.124	1.75
880.86	1.75
881.597	0.75
882.333	1.75
883.069	1.75
883.806	0.75
884.542	1.75
885.278	0.75
886.014	-0.25
886.749	2.75
887.485	2.75
888.221	1.75
888.957	0.75
889.692	0.75
890.428	-1.25
891.163	1.75
891.899	1.75
892.634	1.75
893.369	2.75
894.104	-1.25
894.839	1.75
895.574	0.75
896.309	0.75
897.044	1.75
897.779	-1.25
898.514	2.75
899.248	0.75
899.983	1.75
900.717	0.75
901.452	0.75
902.186	2.75
902.92	-0.25
903.654	1.75
904.389	-1.25
905.123	-0.25
905.857	0.75
906.59	0.75
907.324	0.75
908.058	1.75
908.792	-0.25
909.525	-0.25
910.259	0.75
910.992	2.75
911.726	0.75
912.459	2.75
913.192	-1.25
913.925	-1.25
914.658	-0.25
915.391	0.75
916.124	1.75
916.857	-0.25
917.59	-0.25
918.323	0.75
919.055	-2.25
919.788	1.75
920.521	-0.25
921.253	0.75
921.985	-2.25
922.718	1.75
923.45	1.75
924.182	1.75
924.914	-0.25
925.646	-1.25
926.378	-0.25
927.11	-0.25
927.841	1.75
928.573	-0.25
929.305	1.75
930.036	-0.25
930.768	-0.25
931.499	0.75
932.23	-0.25
932.962	1.75
933.693	0.75
934.424	0.75
935.155	-1.25
935.886	0.75
936.617	-1.25
937.348	0.75
938.078	0.75
938.809	-1.25
939.54	-1.25
940.27	0.75
941.001	-1.25
941.731	0.75
942.461	0.75
943.191	-1.25
943.922	2.75
944.652	-1.25
945.382	0.75
946.112	0.75
946.841	1.75
947.571	1.75
948.301	0.75
949.031	0.75
949.76	-2.25
950.49	0.75
951.219	-0.25
951.948	-1.25
952.678	0.75
953.407	-1.25
954.136	1.75
954.865	0.75
955.594	-0.25
956.323	-1.25
957.052	2.75
957.78	0.75
958.509	-3.25
959.238	-0.25
959.966	-1.25
960.695	0.75
961.423	-2.25
962.151	1.75
962.88	0.75
963.608	-1.25
964.336	1.75
965.064	-0.25
965.792	1.75
966.52	-0.25
967.247	0.75
967.975	0.75
968.703	-0.25
969.43	2.75
970.158	-0.25
970.885	-1.25
971.613	0.75
972.34	0.75
973.067	-1.25
973.794	0.75
974.521	1.75
975.248	0.75
975.975	-2.25
976.702	-1.25
977.429	-0.25
978.156	-0.25
978.882	1.75
979.609	0.75
980.335	1.75
981.062	0.75
981.788	1.75
982.514	-2.25
983.24	-0.25
983.967	-1.25
984.693	-1.25
985.419	0.75
986.144	0.75
986.87	-1.25
987.596	1.75
988.322	1.75
989.047	2.75
989.773	-1.25
990.498	1.75
991.224	-1.25
991.949	0.75
992.674	2.75
993.399	1.75
994.124	0.75
994.849	0.75
995.574	1.75
996.299	-2.25
997.024	-1.25
997.749	0.75
998.473	0.75
999.198	-1.25
999.922	-1.25
1000.647	-0.25
1001.371	4.75
1002.095	-0.25
1002.82	-0.25
1003.544	-1.25
1004.268	5.75
1004.992	5.75
1005.716	2.75
1006.439	4.75
1007.163	7.75
1007.887	4.75
1008.611	0.75
1009.334	-2.25
1010.058	-0.25
1010.781	-0.25
1011.504	2.75
1012.228	0.75
1012.951	-0.25
1013.674	-1.25
1014.397	-2.25
1015.12	0.75
