节点500_705_QEPB04081__233__20-49-13-474.txt的数据

Date: Wed Nov 12 20:49:13 CST 2025
User: PC
Spectrometer: QEPB0408
触发模式: 0
积分时间 (秒): 1.000000E-2
Scans to average: 1
启用暗噪声校正: true
启用非线性校正: false
滑动平均宽度: 0
X轴模式: Wavelengths
Number of Pixels in Spectrum: 1044
>>>>>Begin Spectral Data<<<<<
220.843	4.75
221.644	4.75
222.444	6.75
223.244	6.75
224.045	7.75
224.845	5.75
225.645	5.75
226.445	6.75
227.245	7.75
228.045	9.75
228.845	10.75
229.645	6.75
230.444	7.75
231.244	8.75
232.043	10.75
232.843	7.75
233.642	11.75
234.442	7.75
235.241	11.75
236.04	11.75
236.839	8.75
237.638	10.75
238.437	11.75
239.236	12.75
240.035	11.75
240.833	12.75
241.632	10.75
242.43	12.75
243.229	12.75
244.027	13.75
244.826	10.75
245.624	11.75
246.422	13.75
247.22	13.75
248.018	15.75
248.816	14.75
249.614	15.75
250.412	16.75
251.21	14.75
252.007	17.75
252.805	18.75
253.602	18.75
254.4	18.75
255.197	15.75
255.994	18.75
256.791	19.75
257.589	19.75
258.386	20.75
259.183	23.75
259.979	22.75
260.776	25.75
261.573	21.75
262.37	26.75
263.166	25.75
263.963	24.75
264.759	26.75
265.556	25.75
266.352	29.75
267.148	31.75
267.944	31.75
268.74	33.75
269.536	32.75
270.332	33.75
271.128	28.75
271.924	35.75
272.719	32.75
273.515	33.75
274.311	34.75
275.106	32.75
275.901	33.75
276.697	36.75
277.492	34.75
278.287	35.75
279.082	34.75
279.877	33.75
280.672	32.75
281.467	35.75
282.262	34.75
283.056	36.75
283.851	33.75
284.646	34.75
285.44	36.75
286.234	34.75
287.029	33.75
287.823	33.75
288.617	36.75
289.411	30.75
290.205	30.75
290.999	33.75
291.793	33.75
292.587	30.75
293.381	32.75
294.174	33.75
294.968	30.75
295.761	27.75
296.555	25.75
297.348	25.75
298.141	25.75
298.935	29.75
299.728	23.75
300.521	24.75
301.314	23.75
302.107	23.75
302.899	25.75
303.692	23.75
304.485	22.75
305.277	21.75
306.07	20.75
306.862	24.75
307.655	21.75
308.447	24.75
309.239	22.75
310.031	18.75
310.823	19.75
311.615	22.75
312.407	17.75
313.199	14.75
313.991	16.75
314.783	16.75
315.574	17.75
316.366	16.75
317.157	16.75
317.949	16.75
318.74	13.75
319.531	14.75
320.322	14.75
321.113	12.75
321.904	11.75
322.695	13.75
323.486	13.75
324.277	13.75
325.068	15.75
325.858	14.75
326.649	12.75
327.439	11.75
328.23	11.75
329.02	11.75
329.81	14.75
330.6	13.75
331.391	14.75
332.181	14.75
332.971	9.75
333.76	9.75
334.55	12.75
335.34	11.75
336.13	10.75
336.919	12.75
337.709	9.75
338.498	13.75
339.287	11.75
340.077	11.75
340.866	10.75
341.655	9.75
342.444	11.75
343.233	11.75
344.022	9.75
344.811	13.75
345.6	12.75
346.388	11.75
347.177	8.75
347.965	10.75
348.754	9.75
349.542	12.75
350.33	11.75
351.119	10.75
351.907	11.75
352.695	7.75
353.483	11.75
354.271	11.75
355.059	9.75
355.846	11.75
356.634	10.75
357.422	10.75
358.209	9.75
358.997	10.75
359.784	10.75
360.571	9.75
361.359	10.75
362.146	10.75
362.933	9.75
363.72	10.75
364.507	9.75
365.294	10.75
366.081	8.75
366.867	11.75
367.654	9.75
368.44	8.75
369.227	7.75
370.013	11.75
370.8	7.75
371.586	10.75
372.372	9.75
373.158	8.75
373.944	8.75
374.73	10.75
375.516	6.75
376.302	11.75
377.088	9.75
377.873	10.75
378.659	9.75
379.445	9.75
380.23	10.75
381.015	9.75
381.801	9.75
382.586	9.75
383.371	9.75
384.156	11.75
384.941	10.75
385.726	12.75
386.511	11.75
387.296	12.75
388.08	9.75
388.865	11.75
389.649	9.75
390.434	12.75
391.218	10.75
392.003	13.75
392.787	11.75
393.571	10.75
394.355	11.75
395.139	12.75
395.923	11.75
396.707	13.75
397.491	11.75
398.274	14.75
399.058	12.75
399.842	14.75
400.625	12.75
401.408	14.75
402.192	14.75
402.975	12.75
403.758	12.75
404.541	15.75
405.324	13.75
406.107	15.75
406.89	14.75
407.673	14.75
408.456	15.75
409.238	17.75
410.021	17.75
410.803	16.75
411.586	18.75
412.368	17.75
413.151	19.75
413.933	16.75
414.715	18.75
415.497	17.75
416.279	18.75
417.061	19.75
417.843	19.75
418.624	20.75
419.406	21.75
420.188	21.75
420.969	24.75
421.751	19.75
422.532	20.75
423.313	24.75
424.095	26.75
424.876	24.75
425.657	22.75
426.438	26.75
427.219	28.75
428	30.75
428.78	28.75
429.561	28.75
430.342	31.75
431.122	33.75
431.903	31.75
432.683	37.75
433.464	33.75
434.244	39.75
435.024	40.75
435.804	42.75
436.584	38.75
437.364	47.75
438.144	48.75
438.924	49.75
439.704	53.75
440.483	53.75
441.263	61.75
442.042	63.75
442.822	67.75
443.601	77.75
444.38	82.75
445.16	87.75
445.939	88.75
446.718	98.75
447.497	111.75
448.276	119.75
449.054	129.75
449.833	142.75
450.612	157.75
451.391	169.75
452.169	188.75
452.948	211.75
453.726	229.75
454.504	260.75
455.282	284.75
456.061	310.75
456.839	363.75
457.617	399.75
458.395	446.75
459.172	489.75
459.95	550.75
460.728	608.75
461.506	681.75
462.283	770.75
463.061	858.75
463.838	953.75
464.615	1072.75
465.393	1194.75
466.17	1327.75
466.947	1474.75
467.724	1643.75
468.501	1826.75
469.278	2040.75
470.055	2248.75
470.831	2475.75
471.608	2742.75
472.385	3028.75
473.161	3364.75
473.938	3693.75
474.714	4068.75
475.49	4474.75
476.266	4914.75
477.043	5386.75
477.819	5902.75
478.595	6466.75
479.371	7069.75
480.146	7735.75
480.922	8462.75
481.698	9231.75
482.473	10085.75
483.249	10968.75
484.024	11940.75
484.8	12962.75
485.575	14091.75
486.35	15310.75
487.126	16572.75
487.901	17943.75
488.676	19385.75
489.451	21008.75
490.225	22524.75
491	24258.75
491.775	25966.75
492.55	27803.75
493.324	29622.75
494.099	31403.75
494.873	33291.75
495.647	35159.75
496.422	37085.75
497.196	38860.75
497.97	40537.75
498.744	42105.75
499.518	43682.75
500.292	45002.75
501.066	46015.75
501.839	46928.75
502.613	47506.75
503.387	48058.75
504.16	48302.75
504.934	48424.75
505.707	48189.75
506.48	47693.75
507.253	47018.75
508.027	46159.75
508.8	45165.75
509.573	43962.75
510.346	42822.75
511.118	41733.75
511.891	40284.75
512.664	38664.75
513.437	37179.75
514.209	35794.75
514.982	34358.75
515.754	32952.75
516.526	31500.75
517.298	30245.75
518.071	29019.75
518.843	27852.75
519.615	26789.75
520.387	25730.75
521.159	24650.75
521.93	23624.75
522.702	22615.75
523.474	21653.75
524.245	20773.75
525.017	19810.75
525.788	18913.75
526.56	18129.75
527.331	17320.75
528.102	16361.75
528.873	15557.75
529.644	14810.75
530.415	14183.75
531.186	13434.75
531.957	12749.75
532.728	12086.75
533.498	11458.75
534.269	10823.75
535.039	10218.75
535.81	9670.75
536.58	9132.75
537.351	8648.75
538.121	8180.75
538.891	7741.75
539.661	7327.75
540.431	6935.75
541.201	6582.75
541.971	6234.75
542.741	5897.75
543.51	5594.75
544.28	5336.75
545.05	5092.75
545.819	4847.75
546.588	4604.75
547.358	4404.75
548.127	4174.75
548.896	3973.75
549.665	3727.75
550.434	3548.75
551.203	3360.75
551.972	3212.75
552.741	3029.75
553.51	2860.75
554.278	2685.75
555.047	2527.75
555.815	2390.75
556.584	2276.75
557.352	2148.75
558.121	2004.75
558.889	1894.75
559.657	1795.75
560.425	1707.75
561.193	1613.75
561.961	1528.75
562.729	1456.75
563.496	1367.75
564.264	1292.75
565.032	1232.75
565.799	1155.75
566.567	1089.75
567.334	1044.75
568.101	978.75
568.869	933.75
569.636	867.75
570.403	826.75
571.17	782.75
571.937	725.75
572.704	698.75
573.471	658.75
574.237	617.75
575.004	581.75
575.771	543.75
576.537	507.75
577.303	488.75
578.07	464.75
578.836	434.75
579.602	405.75
580.368	388.75
581.134	370.75
581.9	350.75
582.666	335.75
583.432	327.75
584.198	301.75
584.964	288.75
585.729	268.75
586.495	259.75
587.26	240.75
588.025	233.75
588.791	220.75
589.556	209.75
590.321	197.75
591.086	187.75
591.851	178.75
592.616	174.75
593.381	166.75
594.146	156.75
594.911	141.75
595.675	142.75
596.44	131.75
597.204	127.75
597.969	122.75
598.733	119.75
599.497	114.75
600.261	106.75
601.025	105.75
601.79	98.75
602.553	97.75
603.317	89.75
604.081	86.75
604.845	85.75
605.609	83.75
606.372	75.75
607.136	76.75
607.899	70.75
608.662	69.75
609.426	66.75
610.189	65.75
610.952	60.75
611.715	62.75
612.478	57.75
613.241	58.75
614.004	54.75
614.767	53.75
615.529	52.75
616.292	50.75
617.055	44.75
617.817	46.75
618.579	43.75
619.342	41.75
620.104	38.75
620.866	40.75
621.628	38.75
622.39	37.75
623.152	34.75
623.914	35.75
624.676	37.75
625.438	32.75
626.199	32.75
626.961	30.75
627.722	30.75
628.484	29.75
629.245	28.75
630.006	27.75
630.768	26.75
631.529	27.75
632.29	22.75
633.051	23.75
633.812	24.75
634.573	19.75
635.333	20.75
636.094	23.75
636.855	23.75
637.615	21.75
638.376	20.75
639.136	18.75
639.896	20.75
640.657	18.75
641.417	18.75
642.177	17.75
642.937	19.75
643.697	20.75
644.457	16.75
645.216	17.75
645.976	14.75
646.736	16.75
647.495	13.75
648.255	15.75
649.014	15.75
649.774	15.75
650.533	15.75
651.292	13.75
652.051	13.75
652.81	13.75
653.569	12.75
654.328	13.75
655.087	11.75
655.846	15.75
656.604	11.75
657.363	13.75
658.121	11.75
658.88	11.75
659.638	14.75
660.397	11.75
661.155	9.75
661.913	10.75
662.671	10.75
663.429	7.75
664.187	11.75
664.945	11.75
665.703	7.75
666.46	8.75
667.218	11.75
667.976	9.75
668.733	8.75
669.49	7.75
670.248	10.75
671.005	9.75
671.762	7.75
672.519	8.75
673.276	8.75
674.033	9.75
674.79	5.75
675.547	8.75
676.304	8.75
677.06	6.75
677.817	8.75
678.574	7.75
679.33	10.75
680.086	7.75
680.843	10.75
681.599	9.75
682.355	6.75
683.111	8.75
683.867	7.75
684.623	9.75
685.379	7.75
686.135	9.75
686.89	6.75
687.646	4.75
688.402	8.75
689.157	6.75
689.912	7.75
690.668	5.75
691.423	6.75
692.178	6.75
692.933	8.75
693.688	10.75
694.443	6.75
695.198	7.75
695.953	9.75
696.708	6.75
697.462	8.75
698.217	5.75
698.972	4.75
699.726	6.75
700.48	7.75
701.235	7.75
701.989	7.75
702.743	8.75
703.497	7.75
704.251	4.75
705.005	6.75
705.759	6.75
706.513	7.75
707.266	6.75
708.02	6.75
708.774	8.75
709.527	6.75
710.28	5.75
711.034	9.75
711.787	6.75
712.54	6.75
713.293	7.75
714.046	6.75
714.799	4.75
715.552	6.75
716.305	7.75
717.058	7.75
717.81	5.75
718.563	7.75
719.315	7.75
720.068	7.75
720.82	6.75
721.573	6.75
722.325	8.75
723.077	10.75
723.829	7.75
724.581	7.75
725.333	8.75
726.085	7.75
726.836	5.75
727.588	9.75
728.34	9.75
729.091	8.75
729.843	9.75
730.594	8.75
731.346	9.75
732.097	8.75
732.848	8.75
733.599	8.75
734.35	9.75
735.101	8.75
735.852	9.75
736.603	9.75
737.354	10.75
738.104	8.75
738.855	9.75
739.605	9.75
740.356	10.75
741.106	9.75
741.856	9.75
742.607	12.75
743.357	9.75
744.107	10.75
744.857	10.75
745.607	10.75
746.357	9.75
747.106	10.75
747.856	9.75
748.606	10.75
749.355	11.75
750.105	10.75
750.854	12.75
751.603	11.75
752.353	11.75
753.102	10.75
753.851	11.75
754.6	12.75
755.349	10.75
756.098	13.75
756.847	12.75
757.595	12.75
758.344	13.75
759.093	12.75
759.841	10.75
760.589	11.75
761.338	11.75
762.086	13.75
762.834	14.75
763.582	15.75
764.331	15.75
765.079	12.75
765.826	15.75
766.574	11.75
767.322	13.75
768.07	12.75
768.817	14.75
769.565	14.75
770.312	17.75
771.06	16.75
771.807	15.75
772.554	15.75
773.302	14.75
774.049	18.75
774.796	16.75
775.543	13.75
776.29	14.75
777.036	18.75
777.783	12.75
778.53	16.75
779.276	13.75
780.023	15.75
780.769	17.75
781.516	16.75
782.262	16.75
783.008	14.75
783.754	15.75
784.5	15.75
785.246	17.75
785.992	14.75
786.738	15.75
787.484	16.75
788.23	17.75
788.975	15.75
789.721	17.75
790.466	15.75
791.212	15.75
791.957	18.75
792.702	13.75
793.447	13.75
794.193	13.75
794.938	13.75
795.683	15.75
796.427	12.75
797.172	13.75
797.917	10.75
798.662	13.75
799.406	15.75
800.151	12.75
800.895	13.75
801.64	10.75
802.384	9.75
803.128	9.75
803.872	9.75
804.616	13.75
805.36	11.75
806.104	13.75
806.848	11.75
807.592	12.75
808.336	9.75
809.079	9.75
809.823	9.75
810.566	10.75
811.31	9.75
812.053	11.75
812.796	8.75
813.539	7.75
814.283	8.75
815.026	8.75
815.769	6.75
816.511	8.75
817.254	10.75
817.997	7.75
818.74	8.75
819.482	7.75
820.225	8.75
820.967	6.75
821.71	7.75
822.452	9.75
823.194	5.75
823.936	6.75
824.678	7.75
825.42	8.75
826.162	7.75
826.904	5.75
827.646	6.75
828.388	6.75
829.129	6.75
829.871	6.75
830.612	7.75
831.354	7.75
832.095	5.75
832.836	8.75
833.577	6.75
834.319	4.75
835.06	6.75
835.801	4.75
836.542	7.75
837.282	4.75
838.023	4.75
838.764	6.75
839.504	4.75
840.245	6.75
840.985	3.75
841.726	5.75
842.466	7.75
843.206	6.75
843.946	6.75
844.687	5.75
845.427	2.75
846.166	5.75
846.906	4.75
847.646	4.75
848.386	4.75
849.125	5.75
849.865	5.75
850.605	3.75
851.344	4.75
852.083	5.75
852.823	5.75
853.562	3.75
854.301	4.75
855.04	3.75
855.779	4.75
856.518	2.75
857.257	2.75
857.995	3.75
858.734	2.75
859.473	4.75
860.211	5.75
860.95	4.75
861.688	2.75
862.426	2.75
863.165	1.75
863.903	4.75
864.641	5.75
865.379	2.75
866.117	1.75
866.855	1.75
867.593	2.75
868.33	3.75
869.068	2.75
869.806	2.75
870.543	0.75
871.28	1.75
872.018	3.75
872.755	1.75
873.492	0.75
874.229	3.75
874.967	0.75
875.703	1.75
876.44	2.75
877.177	2.75
877.914	1.75
878.651	0.75
879.387	2.75
880.124	0.75
880.86	1.75
881.597	1.75
882.333	0.75
883.069	1.75
883.806	2.75
884.542	0.75
885.278	-0.25
886.014	5.75
886.749	0.75
887.485	2.75
888.221	0.75
888.957	2.75
889.692	2.75
890.428	-1.25
891.163	1.75
891.899	1.75
892.634	1.75
893.369	1.75
894.104	1.75
894.839	-0.25
895.574	1.75
896.309	1.75
897.044	1.75
897.779	0.75
898.514	2.75
899.248	0.75
899.983	1.75
900.717	1.75
901.452	-0.25
902.186	-1.25
902.92	-0.25
903.654	-0.25
904.389	-1.25
905.123	1.75
905.857	0.75
906.59	-0.25
907.324	-0.25
908.058	-1.25
908.792	-0.25
909.525	0.75
910.259	1.75
910.992	0.75
911.726	0.75
912.459	0.75
913.192	-3.25
913.925	0.75
914.658	-0.25
915.391	0.75
916.124	0.75
916.857	-0.25
917.59	1.75
918.323	-0.25
919.055	0.75
919.788	0.75
920.521	-0.25
921.253	0.75
921.985	-1.25
922.718	0.75
923.45	-0.25
924.182	0.75
924.914	1.75
925.646	-1.25
926.378	1.75
927.11	0.75
927.841	2.75
928.573	0.75
929.305	0.75
930.036	0.75
930.768	-1.25
931.499	2.75
932.23	-0.25
932.962	-0.25
933.693	1.75
934.424	-1.25
935.155	0.75
935.886	1.75
936.617	-1.25
937.348	1.75
938.078	-0.25
938.809	-1.25
939.54	2.75
940.27	1.75
941.001	-1.25
941.731	0.75
942.461	0.75
943.191	-0.25
943.922	0.75
944.652	-0.25
945.382	1.75
946.112	-0.25
946.841	-1.25
947.571	-0.25
948.301	-2.25
949.031	0.75
949.76	-1.25
950.49	-1.25
951.219	2.75
951.948	-1.25
952.678	3.75
953.407	-1.25
954.136	-1.25
954.865	0.75
955.594	0.75
956.323	2.75
957.052	0.75
957.78	0.75
958.509	-1.25
959.238	0.75
959.966	0.75
960.695	-0.25
961.423	-1.25
962.151	-0.25
962.88	2.75
963.608	-0.25
964.336	-0.25
965.064	-1.25
965.792	-1.25
966.52	-0.25
967.247	0.75
967.975	-0.25
968.703	1.75
969.43	1.75
970.158	1.75
970.885	0.75
971.613	-0.25
972.34	-1.25
973.067	3.75
973.794	2.75
974.521	-0.25
975.248	-0.25
975.975	-1.25
976.702	0.75
977.429	2.75
978.156	0.75
978.882	-0.25
979.609	-0.25
980.335	1.75
981.062	0.75
981.788	1.75
982.514	-2.25
983.24	-2.25
983.967	0.75
984.693	0.75
985.419	-0.25
986.144	-0.25
986.87	-0.25
987.596	-0.25
988.322	2.75
989.047	0.75
989.773	1.75
990.498	1.75
991.224	-1.25
991.949	0.75
992.674	-1.25
993.399	0.75
994.124	1.75
994.849	-0.25
995.574	1.75
996.299	-2.25
997.024	0.75
997.749	0.75
998.473	-0.25
999.198	0.75
999.922	1.75
1000.647	2.75
1001.371	1.75
1002.095	-0.25
1002.82	-1.25
1003.544	-1.25
1004.268	2.75
1004.992	5.75
1005.716	3.75
1006.439	5.75
1007.163	4.75
1007.887	5.75
1008.611	1.75
1009.334	-1.25
1010.058	1.75
1010.781	0.75
1011.504	1.75
1012.228	0.75
1012.951	0.75
1013.674	-0.25
1014.397	0.75
1015.12	-0.25
