节点500_705_QEPB04081__155__20-48-26-076.txt的数据

Date: Wed Nov 12 20:48:26 CST 2025
User: PC
Spectrometer: QEPB0408
触发模式: 0
积分时间 (秒): 1.000000E-2
Scans to average: 1
启用暗噪声校正: true
启用非线性校正: false
滑动平均宽度: 0
X轴模式: Wavelengths
Number of Pixels in Spectrum: 1044
>>>>>Begin Spectral Data<<<<<
220.843	6.12
221.644	6.12
222.444	6.12
223.244	6.12
224.045	6.12
224.845	5.12
225.645	5.12
226.445	6.12
227.245	9.12
228.045	8.12
228.845	10.12
229.645	9.12
230.444	8.12
231.244	9.12
232.043	7.12
232.843	9.12
233.642	11.12
234.442	8.12
235.241	10.12
236.04	9.12
236.839	12.12
237.638	12.12
238.437	12.12
239.236	12.12
240.035	12.12
240.833	12.12
241.632	11.12
242.43	14.12
243.229	15.12
244.027	12.12
244.826	15.12
245.624	14.12
246.422	13.12
247.22	13.12
248.018	15.12
248.816	15.12
249.614	15.12
250.412	19.12
251.21	19.12
252.007	20.12
252.805	17.12
253.602	18.12
254.4	19.12
255.197	21.12
255.994	19.12
256.791	20.12
257.589	24.12
258.386	21.12
259.183	22.12
259.979	24.12
260.776	24.12
261.573	26.12
262.37	24.12
263.166	27.12
263.963	29.12
264.759	27.12
265.556	30.12
266.352	26.12
267.148	32.12
267.944	29.12
268.74	33.12
269.536	34.12
270.332	32.12
271.128	32.12
271.924	33.12
272.719	34.12
273.515	33.12
274.311	33.12
275.106	37.12
275.901	35.12
276.697	35.12
277.492	37.12
278.287	37.12
279.082	36.12
279.877	35.12
280.672	34.12
281.467	33.12
282.262	43.12
283.056	33.12
283.851	34.12
284.646	38.12
285.44	37.12
286.234	37.12
287.029	39.12
287.823	34.12
288.617	31.12
289.411	30.12
290.205	35.12
290.999	31.12
291.793	33.12
292.587	31.12
293.381	34.12
294.174	34.12
294.968	32.12
295.761	28.12
296.555	29.12
297.348	27.12
298.141	29.12
298.935	30.12
299.728	25.12
300.521	27.12
301.314	26.12
302.107	24.12
302.899	20.12
303.692	23.12
304.485	22.12
305.277	24.12
306.07	24.12
306.862	24.12
307.655	25.12
308.447	20.12
309.239	21.12
310.031	21.12
310.823	23.12
311.615	19.12
312.407	19.12
313.199	18.12
313.991	15.12
314.783	18.12
315.574	19.12
316.366	19.12
317.157	17.12
317.949	15.12
318.74	15.12
319.531	14.12
320.322	15.12
321.113	14.12
321.904	14.12
322.695	12.12
323.486	14.12
324.277	12.12
325.068	14.12
325.858	12.12
326.649	13.12
327.439	15.12
328.23	12.12
329.02	12.12
329.81	15.12
330.6	12.12
331.391	12.12
332.181	11.12
332.971	12.12
333.76	13.12
334.55	13.12
335.34	12.12
336.13	11.12
336.919	9.12
337.709	12.12
338.498	10.12
339.287	11.12
340.077	12.12
340.866	15.12
341.655	11.12
342.444	11.12
343.233	14.12
344.022	14.12
344.811	14.12
345.6	10.12
346.388	13.12
347.177	12.12
347.965	13.12
348.754	13.12
349.542	13.12
350.33	13.12
351.119	9.12
351.907	9.12
352.695	13.12
353.483	11.12
354.271	12.12
355.059	11.12
355.846	11.12
356.634	11.12
357.422	11.12
358.209	11.12
358.997	12.12
359.784	11.12
360.571	11.12
361.359	9.12
362.146	12.12
362.933	12.12
363.72	9.12
364.507	10.12
365.294	9.12
366.081	12.12
366.867	10.12
367.654	11.12
368.44	11.12
369.227	9.12
370.013	11.12
370.8	11.12
371.586	10.12
372.372	10.12
373.158	10.12
373.944	10.12
374.73	11.12
375.516	12.12
376.302	10.12
377.088	10.12
377.873	11.12
378.659	10.12
379.445	8.12
380.23	10.12
381.015	12.12
381.801	10.12
382.586	10.12
383.371	10.12
384.156	13.12
384.941	10.12
385.726	13.12
386.511	13.12
387.296	14.12
388.08	11.12
388.865	10.12
389.649	10.12
390.434	12.12
391.218	11.12
392.003	13.12
392.787	13.12
393.571	11.12
394.355	13.12
395.139	12.12
395.923	13.12
396.707	12.12
397.491	12.12
398.274	15.12
399.058	13.12
399.842	13.12
400.625	12.12
401.408	16.12
402.192	14.12
402.975	15.12
403.758	15.12
404.541	17.12
405.324	17.12
406.107	15.12
406.89	15.12
407.673	14.12
408.456	18.12
409.238	17.12
410.021	15.12
410.803	15.12
411.586	17.12
412.368	18.12
413.151	18.12
413.933	19.12
414.715	17.12
415.497	20.12
416.279	19.12
417.061	20.12
417.843	19.12
418.624	22.12
419.406	19.12
420.188	21.12
420.969	21.12
421.751	23.12
422.532	24.12
423.313	25.12
424.095	24.12
424.876	27.12
425.657	25.12
426.438	24.12
427.219	24.12
428	27.12
428.78	29.12
429.561	29.12
430.342	29.12
431.122	31.12
431.903	32.12
432.683	31.12
433.464	34.12
434.244	34.12
435.024	40.12
435.804	39.12
436.584	42.12
437.364	43.12
438.144	47.12
438.924	54.12
439.704	55.12
440.483	53.12
441.263	60.12
442.042	61.12
442.822	70.12
443.601	74.12
444.38	80.12
445.16	79.12
445.939	96.12
446.718	102.12
447.497	110.12
448.276	123.12
449.054	123.12
449.833	140.12
450.612	153.12
451.391	171.12
452.169	185.12
452.948	209.12
453.726	231.12
454.504	252.12
455.282	280.12
456.061	315.12
456.839	350.12
457.617	396.12
458.395	437.12
459.172	486.12
459.95	548.12
460.728	611.12
461.506	699.12
462.283	755.12
463.061	851.12
463.838	943.12
464.615	1061.12
465.393	1189.12
466.17	1308.12
466.947	1476.12
467.724	1637.12
468.501	1813.12
469.278	2015.12
470.055	2247.12
470.831	2479.12
471.608	2748.12
472.385	3057.12
473.161	3363.12
473.938	3722.12
474.714	4076.12
475.49	4479.12
476.266	4950.12
477.043	5407.12
477.819	5936.12
478.595	6546.12
479.371	7162.12
480.146	7790.12
480.922	8525.12
481.698	9353.12
482.473	10236.12
483.249	11166.12
484.024	12131.12
484.8	13212.12
485.575	14343.12
486.35	15621.12
487.126	16962.12
487.901	18315.12
488.676	19926.12
489.451	21497.12
490.225	23096.12
491	24898.12
491.775	26621.12
492.55	28500.12
493.324	30334.12
494.099	32218.12
494.873	34030.12
495.647	36039.12
496.422	37920.12
497.196	39863.12
497.97	41444.12
498.744	43055.12
499.518	44513.12
500.292	45950.12
501.066	46917.12
501.839	47718.12
502.613	48419.12
503.387	48897.12
504.16	49162.12
504.934	49136.12
505.707	48752.12
506.48	48265.12
507.253	47542.12
508.027	46657.12
508.8	45514.12
509.573	44336.12
510.346	42986.12
511.118	41802.12
511.891	40431.12
512.664	38705.12
513.437	37285.12
514.209	35832.12
514.982	34422.12
515.754	32903.12
516.526	31540.12
517.298	30160.12
518.071	28986.12
518.843	27838.12
519.615	26734.12
520.387	25612.12
521.159	24660.12
521.93	23567.12
522.702	22583.12
523.474	21621.12
524.245	20747.12
525.017	19716.12
525.788	18893.12
526.56	18053.12
527.331	17254.12
528.102	16300.12
528.873	15550.12
529.644	14758.12
530.415	14091.12
531.186	13344.12
531.957	12681.12
532.728	11971.12
533.498	11299.12
534.269	10729.12
535.039	10150.12
535.81	9620.12
536.58	9040.12
537.351	8571.12
538.121	8102.12
538.891	7707.12
539.661	7286.12
540.431	6902.12
541.201	6545.12
541.971	6166.12
542.741	5845.12
543.51	5551.12
544.28	5312.12
545.05	5083.12
545.819	4811.12
546.588	4579.12
547.358	4364.12
548.127	4149.12
548.896	3942.12
549.665	3718.12
550.434	3531.12
551.203	3329.12
551.972	3165.12
552.741	2988.12
553.51	2819.12
554.278	2672.12
555.047	2479.12
555.815	2377.12
556.584	2249.12
557.352	2122.12
558.121	2019.12
558.889	1881.12
559.657	1786.12
560.425	1686.12
561.193	1598.12
561.961	1516.12
562.729	1442.12
563.496	1351.12
564.264	1288.12
565.032	1223.12
565.799	1142.12
566.567	1091.12
567.334	1021.12
568.101	979.12
568.869	915.12
569.636	862.12
570.403	813.12
571.17	767.12
571.937	722.12
572.704	684.12
573.471	644.12
574.237	619.12
575.004	581.12
575.771	539.12
576.537	509.12
577.303	489.12
578.07	461.12
578.836	426.12
579.602	411.12
580.368	387.12
581.134	368.12
581.9	354.12
582.666	334.12
583.432	317.12
584.198	303.12
584.964	284.12
585.729	262.12
586.495	257.12
587.26	242.12
588.025	225.12
588.791	223.12
589.556	209.12
590.321	198.12
591.086	187.12
591.851	181.12
592.616	173.12
593.381	164.12
594.146	162.12
594.911	143.12
595.675	139.12
596.44	141.12
597.204	126.12
597.969	122.12
598.733	115.12
599.497	112.12
600.261	105.12
601.025	105.12
601.79	101.12
602.553	96.12
603.317	93.12
604.081	90.12
604.845	80.12
605.609	83.12
606.372	78.12
607.136	73.12
607.899	71.12
608.662	69.12
609.426	66.12
610.189	66.12
610.952	60.12
611.715	60.12
612.478	57.12
613.241	61.12
614.004	52.12
614.767	52.12
615.529	52.12
616.292	53.12
617.055	45.12
617.817	45.12
618.579	45.12
619.342	42.12
620.104	42.12
620.866	38.12
621.628	41.12
622.39	38.12
623.152	37.12
623.914	34.12
624.676	36.12
625.438	33.12
626.199	29.12
626.961	34.12
627.722	30.12
628.484	30.12
629.245	30.12
630.006	29.12
630.768	26.12
631.529	28.12
632.29	23.12
633.051	24.12
633.812	20.12
634.573	25.12
635.333	25.12
636.094	23.12
636.855	22.12
637.615	21.12
638.376	21.12
639.136	20.12
639.896	20.12
640.657	19.12
641.417	17.12
642.177	17.12
642.937	18.12
643.697	19.12
644.457	18.12
645.216	17.12
645.976	15.12
646.736	15.12
647.495	17.12
648.255	15.12
649.014	14.12
649.774	16.12
650.533	15.12
651.292	12.12
652.051	13.12
652.81	17.12
653.569	14.12
654.328	12.12
655.087	14.12
655.846	13.12
656.604	14.12
657.363	13.12
658.121	13.12
658.88	12.12
659.638	12.12
660.397	13.12
661.155	12.12
661.913	14.12
662.671	9.12
663.429	10.12
664.187	13.12
664.945	9.12
665.703	10.12
666.46	10.12
667.218	10.12
667.976	8.12
668.733	8.12
669.49	10.12
670.248	9.12
671.005	11.12
671.762	9.12
672.519	9.12
673.276	11.12
674.033	8.12
674.79	11.12
675.547	9.12
676.304	9.12
677.06	9.12
677.817	10.12
678.574	8.12
679.33	10.12
680.086	10.12
680.843	9.12
681.599	9.12
682.355	10.12
683.111	9.12
683.867	10.12
684.623	10.12
685.379	9.12
686.135	6.12
686.89	10.12
687.646	7.12
688.402	8.12
689.157	9.12
689.912	9.12
690.668	7.12
691.423	9.12
692.178	8.12
692.933	7.12
693.688	8.12
694.443	9.12
695.198	9.12
695.953	7.12
696.708	8.12
697.462	7.12
698.217	10.12
698.972	8.12
699.726	9.12
700.48	8.12
701.235	11.12
701.989	7.12
702.743	8.12
703.497	10.12
704.251	9.12
705.005	7.12
705.759	8.12
706.513	9.12
707.266	9.12
708.02	7.12
708.774	7.12
709.527	8.12
710.28	7.12
711.034	9.12
711.787	5.12
712.54	9.12
713.293	9.12
714.046	8.12
714.799	9.12
715.552	7.12
716.305	9.12
717.058	9.12
717.81	8.12
718.563	8.12
719.315	7.12
720.068	11.12
720.82	10.12
721.573	8.12
722.325	7.12
723.077	9.12
723.829	7.12
724.581	8.12
725.333	8.12
726.085	7.12
726.836	8.12
727.588	8.12
728.34	10.12
729.091	9.12
729.843	6.12
730.594	9.12
731.346	8.12
732.097	8.12
732.848	9.12
733.599	12.12
734.35	12.12
735.101	9.12
735.852	10.12
736.603	8.12
737.354	12.12
738.104	9.12
738.855	11.12
739.605	9.12
740.356	10.12
741.106	11.12
741.856	12.12
742.607	12.12
743.357	11.12
744.107	12.12
744.857	11.12
745.607	10.12
746.357	11.12
747.106	12.12
747.856	11.12
748.606	12.12
749.355	11.12
750.105	13.12
750.854	12.12
751.603	13.12
752.353	11.12
753.102	11.12
753.851	12.12
754.6	11.12
755.349	12.12
756.098	12.12
756.847	13.12
757.595	12.12
758.344	13.12
759.093	14.12
759.841	13.12
760.589	13.12
761.338	13.12
762.086	11.12
762.834	13.12
763.582	13.12
764.331	15.12
765.079	18.12
765.826	13.12
766.574	15.12
767.322	13.12
768.07	15.12
768.817	13.12
769.565	15.12
770.312	17.12
771.06	15.12
771.807	14.12
772.554	15.12
773.302	17.12
774.049	18.12
774.796	16.12
775.543	17.12
776.29	17.12
777.036	15.12
777.783	15.12
778.53	19.12
779.276	18.12
780.023	17.12
780.769	15.12
781.516	16.12
782.262	18.12
783.008	17.12
783.754	15.12
784.5	18.12
785.246	15.12
785.992	17.12
786.738	15.12
787.484	19.12
788.23	14.12
788.975	16.12
789.721	15.12
790.466	14.12
791.212	19.12
791.957	17.12
792.702	13.12
793.447	16.12
794.193	17.12
794.938	15.12
795.683	15.12
796.427	17.12
797.172	15.12
797.917	13.12
798.662	13.12
799.406	11.12
800.151	13.12
800.895	13.12
801.64	14.12
802.384	10.12
803.128	12.12
803.872	13.12
804.616	13.12
805.36	12.12
806.104	12.12
806.848	10.12
807.592	12.12
808.336	10.12
809.079	12.12
809.823	9.12
810.566	9.12
811.31	9.12
812.053	11.12
812.796	9.12
813.539	9.12
814.283	9.12
815.026	9.12
815.769	8.12
816.511	7.12
817.254	10.12
817.997	8.12
818.74	9.12
819.482	9.12
820.225	7.12
820.967	10.12
821.71	8.12
822.452	7.12
823.194	7.12
823.936	7.12
824.678	9.12
825.42	8.12
826.162	9.12
826.904	6.12
827.646	8.12
828.388	9.12
829.129	6.12
829.871	6.12
830.612	7.12
831.354	5.12
832.095	6.12
832.836	5.12
833.577	7.12
834.319	5.12
835.06	7.12
835.801	5.12
836.542	8.12
837.282	7.12
838.023	6.12
838.764	6.12
839.504	5.12
840.245	4.12
840.985	6.12
841.726	6.12
842.466	6.12
843.206	3.12
843.946	7.12
844.687	6.12
845.427	7.12
846.166	7.12
846.906	2.12
847.646	4.12
848.386	4.12
849.125	4.12
849.865	7.12
850.605	7.12
851.344	6.12
852.083	6.12
852.823	5.12
853.562	3.12
854.301	4.12
855.04	5.12
855.779	4.12
856.518	5.12
857.257	5.12
857.995	2.12
858.734	4.12
859.473	6.12
860.211	3.12
860.95	5.12
861.688	3.12
862.426	3.12
863.165	4.12
863.903	3.12
864.641	2.12
865.379	5.12
866.117	5.12
866.855	5.12
867.593	4.12
868.33	1.12
869.068	3.12
869.806	3.12
870.543	2.12
871.28	3.12
872.018	4.12
872.755	4.12
873.492	2.12
874.229	5.12
874.967	5.12
875.703	4.12
876.44	1.12
877.177	1.12
877.914	1.12
878.651	3.12
879.387	2.12
880.124	1.12
880.86	1.12
881.597	2.12
882.333	0.12
883.069	1.12
883.806	3.12
884.542	3.12
885.278	3.12
886.014	1.12
886.749	2.12
887.485	2.12
888.221	2.12
888.957	2.12
889.692	1.12
890.428	4.12
891.163	2.12
891.899	1.12
892.634	3.12
893.369	2.12
894.104	2.12
894.839	2.12
895.574	0.12
896.309	1.12
897.044	2.12
897.779	1.12
898.514	2.12
899.248	2.12
899.983	2.12
900.717	3.12
901.452	0.12
902.186	1.12
902.92	-0.88
903.654	1.12
904.389	1.12
905.123	1.12
905.857	1.12
906.59	2.12
907.324	3.12
908.058	3.12
908.792	0.12
909.525	1.12
910.259	0.12
910.992	1.12
911.726	2.12
912.459	1.12
913.192	-0.88
913.925	-0.88
914.658	2.12
915.391	1.12
916.124	0.12
916.857	0.12
917.59	1.12
918.323	1.12
919.055	0.12
919.788	1.12
920.521	-0.88
921.253	2.12
921.985	1.12
922.718	0.12
923.45	1.12
924.182	1.12
924.914	2.12
925.646	-0.88
926.378	0.12
927.11	1.12
927.841	-0.88
928.573	0.12
929.305	-0.88
930.036	1.12
930.768	1.12
931.499	0.12
932.23	1.12
932.962	2.12
933.693	2.12
934.424	0.12
935.155	2.12
935.886	-1.88
936.617	1.12
937.348	1.12
938.078	1.12
938.809	2.12
939.54	1.12
940.27	0.12
941.001	2.12
941.731	1.12
942.461	2.12
943.191	1.12
943.922	0.12
944.652	2.12
945.382	1.12
946.112	1.12
946.841	1.12
947.571	-0.88
948.301	0.12
949.031	-1.88
949.76	1.12
950.49	0.12
951.219	-0.88
951.948	0.12
952.678	-0.88
953.407	3.12
954.136	0.12
954.865	2.12
955.594	0.12
956.323	-0.88
957.052	0.12
957.78	2.12
958.509	-0.88
959.238	0.12
959.966	0.12
960.695	-0.88
961.423	2.12
962.151	0.12
962.88	-0.88
963.608	1.12
964.336	0.12
965.064	-0.88
965.792	-0.88
966.52	0.12
967.247	1.12
967.975	1.12
968.703	2.12
969.43	1.12
970.158	-0.88
970.885	3.12
971.613	-1.88
972.34	3.12
973.067	-0.88
973.794	1.12
974.521	2.12
975.248	2.12
975.975	0.12
976.702	-0.88
977.429	1.12
978.156	-1.88
978.882	-0.88
979.609	3.12
980.335	1.12
981.062	1.12
981.788	-1.88
982.514	0.12
983.24	-0.88
983.967	1.12
984.693	1.12
985.419	2.12
986.144	0.12
986.87	0.12
987.596	0.12
988.322	1.12
989.047	-0.88
989.773	1.12
990.498	1.12
991.224	1.12
991.949	2.12
992.674	-1.88
993.399	0.12
994.124	-2.88
994.849	1.12
995.574	1.12
996.299	1.12
997.024	3.12
997.749	2.12
998.473	0.12
999.198	-0.88
999.922	1.12
1000.647	-0.88
1001.371	3.12
1002.095	0.12
1002.82	0.12
1003.544	-3.88
1004.268	5.12
1004.992	4.12
1005.716	6.12
1006.439	5.12
1007.163	7.12
1007.887	7.12
1008.611	0.12
1009.334	1.12
1010.058	1.12
1010.781	-0.88
1011.504	-1.88
1012.228	1.12
1012.951	-0.88
1013.674	2.12
1014.397	-0.88
1015.12	0.12
