节点500_705_QEPB04081__447__20-52-14-727.txt的数据

Date: Wed Nov 12 20:52:14 CST 2025
User: PC
Spectrometer: QEPB0408
触发模式: 0
积分时间 (秒): 1.000000E-2
Scans to average: 1
启用暗噪声校正: true
启用非线性校正: false
滑动平均宽度: 0
X轴模式: Wavelengths
Number of Pixels in Spectrum: 1044
>>>>>Begin Spectral Data<<<<<
220.843	5
221.644	5
222.444	5
223.244	4
224.045	6
224.845	5
225.645	6
226.445	7
227.245	7
228.045	10
228.845	7
229.645	8
230.444	7
231.244	10
232.043	11
232.843	8
233.642	8
234.442	7
235.241	8
236.04	10
236.839	11
237.638	11
238.437	11
239.236	13
240.035	10
240.833	11
241.632	11
242.43	9
243.229	11
244.027	11
244.826	14
245.624	12
246.422	12
247.22	13
248.018	14
248.816	17
249.614	13
250.412	16
251.21	17
252.007	16
252.805	19
253.602	17
254.4	16
255.197	18
255.994	17
256.791	18
257.589	17
258.386	20
259.183	19
259.979	23
260.776	21
261.573	22
262.37	20
263.166	24
263.963	23
264.759	25
265.556	27
266.352	27
267.148	26
267.944	28
268.74	29
269.536	29
270.332	28
271.128	29
271.924	31
272.719	28
273.515	30
274.311	31
275.106	30
275.901	32
276.697	30
277.492	32
278.287	33
279.082	32
279.877	34
280.672	34
281.467	35
282.262	33
283.056	31
283.851	30
284.646	34
285.44	31
286.234	31
287.029	36
287.823	35
288.617	33
289.411	29
290.205	31
290.999	31
291.793	33
292.587	30
293.381	31
294.174	27
294.968	30
295.761	26
296.555	28
297.348	27
298.141	26
298.935	30
299.728	25
300.521	26
301.314	23
302.107	27
302.899	21
303.692	25
304.485	23
305.277	21
306.07	23
306.862	23
307.655	21
308.447	19
309.239	22
310.031	22
310.823	17
311.615	18
312.407	15
313.199	19
313.991	16
314.783	16
315.574	19
316.366	13
317.157	16
317.949	17
318.74	14
319.531	18
320.322	16
321.113	17
321.904	14
322.695	15
323.486	14
324.277	15
325.068	14
325.858	11
326.649	12
327.439	11
328.23	14
329.02	11
329.81	10
330.6	12
331.391	10
332.181	13
332.971	13
333.76	14
334.55	11
335.34	11
336.13	13
336.919	10
337.709	11
338.498	13
339.287	11
340.077	9
340.866	14
341.655	11
342.444	12
343.233	12
344.022	14
344.811	12
345.6	11
346.388	11
347.177	13
347.965	12
348.754	11
349.542	13
350.33	12
351.119	12
351.907	10
352.695	11
353.483	12
354.271	9
355.059	10
355.846	13
356.634	10
357.422	9
358.209	9
358.997	9
359.784	9
360.571	10
361.359	12
362.146	10
362.933	10
363.72	8
364.507	11
365.294	10
366.081	10
366.867	9
367.654	11
368.44	10
369.227	10
370.013	10
370.8	9
371.586	9
372.372	10
373.158	7
373.944	8
374.73	9
375.516	10
376.302	10
377.088	7
377.873	10
378.659	8
379.445	11
380.23	9
381.015	12
381.801	9
382.586	9
383.371	10
384.156	11
384.941	8
385.726	11
386.511	11
387.296	11
388.08	7
388.865	14
389.649	11
390.434	11
391.218	13
392.003	12
392.787	13
393.571	11
394.355	13
395.139	11
395.923	15
396.707	12
397.491	13
398.274	13
399.058	14
399.842	14
400.625	12
401.408	16
402.192	15
402.975	12
403.758	13
404.541	14
405.324	15
406.107	15
406.89	13
407.673	16
408.456	12
409.238	18
410.021	14
410.803	17
411.586	15
412.368	15
413.151	16
413.933	17
414.715	19
415.497	17
416.279	18
417.061	18
417.843	22
418.624	21
419.406	18
420.188	23
420.969	19
421.751	22
422.532	21
423.313	22
424.095	23
424.876	25
425.657	25
426.438	26
427.219	27
428	29
428.78	28
429.561	29
430.342	35
431.122	31
431.903	32
432.683	34
433.464	34
434.244	37
435.024	39
435.804	39
436.584	43
437.364	46
438.144	49
438.924	54
439.704	58
440.483	55
441.263	62
442.042	64
442.822	68
443.601	71
444.38	82
445.16	91
445.939	97
446.718	107
447.497	116
448.276	126
449.054	141
449.833	149
450.612	171
451.391	183
452.169	205
452.948	229
453.726	245
454.504	278
455.282	305
456.061	346
456.839	383
457.617	427
458.395	475
459.172	534
459.95	588
460.728	658
461.506	735
462.283	817
463.061	903
463.838	1006
464.615	1113
465.393	1243
466.17	1375
466.947	1518
467.724	1688
468.501	1897
469.278	2078
470.055	2278
470.831	2511
471.608	2778
472.385	3032
473.161	3344
473.938	3649
474.714	4028
475.49	4381
476.266	4822
477.043	5256
477.819	5733
478.595	6211
479.371	6793
480.146	7407
480.922	8060
481.698	8775
482.473	9479
483.249	10324
484.024	11205
484.8	12108
485.575	13054
486.35	14114
487.126	15312
487.901	16466
488.676	17784
489.451	19105
490.225	20544
491	22048
491.775	23478
492.55	25117
493.324	26722
494.099	28393
494.873	30095
495.647	31811
496.422	33477
497.196	35192
497.97	36758
498.744	38259
499.518	39833
500.292	41276
501.066	42288
501.839	43178
502.613	44079
503.387	44820
504.16	45338
504.934	45520
505.707	45731
506.48	45460
507.253	45058
508.027	44664
508.8	43875
509.573	42999
510.346	42108
511.118	41145
511.891	39984
512.664	38609
513.437	37182
514.209	35978
514.982	34605
515.754	33310
516.526	31944
517.298	30739
518.071	29558
518.843	28341
519.615	27183
520.387	26149
521.159	25080
521.93	24015
522.702	23079
523.474	22131
524.245	21247
525.017	20385
525.788	19495
526.56	18706
527.331	17845
528.102	17015
528.873	16131
529.644	15423
530.415	14682
531.186	13999
531.957	13271
532.728	12633
533.498	11954
534.269	11353
535.039	10715
535.81	10172
536.58	9651
537.351	9120
538.121	8617
538.891	8218
539.661	7731
540.431	7287
541.201	6919
541.971	6558
542.741	6249
543.51	5921
544.28	5649
545.05	5323
545.819	5115
546.588	4859
547.358	4622
548.127	4376
548.896	4183
549.665	3980
550.434	3768
551.203	3588
551.972	3384
552.741	3229
553.51	3021
554.278	2877
555.047	2696
555.815	2552
556.584	2428
557.352	2303
558.121	2165
558.889	2046
559.657	1931
560.425	1830
561.193	1750
561.961	1637
562.729	1554
563.496	1474
564.264	1387
565.032	1314
565.799	1247
566.567	1179
567.334	1112
568.101	1044
568.869	990
569.636	933
570.403	874
571.17	824
571.937	788
572.704	739
573.471	699
574.237	659
575.004	614
575.771	587
576.537	553
577.303	524
578.07	489
578.836	472
579.602	435
580.368	418
581.134	405
581.9	381
582.666	374
583.432	346
584.198	327
584.964	311
585.729	292
586.495	274
587.26	261
588.025	246
588.791	234
589.556	221
590.321	211
591.086	206
591.851	195
592.616	186
593.381	173
594.146	166
594.911	155
595.675	153
596.44	150
597.204	138
597.969	132
598.733	130
599.497	121
600.261	115
601.025	110
601.79	106
602.553	104
603.317	101
604.081	91
604.845	90
605.609	89
606.372	79
607.136	85
607.899	79
608.662	74
609.426	71
610.189	70
610.952	68
611.715	64
612.478	59
613.241	60
614.004	58
614.767	57
615.529	53
616.292	54
617.055	46
617.817	47
618.579	45
619.342	45
620.104	45
620.866	44
621.628	42
622.39	39
623.152	37
623.914	40
624.676	37
625.438	31
626.199	33
626.961	32
627.722	31
628.484	32
629.245	30
630.006	27
630.768	32
631.529	30
632.29	24
633.051	26
633.812	25
634.573	24
635.333	24
636.094	23
636.855	23
637.615	22
638.376	23
639.136	22
639.896	19
640.657	19
641.417	19
642.177	20
642.937	18
643.697	18
644.457	18
645.216	16
645.976	17
646.736	18
647.495	18
648.255	12
649.014	17
649.774	14
650.533	13
651.292	15
652.051	11
652.81	15
653.569	15
654.328	11
655.087	15
655.846	12
656.604	14
657.363	13
658.121	14
658.88	9
659.638	13
660.397	13
661.155	10
661.913	10
662.671	11
663.429	10
664.187	11
664.945	10
665.703	11
666.46	7
667.218	9
667.976	11
668.733	12
669.49	9
670.248	9
671.005	11
671.762	11
672.519	9
673.276	10
674.033	9
674.79	9
675.547	7
676.304	12
677.06	9
677.817	9
678.574	11
679.33	8
680.086	8
680.843	11
681.599	8
682.355	8
683.111	9
683.867	8
684.623	8
685.379	9
686.135	9
686.89	8
687.646	8
688.402	9
689.157	9
689.912	10
690.668	8
691.423	7
692.178	9
692.933	9
693.688	6
694.443	8
695.198	6
695.953	6
696.708	8
697.462	9
698.217	5
698.972	7
699.726	9
700.48	7
701.235	9
701.989	7
702.743	7
703.497	6
704.251	9
705.005	10
705.759	8
706.513	8
707.266	7
708.02	7
708.774	7
709.527	9
710.28	6
711.034	6
711.787	8
712.54	8
713.293	7
714.046	7
714.799	7
715.552	6
716.305	7
717.058	8
717.81	9
718.563	7
719.315	9
720.068	8
720.82	8
721.573	8
722.325	8
723.077	9
723.829	5
724.581	10
725.333	8
726.085	7
726.836	9
727.588	7
728.34	8
729.091	8
729.843	9
730.594	9
731.346	7
732.097	11
732.848	7
733.599	7
734.35	7
735.101	10
735.852	11
736.603	8
737.354	9
738.104	8
738.855	11
739.605	9
740.356	10
741.106	11
741.856	6
742.607	10
743.357	10
744.107	12
744.857	8
745.607	9
746.357	10
747.106	10
747.856	10
748.606	8
749.355	11
750.105	11
750.854	11
751.603	11
752.353	11
753.102	12
753.851	11
754.6	11
755.349	11
756.098	12
756.847	11
757.595	13
758.344	10
759.093	12
759.841	14
760.589	13
761.338	11
762.086	13
762.834	12
763.582	12
764.331	11
765.079	12
765.826	16
766.574	15
767.322	13
768.07	11
768.817	12
769.565	12
770.312	11
771.06	13
771.807	10
772.554	14
773.302	13
774.049	13
774.796	17
775.543	14
776.29	13
777.036	14
777.783	17
778.53	14
779.276	15
780.023	14
780.769	15
781.516	17
782.262	15
783.008	17
783.754	17
784.5	13
785.246	15
785.992	17
786.738	18
787.484	13
788.23	14
788.975	16
789.721	13
790.466	16
791.212	17
791.957	16
792.702	14
793.447	14
794.193	14
794.938	13
795.683	13
796.427	15
797.172	11
797.917	15
798.662	13
799.406	14
800.151	13
800.895	13
801.64	11
802.384	11
803.128	12
803.872	11
804.616	13
805.36	11
806.104	10
806.848	10
807.592	10
808.336	8
809.079	10
809.823	7
810.566	11
811.31	11
812.053	10
812.796	8
813.539	10
814.283	8
815.026	9
815.769	8
816.511	5
817.254	8
817.997	7
818.74	9
819.482	9
820.225	6
820.967	9
821.71	6
822.452	9
823.194	7
823.936	5
824.678	8
825.42	6
826.162	9
826.904	6
827.646	8
828.388	6
829.129	6
829.871	5
830.612	5
831.354	7
832.095	8
832.836	7
833.577	8
834.319	3
835.06	7
835.801	6
836.542	7
837.282	9
838.023	7
838.764	5
839.504	6
840.245	7
840.985	7
841.726	6
842.466	6
843.206	4
843.946	7
844.687	5
845.427	6
846.166	4
846.906	5
847.646	3
848.386	5
849.125	4
849.865	6
850.605	3
851.344	5
852.083	3
852.823	4
853.562	4
854.301	4
855.04	3
855.779	4
856.518	5
857.257	3
857.995	5
858.734	3
859.473	5
860.211	5
860.95	2
861.688	5
862.426	1
863.165	3
863.903	3
864.641	5
865.379	1
866.117	4
866.855	5
867.593	3
868.33	0
869.068	2
869.806	2
870.543	2
871.28	2
872.018	4
872.755	3
873.492	4
874.229	2
874.967	5
875.703	2
876.44	2
877.177	3
877.914	1
878.651	3
879.387	1
880.124	3
880.86	0
881.597	2
882.333	1
883.069	2
883.806	2
884.542	3
885.278	0
886.014	1
886.749	3
887.485	1
888.221	3
888.957	4
889.692	0
890.428	1
891.163	2
891.899	2
892.634	2
893.369	3
894.104	2
894.839	2
895.574	0
896.309	3
897.044	2
897.779	-1
898.514	2
899.248	2
899.983	2
900.717	1
901.452	2
902.186	1
902.92	3
903.654	4
904.389	0
905.123	-1
905.857	0
906.59	1
907.324	1
908.058	1
908.792	-1
909.525	2
910.259	1
910.992	1
911.726	2
912.459	2
913.192	1
913.925	3
914.658	2
915.391	-1
916.124	-1
916.857	1
917.59	0
918.323	1
919.055	1
919.788	1
920.521	-1
921.253	3
921.985	1
922.718	2
923.45	3
924.182	-1
924.914	0
925.646	0
926.378	3
927.11	-1
927.841	3
928.573	1
929.305	-1
930.036	0
930.768	-2
931.499	0
932.23	1
932.962	-2
933.693	2
934.424	2
935.155	1
935.886	0
936.617	1
937.348	-1
938.078	-1
938.809	1
939.54	-2
940.27	1
941.001	1
941.731	0
942.461	0
943.191	-1
943.922	1
944.652	-2
945.382	0
946.112	2
946.841	-2
947.571	-1
948.301	-1
949.031	0
949.76	-1
950.49	2
951.219	1
951.948	0
952.678	1
953.407	0
954.136	2
954.865	-1
955.594	0
956.323	0
957.052	0
957.78	-1
958.509	0
959.238	2
959.966	0
960.695	1
961.423	1
962.151	-1
962.88	1
963.608	0
964.336	-1
965.064	1
965.792	1
966.52	1
967.247	-1
967.975	1
968.703	-1
969.43	3
970.158	2
970.885	-3
971.613	0
972.34	2
973.067	-1
973.794	2
974.521	-2
975.248	2
975.975	-1
976.702	2
977.429	-1
978.156	0
978.882	0
979.609	1
980.335	1
981.062	-2
981.788	2
982.514	-3
983.24	1
983.967	1
984.693	-1
985.419	1
986.144	1
986.87	0
987.596	1
988.322	-1
989.047	-1
989.773	-1
990.498	2
991.224	-1
991.949	-1
992.674	0
993.399	-2
994.124	1
994.849	1
995.574	3
996.299	1
997.024	-2
997.749	1
998.473	1
999.198	4
999.922	-1
1000.647	0
1001.371	5
1002.095	-2
1002.82	0
1003.544	-1
1004.268	5
1004.992	4
1005.716	3
1006.439	4
1007.163	5
1007.887	6
1008.611	0
1009.334	0
1010.058	-1
1010.781	-1
1011.504	1
1012.228	1
1012.951	-2
1013.674	-1
1014.397	0
1015.12	1
