节点500_705_QEPB04081__389__20-51-28-602.txt的数据

Date: Wed Nov 12 20:51:28 CST 2025
User: PC
Spectrometer: QEPB0408
触发模式: 0
积分时间 (秒): 1.000000E-2
Scans to average: 1
启用暗噪声校正: true
启用非线性校正: false
滑动平均宽度: 0
X轴模式: Wavelengths
Number of Pixels in Spectrum: 1044
>>>>>Begin Spectral Data<<<<<
220.843	5.25
221.644	4.25
222.444	6.25
223.244	5.25
224.045	8.25
224.845	6.25
225.645	5.25
226.445	8.25
227.245	7.25
228.045	6.25
228.845	6.25
229.645	6.25
230.444	8.25
231.244	7.25
232.043	9.25
232.843	7.25
233.642	7.25
234.442	10.25
235.241	10.25
236.04	9.25
236.839	9.25
237.638	12.25
238.437	11.25
239.236	9.25
240.035	11.25
240.833	10.25
241.632	10.25
242.43	10.25
243.229	13.25
244.027	10.25
244.826	9.25
245.624	14.25
246.422	11.25
247.22	12.25
248.018	15.25
248.816	15.25
249.614	14.25
250.412	14.25
251.21	15.25
252.007	15.25
252.805	17.25
253.602	17.25
254.4	17.25
255.197	20.25
255.994	16.25
256.791	19.25
257.589	19.25
258.386	19.25
259.183	18.25
259.979	21.25
260.776	19.25
261.573	23.25
262.37	26.25
263.166	25.25
263.963	22.25
264.759	21.25
265.556	26.25
266.352	27.25
267.148	25.25
267.944	27.25
268.74	25.25
269.536	26.25
270.332	31.25
271.128	29.25
271.924	29.25
272.719	28.25
273.515	29.25
274.311	32.25
275.106	28.25
275.901	32.25
276.697	35.25
277.492	34.25
278.287	34.25
279.082	34.25
279.877	34.25
280.672	34.25
281.467	32.25
282.262	30.25
283.056	34.25
283.851	33.25
284.646	29.25
285.44	33.25
286.234	34.25
287.029	31.25
287.823	34.25
288.617	30.25
289.411	31.25
290.205	32.25
290.999	31.25
291.793	29.25
292.587	32.25
293.381	31.25
294.174	26.25
294.968	25.25
295.761	27.25
296.555	26.25
297.348	26.25
298.141	28.25
298.935	32.25
299.728	24.25
300.521	25.25
301.314	26.25
302.107	24.25
302.899	22.25
303.692	21.25
304.485	22.25
305.277	22.25
306.07	21.25
306.862	21.25
307.655	21.25
308.447	22.25
309.239	21.25
310.031	21.25
310.823	19.25
311.615	19.25
312.407	19.25
313.199	16.25
313.991	16.25
314.783	17.25
315.574	16.25
316.366	14.25
317.157	15.25
317.949	14.25
318.74	12.25
319.531	14.25
320.322	16.25
321.113	12.25
321.904	12.25
322.695	13.25
323.486	13.25
324.277	14.25
325.068	13.25
325.858	14.25
326.649	14.25
327.439	14.25
328.23	11.25
329.02	11.25
329.81	8.25
330.6	12.25
331.391	13.25
332.181	11.25
332.971	12.25
333.76	10.25
334.55	9.25
335.34	12.25
336.13	12.25
336.919	10.25
337.709	9.25
338.498	15.25
339.287	11.25
340.077	12.25
340.866	10.25
341.655	10.25
342.444	10.25
343.233	11.25
344.022	13.25
344.811	11.25
345.6	11.25
346.388	10.25
347.177	10.25
347.965	9.25
348.754	6.25
349.542	11.25
350.33	10.25
351.119	10.25
351.907	8.25
352.695	8.25
353.483	10.25
354.271	11.25
355.059	8.25
355.846	11.25
356.634	9.25
357.422	10.25
358.209	10.25
358.997	12.25
359.784	10.25
360.571	11.25
361.359	9.25
362.146	9.25
362.933	12.25
363.72	8.25
364.507	8.25
365.294	9.25
366.081	8.25
366.867	12.25
367.654	10.25
368.44	8.25
369.227	9.25
370.013	7.25
370.8	10.25
371.586	8.25
372.372	10.25
373.158	10.25
373.944	12.25
374.73	10.25
375.516	10.25
376.302	10.25
377.088	9.25
377.873	10.25
378.659	10.25
379.445	7.25
380.23	11.25
381.015	8.25
381.801	11.25
382.586	10.25
383.371	8.25
384.156	12.25
384.941	10.25
385.726	12.25
386.511	9.25
387.296	10.25
388.08	11.25
388.865	10.25
389.649	9.25
390.434	10.25
391.218	11.25
392.003	11.25
392.787	9.25
393.571	11.25
394.355	10.25
395.139	11.25
395.923	11.25
396.707	11.25
397.491	13.25
398.274	13.25
399.058	13.25
399.842	14.25
400.625	13.25
401.408	12.25
402.192	12.25
402.975	14.25
403.758	14.25
404.541	14.25
405.324	13.25
406.107	16.25
406.89	16.25
407.673	16.25
408.456	13.25
409.238	14.25
410.021	16.25
410.803	16.25
411.586	17.25
412.368	17.25
413.151	14.25
413.933	18.25
414.715	15.25
415.497	18.25
416.279	16.25
417.061	19.25
417.843	15.25
418.624	22.25
419.406	20.25
420.188	20.25
420.969	21.25
421.751	19.25
422.532	19.25
423.313	21.25
424.095	23.25
424.876	26.25
425.657	21.25
426.438	26.25
427.219	25.25
428	27.25
428.78	28.25
429.561	29.25
430.342	30.25
431.122	30.25
431.903	30.25
432.683	35.25
433.464	37.25
434.244	35.25
435.024	36.25
435.804	41.25
436.584	41.25
437.364	46.25
438.144	44.25
438.924	51.25
439.704	54.25
440.483	55.25
441.263	57.25
442.042	62.25
442.822	70.25
443.601	74.25
444.38	78.25
445.16	89.25
445.939	97.25
446.718	107.25
447.497	114.25
448.276	122.25
449.054	135.25
449.833	149.25
450.612	165.25
451.391	185.25
452.169	202.25
452.948	222.25
453.726	243.25
454.504	277.25
455.282	300.25
456.061	334.25
456.839	372.25
457.617	413.25
458.395	457.25
459.172	521.25
459.95	579.25
460.728	654.25
461.506	718.25
462.283	810.25
463.061	886.25
463.838	996.25
464.615	1111.25
465.393	1224.25
466.17	1374.25
466.947	1514.25
467.724	1685.25
468.501	1863.25
469.278	2057.25
470.055	2263.25
470.831	2489.25
471.608	2769.25
472.385	3048.25
473.161	3355.25
473.938	3686.25
474.714	4050.25
475.49	4413.25
476.266	4836.25
477.043	5304.25
477.819	5802.25
478.595	6354.25
479.371	6925.25
480.146	7486.25
480.922	8207.25
481.698	8969.25
482.473	9665.25
483.249	10517.25
484.024	11431.25
484.8	12376.25
485.575	13322.25
486.35	14513.25
487.126	15682.25
487.901	16933.25
488.676	18292.25
489.451	19629.25
490.225	21185.25
491	22660.25
491.775	24219.25
492.55	25893.25
493.324	27573.25
494.099	29347.25
494.873	31120.25
495.647	32730.25
496.422	34531.25
497.196	36226.25
497.97	37925.25
498.744	39376.25
499.518	41000.25
500.292	42414.25
501.066	43465.25
501.839	44347.25
502.613	45296.25
503.387	45876.25
504.16	46326.25
504.934	46504.25
505.707	46569.25
506.48	46231.25
507.253	45842.25
508.027	45264.25
508.8	44455.25
509.573	43466.25
510.346	42473.25
511.118	41423.25
511.891	40277.25
512.664	38790.25
513.437	37377.25
514.209	35993.25
514.982	34665.25
515.754	33260.25
516.526	31951.25
517.298	30724.25
518.071	29470.25
518.843	28360.25
519.615	27145.25
520.387	26150.25
521.159	25077.25
521.93	24017.25
522.702	23041.25
523.474	22042.25
524.245	21140.25
525.017	20251.25
525.788	19378.25
526.56	18581.25
527.331	17748.25
528.102	16837.25
528.873	16016.25
529.644	15277.25
530.415	14601.25
531.186	13873.25
531.957	13171.25
532.728	12470.25
533.498	11844.25
534.269	11252.25
535.039	10594.25
535.81	10069.25
536.58	9492.25
537.351	9028.25
538.121	8545.25
538.891	8100.25
539.661	7633.25
540.431	7210.25
541.201	6828.25
541.971	6511.25
542.741	6146.25
543.51	5851.25
544.28	5551.25
545.05	5305.25
545.819	5062.25
546.588	4817.25
547.358	4575.25
548.127	4366.25
548.896	4132.25
549.665	3914.25
550.434	3702.25
551.203	3557.25
551.972	3364.25
552.741	3173.25
553.51	3002.25
554.278	2835.25
555.047	2673.25
555.815	2537.25
556.584	2394.25
557.352	2237.25
558.121	2135.25
558.889	1998.25
559.657	1896.25
560.425	1796.25
561.193	1702.25
561.961	1618.25
562.729	1514.25
563.496	1442.25
564.264	1364.25
565.032	1292.25
565.799	1225.25
566.567	1150.25
567.334	1102.25
568.101	1020.25
568.869	965.25
569.636	927.25
570.403	857.25
571.17	815.25
571.937	777.25
572.704	729.25
573.471	689.25
574.237	647.25
575.004	616.25
575.771	572.25
576.537	548.25
577.303	523.25
578.07	486.25
578.836	455.25
579.602	438.25
580.368	411.25
581.134	400.25
581.9	370.25
582.666	353.25
583.432	342.25
584.198	323.25
584.964	301.25
585.729	289.25
586.495	274.25
587.26	253.25
588.025	243.25
588.791	229.25
589.556	221.25
590.321	206.25
591.086	202.25
591.851	195.25
592.616	173.25
593.381	175.25
594.146	164.25
594.911	160.25
595.675	150.25
596.44	143.25
597.204	134.25
597.969	130.25
598.733	122.25
599.497	117.25
600.261	113.25
601.025	110.25
601.79	100.25
602.553	99.25
603.317	94.25
604.081	93.25
604.845	90.25
605.609	85.25
606.372	80.25
607.136	77.25
607.899	77.25
608.662	75.25
609.426	72.25
610.189	72.25
610.952	65.25
611.715	61.25
612.478	59.25
613.241	61.25
614.004	57.25
614.767	49.25
615.529	52.25
616.292	50.25
617.055	46.25
617.817	46.25
618.579	47.25
619.342	46.25
620.104	45.25
620.866	41.25
621.628	37.25
622.39	41.25
623.152	37.25
623.914	34.25
624.676	35.25
625.438	34.25
626.199	31.25
626.961	33.25
627.722	29.25
628.484	29.25
629.245	31.25
630.006	28.25
630.768	26.25
631.529	25.25
632.29	25.25
633.051	25.25
633.812	25.25
634.573	22.25
635.333	25.25
636.094	23.25
636.855	22.25
637.615	21.25
638.376	19.25
639.136	17.25
639.896	21.25
640.657	19.25
641.417	20.25
642.177	19.25
642.937	19.25
643.697	17.25
644.457	18.25
645.216	17.25
645.976	14.25
646.736	18.25
647.495	16.25
648.255	15.25
649.014	14.25
649.774	15.25
650.533	13.25
651.292	13.25
652.051	14.25
652.81	13.25
653.569	13.25
654.328	13.25
655.087	13.25
655.846	13.25
656.604	10.25
657.363	14.25
658.121	11.25
658.88	9.25
659.638	10.25
660.397	10.25
661.155	11.25
661.913	9.25
662.671	10.25
663.429	8.25
664.187	10.25
664.945	10.25
665.703	8.25
666.46	10.25
667.218	8.25
667.976	11.25
668.733	6.25
669.49	10.25
670.248	10.25
671.005	10.25
671.762	9.25
672.519	8.25
673.276	9.25
674.033	9.25
674.79	9.25
675.547	4.25
676.304	10.25
677.06	8.25
677.817	7.25
678.574	6.25
679.33	10.25
680.086	7.25
680.843	9.25
681.599	8.25
682.355	6.25
683.111	7.25
683.867	8.25
684.623	7.25
685.379	5.25
686.135	7.25
686.89	8.25
687.646	8.25
688.402	8.25
689.157	7.25
689.912	8.25
690.668	9.25
691.423	4.25
692.178	6.25
692.933	8.25
693.688	6.25
694.443	6.25
695.198	6.25
695.953	7.25
696.708	5.25
697.462	6.25
698.217	6.25
698.972	6.25
699.726	6.25
700.48	6.25
701.235	7.25
701.989	6.25
702.743	9.25
703.497	7.25
704.251	7.25
705.005	6.25
705.759	8.25
706.513	7.25
707.266	6.25
708.02	7.25
708.774	4.25
709.527	7.25
710.28	9.25
711.034	7.25
711.787	8.25
712.54	7.25
713.293	8.25
714.046	7.25
714.799	7.25
715.552	9.25
716.305	6.25
717.058	6.25
717.81	4.25
718.563	8.25
719.315	8.25
720.068	7.25
720.82	9.25
721.573	8.25
722.325	8.25
723.077	6.25
723.829	7.25
724.581	7.25
725.333	7.25
726.085	7.25
726.836	5.25
727.588	7.25
728.34	6.25
729.091	8.25
729.843	6.25
730.594	8.25
731.346	8.25
732.097	7.25
732.848	11.25
733.599	8.25
734.35	8.25
735.101	8.25
735.852	9.25
736.603	9.25
737.354	11.25
738.104	9.25
738.855	11.25
739.605	8.25
740.356	12.25
741.106	10.25
741.856	10.25
742.607	11.25
743.357	10.25
744.107	11.25
744.857	7.25
745.607	10.25
746.357	9.25
747.106	12.25
747.856	10.25
748.606	10.25
749.355	11.25
750.105	10.25
750.854	11.25
751.603	7.25
752.353	10.25
753.102	12.25
753.851	12.25
754.6	14.25
755.349	11.25
756.098	13.25
756.847	11.25
757.595	9.25
758.344	12.25
759.093	11.25
759.841	12.25
760.589	10.25
761.338	11.25
762.086	11.25
762.834	10.25
763.582	13.25
764.331	15.25
765.079	14.25
765.826	13.25
766.574	12.25
767.322	14.25
768.07	15.25
768.817	15.25
769.565	12.25
770.312	11.25
771.06	13.25
771.807	14.25
772.554	14.25
773.302	14.25
774.049	14.25
774.796	14.25
775.543	13.25
776.29	15.25
777.036	14.25
777.783	15.25
778.53	14.25
779.276	15.25
780.023	14.25
780.769	14.25
781.516	14.25
782.262	12.25
783.008	16.25
783.754	14.25
784.5	14.25
785.246	17.25
785.992	12.25
786.738	16.25
787.484	13.25
788.23	16.25
788.975	11.25
789.721	15.25
790.466	15.25
791.212	10.25
791.957	14.25
792.702	11.25
793.447	15.25
794.193	14.25
794.938	12.25
795.683	14.25
796.427	14.25
797.172	10.25
797.917	12.25
798.662	10.25
799.406	10.25
800.151	11.25
800.895	11.25
801.64	10.25
802.384	11.25
803.128	10.25
803.872	12.25
804.616	9.25
805.36	9.25
806.104	12.25
806.848	10.25
807.592	9.25
808.336	9.25
809.079	9.25
809.823	8.25
810.566	8.25
811.31	8.25
812.053	9.25
812.796	11.25
813.539	11.25
814.283	9.25
815.026	8.25
815.769	9.25
816.511	9.25
817.254	8.25
817.997	8.25
818.74	6.25
819.482	9.25
820.225	5.25
820.967	7.25
821.71	9.25
822.452	5.25
823.194	8.25
823.936	8.25
824.678	3.25
825.42	8.25
826.162	7.25
826.904	7.25
827.646	5.25
828.388	7.25
829.129	7.25
829.871	6.25
830.612	7.25
831.354	7.25
832.095	5.25
832.836	7.25
833.577	6.25
834.319	6.25
835.06	6.25
835.801	4.25
836.542	6.25
837.282	4.25
838.023	2.25
838.764	7.25
839.504	5.25
840.245	4.25
840.985	6.25
841.726	4.25
842.466	7.25
843.206	4.25
843.946	6.25
844.687	5.25
845.427	2.25
846.166	4.25
846.906	2.25
847.646	3.25
848.386	4.25
849.125	7.25
849.865	7.25
850.605	6.25
851.344	3.25
852.083	6.25
852.823	2.25
853.562	4.25
854.301	6.25
855.04	1.25
855.779	2.25
856.518	1.25
857.257	5.25
857.995	2.25
858.734	5.25
859.473	4.25
860.211	2.25
860.95	5.25
861.688	2.25
862.426	6.25
863.165	3.25
863.903	1.25
864.641	2.25
865.379	0.25
866.117	6.25
866.855	3.25
867.593	2.25
868.33	3.25
869.068	1.25
869.806	2.25
870.543	1.25
871.28	1.25
872.018	3.25
872.755	1.25
873.492	0.25
874.229	1.25
874.967	0.25
875.703	1.25
876.44	0.25
877.177	1.25
877.914	1.25
878.651	0.25
879.387	-0.75
880.124	-0.75
880.86	2.25
881.597	2.25
882.333	0.25
883.069	0.25
883.806	0.25
884.542	0.25
885.278	2.25
886.014	2.25
886.749	1.25
887.485	1.25
888.221	0.25
888.957	1.25
889.692	0.25
890.428	1.25
891.163	0.25
891.899	1.25
892.634	-0.75
893.369	0.25
894.104	-1.75
894.839	2.25
895.574	-0.75
896.309	0.25
897.044	0.25
897.779	3.25
898.514	-0.75
899.248	0.25
899.983	-0.75
900.717	0.25
901.452	2.25
902.186	1.25
902.92	-1.75
903.654	-0.75
904.389	0.25
905.123	1.25
905.857	0.25
906.59	0.25
907.324	1.25
908.058	0.25
908.792	-0.75
909.525	1.25
910.259	2.25
910.992	2.25
911.726	1.25
912.459	0.25
913.192	0.25
913.925	2.25
914.658	0.25
915.391	-1.75
916.124	-1.75
916.857	1.25
917.59	-1.75
918.323	0.25
919.055	-1.75
919.788	0.25
920.521	1.25
921.253	0.25
921.985	1.25
922.718	0.25
923.45	0.25
924.182	0.25
924.914	-0.75
925.646	0.25
926.378	0.25
927.11	0.25
927.841	-1.75
928.573	-1.75
929.305	0.25
930.036	1.25
930.768	-0.75
931.499	1.25
932.23	-1.75
932.962	2.25
933.693	-1.75
934.424	1.25
935.155	0.25
935.886	-0.75
936.617	-1.75
937.348	0.25
938.078	1.25
938.809	-1.75
939.54	-2.75
940.27	-0.75
941.001	-1.75
941.731	-0.75
942.461	-1.75
943.191	2.25
943.922	2.25
944.652	-0.75
945.382	-0.75
946.112	3.25
946.841	2.25
947.571	0.25
948.301	-0.75
949.031	1.25
949.76	0.25
950.49	-0.75
951.219	1.25
951.948	1.25
952.678	1.25
953.407	0.25
954.136	0.25
954.865	0.25
955.594	0.25
956.323	0.25
957.052	0.25
957.78	-1.75
958.509	-1.75
959.238	-2.75
959.966	-0.75
960.695	2.25
961.423	-0.75
962.151	-1.75
962.88	-0.75
963.608	0.25
964.336	1.25
965.064	-1.75
965.792	-0.75
966.52	-2.75
967.247	-0.75
967.975	0.25
968.703	0.25
969.43	1.25
970.158	-2.75
970.885	1.25
971.613	3.25
972.34	0.25
973.067	0.25
973.794	-1.75
974.521	-0.75
975.248	-1.75
975.975	0.25
976.702	-1.75
977.429	-1.75
978.156	0.25
978.882	-1.75
979.609	0.25
980.335	1.25
981.062	1.25
981.788	0.25
982.514	-1.75
983.24	1.25
983.967	-0.75
984.693	0.25
985.419	0.25
986.144	2.25
986.87	1.25
987.596	-1.75
988.322	-1.75
989.047	1.25
989.773	0.25
990.498	0.25
991.224	-0.75
991.949	-1.75
992.674	0.25
993.399	-0.75
994.124	-0.75
994.849	2.25
995.574	-1.75
996.299	1.25
997.024	0.25
997.749	1.25
998.473	1.25
999.198	1.25
999.922	-0.75
1000.647	-0.75
1001.371	3.25
1002.095	0.25
1002.82	-0.75
1003.544	-1.75
1004.268	4.25
1004.992	5.25
1005.716	5.25
1006.439	4.25
1007.163	6.25
1007.887	3.25
1008.611	1.25
1009.334	0.25
1010.058	0.25
1010.781	1.25
1011.504	-0.75
1012.228	-0.75
1012.951	1.25
1013.674	0.25
1014.397	-2.75
1015.12	0.25
