节点500_705_QEPB04081__161__20-48-32-046.txt的数据

Date: Wed Nov 12 20:48:32 CST 2025
User: PC
Spectrometer: QEPB0408
触发模式: 0
积分时间 (秒): 1.000000E-2
Scans to average: 1
启用暗噪声校正: true
启用非线性校正: false
滑动平均宽度: 0
X轴模式: Wavelengths
Number of Pixels in Spectrum: 1044
>>>>>Begin Spectral Data<<<<<
220.843	6.62
221.644	6.62
222.444	6.62
223.244	6.62
224.045	6.62
224.845	6.62
225.645	7.62
226.445	7.62
227.245	9.62
228.045	8.62
228.845	11.62
229.645	9.62
230.444	8.62
231.244	10.62
232.043	7.62
232.843	11.62
233.642	8.62
234.442	11.62
235.241	10.62
236.04	11.62
236.839	11.62
237.638	9.62
238.437	13.62
239.236	11.62
240.035	11.62
240.833	14.62
241.632	10.62
242.43	12.62
243.229	10.62
244.027	12.62
244.826	17.62
245.624	14.62
246.422	15.62
247.22	14.62
248.018	17.62
248.816	16.62
249.614	15.62
250.412	16.62
251.21	17.62
252.007	15.62
252.805	19.62
253.602	19.62
254.4	18.62
255.197	19.62
255.994	20.62
256.791	18.62
257.589	23.62
258.386	23.62
259.183	24.62
259.979	26.62
260.776	22.62
261.573	24.62
262.37	23.62
263.166	30.62
263.963	28.62
264.759	27.62
265.556	26.62
266.352	28.62
267.148	29.62
267.944	30.62
268.74	29.62
269.536	32.62
270.332	34.62
271.128	32.62
271.924	34.62
272.719	34.62
273.515	31.62
274.311	34.62
275.106	34.62
275.901	33.62
276.697	36.62
277.492	36.62
278.287	40.62
279.082	34.62
279.877	38.62
280.672	34.62
281.467	37.62
282.262	34.62
283.056	34.62
283.851	33.62
284.646	31.62
285.44	33.62
286.234	36.62
287.029	33.62
287.823	34.62
288.617	33.62
289.411	31.62
290.205	35.62
290.999	35.62
291.793	30.62
292.587	32.62
293.381	33.62
294.174	29.62
294.968	31.62
295.761	28.62
296.555	27.62
297.348	24.62
298.141	26.62
298.935	29.62
299.728	24.62
300.521	25.62
301.314	24.62
302.107	22.62
302.899	21.62
303.692	22.62
304.485	22.62
305.277	22.62
306.07	23.62
306.862	21.62
307.655	23.62
308.447	20.62
309.239	22.62
310.031	22.62
310.823	16.62
311.615	17.62
312.407	19.62
313.199	18.62
313.991	16.62
314.783	16.62
315.574	17.62
316.366	16.62
317.157	14.62
317.949	15.62
318.74	16.62
319.531	16.62
320.322	14.62
321.113	14.62
321.904	12.62
322.695	12.62
323.486	14.62
324.277	9.62
325.068	13.62
325.858	14.62
326.649	12.62
327.439	11.62
328.23	13.62
329.02	13.62
329.81	14.62
330.6	9.62
331.391	11.62
332.181	9.62
332.971	12.62
333.76	11.62
334.55	13.62
335.34	13.62
336.13	10.62
336.919	11.62
337.709	13.62
338.498	12.62
339.287	12.62
340.077	11.62
340.866	12.62
341.655	13.62
342.444	11.62
343.233	13.62
344.022	11.62
344.811	13.62
345.6	9.62
346.388	12.62
347.177	11.62
347.965	10.62
348.754	11.62
349.542	12.62
350.33	11.62
351.119	11.62
351.907	12.62
352.695	11.62
353.483	10.62
354.271	12.62
355.059	12.62
355.846	12.62
356.634	11.62
357.422	11.62
358.209	13.62
358.997	8.62
359.784	10.62
360.571	10.62
361.359	11.62
362.146	10.62
362.933	9.62
363.72	12.62
364.507	9.62
365.294	13.62
366.081	7.62
366.867	10.62
367.654	9.62
368.44	8.62
369.227	10.62
370.013	10.62
370.8	9.62
371.586	9.62
372.372	9.62
373.158	11.62
373.944	8.62
374.73	12.62
375.516	9.62
376.302	11.62
377.088	9.62
377.873	10.62
378.659	12.62
379.445	11.62
380.23	8.62
381.015	9.62
381.801	8.62
382.586	13.62
383.371	8.62
384.156	12.62
384.941	10.62
385.726	9.62
386.511	13.62
387.296	9.62
388.08	11.62
388.865	11.62
389.649	11.62
390.434	11.62
391.218	9.62
392.003	13.62
392.787	9.62
393.571	13.62
394.355	11.62
395.139	13.62
395.923	12.62
396.707	11.62
397.491	13.62
398.274	12.62
399.058	15.62
399.842	12.62
400.625	13.62
401.408	13.62
402.192	14.62
402.975	11.62
403.758	12.62
404.541	18.62
405.324	14.62
406.107	15.62
406.89	13.62
407.673	15.62
408.456	15.62
409.238	16.62
410.021	16.62
410.803	18.62
411.586	17.62
412.368	18.62
413.151	18.62
413.933	21.62
414.715	16.62
415.497	18.62
416.279	20.62
417.061	18.62
417.843	19.62
418.624	23.62
419.406	20.62
420.188	19.62
420.969	20.62
421.751	25.62
422.532	21.62
423.313	22.62
424.095	25.62
424.876	26.62
425.657	25.62
426.438	24.62
427.219	23.62
428	29.62
428.78	28.62
429.561	26.62
430.342	30.62
431.122	34.62
431.903	33.62
432.683	34.62
433.464	35.62
434.244	36.62
435.024	39.62
435.804	42.62
436.584	40.62
437.364	47.62
438.144	46.62
438.924	52.62
439.704	56.62
440.483	55.62
441.263	61.62
442.042	65.62
442.822	67.62
443.601	74.62
444.38	78.62
445.16	83.62
445.939	96.62
446.718	97.62
447.497	105.62
448.276	116.62
449.054	126.62
449.833	139.62
450.612	158.62
451.391	165.62
452.169	181.62
452.948	205.62
453.726	227.62
454.504	249.62
455.282	287.62
456.061	313.62
456.839	349.62
457.617	389.62
458.395	428.62
459.172	486.62
459.95	548.62
460.728	613.62
461.506	681.62
462.283	758.62
463.061	852.62
463.838	940.62
464.615	1054.62
465.393	1165.62
466.17	1313.62
466.947	1469.62
467.724	1631.62
468.501	1817.62
469.278	2003.62
470.055	2221.62
470.831	2477.62
471.608	2741.62
472.385	3031.62
473.161	3324.62
473.938	3678.62
474.714	4059.62
475.49	4468.62
476.266	4888.62
477.043	5381.62
477.819	5907.62
478.595	6471.62
479.371	7107.62
480.146	7775.62
480.922	8517.62
481.698	9281.62
482.473	10164.62
483.249	11054.62
484.024	12034.62
484.8	13080.62
485.575	14272.62
486.35	15468.62
487.126	16765.62
487.901	18172.62
488.676	19692.62
489.451	21279.62
490.225	22946.62
491	24604.62
491.775	26339.62
492.55	28230.62
493.324	30016.62
494.099	31933.62
494.873	33818.62
495.647	35679.62
496.422	37658.62
497.196	39404.62
497.97	41118.62
498.744	42599.62
499.518	44145.62
500.292	45492.62
501.066	46457.62
501.839	47292.62
502.613	47974.62
503.387	48458.62
504.16	48758.62
504.934	48656.62
505.707	48477.62
506.48	47895.62
507.253	47183.62
508.027	46242.62
508.8	45128.62
509.573	43945.62
510.346	42769.62
511.118	41509.62
511.891	40145.62
512.664	38489.62
513.437	36971.62
514.209	35540.62
514.982	34060.62
515.754	32676.62
516.526	31307.62
517.298	29985.62
518.071	28792.62
518.843	27589.62
519.615	26553.62
520.387	25554.62
521.159	24500.62
521.93	23410.62
522.702	22480.62
523.474	21514.62
524.245	20570.62
525.017	19622.62
525.788	18737.62
526.56	17942.62
527.331	17166.62
528.102	16270.62
528.873	15418.62
529.644	14663.62
530.415	13986.62
531.186	13288.62
531.957	12556.62
532.728	11865.62
533.498	11258.62
534.269	10617.62
535.039	10076.62
535.81	9535.62
536.58	8972.62
537.351	8508.62
538.121	8079.62
538.891	7591.62
539.661	7214.62
540.431	6836.62
541.201	6498.62
541.971	6134.62
542.741	5793.62
543.51	5542.62
544.28	5274.62
545.05	5025.62
545.819	4757.62
546.588	4516.62
547.358	4326.62
548.127	4101.62
548.896	3921.62
549.665	3707.62
550.434	3487.62
551.203	3315.62
551.972	3148.62
552.741	2986.62
553.51	2809.62
554.278	2636.62
555.047	2499.62
555.815	2346.62
556.584	2250.62
557.352	2091.62
558.121	1985.62
558.889	1867.62
559.657	1776.62
560.425	1690.62
561.193	1600.62
561.961	1514.62
562.729	1427.62
563.496	1358.62
564.264	1273.62
565.032	1200.62
565.799	1138.62
566.567	1076.62
567.334	1016.62
568.101	981.62
568.869	905.62
569.636	857.62
570.403	808.62
571.17	764.62
571.937	718.62
572.704	684.62
573.471	639.62
574.237	593.62
575.004	578.62
575.771	531.62
576.537	511.62
577.303	477.62
578.07	455.62
578.836	436.62
579.602	403.62
580.368	391.62
581.134	367.62
581.9	355.62
582.666	330.62
583.432	314.62
584.198	299.62
584.964	282.62
585.729	272.62
586.495	258.62
587.26	242.62
588.025	229.62
588.791	216.62
589.556	206.62
590.321	200.62
591.086	189.62
591.851	175.62
592.616	173.62
593.381	160.62
594.146	151.62
594.911	149.62
595.675	139.62
596.44	133.62
597.204	128.62
597.969	118.62
598.733	119.62
599.497	107.62
600.261	110.62
601.025	105.62
601.79	98.62
602.553	94.62
603.317	93.62
604.081	87.62
604.845	83.62
605.609	76.62
606.372	79.62
607.136	71.62
607.899	75.62
608.662	70.62
609.426	67.62
610.189	62.62
610.952	64.62
611.715	61.62
612.478	57.62
613.241	58.62
614.004	51.62
614.767	52.62
615.529	47.62
616.292	50.62
617.055	48.62
617.817	45.62
618.579	46.62
619.342	44.62
620.104	44.62
620.866	38.62
621.628	38.62
622.39	36.62
623.152	38.62
623.914	35.62
624.676	35.62
625.438	32.62
626.199	32.62
626.961	31.62
627.722	27.62
628.484	29.62
629.245	28.62
630.006	25.62
630.768	28.62
631.529	26.62
632.29	25.62
633.051	30.62
633.812	23.62
634.573	24.62
635.333	22.62
636.094	22.62
636.855	24.62
637.615	23.62
638.376	22.62
639.136	19.62
639.896	19.62
640.657	18.62
641.417	19.62
642.177	16.62
642.937	19.62
643.697	17.62
644.457	15.62
645.216	18.62
645.976	16.62
646.736	17.62
647.495	18.62
648.255	15.62
649.014	15.62
649.774	13.62
650.533	14.62
651.292	12.62
652.051	14.62
652.81	13.62
653.569	13.62
654.328	15.62
655.087	11.62
655.846	13.62
656.604	13.62
657.363	12.62
658.121	12.62
658.88	11.62
659.638	12.62
660.397	10.62
661.155	10.62
661.913	13.62
662.671	10.62
663.429	11.62
664.187	12.62
664.945	11.62
665.703	10.62
666.46	9.62
667.218	11.62
667.976	10.62
668.733	10.62
669.49	7.62
670.248	11.62
671.005	9.62
671.762	13.62
672.519	11.62
673.276	8.62
674.033	11.62
674.79	9.62
675.547	10.62
676.304	9.62
677.06	7.62
677.817	8.62
678.574	7.62
679.33	8.62
680.086	8.62
680.843	10.62
681.599	8.62
682.355	8.62
683.111	11.62
683.867	8.62
684.623	8.62
685.379	8.62
686.135	7.62
686.89	7.62
687.646	6.62
688.402	7.62
689.157	9.62
689.912	7.62
690.668	7.62
691.423	8.62
692.178	7.62
692.933	7.62
693.688	11.62
694.443	7.62
695.198	9.62
695.953	9.62
696.708	6.62
697.462	7.62
698.217	8.62
698.972	7.62
699.726	7.62
700.48	7.62
701.235	8.62
701.989	7.62
702.743	8.62
703.497	7.62
704.251	7.62
705.005	8.62
705.759	9.62
706.513	8.62
707.266	7.62
708.02	8.62
708.774	6.62
709.527	10.62
710.28	7.62
711.034	7.62
711.787	9.62
712.54	9.62
713.293	6.62
714.046	9.62
714.799	6.62
715.552	6.62
716.305	8.62
717.058	9.62
717.81	8.62
718.563	8.62
719.315	10.62
720.068	8.62
720.82	8.62
721.573	7.62
722.325	9.62
723.077	6.62
723.829	9.62
724.581	8.62
725.333	9.62
726.085	9.62
726.836	7.62
727.588	8.62
728.34	10.62
729.091	9.62
729.843	9.62
730.594	6.62
731.346	9.62
732.097	9.62
732.848	9.62
733.599	10.62
734.35	9.62
735.101	10.62
735.852	5.62
736.603	10.62
737.354	11.62
738.104	10.62
738.855	11.62
739.605	9.62
740.356	11.62
741.106	11.62
741.856	11.62
742.607	11.62
743.357	9.62
744.107	11.62
744.857	12.62
745.607	12.62
746.357	11.62
747.106	10.62
747.856	11.62
748.606	9.62
749.355	9.62
750.105	11.62
750.854	11.62
751.603	12.62
752.353	11.62
753.102	10.62
753.851	14.62
754.6	12.62
755.349	13.62
756.098	12.62
756.847	14.62
757.595	12.62
758.344	13.62
759.093	12.62
759.841	14.62
760.589	13.62
761.338	11.62
762.086	15.62
762.834	13.62
763.582	13.62
764.331	13.62
765.079	12.62
765.826	14.62
766.574	14.62
767.322	13.62
768.07	17.62
768.817	17.62
769.565	17.62
770.312	13.62
771.06	18.62
771.807	15.62
772.554	15.62
773.302	17.62
774.049	16.62
774.796	17.62
775.543	13.62
776.29	17.62
777.036	15.62
777.783	18.62
778.53	17.62
779.276	17.62
780.023	18.62
780.769	13.62
781.516	17.62
782.262	16.62
783.008	15.62
783.754	15.62
784.5	16.62
785.246	18.62
785.992	17.62
786.738	15.62
787.484	17.62
788.23	15.62
788.975	17.62
789.721	15.62
790.466	17.62
791.212	14.62
791.957	16.62
792.702	17.62
793.447	13.62
794.193	17.62
794.938	15.62
795.683	15.62
796.427	15.62
797.172	15.62
797.917	11.62
798.662	16.62
799.406	14.62
800.151	12.62
800.895	12.62
801.64	13.62
802.384	10.62
803.128	14.62
803.872	12.62
804.616	11.62
805.36	11.62
806.104	11.62
806.848	10.62
807.592	13.62
808.336	10.62
809.079	9.62
809.823	10.62
810.566	11.62
811.31	9.62
812.053	11.62
812.796	7.62
813.539	8.62
814.283	10.62
815.026	7.62
815.769	8.62
816.511	7.62
817.254	9.62
817.997	7.62
818.74	8.62
819.482	8.62
820.225	7.62
820.967	6.62
821.71	8.62
822.452	8.62
823.194	6.62
823.936	8.62
824.678	8.62
825.42	7.62
826.162	6.62
826.904	8.62
827.646	7.62
828.388	6.62
829.129	6.62
829.871	7.62
830.612	7.62
831.354	9.62
832.095	6.62
832.836	5.62
833.577	6.62
834.319	7.62
835.06	8.62
835.801	4.62
836.542	6.62
837.282	4.62
838.023	5.62
838.764	6.62
839.504	5.62
840.245	7.62
840.985	6.62
841.726	5.62
842.466	5.62
843.206	6.62
843.946	3.62
844.687	3.62
845.427	6.62
846.166	8.62
846.906	4.62
847.646	5.62
848.386	5.62
849.125	5.62
849.865	6.62
850.605	2.62
851.344	6.62
852.083	5.62
852.823	4.62
853.562	3.62
854.301	5.62
855.04	4.62
855.779	4.62
856.518	4.62
857.257	5.62
857.995	3.62
858.734	6.62
859.473	3.62
860.211	2.62
860.95	3.62
861.688	4.62
862.426	1.62
863.165	5.62
863.903	2.62
864.641	3.62
865.379	3.62
866.117	5.62
866.855	4.62
867.593	2.62
868.33	4.62
869.068	2.62
869.806	1.62
870.543	2.62
871.28	2.62
872.018	1.62
872.755	5.62
873.492	2.62
874.229	2.62
874.967	-0.38
875.703	3.62
876.44	1.62
877.177	2.62
877.914	0.62
878.651	3.62
879.387	1.62
880.124	2.62
880.86	3.62
881.597	1.62
882.333	0.62
883.069	2.62
883.806	0.62
884.542	2.62
885.278	3.62
886.014	3.62
886.749	0.62
887.485	1.62
888.221	3.62
888.957	0.62
889.692	0.62
890.428	1.62
891.163	4.62
891.899	-1.38
892.634	1.62
893.369	1.62
894.104	4.62
894.839	0.62
895.574	-0.38
896.309	1.62
897.044	1.62
897.779	1.62
898.514	2.62
899.248	2.62
899.983	1.62
900.717	1.62
901.452	1.62
902.186	0.62
902.92	3.62
903.654	2.62
904.389	1.62
905.123	0.62
905.857	0.62
906.59	0.62
907.324	-0.38
908.058	1.62
908.792	0.62
909.525	1.62
910.259	0.62
910.992	0.62
911.726	-0.38
912.459	2.62
913.192	0.62
913.925	3.62
914.658	1.62
915.391	0.62
916.124	-0.38
916.857	-1.38
917.59	1.62
918.323	0.62
919.055	1.62
919.788	-0.38
920.521	1.62
921.253	1.62
921.985	0.62
922.718	0.62
923.45	0.62
924.182	0.62
924.914	-0.38
925.646	-0.38
926.378	0.62
927.11	-0.38
927.841	1.62
928.573	2.62
929.305	-0.38
930.036	1.62
930.768	-0.38
931.499	2.62
932.23	-0.38
932.962	0.62
933.693	0.62
934.424	0.62
935.155	2.62
935.886	1.62
936.617	0.62
937.348	0.62
938.078	0.62
938.809	2.62
939.54	0.62
940.27	-0.38
941.001	1.62
941.731	1.62
942.461	-1.38
943.191	-0.38
943.922	1.62
944.652	-0.38
945.382	0.62
946.112	-0.38
946.841	1.62
947.571	-0.38
948.301	-0.38
949.031	1.62
949.76	1.62
950.49	1.62
951.219	1.62
951.948	0.62
952.678	-0.38
953.407	1.62
954.136	1.62
954.865	0.62
955.594	1.62
956.323	1.62
957.052	0.62
957.78	1.62
958.509	-0.38
959.238	0.62
959.966	0.62
960.695	1.62
961.423	0.62
962.151	1.62
962.88	-2.38
963.608	2.62
964.336	0.62
965.064	0.62
965.792	-0.38
966.52	2.62
967.247	-0.38
967.975	2.62
968.703	-0.38
969.43	1.62
970.158	1.62
970.885	-0.38
971.613	0.62
972.34	0.62
973.067	3.62
973.794	-0.38
974.521	-0.38
975.248	1.62
975.975	-2.38
976.702	-0.38
977.429	-0.38
978.156	4.62
978.882	2.62
979.609	1.62
980.335	-1.38
981.062	-0.38
981.788	0.62
982.514	0.62
983.24	-0.38
983.967	1.62
984.693	0.62
985.419	0.62
986.144	-0.38
986.87	1.62
987.596	0.62
988.322	-0.38
989.047	0.62
989.773	0.62
990.498	2.62
991.224	0.62
991.949	0.62
992.674	3.62
993.399	0.62
994.124	1.62
994.849	-1.38
995.574	1.62
996.299	0.62
997.024	1.62
997.749	-1.38
998.473	1.62
999.198	2.62
999.922	0.62
1000.647	-0.38
1001.371	3.62
1002.095	-1.38
1002.82	-0.38
1003.544	-2.38
1004.268	7.62
1004.992	3.62
1005.716	5.62
1006.439	4.62
1007.163	7.62
1007.887	8.62
1008.611	1.62
1009.334	2.62
1010.058	3.62
1010.781	0.62
1011.504	-0.38
1012.228	0.62
1012.951	1.62
1013.674	-0.38
1014.397	0.62
1015.12	-1.38
