节点500_705_QEPB04081__342__20-50-48-559.txt的数据

Date: Wed Nov 12 20:50:48 CST 2025
User: PC
Spectrometer: QEPB0408
触发模式: 0
积分时间 (秒): 1.000000E-2
Scans to average: 1
启用暗噪声校正: true
启用非线性校正: false
滑动平均宽度: 0
X轴模式: Wavelengths
Number of Pixels in Spectrum: 1044
>>>>>Begin Spectral Data<<<<<
220.843	7.88
221.644	4.88
222.444	6.88
223.244	5.88
224.045	8.88
224.845	7.88
225.645	8.88
226.445	4.88
227.245	7.88
228.045	5.88
228.845	6.88
229.645	8.88
230.444	7.88
231.244	8.88
232.043	7.88
232.843	7.88
233.642	7.88
234.442	6.88
235.241	8.88
236.04	8.88
236.839	11.88
237.638	10.88
238.437	8.88
239.236	12.88
240.035	11.88
240.833	10.88
241.632	10.88
242.43	11.88
243.229	12.88
244.027	11.88
244.826	12.88
245.624	12.88
246.422	14.88
247.22	9.88
248.018	14.88
248.816	14.88
249.614	16.88
250.412	15.88
251.21	16.88
252.007	15.88
252.805	16.88
253.602	20.88
254.4	21.88
255.197	18.88
255.994	17.88
256.791	17.88
257.589	22.88
258.386	20.88
259.183	23.88
259.979	21.88
260.776	22.88
261.573	24.88
262.37	24.88
263.166	24.88
263.963	23.88
264.759	26.88
265.556	25.88
266.352	26.88
267.148	26.88
267.944	25.88
268.74	27.88
269.536	29.88
270.332	28.88
271.128	30.88
271.924	28.88
272.719	31.88
273.515	33.88
274.311	30.88
275.106	32.88
275.901	31.88
276.697	32.88
277.492	31.88
278.287	31.88
279.082	31.88
279.877	31.88
280.672	34.88
281.467	31.88
282.262	32.88
283.056	33.88
283.851	37.88
284.646	35.88
285.44	34.88
286.234	33.88
287.029	31.88
287.823	32.88
288.617	32.88
289.411	29.88
290.205	34.88
290.999	30.88
291.793	33.88
292.587	30.88
293.381	29.88
294.174	29.88
294.968	26.88
295.761	28.88
296.555	26.88
297.348	25.88
298.141	26.88
298.935	27.88
299.728	26.88
300.521	26.88
301.314	21.88
302.107	25.88
302.899	21.88
303.692	21.88
304.485	23.88
305.277	22.88
306.07	23.88
306.862	21.88
307.655	22.88
308.447	16.88
309.239	20.88
310.031	20.88
310.823	17.88
311.615	15.88
312.407	17.88
313.199	19.88
313.991	17.88
314.783	14.88
315.574	18.88
316.366	18.88
317.157	16.88
317.949	13.88
318.74	14.88
319.531	14.88
320.322	14.88
321.113	14.88
321.904	15.88
322.695	13.88
323.486	12.88
324.277	12.88
325.068	12.88
325.858	14.88
326.649	12.88
327.439	11.88
328.23	14.88
329.02	11.88
329.81	12.88
330.6	12.88
331.391	13.88
332.181	12.88
332.971	10.88
333.76	12.88
334.55	8.88
335.34	10.88
336.13	12.88
336.919	8.88
337.709	13.88
338.498	7.88
339.287	8.88
340.077	10.88
340.866	9.88
341.655	11.88
342.444	10.88
343.233	14.88
344.022	12.88
344.811	9.88
345.6	13.88
346.388	9.88
347.177	10.88
347.965	10.88
348.754	12.88
349.542	11.88
350.33	12.88
351.119	9.88
351.907	10.88
352.695	9.88
353.483	10.88
354.271	11.88
355.059	10.88
355.846	8.88
356.634	11.88
357.422	8.88
358.209	12.88
358.997	10.88
359.784	10.88
360.571	8.88
361.359	8.88
362.146	12.88
362.933	8.88
363.72	13.88
364.507	12.88
365.294	8.88
366.081	12.88
366.867	8.88
367.654	8.88
368.44	11.88
369.227	9.88
370.013	8.88
370.8	10.88
371.586	8.88
372.372	10.88
373.158	10.88
373.944	8.88
374.73	10.88
375.516	10.88
376.302	6.88
377.088	7.88
377.873	9.88
378.659	9.88
379.445	9.88
380.23	10.88
381.015	7.88
381.801	9.88
382.586	12.88
383.371	9.88
384.156	11.88
384.941	10.88
385.726	8.88
386.511	9.88
387.296	9.88
388.08	9.88
388.865	11.88
389.649	10.88
390.434	10.88
391.218	8.88
392.003	11.88
392.787	10.88
393.571	12.88
394.355	12.88
395.139	10.88
395.923	11.88
396.707	12.88
397.491	13.88
398.274	11.88
399.058	13.88
399.842	14.88
400.625	13.88
401.408	14.88
402.192	13.88
402.975	12.88
403.758	13.88
404.541	14.88
405.324	16.88
406.107	15.88
406.89	14.88
407.673	14.88
408.456	17.88
409.238	13.88
410.021	15.88
410.803	17.88
411.586	12.88
412.368	15.88
413.151	16.88
413.933	14.88
414.715	20.88
415.497	17.88
416.279	17.88
417.061	20.88
417.843	20.88
418.624	17.88
419.406	17.88
420.188	22.88
420.969	18.88
421.751	24.88
422.532	20.88
423.313	22.88
424.095	24.88
424.876	24.88
425.657	24.88
426.438	26.88
427.219	28.88
428	27.88
428.78	26.88
429.561	28.88
430.342	27.88
431.122	29.88
431.903	29.88
432.683	32.88
433.464	33.88
434.244	37.88
435.024	40.88
435.804	40.88
436.584	41.88
437.364	41.88
438.144	45.88
438.924	53.88
439.704	53.88
440.483	55.88
441.263	60.88
442.042	63.88
442.822	68.88
443.601	77.88
444.38	78.88
445.16	88.88
445.939	96.88
446.718	99.88
447.497	113.88
448.276	124.88
449.054	137.88
449.833	145.88
450.612	161.88
451.391	175.88
452.169	192.88
452.948	217.88
453.726	244.88
454.504	266.88
455.282	298.88
456.061	328.88
456.839	364.88
457.617	414.88
458.395	450.88
459.172	517.88
459.95	574.88
460.728	631.88
461.506	712.88
462.283	789.88
463.061	877.88
463.838	979.88
464.615	1098.88
465.393	1208.88
466.17	1347.88
466.947	1514.88
467.724	1667.88
468.501	1866.88
469.278	2049.88
470.055	2259.88
470.831	2496.88
471.608	2793.88
472.385	3066.88
473.161	3357.88
473.938	3677.88
474.714	4064.88
475.49	4465.88
476.266	4898.88
477.043	5321.88
477.819	5785.88
478.595	6331.88
479.371	6925.88
480.146	7577.88
480.922	8280.88
481.698	9010.88
482.473	9780.88
483.249	10640.88
484.024	11568.88
484.8	12526.88
485.575	13567.88
486.35	14742.88
487.126	15963.88
487.901	17218.88
488.676	18636.88
489.451	20070.88
490.225	21549.88
491	23176.88
491.775	24750.88
492.55	26489.88
493.324	28193.88
494.099	29937.88
494.873	31719.88
495.647	33500.88
496.422	35179.88
497.196	37047.88
497.97	38696.88
498.744	40196.88
499.518	41816.88
500.292	43157.88
501.066	44259.88
501.839	45101.88
502.613	45878.88
503.387	46487.88
504.16	46925.88
504.934	46980.88
505.707	46995.88
506.48	46664.88
507.253	46215.88
508.027	45589.88
508.8	44569.88
509.573	43605.88
510.346	42558.88
511.118	41543.88
511.891	40237.88
512.664	38814.88
513.437	37339.88
514.209	35858.88
514.982	34604.88
515.754	33150.88
516.526	31834.88
517.298	30547.88
518.071	29333.88
518.843	28159.88
519.615	27020.88
520.387	25927.88
521.159	24923.88
521.93	23871.88
522.702	22937.88
523.474	21943.88
524.245	21094.88
525.017	20122.88
525.788	19202.88
526.56	18471.88
527.331	17665.88
528.102	16720.88
528.873	15914.88
529.644	15187.88
530.415	14435.88
531.186	13771.88
531.957	13031.88
532.728	12364.88
533.498	11686.88
534.269	11087.88
535.039	10474.88
535.81	9968.88
536.58	9396.88
537.351	8882.88
538.121	8465.88
538.891	8013.88
539.661	7551.88
540.431	7136.88
541.201	6776.88
541.971	6415.88
542.741	6108.88
543.51	5775.88
544.28	5476.88
545.05	5221.88
545.819	4982.88
546.588	4750.88
547.358	4513.88
548.127	4301.88
548.896	4099.88
549.665	3878.88
550.434	3662.88
551.203	3472.88
551.972	3298.88
552.741	3147.88
553.51	2960.88
554.278	2775.88
555.047	2620.88
555.815	2490.88
556.584	2339.88
557.352	2216.88
558.121	2112.88
558.889	1990.88
559.657	1871.88
560.425	1790.88
561.193	1689.88
561.961	1592.88
562.729	1507.88
563.496	1416.88
564.264	1337.88
565.032	1269.88
565.799	1201.88
566.567	1134.88
567.334	1075.88
568.101	1014.88
568.869	951.88
569.636	900.88
570.403	857.88
571.17	822.88
571.937	766.88
572.704	716.88
573.471	680.88
574.237	639.88
575.004	606.88
575.771	565.88
576.537	540.88
577.303	509.88
578.07	476.88
578.836	448.88
579.602	422.88
580.368	407.88
581.134	388.88
581.9	372.88
582.666	345.88
583.432	332.88
584.198	313.88
584.964	301.88
585.729	284.88
586.495	268.88
587.26	256.88
588.025	237.88
588.791	230.88
589.556	213.88
590.321	206.88
591.086	196.88
591.851	185.88
592.616	181.88
593.381	165.88
594.146	157.88
594.911	155.88
595.675	149.88
596.44	141.88
597.204	133.88
597.969	130.88
598.733	125.88
599.497	114.88
600.261	115.88
601.025	107.88
601.79	103.88
602.553	102.88
603.317	89.88
604.081	91.88
604.845	86.88
605.609	82.88
606.372	81.88
607.136	73.88
607.899	74.88
608.662	71.88
609.426	69.88
610.189	66.88
610.952	63.88
611.715	59.88
612.478	58.88
613.241	58.88
614.004	49.88
614.767	53.88
615.529	50.88
616.292	48.88
617.055	49.88
617.817	45.88
618.579	48.88
619.342	41.88
620.104	40.88
620.866	40.88
621.628	41.88
622.39	40.88
623.152	38.88
623.914	36.88
624.676	33.88
625.438	34.88
626.199	32.88
626.961	30.88
627.722	30.88
628.484	32.88
629.245	29.88
630.006	28.88
630.768	28.88
631.529	26.88
632.29	25.88
633.051	24.88
633.812	26.88
634.573	21.88
635.333	22.88
636.094	22.88
636.855	23.88
637.615	21.88
638.376	21.88
639.136	22.88
639.896	17.88
640.657	19.88
641.417	14.88
642.177	18.88
642.937	14.88
643.697	18.88
644.457	16.88
645.216	18.88
645.976	17.88
646.736	15.88
647.495	15.88
648.255	15.88
649.014	17.88
649.774	12.88
650.533	11.88
651.292	15.88
652.051	13.88
652.81	12.88
653.569	11.88
654.328	10.88
655.087	12.88
655.846	10.88
656.604	10.88
657.363	8.88
658.121	10.88
658.88	10.88
659.638	10.88
660.397	12.88
661.155	9.88
661.913	8.88
662.671	10.88
663.429	11.88
664.187	7.88
664.945	8.88
665.703	11.88
666.46	10.88
667.218	8.88
667.976	10.88
668.733	9.88
669.49	9.88
670.248	9.88
671.005	10.88
671.762	11.88
672.519	9.88
673.276	7.88
674.033	8.88
674.79	8.88
675.547	8.88
676.304	6.88
677.06	9.88
677.817	8.88
678.574	8.88
679.33	8.88
680.086	11.88
680.843	7.88
681.599	8.88
682.355	7.88
683.111	8.88
683.867	8.88
684.623	7.88
685.379	9.88
686.135	7.88
686.89	6.88
687.646	7.88
688.402	7.88
689.157	7.88
689.912	6.88
690.668	6.88
691.423	6.88
692.178	8.88
692.933	10.88
693.688	7.88
694.443	7.88
695.198	6.88
695.953	6.88
696.708	8.88
697.462	7.88
698.217	7.88
698.972	6.88
699.726	7.88
700.48	8.88
701.235	5.88
701.989	6.88
702.743	7.88
703.497	8.88
704.251	8.88
705.005	6.88
705.759	6.88
706.513	7.88
707.266	5.88
708.02	6.88
708.774	8.88
709.527	7.88
710.28	6.88
711.034	6.88
711.787	6.88
712.54	6.88
713.293	8.88
714.046	7.88
714.799	8.88
715.552	6.88
716.305	8.88
717.058	7.88
717.81	5.88
718.563	8.88
719.315	7.88
720.068	7.88
720.82	9.88
721.573	9.88
722.325	6.88
723.077	9.88
723.829	9.88
724.581	4.88
725.333	10.88
726.085	8.88
726.836	9.88
727.588	7.88
728.34	9.88
729.091	6.88
729.843	6.88
730.594	8.88
731.346	7.88
732.097	6.88
732.848	8.88
733.599	8.88
734.35	9.88
735.101	9.88
735.852	8.88
736.603	7.88
737.354	10.88
738.104	7.88
738.855	9.88
739.605	9.88
740.356	10.88
741.106	9.88
741.856	9.88
742.607	8.88
743.357	10.88
744.107	9.88
744.857	13.88
745.607	8.88
746.357	10.88
747.106	10.88
747.856	10.88
748.606	9.88
749.355	12.88
750.105	11.88
750.854	10.88
751.603	12.88
752.353	10.88
753.102	9.88
753.851	10.88
754.6	8.88
755.349	11.88
756.098	11.88
756.847	10.88
757.595	12.88
758.344	11.88
759.093	12.88
759.841	12.88
760.589	12.88
761.338	13.88
762.086	10.88
762.834	10.88
763.582	11.88
764.331	12.88
765.079	13.88
765.826	13.88
766.574	14.88
767.322	13.88
768.07	14.88
768.817	14.88
769.565	15.88
770.312	14.88
771.06	10.88
771.807	12.88
772.554	12.88
773.302	16.88
774.049	14.88
774.796	14.88
775.543	12.88
776.29	11.88
777.036	12.88
777.783	15.88
778.53	14.88
779.276	16.88
780.023	15.88
780.769	14.88
781.516	16.88
782.262	16.88
783.008	14.88
783.754	14.88
784.5	15.88
785.246	16.88
785.992	16.88
786.738	16.88
787.484	14.88
788.23	14.88
788.975	14.88
789.721	12.88
790.466	13.88
791.212	15.88
791.957	13.88
792.702	14.88
793.447	12.88
794.193	15.88
794.938	15.88
795.683	13.88
796.427	13.88
797.172	13.88
797.917	13.88
798.662	14.88
799.406	8.88
800.151	13.88
800.895	13.88
801.64	10.88
802.384	13.88
803.128	11.88
803.872	10.88
804.616	12.88
805.36	11.88
806.104	9.88
806.848	10.88
807.592	10.88
808.336	10.88
809.079	10.88
809.823	10.88
810.566	6.88
811.31	8.88
812.053	8.88
812.796	7.88
813.539	8.88
814.283	7.88
815.026	6.88
815.769	8.88
816.511	9.88
817.254	6.88
817.997	9.88
818.74	7.88
819.482	7.88
820.225	5.88
820.967	5.88
821.71	4.88
822.452	6.88
823.194	4.88
823.936	6.88
824.678	7.88
825.42	6.88
826.162	7.88
826.904	4.88
827.646	8.88
828.388	9.88
829.129	7.88
829.871	4.88
830.612	8.88
831.354	5.88
832.095	6.88
832.836	4.88
833.577	4.88
834.319	7.88
835.06	5.88
835.801	7.88
836.542	6.88
837.282	5.88
838.023	4.88
838.764	7.88
839.504	5.88
840.245	4.88
840.985	4.88
841.726	6.88
842.466	4.88
843.206	5.88
843.946	3.88
844.687	5.88
845.427	4.88
846.166	5.88
846.906	5.88
847.646	2.88
848.386	4.88
849.125	4.88
849.865	5.88
850.605	4.88
851.344	5.88
852.083	6.88
852.823	1.88
853.562	4.88
854.301	2.88
855.04	4.88
855.779	6.88
856.518	3.88
857.257	3.88
857.995	3.88
858.734	4.88
859.473	3.88
860.211	4.88
860.95	2.88
861.688	1.88
862.426	2.88
863.165	2.88
863.903	3.88
864.641	1.88
865.379	1.88
866.117	2.88
866.855	3.88
867.593	2.88
868.33	1.88
869.068	1.88
869.806	0.88
870.543	1.88
871.28	3.88
872.018	-0.12
872.755	4.88
873.492	0.88
874.229	1.88
874.967	4.88
875.703	1.88
876.44	2.88
877.177	2.88
877.914	0.88
878.651	2.88
879.387	2.88
880.124	2.88
880.86	0.88
881.597	0.88
882.333	0.88
883.069	1.88
883.806	0.88
884.542	1.88
885.278	-0.12
886.014	0.88
886.749	-0.12
887.485	0.88
888.221	2.88
888.957	2.88
889.692	0.88
890.428	0.88
891.163	1.88
891.899	0.88
892.634	0.88
893.369	-2.12
894.104	1.88
894.839	0.88
895.574	1.88
896.309	2.88
897.044	0.88
897.779	2.88
898.514	1.88
899.248	-1.12
899.983	-0.12
900.717	-1.12
901.452	-0.12
902.186	0.88
902.92	0.88
903.654	-0.12
904.389	1.88
905.123	2.88
905.857	-0.12
906.59	2.88
907.324	-1.12
908.058	2.88
908.792	1.88
909.525	0.88
910.259	0.88
910.992	-0.12
911.726	1.88
912.459	2.88
913.192	-0.12
913.925	-0.12
914.658	-0.12
915.391	1.88
916.124	-0.12
916.857	0.88
917.59	-0.12
918.323	0.88
919.055	-1.12
919.788	-1.12
920.521	1.88
921.253	-0.12
921.985	3.88
922.718	-0.12
923.45	2.88
924.182	-0.12
924.914	0.88
925.646	-0.12
926.378	-2.12
927.11	2.88
927.841	1.88
928.573	0.88
929.305	1.88
930.036	-1.12
930.768	0.88
931.499	0.88
932.23	-0.12
932.962	0.88
933.693	0.88
934.424	-1.12
935.155	-1.12
935.886	-2.12
936.617	-1.12
937.348	0.88
938.078	-0.12
938.809	-0.12
939.54	0.88
940.27	-0.12
941.001	-2.12
941.731	-1.12
942.461	0.88
943.191	0.88
943.922	-2.12
944.652	1.88
945.382	-1.12
946.112	0.88
946.841	0.88
947.571	-1.12
948.301	0.88
949.031	-0.12
949.76	-0.12
950.49	1.88
951.219	1.88
951.948	-0.12
952.678	0.88
953.407	2.88
954.136	1.88
954.865	0.88
955.594	-0.12
956.323	-1.12
957.052	1.88
957.78	1.88
958.509	-0.12
959.238	0.88
959.966	-1.12
960.695	0.88
961.423	-1.12
962.151	0.88
962.88	1.88
963.608	-0.12
964.336	1.88
965.064	-0.12
965.792	-1.12
966.52	-1.12
967.247	1.88
967.975	0.88
968.703	-0.12
969.43	0.88
970.158	-2.12
970.885	0.88
971.613	-1.12
972.34	-1.12
973.067	-0.12
973.794	-1.12
974.521	1.88
975.248	0.88
975.975	-3.12
976.702	1.88
977.429	1.88
978.156	1.88
978.882	-1.12
979.609	0.88
980.335	0.88
981.062	1.88
981.788	0.88
982.514	-0.12
983.24	-0.12
983.967	-0.12
984.693	0.88
985.419	-0.12
986.144	-0.12
986.87	-1.12
987.596	-0.12
988.322	-0.12
989.047	-0.12
989.773	0.88
990.498	0.88
991.224	0.88
991.949	-0.12
992.674	-1.12
993.399	0.88
994.124	1.88
994.849	0.88
995.574	1.88
996.299	0.88
997.024	-0.12
997.749	-0.12
998.473	0.88
999.198	-0.12
999.922	0.88
1000.647	1.88
1001.371	2.88
1002.095	-0.12
1002.82	-2.12
1003.544	-1.12
1004.268	3.88
1004.992	5.88
1005.716	3.88
1006.439	4.88
1007.163	4.88
1007.887	9.88
1008.611	-1.12
1009.334	1.88
1010.058	0.88
1010.781	0.88
1011.504	0.88
1012.228	-1.12
1012.951	-0.12
1013.674	-0.12
1014.397	0.88
1015.12	-0.12
