节点500_705_QEPB04081__508__20-53-06-745.txt的数据

Date: Wed Nov 12 20:53:06 CST 2025
User: PC
Spectrometer: QEPB0408
触发模式: 0
积分时间 (秒): 1.000000E-2
Scans to average: 1
启用暗噪声校正: true
启用非线性校正: false
滑动平均宽度: 0
X轴模式: Wavelengths
Number of Pixels in Spectrum: 1044
>>>>>Begin Spectral Data<<<<<
220.843	6.25
221.644	4.25
222.444	5.25
223.244	6.25
224.045	6.25
224.845	8.25
225.645	6.25
226.445	7.25
227.245	6.25
228.045	7.25
228.845	7.25
229.645	6.25
230.444	8.25
231.244	11.25
232.043	8.25
232.843	10.25
233.642	8.25
234.442	8.25
235.241	11.25
236.04	10.25
236.839	9.25
237.638	10.25
238.437	10.25
239.236	10.25
240.035	12.25
240.833	11.25
241.632	11.25
242.43	13.25
243.229	10.25
244.027	13.25
244.826	11.25
245.624	14.25
246.422	14.25
247.22	11.25
248.018	17.25
248.816	12.25
249.614	17.25
250.412	13.25
251.21	15.25
252.007	15.25
252.805	17.25
253.602	16.25
254.4	15.25
255.197	16.25
255.994	18.25
256.791	18.25
257.589	19.25
258.386	19.25
259.183	17.25
259.979	21.25
260.776	22.25
261.573	20.25
262.37	19.25
263.166	22.25
263.963	24.25
264.759	23.25
265.556	24.25
266.352	25.25
267.148	24.25
267.944	26.25
268.74	28.25
269.536	24.25
270.332	29.25
271.128	27.25
271.924	29.25
272.719	28.25
273.515	31.25
274.311	30.25
275.106	31.25
275.901	33.25
276.697	31.25
277.492	32.25
278.287	33.25
279.082	31.25
279.877	30.25
280.672	32.25
281.467	31.25
282.262	31.25
283.056	30.25
283.851	32.25
284.646	33.25
285.44	33.25
286.234	33.25
287.029	34.25
287.823	32.25
288.617	32.25
289.411	32.25
290.205	30.25
290.999	30.25
291.793	30.25
292.587	27.25
293.381	30.25
294.174	30.25
294.968	29.25
295.761	26.25
296.555	24.25
297.348	26.25
298.141	26.25
298.935	30.25
299.728	26.25
300.521	22.25
301.314	25.25
302.107	24.25
302.899	20.25
303.692	24.25
304.485	21.25
305.277	20.25
306.07	21.25
306.862	23.25
307.655	19.25
308.447	19.25
309.239	20.25
310.031	21.25
310.823	17.25
311.615	19.25
312.407	16.25
313.199	16.25
313.991	17.25
314.783	18.25
315.574	15.25
316.366	15.25
317.157	15.25
317.949	15.25
318.74	17.25
319.531	14.25
320.322	14.25
321.113	12.25
321.904	13.25
322.695	9.25
323.486	15.25
324.277	16.25
325.068	15.25
325.858	13.25
326.649	13.25
327.439	12.25
328.23	12.25
329.02	13.25
329.81	15.25
330.6	10.25
331.391	15.25
332.181	13.25
332.971	14.25
333.76	12.25
334.55	10.25
335.34	14.25
336.13	12.25
336.919	13.25
337.709	12.25
338.498	12.25
339.287	11.25
340.077	13.25
340.866	13.25
341.655	11.25
342.444	10.25
343.233	12.25
344.022	11.25
344.811	11.25
345.6	11.25
346.388	13.25
347.177	10.25
347.965	10.25
348.754	12.25
349.542	12.25
350.33	11.25
351.119	11.25
351.907	13.25
352.695	9.25
353.483	11.25
354.271	11.25
355.059	11.25
355.846	11.25
356.634	7.25
357.422	12.25
358.209	8.25
358.997	11.25
359.784	10.25
360.571	9.25
361.359	11.25
362.146	11.25
362.933	10.25
363.72	11.25
364.507	9.25
365.294	10.25
366.081	10.25
366.867	10.25
367.654	10.25
368.44	9.25
369.227	10.25
370.013	9.25
370.8	10.25
371.586	10.25
372.372	8.25
373.158	10.25
373.944	8.25
374.73	11.25
375.516	6.25
376.302	9.25
377.088	8.25
377.873	10.25
378.659	9.25
379.445	9.25
380.23	9.25
381.015	9.25
381.801	11.25
382.586	12.25
383.371	11.25
384.156	9.25
384.941	13.25
385.726	10.25
386.511	9.25
387.296	11.25
388.08	12.25
388.865	11.25
389.649	11.25
390.434	11.25
391.218	11.25
392.003	11.25
392.787	11.25
393.571	10.25
394.355	12.25
395.139	13.25
395.923	11.25
396.707	11.25
397.491	13.25
398.274	13.25
399.058	12.25
399.842	12.25
400.625	15.25
401.408	12.25
402.192	16.25
402.975	15.25
403.758	13.25
404.541	17.25
405.324	16.25
406.107	15.25
406.89	13.25
407.673	14.25
408.456	17.25
409.238	15.25
410.021	15.25
410.803	13.25
411.586	19.25
412.368	15.25
413.151	15.25
413.933	17.25
414.715	16.25
415.497	19.25
416.279	18.25
417.061	20.25
417.843	19.25
418.624	19.25
419.406	22.25
420.188	21.25
420.969	21.25
421.751	20.25
422.532	22.25
423.313	25.25
424.095	22.25
424.876	25.25
425.657	24.25
426.438	25.25
427.219	25.25
428	25.25
428.78	27.25
429.561	29.25
430.342	29.25
431.122	31.25
431.903	31.25
432.683	31.25
433.464	34.25
434.244	37.25
435.024	35.25
435.804	39.25
436.584	42.25
437.364	43.25
438.144	48.25
438.924	50.25
439.704	56.25
440.483	56.25
441.263	66.25
442.042	66.25
442.822	70.25
443.601	79.25
444.38	84.25
445.16	91.25
445.939	103.25
446.718	107.25
447.497	118.25
448.276	126.25
449.054	144.25
449.833	151.25
450.612	170.25
451.391	185.25
452.169	201.25
452.948	233.25
453.726	253.25
454.504	276.25
455.282	320.25
456.061	343.25
456.839	389.25
457.617	430.25
458.395	483.25
459.172	530.25
459.95	595.25
460.728	666.25
461.506	730.25
462.283	813.25
463.061	912.25
463.838	1015.25
464.615	1121.25
465.393	1246.25
466.17	1385.25
466.947	1532.25
467.724	1689.25
468.501	1860.25
469.278	2061.25
470.055	2276.25
470.831	2498.25
471.608	2749.25
472.385	3034.25
473.161	3329.25
473.938	3635.25
474.714	3978.25
475.49	4331.25
476.266	4764.25
477.043	5190.25
477.819	5632.25
478.595	6151.25
479.371	6667.25
480.146	7298.25
480.922	7886.25
481.698	8591.25
482.473	9306.25
483.249	10127.25
484.024	10897.25
484.8	11778.25
485.575	12749.25
486.35	13759.25
487.126	14878.25
487.901	16019.25
488.676	17216.25
489.451	18632.25
490.225	19965.25
491	21365.25
491.775	22831.25
492.55	24304.25
493.324	25915.25
494.099	27534.25
494.873	29101.25
495.647	30782.25
496.422	32464.25
497.196	34085.25
497.97	35643.25
498.744	37148.25
499.518	38720.25
500.292	40071.25
501.066	41053.25
501.839	42048.25
502.613	42993.25
503.387	43663.25
504.16	44324.25
504.934	44607.25
505.707	44783.25
506.48	44580.25
507.253	44319.25
508.027	43855.25
508.8	43277.25
509.573	42318.25
510.346	41596.25
511.118	40761.25
511.891	39728.25
512.664	38335.25
513.437	37036.25
514.209	35788.25
514.982	34492.25
515.754	33142.25
516.526	31902.25
517.298	30703.25
518.071	29471.25
518.843	28328.25
519.615	27128.25
520.387	26089.25
521.159	25070.25
521.93	24084.25
522.702	23077.25
523.474	22087.25
524.245	21311.25
525.017	20351.25
525.788	19523.25
526.56	18694.25
527.331	17854.25
528.102	16985.25
528.873	16176.25
529.644	15402.25
530.415	14760.25
531.186	14069.25
531.957	13340.25
532.728	12682.25
533.498	12035.25
534.269	11414.25
535.039	10853.25
535.81	10218.25
536.58	9672.25
537.351	9178.25
538.121	8717.25
538.891	8244.25
539.661	7805.25
540.431	7362.25
541.201	6974.25
541.971	6607.25
542.741	6289.25
543.51	5934.25
544.28	5643.25
545.05	5408.25
545.819	5150.25
546.588	4933.25
547.358	4678.25
548.127	4429.25
548.896	4229.25
549.665	4024.25
550.434	3798.25
551.203	3603.25
551.972	3419.25
552.741	3231.25
553.51	3054.25
554.278	2869.25
555.047	2741.25
555.815	2612.25
556.584	2434.25
557.352	2311.25
558.121	2191.25
558.889	2084.25
559.657	1961.25
560.425	1855.25
561.193	1751.25
561.961	1651.25
562.729	1574.25
563.496	1478.25
564.264	1415.25
565.032	1322.25
565.799	1255.25
566.567	1192.25
567.334	1127.25
568.101	1043.25
568.869	990.25
569.636	952.25
570.403	894.25
571.17	842.25
571.937	785.25
572.704	757.25
573.471	706.25
574.237	673.25
575.004	635.25
575.771	592.25
576.537	560.25
577.303	531.25
578.07	500.25
578.836	474.25
579.602	443.25
580.368	423.25
581.134	407.25
581.9	375.25
582.666	367.25
583.432	347.25
584.198	329.25
584.964	315.25
585.729	298.25
586.495	282.25
587.26	263.25
588.025	249.25
588.791	233.25
589.556	228.25
590.321	217.25
591.086	209.25
591.851	194.25
592.616	186.25
593.381	177.25
594.146	170.25
594.911	166.25
595.675	159.25
596.44	149.25
597.204	143.25
597.969	133.25
598.733	131.25
599.497	119.25
600.261	121.25
601.025	110.25
601.79	109.25
602.553	102.25
603.317	99.25
604.081	98.25
604.845	91.25
605.609	84.25
606.372	84.25
607.136	81.25
607.899	72.25
608.662	75.25
609.426	69.25
610.189	70.25
610.952	70.25
611.715	62.25
612.478	61.25
613.241	59.25
614.004	57.25
614.767	52.25
615.529	54.25
616.292	54.25
617.055	51.25
617.817	49.25
618.579	47.25
619.342	48.25
620.104	42.25
620.866	41.25
621.628	38.25
622.39	36.25
623.152	39.25
623.914	38.25
624.676	36.25
625.438	35.25
626.199	36.25
626.961	32.25
627.722	32.25
628.484	30.25
629.245	29.25
630.006	27.25
630.768	29.25
631.529	22.25
632.29	25.25
633.051	24.25
633.812	26.25
634.573	24.25
635.333	27.25
636.094	23.25
636.855	23.25
637.615	24.25
638.376	22.25
639.136	21.25
639.896	17.25
640.657	21.25
641.417	17.25
642.177	18.25
642.937	15.25
643.697	18.25
644.457	18.25
645.216	18.25
645.976	16.25
646.736	17.25
647.495	17.25
648.255	16.25
649.014	14.25
649.774	16.25
650.533	15.25
651.292	14.25
652.051	15.25
652.81	13.25
653.569	14.25
654.328	13.25
655.087	11.25
655.846	13.25
656.604	12.25
657.363	13.25
658.121	13.25
658.88	12.25
659.638	13.25
660.397	12.25
661.155	11.25
661.913	10.25
662.671	9.25
663.429	14.25
664.187	11.25
664.945	9.25
665.703	11.25
666.46	12.25
667.218	11.25
667.976	11.25
668.733	10.25
669.49	8.25
670.248	9.25
671.005	8.25
671.762	10.25
672.519	8.25
673.276	8.25
674.033	5.25
674.79	8.25
675.547	8.25
676.304	9.25
677.06	10.25
677.817	7.25
678.574	9.25
679.33	10.25
680.086	8.25
680.843	10.25
681.599	11.25
682.355	9.25
683.111	8.25
683.867	8.25
684.623	9.25
685.379	9.25
686.135	8.25
686.89	8.25
687.646	8.25
688.402	11.25
689.157	9.25
689.912	8.25
690.668	7.25
691.423	10.25
692.178	10.25
692.933	6.25
693.688	7.25
694.443	7.25
695.198	6.25
695.953	7.25
696.708	8.25
697.462	9.25
698.217	7.25
698.972	8.25
699.726	6.25
700.48	7.25
701.235	5.25
701.989	6.25
702.743	6.25
703.497	4.25
704.251	7.25
705.005	6.25
705.759	8.25
706.513	8.25
707.266	4.25
708.02	9.25
708.774	8.25
709.527	8.25
710.28	8.25
711.034	9.25
711.787	9.25
712.54	8.25
713.293	8.25
714.046	5.25
714.799	7.25
715.552	9.25
716.305	7.25
717.058	9.25
717.81	7.25
718.563	10.25
719.315	9.25
720.068	9.25
720.82	8.25
721.573	7.25
722.325	8.25
723.077	10.25
723.829	8.25
724.581	7.25
725.333	9.25
726.085	8.25
726.836	7.25
727.588	10.25
728.34	8.25
729.091	11.25
729.843	6.25
730.594	7.25
731.346	10.25
732.097	8.25
732.848	11.25
733.599	8.25
734.35	10.25
735.101	11.25
735.852	9.25
736.603	9.25
737.354	9.25
738.104	10.25
738.855	10.25
739.605	9.25
740.356	11.25
741.106	12.25
741.856	9.25
742.607	10.25
743.357	8.25
744.107	11.25
744.857	8.25
745.607	13.25
746.357	9.25
747.106	11.25
747.856	8.25
748.606	9.25
749.355	10.25
750.105	10.25
750.854	9.25
751.603	11.25
752.353	11.25
753.102	11.25
753.851	14.25
754.6	10.25
755.349	11.25
756.098	14.25
756.847	11.25
757.595	9.25
758.344	10.25
759.093	10.25
759.841	11.25
760.589	11.25
761.338	11.25
762.086	10.25
762.834	12.25
763.582	11.25
764.331	13.25
765.079	14.25
765.826	13.25
766.574	14.25
767.322	14.25
768.07	10.25
768.817	13.25
769.565	11.25
770.312	14.25
771.06	14.25
771.807	15.25
772.554	16.25
773.302	14.25
774.049	14.25
774.796	14.25
775.543	15.25
776.29	15.25
777.036	17.25
777.783	14.25
778.53	14.25
779.276	14.25
780.023	15.25
780.769	14.25
781.516	15.25
782.262	12.25
783.008	13.25
783.754	17.25
784.5	13.25
785.246	12.25
785.992	14.25
786.738	16.25
787.484	15.25
788.23	13.25
788.975	14.25
789.721	13.25
790.466	14.25
791.212	14.25
791.957	14.25
792.702	12.25
793.447	14.25
794.193	15.25
794.938	13.25
795.683	15.25
796.427	14.25
797.172	16.25
797.917	11.25
798.662	15.25
799.406	11.25
800.151	13.25
800.895	12.25
801.64	12.25
802.384	12.25
803.128	12.25
803.872	11.25
804.616	11.25
805.36	11.25
806.104	11.25
806.848	13.25
807.592	12.25
808.336	12.25
809.079	9.25
809.823	12.25
810.566	11.25
811.31	8.25
812.053	9.25
812.796	8.25
813.539	8.25
814.283	9.25
815.026	10.25
815.769	10.25
816.511	8.25
817.254	8.25
817.997	8.25
818.74	8.25
819.482	8.25
820.225	9.25
820.967	9.25
821.71	9.25
822.452	5.25
823.194	6.25
823.936	7.25
824.678	8.25
825.42	8.25
826.162	7.25
826.904	6.25
827.646	4.25
828.388	6.25
829.129	7.25
829.871	6.25
830.612	6.25
831.354	5.25
832.095	5.25
832.836	8.25
833.577	4.25
834.319	5.25
835.06	5.25
835.801	4.25
836.542	9.25
837.282	6.25
838.023	6.25
838.764	7.25
839.504	6.25
840.245	5.25
840.985	4.25
841.726	8.25
842.466	3.25
843.206	6.25
843.946	5.25
844.687	4.25
845.427	6.25
846.166	4.25
846.906	3.25
847.646	4.25
848.386	4.25
849.125	5.25
849.865	5.25
850.605	4.25
851.344	4.25
852.083	5.25
852.823	5.25
853.562	3.25
854.301	6.25
855.04	3.25
855.779	6.25
856.518	5.25
857.257	3.25
857.995	3.25
858.734	5.25
859.473	5.25
860.211	3.25
860.95	4.25
861.688	4.25
862.426	3.25
863.165	3.25
863.903	2.25
864.641	2.25
865.379	4.25
866.117	3.25
866.855	3.25
867.593	2.25
868.33	5.25
869.068	2.25
869.806	3.25
870.543	1.25
871.28	3.25
872.018	3.25
872.755	-0.75
873.492	3.25
874.229	1.25
874.967	3.25
875.703	3.25
876.44	0.25
877.177	2.25
877.914	1.25
878.651	4.25
879.387	2.25
880.124	3.25
880.86	3.25
881.597	1.25
882.333	2.25
883.069	4.25
883.806	0.25
884.542	0.25
885.278	2.25
886.014	0.25
886.749	0.25
887.485	1.25
888.221	2.25
888.957	2.25
889.692	1.25
890.428	3.25
891.163	1.25
891.899	3.25
892.634	3.25
893.369	3.25
894.104	2.25
894.839	1.25
895.574	2.25
896.309	3.25
897.044	-0.75
897.779	3.25
898.514	1.25
899.248	0.25
899.983	2.25
900.717	3.25
901.452	2.25
902.186	0.25
902.92	3.25
903.654	3.25
904.389	-0.75
905.123	1.25
905.857	1.25
906.59	3.25
907.324	2.25
908.058	1.25
908.792	1.25
909.525	2.25
910.259	3.25
910.992	-0.75
911.726	0.25
912.459	0.25
913.192	2.25
913.925	1.25
914.658	0.25
915.391	1.25
916.124	3.25
916.857	1.25
917.59	2.25
918.323	0.25
919.055	0.25
919.788	-0.75
920.521	0.25
921.253	0.25
921.985	0.25
922.718	1.25
923.45	-0.75
924.182	1.25
924.914	-0.75
925.646	-0.75
926.378	1.25
927.11	2.25
927.841	-0.75
928.573	-0.75
929.305	4.25
930.036	1.25
930.768	1.25
931.499	1.25
932.23	0.25
932.962	1.25
933.693	-0.75
934.424	0.25
935.155	0.25
935.886	0.25
936.617	-0.75
937.348	0.25
938.078	2.25
938.809	-0.75
939.54	3.25
940.27	2.25
941.001	-0.75
941.731	0.25
942.461	0.25
943.191	0.25
943.922	1.25
944.652	0.25
945.382	1.25
946.112	2.25
946.841	0.25
947.571	0.25
948.301	1.25
949.031	0.25
949.76	-0.75
950.49	0.25
951.219	-1.75
951.948	-0.75
952.678	2.25
953.407	-0.75
954.136	-0.75
954.865	1.25
955.594	0.25
956.323	-0.75
957.052	0.25
957.78	-1.75
958.509	0.25
959.238	0.25
959.966	-1.75
960.695	-0.75
961.423	-0.75
962.151	-0.75
962.88	1.25
963.608	1.25
964.336	0.25
965.064	1.25
965.792	-0.75
966.52	0.25
967.247	0.25
967.975	1.25
968.703	1.25
969.43	1.25
970.158	-0.75
970.885	1.25
971.613	0.25
972.34	-0.75
973.067	3.25
973.794	1.25
974.521	1.25
975.248	1.25
975.975	2.25
976.702	0.25
977.429	0.25
978.156	1.25
978.882	1.25
979.609	3.25
980.335	-0.75
981.062	-0.75
981.788	1.25
982.514	1.25
983.24	2.25
983.967	-0.75
984.693	-0.75
985.419	0.25
986.144	0.25
986.87	1.25
987.596	-0.75
988.322	-0.75
989.047	0.25
989.773	1.25
990.498	-0.75
991.224	0.25
991.949	2.25
992.674	1.25
993.399	1.25
994.124	-0.75
994.849	1.25
995.574	1.25
996.299	1.25
997.024	2.25
997.749	-1.75
998.473	-0.75
999.198	0.25
999.922	1.25
1000.647	-0.75
1001.371	2.25
1002.095	1.25
1002.82	-0.75
1003.544	-0.75
1004.268	4.25
1004.992	6.25
1005.716	3.25
1006.439	5.25
1007.163	8.25
1007.887	5.25
1008.611	-0.75
1009.334	1.25
1010.058	1.25
1010.781	3.25
1011.504	1.25
1012.228	2.25
1012.951	-0.75
1013.674	0.25
1014.397	-0.75
1015.12	-0.75
