节点500_705_QEPB04081__284__20-50-01-432.txt的数据

Date: Wed Nov 12 20:50:01 CST 2025
User: PC
Spectrometer: QEPB0408
触发模式: 0
积分时间 (秒): 1.000000E-2
Scans to average: 1
启用暗噪声校正: true
启用非线性校正: false
滑动平均宽度: 0
X轴模式: Wavelengths
Number of Pixels in Spectrum: 1044
>>>>>Begin Spectral Data<<<<<
220.843	5.88
221.644	2.88
222.444	4.88
223.244	2.88
224.045	5.88
224.845	8.88
225.645	7.88
226.445	8.88
227.245	5.88
228.045	8.88
228.845	6.88
229.645	7.88
230.444	9.88
231.244	7.88
232.043	8.88
232.843	6.88
233.642	8.88
234.442	9.88
235.241	9.88
236.04	9.88
236.839	7.88
237.638	10.88
238.437	10.88
239.236	9.88
240.035	11.88
240.833	12.88
241.632	10.88
242.43	11.88
243.229	12.88
244.027	13.88
244.826	16.88
245.624	11.88
246.422	13.88
247.22	15.88
248.018	14.88
248.816	14.88
249.614	14.88
250.412	14.88
251.21	18.88
252.007	14.88
252.805	19.88
253.602	17.88
254.4	18.88
255.197	18.88
255.994	17.88
256.791	20.88
257.589	17.88
258.386	20.88
259.183	21.88
259.979	19.88
260.776	24.88
261.573	23.88
262.37	24.88
263.166	26.88
263.963	25.88
264.759	25.88
265.556	28.88
266.352	28.88
267.148	26.88
267.944	29.88
268.74	28.88
269.536	28.88
270.332	29.88
271.128	29.88
271.924	30.88
272.719	31.88
273.515	35.88
274.311	29.88
275.106	31.88
275.901	36.88
276.697	34.88
277.492	34.88
278.287	33.88
279.082	31.88
279.877	35.88
280.672	32.88
281.467	35.88
282.262	33.88
283.056	32.88
283.851	32.88
284.646	36.88
285.44	36.88
286.234	32.88
287.029	32.88
287.823	33.88
288.617	30.88
289.411	30.88
290.205	30.88
290.999	33.88
291.793	32.88
292.587	30.88
293.381	28.88
294.174	29.88
294.968	26.88
295.761	24.88
296.555	29.88
297.348	26.88
298.141	27.88
298.935	30.88
299.728	26.88
300.521	25.88
301.314	26.88
302.107	23.88
302.899	21.88
303.692	20.88
304.485	23.88
305.277	21.88
306.07	24.88
306.862	18.88
307.655	20.88
308.447	23.88
309.239	20.88
310.031	22.88
310.823	20.88
311.615	16.88
312.407	16.88
313.199	15.88
313.991	15.88
314.783	15.88
315.574	16.88
316.366	12.88
317.157	14.88
317.949	16.88
318.74	13.88
319.531	14.88
320.322	14.88
321.113	11.88
321.904	16.88
322.695	13.88
323.486	13.88
324.277	12.88
325.068	13.88
325.858	12.88
326.649	13.88
327.439	13.88
328.23	10.88
329.02	11.88
329.81	9.88
330.6	12.88
331.391	12.88
332.181	12.88
332.971	12.88
333.76	10.88
334.55	8.88
335.34	11.88
336.13	10.88
336.919	11.88
337.709	10.88
338.498	11.88
339.287	13.88
340.077	13.88
340.866	9.88
341.655	11.88
342.444	11.88
343.233	10.88
344.022	13.88
344.811	10.88
345.6	13.88
346.388	12.88
347.177	7.88
347.965	9.88
348.754	11.88
349.542	12.88
350.33	11.88
351.119	10.88
351.907	9.88
352.695	10.88
353.483	10.88
354.271	10.88
355.059	12.88
355.846	10.88
356.634	5.88
357.422	10.88
358.209	8.88
358.997	9.88
359.784	8.88
360.571	9.88
361.359	8.88
362.146	11.88
362.933	8.88
363.72	7.88
364.507	9.88
365.294	7.88
366.081	9.88
366.867	8.88
367.654	8.88
368.44	11.88
369.227	8.88
370.013	10.88
370.8	8.88
371.586	11.88
372.372	7.88
373.158	8.88
373.944	10.88
374.73	9.88
375.516	7.88
376.302	10.88
377.088	7.88
377.873	10.88
378.659	9.88
379.445	10.88
380.23	9.88
381.015	11.88
381.801	10.88
382.586	11.88
383.371	11.88
384.156	9.88
384.941	10.88
385.726	10.88
386.511	11.88
387.296	11.88
388.08	11.88
388.865	10.88
389.649	10.88
390.434	12.88
391.218	11.88
392.003	12.88
392.787	10.88
393.571	9.88
394.355	11.88
395.139	12.88
395.923	14.88
396.707	12.88
397.491	12.88
398.274	13.88
399.058	14.88
399.842	12.88
400.625	10.88
401.408	12.88
402.192	13.88
402.975	12.88
403.758	14.88
404.541	12.88
405.324	12.88
406.107	15.88
406.89	17.88
407.673	17.88
408.456	14.88
409.238	18.88
410.021	18.88
410.803	17.88
411.586	17.88
412.368	17.88
413.151	13.88
413.933	17.88
414.715	17.88
415.497	18.88
416.279	16.88
417.061	18.88
417.843	17.88
418.624	20.88
419.406	21.88
420.188	21.88
420.969	17.88
421.751	19.88
422.532	23.88
423.313	20.88
424.095	21.88
424.876	22.88
425.657	27.88
426.438	25.88
427.219	24.88
428	28.88
428.78	24.88
429.561	27.88
430.342	33.88
431.122	30.88
431.903	33.88
432.683	33.88
433.464	39.88
434.244	38.88
435.024	38.88
435.804	38.88
436.584	43.88
437.364	45.88
438.144	46.88
438.924	50.88
439.704	53.88
440.483	55.88
441.263	58.88
442.042	65.88
442.822	70.88
443.601	76.88
444.38	77.88
445.16	84.88
445.939	92.88
446.718	98.88
447.497	110.88
448.276	121.88
449.054	127.88
449.833	144.88
450.612	156.88
451.391	173.88
452.169	193.88
452.948	213.88
453.726	236.88
454.504	261.88
455.282	293.88
456.061	324.88
456.839	365.88
457.617	407.88
458.395	445.88
459.172	509.88
459.95	558.88
460.728	625.88
461.506	716.88
462.283	774.88
463.061	872.88
463.838	972.88
464.615	1079.88
465.393	1209.88
466.17	1353.88
466.947	1486.88
467.724	1650.88
468.501	1853.88
469.278	2040.88
470.055	2253.88
470.831	2510.88
471.608	2755.88
472.385	3047.88
473.161	3358.88
473.938	3697.88
474.714	4057.88
475.49	4464.88
476.266	4881.88
477.043	5326.88
477.819	5852.88
478.595	6413.88
479.371	6984.88
480.146	7623.88
480.922	8304.88
481.698	9112.88
482.473	9898.88
483.249	10751.88
484.024	11713.88
484.8	12677.88
485.575	13746.88
486.35	14959.88
487.126	16226.88
487.901	17483.88
488.676	18922.88
489.451	20438.88
490.225	21992.88
491	23527.88
491.775	25235.88
492.55	27073.88
493.324	28742.88
494.099	30546.88
494.873	32392.88
495.647	34131.88
496.422	36074.88
497.196	37770.88
497.97	39442.88
498.744	40876.88
499.518	42618.88
500.292	43926.88
501.066	44930.88
501.839	45720.88
502.613	46561.88
503.387	47118.88
504.16	47509.88
504.934	47707.88
505.707	47493.88
506.48	47059.88
507.253	46575.88
508.027	45794.88
508.8	44829.88
509.573	43779.88
510.346	42632.88
511.118	41524.88
511.891	40324.88
512.664	38698.88
513.437	37186.88
514.209	35822.88
514.982	34451.88
515.754	33007.88
516.526	31588.88
517.298	30365.88
518.071	29216.88
518.843	27942.88
519.615	26917.88
520.387	25842.88
521.159	24836.88
521.93	23737.88
522.702	22715.88
523.474	21746.88
524.245	20847.88
525.017	19970.88
525.788	19064.88
526.56	18248.88
527.331	17475.88
528.102	16589.88
528.873	15772.88
529.644	14952.88
530.415	14300.88
531.186	13593.88
531.957	12926.88
532.728	12241.88
533.498	11607.88
534.269	10952.88
535.039	10391.88
535.81	9819.88
536.58	9262.88
537.351	8768.88
538.121	8334.88
538.891	7887.88
539.661	7477.88
540.431	7035.88
541.201	6693.88
541.971	6330.88
542.741	5997.88
543.51	5700.88
544.28	5394.88
545.05	5167.88
545.819	4915.88
546.588	4698.88
547.358	4477.88
548.127	4242.88
548.896	4016.88
549.665	3824.88
550.434	3616.88
551.203	3424.88
551.972	3256.88
552.741	3086.88
553.51	2900.88
554.278	2738.88
555.047	2584.88
555.815	2447.88
556.584	2321.88
557.352	2197.88
558.121	2069.88
558.889	1944.88
559.657	1837.88
560.425	1751.88
561.193	1645.88
561.961	1568.88
562.729	1481.88
563.496	1386.88
564.264	1307.88
565.032	1240.88
565.799	1183.88
566.567	1131.88
567.334	1072.88
568.101	1008.88
568.869	952.88
569.636	879.88
570.403	843.88
571.17	798.88
571.937	741.88
572.704	703.88
573.471	666.88
574.237	631.88
575.004	594.88
575.771	557.88
576.537	530.88
577.303	495.88
578.07	474.88
578.836	445.88
579.602	418.88
580.368	402.88
581.134	386.88
581.9	363.88
582.666	342.88
583.432	329.88
584.198	307.88
584.964	294.88
585.729	282.88
586.495	263.88
587.26	250.88
588.025	234.88
588.791	228.88
589.556	207.88
590.321	203.88
591.086	188.88
591.851	181.88
592.616	174.88
593.381	168.88
594.146	161.88
594.911	154.88
595.675	143.88
596.44	137.88
597.204	129.88
597.969	130.88
598.733	123.88
599.497	112.88
600.261	108.88
601.025	105.88
601.79	105.88
602.553	96.88
603.317	93.88
604.081	89.88
604.845	87.88
605.609	80.88
606.372	80.88
607.136	78.88
607.899	76.88
608.662	65.88
609.426	71.88
610.189	68.88
610.952	65.88
611.715	56.88
612.478	60.88
613.241	52.88
614.004	53.88
614.767	48.88
615.529	54.88
616.292	45.88
617.055	48.88
617.817	45.88
618.579	42.88
619.342	42.88
620.104	44.88
620.866	39.88
621.628	39.88
622.39	37.88
623.152	34.88
623.914	34.88
624.676	34.88
625.438	34.88
626.199	30.88
626.961	32.88
627.722	31.88
628.484	28.88
629.245	29.88
630.006	27.88
630.768	27.88
631.529	26.88
632.29	24.88
633.051	24.88
633.812	26.88
634.573	22.88
635.333	22.88
636.094	24.88
636.855	23.88
637.615	23.88
638.376	18.88
639.136	19.88
639.896	19.88
640.657	18.88
641.417	18.88
642.177	17.88
642.937	18.88
643.697	18.88
644.457	16.88
645.216	18.88
645.976	14.88
646.736	17.88
647.495	14.88
648.255	16.88
649.014	11.88
649.774	15.88
650.533	14.88
651.292	12.88
652.051	12.88
652.81	13.88
653.569	11.88
654.328	13.88
655.087	12.88
655.846	11.88
656.604	12.88
657.363	14.88
658.121	11.88
658.88	11.88
659.638	14.88
660.397	12.88
661.155	12.88
661.913	11.88
662.671	8.88
663.429	12.88
664.187	10.88
664.945	11.88
665.703	10.88
666.46	8.88
667.218	12.88
667.976	10.88
668.733	12.88
669.49	8.88
670.248	7.88
671.005	10.88
671.762	8.88
672.519	10.88
673.276	8.88
674.033	9.88
674.79	7.88
675.547	10.88
676.304	6.88
677.06	10.88
677.817	8.88
678.574	8.88
679.33	6.88
680.086	6.88
680.843	5.88
681.599	7.88
682.355	7.88
683.111	7.88
683.867	6.88
684.623	7.88
685.379	6.88
686.135	6.88
686.89	7.88
687.646	7.88
688.402	8.88
689.157	8.88
689.912	5.88
690.668	9.88
691.423	8.88
692.178	7.88
692.933	8.88
693.688	8.88
694.443	8.88
695.198	6.88
695.953	6.88
696.708	6.88
697.462	9.88
698.217	6.88
698.972	6.88
699.726	5.88
700.48	7.88
701.235	8.88
701.989	3.88
702.743	9.88
703.497	6.88
704.251	8.88
705.005	6.88
705.759	4.88
706.513	7.88
707.266	7.88
708.02	6.88
708.774	6.88
709.527	9.88
710.28	7.88
711.034	4.88
711.787	10.88
712.54	7.88
713.293	8.88
714.046	6.88
714.799	6.88
715.552	7.88
716.305	6.88
717.058	8.88
717.81	7.88
718.563	10.88
719.315	7.88
720.068	7.88
720.82	8.88
721.573	6.88
722.325	10.88
723.077	7.88
723.829	5.88
724.581	8.88
725.333	8.88
726.085	11.88
726.836	8.88
727.588	9.88
728.34	9.88
729.091	9.88
729.843	8.88
730.594	8.88
731.346	9.88
732.097	10.88
732.848	10.88
733.599	9.88
734.35	8.88
735.101	11.88
735.852	8.88
736.603	10.88
737.354	8.88
738.104	8.88
738.855	8.88
739.605	6.88
740.356	11.88
741.106	8.88
741.856	11.88
742.607	9.88
743.357	9.88
744.107	9.88
744.857	8.88
745.607	11.88
746.357	9.88
747.106	11.88
747.856	11.88
748.606	10.88
749.355	9.88
750.105	10.88
750.854	10.88
751.603	10.88
752.353	12.88
753.102	10.88
753.851	12.88
754.6	12.88
755.349	12.88
756.098	9.88
756.847	11.88
757.595	10.88
758.344	11.88
759.093	10.88
759.841	13.88
760.589	11.88
761.338	13.88
762.086	10.88
762.834	15.88
763.582	11.88
764.331	12.88
765.079	10.88
765.826	12.88
766.574	14.88
767.322	15.88
768.07	12.88
768.817	13.88
769.565	13.88
770.312	13.88
771.06	13.88
771.807	10.88
772.554	15.88
773.302	15.88
774.049	15.88
774.796	16.88
775.543	12.88
776.29	16.88
777.036	15.88
777.783	14.88
778.53	15.88
779.276	14.88
780.023	13.88
780.769	16.88
781.516	14.88
782.262	16.88
783.008	16.88
783.754	16.88
784.5	14.88
785.246	15.88
785.992	14.88
786.738	14.88
787.484	15.88
788.23	13.88
788.975	15.88
789.721	13.88
790.466	15.88
791.212	15.88
791.957	14.88
792.702	13.88
793.447	13.88
794.193	14.88
794.938	13.88
795.683	13.88
796.427	13.88
797.172	10.88
797.917	11.88
798.662	13.88
799.406	14.88
800.151	12.88
800.895	11.88
801.64	12.88
802.384	13.88
803.128	7.88
803.872	11.88
804.616	10.88
805.36	11.88
806.104	9.88
806.848	10.88
807.592	10.88
808.336	10.88
809.079	9.88
809.823	7.88
810.566	8.88
811.31	11.88
812.053	7.88
812.796	10.88
813.539	7.88
814.283	8.88
815.026	9.88
815.769	5.88
816.511	7.88
817.254	8.88
817.997	6.88
818.74	7.88
819.482	5.88
820.225	7.88
820.967	7.88
821.71	6.88
822.452	9.88
823.194	5.88
823.936	6.88
824.678	6.88
825.42	8.88
826.162	6.88
826.904	7.88
827.646	6.88
828.388	7.88
829.129	6.88
829.871	4.88
830.612	5.88
831.354	6.88
832.095	5.88
832.836	5.88
833.577	6.88
834.319	4.88
835.06	4.88
835.801	5.88
836.542	5.88
837.282	5.88
838.023	2.88
838.764	5.88
839.504	3.88
840.245	8.88
840.985	4.88
841.726	4.88
842.466	7.88
843.206	2.88
843.946	4.88
844.687	4.88
845.427	6.88
846.166	3.88
846.906	2.88
847.646	5.88
848.386	4.88
849.125	4.88
849.865	4.88
850.605	4.88
851.344	4.88
852.083	2.88
852.823	5.88
853.562	3.88
854.301	4.88
855.04	5.88
855.779	3.88
856.518	4.88
857.257	2.88
857.995	4.88
858.734	1.88
859.473	3.88
860.211	2.88
860.95	2.88
861.688	4.88
862.426	3.88
863.165	4.88
863.903	5.88
864.641	1.88
865.379	2.88
866.117	2.88
866.855	2.88
867.593	1.88
868.33	1.88
869.068	2.88
869.806	0.88
870.543	3.88
871.28	2.88
872.018	2.88
872.755	1.88
873.492	2.88
874.229	4.88
874.967	1.88
875.703	2.88
876.44	1.88
877.177	1.88
877.914	2.88
878.651	0.88
879.387	1.88
880.124	2.88
880.86	3.88
881.597	0.88
882.333	0.88
883.069	2.88
883.806	1.88
884.542	1.88
885.278	1.88
886.014	0.88
886.749	0.88
887.485	0.88
888.221	2.88
888.957	2.88
889.692	0.88
890.428	-1.12
891.163	0.88
891.899	1.88
892.634	1.88
893.369	1.88
894.104	0.88
894.839	1.88
895.574	0.88
896.309	0.88
897.044	1.88
897.779	2.88
898.514	-1.12
899.248	-0.12
899.983	2.88
900.717	1.88
901.452	3.88
902.186	0.88
902.92	1.88
903.654	2.88
904.389	-1.12
905.123	1.88
905.857	-1.12
906.59	2.88
907.324	0.88
908.058	1.88
908.792	0.88
909.525	-0.12
910.259	-0.12
910.992	-0.12
911.726	-0.12
912.459	-0.12
913.192	-1.12
913.925	0.88
914.658	0.88
915.391	-0.12
916.124	3.88
916.857	-0.12
917.59	-0.12
918.323	-0.12
919.055	1.88
919.788	1.88
920.521	-2.12
921.253	0.88
921.985	-1.12
922.718	1.88
923.45	0.88
924.182	0.88
924.914	-0.12
925.646	-0.12
926.378	2.88
927.11	-0.12
927.841	0.88
928.573	-0.12
929.305	1.88
930.036	0.88
930.768	-1.12
931.499	0.88
932.23	1.88
932.962	1.88
933.693	1.88
934.424	1.88
935.155	-2.12
935.886	0.88
936.617	-0.12
937.348	-0.12
938.078	-1.12
938.809	-0.12
939.54	-2.12
940.27	0.88
941.001	-1.12
941.731	2.88
942.461	1.88
943.191	0.88
943.922	1.88
944.652	-0.12
945.382	0.88
946.112	0.88
946.841	-1.12
947.571	-0.12
948.301	-2.12
949.031	1.88
949.76	-1.12
950.49	-0.12
951.219	-1.12
951.948	2.88
952.678	-2.12
953.407	-1.12
954.136	-1.12
954.865	-0.12
955.594	0.88
956.323	-2.12
957.052	1.88
957.78	-0.12
958.509	-1.12
959.238	0.88
959.966	-0.12
960.695	-1.12
961.423	-1.12
962.151	1.88
962.88	0.88
963.608	-0.12
964.336	0.88
965.064	0.88
965.792	-1.12
966.52	0.88
967.247	-1.12
967.975	-0.12
968.703	-0.12
969.43	0.88
970.158	-1.12
970.885	0.88
971.613	1.88
972.34	-0.12
973.067	-0.12
973.794	-1.12
974.521	1.88
975.248	-0.12
975.975	0.88
976.702	0.88
977.429	0.88
978.156	-2.12
978.882	0.88
979.609	-0.12
980.335	-0.12
981.062	-1.12
981.788	-0.12
982.514	-0.12
983.24	-1.12
983.967	0.88
984.693	-0.12
985.419	-1.12
986.144	1.88
986.87	-1.12
987.596	-0.12
988.322	0.88
989.047	2.88
989.773	-0.12
990.498	1.88
991.224	-0.12
991.949	-1.12
992.674	0.88
993.399	0.88
994.124	-0.12
994.849	-0.12
995.574	0.88
996.299	-2.12
997.024	-0.12
997.749	0.88
998.473	0.88
999.198	-0.12
999.922	0.88
1000.647	2.88
1001.371	3.88
1002.095	-1.12
1002.82	0.88
1003.544	-1.12
1004.268	4.88
1004.992	2.88
1005.716	5.88
1006.439	6.88
1007.163	4.88
1007.887	5.88
1008.611	-0.12
1009.334	-0.12
1010.058	0.88
1010.781	-0.12
1011.504	1.88
1012.228	0.88
1012.951	-1.12
1013.674	-0.12
1014.397	-1.12
1015.12	-0.12
