节点500_705_QEPB04081__624__20-54-48-784.txt的数据

Date: Wed Nov 12 20:54:48 CST 2025
User: PC
Spectrometer: QEPB0408
触发模式: 0
积分时间 (秒): 1.000000E-2
Scans to average: 1
启用暗噪声校正: true
启用非线性校正: false
滑动平均宽度: 0
X轴模式: Wavelengths
Number of Pixels in Spectrum: 1044
>>>>>Begin Spectral Data<<<<<
220.843	5.12
221.644	3.12
222.444	7.12
223.244	9.12
224.045	5.12
224.845	7.12
225.645	6.12
226.445	6.12
227.245	7.12
228.045	4.12
228.845	5.12
229.645	8.12
230.444	9.12
231.244	9.12
232.043	8.12
232.843	8.12
233.642	8.12
234.442	9.12
235.241	9.12
236.04	11.12
236.839	12.12
237.638	11.12
238.437	10.12
239.236	10.12
240.035	11.12
240.833	11.12
241.632	10.12
242.43	12.12
243.229	11.12
244.027	14.12
244.826	12.12
245.624	12.12
246.422	13.12
247.22	13.12
248.018	13.12
248.816	11.12
249.614	15.12
250.412	13.12
251.21	14.12
252.007	17.12
252.805	17.12
253.602	15.12
254.4	17.12
255.197	16.12
255.994	17.12
256.791	19.12
257.589	17.12
258.386	19.12
259.183	19.12
259.979	20.12
260.776	20.12
261.573	19.12
262.37	22.12
263.166	21.12
263.963	23.12
264.759	23.12
265.556	24.12
266.352	25.12
267.148	26.12
267.944	27.12
268.74	26.12
269.536	27.12
270.332	26.12
271.128	27.12
271.924	29.12
272.719	29.12
273.515	25.12
274.311	30.12
275.106	32.12
275.901	30.12
276.697	31.12
277.492	30.12
278.287	29.12
279.082	29.12
279.877	30.12
280.672	30.12
281.467	34.12
282.262	29.12
283.056	32.12
283.851	31.12
284.646	34.12
285.44	31.12
286.234	31.12
287.029	32.12
287.823	33.12
288.617	32.12
289.411	32.12
290.205	31.12
290.999	30.12
291.793	27.12
292.587	31.12
293.381	31.12
294.174	26.12
294.968	27.12
295.761	27.12
296.555	25.12
297.348	29.12
298.141	26.12
298.935	30.12
299.728	24.12
300.521	27.12
301.314	23.12
302.107	24.12
302.899	24.12
303.692	22.12
304.485	21.12
305.277	25.12
306.07	21.12
306.862	24.12
307.655	22.12
308.447	21.12
309.239	23.12
310.031	20.12
310.823	19.12
311.615	20.12
312.407	16.12
313.199	16.12
313.991	18.12
314.783	18.12
315.574	17.12
316.366	18.12
317.157	15.12
317.949	15.12
318.74	15.12
319.531	13.12
320.322	16.12
321.113	14.12
321.904	15.12
322.695	13.12
323.486	15.12
324.277	14.12
325.068	13.12
325.858	13.12
326.649	12.12
327.439	13.12
328.23	11.12
329.02	13.12
329.81	11.12
330.6	10.12
331.391	14.12
332.181	10.12
332.971	13.12
333.76	12.12
334.55	11.12
335.34	11.12
336.13	11.12
336.919	12.12
337.709	13.12
338.498	11.12
339.287	13.12
340.077	11.12
340.866	10.12
341.655	11.12
342.444	12.12
343.233	11.12
344.022	13.12
344.811	12.12
345.6	7.12
346.388	12.12
347.177	12.12
347.965	11.12
348.754	10.12
349.542	11.12
350.33	10.12
351.119	11.12
351.907	12.12
352.695	9.12
353.483	12.12
354.271	10.12
355.059	10.12
355.846	12.12
356.634	10.12
357.422	11.12
358.209	10.12
358.997	10.12
359.784	9.12
360.571	12.12
361.359	10.12
362.146	10.12
362.933	12.12
363.72	10.12
364.507	10.12
365.294	10.12
366.081	11.12
366.867	10.12
367.654	8.12
368.44	12.12
369.227	11.12
370.013	12.12
370.8	13.12
371.586	8.12
372.372	11.12
373.158	8.12
373.944	9.12
374.73	9.12
375.516	8.12
376.302	9.12
377.088	11.12
377.873	9.12
378.659	9.12
379.445	9.12
380.23	11.12
381.015	8.12
381.801	9.12
382.586	12.12
383.371	12.12
384.156	12.12
384.941	10.12
385.726	9.12
386.511	12.12
387.296	10.12
388.08	11.12
388.865	12.12
389.649	11.12
390.434	11.12
391.218	13.12
392.003	11.12
392.787	10.12
393.571	11.12
394.355	14.12
395.139	11.12
395.923	11.12
396.707	12.12
397.491	11.12
398.274	15.12
399.058	13.12
399.842	14.12
400.625	14.12
401.408	13.12
402.192	11.12
402.975	14.12
403.758	14.12
404.541	14.12
405.324	13.12
406.107	16.12
406.89	13.12
407.673	16.12
408.456	15.12
409.238	18.12
410.021	14.12
410.803	15.12
411.586	18.12
412.368	18.12
413.151	16.12
413.933	18.12
414.715	19.12
415.497	17.12
416.279	17.12
417.061	19.12
417.843	18.12
418.624	18.12
419.406	18.12
420.188	18.12
420.969	19.12
421.751	24.12
422.532	20.12
423.313	19.12
424.095	23.12
424.876	24.12
425.657	26.12
426.438	27.12
427.219	27.12
428	23.12
428.78	26.12
429.561	28.12
430.342	29.12
431.122	31.12
431.903	32.12
432.683	35.12
433.464	35.12
434.244	38.12
435.024	40.12
435.804	44.12
436.584	41.12
437.364	45.12
438.144	45.12
438.924	51.12
439.704	54.12
440.483	57.12
441.263	65.12
442.042	69.12
442.822	75.12
443.601	80.12
444.38	85.12
445.16	90.12
445.939	97.12
446.718	107.12
447.497	119.12
448.276	132.12
449.054	141.12
449.833	158.12
450.612	169.12
451.391	192.12
452.169	206.12
452.948	237.12
453.726	261.12
454.504	294.12
455.282	320.12
456.061	352.12
456.839	390.12
457.617	442.12
458.395	484.12
459.172	548.12
459.95	594.12
460.728	675.12
461.506	748.12
462.283	830.12
463.061	920.12
463.838	1021.12
464.615	1133.12
465.393	1249.12
466.17	1386.12
466.947	1535.12
467.724	1704.12
468.501	1882.12
469.278	2072.12
470.055	2277.12
470.831	2513.12
471.608	2757.12
472.385	3012.12
473.161	3321.12
473.938	3602.12
474.714	3939.12
475.49	4297.12
476.266	4715.12
477.043	5107.12
477.819	5559.12
478.595	6090.12
479.371	6595.12
480.146	7120.12
480.922	7746.12
481.698	8381.12
482.473	9091.12
483.249	9852.12
484.024	10623.12
484.8	11466.12
485.575	12321.12
486.35	13314.12
487.126	14367.12
487.901	15487.12
488.676	16615.12
489.451	17869.12
490.225	19177.12
491	20520.12
491.775	21858.12
492.55	23379.12
493.324	24828.12
494.099	26452.12
494.873	27969.12
495.647	29486.12
496.422	31060.12
497.196	32773.12
497.97	34327.12
498.744	35669.12
499.518	37204.12
500.292	38602.12
501.066	39665.12
501.839	40689.12
502.613	41591.12
503.387	42413.12
504.16	42905.12
504.934	43380.12
505.707	43633.12
506.48	43574.12
507.253	43372.12
508.027	43093.12
508.8	42614.12
509.573	41926.12
510.346	41135.12
511.118	40359.12
511.891	39425.12
512.664	38122.12
513.437	36916.12
514.209	35755.12
514.982	34507.12
515.754	33233.12
516.526	31986.12
517.298	30797.12
518.071	29603.12
518.843	28480.12
519.615	27279.12
520.387	26232.12
521.159	25177.12
521.93	24249.12
522.702	23231.12
523.474	22292.12
524.245	21426.12
525.017	20452.12
525.788	19676.12
526.56	18877.12
527.331	18047.12
528.102	17166.12
528.873	16332.12
529.644	15663.12
530.415	14902.12
531.186	14224.12
531.957	13564.12
532.728	12804.12
533.498	12217.12
534.269	11620.12
535.039	11002.12
535.81	10409.12
536.58	9851.12
537.351	9352.12
538.121	8863.12
538.891	8392.12
539.661	7891.12
540.431	7503.12
541.201	7148.12
541.971	6758.12
542.741	6389.12
543.51	6034.12
544.28	5780.12
545.05	5505.12
545.819	5247.12
546.588	4999.12
547.358	4768.12
548.127	4529.12
548.896	4314.12
549.665	4099.12
550.434	3898.12
551.203	3702.12
551.972	3511.12
552.741	3302.12
553.51	3129.12
554.278	2970.12
555.047	2791.12
555.815	2657.12
556.584	2534.12
557.352	2374.12
558.121	2253.12
558.889	2114.12
559.657	2019.12
560.425	1900.12
561.193	1816.12
561.961	1701.12
562.729	1614.12
563.496	1527.12
564.264	1452.12
565.032	1351.12
565.799	1293.12
566.567	1237.12
567.334	1155.12
568.101	1087.12
568.869	1033.12
569.636	974.12
570.403	916.12
571.17	867.12
571.937	819.12
572.704	779.12
573.471	734.12
574.237	684.12
575.004	655.12
575.771	610.12
576.537	572.12
577.303	555.12
578.07	516.12
578.836	490.12
579.602	458.12
580.368	437.12
581.134	409.12
581.9	394.12
582.666	383.12
583.432	356.12
584.198	339.12
584.964	320.12
585.729	302.12
586.495	286.12
587.26	271.12
588.025	260.12
588.791	243.12
589.556	234.12
590.321	216.12
591.086	210.12
591.851	199.12
592.616	193.12
593.381	176.12
594.146	169.12
594.911	167.12
595.675	153.12
596.44	147.12
597.204	143.12
597.969	135.12
598.733	130.12
599.497	126.12
600.261	120.12
601.025	114.12
601.79	108.12
602.553	107.12
603.317	99.12
604.081	97.12
604.845	91.12
605.609	89.12
606.372	85.12
607.136	85.12
607.899	81.12
608.662	76.12
609.426	75.12
610.189	69.12
610.952	65.12
611.715	63.12
612.478	65.12
613.241	59.12
614.004	58.12
614.767	56.12
615.529	54.12
616.292	56.12
617.055	53.12
617.817	47.12
618.579	47.12
619.342	42.12
620.104	46.12
620.866	43.12
621.628	40.12
622.39	40.12
623.152	39.12
623.914	40.12
624.676	35.12
625.438	38.12
626.199	33.12
626.961	31.12
627.722	32.12
628.484	35.12
629.245	28.12
630.006	30.12
630.768	29.12
631.529	26.12
632.29	30.12
633.051	27.12
633.812	27.12
634.573	25.12
635.333	22.12
636.094	23.12
636.855	21.12
637.615	22.12
638.376	21.12
639.136	20.12
639.896	22.12
640.657	17.12
641.417	17.12
642.177	20.12
642.937	18.12
643.697	19.12
644.457	15.12
645.216	15.12
645.976	15.12
646.736	15.12
647.495	19.12
648.255	15.12
649.014	16.12
649.774	17.12
650.533	16.12
651.292	14.12
652.051	15.12
652.81	13.12
653.569	13.12
654.328	13.12
655.087	13.12
655.846	14.12
656.604	13.12
657.363	13.12
658.121	10.12
658.88	11.12
659.638	15.12
660.397	14.12
661.155	12.12
661.913	10.12
662.671	12.12
663.429	10.12
664.187	9.12
664.945	11.12
665.703	9.12
666.46	9.12
667.218	10.12
667.976	10.12
668.733	9.12
669.49	9.12
670.248	9.12
671.005	12.12
671.762	11.12
672.519	6.12
673.276	11.12
674.033	9.12
674.79	9.12
675.547	7.12
676.304	8.12
677.06	12.12
677.817	8.12
678.574	9.12
679.33	7.12
680.086	9.12
680.843	9.12
681.599	7.12
682.355	10.12
683.111	6.12
683.867	8.12
684.623	8.12
685.379	9.12
686.135	10.12
686.89	9.12
687.646	8.12
688.402	7.12
689.157	8.12
689.912	7.12
690.668	7.12
691.423	5.12
692.178	8.12
692.933	9.12
693.688	8.12
694.443	9.12
695.198	10.12
695.953	7.12
696.708	8.12
697.462	7.12
698.217	9.12
698.972	9.12
699.726	8.12
700.48	6.12
701.235	5.12
701.989	8.12
702.743	8.12
703.497	6.12
704.251	10.12
705.005	6.12
705.759	8.12
706.513	7.12
707.266	8.12
708.02	5.12
708.774	9.12
709.527	7.12
710.28	6.12
711.034	8.12
711.787	7.12
712.54	5.12
713.293	8.12
714.046	8.12
714.799	7.12
715.552	6.12
716.305	7.12
717.058	8.12
717.81	8.12
718.563	8.12
719.315	8.12
720.068	8.12
720.82	7.12
721.573	7.12
722.325	8.12
723.077	9.12
723.829	8.12
724.581	5.12
725.333	8.12
726.085	9.12
726.836	11.12
727.588	8.12
728.34	5.12
729.091	8.12
729.843	8.12
730.594	8.12
731.346	8.12
732.097	8.12
732.848	11.12
733.599	5.12
734.35	9.12
735.101	8.12
735.852	9.12
736.603	8.12
737.354	8.12
738.104	9.12
738.855	7.12
739.605	9.12
740.356	9.12
741.106	10.12
741.856	11.12
742.607	11.12
743.357	12.12
744.107	10.12
744.857	9.12
745.607	11.12
746.357	10.12
747.106	11.12
747.856	9.12
748.606	8.12
749.355	9.12
750.105	10.12
750.854	11.12
751.603	11.12
752.353	11.12
753.102	10.12
753.851	10.12
754.6	10.12
755.349	9.12
756.098	11.12
756.847	9.12
757.595	11.12
758.344	10.12
759.093	11.12
759.841	11.12
760.589	11.12
761.338	12.12
762.086	11.12
762.834	11.12
763.582	12.12
764.331	15.12
765.079	13.12
765.826	11.12
766.574	13.12
767.322	10.12
768.07	14.12
768.817	16.12
769.565	11.12
770.312	14.12
771.06	12.12
771.807	14.12
772.554	14.12
773.302	15.12
774.049	13.12
774.796	13.12
775.543	15.12
776.29	13.12
777.036	13.12
777.783	14.12
778.53	14.12
779.276	14.12
780.023	15.12
780.769	11.12
781.516	14.12
782.262	18.12
783.008	16.12
783.754	14.12
784.5	17.12
785.246	12.12
785.992	13.12
786.738	16.12
787.484	15.12
788.23	13.12
788.975	12.12
789.721	12.12
790.466	14.12
791.212	18.12
791.957	13.12
792.702	14.12
793.447	12.12
794.193	14.12
794.938	11.12
795.683	11.12
796.427	15.12
797.172	10.12
797.917	11.12
798.662	11.12
799.406	13.12
800.151	13.12
800.895	13.12
801.64	11.12
802.384	13.12
803.128	12.12
803.872	11.12
804.616	9.12
805.36	12.12
806.104	10.12
806.848	11.12
807.592	10.12
808.336	9.12
809.079	11.12
809.823	7.12
810.566	9.12
811.31	8.12
812.053	8.12
812.796	10.12
813.539	9.12
814.283	10.12
815.026	11.12
815.769	9.12
816.511	10.12
817.254	8.12
817.997	10.12
818.74	6.12
819.482	8.12
820.225	8.12
820.967	9.12
821.71	4.12
822.452	8.12
823.194	7.12
823.936	6.12
824.678	9.12
825.42	9.12
826.162	7.12
826.904	6.12
827.646	8.12
828.388	7.12
829.129	7.12
829.871	5.12
830.612	7.12
831.354	6.12
832.095	8.12
832.836	8.12
833.577	8.12
834.319	6.12
835.06	6.12
835.801	9.12
836.542	6.12
837.282	5.12
838.023	5.12
838.764	5.12
839.504	7.12
840.245	4.12
840.985	3.12
841.726	7.12
842.466	5.12
843.206	5.12
843.946	3.12
844.687	6.12
845.427	5.12
846.166	4.12
846.906	3.12
847.646	5.12
848.386	2.12
849.125	2.12
849.865	6.12
850.605	4.12
851.344	6.12
852.083	6.12
852.823	3.12
853.562	5.12
854.301	4.12
855.04	6.12
855.779	4.12
856.518	3.12
857.257	4.12
857.995	4.12
858.734	4.12
859.473	4.12
860.211	4.12
860.95	4.12
861.688	2.12
862.426	2.12
863.165	3.12
863.903	2.12
864.641	2.12
865.379	5.12
866.117	2.12
866.855	6.12
867.593	1.12
868.33	4.12
869.068	3.12
869.806	1.12
870.543	1.12
871.28	3.12
872.018	2.12
872.755	0.12
873.492	3.12
874.229	3.12
874.967	2.12
875.703	5.12
876.44	-0.88
877.177	0.12
877.914	3.12
878.651	1.12
879.387	3.12
880.124	2.12
880.86	4.12
881.597	2.12
882.333	-0.88
883.069	3.12
883.806	3.12
884.542	4.12
885.278	2.12
886.014	2.12
886.749	0.12
887.485	1.12
888.221	1.12
888.957	0.12
889.692	2.12
890.428	1.12
891.163	3.12
891.899	2.12
892.634	0.12
893.369	3.12
894.104	3.12
894.839	2.12
895.574	1.12
896.309	1.12
897.044	2.12
897.779	-0.88
898.514	3.12
899.248	2.12
899.983	1.12
900.717	1.12
901.452	2.12
902.186	1.12
902.92	-0.88
903.654	1.12
904.389	1.12
905.123	0.12
905.857	0.12
906.59	3.12
907.324	-0.88
908.058	1.12
908.792	0.12
909.525	1.12
910.259	0.12
910.992	2.12
911.726	1.12
912.459	0.12
913.192	-0.88
913.925	0.12
914.658	2.12
915.391	0.12
916.124	1.12
916.857	0.12
917.59	0.12
918.323	1.12
919.055	0.12
919.788	3.12
920.521	0.12
921.253	0.12
921.985	2.12
922.718	1.12
923.45	0.12
924.182	-0.88
924.914	2.12
925.646	-0.88
926.378	1.12
927.11	1.12
927.841	1.12
928.573	0.12
929.305	-0.88
930.036	2.12
930.768	2.12
931.499	0.12
932.23	1.12
932.962	2.12
933.693	0.12
934.424	1.12
935.155	1.12
935.886	-0.88
936.617	0.12
937.348	1.12
938.078	0.12
938.809	3.12
939.54	0.12
940.27	1.12
941.001	-0.88
941.731	1.12
942.461	2.12
943.191	1.12
943.922	-0.88
944.652	-0.88
945.382	0.12
946.112	-0.88
946.841	-0.88
947.571	2.12
948.301	-0.88
949.031	0.12
949.76	-0.88
950.49	-0.88
951.219	3.12
951.948	1.12
952.678	1.12
953.407	2.12
954.136	1.12
954.865	-0.88
955.594	-0.88
956.323	1.12
957.052	2.12
957.78	1.12
958.509	1.12
959.238	-0.88
959.966	0.12
960.695	-0.88
961.423	-0.88
962.151	1.12
962.88	0.12
963.608	1.12
964.336	0.12
965.064	-0.88
965.792	0.12
966.52	0.12
967.247	1.12
967.975	1.12
968.703	2.12
969.43	2.12
970.158	1.12
970.885	2.12
971.613	1.12
972.34	1.12
973.067	-0.88
973.794	0.12
974.521	0.12
975.248	2.12
975.975	0.12
976.702	-0.88
977.429	0.12
978.156	0.12
978.882	1.12
979.609	3.12
980.335	0.12
981.062	1.12
981.788	1.12
982.514	0.12
983.24	-0.88
983.967	1.12
984.693	2.12
985.419	0.12
986.144	-1.88
986.87	-0.88
987.596	2.12
988.322	-1.88
989.047	1.12
989.773	0.12
990.498	2.12
991.224	2.12
991.949	0.12
992.674	2.12
993.399	-1.88
994.124	3.12
994.849	0.12
995.574	-0.88
996.299	0.12
997.024	-1.88
997.749	2.12
998.473	0.12
999.198	2.12
999.922	1.12
1000.647	0.12
1001.371	4.12
1002.095	-1.88
1002.82	-1.88
1003.544	1.12
1004.268	5.12
1004.992	6.12
1005.716	5.12
1006.439	3.12
1007.163	6.12
1007.887	5.12
1008.611	-0.88
1009.334	-0.88
1010.058	0.12
1010.781	1.12
1011.504	0.12
1012.228	-0.88
1012.951	-1.88
1013.674	-0.88
1014.397	1.12
1015.12	0.12
