节点500_705_QEPB04081__182__20-48-50-087.txt的数据

Date: Wed Nov 12 20:48:50 CST 2025
User: PC
Spectrometer: QEPB0408
触发模式: 0
积分时间 (秒): 1.000000E-2
Scans to average: 1
启用暗噪声校正: true
启用非线性校正: false
滑动平均宽度: 0
X轴模式: Wavelengths
Number of Pixels in Spectrum: 1044
>>>>>Begin Spectral Data<<<<<
220.843	6.25
221.644	6.25
222.444	5.25
223.244	4.25
224.045	6.25
224.845	5.25
225.645	4.25
226.445	6.25
227.245	7.25
228.045	5.25
228.845	9.25
229.645	6.25
230.444	6.25
231.244	9.25
232.043	8.25
232.843	7.25
233.642	10.25
234.442	7.25
235.241	10.25
236.04	10.25
236.839	10.25
237.638	8.25
238.437	12.25
239.236	11.25
240.035	12.25
240.833	12.25
241.632	10.25
242.43	12.25
243.229	13.25
244.027	11.25
244.826	14.25
245.624	13.25
246.422	14.25
247.22	14.25
248.018	13.25
248.816	15.25
249.614	17.25
250.412	14.25
251.21	16.25
252.007	17.25
252.805	17.25
253.602	17.25
254.4	18.25
255.197	17.25
255.994	18.25
256.791	19.25
257.589	22.25
258.386	22.25
259.183	22.25
259.979	23.25
260.776	22.25
261.573	26.25
262.37	25.25
263.166	27.25
263.963	26.25
264.759	27.25
265.556	28.25
266.352	25.25
267.148	28.25
267.944	28.25
268.74	28.25
269.536	30.25
270.332	28.25
271.128	33.25
271.924	32.25
272.719	29.25
273.515	31.25
274.311	35.25
275.106	32.25
275.901	35.25
276.697	34.25
277.492	36.25
278.287	34.25
279.082	34.25
279.877	34.25
280.672	36.25
281.467	32.25
282.262	32.25
283.056	33.25
283.851	34.25
284.646	36.25
285.44	37.25
286.234	30.25
287.029	32.25
287.823	34.25
288.617	36.25
289.411	32.25
290.205	34.25
290.999	32.25
291.793	30.25
292.587	30.25
293.381	30.25
294.174	30.25
294.968	31.25
295.761	26.25
296.555	28.25
297.348	27.25
298.141	28.25
298.935	31.25
299.728	25.25
300.521	24.25
301.314	25.25
302.107	21.25
302.899	19.25
303.692	24.25
304.485	21.25
305.277	20.25
306.07	20.25
306.862	22.25
307.655	24.25
308.447	22.25
309.239	20.25
310.031	18.25
310.823	19.25
311.615	19.25
312.407	18.25
313.199	18.25
313.991	16.25
314.783	14.25
315.574	15.25
316.366	14.25
317.157	14.25
317.949	16.25
318.74	11.25
319.531	14.25
320.322	13.25
321.113	12.25
321.904	13.25
322.695	11.25
323.486	10.25
324.277	12.25
325.068	9.25
325.858	9.25
326.649	14.25
327.439	11.25
328.23	12.25
329.02	12.25
329.81	11.25
330.6	12.25
331.391	11.25
332.181	10.25
332.971	11.25
333.76	11.25
334.55	14.25
335.34	12.25
336.13	11.25
336.919	11.25
337.709	13.25
338.498	13.25
339.287	11.25
340.077	13.25
340.866	9.25
341.655	10.25
342.444	10.25
343.233	10.25
344.022	11.25
344.811	12.25
345.6	13.25
346.388	10.25
347.177	10.25
347.965	10.25
348.754	10.25
349.542	13.25
350.33	9.25
351.119	10.25
351.907	7.25
352.695	11.25
353.483	11.25
354.271	11.25
355.059	10.25
355.846	8.25
356.634	10.25
357.422	10.25
358.209	9.25
358.997	12.25
359.784	8.25
360.571	8.25
361.359	9.25
362.146	10.25
362.933	8.25
363.72	9.25
364.507	7.25
365.294	8.25
366.081	8.25
366.867	9.25
367.654	12.25
368.44	8.25
369.227	8.25
370.013	10.25
370.8	7.25
371.586	10.25
372.372	8.25
373.158	9.25
373.944	10.25
374.73	10.25
375.516	9.25
376.302	6.25
377.088	10.25
377.873	10.25
378.659	10.25
379.445	11.25
380.23	7.25
381.015	10.25
381.801	9.25
382.586	9.25
383.371	10.25
384.156	10.25
384.941	10.25
385.726	10.25
386.511	11.25
387.296	10.25
388.08	10.25
388.865	12.25
389.649	13.25
390.434	11.25
391.218	11.25
392.003	10.25
392.787	12.25
393.571	12.25
394.355	11.25
395.139	12.25
395.923	12.25
396.707	12.25
397.491	14.25
398.274	14.25
399.058	12.25
399.842	14.25
400.625	13.25
401.408	13.25
402.192	12.25
402.975	14.25
403.758	12.25
404.541	14.25
405.324	14.25
406.107	15.25
406.89	14.25
407.673	15.25
408.456	14.25
409.238	16.25
410.021	14.25
410.803	16.25
411.586	17.25
412.368	17.25
413.151	17.25
413.933	18.25
414.715	18.25
415.497	16.25
416.279	17.25
417.061	19.25
417.843	19.25
418.624	19.25
419.406	20.25
420.188	24.25
420.969	21.25
421.751	23.25
422.532	22.25
423.313	22.25
424.095	25.25
424.876	23.25
425.657	23.25
426.438	26.25
427.219	25.25
428	26.25
428.78	28.25
429.561	29.25
430.342	30.25
431.122	31.25
431.903	34.25
432.683	33.25
433.464	36.25
434.244	34.25
435.024	38.25
435.804	38.25
436.584	40.25
437.364	47.25
438.144	44.25
438.924	50.25
439.704	55.25
440.483	55.25
441.263	59.25
442.042	61.25
442.822	67.25
443.601	71.25
444.38	84.25
445.16	83.25
445.939	88.25
446.718	103.25
447.497	108.25
448.276	116.25
449.054	126.25
449.833	142.25
450.612	158.25
451.391	166.25
452.169	187.25
452.948	205.25
453.726	230.25
454.504	256.25
455.282	278.25
456.061	314.25
456.839	350.25
457.617	386.25
458.395	434.25
459.172	481.25
459.95	550.25
460.728	613.25
461.506	684.25
462.283	766.25
463.061	857.25
463.838	957.25
464.615	1061.25
465.393	1188.25
466.17	1326.25
466.947	1476.25
467.724	1644.25
468.501	1816.25
469.278	2015.25
470.055	2263.25
470.831	2494.25
471.608	2742.25
472.385	3050.25
473.161	3354.25
473.938	3687.25
474.714	4052.25
475.49	4480.25
476.266	4934.25
477.043	5383.25
477.819	5911.25
478.595	6491.25
479.371	7101.25
480.146	7808.25
480.922	8527.25
481.698	9273.25
482.473	10167.25
483.249	11107.25
484.024	12005.25
484.8	13104.25
485.575	14191.25
486.35	15444.25
487.126	16741.25
487.901	18080.25
488.676	19566.25
489.451	21195.25
490.225	22840.25
491	24515.25
491.775	26295.25
492.55	28116.25
493.324	29916.25
494.099	31806.25
494.873	33699.25
495.647	35493.25
496.422	37489.25
497.196	39299.25
497.97	40962.25
498.744	42541.25
499.518	44094.25
500.292	45360.25
501.066	46352.25
501.839	47145.25
502.613	47913.25
503.387	48350.25
504.16	48702.25
504.934	48708.25
505.707	48457.25
506.48	47926.25
507.253	47282.25
508.027	46429.25
508.8	45269.25
509.573	44116.25
510.346	42909.25
511.118	41687.25
511.891	40321.25
512.664	38684.25
513.437	37181.25
514.209	35705.25
514.982	34317.25
515.754	32827.25
516.526	31441.25
517.298	30236.25
518.071	29042.25
518.843	27816.25
519.615	26650.25
520.387	25622.25
521.159	24633.25
521.93	23594.25
522.702	22574.25
523.474	21603.25
524.245	20700.25
525.017	19792.25
525.788	18949.25
526.56	18056.25
527.331	17257.25
528.102	16361.25
528.873	15548.25
529.644	14786.25
530.415	14105.25
531.186	13374.25
531.957	12670.25
532.728	12039.25
533.498	11375.25
534.269	10783.25
535.039	10162.25
535.81	9621.25
536.58	9092.25
537.351	8593.25
538.121	8139.25
538.891	7724.25
539.661	7262.25
540.431	6892.25
541.201	6557.25
541.971	6177.25
542.741	5860.25
543.51	5592.25
544.28	5300.25
545.05	5056.25
545.819	4829.25
546.588	4610.25
547.358	4373.25
548.127	4168.25
548.896	3906.25
549.665	3747.25
550.434	3534.25
551.203	3353.25
551.972	3158.25
552.741	3004.25
553.51	2827.25
554.278	2656.25
555.047	2514.25
555.815	2391.25
556.584	2247.25
557.352	2125.25
558.121	2009.25
558.889	1892.25
559.657	1799.25
560.425	1685.25
561.193	1609.25
561.961	1523.25
562.729	1434.25
563.496	1363.25
564.264	1289.25
565.032	1223.25
565.799	1156.25
566.567	1083.25
567.334	1035.25
568.101	971.25
568.869	917.25
569.636	865.25
570.403	823.25
571.17	784.25
571.937	723.25
572.704	697.25
573.471	643.25
574.237	611.25
575.004	586.25
575.771	543.25
576.537	510.25
577.303	483.25
578.07	461.25
578.836	438.25
579.602	406.25
580.368	388.25
581.134	368.25
581.9	356.25
582.666	327.25
583.432	321.25
584.198	303.25
584.964	295.25
585.729	274.25
586.495	252.25
587.26	244.25
588.025	232.25
588.791	212.25
589.556	202.25
590.321	196.25
591.086	192.25
591.851	179.25
592.616	169.25
593.381	160.25
594.146	154.25
594.911	152.25
595.675	143.25
596.44	132.25
597.204	134.25
597.969	125.25
598.733	121.25
599.497	114.25
600.261	111.25
601.025	99.25
601.79	101.25
602.553	96.25
603.317	88.25
604.081	90.25
604.845	83.25
605.609	80.25
606.372	74.25
607.136	73.25
607.899	69.25
608.662	72.25
609.426	64.25
610.189	64.25
610.952	66.25
611.715	57.25
612.478	60.25
613.241	55.25
614.004	49.25
614.767	53.25
615.529	50.25
616.292	47.25
617.055	48.25
617.817	43.25
618.579	41.25
619.342	41.25
620.104	41.25
620.866	39.25
621.628	37.25
622.39	38.25
623.152	34.25
623.914	34.25
624.676	35.25
625.438	34.25
626.199	32.25
626.961	30.25
627.722	30.25
628.484	29.25
629.245	28.25
630.006	28.25
630.768	26.25
631.529	23.25
632.29	26.25
633.051	26.25
633.812	24.25
634.573	23.25
635.333	22.25
636.094	21.25
636.855	20.25
637.615	20.25
638.376	20.25
639.136	19.25
639.896	16.25
640.657	17.25
641.417	18.25
642.177	21.25
642.937	16.25
643.697	15.25
644.457	14.25
645.216	17.25
645.976	16.25
646.736	12.25
647.495	14.25
648.255	14.25
649.014	14.25
649.774	14.25
650.533	13.25
651.292	13.25
652.051	13.25
652.81	12.25
653.569	14.25
654.328	12.25
655.087	14.25
655.846	12.25
656.604	13.25
657.363	13.25
658.121	10.25
658.88	10.25
659.638	9.25
660.397	11.25
661.155	11.25
661.913	11.25
662.671	12.25
663.429	10.25
664.187	10.25
664.945	9.25
665.703	10.25
666.46	9.25
667.218	11.25
667.976	7.25
668.733	12.25
669.49	10.25
670.248	8.25
671.005	8.25
671.762	9.25
672.519	9.25
673.276	8.25
674.033	6.25
674.79	7.25
675.547	8.25
676.304	9.25
677.06	6.25
677.817	6.25
678.574	7.25
679.33	8.25
680.086	5.25
680.843	9.25
681.599	6.25
682.355	8.25
683.111	7.25
683.867	5.25
684.623	7.25
685.379	8.25
686.135	8.25
686.89	6.25
687.646	8.25
688.402	7.25
689.157	8.25
689.912	6.25
690.668	9.25
691.423	5.25
692.178	7.25
692.933	7.25
693.688	6.25
694.443	8.25
695.198	7.25
695.953	5.25
696.708	6.25
697.462	8.25
698.217	7.25
698.972	6.25
699.726	8.25
700.48	6.25
701.235	5.25
701.989	7.25
702.743	7.25
703.497	7.25
704.251	6.25
705.005	6.25
705.759	5.25
706.513	7.25
707.266	9.25
708.02	6.25
708.774	8.25
709.527	8.25
710.28	8.25
711.034	6.25
711.787	7.25
712.54	6.25
713.293	6.25
714.046	7.25
714.799	9.25
715.552	8.25
716.305	8.25
717.058	7.25
717.81	7.25
718.563	7.25
719.315	6.25
720.068	7.25
720.82	7.25
721.573	9.25
722.325	8.25
723.077	8.25
723.829	4.25
724.581	7.25
725.333	9.25
726.085	5.25
726.836	7.25
727.588	8.25
728.34	8.25
729.091	9.25
729.843	7.25
730.594	8.25
731.346	6.25
732.097	8.25
732.848	7.25
733.599	6.25
734.35	9.25
735.101	8.25
735.852	9.25
736.603	7.25
737.354	7.25
738.104	9.25
738.855	8.25
739.605	9.25
740.356	10.25
741.106	10.25
741.856	7.25
742.607	8.25
743.357	8.25
744.107	9.25
744.857	12.25
745.607	10.25
746.357	10.25
747.106	10.25
747.856	11.25
748.606	11.25
749.355	10.25
750.105	10.25
750.854	10.25
751.603	11.25
752.353	11.25
753.102	8.25
753.851	11.25
754.6	8.25
755.349	11.25
756.098	10.25
756.847	12.25
757.595	12.25
758.344	10.25
759.093	13.25
759.841	10.25
760.589	11.25
761.338	9.25
762.086	14.25
762.834	14.25
763.582	11.25
764.331	14.25
765.079	16.25
765.826	10.25
766.574	15.25
767.322	16.25
768.07	14.25
768.817	13.25
769.565	16.25
770.312	13.25
771.06	14.25
771.807	12.25
772.554	14.25
773.302	15.25
774.049	14.25
774.796	14.25
775.543	16.25
776.29	14.25
777.036	12.25
777.783	16.25
778.53	14.25
779.276	14.25
780.023	17.25
780.769	14.25
781.516	13.25
782.262	15.25
783.008	16.25
783.754	16.25
784.5	15.25
785.246	14.25
785.992	13.25
786.738	14.25
787.484	14.25
788.23	15.25
788.975	15.25
789.721	14.25
790.466	14.25
791.212	15.25
791.957	13.25
792.702	13.25
793.447	13.25
794.193	13.25
794.938	15.25
795.683	12.25
796.427	9.25
797.172	14.25
797.917	12.25
798.662	12.25
799.406	12.25
800.151	12.25
800.895	12.25
801.64	9.25
802.384	12.25
803.128	12.25
803.872	7.25
804.616	10.25
805.36	10.25
806.104	8.25
806.848	11.25
807.592	12.25
808.336	6.25
809.079	10.25
809.823	8.25
810.566	9.25
811.31	9.25
812.053	8.25
812.796	10.25
813.539	7.25
814.283	11.25
815.026	9.25
815.769	6.25
816.511	9.25
817.254	9.25
817.997	10.25
818.74	6.25
819.482	6.25
820.225	8.25
820.967	5.25
821.71	5.25
822.452	6.25
823.194	5.25
823.936	6.25
824.678	5.25
825.42	8.25
826.162	6.25
826.904	7.25
827.646	7.25
828.388	7.25
829.129	6.25
829.871	5.25
830.612	6.25
831.354	4.25
832.095	4.25
832.836	4.25
833.577	4.25
834.319	4.25
835.06	6.25
835.801	5.25
836.542	4.25
837.282	6.25
838.023	4.25
838.764	6.25
839.504	5.25
840.245	5.25
840.985	6.25
841.726	2.25
842.466	4.25
843.206	6.25
843.946	4.25
844.687	5.25
845.427	4.25
846.166	4.25
846.906	6.25
847.646	4.25
848.386	4.25
849.125	2.25
849.865	4.25
850.605	4.25
851.344	5.25
852.083	3.25
852.823	3.25
853.562	4.25
854.301	2.25
855.04	3.25
855.779	1.25
856.518	3.25
857.257	4.25
857.995	1.25
858.734	2.25
859.473	4.25
860.211	2.25
860.95	2.25
861.688	2.25
862.426	1.25
863.165	1.25
863.903	3.25
864.641	2.25
865.379	2.25
866.117	3.25
866.855	1.25
867.593	3.25
868.33	0.25
869.068	2.25
869.806	1.25
870.543	3.25
871.28	1.25
872.018	3.25
872.755	2.25
873.492	1.25
874.229	2.25
874.967	1.25
875.703	0.25
876.44	2.25
877.177	-0.75
877.914	2.25
878.651	3.25
879.387	2.25
880.124	1.25
880.86	-0.75
881.597	1.25
882.333	1.25
883.069	1.25
883.806	0.25
884.542	1.25
885.278	-0.75
886.014	0.25
886.749	1.25
887.485	0.25
888.221	1.25
888.957	0.25
889.692	-0.75
890.428	1.25
891.163	-0.75
891.899	2.25
892.634	0.25
893.369	-0.75
894.104	2.25
894.839	0.25
895.574	0.25
896.309	1.25
897.044	3.25
897.779	0.25
898.514	1.25
899.248	0.25
899.983	-1.75
900.717	0.25
901.452	0.25
902.186	-0.75
902.92	0.25
903.654	0.25
904.389	1.25
905.123	0.25
905.857	-0.75
906.59	-2.75
907.324	-0.75
908.058	1.25
908.792	0.25
909.525	0.25
910.259	1.25
910.992	-1.75
911.726	0.25
912.459	-0.75
913.192	1.25
913.925	2.25
914.658	1.25
915.391	-1.75
916.124	-1.75
916.857	2.25
917.59	0.25
918.323	2.25
919.055	1.25
919.788	-1.75
920.521	2.25
921.253	-0.75
921.985	1.25
922.718	0.25
923.45	0.25
924.182	-1.75
924.914	-1.75
925.646	-0.75
926.378	-0.75
927.11	2.25
927.841	0.25
928.573	-0.75
929.305	2.25
930.036	-0.75
930.768	-0.75
931.499	0.25
932.23	0.25
932.962	-2.75
933.693	1.25
934.424	-0.75
935.155	3.25
935.886	-0.75
936.617	-0.75
937.348	0.25
938.078	-3.75
938.809	0.25
939.54	-2.75
940.27	0.25
941.001	-0.75
941.731	-2.75
942.461	-1.75
943.191	-0.75
943.922	0.25
944.652	-0.75
945.382	-1.75
946.112	0.25
946.841	0.25
947.571	0.25
948.301	-0.75
949.031	-0.75
949.76	2.25
950.49	-2.75
951.219	0.25
951.948	0.25
952.678	-0.75
953.407	-0.75
954.136	-0.75
954.865	1.25
955.594	0.25
956.323	1.25
957.052	-1.75
957.78	-0.75
958.509	0.25
959.238	-0.75
959.966	1.25
960.695	1.25
961.423	0.25
962.151	-2.75
962.88	-0.75
963.608	1.25
964.336	0.25
965.064	0.25
965.792	0.25
966.52	0.25
967.247	0.25
967.975	-0.75
968.703	2.25
969.43	-0.75
970.158	-0.75
970.885	0.25
971.613	0.25
972.34	0.25
973.067	-1.75
973.794	-0.75
974.521	-1.75
975.248	-1.75
975.975	-2.75
976.702	-1.75
977.429	-0.75
978.156	0.25
978.882	1.25
979.609	-0.75
980.335	0.25
981.062	0.25
981.788	-2.75
982.514	-0.75
983.24	-0.75
983.967	-2.75
984.693	1.25
985.419	-1.75
986.144	0.25
986.87	0.25
987.596	0.25
988.322	-0.75
989.047	1.25
989.773	-0.75
990.498	-0.75
991.224	1.25
991.949	0.25
992.674	-1.75
993.399	0.25
994.124	-1.75
994.849	1.25
995.574	-1.75
996.299	1.25
997.024	0.25
997.749	1.25
998.473	-0.75
999.198	-4.75
999.922	0.25
1000.647	-0.75
1001.371	3.25
1002.095	-1.75
1002.82	-1.75
1003.544	-1.75
1004.268	3.25
1004.992	4.25
1005.716	2.25
1006.439	3.25
1007.163	6.25
1007.887	6.25
1008.611	-1.75
1009.334	0.25
1010.058	0.25
1010.781	-1.75
1011.504	-1.75
1012.228	1.25
1012.951	2.25
1013.674	-1.75
1014.397	1.25
1015.12	0.25
