节点500_705_QEPB04081__617__20-54-42-777.txt的数据

Date: Wed Nov 12 20:54:42 CST 2025
User: PC
Spectrometer: QEPB0408
触发模式: 0
积分时间 (秒): 1.000000E-2
Scans to average: 1
启用暗噪声校正: true
启用非线性校正: false
滑动平均宽度: 0
X轴模式: Wavelengths
Number of Pixels in Spectrum: 1044
>>>>>Begin Spectral Data<<<<<
220.843	4
221.644	6
222.444	7
223.244	3
224.045	8
224.845	6
225.645	7
226.445	9
227.245	7
228.045	10
228.845	6
229.645	8
230.444	4
231.244	7
232.043	10
232.843	10
233.642	8
234.442	11
235.241	9
236.04	9
236.839	10
237.638	10
238.437	11
239.236	9
240.035	12
240.833	11
241.632	11
242.43	11
243.229	10
244.027	10
244.826	13
245.624	11
246.422	13
247.22	14
248.018	14
248.816	13
249.614	13
250.412	14
251.21	15
252.007	16
252.805	15
253.602	18
254.4	18
255.197	17
255.994	17
256.791	16
257.589	17
258.386	18
259.183	21
259.979	22
260.776	19
261.573	22
262.37	19
263.166	23
263.963	25
264.759	24
265.556	24
266.352	22
267.148	25
267.944	27
268.74	25
269.536	26
270.332	27
271.128	26
271.924	29
272.719	30
273.515	29
274.311	30
275.106	30
275.901	30
276.697	31
277.492	34
278.287	29
279.082	31
279.877	31
280.672	33
281.467	28
282.262	32
283.056	35
283.851	29
284.646	33
285.44	31
286.234	32
287.029	32
287.823	31
288.617	31
289.411	34
290.205	30
290.999	30
291.793	30
292.587	31
293.381	30
294.174	29
294.968	26
295.761	25
296.555	27
297.348	26
298.141	29
298.935	27
299.728	26
300.521	24
301.314	26
302.107	23
302.899	22
303.692	24
304.485	23
305.277	23
306.07	21
306.862	21
307.655	22
308.447	21
309.239	19
310.031	19
310.823	18
311.615	19
312.407	16
313.199	19
313.991	19
314.783	16
315.574	19
316.366	16
317.157	17
317.949	15
318.74	15
319.531	16
320.322	15
321.113	16
321.904	14
322.695	13
323.486	11
324.277	13
325.068	14
325.858	14
326.649	14
327.439	14
328.23	10
329.02	11
329.81	15
330.6	11
331.391	12
332.181	11
332.971	10
333.76	11
334.55	13
335.34	11
336.13	14
336.919	12
337.709	13
338.498	13
339.287	11
340.077	10
340.866	11
341.655	12
342.444	11
343.233	9
344.022	10
344.811	12
345.6	10
346.388	14
347.177	12
347.965	11
348.754	13
349.542	13
350.33	13
351.119	11
351.907	12
352.695	12
353.483	10
354.271	12
355.059	11
355.846	11
356.634	12
357.422	11
358.209	9
358.997	11
359.784	9
360.571	12
361.359	9
362.146	11
362.933	12
363.72	8
364.507	9
365.294	11
366.081	5
366.867	9
367.654	9
368.44	9
369.227	10
370.013	11
370.8	10
371.586	11
372.372	10
373.158	11
373.944	9
374.73	9
375.516	10
376.302	8
377.088	9
377.873	8
378.659	11
379.445	8
380.23	10
381.015	12
381.801	7
382.586	11
383.371	6
384.156	11
384.941	10
385.726	10
386.511	9
387.296	9
388.08	12
388.865	9
389.649	13
390.434	11
391.218	11
392.003	13
392.787	11
393.571	11
394.355	13
395.139	13
395.923	13
396.707	11
397.491	13
398.274	13
399.058	10
399.842	13
400.625	14
401.408	14
402.192	12
402.975	13
403.758	15
404.541	14
405.324	15
406.107	14
406.89	15
407.673	15
408.456	18
409.238	17
410.021	17
410.803	16
411.586	15
412.368	18
413.151	15
413.933	16
414.715	18
415.497	18
416.279	19
417.061	17
417.843	18
418.624	19
419.406	21
420.188	20
420.969	19
421.751	22
422.532	22
423.313	21
424.095	21
424.876	23
425.657	21
426.438	25
427.219	30
428	29
428.78	27
429.561	27
430.342	31
431.122	34
431.903	32
432.683	34
433.464	37
434.244	33
435.024	41
435.804	40
436.584	43
437.364	41
438.144	46
438.924	53
439.704	55
440.483	60
441.263	63
442.042	64
442.822	72
443.601	76
444.38	80
445.16	93
445.939	95
446.718	109
447.497	119
448.276	126
449.054	141
449.833	159
450.612	173
451.391	194
452.169	210
452.948	236
453.726	261
454.504	280
455.282	313
456.061	350
456.839	398
457.617	435
458.395	487
459.172	550
459.95	607
460.728	685
461.506	754
462.283	827
463.061	915
463.838	1016
464.615	1136
465.393	1248
466.17	1401
466.947	1551
467.724	1707
468.501	1876
469.278	2087
470.055	2267
470.831	2511
471.608	2748
472.385	3010
473.161	3298
473.938	3615
474.714	3958
475.49	4351
476.266	4728
477.043	5117
477.819	5616
478.595	6059
479.371	6609
480.146	7138
480.922	7789
481.698	8421
482.473	9106
483.249	9850
484.024	10634
484.8	11507
485.575	12427
486.35	13380
487.126	14402
487.901	15524
488.676	16732
489.451	17948
490.225	19208
491	20618
491.775	21951
492.55	23426
493.324	24877
494.099	26491
494.873	28031
495.647	29628
496.422	31202
497.196	32835
497.97	34261
498.744	35827
499.518	37423
500.292	38740
501.066	39770
501.839	40824
502.613	41647
503.387	42507
504.16	43126
504.934	43590
505.707	43738
506.48	43756
507.253	43569
508.027	43196
508.8	42640
509.573	41986
510.346	41246
511.118	40410
511.891	39459
512.664	38251
513.437	37053
514.209	35799
514.982	34505
515.754	33210
516.526	31988
517.298	30805
518.071	29685
518.843	28565
519.615	27371
520.387	26286
521.159	25273
521.93	24255
522.702	23275
523.474	22346
524.245	21446
525.017	20472
525.788	19646
526.56	18894
527.331	18078
528.102	17170
528.873	16369
529.644	15599
530.415	14928
531.186	14220
531.957	13536
532.728	12858
533.498	12246
534.269	11581
535.039	11005
535.81	10432
536.58	9833
537.351	9338
538.121	8861
538.891	8399
539.661	7929
540.431	7504
541.201	7167
541.971	6765
542.741	6397
543.51	6050
544.28	5776
545.05	5521
545.819	5254
546.588	5006
547.358	4776
548.127	4533
548.896	4282
549.665	4125
550.434	3874
551.203	3687
551.972	3507
552.741	3318
553.51	3122
554.278	2977
555.047	2795
555.815	2661
556.584	2527
557.352	2387
558.121	2238
558.889	2111
559.657	1994
560.425	1900
561.193	1801
561.961	1711
562.729	1623
563.496	1515
564.264	1454
565.032	1354
565.799	1288
566.567	1222
567.334	1157
568.101	1101
568.869	1019
569.636	965
570.403	917
571.17	857
571.937	820
572.704	768
573.471	724
574.237	678
575.004	649
575.771	604
576.537	577
577.303	546
578.07	519
578.836	492
579.602	457
580.368	437
581.134	425
581.9	397
582.666	383
583.432	366
584.198	345
584.964	329
585.729	306
586.495	285
587.26	273
588.025	252
588.791	254
589.556	229
590.321	223
591.086	214
591.851	201
592.616	188
593.381	179
594.146	172
594.911	165
595.675	160
596.44	153
597.204	146
597.969	135
598.733	130
599.497	126
600.261	121
601.025	114
601.79	116
602.553	105
603.317	101
604.081	99
604.845	92
605.609	95
606.372	85
607.136	85
607.899	79
608.662	78
609.426	75
610.189	68
610.952	72
611.715	66
612.478	63
613.241	60
614.004	62
614.767	56
615.529	56
616.292	50
617.055	50
617.817	47
618.579	47
619.342	45
620.104	44
620.866	42
621.628	41
622.39	40
623.152	37
623.914	38
624.676	38
625.438	36
626.199	31
626.961	32
627.722	31
628.484	31
629.245	33
630.006	27
630.768	29
631.529	26
632.29	24
633.051	27
633.812	29
634.573	25
635.333	23
636.094	22
636.855	23
637.615	21
638.376	20
639.136	22
639.896	19
640.657	21
641.417	21
642.177	18
642.937	19
643.697	16
644.457	16
645.216	14
645.976	17
646.736	17
647.495	19
648.255	16
649.014	19
649.774	15
650.533	13
651.292	13
652.051	13
652.81	11
653.569	13
654.328	13
655.087	13
655.846	12
656.604	12
657.363	11
658.121	13
658.88	12
659.638	12
660.397	11
661.155	10
661.913	13
662.671	10
663.429	10
664.187	10
664.945	12
665.703	11
666.46	11
667.218	12
667.976	8
668.733	9
669.49	10
670.248	8
671.005	12
671.762	11
672.519	9
673.276	10
674.033	9
674.79	9
675.547	10
676.304	9
677.06	9
677.817	8
678.574	8
679.33	9
680.086	8
680.843	12
681.599	9
682.355	7
683.111	9
683.867	8
684.623	8
685.379	5
686.135	8
686.89	8
687.646	6
688.402	10
689.157	9
689.912	8
690.668	9
691.423	6
692.178	8
692.933	5
693.688	11
694.443	8
695.198	6
695.953	7
696.708	7
697.462	8
698.217	5
698.972	7
699.726	10
700.48	7
701.235	8
701.989	7
702.743	5
703.497	6
704.251	6
705.005	9
705.759	5
706.513	8
707.266	8
708.02	8
708.774	9
709.527	7
710.28	7
711.034	10
711.787	8
712.54	7
713.293	6
714.046	7
714.799	8
715.552	10
716.305	8
717.058	10
717.81	7
718.563	7
719.315	8
720.068	8
720.82	9
721.573	9
722.325	8
723.077	8
723.829	9
724.581	5
725.333	9
726.085	7
726.836	8
727.588	10
728.34	8
729.091	7
729.843	7
730.594	10
731.346	8
732.097	8
732.848	7
733.599	7
734.35	7
735.101	10
735.852	9
736.603	12
737.354	8
738.104	8
738.855	8
739.605	6
740.356	9
741.106	9
741.856	11
742.607	10
743.357	10
744.107	11
744.857	10
745.607	10
746.357	8
747.106	10
747.856	9
748.606	10
749.355	11
750.105	10
750.854	10
751.603	10
752.353	11
753.102	11
753.851	9
754.6	11
755.349	12
756.098	10
756.847	11
757.595	10
758.344	9
759.093	9
759.841	12
760.589	12
761.338	13
762.086	11
762.834	8
763.582	12
764.331	12
765.079	10
765.826	13
766.574	13
767.322	13
768.07	13
768.817	11
769.565	11
770.312	15
771.06	11
771.807	12
772.554	13
773.302	14
774.049	12
774.796	15
775.543	11
776.29	14
777.036	15
777.783	14
778.53	12
779.276	14
780.023	13
780.769	14
781.516	13
782.262	14
783.008	14
783.754	16
784.5	15
785.246	15
785.992	14
786.738	17
787.484	15
788.23	15
788.975	17
789.721	15
790.466	13
791.212	15
791.957	15
792.702	14
793.447	13
794.193	14
794.938	13
795.683	10
796.427	14
797.172	14
797.917	12
798.662	14
799.406	11
800.151	13
800.895	15
801.64	10
802.384	11
803.128	11
803.872	11
804.616	11
805.36	12
806.104	12
806.848	10
807.592	10
808.336	11
809.079	9
809.823	10
810.566	10
811.31	9
812.053	10
812.796	10
813.539	9
814.283	5
815.026	8
815.769	9
816.511	9
817.254	9
817.997	9
818.74	7
819.482	7
820.225	9
820.967	8
821.71	7
822.452	7
823.194	8
823.936	7
824.678	7
825.42	8
826.162	6
826.904	7
827.646	8
828.388	4
829.129	6
829.871	8
830.612	7
831.354	6
832.095	6
832.836	6
833.577	7
834.319	8
835.06	5
835.801	6
836.542	5
837.282	4
838.023	6
838.764	7
839.504	5
840.245	5
840.985	5
841.726	5
842.466	5
843.206	6
843.946	7
844.687	6
845.427	2
846.166	5
846.906	6
847.646	5
848.386	8
849.125	5
849.865	5
850.605	6
851.344	6
852.083	3
852.823	5
853.562	7
854.301	4
855.04	4
855.779	5
856.518	4
857.257	5
857.995	6
858.734	2
859.473	5
860.211	3
860.95	3
861.688	5
862.426	5
863.165	3
863.903	1
864.641	5
865.379	4
866.117	3
866.855	2
867.593	3
868.33	2
869.068	6
869.806	4
870.543	2
871.28	4
872.018	3
872.755	2
873.492	2
874.229	0
874.967	4
875.703	1
876.44	2
877.177	2
877.914	2
878.651	1
879.387	-1
880.124	1
880.86	0
881.597	2
882.333	3
883.069	1
883.806	1
884.542	2
885.278	1
886.014	3
886.749	0
887.485	4
888.221	1
888.957	3
889.692	0
890.428	3
891.163	1
891.899	-1
892.634	0
893.369	3
894.104	2
894.839	3
895.574	1
896.309	2
897.044	1
897.779	0
898.514	0
899.248	-1
899.983	0
900.717	-1
901.452	3
902.186	1
902.92	2
903.654	0
904.389	0
905.123	3
905.857	1
906.59	1
907.324	0
908.058	1
908.792	2
909.525	-1
910.259	3
910.992	0
911.726	3
912.459	-1
913.192	1
913.925	1
914.658	3
915.391	2
916.124	2
916.857	2
917.59	1
918.323	1
919.055	3
919.788	-2
920.521	2
921.253	2
921.985	0
922.718	1
923.45	-1
924.182	-1
924.914	1
925.646	1
926.378	-1
927.11	1
927.841	3
928.573	1
929.305	-2
930.036	1
930.768	2
931.499	1
932.23	1
932.962	0
933.693	-1
934.424	-1
935.155	1
935.886	2
936.617	1
937.348	0
938.078	1
938.809	0
939.54	1
940.27	2
941.001	-1
941.731	2
942.461	-1
943.191	0
943.922	0
944.652	-1
945.382	2
946.112	0
946.841	1
947.571	0
948.301	0
949.031	0
949.76	-2
950.49	1
951.219	-1
951.948	-1
952.678	-1
953.407	0
954.136	-1
954.865	0
955.594	2
956.323	-1
957.052	1
957.78	0
958.509	2
959.238	2
959.966	-1
960.695	-1
961.423	1
962.151	1
962.88	-1
963.608	-1
964.336	2
965.064	-2
965.792	0
966.52	2
967.247	-1
967.975	0
968.703	1
969.43	0
970.158	0
970.885	0
971.613	0
972.34	-1
973.067	1
973.794	1
974.521	-1
975.248	-1
975.975	1
976.702	1
977.429	-1
978.156	3
978.882	1
979.609	2
980.335	0
981.062	0
981.788	2
982.514	-3
983.24	1
983.967	-1
984.693	-1
985.419	0
986.144	0
986.87	0
987.596	-1
988.322	2
989.047	0
989.773	0
990.498	0
991.224	1
991.949	0
992.674	-1
993.399	4
994.124	-1
994.849	1
995.574	0
996.299	2
997.024	1
997.749	-1
998.473	-1
999.198	-1
999.922	-3
1000.647	-1
1001.371	4
1002.095	-1
1002.82	1
1003.544	-1
1004.268	5
1004.992	5
1005.716	3
1006.439	6
1007.163	7
1007.887	7
1008.611	-1
1009.334	2
1010.058	-1
1010.781	0
1011.504	0
1012.228	1
1012.951	0
1013.674	-2
1014.397	-1
1015.12	0
