节点500_705_QEPB04081__343__20-50-48-577.txt的数据

Date: Wed Nov 12 20:50:48 CST 2025
User: PC
Spectrometer: QEPB0408
触发模式: 0
积分时间 (秒): 1.000000E-2
Scans to average: 1
启用暗噪声校正: true
启用非线性校正: false
滑动平均宽度: 0
X轴模式: Wavelengths
Number of Pixels in Spectrum: 1044
>>>>>Begin Spectral Data<<<<<
220.843	6.5
221.644	5.5
222.444	5.5
223.244	6.5
224.045	7.5
224.845	7.5
225.645	8.5
226.445	6.5
227.245	8.5
228.045	6.5
228.845	9.5
229.645	10.5
230.444	10.5
231.244	10.5
232.043	10.5
232.843	11.5
233.642	7.5
234.442	8.5
235.241	11.5
236.04	9.5
236.839	9.5
237.638	10.5
238.437	11.5
239.236	11.5
240.035	11.5
240.833	12.5
241.632	11.5
242.43	15.5
243.229	11.5
244.027	14.5
244.826	15.5
245.624	12.5
246.422	15.5
247.22	15.5
248.018	15.5
248.816	15.5
249.614	15.5
250.412	14.5
251.21	17.5
252.007	16.5
252.805	18.5
253.602	17.5
254.4	19.5
255.197	18.5
255.994	21.5
256.791	17.5
257.589	21.5
258.386	21.5
259.183	23.5
259.979	23.5
260.776	22.5
261.573	24.5
262.37	22.5
263.166	24.5
263.963	26.5
264.759	26.5
265.556	25.5
266.352	27.5
267.148	28.5
267.944	28.5
268.74	31.5
269.536	29.5
270.332	28.5
271.128	28.5
271.924	31.5
272.719	34.5
273.515	34.5
274.311	31.5
275.106	33.5
275.901	34.5
276.697	34.5
277.492	33.5
278.287	33.5
279.082	38.5
279.877	31.5
280.672	37.5
281.467	34.5
282.262	35.5
283.056	36.5
283.851	36.5
284.646	36.5
285.44	31.5
286.234	36.5
287.029	32.5
287.823	35.5
288.617	33.5
289.411	32.5
290.205	30.5
290.999	30.5
291.793	32.5
292.587	31.5
293.381	29.5
294.174	29.5
294.968	30.5
295.761	29.5
296.555	26.5
297.348	28.5
298.141	24.5
298.935	30.5
299.728	28.5
300.521	24.5
301.314	24.5
302.107	26.5
302.899	23.5
303.692	21.5
304.485	19.5
305.277	23.5
306.07	23.5
306.862	20.5
307.655	22.5
308.447	23.5
309.239	23.5
310.031	20.5
310.823	19.5
311.615	19.5
312.407	19.5
313.199	18.5
313.991	15.5
314.783	18.5
315.574	15.5
316.366	16.5
317.157	15.5
317.949	14.5
318.74	15.5
319.531	15.5
320.322	12.5
321.113	18.5
321.904	18.5
322.695	13.5
323.486	13.5
324.277	14.5
325.068	15.5
325.858	13.5
326.649	14.5
327.439	16.5
328.23	11.5
329.02	10.5
329.81	15.5
330.6	11.5
331.391	12.5
332.181	14.5
332.971	15.5
333.76	15.5
334.55	10.5
335.34	14.5
336.13	10.5
336.919	11.5
337.709	12.5
338.498	11.5
339.287	13.5
340.077	11.5
340.866	12.5
341.655	13.5
342.444	11.5
343.233	12.5
344.022	11.5
344.811	14.5
345.6	9.5
346.388	13.5
347.177	9.5
347.965	10.5
348.754	12.5
349.542	12.5
350.33	12.5
351.119	13.5
351.907	12.5
352.695	13.5
353.483	10.5
354.271	8.5
355.059	11.5
355.846	11.5
356.634	12.5
357.422	12.5
358.209	12.5
358.997	11.5
359.784	11.5
360.571	11.5
361.359	10.5
362.146	9.5
362.933	10.5
363.72	13.5
364.507	10.5
365.294	10.5
366.081	10.5
366.867	9.5
367.654	11.5
368.44	8.5
369.227	10.5
370.013	9.5
370.8	10.5
371.586	9.5
372.372	8.5
373.158	9.5
373.944	10.5
374.73	12.5
375.516	9.5
376.302	10.5
377.088	10.5
377.873	8.5
378.659	10.5
379.445	9.5
380.23	8.5
381.015	10.5
381.801	8.5
382.586	10.5
383.371	9.5
384.156	9.5
384.941	11.5
385.726	13.5
386.511	10.5
387.296	9.5
388.08	10.5
388.865	12.5
389.649	11.5
390.434	11.5
391.218	11.5
392.003	9.5
392.787	11.5
393.571	13.5
394.355	11.5
395.139	11.5
395.923	11.5
396.707	13.5
397.491	15.5
398.274	15.5
399.058	14.5
399.842	13.5
400.625	14.5
401.408	15.5
402.192	17.5
402.975	15.5
403.758	14.5
404.541	15.5
405.324	14.5
406.107	13.5
406.89	15.5
407.673	16.5
408.456	16.5
409.238	14.5
410.021	15.5
410.803	14.5
411.586	16.5
412.368	18.5
413.151	19.5
413.933	20.5
414.715	18.5
415.497	18.5
416.279	20.5
417.061	20.5
417.843	18.5
418.624	21.5
419.406	21.5
420.188	20.5
420.969	23.5
421.751	22.5
422.532	22.5
423.313	24.5
424.095	23.5
424.876	26.5
425.657	23.5
426.438	26.5
427.219	28.5
428	29.5
428.78	25.5
429.561	29.5
430.342	30.5
431.122	30.5
431.903	33.5
432.683	36.5
433.464	34.5
434.244	39.5
435.024	40.5
435.804	41.5
436.584	43.5
437.364	46.5
438.144	46.5
438.924	47.5
439.704	53.5
440.483	59.5
441.263	62.5
442.042	67.5
442.822	69.5
443.601	79.5
444.38	84.5
445.16	92.5
445.939	94.5
446.718	101.5
447.497	108.5
448.276	123.5
449.054	133.5
449.833	153.5
450.612	162.5
451.391	179.5
452.169	199.5
452.948	219.5
453.726	245.5
454.504	271.5
455.282	295.5
456.061	338.5
456.839	381.5
457.617	420.5
458.395	458.5
459.172	513.5
459.95	571.5
460.728	633.5
461.506	709.5
462.283	800.5
463.061	883.5
463.838	994.5
464.615	1099.5
465.393	1227.5
466.17	1342.5
466.947	1495.5
467.724	1679.5
468.501	1841.5
469.278	2054.5
470.055	2252.5
470.831	2491.5
471.608	2775.5
472.385	3049.5
473.161	3367.5
473.938	3673.5
474.714	4045.5
475.49	4442.5
476.266	4867.5
477.043	5326.5
477.819	5807.5
478.595	6351.5
479.371	6956.5
480.146	7618.5
480.922	8271.5
481.698	8965.5
482.473	9807.5
483.249	10654.5
484.024	11555.5
484.8	12543.5
485.575	13509.5
486.35	14693.5
487.126	15929.5
487.901	17261.5
488.676	18626.5
489.451	20007.5
490.225	21553.5
491	23109.5
491.775	24683.5
492.55	26439.5
493.324	28168.5
494.099	29906.5
494.873	31725.5
495.647	33481.5
496.422	35236.5
497.196	36999.5
497.97	38692.5
498.744	40185.5
499.518	41806.5
500.292	43152.5
501.066	44212.5
501.839	45071.5
502.613	45906.5
503.387	46538.5
504.16	46987.5
504.934	47083.5
505.707	46903.5
506.48	46681.5
507.253	46187.5
508.027	45576.5
508.8	44597.5
509.573	43593.5
510.346	42577.5
511.118	41525.5
511.891	40182.5
512.664	38828.5
513.437	37297.5
514.209	35952.5
514.982	34556.5
515.754	33172.5
516.526	31775.5
517.298	30558.5
518.071	29375.5
518.843	28142.5
519.615	27067.5
520.387	26022.5
521.159	24955.5
521.93	23860.5
522.702	22906.5
523.474	21950.5
524.245	21007.5
525.017	20115.5
525.788	19201.5
526.56	18437.5
527.331	17609.5
528.102	16722.5
528.873	15942.5
529.644	15174.5
530.415	14448.5
531.186	13743.5
531.957	12978.5
532.728	12329.5
533.498	11734.5
534.269	11088.5
535.039	10517.5
535.81	9954.5
536.58	9425.5
537.351	8877.5
538.121	8398.5
538.891	7969.5
539.661	7546.5
540.431	7137.5
541.201	6801.5
541.971	6430.5
542.741	6077.5
543.51	5733.5
544.28	5490.5
545.05	5239.5
545.819	5006.5
546.588	4735.5
547.358	4502.5
548.127	4302.5
548.896	4062.5
549.665	3879.5
550.434	3685.5
551.203	3480.5
551.972	3271.5
552.741	3138.5
553.51	2947.5
554.278	2793.5
555.047	2624.5
555.815	2473.5
556.584	2366.5
557.352	2224.5
558.121	2103.5
558.889	1971.5
559.657	1879.5
560.425	1777.5
561.193	1678.5
561.961	1589.5
562.729	1494.5
563.496	1417.5
564.264	1330.5
565.032	1263.5
565.799	1210.5
566.567	1127.5
567.334	1078.5
568.101	1015.5
568.869	959.5
569.636	907.5
570.403	852.5
571.17	794.5
571.937	753.5
572.704	725.5
573.471	671.5
574.237	646.5
575.004	600.5
575.771	563.5
576.537	543.5
577.303	507.5
578.07	472.5
578.836	454.5
579.602	417.5
580.368	412.5
581.134	389.5
581.9	366.5
582.666	350.5
583.432	340.5
584.198	313.5
584.964	298.5
585.729	282.5
586.495	272.5
587.26	257.5
588.025	245.5
588.791	231.5
589.556	221.5
590.321	207.5
591.086	199.5
591.851	185.5
592.616	177.5
593.381	171.5
594.146	161.5
594.911	160.5
595.675	143.5
596.44	143.5
597.204	132.5
597.969	130.5
598.733	126.5
599.497	117.5
600.261	112.5
601.025	106.5
601.79	103.5
602.553	103.5
603.317	99.5
604.081	91.5
604.845	88.5
605.609	85.5
606.372	85.5
607.136	79.5
607.899	76.5
608.662	73.5
609.426	68.5
610.189	69.5
610.952	67.5
611.715	61.5
612.478	62.5
613.241	60.5
614.004	56.5
614.767	58.5
615.529	54.5
616.292	47.5
617.055	47.5
617.817	45.5
618.579	45.5
619.342	40.5
620.104	41.5
620.866	42.5
621.628	39.5
622.39	39.5
623.152	37.5
623.914	37.5
624.676	33.5
625.438	36.5
626.199	31.5
626.961	31.5
627.722	33.5
628.484	27.5
629.245	29.5
630.006	30.5
630.768	29.5
631.529	25.5
632.29	26.5
633.051	28.5
633.812	25.5
634.573	25.5
635.333	22.5
636.094	22.5
636.855	22.5
637.615	21.5
638.376	19.5
639.136	19.5
639.896	21.5
640.657	19.5
641.417	18.5
642.177	17.5
642.937	18.5
643.697	18.5
644.457	16.5
645.216	16.5
645.976	15.5
646.736	15.5
647.495	16.5
648.255	14.5
649.014	15.5
649.774	13.5
650.533	15.5
651.292	13.5
652.051	12.5
652.81	14.5
653.569	14.5
654.328	14.5
655.087	14.5
655.846	12.5
656.604	11.5
657.363	13.5
658.121	13.5
658.88	12.5
659.638	10.5
660.397	13.5
661.155	11.5
661.913	12.5
662.671	9.5
663.429	11.5
664.187	10.5
664.945	7.5
665.703	13.5
666.46	9.5
667.218	13.5
667.976	13.5
668.733	10.5
669.49	9.5
670.248	9.5
671.005	8.5
671.762	11.5
672.519	7.5
673.276	10.5
674.033	10.5
674.79	12.5
675.547	8.5
676.304	10.5
677.06	9.5
677.817	8.5
678.574	6.5
679.33	8.5
680.086	12.5
680.843	7.5
681.599	8.5
682.355	7.5
683.111	9.5
683.867	8.5
684.623	8.5
685.379	8.5
686.135	9.5
686.89	8.5
687.646	5.5
688.402	9.5
689.157	8.5
689.912	10.5
690.668	10.5
691.423	7.5
692.178	7.5
692.933	10.5
693.688	10.5
694.443	7.5
695.198	9.5
695.953	7.5
696.708	6.5
697.462	8.5
698.217	8.5
698.972	8.5
699.726	8.5
700.48	8.5
701.235	5.5
701.989	8.5
702.743	7.5
703.497	8.5
704.251	8.5
705.005	7.5
705.759	10.5
706.513	8.5
707.266	7.5
708.02	9.5
708.774	9.5
709.527	6.5
710.28	8.5
711.034	6.5
711.787	8.5
712.54	7.5
713.293	7.5
714.046	6.5
714.799	9.5
715.552	9.5
716.305	8.5
717.058	8.5
717.81	9.5
718.563	9.5
719.315	9.5
720.068	6.5
720.82	6.5
721.573	9.5
722.325	7.5
723.077	9.5
723.829	9.5
724.581	7.5
725.333	9.5
726.085	8.5
726.836	10.5
727.588	8.5
728.34	9.5
729.091	10.5
729.843	8.5
730.594	9.5
731.346	10.5
732.097	8.5
732.848	9.5
733.599	8.5
734.35	10.5
735.101	10.5
735.852	10.5
736.603	12.5
737.354	11.5
738.104	8.5
738.855	11.5
739.605	8.5
740.356	10.5
741.106	9.5
741.856	11.5
742.607	11.5
743.357	9.5
744.107	9.5
744.857	8.5
745.607	10.5
746.357	11.5
747.106	10.5
747.856	10.5
748.606	11.5
749.355	10.5
750.105	9.5
750.854	9.5
751.603	10.5
752.353	11.5
753.102	10.5
753.851	13.5
754.6	12.5
755.349	10.5
756.098	14.5
756.847	11.5
757.595	15.5
758.344	14.5
759.093	13.5
759.841	13.5
760.589	10.5
761.338	13.5
762.086	12.5
762.834	14.5
763.582	13.5
764.331	14.5
765.079	12.5
765.826	15.5
766.574	14.5
767.322	12.5
768.07	13.5
768.817	15.5
769.565	15.5
770.312	14.5
771.06	13.5
771.807	16.5
772.554	12.5
773.302	15.5
774.049	15.5
774.796	15.5
775.543	15.5
776.29	12.5
777.036	16.5
777.783	15.5
778.53	17.5
779.276	18.5
780.023	13.5
780.769	17.5
781.516	14.5
782.262	17.5
783.008	14.5
783.754	17.5
784.5	15.5
785.246	13.5
785.992	18.5
786.738	17.5
787.484	16.5
788.23	16.5
788.975	14.5
789.721	14.5
790.466	15.5
791.212	14.5
791.957	14.5
792.702	14.5
793.447	17.5
794.193	13.5
794.938	13.5
795.683	15.5
796.427	14.5
797.172	14.5
797.917	13.5
798.662	15.5
799.406	12.5
800.151	13.5
800.895	13.5
801.64	11.5
802.384	13.5
803.128	12.5
803.872	13.5
804.616	11.5
805.36	12.5
806.104	10.5
806.848	9.5
807.592	10.5
808.336	8.5
809.079	13.5
809.823	12.5
810.566	9.5
811.31	9.5
812.053	11.5
812.796	12.5
813.539	9.5
814.283	10.5
815.026	7.5
815.769	8.5
816.511	8.5
817.254	8.5
817.997	7.5
818.74	8.5
819.482	7.5
820.225	9.5
820.967	9.5
821.71	9.5
822.452	7.5
823.194	9.5
823.936	5.5
824.678	6.5
825.42	7.5
826.162	6.5
826.904	8.5
827.646	8.5
828.388	7.5
829.129	7.5
829.871	6.5
830.612	8.5
831.354	7.5
832.095	8.5
832.836	6.5
833.577	5.5
834.319	4.5
835.06	6.5
835.801	5.5
836.542	6.5
837.282	6.5
838.023	7.5
838.764	4.5
839.504	7.5
840.245	6.5
840.985	7.5
841.726	4.5
842.466	5.5
843.206	6.5
843.946	6.5
844.687	5.5
845.427	5.5
846.166	7.5
846.906	7.5
847.646	3.5
848.386	5.5
849.125	3.5
849.865	6.5
850.605	6.5
851.344	6.5
852.083	5.5
852.823	3.5
853.562	5.5
854.301	4.5
855.04	4.5
855.779	5.5
856.518	3.5
857.257	3.5
857.995	7.5
858.734	5.5
859.473	4.5
860.211	3.5
860.95	6.5
861.688	4.5
862.426	4.5
863.165	3.5
863.903	5.5
864.641	4.5
865.379	3.5
866.117	2.5
866.855	3.5
867.593	2.5
868.33	2.5
869.068	2.5
869.806	2.5
870.543	3.5
871.28	3.5
872.018	4.5
872.755	2.5
873.492	4.5
874.229	3.5
874.967	2.5
875.703	4.5
876.44	2.5
877.177	1.5
877.914	4.5
878.651	3.5
879.387	1.5
880.124	2.5
880.86	3.5
881.597	2.5
882.333	1.5
883.069	1.5
883.806	4.5
884.542	1.5
885.278	2.5
886.014	-0.5
886.749	2.5
887.485	2.5
888.221	2.5
888.957	1.5
889.692	3.5
890.428	3.5
891.163	-0.5
891.899	0.5
892.634	3.5
893.369	1.5
894.104	0.5
894.839	0.5
895.574	2.5
896.309	0.5
897.044	2.5
897.779	-0.5
898.514	3.5
899.248	4.5
899.983	0.5
900.717	3.5
901.452	2.5
902.186	0.5
902.92	-0.5
903.654	-0.5
904.389	3.5
905.123	2.5
905.857	3.5
906.59	0.5
907.324	1.5
908.058	0.5
908.792	0.5
909.525	0.5
910.259	1.5
910.992	1.5
911.726	2.5
912.459	1.5
913.192	-0.5
913.925	-0.5
914.658	0.5
915.391	2.5
916.124	-0.5
916.857	0.5
917.59	1.5
918.323	2.5
919.055	2.5
919.788	1.5
920.521	1.5
921.253	-0.5
921.985	1.5
922.718	-0.5
923.45	2.5
924.182	1.5
924.914	1.5
925.646	3.5
926.378	1.5
927.11	1.5
927.841	2.5
928.573	2.5
929.305	2.5
930.036	-0.5
930.768	4.5
931.499	0.5
932.23	2.5
932.962	1.5
933.693	1.5
934.424	2.5
935.155	1.5
935.886	1.5
936.617	0.5
937.348	0.5
938.078	0.5
938.809	-0.5
939.54	-2.5
940.27	-0.5
941.001	-0.5
941.731	0.5
942.461	0.5
943.191	1.5
943.922	-1.5
944.652	0.5
945.382	0.5
946.112	2.5
946.841	2.5
947.571	-0.5
948.301	0.5
949.031	0.5
949.76	2.5
950.49	1.5
951.219	-1.5
951.948	0.5
952.678	-0.5
953.407	0.5
954.136	-0.5
954.865	2.5
955.594	1.5
956.323	0.5
957.052	1.5
957.78	-0.5
958.509	0.5
959.238	0.5
959.966	-0.5
960.695	1.5
961.423	2.5
962.151	1.5
962.88	2.5
963.608	2.5
964.336	-0.5
965.064	-0.5
965.792	-0.5
966.52	-0.5
967.247	0.5
967.975	1.5
968.703	2.5
969.43	1.5
970.158	0.5
970.885	-0.5
971.613	-1.5
972.34	1.5
973.067	0.5
973.794	0.5
974.521	-0.5
975.248	-0.5
975.975	0.5
976.702	0.5
977.429	0.5
978.156	3.5
978.882	-0.5
979.609	1.5
980.335	0.5
981.062	1.5
981.788	-0.5
982.514	0.5
983.24	1.5
983.967	-3.5
984.693	-0.5
985.419	2.5
986.144	1.5
986.87	1.5
987.596	0.5
988.322	1.5
989.047	-0.5
989.773	1.5
990.498	0.5
991.224	1.5
991.949	0.5
992.674	-0.5
993.399	0.5
994.124	1.5
994.849	-0.5
995.574	0.5
996.299	0.5
997.024	1.5
997.749	-0.5
998.473	0.5
999.198	2.5
999.922	1.5
1000.647	2.5
1001.371	4.5
1002.095	-0.5
1002.82	-0.5
1003.544	-0.5
1004.268	5.5
1004.992	5.5
1005.716	6.5
1006.439	2.5
1007.163	5.5
1007.887	6.5
1008.611	0.5
1009.334	0.5
1010.058	0.5
1010.781	1.5
1011.504	0.5
1012.228	1.5
1012.951	-0.5
1013.674	-1.5
1014.397	-0.5
1015.12	-0.5
