节点500_705_QEPB04081__199__20-48-58-481.txt的数据

Date: Wed Nov 12 20:48:58 CST 2025
User: PC
Spectrometer: QEPB0408
触发模式: 0
积分时间 (秒): 1.000000E-2
Scans to average: 1
启用暗噪声校正: true
启用非线性校正: false
滑动平均宽度: 0
X轴模式: Wavelengths
Number of Pixels in Spectrum: 1044
>>>>>Begin Spectral Data<<<<<
220.843	6.38
221.644	3.38
222.444	3.38
223.244	5.38
224.045	5.38
224.845	8.38
225.645	7.38
226.445	7.38
227.245	7.38
228.045	7.38
228.845	9.38
229.645	6.38
230.444	8.38
231.244	9.38
232.043	7.38
232.843	10.38
233.642	9.38
234.442	9.38
235.241	10.38
236.04	9.38
236.839	8.38
237.638	10.38
238.437	11.38
239.236	11.38
240.035	12.38
240.833	10.38
241.632	9.38
242.43	10.38
243.229	11.38
244.027	12.38
244.826	15.38
245.624	14.38
246.422	14.38
247.22	14.38
248.018	14.38
248.816	14.38
249.614	16.38
250.412	17.38
251.21	14.38
252.007	16.38
252.805	20.38
253.602	16.38
254.4	18.38
255.197	19.38
255.994	18.38
256.791	19.38
257.589	20.38
258.386	18.38
259.183	22.38
259.979	20.38
260.776	22.38
261.573	24.38
262.37	23.38
263.166	26.38
263.963	26.38
264.759	26.38
265.556	27.38
266.352	26.38
267.148	28.38
267.944	27.38
268.74	30.38
269.536	29.38
270.332	30.38
271.128	30.38
271.924	31.38
272.719	33.38
273.515	35.38
274.311	34.38
275.106	35.38
275.901	33.38
276.697	36.38
277.492	34.38
278.287	32.38
279.082	34.38
279.877	36.38
280.672	36.38
281.467	34.38
282.262	34.38
283.056	33.38
283.851	34.38
284.646	38.38
285.44	34.38
286.234	34.38
287.029	33.38
287.823	33.38
288.617	34.38
289.411	33.38
290.205	30.38
290.999	31.38
291.793	34.38
292.587	30.38
293.381	30.38
294.174	30.38
294.968	29.38
295.761	30.38
296.555	24.38
297.348	25.38
298.141	26.38
298.935	31.38
299.728	28.38
300.521	26.38
301.314	25.38
302.107	25.38
302.899	22.38
303.692	22.38
304.485	20.38
305.277	23.38
306.07	18.38
306.862	23.38
307.655	20.38
308.447	22.38
309.239	22.38
310.031	21.38
310.823	20.38
311.615	17.38
312.407	16.38
313.199	17.38
313.991	14.38
314.783	17.38
315.574	15.38
316.366	17.38
317.157	16.38
317.949	14.38
318.74	13.38
319.531	12.38
320.322	14.38
321.113	15.38
321.904	14.38
322.695	10.38
323.486	13.38
324.277	13.38
325.068	11.38
325.858	12.38
326.649	12.38
327.439	10.38
328.23	13.38
329.02	12.38
329.81	13.38
330.6	10.38
331.391	10.38
332.181	12.38
332.971	12.38
333.76	12.38
334.55	11.38
335.34	11.38
336.13	9.38
336.919	12.38
337.709	12.38
338.498	11.38
339.287	11.38
340.077	10.38
340.866	10.38
341.655	8.38
342.444	11.38
343.233	10.38
344.022	11.38
344.811	10.38
345.6	9.38
346.388	11.38
347.177	10.38
347.965	11.38
348.754	10.38
349.542	9.38
350.33	11.38
351.119	8.38
351.907	11.38
352.695	9.38
353.483	9.38
354.271	9.38
355.059	10.38
355.846	10.38
356.634	7.38
357.422	10.38
358.209	10.38
358.997	10.38
359.784	10.38
360.571	12.38
361.359	10.38
362.146	9.38
362.933	11.38
363.72	9.38
364.507	10.38
365.294	7.38
366.081	9.38
366.867	8.38
367.654	8.38
368.44	10.38
369.227	8.38
370.013	9.38
370.8	9.38
371.586	9.38
372.372	8.38
373.158	10.38
373.944	10.38
374.73	8.38
375.516	8.38
376.302	9.38
377.088	9.38
377.873	8.38
378.659	7.38
379.445	9.38
380.23	8.38
381.015	10.38
381.801	10.38
382.586	11.38
383.371	12.38
384.156	10.38
384.941	10.38
385.726	11.38
386.511	11.38
387.296	10.38
388.08	10.38
388.865	11.38
389.649	10.38
390.434	9.38
391.218	10.38
392.003	12.38
392.787	10.38
393.571	11.38
394.355	11.38
395.139	10.38
395.923	14.38
396.707	12.38
397.491	13.38
398.274	9.38
399.058	11.38
399.842	11.38
400.625	12.38
401.408	13.38
402.192	14.38
402.975	14.38
403.758	15.38
404.541	14.38
405.324	14.38
406.107	14.38
406.89	14.38
407.673	13.38
408.456	14.38
409.238	15.38
410.021	14.38
410.803	16.38
411.586	17.38
412.368	18.38
413.151	18.38
413.933	17.38
414.715	16.38
415.497	15.38
416.279	17.38
417.061	19.38
417.843	22.38
418.624	18.38
419.406	18.38
420.188	22.38
420.969	17.38
421.751	18.38
422.532	20.38
423.313	24.38
424.095	23.38
424.876	23.38
425.657	24.38
426.438	26.38
427.219	27.38
428	27.38
428.78	25.38
429.561	30.38
430.342	31.38
431.122	32.38
431.903	31.38
432.683	36.38
433.464	34.38
434.244	37.38
435.024	38.38
435.804	39.38
436.584	42.38
437.364	45.38
438.144	46.38
438.924	51.38
439.704	54.38
440.483	59.38
441.263	61.38
442.042	61.38
442.822	66.38
443.601	73.38
444.38	77.38
445.16	85.38
445.939	92.38
446.718	96.38
447.497	108.38
448.276	120.38
449.054	129.38
449.833	143.38
450.612	154.38
451.391	172.38
452.169	186.38
452.948	207.38
453.726	230.38
454.504	257.38
455.282	286.38
456.061	317.38
456.839	362.38
457.617	391.38
458.395	442.38
459.172	485.38
459.95	552.38
460.728	621.38
461.506	685.38
462.283	770.38
463.061	854.38
463.838	954.38
464.615	1083.38
465.393	1188.38
466.17	1313.38
466.947	1478.38
467.724	1640.38
468.501	1832.38
469.278	1999.38
470.055	2234.38
470.831	2488.38
471.608	2746.38
472.385	3020.38
473.161	3354.38
473.938	3693.38
474.714	4075.38
475.49	4460.38
476.266	4904.38
477.043	5386.38
477.819	5900.38
478.595	6473.38
479.371	7078.38
480.146	7766.38
480.922	8495.38
481.698	9256.38
482.473	10150.38
483.249	11041.38
484.024	11984.38
484.8	13031.38
485.575	14161.38
486.35	15419.38
487.126	16738.38
487.901	18071.38
488.676	19532.38
489.451	21138.38
490.225	22779.38
491	24429.38
491.775	26175.38
492.55	28036.38
493.324	29777.38
494.099	31662.38
494.873	33535.38
495.647	35417.38
496.422	37309.38
497.196	39208.38
497.97	40805.38
498.744	42366.38
499.518	43944.38
500.292	45215.38
501.066	46285.38
501.839	47096.38
502.613	47798.38
503.387	48300.38
504.16	48618.38
504.934	48583.38
505.707	48341.38
506.48	47930.38
507.253	47201.38
508.027	46412.38
508.8	45255.38
509.573	44010.38
510.346	42848.38
511.118	41691.38
511.891	40405.38
512.664	38790.38
513.437	37206.38
514.209	35793.38
514.982	34316.38
515.754	32940.38
516.526	31531.38
517.298	30300.38
518.071	28980.38
518.843	27807.38
519.615	26768.38
520.387	25719.38
521.159	24722.38
521.93	23616.38
522.702	22565.38
523.474	21722.38
524.245	20705.38
525.017	19814.38
525.788	18915.38
526.56	18109.38
527.331	17266.38
528.102	16402.38
528.873	15523.38
529.644	14839.38
530.415	14109.38
531.186	13430.38
531.957	12689.38
532.728	12078.38
533.498	11440.38
534.269	10784.38
535.039	10181.38
535.81	9635.38
536.58	9105.38
537.351	8615.38
538.121	8169.38
538.891	7781.38
539.661	7312.38
540.431	6897.38
541.201	6550.38
541.971	6261.38
542.741	5874.38
543.51	5598.38
544.28	5332.38
545.05	5090.38
545.819	4842.38
546.588	4599.38
547.358	4354.38
548.127	4169.38
548.896	3934.38
549.665	3742.38
550.434	3535.38
551.203	3371.38
551.972	3166.38
552.741	3022.38
553.51	2847.38
554.278	2685.38
555.047	2542.38
555.815	2372.38
556.584	2274.38
557.352	2142.38
558.121	2014.38
558.889	1910.38
559.657	1790.38
560.425	1695.38
561.193	1612.38
561.961	1527.38
562.729	1436.38
563.496	1355.38
564.264	1286.38
565.032	1214.38
565.799	1145.38
566.567	1096.38
567.334	1023.38
568.101	968.38
568.869	926.38
569.636	872.38
570.403	828.38
571.17	770.38
571.937	739.38
572.704	691.38
573.471	659.38
574.237	617.38
575.004	579.38
575.771	544.38
576.537	514.38
577.303	488.38
578.07	456.38
578.836	440.38
579.602	407.38
580.368	388.38
581.134	363.38
581.9	355.38
582.666	333.38
583.432	319.38
584.198	304.38
584.964	287.38
585.729	268.38
586.495	247.38
587.26	241.38
588.025	230.38
588.791	216.38
589.556	206.38
590.321	200.38
591.086	192.38
591.851	178.38
592.616	174.38
593.381	162.38
594.146	155.38
594.911	147.38
595.675	143.38
596.44	135.38
597.204	124.38
597.969	122.38
598.733	121.38
599.497	113.38
600.261	108.38
601.025	105.38
601.79	100.38
602.553	91.38
603.317	92.38
604.081	87.38
604.845	84.38
605.609	84.38
606.372	74.38
607.136	76.38
607.899	69.38
608.662	66.38
609.426	68.38
610.189	60.38
610.952	64.38
611.715	60.38
612.478	57.38
613.241	57.38
614.004	53.38
614.767	52.38
615.529	47.38
616.292	51.38
617.055	44.38
617.817	44.38
618.579	43.38
619.342	43.38
620.104	39.38
620.866	39.38
621.628	34.38
622.39	38.38
623.152	36.38
623.914	36.38
624.676	35.38
625.438	31.38
626.199	30.38
626.961	27.38
627.722	30.38
628.484	31.38
629.245	26.38
630.006	26.38
630.768	28.38
631.529	27.38
632.29	28.38
633.051	25.38
633.812	24.38
634.573	23.38
635.333	20.38
636.094	20.38
636.855	22.38
637.615	21.38
638.376	20.38
639.136	21.38
639.896	20.38
640.657	17.38
641.417	17.38
642.177	17.38
642.937	18.38
643.697	18.38
644.457	15.38
645.216	15.38
645.976	15.38
646.736	13.38
647.495	14.38
648.255	16.38
649.014	13.38
649.774	15.38
650.533	14.38
651.292	12.38
652.051	13.38
652.81	14.38
653.569	12.38
654.328	15.38
655.087	10.38
655.846	11.38
656.604	12.38
657.363	12.38
658.121	10.38
658.88	11.38
659.638	14.38
660.397	10.38
661.155	10.38
661.913	11.38
662.671	9.38
663.429	10.38
664.187	8.38
664.945	9.38
665.703	11.38
666.46	8.38
667.218	10.38
667.976	8.38
668.733	10.38
669.49	10.38
670.248	9.38
671.005	11.38
671.762	8.38
672.519	8.38
673.276	9.38
674.033	8.38
674.79	8.38
675.547	7.38
676.304	7.38
677.06	7.38
677.817	10.38
678.574	8.38
679.33	7.38
680.086	5.38
680.843	8.38
681.599	6.38
682.355	9.38
683.111	9.38
683.867	9.38
684.623	8.38
685.379	7.38
686.135	8.38
686.89	8.38
687.646	7.38
688.402	8.38
689.157	7.38
689.912	7.38
690.668	10.38
691.423	4.38
692.178	7.38
692.933	7.38
693.688	7.38
694.443	7.38
695.198	6.38
695.953	7.38
696.708	7.38
697.462	6.38
698.217	5.38
698.972	4.38
699.726	8.38
700.48	6.38
701.235	7.38
701.989	8.38
702.743	5.38
703.497	9.38
704.251	9.38
705.005	8.38
705.759	6.38
706.513	6.38
707.266	6.38
708.02	6.38
708.774	6.38
709.527	8.38
710.28	5.38
711.034	8.38
711.787	6.38
712.54	7.38
713.293	7.38
714.046	8.38
714.799	7.38
715.552	7.38
716.305	7.38
717.058	6.38
717.81	9.38
718.563	7.38
719.315	6.38
720.068	7.38
720.82	9.38
721.573	6.38
722.325	8.38
723.077	7.38
723.829	5.38
724.581	6.38
725.333	7.38
726.085	7.38
726.836	7.38
727.588	6.38
728.34	7.38
729.091	7.38
729.843	8.38
730.594	6.38
731.346	10.38
732.097	8.38
732.848	8.38
733.599	6.38
734.35	9.38
735.101	11.38
735.852	9.38
736.603	9.38
737.354	10.38
738.104	8.38
738.855	8.38
739.605	9.38
740.356	8.38
741.106	11.38
741.856	8.38
742.607	10.38
743.357	9.38
744.107	6.38
744.857	12.38
745.607	9.38
746.357	8.38
747.106	10.38
747.856	9.38
748.606	10.38
749.355	10.38
750.105	11.38
750.854	8.38
751.603	13.38
752.353	8.38
753.102	10.38
753.851	9.38
754.6	11.38
755.349	10.38
756.098	10.38
756.847	12.38
757.595	10.38
758.344	13.38
759.093	11.38
759.841	11.38
760.589	12.38
761.338	12.38
762.086	14.38
762.834	10.38
763.582	12.38
764.331	13.38
765.079	15.38
765.826	12.38
766.574	14.38
767.322	12.38
768.07	13.38
768.817	16.38
769.565	17.38
770.312	14.38
771.06	15.38
771.807	13.38
772.554	15.38
773.302	14.38
774.049	14.38
774.796	13.38
775.543	14.38
776.29	12.38
777.036	14.38
777.783	15.38
778.53	14.38
779.276	14.38
780.023	15.38
780.769	15.38
781.516	13.38
782.262	14.38
783.008	17.38
783.754	15.38
784.5	17.38
785.246	17.38
785.992	16.38
786.738	13.38
787.484	15.38
788.23	15.38
788.975	16.38
789.721	10.38
790.466	16.38
791.212	15.38
791.957	13.38
792.702	12.38
793.447	12.38
794.193	11.38
794.938	16.38
795.683	12.38
796.427	14.38
797.172	14.38
797.917	13.38
798.662	12.38
799.406	13.38
800.151	9.38
800.895	11.38
801.64	11.38
802.384	12.38
803.128	14.38
803.872	11.38
804.616	11.38
805.36	10.38
806.104	7.38
806.848	11.38
807.592	7.38
808.336	13.38
809.079	9.38
809.823	8.38
810.566	9.38
811.31	7.38
812.053	8.38
812.796	10.38
813.539	8.38
814.283	8.38
815.026	9.38
815.769	11.38
816.511	6.38
817.254	9.38
817.997	5.38
818.74	8.38
819.482	8.38
820.225	7.38
820.967	5.38
821.71	6.38
822.452	6.38
823.194	10.38
823.936	4.38
824.678	7.38
825.42	5.38
826.162	5.38
826.904	7.38
827.646	6.38
828.388	6.38
829.129	4.38
829.871	6.38
830.612	4.38
831.354	6.38
832.095	6.38
832.836	5.38
833.577	5.38
834.319	0.38
835.06	4.38
835.801	9.38
836.542	5.38
837.282	7.38
838.023	7.38
838.764	6.38
839.504	5.38
840.245	5.38
840.985	3.38
841.726	2.38
842.466	6.38
843.206	6.38
843.946	4.38
844.687	6.38
845.427	5.38
846.166	5.38
846.906	5.38
847.646	4.38
848.386	5.38
849.125	5.38
849.865	4.38
850.605	3.38
851.344	5.38
852.083	2.38
852.823	4.38
853.562	3.38
854.301	2.38
855.04	3.38
855.779	3.38
856.518	4.38
857.257	2.38
857.995	2.38
858.734	6.38
859.473	3.38
860.211	3.38
860.95	0.38
861.688	2.38
862.426	2.38
863.165	2.38
863.903	3.38
864.641	1.38
865.379	3.38
866.117	4.38
866.855	5.38
867.593	2.38
868.33	1.38
869.068	0.38
869.806	3.38
870.543	2.38
871.28	2.38
872.018	4.38
872.755	4.38
873.492	3.38
874.229	2.38
874.967	2.38
875.703	3.38
876.44	3.38
877.177	0.38
877.914	0.38
878.651	0.38
879.387	-0.62
880.124	-0.62
880.86	1.38
881.597	2.38
882.333	0.38
883.069	4.38
883.806	1.38
884.542	0.38
885.278	2.38
886.014	0.38
886.749	1.38
887.485	-0.62
888.221	1.38
888.957	1.38
889.692	0.38
890.428	0.38
891.163	0.38
891.899	2.38
892.634	-0.62
893.369	-1.62
894.104	2.38
894.839	0.38
895.574	0.38
896.309	-0.62
897.044	-1.62
897.779	0.38
898.514	1.38
899.248	2.38
899.983	0.38
900.717	2.38
901.452	1.38
902.186	1.38
902.92	-0.62
903.654	1.38
904.389	0.38
905.123	2.38
905.857	-0.62
906.59	-1.62
907.324	1.38
908.058	-0.62
908.792	0.38
909.525	-2.62
910.259	0.38
910.992	1.38
911.726	0.38
912.459	-1.62
913.192	0.38
913.925	1.38
914.658	0.38
915.391	-1.62
916.124	1.38
916.857	0.38
917.59	-1.62
918.323	0.38
919.055	0.38
919.788	-1.62
920.521	-0.62
921.253	-0.62
921.985	2.38
922.718	1.38
923.45	2.38
924.182	-0.62
924.914	-0.62
925.646	-0.62
926.378	-0.62
927.11	-2.62
927.841	-1.62
928.573	1.38
929.305	-1.62
930.036	1.38
930.768	-1.62
931.499	0.38
932.23	0.38
932.962	-1.62
933.693	-0.62
934.424	0.38
935.155	1.38
935.886	-1.62
936.617	1.38
937.348	-0.62
938.078	0.38
938.809	-0.62
939.54	0.38
940.27	0.38
941.001	0.38
941.731	-2.62
942.461	1.38
943.191	-0.62
943.922	0.38
944.652	-0.62
945.382	-0.62
946.112	0.38
946.841	-1.62
947.571	2.38
948.301	-0.62
949.031	-1.62
949.76	1.38
950.49	0.38
951.219	-0.62
951.948	0.38
952.678	2.38
953.407	-0.62
954.136	0.38
954.865	1.38
955.594	-0.62
956.323	-0.62
957.052	1.38
957.78	-2.62
958.509	0.38
959.238	-2.62
959.966	-1.62
960.695	-1.62
961.423	-0.62
962.151	-1.62
962.88	-1.62
963.608	-1.62
964.336	-1.62
965.064	2.38
965.792	0.38
966.52	-0.62
967.247	-0.62
967.975	1.38
968.703	2.38
969.43	0.38
970.158	0.38
970.885	0.38
971.613	-1.62
972.34	-1.62
973.067	-1.62
973.794	0.38
974.521	-0.62
975.248	0.38
975.975	-0.62
976.702	-2.62
977.429	-0.62
978.156	1.38
978.882	2.38
979.609	0.38
980.335	1.38
981.062	0.38
981.788	-2.62
982.514	0.38
983.24	-1.62
983.967	-1.62
984.693	3.38
985.419	-0.62
986.144	-1.62
986.87	-0.62
987.596	-0.62
988.322	0.38
989.047	-1.62
989.773	-0.62
990.498	-0.62
991.224	-0.62
991.949	0.38
992.674	-0.62
993.399	-0.62
994.124	-1.62
994.849	0.38
995.574	-0.62
996.299	0.38
997.024	-1.62
997.749	-0.62
998.473	-2.62
999.198	-1.62
999.922	-0.62
1000.647	-3.62
1001.371	2.38
1002.095	-0.62
1002.82	-0.62
1003.544	1.38
1004.268	6.38
1004.992	3.38
1005.716	4.38
1006.439	3.38
1007.163	5.38
1007.887	4.38
1008.611	1.38
1009.334	1.38
1010.058	-0.62
1010.781	1.38
1011.504	0.38
1012.228	-0.62
1012.951	-0.62
1013.674	0.38
1014.397	0.38
1015.12	-2.62
