节点500_705_QEPB04081__229__20-49-10-463.txt的数据

Date: Wed Nov 12 20:49:10 CST 2025
User: PC
Spectrometer: QEPB0408
触发模式: 0
积分时间 (秒): 1.000000E-2
Scans to average: 1
启用暗噪声校正: true
启用非线性校正: false
滑动平均宽度: 0
X轴模式: Wavelengths
Number of Pixels in Spectrum: 1044
>>>>>Begin Spectral Data<<<<<
220.843	6.75
221.644	5.75
222.444	5.75
223.244	7.75
224.045	4.75
224.845	4.75
225.645	6.75
226.445	3.75
227.245	8.75
228.045	8.75
228.845	9.75
229.645	6.75
230.444	9.75
231.244	7.75
232.043	8.75
232.843	5.75
233.642	8.75
234.442	8.75
235.241	8.75
236.04	9.75
236.839	8.75
237.638	10.75
238.437	10.75
239.236	9.75
240.035	11.75
240.833	9.75
241.632	11.75
242.43	10.75
243.229	13.75
244.027	12.75
244.826	13.75
245.624	10.75
246.422	13.75
247.22	11.75
248.018	13.75
248.816	15.75
249.614	15.75
250.412	14.75
251.21	18.75
252.007	16.75
252.805	15.75
253.602	17.75
254.4	20.75
255.197	19.75
255.994	19.75
256.791	21.75
257.589	21.75
258.386	20.75
259.183	21.75
259.979	22.75
260.776	23.75
261.573	23.75
262.37	24.75
263.166	24.75
263.963	25.75
264.759	23.75
265.556	30.75
266.352	28.75
267.148	27.75
267.944	28.75
268.74	26.75
269.536	27.75
270.332	30.75
271.128	29.75
271.924	32.75
272.719	33.75
273.515	35.75
274.311	31.75
275.106	34.75
275.901	30.75
276.697	35.75
277.492	34.75
278.287	31.75
279.082	36.75
279.877	36.75
280.672	35.75
281.467	37.75
282.262	32.75
283.056	35.75
283.851	31.75
284.646	35.75
285.44	34.75
286.234	33.75
287.029	33.75
287.823	36.75
288.617	33.75
289.411	30.75
290.205	34.75
290.999	32.75
291.793	33.75
292.587	31.75
293.381	28.75
294.174	30.75
294.968	30.75
295.761	26.75
296.555	27.75
297.348	25.75
298.141	22.75
298.935	30.75
299.728	25.75
300.521	24.75
301.314	22.75
302.107	21.75
302.899	22.75
303.692	25.75
304.485	20.75
305.277	21.75
306.07	21.75
306.862	20.75
307.655	23.75
308.447	22.75
309.239	18.75
310.031	21.75
310.823	17.75
311.615	17.75
312.407	15.75
313.199	17.75
313.991	17.75
314.783	15.75
315.574	18.75
316.366	13.75
317.157	18.75
317.949	15.75
318.74	16.75
319.531	13.75
320.322	12.75
321.113	13.75
321.904	13.75
322.695	12.75
323.486	14.75
324.277	13.75
325.068	12.75
325.858	12.75
326.649	14.75
327.439	14.75
328.23	15.75
329.02	13.75
329.81	10.75
330.6	12.75
331.391	10.75
332.181	10.75
332.971	9.75
333.76	11.75
334.55	12.75
335.34	9.75
336.13	10.75
336.919	10.75
337.709	9.75
338.498	11.75
339.287	10.75
340.077	10.75
340.866	11.75
341.655	12.75
342.444	10.75
343.233	11.75
344.022	13.75
344.811	10.75
345.6	10.75
346.388	10.75
347.177	12.75
347.965	10.75
348.754	11.75
349.542	11.75
350.33	9.75
351.119	11.75
351.907	7.75
352.695	11.75
353.483	11.75
354.271	9.75
355.059	8.75
355.846	10.75
356.634	9.75
357.422	10.75
358.209	7.75
358.997	9.75
359.784	9.75
360.571	8.75
361.359	8.75
362.146	11.75
362.933	10.75
363.72	8.75
364.507	8.75
365.294	7.75
366.081	10.75
366.867	9.75
367.654	9.75
368.44	7.75
369.227	10.75
370.013	10.75
370.8	11.75
371.586	8.75
372.372	8.75
373.158	9.75
373.944	6.75
374.73	7.75
375.516	9.75
376.302	9.75
377.088	8.75
377.873	9.75
378.659	8.75
379.445	10.75
380.23	8.75
381.015	9.75
381.801	8.75
382.586	9.75
383.371	9.75
384.156	9.75
384.941	11.75
385.726	10.75
386.511	9.75
387.296	9.75
388.08	11.75
388.865	10.75
389.649	9.75
390.434	12.75
391.218	11.75
392.003	11.75
392.787	14.75
393.571	9.75
394.355	10.75
395.139	10.75
395.923	9.75
396.707	13.75
397.491	15.75
398.274	13.75
399.058	13.75
399.842	16.75
400.625	14.75
401.408	14.75
402.192	12.75
402.975	12.75
403.758	15.75
404.541	14.75
405.324	15.75
406.107	14.75
406.89	14.75
407.673	16.75
408.456	17.75
409.238	17.75
410.021	14.75
410.803	16.75
411.586	16.75
412.368	15.75
413.151	18.75
413.933	16.75
414.715	17.75
415.497	17.75
416.279	16.75
417.061	19.75
417.843	18.75
418.624	20.75
419.406	20.75
420.188	19.75
420.969	20.75
421.751	20.75
422.532	18.75
423.313	22.75
424.095	25.75
424.876	25.75
425.657	20.75
426.438	25.75
427.219	26.75
428	26.75
428.78	26.75
429.561	27.75
430.342	30.75
431.122	32.75
431.903	35.75
432.683	31.75
433.464	36.75
434.244	36.75
435.024	40.75
435.804	40.75
436.584	40.75
437.364	46.75
438.144	47.75
438.924	49.75
439.704	54.75
440.483	57.75
441.263	59.75
442.042	62.75
442.822	67.75
443.601	73.75
444.38	78.75
445.16	86.75
445.939	90.75
446.718	94.75
447.497	104.75
448.276	118.75
449.054	127.75
449.833	136.75
450.612	154.75
451.391	167.75
452.169	189.75
452.948	205.75
453.726	233.75
454.504	261.75
455.282	283.75
456.061	315.75
456.839	359.75
457.617	403.75
458.395	441.75
459.172	489.75
459.95	558.75
460.728	617.75
461.506	689.75
462.283	767.75
463.061	865.75
463.838	950.75
464.615	1066.75
465.393	1189.75
466.17	1329.75
466.947	1487.75
467.724	1634.75
468.501	1820.75
469.278	2040.75
470.055	2234.75
470.831	2490.75
471.608	2733.75
472.385	3033.75
473.161	3361.75
473.938	3677.75
474.714	4053.75
475.49	4462.75
476.266	4907.75
477.043	5387.75
477.819	5919.75
478.595	6464.75
479.371	7095.75
480.146	7721.75
480.922	8469.75
481.698	9252.75
482.473	10060.75
483.249	10972.75
484.024	11975.75
484.8	12989.75
485.575	14070.75
486.35	15350.75
487.126	16609.75
487.901	18021.75
488.676	19421.75
489.451	21036.75
490.225	22651.75
491	24267.75
491.775	25995.75
492.55	27796.75
493.324	29644.75
494.099	31480.75
494.873	33384.75
495.647	35234.75
496.422	37177.75
497.196	38950.75
497.97	40551.75
498.744	42072.75
499.518	43709.75
500.292	45018.75
501.066	46095.75
501.839	46870.75
502.613	47635.75
503.387	48091.75
504.16	48487.75
504.934	48474.75
505.707	48194.75
506.48	47661.75
507.253	47061.75
508.027	46216.75
508.8	45165.75
509.573	43996.75
510.346	42836.75
511.118	41681.75
511.891	40315.75
512.664	38708.75
513.437	37168.75
514.209	35769.75
514.982	34359.75
515.754	32842.75
516.526	31491.75
517.298	30276.75
518.071	28993.75
518.843	27862.75
519.615	26692.75
520.387	25701.75
521.159	24669.75
521.93	23642.75
522.702	22651.75
523.474	21690.75
524.245	20753.75
525.017	19783.75
525.788	18908.75
526.56	18145.75
527.331	17304.75
528.102	16401.75
528.873	15560.75
529.644	14833.75
530.415	14133.75
531.186	13468.75
531.957	12712.75
532.728	12039.75
533.498	11367.75
534.269	10803.75
535.039	10244.75
535.81	9662.75
536.58	9140.75
537.351	8635.75
538.121	8166.75
538.891	7749.75
539.661	7358.75
540.431	6952.75
541.201	6571.75
541.971	6236.75
542.741	5905.75
543.51	5620.75
544.28	5332.75
545.05	5081.75
545.819	4841.75
546.588	4626.75
547.358	4410.75
548.127	4175.75
548.896	3961.75
549.665	3723.75
550.434	3557.75
551.203	3364.75
551.972	3210.75
552.741	3041.75
553.51	2846.75
554.278	2679.75
555.047	2520.75
555.815	2414.75
556.584	2276.75
557.352	2132.75
558.121	2019.75
558.889	1929.75
559.657	1798.75
560.425	1708.75
561.193	1613.75
561.961	1549.75
562.729	1455.75
563.496	1360.75
564.264	1299.75
565.032	1222.75
565.799	1153.75
566.567	1093.75
567.334	1032.75
568.101	981.75
568.869	925.75
569.636	870.75
570.403	826.75
571.17	781.75
571.937	741.75
572.704	694.75
573.471	657.75
574.237	614.75
575.004	576.75
575.771	545.75
576.537	515.75
577.303	490.75
578.07	469.75
578.836	435.75
579.602	405.75
580.368	392.75
581.134	370.75
581.9	346.75
582.666	339.75
583.432	319.75
584.198	306.75
584.964	292.75
585.729	271.75
586.495	259.75
587.26	241.75
588.025	233.75
588.791	213.75
589.556	208.75
590.321	203.75
591.086	188.75
591.851	182.75
592.616	172.75
593.381	166.75
594.146	156.75
594.911	152.75
595.675	139.75
596.44	138.75
597.204	133.75
597.969	122.75
598.733	123.75
599.497	115.75
600.261	111.75
601.025	106.75
601.79	100.75
602.553	97.75
603.317	91.75
604.081	85.75
604.845	83.75
605.609	81.75
606.372	76.75
607.136	72.75
607.899	73.75
608.662	66.75
609.426	66.75
610.189	66.75
610.952	63.75
611.715	60.75
612.478	59.75
613.241	58.75
614.004	54.75
614.767	50.75
615.529	51.75
616.292	44.75
617.055	47.75
617.817	43.75
618.579	42.75
619.342	47.75
620.104	39.75
620.866	39.75
621.628	36.75
622.39	38.75
623.152	39.75
623.914	34.75
624.676	30.75
625.438	31.75
626.199	30.75
626.961	33.75
627.722	30.75
628.484	26.75
629.245	27.75
630.006	30.75
630.768	25.75
631.529	24.75
632.29	24.75
633.051	25.75
633.812	22.75
634.573	24.75
635.333	25.75
636.094	22.75
636.855	21.75
637.615	18.75
638.376	18.75
639.136	20.75
639.896	17.75
640.657	17.75
641.417	18.75
642.177	18.75
642.937	18.75
643.697	16.75
644.457	17.75
645.216	17.75
645.976	15.75
646.736	15.75
647.495	14.75
648.255	14.75
649.014	13.75
649.774	12.75
650.533	13.75
651.292	15.75
652.051	14.75
652.81	12.75
653.569	11.75
654.328	12.75
655.087	11.75
655.846	13.75
656.604	12.75
657.363	12.75
658.121	10.75
658.88	12.75
659.638	9.75
660.397	14.75
661.155	10.75
661.913	9.75
662.671	10.75
663.429	12.75
664.187	11.75
664.945	10.75
665.703	10.75
666.46	10.75
667.218	11.75
667.976	10.75
668.733	9.75
669.49	10.75
670.248	8.75
671.005	8.75
671.762	10.75
672.519	8.75
673.276	9.75
674.033	8.75
674.79	9.75
675.547	8.75
676.304	7.75
677.06	7.75
677.817	6.75
678.574	9.75
679.33	5.75
680.086	8.75
680.843	9.75
681.599	8.75
682.355	9.75
683.111	6.75
683.867	8.75
684.623	4.75
685.379	6.75
686.135	6.75
686.89	6.75
687.646	8.75
688.402	6.75
689.157	10.75
689.912	7.75
690.668	7.75
691.423	9.75
692.178	4.75
692.933	6.75
693.688	8.75
694.443	6.75
695.198	5.75
695.953	5.75
696.708	8.75
697.462	6.75
698.217	7.75
698.972	8.75
699.726	6.75
700.48	8.75
701.235	9.75
701.989	5.75
702.743	6.75
703.497	4.75
704.251	6.75
705.005	4.75
705.759	6.75
706.513	3.75
707.266	8.75
708.02	6.75
708.774	5.75
709.527	6.75
710.28	7.75
711.034	6.75
711.787	6.75
712.54	7.75
713.293	7.75
714.046	4.75
714.799	8.75
715.552	6.75
716.305	8.75
717.058	8.75
717.81	9.75
718.563	8.75
719.315	7.75
720.068	8.75
720.82	8.75
721.573	7.75
722.325	9.75
723.077	5.75
723.829	10.75
724.581	7.75
725.333	8.75
726.085	5.75
726.836	9.75
727.588	9.75
728.34	5.75
729.091	10.75
729.843	9.75
730.594	10.75
731.346	7.75
732.097	8.75
732.848	8.75
733.599	8.75
734.35	10.75
735.101	8.75
735.852	7.75
736.603	8.75
737.354	9.75
738.104	9.75
738.855	9.75
739.605	10.75
740.356	10.75
741.106	9.75
741.856	9.75
742.607	10.75
743.357	10.75
744.107	11.75
744.857	12.75
745.607	10.75
746.357	11.75
747.106	11.75
747.856	13.75
748.606	8.75
749.355	11.75
750.105	11.75
750.854	10.75
751.603	10.75
752.353	11.75
753.102	12.75
753.851	10.75
754.6	10.75
755.349	11.75
756.098	11.75
756.847	11.75
757.595	13.75
758.344	11.75
759.093	11.75
759.841	11.75
760.589	11.75
761.338	9.75
762.086	12.75
762.834	13.75
763.582	11.75
764.331	12.75
765.079	14.75
765.826	12.75
766.574	14.75
767.322	12.75
768.07	14.75
768.817	13.75
769.565	12.75
770.312	14.75
771.06	14.75
771.807	17.75
772.554	13.75
773.302	12.75
774.049	14.75
774.796	15.75
775.543	14.75
776.29	14.75
777.036	16.75
777.783	17.75
778.53	14.75
779.276	16.75
780.023	16.75
780.769	16.75
781.516	14.75
782.262	17.75
783.008	16.75
783.754	15.75
784.5	15.75
785.246	13.75
785.992	14.75
786.738	16.75
787.484	17.75
788.23	14.75
788.975	14.75
789.721	14.75
790.466	14.75
791.212	12.75
791.957	14.75
792.702	13.75
793.447	13.75
794.193	12.75
794.938	15.75
795.683	12.75
796.427	11.75
797.172	11.75
797.917	10.75
798.662	16.75
799.406	13.75
800.151	11.75
800.895	11.75
801.64	10.75
802.384	14.75
803.128	10.75
803.872	11.75
804.616	13.75
805.36	8.75
806.104	8.75
806.848	11.75
807.592	10.75
808.336	9.75
809.079	8.75
809.823	8.75
810.566	8.75
811.31	7.75
812.053	9.75
812.796	10.75
813.539	10.75
814.283	10.75
815.026	7.75
815.769	7.75
816.511	8.75
817.254	8.75
817.997	6.75
818.74	8.75
819.482	6.75
820.225	7.75
820.967	5.75
821.71	7.75
822.452	7.75
823.194	6.75
823.936	7.75
824.678	5.75
825.42	5.75
826.162	7.75
826.904	4.75
827.646	6.75
828.388	6.75
829.129	7.75
829.871	5.75
830.612	7.75
831.354	6.75
832.095	5.75
832.836	6.75
833.577	3.75
834.319	6.75
835.06	3.75
835.801	6.75
836.542	4.75
837.282	6.75
838.023	6.75
838.764	5.75
839.504	6.75
840.245	5.75
840.985	5.75
841.726	5.75
842.466	4.75
843.206	5.75
843.946	5.75
844.687	4.75
845.427	5.75
846.166	5.75
846.906	4.75
847.646	3.75
848.386	6.75
849.125	4.75
849.865	5.75
850.605	3.75
851.344	4.75
852.083	3.75
852.823	3.75
853.562	4.75
854.301	4.75
855.04	3.75
855.779	5.75
856.518	2.75
857.257	4.75
857.995	3.75
858.734	2.75
859.473	4.75
860.211	2.75
860.95	3.75
861.688	1.75
862.426	3.75
863.165	3.75
863.903	2.75
864.641	4.75
865.379	0.75
866.117	3.75
866.855	4.75
867.593	3.75
868.33	2.75
869.068	3.75
869.806	1.75
870.543	0.75
871.28	3.75
872.018	2.75
872.755	1.75
873.492	2.75
874.229	2.75
874.967	1.75
875.703	2.75
876.44	1.75
877.177	0.75
877.914	1.75
878.651	2.75
879.387	-0.25
880.124	3.75
880.86	1.75
881.597	0.75
882.333	-0.25
883.069	3.75
883.806	1.75
884.542	0.75
885.278	2.75
886.014	-0.25
886.749	1.75
887.485	0.75
888.221	-0.25
888.957	1.75
889.692	0.75
890.428	1.75
891.163	0.75
891.899	1.75
892.634	2.75
893.369	3.75
894.104	0.75
894.839	0.75
895.574	1.75
896.309	4.75
897.044	0.75
897.779	0.75
898.514	-0.25
899.248	-0.25
899.983	0.75
900.717	0.75
901.452	2.75
902.186	1.75
902.92	-1.25
903.654	-1.25
904.389	1.75
905.123	2.75
905.857	0.75
906.59	1.75
907.324	-1.25
908.058	0.75
908.792	-0.25
909.525	2.75
910.259	-1.25
910.992	-0.25
911.726	2.75
912.459	1.75
913.192	-0.25
913.925	0.75
914.658	0.75
915.391	1.75
916.124	-2.25
916.857	-0.25
917.59	0.75
918.323	2.75
919.055	0.75
919.788	0.75
920.521	-0.25
921.253	0.75
921.985	1.75
922.718	1.75
923.45	1.75
924.182	0.75
924.914	2.75
925.646	0.75
926.378	2.75
927.11	0.75
927.841	0.75
928.573	-1.25
929.305	-0.25
930.036	-0.25
930.768	-0.25
931.499	2.75
932.23	-0.25
932.962	1.75
933.693	0.75
934.424	-0.25
935.155	2.75
935.886	0.75
936.617	-1.25
937.348	0.75
938.078	1.75
938.809	-0.25
939.54	-1.25
940.27	-0.25
941.001	0.75
941.731	1.75
942.461	-2.25
943.191	0.75
943.922	0.75
944.652	1.75
945.382	-0.25
946.112	-1.25
946.841	-1.25
947.571	-0.25
948.301	-1.25
949.031	-1.25
949.76	0.75
950.49	1.75
951.219	-0.25
951.948	0.75
952.678	0.75
953.407	-1.25
954.136	2.75
954.865	0.75
955.594	-1.25
956.323	-1.25
957.052	-0.25
957.78	-0.25
958.509	0.75
959.238	-0.25
959.966	-0.25
960.695	1.75
961.423	-2.25
962.151	-0.25
962.88	0.75
963.608	-2.25
964.336	-1.25
965.064	-1.25
965.792	0.75
966.52	0.75
967.247	0.75
967.975	1.75
968.703	0.75
969.43	-1.25
970.158	-0.25
970.885	-0.25
971.613	-1.25
972.34	-0.25
973.067	1.75
973.794	-0.25
974.521	-0.25
975.248	-1.25
975.975	-0.25
976.702	-0.25
977.429	-0.25
978.156	-0.25
978.882	-3.25
979.609	1.75
980.335	0.75
981.062	0.75
981.788	-1.25
982.514	0.75
983.24	-1.25
983.967	-0.25
984.693	2.75
985.419	-2.25
986.144	0.75
986.87	-0.25
987.596	-0.25
988.322	2.75
989.047	-1.25
989.773	-1.25
990.498	-1.25
991.224	-1.25
991.949	-0.25
992.674	-1.25
993.399	1.75
994.124	-1.25
994.849	1.75
995.574	0.75
996.299	-1.25
997.024	0.75
997.749	-2.25
998.473	1.75
999.198	-3.25
999.922	0.75
1000.647	0.75
1001.371	3.75
1002.095	0.75
1002.82	-2.25
1003.544	-2.25
1004.268	4.75
1004.992	2.75
1005.716	3.75
1006.439	6.75
1007.163	2.75
1007.887	4.75
1008.611	-1.25
1009.334	0.75
1010.058	-1.25
1010.781	2.75
1011.504	1.75
1012.228	-0.25
1012.951	1.75
1013.674	-2.25
1014.397	0.75
1015.12	-0.25
