节点500_705_QEPB04081__124__20-47-57-079.txt的数据

Date: Wed Nov 12 20:47:57 CST 2025
User: PC
Spectrometer: QEPB0408
触发模式: 0
积分时间 (秒): 1.000000E-2
Scans to average: 1
启用暗噪声校正: true
启用非线性校正: false
滑动平均宽度: 0
X轴模式: Wavelengths
Number of Pixels in Spectrum: 1044
>>>>>Begin Spectral Data<<<<<
220.843	6.62
221.644	5.62
222.444	3.62
223.244	4.62
224.045	9.62
224.845	6.62
225.645	2.62
226.445	5.62
227.245	5.62
228.045	9.62
228.845	9.62
229.645	9.62
230.444	11.62
231.244	7.62
232.043	10.62
232.843	9.62
233.642	12.62
234.442	8.62
235.241	8.62
236.04	11.62
236.839	10.62
237.638	11.62
238.437	12.62
239.236	10.62
240.035	11.62
240.833	13.62
241.632	13.62
242.43	12.62
243.229	9.62
244.027	13.62
244.826	14.62
245.624	11.62
246.422	13.62
247.22	16.62
248.018	12.62
248.816	14.62
249.614	16.62
250.412	15.62
251.21	15.62
252.007	19.62
252.805	18.62
253.602	18.62
254.4	17.62
255.197	20.62
255.994	18.62
256.791	21.62
257.589	20.62
258.386	23.62
259.183	24.62
259.979	22.62
260.776	23.62
261.573	22.62
262.37	24.62
263.166	25.62
263.963	25.62
264.759	25.62
265.556	28.62
266.352	28.62
267.148	30.62
267.944	29.62
268.74	29.62
269.536	32.62
270.332	30.62
271.128	30.62
271.924	35.62
272.719	34.62
273.515	34.62
274.311	35.62
275.106	33.62
275.901	34.62
276.697	33.62
277.492	33.62
278.287	34.62
279.082	36.62
279.877	37.62
280.672	36.62
281.467	34.62
282.262	32.62
283.056	36.62
283.851	35.62
284.646	33.62
285.44	34.62
286.234	34.62
287.029	34.62
287.823	33.62
288.617	35.62
289.411	32.62
290.205	28.62
290.999	32.62
291.793	31.62
292.587	32.62
293.381	31.62
294.174	28.62
294.968	30.62
295.761	23.62
296.555	30.62
297.348	26.62
298.141	26.62
298.935	26.62
299.728	25.62
300.521	26.62
301.314	21.62
302.107	22.62
302.899	20.62
303.692	21.62
304.485	19.62
305.277	22.62
306.07	22.62
306.862	23.62
307.655	20.62
308.447	21.62
309.239	20.62
310.031	21.62
310.823	18.62
311.615	17.62
312.407	15.62
313.199	16.62
313.991	19.62
314.783	14.62
315.574	16.62
316.366	16.62
317.157	16.62
317.949	13.62
318.74	14.62
319.531	14.62
320.322	12.62
321.113	13.62
321.904	13.62
322.695	16.62
323.486	12.62
324.277	10.62
325.068	13.62
325.858	12.62
326.649	13.62
327.439	12.62
328.23	13.62
329.02	11.62
329.81	12.62
330.6	10.62
331.391	11.62
332.181	12.62
332.971	10.62
333.76	9.62
334.55	10.62
335.34	14.62
336.13	13.62
336.919	11.62
337.709	12.62
338.498	11.62
339.287	10.62
340.077	12.62
340.866	8.62
341.655	11.62
342.444	8.62
343.233	11.62
344.022	8.62
344.811	10.62
345.6	10.62
346.388	11.62
347.177	10.62
347.965	11.62
348.754	9.62
349.542	10.62
350.33	10.62
351.119	11.62
351.907	9.62
352.695	9.62
353.483	10.62
354.271	9.62
355.059	10.62
355.846	8.62
356.634	10.62
357.422	10.62
358.209	12.62
358.997	11.62
359.784	10.62
360.571	10.62
361.359	9.62
362.146	10.62
362.933	9.62
363.72	9.62
364.507	9.62
365.294	10.62
366.081	10.62
366.867	7.62
367.654	12.62
368.44	7.62
369.227	9.62
370.013	8.62
370.8	7.62
371.586	11.62
372.372	10.62
373.158	9.62
373.944	9.62
374.73	7.62
375.516	10.62
376.302	9.62
377.088	10.62
377.873	12.62
378.659	11.62
379.445	8.62
380.23	7.62
381.015	11.62
381.801	11.62
382.586	8.62
383.371	9.62
384.156	7.62
384.941	10.62
385.726	10.62
386.511	12.62
387.296	11.62
388.08	9.62
388.865	14.62
389.649	10.62
390.434	9.62
391.218	12.62
392.003	10.62
392.787	10.62
393.571	9.62
394.355	10.62
395.139	10.62
395.923	13.62
396.707	10.62
397.491	12.62
398.274	11.62
399.058	12.62
399.842	16.62
400.625	12.62
401.408	12.62
402.192	13.62
402.975	14.62
403.758	15.62
404.541	14.62
405.324	15.62
406.107	13.62
406.89	18.62
407.673	15.62
408.456	16.62
409.238	18.62
410.021	14.62
410.803	15.62
411.586	19.62
412.368	19.62
413.151	15.62
413.933	19.62
414.715	19.62
415.497	16.62
416.279	20.62
417.061	17.62
417.843	19.62
418.624	19.62
419.406	18.62
420.188	23.62
420.969	20.62
421.751	23.62
422.532	22.62
423.313	22.62
424.095	25.62
424.876	26.62
425.657	26.62
426.438	23.62
427.219	23.62
428	28.62
428.78	29.62
429.561	32.62
430.342	28.62
431.122	30.62
431.903	35.62
432.683	34.62
433.464	36.62
434.244	36.62
435.024	39.62
435.804	40.62
436.584	41.62
437.364	42.62
438.144	46.62
438.924	47.62
439.704	54.62
440.483	54.62
441.263	58.62
442.042	62.62
442.822	68.62
443.601	70.62
444.38	75.62
445.16	83.62
445.939	85.62
446.718	94.62
447.497	106.62
448.276	117.62
449.054	128.62
449.833	144.62
450.612	153.62
451.391	164.62
452.169	182.62
452.948	204.62
453.726	229.62
454.504	245.62
455.282	278.62
456.061	315.62
456.839	352.62
457.617	389.62
458.395	433.62
459.172	483.62
459.95	540.62
460.728	604.62
461.506	678.62
462.283	770.62
463.061	852.62
463.838	936.62
464.615	1050.62
465.393	1166.62
466.17	1310.62
466.947	1467.62
467.724	1630.62
468.501	1794.62
469.278	2014.62
470.055	2245.62
470.831	2482.62
471.608	2746.62
472.385	3023.62
473.161	3387.62
473.938	3701.62
474.714	4075.62
475.49	4520.62
476.266	4936.62
477.043	5439.62
477.819	5995.62
478.595	6573.62
479.371	7202.62
480.146	7848.62
480.922	8607.62
481.698	9436.62
482.473	10340.62
483.249	11184.62
484.024	12253.62
484.8	13273.62
485.575	14522.62
486.35	15792.62
487.126	17150.62
487.901	18509.62
488.676	20040.62
489.451	21721.62
490.225	23419.62
491	25132.62
491.775	26917.62
492.55	28857.62
493.324	30739.62
494.099	32582.62
494.873	34579.62
495.647	36497.62
496.422	38420.62
497.196	40274.62
497.97	41951.62
498.744	43421.62
499.518	45071.62
500.292	46425.62
501.066	47311.62
501.839	48080.62
502.613	48748.62
503.387	49194.62
504.16	49481.62
504.934	49394.62
505.707	49154.62
506.48	48427.62
507.253	47789.62
508.027	46798.62
508.8	45636.62
509.573	44404.62
510.346	43120.62
511.118	41862.62
511.891	40428.62
512.664	38816.62
513.437	37105.62
514.209	35703.62
514.982	34288.62
515.754	32857.62
516.526	31423.62
517.298	30215.62
518.071	28945.62
518.843	27687.62
519.615	26658.62
520.387	25626.62
521.159	24590.62
521.93	23486.62
522.702	22537.62
523.474	21533.62
524.245	20606.62
525.017	19620.62
525.788	18829.62
526.56	18036.62
527.331	17174.62
528.102	16291.62
528.873	15404.62
529.644	14708.62
530.415	13975.62
531.186	13320.62
531.957	12582.62
532.728	11939.62
533.498	11248.62
534.269	10683.62
535.039	10085.62
535.81	9510.62
536.58	9024.62
537.351	8491.62
538.121	8091.62
538.891	7625.62
539.661	7215.62
540.431	6803.62
541.201	6497.62
541.971	6136.62
542.741	5810.62
543.51	5532.62
544.28	5254.62
545.05	5025.62
545.819	4761.62
546.588	4561.62
547.358	4330.62
548.127	4120.62
548.896	3887.62
549.665	3686.62
550.434	3500.62
551.203	3310.62
551.972	3151.62
552.741	3002.62
553.51	2810.62
554.278	2645.62
555.047	2475.62
555.815	2344.62
556.584	2232.62
557.352	2104.62
558.121	1978.62
558.889	1885.62
559.657	1770.62
560.425	1668.62
561.193	1589.62
561.961	1496.62
562.729	1425.62
563.496	1339.62
564.264	1275.62
565.032	1192.62
565.799	1126.62
566.567	1084.62
567.334	1010.62
568.101	955.62
568.869	920.62
569.636	858.62
570.403	803.62
571.17	765.62
571.937	722.62
572.704	676.62
573.471	639.62
574.237	613.62
575.004	571.62
575.771	534.62
576.537	505.62
577.303	482.62
578.07	460.62
578.836	414.62
579.602	405.62
580.368	385.62
581.134	368.62
581.9	349.62
582.666	332.62
583.432	310.62
584.198	298.62
584.964	289.62
585.729	268.62
586.495	254.62
587.26	238.62
588.025	222.62
588.791	222.62
589.556	208.62
590.321	192.62
591.086	185.62
591.851	179.62
592.616	170.62
593.381	161.62
594.146	153.62
594.911	144.62
595.675	142.62
596.44	133.62
597.204	128.62
597.969	121.62
598.733	118.62
599.497	108.62
600.261	109.62
601.025	100.62
601.79	101.62
602.553	91.62
603.317	91.62
604.081	86.62
604.845	81.62
605.609	83.62
606.372	73.62
607.136	76.62
607.899	73.62
608.662	67.62
609.426	64.62
610.189	63.62
610.952	58.62
611.715	60.62
612.478	59.62
613.241	53.62
614.004	52.62
614.767	50.62
615.529	47.62
616.292	46.62
617.055	47.62
617.817	43.62
618.579	46.62
619.342	43.62
620.104	42.62
620.866	39.62
621.628	38.62
622.39	40.62
623.152	36.62
623.914	36.62
624.676	32.62
625.438	31.62
626.199	30.62
626.961	30.62
627.722	31.62
628.484	28.62
629.245	28.62
630.006	27.62
630.768	24.62
631.529	25.62
632.29	26.62
633.051	23.62
633.812	19.62
634.573	25.62
635.333	22.62
636.094	23.62
636.855	19.62
637.615	18.62
638.376	20.62
639.136	20.62
639.896	19.62
640.657	17.62
641.417	18.62
642.177	18.62
642.937	17.62
643.697	17.62
644.457	14.62
645.216	18.62
645.976	16.62
646.736	14.62
647.495	15.62
648.255	13.62
649.014	14.62
649.774	12.62
650.533	13.62
651.292	12.62
652.051	13.62
652.81	12.62
653.569	13.62
654.328	11.62
655.087	12.62
655.846	12.62
656.604	10.62
657.363	10.62
658.121	11.62
658.88	12.62
659.638	11.62
660.397	10.62
661.155	10.62
661.913	10.62
662.671	8.62
663.429	8.62
664.187	12.62
664.945	10.62
665.703	9.62
666.46	7.62
667.218	11.62
667.976	7.62
668.733	11.62
669.49	10.62
670.248	9.62
671.005	9.62
671.762	7.62
672.519	9.62
673.276	7.62
674.033	8.62
674.79	7.62
675.547	9.62
676.304	10.62
677.06	8.62
677.817	9.62
678.574	6.62
679.33	8.62
680.086	10.62
680.843	8.62
681.599	9.62
682.355	9.62
683.111	9.62
683.867	8.62
684.623	7.62
685.379	9.62
686.135	8.62
686.89	9.62
687.646	5.62
688.402	8.62
689.157	7.62
689.912	6.62
690.668	7.62
691.423	5.62
692.178	5.62
692.933	6.62
693.688	8.62
694.443	7.62
695.198	5.62
695.953	8.62
696.708	9.62
697.462	5.62
698.217	7.62
698.972	7.62
699.726	5.62
700.48	7.62
701.235	7.62
701.989	7.62
702.743	6.62
703.497	7.62
704.251	7.62
705.005	5.62
705.759	5.62
706.513	5.62
707.266	9.62
708.02	7.62
708.774	6.62
709.527	8.62
710.28	8.62
711.034	7.62
711.787	8.62
712.54	6.62
713.293	6.62
714.046	7.62
714.799	8.62
715.552	7.62
716.305	5.62
717.058	5.62
717.81	9.62
718.563	8.62
719.315	8.62
720.068	5.62
720.82	8.62
721.573	8.62
722.325	6.62
723.077	6.62
723.829	7.62
724.581	7.62
725.333	7.62
726.085	8.62
726.836	9.62
727.588	8.62
728.34	8.62
729.091	7.62
729.843	8.62
730.594	11.62
731.346	11.62
732.097	8.62
732.848	9.62
733.599	9.62
734.35	10.62
735.101	7.62
735.852	8.62
736.603	7.62
737.354	9.62
738.104	7.62
738.855	9.62
739.605	9.62
740.356	7.62
741.106	9.62
741.856	8.62
742.607	8.62
743.357	9.62
744.107	9.62
744.857	10.62
745.607	11.62
746.357	11.62
747.106	13.62
747.856	10.62
748.606	10.62
749.355	9.62
750.105	11.62
750.854	11.62
751.603	10.62
752.353	12.62
753.102	9.62
753.851	12.62
754.6	10.62
755.349	12.62
756.098	13.62
756.847	10.62
757.595	11.62
758.344	13.62
759.093	10.62
759.841	12.62
760.589	15.62
761.338	14.62
762.086	12.62
762.834	12.62
763.582	15.62
764.331	11.62
765.079	13.62
765.826	14.62
766.574	14.62
767.322	12.62
768.07	14.62
768.817	14.62
769.565	14.62
770.312	14.62
771.06	12.62
771.807	14.62
772.554	13.62
773.302	17.62
774.049	15.62
774.796	16.62
775.543	17.62
776.29	15.62
777.036	17.62
777.783	17.62
778.53	18.62
779.276	13.62
780.023	16.62
780.769	14.62
781.516	18.62
782.262	16.62
783.008	17.62
783.754	15.62
784.5	15.62
785.246	17.62
785.992	17.62
786.738	16.62
787.484	14.62
788.23	14.62
788.975	15.62
789.721	14.62
790.466	13.62
791.212	13.62
791.957	11.62
792.702	14.62
793.447	13.62
794.193	13.62
794.938	15.62
795.683	15.62
796.427	12.62
797.172	12.62
797.917	12.62
798.662	11.62
799.406	12.62
800.151	11.62
800.895	11.62
801.64	11.62
802.384	12.62
803.128	10.62
803.872	11.62
804.616	12.62
805.36	10.62
806.104	9.62
806.848	11.62
807.592	8.62
808.336	9.62
809.079	10.62
809.823	9.62
810.566	8.62
811.31	10.62
812.053	8.62
812.796	8.62
813.539	7.62
814.283	8.62
815.026	8.62
815.769	9.62
816.511	7.62
817.254	9.62
817.997	6.62
818.74	6.62
819.482	9.62
820.225	7.62
820.967	3.62
821.71	8.62
822.452	8.62
823.194	6.62
823.936	6.62
824.678	6.62
825.42	7.62
826.162	6.62
826.904	7.62
827.646	7.62
828.388	6.62
829.129	6.62
829.871	4.62
830.612	5.62
831.354	5.62
832.095	5.62
832.836	4.62
833.577	4.62
834.319	4.62
835.06	7.62
835.801	5.62
836.542	6.62
837.282	6.62
838.023	7.62
838.764	4.62
839.504	5.62
840.245	5.62
840.985	5.62
841.726	4.62
842.466	4.62
843.206	2.62
843.946	4.62
844.687	4.62
845.427	6.62
846.166	4.62
846.906	5.62
847.646	4.62
848.386	4.62
849.125	6.62
849.865	5.62
850.605	3.62
851.344	2.62
852.083	3.62
852.823	4.62
853.562	3.62
854.301	4.62
855.04	1.62
855.779	4.62
856.518	5.62
857.257	-0.38
857.995	2.62
858.734	4.62
859.473	1.62
860.211	4.62
860.95	-0.38
861.688	1.62
862.426	1.62
863.165	3.62
863.903	3.62
864.641	1.62
865.379	3.62
866.117	1.62
866.855	4.62
867.593	3.62
868.33	0.62
869.068	2.62
869.806	2.62
870.543	2.62
871.28	2.62
872.018	2.62
872.755	2.62
873.492	2.62
874.229	2.62
874.967	1.62
875.703	0.62
876.44	-0.38
877.177	1.62
877.914	0.62
878.651	0.62
879.387	-1.38
880.124	1.62
880.86	1.62
881.597	-0.38
882.333	1.62
883.069	2.62
883.806	0.62
884.542	0.62
885.278	3.62
886.014	0.62
886.749	2.62
887.485	1.62
888.221	0.62
888.957	-0.38
889.692	1.62
890.428	0.62
891.163	1.62
891.899	1.62
892.634	0.62
893.369	2.62
894.104	0.62
894.839	0.62
895.574	1.62
896.309	-0.38
897.044	-0.38
897.779	1.62
898.514	0.62
899.248	-0.38
899.983	1.62
900.717	2.62
901.452	-0.38
902.186	0.62
902.92	1.62
903.654	1.62
904.389	0.62
905.123	0.62
905.857	1.62
906.59	-0.38
907.324	1.62
908.058	0.62
908.792	0.62
909.525	-1.38
910.259	-0.38
910.992	1.62
911.726	-0.38
912.459	1.62
913.192	0.62
913.925	-0.38
914.658	0.62
915.391	-0.38
916.124	1.62
916.857	-1.38
917.59	1.62
918.323	0.62
919.055	1.62
919.788	1.62
920.521	0.62
921.253	-0.38
921.985	-0.38
922.718	1.62
923.45	0.62
924.182	-1.38
924.914	-0.38
925.646	-1.38
926.378	2.62
927.11	-0.38
927.841	0.62
928.573	1.62
929.305	-2.38
930.036	-0.38
930.768	0.62
931.499	0.62
932.23	-0.38
932.962	-1.38
933.693	2.62
934.424	-1.38
935.155	-0.38
935.886	-1.38
936.617	-1.38
937.348	0.62
938.078	-1.38
938.809	0.62
939.54	0.62
940.27	-1.38
941.001	-1.38
941.731	-1.38
942.461	-1.38
943.191	-0.38
943.922	2.62
944.652	-1.38
945.382	0.62
946.112	1.62
946.841	-1.38
947.571	0.62
948.301	-1.38
949.031	-2.38
949.76	-0.38
950.49	-1.38
951.219	0.62
951.948	0.62
952.678	1.62
953.407	0.62
954.136	-0.38
954.865	-0.38
955.594	0.62
956.323	-1.38
957.052	0.62
957.78	1.62
958.509	0.62
959.238	-1.38
959.966	-1.38
960.695	-0.38
961.423	1.62
962.151	-0.38
962.88	0.62
963.608	1.62
964.336	-0.38
965.064	2.62
965.792	-0.38
966.52	-0.38
967.247	0.62
967.975	0.62
968.703	-0.38
969.43	1.62
970.158	0.62
970.885	0.62
971.613	0.62
972.34	0.62
973.067	-0.38
973.794	1.62
974.521	0.62
975.248	0.62
975.975	-0.38
976.702	0.62
977.429	-0.38
978.156	-1.38
978.882	0.62
979.609	-0.38
980.335	-0.38
981.062	2.62
981.788	0.62
982.514	-0.38
983.24	-1.38
983.967	-0.38
984.693	-0.38
985.419	0.62
986.144	-1.38
986.87	1.62
987.596	-0.38
988.322	-2.38
989.047	0.62
989.773	-0.38
990.498	0.62
991.224	0.62
991.949	0.62
992.674	0.62
993.399	-2.38
994.124	-0.38
994.849	1.62
995.574	0.62
996.299	0.62
997.024	-0.38
997.749	0.62
998.473	-1.38
999.198	-0.38
999.922	-1.38
1000.647	0.62
1001.371	2.62
1002.095	-0.38
1002.82	0.62
1003.544	-1.38
1004.268	3.62
1004.992	5.62
1005.716	4.62
1006.439	3.62
1007.163	3.62
1007.887	2.62
1008.611	-0.38
1009.334	-1.38
1010.058	-1.38
1010.781	-3.38
1011.504	0.62
1012.228	0.62
1012.951	-0.38
1013.674	-1.38
1014.397	-1.38
1015.12	1.62
