节点500_705_QEPB04081__531__20-53-27-743.txt的数据

Date: Wed Nov 12 20:53:27 CST 2025
User: PC
Spectrometer: QEPB0408
触发模式: 0
积分时间 (秒): 1.000000E-2
Scans to average: 1
启用暗噪声校正: true
启用非线性校正: false
滑动平均宽度: 0
X轴模式: Wavelengths
Number of Pixels in Spectrum: 1044
>>>>>Begin Spectral Data<<<<<
220.843	5.62
221.644	8.62
222.444	6.62
223.244	6.62
224.045	6.62
224.845	6.62
225.645	6.62
226.445	9.62
227.245	5.62
228.045	9.62
228.845	7.62
229.645	9.62
230.444	7.62
231.244	7.62
232.043	9.62
232.843	11.62
233.642	10.62
234.442	11.62
235.241	7.62
236.04	10.62
236.839	7.62
237.638	11.62
238.437	11.62
239.236	11.62
240.035	8.62
240.833	11.62
241.632	9.62
242.43	12.62
243.229	11.62
244.027	12.62
244.826	14.62
245.624	11.62
246.422	11.62
247.22	10.62
248.018	13.62
248.816	15.62
249.614	13.62
250.412	17.62
251.21	15.62
252.007	15.62
252.805	18.62
253.602	15.62
254.4	19.62
255.197	19.62
255.994	17.62
256.791	17.62
257.589	20.62
258.386	21.62
259.183	20.62
259.979	21.62
260.776	19.62
261.573	23.62
262.37	24.62
263.166	23.62
263.963	23.62
264.759	23.62
265.556	23.62
266.352	23.62
267.148	23.62
267.944	27.62
268.74	26.62
269.536	29.62
270.332	27.62
271.128	27.62
271.924	27.62
272.719	30.62
273.515	31.62
274.311	31.62
275.106	29.62
275.901	31.62
276.697	31.62
277.492	30.62
278.287	31.62
279.082	34.62
279.877	33.62
280.672	34.62
281.467	31.62
282.262	31.62
283.056	33.62
283.851	31.62
284.646	32.62
285.44	31.62
286.234	27.62
287.029	31.62
287.823	30.62
288.617	31.62
289.411	30.62
290.205	30.62
290.999	31.62
291.793	28.62
292.587	27.62
293.381	27.62
294.174	29.62
294.968	28.62
295.761	26.62
296.555	25.62
297.348	23.62
298.141	29.62
298.935	28.62
299.728	29.62
300.521	28.62
301.314	24.62
302.107	22.62
302.899	22.62
303.692	21.62
304.485	21.62
305.277	20.62
306.07	21.62
306.862	23.62
307.655	22.62
308.447	22.62
309.239	20.62
310.031	23.62
310.823	16.62
311.615	18.62
312.407	18.62
313.199	16.62
313.991	15.62
314.783	17.62
315.574	17.62
316.366	15.62
317.157	16.62
317.949	14.62
318.74	16.62
319.531	15.62
320.322	13.62
321.113	15.62
321.904	12.62
322.695	13.62
323.486	11.62
324.277	12.62
325.068	11.62
325.858	11.62
326.649	15.62
327.439	13.62
328.23	13.62
329.02	13.62
329.81	14.62
330.6	12.62
331.391	12.62
332.181	13.62
332.971	12.62
333.76	10.62
334.55	10.62
335.34	13.62
336.13	11.62
336.919	13.62
337.709	13.62
338.498	14.62
339.287	13.62
340.077	11.62
340.866	12.62
341.655	11.62
342.444	10.62
343.233	11.62
344.022	11.62
344.811	7.62
345.6	13.62
346.388	10.62
347.177	12.62
347.965	11.62
348.754	11.62
349.542	10.62
350.33	9.62
351.119	12.62
351.907	11.62
352.695	10.62
353.483	10.62
354.271	10.62
355.059	11.62
355.846	11.62
356.634	11.62
357.422	8.62
358.209	12.62
358.997	12.62
359.784	8.62
360.571	8.62
361.359	11.62
362.146	10.62
362.933	9.62
363.72	10.62
364.507	10.62
365.294	9.62
366.081	10.62
366.867	6.62
367.654	11.62
368.44	10.62
369.227	9.62
370.013	10.62
370.8	8.62
371.586	11.62
372.372	9.62
373.158	9.62
373.944	8.62
374.73	11.62
375.516	10.62
376.302	9.62
377.088	7.62
377.873	11.62
378.659	9.62
379.445	11.62
380.23	9.62
381.015	10.62
381.801	9.62
382.586	8.62
383.371	10.62
384.156	10.62
384.941	8.62
385.726	10.62
386.511	10.62
387.296	10.62
388.08	10.62
388.865	10.62
389.649	12.62
390.434	11.62
391.218	10.62
392.003	11.62
392.787	14.62
393.571	11.62
394.355	12.62
395.139	13.62
395.923	14.62
396.707	13.62
397.491	12.62
398.274	13.62
399.058	13.62
399.842	13.62
400.625	14.62
401.408	15.62
402.192	14.62
402.975	13.62
403.758	13.62
404.541	12.62
405.324	15.62
406.107	14.62
406.89	14.62
407.673	17.62
408.456	14.62
409.238	17.62
410.021	13.62
410.803	18.62
411.586	15.62
412.368	16.62
413.151	15.62
413.933	18.62
414.715	18.62
415.497	17.62
416.279	19.62
417.061	19.62
417.843	17.62
418.624	19.62
419.406	15.62
420.188	20.62
420.969	20.62
421.751	24.62
422.532	24.62
423.313	23.62
424.095	23.62
424.876	23.62
425.657	26.62
426.438	25.62
427.219	27.62
428	27.62
428.78	24.62
429.561	27.62
430.342	29.62
431.122	31.62
431.903	32.62
432.683	33.62
433.464	34.62
434.244	37.62
435.024	38.62
435.804	39.62
436.584	38.62
437.364	46.62
438.144	44.62
438.924	53.62
439.704	51.62
440.483	57.62
441.263	63.62
442.042	63.62
442.822	71.62
443.601	76.62
444.38	85.62
445.16	90.62
445.939	98.62
446.718	107.62
447.497	115.62
448.276	127.62
449.054	143.62
449.833	153.62
450.612	163.62
451.391	189.62
452.169	204.62
452.948	230.62
453.726	259.62
454.504	287.62
455.282	313.62
456.061	343.62
456.839	387.62
457.617	438.62
458.395	483.62
459.172	536.62
459.95	599.62
460.728	656.62
461.506	743.62
462.283	826.62
463.061	912.62
463.838	1014.62
464.615	1115.62
465.393	1257.62
466.17	1371.62
466.947	1527.62
467.724	1694.62
468.501	1869.62
469.278	2071.62
470.055	2274.62
470.831	2518.62
471.608	2750.62
472.385	3003.62
473.161	3330.62
473.938	3621.62
474.714	3986.62
475.49	4359.62
476.266	4748.62
477.043	5167.62
477.819	5632.62
478.595	6146.62
479.371	6685.62
480.146	7220.62
480.922	7897.62
481.698	8525.62
482.473	9294.62
483.249	10038.62
484.024	10878.62
484.8	11743.62
485.575	12662.62
486.35	13708.62
487.126	14749.62
487.901	15962.62
488.676	17120.62
489.451	18434.62
490.225	19769.62
491	21148.62
491.775	22537.62
492.55	24092.62
493.324	25669.62
494.099	27262.62
494.873	28867.62
495.647	30522.62
496.422	32138.62
497.196	33788.62
497.97	35352.62
498.744	36775.62
499.518	38359.62
500.292	39773.62
501.066	40763.62
501.839	41774.62
502.613	42727.62
503.387	43520.62
504.16	44013.62
504.934	44336.62
505.707	44552.62
506.48	44409.62
507.253	44225.62
508.027	43760.62
508.8	43117.62
509.573	42354.62
510.346	41584.62
511.118	40706.62
511.891	39725.62
512.664	38330.62
513.437	37062.62
514.209	35833.62
514.982	34494.62
515.754	33162.62
516.526	31943.62
517.298	30655.62
518.071	29565.62
518.843	28404.62
519.615	27235.62
520.387	26091.62
521.159	25161.62
521.93	24140.62
522.702	23084.62
523.474	22167.62
524.245	21232.62
525.017	20426.62
525.788	19529.62
526.56	18745.62
527.331	17978.62
528.102	17081.62
528.873	16240.62
529.644	15499.62
530.415	14783.62
531.186	14095.62
531.957	13359.62
532.728	12732.62
533.498	12084.62
534.269	11475.62
535.039	10870.62
535.81	10310.62
536.58	9748.62
537.351	9245.62
538.121	8740.62
538.891	8265.62
539.661	7850.62
540.431	7420.62
541.201	7040.62
541.971	6709.62
542.741	6323.62
543.51	6006.62
544.28	5731.62
545.05	5401.62
545.819	5167.62
546.588	4964.62
547.358	4694.62
548.127	4462.62
548.896	4247.62
549.665	4037.62
550.434	3806.62
551.203	3647.62
551.972	3453.62
552.741	3272.62
553.51	3089.62
554.278	2904.62
555.047	2757.62
555.815	2612.62
556.584	2484.62
557.352	2335.62
558.121	2218.62
558.889	2059.62
559.657	1971.62
560.425	1871.62
561.193	1773.62
561.961	1680.62
562.729	1592.62
563.496	1489.62
564.264	1412.62
565.032	1324.62
565.799	1255.62
566.567	1199.62
567.334	1130.62
568.101	1066.62
568.869	1015.62
569.636	963.62
570.403	901.62
571.17	851.62
571.937	796.62
572.704	756.62
573.471	713.62
574.237	672.62
575.004	637.62
575.771	600.62
576.537	572.62
577.303	538.62
578.07	513.62
578.836	478.62
579.602	457.62
580.368	430.62
581.134	404.62
581.9	387.62
582.666	365.62
583.432	355.62
584.198	326.62
584.964	318.62
585.729	296.62
586.495	282.62
587.26	266.62
588.025	253.62
588.791	244.62
589.556	227.62
590.321	211.62
591.086	205.62
591.851	195.62
592.616	183.62
593.381	176.62
594.146	170.62
594.911	165.62
595.675	151.62
596.44	148.62
597.204	142.62
597.969	134.62
598.733	125.62
599.497	124.62
600.261	116.62
601.025	117.62
601.79	109.62
602.553	103.62
603.317	101.62
604.081	95.62
604.845	91.62
605.609	85.62
606.372	88.62
607.136	82.62
607.899	78.62
608.662	78.62
609.426	74.62
610.189	68.62
610.952	66.62
611.715	62.62
612.478	61.62
613.241	61.62
614.004	58.62
614.767	55.62
615.529	53.62
616.292	57.62
617.055	48.62
617.817	47.62
618.579	45.62
619.342	46.62
620.104	44.62
620.866	42.62
621.628	42.62
622.39	39.62
623.152	39.62
623.914	39.62
624.676	38.62
625.438	34.62
626.199	34.62
626.961	30.62
627.722	31.62
628.484	31.62
629.245	30.62
630.006	25.62
630.768	29.62
631.529	24.62
632.29	26.62
633.051	27.62
633.812	26.62
634.573	22.62
635.333	25.62
636.094	23.62
636.855	24.62
637.615	22.62
638.376	25.62
639.136	19.62
639.896	22.62
640.657	19.62
641.417	18.62
642.177	19.62
642.937	21.62
643.697	17.62
644.457	19.62
645.216	15.62
645.976	15.62
646.736	16.62
647.495	14.62
648.255	15.62
649.014	14.62
649.774	13.62
650.533	13.62
651.292	14.62
652.051	14.62
652.81	15.62
653.569	11.62
654.328	15.62
655.087	15.62
655.846	13.62
656.604	12.62
657.363	12.62
658.121	14.62
658.88	10.62
659.638	11.62
660.397	13.62
661.155	11.62
661.913	9.62
662.671	7.62
663.429	12.62
664.187	12.62
664.945	10.62
665.703	9.62
666.46	10.62
667.218	12.62
667.976	9.62
668.733	8.62
669.49	11.62
670.248	9.62
671.005	9.62
671.762	8.62
672.519	11.62
673.276	9.62
674.033	9.62
674.79	11.62
675.547	8.62
676.304	7.62
677.06	10.62
677.817	8.62
678.574	9.62
679.33	10.62
680.086	8.62
680.843	7.62
681.599	9.62
682.355	9.62
683.111	8.62
683.867	8.62
684.623	8.62
685.379	8.62
686.135	8.62
686.89	6.62
687.646	8.62
688.402	7.62
689.157	7.62
689.912	8.62
690.668	9.62
691.423	5.62
692.178	5.62
692.933	7.62
693.688	8.62
694.443	9.62
695.198	5.62
695.953	8.62
696.708	10.62
697.462	6.62
698.217	10.62
698.972	8.62
699.726	7.62
700.48	5.62
701.235	8.62
701.989	3.62
702.743	7.62
703.497	9.62
704.251	8.62
705.005	8.62
705.759	6.62
706.513	8.62
707.266	10.62
708.02	6.62
708.774	6.62
709.527	9.62
710.28	5.62
711.034	7.62
711.787	6.62
712.54	8.62
713.293	8.62
714.046	11.62
714.799	9.62
715.552	9.62
716.305	7.62
717.058	7.62
717.81	8.62
718.563	6.62
719.315	7.62
720.068	10.62
720.82	9.62
721.573	9.62
722.325	6.62
723.077	10.62
723.829	9.62
724.581	6.62
725.333	10.62
726.085	8.62
726.836	9.62
727.588	7.62
728.34	8.62
729.091	8.62
729.843	8.62
730.594	7.62
731.346	7.62
732.097	8.62
732.848	7.62
733.599	9.62
734.35	6.62
735.101	8.62
735.852	10.62
736.603	9.62
737.354	10.62
738.104	11.62
738.855	11.62
739.605	9.62
740.356	7.62
741.106	7.62
741.856	7.62
742.607	12.62
743.357	10.62
744.107	12.62
744.857	10.62
745.607	9.62
746.357	10.62
747.106	10.62
747.856	12.62
748.606	11.62
749.355	8.62
750.105	11.62
750.854	9.62
751.603	12.62
752.353	9.62
753.102	12.62
753.851	10.62
754.6	11.62
755.349	11.62
756.098	10.62
756.847	11.62
757.595	11.62
758.344	11.62
759.093	8.62
759.841	11.62
760.589	11.62
761.338	9.62
762.086	14.62
762.834	10.62
763.582	9.62
764.331	11.62
765.079	14.62
765.826	14.62
766.574	15.62
767.322	12.62
768.07	13.62
768.817	15.62
769.565	14.62
770.312	13.62
771.06	13.62
771.807	14.62
772.554	13.62
773.302	15.62
774.049	15.62
774.796	14.62
775.543	15.62
776.29	13.62
777.036	14.62
777.783	14.62
778.53	15.62
779.276	16.62
780.023	17.62
780.769	13.62
781.516	13.62
782.262	12.62
783.008	16.62
783.754	15.62
784.5	14.62
785.246	15.62
785.992	12.62
786.738	11.62
787.484	14.62
788.23	13.62
788.975	16.62
789.721	13.62
790.466	10.62
791.212	13.62
791.957	15.62
792.702	15.62
793.447	13.62
794.193	13.62
794.938	15.62
795.683	12.62
796.427	15.62
797.172	12.62
797.917	15.62
798.662	10.62
799.406	13.62
800.151	12.62
800.895	10.62
801.64	13.62
802.384	14.62
803.128	12.62
803.872	13.62
804.616	11.62
805.36	9.62
806.104	9.62
806.848	10.62
807.592	12.62
808.336	8.62
809.079	10.62
809.823	10.62
810.566	11.62
811.31	9.62
812.053	9.62
812.796	9.62
813.539	9.62
814.283	10.62
815.026	9.62
815.769	10.62
816.511	7.62
817.254	6.62
817.997	10.62
818.74	6.62
819.482	8.62
820.225	9.62
820.967	8.62
821.71	8.62
822.452	6.62
823.194	6.62
823.936	7.62
824.678	9.62
825.42	7.62
826.162	9.62
826.904	7.62
827.646	7.62
828.388	8.62
829.129	5.62
829.871	5.62
830.612	7.62
831.354	8.62
832.095	8.62
832.836	5.62
833.577	8.62
834.319	7.62
835.06	7.62
835.801	4.62
836.542	5.62
837.282	6.62
838.023	7.62
838.764	5.62
839.504	4.62
840.245	3.62
840.985	6.62
841.726	5.62
842.466	7.62
843.206	3.62
843.946	5.62
844.687	7.62
845.427	3.62
846.166	5.62
846.906	5.62
847.646	3.62
848.386	4.62
849.125	6.62
849.865	4.62
850.605	4.62
851.344	5.62
852.083	4.62
852.823	3.62
853.562	3.62
854.301	5.62
855.04	4.62
855.779	6.62
856.518	6.62
857.257	3.62
857.995	6.62
858.734	2.62
859.473	3.62
860.211	4.62
860.95	2.62
861.688	3.62
862.426	2.62
863.165	3.62
863.903	1.62
864.641	3.62
865.379	3.62
866.117	2.62
866.855	3.62
867.593	3.62
868.33	3.62
869.068	5.62
869.806	2.62
870.543	3.62
871.28	6.62
872.018	2.62
872.755	1.62
873.492	2.62
874.229	4.62
874.967	2.62
875.703	4.62
876.44	-0.38
877.177	2.62
877.914	0.62
878.651	2.62
879.387	1.62
880.124	1.62
880.86	2.62
881.597	3.62
882.333	2.62
883.069	3.62
883.806	2.62
884.542	2.62
885.278	-0.38
886.014	2.62
886.749	1.62
887.485	1.62
888.221	1.62
888.957	1.62
889.692	0.62
890.428	0.62
891.163	1.62
891.899	2.62
892.634	0.62
893.369	2.62
894.104	0.62
894.839	1.62
895.574	-0.38
896.309	0.62
897.044	3.62
897.779	3.62
898.514	3.62
899.248	2.62
899.983	1.62
900.717	1.62
901.452	2.62
902.186	0.62
902.92	0.62
903.654	3.62
904.389	0.62
905.123	0.62
905.857	3.62
906.59	2.62
907.324	1.62
908.058	1.62
908.792	2.62
909.525	1.62
910.259	1.62
910.992	1.62
911.726	1.62
912.459	3.62
913.192	0.62
913.925	1.62
914.658	2.62
915.391	1.62
916.124	2.62
916.857	-0.38
917.59	2.62
918.323	1.62
919.055	-1.38
919.788	0.62
920.521	1.62
921.253	1.62
921.985	-0.38
922.718	2.62
923.45	-2.38
924.182	1.62
924.914	1.62
925.646	-0.38
926.378	2.62
927.11	0.62
927.841	-0.38
928.573	1.62
929.305	-0.38
930.036	1.62
930.768	-0.38
931.499	1.62
932.23	0.62
932.962	3.62
933.693	-1.38
934.424	-1.38
935.155	2.62
935.886	-0.38
936.617	2.62
937.348	-0.38
938.078	1.62
938.809	-0.38
939.54	-1.38
940.27	1.62
941.001	1.62
941.731	1.62
942.461	0.62
943.191	-1.38
943.922	0.62
944.652	-0.38
945.382	1.62
946.112	1.62
946.841	1.62
947.571	2.62
948.301	0.62
949.031	1.62
949.76	1.62
950.49	0.62
951.219	1.62
951.948	1.62
952.678	-0.38
953.407	-0.38
954.136	-1.38
954.865	1.62
955.594	-0.38
956.323	2.62
957.052	1.62
957.78	1.62
958.509	1.62
959.238	-0.38
959.966	3.62
960.695	0.62
961.423	3.62
962.151	0.62
962.88	2.62
963.608	2.62
964.336	-1.38
965.064	1.62
965.792	-0.38
966.52	1.62
967.247	0.62
967.975	3.62
968.703	1.62
969.43	1.62
970.158	2.62
970.885	-0.38
971.613	-0.38
972.34	3.62
973.067	0.62
973.794	-0.38
974.521	-0.38
975.248	1.62
975.975	0.62
976.702	0.62
977.429	0.62
978.156	1.62
978.882	-0.38
979.609	-1.38
980.335	3.62
981.062	1.62
981.788	2.62
982.514	1.62
983.24	-0.38
983.967	3.62
984.693	0.62
985.419	0.62
986.144	-0.38
986.87	1.62
987.596	1.62
988.322	-0.38
989.047	-1.38
989.773	0.62
990.498	0.62
991.224	2.62
991.949	-0.38
992.674	1.62
993.399	-0.38
994.124	3.62
994.849	2.62
995.574	2.62
996.299	2.62
997.024	2.62
997.749	0.62
998.473	-0.38
999.198	2.62
999.922	1.62
1000.647	-0.38
1001.371	3.62
1002.095	-1.38
1002.82	-0.38
1003.544	-0.38
1004.268	3.62
1004.992	4.62
1005.716	2.62
1006.439	4.62
1007.163	5.62
1007.887	7.62
1008.611	-0.38
1009.334	-1.38
1010.058	0.62
1010.781	1.62
1011.504	1.62
1012.228	0.62
1012.951	-0.38
1013.674	-0.38
1014.397	-0.38
1015.12	-0.38
