节点500_705_QEPB04081__44__20-46-37-309.txt的数据

Date: Wed Nov 12 20:46:37 CST 2025
User: PC
Spectrometer: QEPB0408
触发模式: 0
积分时间 (秒): 1.000000E-2
Scans to average: 1
启用暗噪声校正: true
启用非线性校正: false
滑动平均宽度: 0
X轴模式: Wavelengths
Number of Pixels in Spectrum: 1044
>>>>>Begin Spectral Data<<<<<
220.843	5.5
221.644	8.5
222.444	6.5
223.244	5.5
224.045	7.5
224.845	7.5
225.645	8.5
226.445	7.5
227.245	7.5
228.045	9.5
228.845	10.5
229.645	7.5
230.444	8.5
231.244	9.5
232.043	9.5
232.843	8.5
233.642	11.5
234.442	10.5
235.241	12.5
236.04	12.5
236.839	13.5
237.638	14.5
238.437	12.5
239.236	12.5
240.035	12.5
240.833	10.5
241.632	15.5
242.43	15.5
243.229	15.5
244.027	14.5
244.826	15.5
245.624	15.5
246.422	13.5
247.22	17.5
248.018	14.5
248.816	19.5
249.614	16.5
250.412	18.5
251.21	16.5
252.007	19.5
252.805	18.5
253.602	23.5
254.4	21.5
255.197	18.5
255.994	22.5
256.791	24.5
257.589	23.5
258.386	24.5
259.183	23.5
259.979	25.5
260.776	24.5
261.573	28.5
262.37	27.5
263.166	27.5
263.963	30.5
264.759	29.5
265.556	31.5
266.352	29.5
267.148	30.5
267.944	32.5
268.74	31.5
269.536	34.5
270.332	31.5
271.128	36.5
271.924	36.5
272.719	35.5
273.515	33.5
274.311	34.5
275.106	37.5
275.901	37.5
276.697	41.5
277.492	39.5
278.287	38.5
279.082	38.5
279.877	38.5
280.672	39.5
281.467	37.5
282.262	39.5
283.056	37.5
283.851	36.5
284.646	37.5
285.44	35.5
286.234	35.5
287.029	35.5
287.823	34.5
288.617	39.5
289.411	33.5
290.205	36.5
290.999	33.5
291.793	35.5
292.587	32.5
293.381	33.5
294.174	31.5
294.968	29.5
295.761	33.5
296.555	26.5
297.348	27.5
298.141	29.5
298.935	31.5
299.728	28.5
300.521	26.5
301.314	29.5
302.107	22.5
302.899	22.5
303.692	23.5
304.485	22.5
305.277	24.5
306.07	22.5
306.862	22.5
307.655	19.5
308.447	22.5
309.239	23.5
310.031	19.5
310.823	20.5
311.615	22.5
312.407	17.5
313.199	18.5
313.991	16.5
314.783	18.5
315.574	15.5
316.366	17.5
317.157	18.5
317.949	11.5
318.74	15.5
319.531	13.5
320.322	16.5
321.113	12.5
321.904	15.5
322.695	15.5
323.486	12.5
324.277	14.5
325.068	12.5
325.858	15.5
326.649	15.5
327.439	13.5
328.23	13.5
329.02	14.5
329.81	14.5
330.6	12.5
331.391	14.5
332.181	14.5
332.971	11.5
333.76	14.5
334.55	12.5
335.34	13.5
336.13	12.5
336.919	12.5
337.709	10.5
338.498	12.5
339.287	15.5
340.077	13.5
340.866	11.5
341.655	13.5
342.444	13.5
343.233	13.5
344.022	12.5
344.811	13.5
345.6	15.5
346.388	10.5
347.177	7.5
347.965	13.5
348.754	12.5
349.542	11.5
350.33	11.5
351.119	11.5
351.907	11.5
352.695	12.5
353.483	10.5
354.271	12.5
355.059	11.5
355.846	12.5
356.634	13.5
357.422	10.5
358.209	10.5
358.997	10.5
359.784	11.5
360.571	11.5
361.359	7.5
362.146	12.5
362.933	12.5
363.72	11.5
364.507	10.5
365.294	11.5
366.081	8.5
366.867	10.5
367.654	9.5
368.44	11.5
369.227	10.5
370.013	8.5
370.8	11.5
371.586	11.5
372.372	11.5
373.158	10.5
373.944	11.5
374.73	12.5
375.516	10.5
376.302	9.5
377.088	11.5
377.873	10.5
378.659	12.5
379.445	10.5
380.23	11.5
381.015	11.5
381.801	8.5
382.586	11.5
383.371	11.5
384.156	11.5
384.941	9.5
385.726	11.5
386.511	11.5
387.296	15.5
388.08	11.5
388.865	12.5
389.649	11.5
390.434	13.5
391.218	10.5
392.003	12.5
392.787	10.5
393.571	15.5
394.355	13.5
395.139	12.5
395.923	11.5
396.707	13.5
397.491	15.5
398.274	14.5
399.058	14.5
399.842	13.5
400.625	14.5
401.408	16.5
402.192	14.5
402.975	15.5
403.758	15.5
404.541	16.5
405.324	17.5
406.107	13.5
406.89	15.5
407.673	16.5
408.456	18.5
409.238	15.5
410.021	17.5
410.803	17.5
411.586	18.5
412.368	18.5
413.151	17.5
413.933	23.5
414.715	18.5
415.497	21.5
416.279	20.5
417.061	21.5
417.843	19.5
418.624	18.5
419.406	21.5
420.188	24.5
420.969	22.5
421.751	23.5
422.532	20.5
423.313	27.5
424.095	24.5
424.876	25.5
425.657	24.5
426.438	26.5
427.219	29.5
428	31.5
428.78	30.5
429.561	28.5
430.342	33.5
431.122	33.5
431.903	31.5
432.683	34.5
433.464	38.5
434.244	38.5
435.024	38.5
435.804	39.5
436.584	44.5
437.364	43.5
438.144	49.5
438.924	52.5
439.704	49.5
440.483	58.5
441.263	62.5
442.042	62.5
442.822	70.5
443.601	72.5
444.38	77.5
445.16	81.5
445.939	86.5
446.718	95.5
447.497	104.5
448.276	114.5
449.054	126.5
449.833	140.5
450.612	146.5
451.391	160.5
452.169	177.5
452.948	202.5
453.726	218.5
454.504	239.5
455.282	274.5
456.061	313.5
456.839	341.5
457.617	375.5
458.395	422.5
459.172	464.5
459.95	527.5
460.728	591.5
461.506	668.5
462.283	746.5
463.061	831.5
463.838	929.5
464.615	1044.5
465.393	1156.5
466.17	1298.5
466.947	1455.5
467.724	1625.5
468.501	1786.5
469.278	1985.5
470.055	2203.5
470.831	2445.5
471.608	2734.5
472.385	3019.5
473.161	3337.5
473.938	3719.5
474.714	4085.5
475.49	4532.5
476.266	4977.5
477.043	5455.5
477.819	6013.5
478.595	6636.5
479.371	7293.5
480.146	7964.5
480.922	8778.5
481.698	9587.5
482.473	10547.5
483.249	11499.5
484.024	12525.5
484.8	13681.5
485.575	14909.5
486.35	16258.5
487.126	17664.5
487.901	19187.5
488.676	20771.5
489.451	22462.5
490.225	24277.5
491	26098.5
491.775	27997.5
492.55	29916.5
493.324	31833.5
494.099	33949.5
494.873	35888.5
495.647	37806.5
496.422	39861.5
497.196	41672.5
497.97	43379.5
498.744	45002.5
499.518	46630.5
500.292	47896.5
501.066	48787.5
501.839	49441.5
502.613	50045.5
503.387	50459.5
504.16	50657.5
504.934	50331.5
505.707	49950.5
506.48	49230.5
507.253	48277.5
508.027	47337.5
508.8	45977.5
509.573	44619.5
510.346	43200.5
511.118	41916.5
511.891	40373.5
512.664	38679.5
513.437	37080.5
514.209	35618.5
514.982	34112.5
515.754	32634.5
516.526	31246.5
517.298	29983.5
518.071	28759.5
518.843	27578.5
519.615	26434.5
520.387	25426.5
521.159	24375.5
521.93	23353.5
522.702	22296.5
523.474	21410.5
524.245	20493.5
525.017	19536.5
525.788	18640.5
526.56	17850.5
527.331	16976.5
528.102	16034.5
528.873	15260.5
529.644	14454.5
530.415	13797.5
531.186	13070.5
531.957	12352.5
532.728	11711.5
533.498	11091.5
534.269	10488.5
535.039	9901.5
535.81	9335.5
536.58	8829.5
537.351	8370.5
538.121	7924.5
538.891	7526.5
539.661	7097.5
540.431	6727.5
541.201	6386.5
541.971	6050.5
542.741	5697.5
543.51	5399.5
544.28	5172.5
545.05	4944.5
545.819	4689.5
546.588	4457.5
547.358	4246.5
548.127	4044.5
548.896	3814.5
549.665	3603.5
550.434	3417.5
551.203	3245.5
551.972	3083.5
552.741	2900.5
553.51	2723.5
554.278	2594.5
555.047	2436.5
555.815	2304.5
556.584	2165.5
557.352	2032.5
558.121	1925.5
558.889	1829.5
559.657	1729.5
560.425	1618.5
561.193	1554.5
561.961	1474.5
562.729	1388.5
563.496	1314.5
564.264	1241.5
565.032	1180.5
565.799	1111.5
566.567	1045.5
567.334	992.5
568.101	943.5
568.869	887.5
569.636	828.5
570.403	783.5
571.17	739.5
571.937	698.5
572.704	662.5
573.471	625.5
574.237	593.5
575.004	551.5
575.771	520.5
576.537	486.5
577.303	464.5
578.07	443.5
578.836	415.5
579.602	395.5
580.368	377.5
581.134	361.5
581.9	341.5
582.666	326.5
583.432	307.5
584.198	294.5
584.964	277.5
585.729	270.5
586.495	248.5
587.26	235.5
588.025	219.5
588.791	214.5
589.556	200.5
590.321	192.5
591.086	178.5
591.851	174.5
592.616	165.5
593.381	163.5
594.146	150.5
594.911	144.5
595.675	140.5
596.44	127.5
597.204	125.5
597.969	124.5
598.733	114.5
599.497	111.5
600.261	101.5
601.025	105.5
601.79	97.5
602.553	96.5
603.317	91.5
604.081	86.5
604.845	82.5
605.609	80.5
606.372	77.5
607.136	73.5
607.899	72.5
608.662	72.5
609.426	62.5
610.189	63.5
610.952	61.5
611.715	58.5
612.478	54.5
613.241	55.5
614.004	51.5
614.767	50.5
615.529	50.5
616.292	50.5
617.055	48.5
617.817	46.5
618.579	44.5
619.342	44.5
620.104	42.5
620.866	42.5
621.628	38.5
622.39	35.5
623.152	35.5
623.914	31.5
624.676	35.5
625.438	33.5
626.199	33.5
626.961	32.5
627.722	29.5
628.484	29.5
629.245	30.5
630.006	32.5
630.768	26.5
631.529	26.5
632.29	25.5
633.051	23.5
633.812	24.5
634.573	22.5
635.333	24.5
636.094	25.5
636.855	21.5
637.615	22.5
638.376	23.5
639.136	20.5
639.896	20.5
640.657	19.5
641.417	18.5
642.177	17.5
642.937	19.5
643.697	17.5
644.457	19.5
645.216	18.5
645.976	15.5
646.736	16.5
647.495	16.5
648.255	16.5
649.014	16.5
649.774	14.5
650.533	14.5
651.292	15.5
652.051	15.5
652.81	11.5
653.569	11.5
654.328	14.5
655.087	11.5
655.846	14.5
656.604	13.5
657.363	13.5
658.121	11.5
658.88	14.5
659.638	12.5
660.397	13.5
661.155	11.5
661.913	12.5
662.671	12.5
663.429	11.5
664.187	11.5
664.945	11.5
665.703	7.5
666.46	11.5
667.218	11.5
667.976	10.5
668.733	11.5
669.49	13.5
670.248	11.5
671.005	10.5
671.762	10.5
672.519	9.5
673.276	10.5
674.033	11.5
674.79	9.5
675.547	8.5
676.304	6.5
677.06	7.5
677.817	8.5
678.574	8.5
679.33	10.5
680.086	9.5
680.843	8.5
681.599	10.5
682.355	9.5
683.111	9.5
683.867	9.5
684.623	7.5
685.379	7.5
686.135	9.5
686.89	9.5
687.646	10.5
688.402	10.5
689.157	9.5
689.912	7.5
690.668	7.5
691.423	7.5
692.178	7.5
692.933	10.5
693.688	7.5
694.443	6.5
695.198	6.5
695.953	10.5
696.708	8.5
697.462	9.5
698.217	10.5
698.972	6.5
699.726	8.5
700.48	9.5
701.235	8.5
701.989	8.5
702.743	9.5
703.497	9.5
704.251	8.5
705.005	6.5
705.759	8.5
706.513	8.5
707.266	10.5
708.02	7.5
708.774	9.5
709.527	12.5
710.28	9.5
711.034	11.5
711.787	10.5
712.54	7.5
713.293	8.5
714.046	8.5
714.799	7.5
715.552	6.5
716.305	7.5
717.058	10.5
717.81	6.5
718.563	9.5
719.315	7.5
720.068	10.5
720.82	8.5
721.573	9.5
722.325	9.5
723.077	8.5
723.829	9.5
724.581	7.5
725.333	9.5
726.085	9.5
726.836	10.5
727.588	9.5
728.34	7.5
729.091	10.5
729.843	12.5
730.594	9.5
731.346	11.5
732.097	8.5
732.848	8.5
733.599	8.5
734.35	11.5
735.101	11.5
735.852	11.5
736.603	9.5
737.354	11.5
738.104	10.5
738.855	8.5
739.605	10.5
740.356	12.5
741.106	11.5
741.856	11.5
742.607	12.5
743.357	10.5
744.107	13.5
744.857	11.5
745.607	11.5
746.357	11.5
747.106	11.5
747.856	11.5
748.606	9.5
749.355	13.5
750.105	9.5
750.854	12.5
751.603	13.5
752.353	13.5
753.102	12.5
753.851	14.5
754.6	14.5
755.349	13.5
756.098	14.5
756.847	15.5
757.595	15.5
758.344	13.5
759.093	12.5
759.841	13.5
760.589	11.5
761.338	14.5
762.086	15.5
762.834	15.5
763.582	13.5
764.331	16.5
765.079	17.5
765.826	14.5
766.574	15.5
767.322	15.5
768.07	15.5
768.817	18.5
769.565	15.5
770.312	17.5
771.06	16.5
771.807	15.5
772.554	16.5
773.302	15.5
774.049	16.5
774.796	15.5
775.543	20.5
776.29	19.5
777.036	16.5
777.783	18.5
778.53	16.5
779.276	17.5
780.023	16.5
780.769	19.5
781.516	20.5
782.262	15.5
783.008	15.5
783.754	16.5
784.5	18.5
785.246	15.5
785.992	15.5
786.738	18.5
787.484	15.5
788.23	18.5
788.975	16.5
789.721	15.5
790.466	15.5
791.212	18.5
791.957	13.5
792.702	13.5
793.447	14.5
794.193	15.5
794.938	15.5
795.683	15.5
796.427	14.5
797.172	16.5
797.917	12.5
798.662	13.5
799.406	15.5
800.151	11.5
800.895	11.5
801.64	11.5
802.384	15.5
803.128	13.5
803.872	13.5
804.616	11.5
805.36	11.5
806.104	11.5
806.848	11.5
807.592	12.5
808.336	14.5
809.079	12.5
809.823	10.5
810.566	12.5
811.31	11.5
812.053	9.5
812.796	12.5
813.539	9.5
814.283	9.5
815.026	10.5
815.769	8.5
816.511	9.5
817.254	9.5
817.997	7.5
818.74	10.5
819.482	8.5
820.225	8.5
820.967	7.5
821.71	8.5
822.452	8.5
823.194	7.5
823.936	10.5
824.678	6.5
825.42	7.5
826.162	8.5
826.904	7.5
827.646	8.5
828.388	7.5
829.129	5.5
829.871	4.5
830.612	9.5
831.354	3.5
832.095	7.5
832.836	7.5
833.577	4.5
834.319	4.5
835.06	5.5
835.801	6.5
836.542	7.5
837.282	6.5
838.023	5.5
838.764	5.5
839.504	3.5
840.245	6.5
840.985	4.5
841.726	6.5
842.466	5.5
843.206	6.5
843.946	7.5
844.687	5.5
845.427	4.5
846.166	6.5
846.906	6.5
847.646	7.5
848.386	6.5
849.125	3.5
849.865	6.5
850.605	4.5
851.344	2.5
852.083	6.5
852.823	4.5
853.562	3.5
854.301	4.5
855.04	3.5
855.779	4.5
856.518	6.5
857.257	6.5
857.995	7.5
858.734	5.5
859.473	5.5
860.211	3.5
860.95	5.5
861.688	5.5
862.426	3.5
863.165	2.5
863.903	3.5
864.641	2.5
865.379	2.5
866.117	3.5
866.855	2.5
867.593	5.5
868.33	5.5
869.068	4.5
869.806	3.5
870.543	2.5
871.28	0.5
872.018	0.5
872.755	2.5
873.492	2.5
874.229	3.5
874.967	3.5
875.703	3.5
876.44	3.5
877.177	3.5
877.914	1.5
878.651	3.5
879.387	0.5
880.124	4.5
880.86	2.5
881.597	3.5
882.333	4.5
883.069	5.5
883.806	3.5
884.542	0.5
885.278	3.5
886.014	3.5
886.749	2.5
887.485	3.5
888.221	1.5
888.957	1.5
889.692	0.5
890.428	3.5
891.163	2.5
891.899	1.5
892.634	0.5
893.369	2.5
894.104	-0.5
894.839	2.5
895.574	3.5
896.309	2.5
897.044	2.5
897.779	2.5
898.514	1.5
899.248	0.5
899.983	2.5
900.717	2.5
901.452	1.5
902.186	1.5
902.92	-0.5
903.654	2.5
904.389	1.5
905.123	1.5
905.857	1.5
906.59	2.5
907.324	0.5
908.058	0.5
908.792	1.5
909.525	0.5
910.259	0.5
910.992	3.5
911.726	2.5
912.459	-1.5
913.192	4.5
913.925	1.5
914.658	3.5
915.391	2.5
916.124	-0.5
916.857	1.5
917.59	-0.5
918.323	1.5
919.055	1.5
919.788	2.5
920.521	1.5
921.253	2.5
921.985	0.5
922.718	2.5
923.45	2.5
924.182	1.5
924.914	0.5
925.646	1.5
926.378	1.5
927.11	1.5
927.841	0.5
928.573	0.5
929.305	1.5
930.036	-0.5
930.768	2.5
931.499	-0.5
932.23	1.5
932.962	2.5
933.693	0.5
934.424	-0.5
935.155	1.5
935.886	0.5
936.617	-0.5
937.348	1.5
938.078	1.5
938.809	1.5
939.54	2.5
940.27	1.5
941.001	0.5
941.731	0.5
942.461	-1.5
943.191	2.5
943.922	0.5
944.652	0.5
945.382	-0.5
946.112	1.5
946.841	-1.5
947.571	1.5
948.301	2.5
949.031	1.5
949.76	-0.5
950.49	-0.5
951.219	2.5
951.948	0.5
952.678	0.5
953.407	0.5
954.136	1.5
954.865	0.5
955.594	-0.5
956.323	3.5
957.052	2.5
957.78	-1.5
958.509	1.5
959.238	0.5
959.966	1.5
960.695	-0.5
961.423	2.5
962.151	1.5
962.88	2.5
963.608	2.5
964.336	1.5
965.064	0.5
965.792	-0.5
966.52	2.5
967.247	2.5
967.975	2.5
968.703	1.5
969.43	0.5
970.158	-1.5
970.885	1.5
971.613	0.5
972.34	-0.5
973.067	1.5
973.794	2.5
974.521	0.5
975.248	-0.5
975.975	0.5
976.702	-1.5
977.429	0.5
978.156	0.5
978.882	2.5
979.609	-0.5
980.335	-0.5
981.062	-0.5
981.788	1.5
982.514	2.5
983.24	-2.5
983.967	0.5
984.693	3.5
985.419	-0.5
986.144	2.5
986.87	1.5
987.596	-0.5
988.322	0.5
989.047	-1.5
989.773	1.5
990.498	-2.5
991.224	1.5
991.949	1.5
992.674	2.5
993.399	3.5
994.124	0.5
994.849	2.5
995.574	1.5
996.299	0.5
997.024	1.5
997.749	2.5
998.473	-0.5
999.198	-1.5
999.922	2.5
1000.647	-0.5
1001.371	2.5
1002.095	-0.5
1002.82	-1.5
1003.544	-0.5
1004.268	5.5
1004.992	3.5
1005.716	5.5
1006.439	3.5
1007.163	6.5
1007.887	6.5
1008.611	1.5
1009.334	1.5
1010.058	-1.5
1010.781	0.5
1011.504	1.5
1012.228	-1.5
1012.951	1.5
1013.674	-2.5
1014.397	1.5
1015.12	-0.5
