节点500_705_QEPB04081__428__20-51-59-710.txt的数据

Date: Wed Nov 12 20:51:59 CST 2025
User: PC
Spectrometer: QEPB0408
触发模式: 0
积分时间 (秒): 1.000000E-2
Scans to average: 1
启用暗噪声校正: true
启用非线性校正: false
滑动平均宽度: 0
X轴模式: Wavelengths
Number of Pixels in Spectrum: 1044
>>>>>Begin Spectral Data<<<<<
220.843	4.38
221.644	7.38
222.444	3.38
223.244	6.38
224.045	5.38
224.845	8.38
225.645	6.38
226.445	8.38
227.245	5.38
228.045	5.38
228.845	8.38
229.645	7.38
230.444	7.38
231.244	9.38
232.043	7.38
232.843	7.38
233.642	9.38
234.442	8.38
235.241	10.38
236.04	9.38
236.839	9.38
237.638	8.38
238.437	13.38
239.236	11.38
240.035	11.38
240.833	13.38
241.632	8.38
242.43	8.38
243.229	13.38
244.027	11.38
244.826	13.38
245.624	11.38
246.422	12.38
247.22	13.38
248.018	15.38
248.816	15.38
249.614	16.38
250.412	13.38
251.21	14.38
252.007	16.38
252.805	13.38
253.602	18.38
254.4	17.38
255.197	19.38
255.994	16.38
256.791	20.38
257.589	18.38
258.386	18.38
259.183	22.38
259.979	22.38
260.776	26.38
261.573	20.38
262.37	24.38
263.166	19.38
263.963	22.38
264.759	24.38
265.556	27.38
266.352	25.38
267.148	27.38
267.944	24.38
268.74	28.38
269.536	30.38
270.332	32.38
271.128	27.38
271.924	28.38
272.719	30.38
273.515	32.38
274.311	33.38
275.106	31.38
275.901	31.38
276.697	30.38
277.492	29.38
278.287	36.38
279.082	33.38
279.877	34.38
280.672	36.38
281.467	32.38
282.262	30.38
283.056	34.38
283.851	32.38
284.646	33.38
285.44	33.38
286.234	34.38
287.029	32.38
287.823	31.38
288.617	29.38
289.411	30.38
290.205	29.38
290.999	30.38
291.793	31.38
292.587	33.38
293.381	30.38
294.174	26.38
294.968	28.38
295.761	26.38
296.555	25.38
297.348	24.38
298.141	27.38
298.935	29.38
299.728	25.38
300.521	23.38
301.314	25.38
302.107	21.38
302.899	26.38
303.692	22.38
304.485	23.38
305.277	20.38
306.07	22.38
306.862	22.38
307.655	21.38
308.447	21.38
309.239	20.38
310.031	20.38
310.823	18.38
311.615	16.38
312.407	18.38
313.199	14.38
313.991	16.38
314.783	18.38
315.574	16.38
316.366	14.38
317.157	15.38
317.949	16.38
318.74	15.38
319.531	12.38
320.322	12.38
321.113	12.38
321.904	13.38
322.695	10.38
323.486	15.38
324.277	14.38
325.068	13.38
325.858	12.38
326.649	11.38
327.439	13.38
328.23	10.38
329.02	13.38
329.81	10.38
330.6	11.38
331.391	12.38
332.181	13.38
332.971	11.38
333.76	12.38
334.55	13.38
335.34	10.38
336.13	9.38
336.919	10.38
337.709	10.38
338.498	12.38
339.287	12.38
340.077	11.38
340.866	14.38
341.655	11.38
342.444	11.38
343.233	10.38
344.022	11.38
344.811	10.38
345.6	10.38
346.388	14.38
347.177	12.38
347.965	10.38
348.754	10.38
349.542	9.38
350.33	12.38
351.119	9.38
351.907	12.38
352.695	11.38
353.483	9.38
354.271	8.38
355.059	10.38
355.846	10.38
356.634	9.38
357.422	10.38
358.209	8.38
358.997	8.38
359.784	10.38
360.571	10.38
361.359	8.38
362.146	9.38
362.933	6.38
363.72	9.38
364.507	9.38
365.294	10.38
366.081	7.38
366.867	10.38
367.654	12.38
368.44	7.38
369.227	10.38
370.013	9.38
370.8	9.38
371.586	8.38
372.372	7.38
373.158	8.38
373.944	9.38
374.73	9.38
375.516	9.38
376.302	10.38
377.088	8.38
377.873	9.38
378.659	8.38
379.445	9.38
380.23	10.38
381.015	9.38
381.801	8.38
382.586	11.38
383.371	10.38
384.156	8.38
384.941	7.38
385.726	12.38
386.511	8.38
387.296	10.38
388.08	12.38
388.865	9.38
389.649	12.38
390.434	10.38
391.218	12.38
392.003	12.38
392.787	9.38
393.571	10.38
394.355	11.38
395.139	10.38
395.923	11.38
396.707	14.38
397.491	11.38
398.274	12.38
399.058	12.38
399.842	14.38
400.625	14.38
401.408	14.38
402.192	11.38
402.975	13.38
403.758	11.38
404.541	14.38
405.324	16.38
406.107	12.38
406.89	13.38
407.673	15.38
408.456	14.38
409.238	16.38
410.021	13.38
410.803	14.38
411.586	16.38
412.368	18.38
413.151	18.38
413.933	15.38
414.715	16.38
415.497	21.38
416.279	16.38
417.061	16.38
417.843	18.38
418.624	17.38
419.406	20.38
420.188	18.38
420.969	22.38
421.751	20.38
422.532	21.38
423.313	21.38
424.095	20.38
424.876	24.38
425.657	24.38
426.438	23.38
427.219	24.38
428	28.38
428.78	26.38
429.561	27.38
430.342	29.38
431.122	33.38
431.903	33.38
432.683	34.38
433.464	34.38
434.244	38.38
435.024	39.38
435.804	42.38
436.584	43.38
437.364	42.38
438.144	45.38
438.924	50.38
439.704	52.38
440.483	54.38
441.263	61.38
442.042	65.38
442.822	71.38
443.601	76.38
444.38	84.38
445.16	84.38
445.939	99.38
446.718	100.38
447.497	115.38
448.276	126.38
449.054	136.38
449.833	143.38
450.612	166.38
451.391	184.38
452.169	202.38
452.948	224.38
453.726	246.38
454.504	280.38
455.282	313.38
456.061	338.38
456.839	380.38
457.617	418.38
458.395	474.38
459.172	517.38
459.95	591.38
460.728	654.38
461.506	727.38
462.283	803.38
463.061	902.38
463.838	1016.38
464.615	1101.38
465.393	1232.38
466.17	1374.38
466.947	1512.38
467.724	1665.38
468.501	1870.38
469.278	2055.38
470.055	2268.38
470.831	2518.38
471.608	2743.38
472.385	3026.38
473.161	3346.38
473.938	3645.38
474.714	4014.38
475.49	4420.38
476.266	4822.38
477.043	5262.38
477.819	5734.38
478.595	6263.38
479.371	6843.38
480.146	7455.38
480.922	8081.38
481.698	8802.38
482.473	9547.38
483.249	10380.38
484.024	11242.38
484.8	12212.38
485.575	13148.38
486.35	14276.38
487.126	15409.38
487.901	16629.38
488.676	17922.38
489.451	19368.38
490.225	20769.38
491	22238.38
491.775	23818.38
492.55	25427.38
493.324	27046.38
494.099	28712.38
494.873	30455.38
495.647	32124.38
496.422	33787.38
497.196	35626.38
497.97	37207.38
498.744	38669.38
499.518	40346.38
500.292	41620.38
501.066	42679.38
501.839	43704.38
502.613	44543.38
503.387	45235.38
504.16	45780.38
504.934	45901.38
505.707	46075.38
506.48	45752.38
507.253	45416.38
508.027	44799.38
508.8	44026.38
509.573	43198.38
510.346	42219.38
511.118	41356.38
511.891	40159.38
512.664	38623.38
513.437	37293.38
514.209	35958.38
514.982	34616.38
515.754	33306.38
516.526	31931.38
517.298	30660.38
518.071	29470.38
518.843	28306.38
519.615	27241.38
520.387	26121.38
521.159	25113.38
521.93	24062.38
522.702	23024.38
523.474	22017.38
524.245	21193.38
525.017	20375.38
525.788	19420.38
526.56	18657.38
527.331	17850.38
528.102	16888.38
528.873	16121.38
529.644	15317.38
530.415	14672.38
531.186	13979.38
531.957	13265.38
532.728	12542.38
533.498	11926.38
534.269	11299.38
535.039	10691.38
535.81	10119.38
536.58	9575.38
537.351	9039.38
538.121	8641.38
538.891	8105.38
539.661	7694.38
540.431	7261.38
541.201	6890.38
541.971	6548.38
542.741	6182.38
543.51	5884.38
544.28	5594.38
545.05	5330.38
545.819	5090.38
546.588	4852.38
547.358	4629.38
548.127	4398.38
548.896	4171.38
549.665	3950.38
550.434	3738.38
551.203	3557.38
551.972	3395.38
552.741	3208.38
553.51	3006.38
554.278	2841.38
555.047	2717.38
555.815	2545.38
556.584	2408.38
557.352	2257.38
558.121	2151.38
558.889	2030.38
559.657	1914.38
560.425	1807.38
561.193	1734.38
561.961	1641.38
562.729	1528.38
563.496	1456.38
564.264	1385.38
565.032	1317.38
565.799	1217.38
566.567	1171.38
567.334	1097.38
568.101	1047.38
568.869	993.38
569.636	926.38
570.403	877.38
571.17	810.38
571.937	778.38
572.704	746.38
573.471	687.38
574.237	660.38
575.004	616.38
575.771	578.38
576.537	550.38
577.303	520.38
578.07	485.38
578.836	454.38
579.602	434.38
580.368	409.38
581.134	403.38
581.9	373.38
582.666	362.38
583.432	349.38
584.198	319.38
584.964	308.38
585.729	284.38
586.495	274.38
587.26	260.38
588.025	247.38
588.791	238.38
589.556	218.38
590.321	209.38
591.086	198.38
591.851	188.38
592.616	180.38
593.381	170.38
594.146	171.38
594.911	159.38
595.675	154.38
596.44	145.38
597.204	137.38
597.969	131.38
598.733	124.38
599.497	120.38
600.261	116.38
601.025	111.38
601.79	108.38
602.553	99.38
603.317	95.38
604.081	93.38
604.845	92.38
605.609	89.38
606.372	83.38
607.136	79.38
607.899	75.38
608.662	70.38
609.426	71.38
610.189	67.38
610.952	63.38
611.715	61.38
612.478	62.38
613.241	57.38
614.004	56.38
614.767	55.38
615.529	50.38
616.292	49.38
617.055	48.38
617.817	48.38
618.579	48.38
619.342	44.38
620.104	47.38
620.866	40.38
621.628	41.38
622.39	37.38
623.152	37.38
623.914	39.38
624.676	37.38
625.438	34.38
626.199	33.38
626.961	32.38
627.722	30.38
628.484	33.38
629.245	27.38
630.006	28.38
630.768	25.38
631.529	28.38
632.29	27.38
633.051	25.38
633.812	24.38
634.573	25.38
635.333	22.38
636.094	23.38
636.855	22.38
637.615	23.38
638.376	17.38
639.136	19.38
639.896	20.38
640.657	16.38
641.417	20.38
642.177	17.38
642.937	19.38
643.697	16.38
644.457	17.38
645.216	17.38
645.976	14.38
646.736	18.38
647.495	11.38
648.255	12.38
649.014	15.38
649.774	13.38
650.533	15.38
651.292	13.38
652.051	11.38
652.81	13.38
653.569	14.38
654.328	12.38
655.087	13.38
655.846	12.38
656.604	8.38
657.363	12.38
658.121	12.38
658.88	12.38
659.638	10.38
660.397	10.38
661.155	10.38
661.913	10.38
662.671	9.38
663.429	12.38
664.187	10.38
664.945	8.38
665.703	8.38
666.46	11.38
667.218	10.38
667.976	8.38
668.733	9.38
669.49	10.38
670.248	11.38
671.005	8.38
671.762	10.38
672.519	10.38
673.276	8.38
674.033	10.38
674.79	8.38
675.547	9.38
676.304	8.38
677.06	8.38
677.817	9.38
678.574	7.38
679.33	7.38
680.086	8.38
680.843	10.38
681.599	7.38
682.355	7.38
683.111	7.38
683.867	6.38
684.623	7.38
685.379	9.38
686.135	6.38
686.89	7.38
687.646	7.38
688.402	7.38
689.157	7.38
689.912	7.38
690.668	7.38
691.423	5.38
692.178	6.38
692.933	7.38
693.688	10.38
694.443	7.38
695.198	8.38
695.953	6.38
696.708	6.38
697.462	8.38
698.217	5.38
698.972	5.38
699.726	6.38
700.48	9.38
701.235	7.38
701.989	8.38
702.743	7.38
703.497	6.38
704.251	7.38
705.005	6.38
705.759	7.38
706.513	6.38
707.266	6.38
708.02	7.38
708.774	8.38
709.527	9.38
710.28	8.38
711.034	8.38
711.787	7.38
712.54	6.38
713.293	8.38
714.046	7.38
714.799	7.38
715.552	4.38
716.305	6.38
717.058	9.38
717.81	9.38
718.563	7.38
719.315	8.38
720.068	7.38
720.82	8.38
721.573	7.38
722.325	6.38
723.077	9.38
723.829	5.38
724.581	7.38
725.333	7.38
726.085	7.38
726.836	7.38
727.588	8.38
728.34	8.38
729.091	9.38
729.843	9.38
730.594	6.38
731.346	8.38
732.097	10.38
732.848	5.38
733.599	9.38
734.35	8.38
735.101	8.38
735.852	7.38
736.603	8.38
737.354	7.38
738.104	9.38
738.855	10.38
739.605	8.38
740.356	9.38
741.106	9.38
741.856	9.38
742.607	8.38
743.357	8.38
744.107	8.38
744.857	11.38
745.607	9.38
746.357	7.38
747.106	11.38
747.856	13.38
748.606	11.38
749.355	10.38
750.105	8.38
750.854	10.38
751.603	10.38
752.353	11.38
753.102	13.38
753.851	9.38
754.6	10.38
755.349	10.38
756.098	12.38
756.847	11.38
757.595	9.38
758.344	10.38
759.093	10.38
759.841	10.38
760.589	9.38
761.338	10.38
762.086	11.38
762.834	12.38
763.582	10.38
764.331	11.38
765.079	14.38
765.826	13.38
766.574	14.38
767.322	15.38
768.07	13.38
768.817	11.38
769.565	16.38
770.312	13.38
771.06	14.38
771.807	13.38
772.554	13.38
773.302	14.38
774.049	16.38
774.796	11.38
775.543	14.38
776.29	14.38
777.036	13.38
777.783	12.38
778.53	17.38
779.276	14.38
780.023	13.38
780.769	13.38
781.516	14.38
782.262	13.38
783.008	15.38
783.754	15.38
784.5	17.38
785.246	17.38
785.992	12.38
786.738	14.38
787.484	16.38
788.23	16.38
788.975	14.38
789.721	16.38
790.466	13.38
791.212	14.38
791.957	12.38
792.702	15.38
793.447	14.38
794.193	13.38
794.938	13.38
795.683	14.38
796.427	11.38
797.172	13.38
797.917	12.38
798.662	11.38
799.406	13.38
800.151	12.38
800.895	11.38
801.64	8.38
802.384	12.38
803.128	11.38
803.872	8.38
804.616	12.38
805.36	7.38
806.104	9.38
806.848	10.38
807.592	8.38
808.336	9.38
809.079	9.38
809.823	10.38
810.566	7.38
811.31	9.38
812.053	10.38
812.796	9.38
813.539	9.38
814.283	8.38
815.026	9.38
815.769	8.38
816.511	7.38
817.254	9.38
817.997	7.38
818.74	7.38
819.482	8.38
820.225	7.38
820.967	8.38
821.71	5.38
822.452	6.38
823.194	6.38
823.936	7.38
824.678	6.38
825.42	5.38
826.162	7.38
826.904	5.38
827.646	6.38
828.388	7.38
829.129	8.38
829.871	5.38
830.612	5.38
831.354	8.38
832.095	4.38
832.836	7.38
833.577	6.38
834.319	6.38
835.06	3.38
835.801	4.38
836.542	6.38
837.282	6.38
838.023	7.38
838.764	8.38
839.504	5.38
840.245	2.38
840.985	4.38
841.726	7.38
842.466	3.38
843.206	2.38
843.946	6.38
844.687	5.38
845.427	5.38
846.166	2.38
846.906	4.38
847.646	6.38
848.386	5.38
849.125	3.38
849.865	4.38
850.605	5.38
851.344	3.38
852.083	4.38
852.823	7.38
853.562	5.38
854.301	4.38
855.04	2.38
855.779	4.38
856.518	4.38
857.257	4.38
857.995	5.38
858.734	2.38
859.473	5.38
860.211	4.38
860.95	3.38
861.688	4.38
862.426	4.38
863.165	3.38
863.903	1.38
864.641	-0.62
865.379	2.38
866.117	2.38
866.855	3.38
867.593	3.38
868.33	3.38
869.068	1.38
869.806	2.38
870.543	4.38
871.28	0.38
872.018	0.38
872.755	1.38
873.492	1.38
874.229	1.38
874.967	1.38
875.703	2.38
876.44	1.38
877.177	2.38
877.914	1.38
878.651	3.38
879.387	0.38
880.124	0.38
880.86	1.38
881.597	0.38
882.333	2.38
883.069	2.38
883.806	0.38
884.542	0.38
885.278	-0.62
886.014	1.38
886.749	0.38
887.485	3.38
888.221	-0.62
888.957	1.38
889.692	1.38
890.428	-0.62
891.163	0.38
891.899	2.38
892.634	2.38
893.369	2.38
894.104	-0.62
894.839	1.38
895.574	-2.62
896.309	1.38
897.044	2.38
897.779	0.38
898.514	1.38
899.248	0.38
899.983	2.38
900.717	0.38
901.452	1.38
902.186	-0.62
902.92	2.38
903.654	-1.62
904.389	-1.62
905.123	0.38
905.857	1.38
906.59	0.38
907.324	-0.62
908.058	0.38
908.792	-0.62
909.525	-2.62
910.259	-0.62
910.992	0.38
911.726	2.38
912.459	0.38
913.192	-2.62
913.925	-0.62
914.658	0.38
915.391	-2.62
916.124	0.38
916.857	-1.62
917.59	-1.62
918.323	-0.62
919.055	-0.62
919.788	1.38
920.521	0.38
921.253	-0.62
921.985	0.38
922.718	0.38
923.45	0.38
924.182	1.38
924.914	-0.62
925.646	-0.62
926.378	0.38
927.11	-1.62
927.841	0.38
928.573	-0.62
929.305	-0.62
930.036	0.38
930.768	-0.62
931.499	0.38
932.23	-1.62
932.962	1.38
933.693	-0.62
934.424	-1.62
935.155	-1.62
935.886	-0.62
936.617	0.38
937.348	-1.62
938.078	-0.62
938.809	-0.62
939.54	-0.62
940.27	1.38
941.001	0.38
941.731	0.38
942.461	0.38
943.191	0.38
943.922	-0.62
944.652	-1.62
945.382	1.38
946.112	2.38
946.841	-1.62
947.571	0.38
948.301	1.38
949.031	0.38
949.76	-0.62
950.49	2.38
951.219	-0.62
951.948	0.38
952.678	1.38
953.407	-1.62
954.136	-0.62
954.865	-1.62
955.594	-1.62
956.323	-0.62
957.052	1.38
957.78	-0.62
958.509	0.38
959.238	2.38
959.966	-1.62
960.695	-1.62
961.423	1.38
962.151	-1.62
962.88	0.38
963.608	0.38
964.336	-0.62
965.064	-0.62
965.792	-1.62
966.52	0.38
967.247	-0.62
967.975	0.38
968.703	-1.62
969.43	1.38
970.158	1.38
970.885	-0.62
971.613	-0.62
972.34	-2.62
973.067	0.38
973.794	-1.62
974.521	0.38
975.248	-0.62
975.975	1.38
976.702	0.38
977.429	-1.62
978.156	-1.62
978.882	-0.62
979.609	-0.62
980.335	-0.62
981.062	0.38
981.788	-1.62
982.514	0.38
983.24	1.38
983.967	0.38
984.693	-1.62
985.419	1.38
986.144	0.38
986.87	-1.62
987.596	0.38
988.322	-1.62
989.047	-0.62
989.773	-0.62
990.498	0.38
991.224	1.38
991.949	-0.62
992.674	-0.62
993.399	1.38
994.124	-2.62
994.849	-0.62
995.574	0.38
996.299	0.38
997.024	-3.62
997.749	1.38
998.473	1.38
999.198	-1.62
999.922	0.38
1000.647	0.38
1001.371	1.38
1002.095	-1.62
1002.82	-0.62
1003.544	-0.62
1004.268	4.38
1004.992	4.38
1005.716	3.38
1006.439	4.38
1007.163	5.38
1007.887	3.38
1008.611	-1.62
1009.334	-1.62
1010.058	2.38
1010.781	-0.62
1011.504	0.38
1012.228	-1.62
1012.951	-0.62
1013.674	-0.62
1014.397	0.38
1015.12	2.38
