节点500_705_QEPB04081__414__20-51-47-693.txt的数据

Date: Wed Nov 12 20:51:47 CST 2025
User: PC
Spectrometer: QEPB0408
触发模式: 0
积分时间 (秒): 1.000000E-2
Scans to average: 1
启用暗噪声校正: true
启用非线性校正: false
滑动平均宽度: 0
X轴模式: Wavelengths
Number of Pixels in Spectrum: 1044
>>>>>Begin Spectral Data<<<<<
220.843	4.75
221.644	4.75
222.444	6.75
223.244	7.75
224.045	5.75
224.845	6.75
225.645	8.75
226.445	4.75
227.245	7.75
228.045	8.75
228.845	6.75
229.645	6.75
230.444	7.75
231.244	8.75
232.043	7.75
232.843	4.75
233.642	8.75
234.442	8.75
235.241	8.75
236.04	9.75
236.839	12.75
237.638	9.75
238.437	9.75
239.236	10.75
240.035	8.75
240.833	12.75
241.632	10.75
242.43	14.75
243.229	11.75
244.027	10.75
244.826	12.75
245.624	13.75
246.422	16.75
247.22	15.75
248.018	13.75
248.816	17.75
249.614	15.75
250.412	18.75
251.21	14.75
252.007	13.75
252.805	14.75
253.602	16.75
254.4	17.75
255.197	18.75
255.994	21.75
256.791	18.75
257.589	21.75
258.386	19.75
259.183	19.75
259.979	23.75
260.776	21.75
261.573	21.75
262.37	24.75
263.166	21.75
263.963	25.75
264.759	24.75
265.556	26.75
266.352	28.75
267.148	25.75
267.944	28.75
268.74	27.75
269.536	28.75
270.332	25.75
271.128	30.75
271.924	30.75
272.719	27.75
273.515	29.75
274.311	30.75
275.106	30.75
275.901	29.75
276.697	30.75
277.492	32.75
278.287	30.75
279.082	32.75
279.877	31.75
280.672	33.75
281.467	34.75
282.262	33.75
283.056	29.75
283.851	35.75
284.646	30.75
285.44	32.75
286.234	33.75
287.029	34.75
287.823	34.75
288.617	35.75
289.411	31.75
290.205	32.75
290.999	34.75
291.793	30.75
292.587	30.75
293.381	27.75
294.174	30.75
294.968	27.75
295.761	27.75
296.555	27.75
297.348	27.75
298.141	28.75
298.935	27.75
299.728	23.75
300.521	26.75
301.314	27.75
302.107	23.75
302.899	21.75
303.692	23.75
304.485	21.75
305.277	21.75
306.07	19.75
306.862	20.75
307.655	21.75
308.447	21.75
309.239	19.75
310.031	19.75
310.823	17.75
311.615	18.75
312.407	18.75
313.199	18.75
313.991	16.75
314.783	18.75
315.574	13.75
316.366	16.75
317.157	15.75
317.949	16.75
318.74	14.75
319.531	13.75
320.322	15.75
321.113	14.75
321.904	12.75
322.695	12.75
323.486	11.75
324.277	12.75
325.068	14.75
325.858	12.75
326.649	14.75
327.439	11.75
328.23	12.75
329.02	12.75
329.81	12.75
330.6	14.75
331.391	12.75
332.181	12.75
332.971	12.75
333.76	12.75
334.55	12.75
335.34	11.75
336.13	13.75
336.919	9.75
337.709	10.75
338.498	12.75
339.287	11.75
340.077	9.75
340.866	12.75
341.655	13.75
342.444	13.75
343.233	11.75
344.022	9.75
344.811	10.75
345.6	12.75
346.388	10.75
347.177	14.75
347.965	12.75
348.754	9.75
349.542	9.75
350.33	11.75
351.119	11.75
351.907	12.75
352.695	10.75
353.483	10.75
354.271	9.75
355.059	10.75
355.846	8.75
356.634	10.75
357.422	10.75
358.209	11.75
358.997	10.75
359.784	9.75
360.571	9.75
361.359	11.75
362.146	8.75
362.933	8.75
363.72	9.75
364.507	10.75
365.294	11.75
366.081	10.75
366.867	6.75
367.654	8.75
368.44	5.75
369.227	8.75
370.013	9.75
370.8	7.75
371.586	10.75
372.372	8.75
373.158	7.75
373.944	8.75
374.73	8.75
375.516	10.75
376.302	7.75
377.088	10.75
377.873	10.75
378.659	8.75
379.445	9.75
380.23	9.75
381.015	10.75
381.801	10.75
382.586	10.75
383.371	9.75
384.156	10.75
384.941	11.75
385.726	9.75
386.511	9.75
387.296	10.75
388.08	10.75
388.865	10.75
389.649	8.75
390.434	9.75
391.218	10.75
392.003	10.75
392.787	10.75
393.571	10.75
394.355	15.75
395.139	9.75
395.923	10.75
396.707	10.75
397.491	13.75
398.274	10.75
399.058	12.75
399.842	13.75
400.625	10.75
401.408	12.75
402.192	13.75
402.975	13.75
403.758	14.75
404.541	14.75
405.324	14.75
406.107	14.75
406.89	11.75
407.673	14.75
408.456	11.75
409.238	16.75
410.021	16.75
410.803	14.75
411.586	17.75
412.368	15.75
413.151	16.75
413.933	14.75
414.715	16.75
415.497	16.75
416.279	16.75
417.061	19.75
417.843	18.75
418.624	16.75
419.406	18.75
420.188	22.75
420.969	18.75
421.751	22.75
422.532	20.75
423.313	23.75
424.095	25.75
424.876	20.75
425.657	21.75
426.438	28.75
427.219	25.75
428	24.75
428.78	25.75
429.561	27.75
430.342	29.75
431.122	30.75
431.903	28.75
432.683	32.75
433.464	36.75
434.244	34.75
435.024	36.75
435.804	40.75
436.584	41.75
437.364	45.75
438.144	43.75
438.924	50.75
439.704	52.75
440.483	58.75
441.263	62.75
442.042	65.75
442.822	72.75
443.601	75.75
444.38	80.75
445.16	88.75
445.939	96.75
446.718	104.75
447.497	111.75
448.276	125.75
449.054	135.75
449.833	148.75
450.612	162.75
451.391	182.75
452.169	204.75
452.948	218.75
453.726	243.75
454.504	278.75
455.282	305.75
456.061	343.75
456.839	383.75
457.617	414.75
458.395	474.75
459.172	521.75
459.95	575.75
460.728	648.75
461.506	724.75
462.283	803.75
463.061	898.75
463.838	997.75
464.615	1109.75
465.393	1217.75
466.17	1355.75
466.947	1513.75
467.724	1675.75
468.501	1865.75
469.278	2073.75
470.055	2269.75
470.831	2502.75
471.608	2756.75
472.385	3021.75
473.161	3348.75
473.938	3674.75
474.714	4033.75
475.49	4421.75
476.266	4826.75
477.043	5276.75
477.819	5756.75
478.595	6292.75
479.371	6824.75
480.146	7441.75
480.922	8146.75
481.698	8850.75
482.473	9577.75
483.249	10411.75
484.024	11299.75
484.8	12247.75
485.575	13242.75
486.35	14313.75
487.126	15574.75
487.901	16749.75
488.676	18058.75
489.451	19502.75
490.225	20920.75
491	22482.75
491.775	23993.75
492.55	25621.75
493.324	27299.75
494.099	29005.75
494.873	30621.75
495.647	32381.75
496.422	34147.75
497.196	35833.75
497.97	37447.75
498.744	39042.75
499.518	40620.75
500.292	41876.75
501.066	42913.75
501.839	43866.75
502.613	44770.75
503.387	45427.75
504.16	45958.75
504.934	46184.75
505.707	46204.75
506.48	45985.75
507.253	45541.75
508.027	45094.75
508.8	44205.75
509.573	43210.75
510.346	42284.75
511.118	41285.75
511.891	40109.75
512.664	38660.75
513.437	37292.75
514.209	35946.75
514.982	34548.75
515.754	33291.75
516.526	31909.75
517.298	30572.75
518.071	29429.75
518.843	28277.75
519.615	27134.75
520.387	25979.75
521.159	25041.75
521.93	24036.75
522.702	22993.75
523.474	22080.75
524.245	21143.75
525.017	20303.75
525.788	19403.75
526.56	18604.75
527.331	17815.75
528.102	16877.75
528.873	16049.75
529.644	15260.75
530.415	14621.75
531.186	13886.75
531.957	13157.75
532.728	12534.75
533.498	11869.75
534.269	11261.75
535.039	10663.75
535.81	10060.75
536.58	9517.75
537.351	8982.75
538.121	8538.75
538.891	8079.75
539.661	7636.75
540.431	7219.75
541.201	6854.75
541.971	6510.75
542.741	6158.75
543.51	5852.75
544.28	5580.75
545.05	5314.75
545.819	5041.75
546.588	4835.75
547.358	4589.75
548.127	4388.75
548.896	4133.75
549.665	3918.75
550.434	3730.75
551.203	3536.75
551.972	3342.75
552.741	3198.75
553.51	3000.75
554.278	2835.75
555.047	2672.75
555.815	2529.75
556.584	2405.75
557.352	2252.75
558.121	2142.75
558.889	2026.75
559.657	1900.75
560.425	1819.75
561.193	1710.75
561.961	1619.75
562.729	1530.75
563.496	1445.75
564.264	1364.75
565.032	1288.75
565.799	1226.75
566.567	1166.75
567.334	1100.75
568.101	1036.75
568.869	978.75
569.636	912.75
570.403	873.75
571.17	818.75
571.937	752.75
572.704	735.75
573.471	702.75
574.237	656.75
575.004	611.75
575.771	579.75
576.537	550.75
577.303	521.75
578.07	495.75
578.836	457.75
579.602	437.75
580.368	413.75
581.134	396.75
581.9	370.75
582.666	358.75
583.432	339.75
584.198	321.75
584.964	306.75
585.729	284.75
586.495	273.75
587.26	258.75
588.025	245.75
588.791	236.75
589.556	217.75
590.321	213.75
591.086	202.75
591.851	190.75
592.616	179.75
593.381	171.75
594.146	164.75
594.911	149.75
595.675	150.75
596.44	143.75
597.204	138.75
597.969	133.75
598.733	127.75
599.497	118.75
600.261	119.75
601.025	109.75
601.79	106.75
602.553	104.75
603.317	97.75
604.081	97.75
604.845	89.75
605.609	81.75
606.372	76.75
607.136	78.75
607.899	73.75
608.662	74.75
609.426	72.75
610.189	65.75
610.952	62.75
611.715	63.75
612.478	58.75
613.241	54.75
614.004	56.75
614.767	53.75
615.529	53.75
616.292	50.75
617.055	52.75
617.817	48.75
618.579	47.75
619.342	43.75
620.104	44.75
620.866	43.75
621.628	41.75
622.39	38.75
623.152	40.75
623.914	37.75
624.676	33.75
625.438	34.75
626.199	33.75
626.961	30.75
627.722	28.75
628.484	30.75
629.245	31.75
630.006	29.75
630.768	25.75
631.529	27.75
632.29	23.75
633.051	26.75
633.812	24.75
634.573	22.75
635.333	20.75
636.094	19.75
636.855	26.75
637.615	20.75
638.376	22.75
639.136	18.75
639.896	20.75
640.657	23.75
641.417	16.75
642.177	18.75
642.937	18.75
643.697	14.75
644.457	18.75
645.216	14.75
645.976	17.75
646.736	15.75
647.495	17.75
648.255	14.75
649.014	14.75
649.774	14.75
650.533	13.75
651.292	13.75
652.051	14.75
652.81	14.75
653.569	11.75
654.328	10.75
655.087	12.75
655.846	11.75
656.604	12.75
657.363	11.75
658.121	11.75
658.88	12.75
659.638	12.75
660.397	11.75
661.155	11.75
661.913	12.75
662.671	10.75
663.429	9.75
664.187	9.75
664.945	9.75
665.703	9.75
666.46	10.75
667.218	9.75
667.976	9.75
668.733	7.75
669.49	10.75
670.248	6.75
671.005	8.75
671.762	7.75
672.519	7.75
673.276	8.75
674.033	7.75
674.79	8.75
675.547	8.75
676.304	8.75
677.06	8.75
677.817	7.75
678.574	10.75
679.33	7.75
680.086	9.75
680.843	9.75
681.599	10.75
682.355	8.75
683.111	10.75
683.867	7.75
684.623	7.75
685.379	7.75
686.135	5.75
686.89	7.75
687.646	6.75
688.402	8.75
689.157	10.75
689.912	8.75
690.668	9.75
691.423	8.75
692.178	4.75
692.933	8.75
693.688	5.75
694.443	7.75
695.198	6.75
695.953	4.75
696.708	4.75
697.462	8.75
698.217	5.75
698.972	7.75
699.726	7.75
700.48	6.75
701.235	5.75
701.989	6.75
702.743	4.75
703.497	8.75
704.251	7.75
705.005	7.75
705.759	6.75
706.513	7.75
707.266	7.75
708.02	7.75
708.774	5.75
709.527	7.75
710.28	6.75
711.034	7.75
711.787	5.75
712.54	8.75
713.293	7.75
714.046	7.75
714.799	7.75
715.552	7.75
716.305	7.75
717.058	7.75
717.81	7.75
718.563	5.75
719.315	6.75
720.068	5.75
720.82	3.75
721.573	6.75
722.325	6.75
723.077	10.75
723.829	6.75
724.581	8.75
725.333	9.75
726.085	7.75
726.836	10.75
727.588	9.75
728.34	6.75
729.091	6.75
729.843	6.75
730.594	9.75
731.346	6.75
732.097	8.75
732.848	7.75
733.599	8.75
734.35	7.75
735.101	7.75
735.852	8.75
736.603	8.75
737.354	6.75
738.104	11.75
738.855	10.75
739.605	7.75
740.356	9.75
741.106	8.75
741.856	9.75
742.607	8.75
743.357	14.75
744.107	10.75
744.857	9.75
745.607	10.75
746.357	12.75
747.106	10.75
747.856	9.75
748.606	10.75
749.355	10.75
750.105	10.75
750.854	8.75
751.603	11.75
752.353	10.75
753.102	12.75
753.851	11.75
754.6	9.75
755.349	13.75
756.098	10.75
756.847	13.75
757.595	10.75
758.344	10.75
759.093	10.75
759.841	11.75
760.589	10.75
761.338	11.75
762.086	11.75
762.834	13.75
763.582	10.75
764.331	12.75
765.079	12.75
765.826	13.75
766.574	12.75
767.322	13.75
768.07	13.75
768.817	11.75
769.565	14.75
770.312	14.75
771.06	12.75
771.807	15.75
772.554	14.75
773.302	14.75
774.049	12.75
774.796	14.75
775.543	13.75
776.29	13.75
777.036	15.75
777.783	16.75
778.53	16.75
779.276	12.75
780.023	15.75
780.769	14.75
781.516	13.75
782.262	14.75
783.008	11.75
783.754	13.75
784.5	13.75
785.246	14.75
785.992	16.75
786.738	13.75
787.484	14.75
788.23	17.75
788.975	12.75
789.721	16.75
790.466	15.75
791.212	14.75
791.957	12.75
792.702	17.75
793.447	14.75
794.193	12.75
794.938	12.75
795.683	13.75
796.427	12.75
797.172	12.75
797.917	12.75
798.662	10.75
799.406	12.75
800.151	11.75
800.895	10.75
801.64	10.75
802.384	12.75
803.128	10.75
803.872	11.75
804.616	9.75
805.36	11.75
806.104	8.75
806.848	9.75
807.592	8.75
808.336	10.75
809.079	7.75
809.823	9.75
810.566	8.75
811.31	10.75
812.053	9.75
812.796	11.75
813.539	8.75
814.283	10.75
815.026	5.75
815.769	7.75
816.511	10.75
817.254	9.75
817.997	6.75
818.74	6.75
819.482	7.75
820.225	8.75
820.967	7.75
821.71	8.75
822.452	6.75
823.194	8.75
823.936	5.75
824.678	6.75
825.42	6.75
826.162	6.75
826.904	4.75
827.646	6.75
828.388	6.75
829.129	5.75
829.871	4.75
830.612	6.75
831.354	7.75
832.095	8.75
832.836	6.75
833.577	7.75
834.319	5.75
835.06	4.75
835.801	5.75
836.542	6.75
837.282	6.75
838.023	7.75
838.764	5.75
839.504	5.75
840.245	5.75
840.985	5.75
841.726	6.75
842.466	3.75
843.206	3.75
843.946	6.75
844.687	5.75
845.427	6.75
846.166	5.75
846.906	3.75
847.646	6.75
848.386	2.75
849.125	4.75
849.865	5.75
850.605	3.75
851.344	3.75
852.083	3.75
852.823	5.75
853.562	5.75
854.301	4.75
855.04	4.75
855.779	3.75
856.518	5.75
857.257	4.75
857.995	2.75
858.734	5.75
859.473	4.75
860.211	4.75
860.95	2.75
861.688	2.75
862.426	2.75
863.165	4.75
863.903	3.75
864.641	2.75
865.379	3.75
866.117	0.75
866.855	4.75
867.593	1.75
868.33	0.75
869.068	2.75
869.806	-0.25
870.543	3.75
871.28	2.75
872.018	2.75
872.755	1.75
873.492	1.75
874.229	2.75
874.967	2.75
875.703	2.75
876.44	-0.25
877.177	1.75
877.914	2.75
878.651	3.75
879.387	0.75
880.124	1.75
880.86	1.75
881.597	2.75
882.333	1.75
883.069	2.75
883.806	2.75
884.542	2.75
885.278	-0.25
886.014	-0.25
886.749	4.75
887.485	1.75
888.221	2.75
888.957	-1.25
889.692	-0.25
890.428	2.75
891.163	1.75
891.899	1.75
892.634	0.75
893.369	2.75
894.104	3.75
894.839	2.75
895.574	0.75
896.309	-0.25
897.044	-0.25
897.779	-3.25
898.514	0.75
899.248	0.75
899.983	0.75
900.717	0.75
901.452	0.75
902.186	1.75
902.92	0.75
903.654	-0.25
904.389	-0.25
905.123	-1.25
905.857	2.75
906.59	2.75
907.324	2.75
908.058	1.75
908.792	0.75
909.525	-0.25
910.259	-0.25
910.992	2.75
911.726	-2.25
912.459	-1.25
913.192	-0.25
913.925	-0.25
914.658	1.75
915.391	1.75
916.124	0.75
916.857	0.75
917.59	0.75
918.323	2.75
919.055	0.75
919.788	2.75
920.521	-0.25
921.253	0.75
921.985	2.75
922.718	-1.25
923.45	-0.25
924.182	-1.25
924.914	0.75
925.646	-2.25
926.378	0.75
927.11	-1.25
927.841	0.75
928.573	-0.25
929.305	-1.25
930.036	0.75
930.768	-0.25
931.499	0.75
932.23	1.75
932.962	-0.25
933.693	1.75
934.424	0.75
935.155	-0.25
935.886	0.75
936.617	-0.25
937.348	-1.25
938.078	0.75
938.809	-0.25
939.54	-1.25
940.27	-1.25
941.001	-0.25
941.731	-1.25
942.461	-0.25
943.191	-0.25
943.922	0.75
944.652	-0.25
945.382	-1.25
946.112	1.75
946.841	-0.25
947.571	-0.25
948.301	0.75
949.031	-0.25
949.76	1.75
950.49	-1.25
951.219	-0.25
951.948	0.75
952.678	0.75
953.407	-0.25
954.136	-2.25
954.865	1.75
955.594	-1.25
956.323	0.75
957.052	-0.25
957.78	0.75
958.509	1.75
959.238	-2.25
959.966	0.75
960.695	0.75
961.423	0.75
962.151	0.75
962.88	-0.25
963.608	-0.25
964.336	-2.25
965.064	-1.25
965.792	-0.25
966.52	0.75
967.247	2.75
967.975	-1.25
968.703	-1.25
969.43	-1.25
970.158	1.75
970.885	-0.25
971.613	1.75
972.34	0.75
973.067	-1.25
973.794	-0.25
974.521	-0.25
975.248	-0.25
975.975	0.75
976.702	0.75
977.429	0.75
978.156	-1.25
978.882	0.75
979.609	0.75
980.335	-0.25
981.062	0.75
981.788	-1.25
982.514	0.75
983.24	-0.25
983.967	-0.25
984.693	1.75
985.419	-1.25
986.144	-1.25
986.87	0.75
987.596	-0.25
988.322	-1.25
989.047	-0.25
989.773	1.75
990.498	1.75
991.224	1.75
991.949	0.75
992.674	2.75
993.399	-1.25
994.124	-0.25
994.849	-0.25
995.574	-0.25
996.299	0.75
997.024	1.75
997.749	-0.25
998.473	0.75
999.198	0.75
999.922	-0.25
1000.647	1.75
1001.371	2.75
1002.095	0.75
1002.82	-1.25
1003.544	-0.25
1004.268	2.75
1004.992	3.75
1005.716	3.75
1006.439	3.75
1007.163	7.75
1007.887	4.75
1008.611	0.75
1009.334	-0.25
1010.058	0.75
1010.781	0.75
1011.504	-0.25
1012.228	0.75
1012.951	-1.25
1013.674	-0.25
1014.397	-1.25
1015.12	0.75
