节点500_705_QEPB04081__356__20-50-59-604.txt的数据

Date: Wed Nov 12 20:50:59 CST 2025
User: PC
Spectrometer: QEPB0408
触发模式: 0
积分时间 (秒): 1.000000E-2
Scans to average: 1
启用暗噪声校正: true
启用非线性校正: false
滑动平均宽度: 0
X轴模式: Wavelengths
Number of Pixels in Spectrum: 1044
>>>>>Begin Spectral Data<<<<<
220.843	5.62
221.644	4.62
222.444	6.62
223.244	2.62
224.045	5.62
224.845	4.62
225.645	7.62
226.445	4.62
227.245	5.62
228.045	8.62
228.845	7.62
229.645	6.62
230.444	7.62
231.244	7.62
232.043	10.62
232.843	9.62
233.642	9.62
234.442	7.62
235.241	10.62
236.04	8.62
236.839	9.62
237.638	8.62
238.437	10.62
239.236	9.62
240.035	10.62
240.833	9.62
241.632	10.62
242.43	11.62
243.229	10.62
244.027	10.62
244.826	15.62
245.624	10.62
246.422	12.62
247.22	14.62
248.018	14.62
248.816	13.62
249.614	12.62
250.412	16.62
251.21	14.62
252.007	12.62
252.805	14.62
253.602	18.62
254.4	18.62
255.197	18.62
255.994	16.62
256.791	19.62
257.589	20.62
258.386	21.62
259.183	16.62
259.979	22.62
260.776	23.62
261.573	22.62
262.37	21.62
263.166	21.62
263.963	24.62
264.759	28.62
265.556	28.62
266.352	25.62
267.148	27.62
267.944	28.62
268.74	29.62
269.536	26.62
270.332	33.62
271.128	28.62
271.924	28.62
272.719	31.62
273.515	31.62
274.311	31.62
275.106	36.62
275.901	33.62
276.697	37.62
277.492	32.62
278.287	29.62
279.082	33.62
279.877	31.62
280.672	35.62
281.467	33.62
282.262	30.62
283.056	34.62
283.851	33.62
284.646	33.62
285.44	34.62
286.234	33.62
287.029	33.62
287.823	33.62
288.617	33.62
289.411	32.62
290.205	32.62
290.999	31.62
291.793	31.62
292.587	30.62
293.381	30.62
294.174	28.62
294.968	34.62
295.761	25.62
296.555	26.62
297.348	25.62
298.141	27.62
298.935	25.62
299.728	26.62
300.521	24.62
301.314	23.62
302.107	22.62
302.899	22.62
303.692	22.62
304.485	23.62
305.277	21.62
306.07	25.62
306.862	20.62
307.655	19.62
308.447	18.62
309.239	20.62
310.031	18.62
310.823	18.62
311.615	19.62
312.407	15.62
313.199	15.62
313.991	16.62
314.783	17.62
315.574	14.62
316.366	16.62
317.157	17.62
317.949	13.62
318.74	17.62
319.531	12.62
320.322	15.62
321.113	14.62
321.904	13.62
322.695	12.62
323.486	13.62
324.277	14.62
325.068	13.62
325.858	12.62
326.649	13.62
327.439	9.62
328.23	12.62
329.02	12.62
329.81	9.62
330.6	11.62
331.391	10.62
332.181	12.62
332.971	11.62
333.76	13.62
334.55	10.62
335.34	9.62
336.13	12.62
336.919	11.62
337.709	11.62
338.498	11.62
339.287	11.62
340.077	9.62
340.866	11.62
341.655	11.62
342.444	10.62
343.233	10.62
344.022	10.62
344.811	10.62
345.6	11.62
346.388	8.62
347.177	11.62
347.965	9.62
348.754	11.62
349.542	11.62
350.33	12.62
351.119	9.62
351.907	10.62
352.695	10.62
353.483	11.62
354.271	9.62
355.059	11.62
355.846	9.62
356.634	9.62
357.422	11.62
358.209	11.62
358.997	10.62
359.784	11.62
360.571	12.62
361.359	10.62
362.146	8.62
362.933	12.62
363.72	7.62
364.507	12.62
365.294	12.62
366.081	12.62
366.867	6.62
367.654	10.62
368.44	10.62
369.227	10.62
370.013	8.62
370.8	9.62
371.586	7.62
372.372	10.62
373.158	6.62
373.944	9.62
374.73	8.62
375.516	10.62
376.302	10.62
377.088	9.62
377.873	9.62
378.659	8.62
379.445	10.62
380.23	10.62
381.015	6.62
381.801	9.62
382.586	10.62
383.371	10.62
384.156	10.62
384.941	11.62
385.726	8.62
386.511	9.62
387.296	10.62
388.08	7.62
388.865	11.62
389.649	11.62
390.434	11.62
391.218	11.62
392.003	12.62
392.787	11.62
393.571	11.62
394.355	12.62
395.139	10.62
395.923	11.62
396.707	11.62
397.491	11.62
398.274	11.62
399.058	11.62
399.842	14.62
400.625	13.62
401.408	14.62
402.192	11.62
402.975	12.62
403.758	12.62
404.541	17.62
405.324	12.62
406.107	13.62
406.89	16.62
407.673	16.62
408.456	18.62
409.238	15.62
410.021	15.62
410.803	15.62
411.586	14.62
412.368	15.62
413.151	18.62
413.933	17.62
414.715	15.62
415.497	16.62
416.279	17.62
417.061	19.62
417.843	17.62
418.624	18.62
419.406	19.62
420.188	22.62
420.969	21.62
421.751	21.62
422.532	21.62
423.313	21.62
424.095	23.62
424.876	23.62
425.657	22.62
426.438	24.62
427.219	22.62
428	25.62
428.78	28.62
429.561	28.62
430.342	28.62
431.122	28.62
431.903	30.62
432.683	31.62
433.464	40.62
434.244	36.62
435.024	36.62
435.804	40.62
436.584	45.62
437.364	45.62
438.144	47.62
438.924	51.62
439.704	51.62
440.483	58.62
441.263	62.62
442.042	63.62
442.822	72.62
443.601	73.62
444.38	80.62
445.16	86.62
445.939	94.62
446.718	108.62
447.497	108.62
448.276	119.62
449.054	134.62
449.833	148.62
450.612	162.62
451.391	175.62
452.169	194.62
452.948	220.62
453.726	243.62
454.504	273.62
455.282	297.62
456.061	328.62
456.839	364.62
457.617	411.62
458.395	461.62
459.172	515.62
459.95	575.62
460.728	641.62
461.506	710.62
462.283	791.62
463.061	894.62
463.838	986.62
464.615	1092.62
465.393	1219.62
466.17	1341.62
466.947	1487.62
467.724	1676.62
468.501	1845.62
469.278	2043.62
470.055	2276.62
470.831	2508.62
471.608	2772.62
472.385	3029.62
473.161	3341.62
473.938	3698.62
474.714	4035.62
475.49	4439.62
476.266	4854.62
477.043	5300.62
477.819	5812.62
478.595	6338.62
479.371	6921.62
480.146	7570.62
480.922	8273.62
481.698	8984.62
482.473	9758.62
483.249	10618.62
484.024	11533.62
484.8	12477.62
485.575	13503.62
486.35	14684.62
487.126	15870.62
487.901	17185.62
488.676	18478.62
489.451	19928.62
490.225	21440.62
491	22995.62
491.775	24581.62
492.55	26325.62
493.324	27989.62
494.099	29733.62
494.873	31487.62
495.647	33251.62
496.422	35159.62
497.196	36804.62
497.97	38455.62
498.744	39951.62
499.518	41517.62
500.292	42942.62
501.066	43919.62
501.839	44867.62
502.613	45696.62
503.387	46303.62
504.16	46796.62
504.934	46857.62
505.707	46827.62
506.48	46452.62
507.253	46016.62
508.027	45434.62
508.8	44542.62
509.573	43459.62
510.346	42437.62
511.118	41401.62
511.891	40261.62
512.664	38683.62
513.437	37239.62
514.209	35935.62
514.982	34579.62
515.754	33189.62
516.526	31855.62
517.298	30573.62
518.071	29381.62
518.843	28210.62
519.615	27096.62
520.387	25891.62
521.159	24990.62
521.93	23878.62
522.702	22927.62
523.474	22001.62
524.245	21098.62
525.017	20172.62
525.788	19223.62
526.56	18448.62
527.331	17686.62
528.102	16765.62
528.873	15989.62
529.644	15143.62
530.415	14469.62
531.186	13793.62
531.957	13073.62
532.728	12406.62
533.498	11727.62
534.269	11114.62
535.039	10533.62
535.81	9998.62
536.58	9385.62
537.351	8909.62
538.121	8459.62
538.891	7980.62
539.661	7553.62
540.431	7119.62
541.201	6765.62
541.971	6432.62
542.741	6060.62
543.51	5797.62
544.28	5513.62
545.05	5248.62
545.819	4979.62
546.588	4766.62
547.358	4516.62
548.127	4298.62
548.896	4082.62
549.665	3889.62
550.434	3687.62
551.203	3472.62
551.972	3322.62
552.741	3133.62
553.51	2953.62
554.278	2786.62
555.047	2634.62
555.815	2493.62
556.584	2358.62
557.352	2243.62
558.121	2100.62
558.889	1998.62
559.657	1872.62
560.425	1774.62
561.193	1686.62
561.961	1603.62
562.729	1514.62
563.496	1414.62
564.264	1348.62
565.032	1283.62
565.799	1205.62
566.567	1138.62
567.334	1072.62
568.101	1016.62
568.869	955.62
569.636	906.62
570.403	845.62
571.17	814.62
571.937	767.62
572.704	715.62
573.471	683.62
574.237	630.62
575.004	602.62
575.771	571.62
576.537	542.62
577.303	503.62
578.07	474.62
578.836	456.62
579.602	416.62
580.368	405.62
581.134	382.62
581.9	372.62
582.666	345.62
583.432	332.62
584.198	319.62
584.964	299.62
585.729	288.62
586.495	278.62
587.26	258.62
588.025	241.62
588.791	227.62
589.556	219.62
590.321	205.62
591.086	195.62
591.851	187.62
592.616	176.62
593.381	170.62
594.146	159.62
594.911	157.62
595.675	144.62
596.44	141.62
597.204	138.62
597.969	128.62
598.733	126.62
599.497	116.62
600.261	114.62
601.025	108.62
601.79	107.62
602.553	102.62
603.317	94.62
604.081	90.62
604.845	87.62
605.609	85.62
606.372	81.62
607.136	76.62
607.899	74.62
608.662	70.62
609.426	72.62
610.189	67.62
610.952	65.62
611.715	60.62
612.478	57.62
613.241	58.62
614.004	57.62
614.767	52.62
615.529	50.62
616.292	49.62
617.055	46.62
617.817	44.62
618.579	44.62
619.342	44.62
620.104	47.62
620.866	44.62
621.628	37.62
622.39	39.62
623.152	38.62
623.914	38.62
624.676	34.62
625.438	34.62
626.199	34.62
626.961	31.62
627.722	30.62
628.484	33.62
629.245	30.62
630.006	26.62
630.768	24.62
631.529	23.62
632.29	23.62
633.051	27.62
633.812	20.62
634.573	23.62
635.333	22.62
636.094	21.62
636.855	22.62
637.615	20.62
638.376	19.62
639.136	19.62
639.896	21.62
640.657	20.62
641.417	19.62
642.177	18.62
642.937	13.62
643.697	17.62
644.457	16.62
645.216	17.62
645.976	16.62
646.736	14.62
647.495	13.62
648.255	14.62
649.014	12.62
649.774	17.62
650.533	14.62
651.292	12.62
652.051	13.62
652.81	12.62
653.569	14.62
654.328	12.62
655.087	12.62
655.846	10.62
656.604	11.62
657.363	14.62
658.121	10.62
658.88	11.62
659.638	12.62
660.397	11.62
661.155	10.62
661.913	11.62
662.671	10.62
663.429	9.62
664.187	11.62
664.945	10.62
665.703	8.62
666.46	9.62
667.218	10.62
667.976	11.62
668.733	10.62
669.49	7.62
670.248	10.62
671.005	8.62
671.762	10.62
672.519	7.62
673.276	8.62
674.033	10.62
674.79	8.62
675.547	8.62
676.304	7.62
677.06	9.62
677.817	8.62
678.574	6.62
679.33	8.62
680.086	7.62
680.843	8.62
681.599	6.62
682.355	6.62
683.111	7.62
683.867	7.62
684.623	8.62
685.379	5.62
686.135	8.62
686.89	8.62
687.646	7.62
688.402	10.62
689.157	7.62
689.912	7.62
690.668	7.62
691.423	7.62
692.178	6.62
692.933	7.62
693.688	7.62
694.443	6.62
695.198	6.62
695.953	5.62
696.708	8.62
697.462	7.62
698.217	7.62
698.972	6.62
699.726	8.62
700.48	10.62
701.235	7.62
701.989	6.62
702.743	7.62
703.497	9.62
704.251	7.62
705.005	6.62
705.759	5.62
706.513	7.62
707.266	7.62
708.02	8.62
708.774	7.62
709.527	7.62
710.28	6.62
711.034	7.62
711.787	6.62
712.54	7.62
713.293	5.62
714.046	4.62
714.799	8.62
715.552	7.62
716.305	6.62
717.058	9.62
717.81	7.62
718.563	6.62
719.315	7.62
720.068	8.62
720.82	7.62
721.573	5.62
722.325	8.62
723.077	6.62
723.829	7.62
724.581	8.62
725.333	7.62
726.085	7.62
726.836	6.62
727.588	7.62
728.34	8.62
729.091	9.62
729.843	7.62
730.594	8.62
731.346	8.62
732.097	5.62
732.848	9.62
733.599	9.62
734.35	8.62
735.101	7.62
735.852	9.62
736.603	9.62
737.354	8.62
738.104	8.62
738.855	10.62
739.605	8.62
740.356	8.62
741.106	8.62
741.856	7.62
742.607	10.62
743.357	9.62
744.107	10.62
744.857	9.62
745.607	9.62
746.357	10.62
747.106	10.62
747.856	8.62
748.606	12.62
749.355	10.62
750.105	11.62
750.854	10.62
751.603	10.62
752.353	11.62
753.102	10.62
753.851	10.62
754.6	11.62
755.349	14.62
756.098	10.62
756.847	12.62
757.595	13.62
758.344	14.62
759.093	10.62
759.841	13.62
760.589	13.62
761.338	12.62
762.086	13.62
762.834	12.62
763.582	12.62
764.331	12.62
765.079	13.62
765.826	12.62
766.574	14.62
767.322	11.62
768.07	11.62
768.817	15.62
769.565	11.62
770.312	15.62
771.06	14.62
771.807	14.62
772.554	16.62
773.302	15.62
774.049	15.62
774.796	12.62
775.543	12.62
776.29	14.62
777.036	14.62
777.783	15.62
778.53	16.62
779.276	14.62
780.023	17.62
780.769	15.62
781.516	15.62
782.262	16.62
783.008	14.62
783.754	15.62
784.5	12.62
785.246	12.62
785.992	13.62
786.738	15.62
787.484	15.62
788.23	15.62
788.975	16.62
789.721	11.62
790.466	14.62
791.212	14.62
791.957	18.62
792.702	16.62
793.447	14.62
794.193	12.62
794.938	14.62
795.683	12.62
796.427	10.62
797.172	12.62
797.917	14.62
798.662	11.62
799.406	12.62
800.151	9.62
800.895	11.62
801.64	12.62
802.384	11.62
803.128	11.62
803.872	8.62
804.616	11.62
805.36	10.62
806.104	11.62
806.848	10.62
807.592	8.62
808.336	9.62
809.079	9.62
809.823	11.62
810.566	7.62
811.31	10.62
812.053	8.62
812.796	7.62
813.539	8.62
814.283	6.62
815.026	10.62
815.769	7.62
816.511	8.62
817.254	7.62
817.997	7.62
818.74	9.62
819.482	6.62
820.225	8.62
820.967	7.62
821.71	5.62
822.452	7.62
823.194	7.62
823.936	6.62
824.678	4.62
825.42	9.62
826.162	8.62
826.904	6.62
827.646	7.62
828.388	4.62
829.129	6.62
829.871	6.62
830.612	5.62
831.354	7.62
832.095	5.62
832.836	6.62
833.577	5.62
834.319	6.62
835.06	7.62
835.801	4.62
836.542	3.62
837.282	4.62
838.023	4.62
838.764	4.62
839.504	5.62
840.245	7.62
840.985	5.62
841.726	6.62
842.466	4.62
843.206	5.62
843.946	4.62
844.687	4.62
845.427	4.62
846.166	2.62
846.906	5.62
847.646	4.62
848.386	6.62
849.125	5.62
849.865	5.62
850.605	2.62
851.344	4.62
852.083	4.62
852.823	3.62
853.562	7.62
854.301	2.62
855.04	4.62
855.779	3.62
856.518	5.62
857.257	4.62
857.995	4.62
858.734	3.62
859.473	3.62
860.211	1.62
860.95	4.62
861.688	2.62
862.426	3.62
863.165	2.62
863.903	2.62
864.641	3.62
865.379	1.62
866.117	3.62
866.855	2.62
867.593	0.62
868.33	3.62
869.068	2.62
869.806	3.62
870.543	0.62
871.28	1.62
872.018	2.62
872.755	2.62
873.492	4.62
874.229	1.62
874.967	1.62
875.703	0.62
876.44	2.62
877.177	3.62
877.914	1.62
878.651	-0.38
879.387	0.62
880.124	0.62
880.86	0.62
881.597	1.62
882.333	1.62
883.069	2.62
883.806	2.62
884.542	2.62
885.278	2.62
886.014	1.62
886.749	0.62
887.485	0.62
888.221	-1.38
888.957	2.62
889.692	0.62
890.428	0.62
891.163	0.62
891.899	0.62
892.634	1.62
893.369	0.62
894.104	0.62
894.839	-1.38
895.574	-0.38
896.309	0.62
897.044	0.62
897.779	2.62
898.514	0.62
899.248	1.62
899.983	2.62
900.717	-0.38
901.452	1.62
902.186	-4.38
902.92	1.62
903.654	-0.38
904.389	-0.38
905.123	1.62
905.857	1.62
906.59	0.62
907.324	1.62
908.058	0.62
908.792	-0.38
909.525	0.62
910.259	-0.38
910.992	-0.38
911.726	2.62
912.459	-2.38
913.192	0.62
913.925	-0.38
914.658	1.62
915.391	0.62
916.124	-0.38
916.857	-1.38
917.59	0.62
918.323	0.62
919.055	-1.38
919.788	0.62
920.521	-1.38
921.253	-1.38
921.985	0.62
922.718	-1.38
923.45	0.62
924.182	2.62
924.914	2.62
925.646	0.62
926.378	1.62
927.11	1.62
927.841	-1.38
928.573	-0.38
929.305	1.62
930.036	-0.38
930.768	0.62
931.499	0.62
932.23	0.62
932.962	0.62
933.693	0.62
934.424	-1.38
935.155	-0.38
935.886	-0.38
936.617	0.62
937.348	-0.38
938.078	0.62
938.809	-1.38
939.54	0.62
940.27	-1.38
941.001	0.62
941.731	-0.38
942.461	-1.38
943.191	-1.38
943.922	-1.38
944.652	0.62
945.382	1.62
946.112	0.62
946.841	0.62
947.571	0.62
948.301	0.62
949.031	-1.38
949.76	-1.38
950.49	2.62
951.219	-1.38
951.948	-1.38
952.678	2.62
953.407	-0.38
954.136	0.62
954.865	0.62
955.594	-1.38
956.323	-1.38
957.052	1.62
957.78	-0.38
958.509	-2.38
959.238	0.62
959.966	-0.38
960.695	0.62
961.423	1.62
962.151	-0.38
962.88	-0.38
963.608	-0.38
964.336	-1.38
965.064	-1.38
965.792	0.62
966.52	1.62
967.247	0.62
967.975	-0.38
968.703	0.62
969.43	-0.38
970.158	0.62
970.885	-1.38
971.613	-2.38
972.34	0.62
973.067	-0.38
973.794	-1.38
974.521	0.62
975.248	-1.38
975.975	-0.38
976.702	1.62
977.429	-1.38
978.156	1.62
978.882	0.62
979.609	1.62
980.335	1.62
981.062	2.62
981.788	-2.38
982.514	-1.38
983.24	0.62
983.967	0.62
984.693	-1.38
985.419	-0.38
986.144	3.62
986.87	-0.38
987.596	-0.38
988.322	-1.38
989.047	0.62
989.773	-0.38
990.498	0.62
991.224	-0.38
991.949	-0.38
992.674	0.62
993.399	0.62
994.124	-1.38
994.849	-1.38
995.574	-1.38
996.299	-1.38
997.024	-0.38
997.749	-1.38
998.473	1.62
999.198	0.62
999.922	-1.38
1000.647	0.62
1001.371	3.62
1002.095	-0.38
1002.82	-0.38
1003.544	-1.38
1004.268	2.62
1004.992	3.62
1005.716	2.62
1006.439	6.62
1007.163	2.62
1007.887	6.62
1008.611	1.62
1009.334	1.62
1010.058	0.62
1010.781	-0.38
1011.504	-0.38
1012.228	-1.38
1012.951	-2.38
1013.674	1.62
1014.397	-0.38
1015.12	-0.38
