节点500_705_QEPB04081__108__20-47-41-140.txt的数据

Date: Wed Nov 12 20:47:41 CST 2025
User: PC
Spectrometer: QEPB0408
触发模式: 0
积分时间 (秒): 1.000000E-2
Scans to average: 1
启用暗噪声校正: true
启用非线性校正: false
滑动平均宽度: 0
X轴模式: Wavelengths
Number of Pixels in Spectrum: 1044
>>>>>Begin Spectral Data<<<<<
220.843	6.75
221.644	4.75
222.444	4.75
223.244	4.75
224.045	7.75
224.845	5.75
225.645	6.75
226.445	7.75
227.245	5.75
228.045	7.75
228.845	10.75
229.645	7.75
230.444	7.75
231.244	10.75
232.043	9.75
232.843	9.75
233.642	8.75
234.442	9.75
235.241	10.75
236.04	11.75
236.839	10.75
237.638	10.75
238.437	11.75
239.236	9.75
240.035	11.75
240.833	9.75
241.632	13.75
242.43	11.75
243.229	11.75
244.027	14.75
244.826	13.75
245.624	15.75
246.422	14.75
247.22	13.75
248.018	14.75
248.816	14.75
249.614	17.75
250.412	18.75
251.21	16.75
252.007	16.75
252.805	18.75
253.602	18.75
254.4	20.75
255.197	18.75
255.994	19.75
256.791	20.75
257.589	22.75
258.386	21.75
259.183	22.75
259.979	23.75
260.776	24.75
261.573	25.75
262.37	25.75
263.166	25.75
263.963	23.75
264.759	27.75
265.556	27.75
266.352	26.75
267.148	30.75
267.944	29.75
268.74	30.75
269.536	31.75
270.332	34.75
271.128	33.75
271.924	31.75
272.719	34.75
273.515	31.75
274.311	35.75
275.106	36.75
275.901	34.75
276.697	35.75
277.492	35.75
278.287	35.75
279.082	34.75
279.877	34.75
280.672	37.75
281.467	37.75
282.262	34.75
283.056	35.75
283.851	38.75
284.646	35.75
285.44	33.75
286.234	35.75
287.029	36.75
287.823	32.75
288.617	33.75
289.411	33.75
290.205	33.75
290.999	33.75
291.793	34.75
292.587	31.75
293.381	31.75
294.174	31.75
294.968	28.75
295.761	25.75
296.555	28.75
297.348	28.75
298.141	23.75
298.935	29.75
299.728	26.75
300.521	27.75
301.314	25.75
302.107	24.75
302.899	20.75
303.692	21.75
304.485	25.75
305.277	25.75
306.07	20.75
306.862	20.75
307.655	18.75
308.447	20.75
309.239	21.75
310.031	19.75
310.823	17.75
311.615	17.75
312.407	18.75
313.199	18.75
313.991	16.75
314.783	16.75
315.574	14.75
316.366	16.75
317.157	12.75
317.949	14.75
318.74	14.75
319.531	14.75
320.322	14.75
321.113	11.75
321.904	12.75
322.695	12.75
323.486	12.75
324.277	12.75
325.068	10.75
325.858	12.75
326.649	12.75
327.439	14.75
328.23	12.75
329.02	12.75
329.81	12.75
330.6	12.75
331.391	11.75
332.181	12.75
332.971	12.75
333.76	10.75
334.55	11.75
335.34	12.75
336.13	11.75
336.919	12.75
337.709	10.75
338.498	10.75
339.287	12.75
340.077	13.75
340.866	10.75
341.655	11.75
342.444	13.75
343.233	12.75
344.022	9.75
344.811	11.75
345.6	10.75
346.388	10.75
347.177	10.75
347.965	13.75
348.754	10.75
349.542	12.75
350.33	11.75
351.119	9.75
351.907	10.75
352.695	9.75
353.483	11.75
354.271	8.75
355.059	11.75
355.846	10.75
356.634	9.75
357.422	11.75
358.209	10.75
358.997	10.75
359.784	9.75
360.571	8.75
361.359	11.75
362.146	11.75
362.933	10.75
363.72	10.75
364.507	10.75
365.294	9.75
366.081	9.75
366.867	8.75
367.654	9.75
368.44	7.75
369.227	9.75
370.013	7.75
370.8	10.75
371.586	9.75
372.372	8.75
373.158	7.75
373.944	10.75
374.73	10.75
375.516	7.75
376.302	8.75
377.088	9.75
377.873	10.75
378.659	11.75
379.445	10.75
380.23	8.75
381.015	9.75
381.801	9.75
382.586	7.75
383.371	8.75
384.156	10.75
384.941	12.75
385.726	12.75
386.511	11.75
387.296	14.75
388.08	13.75
388.865	10.75
389.649	13.75
390.434	13.75
391.218	12.75
392.003	13.75
392.787	11.75
393.571	11.75
394.355	11.75
395.139	12.75
395.923	10.75
396.707	13.75
397.491	13.75
398.274	13.75
399.058	11.75
399.842	11.75
400.625	13.75
401.408	13.75
402.192	10.75
402.975	12.75
403.758	14.75
404.541	15.75
405.324	13.75
406.107	13.75
406.89	16.75
407.673	18.75
408.456	18.75
409.238	15.75
410.021	15.75
410.803	17.75
411.586	17.75
412.368	18.75
413.151	17.75
413.933	18.75
414.715	17.75
415.497	19.75
416.279	21.75
417.061	20.75
417.843	18.75
418.624	20.75
419.406	22.75
420.188	19.75
420.969	24.75
421.751	23.75
422.532	21.75
423.313	22.75
424.095	22.75
424.876	25.75
425.657	24.75
426.438	28.75
427.219	23.75
428	25.75
428.78	31.75
429.561	28.75
430.342	31.75
431.122	30.75
431.903	31.75
432.683	32.75
433.464	36.75
434.244	34.75
435.024	41.75
435.804	42.75
436.584	42.75
437.364	46.75
438.144	46.75
438.924	49.75
439.704	53.75
440.483	57.75
441.263	60.75
442.042	64.75
442.822	63.75
443.601	72.75
444.38	76.75
445.16	87.75
445.939	90.75
446.718	99.75
447.497	110.75
448.276	114.75
449.054	125.75
449.833	140.75
450.612	151.75
451.391	162.75
452.169	186.75
452.948	202.75
453.726	229.75
454.504	252.75
455.282	273.75
456.061	305.75
456.839	344.75
457.617	385.75
458.395	439.75
459.172	478.75
459.95	533.75
460.728	601.75
461.506	670.75
462.283	761.75
463.061	842.75
463.838	944.75
464.615	1050.75
465.393	1175.75
466.17	1308.75
466.947	1452.75
467.724	1614.75
468.501	1810.75
469.278	2013.75
470.055	2246.75
470.831	2474.75
471.608	2743.75
472.385	3008.75
473.161	3366.75
473.938	3709.75
474.714	4114.75
475.49	4513.75
476.266	4938.75
477.043	5457.75
477.819	5980.75
478.595	6566.75
479.371	7208.75
480.146	7911.75
480.922	8651.75
481.698	9483.75
482.473	10344.75
483.249	11291.75
484.024	12319.75
484.8	13382.75
485.575	14581.75
486.35	15895.75
487.126	17215.75
487.901	18692.75
488.676	20231.75
489.451	21954.75
490.225	23577.75
491	25292.75
491.775	27225.75
492.55	29102.75
493.324	30989.75
494.099	32914.75
494.873	34803.75
495.647	36791.75
496.422	38723.75
497.196	40711.75
497.97	42387.75
498.744	43892.75
499.518	45451.75
500.292	46682.75
501.066	47623.75
501.839	48509.75
502.613	49138.75
503.387	49406.75
504.16	49769.75
504.934	49613.75
505.707	49318.75
506.48	48688.75
507.253	47932.75
508.027	46922.75
508.8	45696.75
509.573	44422.75
510.346	43082.75
511.118	41891.75
511.891	40472.75
512.664	38771.75
513.437	37213.75
514.209	35731.75
514.982	34191.75
515.754	32721.75
516.526	31378.75
517.298	30080.75
518.071	28885.75
518.843	27725.75
519.615	26558.75
520.387	25572.75
521.159	24535.75
521.93	23486.75
522.702	22461.75
523.474	21473.75
524.245	20610.75
525.017	19614.75
525.788	18784.75
526.56	17962.75
527.331	17108.75
528.102	16233.75
528.873	15383.75
529.644	14620.75
530.415	13930.75
531.186	13237.75
531.957	12534.75
532.728	11855.75
533.498	11221.75
534.269	10610.75
535.039	10033.75
535.81	9482.75
536.58	8938.75
537.351	8516.75
538.121	8017.75
538.891	7597.75
539.661	7189.75
540.431	6798.75
541.201	6467.75
541.971	6105.75
542.741	5774.75
543.51	5500.75
544.28	5213.75
545.05	4992.75
545.819	4758.75
546.588	4509.75
547.358	4306.75
548.127	4092.75
548.896	3899.75
549.665	3657.75
550.434	3479.75
551.203	3289.75
551.972	3119.75
552.741	2945.75
553.51	2761.75
554.278	2627.75
555.047	2483.75
555.815	2336.75
556.584	2201.75
557.352	2086.75
558.121	1971.75
558.889	1856.75
559.657	1754.75
560.425	1660.75
561.193	1571.75
561.961	1495.75
562.729	1410.75
563.496	1312.75
564.264	1258.75
565.032	1183.75
565.799	1136.75
566.567	1072.75
567.334	1011.75
568.101	953.75
568.869	890.75
569.636	850.75
570.403	802.75
571.17	757.75
571.937	712.75
572.704	678.75
573.471	643.75
574.237	609.75
575.004	567.75
575.771	539.75
576.537	497.75
577.303	476.75
578.07	454.75
578.836	429.75
579.602	402.75
580.368	385.75
581.134	366.75
581.9	341.75
582.666	318.75
583.432	308.75
584.198	296.75
584.964	278.75
585.729	265.75
586.495	260.75
587.26	238.75
588.025	226.75
588.791	216.75
589.556	200.75
590.321	193.75
591.086	187.75
591.851	176.75
592.616	166.75
593.381	161.75
594.146	153.75
594.911	148.75
595.675	143.75
596.44	133.75
597.204	123.75
597.969	124.75
598.733	123.75
599.497	109.75
600.261	104.75
601.025	104.75
601.79	98.75
602.553	91.75
603.317	91.75
604.081	84.75
604.845	82.75
605.609	80.75
606.372	77.75
607.136	76.75
607.899	70.75
608.662	72.75
609.426	66.75
610.189	62.75
610.952	60.75
611.715	56.75
612.478	55.75
613.241	55.75
614.004	52.75
614.767	48.75
615.529	48.75
616.292	50.75
617.055	45.75
617.817	42.75
618.579	43.75
619.342	41.75
620.104	40.75
620.866	42.75
621.628	39.75
622.39	40.75
623.152	34.75
623.914	32.75
624.676	34.75
625.438	30.75
626.199	30.75
626.961	28.75
627.722	28.75
628.484	26.75
629.245	24.75
630.006	24.75
630.768	24.75
631.529	28.75
632.29	26.75
633.051	22.75
633.812	23.75
634.573	22.75
635.333	23.75
636.094	26.75
636.855	19.75
637.615	20.75
638.376	20.75
639.136	19.75
639.896	15.75
640.657	19.75
641.417	16.75
642.177	13.75
642.937	17.75
643.697	16.75
644.457	17.75
645.216	17.75
645.976	14.75
646.736	14.75
647.495	16.75
648.255	14.75
649.014	15.75
649.774	14.75
650.533	14.75
651.292	13.75
652.051	12.75
652.81	11.75
653.569	13.75
654.328	13.75
655.087	12.75
655.846	12.75
656.604	14.75
657.363	12.75
658.121	9.75
658.88	11.75
659.638	11.75
660.397	10.75
661.155	12.75
661.913	9.75
662.671	11.75
663.429	11.75
664.187	9.75
664.945	10.75
665.703	11.75
666.46	12.75
667.218	11.75
667.976	10.75
668.733	10.75
669.49	8.75
670.248	12.75
671.005	9.75
671.762	8.75
672.519	8.75
673.276	9.75
674.033	5.75
674.79	7.75
675.547	11.75
676.304	9.75
677.06	10.75
677.817	7.75
678.574	7.75
679.33	9.75
680.086	9.75
680.843	9.75
681.599	10.75
682.355	8.75
683.111	9.75
683.867	7.75
684.623	8.75
685.379	6.75
686.135	7.75
686.89	6.75
687.646	6.75
688.402	7.75
689.157	7.75
689.912	8.75
690.668	5.75
691.423	9.75
692.178	8.75
692.933	7.75
693.688	7.75
694.443	5.75
695.198	6.75
695.953	7.75
696.708	8.75
697.462	5.75
698.217	6.75
698.972	6.75
699.726	6.75
700.48	7.75
701.235	8.75
701.989	6.75
702.743	6.75
703.497	6.75
704.251	8.75
705.005	6.75
705.759	8.75
706.513	7.75
707.266	5.75
708.02	8.75
708.774	7.75
709.527	5.75
710.28	8.75
711.034	8.75
711.787	7.75
712.54	6.75
713.293	7.75
714.046	7.75
714.799	9.75
715.552	8.75
716.305	9.75
717.058	6.75
717.81	7.75
718.563	7.75
719.315	7.75
720.068	7.75
720.82	8.75
721.573	7.75
722.325	8.75
723.077	7.75
723.829	7.75
724.581	10.75
725.333	10.75
726.085	9.75
726.836	9.75
727.588	9.75
728.34	9.75
729.091	7.75
729.843	9.75
730.594	8.75
731.346	8.75
732.097	7.75
732.848	7.75
733.599	8.75
734.35	6.75
735.101	8.75
735.852	10.75
736.603	8.75
737.354	7.75
738.104	8.75
738.855	11.75
739.605	9.75
740.356	9.75
741.106	8.75
741.856	10.75
742.607	10.75
743.357	10.75
744.107	13.75
744.857	7.75
745.607	13.75
746.357	10.75
747.106	12.75
747.856	10.75
748.606	10.75
749.355	12.75
750.105	10.75
750.854	10.75
751.603	11.75
752.353	12.75
753.102	13.75
753.851	12.75
754.6	14.75
755.349	11.75
756.098	15.75
756.847	12.75
757.595	10.75
758.344	12.75
759.093	11.75
759.841	12.75
760.589	13.75
761.338	14.75
762.086	14.75
762.834	14.75
763.582	13.75
764.331	14.75
765.079	10.75
765.826	14.75
766.574	13.75
767.322	13.75
768.07	16.75
768.817	16.75
769.565	12.75
770.312	15.75
771.06	14.75
771.807	14.75
772.554	16.75
773.302	17.75
774.049	15.75
774.796	13.75
775.543	13.75
776.29	17.75
777.036	16.75
777.783	14.75
778.53	14.75
779.276	20.75
780.023	13.75
780.769	20.75
781.516	17.75
782.262	16.75
783.008	13.75
783.754	18.75
784.5	13.75
785.246	15.75
785.992	16.75
786.738	15.75
787.484	16.75
788.23	17.75
788.975	13.75
789.721	18.75
790.466	17.75
791.212	14.75
791.957	17.75
792.702	13.75
793.447	17.75
794.193	14.75
794.938	14.75
795.683	15.75
796.427	13.75
797.172	12.75
797.917	13.75
798.662	16.75
799.406	12.75
800.151	12.75
800.895	12.75
801.64	7.75
802.384	11.75
803.128	10.75
803.872	12.75
804.616	13.75
805.36	10.75
806.104	10.75
806.848	8.75
807.592	13.75
808.336	10.75
809.079	8.75
809.823	10.75
810.566	8.75
811.31	8.75
812.053	10.75
812.796	11.75
813.539	9.75
814.283	7.75
815.026	8.75
815.769	6.75
816.511	7.75
817.254	7.75
817.997	9.75
818.74	7.75
819.482	6.75
820.225	6.75
820.967	8.75
821.71	6.75
822.452	6.75
823.194	8.75
823.936	8.75
824.678	8.75
825.42	7.75
826.162	6.75
826.904	7.75
827.646	5.75
828.388	6.75
829.129	5.75
829.871	8.75
830.612	4.75
831.354	5.75
832.095	7.75
832.836	5.75
833.577	6.75
834.319	5.75
835.06	5.75
835.801	6.75
836.542	7.75
837.282	7.75
838.023	5.75
838.764	4.75
839.504	7.75
840.245	6.75
840.985	5.75
841.726	2.75
842.466	3.75
843.206	5.75
843.946	4.75
844.687	5.75
845.427	3.75
846.166	4.75
846.906	4.75
847.646	3.75
848.386	2.75
849.125	3.75
849.865	6.75
850.605	7.75
851.344	3.75
852.083	6.75
852.823	2.75
853.562	3.75
854.301	6.75
855.04	3.75
855.779	4.75
856.518	4.75
857.257	3.75
857.995	2.75
858.734	2.75
859.473	2.75
860.211	1.75
860.95	4.75
861.688	4.75
862.426	3.75
863.165	1.75
863.903	4.75
864.641	4.75
865.379	3.75
866.117	3.75
866.855	1.75
867.593	2.75
868.33	3.75
869.068	1.75
869.806	3.75
870.543	1.75
871.28	3.75
872.018	0.75
872.755	2.75
873.492	0.75
874.229	1.75
874.967	1.75
875.703	1.75
876.44	1.75
877.177	1.75
877.914	1.75
878.651	1.75
879.387	-1.25
880.124	3.75
880.86	0.75
881.597	0.75
882.333	3.75
883.069	0.75
883.806	2.75
884.542	2.75
885.278	1.75
886.014	1.75
886.749	1.75
887.485	0.75
888.221	0.75
888.957	2.75
889.692	-1.25
890.428	1.75
891.163	-0.25
891.899	-1.25
892.634	2.75
893.369	0.75
894.104	1.75
894.839	0.75
895.574	0.75
896.309	-0.25
897.044	2.75
897.779	0.75
898.514	0.75
899.248	0.75
899.983	-3.25
900.717	0.75
901.452	2.75
902.186	2.75
902.92	0.75
903.654	1.75
904.389	-1.25
905.123	0.75
905.857	0.75
906.59	0.75
907.324	-0.25
908.058	2.75
908.792	-1.25
909.525	1.75
910.259	0.75
910.992	-1.25
911.726	1.75
912.459	0.75
913.192	1.75
913.925	0.75
914.658	0.75
915.391	0.75
916.124	-1.25
916.857	1.75
917.59	-1.25
918.323	-1.25
919.055	1.75
919.788	1.75
920.521	1.75
921.253	-0.25
921.985	-0.25
922.718	-0.25
923.45	1.75
924.182	-0.25
924.914	-1.25
925.646	-0.25
926.378	-1.25
927.11	0.75
927.841	-0.25
928.573	-0.25
929.305	-1.25
930.036	-1.25
930.768	-2.25
931.499	3.75
932.23	0.75
932.962	-0.25
933.693	-0.25
934.424	-0.25
935.155	0.75
935.886	-0.25
936.617	0.75
937.348	-0.25
938.078	-1.25
938.809	0.75
939.54	-2.25
940.27	-0.25
941.001	0.75
941.731	0.75
942.461	1.75
943.191	1.75
943.922	-3.25
944.652	1.75
945.382	1.75
946.112	1.75
946.841	1.75
947.571	0.75
948.301	1.75
949.031	-0.25
949.76	-0.25
950.49	0.75
951.219	-0.25
951.948	0.75
952.678	-3.25
953.407	2.75
954.136	-1.25
954.865	2.75
955.594	-1.25
956.323	-0.25
957.052	-0.25
957.78	0.75
958.509	1.75
959.238	0.75
959.966	0.75
960.695	1.75
961.423	-2.25
962.151	-0.25
962.88	-0.25
963.608	0.75
964.336	0.75
965.064	1.75
965.792	-1.25
966.52	-1.25
967.247	-0.25
967.975	0.75
968.703	0.75
969.43	1.75
970.158	-2.25
970.885	0.75
971.613	-0.25
972.34	0.75
973.067	-0.25
973.794	-0.25
974.521	0.75
975.248	-0.25
975.975	0.75
976.702	-1.25
977.429	-1.25
978.156	0.75
978.882	1.75
979.609	1.75
980.335	-0.25
981.062	-0.25
981.788	1.75
982.514	-0.25
983.24	1.75
983.967	-1.25
984.693	-0.25
985.419	-0.25
986.144	0.75
986.87	1.75
987.596	-1.25
988.322	0.75
989.047	-0.25
989.773	0.75
990.498	-0.25
991.224	-0.25
991.949	-0.25
992.674	0.75
993.399	-0.25
994.124	-0.25
994.849	0.75
995.574	1.75
996.299	-0.25
997.024	0.75
997.749	-1.25
998.473	0.75
999.198	0.75
999.922	2.75
1000.647	-0.25
1001.371	2.75
1002.095	-0.25
1002.82	-1.25
1003.544	1.75
1004.268	3.75
1004.992	3.75
1005.716	3.75
1006.439	6.75
1007.163	4.75
1007.887	4.75
1008.611	0.75
1009.334	2.75
1010.058	-1.25
1010.781	-0.25
1011.504	-0.25
1012.228	0.75
1012.951	0.75
1013.674	-3.25
1014.397	-0.25
1015.12	-0.25
