节点500_705_QEPB04081__391__20-51-29-622.txt的数据

Date: Wed Nov 12 20:51:29 CST 2025
User: PC
Spectrometer: QEPB0408
触发模式: 0
积分时间 (秒): 1.000000E-2
Scans to average: 1
启用暗噪声校正: true
启用非线性校正: false
滑动平均宽度: 0
X轴模式: Wavelengths
Number of Pixels in Spectrum: 1044
>>>>>Begin Spectral Data<<<<<
220.843	7.88
221.644	4.88
222.444	6.88
223.244	7.88
224.045	7.88
224.845	5.88
225.645	5.88
226.445	5.88
227.245	7.88
228.045	8.88
228.845	4.88
229.645	4.88
230.444	6.88
231.244	7.88
232.043	7.88
232.843	6.88
233.642	6.88
234.442	9.88
235.241	8.88
236.04	10.88
236.839	10.88
237.638	8.88
238.437	12.88
239.236	8.88
240.035	10.88
240.833	8.88
241.632	11.88
242.43	11.88
243.229	13.88
244.027	11.88
244.826	12.88
245.624	12.88
246.422	13.88
247.22	14.88
248.018	14.88
248.816	12.88
249.614	17.88
250.412	10.88
251.21	15.88
252.007	17.88
252.805	15.88
253.602	16.88
254.4	18.88
255.197	18.88
255.994	19.88
256.791	18.88
257.589	18.88
258.386	21.88
259.183	22.88
259.979	20.88
260.776	20.88
261.573	24.88
262.37	23.88
263.166	23.88
263.963	25.88
264.759	25.88
265.556	25.88
266.352	24.88
267.148	25.88
267.944	29.88
268.74	26.88
269.536	27.88
270.332	28.88
271.128	32.88
271.924	30.88
272.719	30.88
273.515	33.88
274.311	30.88
275.106	29.88
275.901	33.88
276.697	32.88
277.492	33.88
278.287	30.88
279.082	30.88
279.877	36.88
280.672	32.88
281.467	34.88
282.262	34.88
283.056	32.88
283.851	32.88
284.646	33.88
285.44	34.88
286.234	31.88
287.029	31.88
287.823	34.88
288.617	33.88
289.411	31.88
290.205	32.88
290.999	31.88
291.793	31.88
292.587	29.88
293.381	31.88
294.174	27.88
294.968	30.88
295.761	26.88
296.555	27.88
297.348	28.88
298.141	26.88
298.935	27.88
299.728	27.88
300.521	21.88
301.314	25.88
302.107	20.88
302.899	21.88
303.692	23.88
304.485	22.88
305.277	20.88
306.07	21.88
306.862	21.88
307.655	21.88
308.447	20.88
309.239	18.88
310.031	20.88
310.823	19.88
311.615	16.88
312.407	17.88
313.199	18.88
313.991	18.88
314.783	14.88
315.574	18.88
316.366	12.88
317.157	13.88
317.949	15.88
318.74	14.88
319.531	14.88
320.322	15.88
321.113	15.88
321.904	13.88
322.695	11.88
323.486	12.88
324.277	12.88
325.068	13.88
325.858	15.88
326.649	12.88
327.439	10.88
328.23	10.88
329.02	10.88
329.81	12.88
330.6	9.88
331.391	13.88
332.181	9.88
332.971	12.88
333.76	13.88
334.55	11.88
335.34	12.88
336.13	10.88
336.919	12.88
337.709	13.88
338.498	14.88
339.287	14.88
340.077	12.88
340.866	12.88
341.655	11.88
342.444	12.88
343.233	10.88
344.022	12.88
344.811	9.88
345.6	10.88
346.388	12.88
347.177	11.88
347.965	12.88
348.754	9.88
349.542	11.88
350.33	11.88
351.119	9.88
351.907	12.88
352.695	12.88
353.483	8.88
354.271	9.88
355.059	12.88
355.846	7.88
356.634	10.88
357.422	10.88
358.209	10.88
358.997	9.88
359.784	7.88
360.571	9.88
361.359	10.88
362.146	8.88
362.933	11.88
363.72	10.88
364.507	8.88
365.294	9.88
366.081	9.88
366.867	9.88
367.654	10.88
368.44	7.88
369.227	8.88
370.013	8.88
370.8	10.88
371.586	8.88
372.372	7.88
373.158	9.88
373.944	6.88
374.73	11.88
375.516	10.88
376.302	8.88
377.088	7.88
377.873	8.88
378.659	10.88
379.445	8.88
380.23	10.88
381.015	8.88
381.801	10.88
382.586	9.88
383.371	7.88
384.156	7.88
384.941	8.88
385.726	9.88
386.511	10.88
387.296	9.88
388.08	11.88
388.865	9.88
389.649	10.88
390.434	10.88
391.218	9.88
392.003	10.88
392.787	10.88
393.571	12.88
394.355	10.88
395.139	12.88
395.923	12.88
396.707	12.88
397.491	12.88
398.274	10.88
399.058	12.88
399.842	13.88
400.625	14.88
401.408	14.88
402.192	13.88
402.975	12.88
403.758	12.88
404.541	13.88
405.324	11.88
406.107	15.88
406.89	13.88
407.673	14.88
408.456	16.88
409.238	15.88
410.021	12.88
410.803	15.88
411.586	18.88
412.368	16.88
413.151	18.88
413.933	16.88
414.715	17.88
415.497	14.88
416.279	18.88
417.061	19.88
417.843	20.88
418.624	19.88
419.406	17.88
420.188	20.88
420.969	20.88
421.751	22.88
422.532	18.88
423.313	22.88
424.095	20.88
424.876	22.88
425.657	21.88
426.438	26.88
427.219	26.88
428	25.88
428.78	26.88
429.561	30.88
430.342	26.88
431.122	28.88
431.903	30.88
432.683	32.88
433.464	32.88
434.244	38.88
435.024	36.88
435.804	41.88
436.584	41.88
437.364	45.88
438.144	46.88
438.924	49.88
439.704	54.88
440.483	52.88
441.263	59.88
442.042	68.88
442.822	68.88
443.601	74.88
444.38	81.88
445.16	88.88
445.939	94.88
446.718	109.88
447.497	112.88
448.276	124.88
449.054	135.88
449.833	140.88
450.612	161.88
451.391	179.88
452.169	196.88
452.948	221.88
453.726	247.88
454.504	266.88
455.282	298.88
456.061	334.88
456.839	375.88
457.617	419.88
458.395	467.88
459.172	516.88
459.95	589.88
460.728	657.88
461.506	721.88
462.283	806.88
463.061	896.88
463.838	994.88
464.615	1087.88
465.393	1238.88
466.17	1372.88
466.947	1512.88
467.724	1690.88
468.501	1870.88
469.278	2059.88
470.055	2282.88
470.831	2532.88
471.608	2764.88
472.385	3047.88
473.161	3371.88
473.938	3678.88
474.714	4069.88
475.49	4454.88
476.266	4832.88
477.043	5325.88
477.819	5800.88
478.595	6296.88
479.371	6900.88
480.146	7498.88
480.922	8160.88
481.698	8908.88
482.473	9683.88
483.249	10536.88
484.024	11407.88
484.8	12362.88
485.575	13392.88
486.35	14500.88
487.126	15658.88
487.901	16947.88
488.676	18281.88
489.451	19710.88
490.225	21178.88
491	22637.88
491.775	24227.88
492.55	25913.88
493.324	27573.88
494.099	29319.88
494.873	31093.88
495.647	32806.88
496.422	34572.88
497.196	36301.88
497.97	37868.88
498.744	39411.88
499.518	41037.88
500.292	42430.88
501.066	43449.88
501.839	44403.88
502.613	45244.88
503.387	45873.88
504.16	46422.88
504.934	46462.88
505.707	46576.88
506.48	46252.88
507.253	45885.88
508.027	45298.88
508.8	44396.88
509.573	43504.88
510.346	42484.88
511.118	41469.88
511.891	40238.88
512.664	38830.88
513.437	37438.88
514.209	36058.88
514.982	34677.88
515.754	33350.88
516.526	31946.88
517.298	30699.88
518.071	29485.88
518.843	28288.88
519.615	27178.88
520.387	26110.88
521.159	25053.88
521.93	24009.88
522.702	23016.88
523.474	22055.88
524.245	21197.88
525.017	20226.88
525.788	19420.88
526.56	18576.88
527.331	17797.88
528.102	16842.88
528.873	16057.88
529.644	15310.88
530.415	14566.88
531.186	13838.88
531.957	13188.88
532.728	12532.88
533.498	11912.88
534.269	11273.88
535.039	10649.88
535.81	10094.88
536.58	9570.88
537.351	9035.88
538.121	8506.88
538.891	8115.88
539.661	7664.88
540.431	7202.88
541.201	6859.88
541.971	6496.88
542.741	6168.88
543.51	5804.88
544.28	5538.88
545.05	5289.88
545.819	5022.88
546.588	4806.88
547.358	4583.88
548.127	4360.88
548.896	4143.88
549.665	3919.88
550.434	3714.88
551.203	3529.88
551.972	3362.88
552.741	3164.88
553.51	2986.88
554.278	2815.88
555.047	2667.88
555.815	2528.88
556.584	2368.88
557.352	2249.88
558.121	2150.88
558.889	2001.88
559.657	1909.88
560.425	1816.88
561.193	1719.88
561.961	1607.88
562.729	1536.88
563.496	1446.88
564.264	1366.88
565.032	1282.88
565.799	1217.88
566.567	1156.88
567.334	1106.88
568.101	1033.88
568.869	966.88
569.636	928.88
570.403	871.88
571.17	817.88
571.937	771.88
572.704	731.88
573.471	705.88
574.237	658.88
575.004	613.88
575.771	571.88
576.537	538.88
577.303	521.88
578.07	489.88
578.836	461.88
579.602	439.88
580.368	423.88
581.134	393.88
581.9	369.88
582.666	352.88
583.432	339.88
584.198	317.88
584.964	301.88
585.729	284.88
586.495	272.88
587.26	261.88
588.025	242.88
588.791	228.88
589.556	214.88
590.321	212.88
591.086	195.88
591.851	190.88
592.616	177.88
593.381	172.88
594.146	165.88
594.911	158.88
595.675	151.88
596.44	139.88
597.204	137.88
597.969	130.88
598.733	127.88
599.497	119.88
600.261	109.88
601.025	110.88
601.79	107.88
602.553	102.88
603.317	93.88
604.081	91.88
604.845	85.88
605.609	84.88
606.372	80.88
607.136	79.88
607.899	74.88
608.662	71.88
609.426	72.88
610.189	67.88
610.952	62.88
611.715	60.88
612.478	59.88
613.241	56.88
614.004	56.88
614.767	55.88
615.529	54.88
616.292	50.88
617.055	48.88
617.817	45.88
618.579	43.88
619.342	43.88
620.104	44.88
620.866	41.88
621.628	38.88
622.39	36.88
623.152	37.88
623.914	36.88
624.676	34.88
625.438	33.88
626.199	32.88
626.961	34.88
627.722	30.88
628.484	30.88
629.245	30.88
630.006	30.88
630.768	28.88
631.529	25.88
632.29	26.88
633.051	22.88
633.812	23.88
634.573	23.88
635.333	22.88
636.094	22.88
636.855	20.88
637.615	25.88
638.376	21.88
639.136	20.88
639.896	17.88
640.657	19.88
641.417	20.88
642.177	17.88
642.937	14.88
643.697	18.88
644.457	15.88
645.216	17.88
645.976	14.88
646.736	17.88
647.495	14.88
648.255	14.88
649.014	15.88
649.774	14.88
650.533	15.88
651.292	10.88
652.051	15.88
652.81	13.88
653.569	10.88
654.328	13.88
655.087	11.88
655.846	13.88
656.604	12.88
657.363	8.88
658.121	12.88
658.88	11.88
659.638	10.88
660.397	9.88
661.155	10.88
661.913	10.88
662.671	9.88
663.429	9.88
664.187	10.88
664.945	13.88
665.703	8.88
666.46	9.88
667.218	11.88
667.976	10.88
668.733	9.88
669.49	8.88
670.248	11.88
671.005	10.88
671.762	9.88
672.519	9.88
673.276	7.88
674.033	8.88
674.79	10.88
675.547	7.88
676.304	8.88
677.06	7.88
677.817	8.88
678.574	8.88
679.33	8.88
680.086	7.88
680.843	8.88
681.599	4.88
682.355	6.88
683.111	10.88
683.867	5.88
684.623	6.88
685.379	8.88
686.135	6.88
686.89	4.88
687.646	6.88
688.402	8.88
689.157	5.88
689.912	6.88
690.668	8.88
691.423	6.88
692.178	8.88
692.933	6.88
693.688	10.88
694.443	8.88
695.198	5.88
695.953	6.88
696.708	6.88
697.462	8.88
698.217	8.88
698.972	6.88
699.726	5.88
700.48	8.88
701.235	6.88
701.989	8.88
702.743	7.88
703.497	5.88
704.251	6.88
705.005	6.88
705.759	7.88
706.513	7.88
707.266	4.88
708.02	7.88
708.774	6.88
709.527	5.88
710.28	7.88
711.034	4.88
711.787	8.88
712.54	7.88
713.293	9.88
714.046	5.88
714.799	6.88
715.552	7.88
716.305	5.88
717.058	6.88
717.81	8.88
718.563	6.88
719.315	6.88
720.068	8.88
720.82	7.88
721.573	7.88
722.325	7.88
723.077	7.88
723.829	5.88
724.581	8.88
725.333	6.88
726.085	7.88
726.836	6.88
727.588	6.88
728.34	8.88
729.091	5.88
729.843	6.88
730.594	5.88
731.346	8.88
732.097	5.88
732.848	9.88
733.599	10.88
734.35	4.88
735.101	7.88
735.852	9.88
736.603	10.88
737.354	8.88
738.104	10.88
738.855	9.88
739.605	9.88
740.356	8.88
741.106	8.88
741.856	10.88
742.607	9.88
743.357	9.88
744.107	10.88
744.857	9.88
745.607	12.88
746.357	10.88
747.106	10.88
747.856	9.88
748.606	10.88
749.355	14.88
750.105	8.88
750.854	11.88
751.603	8.88
752.353	11.88
753.102	10.88
753.851	11.88
754.6	10.88
755.349	10.88
756.098	11.88
756.847	11.88
757.595	10.88
758.344	11.88
759.093	11.88
759.841	11.88
760.589	12.88
761.338	11.88
762.086	12.88
762.834	9.88
763.582	12.88
764.331	14.88
765.079	14.88
765.826	13.88
766.574	12.88
767.322	14.88
768.07	13.88
768.817	12.88
769.565	11.88
770.312	13.88
771.06	14.88
771.807	14.88
772.554	15.88
773.302	11.88
774.049	12.88
774.796	12.88
775.543	12.88
776.29	14.88
777.036	15.88
777.783	17.88
778.53	14.88
779.276	13.88
780.023	16.88
780.769	12.88
781.516	16.88
782.262	15.88
783.008	14.88
783.754	14.88
784.5	13.88
785.246	14.88
785.992	13.88
786.738	16.88
787.484	16.88
788.23	15.88
788.975	17.88
789.721	16.88
790.466	16.88
791.212	14.88
791.957	13.88
792.702	16.88
793.447	14.88
794.193	13.88
794.938	14.88
795.683	12.88
796.427	11.88
797.172	13.88
797.917	16.88
798.662	10.88
799.406	15.88
800.151	11.88
800.895	12.88
801.64	12.88
802.384	12.88
803.128	10.88
803.872	9.88
804.616	10.88
805.36	8.88
806.104	10.88
806.848	11.88
807.592	8.88
808.336	7.88
809.079	9.88
809.823	10.88
810.566	6.88
811.31	10.88
812.053	7.88
812.796	7.88
813.539	8.88
814.283	7.88
815.026	8.88
815.769	7.88
816.511	9.88
817.254	7.88
817.997	5.88
818.74	7.88
819.482	4.88
820.225	8.88
820.967	6.88
821.71	5.88
822.452	7.88
823.194	7.88
823.936	7.88
824.678	5.88
825.42	4.88
826.162	7.88
826.904	5.88
827.646	6.88
828.388	5.88
829.129	9.88
829.871	6.88
830.612	7.88
831.354	6.88
832.095	3.88
832.836	7.88
833.577	7.88
834.319	5.88
835.06	4.88
835.801	5.88
836.542	9.88
837.282	6.88
838.023	3.88
838.764	4.88
839.504	4.88
840.245	5.88
840.985	3.88
841.726	5.88
842.466	2.88
843.206	6.88
843.946	6.88
844.687	3.88
845.427	4.88
846.166	3.88
846.906	5.88
847.646	3.88
848.386	5.88
849.125	2.88
849.865	3.88
850.605	6.88
851.344	3.88
852.083	4.88
852.823	3.88
853.562	2.88
854.301	3.88
855.04	4.88
855.779	5.88
856.518	2.88
857.257	3.88
857.995	4.88
858.734	3.88
859.473	2.88
860.211	2.88
860.95	1.88
861.688	4.88
862.426	2.88
863.165	0.88
863.903	3.88
864.641	0.88
865.379	1.88
866.117	4.88
866.855	3.88
867.593	1.88
868.33	0.88
869.068	3.88
869.806	2.88
870.543	2.88
871.28	0.88
872.018	2.88
872.755	0.88
873.492	5.88
874.229	2.88
874.967	0.88
875.703	2.88
876.44	0.88
877.177	3.88
877.914	-0.12
878.651	0.88
879.387	2.88
880.124	1.88
880.86	1.88
881.597	-1.12
882.333	2.88
883.069	1.88
883.806	3.88
884.542	1.88
885.278	-0.12
886.014	2.88
886.749	1.88
887.485	2.88
888.221	0.88
888.957	-0.12
889.692	0.88
890.428	0.88
891.163	0.88
891.899	-1.12
892.634	2.88
893.369	0.88
894.104	-0.12
894.839	0.88
895.574	-0.12
896.309	1.88
897.044	0.88
897.779	-1.12
898.514	1.88
899.248	1.88
899.983	2.88
900.717	-0.12
901.452	-0.12
902.186	0.88
902.92	-2.12
903.654	0.88
904.389	0.88
905.123	-0.12
905.857	-1.12
906.59	0.88
907.324	0.88
908.058	-1.12
908.792	2.88
909.525	0.88
910.259	1.88
910.992	-1.12
911.726	-0.12
912.459	2.88
913.192	-0.12
913.925	0.88
914.658	-1.12
915.391	-1.12
916.124	0.88
916.857	0.88
917.59	1.88
918.323	-1.12
919.055	-1.12
919.788	-0.12
920.521	-0.12
921.253	0.88
921.985	1.88
922.718	3.88
923.45	1.88
924.182	-0.12
924.914	0.88
925.646	0.88
926.378	2.88
927.11	-0.12
927.841	-0.12
928.573	1.88
929.305	1.88
930.036	1.88
930.768	-0.12
931.499	2.88
932.23	-1.12
932.962	1.88
933.693	-0.12
934.424	1.88
935.155	1.88
935.886	-1.12
936.617	1.88
937.348	-0.12
938.078	-2.12
938.809	0.88
939.54	-0.12
940.27	-1.12
941.001	0.88
941.731	-0.12
942.461	0.88
943.191	0.88
943.922	0.88
944.652	1.88
945.382	0.88
946.112	-1.12
946.841	-0.12
947.571	-2.12
948.301	-1.12
949.031	1.88
949.76	-0.12
950.49	-0.12
951.219	1.88
951.948	-0.12
952.678	-0.12
953.407	0.88
954.136	-0.12
954.865	-0.12
955.594	0.88
956.323	-1.12
957.052	0.88
957.78	0.88
958.509	-1.12
959.238	1.88
959.966	0.88
960.695	-2.12
961.423	-0.12
962.151	-2.12
962.88	1.88
963.608	-0.12
964.336	-1.12
965.064	-0.12
965.792	0.88
966.52	-0.12
967.247	-1.12
967.975	1.88
968.703	1.88
969.43	-0.12
970.158	-0.12
970.885	-1.12
971.613	0.88
972.34	-1.12
973.067	0.88
973.794	-2.12
974.521	0.88
975.248	-0.12
975.975	-2.12
976.702	-0.12
977.429	-0.12
978.156	0.88
978.882	0.88
979.609	1.88
980.335	0.88
981.062	0.88
981.788	0.88
982.514	-2.12
983.24	1.88
983.967	-0.12
984.693	-1.12
985.419	0.88
986.144	-0.12
986.87	-1.12
987.596	1.88
988.322	-1.12
989.047	-1.12
989.773	0.88
990.498	0.88
991.224	-3.12
991.949	-2.12
992.674	-0.12
993.399	1.88
994.124	-0.12
994.849	-1.12
995.574	0.88
996.299	1.88
997.024	-1.12
997.749	0.88
998.473	0.88
999.198	0.88
999.922	-2.12
1000.647	2.88
1001.371	5.88
1002.095	-1.12
1002.82	-1.12
1003.544	-1.12
1004.268	4.88
1004.992	2.88
1005.716	4.88
1006.439	2.88
1007.163	4.88
1007.887	2.88
1008.611	-0.12
1009.334	1.88
1010.058	0.88
1010.781	-0.12
1011.504	-0.12
1012.228	0.88
1012.951	-3.12
1013.674	-0.12
1014.397	-1.12
1015.12	1.88
