节点500_705_QEPB04081__691__20-55-46-797.txt的数据

Date: Wed Nov 12 20:55:46 CST 2025
User: PC
Spectrometer: QEPB0408
触发模式: 0
积分时间 (秒): 1.000000E-2
Scans to average: 1
启用暗噪声校正: true
启用非线性校正: false
滑动平均宽度: 0
X轴模式: Wavelengths
Number of Pixels in Spectrum: 1044
>>>>>Begin Spectral Data<<<<<
220.843	6
221.644	5
222.444	4
223.244	7
224.045	8
224.845	6
225.645	5
226.445	8
227.245	6
228.045	6
228.845	8
229.645	7
230.444	9
231.244	7
232.043	8
232.843	10
233.642	9
234.442	8
235.241	9
236.04	10
236.839	10
237.638	10
238.437	10
239.236	9
240.035	14
240.833	8
241.632	11
242.43	12
243.229	14
244.027	13
244.826	13
245.624	14
246.422	11
247.22	13
248.018	12
248.816	15
249.614	13
250.412	10
251.21	15
252.007	15
252.805	17
253.602	18
254.4	14
255.197	18
255.994	17
256.791	17
257.589	20
258.386	18
259.183	19
259.979	18
260.776	21
261.573	23
262.37	20
263.166	22
263.963	21
264.759	23
265.556	23
266.352	23
267.148	26
267.944	26
268.74	26
269.536	27
270.332	29
271.128	28
271.924	28
272.719	28
273.515	28
274.311	31
275.106	28
275.901	28
276.697	31
277.492	31
278.287	30
279.082	29
279.877	31
280.672	30
281.467	33
282.262	33
283.056	31
283.851	34
284.646	33
285.44	31
286.234	31
287.029	31
287.823	31
288.617	31
289.411	30
290.205	30
290.999	31
291.793	28
292.587	30
293.381	30
294.174	28
294.968	31
295.761	26
296.555	26
297.348	28
298.141	25
298.935	28
299.728	27
300.521	25
301.314	24
302.107	20
302.899	23
303.692	21
304.485	21
305.277	19
306.07	27
306.862	19
307.655	19
308.447	21
309.239	20
310.031	22
310.823	19
311.615	19
312.407	18
313.199	14
313.991	18
314.783	15
315.574	15
316.366	16
317.157	16
317.949	13
318.74	14
319.531	16
320.322	13
321.113	14
321.904	12
322.695	13
323.486	14
324.277	13
325.068	14
325.858	15
326.649	14
327.439	13
328.23	13
329.02	12
329.81	11
330.6	12
331.391	13
332.181	13
332.971	15
333.76	12
334.55	12
335.34	11
336.13	12
336.919	13
337.709	9
338.498	15
339.287	12
340.077	11
340.866	11
341.655	8
342.444	11
343.233	9
344.022	13
344.811	10
345.6	12
346.388	11
347.177	12
347.965	11
348.754	11
349.542	13
350.33	11
351.119	10
351.907	13
352.695	10
353.483	8
354.271	12
355.059	8
355.846	11
356.634	13
357.422	9
358.209	10
358.997	9
359.784	10
360.571	13
361.359	9
362.146	9
362.933	13
363.72	9
364.507	11
365.294	9
366.081	9
366.867	8
367.654	9
368.44	8
369.227	9
370.013	11
370.8	10
371.586	9
372.372	9
373.158	11
373.944	10
374.73	9
375.516	11
376.302	7
377.088	10
377.873	9
378.659	9
379.445	13
380.23	7
381.015	8
381.801	11
382.586	9
383.371	10
384.156	13
384.941	10
385.726	8
386.511	11
387.296	11
388.08	10
388.865	9
389.649	9
390.434	10
391.218	11
392.003	10
392.787	11
393.571	10
394.355	12
395.139	10
395.923	13
396.707	16
397.491	10
398.274	15
399.058	13
399.842	13
400.625	11
401.408	13
402.192	15
402.975	13
403.758	15
404.541	14
405.324	13
406.107	15
406.89	15
407.673	15
408.456	14
409.238	15
410.021	16
410.803	15
411.586	18
412.368	15
413.151	16
413.933	17
414.715	17
415.497	16
416.279	20
417.061	19
417.843	18
418.624	19
419.406	18
420.188	20
420.969	18
421.751	21
422.532	23
423.313	23
424.095	24
424.876	24
425.657	23
426.438	26
427.219	31
428	27
428.78	29
429.561	29
430.342	32
431.122	31
431.903	34
432.683	33
433.464	34
434.244	34
435.024	41
435.804	41
436.584	47
437.364	45
438.144	49
438.924	53
439.704	53
440.483	55
441.263	65
442.042	67
442.822	75
443.601	81
444.38	83
445.16	92
445.939	98
446.718	109
447.497	120
448.276	126
449.054	142
449.833	153
450.612	170
451.391	193
452.169	212
452.948	234
453.726	260
454.504	290
455.282	323
456.061	360
456.839	403
457.617	449
458.395	493
459.172	550
459.95	614
460.728	671
461.506	748
462.283	830
463.061	929
463.838	1027
464.615	1136
465.393	1272
466.17	1395
466.947	1542
467.724	1699
468.501	1891
469.278	2069
470.055	2269
470.831	2530
471.608	2752
472.385	3037
473.161	3315
473.938	3606
474.714	3953
475.49	4303
476.266	4697
477.043	5134
477.819	5552
478.595	6059
479.371	6555
480.146	7115
480.922	7747
481.698	8362
482.473	9014
483.249	9799
484.024	10575
484.8	11395
485.575	12317
486.35	13247
487.126	14298
487.901	15351
488.676	16514
489.451	17715
490.225	18971
491	20331
491.775	21688
492.55	23131
493.324	24649
494.099	26160
494.873	27730
495.647	29333
496.422	30850
497.196	32430
497.97	33918
498.744	35405
499.518	37001
500.292	38237
501.066	39299
501.839	40291
502.613	41243
503.387	42133
504.16	42650
504.934	43159
505.707	43452
506.48	43437
507.253	43208
508.027	42942
508.8	42454
509.573	41829
510.346	41128
511.118	40346
511.891	39261
512.664	38118
513.437	36880
514.209	35734
514.982	34543
515.754	33258
516.526	31928
517.298	30785
518.071	29693
518.843	28520
519.615	27318
520.387	26229
521.159	25262
521.93	24334
522.702	23239
523.474	22354
524.245	21469
525.017	20586
525.788	19690
526.56	18935
527.331	18084
528.102	17268
528.873	16453
529.644	15647
530.415	14943
531.186	14296
531.957	13524
532.728	12895
533.498	12271
534.269	11637
535.039	11031
535.81	10444
536.58	9934
537.351	9369
538.121	8913
538.891	8457
539.661	7948
540.431	7527
541.201	7187
541.971	6793
542.741	6431
543.51	6130
544.28	5807
545.05	5511
545.819	5274
546.588	5069
547.358	4816
548.127	4557
548.896	4337
549.665	4113
550.434	3912
551.203	3706
551.972	3522
552.741	3356
553.51	3161
554.278	2978
555.047	2802
555.815	2670
556.584	2529
557.352	2401
558.121	2265
558.889	2143
559.657	2029
560.425	1911
561.193	1825
561.961	1708
562.729	1610
563.496	1541
564.264	1455
565.032	1373
565.799	1305
566.567	1220
567.334	1171
568.101	1096
568.869	1038
569.636	980
570.403	922
571.17	883
571.937	823
572.704	773
573.471	735
574.237	693
575.004	655
575.771	616
576.537	576
577.303	551
578.07	531
578.836	481
579.602	463
580.368	441
581.134	424
581.9	406
582.666	374
583.432	358
584.198	342
584.964	326
585.729	306
586.495	295
587.26	275
588.025	266
588.791	247
589.556	236
590.321	219
591.086	213
591.851	196
592.616	197
593.381	183
594.146	171
594.911	167
595.675	156
596.44	157
597.204	144
597.969	139
598.733	133
599.497	126
600.261	119
601.025	113
601.79	109
602.553	102
603.317	107
604.081	97
604.845	94
605.609	87
606.372	87
607.136	80
607.899	79
608.662	74
609.426	75
610.189	74
610.952	65
611.715	65
612.478	63
613.241	57
614.004	62
614.767	58
615.529	57
616.292	53
617.055	52
617.817	49
618.579	47
619.342	44
620.104	45
620.866	42
621.628	41
622.39	40
623.152	39
623.914	37
624.676	38
625.438	35
626.199	33
626.961	34
627.722	33
628.484	30
629.245	29
630.006	28
630.768	28
631.529	27
632.29	27
633.051	27
633.812	29
634.573	25
635.333	25
636.094	22
636.855	23
637.615	23
638.376	24
639.136	20
639.896	18
640.657	18
641.417	19
642.177	19
642.937	20
643.697	19
644.457	19
645.216	17
645.976	16
646.736	15
647.495	16
648.255	14
649.014	16
649.774	15
650.533	14
651.292	17
652.051	13
652.81	13
653.569	14
654.328	11
655.087	11
655.846	13
656.604	11
657.363	14
658.121	12
658.88	11
659.638	12
660.397	11
661.155	12
661.913	9
662.671	9
663.429	6
664.187	9
664.945	10
665.703	11
666.46	10
667.218	11
667.976	9
668.733	10
669.49	8
670.248	9
671.005	7
671.762	9
672.519	9
673.276	9
674.033	6
674.79	7
675.547	11
676.304	9
677.06	7
677.817	10
678.574	7
679.33	9
680.086	11
680.843	8
681.599	10
682.355	9
683.111	9
683.867	9
684.623	10
685.379	7
686.135	6
686.89	8
687.646	6
688.402	7
689.157	6
689.912	9
690.668	7
691.423	8
692.178	7
692.933	8
693.688	7
694.443	8
695.198	8
695.953	8
696.708	10
697.462	7
698.217	7
698.972	6
699.726	9
700.48	7
701.235	9
701.989	7
702.743	9
703.497	7
704.251	8
705.005	6
705.759	7
706.513	10
707.266	7
708.02	7
708.774	9
709.527	8
710.28	9
711.034	6
711.787	8
712.54	6
713.293	10
714.046	8
714.799	7
715.552	8
716.305	7
717.058	7
717.81	8
718.563	9
719.315	8
720.068	7
720.82	8
721.573	7
722.325	8
723.077	8
723.829	8
724.581	7
725.333	10
726.085	9
726.836	8
727.588	7
728.34	7
729.091	8
729.843	7
730.594	8
731.346	8
732.097	10
732.848	7
733.599	8
734.35	7
735.101	9
735.852	10
736.603	9
737.354	9
738.104	8
738.855	10
739.605	8
740.356	8
741.106	10
741.856	12
742.607	11
743.357	9
744.107	10
744.857	11
745.607	12
746.357	7
747.106	9
747.856	11
748.606	8
749.355	12
750.105	10
750.854	11
751.603	11
752.353	12
753.102	11
753.851	10
754.6	14
755.349	10
756.098	9
756.847	10
757.595	10
758.344	11
759.093	11
759.841	9
760.589	13
761.338	12
762.086	11
762.834	12
763.582	11
764.331	13
765.079	12
765.826	12
766.574	12
767.322	13
768.07	12
768.817	14
769.565	11
770.312	12
771.06	14
771.807	13
772.554	16
773.302	14
774.049	12
774.796	14
775.543	13
776.29	13
777.036	12
777.783	17
778.53	14
779.276	15
780.023	13
780.769	14
781.516	15
782.262	13
783.008	16
783.754	16
784.5	15
785.246	13
785.992	14
786.738	18
787.484	14
788.23	12
788.975	12
789.721	12
790.466	16
791.212	11
791.957	17
792.702	13
793.447	13
794.193	13
794.938	14
795.683	13
796.427	14
797.172	13
797.917	14
798.662	11
799.406	12
800.151	11
800.895	13
801.64	13
802.384	10
803.128	12
803.872	10
804.616	11
805.36	11
806.104	12
806.848	9
807.592	8
808.336	11
809.079	9
809.823	9
810.566	7
811.31	10
812.053	10
812.796	10
813.539	10
814.283	8
815.026	10
815.769	8
816.511	10
817.254	9
817.997	8
818.74	10
819.482	6
820.225	8
820.967	5
821.71	9
822.452	6
823.194	7
823.936	6
824.678	8
825.42	6
826.162	9
826.904	6
827.646	8
828.388	7
829.129	7
829.871	9
830.612	6
831.354	7
832.095	6
832.836	6
833.577	5
834.319	4
835.06	7
835.801	5
836.542	6
837.282	4
838.023	7
838.764	7
839.504	8
840.245	6
840.985	3
841.726	7
842.466	4
843.206	4
843.946	7
844.687	3
845.427	4
846.166	6
846.906	8
847.646	7
848.386	6
849.125	5
849.865	7
850.605	5
851.344	4
852.083	5
852.823	3
853.562	3
854.301	3
855.04	4
855.779	5
856.518	5
857.257	7
857.995	5
858.734	3
859.473	4
860.211	2
860.95	4
861.688	3
862.426	3
863.165	3
863.903	4
864.641	3
865.379	2
866.117	5
866.855	4
867.593	4
868.33	3
869.068	4
869.806	3
870.543	2
871.28	4
872.018	2
872.755	5
873.492	1
874.229	2
874.967	3
875.703	2
876.44	3
877.177	2
877.914	1
878.651	2
879.387	2
880.124	2
880.86	1
881.597	1
882.333	1
883.069	1
883.806	2
884.542	2
885.278	2
886.014	3
886.749	1
887.485	0
888.221	1
888.957	3
889.692	2
890.428	-1
891.163	3
891.899	4
892.634	2
893.369	-1
894.104	2
894.839	0
895.574	2
896.309	1
897.044	0
897.779	2
898.514	0
899.248	3
899.983	-1
900.717	1
901.452	3
902.186	1
902.92	1
903.654	0
904.389	3
905.123	1
905.857	2
906.59	1
907.324	1
908.058	2
908.792	2
909.525	0
910.259	1
910.992	-1
911.726	1
912.459	1
913.192	3
913.925	-1
914.658	2
915.391	1
916.124	-1
916.857	1
917.59	-1
918.323	-1
919.055	2
919.788	1
920.521	0
921.253	0
921.985	2
922.718	0
923.45	1
924.182	1
924.914	-1
925.646	2
926.378	-1
927.11	1
927.841	-1
928.573	2
929.305	1
930.036	-1
930.768	1
931.499	2
932.23	0
932.962	0
933.693	0
934.424	0
935.155	-1
935.886	2
936.617	-1
937.348	1
938.078	3
938.809	-1
939.54	1
940.27	-3
941.001	2
941.731	2
942.461	0
943.191	-1
943.922	-2
944.652	0
945.382	-1
946.112	-1
946.841	0
947.571	2
948.301	0
949.031	0
949.76	0
950.49	-1
951.219	0
951.948	1
952.678	1
953.407	0
954.136	0
954.865	2
955.594	0
956.323	1
957.052	2
957.78	1
958.509	2
959.238	0
959.966	-2
960.695	1
961.423	1
962.151	0
962.88	2
963.608	1
964.336	2
965.064	-1
965.792	2
966.52	-1
967.247	-1
967.975	-1
968.703	3
969.43	1
970.158	0
970.885	0
971.613	0
972.34	1
973.067	0
973.794	-2
974.521	1
975.248	-1
975.975	1
976.702	0
977.429	0
978.156	2
978.882	-1
979.609	-2
980.335	0
981.062	0
981.788	-1
982.514	3
983.24	-1
983.967	0
984.693	-1
985.419	-1
986.144	-1
986.87	0
987.596	-1
988.322	2
989.047	0
989.773	0
990.498	-1
991.224	0
991.949	1
992.674	0
993.399	2
994.124	-1
994.849	1
995.574	1
996.299	1
997.024	0
997.749	1
998.473	1
999.198	-1
999.922	1
1000.647	0
1001.371	2
1002.095	-2
1002.82	0
1003.544	1
1004.268	4
1004.992	1
1005.716	7
1006.439	6
1007.163	6
1007.887	6
1008.611	-1
1009.334	-1
1010.058	-1
1010.781	2
1011.504	0
1012.228	-1
1012.951	0
1013.674	0
1014.397	1
1015.12	-2
