节点500_705_QEPB04081__130__20-48-03-081.txt的数据

Date: Wed Nov 12 20:48:03 CST 2025
User: PC
Spectrometer: QEPB0408
触发模式: 0
积分时间 (秒): 1.000000E-2
Scans to average: 1
启用暗噪声校正: true
启用非线性校正: false
滑动平均宽度: 0
X轴模式: Wavelengths
Number of Pixels in Spectrum: 1044
>>>>>Begin Spectral Data<<<<<
220.843	8.38
221.644	5.38
222.444	4.38
223.244	5.38
224.045	5.38
224.845	7.38
225.645	8.38
226.445	5.38
227.245	7.38
228.045	8.38
228.845	7.38
229.645	9.38
230.444	7.38
231.244	6.38
232.043	10.38
232.843	8.38
233.642	8.38
234.442	10.38
235.241	9.38
236.04	13.38
236.839	9.38
237.638	10.38
238.437	13.38
239.236	13.38
240.035	13.38
240.833	8.38
241.632	11.38
242.43	14.38
243.229	14.38
244.027	12.38
244.826	13.38
245.624	15.38
246.422	16.38
247.22	15.38
248.018	16.38
248.816	18.38
249.614	18.38
250.412	18.38
251.21	21.38
252.007	16.38
252.805	18.38
253.602	20.38
254.4	18.38
255.197	21.38
255.994	20.38
256.791	21.38
257.589	24.38
258.386	22.38
259.183	26.38
259.979	22.38
260.776	21.38
261.573	23.38
262.37	26.38
263.166	27.38
263.963	28.38
264.759	25.38
265.556	26.38
266.352	27.38
267.148	29.38
267.944	29.38
268.74	32.38
269.536	31.38
270.332	33.38
271.128	31.38
271.924	36.38
272.719	33.38
273.515	34.38
274.311	34.38
275.106	35.38
275.901	35.38
276.697	35.38
277.492	38.38
278.287	34.38
279.082	36.38
279.877	38.38
280.672	37.38
281.467	34.38
282.262	38.38
283.056	36.38
283.851	35.38
284.646	37.38
285.44	34.38
286.234	36.38
287.029	38.38
287.823	38.38
288.617	33.38
289.411	36.38
290.205	31.38
290.999	31.38
291.793	32.38
292.587	31.38
293.381	28.38
294.174	29.38
294.968	29.38
295.761	27.38
296.555	29.38
297.348	28.38
298.141	26.38
298.935	31.38
299.728	29.38
300.521	27.38
301.314	23.38
302.107	24.38
302.899	23.38
303.692	19.38
304.485	21.38
305.277	24.38
306.07	27.38
306.862	21.38
307.655	23.38
308.447	22.38
309.239	20.38
310.031	21.38
310.823	18.38
311.615	19.38
312.407	21.38
313.199	18.38
313.991	18.38
314.783	15.38
315.574	15.38
316.366	14.38
317.157	15.38
317.949	16.38
318.74	15.38
319.531	15.38
320.322	15.38
321.113	16.38
321.904	15.38
322.695	14.38
323.486	15.38
324.277	14.38
325.068	14.38
325.858	13.38
326.649	15.38
327.439	14.38
328.23	10.38
329.02	12.38
329.81	12.38
330.6	13.38
331.391	12.38
332.181	12.38
332.971	12.38
333.76	12.38
334.55	13.38
335.34	10.38
336.13	14.38
336.919	11.38
337.709	12.38
338.498	15.38
339.287	9.38
340.077	11.38
340.866	14.38
341.655	10.38
342.444	11.38
343.233	13.38
344.022	12.38
344.811	12.38
345.6	10.38
346.388	10.38
347.177	12.38
347.965	10.38
348.754	11.38
349.542	13.38
350.33	9.38
351.119	9.38
351.907	15.38
352.695	12.38
353.483	11.38
354.271	11.38
355.059	12.38
355.846	13.38
356.634	10.38
357.422	10.38
358.209	13.38
358.997	14.38
359.784	11.38
360.571	9.38
361.359	12.38
362.146	9.38
362.933	9.38
363.72	11.38
364.507	10.38
365.294	6.38
366.081	9.38
366.867	10.38
367.654	9.38
368.44	11.38
369.227	9.38
370.013	11.38
370.8	12.38
371.586	11.38
372.372	10.38
373.158	11.38
373.944	10.38
374.73	9.38
375.516	11.38
376.302	12.38
377.088	8.38
377.873	10.38
378.659	11.38
379.445	9.38
380.23	12.38
381.015	11.38
381.801	9.38
382.586	11.38
383.371	9.38
384.156	10.38
384.941	12.38
385.726	14.38
386.511	11.38
387.296	13.38
388.08	12.38
388.865	11.38
389.649	12.38
390.434	12.38
391.218	11.38
392.003	11.38
392.787	12.38
393.571	10.38
394.355	12.38
395.139	11.38
395.923	11.38
396.707	15.38
397.491	15.38
398.274	16.38
399.058	12.38
399.842	12.38
400.625	15.38
401.408	15.38
402.192	13.38
402.975	14.38
403.758	16.38
404.541	13.38
405.324	14.38
406.107	16.38
406.89	14.38
407.673	15.38
408.456	17.38
409.238	18.38
410.021	19.38
410.803	17.38
411.586	19.38
412.368	19.38
413.151	18.38
413.933	18.38
414.715	19.38
415.497	19.38
416.279	17.38
417.061	21.38
417.843	22.38
418.624	19.38
419.406	19.38
420.188	20.38
420.969	19.38
421.751	22.38
422.532	22.38
423.313	23.38
424.095	22.38
424.876	24.38
425.657	26.38
426.438	25.38
427.219	27.38
428	31.38
428.78	31.38
429.561	27.38
430.342	33.38
431.122	29.38
431.903	33.38
432.683	33.38
433.464	35.38
434.244	37.38
435.024	38.38
435.804	41.38
436.584	42.38
437.364	46.38
438.144	49.38
438.924	51.38
439.704	55.38
440.483	57.38
441.263	63.38
442.042	61.38
442.822	70.38
443.601	73.38
444.38	79.38
445.16	83.38
445.939	93.38
446.718	99.38
447.497	107.38
448.276	119.38
449.054	124.38
449.833	142.38
450.612	154.38
451.391	163.38
452.169	195.38
452.948	206.38
453.726	226.38
454.504	252.38
455.282	281.38
456.061	317.38
456.839	351.38
457.617	398.38
458.395	431.38
459.172	483.38
459.95	546.38
460.728	616.38
461.506	675.38
462.283	758.38
463.061	854.38
463.838	961.38
464.615	1065.38
465.393	1178.38
466.17	1320.38
466.947	1479.38
467.724	1620.38
468.501	1809.38
469.278	2028.38
470.055	2233.38
470.831	2470.38
471.608	2746.38
472.385	3028.38
473.161	3369.38
473.938	3714.38
474.714	4085.38
475.49	4527.38
476.266	4936.38
477.043	5451.38
477.819	5957.38
478.595	6548.38
479.371	7177.38
480.146	7842.38
480.922	8603.38
481.698	9412.38
482.473	10276.38
483.249	11251.38
484.024	12210.38
484.8	13326.38
485.575	14433.38
486.35	15724.38
487.126	17047.38
487.901	18476.38
488.676	20008.38
489.451	21636.38
490.225	23323.38
491	25058.38
491.775	26893.38
492.55	28680.38
493.324	30586.38
494.099	32405.38
494.873	34386.38
495.647	36367.38
496.422	38234.38
497.196	40136.38
497.97	41869.38
498.744	43383.38
499.518	44953.38
500.292	46305.38
501.066	47289.38
501.839	48025.38
502.613	48734.38
503.387	49128.38
504.16	49476.38
504.934	49285.38
505.707	49026.38
506.48	48390.38
507.253	47703.38
508.027	46735.38
508.8	45566.38
509.573	44332.38
510.346	43117.38
511.118	41858.38
511.891	40412.38
512.664	38751.38
513.437	37191.38
514.209	35778.38
514.982	34261.38
515.754	32862.38
516.526	31476.38
517.298	30213.38
518.071	28940.38
518.843	27791.38
519.615	26633.38
520.387	25651.38
521.159	24642.38
521.93	23461.38
522.702	22510.38
523.474	21583.38
524.245	20627.38
525.017	19753.38
525.788	18854.38
526.56	17977.38
527.331	17183.38
528.102	16315.38
528.873	15454.38
529.644	14712.38
530.415	14021.38
531.186	13347.38
531.957	12602.38
532.728	11975.38
533.498	11284.38
534.269	10679.38
535.039	10093.38
535.81	9583.38
536.58	8982.38
537.351	8540.38
538.121	8111.38
538.891	7670.38
539.661	7231.38
540.431	6840.38
541.201	6524.38
541.971	6158.38
542.741	5823.38
543.51	5542.38
544.28	5235.38
545.05	5032.38
545.819	4767.38
546.588	4567.38
547.358	4351.38
548.127	4120.38
548.896	3881.38
549.665	3724.38
550.434	3509.38
551.203	3308.38
551.972	3150.38
552.741	2981.38
553.51	2785.38
554.278	2630.38
555.047	2496.38
555.815	2364.38
556.584	2238.38
557.352	2099.38
558.121	1992.38
558.889	1862.38
559.657	1757.38
560.425	1677.38
561.193	1593.38
561.961	1522.38
562.729	1419.38
563.496	1342.38
564.264	1270.38
565.032	1199.38
565.799	1138.38
566.567	1076.38
567.334	1007.38
568.101	970.38
568.869	895.38
569.636	869.38
570.403	810.38
571.17	755.38
571.937	726.38
572.704	672.38
573.471	638.38
574.237	611.38
575.004	571.38
575.771	538.38
576.537	509.38
577.303	479.38
578.07	454.38
578.836	426.38
579.602	402.38
580.368	389.38
581.134	364.38
581.9	346.38
582.666	331.38
583.432	315.38
584.198	298.38
584.964	280.38
585.729	266.38
586.495	258.38
587.26	245.38
588.025	228.38
588.791	217.38
589.556	207.38
590.321	194.38
591.086	190.38
591.851	178.38
592.616	168.38
593.381	161.38
594.146	155.38
594.911	147.38
595.675	142.38
596.44	133.38
597.204	129.38
597.969	122.38
598.733	121.38
599.497	112.38
600.261	108.38
601.025	102.38
601.79	99.38
602.553	95.38
603.317	91.38
604.081	91.38
604.845	87.38
605.609	82.38
606.372	78.38
607.136	74.38
607.899	71.38
608.662	69.38
609.426	70.38
610.189	66.38
610.952	62.38
611.715	60.38
612.478	56.38
613.241	57.38
614.004	56.38
614.767	51.38
615.529	48.38
616.292	53.38
617.055	46.38
617.817	44.38
618.579	48.38
619.342	44.38
620.104	40.38
620.866	40.38
621.628	35.38
622.39	39.38
623.152	35.38
623.914	37.38
624.676	37.38
625.438	32.38
626.199	29.38
626.961	30.38
627.722	31.38
628.484	30.38
629.245	26.38
630.006	29.38
630.768	27.38
631.529	25.38
632.29	26.38
633.051	26.38
633.812	25.38
634.573	23.38
635.333	27.38
636.094	23.38
636.855	23.38
637.615	23.38
638.376	20.38
639.136	22.38
639.896	22.38
640.657	21.38
641.417	19.38
642.177	20.38
642.937	21.38
643.697	18.38
644.457	18.38
645.216	16.38
645.976	15.38
646.736	16.38
647.495	16.38
648.255	14.38
649.014	13.38
649.774	15.38
650.533	14.38
651.292	15.38
652.051	14.38
652.81	14.38
653.569	14.38
654.328	11.38
655.087	14.38
655.846	15.38
656.604	10.38
657.363	13.38
658.121	13.38
658.88	11.38
659.638	11.38
660.397	11.38
661.155	11.38
661.913	12.38
662.671	9.38
663.429	10.38
664.187	11.38
664.945	9.38
665.703	12.38
666.46	8.38
667.218	10.38
667.976	12.38
668.733	9.38
669.49	12.38
670.248	9.38
671.005	10.38
671.762	10.38
672.519	8.38
673.276	13.38
674.033	9.38
674.79	7.38
675.547	9.38
676.304	10.38
677.06	9.38
677.817	7.38
678.574	10.38
679.33	10.38
680.086	11.38
680.843	8.38
681.599	7.38
682.355	9.38
683.111	8.38
683.867	9.38
684.623	9.38
685.379	7.38
686.135	8.38
686.89	8.38
687.646	8.38
688.402	6.38
689.157	9.38
689.912	7.38
690.668	9.38
691.423	9.38
692.178	9.38
692.933	6.38
693.688	7.38
694.443	9.38
695.198	9.38
695.953	7.38
696.708	6.38
697.462	11.38
698.217	8.38
698.972	5.38
699.726	8.38
700.48	9.38
701.235	8.38
701.989	7.38
702.743	7.38
703.497	8.38
704.251	8.38
705.005	7.38
705.759	8.38
706.513	9.38
707.266	8.38
708.02	7.38
708.774	7.38
709.527	8.38
710.28	8.38
711.034	8.38
711.787	11.38
712.54	7.38
713.293	8.38
714.046	6.38
714.799	8.38
715.552	6.38
716.305	8.38
717.058	9.38
717.81	8.38
718.563	8.38
719.315	8.38
720.068	7.38
720.82	9.38
721.573	8.38
722.325	8.38
723.077	9.38
723.829	8.38
724.581	8.38
725.333	9.38
726.085	7.38
726.836	8.38
727.588	10.38
728.34	10.38
729.091	10.38
729.843	8.38
730.594	9.38
731.346	8.38
732.097	11.38
732.848	12.38
733.599	9.38
734.35	10.38
735.101	11.38
735.852	10.38
736.603	8.38
737.354	10.38
738.104	11.38
738.855	9.38
739.605	8.38
740.356	9.38
741.106	11.38
741.856	10.38
742.607	8.38
743.357	12.38
744.107	12.38
744.857	10.38
745.607	13.38
746.357	10.38
747.106	11.38
747.856	13.38
748.606	12.38
749.355	11.38
750.105	11.38
750.854	11.38
751.603	10.38
752.353	12.38
753.102	13.38
753.851	11.38
754.6	10.38
755.349	13.38
756.098	12.38
756.847	12.38
757.595	13.38
758.344	11.38
759.093	14.38
759.841	13.38
760.589	13.38
761.338	13.38
762.086	14.38
762.834	15.38
763.582	13.38
764.331	14.38
765.079	15.38
765.826	13.38
766.574	17.38
767.322	14.38
768.07	13.38
768.817	13.38
769.565	13.38
770.312	13.38
771.06	18.38
771.807	18.38
772.554	18.38
773.302	16.38
774.049	16.38
774.796	15.38
775.543	14.38
776.29	16.38
777.036	16.38
777.783	17.38
778.53	15.38
779.276	16.38
780.023	15.38
780.769	19.38
781.516	16.38
782.262	14.38
783.008	17.38
783.754	18.38
784.5	16.38
785.246	15.38
785.992	17.38
786.738	15.38
787.484	16.38
788.23	16.38
788.975	13.38
789.721	15.38
790.466	15.38
791.212	13.38
791.957	14.38
792.702	15.38
793.447	14.38
794.193	15.38
794.938	13.38
795.683	15.38
796.427	14.38
797.172	13.38
797.917	13.38
798.662	15.38
799.406	13.38
800.151	13.38
800.895	11.38
801.64	12.38
802.384	13.38
803.128	14.38
803.872	12.38
804.616	14.38
805.36	10.38
806.104	14.38
806.848	12.38
807.592	13.38
808.336	10.38
809.079	10.38
809.823	12.38
810.566	8.38
811.31	10.38
812.053	8.38
812.796	10.38
813.539	8.38
814.283	11.38
815.026	10.38
815.769	9.38
816.511	7.38
817.254	9.38
817.997	8.38
818.74	9.38
819.482	9.38
820.225	6.38
820.967	9.38
821.71	8.38
822.452	7.38
823.194	9.38
823.936	6.38
824.678	6.38
825.42	10.38
826.162	9.38
826.904	7.38
827.646	6.38
828.388	7.38
829.129	8.38
829.871	6.38
830.612	5.38
831.354	3.38
832.095	7.38
832.836	6.38
833.577	7.38
834.319	6.38
835.06	5.38
835.801	7.38
836.542	7.38
837.282	6.38
838.023	6.38
838.764	5.38
839.504	5.38
840.245	6.38
840.985	5.38
841.726	5.38
842.466	6.38
843.206	6.38
843.946	3.38
844.687	4.38
845.427	6.38
846.166	3.38
846.906	5.38
847.646	8.38
848.386	5.38
849.125	6.38
849.865	5.38
850.605	5.38
851.344	6.38
852.083	4.38
852.823	5.38
853.562	5.38
854.301	4.38
855.04	3.38
855.779	5.38
856.518	5.38
857.257	4.38
857.995	5.38
858.734	6.38
859.473	3.38
860.211	5.38
860.95	3.38
861.688	3.38
862.426	5.38
863.165	2.38
863.903	4.38
864.641	3.38
865.379	1.38
866.117	3.38
866.855	-0.62
867.593	2.38
868.33	4.38
869.068	0.38
869.806	5.38
870.543	1.38
871.28	3.38
872.018	3.38
872.755	4.38
873.492	3.38
874.229	3.38
874.967	3.38
875.703	2.38
876.44	1.38
877.177	2.38
877.914	4.38
878.651	1.38
879.387	4.38
880.124	3.38
880.86	3.38
881.597	2.38
882.333	1.38
883.069	1.38
883.806	3.38
884.542	3.38
885.278	1.38
886.014	1.38
886.749	4.38
887.485	0.38
888.221	1.38
888.957	-0.62
889.692	0.38
890.428	2.38
891.163	0.38
891.899	1.38
892.634	3.38
893.369	0.38
894.104	2.38
894.839	0.38
895.574	3.38
896.309	2.38
897.044	2.38
897.779	3.38
898.514	-0.62
899.248	1.38
899.983	1.38
900.717	1.38
901.452	2.38
902.186	2.38
902.92	0.38
903.654	1.38
904.389	1.38
905.123	-0.62
905.857	2.38
906.59	2.38
907.324	0.38
908.058	0.38
908.792	1.38
909.525	1.38
910.259	1.38
910.992	0.38
911.726	3.38
912.459	3.38
913.192	-0.62
913.925	1.38
914.658	1.38
915.391	2.38
916.124	-0.62
916.857	1.38
917.59	1.38
918.323	0.38
919.055	2.38
919.788	0.38
920.521	-0.62
921.253	1.38
921.985	0.38
922.718	1.38
923.45	0.38
924.182	1.38
924.914	2.38
925.646	1.38
926.378	-2.62
927.11	1.38
927.841	0.38
928.573	0.38
929.305	0.38
930.036	0.38
930.768	3.38
931.499	-0.62
932.23	3.38
932.962	1.38
933.693	1.38
934.424	1.38
935.155	-0.62
935.886	0.38
936.617	0.38
937.348	1.38
938.078	-0.62
938.809	2.38
939.54	1.38
940.27	-0.62
941.001	1.38
941.731	2.38
942.461	0.38
943.191	2.38
943.922	1.38
944.652	1.38
945.382	1.38
946.112	0.38
946.841	2.38
947.571	1.38
948.301	2.38
949.031	0.38
949.76	1.38
950.49	0.38
951.219	2.38
951.948	2.38
952.678	2.38
953.407	2.38
954.136	-0.62
954.865	1.38
955.594	1.38
956.323	-0.62
957.052	0.38
957.78	-0.62
958.509	1.38
959.238	0.38
959.966	-0.62
960.695	1.38
961.423	2.38
962.151	1.38
962.88	0.38
963.608	-0.62
964.336	-0.62
965.064	3.38
965.792	-0.62
966.52	-0.62
967.247	-0.62
967.975	0.38
968.703	0.38
969.43	-1.62
970.158	-0.62
970.885	1.38
971.613	1.38
972.34	2.38
973.067	-0.62
973.794	2.38
974.521	0.38
975.248	-1.62
975.975	1.38
976.702	-1.62
977.429	0.38
978.156	1.38
978.882	1.38
979.609	-0.62
980.335	-0.62
981.062	0.38
981.788	2.38
982.514	1.38
983.24	1.38
983.967	1.38
984.693	0.38
985.419	1.38
986.144	-0.62
986.87	-0.62
987.596	1.38
988.322	1.38
989.047	1.38
989.773	2.38
990.498	-0.62
991.224	1.38
991.949	1.38
992.674	0.38
993.399	1.38
994.124	0.38
994.849	0.38
995.574	-0.62
996.299	3.38
997.024	1.38
997.749	0.38
998.473	2.38
999.198	1.38
999.922	-1.62
1000.647	3.38
1001.371	3.38
1002.095	-1.62
1002.82	-0.62
1003.544	1.38
1004.268	4.38
1004.992	4.38
1005.716	5.38
1006.439	9.38
1007.163	6.38
1007.887	4.38
1008.611	1.38
1009.334	2.38
1010.058	-0.62
1010.781	1.38
1011.504	0.38
1012.228	2.38
1012.951	0.38
1013.674	0.38
1014.397	-0.62
1015.12	-2.62
