节点500_705_QEPB04081__435__20-52-06-700.txt的数据

Date: Wed Nov 12 20:52:06 CST 2025
User: PC
Spectrometer: QEPB0408
触发模式: 0
积分时间 (秒): 1.000000E-2
Scans to average: 1
启用暗噪声校正: true
启用非线性校正: false
滑动平均宽度: 0
X轴模式: Wavelengths
Number of Pixels in Spectrum: 1044
>>>>>Begin Spectral Data<<<<<
220.843	3.88
221.644	2.88
222.444	3.88
223.244	5.88
224.045	4.88
224.845	2.88
225.645	5.88
226.445	6.88
227.245	8.88
228.045	5.88
228.845	7.88
229.645	8.88
230.444	5.88
231.244	5.88
232.043	8.88
232.843	7.88
233.642	9.88
234.442	10.88
235.241	9.88
236.04	9.88
236.839	10.88
237.638	9.88
238.437	10.88
239.236	10.88
240.035	9.88
240.833	10.88
241.632	8.88
242.43	11.88
243.229	12.88
244.027	12.88
244.826	13.88
245.624	12.88
246.422	14.88
247.22	12.88
248.018	12.88
248.816	15.88
249.614	13.88
250.412	12.88
251.21	14.88
252.007	15.88
252.805	15.88
253.602	14.88
254.4	18.88
255.197	17.88
255.994	18.88
256.791	18.88
257.589	16.88
258.386	17.88
259.183	22.88
259.979	18.88
260.776	22.88
261.573	21.88
262.37	24.88
263.166	24.88
263.963	26.88
264.759	22.88
265.556	27.88
266.352	23.88
267.148	26.88
267.944	25.88
268.74	26.88
269.536	26.88
270.332	28.88
271.128	26.88
271.924	32.88
272.719	28.88
273.515	28.88
274.311	31.88
275.106	33.88
275.901	30.88
276.697	32.88
277.492	31.88
278.287	30.88
279.082	31.88
279.877	33.88
280.672	34.88
281.467	32.88
282.262	34.88
283.056	32.88
283.851	33.88
284.646	31.88
285.44	34.88
286.234	34.88
287.029	33.88
287.823	31.88
288.617	30.88
289.411	30.88
290.205	30.88
290.999	30.88
291.793	32.88
292.587	29.88
293.381	26.88
294.174	28.88
294.968	25.88
295.761	26.88
296.555	26.88
297.348	27.88
298.141	25.88
298.935	27.88
299.728	25.88
300.521	23.88
301.314	24.88
302.107	23.88
302.899	23.88
303.692	23.88
304.485	21.88
305.277	22.88
306.07	21.88
306.862	20.88
307.655	22.88
308.447	18.88
309.239	19.88
310.031	20.88
310.823	15.88
311.615	17.88
312.407	16.88
313.199	17.88
313.991	17.88
314.783	18.88
315.574	14.88
316.366	17.88
317.157	15.88
317.949	14.88
318.74	15.88
319.531	13.88
320.322	11.88
321.113	14.88
321.904	10.88
322.695	13.88
323.486	8.88
324.277	12.88
325.068	11.88
325.858	14.88
326.649	13.88
327.439	11.88
328.23	12.88
329.02	9.88
329.81	10.88
330.6	12.88
331.391	11.88
332.181	15.88
332.971	11.88
333.76	9.88
334.55	12.88
335.34	10.88
336.13	11.88
336.919	10.88
337.709	10.88
338.498	10.88
339.287	12.88
340.077	13.88
340.866	8.88
341.655	9.88
342.444	10.88
343.233	10.88
344.022	8.88
344.811	10.88
345.6	9.88
346.388	12.88
347.177	10.88
347.965	8.88
348.754	12.88
349.542	10.88
350.33	11.88
351.119	10.88
351.907	9.88
352.695	13.88
353.483	11.88
354.271	9.88
355.059	9.88
355.846	11.88
356.634	11.88
357.422	9.88
358.209	11.88
358.997	10.88
359.784	10.88
360.571	9.88
361.359	8.88
362.146	11.88
362.933	10.88
363.72	10.88
364.507	9.88
365.294	10.88
366.081	9.88
366.867	9.88
367.654	10.88
368.44	10.88
369.227	9.88
370.013	8.88
370.8	8.88
371.586	9.88
372.372	9.88
373.158	9.88
373.944	7.88
374.73	9.88
375.516	9.88
376.302	7.88
377.088	8.88
377.873	9.88
378.659	10.88
379.445	10.88
380.23	7.88
381.015	9.88
381.801	9.88
382.586	8.88
383.371	7.88
384.156	11.88
384.941	10.88
385.726	8.88
386.511	11.88
387.296	8.88
388.08	9.88
388.865	10.88
389.649	12.88
390.434	11.88
391.218	10.88
392.003	11.88
392.787	9.88
393.571	11.88
394.355	10.88
395.139	9.88
395.923	13.88
396.707	12.88
397.491	13.88
398.274	14.88
399.058	9.88
399.842	15.88
400.625	13.88
401.408	13.88
402.192	13.88
402.975	14.88
403.758	11.88
404.541	12.88
405.324	15.88
406.107	12.88
406.89	13.88
407.673	14.88
408.456	15.88
409.238	15.88
410.021	14.88
410.803	15.88
411.586	13.88
412.368	17.88
413.151	16.88
413.933	16.88
414.715	15.88
415.497	17.88
416.279	17.88
417.061	17.88
417.843	21.88
418.624	20.88
419.406	20.88
420.188	21.88
420.969	20.88
421.751	21.88
422.532	20.88
423.313	21.88
424.095	22.88
424.876	23.88
425.657	23.88
426.438	26.88
427.219	23.88
428	25.88
428.78	26.88
429.561	26.88
430.342	29.88
431.122	30.88
431.903	29.88
432.683	31.88
433.464	34.88
434.244	34.88
435.024	40.88
435.804	42.88
436.584	42.88
437.364	45.88
438.144	44.88
438.924	49.88
439.704	53.88
440.483	54.88
441.263	60.88
442.042	67.88
442.822	70.88
443.601	73.88
444.38	82.88
445.16	86.88
445.939	94.88
446.718	104.88
447.497	116.88
448.276	121.88
449.054	135.88
449.833	146.88
450.612	166.88
451.391	183.88
452.169	196.88
452.948	224.88
453.726	252.88
454.504	274.88
455.282	305.88
456.061	342.88
456.839	380.88
457.617	417.88
458.395	472.88
459.172	524.88
459.95	594.88
460.728	652.88
461.506	716.88
462.283	811.88
463.061	897.88
463.838	991.88
464.615	1113.88
465.393	1244.88
466.17	1366.88
466.947	1535.88
467.724	1681.88
468.501	1868.88
469.278	2074.88
470.055	2268.88
470.831	2502.88
471.608	2764.88
472.385	3029.88
473.161	3325.88
473.938	3650.88
474.714	4016.88
475.49	4400.88
476.266	4808.88
477.043	5278.88
477.819	5753.88
478.595	6247.88
479.371	6805.88
480.146	7423.88
480.922	8051.88
481.698	8762.88
482.473	9524.88
483.249	10308.88
484.024	11230.88
484.8	12133.88
485.575	13062.88
486.35	14172.88
487.126	15368.88
487.901	16554.88
488.676	17872.88
489.451	19218.88
490.225	20626.88
491	22137.88
491.775	23634.88
492.55	25268.88
493.324	26821.88
494.099	28585.88
494.873	30242.88
495.647	31940.88
496.422	33624.88
497.196	35377.88
497.97	36965.88
498.744	38448.88
499.518	40023.88
500.292	41414.88
501.066	42504.88
501.839	43385.88
502.613	44360.88
503.387	44938.88
504.16	45491.88
504.934	45753.88
505.707	45848.88
506.48	45533.88
507.253	45167.88
508.027	44730.88
508.8	43885.88
509.573	42971.88
510.346	42133.88
511.118	41152.88
511.891	40060.88
512.664	38665.88
513.437	37288.88
514.209	35964.88
514.982	34528.88
515.754	33206.88
516.526	31929.88
517.298	30704.88
518.071	29482.88
518.843	28253.88
519.615	27126.88
520.387	26090.88
521.159	25057.88
521.93	24042.88
522.702	23037.88
523.474	22112.88
524.245	21201.88
525.017	20337.88
525.788	19485.88
526.56	18623.88
527.331	17847.88
528.102	16979.88
528.873	16124.88
529.644	15348.88
530.415	14604.88
531.186	13941.88
531.957	13253.88
532.728	12594.88
533.498	11937.88
534.269	11289.88
535.039	10715.88
535.81	10123.88
536.58	9587.88
537.351	9085.88
538.121	8598.88
538.891	8143.88
539.661	7667.88
540.431	7258.88
541.201	6925.88
541.971	6577.88
542.741	6190.88
543.51	5878.88
544.28	5572.88
545.05	5336.88
545.819	5067.88
546.588	4858.88
547.358	4610.88
548.127	4400.88
548.896	4160.88
549.665	3936.88
550.434	3780.88
551.203	3561.88
551.972	3392.88
552.741	3203.88
553.51	3020.88
554.278	2830.88
555.047	2688.88
555.815	2555.88
556.584	2434.88
557.352	2278.88
558.121	2162.88
558.889	2043.88
559.657	1936.88
560.425	1807.88
561.193	1735.88
561.961	1635.88
562.729	1560.88
563.496	1450.88
564.264	1376.88
565.032	1317.88
565.799	1235.88
566.567	1162.88
567.334	1099.88
568.101	1040.88
568.869	987.88
569.636	933.88
570.403	879.88
571.17	836.88
571.937	784.88
572.704	732.88
573.471	699.88
574.237	652.88
575.004	618.88
575.771	579.88
576.537	555.88
577.303	519.88
578.07	497.88
578.836	465.88
579.602	439.88
580.368	416.88
581.134	400.88
581.9	384.88
582.666	358.88
583.432	341.88
584.198	326.88
584.964	307.88
585.729	299.88
586.495	270.88
587.26	250.88
588.025	243.88
588.791	231.88
589.556	221.88
590.321	210.88
591.086	204.88
591.851	193.88
592.616	185.88
593.381	170.88
594.146	167.88
594.911	155.88
595.675	148.88
596.44	145.88
597.204	136.88
597.969	133.88
598.733	132.88
599.497	117.88
600.261	115.88
601.025	107.88
601.79	106.88
602.553	97.88
603.317	95.88
604.081	89.88
604.845	88.88
605.609	88.88
606.372	75.88
607.136	81.88
607.899	79.88
608.662	72.88
609.426	69.88
610.189	65.88
610.952	64.88
611.715	63.88
612.478	59.88
613.241	60.88
614.004	56.88
614.767	53.88
615.529	53.88
616.292	48.88
617.055	52.88
617.817	46.88
618.579	49.88
619.342	41.88
620.104	43.88
620.866	43.88
621.628	38.88
622.39	40.88
623.152	36.88
623.914	36.88
624.676	36.88
625.438	35.88
626.199	30.88
626.961	32.88
627.722	30.88
628.484	27.88
629.245	30.88
630.006	26.88
630.768	29.88
631.529	25.88
632.29	27.88
633.051	26.88
633.812	24.88
634.573	23.88
635.333	21.88
636.094	24.88
636.855	22.88
637.615	22.88
638.376	20.88
639.136	18.88
639.896	19.88
640.657	21.88
641.417	19.88
642.177	17.88
642.937	14.88
643.697	18.88
644.457	17.88
645.216	14.88
645.976	16.88
646.736	12.88
647.495	16.88
648.255	14.88
649.014	14.88
649.774	13.88
650.533	14.88
651.292	13.88
652.051	11.88
652.81	12.88
653.569	13.88
654.328	12.88
655.087	12.88
655.846	11.88
656.604	12.88
657.363	10.88
658.121	12.88
658.88	10.88
659.638	10.88
660.397	10.88
661.155	8.88
661.913	8.88
662.671	7.88
663.429	10.88
664.187	9.88
664.945	11.88
665.703	10.88
666.46	9.88
667.218	8.88
667.976	8.88
668.733	10.88
669.49	7.88
670.248	9.88
671.005	8.88
671.762	7.88
672.519	9.88
673.276	8.88
674.033	10.88
674.79	12.88
675.547	9.88
676.304	9.88
677.06	10.88
677.817	7.88
678.574	7.88
679.33	6.88
680.086	7.88
680.843	6.88
681.599	9.88
682.355	6.88
683.111	10.88
683.867	7.88
684.623	6.88
685.379	7.88
686.135	7.88
686.89	7.88
687.646	8.88
688.402	5.88
689.157	7.88
689.912	7.88
690.668	7.88
691.423	7.88
692.178	8.88
692.933	8.88
693.688	4.88
694.443	7.88
695.198	7.88
695.953	5.88
696.708	7.88
697.462	5.88
698.217	6.88
698.972	7.88
699.726	6.88
700.48	7.88
701.235	8.88
701.989	6.88
702.743	4.88
703.497	9.88
704.251	8.88
705.005	6.88
705.759	7.88
706.513	6.88
707.266	8.88
708.02	4.88
708.774	5.88
709.527	7.88
710.28	6.88
711.034	7.88
711.787	4.88
712.54	9.88
713.293	5.88
714.046	8.88
714.799	6.88
715.552	8.88
716.305	6.88
717.058	6.88
717.81	7.88
718.563	7.88
719.315	9.88
720.068	5.88
720.82	6.88
721.573	7.88
722.325	8.88
723.077	8.88
723.829	6.88
724.581	6.88
725.333	8.88
726.085	8.88
726.836	7.88
727.588	7.88
728.34	10.88
729.091	9.88
729.843	8.88
730.594	8.88
731.346	6.88
732.097	8.88
732.848	10.88
733.599	8.88
734.35	7.88
735.101	6.88
735.852	11.88
736.603	9.88
737.354	11.88
738.104	7.88
738.855	5.88
739.605	9.88
740.356	6.88
741.106	9.88
741.856	9.88
742.607	8.88
743.357	8.88
744.107	8.88
744.857	10.88
745.607	10.88
746.357	13.88
747.106	9.88
747.856	8.88
748.606	8.88
749.355	9.88
750.105	10.88
750.854	10.88
751.603	10.88
752.353	10.88
753.102	10.88
753.851	10.88
754.6	10.88
755.349	12.88
756.098	11.88
756.847	12.88
757.595	11.88
758.344	10.88
759.093	13.88
759.841	10.88
760.589	11.88
761.338	9.88
762.086	11.88
762.834	9.88
763.582	13.88
764.331	10.88
765.079	10.88
765.826	14.88
766.574	13.88
767.322	12.88
768.07	13.88
768.817	12.88
769.565	11.88
770.312	15.88
771.06	13.88
771.807	12.88
772.554	14.88
773.302	14.88
774.049	12.88
774.796	14.88
775.543	11.88
776.29	14.88
777.036	15.88
777.783	14.88
778.53	14.88
779.276	13.88
780.023	14.88
780.769	16.88
781.516	14.88
782.262	13.88
783.008	15.88
783.754	16.88
784.5	14.88
785.246	11.88
785.992	15.88
786.738	14.88
787.484	15.88
788.23	15.88
788.975	13.88
789.721	14.88
790.466	11.88
791.212	12.88
791.957	11.88
792.702	16.88
793.447	14.88
794.193	10.88
794.938	14.88
795.683	12.88
796.427	12.88
797.172	12.88
797.917	12.88
798.662	10.88
799.406	9.88
800.151	10.88
800.895	11.88
801.64	9.88
802.384	11.88
803.128	11.88
803.872	10.88
804.616	9.88
805.36	12.88
806.104	12.88
806.848	11.88
807.592	10.88
808.336	9.88
809.079	9.88
809.823	8.88
810.566	7.88
811.31	8.88
812.053	10.88
812.796	8.88
813.539	4.88
814.283	9.88
815.026	6.88
815.769	7.88
816.511	9.88
817.254	8.88
817.997	7.88
818.74	8.88
819.482	6.88
820.225	4.88
820.967	9.88
821.71	5.88
822.452	7.88
823.194	5.88
823.936	5.88
824.678	8.88
825.42	7.88
826.162	5.88
826.904	7.88
827.646	7.88
828.388	7.88
829.129	4.88
829.871	6.88
830.612	6.88
831.354	4.88
832.095	5.88
832.836	4.88
833.577	7.88
834.319	5.88
835.06	6.88
835.801	5.88
836.542	0.88
837.282	5.88
838.023	4.88
838.764	4.88
839.504	5.88
840.245	2.88
840.985	5.88
841.726	5.88
842.466	3.88
843.206	5.88
843.946	5.88
844.687	4.88
845.427	4.88
846.166	5.88
846.906	6.88
847.646	4.88
848.386	2.88
849.125	3.88
849.865	5.88
850.605	4.88
851.344	5.88
852.083	4.88
852.823	4.88
853.562	5.88
854.301	5.88
855.04	3.88
855.779	3.88
856.518	2.88
857.257	4.88
857.995	5.88
858.734	3.88
859.473	4.88
860.211	3.88
860.95	5.88
861.688	3.88
862.426	2.88
863.165	3.88
863.903	3.88
864.641	4.88
865.379	2.88
866.117	2.88
866.855	4.88
867.593	1.88
868.33	0.88
869.068	3.88
869.806	0.88
870.543	4.88
871.28	2.88
872.018	1.88
872.755	2.88
873.492	0.88
874.229	2.88
874.967	2.88
875.703	3.88
876.44	2.88
877.177	1.88
877.914	-0.12
878.651	1.88
879.387	1.88
880.124	0.88
880.86	2.88
881.597	0.88
882.333	2.88
883.069	0.88
883.806	1.88
884.542	4.88
885.278	1.88
886.014	1.88
886.749	-0.12
887.485	0.88
888.221	1.88
888.957	-1.12
889.692	2.88
890.428	0.88
891.163	1.88
891.899	0.88
892.634	1.88
893.369	0.88
894.104	-1.12
894.839	1.88
895.574	2.88
896.309	-2.12
897.044	0.88
897.779	1.88
898.514	0.88
899.248	1.88
899.983	1.88
900.717	2.88
901.452	-2.12
902.186	2.88
902.92	-0.12
903.654	2.88
904.389	0.88
905.123	1.88
905.857	-0.12
906.59	1.88
907.324	0.88
908.058	1.88
908.792	-0.12
909.525	0.88
910.259	-1.12
910.992	0.88
911.726	0.88
912.459	1.88
913.192	-0.12
913.925	1.88
914.658	-0.12
915.391	-0.12
916.124	0.88
916.857	-1.12
917.59	-1.12
918.323	3.88
919.055	-1.12
919.788	-0.12
920.521	-1.12
921.253	2.88
921.985	0.88
922.718	0.88
923.45	-0.12
924.182	-1.12
924.914	0.88
925.646	-1.12
926.378	-0.12
927.11	-1.12
927.841	-0.12
928.573	0.88
929.305	-1.12
930.036	0.88
930.768	-0.12
931.499	-1.12
932.23	-1.12
932.962	0.88
933.693	1.88
934.424	0.88
935.155	1.88
935.886	2.88
936.617	0.88
937.348	1.88
938.078	-1.12
938.809	-0.12
939.54	-1.12
940.27	-0.12
941.001	0.88
941.731	-1.12
942.461	0.88
943.191	-0.12
943.922	-2.12
944.652	-2.12
945.382	-0.12
946.112	-1.12
946.841	-1.12
947.571	0.88
948.301	1.88
949.031	-0.12
949.76	-0.12
950.49	-1.12
951.219	-0.12
951.948	-1.12
952.678	-3.12
953.407	-0.12
954.136	-0.12
954.865	-1.12
955.594	-0.12
956.323	1.88
957.052	-1.12
957.78	-0.12
958.509	-0.12
959.238	-2.12
959.966	-1.12
960.695	0.88
961.423	-0.12
962.151	0.88
962.88	-0.12
963.608	-1.12
964.336	0.88
965.064	0.88
965.792	-2.12
966.52	2.88
967.247	-1.12
967.975	-1.12
968.703	0.88
969.43	-1.12
970.158	0.88
970.885	-0.12
971.613	1.88
972.34	1.88
973.067	-1.12
973.794	-0.12
974.521	-1.12
975.248	2.88
975.975	-2.12
976.702	0.88
977.429	-0.12
978.156	0.88
978.882	-0.12
979.609	0.88
980.335	1.88
981.062	1.88
981.788	1.88
982.514	0.88
983.24	-2.12
983.967	0.88
984.693	-1.12
985.419	0.88
986.144	-2.12
986.87	-0.12
987.596	-1.12
988.322	0.88
989.047	0.88
989.773	-1.12
990.498	-0.12
991.224	0.88
991.949	-1.12
992.674	-0.12
993.399	0.88
994.124	0.88
994.849	-0.12
995.574	0.88
996.299	-0.12
997.024	0.88
997.749	2.88
998.473	-0.12
999.198	0.88
999.922	-0.12
1000.647	-0.12
1001.371	4.88
1002.095	-0.12
1002.82	-1.12
1003.544	-3.12
1004.268	4.88
1004.992	4.88
1005.716	4.88
1006.439	5.88
1007.163	2.88
1007.887	4.88
1008.611	0.88
1009.334	-0.12
1010.058	1.88
1010.781	-0.12
1011.504	-1.12
1012.228	1.88
1012.951	-0.12
1013.674	0.88
1014.397	-1.12
1015.12	-0.12
