节点500_705_QEPB04081__163__20-48-34-041.txt的数据

Date: Wed Nov 12 20:48:34 CST 2025
User: PC
Spectrometer: QEPB0408
触发模式: 0
积分时间 (秒): 1.000000E-2
Scans to average: 1
启用暗噪声校正: true
启用非线性校正: false
滑动平均宽度: 0
X轴模式: Wavelengths
Number of Pixels in Spectrum: 1044
>>>>>Begin Spectral Data<<<<<
220.843	5.88
221.644	5.88
222.444	5.88
223.244	5.88
224.045	8.88
224.845	4.88
225.645	5.88
226.445	5.88
227.245	5.88
228.045	6.88
228.845	5.88
229.645	7.88
230.444	9.88
231.244	6.88
232.043	7.88
232.843	7.88
233.642	9.88
234.442	8.88
235.241	9.88
236.04	9.88
236.839	8.88
237.638	11.88
238.437	10.88
239.236	12.88
240.035	12.88
240.833	10.88
241.632	13.88
242.43	11.88
243.229	10.88
244.027	11.88
244.826	13.88
245.624	10.88
246.422	13.88
247.22	10.88
248.018	15.88
248.816	15.88
249.614	15.88
250.412	17.88
251.21	14.88
252.007	18.88
252.805	17.88
253.602	18.88
254.4	16.88
255.197	17.88
255.994	21.88
256.791	18.88
257.589	24.88
258.386	21.88
259.183	24.88
259.979	24.88
260.776	23.88
261.573	21.88
262.37	23.88
263.166	23.88
263.963	24.88
264.759	27.88
265.556	26.88
266.352	26.88
267.148	29.88
267.944	26.88
268.74	28.88
269.536	30.88
270.332	28.88
271.128	31.88
271.924	34.88
272.719	31.88
273.515	32.88
274.311	34.88
275.106	34.88
275.901	34.88
276.697	32.88
277.492	34.88
278.287	34.88
279.082	34.88
279.877	35.88
280.672	35.88
281.467	34.88
282.262	33.88
283.056	38.88
283.851	33.88
284.646	37.88
285.44	34.88
286.234	35.88
287.029	32.88
287.823	34.88
288.617	34.88
289.411	30.88
290.205	30.88
290.999	34.88
291.793	32.88
292.587	30.88
293.381	31.88
294.174	28.88
294.968	29.88
295.761	28.88
296.555	28.88
297.348	28.88
298.141	24.88
298.935	25.88
299.728	29.88
300.521	25.88
301.314	24.88
302.107	23.88
302.899	23.88
303.692	21.88
304.485	23.88
305.277	22.88
306.07	21.88
306.862	22.88
307.655	20.88
308.447	22.88
309.239	21.88
310.031	19.88
310.823	17.88
311.615	18.88
312.407	18.88
313.199	18.88
313.991	18.88
314.783	13.88
315.574	18.88
316.366	14.88
317.157	18.88
317.949	12.88
318.74	16.88
319.531	14.88
320.322	11.88
321.113	17.88
321.904	13.88
322.695	12.88
323.486	13.88
324.277	13.88
325.068	12.88
325.858	13.88
326.649	14.88
327.439	12.88
328.23	11.88
329.02	10.88
329.81	13.88
330.6	11.88
331.391	11.88
332.181	11.88
332.971	10.88
333.76	13.88
334.55	13.88
335.34	10.88
336.13	12.88
336.919	11.88
337.709	11.88
338.498	10.88
339.287	12.88
340.077	11.88
340.866	10.88
341.655	12.88
342.444	11.88
343.233	12.88
344.022	11.88
344.811	11.88
345.6	12.88
346.388	9.88
347.177	10.88
347.965	8.88
348.754	10.88
349.542	11.88
350.33	9.88
351.119	9.88
351.907	10.88
352.695	11.88
353.483	11.88
354.271	9.88
355.059	10.88
355.846	10.88
356.634	10.88
357.422	11.88
358.209	11.88
358.997	8.88
359.784	9.88
360.571	10.88
361.359	9.88
362.146	9.88
362.933	9.88
363.72	10.88
364.507	9.88
365.294	10.88
366.081	9.88
366.867	6.88
367.654	9.88
368.44	10.88
369.227	8.88
370.013	10.88
370.8	10.88
371.586	10.88
372.372	7.88
373.158	13.88
373.944	10.88
374.73	8.88
375.516	8.88
376.302	5.88
377.088	8.88
377.873	8.88
378.659	7.88
379.445	12.88
380.23	10.88
381.015	10.88
381.801	9.88
382.586	10.88
383.371	7.88
384.156	9.88
384.941	10.88
385.726	9.88
386.511	8.88
387.296	10.88
388.08	11.88
388.865	12.88
389.649	12.88
390.434	10.88
391.218	11.88
392.003	12.88
392.787	12.88
393.571	12.88
394.355	9.88
395.139	12.88
395.923	11.88
396.707	12.88
397.491	13.88
398.274	12.88
399.058	12.88
399.842	12.88
400.625	14.88
401.408	15.88
402.192	13.88
402.975	16.88
403.758	14.88
404.541	17.88
405.324	14.88
406.107	14.88
406.89	14.88
407.673	18.88
408.456	16.88
409.238	16.88
410.021	16.88
410.803	18.88
411.586	18.88
412.368	16.88
413.151	13.88
413.933	16.88
414.715	17.88
415.497	17.88
416.279	19.88
417.061	18.88
417.843	18.88
418.624	18.88
419.406	19.88
420.188	20.88
420.969	22.88
421.751	23.88
422.532	21.88
423.313	23.88
424.095	25.88
424.876	22.88
425.657	24.88
426.438	23.88
427.219	25.88
428	26.88
428.78	26.88
429.561	28.88
430.342	31.88
431.122	30.88
431.903	31.88
432.683	30.88
433.464	35.88
434.244	37.88
435.024	43.88
435.804	39.88
436.584	42.88
437.364	46.88
438.144	44.88
438.924	49.88
439.704	54.88
440.483	52.88
441.263	57.88
442.042	62.88
442.822	65.88
443.601	72.88
444.38	80.88
445.16	88.88
445.939	91.88
446.718	100.88
447.497	103.88
448.276	117.88
449.054	122.88
449.833	142.88
450.612	149.88
451.391	174.88
452.169	188.88
452.948	208.88
453.726	229.88
454.504	250.88
455.282	280.88
456.061	312.88
456.839	344.88
457.617	389.88
458.395	444.88
459.172	489.88
459.95	542.88
460.728	614.88
461.506	676.88
462.283	756.88
463.061	854.88
463.838	940.88
464.615	1065.88
465.393	1190.88
466.17	1321.88
466.947	1479.88
467.724	1631.88
468.501	1808.88
469.278	2021.88
470.055	2223.88
470.831	2462.88
471.608	2743.88
472.385	3015.88
473.161	3346.88
473.938	3674.88
474.714	4040.88
475.49	4464.88
476.266	4904.88
477.043	5441.88
477.819	5903.88
478.595	6460.88
479.371	7073.88
480.146	7797.88
480.922	8515.88
481.698	9286.88
482.473	10151.88
483.249	11110.88
484.024	12085.88
484.8	13121.88
485.575	14248.88
486.35	15524.88
487.126	16874.88
487.901	18202.88
488.676	19688.88
489.451	21321.88
490.225	22950.88
491	24644.88
491.775	26350.88
492.55	28251.88
493.324	30135.88
494.099	32017.88
494.873	33877.88
495.647	35809.88
496.422	37650.88
497.196	39543.88
497.97	41114.88
498.744	42605.88
499.518	44335.88
500.292	45580.88
501.066	46627.88
501.839	47465.88
502.613	48055.88
503.387	48562.88
504.16	48798.88
504.934	48789.88
505.707	48549.88
506.48	47956.88
507.253	47284.88
508.027	46470.88
508.8	45182.88
509.573	44072.88
510.346	42788.88
511.118	41540.88
511.891	40198.88
512.664	38574.88
513.437	37113.88
514.209	35612.88
514.982	34199.88
515.754	32781.88
516.526	31348.88
517.298	30053.88
518.071	28892.88
518.843	27702.88
519.615	26623.88
520.387	25514.88
521.159	24509.88
521.93	23502.88
522.702	22494.88
523.474	21530.88
524.245	20571.88
525.017	19626.88
525.788	18871.88
526.56	17974.88
527.331	17212.88
528.102	16266.88
528.873	15450.88
529.644	14672.88
530.415	14016.88
531.186	13269.88
531.957	12544.88
532.728	11889.88
533.498	11325.88
534.269	10689.88
535.039	10101.88
535.81	9558.88
536.58	9016.88
537.351	8542.88
538.121	8115.88
538.891	7659.88
539.661	7253.88
540.431	6844.88
541.201	6483.88
541.971	6169.88
542.741	5859.88
543.51	5512.88
544.28	5290.88
545.05	4996.88
545.819	4778.88
546.588	4539.88
547.358	4342.88
548.127	4125.88
548.896	3911.88
549.665	3705.88
550.434	3513.88
551.203	3309.88
551.972	3160.88
552.741	2982.88
553.51	2845.88
554.278	2638.88
555.047	2501.88
555.815	2352.88
556.584	2244.88
557.352	2106.88
558.121	1989.88
558.889	1885.88
559.657	1778.88
560.425	1675.88
561.193	1587.88
561.961	1510.88
562.729	1408.88
563.496	1332.88
564.264	1273.88
565.032	1189.88
565.799	1141.88
566.567	1083.88
567.334	1027.88
568.101	965.88
568.869	926.88
569.636	856.88
570.403	813.88
571.17	760.88
571.937	724.88
572.704	683.88
573.471	644.88
574.237	618.88
575.004	569.88
575.771	544.88
576.537	516.88
577.303	481.88
578.07	456.88
578.836	427.88
579.602	402.88
580.368	384.88
581.134	370.88
581.9	351.88
582.666	328.88
583.432	310.88
584.198	295.88
584.964	284.88
585.729	269.88
586.495	252.88
587.26	248.88
588.025	226.88
588.791	214.88
589.556	203.88
590.321	195.88
591.086	188.88
591.851	173.88
592.616	169.88
593.381	163.88
594.146	153.88
594.911	148.88
595.675	138.88
596.44	135.88
597.204	124.88
597.969	122.88
598.733	116.88
599.497	109.88
600.261	105.88
601.025	102.88
601.79	99.88
602.553	92.88
603.317	91.88
604.081	87.88
604.845	80.88
605.609	80.88
606.372	75.88
607.136	72.88
607.899	67.88
608.662	66.88
609.426	66.88
610.189	63.88
610.952	63.88
611.715	57.88
612.478	59.88
613.241	53.88
614.004	51.88
614.767	53.88
615.529	51.88
616.292	43.88
617.055	45.88
617.817	46.88
618.579	42.88
619.342	46.88
620.104	38.88
620.866	34.88
621.628	38.88
622.39	34.88
623.152	34.88
623.914	36.88
624.676	33.88
625.438	34.88
626.199	35.88
626.961	30.88
627.722	30.88
628.484	28.88
629.245	28.88
630.006	26.88
630.768	25.88
631.529	24.88
632.29	24.88
633.051	26.88
633.812	22.88
634.573	25.88
635.333	23.88
636.094	20.88
636.855	21.88
637.615	20.88
638.376	23.88
639.136	18.88
639.896	18.88
640.657	18.88
641.417	19.88
642.177	16.88
642.937	16.88
643.697	16.88
644.457	18.88
645.216	16.88
645.976	13.88
646.736	14.88
647.495	17.88
648.255	17.88
649.014	14.88
649.774	14.88
650.533	13.88
651.292	14.88
652.051	14.88
652.81	13.88
653.569	11.88
654.328	13.88
655.087	13.88
655.846	10.88
656.604	12.88
657.363	11.88
658.121	10.88
658.88	12.88
659.638	11.88
660.397	10.88
661.155	8.88
661.913	9.88
662.671	8.88
663.429	6.88
664.187	9.88
664.945	7.88
665.703	8.88
666.46	9.88
667.218	12.88
667.976	8.88
668.733	11.88
669.49	10.88
670.248	8.88
671.005	10.88
671.762	7.88
672.519	9.88
673.276	6.88
674.033	8.88
674.79	8.88
675.547	7.88
676.304	8.88
677.06	9.88
677.817	6.88
678.574	7.88
679.33	5.88
680.086	9.88
680.843	7.88
681.599	8.88
682.355	7.88
683.111	8.88
683.867	7.88
684.623	3.88
685.379	7.88
686.135	5.88
686.89	7.88
687.646	8.88
688.402	7.88
689.157	7.88
689.912	7.88
690.668	8.88
691.423	7.88
692.178	8.88
692.933	7.88
693.688	8.88
694.443	7.88
695.198	5.88
695.953	6.88
696.708	8.88
697.462	7.88
698.217	8.88
698.972	6.88
699.726	6.88
700.48	7.88
701.235	6.88
701.989	7.88
702.743	5.88
703.497	8.88
704.251	6.88
705.005	9.88
705.759	9.88
706.513	8.88
707.266	5.88
708.02	5.88
708.774	6.88
709.527	6.88
710.28	8.88
711.034	8.88
711.787	6.88
712.54	9.88
713.293	6.88
714.046	8.88
714.799	6.88
715.552	7.88
716.305	10.88
717.058	8.88
717.81	6.88
718.563	9.88
719.315	7.88
720.068	5.88
720.82	6.88
721.573	10.88
722.325	8.88
723.077	7.88
723.829	6.88
724.581	8.88
725.333	7.88
726.085	7.88
726.836	5.88
727.588	8.88
728.34	10.88
729.091	10.88
729.843	8.88
730.594	7.88
731.346	6.88
732.097	11.88
732.848	8.88
733.599	10.88
734.35	9.88
735.101	7.88
735.852	10.88
736.603	8.88
737.354	9.88
738.104	10.88
738.855	9.88
739.605	9.88
740.356	9.88
741.106	10.88
741.856	10.88
742.607	10.88
743.357	8.88
744.107	10.88
744.857	9.88
745.607	9.88
746.357	9.88
747.106	10.88
747.856	11.88
748.606	10.88
749.355	9.88
750.105	8.88
750.854	10.88
751.603	8.88
752.353	12.88
753.102	11.88
753.851	11.88
754.6	10.88
755.349	10.88
756.098	10.88
756.847	14.88
757.595	11.88
758.344	8.88
759.093	13.88
759.841	12.88
760.589	14.88
761.338	12.88
762.086	12.88
762.834	14.88
763.582	12.88
764.331	14.88
765.079	11.88
765.826	14.88
766.574	12.88
767.322	13.88
768.07	13.88
768.817	16.88
769.565	12.88
770.312	12.88
771.06	12.88
771.807	13.88
772.554	14.88
773.302	15.88
774.049	14.88
774.796	14.88
775.543	17.88
776.29	14.88
777.036	17.88
777.783	14.88
778.53	16.88
779.276	13.88
780.023	16.88
780.769	18.88
781.516	12.88
782.262	15.88
783.008	14.88
783.754	14.88
784.5	17.88
785.246	15.88
785.992	15.88
786.738	13.88
787.484	15.88
788.23	14.88
788.975	14.88
789.721	16.88
790.466	16.88
791.212	14.88
791.957	11.88
792.702	13.88
793.447	15.88
794.193	12.88
794.938	13.88
795.683	12.88
796.427	14.88
797.172	11.88
797.917	13.88
798.662	12.88
799.406	11.88
800.151	14.88
800.895	13.88
801.64	10.88
802.384	12.88
803.128	10.88
803.872	9.88
804.616	11.88
805.36	15.88
806.104	8.88
806.848	13.88
807.592	10.88
808.336	9.88
809.079	10.88
809.823	10.88
810.566	12.88
811.31	8.88
812.053	7.88
812.796	6.88
813.539	6.88
814.283	8.88
815.026	6.88
815.769	9.88
816.511	9.88
817.254	6.88
817.997	9.88
818.74	5.88
819.482	5.88
820.225	5.88
820.967	9.88
821.71	4.88
822.452	7.88
823.194	7.88
823.936	6.88
824.678	8.88
825.42	7.88
826.162	6.88
826.904	3.88
827.646	6.88
828.388	8.88
829.129	6.88
829.871	5.88
830.612	3.88
831.354	6.88
832.095	4.88
832.836	5.88
833.577	5.88
834.319	4.88
835.06	7.88
835.801	7.88
836.542	5.88
837.282	4.88
838.023	4.88
838.764	4.88
839.504	6.88
840.245	5.88
840.985	6.88
841.726	3.88
842.466	7.88
843.206	4.88
843.946	4.88
844.687	3.88
845.427	2.88
846.166	6.88
846.906	4.88
847.646	5.88
848.386	3.88
849.125	5.88
849.865	3.88
850.605	3.88
851.344	4.88
852.083	4.88
852.823	3.88
853.562	5.88
854.301	3.88
855.04	2.88
855.779	4.88
856.518	2.88
857.257	5.88
857.995	3.88
858.734	1.88
859.473	3.88
860.211	1.88
860.95	2.88
861.688	3.88
862.426	2.88
863.165	3.88
863.903	1.88
864.641	2.88
865.379	2.88
866.117	2.88
866.855	3.88
867.593	1.88
868.33	1.88
869.068	2.88
869.806	1.88
870.543	2.88
871.28	1.88
872.018	3.88
872.755	0.88
873.492	2.88
874.229	-1.12
874.967	2.88
875.703	2.88
876.44	1.88
877.177	1.88
877.914	2.88
878.651	2.88
879.387	-1.12
880.124	-0.12
880.86	2.88
881.597	0.88
882.333	0.88
883.069	0.88
883.806	2.88
884.542	0.88
885.278	0.88
886.014	0.88
886.749	-1.12
887.485	2.88
888.221	2.88
888.957	0.88
889.692	2.88
890.428	1.88
891.163	1.88
891.899	-0.12
892.634	2.88
893.369	0.88
894.104	-0.12
894.839	1.88
895.574	2.88
896.309	-0.12
897.044	0.88
897.779	-1.12
898.514	2.88
899.248	1.88
899.983	0.88
900.717	0.88
901.452	-0.12
902.186	1.88
902.92	2.88
903.654	-0.12
904.389	1.88
905.123	0.88
905.857	0.88
906.59	-1.12
907.324	1.88
908.058	0.88
908.792	-0.12
909.525	-1.12
910.259	-1.12
910.992	-0.12
911.726	-1.12
912.459	0.88
913.192	-1.12
913.925	-1.12
914.658	-0.12
915.391	-1.12
916.124	0.88
916.857	1.88
917.59	-1.12
918.323	1.88
919.055	0.88
919.788	-1.12
920.521	-0.12
921.253	-0.12
921.985	2.88
922.718	-0.12
923.45	-0.12
924.182	-1.12
924.914	-1.12
925.646	-0.12
926.378	-0.12
927.11	-1.12
927.841	0.88
928.573	1.88
929.305	1.88
930.036	-1.12
930.768	1.88
931.499	-1.12
932.23	0.88
932.962	0.88
933.693	0.88
934.424	-1.12
935.155	1.88
935.886	0.88
936.617	-0.12
937.348	0.88
938.078	-1.12
938.809	0.88
939.54	-0.12
940.27	0.88
941.001	-1.12
941.731	-1.12
942.461	0.88
943.191	0.88
943.922	1.88
944.652	-0.12
945.382	1.88
946.112	1.88
946.841	1.88
947.571	-0.12
948.301	-0.12
949.031	0.88
949.76	0.88
950.49	-0.12
951.219	1.88
951.948	-1.12
952.678	-0.12
953.407	-1.12
954.136	-1.12
954.865	-0.12
955.594	0.88
956.323	1.88
957.052	-0.12
957.78	1.88
958.509	0.88
959.238	-1.12
959.966	-1.12
960.695	-2.12
961.423	0.88
962.151	-0.12
962.88	0.88
963.608	0.88
964.336	-0.12
965.064	-1.12
965.792	-1.12
966.52	2.88
967.247	-2.12
967.975	-0.12
968.703	1.88
969.43	0.88
970.158	1.88
970.885	0.88
971.613	-0.12
972.34	0.88
973.067	-1.12
973.794	0.88
974.521	-2.12
975.248	0.88
975.975	-1.12
976.702	-1.12
977.429	-1.12
978.156	-1.12
978.882	0.88
979.609	-2.12
980.335	0.88
981.062	-0.12
981.788	-1.12
982.514	-0.12
983.24	-1.12
983.967	0.88
984.693	-0.12
985.419	-0.12
986.144	0.88
986.87	-2.12
987.596	0.88
988.322	0.88
989.047	-0.12
989.773	2.88
990.498	0.88
991.224	-0.12
991.949	-1.12
992.674	-0.12
993.399	-1.12
994.124	1.88
994.849	-2.12
995.574	0.88
996.299	-0.12
997.024	-3.12
997.749	-1.12
998.473	0.88
999.198	-2.12
999.922	-0.12
1000.647	-3.12
1001.371	1.88
1002.095	-0.12
1002.82	-1.12
1003.544	-0.12
1004.268	5.88
1004.992	4.88
1005.716	4.88
1006.439	5.88
1007.163	4.88
1007.887	6.88
1008.611	-0.12
1009.334	-1.12
1010.058	0.88
1010.781	1.88
1011.504	0.88
1012.228	-0.12
1012.951	-2.12
1013.674	-0.12
1014.397	0.88
1015.12	0.88
