节点500_705_QEPB04081__321__20-50-32-460.txt的数据

Date: Wed Nov 12 20:50:32 CST 2025
User: PC
Spectrometer: QEPB0408
触发模式: 0
积分时间 (秒): 1.000000E-2
Scans to average: 1
启用暗噪声校正: true
启用非线性校正: false
滑动平均宽度: 0
X轴模式: Wavelengths
Number of Pixels in Spectrum: 1044
>>>>>Begin Spectral Data<<<<<
220.843	6.12
221.644	5.12
222.444	7.12
223.244	5.12
224.045	8.12
224.845	8.12
225.645	9.12
226.445	6.12
227.245	7.12
228.045	4.12
228.845	8.12
229.645	8.12
230.444	7.12
231.244	11.12
232.043	11.12
232.843	8.12
233.642	9.12
234.442	11.12
235.241	10.12
236.04	10.12
236.839	13.12
237.638	14.12
238.437	13.12
239.236	11.12
240.035	11.12
240.833	12.12
241.632	12.12
242.43	11.12
243.229	14.12
244.027	13.12
244.826	13.12
245.624	14.12
246.422	14.12
247.22	13.12
248.018	14.12
248.816	15.12
249.614	16.12
250.412	16.12
251.21	17.12
252.007	17.12
252.805	19.12
253.602	17.12
254.4	20.12
255.197	17.12
255.994	20.12
256.791	19.12
257.589	20.12
258.386	19.12
259.183	22.12
259.979	20.12
260.776	19.12
261.573	24.12
262.37	24.12
263.166	23.12
263.963	29.12
264.759	27.12
265.556	29.12
266.352	28.12
267.148	31.12
267.944	28.12
268.74	28.12
269.536	30.12
270.332	29.12
271.128	31.12
271.924	33.12
272.719	30.12
273.515	33.12
274.311	33.12
275.106	31.12
275.901	34.12
276.697	35.12
277.492	35.12
278.287	32.12
279.082	36.12
279.877	34.12
280.672	34.12
281.467	33.12
282.262	32.12
283.056	38.12
283.851	33.12
284.646	35.12
285.44	32.12
286.234	34.12
287.029	33.12
287.823	33.12
288.617	33.12
289.411	31.12
290.205	34.12
290.999	36.12
291.793	31.12
292.587	33.12
293.381	31.12
294.174	30.12
294.968	27.12
295.761	31.12
296.555	30.12
297.348	26.12
298.141	25.12
298.935	29.12
299.728	29.12
300.521	27.12
301.314	26.12
302.107	26.12
302.899	22.12
303.692	21.12
304.485	21.12
305.277	21.12
306.07	22.12
306.862	22.12
307.655	22.12
308.447	20.12
309.239	23.12
310.031	20.12
310.823	22.12
311.615	19.12
312.407	16.12
313.199	21.12
313.991	18.12
314.783	16.12
315.574	15.12
316.366	16.12
317.157	17.12
317.949	15.12
318.74	15.12
319.531	13.12
320.322	13.12
321.113	18.12
321.904	15.12
322.695	13.12
323.486	13.12
324.277	16.12
325.068	15.12
325.858	15.12
326.649	16.12
327.439	11.12
328.23	12.12
329.02	13.12
329.81	10.12
330.6	13.12
331.391	12.12
332.181	12.12
332.971	10.12
333.76	12.12
334.55	11.12
335.34	15.12
336.13	12.12
336.919	12.12
337.709	12.12
338.498	14.12
339.287	10.12
340.077	12.12
340.866	12.12
341.655	11.12
342.444	12.12
343.233	14.12
344.022	12.12
344.811	11.12
345.6	11.12
346.388	10.12
347.177	13.12
347.965	12.12
348.754	12.12
349.542	13.12
350.33	11.12
351.119	12.12
351.907	10.12
352.695	13.12
353.483	12.12
354.271	11.12
355.059	10.12
355.846	10.12
356.634	12.12
357.422	12.12
358.209	10.12
358.997	11.12
359.784	12.12
360.571	12.12
361.359	9.12
362.146	10.12
362.933	9.12
363.72	10.12
364.507	11.12
365.294	9.12
366.081	9.12
366.867	11.12
367.654	9.12
368.44	10.12
369.227	10.12
370.013	12.12
370.8	6.12
371.586	10.12
372.372	10.12
373.158	12.12
373.944	10.12
374.73	9.12
375.516	10.12
376.302	11.12
377.088	12.12
377.873	11.12
378.659	8.12
379.445	11.12
380.23	11.12
381.015	11.12
381.801	10.12
382.586	10.12
383.371	11.12
384.156	11.12
384.941	12.12
385.726	12.12
386.511	14.12
387.296	13.12
388.08	11.12
388.865	11.12
389.649	12.12
390.434	12.12
391.218	11.12
392.003	13.12
392.787	11.12
393.571	11.12
394.355	11.12
395.139	13.12
395.923	13.12
396.707	10.12
397.491	12.12
398.274	13.12
399.058	14.12
399.842	11.12
400.625	14.12
401.408	14.12
402.192	15.12
402.975	15.12
403.758	15.12
404.541	14.12
405.324	16.12
406.107	14.12
406.89	17.12
407.673	17.12
408.456	15.12
409.238	17.12
410.021	19.12
410.803	16.12
411.586	15.12
412.368	18.12
413.151	17.12
413.933	19.12
414.715	19.12
415.497	17.12
416.279	18.12
417.061	19.12
417.843	19.12
418.624	21.12
419.406	21.12
420.188	23.12
420.969	19.12
421.751	21.12
422.532	21.12
423.313	22.12
424.095	27.12
424.876	22.12
425.657	24.12
426.438	25.12
427.219	27.12
428	28.12
428.78	28.12
429.561	30.12
430.342	27.12
431.122	33.12
431.903	31.12
432.683	36.12
433.464	35.12
434.244	36.12
435.024	36.12
435.804	45.12
436.584	46.12
437.364	48.12
438.144	48.12
438.924	54.12
439.704	53.12
440.483	59.12
441.263	60.12
442.042	62.12
442.822	71.12
443.601	75.12
444.38	84.12
445.16	80.12
445.939	90.12
446.718	105.12
447.497	111.12
448.276	122.12
449.054	132.12
449.833	146.12
450.612	161.12
451.391	174.12
452.169	190.12
452.948	221.12
453.726	238.12
454.504	266.12
455.282	295.12
456.061	332.12
456.839	364.12
457.617	409.12
458.395	468.12
459.172	514.12
459.95	569.12
460.728	638.12
461.506	712.12
462.283	785.12
463.061	884.12
463.838	975.12
464.615	1091.12
465.393	1226.12
466.17	1353.12
466.947	1507.12
467.724	1670.12
468.501	1854.12
469.278	2035.12
470.055	2248.12
470.831	2489.12
471.608	2746.12
472.385	3050.12
473.161	3369.12
473.938	3652.12
474.714	4061.12
475.49	4456.12
476.266	4884.12
477.043	5333.12
477.819	5804.12
478.595	6345.12
479.371	6978.12
480.146	7637.12
480.922	8299.12
481.698	9082.12
482.473	9849.12
483.249	10721.12
484.024	11627.12
484.8	12625.12
485.575	13681.12
486.35	14851.12
487.126	16110.12
487.901	17373.12
488.676	18790.12
489.451	20267.12
490.225	21753.12
491	23312.12
491.775	24970.12
492.55	26705.12
493.324	28431.12
494.099	30217.12
494.873	31968.12
495.647	33827.12
496.422	35611.12
497.196	37402.12
497.97	39006.12
498.744	40545.12
499.518	42221.12
500.292	43541.12
501.066	44557.12
501.839	45411.12
502.613	46201.12
503.387	46835.12
504.16	47220.12
504.934	47418.12
505.707	47264.12
506.48	46820.12
507.253	46336.12
508.027	45683.12
508.8	44629.12
509.573	43636.12
510.346	42590.12
511.118	41564.12
511.891	40222.12
512.664	38820.12
513.437	37292.12
514.209	35818.12
514.982	34570.12
515.754	33098.12
516.526	31682.12
517.298	30509.12
518.071	29264.12
518.843	28083.12
519.615	26972.12
520.387	25903.12
521.159	24934.12
521.93	23806.12
522.702	22850.12
523.474	21913.12
524.245	20955.12
525.017	20024.12
525.788	19163.12
526.56	18353.12
527.331	17507.12
528.102	16646.12
528.873	15801.12
529.644	15128.12
530.415	14391.12
531.186	13634.12
531.957	12956.12
532.728	12300.12
533.498	11668.12
534.269	11036.12
535.039	10412.12
535.81	9888.12
536.58	9385.12
537.351	8827.12
538.121	8388.12
538.891	7959.12
539.661	7525.12
540.431	7079.12
541.201	6760.12
541.971	6369.12
542.741	6041.12
543.51	5751.12
544.28	5455.12
545.05	5208.12
545.819	4967.12
546.588	4721.12
547.358	4499.12
548.127	4270.12
548.896	4062.12
549.665	3852.12
550.434	3652.12
551.203	3460.12
551.972	3292.12
552.741	3117.12
553.51	2920.12
554.278	2763.12
555.047	2613.12
555.815	2474.12
556.584	2341.12
557.352	2197.12
558.121	2078.12
558.889	1976.12
559.657	1870.12
560.425	1757.12
561.193	1662.12
561.961	1594.12
562.729	1489.12
563.496	1405.12
564.264	1325.12
565.032	1257.12
565.799	1185.12
566.567	1120.12
567.334	1064.12
568.101	998.12
568.869	954.12
569.636	901.12
570.403	851.12
571.17	803.12
571.937	751.12
572.704	716.12
573.471	687.12
574.237	634.12
575.004	597.12
575.771	565.12
576.537	534.12
577.303	507.12
578.07	472.12
578.836	446.12
579.602	429.12
580.368	410.12
581.134	381.12
581.9	353.12
582.666	341.12
583.432	331.12
584.198	314.12
584.964	298.12
585.729	282.12
586.495	266.12
587.26	251.12
588.025	239.12
588.791	229.12
589.556	218.12
590.321	203.12
591.086	197.12
591.851	189.12
592.616	172.12
593.381	166.12
594.146	161.12
594.911	153.12
595.675	144.12
596.44	139.12
597.204	131.12
597.969	125.12
598.733	124.12
599.497	115.12
600.261	113.12
601.025	104.12
601.79	103.12
602.553	99.12
603.317	100.12
604.081	92.12
604.845	90.12
605.609	85.12
606.372	84.12
607.136	79.12
607.899	75.12
608.662	73.12
609.426	68.12
610.189	65.12
610.952	65.12
611.715	65.12
612.478	62.12
613.241	59.12
614.004	54.12
614.767	53.12
615.529	51.12
616.292	50.12
617.055	50.12
617.817	48.12
618.579	42.12
619.342	45.12
620.104	43.12
620.866	41.12
621.628	40.12
622.39	40.12
623.152	38.12
623.914	37.12
624.676	35.12
625.438	36.12
626.199	32.12
626.961	32.12
627.722	34.12
628.484	30.12
629.245	30.12
630.006	27.12
630.768	29.12
631.529	27.12
632.29	23.12
633.051	27.12
633.812	24.12
634.573	26.12
635.333	24.12
636.094	21.12
636.855	19.12
637.615	23.12
638.376	21.12
639.136	20.12
639.896	19.12
640.657	20.12
641.417	17.12
642.177	19.12
642.937	20.12
643.697	18.12
644.457	18.12
645.216	15.12
645.976	16.12
646.736	17.12
647.495	16.12
648.255	15.12
649.014	16.12
649.774	16.12
650.533	13.12
651.292	15.12
652.051	14.12
652.81	11.12
653.569	11.12
654.328	13.12
655.087	14.12
655.846	15.12
656.604	14.12
657.363	11.12
658.121	10.12
658.88	14.12
659.638	12.12
660.397	10.12
661.155	10.12
661.913	10.12
662.671	10.12
663.429	12.12
664.187	9.12
664.945	11.12
665.703	12.12
666.46	12.12
667.218	11.12
667.976	11.12
668.733	10.12
669.49	10.12
670.248	11.12
671.005	11.12
671.762	10.12
672.519	9.12
673.276	8.12
674.033	7.12
674.79	10.12
675.547	6.12
676.304	9.12
677.06	11.12
677.817	8.12
678.574	8.12
679.33	8.12
680.086	7.12
680.843	10.12
681.599	7.12
682.355	8.12
683.111	7.12
683.867	9.12
684.623	9.12
685.379	9.12
686.135	9.12
686.89	7.12
687.646	8.12
688.402	6.12
689.157	10.12
689.912	8.12
690.668	8.12
691.423	7.12
692.178	11.12
692.933	7.12
693.688	7.12
694.443	10.12
695.198	10.12
695.953	7.12
696.708	7.12
697.462	8.12
698.217	7.12
698.972	6.12
699.726	7.12
700.48	7.12
701.235	8.12
701.989	9.12
702.743	8.12
703.497	6.12
704.251	8.12
705.005	7.12
705.759	9.12
706.513	9.12
707.266	7.12
708.02	7.12
708.774	7.12
709.527	7.12
710.28	6.12
711.034	6.12
711.787	9.12
712.54	6.12
713.293	9.12
714.046	8.12
714.799	8.12
715.552	10.12
716.305	7.12
717.058	8.12
717.81	5.12
718.563	8.12
719.315	9.12
720.068	7.12
720.82	9.12
721.573	7.12
722.325	8.12
723.077	8.12
723.829	10.12
724.581	9.12
725.333	8.12
726.085	8.12
726.836	8.12
727.588	8.12
728.34	7.12
729.091	5.12
729.843	10.12
730.594	11.12
731.346	11.12
732.097	9.12
732.848	11.12
733.599	9.12
734.35	9.12
735.101	10.12
735.852	10.12
736.603	9.12
737.354	9.12
738.104	9.12
738.855	11.12
739.605	10.12
740.356	11.12
741.106	9.12
741.856	10.12
742.607	11.12
743.357	14.12
744.107	11.12
744.857	8.12
745.607	9.12
746.357	10.12
747.106	13.12
747.856	11.12
748.606	11.12
749.355	10.12
750.105	11.12
750.854	11.12
751.603	9.12
752.353	11.12
753.102	11.12
753.851	13.12
754.6	12.12
755.349	9.12
756.098	15.12
756.847	11.12
757.595	11.12
758.344	11.12
759.093	13.12
759.841	12.12
760.589	13.12
761.338	14.12
762.086	17.12
762.834	13.12
763.582	13.12
764.331	12.12
765.079	14.12
765.826	11.12
766.574	16.12
767.322	13.12
768.07	16.12
768.817	15.12
769.565	15.12
770.312	16.12
771.06	14.12
771.807	13.12
772.554	13.12
773.302	18.12
774.049	14.12
774.796	14.12
775.543	14.12
776.29	17.12
777.036	15.12
777.783	17.12
778.53	13.12
779.276	15.12
780.023	15.12
780.769	18.12
781.516	15.12
782.262	16.12
783.008	14.12
783.754	14.12
784.5	15.12
785.246	15.12
785.992	18.12
786.738	18.12
787.484	15.12
788.23	13.12
788.975	15.12
789.721	16.12
790.466	15.12
791.212	13.12
791.957	13.12
792.702	11.12
793.447	14.12
794.193	13.12
794.938	14.12
795.683	11.12
796.427	14.12
797.172	14.12
797.917	10.12
798.662	14.12
799.406	15.12
800.151	13.12
800.895	12.12
801.64	11.12
802.384	14.12
803.128	11.12
803.872	13.12
804.616	13.12
805.36	9.12
806.104	10.12
806.848	12.12
807.592	11.12
808.336	12.12
809.079	10.12
809.823	9.12
810.566	11.12
811.31	9.12
812.053	7.12
812.796	11.12
813.539	9.12
814.283	8.12
815.026	9.12
815.769	6.12
816.511	13.12
817.254	7.12
817.997	9.12
818.74	7.12
819.482	7.12
820.225	8.12
820.967	7.12
821.71	7.12
822.452	10.12
823.194	6.12
823.936	9.12
824.678	5.12
825.42	8.12
826.162	7.12
826.904	7.12
827.646	7.12
828.388	8.12
829.129	8.12
829.871	4.12
830.612	6.12
831.354	3.12
832.095	7.12
832.836	7.12
833.577	8.12
834.319	7.12
835.06	7.12
835.801	6.12
836.542	7.12
837.282	7.12
838.023	7.12
838.764	7.12
839.504	6.12
840.245	8.12
840.985	4.12
841.726	5.12
842.466	4.12
843.206	4.12
843.946	5.12
844.687	6.12
845.427	5.12
846.166	4.12
846.906	4.12
847.646	3.12
848.386	5.12
849.125	7.12
849.865	4.12
850.605	5.12
851.344	3.12
852.083	6.12
852.823	5.12
853.562	4.12
854.301	7.12
855.04	1.12
855.779	4.12
856.518	5.12
857.257	2.12
857.995	3.12
858.734	7.12
859.473	5.12
860.211	3.12
860.95	3.12
861.688	3.12
862.426	4.12
863.165	3.12
863.903	1.12
864.641	6.12
865.379	4.12
866.117	0.12
866.855	3.12
867.593	0.12
868.33	3.12
869.068	2.12
869.806	3.12
870.543	3.12
871.28	3.12
872.018	3.12
872.755	1.12
873.492	3.12
874.229	3.12
874.967	1.12
875.703	4.12
876.44	3.12
877.177	4.12
877.914	0.12
878.651	1.12
879.387	1.12
880.124	3.12
880.86	2.12
881.597	1.12
882.333	2.12
883.069	0.12
883.806	2.12
884.542	1.12
885.278	1.12
886.014	2.12
886.749	0.12
887.485	2.12
888.221	2.12
888.957	3.12
889.692	1.12
890.428	0.12
891.163	1.12
891.899	1.12
892.634	1.12
893.369	3.12
894.104	2.12
894.839	0.12
895.574	2.12
896.309	1.12
897.044	0.12
897.779	3.12
898.514	1.12
899.248	-0.88
899.983	1.12
900.717	1.12
901.452	1.12
902.186	2.12
902.92	-0.88
903.654	0.12
904.389	1.12
905.123	3.12
905.857	-0.88
906.59	1.12
907.324	0.12
908.058	2.12
908.792	-0.88
909.525	-0.88
910.259	2.12
910.992	-0.88
911.726	1.12
912.459	2.12
913.192	5.12
913.925	2.12
914.658	-1.88
915.391	3.12
916.124	2.12
916.857	-0.88
917.59	0.12
918.323	0.12
919.055	1.12
919.788	-0.88
920.521	3.12
921.253	0.12
921.985	3.12
922.718	0.12
923.45	-0.88
924.182	2.12
924.914	1.12
925.646	-0.88
926.378	-0.88
927.11	0.12
927.841	2.12
928.573	0.12
929.305	2.12
930.036	0.12
930.768	1.12
931.499	-0.88
932.23	-1.88
932.962	2.12
933.693	-0.88
934.424	2.12
935.155	0.12
935.886	2.12
936.617	1.12
937.348	-1.88
938.078	0.12
938.809	0.12
939.54	0.12
940.27	1.12
941.001	2.12
941.731	1.12
942.461	1.12
943.191	2.12
943.922	0.12
944.652	-0.88
945.382	-0.88
946.112	1.12
946.841	0.12
947.571	-0.88
948.301	-0.88
949.031	1.12
949.76	-0.88
950.49	1.12
951.219	-0.88
951.948	1.12
952.678	-1.88
953.407	-0.88
954.136	0.12
954.865	0.12
955.594	0.12
956.323	0.12
957.052	0.12
957.78	1.12
958.509	0.12
959.238	1.12
959.966	-0.88
960.695	0.12
961.423	2.12
962.151	0.12
962.88	-0.88
963.608	0.12
964.336	1.12
965.064	1.12
965.792	0.12
966.52	2.12
967.247	-0.88
967.975	1.12
968.703	-0.88
969.43	1.12
970.158	-0.88
970.885	1.12
971.613	0.12
972.34	1.12
973.067	-0.88
973.794	-1.88
974.521	0.12
975.248	1.12
975.975	0.12
976.702	3.12
977.429	-2.88
978.156	3.12
978.882	1.12
979.609	-0.88
980.335	0.12
981.062	-2.88
981.788	0.12
982.514	0.12
983.24	1.12
983.967	1.12
984.693	0.12
985.419	1.12
986.144	1.12
986.87	1.12
987.596	0.12
988.322	0.12
989.047	1.12
989.773	0.12
990.498	0.12
991.224	-0.88
991.949	0.12
992.674	0.12
993.399	-0.88
994.124	1.12
994.849	-0.88
995.574	-0.88
996.299	0.12
997.024	0.12
997.749	0.12
998.473	1.12
999.198	1.12
999.922	-0.88
1000.647	-1.88
1001.371	2.12
1002.095	-0.88
1002.82	-1.88
1003.544	-1.88
1004.268	3.12
1004.992	4.12
1005.716	5.12
1006.439	6.12
1007.163	4.12
1007.887	7.12
1008.611	-0.88
1009.334	0.12
1010.058	2.12
1010.781	-0.88
1011.504	1.12
1012.228	1.12
1012.951	0.12
1013.674	-0.88
1014.397	1.12
1015.12	2.12
