节点500_705_QEPB04081__385__20-51-25-600.txt的数据

Date: Wed Nov 12 20:51:25 CST 2025
User: PC
Spectrometer: QEPB0408
触发模式: 0
积分时间 (秒): 1.000000E-2
Scans to average: 1
启用暗噪声校正: true
启用非线性校正: false
滑动平均宽度: 0
X轴模式: Wavelengths
Number of Pixels in Spectrum: 1044
>>>>>Begin Spectral Data<<<<<
220.843	3.62
221.644	6.62
222.444	6.62
223.244	5.62
224.045	6.62
224.845	7.62
225.645	5.62
226.445	5.62
227.245	5.62
228.045	9.62
228.845	7.62
229.645	7.62
230.444	6.62
231.244	7.62
232.043	11.62
232.843	7.62
233.642	6.62
234.442	9.62
235.241	10.62
236.04	8.62
236.839	9.62
237.638	8.62
238.437	11.62
239.236	13.62
240.035	7.62
240.833	11.62
241.632	9.62
242.43	11.62
243.229	8.62
244.027	11.62
244.826	12.62
245.624	12.62
246.422	14.62
247.22	14.62
248.018	13.62
248.816	12.62
249.614	13.62
250.412	14.62
251.21	15.62
252.007	15.62
252.805	15.62
253.602	18.62
254.4	16.62
255.197	17.62
255.994	21.62
256.791	18.62
257.589	21.62
258.386	21.62
259.183	20.62
259.979	21.62
260.776	21.62
261.573	20.62
262.37	22.62
263.166	21.62
263.963	24.62
264.759	20.62
265.556	28.62
266.352	24.62
267.148	27.62
267.944	26.62
268.74	26.62
269.536	28.62
270.332	27.62
271.128	28.62
271.924	29.62
272.719	30.62
273.515	31.62
274.311	28.62
275.106	31.62
275.901	30.62
276.697	33.62
277.492	33.62
278.287	32.62
279.082	30.62
279.877	33.62
280.672	35.62
281.467	34.62
282.262	33.62
283.056	32.62
283.851	33.62
284.646	32.62
285.44	32.62
286.234	34.62
287.029	33.62
287.823	32.62
288.617	32.62
289.411	29.62
290.205	30.62
290.999	34.62
291.793	30.62
292.587	31.62
293.381	29.62
294.174	28.62
294.968	29.62
295.761	26.62
296.555	26.62
297.348	26.62
298.141	24.62
298.935	26.62
299.728	26.62
300.521	25.62
301.314	21.62
302.107	25.62
302.899	22.62
303.692	21.62
304.485	21.62
305.277	22.62
306.07	24.62
306.862	23.62
307.655	23.62
308.447	17.62
309.239	22.62
310.031	21.62
310.823	18.62
311.615	18.62
312.407	17.62
313.199	19.62
313.991	17.62
314.783	17.62
315.574	17.62
316.366	14.62
317.157	16.62
317.949	14.62
318.74	13.62
319.531	16.62
320.322	13.62
321.113	14.62
321.904	11.62
322.695	12.62
323.486	11.62
324.277	11.62
325.068	14.62
325.858	11.62
326.649	11.62
327.439	11.62
328.23	12.62
329.02	13.62
329.81	12.62
330.6	13.62
331.391	11.62
332.181	10.62
332.971	12.62
333.76	11.62
334.55	12.62
335.34	11.62
336.13	10.62
336.919	11.62
337.709	9.62
338.498	12.62
339.287	12.62
340.077	13.62
340.866	9.62
341.655	10.62
342.444	11.62
343.233	11.62
344.022	11.62
344.811	10.62
345.6	11.62
346.388	10.62
347.177	9.62
347.965	11.62
348.754	10.62
349.542	14.62
350.33	9.62
351.119	7.62
351.907	9.62
352.695	10.62
353.483	11.62
354.271	10.62
355.059	9.62
355.846	8.62
356.634	13.62
357.422	8.62
358.209	11.62
358.997	8.62
359.784	8.62
360.571	8.62
361.359	9.62
362.146	10.62
362.933	9.62
363.72	10.62
364.507	11.62
365.294	9.62
366.081	6.62
366.867	8.62
367.654	10.62
368.44	9.62
369.227	8.62
370.013	9.62
370.8	8.62
371.586	8.62
372.372	9.62
373.158	10.62
373.944	5.62
374.73	8.62
375.516	10.62
376.302	8.62
377.088	8.62
377.873	11.62
378.659	8.62
379.445	7.62
380.23	10.62
381.015	11.62
381.801	8.62
382.586	11.62
383.371	7.62
384.156	8.62
384.941	8.62
385.726	9.62
386.511	9.62
387.296	10.62
388.08	10.62
388.865	12.62
389.649	9.62
390.434	13.62
391.218	13.62
392.003	11.62
392.787	13.62
393.571	12.62
394.355	11.62
395.139	10.62
395.923	13.62
396.707	13.62
397.491	11.62
398.274	13.62
399.058	11.62
399.842	14.62
400.625	11.62
401.408	14.62
402.192	12.62
402.975	14.62
403.758	12.62
404.541	12.62
405.324	14.62
406.107	13.62
406.89	15.62
407.673	15.62
408.456	13.62
409.238	16.62
410.021	17.62
410.803	15.62
411.586	15.62
412.368	18.62
413.151	18.62
413.933	14.62
414.715	18.62
415.497	16.62
416.279	19.62
417.061	20.62
417.843	20.62
418.624	19.62
419.406	23.62
420.188	21.62
420.969	21.62
421.751	23.62
422.532	20.62
423.313	23.62
424.095	24.62
424.876	24.62
425.657	24.62
426.438	24.62
427.219	27.62
428	25.62
428.78	27.62
429.561	32.62
430.342	27.62
431.122	31.62
431.903	33.62
432.683	32.62
433.464	37.62
434.244	34.62
435.024	40.62
435.804	38.62
436.584	43.62
437.364	48.62
438.144	45.62
438.924	50.62
439.704	52.62
440.483	54.62
441.263	63.62
442.042	60.62
442.822	66.62
443.601	75.62
444.38	78.62
445.16	87.62
445.939	96.62
446.718	102.62
447.497	113.62
448.276	127.62
449.054	130.62
449.833	149.62
450.612	166.62
451.391	180.62
452.169	200.62
452.948	229.62
453.726	238.62
454.504	267.62
455.282	306.62
456.061	329.62
456.839	384.62
457.617	414.62
458.395	458.62
459.172	519.62
459.95	580.62
460.728	656.62
461.506	711.62
462.283	801.62
463.061	893.62
463.838	989.62
464.615	1107.62
465.393	1216.62
466.17	1358.62
466.947	1521.62
467.724	1706.62
468.501	1848.62
469.278	2058.62
470.055	2288.62
470.831	2504.62
471.608	2746.62
472.385	3045.62
473.161	3334.62
473.938	3667.62
474.714	4054.62
475.49	4427.62
476.266	4877.62
477.043	5297.62
477.819	5810.62
478.595	6359.62
479.371	6882.62
480.146	7495.62
480.922	8175.62
481.698	8926.62
482.473	9692.62
483.249	10510.62
484.024	11409.62
484.8	12358.62
485.575	13391.62
486.35	14517.62
487.126	15732.62
487.901	16924.62
488.676	18261.62
489.451	19707.62
490.225	21215.62
491	22692.62
491.775	24286.62
492.55	25948.62
493.324	27617.62
494.099	29369.62
494.873	31174.62
495.647	32852.62
496.422	34628.62
497.196	36417.62
497.97	38048.62
498.744	39447.62
499.518	41104.62
500.292	42424.62
501.066	43569.62
501.839	44437.62
502.613	45301.62
503.387	45969.62
504.16	46383.62
504.934	46553.62
505.707	46573.62
506.48	46304.62
507.253	45943.62
508.027	45292.62
508.8	44467.62
509.573	43408.62
510.346	42411.62
511.118	41407.62
511.891	40283.62
512.664	38719.62
513.437	37331.62
514.209	35984.62
514.982	34710.62
515.754	33322.62
516.526	31955.62
517.298	30795.62
518.071	29413.62
518.843	28259.62
519.615	27166.62
520.387	26132.62
521.159	25097.62
521.93	24049.62
522.702	23043.62
523.474	22041.62
524.245	21181.62
525.017	20236.62
525.788	19364.62
526.56	18568.62
527.331	17755.62
528.102	16836.62
528.873	16055.62
529.644	15282.62
530.415	14559.62
531.186	13892.62
531.957	13131.62
532.728	12508.62
533.498	11862.62
534.269	11204.62
535.039	10675.62
535.81	10074.62
536.58	9515.62
537.351	9011.62
538.121	8506.62
538.891	8066.62
539.661	7650.62
540.431	7166.62
541.201	6828.62
541.971	6484.62
542.741	6119.62
543.51	5834.62
544.28	5528.62
545.05	5267.62
545.819	5031.62
546.588	4795.62
547.358	4598.62
548.127	4326.62
548.896	4130.62
549.665	3916.62
550.434	3730.62
551.203	3519.62
551.972	3363.62
552.741	3167.62
553.51	2996.62
554.278	2835.62
555.047	2651.62
555.815	2531.62
556.584	2385.62
557.352	2230.62
558.121	2117.62
558.889	2015.62
559.657	1904.62
560.425	1809.62
561.193	1714.62
561.961	1616.62
562.729	1521.62
563.496	1441.62
564.264	1357.62
565.032	1280.62
565.799	1219.62
566.567	1154.62
567.334	1094.62
568.101	1022.62
568.869	970.62
569.636	927.62
570.403	865.62
571.17	820.62
571.937	769.62
572.704	729.62
573.471	691.62
574.237	650.62
575.004	614.62
575.771	588.62
576.537	547.62
577.303	506.62
578.07	485.62
578.836	466.62
579.602	429.62
580.368	419.62
581.134	394.62
581.9	373.62
582.666	348.62
583.432	338.62
584.198	318.62
584.964	306.62
585.729	286.62
586.495	266.62
587.26	258.62
588.025	249.62
588.791	229.62
589.556	220.62
590.321	208.62
591.086	202.62
591.851	190.62
592.616	174.62
593.381	171.62
594.146	165.62
594.911	162.62
595.675	149.62
596.44	141.62
597.204	132.62
597.969	130.62
598.733	126.62
599.497	114.62
600.261	117.62
601.025	106.62
601.79	103.62
602.553	103.62
603.317	97.62
604.081	91.62
604.845	86.62
605.609	81.62
606.372	78.62
607.136	80.62
607.899	74.62
608.662	73.62
609.426	66.62
610.189	62.62
610.952	66.62
611.715	64.62
612.478	58.62
613.241	58.62
614.004	54.62
614.767	56.62
615.529	53.62
616.292	52.62
617.055	46.62
617.817	47.62
618.579	43.62
619.342	43.62
620.104	44.62
620.866	40.62
621.628	39.62
622.39	41.62
623.152	37.62
623.914	38.62
624.676	35.62
625.438	34.62
626.199	31.62
626.961	33.62
627.722	31.62
628.484	26.62
629.245	27.62
630.006	28.62
630.768	29.62
631.529	27.62
632.29	25.62
633.051	22.62
633.812	25.62
634.573	25.62
635.333	24.62
636.094	20.62
636.855	23.62
637.615	21.62
638.376	19.62
639.136	20.62
639.896	19.62
640.657	18.62
641.417	18.62
642.177	19.62
642.937	14.62
643.697	17.62
644.457	21.62
645.216	14.62
645.976	15.62
646.736	17.62
647.495	16.62
648.255	14.62
649.014	16.62
649.774	14.62
650.533	11.62
651.292	13.62
652.051	13.62
652.81	12.62
653.569	14.62
654.328	13.62
655.087	12.62
655.846	11.62
656.604	10.62
657.363	13.62
658.121	10.62
658.88	9.62
659.638	11.62
660.397	10.62
661.155	11.62
661.913	10.62
662.671	11.62
663.429	10.62
664.187	12.62
664.945	10.62
665.703	9.62
666.46	8.62
667.218	9.62
667.976	11.62
668.733	7.62
669.49	10.62
670.248	8.62
671.005	9.62
671.762	9.62
672.519	10.62
673.276	8.62
674.033	8.62
674.79	7.62
675.547	10.62
676.304	9.62
677.06	9.62
677.817	8.62
678.574	9.62
679.33	7.62
680.086	9.62
680.843	5.62
681.599	7.62
682.355	8.62
683.111	9.62
683.867	8.62
684.623	7.62
685.379	8.62
686.135	9.62
686.89	9.62
687.646	7.62
688.402	7.62
689.157	8.62
689.912	5.62
690.668	8.62
691.423	6.62
692.178	6.62
692.933	6.62
693.688	8.62
694.443	9.62
695.198	7.62
695.953	5.62
696.708	8.62
697.462	7.62
698.217	9.62
698.972	6.62
699.726	7.62
700.48	7.62
701.235	5.62
701.989	7.62
702.743	5.62
703.497	7.62
704.251	5.62
705.005	7.62
705.759	6.62
706.513	5.62
707.266	7.62
708.02	7.62
708.774	5.62
709.527	6.62
710.28	6.62
711.034	6.62
711.787	8.62
712.54	7.62
713.293	8.62
714.046	6.62
714.799	8.62
715.552	6.62
716.305	5.62
717.058	5.62
717.81	7.62
718.563	8.62
719.315	8.62
720.068	4.62
720.82	7.62
721.573	7.62
722.325	8.62
723.077	9.62
723.829	7.62
724.581	8.62
725.333	10.62
726.085	6.62
726.836	7.62
727.588	8.62
728.34	9.62
729.091	9.62
729.843	6.62
730.594	9.62
731.346	9.62
732.097	8.62
732.848	8.62
733.599	9.62
734.35	7.62
735.101	5.62
735.852	12.62
736.603	9.62
737.354	10.62
738.104	10.62
738.855	9.62
739.605	9.62
740.356	9.62
741.106	12.62
741.856	9.62
742.607	8.62
743.357	8.62
744.107	6.62
744.857	9.62
745.607	8.62
746.357	9.62
747.106	9.62
747.856	10.62
748.606	9.62
749.355	11.62
750.105	9.62
750.854	10.62
751.603	10.62
752.353	10.62
753.102	11.62
753.851	12.62
754.6	9.62
755.349	9.62
756.098	10.62
756.847	10.62
757.595	10.62
758.344	12.62
759.093	14.62
759.841	9.62
760.589	12.62
761.338	12.62
762.086	7.62
762.834	11.62
763.582	12.62
764.331	11.62
765.079	11.62
765.826	11.62
766.574	13.62
767.322	13.62
768.07	14.62
768.817	14.62
769.565	13.62
770.312	13.62
771.06	16.62
771.807	14.62
772.554	13.62
773.302	13.62
774.049	13.62
774.796	12.62
775.543	14.62
776.29	12.62
777.036	15.62
777.783	16.62
778.53	15.62
779.276	14.62
780.023	15.62
780.769	15.62
781.516	14.62
782.262	15.62
783.008	14.62
783.754	14.62
784.5	13.62
785.246	15.62
785.992	14.62
786.738	12.62
787.484	14.62
788.23	15.62
788.975	15.62
789.721	12.62
790.466	11.62
791.212	14.62
791.957	14.62
792.702	14.62
793.447	12.62
794.193	12.62
794.938	15.62
795.683	12.62
796.427	11.62
797.172	13.62
797.917	15.62
798.662	12.62
799.406	10.62
800.151	13.62
800.895	12.62
801.64	13.62
802.384	11.62
803.128	12.62
803.872	12.62
804.616	10.62
805.36	11.62
806.104	11.62
806.848	11.62
807.592	10.62
808.336	6.62
809.079	10.62
809.823	9.62
810.566	9.62
811.31	7.62
812.053	8.62
812.796	9.62
813.539	7.62
814.283	8.62
815.026	9.62
815.769	7.62
816.511	8.62
817.254	9.62
817.997	7.62
818.74	6.62
819.482	6.62
820.225	8.62
820.967	5.62
821.71	8.62
822.452	6.62
823.194	7.62
823.936	7.62
824.678	7.62
825.42	8.62
826.162	3.62
826.904	7.62
827.646	4.62
828.388	7.62
829.129	7.62
829.871	5.62
830.612	8.62
831.354	6.62
832.095	5.62
832.836	7.62
833.577	7.62
834.319	3.62
835.06	6.62
835.801	3.62
836.542	2.62
837.282	5.62
838.023	3.62
838.764	6.62
839.504	4.62
840.245	3.62
840.985	5.62
841.726	6.62
842.466	4.62
843.206	5.62
843.946	3.62
844.687	3.62
845.427	3.62
846.166	4.62
846.906	6.62
847.646	6.62
848.386	2.62
849.125	3.62
849.865	4.62
850.605	5.62
851.344	3.62
852.083	5.62
852.823	3.62
853.562	4.62
854.301	3.62
855.04	4.62
855.779	2.62
856.518	3.62
857.257	2.62
857.995	3.62
858.734	2.62
859.473	2.62
860.211	3.62
860.95	2.62
861.688	3.62
862.426	4.62
863.165	2.62
863.903	3.62
864.641	3.62
865.379	1.62
866.117	3.62
866.855	4.62
867.593	2.62
868.33	2.62
869.068	3.62
869.806	0.62
870.543	0.62
871.28	1.62
872.018	0.62
872.755	2.62
873.492	2.62
874.229	1.62
874.967	1.62
875.703	-0.38
876.44	2.62
877.177	0.62
877.914	1.62
878.651	0.62
879.387	1.62
880.124	-0.38
880.86	-0.38
881.597	1.62
882.333	2.62
883.069	2.62
883.806	-0.38
884.542	1.62
885.278	1.62
886.014	-0.38
886.749	3.62
887.485	1.62
888.221	2.62
888.957	-1.38
889.692	0.62
890.428	2.62
891.163	0.62
891.899	4.62
892.634	1.62
893.369	-0.38
894.104	0.62
894.839	1.62
895.574	0.62
896.309	0.62
897.044	0.62
897.779	1.62
898.514	-1.38
899.248	0.62
899.983	-0.38
900.717	0.62
901.452	2.62
902.186	-1.38
902.92	2.62
903.654	-0.38
904.389	2.62
905.123	2.62
905.857	2.62
906.59	-1.38
907.324	1.62
908.058	2.62
908.792	-1.38
909.525	1.62
910.259	1.62
910.992	1.62
911.726	0.62
912.459	0.62
913.192	-0.38
913.925	-1.38
914.658	1.62
915.391	0.62
916.124	0.62
916.857	-1.38
917.59	-0.38
918.323	-0.38
919.055	0.62
919.788	0.62
920.521	-0.38
921.253	0.62
921.985	0.62
922.718	-1.38
923.45	-0.38
924.182	-0.38
924.914	2.62
925.646	0.62
926.378	-0.38
927.11	-0.38
927.841	-0.38
928.573	1.62
929.305	0.62
930.036	1.62
930.768	0.62
931.499	0.62
932.23	-2.38
932.962	-2.38
933.693	1.62
934.424	1.62
935.155	0.62
935.886	2.62
936.617	-2.38
937.348	1.62
938.078	0.62
938.809	1.62
939.54	0.62
940.27	-0.38
941.001	-0.38
941.731	-0.38
942.461	-1.38
943.191	-1.38
943.922	0.62
944.652	0.62
945.382	1.62
946.112	-1.38
946.841	-0.38
947.571	-0.38
948.301	-0.38
949.031	0.62
949.76	0.62
950.49	-0.38
951.219	1.62
951.948	-1.38
952.678	-1.38
953.407	0.62
954.136	-0.38
954.865	1.62
955.594	-0.38
956.323	-1.38
957.052	-0.38
957.78	0.62
958.509	0.62
959.238	-0.38
959.966	2.62
960.695	0.62
961.423	-1.38
962.151	-0.38
962.88	0.62
963.608	-0.38
964.336	0.62
965.064	0.62
965.792	-0.38
966.52	-1.38
967.247	0.62
967.975	-1.38
968.703	0.62
969.43	-1.38
970.158	0.62
970.885	0.62
971.613	-1.38
972.34	-1.38
973.067	0.62
973.794	-1.38
974.521	-0.38
975.248	0.62
975.975	0.62
976.702	-2.38
977.429	-0.38
978.156	0.62
978.882	0.62
979.609	-1.38
980.335	1.62
981.062	0.62
981.788	-0.38
982.514	0.62
983.24	1.62
983.967	0.62
984.693	-0.38
985.419	1.62
986.144	1.62
986.87	-0.38
987.596	0.62
988.322	1.62
989.047	-1.38
989.773	1.62
990.498	-0.38
991.224	0.62
991.949	-2.38
992.674	0.62
993.399	0.62
994.124	1.62
994.849	1.62
995.574	-1.38
996.299	0.62
997.024	1.62
997.749	1.62
998.473	-0.38
999.198	-1.38
999.922	1.62
1000.647	-1.38
1001.371	3.62
1002.095	-0.38
1002.82	0.62
1003.544	-2.38
1004.268	5.62
1004.992	2.62
1005.716	7.62
1006.439	4.62
1007.163	2.62
1007.887	6.62
1008.611	-0.38
1009.334	0.62
1010.058	0.62
1010.781	0.62
1011.504	-1.38
1012.228	2.62
1012.951	0.62
1013.674	-1.38
1014.397	-0.38
1015.12	-0.38
