节点500_705_QEPB04081__350__20-50-54-590.txt的数据

Date: Wed Nov 12 20:50:54 CST 2025
User: PC
Spectrometer: QEPB0408
触发模式: 0
积分时间 (秒): 1.000000E-2
Scans to average: 1
启用暗噪声校正: true
启用非线性校正: false
滑动平均宽度: 0
X轴模式: Wavelengths
Number of Pixels in Spectrum: 1044
>>>>>Begin Spectral Data<<<<<
220.843	5
221.644	5
222.444	5
223.244	8
224.045	6
224.845	7
225.645	3
226.445	6
227.245	7
228.045	9
228.845	7
229.645	8
230.444	8
231.244	11
232.043	10
232.843	10
233.642	8
234.442	9
235.241	10
236.04	10
236.839	11
237.638	11
238.437	11
239.236	14
240.035	12
240.833	11
241.632	13
242.43	10
243.229	13
244.027	13
244.826	10
245.624	15
246.422	14
247.22	13
248.018	15
248.816	15
249.614	14
250.412	16
251.21	17
252.007	14
252.805	18
253.602	19
254.4	19
255.197	17
255.994	24
256.791	20
257.589	22
258.386	21
259.183	23
259.979	19
260.776	20
261.573	24
262.37	24
263.166	28
263.963	25
264.759	26
265.556	26
266.352	28
267.148	31
267.944	27
268.74	28
269.536	30
270.332	28
271.128	32
271.924	34
272.719	31
273.515	32
274.311	33
275.106	34
275.901	32
276.697	33
277.492	31
278.287	35
279.082	35
279.877	33
280.672	37
281.467	34
282.262	37
283.056	37
283.851	33
284.646	34
285.44	33
286.234	39
287.029	37
287.823	31
288.617	32
289.411	31
290.205	34
290.999	30
291.793	31
292.587	29
293.381	31
294.174	29
294.968	30
295.761	27
296.555	28
297.348	27
298.141	26
298.935	30
299.728	26
300.521	25
301.314	25
302.107	22
302.899	19
303.692	23
304.485	25
305.277	19
306.07	22
306.862	23
307.655	22
308.447	22
309.239	23
310.031	21
310.823	19
311.615	20
312.407	16
313.199	20
313.991	15
314.783	18
315.574	16
316.366	16
317.157	13
317.949	14
318.74	14
319.531	15
320.322	16
321.113	13
321.904	14
322.695	15
323.486	15
324.277	14
325.068	15
325.858	11
326.649	12
327.439	12
328.23	15
329.02	14
329.81	12
330.6	12
331.391	13
332.181	12
332.971	11
333.76	11
334.55	11
335.34	11
336.13	14
336.919	11
337.709	12
338.498	12
339.287	14
340.077	11
340.866	11
341.655	13
342.444	12
343.233	13
344.022	9
344.811	14
345.6	13
346.388	12
347.177	11
347.965	15
348.754	12
349.542	11
350.33	11
351.119	12
351.907	11
352.695	12
353.483	9
354.271	13
355.059	9
355.846	12
356.634	14
357.422	11
358.209	13
358.997	12
359.784	12
360.571	11
361.359	11
362.146	11
362.933	10
363.72	13
364.507	10
365.294	11
366.081	11
366.867	11
367.654	10
368.44	7
369.227	7
370.013	11
370.8	10
371.586	7
372.372	10
373.158	9
373.944	11
374.73	12
375.516	11
376.302	9
377.088	7
377.873	10
378.659	10
379.445	11
380.23	9
381.015	10
381.801	9
382.586	10
383.371	12
384.156	12
384.941	7
385.726	10
386.511	11
387.296	12
388.08	12
388.865	9
389.649	13
390.434	11
391.218	12
392.003	13
392.787	10
393.571	12
394.355	13
395.139	14
395.923	13
396.707	11
397.491	13
398.274	12
399.058	14
399.842	14
400.625	14
401.408	17
402.192	14
402.975	12
403.758	13
404.541	15
405.324	13
406.107	13
406.89	15
407.673	13
408.456	17
409.238	17
410.021	15
410.803	17
411.586	15
412.368	18
413.151	19
413.933	19
414.715	18
415.497	15
416.279	21
417.061	20
417.843	21
418.624	19
419.406	21
420.188	19
420.969	22
421.751	24
422.532	24
423.313	20
424.095	22
424.876	25
425.657	29
426.438	24
427.219	26
428	29
428.78	27
429.561	31
430.342	29
431.122	31
431.903	33
432.683	34
433.464	34
434.244	37
435.024	41
435.804	41
436.584	43
437.364	48
438.144	48
438.924	54
439.704	53
440.483	57
441.263	58
442.042	67
442.822	72
443.601	78
444.38	77
445.16	86
445.939	95
446.718	103
447.497	107
448.276	121
449.054	137
449.833	148
450.612	161
451.391	181
452.169	198
452.948	220
453.726	245
454.504	275
455.282	300
456.061	335
456.839	372
457.617	414
458.395	469
459.172	507
459.95	557
460.728	648
461.506	701
462.283	791
463.061	875
463.838	976
464.615	1108
465.393	1213
466.17	1352
466.947	1509
467.724	1682
468.501	1844
469.278	2061
470.055	2262
470.831	2485
471.608	2769
472.385	3062
473.161	3357
473.938	3645
474.714	4044
475.49	4432
476.266	4867
477.043	5285
477.819	5807
478.595	6345
479.371	6889
480.146	7553
480.922	8204
481.698	8995
482.473	9779
483.249	10630
484.024	11524
484.8	12478
485.575	13570
486.35	14674
487.126	15901
487.901	17170
488.676	18545
489.451	20002
490.225	21487
491	23046
491.775	24673
492.55	26378
493.324	28059
494.099	29837
494.873	31655
495.647	33313
496.422	35134
497.196	36971
497.97	38588
498.744	40008
499.518	41722
500.292	43029
501.066	44091
501.839	44960
502.613	45797
503.387	46387
504.16	46825
504.934	46931
505.707	46886
506.48	46636
507.253	46199
508.027	45483
508.8	44503
509.573	43533
510.346	42420
511.118	41468
511.891	40240
512.664	38800
513.437	37272
514.209	35961
514.982	34634
515.754	33135
516.526	31869
517.298	30555
518.071	29353
518.843	28134
519.615	27040
520.387	25960
521.159	24940
521.93	23938
522.702	22897
523.474	21967
524.245	21039
525.017	20139
525.788	19322
526.56	18473
527.331	17670
528.102	16740
528.873	15912
529.644	15185
530.415	14481
531.186	13773
531.957	13009
532.728	12375
533.498	11707
534.269	11084
535.039	10508
535.81	9992
536.58	9400
537.351	8902
538.121	8414
538.891	7958
539.661	7532
540.431	7132
541.201	6782
541.971	6442
542.741	6045
543.51	5801
544.28	5500
545.05	5220
545.819	4980
546.588	4743
547.358	4550
548.127	4287
548.896	4105
549.665	3904
550.434	3677
551.203	3470
551.972	3315
552.741	3116
553.51	2956
554.278	2769
555.047	2643
555.815	2482
556.584	2357
557.352	2213
558.121	2098
558.889	1984
559.657	1882
560.425	1771
561.193	1679
561.961	1588
562.729	1498
563.496	1418
564.264	1352
565.032	1263
565.799	1197
566.567	1144
567.334	1087
568.101	1014
568.869	958
569.636	918
570.403	861
571.17	798
571.937	767
572.704	717
573.471	687
574.237	660
575.004	609
575.771	561
576.537	540
577.303	509
578.07	486
578.836	456
579.602	424
580.368	413
581.134	390
581.9	367
582.666	352
583.432	335
584.198	314
584.964	295
585.729	290
586.495	274
587.26	253
588.025	242
588.791	229
589.556	216
590.321	202
591.086	204
591.851	180
592.616	179
593.381	169
594.146	160
594.911	153
595.675	148
596.44	144
597.204	135
597.969	128
598.733	126
599.497	114
600.261	116
601.025	113
601.79	102
602.553	99
603.317	93
604.081	93
604.845	89
605.609	81
606.372	81
607.136	77
607.899	74
608.662	71
609.426	67
610.189	65
610.952	60
611.715	62
612.478	59
613.241	55
614.004	58
614.767	54
615.529	53
616.292	49
617.055	48
617.817	46
618.579	46
619.342	41
620.104	43
620.866	42
621.628	40
622.39	40
623.152	41
623.914	36
624.676	40
625.438	36
626.199	35
626.961	31
627.722	30
628.484	28
629.245	31
630.006	29
630.768	28
631.529	26
632.29	26
633.051	24
633.812	25
634.573	26
635.333	23
636.094	23
636.855	23
637.615	20
638.376	21
639.136	20
639.896	22
640.657	20
641.417	18
642.177	20
642.937	17
643.697	17
644.457	19
645.216	16
645.976	21
646.736	15
647.495	20
648.255	14
649.014	17
649.774	15
650.533	14
651.292	18
652.051	13
652.81	14
653.569	15
654.328	13
655.087	11
655.846	14
656.604	14
657.363	11
658.121	13
658.88	11
659.638	12
660.397	13
661.155	9
661.913	12
662.671	11
663.429	7
664.187	9
664.945	8
665.703	11
666.46	11
667.218	9
667.976	12
668.733	11
669.49	9
670.248	9
671.005	10
671.762	11
672.519	10
673.276	9
674.033	8
674.79	11
675.547	7
676.304	10
677.06	7
677.817	9
678.574	10
679.33	9
680.086	11
680.843	8
681.599	7
682.355	9
683.111	8
683.867	9
684.623	9
685.379	9
686.135	8
686.89	7
687.646	9
688.402	9
689.157	11
689.912	11
690.668	7
691.423	5
692.178	7
692.933	10
693.688	6
694.443	9
695.198	9
695.953	7
696.708	8
697.462	6
698.217	9
698.972	7
699.726	5
700.48	8
701.235	7
701.989	10
702.743	10
703.497	8
704.251	10
705.005	9
705.759	10
706.513	6
707.266	8
708.02	9
708.774	7
709.527	8
710.28	8
711.034	9
711.787	6
712.54	9
713.293	7
714.046	9
714.799	8
715.552	7
716.305	10
717.058	7
717.81	9
718.563	9
719.315	11
720.068	8
720.82	8
721.573	7
722.325	11
723.077	8
723.829	6
724.581	8
725.333	7
726.085	8
726.836	10
727.588	7
728.34	11
729.091	10
729.843	7
730.594	9
731.346	10
732.097	10
732.848	9
733.599	9
734.35	10
735.101	10
735.852	8
736.603	7
737.354	9
738.104	11
738.855	8
739.605	9
740.356	11
741.106	8
741.856	10
742.607	12
743.357	12
744.107	9
744.857	9
745.607	12
746.357	11
747.106	11
747.856	10
748.606	12
749.355	9
750.105	14
750.854	10
751.603	11
752.353	12
753.102	10
753.851	11
754.6	12
755.349	11
756.098	12
756.847	10
757.595	15
758.344	12
759.093	12
759.841	10
760.589	14
761.338	14
762.086	15
762.834	14
763.582	13
764.331	12
765.079	13
765.826	14
766.574	14
767.322	11
768.07	13
768.817	14
769.565	12
770.312	16
771.06	15
771.807	13
772.554	16
773.302	14
774.049	16
774.796	16
775.543	16
776.29	15
777.036	14
777.783	17
778.53	17
779.276	18
780.023	14
780.769	15
781.516	16
782.262	16
783.008	17
783.754	17
784.5	17
785.246	18
785.992	17
786.738	15
787.484	16
788.23	14
788.975	14
789.721	15
790.466	16
791.212	14
791.957	15
792.702	13
793.447	18
794.193	17
794.938	15
795.683	13
796.427	13
797.172	17
797.917	13
798.662	15
799.406	12
800.151	13
800.895	14
801.64	12
802.384	12
803.128	11
803.872	11
804.616	12
805.36	13
806.104	11
806.848	11
807.592	10
808.336	11
809.079	12
809.823	11
810.566	9
811.31	9
812.053	10
812.796	9
813.539	9
814.283	10
815.026	8
815.769	9
816.511	9
817.254	7
817.997	6
818.74	10
819.482	8
820.225	7
820.967	7
821.71	8
822.452	7
823.194	9
823.936	7
824.678	5
825.42	5
826.162	7
826.904	8
827.646	6
828.388	6
829.129	6
829.871	6
830.612	7
831.354	7
832.095	6
832.836	3
833.577	6
834.319	7
835.06	6
835.801	6
836.542	6
837.282	6
838.023	6
838.764	4
839.504	7
840.245	4
840.985	6
841.726	3
842.466	4
843.206	6
843.946	4
844.687	7
845.427	7
846.166	4
846.906	6
847.646	3
848.386	4
849.125	3
849.865	7
850.605	6
851.344	5
852.083	5
852.823	4
853.562	6
854.301	8
855.04	4
855.779	6
856.518	3
857.257	1
857.995	3
858.734	3
859.473	5
860.211	5
860.95	2
861.688	1
862.426	5
863.165	3
863.903	3
864.641	4
865.379	3
866.117	3
866.855	2
867.593	3
868.33	1
869.068	3
869.806	3
870.543	-1
871.28	3
872.018	2
872.755	3
873.492	4
874.229	2
874.967	4
875.703	1
876.44	3
877.177	1
877.914	2
878.651	3
879.387	1
880.124	4
880.86	3
881.597	2
882.333	1
883.069	2
883.806	1
884.542	1
885.278	1
886.014	0
886.749	2
887.485	0
888.221	1
888.957	1
889.692	0
890.428	3
891.163	2
891.899	1
892.634	1
893.369	2
894.104	2
894.839	1
895.574	2
896.309	2
897.044	1
897.779	2
898.514	1
899.248	1
899.983	2
900.717	2
901.452	-1
902.186	-2
902.92	0
903.654	0
904.389	2
905.123	2
905.857	0
906.59	2
907.324	2
908.058	2
908.792	3
909.525	-2
910.259	2
910.992	0
911.726	1
912.459	1
913.192	3
913.925	0
914.658	0
915.391	1
916.124	0
916.857	0
917.59	3
918.323	-1
919.055	1
919.788	-1
920.521	3
921.253	0
921.985	-1
922.718	0
923.45	-2
924.182	2
924.914	0
925.646	1
926.378	1
927.11	-1
927.841	-1
928.573	1
929.305	0
930.036	-1
930.768	2
931.499	-2
932.23	2
932.962	2
933.693	-3
934.424	0
935.155	2
935.886	1
936.617	-1
937.348	0
938.078	2
938.809	1
939.54	-1
940.27	1
941.001	-2
941.731	1
942.461	2
943.191	2
943.922	0
944.652	0
945.382	0
946.112	-1
946.841	1
947.571	-1
948.301	-1
949.031	-1
949.76	1
950.49	1
951.219	-1
951.948	0
952.678	-1
953.407	0
954.136	-2
954.865	1
955.594	1
956.323	1
957.052	1
957.78	0
958.509	0
959.238	0
959.966	0
960.695	1
961.423	0
962.151	3
962.88	0
963.608	0
964.336	2
965.064	0
965.792	-1
966.52	-1
967.247	1
967.975	2
968.703	1
969.43	0
970.158	0
970.885	2
971.613	1
972.34	-1
973.067	-1
973.794	0
974.521	0
975.248	0
975.975	2
976.702	1
977.429	0
978.156	0
978.882	-2
979.609	3
980.335	3
981.062	-2
981.788	1
982.514	1
983.24	1
983.967	-2
984.693	-1
985.419	0
986.144	0
986.87	1
987.596	2
988.322	3
989.047	2
989.773	3
990.498	1
991.224	-1
991.949	0
992.674	0
993.399	2
994.124	1
994.849	-2
995.574	1
996.299	-3
997.024	1
997.749	1
998.473	1
999.198	0
999.922	0
1000.647	1
1001.371	3
1002.095	0
1002.82	-1
1003.544	-1
1004.268	5
1004.992	3
1005.716	5
1006.439	3
1007.163	4
1007.887	6
1008.611	-1
1009.334	3
1010.058	1
1010.781	0
1011.504	1
1012.228	1
1012.951	-1
1013.674	0
1014.397	1
1015.12	-1
