节点500_705_QEPB04081__213__20-48-58-495.txt的数据

Date: Wed Nov 12 20:48:58 CST 2025
User: PC
Spectrometer: QEPB0408
触发模式: 0
积分时间 (秒): 1.000000E-2
Scans to average: 1
启用暗噪声校正: true
启用非线性校正: false
滑动平均宽度: 0
X轴模式: Wavelengths
Number of Pixels in Spectrum: 1044
>>>>>Begin Spectral Data<<<<<
220.843	5.12
221.644	6.12
222.444	5.12
223.244	5.12
224.045	4.12
224.845	7.12
225.645	8.12
226.445	8.12
227.245	6.12
228.045	9.12
228.845	10.12
229.645	8.12
230.444	10.12
231.244	10.12
232.043	8.12
232.843	9.12
233.642	10.12
234.442	9.12
235.241	7.12
236.04	12.12
236.839	11.12
237.638	11.12
238.437	10.12
239.236	12.12
240.035	14.12
240.833	12.12
241.632	13.12
242.43	14.12
243.229	15.12
244.027	12.12
244.826	12.12
245.624	15.12
246.422	16.12
247.22	17.12
248.018	17.12
248.816	16.12
249.614	17.12
250.412	15.12
251.21	18.12
252.007	17.12
252.805	19.12
253.602	17.12
254.4	19.12
255.197	18.12
255.994	18.12
256.791	20.12
257.589	22.12
258.386	20.12
259.183	20.12
259.979	23.12
260.776	22.12
261.573	25.12
262.37	22.12
263.166	25.12
263.963	25.12
264.759	27.12
265.556	27.12
266.352	29.12
267.148	31.12
267.944	30.12
268.74	28.12
269.536	31.12
270.332	31.12
271.128	31.12
271.924	33.12
272.719	30.12
273.515	34.12
274.311	34.12
275.106	36.12
275.901	36.12
276.697	35.12
277.492	35.12
278.287	37.12
279.082	36.12
279.877	36.12
280.672	35.12
281.467	39.12
282.262	38.12
283.056	36.12
283.851	35.12
284.646	35.12
285.44	36.12
286.234	34.12
287.029	34.12
287.823	36.12
288.617	32.12
289.411	34.12
290.205	35.12
290.999	36.12
291.793	33.12
292.587	31.12
293.381	33.12
294.174	30.12
294.968	30.12
295.761	27.12
296.555	28.12
297.348	26.12
298.141	25.12
298.935	28.12
299.728	24.12
300.521	27.12
301.314	27.12
302.107	24.12
302.899	24.12
303.692	25.12
304.485	22.12
305.277	26.12
306.07	21.12
306.862	22.12
307.655	23.12
308.447	21.12
309.239	23.12
310.031	21.12
310.823	18.12
311.615	17.12
312.407	19.12
313.199	14.12
313.991	17.12
314.783	16.12
315.574	15.12
316.366	16.12
317.157	17.12
317.949	14.12
318.74	16.12
319.531	13.12
320.322	17.12
321.113	13.12
321.904	11.12
322.695	12.12
323.486	16.12
324.277	13.12
325.068	15.12
325.858	12.12
326.649	13.12
327.439	11.12
328.23	9.12
329.02	14.12
329.81	10.12
330.6	12.12
331.391	12.12
332.181	10.12
332.971	14.12
333.76	9.12
334.55	11.12
335.34	15.12
336.13	11.12
336.919	12.12
337.709	11.12
338.498	12.12
339.287	11.12
340.077	13.12
340.866	10.12
341.655	12.12
342.444	14.12
343.233	10.12
344.022	12.12
344.811	12.12
345.6	11.12
346.388	12.12
347.177	11.12
347.965	12.12
348.754	10.12
349.542	10.12
350.33	12.12
351.119	10.12
351.907	11.12
352.695	11.12
353.483	11.12
354.271	9.12
355.059	11.12
355.846	11.12
356.634	11.12
357.422	10.12
358.209	10.12
358.997	11.12
359.784	11.12
360.571	11.12
361.359	11.12
362.146	11.12
362.933	11.12
363.72	9.12
364.507	10.12
365.294	10.12
366.081	9.12
366.867	9.12
367.654	10.12
368.44	11.12
369.227	4.12
370.013	10.12
370.8	10.12
371.586	9.12
372.372	12.12
373.158	7.12
373.944	11.12
374.73	11.12
375.516	10.12
376.302	10.12
377.088	9.12
377.873	13.12
378.659	9.12
379.445	13.12
380.23	13.12
381.015	11.12
381.801	12.12
382.586	8.12
383.371	13.12
384.156	13.12
384.941	12.12
385.726	11.12
386.511	10.12
387.296	14.12
388.08	12.12
388.865	13.12
389.649	11.12
390.434	10.12
391.218	11.12
392.003	12.12
392.787	11.12
393.571	12.12
394.355	13.12
395.139	12.12
395.923	11.12
396.707	15.12
397.491	13.12
398.274	14.12
399.058	12.12
399.842	14.12
400.625	13.12
401.408	15.12
402.192	13.12
402.975	15.12
403.758	16.12
404.541	16.12
405.324	15.12
406.107	14.12
406.89	15.12
407.673	18.12
408.456	17.12
409.238	20.12
410.021	19.12
410.803	17.12
411.586	19.12
412.368	19.12
413.151	18.12
413.933	18.12
414.715	17.12
415.497	19.12
416.279	20.12
417.061	20.12
417.843	19.12
418.624	20.12
419.406	19.12
420.188	19.12
420.969	22.12
421.751	22.12
422.532	23.12
423.313	24.12
424.095	26.12
424.876	25.12
425.657	24.12
426.438	25.12
427.219	27.12
428	29.12
428.78	29.12
429.561	28.12
430.342	31.12
431.122	34.12
431.903	34.12
432.683	35.12
433.464	34.12
434.244	38.12
435.024	39.12
435.804	40.12
436.584	43.12
437.364	46.12
438.144	47.12
438.924	46.12
439.704	51.12
440.483	58.12
441.263	61.12
442.042	61.12
442.822	70.12
443.601	71.12
444.38	79.12
445.16	85.12
445.939	93.12
446.718	99.12
447.497	111.12
448.276	116.12
449.054	132.12
449.833	143.12
450.612	157.12
451.391	172.12
452.169	189.12
452.948	214.12
453.726	233.12
454.504	257.12
455.282	291.12
456.061	318.12
456.839	350.12
457.617	400.12
458.395	445.12
459.172	485.12
459.95	548.12
460.728	612.12
461.506	691.12
462.283	766.12
463.061	857.12
463.838	961.12
464.615	1072.12
465.393	1194.12
466.17	1328.12
466.947	1467.12
467.724	1641.12
468.501	1834.12
469.278	2026.12
470.055	2251.12
470.831	2472.12
471.608	2738.12
472.385	3033.12
473.161	3358.12
473.938	3698.12
474.714	4087.12
475.49	4456.12
476.266	4924.12
477.043	5385.12
477.819	5921.12
478.595	6477.12
479.371	7105.12
480.146	7763.12
480.922	8485.12
481.698	9299.12
482.473	10129.12
483.249	11050.12
484.024	12006.12
484.8	13039.12
485.575	14196.12
486.35	15400.12
487.126	16703.12
487.901	18074.12
488.676	19549.12
489.451	21132.12
490.225	22771.12
491	24433.12
491.775	26158.12
492.55	27993.12
493.324	29815.12
494.099	31635.12
494.873	33497.12
495.647	35466.12
496.422	37289.12
497.196	39122.12
497.97	40840.12
498.744	42304.12
499.518	43915.12
500.292	45211.12
501.066	46175.12
501.839	47088.12
502.613	47711.12
503.387	48297.12
504.16	48626.12
504.934	48537.12
505.707	48437.12
506.48	47838.12
507.253	47141.12
508.027	46303.12
508.8	45236.12
509.573	44026.12
510.346	42938.12
511.118	41725.12
511.891	40356.12
512.664	38697.12
513.437	37089.12
514.209	35814.12
514.982	34331.12
515.754	32907.12
516.526	31488.12
517.298	30267.12
518.071	28950.12
518.843	27861.12
519.615	26703.12
520.387	25654.12
521.159	24713.12
521.93	23640.12
522.702	22602.12
523.474	21718.12
524.245	20717.12
525.017	19752.12
525.788	18906.12
526.56	18054.12
527.331	17289.12
528.102	16373.12
528.873	15524.12
529.644	14819.12
530.415	14082.12
531.186	13402.12
531.957	12677.12
532.728	11997.12
533.498	11420.12
534.269	10763.12
535.039	10201.12
535.81	9614.12
536.58	9103.12
537.351	8617.12
538.121	8189.12
538.891	7747.12
539.661	7333.12
540.431	6916.12
541.201	6545.12
541.971	6232.12
542.741	5869.12
543.51	5577.12
544.28	5340.12
545.05	5071.12
545.819	4813.12
546.588	4595.12
547.358	4382.12
548.127	4164.12
548.896	3961.12
549.665	3730.12
550.434	3550.12
551.203	3350.12
551.972	3194.12
552.741	2991.12
553.51	2835.12
554.278	2679.12
555.047	2523.12
555.815	2387.12
556.584	2266.12
557.352	2132.12
558.121	2007.12
558.889	1896.12
559.657	1802.12
560.425	1704.12
561.193	1612.12
561.961	1525.12
562.729	1441.12
563.496	1353.12
564.264	1279.12
565.032	1200.12
565.799	1165.12
566.567	1091.12
567.334	1037.12
568.101	984.12
568.869	925.12
569.636	862.12
570.403	819.12
571.17	776.12
571.937	730.12
572.704	696.12
573.471	658.12
574.237	611.12
575.004	574.12
575.771	551.12
576.537	522.12
577.303	490.12
578.07	456.12
578.836	440.12
579.602	403.12
580.368	386.12
581.134	372.12
581.9	358.12
582.666	340.12
583.432	318.12
584.198	312.12
584.964	291.12
585.729	279.12
586.495	262.12
587.26	247.12
588.025	233.12
588.791	221.12
589.556	210.12
590.321	194.12
591.086	182.12
591.851	181.12
592.616	173.12
593.381	162.12
594.146	156.12
594.911	145.12
595.675	141.12
596.44	136.12
597.204	126.12
597.969	127.12
598.733	117.12
599.497	116.12
600.261	110.12
601.025	109.12
601.79	99.12
602.553	98.12
603.317	92.12
604.081	86.12
604.845	85.12
605.609	83.12
606.372	84.12
607.136	78.12
607.899	75.12
608.662	72.12
609.426	67.12
610.189	63.12
610.952	64.12
611.715	61.12
612.478	58.12
613.241	57.12
614.004	55.12
614.767	51.12
615.529	53.12
616.292	51.12
617.055	47.12
617.817	46.12
618.579	46.12
619.342	42.12
620.104	43.12
620.866	45.12
621.628	38.12
622.39	38.12
623.152	36.12
623.914	36.12
624.676	34.12
625.438	31.12
626.199	31.12
626.961	31.12
627.722	33.12
628.484	32.12
629.245	27.12
630.006	28.12
630.768	29.12
631.529	27.12
632.29	27.12
633.051	26.12
633.812	25.12
634.573	23.12
635.333	23.12
636.094	21.12
636.855	21.12
637.615	23.12
638.376	21.12
639.136	22.12
639.896	19.12
640.657	18.12
641.417	17.12
642.177	16.12
642.937	17.12
643.697	18.12
644.457	17.12
645.216	19.12
645.976	17.12
646.736	17.12
647.495	15.12
648.255	15.12
649.014	15.12
649.774	12.12
650.533	15.12
651.292	12.12
652.051	13.12
652.81	14.12
653.569	15.12
654.328	13.12
655.087	14.12
655.846	14.12
656.604	12.12
657.363	14.12
658.121	13.12
658.88	14.12
659.638	12.12
660.397	12.12
661.155	13.12
661.913	13.12
662.671	10.12
663.429	11.12
664.187	9.12
664.945	10.12
665.703	10.12
666.46	11.12
667.218	12.12
667.976	12.12
668.733	10.12
669.49	13.12
670.248	11.12
671.005	11.12
671.762	10.12
672.519	9.12
673.276	11.12
674.033	8.12
674.79	10.12
675.547	9.12
676.304	9.12
677.06	8.12
677.817	10.12
678.574	9.12
679.33	10.12
680.086	6.12
680.843	8.12
681.599	8.12
682.355	9.12
683.111	11.12
683.867	8.12
684.623	11.12
685.379	8.12
686.135	7.12
686.89	8.12
687.646	7.12
688.402	9.12
689.157	9.12
689.912	8.12
690.668	5.12
691.423	6.12
692.178	9.12
692.933	6.12
693.688	8.12
694.443	8.12
695.198	9.12
695.953	9.12
696.708	7.12
697.462	7.12
698.217	9.12
698.972	10.12
699.726	8.12
700.48	6.12
701.235	8.12
701.989	7.12
702.743	7.12
703.497	10.12
704.251	7.12
705.005	9.12
705.759	8.12
706.513	7.12
707.266	8.12
708.02	10.12
708.774	8.12
709.527	7.12
710.28	10.12
711.034	7.12
711.787	9.12
712.54	6.12
713.293	9.12
714.046	9.12
714.799	10.12
715.552	9.12
716.305	7.12
717.058	8.12
717.81	8.12
718.563	9.12
719.315	8.12
720.068	7.12
720.82	9.12
721.573	8.12
722.325	7.12
723.077	9.12
723.829	7.12
724.581	8.12
725.333	9.12
726.085	9.12
726.836	6.12
727.588	8.12
728.34	11.12
729.091	6.12
729.843	9.12
730.594	10.12
731.346	7.12
732.097	11.12
732.848	7.12
733.599	13.12
734.35	12.12
735.101	13.12
735.852	9.12
736.603	9.12
737.354	9.12
738.104	9.12
738.855	9.12
739.605	9.12
740.356	11.12
741.106	10.12
741.856	10.12
742.607	12.12
743.357	11.12
744.107	12.12
744.857	11.12
745.607	12.12
746.357	10.12
747.106	9.12
747.856	12.12
748.606	10.12
749.355	11.12
750.105	11.12
750.854	14.12
751.603	11.12
752.353	13.12
753.102	13.12
753.851	9.12
754.6	14.12
755.349	11.12
756.098	12.12
756.847	11.12
757.595	9.12
758.344	12.12
759.093	12.12
759.841	13.12
760.589	13.12
761.338	13.12
762.086	13.12
762.834	13.12
763.582	15.12
764.331	13.12
765.079	15.12
765.826	14.12
766.574	14.12
767.322	16.12
768.07	12.12
768.817	18.12
769.565	12.12
770.312	13.12
771.06	14.12
771.807	13.12
772.554	17.12
773.302	15.12
774.049	14.12
774.796	18.12
775.543	15.12
776.29	18.12
777.036	15.12
777.783	16.12
778.53	15.12
779.276	16.12
780.023	16.12
780.769	14.12
781.516	16.12
782.262	16.12
783.008	16.12
783.754	17.12
784.5	17.12
785.246	17.12
785.992	15.12
786.738	21.12
787.484	18.12
788.23	16.12
788.975	18.12
789.721	14.12
790.466	15.12
791.212	14.12
791.957	13.12
792.702	15.12
793.447	14.12
794.193	15.12
794.938	15.12
795.683	11.12
796.427	16.12
797.172	14.12
797.917	15.12
798.662	13.12
799.406	15.12
800.151	13.12
800.895	11.12
801.64	10.12
802.384	10.12
803.128	13.12
803.872	11.12
804.616	11.12
805.36	13.12
806.104	11.12
806.848	10.12
807.592	9.12
808.336	12.12
809.079	13.12
809.823	9.12
810.566	11.12
811.31	11.12
812.053	9.12
812.796	8.12
813.539	10.12
814.283	8.12
815.026	9.12
815.769	8.12
816.511	11.12
817.254	8.12
817.997	8.12
818.74	7.12
819.482	9.12
820.225	7.12
820.967	11.12
821.71	8.12
822.452	9.12
823.194	9.12
823.936	6.12
824.678	7.12
825.42	5.12
826.162	5.12
826.904	7.12
827.646	7.12
828.388	7.12
829.129	5.12
829.871	7.12
830.612	3.12
831.354	6.12
832.095	6.12
832.836	8.12
833.577	8.12
834.319	5.12
835.06	6.12
835.801	5.12
836.542	5.12
837.282	5.12
838.023	6.12
838.764	5.12
839.504	3.12
840.245	5.12
840.985	7.12
841.726	7.12
842.466	5.12
843.206	6.12
843.946	7.12
844.687	5.12
845.427	6.12
846.166	7.12
846.906	4.12
847.646	6.12
848.386	3.12
849.125	5.12
849.865	8.12
850.605	4.12
851.344	3.12
852.083	4.12
852.823	6.12
853.562	5.12
854.301	6.12
855.04	6.12
855.779	3.12
856.518	6.12
857.257	4.12
857.995	5.12
858.734	4.12
859.473	4.12
860.211	5.12
860.95	4.12
861.688	2.12
862.426	6.12
863.165	2.12
863.903	4.12
864.641	3.12
865.379	4.12
866.117	5.12
866.855	6.12
867.593	3.12
868.33	1.12
869.068	1.12
869.806	3.12
870.543	4.12
871.28	3.12
872.018	3.12
872.755	3.12
873.492	2.12
874.229	3.12
874.967	1.12
875.703	3.12
876.44	2.12
877.177	3.12
877.914	2.12
878.651	1.12
879.387	2.12
880.124	3.12
880.86	3.12
881.597	5.12
882.333	3.12
883.069	1.12
883.806	0.12
884.542	3.12
885.278	2.12
886.014	2.12
886.749	1.12
887.485	1.12
888.221	1.12
888.957	2.12
889.692	3.12
890.428	1.12
891.163	4.12
891.899	1.12
892.634	0.12
893.369	3.12
894.104	0.12
894.839	3.12
895.574	0.12
896.309	1.12
897.044	1.12
897.779	2.12
898.514	3.12
899.248	1.12
899.983	0.12
900.717	1.12
901.452	1.12
902.186	2.12
902.92	1.12
903.654	1.12
904.389	-0.88
905.123	1.12
905.857	0.12
906.59	2.12
907.324	2.12
908.058	-0.88
908.792	0.12
909.525	-0.88
910.259	2.12
910.992	1.12
911.726	1.12
912.459	4.12
913.192	1.12
913.925	1.12
914.658	0.12
915.391	2.12
916.124	3.12
916.857	3.12
917.59	1.12
918.323	3.12
919.055	-1.88
919.788	1.12
920.521	0.12
921.253	2.12
921.985	3.12
922.718	1.12
923.45	1.12
924.182	0.12
924.914	0.12
925.646	2.12
926.378	1.12
927.11	0.12
927.841	1.12
928.573	2.12
929.305	0.12
930.036	3.12
930.768	0.12
931.499	1.12
932.23	-0.88
932.962	-0.88
933.693	-0.88
934.424	-1.88
935.155	0.12
935.886	0.12
936.617	2.12
937.348	1.12
938.078	-0.88
938.809	1.12
939.54	-0.88
940.27	2.12
941.001	0.12
941.731	-0.88
942.461	-0.88
943.191	1.12
943.922	1.12
944.652	-0.88
945.382	2.12
946.112	0.12
946.841	-1.88
947.571	2.12
948.301	-0.88
949.031	-0.88
949.76	1.12
950.49	0.12
951.219	1.12
951.948	1.12
952.678	1.12
953.407	1.12
954.136	-0.88
954.865	1.12
955.594	0.12
956.323	-0.88
957.052	-0.88
957.78	1.12
958.509	-1.88
959.238	1.12
959.966	1.12
960.695	-0.88
961.423	1.12
962.151	1.12
962.88	0.12
963.608	1.12
964.336	0.12
965.064	0.12
965.792	1.12
966.52	-0.88
967.247	2.12
967.975	0.12
968.703	-0.88
969.43	2.12
970.158	-0.88
970.885	1.12
971.613	1.12
972.34	1.12
973.067	0.12
973.794	-1.88
974.521	-1.88
975.248	1.12
975.975	2.12
976.702	2.12
977.429	0.12
978.156	-0.88
978.882	0.12
979.609	1.12
980.335	1.12
981.062	1.12
981.788	2.12
982.514	0.12
983.24	0.12
983.967	2.12
984.693	1.12
985.419	2.12
986.144	1.12
986.87	1.12
987.596	1.12
988.322	-0.88
989.047	2.12
989.773	-0.88
990.498	0.12
991.224	2.12
991.949	-1.88
992.674	1.12
993.399	0.12
994.124	0.12
994.849	2.12
995.574	0.12
996.299	-0.88
997.024	0.12
997.749	1.12
998.473	0.12
999.198	1.12
999.922	3.12
1000.647	-0.88
1001.371	3.12
1002.095	-0.88
1002.82	0.12
1003.544	0.12
1004.268	4.12
1004.992	6.12
1005.716	4.12
1006.439	4.12
1007.163	7.12
1007.887	6.12
1008.611	2.12
1009.334	2.12
1010.058	3.12
1010.781	0.12
1011.504	0.12
1012.228	-0.88
1012.951	-0.88
1013.674	-0.88
1014.397	-0.88
1015.12	0.12
