节点500_705_QEPB04081__407__20-51-42-662.txt的数据

Date: Wed Nov 12 20:51:42 CST 2025
User: PC
Spectrometer: QEPB0408
触发模式: 0
积分时间 (秒): 1.000000E-2
Scans to average: 1
启用暗噪声校正: true
启用非线性校正: false
滑动平均宽度: 0
X轴模式: Wavelengths
Number of Pixels in Spectrum: 1044
>>>>>Begin Spectral Data<<<<<
220.843	6.12
221.644	5.12
222.444	7.12
223.244	5.12
224.045	7.12
224.845	9.12
225.645	6.12
226.445	8.12
227.245	8.12
228.045	9.12
228.845	8.12
229.645	6.12
230.444	7.12
231.244	11.12
232.043	12.12
232.843	12.12
233.642	8.12
234.442	11.12
235.241	9.12
236.04	12.12
236.839	9.12
237.638	11.12
238.437	11.12
239.236	8.12
240.035	10.12
240.833	11.12
241.632	13.12
242.43	11.12
243.229	13.12
244.027	14.12
244.826	11.12
245.624	15.12
246.422	13.12
247.22	11.12
248.018	16.12
248.816	14.12
249.614	15.12
250.412	15.12
251.21	15.12
252.007	15.12
252.805	15.12
253.602	20.12
254.4	16.12
255.197	17.12
255.994	17.12
256.791	19.12
257.589	18.12
258.386	21.12
259.183	19.12
259.979	22.12
260.776	24.12
261.573	23.12
262.37	24.12
263.166	24.12
263.963	23.12
264.759	27.12
265.556	28.12
266.352	26.12
267.148	26.12
267.944	31.12
268.74	28.12
269.536	26.12
270.332	31.12
271.128	28.12
271.924	29.12
272.719	32.12
273.515	31.12
274.311	33.12
275.106	30.12
275.901	32.12
276.697	34.12
277.492	32.12
278.287	38.12
279.082	35.12
279.877	31.12
280.672	35.12
281.467	34.12
282.262	33.12
283.056	31.12
283.851	36.12
284.646	34.12
285.44	35.12
286.234	32.12
287.029	36.12
287.823	33.12
288.617	34.12
289.411	33.12
290.205	27.12
290.999	30.12
291.793	29.12
292.587	29.12
293.381	33.12
294.174	29.12
294.968	27.12
295.761	25.12
296.555	27.12
297.348	26.12
298.141	23.12
298.935	30.12
299.728	26.12
300.521	26.12
301.314	25.12
302.107	23.12
302.899	24.12
303.692	25.12
304.485	23.12
305.277	23.12
306.07	22.12
306.862	23.12
307.655	23.12
308.447	21.12
309.239	18.12
310.031	21.12
310.823	20.12
311.615	20.12
312.407	20.12
313.199	16.12
313.991	17.12
314.783	16.12
315.574	17.12
316.366	17.12
317.157	16.12
317.949	15.12
318.74	15.12
319.531	15.12
320.322	12.12
321.113	14.12
321.904	13.12
322.695	14.12
323.486	14.12
324.277	12.12
325.068	13.12
325.858	12.12
326.649	11.12
327.439	13.12
328.23	15.12
329.02	14.12
329.81	15.12
330.6	15.12
331.391	14.12
332.181	13.12
332.971	11.12
333.76	10.12
334.55	15.12
335.34	11.12
336.13	11.12
336.919	14.12
337.709	10.12
338.498	12.12
339.287	10.12
340.077	13.12
340.866	11.12
341.655	10.12
342.444	12.12
343.233	10.12
344.022	13.12
344.811	13.12
345.6	12.12
346.388	11.12
347.177	11.12
347.965	9.12
348.754	10.12
349.542	12.12
350.33	11.12
351.119	11.12
351.907	11.12
352.695	9.12
353.483	8.12
354.271	11.12
355.059	12.12
355.846	11.12
356.634	9.12
357.422	11.12
358.209	11.12
358.997	13.12
359.784	11.12
360.571	11.12
361.359	12.12
362.146	8.12
362.933	12.12
363.72	7.12
364.507	11.12
365.294	9.12
366.081	10.12
366.867	10.12
367.654	9.12
368.44	13.12
369.227	11.12
370.013	10.12
370.8	9.12
371.586	9.12
372.372	10.12
373.158	9.12
373.944	11.12
374.73	9.12
375.516	9.12
376.302	8.12
377.088	7.12
377.873	8.12
378.659	7.12
379.445	11.12
380.23	10.12
381.015	9.12
381.801	12.12
382.586	12.12
383.371	10.12
384.156	10.12
384.941	11.12
385.726	9.12
386.511	9.12
387.296	10.12
388.08	9.12
388.865	15.12
389.649	9.12
390.434	8.12
391.218	11.12
392.003	14.12
392.787	14.12
393.571	13.12
394.355	14.12
395.139	13.12
395.923	12.12
396.707	13.12
397.491	10.12
398.274	15.12
399.058	14.12
399.842	12.12
400.625	15.12
401.408	14.12
402.192	15.12
402.975	14.12
403.758	15.12
404.541	14.12
405.324	14.12
406.107	17.12
406.89	14.12
407.673	15.12
408.456	16.12
409.238	13.12
410.021	14.12
410.803	16.12
411.586	16.12
412.368	17.12
413.151	17.12
413.933	15.12
414.715	20.12
415.497	18.12
416.279	16.12
417.061	20.12
417.843	24.12
418.624	19.12
419.406	20.12
420.188	20.12
420.969	22.12
421.751	20.12
422.532	21.12
423.313	20.12
424.095	21.12
424.876	25.12
425.657	24.12
426.438	27.12
427.219	25.12
428	29.12
428.78	27.12
429.561	25.12
430.342	32.12
431.122	34.12
431.903	33.12
432.683	34.12
433.464	36.12
434.244	35.12
435.024	39.12
435.804	42.12
436.584	39.12
437.364	46.12
438.144	51.12
438.924	48.12
439.704	56.12
440.483	58.12
441.263	62.12
442.042	67.12
442.822	68.12
443.601	73.12
444.38	78.12
445.16	88.12
445.939	96.12
446.718	102.12
447.497	118.12
448.276	118.12
449.054	133.12
449.833	149.12
450.612	166.12
451.391	183.12
452.169	202.12
452.948	223.12
453.726	251.12
454.504	277.12
455.282	304.12
456.061	335.12
456.839	376.12
457.617	420.12
458.395	473.12
459.172	528.12
459.95	589.12
460.728	644.12
461.506	718.12
462.283	807.12
463.061	901.12
463.838	996.12
464.615	1106.12
465.393	1217.12
466.17	1361.12
466.947	1521.12
467.724	1689.12
468.501	1869.12
469.278	2067.12
470.055	2271.12
470.831	2528.12
471.608	2792.12
472.385	3066.12
473.161	3346.12
473.938	3685.12
474.714	4060.12
475.49	4442.12
476.266	4820.12
477.043	5286.12
477.819	5754.12
478.595	6314.12
479.371	6819.12
480.146	7503.12
480.922	8139.12
481.698	8880.12
482.473	9645.12
483.249	10481.12
484.024	11377.12
484.8	12289.12
485.575	13302.12
486.35	14429.12
487.126	15620.12
487.901	16841.12
488.676	18102.12
489.451	19511.12
490.225	20987.12
491	22548.12
491.775	24047.12
492.55	25664.12
493.324	27411.12
494.099	29081.12
494.873	30891.12
495.647	32644.12
496.422	34280.12
497.196	35981.12
497.97	37571.12
498.744	39108.12
499.518	40688.12
500.292	42142.12
501.066	43219.12
501.839	44151.12
502.613	44978.12
503.387	45576.12
504.16	46033.12
504.934	46316.12
505.707	46332.12
506.48	46096.12
507.253	45710.12
508.027	45089.12
508.8	44296.12
509.573	43273.12
510.346	42326.12
511.118	41453.12
511.891	40208.12
512.664	38793.12
513.437	37335.12
514.209	36066.12
514.982	34664.12
515.754	33276.12
516.526	32002.12
517.298	30703.12
518.071	29494.12
518.843	28316.12
519.615	27157.12
520.387	26155.12
521.159	25044.12
521.93	24083.12
522.702	23060.12
523.474	22094.12
524.245	21186.12
525.017	20299.12
525.788	19390.12
526.56	18584.12
527.331	17802.12
528.102	16882.12
528.873	16063.12
529.644	15324.12
530.415	14629.12
531.186	13867.12
531.957	13211.12
532.728	12511.12
533.498	11886.12
534.269	11261.12
535.039	10662.12
535.81	10119.12
536.58	9535.12
537.351	9043.12
538.121	8549.12
538.891	8067.12
539.661	7666.12
540.431	7247.12
541.201	6879.12
541.971	6524.12
542.741	6159.12
543.51	5838.12
544.28	5586.12
545.05	5311.12
545.819	5094.12
546.588	4850.12
547.358	4587.12
548.127	4378.12
548.896	4131.12
549.665	3933.12
550.434	3725.12
551.203	3545.12
551.972	3379.12
552.741	3174.12
553.51	3013.12
554.278	2822.12
555.047	2691.12
555.815	2524.12
556.584	2389.12
557.352	2267.12
558.121	2154.12
558.889	2021.12
559.657	1934.12
560.425	1818.12
561.193	1718.12
561.961	1641.12
562.729	1533.12
563.496	1441.12
564.264	1364.12
565.032	1286.12
565.799	1227.12
566.567	1159.12
567.334	1095.12
568.101	1039.12
568.869	983.12
569.636	918.12
570.403	866.12
571.17	822.12
571.937	785.12
572.704	729.12
573.471	695.12
574.237	658.12
575.004	613.12
575.771	575.12
576.537	551.12
577.303	518.12
578.07	486.12
578.836	466.12
579.602	431.12
580.368	415.12
581.134	392.12
581.9	376.12
582.666	362.12
583.432	338.12
584.198	314.12
584.964	302.12
585.729	291.12
586.495	269.12
587.26	267.12
588.025	248.12
588.791	237.12
589.556	220.12
590.321	214.12
591.086	200.12
591.851	193.12
592.616	179.12
593.381	173.12
594.146	163.12
594.911	160.12
595.675	147.12
596.44	146.12
597.204	135.12
597.969	135.12
598.733	123.12
599.497	121.12
600.261	117.12
601.025	110.12
601.79	105.12
602.553	103.12
603.317	93.12
604.081	89.12
604.845	89.12
605.609	83.12
606.372	87.12
607.136	82.12
607.899	77.12
608.662	67.12
609.426	69.12
610.189	68.12
610.952	60.12
611.715	68.12
612.478	62.12
613.241	57.12
614.004	60.12
614.767	55.12
615.529	53.12
616.292	51.12
617.055	50.12
617.817	50.12
618.579	46.12
619.342	45.12
620.104	43.12
620.866	42.12
621.628	39.12
622.39	42.12
623.152	35.12
623.914	38.12
624.676	36.12
625.438	35.12
626.199	31.12
626.961	32.12
627.722	30.12
628.484	31.12
629.245	30.12
630.006	28.12
630.768	29.12
631.529	29.12
632.29	28.12
633.051	26.12
633.812	26.12
634.573	24.12
635.333	23.12
636.094	24.12
636.855	23.12
637.615	19.12
638.376	21.12
639.136	20.12
639.896	20.12
640.657	22.12
641.417	20.12
642.177	17.12
642.937	19.12
643.697	19.12
644.457	18.12
645.216	19.12
645.976	16.12
646.736	17.12
647.495	14.12
648.255	14.12
649.014	18.12
649.774	16.12
650.533	15.12
651.292	15.12
652.051	15.12
652.81	12.12
653.569	14.12
654.328	13.12
655.087	13.12
655.846	13.12
656.604	13.12
657.363	12.12
658.121	14.12
658.88	14.12
659.638	12.12
660.397	10.12
661.155	11.12
661.913	9.12
662.671	12.12
663.429	9.12
664.187	12.12
664.945	7.12
665.703	9.12
666.46	11.12
667.218	11.12
667.976	12.12
668.733	12.12
669.49	11.12
670.248	11.12
671.005	7.12
671.762	10.12
672.519	8.12
673.276	9.12
674.033	8.12
674.79	11.12
675.547	8.12
676.304	6.12
677.06	8.12
677.817	8.12
678.574	10.12
679.33	9.12
680.086	7.12
680.843	9.12
681.599	8.12
682.355	11.12
683.111	9.12
683.867	8.12
684.623	8.12
685.379	8.12
686.135	11.12
686.89	6.12
687.646	7.12
688.402	8.12
689.157	7.12
689.912	10.12
690.668	8.12
691.423	6.12
692.178	8.12
692.933	11.12
693.688	8.12
694.443	7.12
695.198	6.12
695.953	6.12
696.708	9.12
697.462	8.12
698.217	7.12
698.972	8.12
699.726	8.12
700.48	6.12
701.235	6.12
701.989	7.12
702.743	7.12
703.497	4.12
704.251	10.12
705.005	9.12
705.759	8.12
706.513	8.12
707.266	7.12
708.02	8.12
708.774	6.12
709.527	7.12
710.28	7.12
711.034	7.12
711.787	9.12
712.54	7.12
713.293	8.12
714.046	6.12
714.799	8.12
715.552	9.12
716.305	9.12
717.058	10.12
717.81	7.12
718.563	10.12
719.315	8.12
720.068	7.12
720.82	6.12
721.573	8.12
722.325	7.12
723.077	6.12
723.829	7.12
724.581	8.12
725.333	9.12
726.085	8.12
726.836	6.12
727.588	8.12
728.34	10.12
729.091	11.12
729.843	10.12
730.594	9.12
731.346	8.12
732.097	9.12
732.848	11.12
733.599	8.12
734.35	10.12
735.101	8.12
735.852	9.12
736.603	10.12
737.354	10.12
738.104	10.12
738.855	10.12
739.605	11.12
740.356	10.12
741.106	9.12
741.856	12.12
742.607	11.12
743.357	9.12
744.107	10.12
744.857	8.12
745.607	11.12
746.357	12.12
747.106	9.12
747.856	9.12
748.606	10.12
749.355	13.12
750.105	10.12
750.854	11.12
751.603	9.12
752.353	12.12
753.102	13.12
753.851	9.12
754.6	11.12
755.349	11.12
756.098	12.12
756.847	11.12
757.595	12.12
758.344	12.12
759.093	8.12
759.841	13.12
760.589	11.12
761.338	12.12
762.086	12.12
762.834	9.12
763.582	13.12
764.331	11.12
765.079	12.12
765.826	13.12
766.574	12.12
767.322	14.12
768.07	11.12
768.817	17.12
769.565	12.12
770.312	14.12
771.06	15.12
771.807	14.12
772.554	14.12
773.302	12.12
774.049	17.12
774.796	15.12
775.543	14.12
776.29	14.12
777.036	15.12
777.783	13.12
778.53	15.12
779.276	15.12
780.023	15.12
780.769	14.12
781.516	18.12
782.262	17.12
783.008	13.12
783.754	16.12
784.5	15.12
785.246	15.12
785.992	15.12
786.738	15.12
787.484	13.12
788.23	14.12
788.975	13.12
789.721	16.12
790.466	15.12
791.212	12.12
791.957	15.12
792.702	15.12
793.447	18.12
794.193	15.12
794.938	12.12
795.683	14.12
796.427	14.12
797.172	14.12
797.917	14.12
798.662	13.12
799.406	11.12
800.151	11.12
800.895	11.12
801.64	13.12
802.384	13.12
803.128	11.12
803.872	11.12
804.616	11.12
805.36	12.12
806.104	13.12
806.848	7.12
807.592	10.12
808.336	11.12
809.079	10.12
809.823	13.12
810.566	9.12
811.31	10.12
812.053	9.12
812.796	10.12
813.539	7.12
814.283	9.12
815.026	9.12
815.769	8.12
816.511	7.12
817.254	11.12
817.997	8.12
818.74	8.12
819.482	8.12
820.225	9.12
820.967	7.12
821.71	7.12
822.452	9.12
823.194	7.12
823.936	8.12
824.678	7.12
825.42	9.12
826.162	8.12
826.904	5.12
827.646	9.12
828.388	7.12
829.129	7.12
829.871	4.12
830.612	8.12
831.354	4.12
832.095	6.12
832.836	8.12
833.577	8.12
834.319	8.12
835.06	5.12
835.801	5.12
836.542	6.12
837.282	7.12
838.023	7.12
838.764	5.12
839.504	5.12
840.245	4.12
840.985	5.12
841.726	7.12
842.466	5.12
843.206	6.12
843.946	5.12
844.687	3.12
845.427	3.12
846.166	5.12
846.906	8.12
847.646	4.12
848.386	5.12
849.125	6.12
849.865	4.12
850.605	4.12
851.344	5.12
852.083	7.12
852.823	4.12
853.562	2.12
854.301	6.12
855.04	3.12
855.779	5.12
856.518	3.12
857.257	5.12
857.995	5.12
858.734	5.12
859.473	4.12
860.211	2.12
860.95	5.12
861.688	4.12
862.426	3.12
863.165	5.12
863.903	4.12
864.641	3.12
865.379	1.12
866.117	2.12
866.855	3.12
867.593	3.12
868.33	3.12
869.068	2.12
869.806	5.12
870.543	3.12
871.28	3.12
872.018	2.12
872.755	0.12
873.492	6.12
874.229	3.12
874.967	2.12
875.703	2.12
876.44	3.12
877.177	2.12
877.914	0.12
878.651	2.12
879.387	2.12
880.124	4.12
880.86	1.12
881.597	3.12
882.333	3.12
883.069	2.12
883.806	0.12
884.542	2.12
885.278	3.12
886.014	1.12
886.749	3.12
887.485	3.12
888.221	1.12
888.957	3.12
889.692	4.12
890.428	1.12
891.163	2.12
891.899	0.12
892.634	1.12
893.369	1.12
894.104	1.12
894.839	1.12
895.574	2.12
896.309	2.12
897.044	1.12
897.779	3.12
898.514	0.12
899.248	1.12
899.983	1.12
900.717	1.12
901.452	2.12
902.186	0.12
902.92	2.12
903.654	1.12
904.389	2.12
905.123	-1.88
905.857	0.12
906.59	1.12
907.324	2.12
908.058	2.12
908.792	1.12
909.525	-0.88
910.259	1.12
910.992	0.12
911.726	1.12
912.459	-1.88
913.192	2.12
913.925	1.12
914.658	0.12
915.391	2.12
916.124	-1.88
916.857	1.12
917.59	1.12
918.323	-0.88
919.055	0.12
919.788	-0.88
920.521	1.12
921.253	1.12
921.985	2.12
922.718	-0.88
923.45	0.12
924.182	4.12
924.914	1.12
925.646	1.12
926.378	1.12
927.11	-0.88
927.841	1.12
928.573	-0.88
929.305	1.12
930.036	1.12
930.768	2.12
931.499	1.12
932.23	1.12
932.962	-0.88
933.693	-1.88
934.424	1.12
935.155	-0.88
935.886	0.12
936.617	-0.88
937.348	-0.88
938.078	1.12
938.809	2.12
939.54	2.12
940.27	0.12
941.001	2.12
941.731	1.12
942.461	-1.88
943.191	1.12
943.922	2.12
944.652	0.12
945.382	2.12
946.112	0.12
946.841	1.12
947.571	2.12
948.301	-0.88
949.031	0.12
949.76	-0.88
950.49	1.12
951.219	1.12
951.948	2.12
952.678	2.12
953.407	-0.88
954.136	2.12
954.865	-0.88
955.594	0.12
956.323	1.12
957.052	1.12
957.78	-0.88
958.509	0.12
959.238	0.12
959.966	-1.88
960.695	0.12
961.423	-0.88
962.151	0.12
962.88	0.12
963.608	1.12
964.336	1.12
965.064	2.12
965.792	0.12
966.52	-0.88
967.247	1.12
967.975	-0.88
968.703	2.12
969.43	2.12
970.158	0.12
970.885	0.12
971.613	1.12
972.34	-0.88
973.067	-0.88
973.794	-0.88
974.521	-0.88
975.248	1.12
975.975	0.12
976.702	0.12
977.429	2.12
978.156	2.12
978.882	-1.88
979.609	0.12
980.335	1.12
981.062	-0.88
981.788	2.12
982.514	0.12
983.24	2.12
983.967	-1.88
984.693	0.12
985.419	1.12
986.144	2.12
986.87	0.12
987.596	0.12
988.322	-0.88
989.047	1.12
989.773	-0.88
990.498	0.12
991.224	-0.88
991.949	2.12
992.674	1.12
993.399	1.12
994.124	-0.88
994.849	2.12
995.574	1.12
996.299	-0.88
997.024	-0.88
997.749	0.12
998.473	-0.88
999.198	-0.88
999.922	1.12
1000.647	2.12
1001.371	4.12
1002.095	-1.88
1002.82	-1.88
1003.544	2.12
1004.268	6.12
1004.992	5.12
1005.716	3.12
1006.439	4.12
1007.163	5.12
1007.887	5.12
1008.611	1.12
1009.334	2.12
1010.058	-1.88
1010.781	-0.88
1011.504	3.12
1012.228	1.12
1012.951	-0.88
1013.674	-0.88
1014.397	1.12
1015.12	-1.88
