节点500_705_QEPB04081__92__20-47-25-228.txt的数据

Date: Wed Nov 12 20:47:25 CST 2025
User: PC
Spectrometer: QEPB0408
触发模式: 0
积分时间 (秒): 1.000000E-2
Scans to average: 1
启用暗噪声校正: true
启用非线性校正: false
滑动平均宽度: 0
X轴模式: Wavelengths
Number of Pixels in Spectrum: 1044
>>>>>Begin Spectral Data<<<<<
220.843	5.88
221.644	4.88
222.444	4.88
223.244	4.88
224.045	3.88
224.845	5.88
225.645	4.88
226.445	3.88
227.245	6.88
228.045	9.88
228.845	7.88
229.645	7.88
230.444	7.88
231.244	8.88
232.043	5.88
232.843	9.88
233.642	7.88
234.442	11.88
235.241	11.88
236.04	8.88
236.839	10.88
237.638	8.88
238.437	11.88
239.236	9.88
240.035	10.88
240.833	12.88
241.632	11.88
242.43	11.88
243.229	11.88
244.027	12.88
244.826	12.88
245.624	14.88
246.422	14.88
247.22	14.88
248.018	16.88
248.816	15.88
249.614	19.88
250.412	15.88
251.21	13.88
252.007	18.88
252.805	14.88
253.602	17.88
254.4	19.88
255.197	18.88
255.994	22.88
256.791	21.88
257.589	20.88
258.386	21.88
259.183	22.88
259.979	25.88
260.776	22.88
261.573	28.88
262.37	26.88
263.166	27.88
263.963	26.88
264.759	26.88
265.556	29.88
266.352	29.88
267.148	33.88
267.944	30.88
268.74	34.88
269.536	30.88
270.332	34.88
271.128	32.88
271.924	32.88
272.719	33.88
273.515	34.88
274.311	34.88
275.106	35.88
275.901	33.88
276.697	32.88
277.492	37.88
278.287	35.88
279.082	35.88
279.877	35.88
280.672	32.88
281.467	34.88
282.262	38.88
283.056	37.88
283.851	36.88
284.646	36.88
285.44	31.88
286.234	35.88
287.029	34.88
287.823	34.88
288.617	32.88
289.411	34.88
290.205	34.88
290.999	31.88
291.793	31.88
292.587	32.88
293.381	28.88
294.174	32.88
294.968	30.88
295.761	29.88
296.555	28.88
297.348	26.88
298.141	25.88
298.935	28.88
299.728	25.88
300.521	24.88
301.314	25.88
302.107	22.88
302.899	25.88
303.692	24.88
304.485	18.88
305.277	22.88
306.07	21.88
306.862	18.88
307.655	18.88
308.447	22.88
309.239	20.88
310.031	19.88
310.823	20.88
311.615	18.88
312.407	18.88
313.199	14.88
313.991	16.88
314.783	19.88
315.574	16.88
316.366	15.88
317.157	14.88
317.949	14.88
318.74	12.88
319.531	14.88
320.322	15.88
321.113	13.88
321.904	12.88
322.695	13.88
323.486	13.88
324.277	14.88
325.068	13.88
325.858	13.88
326.649	11.88
327.439	13.88
328.23	12.88
329.02	10.88
329.81	14.88
330.6	11.88
331.391	11.88
332.181	14.88
332.971	12.88
333.76	10.88
334.55	10.88
335.34	11.88
336.13	12.88
336.919	10.88
337.709	12.88
338.498	10.88
339.287	12.88
340.077	8.88
340.866	10.88
341.655	13.88
342.444	12.88
343.233	12.88
344.022	10.88
344.811	13.88
345.6	8.88
346.388	11.88
347.177	11.88
347.965	11.88
348.754	12.88
349.542	9.88
350.33	12.88
351.119	9.88
351.907	13.88
352.695	9.88
353.483	10.88
354.271	10.88
355.059	10.88
355.846	12.88
356.634	9.88
357.422	9.88
358.209	9.88
358.997	10.88
359.784	11.88
360.571	9.88
361.359	10.88
362.146	10.88
362.933	8.88
363.72	10.88
364.507	10.88
365.294	8.88
366.081	11.88
366.867	9.88
367.654	10.88
368.44	7.88
369.227	8.88
370.013	8.88
370.8	11.88
371.586	5.88
372.372	8.88
373.158	9.88
373.944	7.88
374.73	9.88
375.516	6.88
376.302	10.88
377.088	10.88
377.873	10.88
378.659	8.88
379.445	9.88
380.23	8.88
381.015	11.88
381.801	9.88
382.586	8.88
383.371	10.88
384.156	10.88
384.941	12.88
385.726	10.88
386.511	10.88
387.296	8.88
388.08	9.88
388.865	7.88
389.649	9.88
390.434	13.88
391.218	12.88
392.003	14.88
392.787	9.88
393.571	12.88
394.355	11.88
395.139	14.88
395.923	13.88
396.707	12.88
397.491	12.88
398.274	11.88
399.058	12.88
399.842	14.88
400.625	13.88
401.408	12.88
402.192	12.88
402.975	16.88
403.758	14.88
404.541	16.88
405.324	14.88
406.107	15.88
406.89	14.88
407.673	16.88
408.456	14.88
409.238	16.88
410.021	18.88
410.803	16.88
411.586	16.88
412.368	18.88
413.151	20.88
413.933	17.88
414.715	16.88
415.497	18.88
416.279	18.88
417.061	21.88
417.843	20.88
418.624	18.88
419.406	20.88
420.188	22.88
420.969	20.88
421.751	20.88
422.532	21.88
423.313	21.88
424.095	23.88
424.876	22.88
425.657	24.88
426.438	23.88
427.219	28.88
428	28.88
428.78	26.88
429.561	30.88
430.342	28.88
431.122	28.88
431.903	32.88
432.683	35.88
433.464	35.88
434.244	38.88
435.024	38.88
435.804	44.88
436.584	43.88
437.364	41.88
438.144	48.88
438.924	49.88
439.704	52.88
440.483	54.88
441.263	57.88
442.042	62.88
442.822	70.88
443.601	72.88
444.38	79.88
445.16	83.88
445.939	86.88
446.718	94.88
447.497	108.88
448.276	114.88
449.054	126.88
449.833	138.88
450.612	151.88
451.391	166.88
452.169	181.88
452.948	203.88
453.726	225.88
454.504	252.88
455.282	281.88
456.061	310.88
456.839	345.88
457.617	387.88
458.395	430.88
459.172	487.88
459.95	536.88
460.728	600.88
461.506	676.88
462.283	757.88
463.061	845.88
463.838	942.88
464.615	1053.88
465.393	1168.88
466.17	1301.88
466.947	1465.88
467.724	1612.88
468.501	1812.88
469.278	2007.88
470.055	2215.88
470.831	2484.88
471.608	2752.88
472.385	3041.88
473.161	3378.88
473.938	3691.88
474.714	4065.88
475.49	4491.88
476.266	4944.88
477.043	5444.88
477.819	5989.88
478.595	6562.88
479.371	7236.88
480.146	7879.88
480.922	8692.88
481.698	9513.88
482.473	10386.88
483.249	11333.88
484.024	12370.88
484.8	13450.88
485.575	14594.88
486.35	15948.88
487.126	17318.88
487.901	18727.88
488.676	20286.88
489.451	21957.88
490.225	23710.88
491	25452.88
491.775	27286.88
492.55	29198.88
493.324	31102.88
494.099	33035.88
494.873	35000.88
495.647	36898.88
496.422	38874.88
497.196	40759.88
497.97	42562.88
498.744	43984.88
499.518	45557.88
500.292	46915.88
501.066	47882.88
501.839	48644.88
502.613	49211.88
503.387	49582.88
504.16	49855.88
504.934	49764.88
505.707	49341.88
506.48	48616.88
507.253	47955.88
508.027	46921.88
508.8	45732.88
509.573	44455.88
510.346	43106.88
511.118	41919.88
511.891	40405.88
512.664	38775.88
513.437	37212.88
514.209	35634.88
514.982	34213.88
515.754	32784.88
516.526	31406.88
517.298	30126.88
518.071	28900.88
518.843	27733.88
519.615	26603.88
520.387	25527.88
521.159	24535.88
521.93	23515.88
522.702	22403.88
523.474	21485.88
524.245	20550.88
525.017	19567.88
525.788	18726.88
526.56	17946.88
527.331	17107.88
528.102	16135.88
528.873	15398.88
529.644	14591.88
530.415	13893.88
531.186	13226.88
531.957	12498.88
532.728	11798.88
533.498	11153.88
534.269	10603.88
535.039	10000.88
535.81	9442.88
536.58	8960.88
537.351	8438.88
538.121	8024.88
538.891	7559.88
539.661	7182.88
540.431	6775.88
541.201	6450.88
541.971	6092.88
542.741	5784.88
543.51	5502.88
544.28	5227.88
545.05	4985.88
545.819	4713.88
546.588	4528.88
547.358	4285.88
548.127	4069.88
548.896	3891.88
549.665	3674.88
550.434	3479.88
551.203	3276.88
551.972	3114.88
552.741	2933.88
553.51	2788.88
554.278	2613.88
555.047	2472.88
555.815	2321.88
556.584	2208.88
557.352	2079.88
558.121	1962.88
558.889	1861.88
559.657	1769.88
560.425	1654.88
561.193	1562.88
561.961	1493.88
562.729	1399.88
563.496	1328.88
564.264	1246.88
565.032	1183.88
565.799	1119.88
566.567	1063.88
567.334	1010.88
568.101	955.88
568.869	898.88
569.636	845.88
570.403	804.88
571.17	762.88
571.937	702.88
572.704	681.88
573.471	634.88
574.237	603.88
575.004	566.88
575.771	521.88
576.537	500.88
577.303	468.88
578.07	445.88
578.836	421.88
579.602	405.88
580.368	389.88
581.134	361.88
581.9	342.88
582.666	324.88
583.432	312.88
584.198	290.88
584.964	276.88
585.729	269.88
586.495	254.88
587.26	238.88
588.025	226.88
588.791	213.88
589.556	206.88
590.321	194.88
591.086	182.88
591.851	177.88
592.616	167.88
593.381	160.88
594.146	152.88
594.911	148.88
595.675	146.88
596.44	131.88
597.204	130.88
597.969	122.88
598.733	110.88
599.497	115.88
600.261	106.88
601.025	106.88
601.79	100.88
602.553	95.88
603.317	88.88
604.081	86.88
604.845	85.88
605.609	77.88
606.372	74.88
607.136	77.88
607.899	70.88
608.662	70.88
609.426	64.88
610.189	63.88
610.952	61.88
611.715	56.88
612.478	57.88
613.241	51.88
614.004	53.88
614.767	49.88
615.529	51.88
616.292	49.88
617.055	47.88
617.817	43.88
618.579	42.88
619.342	40.88
620.104	37.88
620.866	37.88
621.628	35.88
622.39	39.88
623.152	37.88
623.914	35.88
624.676	32.88
625.438	30.88
626.199	31.88
626.961	30.88
627.722	28.88
628.484	28.88
629.245	29.88
630.006	26.88
630.768	28.88
631.529	23.88
632.29	24.88
633.051	24.88
633.812	25.88
634.573	23.88
635.333	22.88
636.094	23.88
636.855	21.88
637.615	21.88
638.376	20.88
639.136	22.88
639.896	18.88
640.657	17.88
641.417	20.88
642.177	18.88
642.937	14.88
643.697	15.88
644.457	14.88
645.216	14.88
645.976	15.88
646.736	13.88
647.495	14.88
648.255	16.88
649.014	14.88
649.774	13.88
650.533	14.88
651.292	15.88
652.051	14.88
652.81	13.88
653.569	11.88
654.328	12.88
655.087	9.88
655.846	11.88
656.604	12.88
657.363	11.88
658.121	8.88
658.88	9.88
659.638	12.88
660.397	9.88
661.155	10.88
661.913	10.88
662.671	10.88
663.429	10.88
664.187	8.88
664.945	8.88
665.703	9.88
666.46	8.88
667.218	10.88
667.976	7.88
668.733	9.88
669.49	6.88
670.248	9.88
671.005	8.88
671.762	8.88
672.519	8.88
673.276	8.88
674.033	9.88
674.79	7.88
675.547	8.88
676.304	9.88
677.06	5.88
677.817	7.88
678.574	8.88
679.33	9.88
680.086	7.88
680.843	9.88
681.599	8.88
682.355	8.88
683.111	7.88
683.867	7.88
684.623	9.88
685.379	10.88
686.135	6.88
686.89	8.88
687.646	6.88
688.402	5.88
689.157	8.88
689.912	6.88
690.668	9.88
691.423	7.88
692.178	9.88
692.933	5.88
693.688	5.88
694.443	6.88
695.198	7.88
695.953	7.88
696.708	11.88
697.462	8.88
698.217	5.88
698.972	7.88
699.726	6.88
700.48	7.88
701.235	4.88
701.989	5.88
702.743	6.88
703.497	8.88
704.251	7.88
705.005	8.88
705.759	9.88
706.513	7.88
707.266	6.88
708.02	8.88
708.774	5.88
709.527	8.88
710.28	7.88
711.034	7.88
711.787	7.88
712.54	6.88
713.293	7.88
714.046	6.88
714.799	5.88
715.552	8.88
716.305	7.88
717.058	7.88
717.81	8.88
718.563	7.88
719.315	7.88
720.068	4.88
720.82	6.88
721.573	9.88
722.325	8.88
723.077	7.88
723.829	7.88
724.581	7.88
725.333	7.88
726.085	8.88
726.836	10.88
727.588	9.88
728.34	8.88
729.091	7.88
729.843	8.88
730.594	8.88
731.346	9.88
732.097	7.88
732.848	10.88
733.599	8.88
734.35	6.88
735.101	8.88
735.852	7.88
736.603	8.88
737.354	9.88
738.104	11.88
738.855	12.88
739.605	9.88
740.356	9.88
741.106	7.88
741.856	10.88
742.607	12.88
743.357	12.88
744.107	10.88
744.857	7.88
745.607	10.88
746.357	10.88
747.106	11.88
747.856	11.88
748.606	11.88
749.355	8.88
750.105	8.88
750.854	9.88
751.603	13.88
752.353	10.88
753.102	11.88
753.851	12.88
754.6	9.88
755.349	13.88
756.098	10.88
756.847	12.88
757.595	7.88
758.344	11.88
759.093	13.88
759.841	12.88
760.589	12.88
761.338	14.88
762.086	14.88
762.834	11.88
763.582	14.88
764.331	13.88
765.079	11.88
765.826	14.88
766.574	11.88
767.322	14.88
768.07	17.88
768.817	16.88
769.565	16.88
770.312	15.88
771.06	17.88
771.807	14.88
772.554	16.88
773.302	16.88
774.049	17.88
774.796	18.88
775.543	17.88
776.29	19.88
777.036	14.88
777.783	16.88
778.53	17.88
779.276	16.88
780.023	15.88
780.769	17.88
781.516	16.88
782.262	16.88
783.008	15.88
783.754	19.88
784.5	14.88
785.246	16.88
785.992	13.88
786.738	13.88
787.484	15.88
788.23	15.88
788.975	14.88
789.721	14.88
790.466	14.88
791.212	15.88
791.957	14.88
792.702	13.88
793.447	14.88
794.193	13.88
794.938	15.88
795.683	16.88
796.427	12.88
797.172	14.88
797.917	9.88
798.662	12.88
799.406	10.88
800.151	11.88
800.895	12.88
801.64	14.88
802.384	13.88
803.128	10.88
803.872	9.88
804.616	11.88
805.36	12.88
806.104	10.88
806.848	9.88
807.592	10.88
808.336	9.88
809.079	9.88
809.823	9.88
810.566	12.88
811.31	8.88
812.053	8.88
812.796	7.88
813.539	8.88
814.283	7.88
815.026	10.88
815.769	10.88
816.511	8.88
817.254	10.88
817.997	6.88
818.74	8.88
819.482	7.88
820.225	6.88
820.967	9.88
821.71	6.88
822.452	7.88
823.194	4.88
823.936	8.88
824.678	6.88
825.42	8.88
826.162	8.88
826.904	4.88
827.646	5.88
828.388	6.88
829.129	3.88
829.871	5.88
830.612	4.88
831.354	6.88
832.095	6.88
832.836	9.88
833.577	2.88
834.319	6.88
835.06	4.88
835.801	5.88
836.542	4.88
837.282	6.88
838.023	5.88
838.764	8.88
839.504	0.88
840.245	5.88
840.985	2.88
841.726	4.88
842.466	5.88
843.206	6.88
843.946	3.88
844.687	4.88
845.427	3.88
846.166	2.88
846.906	3.88
847.646	4.88
848.386	2.88
849.125	4.88
849.865	1.88
850.605	3.88
851.344	5.88
852.083	5.88
852.823	5.88
853.562	4.88
854.301	4.88
855.04	3.88
855.779	2.88
856.518	3.88
857.257	4.88
857.995	4.88
858.734	3.88
859.473	3.88
860.211	1.88
860.95	5.88
861.688	2.88
862.426	4.88
863.165	1.88
863.903	2.88
864.641	2.88
865.379	1.88
866.117	2.88
866.855	2.88
867.593	1.88
868.33	2.88
869.068	1.88
869.806	4.88
870.543	2.88
871.28	3.88
872.018	1.88
872.755	1.88
873.492	0.88
874.229	1.88
874.967	1.88
875.703	2.88
876.44	1.88
877.177	1.88
877.914	1.88
878.651	1.88
879.387	0.88
880.124	1.88
880.86	0.88
881.597	-0.12
882.333	0.88
883.069	2.88
883.806	0.88
884.542	2.88
885.278	-0.12
886.014	0.88
886.749	2.88
887.485	0.88
888.221	-0.12
888.957	0.88
889.692	0.88
890.428	0.88
891.163	1.88
891.899	-0.12
892.634	2.88
893.369	-0.12
894.104	0.88
894.839	1.88
895.574	1.88
896.309	0.88
897.044	1.88
897.779	1.88
898.514	0.88
899.248	-1.12
899.983	0.88
900.717	-1.12
901.452	-1.12
902.186	0.88
902.92	-0.12
903.654	0.88
904.389	-1.12
905.123	1.88
905.857	-1.12
906.59	0.88
907.324	0.88
908.058	2.88
908.792	-1.12
909.525	-0.12
910.259	-1.12
910.992	-1.12
911.726	1.88
912.459	-0.12
913.192	-0.12
913.925	0.88
914.658	0.88
915.391	1.88
916.124	-3.12
916.857	0.88
917.59	-0.12
918.323	0.88
919.055	1.88
919.788	0.88
920.521	-0.12
921.253	2.88
921.985	0.88
922.718	-0.12
923.45	1.88
924.182	1.88
924.914	-0.12
925.646	1.88
926.378	-0.12
927.11	0.88
927.841	0.88
928.573	-1.12
929.305	1.88
930.036	-1.12
930.768	0.88
931.499	0.88
932.23	0.88
932.962	0.88
933.693	-1.12
934.424	0.88
935.155	-1.12
935.886	0.88
936.617	-0.12
937.348	-0.12
938.078	-0.12
938.809	-1.12
939.54	1.88
940.27	0.88
941.001	2.88
941.731	0.88
942.461	0.88
943.191	-0.12
943.922	-1.12
944.652	0.88
945.382	-0.12
946.112	0.88
946.841	0.88
947.571	-0.12
948.301	0.88
949.031	-1.12
949.76	-0.12
950.49	-0.12
951.219	-1.12
951.948	-1.12
952.678	-1.12
953.407	1.88
954.136	0.88
954.865	0.88
955.594	-0.12
956.323	1.88
957.052	-1.12
957.78	-1.12
958.509	0.88
959.238	-1.12
959.966	-0.12
960.695	1.88
961.423	-2.12
962.151	-0.12
962.88	1.88
963.608	1.88
964.336	0.88
965.064	1.88
965.792	-0.12
966.52	-0.12
967.247	-1.12
967.975	0.88
968.703	0.88
969.43	1.88
970.158	-1.12
970.885	1.88
971.613	2.88
972.34	0.88
973.067	-0.12
973.794	-2.12
974.521	0.88
975.248	0.88
975.975	-0.12
976.702	0.88
977.429	0.88
978.156	1.88
978.882	1.88
979.609	0.88
980.335	0.88
981.062	-1.12
981.788	1.88
982.514	0.88
983.24	-0.12
983.967	-0.12
984.693	2.88
985.419	1.88
986.144	1.88
986.87	-1.12
987.596	-0.12
988.322	-1.12
989.047	-1.12
989.773	1.88
990.498	-0.12
991.224	-1.12
991.949	0.88
992.674	0.88
993.399	2.88
994.124	-1.12
994.849	-1.12
995.574	0.88
996.299	0.88
997.024	1.88
997.749	-0.12
998.473	0.88
999.198	-0.12
999.922	0.88
1000.647	0.88
1001.371	2.88
1002.095	-2.12
1002.82	-0.12
1003.544	-1.12
1004.268	4.88
1004.992	3.88
1005.716	4.88
1006.439	3.88
1007.163	3.88
1007.887	5.88
1008.611	-0.12
1009.334	1.88
1010.058	-0.12
1010.781	-1.12
1011.504	0.88
1012.228	1.88
1012.951	-0.12
1013.674	-1.12
1014.397	0.88
1015.12	0.88
