节点500_705_QEPB04081__489__20-52-50-745.txt的数据

Date: Wed Nov 12 20:52:50 CST 2025
User: PC
Spectrometer: QEPB0408
触发模式: 0
积分时间 (秒): 1.000000E-2
Scans to average: 1
启用暗噪声校正: true
启用非线性校正: false
滑动平均宽度: 0
X轴模式: Wavelengths
Number of Pixels in Spectrum: 1044
>>>>>Begin Spectral Data<<<<<
220.843	3.75
221.644	2.75
222.444	5.75
223.244	5.75
224.045	7.75
224.845	7.75
225.645	6.75
226.445	6.75
227.245	5.75
228.045	6.75
228.845	5.75
229.645	5.75
230.444	8.75
231.244	6.75
232.043	7.75
232.843	7.75
233.642	7.75
234.442	7.75
235.241	7.75
236.04	7.75
236.839	10.75
237.638	10.75
238.437	9.75
239.236	11.75
240.035	11.75
240.833	10.75
241.632	9.75
242.43	10.75
243.229	12.75
244.027	12.75
244.826	12.75
245.624	13.75
246.422	14.75
247.22	14.75
248.018	14.75
248.816	11.75
249.614	14.75
250.412	14.75
251.21	16.75
252.007	12.75
252.805	14.75
253.602	14.75
254.4	15.75
255.197	16.75
255.994	16.75
256.791	14.75
257.589	18.75
258.386	17.75
259.183	21.75
259.979	19.75
260.776	19.75
261.573	21.75
262.37	24.75
263.166	23.75
263.963	21.75
264.759	22.75
265.556	23.75
266.352	28.75
267.148	25.75
267.944	28.75
268.74	28.75
269.536	25.75
270.332	28.75
271.128	27.75
271.924	32.75
272.719	28.75
273.515	29.75
274.311	30.75
275.106	28.75
275.901	32.75
276.697	32.75
277.492	32.75
278.287	31.75
279.082	30.75
279.877	32.75
280.672	34.75
281.467	32.75
282.262	32.75
283.056	30.75
283.851	30.75
284.646	34.75
285.44	34.75
286.234	29.75
287.029	31.75
287.823	32.75
288.617	31.75
289.411	29.75
290.205	30.75
290.999	29.75
291.793	29.75
292.587	28.75
293.381	28.75
294.174	25.75
294.968	28.75
295.761	27.75
296.555	25.75
297.348	25.75
298.141	26.75
298.935	26.75
299.728	26.75
300.521	24.75
301.314	24.75
302.107	23.75
302.899	21.75
303.692	22.75
304.485	20.75
305.277	20.75
306.07	24.75
306.862	21.75
307.655	22.75
308.447	21.75
309.239	21.75
310.031	19.75
310.823	14.75
311.615	17.75
312.407	17.75
313.199	18.75
313.991	18.75
314.783	16.75
315.574	15.75
316.366	14.75
317.157	13.75
317.949	14.75
318.74	19.75
319.531	14.75
320.322	15.75
321.113	13.75
321.904	10.75
322.695	12.75
323.486	14.75
324.277	12.75
325.068	13.75
325.858	13.75
326.649	12.75
327.439	11.75
328.23	14.75
329.02	10.75
329.81	11.75
330.6	10.75
331.391	10.75
332.181	11.75
332.971	12.75
333.76	10.75
334.55	11.75
335.34	9.75
336.13	10.75
336.919	12.75
337.709	11.75
338.498	7.75
339.287	9.75
340.077	10.75
340.866	11.75
341.655	10.75
342.444	13.75
343.233	11.75
344.022	8.75
344.811	14.75
345.6	11.75
346.388	11.75
347.177	9.75
347.965	10.75
348.754	10.75
349.542	9.75
350.33	10.75
351.119	10.75
351.907	12.75
352.695	8.75
353.483	10.75
354.271	9.75
355.059	10.75
355.846	9.75
356.634	11.75
357.422	11.75
358.209	10.75
358.997	8.75
359.784	10.75
360.571	9.75
361.359	10.75
362.146	9.75
362.933	11.75
363.72	9.75
364.507	12.75
365.294	7.75
366.081	11.75
366.867	7.75
367.654	8.75
368.44	8.75
369.227	8.75
370.013	8.75
370.8	6.75
371.586	9.75
372.372	6.75
373.158	9.75
373.944	12.75
374.73	9.75
375.516	8.75
376.302	11.75
377.088	9.75
377.873	10.75
378.659	8.75
379.445	10.75
380.23	8.75
381.015	11.75
381.801	9.75
382.586	7.75
383.371	9.75
384.156	10.75
384.941	10.75
385.726	9.75
386.511	8.75
387.296	11.75
388.08	10.75
388.865	11.75
389.649	9.75
390.434	11.75
391.218	11.75
392.003	9.75
392.787	13.75
393.571	9.75
394.355	10.75
395.139	10.75
395.923	12.75
396.707	12.75
397.491	11.75
398.274	11.75
399.058	9.75
399.842	12.75
400.625	12.75
401.408	11.75
402.192	15.75
402.975	12.75
403.758	13.75
404.541	14.75
405.324	15.75
406.107	15.75
406.89	14.75
407.673	14.75
408.456	10.75
409.238	17.75
410.021	14.75
410.803	15.75
411.586	16.75
412.368	14.75
413.151	18.75
413.933	17.75
414.715	17.75
415.497	16.75
416.279	17.75
417.061	18.75
417.843	19.75
418.624	18.75
419.406	20.75
420.188	20.75
420.969	19.75
421.751	20.75
422.532	20.75
423.313	23.75
424.095	21.75
424.876	22.75
425.657	25.75
426.438	26.75
427.219	24.75
428	23.75
428.78	25.75
429.561	30.75
430.342	30.75
431.122	28.75
431.903	34.75
432.683	32.75
433.464	35.75
434.244	37.75
435.024	37.75
435.804	41.75
436.584	42.75
437.364	47.75
438.144	49.75
438.924	51.75
439.704	55.75
440.483	53.75
441.263	63.75
442.042	61.75
442.822	70.75
443.601	77.75
444.38	84.75
445.16	87.75
445.939	99.75
446.718	107.75
447.497	112.75
448.276	129.75
449.054	132.75
449.833	149.75
450.612	164.75
451.391	182.75
452.169	202.75
452.948	227.75
453.726	251.75
454.504	273.75
455.282	309.75
456.061	338.75
456.839	383.75
457.617	422.75
458.395	481.75
459.172	533.75
459.95	586.75
460.728	654.75
461.506	731.75
462.283	823.75
463.061	893.75
463.838	991.75
464.615	1115.75
465.393	1227.75
466.17	1364.75
466.947	1513.75
467.724	1680.75
468.501	1876.75
469.278	2054.75
470.055	2266.75
470.831	2497.75
471.608	2752.75
472.385	3010.75
473.161	3316.75
473.938	3600.75
474.714	3959.75
475.49	4361.75
476.266	4754.75
477.043	5184.75
477.819	5653.75
478.595	6157.75
479.371	6709.75
480.146	7329.75
480.922	7929.75
481.698	8637.75
482.473	9355.75
483.249	10159.75
484.024	10977.75
484.8	11854.75
485.575	12829.75
486.35	13887.75
487.126	15016.75
487.901	16110.75
488.676	17384.75
489.451	18714.75
490.225	20081.75
491	21529.75
491.775	22963.75
492.55	24535.75
493.324	26149.75
494.099	27804.75
494.873	29461.75
495.647	31141.75
496.422	32784.75
497.196	34428.75
497.97	36068.75
498.744	37485.75
499.518	39038.75
500.292	40455.75
501.066	41424.75
501.839	42487.75
502.613	43347.75
503.387	44104.75
504.16	44683.75
504.934	44869.75
505.707	44978.75
506.48	44772.75
507.253	44494.75
508.027	44103.75
508.8	43329.75
509.573	42551.75
510.346	41668.75
511.118	40824.75
511.891	39707.75
512.664	38356.75
513.437	37021.75
514.209	35723.75
514.982	34432.75
515.754	33080.75
516.526	31788.75
517.298	30548.75
518.071	29382.75
518.843	28229.75
519.615	27054.75
520.387	26077.75
521.159	24995.75
521.93	24010.75
522.702	22990.75
523.474	22031.75
524.245	21146.75
525.017	20257.75
525.788	19409.75
526.56	18623.75
527.331	17816.75
528.102	16959.75
528.873	16095.75
529.644	15353.75
530.415	14632.75
531.186	13965.75
531.957	13223.75
532.728	12613.75
533.498	11967.75
534.269	11312.75
535.039	10747.75
535.81	10172.75
536.58	9602.75
537.351	9139.75
538.121	8658.75
538.891	8169.75
539.661	7713.75
540.431	7320.75
541.201	6906.75
541.971	6595.75
542.741	6226.75
543.51	5898.75
544.28	5626.75
545.05	5368.75
545.819	5124.75
546.588	4868.75
547.358	4630.75
548.127	4437.75
548.896	4214.75
549.665	3990.75
550.434	3744.75
551.203	3562.75
551.972	3433.75
552.741	3214.75
553.51	3020.75
554.278	2861.75
555.047	2690.75
555.815	2571.75
556.584	2426.75
557.352	2292.75
558.121	2180.75
558.889	2056.75
559.657	1946.75
560.425	1832.75
561.193	1739.75
561.961	1644.75
562.729	1542.75
563.496	1464.75
564.264	1399.75
565.032	1322.75
565.799	1247.75
566.567	1177.75
567.334	1131.75
568.101	1048.75
568.869	988.75
569.636	951.75
570.403	876.75
571.17	826.75
571.937	790.75
572.704	748.75
573.471	702.75
574.237	675.75
575.004	628.75
575.771	590.75
576.537	558.75
577.303	532.75
578.07	500.75
578.836	463.75
579.602	447.75
580.368	427.75
581.134	400.75
581.9	371.75
582.666	358.75
583.432	344.75
584.198	333.75
584.964	313.75
585.729	289.75
586.495	281.75
587.26	258.75
588.025	250.75
588.791	230.75
589.556	225.75
590.321	215.75
591.086	205.75
591.851	193.75
592.616	181.75
593.381	176.75
594.146	160.75
594.911	158.75
595.675	148.75
596.44	146.75
597.204	138.75
597.969	134.75
598.733	126.75
599.497	121.75
600.261	116.75
601.025	109.75
601.79	109.75
602.553	105.75
603.317	98.75
604.081	97.75
604.845	86.75
605.609	82.75
606.372	83.75
607.136	74.75
607.899	74.75
608.662	69.75
609.426	69.75
610.189	67.75
610.952	61.75
611.715	63.75
612.478	61.75
613.241	60.75
614.004	54.75
614.767	56.75
615.529	52.75
616.292	49.75
617.055	52.75
617.817	45.75
618.579	49.75
619.342	44.75
620.104	42.75
620.866	42.75
621.628	36.75
622.39	39.75
623.152	37.75
623.914	37.75
624.676	34.75
625.438	31.75
626.199	34.75
626.961	26.75
627.722	29.75
628.484	27.75
629.245	33.75
630.006	27.75
630.768	29.75
631.529	26.75
632.29	26.75
633.051	26.75
633.812	26.75
634.573	22.75
635.333	23.75
636.094	22.75
636.855	23.75
637.615	18.75
638.376	18.75
639.136	20.75
639.896	20.75
640.657	20.75
641.417	19.75
642.177	18.75
642.937	16.75
643.697	18.75
644.457	15.75
645.216	16.75
645.976	14.75
646.736	16.75
647.495	13.75
648.255	12.75
649.014	13.75
649.774	15.75
650.533	14.75
651.292	14.75
652.051	16.75
652.81	11.75
653.569	14.75
654.328	14.75
655.087	10.75
655.846	12.75
656.604	12.75
657.363	9.75
658.121	13.75
658.88	9.75
659.638	11.75
660.397	10.75
661.155	10.75
661.913	11.75
662.671	9.75
663.429	12.75
664.187	10.75
664.945	9.75
665.703	10.75
666.46	10.75
667.218	8.75
667.976	9.75
668.733	8.75
669.49	10.75
670.248	6.75
671.005	9.75
671.762	7.75
672.519	7.75
673.276	10.75
674.033	8.75
674.79	8.75
675.547	7.75
676.304	9.75
677.06	9.75
677.817	7.75
678.574	8.75
679.33	9.75
680.086	8.75
680.843	7.75
681.599	8.75
682.355	7.75
683.111	6.75
683.867	7.75
684.623	8.75
685.379	6.75
686.135	6.75
686.89	9.75
687.646	7.75
688.402	5.75
689.157	7.75
689.912	6.75
690.668	6.75
691.423	5.75
692.178	7.75
692.933	7.75
693.688	6.75
694.443	5.75
695.198	6.75
695.953	7.75
696.708	7.75
697.462	7.75
698.217	9.75
698.972	6.75
699.726	5.75
700.48	6.75
701.235	4.75
701.989	7.75
702.743	8.75
703.497	8.75
704.251	9.75
705.005	7.75
705.759	8.75
706.513	7.75
707.266	6.75
708.02	7.75
708.774	6.75
709.527	6.75
710.28	5.75
711.034	6.75
711.787	7.75
712.54	8.75
713.293	6.75
714.046	8.75
714.799	5.75
715.552	4.75
716.305	5.75
717.058	7.75
717.81	9.75
718.563	9.75
719.315	5.75
720.068	9.75
720.82	7.75
721.573	6.75
722.325	7.75
723.077	6.75
723.829	6.75
724.581	4.75
725.333	8.75
726.085	8.75
726.836	6.75
727.588	8.75
728.34	3.75
729.091	6.75
729.843	8.75
730.594	7.75
731.346	6.75
732.097	7.75
732.848	7.75
733.599	8.75
734.35	9.75
735.101	5.75
735.852	11.75
736.603	8.75
737.354	7.75
738.104	9.75
738.855	9.75
739.605	10.75
740.356	9.75
741.106	9.75
741.856	8.75
742.607	8.75
743.357	8.75
744.107	9.75
744.857	12.75
745.607	8.75
746.357	7.75
747.106	10.75
747.856	10.75
748.606	7.75
749.355	10.75
750.105	10.75
750.854	9.75
751.603	8.75
752.353	10.75
753.102	8.75
753.851	10.75
754.6	10.75
755.349	10.75
756.098	10.75
756.847	10.75
757.595	9.75
758.344	10.75
759.093	12.75
759.841	10.75
760.589	12.75
761.338	9.75
762.086	13.75
762.834	12.75
763.582	10.75
764.331	12.75
765.079	13.75
765.826	11.75
766.574	14.75
767.322	12.75
768.07	14.75
768.817	12.75
769.565	13.75
770.312	14.75
771.06	14.75
771.807	14.75
772.554	11.75
773.302	13.75
774.049	14.75
774.796	13.75
775.543	13.75
776.29	14.75
777.036	13.75
777.783	13.75
778.53	15.75
779.276	13.75
780.023	14.75
780.769	13.75
781.516	14.75
782.262	14.75
783.008	14.75
783.754	15.75
784.5	14.75
785.246	13.75
785.992	14.75
786.738	12.75
787.484	15.75
788.23	12.75
788.975	15.75
789.721	13.75
790.466	11.75
791.212	12.75
791.957	12.75
792.702	10.75
793.447	11.75
794.193	12.75
794.938	11.75
795.683	12.75
796.427	14.75
797.172	12.75
797.917	13.75
798.662	9.75
799.406	13.75
800.151	11.75
800.895	14.75
801.64	12.75
802.384	12.75
803.128	11.75
803.872	11.75
804.616	9.75
805.36	12.75
806.104	11.75
806.848	8.75
807.592	9.75
808.336	9.75
809.079	11.75
809.823	10.75
810.566	11.75
811.31	8.75
812.053	7.75
812.796	8.75
813.539	6.75
814.283	8.75
815.026	7.75
815.769	11.75
816.511	6.75
817.254	5.75
817.997	9.75
818.74	8.75
819.482	8.75
820.225	6.75
820.967	4.75
821.71	8.75
822.452	3.75
823.194	8.75
823.936	7.75
824.678	7.75
825.42	4.75
826.162	8.75
826.904	8.75
827.646	5.75
828.388	6.75
829.129	5.75
829.871	7.75
830.612	2.75
831.354	4.75
832.095	4.75
832.836	4.75
833.577	6.75
834.319	3.75
835.06	5.75
835.801	6.75
836.542	4.75
837.282	6.75
838.023	7.75
838.764	6.75
839.504	4.75
840.245	3.75
840.985	4.75
841.726	6.75
842.466	7.75
843.206	3.75
843.946	5.75
844.687	2.75
845.427	4.75
846.166	5.75
846.906	4.75
847.646	6.75
848.386	3.75
849.125	4.75
849.865	2.75
850.605	2.75
851.344	3.75
852.083	2.75
852.823	3.75
853.562	7.75
854.301	4.75
855.04	4.75
855.779	3.75
856.518	5.75
857.257	4.75
857.995	3.75
858.734	3.75
859.473	2.75
860.211	3.75
860.95	5.75
861.688	2.75
862.426	1.75
863.165	1.75
863.903	4.75
864.641	0.75
865.379	2.75
866.117	2.75
866.855	3.75
867.593	2.75
868.33	2.75
869.068	4.75
869.806	1.75
870.543	4.75
871.28	3.75
872.018	0.75
872.755	1.75
873.492	0.75
874.229	3.75
874.967	1.75
875.703	1.75
876.44	2.75
877.177	3.75
877.914	1.75
878.651	0.75
879.387	1.75
880.124	1.75
880.86	2.75
881.597	2.75
882.333	0.75
883.069	0.75
883.806	1.75
884.542	2.75
885.278	2.75
886.014	0.75
886.749	0.75
887.485	0.75
888.221	-0.25
888.957	-1.25
889.692	0.75
890.428	2.75
891.163	-0.25
891.899	1.75
892.634	0.75
893.369	1.75
894.104	-0.25
894.839	1.75
895.574	2.75
896.309	2.75
897.044	0.75
897.779	0.75
898.514	1.75
899.248	0.75
899.983	1.75
900.717	0.75
901.452	-0.25
902.186	-1.25
902.92	0.75
903.654	0.75
904.389	0.75
905.123	0.75
905.857	0.75
906.59	1.75
907.324	-0.25
908.058	0.75
908.792	1.75
909.525	1.75
910.259	0.75
910.992	-0.25
911.726	1.75
912.459	0.75
913.192	-0.25
913.925	0.75
914.658	-0.25
915.391	-2.25
916.124	0.75
916.857	1.75
917.59	0.75
918.323	0.75
919.055	-1.25
919.788	1.75
920.521	0.75
921.253	-0.25
921.985	-1.25
922.718	-0.25
923.45	1.75
924.182	-2.25
924.914	1.75
925.646	1.75
926.378	-0.25
927.11	1.75
927.841	-0.25
928.573	-1.25
929.305	-2.25
930.036	0.75
930.768	0.75
931.499	-1.25
932.23	0.75
932.962	-2.25
933.693	2.75
934.424	1.75
935.155	1.75
935.886	0.75
936.617	-0.25
937.348	-0.25
938.078	-1.25
938.809	-3.25
939.54	-0.25
940.27	-1.25
941.001	-1.25
941.731	0.75
942.461	2.75
943.191	0.75
943.922	-0.25
944.652	0.75
945.382	-0.25
946.112	-0.25
946.841	0.75
947.571	-0.25
948.301	-2.25
949.031	1.75
949.76	0.75
950.49	-1.25
951.219	1.75
951.948	-0.25
952.678	0.75
953.407	0.75
954.136	-1.25
954.865	1.75
955.594	0.75
956.323	-3.25
957.052	0.75
957.78	-0.25
958.509	-2.25
959.238	1.75
959.966	1.75
960.695	-2.25
961.423	-0.25
962.151	0.75
962.88	-0.25
963.608	-1.25
964.336	-0.25
965.064	2.75
965.792	0.75
966.52	0.75
967.247	0.75
967.975	0.75
968.703	1.75
969.43	-1.25
970.158	0.75
970.885	0.75
971.613	-2.25
972.34	-1.25
973.067	-1.25
973.794	-1.25
974.521	2.75
975.248	-1.25
975.975	-0.25
976.702	-1.25
977.429	0.75
978.156	0.75
978.882	1.75
979.609	-0.25
980.335	-1.25
981.062	0.75
981.788	-1.25
982.514	-0.25
983.24	-1.25
983.967	-0.25
984.693	0.75
985.419	1.75
986.144	2.75
986.87	-2.25
987.596	1.75
988.322	-1.25
989.047	-1.25
989.773	2.75
990.498	-0.25
991.224	0.75
991.949	-1.25
992.674	0.75
993.399	2.75
994.124	-0.25
994.849	0.75
995.574	-0.25
996.299	1.75
997.024	0.75
997.749	-0.25
998.473	0.75
999.198	-1.25
999.922	-2.25
1000.647	1.75
1001.371	2.75
1002.095	-1.25
1002.82	-0.25
1003.544	-2.25
1004.268	2.75
1004.992	3.75
1005.716	3.75
1006.439	4.75
1007.163	5.75
1007.887	5.75
1008.611	1.75
1009.334	-1.25
1010.058	0.75
1010.781	-0.25
1011.504	-1.25
1012.228	0.75
1012.951	-1.25
1013.674	0.75
1014.397	-0.25
1015.12	1.75
