节点500_705_QEPB04081__146__20-48-18-080.txt的数据

Date: Wed Nov 12 20:48:18 CST 2025
User: PC
Spectrometer: QEPB0408
触发模式: 0
积分时间 (秒): 1.000000E-2
Scans to average: 1
启用暗噪声校正: true
启用非线性校正: false
滑动平均宽度: 0
X轴模式: Wavelengths
Number of Pixels in Spectrum: 1044
>>>>>Begin Spectral Data<<<<<
220.843	7
221.644	5
222.444	6
223.244	5
224.045	8
224.845	7
225.645	6
226.445	7
227.245	5
228.045	10
228.845	9
229.645	7
230.444	9
231.244	11
232.043	10
232.843	10
233.642	8
234.442	9
235.241	11
236.04	12
236.839	9
237.638	13
238.437	13
239.236	13
240.035	14
240.833	9
241.632	13
242.43	12
243.229	13
244.027	16
244.826	14
245.624	17
246.422	15
247.22	14
248.018	15
248.816	15
249.614	19
250.412	17
251.21	19
252.007	20
252.805	17
253.602	18
254.4	17
255.197	17
255.994	20
256.791	23
257.589	20
258.386	21
259.183	24
259.979	23
260.776	25
261.573	24
262.37	26
263.166	26
263.963	30
264.759	27
265.556	27
266.352	28
267.148	29
267.944	34
268.74	29
269.536	28
270.332	32
271.128	33
271.924	35
272.719	33
273.515	32
274.311	35
275.106	33
275.901	36
276.697	34
277.492	35
278.287	36
279.082	34
279.877	37
280.672	35
281.467	37
282.262	36
283.056	36
283.851	36
284.646	36
285.44	38
286.234	38
287.029	37
287.823	37
288.617	34
289.411	31
290.205	34
290.999	32
291.793	34
292.587	34
293.381	32
294.174	33
294.968	29
295.761	30
296.555	29
297.348	26
298.141	25
298.935	30
299.728	24
300.521	25
301.314	26
302.107	26
302.899	24
303.692	22
304.485	20
305.277	21
306.07	21
306.862	23
307.655	21
308.447	23
309.239	22
310.031	22
310.823	17
311.615	19
312.407	18
313.199	15
313.991	19
314.783	18
315.574	17
316.366	16
317.157	15
317.949	13
318.74	14
319.531	15
320.322	16
321.113	16
321.904	14
322.695	14
323.486	15
324.277	14
325.068	15
325.858	13
326.649	13
327.439	12
328.23	11
329.02	14
329.81	13
330.6	13
331.391	14
332.181	14
332.971	13
333.76	12
334.55	12
335.34	11
336.13	12
336.919	13
337.709	10
338.498	14
339.287	9
340.077	14
340.866	12
341.655	12
342.444	9
343.233	11
344.022	12
344.811	8
345.6	11
346.388	12
347.177	10
347.965	12
348.754	11
349.542	11
350.33	12
351.119	11
351.907	11
352.695	9
353.483	10
354.271	10
355.059	12
355.846	9
356.634	11
357.422	12
358.209	11
358.997	10
359.784	11
360.571	11
361.359	11
362.146	13
362.933	11
363.72	11
364.507	11
365.294	11
366.081	9
366.867	9
367.654	10
368.44	11
369.227	10
370.013	11
370.8	10
371.586	11
372.372	11
373.158	9
373.944	9
374.73	9
375.516	10
376.302	10
377.088	10
377.873	11
378.659	11
379.445	10
380.23	11
381.015	7
381.801	8
382.586	10
383.371	13
384.156	11
384.941	10
385.726	11
386.511	11
387.296	11
388.08	9
388.865	14
389.649	13
390.434	11
391.218	9
392.003	13
392.787	15
393.571	11
394.355	13
395.139	12
395.923	13
396.707	14
397.491	13
398.274	14
399.058	11
399.842	13
400.625	15
401.408	15
402.192	13
402.975	15
403.758	16
404.541	16
405.324	15
406.107	17
406.89	13
407.673	15
408.456	15
409.238	15
410.021	17
410.803	16
411.586	20
412.368	19
413.151	20
413.933	18
414.715	17
415.497	18
416.279	18
417.061	21
417.843	21
418.624	19
419.406	18
420.188	21
420.969	23
421.751	22
422.532	20
423.313	19
424.095	26
424.876	27
425.657	26
426.438	25
427.219	29
428	31
428.78	29
429.561	29
430.342	31
431.122	31
431.903	33
432.683	33
433.464	35
434.244	38
435.024	37
435.804	43
436.584	43
437.364	46
438.144	49
438.924	49
439.704	57
440.483	58
441.263	62
442.042	66
442.822	69
443.601	75
444.38	79
445.16	86
445.939	90
446.718	100
447.497	111
448.276	118
449.054	129
449.833	143
450.612	156
451.391	168
452.169	185
452.948	205
453.726	226
454.504	255
455.282	285
456.061	319
456.839	358
457.617	394
458.395	443
459.172	488
459.95	538
460.728	620
461.506	687
462.283	758
463.061	853
463.838	968
464.615	1063
465.393	1169
466.17	1315
466.947	1473
467.724	1643
468.501	1804
469.278	2033
470.055	2229
470.831	2474
471.608	2755
472.385	3046
473.161	3362
473.938	3703
474.714	4111
475.49	4520
476.266	4953
477.043	5395
477.819	5945
478.595	6540
479.371	7161
480.146	7839
480.922	8604
481.698	9371
482.473	10248
483.249	11179
484.024	12123
484.8	13248
485.575	14383
486.35	15679
487.126	16977
487.901	18393
488.676	19887
489.451	21535
490.225	23180
491	24889
491.775	26715
492.55	28597
493.324	30421
494.099	32275
494.873	34192
495.647	36088
496.422	38024
497.196	39898
497.97	41619
498.744	43018
499.518	44689
500.292	46074
501.066	46926
501.839	47840
502.613	48397
503.387	48918
504.16	49215
504.934	49062
505.707	48850
506.48	48241
507.253	47522
508.027	46669
508.8	45498
509.573	44298
510.346	43031
511.118	41832
511.891	40376
512.664	38745
513.437	37243
514.209	35797
514.982	34298
515.754	32858
516.526	31461
517.298	30243
518.071	28987
518.843	27819
519.615	26666
520.387	25667
521.159	24691
521.93	23595
522.702	22589
523.474	21627
524.245	20756
525.017	19746
525.788	18859
526.56	18024
527.331	17169
528.102	16365
528.873	15489
529.644	14725
530.415	14131
531.186	13353
531.957	12625
532.728	11937
533.498	11288
534.269	10730
535.039	10089
535.81	9508
536.58	9042
537.351	8573
538.121	8138
538.891	7675
539.661	7276
540.431	6881
541.201	6541
541.971	6165
542.741	5855
543.51	5538
544.28	5280
545.05	5067
545.819	4800
546.588	4560
547.358	4371
548.127	4125
548.896	3923
549.665	3731
550.434	3501
551.203	3330
551.972	3139
552.741	2988
553.51	2814
554.278	2652
555.047	2506
555.815	2380
556.584	2234
557.352	2141
558.121	1995
558.889	1875
559.657	1776
560.425	1673
561.193	1587
561.961	1523
562.729	1438
563.496	1344
564.264	1291
565.032	1197
565.799	1143
566.567	1092
567.334	1016
568.101	957
568.869	917
569.636	857
570.403	810
571.17	765
571.937	726
572.704	690
573.471	646
574.237	607
575.004	575
575.771	537
576.537	500
577.303	484
578.07	456
578.836	428
579.602	404
580.368	387
581.134	374
581.9	355
582.666	329
583.432	316
584.198	306
584.964	287
585.729	266
586.495	259
587.26	247
588.025	227
588.791	218
589.556	210
590.321	197
591.086	189
591.851	174
592.616	167
593.381	159
594.146	159
594.911	149
595.675	144
596.44	133
597.204	129
597.969	121
598.733	118
599.497	113
600.261	109
601.025	104
601.79	99
602.553	93
603.317	91
604.081	89
604.845	84
605.609	83
606.372	79
607.136	74
607.899	72
608.662	67
609.426	66
610.189	64
610.952	63
611.715	64
612.478	54
613.241	56
614.004	53
614.767	50
615.529	48
616.292	47
617.055	49
617.817	46
618.579	45
619.342	47
620.104	40
620.866	40
621.628	36
622.39	39
623.152	36
623.914	34
624.676	34
625.438	30
626.199	32
626.961	30
627.722	33
628.484	32
629.245	29
630.006	27
630.768	27
631.529	28
632.29	26
633.051	28
633.812	23
634.573	22
635.333	25
636.094	23
636.855	21
637.615	22
638.376	22
639.136	21
639.896	18
640.657	21
641.417	18
642.177	19
642.937	16
643.697	15
644.457	18
645.216	18
645.976	18
646.736	18
647.495	16
648.255	15
649.014	15
649.774	15
650.533	12
651.292	14
652.051	13
652.81	15
653.569	11
654.328	13
655.087	14
655.846	15
656.604	12
657.363	11
658.121	14
658.88	14
659.638	11
660.397	12
661.155	11
661.913	13
662.671	13
663.429	8
664.187	10
664.945	11
665.703	11
666.46	9
667.218	9
667.976	12
668.733	12
669.49	11
670.248	9
671.005	8
671.762	11
672.519	9
673.276	10
674.033	9
674.79	8
675.547	8
676.304	7
677.06	9
677.817	9
678.574	10
679.33	10
680.086	7
680.843	8
681.599	8
682.355	9
683.111	8
683.867	10
684.623	7
685.379	9
686.135	6
686.89	8
687.646	9
688.402	7
689.157	6
689.912	8
690.668	8
691.423	7
692.178	9
692.933	7
693.688	10
694.443	9
695.198	10
695.953	8
696.708	8
697.462	8
698.217	6
698.972	9
699.726	7
700.48	7
701.235	10
701.989	6
702.743	7
703.497	8
704.251	10
705.005	8
705.759	10
706.513	7
707.266	8
708.02	7
708.774	7
709.527	6
710.28	8
711.034	8
711.787	11
712.54	8
713.293	11
714.046	8
714.799	8
715.552	7
716.305	8
717.058	8
717.81	9
718.563	8
719.315	9
720.068	7
720.82	9
721.573	7
722.325	10
723.077	8
723.829	8
724.581	9
725.333	7
726.085	9
726.836	8
727.588	9
728.34	8
729.091	10
729.843	9
730.594	9
731.346	11
732.097	8
732.848	12
733.599	8
734.35	10
735.101	11
735.852	10
736.603	10
737.354	10
738.104	8
738.855	10
739.605	10
740.356	10
741.106	10
741.856	12
742.607	10
743.357	8
744.107	9
744.857	13
745.607	11
746.357	10
747.106	13
747.856	10
748.606	13
749.355	13
750.105	12
750.854	11
751.603	10
752.353	11
753.102	11
753.851	13
754.6	12
755.349	13
756.098	14
756.847	12
757.595	11
758.344	14
759.093	9
759.841	14
760.589	14
761.338	13
762.086	14
762.834	14
763.582	13
764.331	15
765.079	15
765.826	13
766.574	13
767.322	15
768.07	16
768.817	16
769.565	14
770.312	15
771.06	17
771.807	15
772.554	18
773.302	16
774.049	17
774.796	17
775.543	15
776.29	15
777.036	12
777.783	19
778.53	19
779.276	18
780.023	17
780.769	15
781.516	15
782.262	16
783.008	15
783.754	19
784.5	16
785.246	17
785.992	15
786.738	16
787.484	16
788.23	19
788.975	17
789.721	13
790.466	17
791.212	16
791.957	15
792.702	15
793.447	15
794.193	15
794.938	17
795.683	17
796.427	16
797.172	12
797.917	15
798.662	9
799.406	11
800.151	13
800.895	11
801.64	14
802.384	14
803.128	10
803.872	12
804.616	11
805.36	9
806.104	11
806.848	11
807.592	13
808.336	12
809.079	10
809.823	11
810.566	9
811.31	8
812.053	10
812.796	9
813.539	10
814.283	8
815.026	8
815.769	9
816.511	8
817.254	8
817.997	10
818.74	7
819.482	7
820.225	9
820.967	8
821.71	8
822.452	8
823.194	8
823.936	8
824.678	8
825.42	8
826.162	7
826.904	6
827.646	9
828.388	5
829.129	7
829.871	6
830.612	5
831.354	6
832.095	5
832.836	6
833.577	5
834.319	6
835.06	5
835.801	5
836.542	8
837.282	6
838.023	7
838.764	4
839.504	5
840.245	5
840.985	5
841.726	5
842.466	3
843.206	4
843.946	5
844.687	5
845.427	6
846.166	5
846.906	5
847.646	5
848.386	3
849.125	3
849.865	4
850.605	8
851.344	5
852.083	5
852.823	3
853.562	5
854.301	4
855.04	6
855.779	5
856.518	3
857.257	3
857.995	4
858.734	4
859.473	3
860.211	3
860.95	8
861.688	4
862.426	4
863.165	3
863.903	3
864.641	4
865.379	3
866.117	2
866.855	2
867.593	5
868.33	2
869.068	3
869.806	2
870.543	1
871.28	5
872.018	3
872.755	1
873.492	3
874.229	0
874.967	2
875.703	2
876.44	3
877.177	2
877.914	2
878.651	2
879.387	0
880.124	1
880.86	1
881.597	0
882.333	3
883.069	-2
883.806	3
884.542	3
885.278	4
886.014	2
886.749	3
887.485	3
888.221	-1
888.957	0
889.692	-1
890.428	0
891.163	1
891.899	2
892.634	3
893.369	3
894.104	2
894.839	1
895.574	0
896.309	2
897.044	0
897.779	2
898.514	2
899.248	0
899.983	1
900.717	-1
901.452	1
902.186	1
902.92	0
903.654	0
904.389	0
905.123	3
905.857	-1
906.59	-1
907.324	1
908.058	1
908.792	1
909.525	1
910.259	3
910.992	0
911.726	-1
912.459	4
913.192	1
913.925	4
914.658	0
915.391	0
916.124	0
916.857	1
917.59	1
918.323	2
919.055	0
919.788	1
920.521	3
921.253	0
921.985	3
922.718	1
923.45	-2
924.182	0
924.914	-1
925.646	0
926.378	1
927.11	-1
927.841	0
928.573	-1
929.305	3
930.036	0
930.768	2
931.499	0
932.23	0
932.962	0
933.693	-1
934.424	2
935.155	1
935.886	-1
936.617	-1
937.348	-1
938.078	0
938.809	-3
939.54	1
940.27	-1
941.001	-1
941.731	1
942.461	0
943.191	0
943.922	1
944.652	1
945.382	1
946.112	-1
946.841	0
947.571	0
948.301	1
949.031	1
949.76	1
950.49	1
951.219	-1
951.948	0
952.678	3
953.407	0
954.136	-1
954.865	2
955.594	-1
956.323	0
957.052	1
957.78	0
958.509	-1
959.238	-1
959.966	0
960.695	1
961.423	-2
962.151	2
962.88	0
963.608	-1
964.336	0
965.064	1
965.792	2
966.52	0
967.247	0
967.975	-2
968.703	2
969.43	0
970.158	-1
970.885	0
971.613	0
972.34	-1
973.067	2
973.794	3
974.521	3
975.248	0
975.975	0
976.702	0
977.429	0
978.156	3
978.882	0
979.609	2
980.335	-1
981.062	1
981.788	0
982.514	1
983.24	2
983.967	2
984.693	-1
985.419	-1
986.144	1
986.87	2
987.596	0
988.322	-1
989.047	0
989.773	-1
990.498	-1
991.224	1
991.949	-1
992.674	0
993.399	2
994.124	2
994.849	1
995.574	2
996.299	2
997.024	2
997.749	1
998.473	-1
999.198	1
999.922	0
1000.647	-1
1001.371	3
1002.095	-1
1002.82	-3
1003.544	-1
1004.268	2
1004.992	5
1005.716	3
1006.439	5
1007.163	8
1007.887	5
1008.611	-1
1009.334	2
1010.058	1
1010.781	-1
1011.504	1
1012.228	-2
1012.951	0
1013.674	-1
1014.397	2
1015.12	1
