节点500_705_QEPB04081__191__20-48-58-463.txt的数据

Date: Wed Nov 12 20:48:58 CST 2025
User: PC
Spectrometer: QEPB0408
触发模式: 0
积分时间 (秒): 1.000000E-2
Scans to average: 1
启用暗噪声校正: true
启用非线性校正: false
滑动平均宽度: 0
X轴模式: Wavelengths
Number of Pixels in Spectrum: 1044
>>>>>Begin Spectral Data<<<<<
220.843	4.62
221.644	5.62
222.444	5.62
223.244	6.62
224.045	4.62
224.845	4.62
225.645	5.62
226.445	4.62
227.245	9.62
228.045	6.62
228.845	9.62
229.645	7.62
230.444	5.62
231.244	6.62
232.043	8.62
232.843	7.62
233.642	9.62
234.442	12.62
235.241	9.62
236.04	7.62
236.839	11.62
237.638	8.62
238.437	11.62
239.236	9.62
240.035	8.62
240.833	12.62
241.632	10.62
242.43	11.62
243.229	12.62
244.027	12.62
244.826	12.62
245.624	14.62
246.422	14.62
247.22	14.62
248.018	14.62
248.816	16.62
249.614	16.62
250.412	14.62
251.21	17.62
252.007	19.62
252.805	19.62
253.602	19.62
254.4	14.62
255.197	21.62
255.994	19.62
256.791	21.62
257.589	21.62
258.386	22.62
259.183	21.62
259.979	21.62
260.776	24.62
261.573	25.62
262.37	26.62
263.166	26.62
263.963	23.62
264.759	28.62
265.556	26.62
266.352	27.62
267.148	26.62
267.944	30.62
268.74	31.62
269.536	29.62
270.332	31.62
271.128	29.62
271.924	27.62
272.719	34.62
273.515	30.62
274.311	32.62
275.106	31.62
275.901	33.62
276.697	33.62
277.492	34.62
278.287	35.62
279.082	35.62
279.877	33.62
280.672	36.62
281.467	38.62
282.262	36.62
283.056	35.62
283.851	36.62
284.646	34.62
285.44	35.62
286.234	34.62
287.029	34.62
287.823	31.62
288.617	35.62
289.411	30.62
290.205	32.62
290.999	32.62
291.793	29.62
292.587	34.62
293.381	33.62
294.174	30.62
294.968	31.62
295.761	29.62
296.555	27.62
297.348	28.62
298.141	26.62
298.935	28.62
299.728	28.62
300.521	23.62
301.314	24.62
302.107	22.62
302.899	20.62
303.692	20.62
304.485	23.62
305.277	21.62
306.07	21.62
306.862	22.62
307.655	20.62
308.447	21.62
309.239	21.62
310.031	18.62
310.823	19.62
311.615	18.62
312.407	18.62
313.199	14.62
313.991	15.62
314.783	16.62
315.574	14.62
316.366	16.62
317.157	17.62
317.949	16.62
318.74	16.62
319.531	17.62
320.322	14.62
321.113	14.62
321.904	14.62
322.695	10.62
323.486	14.62
324.277	12.62
325.068	12.62
325.858	10.62
326.649	14.62
327.439	14.62
328.23	13.62
329.02	10.62
329.81	11.62
330.6	13.62
331.391	12.62
332.181	11.62
332.971	10.62
333.76	10.62
334.55	13.62
335.34	11.62
336.13	14.62
336.919	10.62
337.709	9.62
338.498	11.62
339.287	12.62
340.077	12.62
340.866	11.62
341.655	11.62
342.444	12.62
343.233	10.62
344.022	12.62
344.811	10.62
345.6	9.62
346.388	9.62
347.177	12.62
347.965	9.62
348.754	10.62
349.542	11.62
350.33	9.62
351.119	9.62
351.907	10.62
352.695	9.62
353.483	10.62
354.271	10.62
355.059	12.62
355.846	11.62
356.634	10.62
357.422	10.62
358.209	9.62
358.997	11.62
359.784	9.62
360.571	10.62
361.359	12.62
362.146	9.62
362.933	10.62
363.72	9.62
364.507	10.62
365.294	7.62
366.081	8.62
366.867	9.62
367.654	9.62
368.44	11.62
369.227	8.62
370.013	9.62
370.8	8.62
371.586	7.62
372.372	10.62
373.158	8.62
373.944	9.62
374.73	10.62
375.516	10.62
376.302	7.62
377.088	9.62
377.873	10.62
378.659	10.62
379.445	10.62
380.23	10.62
381.015	10.62
381.801	11.62
382.586	10.62
383.371	10.62
384.156	10.62
384.941	10.62
385.726	9.62
386.511	8.62
387.296	12.62
388.08	11.62
388.865	11.62
389.649	11.62
390.434	12.62
391.218	14.62
392.003	8.62
392.787	13.62
393.571	10.62
394.355	12.62
395.139	12.62
395.923	12.62
396.707	11.62
397.491	12.62
398.274	14.62
399.058	10.62
399.842	11.62
400.625	13.62
401.408	10.62
402.192	14.62
402.975	14.62
403.758	12.62
404.541	12.62
405.324	13.62
406.107	15.62
406.89	15.62
407.673	16.62
408.456	14.62
409.238	15.62
410.021	17.62
410.803	13.62
411.586	18.62
412.368	17.62
413.151	19.62
413.933	15.62
414.715	17.62
415.497	20.62
416.279	18.62
417.061	20.62
417.843	18.62
418.624	19.62
419.406	23.62
420.188	23.62
420.969	24.62
421.751	21.62
422.532	19.62
423.313	25.62
424.095	22.62
424.876	25.62
425.657	22.62
426.438	25.62
427.219	25.62
428	24.62
428.78	26.62
429.561	29.62
430.342	31.62
431.122	29.62
431.903	31.62
432.683	34.62
433.464	35.62
434.244	38.62
435.024	38.62
435.804	38.62
436.584	40.62
437.364	43.62
438.144	46.62
438.924	48.62
439.704	55.62
440.483	57.62
441.263	55.62
442.042	68.62
442.822	67.62
443.601	71.62
444.38	80.62
445.16	84.62
445.939	90.62
446.718	97.62
447.497	108.62
448.276	116.62
449.054	132.62
449.833	141.62
450.612	151.62
451.391	168.62
452.169	195.62
452.948	209.62
453.726	230.62
454.504	247.62
455.282	290.62
456.061	322.62
456.839	355.62
457.617	403.62
458.395	448.62
459.172	497.62
459.95	551.62
460.728	617.62
461.506	694.62
462.283	764.62
463.061	855.62
463.838	947.62
464.615	1069.62
465.393	1197.62
466.17	1322.62
466.947	1478.62
467.724	1642.62
468.501	1836.62
469.278	2021.62
470.055	2238.62
470.831	2485.62
471.608	2752.62
472.385	3038.62
473.161	3356.62
473.938	3691.62
474.714	4069.62
475.49	4494.62
476.266	4918.62
477.043	5382.62
477.819	5891.62
478.595	6490.62
479.371	7073.62
480.146	7741.62
480.922	8483.62
481.698	9306.62
482.473	10103.62
483.249	10989.62
484.024	12007.62
484.8	13038.62
485.575	14144.62
486.35	15449.62
487.126	16730.62
487.901	18084.62
488.676	19556.62
489.451	21158.62
490.225	22743.62
491	24434.62
491.775	26147.62
492.55	28014.62
493.324	29869.62
494.099	31662.62
494.873	33550.62
495.647	35416.62
496.422	37314.62
497.196	39149.62
497.97	40821.62
498.744	42385.62
499.518	43921.62
500.292	45228.62
501.066	46213.62
501.839	47122.62
502.613	47733.62
503.387	48308.62
504.16	48536.62
504.934	48625.62
505.707	48428.62
506.48	47866.62
507.253	47233.62
508.027	46424.62
508.8	45218.62
509.573	44033.62
510.346	42837.62
511.118	41645.62
511.891	40383.62
512.664	38800.62
513.437	37196.62
514.209	35767.62
514.982	34368.62
515.754	32893.62
516.526	31468.62
517.298	30263.62
518.071	29004.62
518.843	27886.62
519.615	26745.62
520.387	25678.62
521.159	24646.62
521.93	23595.62
522.702	22563.62
523.474	21626.62
524.245	20669.62
525.017	19735.62
525.788	18870.62
526.56	18145.62
527.331	17316.62
528.102	16412.62
528.873	15607.62
529.644	14855.62
530.415	14126.62
531.186	13456.62
531.957	12713.62
532.728	12016.62
533.498	11372.62
534.269	10802.62
535.039	10201.62
535.81	9637.62
536.58	9120.62
537.351	8618.62
538.121	8177.62
538.891	7700.62
539.661	7311.62
540.431	6938.62
541.201	6582.62
541.971	6255.62
542.741	5923.62
543.51	5574.62
544.28	5308.62
545.05	5070.62
545.819	4816.62
546.588	4605.62
547.358	4397.62
548.127	4190.62
548.896	3958.62
549.665	3732.62
550.434	3550.62
551.203	3388.62
551.972	3191.62
552.741	3028.62
553.51	2842.62
554.278	2685.62
555.047	2522.62
555.815	2386.62
556.584	2254.62
557.352	2146.62
558.121	2022.62
558.889	1896.62
559.657	1796.62
560.425	1702.62
561.193	1612.62
561.961	1529.62
562.729	1449.62
563.496	1366.62
564.264	1285.62
565.032	1211.62
565.799	1152.62
566.567	1092.62
567.334	1022.62
568.101	973.62
568.869	921.62
569.636	879.62
570.403	815.62
571.17	770.62
571.937	737.62
572.704	697.62
573.471	654.62
574.237	619.62
575.004	579.62
575.771	546.62
576.537	527.62
577.303	490.62
578.07	465.62
578.836	434.62
579.602	400.62
580.368	387.62
581.134	368.62
581.9	353.62
582.666	338.62
583.432	316.62
584.198	302.62
584.964	289.62
585.729	270.62
586.495	261.62
587.26	242.62
588.025	236.62
588.791	217.62
589.556	204.62
590.321	204.62
591.086	189.62
591.851	183.62
592.616	170.62
593.381	159.62
594.146	152.62
594.911	142.62
595.675	146.62
596.44	136.62
597.204	133.62
597.969	124.62
598.733	121.62
599.497	113.62
600.261	105.62
601.025	104.62
601.79	104.62
602.553	94.62
603.317	94.62
604.081	90.62
604.845	85.62
605.609	78.62
606.372	82.62
607.136	74.62
607.899	70.62
608.662	69.62
609.426	63.62
610.189	65.62
610.952	64.62
611.715	60.62
612.478	56.62
613.241	51.62
614.004	52.62
614.767	53.62
615.529	50.62
616.292	46.62
617.055	47.62
617.817	45.62
618.579	42.62
619.342	40.62
620.104	38.62
620.866	39.62
621.628	37.62
622.39	37.62
623.152	34.62
623.914	34.62
624.676	36.62
625.438	33.62
626.199	29.62
626.961	29.62
627.722	29.62
628.484	30.62
629.245	25.62
630.006	29.62
630.768	30.62
631.529	24.62
632.29	26.62
633.051	23.62
633.812	23.62
634.573	23.62
635.333	22.62
636.094	23.62
636.855	22.62
637.615	22.62
638.376	21.62
639.136	19.62
639.896	19.62
640.657	19.62
641.417	17.62
642.177	16.62
642.937	20.62
643.697	15.62
644.457	18.62
645.216	17.62
645.976	15.62
646.736	16.62
647.495	14.62
648.255	14.62
649.014	12.62
649.774	12.62
650.533	15.62
651.292	13.62
652.051	15.62
652.81	9.62
653.569	12.62
654.328	15.62
655.087	12.62
655.846	13.62
656.604	10.62
657.363	12.62
658.121	9.62
658.88	12.62
659.638	10.62
660.397	10.62
661.155	11.62
661.913	9.62
662.671	10.62
663.429	8.62
664.187	9.62
664.945	10.62
665.703	11.62
666.46	12.62
667.218	10.62
667.976	8.62
668.733	8.62
669.49	8.62
670.248	9.62
671.005	9.62
671.762	12.62
672.519	10.62
673.276	8.62
674.033	9.62
674.79	7.62
675.547	9.62
676.304	9.62
677.06	8.62
677.817	10.62
678.574	7.62
679.33	8.62
680.086	8.62
680.843	7.62
681.599	9.62
682.355	9.62
683.111	8.62
683.867	6.62
684.623	7.62
685.379	9.62
686.135	7.62
686.89	7.62
687.646	9.62
688.402	7.62
689.157	6.62
689.912	7.62
690.668	9.62
691.423	8.62
692.178	7.62
692.933	5.62
693.688	8.62
694.443	8.62
695.198	6.62
695.953	5.62
696.708	7.62
697.462	7.62
698.217	7.62
698.972	7.62
699.726	7.62
700.48	7.62
701.235	6.62
701.989	7.62
702.743	4.62
703.497	8.62
704.251	6.62
705.005	8.62
705.759	5.62
706.513	5.62
707.266	7.62
708.02	8.62
708.774	4.62
709.527	10.62
710.28	8.62
711.034	6.62
711.787	7.62
712.54	6.62
713.293	7.62
714.046	6.62
714.799	7.62
715.552	7.62
716.305	6.62
717.058	7.62
717.81	6.62
718.563	8.62
719.315	8.62
720.068	6.62
720.82	7.62
721.573	6.62
722.325	6.62
723.077	6.62
723.829	9.62
724.581	8.62
725.333	9.62
726.085	9.62
726.836	7.62
727.588	10.62
728.34	8.62
729.091	6.62
729.843	9.62
730.594	7.62
731.346	10.62
732.097	10.62
732.848	8.62
733.599	8.62
734.35	9.62
735.101	9.62
735.852	8.62
736.603	9.62
737.354	9.62
738.104	9.62
738.855	10.62
739.605	11.62
740.356	10.62
741.106	9.62
741.856	9.62
742.607	10.62
743.357	9.62
744.107	10.62
744.857	10.62
745.607	10.62
746.357	11.62
747.106	11.62
747.856	14.62
748.606	12.62
749.355	10.62
750.105	11.62
750.854	11.62
751.603	12.62
752.353	10.62
753.102	12.62
753.851	10.62
754.6	10.62
755.349	13.62
756.098	12.62
756.847	11.62
757.595	13.62
758.344	12.62
759.093	11.62
759.841	12.62
760.589	11.62
761.338	14.62
762.086	13.62
762.834	13.62
763.582	13.62
764.331	16.62
765.079	13.62
765.826	14.62
766.574	11.62
767.322	13.62
768.07	15.62
768.817	14.62
769.565	16.62
770.312	14.62
771.06	15.62
771.807	13.62
772.554	12.62
773.302	13.62
774.049	13.62
774.796	18.62
775.543	14.62
776.29	13.62
777.036	14.62
777.783	16.62
778.53	15.62
779.276	14.62
780.023	16.62
780.769	15.62
781.516	16.62
782.262	12.62
783.008	15.62
783.754	14.62
784.5	15.62
785.246	17.62
785.992	13.62
786.738	17.62
787.484	14.62
788.23	14.62
788.975	16.62
789.721	13.62
790.466	15.62
791.212	15.62
791.957	15.62
792.702	16.62
793.447	15.62
794.193	14.62
794.938	14.62
795.683	15.62
796.427	13.62
797.172	14.62
797.917	13.62
798.662	11.62
799.406	13.62
800.151	11.62
800.895	12.62
801.64	10.62
802.384	12.62
803.128	12.62
803.872	12.62
804.616	11.62
805.36	7.62
806.104	11.62
806.848	11.62
807.592	7.62
808.336	10.62
809.079	7.62
809.823	9.62
810.566	8.62
811.31	9.62
812.053	7.62
812.796	7.62
813.539	7.62
814.283	6.62
815.026	8.62
815.769	10.62
816.511	9.62
817.254	9.62
817.997	7.62
818.74	6.62
819.482	6.62
820.225	7.62
820.967	8.62
821.71	6.62
822.452	8.62
823.194	8.62
823.936	7.62
824.678	7.62
825.42	7.62
826.162	4.62
826.904	5.62
827.646	6.62
828.388	5.62
829.129	5.62
829.871	7.62
830.612	5.62
831.354	5.62
832.095	6.62
832.836	6.62
833.577	6.62
834.319	4.62
835.06	7.62
835.801	6.62
836.542	6.62
837.282	4.62
838.023	4.62
838.764	6.62
839.504	4.62
840.245	1.62
840.985	4.62
841.726	5.62
842.466	5.62
843.206	7.62
843.946	4.62
844.687	4.62
845.427	5.62
846.166	3.62
846.906	5.62
847.646	2.62
848.386	2.62
849.125	4.62
849.865	7.62
850.605	4.62
851.344	5.62
852.083	5.62
852.823	3.62
853.562	1.62
854.301	4.62
855.04	2.62
855.779	5.62
856.518	5.62
857.257	4.62
857.995	3.62
858.734	2.62
859.473	4.62
860.211	2.62
860.95	4.62
861.688	3.62
862.426	1.62
863.165	0.62
863.903	2.62
864.641	2.62
865.379	2.62
866.117	1.62
866.855	2.62
867.593	2.62
868.33	2.62
869.068	-0.38
869.806	2.62
870.543	0.62
871.28	1.62
872.018	2.62
872.755	2.62
873.492	2.62
874.229	-1.38
874.967	2.62
875.703	3.62
876.44	3.62
877.177	2.62
877.914	-1.38
878.651	1.62
879.387	1.62
880.124	0.62
880.86	1.62
881.597	0.62
882.333	2.62
883.069	0.62
883.806	2.62
884.542	-0.38
885.278	3.62
886.014	3.62
886.749	0.62
887.485	0.62
888.221	1.62
888.957	-0.38
889.692	2.62
890.428	0.62
891.163	2.62
891.899	-1.38
892.634	0.62
893.369	1.62
894.104	-0.38
894.839	-0.38
895.574	0.62
896.309	1.62
897.044	0.62
897.779	-1.38
898.514	2.62
899.248	0.62
899.983	-0.38
900.717	1.62
901.452	2.62
902.186	-1.38
902.92	-1.38
903.654	-2.38
904.389	-0.38
905.123	1.62
905.857	2.62
906.59	1.62
907.324	0.62
908.058	-0.38
908.792	-0.38
909.525	-1.38
910.259	0.62
910.992	1.62
911.726	2.62
912.459	2.62
913.192	-0.38
913.925	0.62
914.658	1.62
915.391	0.62
916.124	1.62
916.857	1.62
917.59	0.62
918.323	-0.38
919.055	-0.38
919.788	0.62
920.521	-0.38
921.253	-0.38
921.985	-0.38
922.718	2.62
923.45	-0.38
924.182	-0.38
924.914	-1.38
925.646	0.62
926.378	0.62
927.11	-0.38
927.841	0.62
928.573	-1.38
929.305	-1.38
930.036	2.62
930.768	0.62
931.499	-1.38
932.23	-1.38
932.962	1.62
933.693	-1.38
934.424	-1.38
935.155	1.62
935.886	0.62
936.617	-1.38
937.348	-1.38
938.078	-0.38
938.809	0.62
939.54	1.62
940.27	0.62
941.001	-0.38
941.731	2.62
942.461	0.62
943.191	1.62
943.922	0.62
944.652	-1.38
945.382	0.62
946.112	0.62
946.841	0.62
947.571	-0.38
948.301	0.62
949.031	1.62
949.76	0.62
950.49	1.62
951.219	0.62
951.948	2.62
952.678	-2.38
953.407	-1.38
954.136	0.62
954.865	-1.38
955.594	0.62
956.323	1.62
957.052	-0.38
957.78	0.62
958.509	-1.38
959.238	-0.38
959.966	-2.38
960.695	-0.38
961.423	0.62
962.151	-1.38
962.88	-0.38
963.608	0.62
964.336	0.62
965.064	-0.38
965.792	3.62
966.52	-0.38
967.247	0.62
967.975	0.62
968.703	0.62
969.43	2.62
970.158	0.62
970.885	-0.38
971.613	1.62
972.34	-1.38
973.067	1.62
973.794	0.62
974.521	-0.38
975.248	1.62
975.975	-0.38
976.702	-1.38
977.429	-0.38
978.156	0.62
978.882	0.62
979.609	1.62
980.335	1.62
981.062	-0.38
981.788	0.62
982.514	-1.38
983.24	-0.38
983.967	-1.38
984.693	0.62
985.419	-1.38
986.144	-1.38
986.87	-2.38
987.596	0.62
988.322	-1.38
989.047	1.62
989.773	0.62
990.498	-0.38
991.224	-2.38
991.949	-0.38
992.674	0.62
993.399	0.62
994.124	0.62
994.849	-0.38
995.574	1.62
996.299	0.62
997.024	-0.38
997.749	-1.38
998.473	1.62
999.198	-1.38
999.922	0.62
1000.647	-0.38
1001.371	4.62
1002.095	-1.38
1002.82	-1.38
1003.544	-0.38
1004.268	2.62
1004.992	4.62
1005.716	6.62
1006.439	4.62
1007.163	5.62
1007.887	6.62
1008.611	-1.38
1009.334	0.62
1010.058	-0.38
1010.781	-3.38
1011.504	0.62
1012.228	-1.38
1012.951	-2.38
1013.674	0.62
1014.397	-0.38
1015.12	0.62
