节点500_705_QEPB04081__433__20-52-04-708.txt的数据

Date: Wed Nov 12 20:52:04 CST 2025
User: PC
Spectrometer: QEPB0408
触发模式: 0
积分时间 (秒): 1.000000E-2
Scans to average: 1
启用暗噪声校正: true
启用非线性校正: false
滑动平均宽度: 0
X轴模式: Wavelengths
Number of Pixels in Spectrum: 1044
>>>>>Begin Spectral Data<<<<<
220.843	6.25
221.644	7.25
222.444	7.25
223.244	5.25
224.045	5.25
224.845	5.25
225.645	5.25
226.445	7.25
227.245	7.25
228.045	9.25
228.845	7.25
229.645	8.25
230.444	6.25
231.244	11.25
232.043	10.25
232.843	10.25
233.642	8.25
234.442	8.25
235.241	10.25
236.04	10.25
236.839	10.25
237.638	9.25
238.437	11.25
239.236	12.25
240.035	10.25
240.833	9.25
241.632	11.25
242.43	11.25
243.229	12.25
244.027	12.25
244.826	13.25
245.624	10.25
246.422	14.25
247.22	13.25
248.018	14.25
248.816	16.25
249.614	15.25
250.412	12.25
251.21	18.25
252.007	16.25
252.805	15.25
253.602	19.25
254.4	17.25
255.197	18.25
255.994	19.25
256.791	18.25
257.589	20.25
258.386	23.25
259.183	20.25
259.979	21.25
260.776	21.25
261.573	21.25
262.37	22.25
263.166	22.25
263.963	28.25
264.759	25.25
265.556	23.25
266.352	27.25
267.148	28.25
267.944	27.25
268.74	27.25
269.536	31.25
270.332	28.25
271.128	30.25
271.924	30.25
272.719	31.25
273.515	32.25
274.311	29.25
275.106	31.25
275.901	33.25
276.697	32.25
277.492	35.25
278.287	34.25
279.082	29.25
279.877	33.25
280.672	32.25
281.467	36.25
282.262	33.25
283.056	35.25
283.851	35.25
284.646	33.25
285.44	31.25
286.234	31.25
287.029	36.25
287.823	32.25
288.617	33.25
289.411	29.25
290.205	31.25
290.999	33.25
291.793	31.25
292.587	34.25
293.381	29.25
294.174	30.25
294.968	31.25
295.761	26.25
296.555	27.25
297.348	26.25
298.141	26.25
298.935	28.25
299.728	27.25
300.521	24.25
301.314	20.25
302.107	26.25
302.899	21.25
303.692	21.25
304.485	23.25
305.277	19.25
306.07	24.25
306.862	24.25
307.655	19.25
308.447	22.25
309.239	21.25
310.031	20.25
310.823	22.25
311.615	19.25
312.407	16.25
313.199	18.25
313.991	19.25
314.783	17.25
315.574	17.25
316.366	16.25
317.157	16.25
317.949	15.25
318.74	15.25
319.531	14.25
320.322	15.25
321.113	13.25
321.904	13.25
322.695	13.25
323.486	13.25
324.277	14.25
325.068	13.25
325.858	14.25
326.649	11.25
327.439	15.25
328.23	14.25
329.02	12.25
329.81	14.25
330.6	13.25
331.391	12.25
332.181	11.25
332.971	11.25
333.76	12.25
334.55	12.25
335.34	12.25
336.13	12.25
336.919	12.25
337.709	14.25
338.498	15.25
339.287	12.25
340.077	11.25
340.866	9.25
341.655	13.25
342.444	13.25
343.233	11.25
344.022	11.25
344.811	8.25
345.6	12.25
346.388	12.25
347.177	12.25
347.965	10.25
348.754	11.25
349.542	11.25
350.33	10.25
351.119	13.25
351.907	11.25
352.695	11.25
353.483	11.25
354.271	10.25
355.059	11.25
355.846	12.25
356.634	11.25
357.422	10.25
358.209	13.25
358.997	11.25
359.784	9.25
360.571	11.25
361.359	10.25
362.146	11.25
362.933	11.25
363.72	9.25
364.507	9.25
365.294	10.25
366.081	9.25
366.867	9.25
367.654	12.25
368.44	9.25
369.227	10.25
370.013	9.25
370.8	10.25
371.586	11.25
372.372	9.25
373.158	8.25
373.944	10.25
374.73	8.25
375.516	10.25
376.302	8.25
377.088	10.25
377.873	10.25
378.659	11.25
379.445	11.25
380.23	9.25
381.015	11.25
381.801	11.25
382.586	10.25
383.371	9.25
384.156	10.25
384.941	10.25
385.726	10.25
386.511	12.25
387.296	9.25
388.08	13.25
388.865	13.25
389.649	11.25
390.434	10.25
391.218	11.25
392.003	11.25
392.787	11.25
393.571	12.25
394.355	11.25
395.139	11.25
395.923	12.25
396.707	11.25
397.491	12.25
398.274	13.25
399.058	12.25
399.842	15.25
400.625	13.25
401.408	12.25
402.192	15.25
402.975	12.25
403.758	14.25
404.541	16.25
405.324	15.25
406.107	12.25
406.89	13.25
407.673	14.25
408.456	11.25
409.238	17.25
410.021	14.25
410.803	17.25
411.586	18.25
412.368	17.25
413.151	17.25
413.933	18.25
414.715	17.25
415.497	18.25
416.279	18.25
417.061	20.25
417.843	18.25
418.624	20.25
419.406	19.25
420.188	18.25
420.969	19.25
421.751	23.25
422.532	23.25
423.313	23.25
424.095	25.25
424.876	25.25
425.657	26.25
426.438	25.25
427.219	26.25
428	27.25
428.78	27.25
429.561	30.25
430.342	30.25
431.122	31.25
431.903	32.25
432.683	31.25
433.464	35.25
434.244	39.25
435.024	39.25
435.804	42.25
436.584	44.25
437.364	44.25
438.144	47.25
438.924	50.25
439.704	53.25
440.483	60.25
441.263	60.25
442.042	66.25
442.822	71.25
443.601	74.25
444.38	83.25
445.16	89.25
445.939	98.25
446.718	103.25
447.497	115.25
448.276	127.25
449.054	139.25
449.833	154.25
450.612	169.25
451.391	180.25
452.169	203.25
452.948	225.25
453.726	250.25
454.504	275.25
455.282	305.25
456.061	342.25
456.839	381.25
457.617	423.25
458.395	469.25
459.172	534.25
459.95	593.25
460.728	653.25
461.506	723.25
462.283	807.25
463.061	893.25
463.838	1000.25
464.615	1122.25
465.393	1240.25
466.17	1364.25
466.947	1516.25
467.724	1688.25
468.501	1869.25
469.278	2057.25
470.055	2279.25
470.831	2508.25
471.608	2750.25
472.385	3060.25
473.161	3323.25
473.938	3676.25
474.714	3995.25
475.49	4393.25
476.266	4810.25
477.043	5272.25
477.819	5742.25
478.595	6230.25
479.371	6837.25
480.146	7422.25
480.922	8110.25
481.698	8768.25
482.473	9542.25
483.249	10364.25
484.024	11206.25
484.8	12199.25
485.575	13113.25
486.35	14220.25
487.126	15382.25
487.901	16608.25
488.676	17879.25
489.451	19220.25
490.225	20614.25
491	22153.25
491.775	23626.25
492.55	25300.25
493.324	26959.25
494.099	28563.25
494.873	30332.25
495.647	31976.25
496.422	33682.25
497.196	35498.25
497.97	37018.25
498.744	38478.25
499.518	40103.25
500.292	41479.25
501.066	42584.25
501.839	43429.25
502.613	44421.25
503.387	45005.25
504.16	45566.25
504.934	45758.25
505.707	45844.25
506.48	45618.25
507.253	45204.25
508.027	44819.25
508.8	43944.25
509.573	43033.25
510.346	42057.25
511.118	41144.25
511.891	40011.25
512.664	38619.25
513.437	37268.25
514.209	35978.25
514.982	34658.25
515.754	33230.25
516.526	31940.25
517.298	30670.25
518.071	29492.25
518.843	28307.25
519.615	27119.25
520.387	26095.25
521.159	25132.25
521.93	24070.25
522.702	23094.25
523.474	22083.25
524.245	21197.25
525.017	20298.25
525.788	19442.25
526.56	18631.25
527.331	17839.25
528.102	16969.25
528.873	16119.25
529.644	15403.25
530.415	14631.25
531.186	13968.25
531.957	13227.25
532.728	12559.25
533.498	11908.25
534.269	11255.25
535.039	10725.25
535.81	10146.25
536.58	9566.25
537.351	9085.25
538.121	8628.25
538.891	8148.25
539.661	7709.25
540.431	7252.25
541.201	6941.25
541.971	6577.25
542.741	6215.25
543.51	5894.25
544.28	5606.25
545.05	5358.25
545.819	5110.25
546.588	4849.25
547.358	4613.25
548.127	4389.25
548.896	4171.25
549.665	3979.25
550.434	3756.25
551.203	3565.25
551.972	3390.25
552.741	3210.25
553.51	3013.25
554.278	2842.25
555.047	2691.25
555.815	2562.25
556.584	2438.25
557.352	2289.25
558.121	2167.25
558.889	2040.25
559.657	1928.25
560.425	1832.25
561.193	1733.25
561.961	1642.25
562.729	1538.25
563.496	1456.25
564.264	1392.25
565.032	1304.25
565.799	1234.25
566.567	1173.25
567.334	1105.25
568.101	1045.25
568.869	988.25
569.636	936.25
570.403	886.25
571.17	835.25
571.937	767.25
572.704	749.25
573.471	699.25
574.237	665.25
575.004	631.25
575.771	581.25
576.537	550.25
577.303	521.25
578.07	493.25
578.836	470.25
579.602	440.25
580.368	422.25
581.134	397.25
581.9	376.25
582.666	354.25
583.432	340.25
584.198	326.25
584.964	306.25
585.729	294.25
586.495	276.25
587.26	263.25
588.025	242.25
588.791	233.25
589.556	221.25
590.321	208.25
591.086	198.25
591.851	193.25
592.616	179.25
593.381	176.25
594.146	168.25
594.911	158.25
595.675	158.25
596.44	146.25
597.204	139.25
597.969	131.25
598.733	127.25
599.497	124.25
600.261	119.25
601.025	111.25
601.79	109.25
602.553	103.25
603.317	99.25
604.081	98.25
604.845	86.25
605.609	87.25
606.372	82.25
607.136	76.25
607.899	75.25
608.662	72.25
609.426	72.25
610.189	66.25
610.952	66.25
611.715	62.25
612.478	60.25
613.241	55.25
614.004	57.25
614.767	54.25
615.529	51.25
616.292	50.25
617.055	50.25
617.817	46.25
618.579	46.25
619.342	47.25
620.104	43.25
620.866	40.25
621.628	37.25
622.39	42.25
623.152	37.25
623.914	38.25
624.676	33.25
625.438	35.25
626.199	34.25
626.961	30.25
627.722	34.25
628.484	28.25
629.245	31.25
630.006	32.25
630.768	27.25
631.529	27.25
632.29	24.25
633.051	26.25
633.812	26.25
634.573	22.25
635.333	21.25
636.094	23.25
636.855	19.25
637.615	20.25
638.376	23.25
639.136	19.25
639.896	18.25
640.657	18.25
641.417	18.25
642.177	17.25
642.937	19.25
643.697	17.25
644.457	18.25
645.216	17.25
645.976	18.25
646.736	17.25
647.495	21.25
648.255	17.25
649.014	15.25
649.774	15.25
650.533	12.25
651.292	15.25
652.051	14.25
652.81	13.25
653.569	15.25
654.328	14.25
655.087	14.25
655.846	13.25
656.604	13.25
657.363	9.25
658.121	13.25
658.88	11.25
659.638	9.25
660.397	13.25
661.155	11.25
661.913	12.25
662.671	12.25
663.429	10.25
664.187	13.25
664.945	10.25
665.703	14.25
666.46	9.25
667.218	9.25
667.976	10.25
668.733	8.25
669.49	10.25
670.248	10.25
671.005	11.25
671.762	10.25
672.519	7.25
673.276	12.25
674.033	9.25
674.79	10.25
675.547	6.25
676.304	10.25
677.06	9.25
677.817	8.25
678.574	9.25
679.33	9.25
680.086	10.25
680.843	7.25
681.599	6.25
682.355	12.25
683.111	6.25
683.867	7.25
684.623	8.25
685.379	9.25
686.135	6.25
686.89	9.25
687.646	7.25
688.402	10.25
689.157	9.25
689.912	8.25
690.668	6.25
691.423	7.25
692.178	7.25
692.933	7.25
693.688	6.25
694.443	7.25
695.198	8.25
695.953	6.25
696.708	10.25
697.462	6.25
698.217	9.25
698.972	8.25
699.726	7.25
700.48	8.25
701.235	7.25
701.989	7.25
702.743	10.25
703.497	9.25
704.251	8.25
705.005	8.25
705.759	8.25
706.513	8.25
707.266	8.25
708.02	8.25
708.774	8.25
709.527	6.25
710.28	7.25
711.034	7.25
711.787	7.25
712.54	7.25
713.293	8.25
714.046	9.25
714.799	9.25
715.552	9.25
716.305	8.25
717.058	9.25
717.81	6.25
718.563	7.25
719.315	7.25
720.068	8.25
720.82	8.25
721.573	9.25
722.325	9.25
723.077	9.25
723.829	9.25
724.581	7.25
725.333	8.25
726.085	7.25
726.836	8.25
727.588	9.25
728.34	9.25
729.091	8.25
729.843	9.25
730.594	10.25
731.346	9.25
732.097	7.25
732.848	9.25
733.599	10.25
734.35	9.25
735.101	9.25
735.852	8.25
736.603	10.25
737.354	11.25
738.104	9.25
738.855	9.25
739.605	8.25
740.356	9.25
741.106	9.25
741.856	11.25
742.607	11.25
743.357	8.25
744.107	10.25
744.857	12.25
745.607	10.25
746.357	9.25
747.106	11.25
747.856	10.25
748.606	12.25
749.355	11.25
750.105	10.25
750.854	10.25
751.603	10.25
752.353	10.25
753.102	11.25
753.851	9.25
754.6	8.25
755.349	11.25
756.098	13.25
756.847	11.25
757.595	11.25
758.344	12.25
759.093	15.25
759.841	9.25
760.589	13.25
761.338	13.25
762.086	13.25
762.834	14.25
763.582	11.25
764.331	14.25
765.079	13.25
765.826	13.25
766.574	15.25
767.322	12.25
768.07	15.25
768.817	13.25
769.565	15.25
770.312	14.25
771.06	10.25
771.807	15.25
772.554	14.25
773.302	15.25
774.049	14.25
774.796	15.25
775.543	14.25
776.29	14.25
777.036	15.25
777.783	18.25
778.53	17.25
779.276	14.25
780.023	13.25
780.769	17.25
781.516	16.25
782.262	16.25
783.008	17.25
783.754	17.25
784.5	15.25
785.246	17.25
785.992	15.25
786.738	14.25
787.484	16.25
788.23	13.25
788.975	16.25
789.721	14.25
790.466	14.25
791.212	15.25
791.957	15.25
792.702	14.25
793.447	13.25
794.193	13.25
794.938	15.25
795.683	14.25
796.427	16.25
797.172	13.25
797.917	13.25
798.662	13.25
799.406	14.25
800.151	12.25
800.895	12.25
801.64	12.25
802.384	11.25
803.128	12.25
803.872	13.25
804.616	10.25
805.36	13.25
806.104	9.25
806.848	12.25
807.592	11.25
808.336	11.25
809.079	11.25
809.823	6.25
810.566	9.25
811.31	10.25
812.053	9.25
812.796	9.25
813.539	8.25
814.283	8.25
815.026	9.25
815.769	8.25
816.511	8.25
817.254	8.25
817.997	5.25
818.74	6.25
819.482	8.25
820.225	9.25
820.967	8.25
821.71	7.25
822.452	7.25
823.194	9.25
823.936	8.25
824.678	10.25
825.42	7.25
826.162	8.25
826.904	7.25
827.646	7.25
828.388	7.25
829.129	6.25
829.871	9.25
830.612	7.25
831.354	8.25
832.095	3.25
832.836	4.25
833.577	6.25
834.319	5.25
835.06	6.25
835.801	8.25
836.542	3.25
837.282	8.25
838.023	4.25
838.764	8.25
839.504	5.25
840.245	5.25
840.985	7.25
841.726	3.25
842.466	7.25
843.206	6.25
843.946	6.25
844.687	5.25
845.427	5.25
846.166	4.25
846.906	5.25
847.646	5.25
848.386	6.25
849.125	5.25
849.865	5.25
850.605	2.25
851.344	7.25
852.083	3.25
852.823	5.25
853.562	4.25
854.301	5.25
855.04	5.25
855.779	4.25
856.518	7.25
857.257	5.25
857.995	4.25
858.734	3.25
859.473	3.25
860.211	6.25
860.95	3.25
861.688	5.25
862.426	3.25
863.165	2.25
863.903	4.25
864.641	2.25
865.379	5.25
866.117	3.25
866.855	3.25
867.593	3.25
868.33	2.25
869.068	3.25
869.806	1.25
870.543	3.25
871.28	5.25
872.018	2.25
872.755	3.25
873.492	4.25
874.229	3.25
874.967	5.25
875.703	4.25
876.44	2.25
877.177	2.25
877.914	4.25
878.651	2.25
879.387	3.25
880.124	1.25
880.86	1.25
881.597	3.25
882.333	1.25
883.069	2.25
883.806	1.25
884.542	5.25
885.278	1.25
886.014	2.25
886.749	1.25
887.485	2.25
888.221	2.25
888.957	0.25
889.692	-0.75
890.428	2.25
891.163	2.25
891.899	0.25
892.634	1.25
893.369	3.25
894.104	1.25
894.839	2.25
895.574	1.25
896.309	1.25
897.044	0.25
897.779	2.25
898.514	2.25
899.248	1.25
899.983	1.25
900.717	1.25
901.452	1.25
902.186	1.25
902.92	1.25
903.654	0.25
904.389	3.25
905.123	0.25
905.857	3.25
906.59	0.25
907.324	2.25
908.058	3.25
908.792	-2.75
909.525	0.25
910.259	2.25
910.992	-0.75
911.726	1.25
912.459	-0.75
913.192	1.25
913.925	0.25
914.658	1.25
915.391	1.25
916.124	0.25
916.857	1.25
917.59	2.25
918.323	0.25
919.055	1.25
919.788	2.25
920.521	-0.75
921.253	1.25
921.985	0.25
922.718	1.25
923.45	3.25
924.182	-0.75
924.914	1.25
925.646	2.25
926.378	-0.75
927.11	1.25
927.841	1.25
928.573	0.25
929.305	0.25
930.036	-0.75
930.768	-0.75
931.499	1.25
932.23	1.25
932.962	0.25
933.693	1.25
934.424	1.25
935.155	0.25
935.886	0.25
936.617	-0.75
937.348	-1.75
938.078	1.25
938.809	1.25
939.54	1.25
940.27	1.25
941.001	-0.75
941.731	1.25
942.461	-0.75
943.191	1.25
943.922	0.25
944.652	1.25
945.382	0.25
946.112	-0.75
946.841	0.25
947.571	1.25
948.301	-0.75
949.031	-0.75
949.76	1.25
950.49	-0.75
951.219	1.25
951.948	1.25
952.678	-0.75
953.407	-0.75
954.136	2.25
954.865	2.25
955.594	1.25
956.323	1.25
957.052	0.25
957.78	-0.75
958.509	2.25
959.238	2.25
959.966	2.25
960.695	0.25
961.423	0.25
962.151	1.25
962.88	-2.75
963.608	-0.75
964.336	-0.75
965.064	0.25
965.792	0.25
966.52	1.25
967.247	1.25
967.975	0.25
968.703	1.25
969.43	-0.75
970.158	1.25
970.885	0.25
971.613	-0.75
972.34	1.25
973.067	-0.75
973.794	0.25
974.521	1.25
975.248	-0.75
975.975	-0.75
976.702	1.25
977.429	2.25
978.156	1.25
978.882	0.25
979.609	1.25
980.335	-1.75
981.062	1.25
981.788	2.25
982.514	1.25
983.24	1.25
983.967	0.25
984.693	1.25
985.419	1.25
986.144	1.25
986.87	1.25
987.596	0.25
988.322	1.25
989.047	-0.75
989.773	1.25
990.498	0.25
991.224	0.25
991.949	-0.75
992.674	2.25
993.399	0.25
994.124	2.25
994.849	-0.75
995.574	-0.75
996.299	0.25
997.024	2.25
997.749	2.25
998.473	-0.75
999.198	0.25
999.922	-0.75
1000.647	-0.75
1001.371	2.25
1002.095	-0.75
1002.82	0.25
1003.544	0.25
1004.268	6.25
1004.992	3.25
1005.716	4.25
1006.439	7.25
1007.163	5.25
1007.887	4.25
1008.611	-0.75
1009.334	2.25
1010.058	-0.75
1010.781	0.25
1011.504	0.25
1012.228	1.25
1012.951	-0.75
1013.674	0.25
1014.397	0.25
1015.12	-1.75
