节点500_705_QEPB04081__420__20-51-52-707.txt的数据

Date: Wed Nov 12 20:51:52 CST 2025
User: PC
Spectrometer: QEPB0408
触发模式: 0
积分时间 (秒): 1.000000E-2
Scans to average: 1
启用暗噪声校正: true
启用非线性校正: false
滑动平均宽度: 0
X轴模式: Wavelengths
Number of Pixels in Spectrum: 1044
>>>>>Begin Spectral Data<<<<<
220.843	4.5
221.644	4.5
222.444	4.5
223.244	3.5
224.045	6.5
224.845	4.5
225.645	6.5
226.445	7.5
227.245	5.5
228.045	7.5
228.845	5.5
229.645	5.5
230.444	8.5
231.244	6.5
232.043	8.5
232.843	7.5
233.642	8.5
234.442	8.5
235.241	11.5
236.04	8.5
236.839	7.5
237.638	11.5
238.437	10.5
239.236	8.5
240.035	10.5
240.833	9.5
241.632	11.5
242.43	10.5
243.229	11.5
244.027	12.5
244.826	14.5
245.624	10.5
246.422	16.5
247.22	15.5
248.018	13.5
248.816	14.5
249.614	14.5
250.412	14.5
251.21	14.5
252.007	15.5
252.805	16.5
253.602	17.5
254.4	15.5
255.197	19.5
255.994	17.5
256.791	18.5
257.589	19.5
258.386	20.5
259.183	17.5
259.979	18.5
260.776	23.5
261.573	19.5
262.37	26.5
263.166	24.5
263.963	24.5
264.759	26.5
265.556	21.5
266.352	24.5
267.148	25.5
267.944	26.5
268.74	25.5
269.536	26.5
270.332	29.5
271.128	29.5
271.924	28.5
272.719	25.5
273.515	32.5
274.311	31.5
275.106	29.5
275.901	33.5
276.697	31.5
277.492	31.5
278.287	31.5
279.082	32.5
279.877	29.5
280.672	34.5
281.467	33.5
282.262	31.5
283.056	34.5
283.851	31.5
284.646	32.5
285.44	30.5
286.234	32.5
287.029	32.5
287.823	32.5
288.617	33.5
289.411	33.5
290.205	27.5
290.999	30.5
291.793	31.5
292.587	28.5
293.381	31.5
294.174	25.5
294.968	28.5
295.761	26.5
296.555	26.5
297.348	23.5
298.141	25.5
298.935	27.5
299.728	25.5
300.521	23.5
301.314	24.5
302.107	22.5
302.899	21.5
303.692	24.5
304.485	21.5
305.277	20.5
306.07	22.5
306.862	21.5
307.655	18.5
308.447	21.5
309.239	21.5
310.031	20.5
310.823	17.5
311.615	18.5
312.407	17.5
313.199	16.5
313.991	18.5
314.783	18.5
315.574	16.5
316.366	13.5
317.157	15.5
317.949	16.5
318.74	13.5
319.531	14.5
320.322	12.5
321.113	14.5
321.904	12.5
322.695	13.5
323.486	13.5
324.277	11.5
325.068	13.5
325.858	9.5
326.649	15.5
327.439	13.5
328.23	12.5
329.02	11.5
329.81	14.5
330.6	11.5
331.391	9.5
332.181	10.5
332.971	13.5
333.76	11.5
334.55	12.5
335.34	10.5
336.13	12.5
336.919	11.5
337.709	11.5
338.498	9.5
339.287	12.5
340.077	12.5
340.866	11.5
341.655	12.5
342.444	8.5
343.233	8.5
344.022	10.5
344.811	8.5
345.6	11.5
346.388	9.5
347.177	10.5
347.965	10.5
348.754	13.5
349.542	11.5
350.33	9.5
351.119	12.5
351.907	10.5
352.695	11.5
353.483	10.5
354.271	10.5
355.059	9.5
355.846	7.5
356.634	12.5
357.422	10.5
358.209	11.5
358.997	11.5
359.784	9.5
360.571	11.5
361.359	7.5
362.146	9.5
362.933	7.5
363.72	12.5
364.507	9.5
365.294	7.5
366.081	10.5
366.867	8.5
367.654	9.5
368.44	9.5
369.227	9.5
370.013	9.5
370.8	5.5
371.586	7.5
372.372	8.5
373.158	8.5
373.944	9.5
374.73	4.5
375.516	9.5
376.302	7.5
377.088	10.5
377.873	8.5
378.659	9.5
379.445	10.5
380.23	9.5
381.015	9.5
381.801	8.5
382.586	9.5
383.371	10.5
384.156	7.5
384.941	9.5
385.726	11.5
386.511	10.5
387.296	8.5
388.08	12.5
388.865	6.5
389.649	13.5
390.434	8.5
391.218	10.5
392.003	9.5
392.787	11.5
393.571	10.5
394.355	11.5
395.139	10.5
395.923	11.5
396.707	11.5
397.491	13.5
398.274	13.5
399.058	12.5
399.842	12.5
400.625	11.5
401.408	15.5
402.192	12.5
402.975	10.5
403.758	14.5
404.541	11.5
405.324	16.5
406.107	14.5
406.89	15.5
407.673	13.5
408.456	11.5
409.238	14.5
410.021	15.5
410.803	13.5
411.586	14.5
412.368	19.5
413.151	18.5
413.933	15.5
414.715	17.5
415.497	17.5
416.279	15.5
417.061	17.5
417.843	17.5
418.624	20.5
419.406	20.5
420.188	19.5
420.969	20.5
421.751	20.5
422.532	23.5
423.313	18.5
424.095	22.5
424.876	23.5
425.657	25.5
426.438	23.5
427.219	27.5
428	29.5
428.78	25.5
429.561	26.5
430.342	29.5
431.122	30.5
431.903	31.5
432.683	30.5
433.464	37.5
434.244	34.5
435.024	37.5
435.804	41.5
436.584	42.5
437.364	43.5
438.144	50.5
438.924	53.5
439.704	55.5
440.483	57.5
441.263	59.5
442.042	65.5
442.822	73.5
443.601	71.5
444.38	82.5
445.16	88.5
445.939	97.5
446.718	105.5
447.497	112.5
448.276	123.5
449.054	135.5
449.833	146.5
450.612	163.5
451.391	184.5
452.169	206.5
452.948	218.5
453.726	247.5
454.504	274.5
455.282	303.5
456.061	343.5
456.839	378.5
457.617	425.5
458.395	473.5
459.172	524.5
459.95	584.5
460.728	648.5
461.506	726.5
462.283	806.5
463.061	905.5
463.838	1002.5
464.615	1111.5
465.393	1242.5
466.17	1356.5
466.947	1520.5
467.724	1681.5
468.501	1872.5
469.278	2055.5
470.055	2268.5
470.831	2495.5
471.608	2776.5
472.385	3032.5
473.161	3358.5
473.938	3682.5
474.714	3994.5
475.49	4396.5
476.266	4851.5
477.043	5261.5
477.819	5737.5
478.595	6279.5
479.371	6829.5
480.146	7416.5
480.922	8167.5
481.698	8844.5
482.473	9548.5
483.249	10418.5
484.024	11301.5
484.8	12190.5
485.575	13238.5
486.35	14316.5
487.126	15565.5
487.901	16735.5
488.676	17997.5
489.451	19525.5
490.225	20859.5
491	22363.5
491.775	23894.5
492.55	25538.5
493.324	27220.5
494.099	28946.5
494.873	30638.5
495.647	32344.5
496.422	33988.5
497.196	35771.5
497.97	37381.5
498.744	38909.5
499.518	40526.5
500.292	41846.5
501.066	42891.5
501.839	43833.5
502.613	44673.5
503.387	45459.5
504.16	45957.5
504.934	46068.5
505.707	46179.5
506.48	45848.5
507.253	45371.5
508.027	44939.5
508.8	44177.5
509.573	43176.5
510.346	42254.5
511.118	41276.5
511.891	40105.5
512.664	38685.5
513.437	37274.5
514.209	35979.5
514.982	34616.5
515.754	33282.5
516.526	31923.5
517.298	30629.5
518.071	29514.5
518.843	28309.5
519.615	27110.5
520.387	26083.5
521.159	25015.5
521.93	24012.5
522.702	23001.5
523.474	22075.5
524.245	21234.5
525.017	20270.5
525.788	19377.5
526.56	18607.5
527.331	17798.5
528.102	16860.5
528.873	16073.5
529.644	15279.5
530.415	14603.5
531.186	13921.5
531.957	13176.5
532.728	12495.5
533.498	11898.5
534.269	11274.5
535.039	10656.5
535.81	10080.5
536.58	9509.5
537.351	9059.5
538.121	8576.5
538.891	8085.5
539.661	7659.5
540.431	7262.5
541.201	6892.5
541.971	6533.5
542.741	6172.5
543.51	5851.5
544.28	5581.5
545.05	5321.5
545.819	5075.5
546.588	4835.5
547.358	4587.5
548.127	4360.5
548.896	4149.5
549.665	3949.5
550.434	3735.5
551.203	3530.5
551.972	3343.5
552.741	3203.5
553.51	2994.5
554.278	2822.5
555.047	2683.5
555.815	2533.5
556.584	2411.5
557.352	2278.5
558.121	2150.5
558.889	2034.5
559.657	1912.5
560.425	1818.5
561.193	1730.5
561.961	1646.5
562.729	1518.5
563.496	1447.5
564.264	1361.5
565.032	1288.5
565.799	1227.5
566.567	1157.5
567.334	1103.5
568.101	1050.5
568.869	976.5
569.636	920.5
570.403	856.5
571.17	823.5
571.937	780.5
572.704	735.5
573.471	694.5
574.237	665.5
575.004	618.5
575.771	572.5
576.537	543.5
577.303	513.5
578.07	494.5
578.836	461.5
579.602	440.5
580.368	412.5
581.134	391.5
581.9	378.5
582.666	356.5
583.432	343.5
584.198	324.5
584.964	314.5
585.729	285.5
586.495	268.5
587.26	259.5
588.025	250.5
588.791	235.5
589.556	220.5
590.321	206.5
591.086	198.5
591.851	190.5
592.616	180.5
593.381	169.5
594.146	166.5
594.911	151.5
595.675	149.5
596.44	145.5
597.204	136.5
597.969	130.5
598.733	126.5
599.497	119.5
600.261	111.5
601.025	108.5
601.79	109.5
602.553	101.5
603.317	95.5
604.081	95.5
604.845	92.5
605.609	86.5
606.372	84.5
607.136	82.5
607.899	74.5
608.662	74.5
609.426	67.5
610.189	66.5
610.952	64.5
611.715	64.5
612.478	58.5
613.241	55.5
614.004	53.5
614.767	55.5
615.529	50.5
616.292	48.5
617.055	50.5
617.817	46.5
618.579	42.5
619.342	44.5
620.104	42.5
620.866	42.5
621.628	38.5
622.39	36.5
623.152	36.5
623.914	37.5
624.676	36.5
625.438	33.5
626.199	37.5
626.961	30.5
627.722	30.5
628.484	29.5
629.245	30.5
630.006	29.5
630.768	26.5
631.529	26.5
632.29	23.5
633.051	23.5
633.812	26.5
634.573	25.5
635.333	22.5
636.094	20.5
636.855	21.5
637.615	18.5
638.376	22.5
639.136	20.5
639.896	20.5
640.657	17.5
641.417	19.5
642.177	16.5
642.937	17.5
643.697	16.5
644.457	16.5
645.216	17.5
645.976	13.5
646.736	14.5
647.495	14.5
648.255	13.5
649.014	17.5
649.774	14.5
650.533	13.5
651.292	13.5
652.051	12.5
652.81	14.5
653.569	13.5
654.328	12.5
655.087	11.5
655.846	11.5
656.604	13.5
657.363	11.5
658.121	10.5
658.88	11.5
659.638	10.5
660.397	10.5
661.155	11.5
661.913	12.5
662.671	12.5
663.429	11.5
664.187	10.5
664.945	11.5
665.703	10.5
666.46	8.5
667.218	10.5
667.976	9.5
668.733	8.5
669.49	8.5
670.248	6.5
671.005	10.5
671.762	8.5
672.519	6.5
673.276	9.5
674.033	7.5
674.79	8.5
675.547	7.5
676.304	10.5
677.06	11.5
677.817	7.5
678.574	9.5
679.33	8.5
680.086	8.5
680.843	9.5
681.599	9.5
682.355	6.5
683.111	6.5
683.867	8.5
684.623	6.5
685.379	8.5
686.135	8.5
686.89	5.5
687.646	4.5
688.402	9.5
689.157	8.5
689.912	6.5
690.668	7.5
691.423	6.5
692.178	4.5
692.933	7.5
693.688	5.5
694.443	5.5
695.198	6.5
695.953	7.5
696.708	6.5
697.462	8.5
698.217	7.5
698.972	5.5
699.726	6.5
700.48	6.5
701.235	5.5
701.989	6.5
702.743	5.5
703.497	7.5
704.251	9.5
705.005	6.5
705.759	7.5
706.513	5.5
707.266	8.5
708.02	9.5
708.774	8.5
709.527	8.5
710.28	7.5
711.034	8.5
711.787	5.5
712.54	7.5
713.293	8.5
714.046	7.5
714.799	9.5
715.552	4.5
716.305	8.5
717.058	7.5
717.81	5.5
718.563	7.5
719.315	9.5
720.068	9.5
720.82	6.5
721.573	6.5
722.325	8.5
723.077	7.5
723.829	8.5
724.581	6.5
725.333	7.5
726.085	7.5
726.836	7.5
727.588	9.5
728.34	6.5
729.091	7.5
729.843	7.5
730.594	8.5
731.346	8.5
732.097	7.5
732.848	7.5
733.599	7.5
734.35	8.5
735.101	9.5
735.852	10.5
736.603	10.5
737.354	6.5
738.104	7.5
738.855	9.5
739.605	9.5
740.356	10.5
741.106	10.5
741.856	8.5
742.607	9.5
743.357	11.5
744.107	10.5
744.857	9.5
745.607	9.5
746.357	9.5
747.106	9.5
747.856	7.5
748.606	9.5
749.355	10.5
750.105	11.5
750.854	9.5
751.603	10.5
752.353	11.5
753.102	11.5
753.851	9.5
754.6	10.5
755.349	12.5
756.098	11.5
756.847	14.5
757.595	13.5
758.344	12.5
759.093	10.5
759.841	12.5
760.589	10.5
761.338	11.5
762.086	8.5
762.834	10.5
763.582	9.5
764.331	11.5
765.079	13.5
765.826	12.5
766.574	15.5
767.322	12.5
768.07	11.5
768.817	11.5
769.565	11.5
770.312	15.5
771.06	12.5
771.807	13.5
772.554	14.5
773.302	15.5
774.049	13.5
774.796	17.5
775.543	14.5
776.29	13.5
777.036	14.5
777.783	12.5
778.53	14.5
779.276	12.5
780.023	14.5
780.769	14.5
781.516	14.5
782.262	14.5
783.008	13.5
783.754	16.5
784.5	14.5
785.246	13.5
785.992	16.5
786.738	14.5
787.484	14.5
788.23	15.5
788.975	15.5
789.721	11.5
790.466	13.5
791.212	15.5
791.957	13.5
792.702	14.5
793.447	15.5
794.193	12.5
794.938	13.5
795.683	10.5
796.427	14.5
797.172	13.5
797.917	12.5
798.662	10.5
799.406	13.5
800.151	12.5
800.895	10.5
801.64	13.5
802.384	10.5
803.128	11.5
803.872	11.5
804.616	9.5
805.36	9.5
806.104	10.5
806.848	13.5
807.592	9.5
808.336	9.5
809.079	9.5
809.823	9.5
810.566	8.5
811.31	9.5
812.053	9.5
812.796	9.5
813.539	6.5
814.283	10.5
815.026	8.5
815.769	9.5
816.511	7.5
817.254	8.5
817.997	8.5
818.74	9.5
819.482	7.5
820.225	9.5
820.967	9.5
821.71	8.5
822.452	4.5
823.194	4.5
823.936	6.5
824.678	5.5
825.42	4.5
826.162	6.5
826.904	8.5
827.646	6.5
828.388	7.5
829.129	5.5
829.871	6.5
830.612	6.5
831.354	6.5
832.095	4.5
832.836	7.5
833.577	4.5
834.319	4.5
835.06	5.5
835.801	4.5
836.542	6.5
837.282	6.5
838.023	5.5
838.764	4.5
839.504	5.5
840.245	3.5
840.985	7.5
841.726	4.5
842.466	2.5
843.206	8.5
843.946	5.5
844.687	7.5
845.427	3.5
846.166	4.5
846.906	2.5
847.646	4.5
848.386	4.5
849.125	4.5
849.865	6.5
850.605	0.5
851.344	4.5
852.083	4.5
852.823	4.5
853.562	2.5
854.301	5.5
855.04	4.5
855.779	3.5
856.518	4.5
857.257	4.5
857.995	4.5
858.734	2.5
859.473	2.5
860.211	4.5
860.95	3.5
861.688	4.5
862.426	2.5
863.165	2.5
863.903	2.5
864.641	2.5
865.379	2.5
866.117	4.5
866.855	1.5
867.593	1.5
868.33	1.5
869.068	2.5
869.806	2.5
870.543	1.5
871.28	-0.5
872.018	0.5
872.755	1.5
873.492	0.5
874.229	1.5
874.967	0.5
875.703	2.5
876.44	2.5
877.177	2.5
877.914	2.5
878.651	1.5
879.387	1.5
880.124	3.5
880.86	-0.5
881.597	2.5
882.333	2.5
883.069	1.5
883.806	1.5
884.542	0.5
885.278	0.5
886.014	-0.5
886.749	2.5
887.485	-0.5
888.221	1.5
888.957	1.5
889.692	-0.5
890.428	0.5
891.163	1.5
891.899	0.5
892.634	0.5
893.369	0.5
894.104	-0.5
894.839	-0.5
895.574	1.5
896.309	0.5
897.044	1.5
897.779	1.5
898.514	0.5
899.248	-0.5
899.983	-0.5
900.717	1.5
901.452	-0.5
902.186	-0.5
902.92	3.5
903.654	-0.5
904.389	-1.5
905.123	-1.5
905.857	1.5
906.59	0.5
907.324	0.5
908.058	1.5
908.792	1.5
909.525	1.5
910.259	0.5
910.992	1.5
911.726	0.5
912.459	0.5
913.192	-1.5
913.925	0.5
914.658	-0.5
915.391	2.5
916.124	0.5
916.857	-1.5
917.59	-1.5
918.323	-1.5
919.055	0.5
919.788	1.5
920.521	0.5
921.253	-1.5
921.985	0.5
922.718	-0.5
923.45	-1.5
924.182	-0.5
924.914	-1.5
925.646	0.5
926.378	-1.5
927.11	0.5
927.841	-1.5
928.573	1.5
929.305	-0.5
930.036	-1.5
930.768	0.5
931.499	0.5
932.23	-1.5
932.962	0.5
933.693	0.5
934.424	0.5
935.155	-0.5
935.886	-0.5
936.617	-0.5
937.348	-0.5
938.078	0.5
938.809	-1.5
939.54	0.5
940.27	-0.5
941.001	0.5
941.731	-2.5
942.461	0.5
943.191	0.5
943.922	-1.5
944.652	0.5
945.382	-1.5
946.112	0.5
946.841	0.5
947.571	-0.5
948.301	0.5
949.031	-1.5
949.76	0.5
950.49	-1.5
951.219	0.5
951.948	-0.5
952.678	0.5
953.407	0.5
954.136	-1.5
954.865	0.5
955.594	-1.5
956.323	-1.5
957.052	-0.5
957.78	-0.5
958.509	-0.5
959.238	-1.5
959.966	1.5
960.695	1.5
961.423	-1.5
962.151	0.5
962.88	-1.5
963.608	-1.5
964.336	-0.5
965.064	1.5
965.792	-1.5
966.52	-0.5
967.247	-0.5
967.975	-0.5
968.703	-0.5
969.43	-1.5
970.158	-0.5
970.885	2.5
971.613	-1.5
972.34	-0.5
973.067	-0.5
973.794	0.5
974.521	0.5
975.248	-1.5
975.975	-2.5
976.702	-2.5
977.429	-1.5
978.156	0.5
978.882	0.5
979.609	-0.5
980.335	-1.5
981.062	-0.5
981.788	0.5
982.514	-0.5
983.24	-0.5
983.967	1.5
984.693	0.5
985.419	-1.5
986.144	0.5
986.87	0.5
987.596	-1.5
988.322	-1.5
989.047	-1.5
989.773	2.5
990.498	0.5
991.224	-0.5
991.949	-0.5
992.674	-0.5
993.399	-2.5
994.124	-4.5
994.849	1.5
995.574	0.5
996.299	0.5
997.024	-1.5
997.749	1.5
998.473	0.5
999.198	2.5
999.922	1.5
1000.647	-1.5
1001.371	3.5
1002.095	-0.5
1002.82	-1.5
1003.544	0.5
1004.268	2.5
1004.992	4.5
1005.716	3.5
1006.439	3.5
1007.163	0.5
1007.887	3.5
1008.611	-1.5
1009.334	0.5
1010.058	-1.5
1010.781	0.5
1011.504	-2.5
1012.228	-1.5
1012.951	0.5
1013.674	-0.5
1014.397	-0.5
1015.12	-1.5
