节点500_705_QEPB04081__605__20-54-32-793.txt的数据

Date: Wed Nov 12 20:54:32 CST 2025
User: PC
Spectrometer: QEPB0408
触发模式: 0
积分时间 (秒): 1.000000E-2
Scans to average: 1
启用暗噪声校正: true
启用非线性校正: false
滑动平均宽度: 0
X轴模式: Wavelengths
Number of Pixels in Spectrum: 1044
>>>>>Begin Spectral Data<<<<<
220.843	2.5
221.644	4.5
222.444	3.5
223.244	5.5
224.045	4.5
224.845	6.5
225.645	3.5
226.445	5.5
227.245	5.5
228.045	2.5
228.845	6.5
229.645	4.5
230.444	11.5
231.244	8.5
232.043	8.5
232.843	8.5
233.642	6.5
234.442	8.5
235.241	7.5
236.04	11.5
236.839	8.5
237.638	8.5
238.437	8.5
239.236	8.5
240.035	12.5
240.833	10.5
241.632	11.5
242.43	10.5
243.229	11.5
244.027	12.5
244.826	12.5
245.624	13.5
246.422	15.5
247.22	12.5
248.018	14.5
248.816	11.5
249.614	15.5
250.412	14.5
251.21	14.5
252.007	12.5
252.805	16.5
253.602	13.5
254.4	17.5
255.197	16.5
255.994	17.5
256.791	17.5
257.589	17.5
258.386	22.5
259.183	20.5
259.979	18.5
260.776	20.5
261.573	20.5
262.37	20.5
263.166	21.5
263.963	21.5
264.759	23.5
265.556	23.5
266.352	24.5
267.148	22.5
267.944	24.5
268.74	23.5
269.536	26.5
270.332	30.5
271.128	27.5
271.924	28.5
272.719	28.5
273.515	25.5
274.311	34.5
275.106	26.5
275.901	31.5
276.697	29.5
277.492	29.5
278.287	30.5
279.082	31.5
279.877	32.5
280.672	32.5
281.467	33.5
282.262	30.5
283.056	29.5
283.851	33.5
284.646	28.5
285.44	31.5
286.234	30.5
287.029	31.5
287.823	34.5
288.617	29.5
289.411	30.5
290.205	29.5
290.999	30.5
291.793	27.5
292.587	28.5
293.381	28.5
294.174	30.5
294.968	31.5
295.761	26.5
296.555	24.5
297.348	26.5
298.141	27.5
298.935	26.5
299.728	24.5
300.521	22.5
301.314	26.5
302.107	22.5
302.899	22.5
303.692	20.5
304.485	22.5
305.277	19.5
306.07	22.5
306.862	24.5
307.655	20.5
308.447	20.5
309.239	21.5
310.031	20.5
310.823	19.5
311.615	14.5
312.407	17.5
313.199	18.5
313.991	16.5
314.783	17.5
315.574	16.5
316.366	16.5
317.157	13.5
317.949	15.5
318.74	12.5
319.531	13.5
320.322	15.5
321.113	13.5
321.904	14.5
322.695	14.5
323.486	14.5
324.277	14.5
325.068	14.5
325.858	11.5
326.649	11.5
327.439	12.5
328.23	10.5
329.02	12.5
329.81	12.5
330.6	12.5
331.391	12.5
332.181	12.5
332.971	12.5
333.76	9.5
334.55	13.5
335.34	12.5
336.13	10.5
336.919	13.5
337.709	9.5
338.498	8.5
339.287	11.5
340.077	9.5
340.866	10.5
341.655	11.5
342.444	12.5
343.233	8.5
344.022	14.5
344.811	10.5
345.6	11.5
346.388	11.5
347.177	10.5
347.965	9.5
348.754	9.5
349.542	12.5
350.33	11.5
351.119	8.5
351.907	9.5
352.695	12.5
353.483	11.5
354.271	11.5
355.059	8.5
355.846	8.5
356.634	10.5
357.422	12.5
358.209	10.5
358.997	11.5
359.784	10.5
360.571	9.5
361.359	8.5
362.146	8.5
362.933	9.5
363.72	9.5
364.507	9.5
365.294	10.5
366.081	7.5
366.867	10.5
367.654	7.5
368.44	6.5
369.227	10.5
370.013	9.5
370.8	8.5
371.586	9.5
372.372	8.5
373.158	7.5
373.944	8.5
374.73	9.5
375.516	10.5
376.302	10.5
377.088	8.5
377.873	9.5
378.659	8.5
379.445	9.5
380.23	10.5
381.015	9.5
381.801	8.5
382.586	6.5
383.371	9.5
384.156	9.5
384.941	9.5
385.726	8.5
386.511	8.5
387.296	10.5
388.08	11.5
388.865	10.5
389.649	9.5
390.434	12.5
391.218	10.5
392.003	8.5
392.787	12.5
393.571	9.5
394.355	11.5
395.139	13.5
395.923	11.5
396.707	12.5
397.491	11.5
398.274	11.5
399.058	10.5
399.842	13.5
400.625	11.5
401.408	14.5
402.192	14.5
402.975	12.5
403.758	13.5
404.541	12.5
405.324	14.5
406.107	13.5
406.89	14.5
407.673	12.5
408.456	14.5
409.238	16.5
410.021	14.5
410.803	14.5
411.586	18.5
412.368	14.5
413.151	14.5
413.933	17.5
414.715	14.5
415.497	16.5
416.279	18.5
417.061	17.5
417.843	18.5
418.624	18.5
419.406	19.5
420.188	18.5
420.969	18.5
421.751	18.5
422.532	20.5
423.313	20.5
424.095	21.5
424.876	23.5
425.657	25.5
426.438	24.5
427.219	26.5
428	24.5
428.78	24.5
429.561	30.5
430.342	27.5
431.122	29.5
431.903	30.5
432.683	31.5
433.464	34.5
434.244	38.5
435.024	39.5
435.804	38.5
436.584	45.5
437.364	41.5
438.144	48.5
438.924	51.5
439.704	54.5
440.483	57.5
441.263	62.5
442.042	69.5
442.822	72.5
443.601	77.5
444.38	86.5
445.16	89.5
445.939	97.5
446.718	113.5
447.497	117.5
448.276	130.5
449.054	138.5
449.833	155.5
450.612	169.5
451.391	186.5
452.169	210.5
452.948	238.5
453.726	261.5
454.504	288.5
455.282	319.5
456.061	358.5
456.839	393.5
457.617	445.5
458.395	490.5
459.172	543.5
459.95	611.5
460.728	662.5
461.506	744.5
462.283	830.5
463.061	920.5
463.838	1014.5
464.615	1131.5
465.393	1260.5
466.17	1388.5
466.947	1544.5
467.724	1707.5
468.501	1884.5
469.278	2063.5
470.055	2289.5
470.831	2495.5
471.608	2751.5
472.385	3010.5
473.161	3283.5
473.938	3607.5
474.714	3947.5
475.49	4322.5
476.266	4710.5
477.043	5155.5
477.819	5594.5
478.595	6066.5
479.371	6600.5
480.146	7135.5
480.922	7776.5
481.698	8443.5
482.473	9107.5
483.249	9861.5
484.024	10666.5
484.8	11503.5
485.575	12374.5
486.35	13393.5
487.126	14440.5
487.901	15506.5
488.676	16698.5
489.451	17938.5
490.225	19271.5
491	20618.5
491.775	21996.5
492.55	23455.5
493.324	24946.5
494.099	26492.5
494.873	28075.5
495.647	29663.5
496.422	31254.5
497.196	32832.5
497.97	34427.5
498.744	35772.5
499.518	37343.5
500.292	38789.5
501.066	39826.5
501.839	40879.5
502.613	41762.5
503.387	42491.5
504.16	43011.5
504.934	43656.5
505.707	43832.5
506.48	43711.5
507.253	43656.5
508.027	43320.5
508.8	42734.5
509.573	42009.5
510.346	41306.5
511.118	40487.5
511.891	39469.5
512.664	38216.5
513.437	37066.5
514.209	35800.5
514.982	34504.5
515.754	33280.5
516.526	31964.5
517.298	30731.5
518.071	29586.5
518.843	28495.5
519.615	27342.5
520.387	26289.5
521.159	25317.5
521.93	24143.5
522.702	23209.5
523.474	22265.5
524.245	21395.5
525.017	20526.5
525.788	19601.5
526.56	18874.5
527.331	18097.5
528.102	17197.5
528.873	16394.5
529.644	15608.5
530.415	14971.5
531.186	14233.5
531.957	13510.5
532.728	12861.5
533.498	12205.5
534.269	11575.5
535.039	10980.5
535.81	10421.5
536.58	9862.5
537.351	9306.5
538.121	8882.5
538.891	8382.5
539.661	7918.5
540.431	7531.5
541.201	7132.5
541.971	6781.5
542.741	6402.5
543.51	6065.5
544.28	5765.5
545.05	5502.5
545.819	5256.5
546.588	5021.5
547.358	4755.5
548.127	4538.5
548.896	4312.5
549.665	4101.5
550.434	3887.5
551.203	3681.5
551.972	3508.5
552.741	3332.5
553.51	3125.5
554.278	2977.5
555.047	2802.5
555.815	2658.5
556.584	2514.5
557.352	2354.5
558.121	2240.5
558.889	2097.5
559.657	1996.5
560.425	1908.5
561.193	1799.5
561.961	1700.5
562.729	1592.5
563.496	1518.5
564.264	1437.5
565.032	1364.5
565.799	1282.5
566.567	1224.5
567.334	1151.5
568.101	1091.5
568.869	1030.5
569.636	975.5
570.403	909.5
571.17	857.5
571.937	815.5
572.704	767.5
573.471	729.5
574.237	686.5
575.004	647.5
575.771	606.5
576.537	575.5
577.303	547.5
578.07	519.5
578.836	485.5
579.602	452.5
580.368	433.5
581.134	410.5
581.9	392.5
582.666	379.5
583.432	356.5
584.198	337.5
584.964	326.5
585.729	312.5
586.495	282.5
587.26	270.5
588.025	254.5
588.791	242.5
589.556	234.5
590.321	220.5
591.086	212.5
591.851	201.5
592.616	192.5
593.381	184.5
594.146	164.5
594.911	165.5
595.675	154.5
596.44	147.5
597.204	141.5
597.969	139.5
598.733	132.5
599.497	123.5
600.261	120.5
601.025	109.5
601.79	112.5
602.553	104.5
603.317	101.5
604.081	94.5
604.845	92.5
605.609	88.5
606.372	85.5
607.136	80.5
607.899	77.5
608.662	78.5
609.426	72.5
610.189	69.5
610.952	69.5
611.715	64.5
612.478	61.5
613.241	58.5
614.004	59.5
614.767	58.5
615.529	55.5
616.292	53.5
617.055	50.5
617.817	48.5
618.579	48.5
619.342	45.5
620.104	44.5
620.866	44.5
621.628	40.5
622.39	38.5
623.152	38.5
623.914	39.5
624.676	38.5
625.438	33.5
626.199	30.5
626.961	33.5
627.722	34.5
628.484	33.5
629.245	28.5
630.006	29.5
630.768	28.5
631.529	26.5
632.29	26.5
633.051	26.5
633.812	24.5
634.573	23.5
635.333	22.5
636.094	23.5
636.855	22.5
637.615	20.5
638.376	22.5
639.136	19.5
639.896	21.5
640.657	18.5
641.417	21.5
642.177	16.5
642.937	19.5
643.697	18.5
644.457	16.5
645.216	16.5
645.976	17.5
646.736	16.5
647.495	15.5
648.255	16.5
649.014	12.5
649.774	11.5
650.533	13.5
651.292	13.5
652.051	13.5
652.81	14.5
653.569	13.5
654.328	11.5
655.087	14.5
655.846	9.5
656.604	12.5
657.363	11.5
658.121	11.5
658.88	11.5
659.638	9.5
660.397	10.5
661.155	7.5
661.913	13.5
662.671	9.5
663.429	9.5
664.187	8.5
664.945	7.5
665.703	11.5
666.46	9.5
667.218	9.5
667.976	8.5
668.733	10.5
669.49	10.5
670.248	9.5
671.005	8.5
671.762	9.5
672.519	8.5
673.276	9.5
674.033	6.5
674.79	10.5
675.547	7.5
676.304	9.5
677.06	9.5
677.817	8.5
678.574	7.5
679.33	5.5
680.086	6.5
680.843	8.5
681.599	8.5
682.355	8.5
683.111	6.5
683.867	8.5
684.623	6.5
685.379	7.5
686.135	8.5
686.89	5.5
687.646	6.5
688.402	5.5
689.157	8.5
689.912	6.5
690.668	7.5
691.423	8.5
692.178	9.5
692.933	4.5
693.688	5.5
694.443	7.5
695.198	7.5
695.953	8.5
696.708	6.5
697.462	8.5
698.217	6.5
698.972	5.5
699.726	5.5
700.48	6.5
701.235	8.5
701.989	6.5
702.743	6.5
703.497	5.5
704.251	5.5
705.005	6.5
705.759	9.5
706.513	5.5
707.266	7.5
708.02	5.5
708.774	7.5
709.527	8.5
710.28	8.5
711.034	9.5
711.787	5.5
712.54	6.5
713.293	7.5
714.046	6.5
714.799	7.5
715.552	7.5
716.305	8.5
717.058	9.5
717.81	7.5
718.563	6.5
719.315	8.5
720.068	8.5
720.82	9.5
721.573	8.5
722.325	6.5
723.077	8.5
723.829	9.5
724.581	7.5
725.333	6.5
726.085	8.5
726.836	8.5
727.588	6.5
728.34	7.5
729.091	5.5
729.843	7.5
730.594	8.5
731.346	9.5
732.097	9.5
732.848	8.5
733.599	8.5
734.35	9.5
735.101	7.5
735.852	10.5
736.603	9.5
737.354	10.5
738.104	8.5
738.855	8.5
739.605	8.5
740.356	5.5
741.106	9.5
741.856	5.5
742.607	9.5
743.357	8.5
744.107	7.5
744.857	10.5
745.607	6.5
746.357	8.5
747.106	8.5
747.856	7.5
748.606	10.5
749.355	9.5
750.105	10.5
750.854	11.5
751.603	10.5
752.353	11.5
753.102	7.5
753.851	7.5
754.6	6.5
755.349	11.5
756.098	10.5
756.847	11.5
757.595	11.5
758.344	10.5
759.093	14.5
759.841	8.5
760.589	10.5
761.338	10.5
762.086	10.5
762.834	9.5
763.582	10.5
764.331	11.5
765.079	11.5
765.826	11.5
766.574	12.5
767.322	11.5
768.07	13.5
768.817	12.5
769.565	13.5
770.312	11.5
771.06	12.5
771.807	13.5
772.554	11.5
773.302	11.5
774.049	11.5
774.796	15.5
775.543	14.5
776.29	16.5
777.036	15.5
777.783	14.5
778.53	14.5
779.276	14.5
780.023	14.5
780.769	13.5
781.516	11.5
782.262	13.5
783.008	14.5
783.754	13.5
784.5	13.5
785.246	12.5
785.992	14.5
786.738	13.5
787.484	14.5
788.23	14.5
788.975	12.5
789.721	14.5
790.466	12.5
791.212	13.5
791.957	11.5
792.702	14.5
793.447	12.5
794.193	10.5
794.938	11.5
795.683	11.5
796.427	12.5
797.172	12.5
797.917	10.5
798.662	11.5
799.406	10.5
800.151	12.5
800.895	11.5
801.64	11.5
802.384	12.5
803.128	12.5
803.872	11.5
804.616	10.5
805.36	12.5
806.104	7.5
806.848	12.5
807.592	8.5
808.336	11.5
809.079	10.5
809.823	7.5
810.566	9.5
811.31	8.5
812.053	9.5
812.796	11.5
813.539	6.5
814.283	8.5
815.026	8.5
815.769	9.5
816.511	6.5
817.254	7.5
817.997	8.5
818.74	7.5
819.482	7.5
820.225	4.5
820.967	7.5
821.71	6.5
822.452	7.5
823.194	6.5
823.936	5.5
824.678	7.5
825.42	6.5
826.162	6.5
826.904	6.5
827.646	5.5
828.388	7.5
829.129	4.5
829.871	4.5
830.612	7.5
831.354	5.5
832.095	4.5
832.836	5.5
833.577	6.5
834.319	2.5
835.06	4.5
835.801	5.5
836.542	6.5
837.282	7.5
838.023	2.5
838.764	6.5
839.504	5.5
840.245	5.5
840.985	6.5
841.726	6.5
842.466	6.5
843.206	6.5
843.946	5.5
844.687	3.5
845.427	5.5
846.166	6.5
846.906	3.5
847.646	5.5
848.386	4.5
849.125	4.5
849.865	6.5
850.605	1.5
851.344	3.5
852.083	6.5
852.823	4.5
853.562	4.5
854.301	3.5
855.04	3.5
855.779	2.5
856.518	4.5
857.257	4.5
857.995	4.5
858.734	4.5
859.473	2.5
860.211	2.5
860.95	3.5
861.688	1.5
862.426	3.5
863.165	2.5
863.903	3.5
864.641	1.5
865.379	4.5
866.117	-0.5
866.855	2.5
867.593	2.5
868.33	3.5
869.068	2.5
869.806	1.5
870.543	3.5
871.28	2.5
872.018	1.5
872.755	2.5
873.492	3.5
874.229	3.5
874.967	-0.5
875.703	0.5
876.44	4.5
877.177	0.5
877.914	1.5
878.651	2.5
879.387	0.5
880.124	4.5
880.86	0.5
881.597	2.5
882.333	0.5
883.069	2.5
883.806	1.5
884.542	0.5
885.278	1.5
886.014	3.5
886.749	0.5
887.485	-0.5
888.221	1.5
888.957	2.5
889.692	0.5
890.428	1.5
891.163	2.5
891.899	2.5
892.634	1.5
893.369	-0.5
894.104	1.5
894.839	0.5
895.574	1.5
896.309	0.5
897.044	2.5
897.779	-1.5
898.514	1.5
899.248	-1.5
899.983	0.5
900.717	-0.5
901.452	-0.5
902.186	-1.5
902.92	1.5
903.654	-0.5
904.389	-1.5
905.123	-0.5
905.857	0.5
906.59	-1.5
907.324	0.5
908.058	0.5
908.792	0.5
909.525	-0.5
910.259	-1.5
910.992	0.5
911.726	0.5
912.459	1.5
913.192	1.5
913.925	-1.5
914.658	2.5
915.391	1.5
916.124	-0.5
916.857	0.5
917.59	-0.5
918.323	0.5
919.055	-0.5
919.788	0.5
920.521	-0.5
921.253	0.5
921.985	-0.5
922.718	1.5
923.45	0.5
924.182	0.5
924.914	1.5
925.646	0.5
926.378	0.5
927.11	-1.5
927.841	1.5
928.573	0.5
929.305	-0.5
930.036	1.5
930.768	-1.5
931.499	0.5
932.23	0.5
932.962	-0.5
933.693	-0.5
934.424	-0.5
935.155	1.5
935.886	0.5
936.617	1.5
937.348	0.5
938.078	1.5
938.809	1.5
939.54	0.5
940.27	0.5
941.001	-1.5
941.731	-1.5
942.461	0.5
943.191	1.5
943.922	1.5
944.652	0.5
945.382	1.5
946.112	-1.5
946.841	2.5
947.571	1.5
948.301	-0.5
949.031	2.5
949.76	2.5
950.49	-0.5
951.219	-1.5
951.948	1.5
952.678	-1.5
953.407	-1.5
954.136	-1.5
954.865	0.5
955.594	-1.5
956.323	1.5
957.052	1.5
957.78	2.5
958.509	1.5
959.238	-1.5
959.966	-1.5
960.695	-0.5
961.423	1.5
962.151	-3.5
962.88	-1.5
963.608	1.5
964.336	0.5
965.064	-1.5
965.792	-0.5
966.52	0.5
967.247	0.5
967.975	0.5
968.703	-0.5
969.43	-1.5
970.158	2.5
970.885	-0.5
971.613	-0.5
972.34	0.5
973.067	-3.5
973.794	0.5
974.521	-2.5
975.248	0.5
975.975	0.5
976.702	0.5
977.429	0.5
978.156	0.5
978.882	-1.5
979.609	0.5
980.335	2.5
981.062	-0.5
981.788	-0.5
982.514	-0.5
983.24	-1.5
983.967	0.5
984.693	-1.5
985.419	2.5
986.144	0.5
986.87	0.5
987.596	-0.5
988.322	-0.5
989.047	-0.5
989.773	-1.5
990.498	-0.5
991.224	-1.5
991.949	0.5
992.674	1.5
993.399	0.5
994.124	0.5
994.849	0.5
995.574	-0.5
996.299	0.5
997.024	-1.5
997.749	0.5
998.473	-2.5
999.198	1.5
999.922	0.5
1000.647	1.5
1001.371	5.5
1002.095	-1.5
1002.82	-2.5
1003.544	-1.5
1004.268	4.5
1004.992	6.5
1005.716	4.5
1006.439	2.5
1007.163	3.5
1007.887	3.5
1008.611	2.5
1009.334	0.5
1010.058	1.5
1010.781	-0.5
1011.504	-1.5
1012.228	-1.5
1012.951	0.5
1013.674	-1.5
1014.397	-0.5
1015.12	1.5
