节点500_705_QEPB04081__497__20-52-56-773.txt的数据

Date: Wed Nov 12 20:52:56 CST 2025
User: PC
Spectrometer: QEPB0408
触发模式: 0
积分时间 (秒): 1.000000E-2
Scans to average: 1
启用暗噪声校正: true
启用非线性校正: false
滑动平均宽度: 0
X轴模式: Wavelengths
Number of Pixels in Spectrum: 1044
>>>>>Begin Spectral Data<<<<<
220.843	3.88
221.644	4.88
222.444	4.88
223.244	4.88
224.045	8.88
224.845	6.88
225.645	6.88
226.445	6.88
227.245	8.88
228.045	5.88
228.845	9.88
229.645	7.88
230.444	7.88
231.244	7.88
232.043	7.88
232.843	5.88
233.642	8.88
234.442	8.88
235.241	8.88
236.04	7.88
236.839	9.88
237.638	11.88
238.437	8.88
239.236	9.88
240.035	8.88
240.833	9.88
241.632	9.88
242.43	10.88
243.229	12.88
244.027	10.88
244.826	13.88
245.624	12.88
246.422	13.88
247.22	13.88
248.018	12.88
248.816	12.88
249.614	16.88
250.412	15.88
251.21	16.88
252.007	14.88
252.805	16.88
253.602	14.88
254.4	16.88
255.197	16.88
255.994	14.88
256.791	18.88
257.589	20.88
258.386	18.88
259.183	22.88
259.979	20.88
260.776	22.88
261.573	23.88
262.37	22.88
263.166	21.88
263.963	23.88
264.759	23.88
265.556	23.88
266.352	24.88
267.148	25.88
267.944	26.88
268.74	25.88
269.536	25.88
270.332	23.88
271.128	29.88
271.924	28.88
272.719	27.88
273.515	29.88
274.311	28.88
275.106	30.88
275.901	26.88
276.697	34.88
277.492	30.88
278.287	34.88
279.082	31.88
279.877	30.88
280.672	32.88
281.467	31.88
282.262	30.88
283.056	32.88
283.851	32.88
284.646	34.88
285.44	31.88
286.234	29.88
287.029	32.88
287.823	30.88
288.617	32.88
289.411	28.88
290.205	31.88
290.999	32.88
291.793	33.88
292.587	30.88
293.381	28.88
294.174	29.88
294.968	28.88
295.761	24.88
296.555	25.88
297.348	26.88
298.141	27.88
298.935	27.88
299.728	26.88
300.521	24.88
301.314	24.88
302.107	23.88
302.899	23.88
303.692	22.88
304.485	20.88
305.277	23.88
306.07	20.88
306.862	24.88
307.655	23.88
308.447	19.88
309.239	19.88
310.031	18.88
310.823	21.88
311.615	15.88
312.407	17.88
313.199	17.88
313.991	14.88
314.783	16.88
315.574	16.88
316.366	17.88
317.157	14.88
317.949	16.88
318.74	15.88
319.531	13.88
320.322	12.88
321.113	10.88
321.904	12.88
322.695	12.88
323.486	10.88
324.277	12.88
325.068	13.88
325.858	12.88
326.649	13.88
327.439	11.88
328.23	12.88
329.02	11.88
329.81	12.88
330.6	10.88
331.391	10.88
332.181	11.88
332.971	9.88
333.76	11.88
334.55	11.88
335.34	11.88
336.13	10.88
336.919	10.88
337.709	11.88
338.498	9.88
339.287	12.88
340.077	12.88
340.866	11.88
341.655	10.88
342.444	8.88
343.233	11.88
344.022	10.88
344.811	10.88
345.6	10.88
346.388	10.88
347.177	11.88
347.965	11.88
348.754	12.88
349.542	9.88
350.33	10.88
351.119	10.88
351.907	11.88
352.695	9.88
353.483	9.88
354.271	10.88
355.059	9.88
355.846	12.88
356.634	8.88
357.422	7.88
358.209	13.88
358.997	7.88
359.784	10.88
360.571	8.88
361.359	10.88
362.146	9.88
362.933	8.88
363.72	9.88
364.507	10.88
365.294	9.88
366.081	6.88
366.867	7.88
367.654	8.88
368.44	7.88
369.227	7.88
370.013	9.88
370.8	8.88
371.586	8.88
372.372	8.88
373.158	11.88
373.944	10.88
374.73	8.88
375.516	9.88
376.302	8.88
377.088	10.88
377.873	10.88
378.659	9.88
379.445	7.88
380.23	9.88
381.015	10.88
381.801	7.88
382.586	11.88
383.371	9.88
384.156	10.88
384.941	9.88
385.726	8.88
386.511	9.88
387.296	9.88
388.08	12.88
388.865	11.88
389.649	10.88
390.434	10.88
391.218	9.88
392.003	10.88
392.787	9.88
393.571	10.88
394.355	12.88
395.139	11.88
395.923	10.88
396.707	12.88
397.491	13.88
398.274	10.88
399.058	12.88
399.842	12.88
400.625	13.88
401.408	10.88
402.192	13.88
402.975	13.88
403.758	12.88
404.541	15.88
405.324	10.88
406.107	14.88
406.89	13.88
407.673	14.88
408.456	14.88
409.238	16.88
410.021	18.88
410.803	17.88
411.586	16.88
412.368	16.88
413.151	14.88
413.933	17.88
414.715	17.88
415.497	17.88
416.279	19.88
417.061	15.88
417.843	19.88
418.624	16.88
419.406	19.88
420.188	21.88
420.969	20.88
421.751	20.88
422.532	20.88
423.313	20.88
424.095	19.88
424.876	22.88
425.657	22.88
426.438	21.88
427.219	26.88
428	25.88
428.78	26.88
429.561	29.88
430.342	28.88
431.122	30.88
431.903	27.88
432.683	32.88
433.464	34.88
434.244	37.88
435.024	39.88
435.804	39.88
436.584	43.88
437.364	47.88
438.144	48.88
438.924	53.88
439.704	50.88
440.483	57.88
441.263	61.88
442.042	68.88
442.822	69.88
443.601	73.88
444.38	81.88
445.16	88.88
445.939	95.88
446.718	107.88
447.497	116.88
448.276	124.88
449.054	136.88
449.833	156.88
450.612	167.88
451.391	188.88
452.169	202.88
452.948	230.88
453.726	254.88
454.504	279.88
455.282	315.88
456.061	343.88
456.839	381.88
457.617	422.88
458.395	471.88
459.172	524.88
459.95	586.88
460.728	653.88
461.506	733.88
462.283	826.88
463.061	898.88
463.838	1010.88
464.615	1118.88
465.393	1239.88
466.17	1375.88
466.947	1517.88
467.724	1673.88
468.501	1863.88
469.278	2058.88
470.055	2266.88
470.831	2507.88
471.608	2736.88
472.385	3032.88
473.161	3341.88
473.938	3657.88
474.714	3986.88
475.49	4365.88
476.266	4756.88
477.043	5181.88
477.819	5669.88
478.595	6175.88
479.371	6691.88
480.146	7288.88
480.922	7928.88
481.698	8602.88
482.473	9355.88
483.249	10128.88
484.024	10988.88
484.8	11844.88
485.575	12788.88
486.35	13830.88
487.126	14927.88
487.901	16113.88
488.676	17360.88
489.451	18682.88
490.225	20055.88
491	21518.88
491.775	22960.88
492.55	24492.88
493.324	26056.88
494.099	27701.88
494.873	29391.88
495.647	31020.88
496.422	32678.88
497.196	34287.88
497.97	35916.88
498.744	37395.88
499.518	39024.88
500.292	40330.88
501.066	41365.88
501.839	42403.88
502.613	43175.88
503.387	43982.88
504.16	44577.88
504.934	44742.88
505.707	45067.88
506.48	44750.88
507.253	44466.88
508.027	44095.88
508.8	43333.88
509.573	42551.88
510.346	41704.88
511.118	40820.88
511.891	39701.88
512.664	38421.88
513.437	37016.88
514.209	35866.88
514.982	34488.88
515.754	33163.88
516.526	31834.88
517.298	30631.88
518.071	29478.88
518.843	28293.88
519.615	27141.88
520.387	26045.88
521.159	25134.88
521.93	24024.88
522.702	23064.88
523.474	22119.88
524.245	21245.88
525.017	20272.88
525.788	19436.88
526.56	18618.88
527.331	17907.88
528.102	16930.88
528.873	16178.88
529.644	15370.88
530.415	14722.88
531.186	13976.88
531.957	13295.88
532.728	12620.88
533.498	11992.88
534.269	11351.88
535.039	10819.88
535.81	10224.88
536.58	9627.88
537.351	9140.88
538.121	8655.88
538.891	8196.88
539.661	7764.88
540.431	7348.88
541.201	6979.88
541.971	6620.88
542.741	6250.88
543.51	5940.88
544.28	5651.88
545.05	5389.88
545.819	5138.88
546.588	4898.88
547.358	4650.88
548.127	4400.88
548.896	4221.88
549.665	4002.88
550.434	3801.88
551.203	3597.88
551.972	3402.88
552.741	3240.88
553.51	3050.88
554.278	2896.88
555.047	2738.88
555.815	2586.88
556.584	2436.88
557.352	2305.88
558.121	2194.88
558.889	2077.88
559.657	1946.88
560.425	1841.88
561.193	1738.88
561.961	1682.88
562.729	1567.88
563.496	1466.88
564.264	1395.88
565.032	1310.88
565.799	1252.88
566.567	1183.88
567.334	1119.88
568.101	1054.88
568.869	1000.88
569.636	935.88
570.403	888.88
571.17	841.88
571.937	794.88
572.704	745.88
573.471	701.88
574.237	672.88
575.004	621.88
575.771	588.88
576.537	564.88
577.303	532.88
578.07	492.88
578.836	476.88
579.602	454.88
580.368	421.88
581.134	406.88
581.9	384.88
582.666	362.88
583.432	342.88
584.198	328.88
584.964	314.88
585.729	289.88
586.495	283.88
587.26	267.88
588.025	250.88
588.791	234.88
589.556	222.88
590.321	215.88
591.086	206.88
591.851	189.88
592.616	188.88
593.381	168.88
594.146	168.88
594.911	163.88
595.675	150.88
596.44	146.88
597.204	134.88
597.969	138.88
598.733	128.88
599.497	124.88
600.261	118.88
601.025	114.88
601.79	105.88
602.553	102.88
603.317	100.88
604.081	94.88
604.845	88.88
605.609	82.88
606.372	79.88
607.136	77.88
607.899	73.88
608.662	70.88
609.426	73.88
610.189	68.88
610.952	62.88
611.715	63.88
612.478	61.88
613.241	55.88
614.004	53.88
614.767	50.88
615.529	54.88
616.292	50.88
617.055	48.88
617.817	49.88
618.579	44.88
619.342	42.88
620.104	42.88
620.866	38.88
621.628	40.88
622.39	37.88
623.152	39.88
623.914	39.88
624.676	33.88
625.438	36.88
626.199	33.88
626.961	35.88
627.722	32.88
628.484	34.88
629.245	30.88
630.006	26.88
630.768	27.88
631.529	27.88
632.29	26.88
633.051	22.88
633.812	22.88
634.573	26.88
635.333	18.88
636.094	24.88
636.855	22.88
637.615	23.88
638.376	21.88
639.136	21.88
639.896	18.88
640.657	15.88
641.417	17.88
642.177	19.88
642.937	16.88
643.697	19.88
644.457	17.88
645.216	13.88
645.976	13.88
646.736	14.88
647.495	17.88
648.255	15.88
649.014	14.88
649.774	14.88
650.533	15.88
651.292	14.88
652.051	13.88
652.81	12.88
653.569	11.88
654.328	12.88
655.087	12.88
655.846	12.88
656.604	10.88
657.363	12.88
658.121	10.88
658.88	12.88
659.638	12.88
660.397	9.88
661.155	12.88
661.913	13.88
662.671	9.88
663.429	10.88
664.187	10.88
664.945	9.88
665.703	7.88
666.46	6.88
667.218	9.88
667.976	7.88
668.733	10.88
669.49	8.88
670.248	10.88
671.005	9.88
671.762	8.88
672.519	9.88
673.276	8.88
674.033	8.88
674.79	8.88
675.547	9.88
676.304	8.88
677.06	7.88
677.817	7.88
678.574	6.88
679.33	8.88
680.086	8.88
680.843	6.88
681.599	8.88
682.355	7.88
683.111	9.88
683.867	7.88
684.623	6.88
685.379	6.88
686.135	6.88
686.89	6.88
687.646	7.88
688.402	7.88
689.157	6.88
689.912	4.88
690.668	8.88
691.423	7.88
692.178	7.88
692.933	6.88
693.688	9.88
694.443	4.88
695.198	8.88
695.953	5.88
696.708	4.88
697.462	6.88
698.217	7.88
698.972	7.88
699.726	6.88
700.48	4.88
701.235	7.88
701.989	6.88
702.743	6.88
703.497	2.88
704.251	6.88
705.005	4.88
705.759	6.88
706.513	9.88
707.266	7.88
708.02	7.88
708.774	7.88
709.527	7.88
710.28	7.88
711.034	4.88
711.787	7.88
712.54	7.88
713.293	6.88
714.046	4.88
714.799	6.88
715.552	6.88
716.305	8.88
717.058	7.88
717.81	5.88
718.563	7.88
719.315	7.88
720.068	5.88
720.82	7.88
721.573	5.88
722.325	7.88
723.077	7.88
723.829	7.88
724.581	10.88
725.333	7.88
726.085	8.88
726.836	7.88
727.588	8.88
728.34	8.88
729.091	5.88
729.843	9.88
730.594	7.88
731.346	7.88
732.097	7.88
732.848	6.88
733.599	10.88
734.35	7.88
735.101	6.88
735.852	6.88
736.603	10.88
737.354	8.88
738.104	7.88
738.855	8.88
739.605	7.88
740.356	9.88
741.106	10.88
741.856	8.88
742.607	9.88
743.357	9.88
744.107	10.88
744.857	8.88
745.607	7.88
746.357	10.88
747.106	8.88
747.856	8.88
748.606	7.88
749.355	9.88
750.105	8.88
750.854	10.88
751.603	10.88
752.353	9.88
753.102	12.88
753.851	10.88
754.6	10.88
755.349	11.88
756.098	9.88
756.847	10.88
757.595	11.88
758.344	10.88
759.093	8.88
759.841	9.88
760.589	10.88
761.338	8.88
762.086	14.88
762.834	12.88
763.582	10.88
764.331	10.88
765.079	11.88
765.826	10.88
766.574	12.88
767.322	12.88
768.07	12.88
768.817	14.88
769.565	11.88
770.312	14.88
771.06	13.88
771.807	14.88
772.554	12.88
773.302	12.88
774.049	12.88
774.796	12.88
775.543	12.88
776.29	11.88
777.036	14.88
777.783	15.88
778.53	14.88
779.276	16.88
780.023	14.88
780.769	14.88
781.516	17.88
782.262	12.88
783.008	16.88
783.754	14.88
784.5	13.88
785.246	14.88
785.992	14.88
786.738	15.88
787.484	14.88
788.23	13.88
788.975	12.88
789.721	14.88
790.466	15.88
791.212	13.88
791.957	11.88
792.702	14.88
793.447	12.88
794.193	11.88
794.938	12.88
795.683	13.88
796.427	12.88
797.172	13.88
797.917	12.88
798.662	10.88
799.406	10.88
800.151	10.88
800.895	12.88
801.64	11.88
802.384	11.88
803.128	9.88
803.872	11.88
804.616	10.88
805.36	10.88
806.104	12.88
806.848	11.88
807.592	10.88
808.336	10.88
809.079	7.88
809.823	7.88
810.566	10.88
811.31	8.88
812.053	8.88
812.796	8.88
813.539	9.88
814.283	9.88
815.026	6.88
815.769	7.88
816.511	9.88
817.254	6.88
817.997	9.88
818.74	8.88
819.482	7.88
820.225	5.88
820.967	10.88
821.71	6.88
822.452	5.88
823.194	6.88
823.936	6.88
824.678	6.88
825.42	7.88
826.162	6.88
826.904	3.88
827.646	7.88
828.388	5.88
829.129	5.88
829.871	6.88
830.612	4.88
831.354	4.88
832.095	4.88
832.836	8.88
833.577	5.88
834.319	4.88
835.06	7.88
835.801	6.88
836.542	4.88
837.282	5.88
838.023	6.88
838.764	4.88
839.504	2.88
840.245	6.88
840.985	4.88
841.726	5.88
842.466	3.88
843.206	3.88
843.946	4.88
844.687	3.88
845.427	5.88
846.166	4.88
846.906	7.88
847.646	5.88
848.386	2.88
849.125	5.88
849.865	2.88
850.605	6.88
851.344	5.88
852.083	4.88
852.823	2.88
853.562	2.88
854.301	4.88
855.04	3.88
855.779	3.88
856.518	2.88
857.257	2.88
857.995	4.88
858.734	3.88
859.473	3.88
860.211	2.88
860.95	3.88
861.688	2.88
862.426	3.88
863.165	1.88
863.903	2.88
864.641	2.88
865.379	3.88
866.117	2.88
866.855	1.88
867.593	2.88
868.33	3.88
869.068	0.88
869.806	2.88
870.543	2.88
871.28	2.88
872.018	2.88
872.755	1.88
873.492	0.88
874.229	2.88
874.967	2.88
875.703	1.88
876.44	2.88
877.177	1.88
877.914	2.88
878.651	0.88
879.387	0.88
880.124	2.88
880.86	1.88
881.597	1.88
882.333	1.88
883.069	-0.12
883.806	1.88
884.542	-0.12
885.278	-0.12
886.014	1.88
886.749	-0.12
887.485	2.88
888.221	0.88
888.957	0.88
889.692	1.88
890.428	0.88
891.163	-0.12
891.899	1.88
892.634	4.88
893.369	0.88
894.104	-0.12
894.839	0.88
895.574	-0.12
896.309	2.88
897.044	-0.12
897.779	3.88
898.514	-0.12
899.248	1.88
899.983	0.88
900.717	1.88
901.452	0.88
902.186	1.88
902.92	-1.12
903.654	-1.12
904.389	0.88
905.123	0.88
905.857	-0.12
906.59	0.88
907.324	1.88
908.058	-0.12
908.792	-0.12
909.525	-0.12
910.259	2.88
910.992	0.88
911.726	0.88
912.459	1.88
913.192	0.88
913.925	0.88
914.658	-0.12
915.391	0.88
916.124	-1.12
916.857	0.88
917.59	-0.12
918.323	-0.12
919.055	0.88
919.788	0.88
920.521	-1.12
921.253	1.88
921.985	-1.12
922.718	0.88
923.45	0.88
924.182	3.88
924.914	-1.12
925.646	-1.12
926.378	0.88
927.11	-1.12
927.841	-0.12
928.573	1.88
929.305	0.88
930.036	1.88
930.768	1.88
931.499	0.88
932.23	-1.12
932.962	0.88
933.693	-0.12
934.424	1.88
935.155	1.88
935.886	-1.12
936.617	0.88
937.348	-0.12
938.078	0.88
938.809	0.88
939.54	-1.12
940.27	-1.12
941.001	-1.12
941.731	0.88
942.461	-1.12
943.191	3.88
943.922	-1.12
944.652	-2.12
945.382	0.88
946.112	-0.12
946.841	-0.12
947.571	0.88
948.301	-0.12
949.031	0.88
949.76	1.88
950.49	-0.12
951.219	-2.12
951.948	-0.12
952.678	0.88
953.407	-0.12
954.136	1.88
954.865	-2.12
955.594	-3.12
956.323	-1.12
957.052	1.88
957.78	-1.12
958.509	0.88
959.238	-1.12
959.966	-2.12
960.695	-1.12
961.423	1.88
962.151	0.88
962.88	-0.12
963.608	-0.12
964.336	1.88
965.064	-1.12
965.792	-1.12
966.52	0.88
967.247	-0.12
967.975	2.88
968.703	-0.12
969.43	1.88
970.158	1.88
970.885	0.88
971.613	1.88
972.34	1.88
973.067	-0.12
973.794	-0.12
974.521	-2.12
975.248	-1.12
975.975	-1.12
976.702	-0.12
977.429	-1.12
978.156	2.88
978.882	-2.12
979.609	-1.12
980.335	0.88
981.062	-2.12
981.788	-1.12
982.514	0.88
983.24	1.88
983.967	-1.12
984.693	-0.12
985.419	-0.12
986.144	-1.12
986.87	-0.12
987.596	-1.12
988.322	1.88
989.047	0.88
989.773	-0.12
990.498	0.88
991.224	-0.12
991.949	1.88
992.674	-0.12
993.399	-0.12
994.124	-2.12
994.849	-0.12
995.574	2.88
996.299	-0.12
997.024	0.88
997.749	-1.12
998.473	1.88
999.198	0.88
999.922	-0.12
1000.647	1.88
1001.371	3.88
1002.095	-1.12
1002.82	0.88
1003.544	-2.12
1004.268	4.88
1004.992	3.88
1005.716	3.88
1006.439	3.88
1007.163	5.88
1007.887	3.88
1008.611	-1.12
1009.334	0.88
1010.058	-1.12
1010.781	-1.12
1011.504	0.88
1012.228	1.88
1012.951	0.88
1013.674	-1.12
1014.397	0.88
1015.12	-2.12
