节点500_705_QEPB04081__474__20-52-37-783.txt的数据

Date: Wed Nov 12 20:52:37 CST 2025
User: PC
Spectrometer: QEPB0408
触发模式: 0
积分时间 (秒): 1.000000E-2
Scans to average: 1
启用暗噪声校正: true
启用非线性校正: false
滑动平均宽度: 0
X轴模式: Wavelengths
Number of Pixels in Spectrum: 1044
>>>>>Begin Spectral Data<<<<<
220.843	6.38
221.644	6.38
222.444	6.38
223.244	6.38
224.045	6.38
224.845	5.38
225.645	6.38
226.445	7.38
227.245	8.38
228.045	8.38
228.845	5.38
229.645	10.38
230.444	6.38
231.244	9.38
232.043	4.38
232.843	8.38
233.642	8.38
234.442	7.38
235.241	11.38
236.04	9.38
236.839	11.38
237.638	8.38
238.437	10.38
239.236	8.38
240.035	9.38
240.833	10.38
241.632	10.38
242.43	11.38
243.229	10.38
244.027	10.38
244.826	11.38
245.624	14.38
246.422	14.38
247.22	13.38
248.018	10.38
248.816	12.38
249.614	11.38
250.412	14.38
251.21	14.38
252.007	15.38
252.805	15.38
253.602	14.38
254.4	20.38
255.197	17.38
255.994	16.38
256.791	17.38
257.589	20.38
258.386	20.38
259.183	19.38
259.979	22.38
260.776	20.38
261.573	21.38
262.37	21.38
263.166	20.38
263.963	25.38
264.759	22.38
265.556	23.38
266.352	25.38
267.148	24.38
267.944	26.38
268.74	26.38
269.536	25.38
270.332	25.38
271.128	28.38
271.924	30.38
272.719	29.38
273.515	29.38
274.311	30.38
275.106	30.38
275.901	27.38
276.697	34.38
277.492	31.38
278.287	32.38
279.082	32.38
279.877	30.38
280.672	32.38
281.467	31.38
282.262	34.38
283.056	31.38
283.851	31.38
284.646	30.38
285.44	31.38
286.234	32.38
287.029	31.38
287.823	33.38
288.617	34.38
289.411	30.38
290.205	30.38
290.999	33.38
291.793	30.38
292.587	30.38
293.381	27.38
294.174	30.38
294.968	26.38
295.761	26.38
296.555	26.38
297.348	27.38
298.141	25.38
298.935	26.38
299.728	29.38
300.521	23.38
301.314	22.38
302.107	24.38
302.899	21.38
303.692	24.38
304.485	22.38
305.277	18.38
306.07	21.38
306.862	20.38
307.655	19.38
308.447	20.38
309.239	20.38
310.031	18.38
310.823	19.38
311.615	18.38
312.407	18.38
313.199	18.38
313.991	16.38
314.783	15.38
315.574	13.38
316.366	16.38
317.157	13.38
317.949	13.38
318.74	16.38
319.531	15.38
320.322	16.38
321.113	13.38
321.904	14.38
322.695	15.38
323.486	10.38
324.277	12.38
325.068	13.38
325.858	14.38
326.649	11.38
327.439	12.38
328.23	13.38
329.02	13.38
329.81	10.38
330.6	10.38
331.391	14.38
332.181	13.38
332.971	10.38
333.76	11.38
334.55	11.38
335.34	13.38
336.13	14.38
336.919	12.38
337.709	10.38
338.498	11.38
339.287	13.38
340.077	11.38
340.866	10.38
341.655	11.38
342.444	9.38
343.233	12.38
344.022	11.38
344.811	10.38
345.6	13.38
346.388	9.38
347.177	12.38
347.965	11.38
348.754	10.38
349.542	12.38
350.33	10.38
351.119	11.38
351.907	10.38
352.695	12.38
353.483	10.38
354.271	11.38
355.059	13.38
355.846	10.38
356.634	9.38
357.422	8.38
358.209	10.38
358.997	10.38
359.784	10.38
360.571	10.38
361.359	9.38
362.146	9.38
362.933	10.38
363.72	7.38
364.507	10.38
365.294	6.38
366.081	10.38
366.867	8.38
367.654	9.38
368.44	8.38
369.227	9.38
370.013	10.38
370.8	9.38
371.586	9.38
372.372	8.38
373.158	10.38
373.944	7.38
374.73	10.38
375.516	8.38
376.302	10.38
377.088	10.38
377.873	8.38
378.659	8.38
379.445	8.38
380.23	10.38
381.015	9.38
381.801	11.38
382.586	8.38
383.371	10.38
384.156	8.38
384.941	11.38
385.726	9.38
386.511	9.38
387.296	11.38
388.08	11.38
388.865	12.38
389.649	10.38
390.434	11.38
391.218	9.38
392.003	10.38
392.787	11.38
393.571	10.38
394.355	11.38
395.139	11.38
395.923	12.38
396.707	9.38
397.491	10.38
398.274	10.38
399.058	12.38
399.842	11.38
400.625	14.38
401.408	12.38
402.192	14.38
402.975	14.38
403.758	12.38
404.541	13.38
405.324	14.38
406.107	15.38
406.89	14.38
407.673	13.38
408.456	15.38
409.238	15.38
410.021	14.38
410.803	15.38
411.586	15.38
412.368	13.38
413.151	17.38
413.933	16.38
414.715	17.38
415.497	18.38
416.279	18.38
417.061	16.38
417.843	19.38
418.624	19.38
419.406	20.38
420.188	19.38
420.969	19.38
421.751	20.38
422.532	22.38
423.313	22.38
424.095	23.38
424.876	23.38
425.657	21.38
426.438	24.38
427.219	26.38
428	25.38
428.78	30.38
429.561	29.38
430.342	29.38
431.122	31.38
431.903	31.38
432.683	33.38
433.464	37.38
434.244	36.38
435.024	40.38
435.804	44.38
436.584	42.38
437.364	44.38
438.144	42.38
438.924	52.38
439.704	54.38
440.483	60.38
441.263	60.38
442.042	68.38
442.822	70.38
443.601	75.38
444.38	81.38
445.16	89.38
445.939	94.38
446.718	100.38
447.497	115.38
448.276	125.38
449.054	137.38
449.833	151.38
450.612	162.38
451.391	188.38
452.169	202.38
452.948	222.38
453.726	249.38
454.504	278.38
455.282	314.38
456.061	344.38
456.839	389.38
457.617	426.38
458.395	470.38
459.172	528.38
459.95	581.38
460.728	653.38
461.506	737.38
462.283	821.38
463.061	910.38
463.838	1015.38
464.615	1124.38
465.393	1232.38
466.17	1382.38
466.947	1510.38
467.724	1699.38
468.501	1870.38
469.278	2069.38
470.055	2277.38
470.831	2512.38
471.608	2780.38
472.385	3039.38
473.161	3324.38
473.938	3637.38
474.714	4036.38
475.49	4386.38
476.266	4794.38
477.043	5227.38
477.819	5698.38
478.595	6186.38
479.371	6766.38
480.146	7398.38
480.922	7978.38
481.698	8692.38
482.473	9403.38
483.249	10227.38
484.024	11070.38
484.8	11972.38
485.575	12928.38
486.35	13974.38
487.126	15132.38
487.901	16307.38
488.676	17546.38
489.451	18890.38
490.225	20249.38
491	21788.38
491.775	23170.38
492.55	24755.38
493.324	26437.38
494.099	28063.38
494.873	29794.38
495.647	31432.38
496.422	33100.38
497.196	34794.38
497.97	36384.38
498.744	37833.38
499.518	39422.38
500.292	40762.38
501.066	41889.38
501.839	42787.38
502.613	43735.38
503.387	44445.38
504.16	44965.38
504.934	45186.38
505.707	45376.38
506.48	45183.38
507.253	44921.38
508.027	44370.38
508.8	43721.38
509.573	42815.38
510.346	41904.38
511.118	41040.38
511.891	39897.38
512.664	38569.38
513.437	37246.38
514.209	35917.38
514.982	34669.38
515.754	33328.38
516.526	31905.38
517.298	30705.38
518.071	29626.38
518.843	28329.38
519.615	27211.38
520.387	26068.38
521.159	25129.38
521.93	24123.38
522.702	23144.38
523.474	22159.38
524.245	21235.38
525.017	20389.38
525.788	19468.38
526.56	18700.38
527.331	17953.38
528.102	16967.38
528.873	16184.38
529.644	15434.38
530.415	14728.38
531.186	14016.38
531.957	13324.38
532.728	12632.38
533.498	12012.38
534.269	11405.38
535.039	10748.38
535.81	10213.38
536.58	9630.38
537.351	9136.38
538.121	8659.38
538.891	8230.38
539.661	7780.38
540.431	7347.38
541.201	7022.38
541.971	6585.38
542.741	6236.38
543.51	5906.38
544.28	5635.38
545.05	5420.38
545.819	5134.38
546.588	4885.38
547.358	4639.38
548.127	4437.38
548.896	4205.38
549.665	3969.38
550.434	3764.38
551.203	3596.38
551.972	3414.38
552.741	3255.38
553.51	3069.38
554.278	2852.38
555.047	2714.38
555.815	2554.38
556.584	2424.38
557.352	2310.38
558.121	2188.38
558.889	2051.38
559.657	1948.38
560.425	1850.38
561.193	1755.38
561.961	1666.38
562.729	1565.38
563.496	1467.38
564.264	1400.38
565.032	1303.38
565.799	1243.38
566.567	1180.38
567.334	1118.38
568.101	1051.38
568.869	999.38
569.636	933.38
570.403	882.38
571.17	843.38
571.937	795.38
572.704	752.38
573.471	707.38
574.237	652.38
575.004	626.38
575.771	595.38
576.537	569.38
577.303	529.38
578.07	503.38
578.836	472.38
579.602	450.38
580.368	418.38
581.134	409.38
581.9	382.38
582.666	363.38
583.432	355.38
584.198	324.38
584.964	310.38
585.729	296.38
586.495	280.38
587.26	267.38
588.025	250.38
588.791	233.38
589.556	221.38
590.321	213.38
591.086	200.38
591.851	191.38
592.616	177.38
593.381	176.38
594.146	167.38
594.911	158.38
595.675	151.38
596.44	143.38
597.204	136.38
597.969	138.38
598.733	127.38
599.497	121.38
600.261	114.38
601.025	107.38
601.79	109.38
602.553	101.38
603.317	96.38
604.081	95.38
604.845	94.38
605.609	90.38
606.372	82.38
607.136	81.38
607.899	74.38
608.662	72.38
609.426	71.38
610.189	68.38
610.952	66.38
611.715	61.38
612.478	61.38
613.241	57.38
614.004	58.38
614.767	52.38
615.529	52.38
616.292	52.38
617.055	50.38
617.817	49.38
618.579	49.38
619.342	42.38
620.104	42.38
620.866	41.38
621.628	39.38
622.39	39.38
623.152	38.38
623.914	34.38
624.676	33.38
625.438	34.38
626.199	34.38
626.961	32.38
627.722	30.38
628.484	29.38
629.245	26.38
630.006	30.38
630.768	26.38
631.529	28.38
632.29	24.38
633.051	28.38
633.812	24.38
634.573	26.38
635.333	26.38
636.094	22.38
636.855	23.38
637.615	23.38
638.376	21.38
639.136	21.38
639.896	18.38
640.657	20.38
641.417	18.38
642.177	16.38
642.937	15.38
643.697	15.38
644.457	15.38
645.216	15.38
645.976	15.38
646.736	17.38
647.495	16.38
648.255	16.38
649.014	14.38
649.774	13.38
650.533	13.38
651.292	14.38
652.051	13.38
652.81	12.38
653.569	13.38
654.328	13.38
655.087	13.38
655.846	13.38
656.604	8.38
657.363	10.38
658.121	11.38
658.88	9.38
659.638	11.38
660.397	10.38
661.155	9.38
661.913	11.38
662.671	10.38
663.429	10.38
664.187	8.38
664.945	11.38
665.703	9.38
666.46	11.38
667.218	10.38
667.976	10.38
668.733	8.38
669.49	9.38
670.248	12.38
671.005	9.38
671.762	7.38
672.519	9.38
673.276	9.38
674.033	8.38
674.79	7.38
675.547	7.38
676.304	11.38
677.06	6.38
677.817	9.38
678.574	11.38
679.33	10.38
680.086	7.38
680.843	7.38
681.599	7.38
682.355	8.38
683.111	8.38
683.867	7.38
684.623	8.38
685.379	8.38
686.135	4.38
686.89	7.38
687.646	7.38
688.402	6.38
689.157	7.38
689.912	8.38
690.668	7.38
691.423	6.38
692.178	9.38
692.933	7.38
693.688	6.38
694.443	8.38
695.198	7.38
695.953	7.38
696.708	4.38
697.462	8.38
698.217	6.38
698.972	4.38
699.726	9.38
700.48	5.38
701.235	4.38
701.989	7.38
702.743	6.38
703.497	7.38
704.251	7.38
705.005	8.38
705.759	7.38
706.513	7.38
707.266	7.38
708.02	3.38
708.774	8.38
709.527	4.38
710.28	6.38
711.034	5.38
711.787	6.38
712.54	5.38
713.293	8.38
714.046	7.38
714.799	7.38
715.552	8.38
716.305	8.38
717.058	6.38
717.81	6.38
718.563	7.38
719.315	8.38
720.068	9.38
720.82	8.38
721.573	7.38
722.325	6.38
723.077	8.38
723.829	8.38
724.581	9.38
725.333	7.38
726.085	8.38
726.836	9.38
727.588	8.38
728.34	8.38
729.091	8.38
729.843	9.38
730.594	7.38
731.346	8.38
732.097	9.38
732.848	7.38
733.599	10.38
734.35	8.38
735.101	9.38
735.852	9.38
736.603	8.38
737.354	7.38
738.104	10.38
738.855	6.38
739.605	9.38
740.356	10.38
741.106	11.38
741.856	11.38
742.607	8.38
743.357	7.38
744.107	8.38
744.857	8.38
745.607	7.38
746.357	10.38
747.106	9.38
747.856	9.38
748.606	9.38
749.355	10.38
750.105	9.38
750.854	8.38
751.603	10.38
752.353	11.38
753.102	11.38
753.851	11.38
754.6	8.38
755.349	12.38
756.098	10.38
756.847	12.38
757.595	10.38
758.344	11.38
759.093	12.38
759.841	8.38
760.589	12.38
761.338	10.38
762.086	13.38
762.834	11.38
763.582	10.38
764.331	10.38
765.079	12.38
765.826	11.38
766.574	11.38
767.322	12.38
768.07	11.38
768.817	11.38
769.565	13.38
770.312	13.38
771.06	12.38
771.807	12.38
772.554	14.38
773.302	14.38
774.049	15.38
774.796	11.38
775.543	13.38
776.29	13.38
777.036	12.38
777.783	14.38
778.53	14.38
779.276	14.38
780.023	13.38
780.769	16.38
781.516	14.38
782.262	13.38
783.008	14.38
783.754	12.38
784.5	14.38
785.246	14.38
785.992	13.38
786.738	13.38
787.484	14.38
788.23	15.38
788.975	15.38
789.721	17.38
790.466	12.38
791.212	14.38
791.957	12.38
792.702	12.38
793.447	15.38
794.193	15.38
794.938	12.38
795.683	9.38
796.427	13.38
797.172	14.38
797.917	13.38
798.662	10.38
799.406	10.38
800.151	10.38
800.895	10.38
801.64	11.38
802.384	10.38
803.128	12.38
803.872	10.38
804.616	8.38
805.36	9.38
806.104	9.38
806.848	8.38
807.592	10.38
808.336	8.38
809.079	10.38
809.823	10.38
810.566	10.38
811.31	9.38
812.053	9.38
812.796	9.38
813.539	9.38
814.283	5.38
815.026	12.38
815.769	9.38
816.511	7.38
817.254	9.38
817.997	5.38
818.74	7.38
819.482	8.38
820.225	4.38
820.967	7.38
821.71	7.38
822.452	10.38
823.194	5.38
823.936	4.38
824.678	5.38
825.42	5.38
826.162	10.38
826.904	6.38
827.646	6.38
828.388	7.38
829.129	7.38
829.871	8.38
830.612	3.38
831.354	4.38
832.095	5.38
832.836	5.38
833.577	3.38
834.319	6.38
835.06	6.38
835.801	5.38
836.542	5.38
837.282	6.38
838.023	3.38
838.764	8.38
839.504	4.38
840.245	6.38
840.985	4.38
841.726	2.38
842.466	4.38
843.206	8.38
843.946	4.38
844.687	5.38
845.427	6.38
846.166	4.38
846.906	3.38
847.646	5.38
848.386	4.38
849.125	4.38
849.865	3.38
850.605	5.38
851.344	3.38
852.083	3.38
852.823	2.38
853.562	2.38
854.301	4.38
855.04	4.38
855.779	1.38
856.518	4.38
857.257	4.38
857.995	4.38
858.734	0.38
859.473	1.38
860.211	2.38
860.95	2.38
861.688	4.38
862.426	3.38
863.165	2.38
863.903	2.38
864.641	2.38
865.379	3.38
866.117	3.38
866.855	4.38
867.593	3.38
868.33	3.38
869.068	1.38
869.806	1.38
870.543	3.38
871.28	0.38
872.018	2.38
872.755	1.38
873.492	-1.62
874.229	2.38
874.967	-0.62
875.703	1.38
876.44	-0.62
877.177	1.38
877.914	1.38
878.651	1.38
879.387	1.38
880.124	3.38
880.86	2.38
881.597	-0.62
882.333	2.38
883.069	2.38
883.806	0.38
884.542	1.38
885.278	0.38
886.014	2.38
886.749	1.38
887.485	0.38
888.221	-0.62
888.957	-0.62
889.692	1.38
890.428	0.38
891.163	3.38
891.899	2.38
892.634	1.38
893.369	2.38
894.104	-0.62
894.839	-0.62
895.574	0.38
896.309	2.38
897.044	2.38
897.779	-0.62
898.514	3.38
899.248	-0.62
899.983	2.38
900.717	-0.62
901.452	0.38
902.186	2.38
902.92	-2.62
903.654	-0.62
904.389	-3.62
905.123	-0.62
905.857	-0.62
906.59	0.38
907.324	-0.62
908.058	-3.62
908.792	0.38
909.525	0.38
910.259	-0.62
910.992	1.38
911.726	2.38
912.459	2.38
913.192	-0.62
913.925	-0.62
914.658	-2.62
915.391	0.38
916.124	-1.62
916.857	0.38
917.59	-0.62
918.323	0.38
919.055	0.38
919.788	0.38
920.521	-0.62
921.253	0.38
921.985	-0.62
922.718	1.38
923.45	-0.62
924.182	-1.62
924.914	0.38
925.646	-0.62
926.378	1.38
927.11	-0.62
927.841	-0.62
928.573	-0.62
929.305	0.38
930.036	1.38
930.768	1.38
931.499	2.38
932.23	0.38
932.962	0.38
933.693	0.38
934.424	0.38
935.155	0.38
935.886	1.38
936.617	2.38
937.348	1.38
938.078	0.38
938.809	1.38
939.54	-1.62
940.27	-1.62
941.001	-1.62
941.731	0.38
942.461	-1.62
943.191	0.38
943.922	1.38
944.652	-1.62
945.382	-0.62
946.112	0.38
946.841	-0.62
947.571	0.38
948.301	-1.62
949.031	-1.62
949.76	1.38
950.49	-0.62
951.219	3.38
951.948	0.38
952.678	-1.62
953.407	-1.62
954.136	0.38
954.865	-1.62
955.594	0.38
956.323	0.38
957.052	-0.62
957.78	0.38
958.509	0.38
959.238	-1.62
959.966	-0.62
960.695	-2.62
961.423	0.38
962.151	-1.62
962.88	2.38
963.608	0.38
964.336	-1.62
965.064	1.38
965.792	-0.62
966.52	-0.62
967.247	-0.62
967.975	2.38
968.703	0.38
969.43	1.38
970.158	-1.62
970.885	-1.62
971.613	0.38
972.34	-1.62
973.067	-0.62
973.794	-0.62
974.521	0.38
975.248	1.38
975.975	-0.62
976.702	2.38
977.429	-0.62
978.156	0.38
978.882	1.38
979.609	-1.62
980.335	-2.62
981.062	0.38
981.788	-0.62
982.514	0.38
983.24	-0.62
983.967	-0.62
984.693	-1.62
985.419	0.38
986.144	0.38
986.87	-0.62
987.596	-0.62
988.322	-0.62
989.047	0.38
989.773	0.38
990.498	0.38
991.224	0.38
991.949	0.38
992.674	-1.62
993.399	-0.62
994.124	1.38
994.849	2.38
995.574	-1.62
996.299	1.38
997.024	-0.62
997.749	1.38
998.473	0.38
999.198	0.38
999.922	0.38
1000.647	-1.62
1001.371	2.38
1002.095	-0.62
1002.82	-0.62
1003.544	-2.62
1004.268	6.38
1004.992	3.38
1005.716	4.38
1006.439	2.38
1007.163	4.38
1007.887	5.38
1008.611	-3.62
1009.334	0.38
1010.058	1.38
1010.781	0.38
1011.504	0.38
1012.228	0.38
1012.951	-1.62
1013.674	0.38
1014.397	1.38
1015.12	1.38
