节点500_705_QEPB04081__556__20-53-50-735.txt的数据

Date: Wed Nov 12 20:53:50 CST 2025
User: PC
Spectrometer: QEPB0408
触发模式: 0
积分时间 (秒): 1.000000E-2
Scans to average: 1
启用暗噪声校正: true
启用非线性校正: false
滑动平均宽度: 0
X轴模式: Wavelengths
Number of Pixels in Spectrum: 1044
>>>>>Begin Spectral Data<<<<<
220.843	7
221.644	5
222.444	8
223.244	6
224.045	9
224.845	8
225.645	7
226.445	9
227.245	8
228.045	10
228.845	8
229.645	9
230.444	9
231.244	9
232.043	9
232.843	8
233.642	10
234.442	12
235.241	11
236.04	10
236.839	9
237.638	10
238.437	9
239.236	11
240.035	12
240.833	10
241.632	12
242.43	12
243.229	13
244.027	12
244.826	14
245.624	15
246.422	13
247.22	14
248.018	12
248.816	13
249.614	14
250.412	18
251.21	16
252.007	15
252.805	15
253.602	16
254.4	18
255.197	18
255.994	17
256.791	19
257.589	18
258.386	22
259.183	22
259.979	24
260.776	22
261.573	19
262.37	23
263.166	21
263.963	25
264.759	25
265.556	26
266.352	27
267.148	23
267.944	25
268.74	26
269.536	27
270.332	31
271.128	28
271.924	30
272.719	27
273.515	30
274.311	33
275.106	33
275.901	33
276.697	30
277.492	31
278.287	31
279.082	32
279.877	30
280.672	32
281.467	34
282.262	33
283.056	32
283.851	31
284.646	31
285.44	32
286.234	34
287.029	35
287.823	32
288.617	32
289.411	31
290.205	32
290.999	30
291.793	33
292.587	30
293.381	31
294.174	30
294.968	26
295.761	28
296.555	28
297.348	25
298.141	30
298.935	28
299.728	27
300.521	24
301.314	27
302.107	27
302.899	25
303.692	26
304.485	22
305.277	23
306.07	23
306.862	20
307.655	23
308.447	21
309.239	23
310.031	20
310.823	20
311.615	20
312.407	21
313.199	19
313.991	21
314.783	15
315.574	16
316.366	16
317.157	16
317.949	16
318.74	17
319.531	16
320.322	15
321.113	17
321.904	14
322.695	18
323.486	14
324.277	15
325.068	11
325.858	13
326.649	14
327.439	13
328.23	13
329.02	13
329.81	14
330.6	13
331.391	11
332.181	13
332.971	13
333.76	10
334.55	11
335.34	15
336.13	15
336.919	12
337.709	12
338.498	11
339.287	12
340.077	18
340.866	12
341.655	13
342.444	15
343.233	13
344.022	12
344.811	14
345.6	11
346.388	12
347.177	14
347.965	12
348.754	12
349.542	11
350.33	9
351.119	14
351.907	13
352.695	13
353.483	11
354.271	13
355.059	12
355.846	9
356.634	11
357.422	13
358.209	12
358.997	11
359.784	9
360.571	9
361.359	8
362.146	12
362.933	10
363.72	12
364.507	12
365.294	12
366.081	11
366.867	9
367.654	11
368.44	11
369.227	13
370.013	11
370.8	11
371.586	14
372.372	8
373.158	14
373.944	7
374.73	10
375.516	11
376.302	10
377.088	9
377.873	10
378.659	9
379.445	10
380.23	10
381.015	12
381.801	9
382.586	12
383.371	10
384.156	10
384.941	12
385.726	11
386.511	12
387.296	12
388.08	14
388.865	10
389.649	13
390.434	13
391.218	11
392.003	12
392.787	11
393.571	10
394.355	11
395.139	14
395.923	12
396.707	10
397.491	14
398.274	12
399.058	13
399.842	12
400.625	12
401.408	15
402.192	14
402.975	14
403.758	16
404.541	16
405.324	16
406.107	14
406.89	18
407.673	12
408.456	19
409.238	17
410.021	17
410.803	19
411.586	16
412.368	18
413.151	19
413.933	19
414.715	17
415.497	18
416.279	19
417.061	20
417.843	21
418.624	18
419.406	20
420.188	22
420.969	22
421.751	22
422.532	27
423.313	20
424.095	20
424.876	22
425.657	25
426.438	26
427.219	27
428	28
428.78	28
429.561	28
430.342	29
431.122	30
431.903	32
432.683	34
433.464	38
434.244	37
435.024	40
435.804	40
436.584	44
437.364	47
438.144	48
438.924	51
439.704	54
440.483	60
441.263	66
442.042	71
442.822	72
443.601	74
444.38	86
445.16	93
445.939	98
446.718	105
447.497	120
448.276	130
449.054	139
449.833	155
450.612	167
451.391	192
452.169	209
452.948	228
453.726	258
454.504	283
455.282	315
456.061	357
456.839	392
457.617	426
458.395	488
459.172	550
459.95	613
460.728	678
461.506	732
462.283	824
463.061	925
463.838	1016
464.615	1139
465.393	1253
466.17	1383
466.947	1542
467.724	1707
468.501	1879
469.278	2052
470.055	2291
470.831	2510
471.608	2758
472.385	3048
473.161	3335
473.938	3621
474.714	3976
475.49	4342
476.266	4730
477.043	5173
477.819	5610
478.595	6100
479.371	6637
480.146	7202
480.922	7818
481.698	8481
482.473	9191
483.249	9947
484.024	10746
484.8	11627
485.575	12523
486.35	13561
487.126	14632
487.901	15747
488.676	16929
489.451	18220
490.225	19540
491	20893
491.775	22339
492.55	23736
493.324	25310
494.099	26899
494.873	28480
495.647	30115
496.422	31709
497.196	33402
497.97	34876
498.744	36407
499.518	37977
500.292	39203
501.066	40296
501.839	41340
502.613	42203
503.387	42966
504.16	43680
504.934	43995
505.707	44167
506.48	43995
507.253	43840
508.027	43519
508.8	42930
509.573	42190
510.346	41437
511.118	40596
511.891	39538
512.664	38281
513.437	37086
514.209	35830
514.982	34532
515.754	33268
516.526	32014
517.298	30717
518.071	29540
518.843	28478
519.615	27323
520.387	26228
521.159	25207
521.93	24212
522.702	23226
523.474	22214
524.245	21298
525.017	20445
525.788	19602
526.56	18777
527.331	18052
528.102	17180
528.873	16329
529.644	15565
530.415	14848
531.186	14172
531.957	13506
532.728	12825
533.498	12174
534.269	11547
535.039	10932
535.81	10329
536.58	9804
537.351	9281
538.121	8824
538.891	8328
539.661	7908
540.431	7463
541.201	7070
541.971	6694
542.741	6353
543.51	5995
544.28	5758
545.05	5484
545.819	5220
546.588	4991
547.358	4718
548.127	4466
548.896	4305
549.665	4090
550.434	3860
551.203	3670
551.972	3486
552.741	3307
553.51	3127
554.278	2953
555.047	2780
555.815	2619
556.584	2485
557.352	2357
558.121	2224
558.889	2108
559.657	1979
560.425	1871
561.193	1782
561.961	1679
562.729	1617
563.496	1510
564.264	1436
565.032	1342
565.799	1279
566.567	1200
567.334	1154
568.101	1074
568.869	1009
569.636	964
570.403	909
571.17	851
571.937	816
572.704	768
573.471	716
574.237	682
575.004	637
575.771	601
576.537	570
577.303	545
578.07	519
578.836	484
579.602	452
580.368	440
581.134	414
581.9	398
582.666	376
583.432	357
584.198	334
584.964	323
585.729	302
586.495	284
587.26	269
588.025	256
588.791	243
589.556	228
590.321	212
591.086	208
591.851	195
592.616	183
593.381	184
594.146	170
594.911	164
595.675	161
596.44	150
597.204	142
597.969	138
598.733	134
599.497	125
600.261	120
601.025	115
601.79	112
602.553	105
603.317	102
604.081	98
604.845	97
605.609	94
606.372	86
607.136	85
607.899	77
608.662	78
609.426	71
610.189	70
610.952	71
611.715	63
612.478	64
613.241	60
614.004	63
614.767	56
615.529	54
616.292	51
617.055	48
617.817	49
618.579	46
619.342	48
620.104	45
620.866	43
621.628	41
622.39	41
623.152	39
623.914	40
624.676	34
625.438	36
626.199	35
626.961	35
627.722	35
628.484	30
629.245	34
630.006	30
630.768	29
631.529	28
632.29	25
633.051	28
633.812	26
634.573	27
635.333	22
636.094	24
636.855	22
637.615	23
638.376	21
639.136	21
639.896	23
640.657	21
641.417	24
642.177	23
642.937	22
643.697	16
644.457	19
645.216	17
645.976	17
646.736	17
647.495	17
648.255	15
649.014	16
649.774	17
650.533	14
651.292	16
652.051	18
652.81	16
653.569	13
654.328	17
655.087	12
655.846	15
656.604	11
657.363	14
658.121	16
658.88	12
659.638	14
660.397	10
661.155	15
661.913	12
662.671	11
663.429	12
664.187	11
664.945	12
665.703	13
666.46	12
667.218	12
667.976	9
668.733	10
669.49	9
670.248	10
671.005	8
671.762	10
672.519	11
673.276	10
674.033	12
674.79	10
675.547	10
676.304	8
677.06	8
677.817	9
678.574	10
679.33	8
680.086	8
680.843	10
681.599	9
682.355	9
683.111	12
683.867	7
684.623	9
685.379	8
686.135	7
686.89	7
687.646	6
688.402	9
689.157	9
689.912	7
690.668	8
691.423	8
692.178	9
692.933	8
693.688	10
694.443	9
695.198	8
695.953	9
696.708	9
697.462	9
698.217	10
698.972	8
699.726	9
700.48	8
701.235	8
701.989	6
702.743	9
703.497	8
704.251	8
705.005	8
705.759	9
706.513	5
707.266	8
708.02	9
708.774	9
709.527	6
710.28	9
711.034	6
711.787	8
712.54	7
713.293	8
714.046	6
714.799	8
715.552	7
716.305	10
717.058	12
717.81	8
718.563	8
719.315	8
720.068	8
720.82	10
721.573	9
722.325	10
723.077	7
723.829	7
724.581	7
725.333	9
726.085	9
726.836	10
727.588	9
728.34	10
729.091	9
729.843	9
730.594	8
731.346	9
732.097	9
732.848	10
733.599	10
734.35	10
735.101	10
735.852	10
736.603	10
737.354	10
738.104	9
738.855	10
739.605	11
740.356	11
741.106	9
741.856	9
742.607	12
743.357	9
744.107	9
744.857	10
745.607	10
746.357	10
747.106	7
747.856	12
748.606	12
749.355	12
750.105	12
750.854	12
751.603	9
752.353	11
753.102	13
753.851	13
754.6	11
755.349	12
756.098	11
756.847	13
757.595	13
758.344	12
759.093	13
759.841	11
760.589	12
761.338	14
762.086	13
762.834	14
763.582	13
764.331	14
765.079	13
765.826	14
766.574	14
767.322	16
768.07	13
768.817	16
769.565	14
770.312	12
771.06	15
771.807	15
772.554	17
773.302	14
774.049	16
774.796	15
775.543	16
776.29	15
777.036	16
777.783	16
778.53	18
779.276	16
780.023	14
780.769	15
781.516	17
782.262	16
783.008	15
783.754	18
784.5	16
785.246	16
785.992	14
786.738	18
787.484	15
788.23	14
788.975	16
789.721	16
790.466	16
791.212	15
791.957	16
792.702	16
793.447	14
794.193	12
794.938	16
795.683	17
796.427	14
797.172	16
797.917	12
798.662	13
799.406	14
800.151	12
800.895	14
801.64	12
802.384	13
803.128	13
803.872	13
804.616	10
805.36	10
806.104	12
806.848	11
807.592	10
808.336	13
809.079	11
809.823	10
810.566	10
811.31	9
812.053	11
812.796	8
813.539	11
814.283	11
815.026	10
815.769	10
816.511	11
817.254	10
817.997	9
818.74	8
819.482	7
820.225	8
820.967	8
821.71	8
822.452	9
823.194	7
823.936	8
824.678	9
825.42	7
826.162	6
826.904	5
827.646	9
828.388	7
829.129	10
829.871	9
830.612	7
831.354	7
832.095	7
832.836	8
833.577	5
834.319	9
835.06	5
835.801	8
836.542	8
837.282	5
838.023	8
838.764	5
839.504	8
840.245	8
840.985	7
841.726	10
842.466	7
843.206	5
843.946	8
844.687	7
845.427	7
846.166	7
846.906	8
847.646	4
848.386	6
849.125	6
849.865	4
850.605	5
851.344	5
852.083	6
852.823	5
853.562	6
854.301	6
855.04	4
855.779	6
856.518	5
857.257	5
857.995	6
858.734	4
859.473	3
860.211	4
860.95	4
861.688	4
862.426	4
863.165	4
863.903	4
864.641	4
865.379	3
866.117	6
866.855	4
867.593	3
868.33	6
869.068	3
869.806	4
870.543	5
871.28	4
872.018	3
872.755	4
873.492	5
874.229	6
874.967	2
875.703	2
876.44	6
877.177	4
877.914	3
878.651	6
879.387	1
880.124	3
880.86	4
881.597	3
882.333	1
883.069	0
883.806	5
884.542	3
885.278	2
886.014	5
886.749	3
887.485	5
888.221	2
888.957	1
889.692	1
890.428	3
891.163	5
891.899	4
892.634	4
893.369	3
894.104	1
894.839	2
895.574	2
896.309	3
897.044	3
897.779	2
898.514	4
899.248	2
899.983	1
900.717	2
901.452	2
902.186	1
902.92	-1
903.654	2
904.389	2
905.123	4
905.857	4
906.59	1
907.324	3
908.058	0
908.792	2
909.525	2
910.259	0
910.992	1
911.726	2
912.459	2
913.192	4
913.925	2
914.658	-1
915.391	1
916.124	4
916.857	0
917.59	2
918.323	3
919.055	3
919.788	2
920.521	1
921.253	2
921.985	3
922.718	3
923.45	1
924.182	3
924.914	2
925.646	2
926.378	2
927.11	0
927.841	1
928.573	-1
929.305	1
930.036	2
930.768	1
931.499	3
932.23	3
932.962	0
933.693	1
934.424	2
935.155	2
935.886	2
936.617	1
937.348	3
938.078	0
938.809	0
939.54	2
940.27	2
941.001	2
941.731	2
942.461	0
943.191	2
943.922	1
944.652	2
945.382	1
946.112	1
946.841	1
947.571	0
948.301	2
949.031	3
949.76	4
950.49	-1
951.219	-2
951.948	3
952.678	2
953.407	2
954.136	0
954.865	0
955.594	1
956.323	0
957.052	0
957.78	-1
958.509	2
959.238	4
959.966	3
960.695	0
961.423	1
962.151	4
962.88	4
963.608	3
964.336	3
965.064	2
965.792	1
966.52	1
967.247	1
967.975	-1
968.703	1
969.43	4
970.158	2
970.885	2
971.613	3
972.34	1
973.067	0
973.794	3
974.521	2
975.248	2
975.975	1
976.702	1
977.429	2
978.156	2
978.882	0
979.609	2
980.335	-1
981.062	1
981.788	2
982.514	1
983.24	2
983.967	0
984.693	1
985.419	4
986.144	2
986.87	2
987.596	0
988.322	2
989.047	2
989.773	4
990.498	1
991.224	-1
991.949	1
992.674	2
993.399	0
994.124	1
994.849	1
995.574	3
996.299	2
997.024	1
997.749	-1
998.473	3
999.198	2
999.922	2
1000.647	3
1001.371	3
1002.095	-1
1002.82	0
1003.544	1
1004.268	2
1004.992	5
1005.716	7
1006.439	7
1007.163	6
1007.887	9
1008.611	0
1009.334	2
1010.058	2
1010.781	1
1011.504	3
1012.228	2
1012.951	-1
1013.674	-1
1014.397	0
1015.12	-1
