节点500_705_QEPB04081__197__20-48-58-478.txt的数据

Date: Wed Nov 12 20:48:58 CST 2025
User: PC
Spectrometer: QEPB0408
触发模式: 0
积分时间 (秒): 1.000000E-2
Scans to average: 1
启用暗噪声校正: true
启用非线性校正: false
滑动平均宽度: 0
X轴模式: Wavelengths
Number of Pixels in Spectrum: 1044
>>>>>Begin Spectral Data<<<<<
220.843	7.62
221.644	4.62
222.444	8.62
223.244	5.62
224.045	6.62
224.845	5.62
225.645	7.62
226.445	6.62
227.245	8.62
228.045	7.62
228.845	9.62
229.645	7.62
230.444	7.62
231.244	9.62
232.043	7.62
232.843	9.62
233.642	8.62
234.442	7.62
235.241	8.62
236.04	12.62
236.839	11.62
237.638	9.62
238.437	14.62
239.236	10.62
240.035	11.62
240.833	12.62
241.632	11.62
242.43	11.62
243.229	12.62
244.027	12.62
244.826	11.62
245.624	11.62
246.422	16.62
247.22	15.62
248.018	14.62
248.816	15.62
249.614	14.62
250.412	15.62
251.21	14.62
252.007	20.62
252.805	16.62
253.602	19.62
254.4	18.62
255.197	17.62
255.994	17.62
256.791	19.62
257.589	21.62
258.386	19.62
259.183	21.62
259.979	24.62
260.776	23.62
261.573	25.62
262.37	22.62
263.166	27.62
263.963	25.62
264.759	26.62
265.556	25.62
266.352	28.62
267.148	30.62
267.944	29.62
268.74	27.62
269.536	28.62
270.332	28.62
271.128	32.62
271.924	29.62
272.719	33.62
273.515	34.62
274.311	32.62
275.106	36.62
275.901	35.62
276.697	35.62
277.492	34.62
278.287	36.62
279.082	36.62
279.877	33.62
280.672	34.62
281.467	34.62
282.262	34.62
283.056	35.62
283.851	36.62
284.646	33.62
285.44	30.62
286.234	35.62
287.029	34.62
287.823	32.62
288.617	34.62
289.411	32.62
290.205	32.62
290.999	35.62
291.793	33.62
292.587	31.62
293.381	30.62
294.174	30.62
294.968	26.62
295.761	25.62
296.555	26.62
297.348	28.62
298.141	25.62
298.935	30.62
299.728	27.62
300.521	26.62
301.314	24.62
302.107	27.62
302.899	23.62
303.692	21.62
304.485	19.62
305.277	22.62
306.07	21.62
306.862	22.62
307.655	20.62
308.447	21.62
309.239	19.62
310.031	19.62
310.823	18.62
311.615	20.62
312.407	17.62
313.199	18.62
313.991	14.62
314.783	14.62
315.574	14.62
316.366	15.62
317.157	14.62
317.949	14.62
318.74	13.62
319.531	11.62
320.322	15.62
321.113	13.62
321.904	14.62
322.695	11.62
323.486	12.62
324.277	12.62
325.068	10.62
325.858	14.62
326.649	13.62
327.439	11.62
328.23	13.62
329.02	14.62
329.81	11.62
330.6	12.62
331.391	12.62
332.181	11.62
332.971	13.62
333.76	12.62
334.55	10.62
335.34	13.62
336.13	10.62
336.919	11.62
337.709	11.62
338.498	11.62
339.287	12.62
340.077	11.62
340.866	11.62
341.655	11.62
342.444	7.62
343.233	10.62
344.022	12.62
344.811	11.62
345.6	12.62
346.388	12.62
347.177	8.62
347.965	9.62
348.754	13.62
349.542	11.62
350.33	10.62
351.119	10.62
351.907	11.62
352.695	10.62
353.483	8.62
354.271	8.62
355.059	12.62
355.846	8.62
356.634	10.62
357.422	10.62
358.209	9.62
358.997	10.62
359.784	11.62
360.571	9.62
361.359	8.62
362.146	11.62
362.933	11.62
363.72	10.62
364.507	8.62
365.294	9.62
366.081	8.62
366.867	8.62
367.654	11.62
368.44	9.62
369.227	9.62
370.013	7.62
370.8	8.62
371.586	9.62
372.372	9.62
373.158	8.62
373.944	10.62
374.73	10.62
375.516	7.62
376.302	12.62
377.088	11.62
377.873	8.62
378.659	9.62
379.445	10.62
380.23	7.62
381.015	10.62
381.801	10.62
382.586	9.62
383.371	10.62
384.156	9.62
384.941	9.62
385.726	8.62
386.511	10.62
387.296	8.62
388.08	8.62
388.865	9.62
389.649	12.62
390.434	8.62
391.218	11.62
392.003	11.62
392.787	11.62
393.571	11.62
394.355	10.62
395.139	11.62
395.923	13.62
396.707	14.62
397.491	12.62
398.274	10.62
399.058	14.62
399.842	10.62
400.625	15.62
401.408	15.62
402.192	13.62
402.975	14.62
403.758	11.62
404.541	13.62
405.324	15.62
406.107	15.62
406.89	15.62
407.673	15.62
408.456	16.62
409.238	14.62
410.021	16.62
410.803	13.62
411.586	17.62
412.368	16.62
413.151	17.62
413.933	18.62
414.715	16.62
415.497	19.62
416.279	18.62
417.061	19.62
417.843	21.62
418.624	18.62
419.406	20.62
420.188	21.62
420.969	20.62
421.751	21.62
422.532	22.62
423.313	21.62
424.095	24.62
424.876	26.62
425.657	28.62
426.438	25.62
427.219	27.62
428	27.62
428.78	28.62
429.561	30.62
430.342	29.62
431.122	30.62
431.903	30.62
432.683	33.62
433.464	32.62
434.244	36.62
435.024	38.62
435.804	39.62
436.584	44.62
437.364	42.62
438.144	49.62
438.924	47.62
439.704	51.62
440.483	57.62
441.263	60.62
442.042	61.62
442.822	71.62
443.601	74.62
444.38	82.62
445.16	84.62
445.939	88.62
446.718	99.62
447.497	112.62
448.276	116.62
449.054	130.62
449.833	138.62
450.612	154.62
451.391	170.62
452.169	184.62
452.948	204.62
453.726	235.62
454.504	251.62
455.282	287.62
456.061	318.62
456.839	356.62
457.617	391.62
458.395	448.62
459.172	483.62
459.95	557.62
460.728	611.62
461.506	688.62
462.283	761.62
463.061	853.62
463.838	953.62
464.615	1067.62
465.393	1197.62
466.17	1343.62
466.947	1476.62
467.724	1628.62
468.501	1826.62
469.278	2020.62
470.055	2243.62
470.831	2504.62
471.608	2749.62
472.385	3042.62
473.161	3380.62
473.938	3702.62
474.714	4058.62
475.49	4486.62
476.266	4947.62
477.043	5401.62
477.819	5900.62
478.595	6454.62
479.371	7111.62
480.146	7735.62
480.922	8491.62
481.698	9262.62
482.473	10124.62
483.249	11040.62
484.024	11998.62
484.8	13081.62
485.575	14132.62
486.35	15414.62
487.126	16707.62
487.901	18046.62
488.676	19591.62
489.451	21092.62
490.225	22742.62
491	24404.62
491.775	26150.62
492.55	28075.62
493.324	29862.62
494.099	31662.62
494.873	33565.62
495.647	35396.62
496.422	37341.62
497.196	39133.62
497.97	40855.62
498.744	42302.62
499.518	43981.62
500.292	45351.62
501.066	46274.62
501.839	47145.62
502.613	47725.62
503.387	48325.62
504.16	48548.62
504.934	48532.62
505.707	48338.62
506.48	47790.62
507.253	47268.62
508.027	46359.62
508.8	45243.62
509.573	44056.62
510.346	42941.62
511.118	41735.62
511.891	40255.62
512.664	38718.62
513.437	37149.62
514.209	35700.62
514.982	34340.62
515.754	32887.62
516.526	31560.62
517.298	30249.62
518.071	29018.62
518.843	27834.62
519.615	26771.62
520.387	25752.62
521.159	24696.62
521.93	23588.62
522.702	22620.62
523.474	21647.62
524.245	20701.62
525.017	19753.62
525.788	18919.62
526.56	18149.62
527.331	17261.62
528.102	16416.62
528.873	15540.62
529.644	14875.62
530.415	14115.62
531.186	13390.62
531.957	12729.62
532.728	12011.62
533.498	11404.62
534.269	10748.62
535.039	10204.62
535.81	9652.62
536.58	9129.62
537.351	8599.62
538.121	8160.62
538.891	7764.62
539.661	7344.62
540.431	6915.62
541.201	6570.62
541.971	6217.62
542.741	5880.62
543.51	5621.62
544.28	5333.62
545.05	5093.62
545.819	4830.62
546.588	4603.62
547.358	4383.62
548.127	4138.62
548.896	3942.62
549.665	3721.62
550.434	3552.62
551.203	3368.62
551.972	3196.62
552.741	3011.62
553.51	2848.62
554.278	2670.62
555.047	2527.62
555.815	2376.62
556.584	2254.62
557.352	2138.62
558.121	2008.62
558.889	1901.62
559.657	1801.62
560.425	1699.62
561.193	1603.62
561.961	1523.62
562.729	1440.62
563.496	1372.62
564.264	1290.62
565.032	1224.62
565.799	1149.62
566.567	1086.62
567.334	1032.62
568.101	975.62
568.869	921.62
569.636	869.62
570.403	809.62
571.17	777.62
571.937	731.62
572.704	704.62
573.471	664.62
574.237	606.62
575.004	576.62
575.771	544.62
576.537	521.62
577.303	486.62
578.07	464.62
578.836	426.62
579.602	421.62
580.368	390.62
581.134	369.62
581.9	348.62
582.666	335.62
583.432	320.62
584.198	305.62
584.964	284.62
585.729	272.62
586.495	264.62
587.26	246.62
588.025	234.62
588.791	216.62
589.556	203.62
590.321	206.62
591.086	188.62
591.851	181.62
592.616	169.62
593.381	163.62
594.146	157.62
594.911	146.62
595.675	141.62
596.44	133.62
597.204	128.62
597.969	127.62
598.733	120.62
599.497	111.62
600.261	108.62
601.025	101.62
601.79	100.62
602.553	99.62
603.317	86.62
604.081	89.62
604.845	83.62
605.609	83.62
606.372	78.62
607.136	78.62
607.899	73.62
608.662	70.62
609.426	68.62
610.189	62.62
610.952	65.62
611.715	59.62
612.478	58.62
613.241	53.62
614.004	54.62
614.767	48.62
615.529	49.62
616.292	49.62
617.055	44.62
617.817	43.62
618.579	43.62
619.342	41.62
620.104	42.62
620.866	39.62
621.628	38.62
622.39	37.62
623.152	36.62
623.914	34.62
624.676	32.62
625.438	33.62
626.199	30.62
626.961	30.62
627.722	30.62
628.484	28.62
629.245	26.62
630.006	25.62
630.768	26.62
631.529	28.62
632.29	24.62
633.051	22.62
633.812	23.62
634.573	25.62
635.333	20.62
636.094	23.62
636.855	21.62
637.615	19.62
638.376	21.62
639.136	19.62
639.896	19.62
640.657	18.62
641.417	21.62
642.177	16.62
642.937	15.62
643.697	16.62
644.457	17.62
645.216	14.62
645.976	15.62
646.736	15.62
647.495	15.62
648.255	16.62
649.014	14.62
649.774	13.62
650.533	11.62
651.292	14.62
652.051	13.62
652.81	15.62
653.569	14.62
654.328	13.62
655.087	13.62
655.846	13.62
656.604	12.62
657.363	12.62
658.121	11.62
658.88	11.62
659.638	12.62
660.397	11.62
661.155	12.62
661.913	10.62
662.671	11.62
663.429	12.62
664.187	9.62
664.945	10.62
665.703	10.62
666.46	7.62
667.218	9.62
667.976	7.62
668.733	10.62
669.49	10.62
670.248	8.62
671.005	9.62
671.762	7.62
672.519	8.62
673.276	8.62
674.033	9.62
674.79	9.62
675.547	8.62
676.304	8.62
677.06	7.62
677.817	7.62
678.574	7.62
679.33	7.62
680.086	9.62
680.843	6.62
681.599	6.62
682.355	8.62
683.111	7.62
683.867	8.62
684.623	6.62
685.379	8.62
686.135	7.62
686.89	8.62
687.646	7.62
688.402	9.62
689.157	6.62
689.912	4.62
690.668	7.62
691.423	7.62
692.178	7.62
692.933	9.62
693.688	8.62
694.443	10.62
695.198	7.62
695.953	6.62
696.708	7.62
697.462	6.62
698.217	7.62
698.972	8.62
699.726	7.62
700.48	7.62
701.235	8.62
701.989	5.62
702.743	7.62
703.497	8.62
704.251	6.62
705.005	8.62
705.759	6.62
706.513	7.62
707.266	7.62
708.02	6.62
708.774	7.62
709.527	5.62
710.28	6.62
711.034	6.62
711.787	7.62
712.54	7.62
713.293	7.62
714.046	9.62
714.799	6.62
715.552	6.62
716.305	8.62
717.058	6.62
717.81	7.62
718.563	7.62
719.315	8.62
720.068	6.62
720.82	8.62
721.573	9.62
722.325	8.62
723.077	8.62
723.829	6.62
724.581	8.62
725.333	7.62
726.085	8.62
726.836	7.62
727.588	9.62
728.34	8.62
729.091	6.62
729.843	7.62
730.594	8.62
731.346	7.62
732.097	9.62
732.848	8.62
733.599	10.62
734.35	6.62
735.101	9.62
735.852	5.62
736.603	5.62
737.354	9.62
738.104	7.62
738.855	8.62
739.605	7.62
740.356	8.62
741.106	10.62
741.856	8.62
742.607	12.62
743.357	8.62
744.107	10.62
744.857	10.62
745.607	9.62
746.357	8.62
747.106	11.62
747.856	10.62
748.606	10.62
749.355	10.62
750.105	13.62
750.854	11.62
751.603	12.62
752.353	9.62
753.102	9.62
753.851	11.62
754.6	10.62
755.349	9.62
756.098	13.62
756.847	13.62
757.595	11.62
758.344	11.62
759.093	10.62
759.841	11.62
760.589	9.62
761.338	14.62
762.086	13.62
762.834	14.62
763.582	13.62
764.331	13.62
765.079	13.62
765.826	16.62
766.574	14.62
767.322	14.62
768.07	12.62
768.817	12.62
769.565	14.62
770.312	13.62
771.06	14.62
771.807	17.62
772.554	14.62
773.302	13.62
774.049	16.62
774.796	15.62
775.543	13.62
776.29	15.62
777.036	13.62
777.783	14.62
778.53	14.62
779.276	14.62
780.023	18.62
780.769	16.62
781.516	16.62
782.262	14.62
783.008	13.62
783.754	18.62
784.5	15.62
785.246	14.62
785.992	17.62
786.738	13.62
787.484	16.62
788.23	14.62
788.975	15.62
789.721	15.62
790.466	16.62
791.212	14.62
791.957	12.62
792.702	14.62
793.447	16.62
794.193	13.62
794.938	12.62
795.683	12.62
796.427	14.62
797.172	14.62
797.917	12.62
798.662	14.62
799.406	14.62
800.151	12.62
800.895	11.62
801.64	14.62
802.384	13.62
803.128	11.62
803.872	12.62
804.616	12.62
805.36	10.62
806.104	8.62
806.848	10.62
807.592	8.62
808.336	9.62
809.079	10.62
809.823	8.62
810.566	9.62
811.31	9.62
812.053	11.62
812.796	10.62
813.539	8.62
814.283	9.62
815.026	9.62
815.769	9.62
816.511	6.62
817.254	7.62
817.997	8.62
818.74	6.62
819.482	7.62
820.225	7.62
820.967	6.62
821.71	7.62
822.452	5.62
823.194	8.62
823.936	7.62
824.678	6.62
825.42	5.62
826.162	5.62
826.904	5.62
827.646	6.62
828.388	7.62
829.129	5.62
829.871	4.62
830.612	4.62
831.354	4.62
832.095	5.62
832.836	5.62
833.577	8.62
834.319	4.62
835.06	5.62
835.801	4.62
836.542	5.62
837.282	4.62
838.023	6.62
838.764	5.62
839.504	5.62
840.245	6.62
840.985	4.62
841.726	5.62
842.466	7.62
843.206	6.62
843.946	3.62
844.687	6.62
845.427	5.62
846.166	5.62
846.906	4.62
847.646	3.62
848.386	5.62
849.125	4.62
849.865	4.62
850.605	3.62
851.344	5.62
852.083	2.62
852.823	4.62
853.562	4.62
854.301	3.62
855.04	4.62
855.779	4.62
856.518	3.62
857.257	2.62
857.995	4.62
858.734	2.62
859.473	3.62
860.211	3.62
860.95	1.62
861.688	4.62
862.426	2.62
863.165	2.62
863.903	3.62
864.641	1.62
865.379	2.62
866.117	2.62
866.855	-0.38
867.593	0.62
868.33	3.62
869.068	2.62
869.806	1.62
870.543	2.62
871.28	0.62
872.018	-0.38
872.755	2.62
873.492	1.62
874.229	3.62
874.967	2.62
875.703	2.62
876.44	2.62
877.177	-0.38
877.914	2.62
878.651	0.62
879.387	1.62
880.124	1.62
880.86	2.62
881.597	2.62
882.333	0.62
883.069	0.62
883.806	0.62
884.542	2.62
885.278	1.62
886.014	0.62
886.749	2.62
887.485	-0.38
888.221	3.62
888.957	0.62
889.692	0.62
890.428	-0.38
891.163	0.62
891.899	2.62
892.634	0.62
893.369	1.62
894.104	-1.38
894.839	3.62
895.574	1.62
896.309	-1.38
897.044	2.62
897.779	1.62
898.514	0.62
899.248	2.62
899.983	1.62
900.717	0.62
901.452	2.62
902.186	2.62
902.92	0.62
903.654	1.62
904.389	-0.38
905.123	-2.38
905.857	0.62
906.59	-1.38
907.324	0.62
908.058	-0.38
908.792	1.62
909.525	0.62
910.259	1.62
910.992	-2.38
911.726	0.62
912.459	1.62
913.192	2.62
913.925	1.62
914.658	-1.38
915.391	-0.38
916.124	-0.38
916.857	0.62
917.59	0.62
918.323	0.62
919.055	1.62
919.788	-0.38
920.521	-2.38
921.253	0.62
921.985	-0.38
922.718	-0.38
923.45	1.62
924.182	1.62
924.914	1.62
925.646	0.62
926.378	1.62
927.11	-1.38
927.841	-0.38
928.573	-1.38
929.305	-0.38
930.036	1.62
930.768	0.62
931.499	-0.38
932.23	0.62
932.962	-1.38
933.693	2.62
934.424	-0.38
935.155	-1.38
935.886	2.62
936.617	-3.38
937.348	0.62
938.078	2.62
938.809	-0.38
939.54	0.62
940.27	-1.38
941.001	0.62
941.731	0.62
942.461	-0.38
943.191	-1.38
943.922	1.62
944.652	1.62
945.382	-0.38
946.112	-0.38
946.841	0.62
947.571	2.62
948.301	-0.38
949.031	2.62
949.76	0.62
950.49	-1.38
951.219	0.62
951.948	-1.38
952.678	-0.38
953.407	-1.38
954.136	-0.38
954.865	-1.38
955.594	0.62
956.323	0.62
957.052	-0.38
957.78	-0.38
958.509	0.62
959.238	0.62
959.966	-1.38
960.695	0.62
961.423	1.62
962.151	1.62
962.88	-1.38
963.608	0.62
964.336	1.62
965.064	-0.38
965.792	-1.38
966.52	0.62
967.247	-1.38
967.975	-1.38
968.703	1.62
969.43	0.62
970.158	1.62
970.885	-1.38
971.613	0.62
972.34	0.62
973.067	-1.38
973.794	0.62
974.521	-0.38
975.248	0.62
975.975	1.62
976.702	1.62
977.429	0.62
978.156	1.62
978.882	-1.38
979.609	-1.38
980.335	0.62
981.062	-1.38
981.788	2.62
982.514	0.62
983.24	-1.38
983.967	-0.38
984.693	-1.38
985.419	-1.38
986.144	-0.38
986.87	-3.38
987.596	-0.38
988.322	-0.38
989.047	1.62
989.773	-0.38
990.498	2.62
991.224	-0.38
991.949	0.62
992.674	0.62
993.399	-0.38
994.124	0.62
994.849	0.62
995.574	-0.38
996.299	1.62
997.024	-0.38
997.749	0.62
998.473	0.62
999.198	0.62
999.922	-0.38
1000.647	0.62
1001.371	5.62
1002.095	-1.38
1002.82	-1.38
1003.544	-0.38
1004.268	6.62
1004.992	2.62
1005.716	3.62
1006.439	4.62
1007.163	6.62
1007.887	4.62
1008.611	0.62
1009.334	1.62
1010.058	1.62
1010.781	-1.38
1011.504	-1.38
1012.228	0.62
1012.951	-0.38
1013.674	-0.38
1014.397	-2.38
1015.12	0.62
