节点500_705_QEPB04081__305__20-50-19-415.txt的数据

Date: Wed Nov 12 20:50:19 CST 2025
User: PC
Spectrometer: QEPB0408
触发模式: 0
积分时间 (秒): 1.000000E-2
Scans to average: 1
启用暗噪声校正: true
启用非线性校正: false
滑动平均宽度: 0
X轴模式: Wavelengths
Number of Pixels in Spectrum: 1044
>>>>>Begin Spectral Data<<<<<
220.843	4.88
221.644	3.88
222.444	5.88
223.244	5.88
224.045	7.88
224.845	4.88
225.645	8.88
226.445	7.88
227.245	7.88
228.045	6.88
228.845	6.88
229.645	7.88
230.444	7.88
231.244	10.88
232.043	9.88
232.843	9.88
233.642	8.88
234.442	9.88
235.241	7.88
236.04	8.88
236.839	10.88
237.638	9.88
238.437	10.88
239.236	10.88
240.035	12.88
240.833	11.88
241.632	10.88
242.43	9.88
243.229	11.88
244.027	13.88
244.826	16.88
245.624	13.88
246.422	13.88
247.22	14.88
248.018	12.88
248.816	14.88
249.614	12.88
250.412	16.88
251.21	15.88
252.007	12.88
252.805	16.88
253.602	16.88
254.4	16.88
255.197	17.88
255.994	20.88
256.791	18.88
257.589	18.88
258.386	21.88
259.183	17.88
259.979	23.88
260.776	21.88
261.573	25.88
262.37	26.88
263.166	25.88
263.963	23.88
264.759	26.88
265.556	23.88
266.352	26.88
267.148	24.88
267.944	27.88
268.74	28.88
269.536	26.88
270.332	26.88
271.128	30.88
271.924	30.88
272.719	30.88
273.515	30.88
274.311	31.88
275.106	32.88
275.901	33.88
276.697	34.88
277.492	31.88
278.287	31.88
279.082	33.88
279.877	35.88
280.672	36.88
281.467	33.88
282.262	30.88
283.056	32.88
283.851	32.88
284.646	32.88
285.44	33.88
286.234	30.88
287.029	32.88
287.823	31.88
288.617	31.88
289.411	30.88
290.205	30.88
290.999	30.88
291.793	29.88
292.587	31.88
293.381	33.88
294.174	29.88
294.968	28.88
295.761	26.88
296.555	27.88
297.348	27.88
298.141	24.88
298.935	28.88
299.728	25.88
300.521	24.88
301.314	22.88
302.107	24.88
302.899	20.88
303.692	21.88
304.485	20.88
305.277	21.88
306.07	21.88
306.862	19.88
307.655	21.88
308.447	21.88
309.239	22.88
310.031	15.88
310.823	16.88
311.615	18.88
312.407	17.88
313.199	18.88
313.991	15.88
314.783	15.88
315.574	14.88
316.366	14.88
317.157	18.88
317.949	14.88
318.74	14.88
319.531	14.88
320.322	13.88
321.113	13.88
321.904	13.88
322.695	13.88
323.486	11.88
324.277	13.88
325.068	10.88
325.858	13.88
326.649	13.88
327.439	11.88
328.23	10.88
329.02	10.88
329.81	13.88
330.6	10.88
331.391	10.88
332.181	13.88
332.971	10.88
333.76	11.88
334.55	11.88
335.34	10.88
336.13	11.88
336.919	12.88
337.709	9.88
338.498	9.88
339.287	9.88
340.077	11.88
340.866	8.88
341.655	10.88
342.444	10.88
343.233	10.88
344.022	10.88
344.811	9.88
345.6	9.88
346.388	8.88
347.177	13.88
347.965	8.88
348.754	9.88
349.542	10.88
350.33	9.88
351.119	11.88
351.907	10.88
352.695	10.88
353.483	9.88
354.271	9.88
355.059	10.88
355.846	6.88
356.634	8.88
357.422	10.88
358.209	10.88
358.997	6.88
359.784	10.88
360.571	10.88
361.359	10.88
362.146	11.88
362.933	10.88
363.72	8.88
364.507	7.88
365.294	8.88
366.081	7.88
366.867	9.88
367.654	9.88
368.44	10.88
369.227	8.88
370.013	7.88
370.8	8.88
371.586	10.88
372.372	7.88
373.158	8.88
373.944	7.88
374.73	8.88
375.516	10.88
376.302	10.88
377.088	9.88
377.873	8.88
378.659	8.88
379.445	10.88
380.23	7.88
381.015	10.88
381.801	8.88
382.586	9.88
383.371	9.88
384.156	9.88
384.941	10.88
385.726	9.88
386.511	7.88
387.296	10.88
388.08	12.88
388.865	10.88
389.649	9.88
390.434	11.88
391.218	9.88
392.003	13.88
392.787	9.88
393.571	13.88
394.355	9.88
395.139	10.88
395.923	11.88
396.707	12.88
397.491	11.88
398.274	14.88
399.058	12.88
399.842	11.88
400.625	12.88
401.408	12.88
402.192	12.88
402.975	14.88
403.758	14.88
404.541	11.88
405.324	14.88
406.107	12.88
406.89	14.88
407.673	15.88
408.456	14.88
409.238	17.88
410.021	15.88
410.803	16.88
411.586	15.88
412.368	15.88
413.151	14.88
413.933	14.88
414.715	18.88
415.497	19.88
416.279	16.88
417.061	18.88
417.843	18.88
418.624	18.88
419.406	17.88
420.188	20.88
420.969	20.88
421.751	19.88
422.532	21.88
423.313	23.88
424.095	23.88
424.876	23.88
425.657	26.88
426.438	23.88
427.219	26.88
428	26.88
428.78	26.88
429.561	25.88
430.342	29.88
431.122	27.88
431.903	30.88
432.683	29.88
433.464	33.88
434.244	35.88
435.024	38.88
435.804	36.88
436.584	42.88
437.364	46.88
438.144	48.88
438.924	47.88
439.704	49.88
440.483	54.88
441.263	62.88
442.042	65.88
442.822	66.88
443.601	74.88
444.38	78.88
445.16	86.88
445.939	88.88
446.718	99.88
447.497	107.88
448.276	115.88
449.054	125.88
449.833	145.88
450.612	153.88
451.391	171.88
452.169	185.88
452.948	205.88
453.726	235.88
454.504	260.88
455.282	287.88
456.061	323.88
456.839	359.88
457.617	396.88
458.395	441.88
459.172	498.88
459.95	555.88
460.728	607.88
461.506	682.88
462.283	772.88
463.061	861.88
463.838	958.88
464.615	1056.88
465.393	1190.88
466.17	1313.88
466.947	1457.88
467.724	1631.88
468.501	1806.88
469.278	2007.88
470.055	2218.88
470.831	2456.88
471.608	2686.88
472.385	2990.88
473.161	3259.88
473.938	3586.88
474.714	3960.88
475.49	4331.88
476.266	4760.88
477.043	5220.88
477.819	5695.88
478.595	6267.88
479.371	6828.88
480.146	7424.88
480.922	8121.88
481.698	8837.88
482.473	9671.88
483.249	10512.88
484.024	11436.88
484.8	12357.88
485.575	13413.88
486.35	14601.88
487.126	15778.88
487.901	17038.88
488.676	18393.88
489.451	19872.88
490.225	21419.88
491	22969.88
491.775	24593.88
492.55	26240.88
493.324	28010.88
494.099	29686.88
494.873	31473.88
495.647	33178.88
496.422	35105.88
497.196	36746.88
497.97	38379.88
498.744	39826.88
499.518	41487.88
500.292	42791.88
501.066	43719.88
501.839	44615.88
502.613	45326.88
503.387	45989.88
504.16	46319.88
504.934	46366.88
505.707	46365.88
506.48	46015.88
507.253	45430.88
508.027	44796.88
508.8	43804.88
509.573	42690.88
510.346	41754.88
511.118	40579.88
511.891	39465.88
512.664	37857.88
513.437	36490.88
514.209	35178.88
514.982	33743.88
515.754	32412.88
516.526	31046.88
517.298	29795.88
518.071	28565.88
518.843	27448.88
519.615	26344.88
520.387	25374.88
521.159	24390.88
521.93	23254.88
522.702	22276.88
523.474	21362.88
524.245	20490.88
525.017	19561.88
525.788	18668.88
526.56	17861.88
527.331	17108.88
528.102	16229.88
528.873	15390.88
529.644	14730.88
530.415	14017.88
531.186	13364.88
531.957	12621.88
532.728	11962.88
533.498	11346.88
534.269	10713.88
535.039	10175.88
535.81	9601.88
536.58	9092.88
537.351	8621.88
538.121	8192.88
538.891	7719.88
539.661	7310.88
540.431	6917.88
541.201	6567.88
541.971	6192.88
542.741	5886.88
543.51	5573.88
544.28	5310.88
545.05	5073.88
545.819	4814.88
546.588	4608.88
547.358	4391.88
548.127	4173.88
548.896	3963.88
549.665	3738.88
550.434	3521.88
551.203	3369.88
551.972	3188.88
552.741	3034.88
553.51	2840.88
554.278	2687.88
555.047	2554.88
555.815	2418.88
556.584	2275.88
557.352	2153.88
558.121	2037.88
558.889	1898.88
559.657	1797.88
560.425	1718.88
561.193	1629.88
561.961	1545.88
562.729	1440.88
563.496	1364.88
564.264	1304.88
565.032	1224.88
565.799	1153.88
566.567	1106.88
567.334	1040.88
568.101	988.88
568.869	922.88
569.636	866.88
570.403	822.88
571.17	782.88
571.937	740.88
572.704	698.88
573.471	657.88
574.237	614.88
575.004	583.88
575.771	545.88
576.537	519.88
577.303	492.88
578.07	473.88
578.836	435.88
579.602	410.88
580.368	398.88
581.134	372.88
581.9	361.88
582.666	337.88
583.432	316.88
584.198	300.88
584.964	297.88
585.729	279.88
586.495	260.88
587.26	247.88
588.025	232.88
588.791	224.88
589.556	207.88
590.321	194.88
591.086	196.88
591.851	174.88
592.616	172.88
593.381	166.88
594.146	162.88
594.911	150.88
595.675	137.88
596.44	139.88
597.204	127.88
597.969	126.88
598.733	121.88
599.497	111.88
600.261	107.88
601.025	101.88
601.79	100.88
602.553	98.88
603.317	91.88
604.081	86.88
604.845	83.88
605.609	81.88
606.372	77.88
607.136	73.88
607.899	73.88
608.662	69.88
609.426	66.88
610.189	66.88
610.952	62.88
611.715	59.88
612.478	56.88
613.241	57.88
614.004	52.88
614.767	52.88
615.529	47.88
616.292	48.88
617.055	49.88
617.817	42.88
618.579	44.88
619.342	42.88
620.104	38.88
620.866	42.88
621.628	37.88
622.39	38.88
623.152	37.88
623.914	36.88
624.676	33.88
625.438	32.88
626.199	33.88
626.961	29.88
627.722	29.88
628.484	31.88
629.245	28.88
630.006	27.88
630.768	25.88
631.529	28.88
632.29	25.88
633.051	25.88
633.812	22.88
634.573	18.88
635.333	21.88
636.094	19.88
636.855	20.88
637.615	20.88
638.376	22.88
639.136	20.88
639.896	18.88
640.657	16.88
641.417	18.88
642.177	19.88
642.937	17.88
643.697	14.88
644.457	14.88
645.216	16.88
645.976	16.88
646.736	14.88
647.495	13.88
648.255	15.88
649.014	11.88
649.774	15.88
650.533	13.88
651.292	14.88
652.051	16.88
652.81	12.88
653.569	13.88
654.328	11.88
655.087	12.88
655.846	11.88
656.604	12.88
657.363	10.88
658.121	9.88
658.88	13.88
659.638	11.88
660.397	11.88
661.155	12.88
661.913	9.88
662.671	11.88
663.429	8.88
664.187	11.88
664.945	10.88
665.703	11.88
666.46	10.88
667.218	7.88
667.976	8.88
668.733	9.88
669.49	8.88
670.248	7.88
671.005	8.88
671.762	9.88
672.519	9.88
673.276	8.88
674.033	7.88
674.79	8.88
675.547	5.88
676.304	7.88
677.06	10.88
677.817	6.88
678.574	7.88
679.33	11.88
680.086	8.88
680.843	6.88
681.599	7.88
682.355	10.88
683.111	8.88
683.867	7.88
684.623	9.88
685.379	7.88
686.135	9.88
686.89	8.88
687.646	8.88
688.402	8.88
689.157	7.88
689.912	6.88
690.668	4.88
691.423	6.88
692.178	5.88
692.933	9.88
693.688	7.88
694.443	7.88
695.198	7.88
695.953	6.88
696.708	7.88
697.462	6.88
698.217	5.88
698.972	7.88
699.726	5.88
700.48	7.88
701.235	7.88
701.989	6.88
702.743	7.88
703.497	8.88
704.251	6.88
705.005	5.88
705.759	5.88
706.513	7.88
707.266	7.88
708.02	5.88
708.774	6.88
709.527	5.88
710.28	8.88
711.034	6.88
711.787	8.88
712.54	6.88
713.293	7.88
714.046	5.88
714.799	8.88
715.552	6.88
716.305	4.88
717.058	6.88
717.81	6.88
718.563	7.88
719.315	7.88
720.068	5.88
720.82	9.88
721.573	6.88
722.325	7.88
723.077	8.88
723.829	7.88
724.581	9.88
725.333	9.88
726.085	7.88
726.836	8.88
727.588	6.88
728.34	6.88
729.091	8.88
729.843	6.88
730.594	8.88
731.346	8.88
732.097	7.88
732.848	8.88
733.599	9.88
734.35	11.88
735.101	7.88
735.852	7.88
736.603	8.88
737.354	7.88
738.104	6.88
738.855	6.88
739.605	11.88
740.356	7.88
741.106	8.88
741.856	9.88
742.607	10.88
743.357	9.88
744.107	8.88
744.857	9.88
745.607	10.88
746.357	10.88
747.106	8.88
747.856	8.88
748.606	9.88
749.355	9.88
750.105	9.88
750.854	11.88
751.603	8.88
752.353	12.88
753.102	11.88
753.851	11.88
754.6	11.88
755.349	9.88
756.098	12.88
756.847	10.88
757.595	11.88
758.344	10.88
759.093	12.88
759.841	13.88
760.589	10.88
761.338	14.88
762.086	12.88
762.834	11.88
763.582	13.88
764.331	12.88
765.079	12.88
765.826	12.88
766.574	13.88
767.322	13.88
768.07	14.88
768.817	16.88
769.565	12.88
770.312	12.88
771.06	12.88
771.807	12.88
772.554	14.88
773.302	14.88
774.049	15.88
774.796	14.88
775.543	13.88
776.29	14.88
777.036	13.88
777.783	15.88
778.53	14.88
779.276	14.88
780.023	16.88
780.769	14.88
781.516	18.88
782.262	18.88
783.008	15.88
783.754	13.88
784.5	15.88
785.246	14.88
785.992	15.88
786.738	16.88
787.484	14.88
788.23	15.88
788.975	12.88
789.721	14.88
790.466	18.88
791.212	12.88
791.957	14.88
792.702	13.88
793.447	12.88
794.193	13.88
794.938	13.88
795.683	13.88
796.427	10.88
797.172	13.88
797.917	10.88
798.662	12.88
799.406	14.88
800.151	10.88
800.895	10.88
801.64	12.88
802.384	11.88
803.128	10.88
803.872	10.88
804.616	10.88
805.36	10.88
806.104	10.88
806.848	10.88
807.592	8.88
808.336	10.88
809.079	9.88
809.823	10.88
810.566	9.88
811.31	10.88
812.053	7.88
812.796	7.88
813.539	9.88
814.283	9.88
815.026	9.88
815.769	8.88
816.511	7.88
817.254	8.88
817.997	7.88
818.74	7.88
819.482	7.88
820.225	7.88
820.967	7.88
821.71	10.88
822.452	4.88
823.194	6.88
823.936	6.88
824.678	5.88
825.42	7.88
826.162	7.88
826.904	6.88
827.646	5.88
828.388	5.88
829.129	8.88
829.871	4.88
830.612	6.88
831.354	4.88
832.095	3.88
832.836	6.88
833.577	4.88
834.319	5.88
835.06	4.88
835.801	6.88
836.542	3.88
837.282	4.88
838.023	4.88
838.764	7.88
839.504	8.88
840.245	5.88
840.985	7.88
841.726	6.88
842.466	5.88
843.206	4.88
843.946	4.88
844.687	4.88
845.427	6.88
846.166	5.88
846.906	7.88
847.646	5.88
848.386	3.88
849.125	5.88
849.865	2.88
850.605	4.88
851.344	4.88
852.083	3.88
852.823	6.88
853.562	3.88
854.301	2.88
855.04	2.88
855.779	4.88
856.518	2.88
857.257	4.88
857.995	3.88
858.734	2.88
859.473	2.88
860.211	2.88
860.95	4.88
861.688	3.88
862.426	3.88
863.165	3.88
863.903	2.88
864.641	2.88
865.379	4.88
866.117	2.88
866.855	4.88
867.593	2.88
868.33	2.88
869.068	0.88
869.806	1.88
870.543	0.88
871.28	3.88
872.018	2.88
872.755	1.88
873.492	2.88
874.229	2.88
874.967	1.88
875.703	0.88
876.44	2.88
877.177	2.88
877.914	2.88
878.651	1.88
879.387	-1.12
880.124	2.88
880.86	1.88
881.597	2.88
882.333	1.88
883.069	0.88
883.806	1.88
884.542	1.88
885.278	2.88
886.014	0.88
886.749	-1.12
887.485	1.88
888.221	0.88
888.957	0.88
889.692	2.88
890.428	2.88
891.163	2.88
891.899	-1.12
892.634	0.88
893.369	0.88
894.104	0.88
894.839	-0.12
895.574	0.88
896.309	1.88
897.044	-0.12
897.779	2.88
898.514	0.88
899.248	-0.12
899.983	0.88
900.717	-2.12
901.452	-1.12
902.186	-1.12
902.92	0.88
903.654	-0.12
904.389	-1.12
905.123	0.88
905.857	-1.12
906.59	0.88
907.324	2.88
908.058	-1.12
908.792	-0.12
909.525	-2.12
910.259	1.88
910.992	0.88
911.726	1.88
912.459	-0.12
913.192	-2.12
913.925	0.88
914.658	-2.12
915.391	0.88
916.124	1.88
916.857	-0.12
917.59	1.88
918.323	-0.12
919.055	-0.12
919.788	-1.12
920.521	-0.12
921.253	-0.12
921.985	1.88
922.718	-0.12
923.45	-2.12
924.182	0.88
924.914	-0.12
925.646	-0.12
926.378	1.88
927.11	-0.12
927.841	0.88
928.573	-1.12
929.305	-1.12
930.036	0.88
930.768	1.88
931.499	-0.12
932.23	0.88
932.962	-0.12
933.693	-2.12
934.424	-0.12
935.155	-0.12
935.886	-0.12
936.617	0.88
937.348	0.88
938.078	-2.12
938.809	-3.12
939.54	-3.12
940.27	1.88
941.001	-0.12
941.731	1.88
942.461	-0.12
943.191	1.88
943.922	1.88
944.652	-2.12
945.382	-1.12
946.112	-1.12
946.841	1.88
947.571	1.88
948.301	-0.12
949.031	1.88
949.76	-1.12
950.49	-1.12
951.219	-1.12
951.948	-1.12
952.678	-2.12
953.407	2.88
954.136	0.88
954.865	-0.12
955.594	0.88
956.323	-0.12
957.052	-1.12
957.78	1.88
958.509	-1.12
959.238	1.88
959.966	-1.12
960.695	0.88
961.423	-1.12
962.151	-0.12
962.88	1.88
963.608	-1.12
964.336	-0.12
965.064	-0.12
965.792	-0.12
966.52	0.88
967.247	0.88
967.975	-0.12
968.703	-0.12
969.43	1.88
970.158	1.88
970.885	-1.12
971.613	-0.12
972.34	0.88
973.067	0.88
973.794	-0.12
974.521	0.88
975.248	-0.12
975.975	-0.12
976.702	0.88
977.429	0.88
978.156	1.88
978.882	0.88
979.609	-1.12
980.335	0.88
981.062	-1.12
981.788	1.88
982.514	-0.12
983.24	1.88
983.967	-0.12
984.693	-0.12
985.419	-2.12
986.144	-1.12
986.87	-0.12
987.596	1.88
988.322	0.88
989.047	0.88
989.773	-0.12
990.498	-1.12
991.224	-1.12
991.949	-0.12
992.674	-1.12
993.399	-2.12
994.124	0.88
994.849	-0.12
995.574	1.88
996.299	-0.12
997.024	0.88
997.749	-0.12
998.473	-1.12
999.198	-2.12
999.922	-2.12
1000.647	0.88
1001.371	5.88
1002.095	-2.12
1002.82	-1.12
1003.544	-2.12
1004.268	4.88
1004.992	4.88
1005.716	2.88
1006.439	5.88
1007.163	4.88
1007.887	3.88
1008.611	0.88
1009.334	0.88
1010.058	2.88
1010.781	-1.12
1011.504	-0.12
1012.228	1.88
1012.951	-0.12
1013.674	0.88
1014.397	-1.12
1015.12	-0.12
