节点500_705_QEPB04081__177__20-48-47-058.txt的数据

Date: Wed Nov 12 20:48:47 CST 2025
User: PC
Spectrometer: QEPB0408
触发模式: 0
积分时间 (秒): 1.000000E-2
Scans to average: 1
启用暗噪声校正: true
启用非线性校正: false
滑动平均宽度: 0
X轴模式: Wavelengths
Number of Pixels in Spectrum: 1044
>>>>>Begin Spectral Data<<<<<
220.843	6
221.644	7
222.444	6
223.244	6
224.045	7
224.845	5
225.645	6
226.445	9
227.245	8
228.045	10
228.845	7
229.645	10
230.444	9
231.244	8
232.043	9
232.843	10
233.642	11
234.442	12
235.241	12
236.04	11
236.839	11
237.638	8
238.437	13
239.236	13
240.035	11
240.833	12
241.632	14
242.43	14
243.229	13
244.027	14
244.826	14
245.624	13
246.422	14
247.22	14
248.018	17
248.816	15
249.614	17
250.412	17
251.21	17
252.007	17
252.805	19
253.602	19
254.4	20
255.197	21
255.994	22
256.791	21
257.589	20
258.386	24
259.183	25
259.979	22
260.776	25
261.573	25
262.37	25
263.166	27
263.963	26
264.759	27
265.556	29
266.352	27
267.148	29
267.944	30
268.74	31
269.536	33
270.332	32
271.128	32
271.924	31
272.719	30
273.515	35
274.311	37
275.106	34
275.901	34
276.697	35
277.492	36
278.287	36
279.082	36
279.877	35
280.672	33
281.467	34
282.262	35
283.056	36
283.851	38
284.646	38
285.44	34
286.234	34
287.029	34
287.823	30
288.617	35
289.411	31
290.205	31
290.999	34
291.793	34
292.587	30
293.381	33
294.174	29
294.968	29
295.761	27
296.555	25
297.348	27
298.141	28
298.935	29
299.728	27
300.521	24
301.314	25
302.107	24
302.899	26
303.692	22
304.485	21
305.277	23
306.07	21
306.862	20
307.655	21
308.447	21
309.239	23
310.031	21
310.823	23
311.615	16
312.407	19
313.199	16
313.991	19
314.783	19
315.574	15
316.366	17
317.157	16
317.949	18
318.74	16
319.531	17
320.322	16
321.113	15
321.904	16
322.695	14
323.486	13
324.277	14
325.068	11
325.858	15
326.649	13
327.439	13
328.23	12
329.02	12
329.81	14
330.6	12
331.391	13
332.181	9
332.971	12
333.76	13
334.55	12
335.34	13
336.13	11
336.919	13
337.709	12
338.498	14
339.287	10
340.077	11
340.866	14
341.655	13
342.444	11
343.233	14
344.022	14
344.811	8
345.6	13
346.388	11
347.177	13
347.965	11
348.754	13
349.542	11
350.33	10
351.119	11
351.907	11
352.695	9
353.483	11
354.271	10
355.059	10
355.846	10
356.634	11
357.422	12
358.209	13
358.997	13
359.784	10
360.571	13
361.359	10
362.146	10
362.933	10
363.72	9
364.507	10
365.294	10
366.081	10
366.867	9
367.654	8
368.44	9
369.227	11
370.013	9
370.8	9
371.586	12
372.372	11
373.158	10
373.944	9
374.73	10
375.516	8
376.302	9
377.088	11
377.873	10
378.659	10
379.445	10
380.23	10
381.015	10
381.801	12
382.586	11
383.371	10
384.156	10
384.941	11
385.726	11
386.511	11
387.296	13
388.08	13
388.865	12
389.649	11
390.434	10
391.218	12
392.003	10
392.787	11
393.571	14
394.355	11
395.139	14
395.923	13
396.707	12
397.491	16
398.274	13
399.058	12
399.842	13
400.625	13
401.408	14
402.192	16
402.975	16
403.758	15
404.541	14
405.324	14
406.107	16
406.89	15
407.673	18
408.456	16
409.238	13
410.021	15
410.803	19
411.586	19
412.368	18
413.151	18
413.933	20
414.715	16
415.497	21
416.279	20
417.061	23
417.843	17
418.624	19
419.406	24
420.188	22
420.969	22
421.751	23
422.532	21
423.313	22
424.095	25
424.876	25
425.657	27
426.438	26
427.219	28
428	30
428.78	28
429.561	28
430.342	34
431.122	34
431.903	34
432.683	37
433.464	35
434.244	36
435.024	40
435.804	42
436.584	41
437.364	45
438.144	47
438.924	50
439.704	56
440.483	54
441.263	56
442.042	66
442.822	68
443.601	72
444.38	80
445.16	85
445.939	92
446.718	96
447.497	107
448.276	116
449.054	129
449.833	147
450.612	155
451.391	169
452.169	187
452.948	210
453.726	227
454.504	259
455.282	282
456.061	316
456.839	349
457.617	397
458.395	439
459.172	489
459.95	558
460.728	631
461.506	685
462.283	761
463.061	872
463.838	952
464.615	1061
465.393	1194
466.17	1308
466.947	1475
467.724	1629
468.501	1834
469.278	2024
470.055	2245
470.831	2488
471.608	2767
472.385	3023
473.161	3351
473.938	3711
474.714	4049
475.49	4459
476.266	4928
477.043	5431
477.819	5904
478.595	6492
479.371	7094
480.146	7787
480.922	8532
481.698	9278
482.473	10155
483.249	11048
484.024	12034
484.8	13051
485.575	14177
486.35	15476
487.126	16755
487.901	18126
488.676	19637
489.451	21259
490.225	22912
491	24535
491.775	26251
492.55	28139
493.324	30010
494.099	31787
494.873	33707
495.647	35684
496.422	37452
497.196	39437
497.97	41003
498.744	42472
499.518	44142
500.292	45483
501.066	46486
501.839	47277
502.613	47833
503.387	48477
504.16	48741
504.934	48776
505.707	48476
506.48	47931
507.253	47339
508.027	46446
508.8	45298
509.573	44064
510.346	42962
511.118	41724
511.891	40304
512.664	38754
513.437	37171
514.209	35718
514.982	34272
515.754	32763
516.526	31489
517.298	30267
518.071	28992
518.843	27822
519.615	26678
520.387	25676
521.159	24677
521.93	23597
522.702	22553
523.474	21628
524.245	20698
525.017	19760
525.788	18888
526.56	18070
527.331	17234
528.102	16350
528.873	15497
529.644	14747
530.415	14097
531.186	13386
531.957	12671
532.728	12008
533.498	11347
534.269	10695
535.039	10127
535.81	9588
536.58	9069
537.351	8567
538.121	8167
538.891	7726
539.661	7301
540.431	6860
541.201	6575
541.971	6181
542.741	5886
543.51	5579
544.28	5321
545.05	5047
545.819	4817
546.588	4585
547.358	4374
548.127	4169
548.896	3951
549.665	3714
550.434	3544
551.203	3357
551.972	3165
552.741	2997
553.51	2830
554.278	2664
555.047	2507
555.815	2363
556.584	2242
557.352	2137
558.121	1998
558.889	1893
559.657	1802
560.425	1711
561.193	1612
561.961	1518
562.729	1436
563.496	1346
564.264	1288
565.032	1212
565.799	1160
566.567	1082
567.334	1034
568.101	971
568.869	914
569.636	870
570.403	826
571.17	779
571.937	723
572.704	693
573.471	666
574.237	612
575.004	575
575.771	549
576.537	513
577.303	486
578.07	466
578.836	432
579.602	411
580.368	386
581.134	378
581.9	350
582.666	329
583.432	319
584.198	305
584.964	289
585.729	273
586.495	260
587.26	239
588.025	229
588.791	221
589.556	213
590.321	197
591.086	189
591.851	176
592.616	171
593.381	164
594.146	151
594.911	150
595.675	143
596.44	143
597.204	131
597.969	125
598.733	119
599.497	117
600.261	109
601.025	102
601.79	101
602.553	98
603.317	91
604.081	88
604.845	85
605.609	79
606.372	81
607.136	75
607.899	69
608.662	72
609.426	67
610.189	68
610.952	64
611.715	62
612.478	60
613.241	58
614.004	55
614.767	51
615.529	48
616.292	48
617.055	46
617.817	47
618.579	46
619.342	43
620.104	39
620.866	40
621.628	36
622.39	34
623.152	35
623.914	36
624.676	38
625.438	34
626.199	29
626.961	31
627.722	28
628.484	32
629.245	31
630.006	26
630.768	26
631.529	25
632.29	27
633.051	23
633.812	22
634.573	23
635.333	24
636.094	22
636.855	21
637.615	22
638.376	20
639.136	21
639.896	21
640.657	20
641.417	17
642.177	18
642.937	19
643.697	17
644.457	17
645.216	15
645.976	15
646.736	16
647.495	16
648.255	16
649.014	15
649.774	14
650.533	15
651.292	12
652.051	14
652.81	14
653.569	14
654.328	14
655.087	13
655.846	11
656.604	14
657.363	13
658.121	11
658.88	11
659.638	9
660.397	11
661.155	12
661.913	12
662.671	12
663.429	12
664.187	9
664.945	11
665.703	9
666.46	9
667.218	9
667.976	11
668.733	9
669.49	9
670.248	11
671.005	9
671.762	8
672.519	9
673.276	9
674.033	11
674.79	7
675.547	9
676.304	8
677.06	10
677.817	6
678.574	8
679.33	13
680.086	8
680.843	9
681.599	10
682.355	11
683.111	9
683.867	10
684.623	8
685.379	8
686.135	7
686.89	9
687.646	8
688.402	8
689.157	9
689.912	7
690.668	7
691.423	7
692.178	9
692.933	7
693.688	10
694.443	7
695.198	7
695.953	8
696.708	7
697.462	8
698.217	6
698.972	7
699.726	9
700.48	6
701.235	8
701.989	6
702.743	6
703.497	9
704.251	9
705.005	7
705.759	9
706.513	9
707.266	7
708.02	9
708.774	8
709.527	10
710.28	7
711.034	8
711.787	9
712.54	8
713.293	8
714.046	9
714.799	7
715.552	3
716.305	7
717.058	8
717.81	10
718.563	8
719.315	9
720.068	7
720.82	9
721.573	7
722.325	9
723.077	9
723.829	7
724.581	7
725.333	9
726.085	8
726.836	8
727.588	7
728.34	8
729.091	9
729.843	10
730.594	8
731.346	10
732.097	9
732.848	9
733.599	11
734.35	9
735.101	9
735.852	8
736.603	10
737.354	10
738.104	9
738.855	12
739.605	8
740.356	12
741.106	10
741.856	13
742.607	9
743.357	11
744.107	12
744.857	11
745.607	11
746.357	12
747.106	9
747.856	13
748.606	10
749.355	12
750.105	10
750.854	15
751.603	10
752.353	12
753.102	13
753.851	13
754.6	12
755.349	12
756.098	13
756.847	14
757.595	12
758.344	14
759.093	14
759.841	12
760.589	13
761.338	14
762.086	13
762.834	14
763.582	14
764.331	15
765.079	13
765.826	15
766.574	12
767.322	15
768.07	15
768.817	15
769.565	16
770.312	15
771.06	15
771.807	14
772.554	15
773.302	15
774.049	13
774.796	15
775.543	13
776.29	17
777.036	19
777.783	17
778.53	15
779.276	16
780.023	14
780.769	17
781.516	16
782.262	18
783.008	16
783.754	18
784.5	14
785.246	16
785.992	17
786.738	14
787.484	17
788.23	14
788.975	15
789.721	13
790.466	15
791.212	15
791.957	15
792.702	15
793.447	11
794.193	16
794.938	16
795.683	12
796.427	15
797.172	14
797.917	14
798.662	11
799.406	12
800.151	14
800.895	12
801.64	13
802.384	12
803.128	13
803.872	14
804.616	11
805.36	14
806.104	11
806.848	8
807.592	11
808.336	9
809.079	10
809.823	12
810.566	13
811.31	8
812.053	9
812.796	8
813.539	9
814.283	9
815.026	8
815.769	8
816.511	10
817.254	8
817.997	8
818.74	6
819.482	8
820.225	8
820.967	10
821.71	9
822.452	6
823.194	6
823.936	7
824.678	8
825.42	7
826.162	6
826.904	7
827.646	9
828.388	8
829.129	8
829.871	7
830.612	5
831.354	5
832.095	6
832.836	6
833.577	5
834.319	5
835.06	6
835.801	6
836.542	8
837.282	6
838.023	7
838.764	5
839.504	5
840.245	6
840.985	9
841.726	5
842.466	4
843.206	5
843.946	7
844.687	6
845.427	5
846.166	6
846.906	6
847.646	6
848.386	6
849.125	4
849.865	2
850.605	6
851.344	6
852.083	2
852.823	6
853.562	2
854.301	4
855.04	5
855.779	4
856.518	2
857.257	4
857.995	2
858.734	4
859.473	5
860.211	5
860.95	5
861.688	5
862.426	2
863.165	2
863.903	2
864.641	2
865.379	5
866.117	1
866.855	5
867.593	3
868.33	2
869.068	4
869.806	2
870.543	1
871.28	2
872.018	4
872.755	4
873.492	3
874.229	1
874.967	1
875.703	4
876.44	2
877.177	4
877.914	3
878.651	3
879.387	2
880.124	5
880.86	1
881.597	1
882.333	2
883.069	1
883.806	3
884.542	1
885.278	1
886.014	1
886.749	4
887.485	1
888.221	1
888.957	2
889.692	2
890.428	-1
891.163	4
891.899	1
892.634	1
893.369	3
894.104	0
894.839	2
895.574	1
896.309	3
897.044	4
897.779	1
898.514	1
899.248	2
899.983	3
900.717	1
901.452	-1
902.186	0
902.92	-1
903.654	1
904.389	-1
905.123	1
905.857	2
906.59	1
907.324	2
908.058	1
908.792	2
909.525	3
910.259	0
910.992	0
911.726	1
912.459	0
913.192	0
913.925	3
914.658	1
915.391	-1
916.124	3
916.857	1
917.59	0
918.323	2
919.055	2
919.788	1
920.521	0
921.253	5
921.985	-1
922.718	1
923.45	0
924.182	1
924.914	2
925.646	0
926.378	1
927.11	0
927.841	1
928.573	1
929.305	2
930.036	1
930.768	-2
931.499	0
932.23	2
932.962	0
933.693	-1
934.424	-1
935.155	2
935.886	-1
936.617	1
937.348	1
938.078	2
938.809	0
939.54	-1
940.27	-2
941.001	1
941.731	0
942.461	1
943.191	1
943.922	-1
944.652	-1
945.382	1
946.112	-1
946.841	1
947.571	1
948.301	1
949.031	-1
949.76	1
950.49	1
951.219	2
951.948	0
952.678	1
953.407	0
954.136	2
954.865	1
955.594	1
956.323	2
957.052	-1
957.78	0
958.509	2
959.238	0
959.966	2
960.695	-1
961.423	1
962.151	0
962.88	2
963.608	2
964.336	0
965.064	1
965.792	0
966.52	1
967.247	-2
967.975	1
968.703	-1
969.43	0
970.158	0
970.885	1
971.613	2
972.34	-2
973.067	1
973.794	2
974.521	1
975.248	2
975.975	-1
976.702	0
977.429	4
978.156	-1
978.882	1
979.609	0
980.335	1
981.062	0
981.788	-1
982.514	1
983.24	0
983.967	0
984.693	1
985.419	2
986.144	2
986.87	1
987.596	0
988.322	1
989.047	1
989.773	-1
990.498	2
991.224	-1
991.949	1
992.674	0
993.399	-2
994.124	1
994.849	2
995.574	3
996.299	0
997.024	0
997.749	2
998.473	0
999.198	1
999.922	1
1000.647	1
1001.371	5
1002.095	-2
1002.82	-1
1003.544	-1
1004.268	6
1004.992	4
1005.716	5
1006.439	6
1007.163	6
1007.887	7
1008.611	1
1009.334	-2
1010.058	3
1010.781	1
1011.504	1
1012.228	1
1012.951	0
1013.674	0
1014.397	-1
1015.12	0
