节点500_705_QEPB04081__429__20-52-00-706.txt的数据

Date: Wed Nov 12 20:52:00 CST 2025
User: PC
Spectrometer: QEPB0408
触发模式: 0
积分时间 (秒): 1.000000E-2
Scans to average: 1
启用暗噪声校正: true
启用非线性校正: false
滑动平均宽度: 0
X轴模式: Wavelengths
Number of Pixels in Spectrum: 1044
>>>>>Begin Spectral Data<<<<<
220.843	6.88
221.644	5.88
222.444	1.88
223.244	4.88
224.045	4.88
224.845	9.88
225.645	5.88
226.445	8.88
227.245	5.88
228.045	6.88
228.845	6.88
229.645	8.88
230.444	8.88
231.244	8.88
232.043	8.88
232.843	8.88
233.642	7.88
234.442	13.88
235.241	8.88
236.04	11.88
236.839	7.88
237.638	11.88
238.437	9.88
239.236	10.88
240.035	9.88
240.833	13.88
241.632	10.88
242.43	6.88
243.229	12.88
244.027	11.88
244.826	11.88
245.624	11.88
246.422	14.88
247.22	13.88
248.018	15.88
248.816	14.88
249.614	17.88
250.412	14.88
251.21	14.88
252.007	17.88
252.805	20.88
253.602	15.88
254.4	14.88
255.197	18.88
255.994	15.88
256.791	21.88
257.589	17.88
258.386	21.88
259.183	19.88
259.979	20.88
260.776	21.88
261.573	19.88
262.37	22.88
263.166	18.88
263.963	22.88
264.759	24.88
265.556	25.88
266.352	27.88
267.148	26.88
267.944	25.88
268.74	25.88
269.536	26.88
270.332	25.88
271.128	29.88
271.924	29.88
272.719	32.88
273.515	29.88
274.311	31.88
275.106	28.88
275.901	32.88
276.697	31.88
277.492	35.88
278.287	28.88
279.082	33.88
279.877	31.88
280.672	32.88
281.467	32.88
282.262	30.88
283.056	34.88
283.851	32.88
284.646	31.88
285.44	33.88
286.234	33.88
287.029	34.88
287.823	34.88
288.617	34.88
289.411	30.88
290.205	30.88
290.999	29.88
291.793	30.88
292.587	33.88
293.381	29.88
294.174	28.88
294.968	29.88
295.761	26.88
296.555	24.88
297.348	25.88
298.141	31.88
298.935	25.88
299.728	25.88
300.521	23.88
301.314	23.88
302.107	26.88
302.899	21.88
303.692	20.88
304.485	21.88
305.277	21.88
306.07	22.88
306.862	17.88
307.655	22.88
308.447	18.88
309.239	20.88
310.031	17.88
310.823	17.88
311.615	20.88
312.407	18.88
313.199	18.88
313.991	18.88
314.783	14.88
315.574	15.88
316.366	16.88
317.157	16.88
317.949	14.88
318.74	15.88
319.531	13.88
320.322	11.88
321.113	15.88
321.904	11.88
322.695	13.88
323.486	13.88
324.277	12.88
325.068	10.88
325.858	12.88
326.649	12.88
327.439	12.88
328.23	12.88
329.02	13.88
329.81	13.88
330.6	13.88
331.391	11.88
332.181	12.88
332.971	14.88
333.76	14.88
334.55	12.88
335.34	11.88
336.13	12.88
336.919	10.88
337.709	13.88
338.498	9.88
339.287	11.88
340.077	12.88
340.866	9.88
341.655	12.88
342.444	12.88
343.233	9.88
344.022	11.88
344.811	7.88
345.6	10.88
346.388	10.88
347.177	14.88
347.965	12.88
348.754	8.88
349.542	13.88
350.33	9.88
351.119	12.88
351.907	9.88
352.695	14.88
353.483	10.88
354.271	9.88
355.059	9.88
355.846	9.88
356.634	9.88
357.422	12.88
358.209	7.88
358.997	9.88
359.784	10.88
360.571	10.88
361.359	9.88
362.146	9.88
362.933	6.88
363.72	7.88
364.507	9.88
365.294	7.88
366.081	9.88
366.867	8.88
367.654	8.88
368.44	5.88
369.227	8.88
370.013	8.88
370.8	9.88
371.586	8.88
372.372	7.88
373.158	10.88
373.944	8.88
374.73	7.88
375.516	10.88
376.302	9.88
377.088	9.88
377.873	8.88
378.659	10.88
379.445	9.88
380.23	9.88
381.015	7.88
381.801	8.88
382.586	9.88
383.371	6.88
384.156	8.88
384.941	11.88
385.726	9.88
386.511	10.88
387.296	9.88
388.08	9.88
388.865	10.88
389.649	10.88
390.434	10.88
391.218	10.88
392.003	7.88
392.787	12.88
393.571	11.88
394.355	12.88
395.139	10.88
395.923	12.88
396.707	12.88
397.491	11.88
398.274	12.88
399.058	14.88
399.842	14.88
400.625	11.88
401.408	13.88
402.192	15.88
402.975	13.88
403.758	12.88
404.541	12.88
405.324	15.88
406.107	12.88
406.89	9.88
407.673	14.88
408.456	14.88
409.238	16.88
410.021	15.88
410.803	16.88
411.586	15.88
412.368	14.88
413.151	16.88
413.933	16.88
414.715	17.88
415.497	16.88
416.279	16.88
417.061	17.88
417.843	18.88
418.624	18.88
419.406	19.88
420.188	19.88
420.969	22.88
421.751	23.88
422.532	24.88
423.313	22.88
424.095	22.88
424.876	23.88
425.657	26.88
426.438	26.88
427.219	28.88
428	24.88
428.78	29.88
429.561	28.88
430.342	28.88
431.122	28.88
431.903	29.88
432.683	34.88
433.464	34.88
434.244	33.88
435.024	38.88
435.804	42.88
436.584	44.88
437.364	46.88
438.144	46.88
438.924	51.88
439.704	54.88
440.483	51.88
441.263	58.88
442.042	66.88
442.822	72.88
443.601	77.88
444.38	82.88
445.16	89.88
445.939	93.88
446.718	102.88
447.497	108.88
448.276	128.88
449.054	137.88
449.833	150.88
450.612	164.88
451.391	178.88
452.169	198.88
452.948	221.88
453.726	248.88
454.504	275.88
455.282	304.88
456.061	341.88
456.839	381.88
457.617	420.88
458.395	479.88
459.172	528.88
459.95	586.88
460.728	652.88
461.506	728.88
462.283	809.88
463.061	909.88
463.838	990.88
464.615	1117.88
465.393	1229.88
466.17	1370.88
466.947	1520.88
467.724	1676.88
468.501	1869.88
469.278	2051.88
470.055	2276.88
470.831	2508.88
471.608	2753.88
472.385	3040.88
473.161	3349.88
473.938	3665.88
474.714	4028.88
475.49	4400.88
476.266	4834.88
477.043	5268.88
477.819	5726.88
478.595	6250.88
479.371	6803.88
480.146	7436.88
480.922	8110.88
481.698	8812.88
482.473	9554.88
483.249	10355.88
484.024	11196.88
484.8	12174.88
485.575	13124.88
486.35	14231.88
487.126	15413.88
487.901	16590.88
488.676	17877.88
489.451	19306.88
490.225	20722.88
491	22204.88
491.775	23724.88
492.55	25303.88
493.324	27024.88
494.099	28666.88
494.873	30443.88
495.647	32071.88
496.422	33785.88
497.196	35514.88
497.97	37171.88
498.744	38692.88
499.518	40280.88
500.292	41573.88
501.066	42638.88
501.839	43577.88
502.613	44464.88
503.387	45164.88
504.16	45687.88
504.934	45883.88
505.707	45929.88
506.48	45667.88
507.253	45385.88
508.027	44756.88
508.8	43976.88
509.573	43151.88
510.346	42143.88
511.118	41306.88
511.891	40141.88
512.664	38578.88
513.437	37270.88
514.209	35941.88
514.982	34605.88
515.754	33235.88
516.526	31895.88
517.298	30673.88
518.071	29435.88
518.843	28311.88
519.615	27083.88
520.387	26039.88
521.159	25097.88
521.93	24068.88
522.702	23017.88
523.474	22092.88
524.245	21204.88
525.017	20301.88
525.788	19431.88
526.56	18637.88
527.331	17820.88
528.102	16914.88
528.873	16130.88
529.644	15340.88
530.415	14547.88
531.186	13930.88
531.957	13215.88
532.728	12589.88
533.498	11910.88
534.269	11216.88
535.039	10716.88
535.81	10095.88
536.58	9552.88
537.351	9050.88
538.121	8576.88
538.891	8097.88
539.661	7682.88
540.431	7256.88
541.201	6915.88
541.971	6545.88
542.741	6190.88
543.51	5860.88
544.28	5577.88
545.05	5319.88
545.819	5067.88
546.588	4853.88
547.358	4598.88
548.127	4382.88
548.896	4167.88
549.665	3938.88
550.434	3741.88
551.203	3551.88
551.972	3384.88
552.741	3182.88
553.51	2997.88
554.278	2841.88
555.047	2688.88
555.815	2562.88
556.584	2396.88
557.352	2253.88
558.121	2143.88
558.889	2033.88
559.657	1919.88
560.425	1830.88
561.193	1714.88
561.961	1631.88
562.729	1537.88
563.496	1459.88
564.264	1369.88
565.032	1303.88
565.799	1236.88
566.567	1161.88
567.334	1095.88
568.101	1042.88
568.869	985.88
569.636	926.88
570.403	884.88
571.17	824.88
571.937	781.88
572.704	744.88
573.471	698.88
574.237	659.88
575.004	615.88
575.771	580.88
576.537	541.88
577.303	524.88
578.07	484.88
578.836	465.88
579.602	431.88
580.368	419.88
581.134	396.88
581.9	381.88
582.666	364.88
583.432	337.88
584.198	322.88
584.964	308.88
585.729	287.88
586.495	274.88
587.26	252.88
588.025	247.88
588.791	234.88
589.556	225.88
590.321	208.88
591.086	200.88
591.851	191.88
592.616	183.88
593.381	171.88
594.146	165.88
594.911	154.88
595.675	149.88
596.44	143.88
597.204	136.88
597.969	129.88
598.733	124.88
599.497	118.88
600.261	116.88
601.025	106.88
601.79	108.88
602.553	101.88
603.317	98.88
604.081	95.88
604.845	85.88
605.609	84.88
606.372	82.88
607.136	80.88
607.899	75.88
608.662	72.88
609.426	69.88
610.189	68.88
610.952	63.88
611.715	64.88
612.478	58.88
613.241	58.88
614.004	55.88
614.767	53.88
615.529	50.88
616.292	54.88
617.055	45.88
617.817	49.88
618.579	46.88
619.342	43.88
620.104	43.88
620.866	41.88
621.628	38.88
622.39	38.88
623.152	38.88
623.914	38.88
624.676	37.88
625.438	34.88
626.199	33.88
626.961	32.88
627.722	30.88
628.484	28.88
629.245	30.88
630.006	29.88
630.768	27.88
631.529	28.88
632.29	24.88
633.051	26.88
633.812	21.88
634.573	23.88
635.333	23.88
636.094	25.88
636.855	22.88
637.615	22.88
638.376	22.88
639.136	17.88
639.896	20.88
640.657	17.88
641.417	20.88
642.177	16.88
642.937	17.88
643.697	18.88
644.457	19.88
645.216	18.88
645.976	13.88
646.736	17.88
647.495	14.88
648.255	17.88
649.014	16.88
649.774	13.88
650.533	14.88
651.292	14.88
652.051	12.88
652.81	14.88
653.569	11.88
654.328	12.88
655.087	10.88
655.846	11.88
656.604	13.88
657.363	10.88
658.121	12.88
658.88	8.88
659.638	10.88
660.397	10.88
661.155	10.88
661.913	10.88
662.671	10.88
663.429	8.88
664.187	10.88
664.945	10.88
665.703	12.88
666.46	10.88
667.218	8.88
667.976	8.88
668.733	10.88
669.49	10.88
670.248	6.88
671.005	10.88
671.762	8.88
672.519	11.88
673.276	10.88
674.033	9.88
674.79	8.88
675.547	6.88
676.304	5.88
677.06	8.88
677.817	7.88
678.574	6.88
679.33	7.88
680.086	5.88
680.843	9.88
681.599	6.88
682.355	10.88
683.111	8.88
683.867	7.88
684.623	8.88
685.379	7.88
686.135	5.88
686.89	7.88
687.646	6.88
688.402	7.88
689.157	7.88
689.912	6.88
690.668	9.88
691.423	5.88
692.178	7.88
692.933	4.88
693.688	7.88
694.443	8.88
695.198	5.88
695.953	8.88
696.708	7.88
697.462	7.88
698.217	5.88
698.972	5.88
699.726	8.88
700.48	6.88
701.235	10.88
701.989	5.88
702.743	7.88
703.497	8.88
704.251	5.88
705.005	7.88
705.759	7.88
706.513	4.88
707.266	5.88
708.02	6.88
708.774	9.88
709.527	4.88
710.28	3.88
711.034	6.88
711.787	9.88
712.54	9.88
713.293	6.88
714.046	6.88
714.799	5.88
715.552	3.88
716.305	7.88
717.058	7.88
717.81	7.88
718.563	4.88
719.315	8.88
720.068	6.88
720.82	7.88
721.573	7.88
722.325	8.88
723.077	9.88
723.829	6.88
724.581	8.88
725.333	10.88
726.085	10.88
726.836	9.88
727.588	6.88
728.34	9.88
729.091	6.88
729.843	8.88
730.594	6.88
731.346	7.88
732.097	9.88
732.848	7.88
733.599	7.88
734.35	10.88
735.101	7.88
735.852	7.88
736.603	9.88
737.354	10.88
738.104	6.88
738.855	8.88
739.605	11.88
740.356	7.88
741.106	10.88
741.856	9.88
742.607	10.88
743.357	8.88
744.107	6.88
744.857	6.88
745.607	11.88
746.357	11.88
747.106	9.88
747.856	9.88
748.606	11.88
749.355	11.88
750.105	10.88
750.854	11.88
751.603	11.88
752.353	12.88
753.102	9.88
753.851	10.88
754.6	9.88
755.349	9.88
756.098	10.88
756.847	11.88
757.595	11.88
758.344	10.88
759.093	13.88
759.841	9.88
760.589	12.88
761.338	12.88
762.086	13.88
762.834	12.88
763.582	10.88
764.331	12.88
765.079	9.88
765.826	11.88
766.574	10.88
767.322	14.88
768.07	11.88
768.817	12.88
769.565	12.88
770.312	11.88
771.06	14.88
771.807	11.88
772.554	13.88
773.302	14.88
774.049	12.88
774.796	15.88
775.543	14.88
776.29	11.88
777.036	16.88
777.783	13.88
778.53	16.88
779.276	13.88
780.023	11.88
780.769	12.88
781.516	13.88
782.262	14.88
783.008	16.88
783.754	15.88
784.5	14.88
785.246	14.88
785.992	15.88
786.738	14.88
787.484	16.88
788.23	14.88
788.975	17.88
789.721	14.88
790.466	14.88
791.212	13.88
791.957	12.88
792.702	12.88
793.447	14.88
794.193	13.88
794.938	14.88
795.683	11.88
796.427	14.88
797.172	10.88
797.917	12.88
798.662	11.88
799.406	13.88
800.151	11.88
800.895	12.88
801.64	11.88
802.384	10.88
803.128	11.88
803.872	11.88
804.616	8.88
805.36	12.88
806.104	9.88
806.848	10.88
807.592	9.88
808.336	9.88
809.079	8.88
809.823	9.88
810.566	10.88
811.31	10.88
812.053	9.88
812.796	6.88
813.539	6.88
814.283	6.88
815.026	7.88
815.769	8.88
816.511	9.88
817.254	8.88
817.997	8.88
818.74	8.88
819.482	8.88
820.225	7.88
820.967	7.88
821.71	7.88
822.452	6.88
823.194	4.88
823.936	6.88
824.678	6.88
825.42	7.88
826.162	5.88
826.904	6.88
827.646	6.88
828.388	5.88
829.129	5.88
829.871	9.88
830.612	6.88
831.354	7.88
832.095	7.88
832.836	5.88
833.577	5.88
834.319	5.88
835.06	6.88
835.801	4.88
836.542	4.88
837.282	5.88
838.023	5.88
838.764	5.88
839.504	3.88
840.245	7.88
840.985	4.88
841.726	4.88
842.466	6.88
843.206	3.88
843.946	4.88
844.687	4.88
845.427	4.88
846.166	3.88
846.906	4.88
847.646	2.88
848.386	4.88
849.125	3.88
849.865	3.88
850.605	3.88
851.344	4.88
852.083	4.88
852.823	7.88
853.562	3.88
854.301	2.88
855.04	2.88
855.779	3.88
856.518	5.88
857.257	3.88
857.995	4.88
858.734	2.88
859.473	4.88
860.211	5.88
860.95	-0.12
861.688	2.88
862.426	3.88
863.165	1.88
863.903	3.88
864.641	4.88
865.379	5.88
866.117	1.88
866.855	3.88
867.593	3.88
868.33	1.88
869.068	2.88
869.806	1.88
870.543	3.88
871.28	2.88
872.018	1.88
872.755	2.88
873.492	2.88
874.229	1.88
874.967	-0.12
875.703	1.88
876.44	-1.12
877.177	2.88
877.914	2.88
878.651	1.88
879.387	1.88
880.124	0.88
880.86	1.88
881.597	2.88
882.333	1.88
883.069	0.88
883.806	-0.12
884.542	0.88
885.278	-1.12
886.014	0.88
886.749	-0.12
887.485	1.88
888.221	0.88
888.957	1.88
889.692	2.88
890.428	1.88
891.163	2.88
891.899	0.88
892.634	1.88
893.369	2.88
894.104	-0.12
894.839	2.88
895.574	0.88
896.309	0.88
897.044	1.88
897.779	-0.12
898.514	1.88
899.248	0.88
899.983	-0.12
900.717	1.88
901.452	1.88
902.186	0.88
902.92	-0.12
903.654	-0.12
904.389	0.88
905.123	0.88
905.857	0.88
906.59	-1.12
907.324	0.88
908.058	-2.12
908.792	-0.12
909.525	0.88
910.259	2.88
910.992	-0.12
911.726	-1.12
912.459	-1.12
913.192	1.88
913.925	1.88
914.658	0.88
915.391	0.88
916.124	-0.12
916.857	1.88
917.59	-2.12
918.323	-0.12
919.055	0.88
919.788	0.88
920.521	-0.12
921.253	-1.12
921.985	0.88
922.718	0.88
923.45	1.88
924.182	-2.12
924.914	-1.12
925.646	-1.12
926.378	0.88
927.11	-0.12
927.841	-0.12
928.573	-2.12
929.305	-0.12
930.036	-0.12
930.768	0.88
931.499	0.88
932.23	1.88
932.962	-0.12
933.693	0.88
934.424	-0.12
935.155	0.88
935.886	-0.12
936.617	-0.12
937.348	-1.12
938.078	1.88
938.809	0.88
939.54	-0.12
940.27	-1.12
941.001	-0.12
941.731	-1.12
942.461	0.88
943.191	-0.12
943.922	-2.12
944.652	-1.12
945.382	0.88
946.112	0.88
946.841	-1.12
947.571	0.88
948.301	-1.12
949.031	0.88
949.76	1.88
950.49	-1.12
951.219	-0.12
951.948	-1.12
952.678	-0.12
953.407	1.88
954.136	0.88
954.865	-0.12
955.594	-1.12
956.323	-2.12
957.052	0.88
957.78	0.88
958.509	-1.12
959.238	0.88
959.966	0.88
960.695	1.88
961.423	-2.12
962.151	0.88
962.88	1.88
963.608	0.88
964.336	-0.12
965.064	-0.12
965.792	-0.12
966.52	0.88
967.247	1.88
967.975	-0.12
968.703	0.88
969.43	1.88
970.158	-1.12
970.885	-1.12
971.613	1.88
972.34	-0.12
973.067	-0.12
973.794	-0.12
974.521	-1.12
975.248	-0.12
975.975	-1.12
976.702	-0.12
977.429	0.88
978.156	-1.12
978.882	0.88
979.609	-1.12
980.335	0.88
981.062	-1.12
981.788	-0.12
982.514	-1.12
983.24	-1.12
983.967	1.88
984.693	0.88
985.419	2.88
986.144	-0.12
986.87	0.88
987.596	0.88
988.322	-2.12
989.047	1.88
989.773	1.88
990.498	-0.12
991.224	0.88
991.949	1.88
992.674	1.88
993.399	-2.12
994.124	0.88
994.849	-0.12
995.574	0.88
996.299	0.88
997.024	0.88
997.749	-2.12
998.473	0.88
999.198	-0.12
999.922	-0.12
1000.647	-0.12
1001.371	4.88
1002.095	-0.12
1002.82	-1.12
1003.544	-2.12
1004.268	3.88
1004.992	3.88
1005.716	4.88
1006.439	5.88
1007.163	5.88
1007.887	7.88
1008.611	-0.12
1009.334	-1.12
1010.058	-0.12
1010.781	-0.12
1011.504	0.88
1012.228	1.88
1012.951	-1.12
1013.674	-0.12
1014.397	-1.12
1015.12	0.88
