节点500_705_QEPB04081__15__20-46-08-367.txt的数据

Date: Wed Nov 12 20:46:08 CST 2025
User: PC
Spectrometer: QEPB0408
触发模式: 0
积分时间 (秒): 1.000000E-2
Scans to average: 1
启用暗噪声校正: true
启用非线性校正: false
滑动平均宽度: 0
X轴模式: Wavelengths
Number of Pixels in Spectrum: 1044
>>>>>Begin Spectral Data<<<<<
220.843	8.38
221.644	6.38
222.444	5.38
223.244	7.38
224.045	7.38
224.845	8.38
225.645	6.38
226.445	6.38
227.245	11.38
228.045	9.38
228.845	11.38
229.645	8.38
230.444	8.38
231.244	9.38
232.043	9.38
232.843	9.38
233.642	9.38
234.442	12.38
235.241	10.38
236.04	11.38
236.839	9.38
237.638	11.38
238.437	11.38
239.236	10.38
240.035	14.38
240.833	12.38
241.632	13.38
242.43	15.38
243.229	12.38
244.027	15.38
244.826	14.38
245.624	15.38
246.422	15.38
247.22	15.38
248.018	18.38
248.816	17.38
249.614	17.38
250.412	17.38
251.21	18.38
252.007	20.38
252.805	19.38
253.602	19.38
254.4	20.38
255.197	20.38
255.994	20.38
256.791	24.38
257.589	22.38
258.386	22.38
259.183	23.38
259.979	22.38
260.776	24.38
261.573	27.38
262.37	27.38
263.166	27.38
263.963	25.38
264.759	30.38
265.556	30.38
266.352	35.38
267.148	28.38
267.944	33.38
268.74	33.38
269.536	33.38
270.332	33.38
271.128	36.38
271.924	33.38
272.719	37.38
273.515	37.38
274.311	36.38
275.106	37.38
275.901	38.38
276.697	36.38
277.492	37.38
278.287	39.38
279.082	37.38
279.877	37.38
280.672	37.38
281.467	38.38
282.262	36.38
283.056	35.38
283.851	38.38
284.646	35.38
285.44	36.38
286.234	36.38
287.029	36.38
287.823	36.38
288.617	32.38
289.411	37.38
290.205	35.38
290.999	34.38
291.793	32.38
292.587	33.38
293.381	31.38
294.174	31.38
294.968	30.38
295.761	30.38
296.555	29.38
297.348	27.38
298.141	24.38
298.935	29.38
299.728	28.38
300.521	23.38
301.314	26.38
302.107	23.38
302.899	24.38
303.692	23.38
304.485	24.38
305.277	23.38
306.07	24.38
306.862	23.38
307.655	20.38
308.447	24.38
309.239	19.38
310.031	18.38
310.823	20.38
311.615	19.38
312.407	15.38
313.199	15.38
313.991	17.38
314.783	17.38
315.574	18.38
316.366	17.38
317.157	16.38
317.949	15.38
318.74	14.38
319.531	16.38
320.322	15.38
321.113	15.38
321.904	17.38
322.695	15.38
323.486	12.38
324.277	13.38
325.068	13.38
325.858	15.38
326.649	14.38
327.439	14.38
328.23	10.38
329.02	12.38
329.81	10.38
330.6	11.38
331.391	11.38
332.181	12.38
332.971	12.38
333.76	14.38
334.55	12.38
335.34	13.38
336.13	13.38
336.919	13.38
337.709	13.38
338.498	14.38
339.287	14.38
340.077	14.38
340.866	12.38
341.655	10.38
342.444	14.38
343.233	11.38
344.022	12.38
344.811	12.38
345.6	12.38
346.388	14.38
347.177	10.38
347.965	12.38
348.754	10.38
349.542	11.38
350.33	11.38
351.119	11.38
351.907	12.38
352.695	12.38
353.483	11.38
354.271	11.38
355.059	11.38
355.846	11.38
356.634	9.38
357.422	9.38
358.209	9.38
358.997	13.38
359.784	12.38
360.571	10.38
361.359	11.38
362.146	10.38
362.933	13.38
363.72	9.38
364.507	10.38
365.294	10.38
366.081	11.38
366.867	10.38
367.654	10.38
368.44	11.38
369.227	10.38
370.013	8.38
370.8	10.38
371.586	10.38
372.372	11.38
373.158	9.38
373.944	8.38
374.73	10.38
375.516	9.38
376.302	10.38
377.088	10.38
377.873	10.38
378.659	11.38
379.445	10.38
380.23	11.38
381.015	8.38
381.801	11.38
382.586	10.38
383.371	11.38
384.156	10.38
384.941	11.38
385.726	12.38
386.511	11.38
387.296	11.38
388.08	11.38
388.865	11.38
389.649	11.38
390.434	12.38
391.218	12.38
392.003	14.38
392.787	13.38
393.571	12.38
394.355	13.38
395.139	12.38
395.923	14.38
396.707	14.38
397.491	13.38
398.274	14.38
399.058	16.38
399.842	14.38
400.625	14.38
401.408	14.38
402.192	13.38
402.975	17.38
403.758	17.38
404.541	14.38
405.324	15.38
406.107	15.38
406.89	17.38
407.673	15.38
408.456	18.38
409.238	19.38
410.021	16.38
410.803	18.38
411.586	19.38
412.368	17.38
413.151	19.38
413.933	20.38
414.715	17.38
415.497	18.38
416.279	18.38
417.061	20.38
417.843	20.38
418.624	22.38
419.406	23.38
420.188	22.38
420.969	23.38
421.751	21.38
422.532	25.38
423.313	25.38
424.095	26.38
424.876	28.38
425.657	24.38
426.438	27.38
427.219	28.38
428	27.38
428.78	32.38
429.561	28.38
430.342	35.38
431.122	29.38
431.903	34.38
432.683	35.38
433.464	36.38
434.244	38.38
435.024	39.38
435.804	42.38
436.584	46.38
437.364	44.38
438.144	47.38
438.924	48.38
439.704	53.38
440.483	53.38
441.263	59.38
442.042	65.38
442.822	66.38
443.601	72.38
444.38	80.38
445.16	80.38
445.939	87.38
446.718	101.38
447.497	105.38
448.276	114.38
449.054	121.38
449.833	135.38
450.612	152.38
451.391	163.38
452.169	179.38
452.948	194.38
453.726	222.38
454.504	245.38
455.282	274.38
456.061	299.38
456.839	338.38
457.617	379.38
458.395	420.38
459.172	470.38
459.95	527.38
460.728	584.38
461.506	658.38
462.283	726.38
463.061	816.38
463.838	920.38
464.615	1023.38
465.393	1146.38
466.17	1316.38
466.947	1430.38
467.724	1595.38
468.501	1792.38
469.278	1964.38
470.055	2207.38
470.831	2443.38
471.608	2705.38
472.385	3041.38
473.161	3351.38
473.938	3715.38
474.714	4107.38
475.49	4524.38
476.266	5016.38
477.043	5527.38
477.819	6041.38
478.595	6681.38
479.371	7371.38
480.146	8027.38
480.922	8881.38
481.698	9730.38
482.473	10645.38
483.249	11638.38
484.024	12717.38
484.8	13831.38
485.575	15113.38
486.35	16527.38
487.126	17894.38
487.901	19485.38
488.676	21107.38
489.451	22826.38
490.225	24623.38
491	26540.38
491.775	28448.38
492.55	30467.38
493.324	32438.38
494.099	34461.38
494.873	36527.38
495.647	38508.38
496.422	40518.38
497.196	42450.38
497.97	44166.38
498.744	45800.38
499.518	47330.38
500.292	48575.38
501.066	49487.38
501.839	50140.38
502.613	50768.38
503.387	51026.38
504.16	51247.38
504.934	50764.38
505.707	50281.38
506.48	49437.38
507.253	48659.38
508.027	47645.38
508.8	46236.38
509.573	44793.38
510.346	43398.38
511.118	41982.38
511.891	40448.38
512.664	38770.38
513.437	37164.38
514.209	35621.38
514.982	34131.38
515.754	32587.38
516.526	31216.38
517.298	29977.38
518.071	28732.38
518.843	27571.38
519.615	26531.38
520.387	25339.38
521.159	24354.38
521.93	23320.38
522.702	22310.38
523.474	21380.38
524.245	20378.38
525.017	19506.38
525.788	18536.38
526.56	17757.38
527.331	16909.38
528.102	16077.38
528.873	15227.38
529.644	14453.38
530.415	13666.38
531.186	13073.38
531.957	12305.38
532.728	11667.38
533.498	11014.38
534.269	10398.38
535.039	9837.38
535.81	9305.38
536.58	8752.38
537.351	8303.38
538.121	7870.38
538.891	7438.38
539.661	7090.38
540.431	6651.38
541.201	6336.38
541.971	5968.38
542.741	5683.38
543.51	5354.38
544.28	5133.38
545.05	4894.38
545.819	4653.38
546.588	4441.38
547.358	4223.38
548.127	3992.38
548.896	3777.38
549.665	3589.38
550.434	3372.38
551.203	3218.38
551.972	3075.38
552.741	2903.38
553.51	2725.38
554.278	2563.38
555.047	2395.38
555.815	2264.38
556.584	2179.38
557.352	2037.38
558.121	1936.38
558.889	1826.38
559.657	1721.38
560.425	1626.38
561.193	1547.38
561.961	1455.38
562.729	1390.38
563.496	1290.38
564.264	1216.38
565.032	1160.38
565.799	1107.38
566.567	1047.38
567.334	985.38
568.101	940.38
568.869	871.38
569.636	835.38
570.403	783.38
571.17	738.38
571.937	706.38
572.704	662.38
573.471	620.38
574.237	597.38
575.004	560.38
575.771	518.38
576.537	478.38
577.303	463.38
578.07	436.38
578.836	407.38
579.602	383.38
580.368	372.38
581.134	351.38
581.9	337.38
582.666	317.38
583.432	307.38
584.198	289.38
584.964	282.38
585.729	260.38
586.495	247.38
587.26	226.38
588.025	216.38
588.791	207.38
589.556	198.38
590.321	193.38
591.086	185.38
591.851	170.38
592.616	162.38
593.381	152.38
594.146	151.38
594.911	137.38
595.675	136.38
596.44	130.38
597.204	124.38
597.969	121.38
598.733	115.38
599.497	108.38
600.261	108.38
601.025	99.38
601.79	97.38
602.553	91.38
603.317	86.38
604.081	87.38
604.845	83.38
605.609	75.38
606.372	77.38
607.136	71.38
607.899	68.38
608.662	65.38
609.426	65.38
610.189	59.38
610.952	62.38
611.715	59.38
612.478	56.38
613.241	53.38
614.004	54.38
614.767	49.38
615.529	51.38
616.292	47.38
617.055	46.38
617.817	46.38
618.579	43.38
619.342	41.38
620.104	43.38
620.866	38.38
621.628	36.38
622.39	38.38
623.152	35.38
623.914	35.38
624.676	31.38
625.438	33.38
626.199	30.38
626.961	28.38
627.722	27.38
628.484	28.38
629.245	27.38
630.006	30.38
630.768	26.38
631.529	27.38
632.29	25.38
633.051	28.38
633.812	26.38
634.573	22.38
635.333	25.38
636.094	23.38
636.855	22.38
637.615	19.38
638.376	21.38
639.136	21.38
639.896	21.38
640.657	19.38
641.417	19.38
642.177	19.38
642.937	16.38
643.697	17.38
644.457	19.38
645.216	15.38
645.976	15.38
646.736	15.38
647.495	18.38
648.255	15.38
649.014	15.38
649.774	16.38
650.533	15.38
651.292	18.38
652.051	11.38
652.81	14.38
653.569	11.38
654.328	13.38
655.087	14.38
655.846	13.38
656.604	14.38
657.363	13.38
658.121	11.38
658.88	14.38
659.638	13.38
660.397	10.38
661.155	8.38
661.913	10.38
662.671	9.38
663.429	10.38
664.187	10.38
664.945	10.38
665.703	8.38
666.46	11.38
667.218	11.38
667.976	7.38
668.733	8.38
669.49	10.38
670.248	9.38
671.005	10.38
671.762	7.38
672.519	10.38
673.276	10.38
674.033	9.38
674.79	10.38
675.547	6.38
676.304	8.38
677.06	9.38
677.817	9.38
678.574	9.38
679.33	7.38
680.086	9.38
680.843	9.38
681.599	8.38
682.355	10.38
683.111	10.38
683.867	7.38
684.623	7.38
685.379	11.38
686.135	7.38
686.89	9.38
687.646	10.38
688.402	7.38
689.157	6.38
689.912	9.38
690.668	6.38
691.423	7.38
692.178	7.38
692.933	10.38
693.688	7.38
694.443	8.38
695.198	9.38
695.953	9.38
696.708	9.38
697.462	10.38
698.217	8.38
698.972	8.38
699.726	8.38
700.48	7.38
701.235	7.38
701.989	10.38
702.743	8.38
703.497	8.38
704.251	6.38
705.005	7.38
705.759	8.38
706.513	8.38
707.266	9.38
708.02	3.38
708.774	9.38
709.527	7.38
710.28	9.38
711.034	9.38
711.787	7.38
712.54	7.38
713.293	6.38
714.046	7.38
714.799	7.38
715.552	7.38
716.305	7.38
717.058	7.38
717.81	10.38
718.563	7.38
719.315	10.38
720.068	8.38
720.82	7.38
721.573	9.38
722.325	8.38
723.077	10.38
723.829	9.38
724.581	8.38
725.333	8.38
726.085	9.38
726.836	9.38
727.588	11.38
728.34	9.38
729.091	9.38
729.843	11.38
730.594	9.38
731.346	10.38
732.097	10.38
732.848	9.38
733.599	10.38
734.35	10.38
735.101	10.38
735.852	10.38
736.603	9.38
737.354	12.38
738.104	11.38
738.855	12.38
739.605	11.38
740.356	12.38
741.106	12.38
741.856	8.38
742.607	11.38
743.357	13.38
744.107	13.38
744.857	13.38
745.607	8.38
746.357	11.38
747.106	10.38
747.856	11.38
748.606	12.38
749.355	11.38
750.105	12.38
750.854	12.38
751.603	13.38
752.353	10.38
753.102	12.38
753.851	13.38
754.6	13.38
755.349	15.38
756.098	13.38
756.847	13.38
757.595	14.38
758.344	15.38
759.093	13.38
759.841	12.38
760.589	14.38
761.338	15.38
762.086	12.38
762.834	13.38
763.582	14.38
764.331	12.38
765.079	14.38
765.826	12.38
766.574	12.38
767.322	15.38
768.07	15.38
768.817	15.38
769.565	14.38
770.312	15.38
771.06	17.38
771.807	16.38
772.554	13.38
773.302	18.38
774.049	17.38
774.796	18.38
775.543	15.38
776.29	18.38
777.036	18.38
777.783	17.38
778.53	18.38
779.276	16.38
780.023	18.38
780.769	17.38
781.516	19.38
782.262	19.38
783.008	17.38
783.754	17.38
784.5	16.38
785.246	19.38
785.992	16.38
786.738	16.38
787.484	14.38
788.23	17.38
788.975	18.38
789.721	17.38
790.466	16.38
791.212	15.38
791.957	15.38
792.702	12.38
793.447	14.38
794.193	15.38
794.938	11.38
795.683	15.38
796.427	15.38
797.172	14.38
797.917	16.38
798.662	15.38
799.406	12.38
800.151	15.38
800.895	14.38
801.64	13.38
802.384	14.38
803.128	10.38
803.872	10.38
804.616	13.38
805.36	13.38
806.104	11.38
806.848	12.38
807.592	8.38
808.336	13.38
809.079	9.38
809.823	11.38
810.566	9.38
811.31	12.38
812.053	9.38
812.796	7.38
813.539	11.38
814.283	9.38
815.026	8.38
815.769	9.38
816.511	10.38
817.254	9.38
817.997	9.38
818.74	10.38
819.482	9.38
820.225	10.38
820.967	7.38
821.71	8.38
822.452	7.38
823.194	6.38
823.936	9.38
824.678	8.38
825.42	6.38
826.162	6.38
826.904	7.38
827.646	4.38
828.388	8.38
829.129	5.38
829.871	5.38
830.612	7.38
831.354	6.38
832.095	5.38
832.836	8.38
833.577	5.38
834.319	4.38
835.06	6.38
835.801	6.38
836.542	7.38
837.282	6.38
838.023	7.38
838.764	5.38
839.504	6.38
840.245	9.38
840.985	6.38
841.726	8.38
842.466	6.38
843.206	3.38
843.946	4.38
844.687	5.38
845.427	5.38
846.166	4.38
846.906	5.38
847.646	4.38
848.386	8.38
849.125	4.38
849.865	4.38
850.605	6.38
851.344	4.38
852.083	7.38
852.823	3.38
853.562	3.38
854.301	3.38
855.04	3.38
855.779	5.38
856.518	4.38
857.257	5.38
857.995	4.38
858.734	2.38
859.473	3.38
860.211	4.38
860.95	4.38
861.688	3.38
862.426	-0.62
863.165	1.38
863.903	2.38
864.641	4.38
865.379	4.38
866.117	3.38
866.855	3.38
867.593	3.38
868.33	3.38
869.068	1.38
869.806	3.38
870.543	2.38
871.28	4.38
872.018	4.38
872.755	2.38
873.492	2.38
874.229	2.38
874.967	3.38
875.703	3.38
876.44	2.38
877.177	5.38
877.914	1.38
878.651	3.38
879.387	2.38
880.124	3.38
880.86	1.38
881.597	3.38
882.333	2.38
883.069	3.38
883.806	5.38
884.542	1.38
885.278	1.38
886.014	3.38
886.749	0.38
887.485	1.38
888.221	2.38
888.957	2.38
889.692	1.38
890.428	1.38
891.163	4.38
891.899	1.38
892.634	1.38
893.369	2.38
894.104	1.38
894.839	2.38
895.574	1.38
896.309	3.38
897.044	-0.62
897.779	-0.62
898.514	2.38
899.248	-0.62
899.983	2.38
900.717	-0.62
901.452	2.38
902.186	-0.62
902.92	2.38
903.654	1.38
904.389	-0.62
905.123	4.38
905.857	-0.62
906.59	0.38
907.324	1.38
908.058	1.38
908.792	2.38
909.525	2.38
910.259	0.38
910.992	0.38
911.726	-0.62
912.459	1.38
913.192	1.38
913.925	1.38
914.658	0.38
915.391	1.38
916.124	-0.62
916.857	-0.62
917.59	3.38
918.323	-0.62
919.055	-0.62
919.788	1.38
920.521	1.38
921.253	1.38
921.985	0.38
922.718	-0.62
923.45	2.38
924.182	1.38
924.914	-0.62
925.646	0.38
926.378	1.38
927.11	0.38
927.841	4.38
928.573	1.38
929.305	-0.62
930.036	0.38
930.768	-0.62
931.499	0.38
932.23	2.38
932.962	2.38
933.693	-0.62
934.424	1.38
935.155	2.38
935.886	-0.62
936.617	0.38
937.348	1.38
938.078	0.38
938.809	0.38
939.54	1.38
940.27	1.38
941.001	-0.62
941.731	0.38
942.461	1.38
943.191	1.38
943.922	-0.62
944.652	-1.62
945.382	1.38
946.112	-0.62
946.841	3.38
947.571	0.38
948.301	0.38
949.031	1.38
949.76	-0.62
950.49	1.38
951.219	1.38
951.948	-0.62
952.678	-0.62
953.407	-0.62
954.136	0.38
954.865	1.38
955.594	1.38
956.323	-0.62
957.052	-0.62
957.78	1.38
958.509	0.38
959.238	2.38
959.966	1.38
960.695	-0.62
961.423	2.38
962.151	0.38
962.88	1.38
963.608	-0.62
964.336	-1.62
965.064	-1.62
965.792	0.38
966.52	-1.62
967.247	-0.62
967.975	1.38
968.703	0.38
969.43	2.38
970.158	-1.62
970.885	1.38
971.613	2.38
972.34	-0.62
973.067	-0.62
973.794	1.38
974.521	0.38
975.248	0.38
975.975	0.38
976.702	2.38
977.429	1.38
978.156	0.38
978.882	0.38
979.609	-0.62
980.335	-0.62
981.062	-0.62
981.788	1.38
982.514	0.38
983.24	1.38
983.967	0.38
984.693	0.38
985.419	0.38
986.144	2.38
986.87	-0.62
987.596	-0.62
988.322	-0.62
989.047	-0.62
989.773	1.38
990.498	1.38
991.224	-0.62
991.949	0.38
992.674	1.38
993.399	1.38
994.124	-1.62
994.849	-0.62
995.574	1.38
996.299	-1.62
997.024	1.38
997.749	2.38
998.473	0.38
999.198	1.38
999.922	1.38
1000.647	2.38
1001.371	2.38
1002.095	-0.62
1002.82	-1.62
1003.544	1.38
1004.268	6.38
1004.992	3.38
1005.716	4.38
1006.439	6.38
1007.163	6.38
1007.887	4.38
1008.611	0.38
1009.334	-0.62
1010.058	1.38
1010.781	2.38
1011.504	2.38
1012.228	0.38
1012.951	0.38
1013.674	-0.62
1014.397	-0.62
1015.12	-0.62
