节点500_705_QEPB04081__382__20-51-22-613.txt的数据

Date: Wed Nov 12 20:51:22 CST 2025
User: PC
Spectrometer: QEPB0408
触发模式: 0
积分时间 (秒): 1.000000E-2
Scans to average: 1
启用暗噪声校正: true
启用非线性校正: false
滑动平均宽度: 0
X轴模式: Wavelengths
Number of Pixels in Spectrum: 1044
>>>>>Begin Spectral Data<<<<<
220.843	5.12
221.644	4.12
222.444	6.12
223.244	6.12
224.045	7.12
224.845	6.12
225.645	7.12
226.445	9.12
227.245	7.12
228.045	9.12
228.845	9.12
229.645	9.12
230.444	8.12
231.244	7.12
232.043	12.12
232.843	9.12
233.642	11.12
234.442	10.12
235.241	8.12
236.04	11.12
236.839	11.12
237.638	12.12
238.437	10.12
239.236	14.12
240.035	13.12
240.833	10.12
241.632	13.12
242.43	11.12
243.229	15.12
244.027	15.12
244.826	15.12
245.624	16.12
246.422	15.12
247.22	13.12
248.018	16.12
248.816	15.12
249.614	17.12
250.412	21.12
251.21	18.12
252.007	16.12
252.805	18.12
253.602	18.12
254.4	18.12
255.197	20.12
255.994	19.12
256.791	22.12
257.589	21.12
258.386	22.12
259.183	23.12
259.979	23.12
260.776	24.12
261.573	22.12
262.37	25.12
263.166	24.12
263.963	26.12
264.759	27.12
265.556	25.12
266.352	26.12
267.148	27.12
267.944	29.12
268.74	28.12
269.536	30.12
270.332	29.12
271.128	32.12
271.924	32.12
272.719	35.12
273.515	33.12
274.311	33.12
275.106	32.12
275.901	34.12
276.697	33.12
277.492	38.12
278.287	36.12
279.082	37.12
279.877	35.12
280.672	34.12
281.467	37.12
282.262	33.12
283.056	36.12
283.851	36.12
284.646	35.12
285.44	36.12
286.234	38.12
287.029	33.12
287.823	36.12
288.617	35.12
289.411	34.12
290.205	35.12
290.999	31.12
291.793	34.12
292.587	34.12
293.381	33.12
294.174	32.12
294.968	31.12
295.761	30.12
296.555	29.12
297.348	28.12
298.141	25.12
298.935	31.12
299.728	26.12
300.521	25.12
301.314	25.12
302.107	24.12
302.899	25.12
303.692	26.12
304.485	26.12
305.277	22.12
306.07	20.12
306.862	22.12
307.655	24.12
308.447	20.12
309.239	20.12
310.031	23.12
310.823	18.12
311.615	19.12
312.407	19.12
313.199	19.12
313.991	18.12
314.783	17.12
315.574	16.12
316.366	17.12
317.157	19.12
317.949	16.12
318.74	17.12
319.531	14.12
320.322	16.12
321.113	17.12
321.904	14.12
322.695	14.12
323.486	15.12
324.277	12.12
325.068	13.12
325.858	14.12
326.649	15.12
327.439	16.12
328.23	15.12
329.02	13.12
329.81	12.12
330.6	15.12
331.391	12.12
332.181	12.12
332.971	14.12
333.76	11.12
334.55	15.12
335.34	13.12
336.13	14.12
336.919	15.12
337.709	11.12
338.498	12.12
339.287	14.12
340.077	13.12
340.866	12.12
341.655	10.12
342.444	11.12
343.233	12.12
344.022	12.12
344.811	11.12
345.6	10.12
346.388	11.12
347.177	11.12
347.965	12.12
348.754	10.12
349.542	12.12
350.33	12.12
351.119	13.12
351.907	12.12
352.695	11.12
353.483	11.12
354.271	12.12
355.059	12.12
355.846	12.12
356.634	10.12
357.422	11.12
358.209	12.12
358.997	13.12
359.784	10.12
360.571	11.12
361.359	12.12
362.146	9.12
362.933	12.12
363.72	10.12
364.507	11.12
365.294	12.12
366.081	12.12
366.867	12.12
367.654	10.12
368.44	11.12
369.227	10.12
370.013	8.12
370.8	14.12
371.586	9.12
372.372	10.12
373.158	9.12
373.944	10.12
374.73	9.12
375.516	11.12
376.302	9.12
377.088	8.12
377.873	10.12
378.659	11.12
379.445	10.12
380.23	12.12
381.015	8.12
381.801	14.12
382.586	11.12
383.371	12.12
384.156	11.12
384.941	10.12
385.726	11.12
386.511	11.12
387.296	12.12
388.08	13.12
388.865	11.12
389.649	9.12
390.434	11.12
391.218	11.12
392.003	14.12
392.787	15.12
393.571	14.12
394.355	13.12
395.139	14.12
395.923	13.12
396.707	14.12
397.491	13.12
398.274	12.12
399.058	14.12
399.842	12.12
400.625	16.12
401.408	14.12
402.192	17.12
402.975	16.12
403.758	16.12
404.541	17.12
405.324	16.12
406.107	16.12
406.89	15.12
407.673	16.12
408.456	16.12
409.238	16.12
410.021	15.12
410.803	16.12
411.586	20.12
412.368	21.12
413.151	21.12
413.933	19.12
414.715	22.12
415.497	21.12
416.279	20.12
417.061	22.12
417.843	21.12
418.624	23.12
419.406	21.12
420.188	20.12
420.969	23.12
421.751	23.12
422.532	25.12
423.313	24.12
424.095	22.12
424.876	25.12
425.657	27.12
426.438	25.12
427.219	26.12
428	26.12
428.78	26.12
429.561	27.12
430.342	32.12
431.122	32.12
431.903	34.12
432.683	36.12
433.464	35.12
434.244	37.12
435.024	41.12
435.804	43.12
436.584	44.12
437.364	45.12
438.144	48.12
438.924	51.12
439.704	56.12
440.483	57.12
441.263	66.12
442.042	65.12
442.822	72.12
443.601	77.12
444.38	84.12
445.16	87.12
445.939	99.12
446.718	102.12
447.497	111.12
448.276	125.12
449.054	137.12
449.833	146.12
450.612	165.12
451.391	184.12
452.169	200.12
452.948	224.12
453.726	240.12
454.504	268.12
455.282	300.12
456.061	344.12
456.839	374.12
457.617	416.12
458.395	470.12
459.172	515.12
459.95	576.12
460.728	653.12
461.506	719.12
462.283	809.12
463.061	888.12
463.838	994.12
464.615	1107.12
465.393	1231.12
466.17	1366.12
466.947	1523.12
467.724	1682.12
468.501	1878.12
469.278	2050.12
470.055	2272.12
470.831	2507.12
471.608	2776.12
472.385	3066.12
473.161	3355.12
473.938	3695.12
474.714	4070.12
475.49	4469.12
476.266	4855.12
477.043	5303.12
477.819	5804.12
478.595	6363.12
479.371	6904.12
480.146	7548.12
480.922	8187.12
481.698	8936.12
482.473	9705.12
483.249	10534.12
484.024	11462.12
484.8	12411.12
485.575	13385.12
486.35	14504.12
487.126	15769.12
487.901	16992.12
488.676	18344.12
489.451	19790.12
490.225	21258.12
491	22732.12
491.775	24400.12
492.55	25971.12
493.324	27732.12
494.099	29450.12
494.873	31177.12
495.647	32895.12
496.422	34687.12
497.196	36445.12
497.97	38023.12
498.744	39653.12
499.518	41228.12
500.292	42539.12
501.066	43533.12
501.839	44566.12
502.613	45342.12
503.387	46023.12
504.16	46480.12
504.934	46620.12
505.707	46654.12
506.48	46383.12
507.253	45927.12
508.027	45374.12
508.8	44571.12
509.573	43440.12
510.346	42419.12
511.118	41496.12
511.891	40192.12
512.664	38761.12
513.437	37328.12
514.209	35988.12
514.982	34605.12
515.754	33336.12
516.526	31878.12
517.298	30684.12
518.071	29547.12
518.843	28280.12
519.615	27187.12
520.387	26077.12
521.159	25006.12
521.93	24023.12
522.702	22991.12
523.474	21995.12
524.245	21085.12
525.017	20165.12
525.788	19318.12
526.56	18547.12
527.331	17737.12
528.102	16832.12
528.873	16021.12
529.644	15259.12
530.415	14592.12
531.186	13858.12
531.957	13122.12
532.728	12445.12
533.498	11865.12
534.269	11180.12
535.039	10642.12
535.81	10014.12
536.58	9464.12
537.351	8952.12
538.121	8542.12
538.891	8048.12
539.661	7630.12
540.431	7201.12
541.201	6841.12
541.971	6504.12
542.741	6139.12
543.51	5805.12
544.28	5580.12
545.05	5258.12
545.819	5030.12
546.588	4800.12
547.358	4575.12
548.127	4332.12
548.896	4151.12
549.665	3920.12
550.434	3738.12
551.203	3544.12
551.972	3350.12
552.741	3175.12
553.51	2964.12
554.278	2830.12
555.047	2648.12
555.815	2524.12
556.584	2377.12
557.352	2241.12
558.121	2115.12
558.889	2015.12
559.657	1886.12
560.425	1811.12
561.193	1694.12
561.961	1618.12
562.729	1527.12
563.496	1439.12
564.264	1368.12
565.032	1286.12
565.799	1217.12
566.567	1157.12
567.334	1092.12
568.101	1035.12
568.869	980.12
569.636	925.12
570.403	872.12
571.17	820.12
571.937	785.12
572.704	740.12
573.471	696.12
574.237	656.12
575.004	616.12
575.771	566.12
576.537	552.12
577.303	516.12
578.07	494.12
578.836	457.12
579.602	427.12
580.368	414.12
581.134	401.12
581.9	369.12
582.666	356.12
583.432	337.12
584.198	323.12
584.964	311.12
585.729	288.12
586.495	272.12
587.26	266.12
588.025	245.12
588.791	228.12
589.556	222.12
590.321	209.12
591.086	196.12
591.851	195.12
592.616	181.12
593.381	173.12
594.146	164.12
594.911	159.12
595.675	151.12
596.44	139.12
597.204	138.12
597.969	132.12
598.733	127.12
599.497	121.12
600.261	111.12
601.025	108.12
601.79	107.12
602.553	100.12
603.317	103.12
604.081	96.12
604.845	91.12
605.609	87.12
606.372	83.12
607.136	80.12
607.899	77.12
608.662	72.12
609.426	72.12
610.189	69.12
610.952	69.12
611.715	64.12
612.478	64.12
613.241	62.12
614.004	59.12
614.767	52.12
615.529	55.12
616.292	50.12
617.055	47.12
617.817	48.12
618.579	47.12
619.342	46.12
620.104	42.12
620.866	44.12
621.628	41.12
622.39	38.12
623.152	40.12
623.914	37.12
624.676	38.12
625.438	33.12
626.199	34.12
626.961	33.12
627.722	30.12
628.484	32.12
629.245	29.12
630.006	29.12
630.768	29.12
631.529	28.12
632.29	27.12
633.051	22.12
633.812	28.12
634.573	24.12
635.333	26.12
636.094	22.12
636.855	21.12
637.615	20.12
638.376	20.12
639.136	21.12
639.896	22.12
640.657	19.12
641.417	22.12
642.177	19.12
642.937	20.12
643.697	18.12
644.457	20.12
645.216	17.12
645.976	16.12
646.736	15.12
647.495	15.12
648.255	15.12
649.014	16.12
649.774	16.12
650.533	16.12
651.292	17.12
652.051	18.12
652.81	13.12
653.569	15.12
654.328	15.12
655.087	14.12
655.846	14.12
656.604	14.12
657.363	13.12
658.121	13.12
658.88	13.12
659.638	13.12
660.397	12.12
661.155	13.12
661.913	11.12
662.671	12.12
663.429	13.12
664.187	11.12
664.945	12.12
665.703	11.12
666.46	13.12
667.218	10.12
667.976	11.12
668.733	11.12
669.49	12.12
670.248	11.12
671.005	10.12
671.762	11.12
672.519	10.12
673.276	11.12
674.033	9.12
674.79	10.12
675.547	7.12
676.304	9.12
677.06	10.12
677.817	11.12
678.574	10.12
679.33	8.12
680.086	7.12
680.843	12.12
681.599	11.12
682.355	9.12
683.111	9.12
683.867	8.12
684.623	9.12
685.379	10.12
686.135	10.12
686.89	9.12
687.646	8.12
688.402	9.12
689.157	7.12
689.912	10.12
690.668	8.12
691.423	10.12
692.178	11.12
692.933	8.12
693.688	9.12
694.443	9.12
695.198	10.12
695.953	9.12
696.708	9.12
697.462	8.12
698.217	8.12
698.972	10.12
699.726	6.12
700.48	6.12
701.235	9.12
701.989	8.12
702.743	9.12
703.497	6.12
704.251	8.12
705.005	6.12
705.759	9.12
706.513	6.12
707.266	8.12
708.02	8.12
708.774	9.12
709.527	7.12
710.28	9.12
711.034	8.12
711.787	9.12
712.54	8.12
713.293	9.12
714.046	8.12
714.799	7.12
715.552	7.12
716.305	7.12
717.058	8.12
717.81	10.12
718.563	7.12
719.315	11.12
720.068	11.12
720.82	10.12
721.573	8.12
722.325	7.12
723.077	10.12
723.829	11.12
724.581	8.12
725.333	10.12
726.085	8.12
726.836	10.12
727.588	9.12
728.34	11.12
729.091	9.12
729.843	8.12
730.594	11.12
731.346	10.12
732.097	10.12
732.848	11.12
733.599	10.12
734.35	9.12
735.101	10.12
735.852	10.12
736.603	8.12
737.354	9.12
738.104	11.12
738.855	12.12
739.605	10.12
740.356	12.12
741.106	11.12
741.856	11.12
742.607	12.12
743.357	10.12
744.107	13.12
744.857	12.12
745.607	15.12
746.357	13.12
747.106	11.12
747.856	10.12
748.606	12.12
749.355	14.12
750.105	11.12
750.854	13.12
751.603	11.12
752.353	10.12
753.102	15.12
753.851	13.12
754.6	13.12
755.349	14.12
756.098	14.12
756.847	9.12
757.595	11.12
758.344	13.12
759.093	13.12
759.841	13.12
760.589	14.12
761.338	12.12
762.086	13.12
762.834	12.12
763.582	15.12
764.331	15.12
765.079	14.12
765.826	16.12
766.574	15.12
767.322	17.12
768.07	13.12
768.817	18.12
769.565	16.12
770.312	15.12
771.06	16.12
771.807	14.12
772.554	14.12
773.302	16.12
774.049	13.12
774.796	15.12
775.543	16.12
776.29	17.12
777.036	17.12
777.783	15.12
778.53	16.12
779.276	18.12
780.023	17.12
780.769	16.12
781.516	19.12
782.262	16.12
783.008	18.12
783.754	20.12
784.5	18.12
785.246	16.12
785.992	15.12
786.738	15.12
787.484	16.12
788.23	14.12
788.975	16.12
789.721	16.12
790.466	13.12
791.212	13.12
791.957	15.12
792.702	15.12
793.447	14.12
794.193	15.12
794.938	14.12
795.683	18.12
796.427	15.12
797.172	16.12
797.917	14.12
798.662	10.12
799.406	15.12
800.151	12.12
800.895	12.12
801.64	13.12
802.384	14.12
803.128	15.12
803.872	11.12
804.616	14.12
805.36	12.12
806.104	12.12
806.848	10.12
807.592	11.12
808.336	13.12
809.079	9.12
809.823	11.12
810.566	10.12
811.31	10.12
812.053	10.12
812.796	8.12
813.539	11.12
814.283	8.12
815.026	10.12
815.769	10.12
816.511	13.12
817.254	11.12
817.997	10.12
818.74	10.12
819.482	8.12
820.225	11.12
820.967	7.12
821.71	8.12
822.452	8.12
823.194	9.12
823.936	7.12
824.678	10.12
825.42	10.12
826.162	8.12
826.904	10.12
827.646	7.12
828.388	4.12
829.129	9.12
829.871	8.12
830.612	6.12
831.354	5.12
832.095	6.12
832.836	9.12
833.577	8.12
834.319	8.12
835.06	5.12
835.801	7.12
836.542	8.12
837.282	7.12
838.023	9.12
838.764	7.12
839.504	5.12
840.245	6.12
840.985	7.12
841.726	7.12
842.466	6.12
843.206	4.12
843.946	9.12
844.687	7.12
845.427	5.12
846.166	7.12
846.906	6.12
847.646	5.12
848.386	4.12
849.125	5.12
849.865	6.12
850.605	6.12
851.344	4.12
852.083	5.12
852.823	5.12
853.562	5.12
854.301	6.12
855.04	3.12
855.779	5.12
856.518	4.12
857.257	5.12
857.995	5.12
858.734	5.12
859.473	6.12
860.211	7.12
860.95	4.12
861.688	4.12
862.426	3.12
863.165	3.12
863.903	2.12
864.641	4.12
865.379	7.12
866.117	4.12
866.855	4.12
867.593	5.12
868.33	4.12
869.068	4.12
869.806	5.12
870.543	4.12
871.28	3.12
872.018	4.12
872.755	4.12
873.492	5.12
874.229	3.12
874.967	4.12
875.703	4.12
876.44	3.12
877.177	1.12
877.914	3.12
878.651	4.12
879.387	2.12
880.124	0.12
880.86	1.12
881.597	1.12
882.333	2.12
883.069	3.12
883.806	2.12
884.542	4.12
885.278	3.12
886.014	2.12
886.749	0.12
887.485	3.12
888.221	0.12
888.957	2.12
889.692	-0.88
890.428	1.12
891.163	2.12
891.899	2.12
892.634	2.12
893.369	3.12
894.104	4.12
894.839	3.12
895.574	2.12
896.309	4.12
897.044	1.12
897.779	3.12
898.514	4.12
899.248	0.12
899.983	2.12
900.717	2.12
901.452	3.12
902.186	3.12
902.92	0.12
903.654	2.12
904.389	1.12
905.123	2.12
905.857	0.12
906.59	2.12
907.324	0.12
908.058	1.12
908.792	0.12
909.525	0.12
910.259	2.12
910.992	2.12
911.726	2.12
912.459	-1.88
913.192	2.12
913.925	1.12
914.658	0.12
915.391	3.12
916.124	3.12
916.857	0.12
917.59	1.12
918.323	0.12
919.055	2.12
919.788	1.12
920.521	1.12
921.253	4.12
921.985	0.12
922.718	3.12
923.45	2.12
924.182	2.12
924.914	1.12
925.646	0.12
926.378	2.12
927.11	1.12
927.841	2.12
928.573	0.12
929.305	0.12
930.036	2.12
930.768	1.12
931.499	3.12
932.23	1.12
932.962	1.12
933.693	3.12
934.424	2.12
935.155	2.12
935.886	0.12
936.617	0.12
937.348	-0.88
938.078	4.12
938.809	0.12
939.54	3.12
940.27	2.12
941.001	1.12
941.731	1.12
942.461	3.12
943.191	2.12
943.922	3.12
944.652	2.12
945.382	2.12
946.112	0.12
946.841	1.12
947.571	2.12
948.301	2.12
949.031	1.12
949.76	1.12
950.49	2.12
951.219	1.12
951.948	1.12
952.678	3.12
953.407	-0.88
954.136	0.12
954.865	2.12
955.594	3.12
956.323	0.12
957.052	3.12
957.78	1.12
958.509	2.12
959.238	2.12
959.966	1.12
960.695	-0.88
961.423	0.12
962.151	-0.88
962.88	1.12
963.608	3.12
964.336	2.12
965.064	3.12
965.792	2.12
966.52	2.12
967.247	1.12
967.975	2.12
968.703	-0.88
969.43	0.12
970.158	1.12
970.885	2.12
971.613	3.12
972.34	0.12
973.067	1.12
973.794	1.12
974.521	0.12
975.248	1.12
975.975	0.12
976.702	2.12
977.429	2.12
978.156	-0.88
978.882	2.12
979.609	0.12
980.335	2.12
981.062	2.12
981.788	0.12
982.514	0.12
983.24	2.12
983.967	1.12
984.693	1.12
985.419	0.12
986.144	2.12
986.87	0.12
987.596	2.12
988.322	-0.88
989.047	3.12
989.773	0.12
990.498	2.12
991.224	1.12
991.949	2.12
992.674	2.12
993.399	2.12
994.124	1.12
994.849	1.12
995.574	2.12
996.299	3.12
997.024	1.12
997.749	4.12
998.473	1.12
999.198	4.12
999.922	0.12
1000.647	1.12
1001.371	6.12
1002.095	-0.88
1002.82	-0.88
1003.544	0.12
1004.268	4.12
1004.992	5.12
1005.716	4.12
1006.439	6.12
1007.163	5.12
1007.887	5.12
1008.611	3.12
1009.334	2.12
1010.058	3.12
1010.781	0.12
1011.504	0.12
1012.228	1.12
1012.951	-0.88
1013.674	0.12
1014.397	-2.88
1015.12	-0.88
