节点500_705_QEPB04081__222__20-49-04-471.txt的数据

Date: Wed Nov 12 20:49:04 CST 2025
User: PC
Spectrometer: QEPB0408
触发模式: 0
积分时间 (秒): 1.000000E-2
Scans to average: 1
启用暗噪声校正: true
启用非线性校正: false
滑动平均宽度: 0
X轴模式: Wavelengths
Number of Pixels in Spectrum: 1044
>>>>>Begin Spectral Data<<<<<
220.843	4
221.644	6
222.444	6
223.244	3
224.045	7
224.845	7
225.645	6
226.445	4
227.245	7
228.045	6
228.845	6
229.645	9
230.444	8
231.244	8
232.043	9
232.843	7
233.642	10
234.442	10
235.241	12
236.04	11
236.839	11
237.638	10
238.437	10
239.236	11
240.035	7
240.833	11
241.632	13
242.43	11
243.229	14
244.027	11
244.826	14
245.624	14
246.422	13
247.22	14
248.018	14
248.816	15
249.614	14
250.412	17
251.21	14
252.007	14
252.805	17
253.602	18
254.4	19
255.197	18
255.994	19
256.791	17
257.589	20
258.386	21
259.183	19
259.979	25
260.776	23
261.573	22
262.37	24
263.166	24
263.963	25
264.759	25
265.556	27
266.352	28
267.148	28
267.944	29
268.74	28
269.536	29
270.332	32
271.128	33
271.924	29
272.719	28
273.515	32
274.311	31
275.106	33
275.901	34
276.697	35
277.492	34
278.287	33
279.082	39
279.877	34
280.672	36
281.467	32
282.262	34
283.056	36
283.851	37
284.646	35
285.44	35
286.234	31
287.029	36
287.823	35
288.617	33
289.411	33
290.205	33
290.999	32
291.793	31
292.587	31
293.381	29
294.174	28
294.968	29
295.761	27
296.555	25
297.348	26
298.141	26
298.935	30
299.728	26
300.521	25
301.314	24
302.107	26
302.899	21
303.692	24
304.485	21
305.277	23
306.07	20
306.862	21
307.655	22
308.447	19
309.239	20
310.031	19
310.823	20
311.615	18
312.407	17
313.199	16
313.991	16
314.783	18
315.574	16
316.366	19
317.157	15
317.949	12
318.74	13
319.531	12
320.322	16
321.113	12
321.904	13
322.695	13
323.486	11
324.277	14
325.068	13
325.858	12
326.649	12
327.439	10
328.23	15
329.02	12
329.81	11
330.6	11
331.391	13
332.181	12
332.971	12
333.76	14
334.55	10
335.34	9
336.13	11
336.919	11
337.709	10
338.498	12
339.287	12
340.077	14
340.866	9
341.655	13
342.444	12
343.233	10
344.022	10
344.811	11
345.6	11
346.388	9
347.177	11
347.965	9
348.754	11
349.542	10
350.33	11
351.119	14
351.907	10
352.695	10
353.483	7
354.271	11
355.059	11
355.846	11
356.634	13
357.422	9
358.209	7
358.997	9
359.784	9
360.571	11
361.359	9
362.146	10
362.933	10
363.72	10
364.507	11
365.294	8
366.081	10
366.867	8
367.654	9
368.44	8
369.227	10
370.013	11
370.8	7
371.586	11
372.372	7
373.158	8
373.944	10
374.73	10
375.516	10
376.302	10
377.088	10
377.873	10
378.659	7
379.445	10
380.23	9
381.015	11
381.801	10
382.586	10
383.371	12
384.156	11
384.941	9
385.726	9
386.511	11
387.296	11
388.08	11
388.865	14
389.649	9
390.434	12
391.218	10
392.003	10
392.787	11
393.571	13
394.355	10
395.139	12
395.923	15
396.707	11
397.491	13
398.274	12
399.058	10
399.842	14
400.625	13
401.408	13
402.192	12
402.975	13
403.758	16
404.541	14
405.324	15
406.107	12
406.89	13
407.673	14
408.456	16
409.238	15
410.021	17
410.803	15
411.586	17
412.368	16
413.151	18
413.933	18
414.715	17
415.497	18
416.279	18
417.061	19
417.843	20
418.624	18
419.406	18
420.188	23
420.969	23
421.751	22
422.532	21
423.313	22
424.095	22
424.876	22
425.657	25
426.438	26
427.219	23
428	25
428.78	27
429.561	29
430.342	26
431.122	30
431.903	29
432.683	33
433.464	33
434.244	38
435.024	38
435.804	39
436.584	43
437.364	48
438.144	44
438.924	50
439.704	52
440.483	52
441.263	60
442.042	66
442.822	68
443.601	73
444.38	78
445.16	84
445.939	92
446.718	100
447.497	105
448.276	120
449.054	133
449.833	147
450.612	152
451.391	173
452.169	190
452.948	206
453.726	233
454.504	258
455.282	286
456.061	322
456.839	354
457.617	393
458.395	445
459.172	495
459.95	550
460.728	619
461.506	693
462.283	761
463.061	854
463.838	956
464.615	1072
465.393	1188
466.17	1329
466.947	1476
467.724	1646
468.501	1829
469.278	2018
470.055	2246
470.831	2492
471.608	2737
472.385	3027
473.161	3352
473.938	3672
474.714	4053
475.49	4495
476.266	4893
477.043	5388
477.819	5885
478.595	6473
479.371	7076
480.146	7771
480.922	8501
481.698	9286
482.473	10111
483.249	11005
484.024	11983
484.8	13002
485.575	14136
486.35	15350
487.126	16666
487.901	18016
488.676	19550
489.451	21073
490.225	22612
491	24305
491.775	26096
492.55	27911
493.324	29766
494.099	31460
494.873	33407
495.647	35235
496.422	37164
497.196	39040
497.97	40691
498.744	42160
499.518	43757
500.292	45196
501.066	46042
501.839	47049
502.613	47673
503.387	48212
504.16	48457
504.934	48515
505.707	48173
506.48	47651
507.253	47060
508.027	46270
508.8	45165
509.573	44039
510.346	42777
511.118	41645
511.891	40316
512.664	38623
513.437	37188
514.209	35785
514.982	34306
515.754	32929
516.526	31478
517.298	30230
518.071	29010
518.843	27891
519.615	26760
520.387	25752
521.159	24682
521.93	23630
522.702	22571
523.474	21683
524.245	20783
525.017	19815
525.788	18879
526.56	18086
527.331	17260
528.102	16399
528.873	15570
529.644	14810
530.415	14101
531.186	13405
531.957	12710
532.728	12041
533.498	11411
534.269	10760
535.039	10191
535.81	9669
536.58	9130
537.351	8617
538.121	8196
538.891	7744
539.661	7340
540.431	6922
541.201	6585
541.971	6225
542.741	5903
543.51	5602
544.28	5329
545.05	5065
545.819	4842
546.588	4591
547.358	4398
548.127	4147
548.896	3955
549.665	3771
550.434	3542
551.203	3360
551.972	3202
552.741	3038
553.51	2860
554.278	2681
555.047	2551
555.815	2411
556.584	2250
557.352	2125
558.121	2033
558.889	1902
559.657	1802
560.425	1710
561.193	1610
561.961	1536
562.729	1441
563.496	1368
564.264	1285
565.032	1228
565.799	1169
566.567	1090
567.334	1025
568.101	975
568.869	910
569.636	855
570.403	826
571.17	780
571.937	734
572.704	701
573.471	659
574.237	622
575.004	584
575.771	543
576.537	514
577.303	491
578.07	464
578.836	426
579.602	409
580.368	394
581.134	377
581.9	360
582.666	331
583.432	312
584.198	300
584.964	286
585.729	280
586.495	260
587.26	241
588.025	232
588.791	220
589.556	209
590.321	200
591.086	187
591.851	176
592.616	172
593.381	162
594.146	155
594.911	146
595.675	135
596.44	131
597.204	129
597.969	121
598.733	115
599.497	112
600.261	110
601.025	103
601.79	103
602.553	93
603.317	92
604.081	88
604.845	83
605.609	82
606.372	79
607.136	76
607.899	72
608.662	69
609.426	67
610.189	65
610.952	63
611.715	58
612.478	57
613.241	56
614.004	53
614.767	51
615.529	47
616.292	46
617.055	48
617.817	44
618.579	47
619.342	42
620.104	41
620.866	42
621.628	39
622.39	38
623.152	36
623.914	36
624.676	34
625.438	31
626.199	32
626.961	29
627.722	31
628.484	26
629.245	29
630.006	27
630.768	22
631.529	26
632.29	23
633.051	26
633.812	23
634.573	21
635.333	20
636.094	19
636.855	22
637.615	17
638.376	17
639.136	17
639.896	17
640.657	20
641.417	17
642.177	17
642.937	16
643.697	18
644.457	17
645.216	17
645.976	16
646.736	15
647.495	13
648.255	14
649.014	16
649.774	14
650.533	14
651.292	13
652.051	14
652.81	14
653.569	11
654.328	11
655.087	13
655.846	13
656.604	11
657.363	13
658.121	9
658.88	13
659.638	10
660.397	10
661.155	9
661.913	9
662.671	9
663.429	8
664.187	11
664.945	10
665.703	11
666.46	7
667.218	8
667.976	11
668.733	11
669.49	11
670.248	6
671.005	10
671.762	9
672.519	11
673.276	7
674.033	9
674.79	10
675.547	7
676.304	7
677.06	10
677.817	7
678.574	7
679.33	8
680.086	9
680.843	7
681.599	6
682.355	6
683.111	6
683.867	11
684.623	7
685.379	9
686.135	7
686.89	7
687.646	6
688.402	6
689.157	9
689.912	6
690.668	9
691.423	6
692.178	5
692.933	5
693.688	7
694.443	6
695.198	9
695.953	7
696.708	7
697.462	6
698.217	8
698.972	7
699.726	7
700.48	6
701.235	7
701.989	7
702.743	6
703.497	7
704.251	8
705.005	6
705.759	7
706.513	4
707.266	6
708.02	6
708.774	9
709.527	8
710.28	8
711.034	5
711.787	7
712.54	7
713.293	8
714.046	9
714.799	7
715.552	8
716.305	7
717.058	6
717.81	4
718.563	6
719.315	5
720.068	7
720.82	7
721.573	9
722.325	5
723.077	9
723.829	6
724.581	7
725.333	10
726.085	7
726.836	8
727.588	7
728.34	7
729.091	9
729.843	10
730.594	8
731.346	8
732.097	8
732.848	8
733.599	8
734.35	8
735.101	8
735.852	9
736.603	8
737.354	8
738.104	10
738.855	6
739.605	8
740.356	9
741.106	7
741.856	7
742.607	12
743.357	11
744.107	9
744.857	11
745.607	12
746.357	10
747.106	10
747.856	9
748.606	11
749.355	11
750.105	11
750.854	10
751.603	10
752.353	11
753.102	11
753.851	11
754.6	10
755.349	11
756.098	13
756.847	11
757.595	13
758.344	10
759.093	12
759.841	11
760.589	13
761.338	14
762.086	11
762.834	12
763.582	12
764.331	13
765.079	14
765.826	12
766.574	14
767.322	12
768.07	14
768.817	14
769.565	16
770.312	14
771.06	13
771.807	16
772.554	12
773.302	13
774.049	13
774.796	14
775.543	17
776.29	14
777.036	15
777.783	16
778.53	16
779.276	15
780.023	13
780.769	14
781.516	15
782.262	14
783.008	16
783.754	14
784.5	16
785.246	14
785.992	18
786.738	14
787.484	14
788.23	18
788.975	16
789.721	15
790.466	15
791.212	12
791.957	14
792.702	16
793.447	16
794.193	14
794.938	12
795.683	11
796.427	12
797.172	10
797.917	12
798.662	11
799.406	11
800.151	12
800.895	13
801.64	10
802.384	9
803.128	10
803.872	11
804.616	12
805.36	10
806.104	11
806.848	10
807.592	9
808.336	9
809.079	10
809.823	10
810.566	9
811.31	8
812.053	7
812.796	9
813.539	11
814.283	9
815.026	9
815.769	8
816.511	7
817.254	5
817.997	8
818.74	8
819.482	9
820.225	7
820.967	7
821.71	6
822.452	7
823.194	6
823.936	7
824.678	5
825.42	5
826.162	4
826.904	5
827.646	7
828.388	7
829.129	6
829.871	4
830.612	5
831.354	6
832.095	9
832.836	7
833.577	4
834.319	6
835.06	4
835.801	5
836.542	4
837.282	4
838.023	4
838.764	5
839.504	6
840.245	5
840.985	7
841.726	2
842.466	6
843.206	5
843.946	2
844.687	6
845.427	4
846.166	5
846.906	4
847.646	4
848.386	3
849.125	3
849.865	6
850.605	4
851.344	5
852.083	4
852.823	2
853.562	4
854.301	3
855.04	3
855.779	3
856.518	4
857.257	2
857.995	3
858.734	5
859.473	4
860.211	5
860.95	1
861.688	3
862.426	4
863.165	4
863.903	2
864.641	1
865.379	2
866.117	5
866.855	3
867.593	4
868.33	1
869.068	1
869.806	2
870.543	0
871.28	1
872.018	1
872.755	3
873.492	-1
874.229	2
874.967	2
875.703	0
876.44	1
877.177	1
877.914	1
878.651	2
879.387	-1
880.124	0
880.86	-1
881.597	1
882.333	3
883.069	1
883.806	2
884.542	0
885.278	0
886.014	2
886.749	1
887.485	-1
888.221	0
888.957	2
889.692	-1
890.428	2
891.163	2
891.899	1
892.634	-1
893.369	0
894.104	1
894.839	1
895.574	2
896.309	-1
897.044	0
897.779	2
898.514	-1
899.248	1
899.983	1
900.717	0
901.452	1
902.186	0
902.92	0
903.654	-1
904.389	1
905.123	1
905.857	-1
906.59	1
907.324	0
908.058	-1
908.792	0
909.525	1
910.259	0
910.992	-2
911.726	0
912.459	0
913.192	0
913.925	2
914.658	0
915.391	-1
916.124	1
916.857	1
917.59	0
918.323	0
919.055	1
919.788	-2
920.521	1
921.253	0
921.985	0
922.718	2
923.45	-2
924.182	0
924.914	0
925.646	1
926.378	-1
927.11	0
927.841	0
928.573	-1
929.305	0
930.036	0
930.768	-1
931.499	0
932.23	0
932.962	-1
933.693	-2
934.424	-1
935.155	-2
935.886	0
936.617	-1
937.348	-1
938.078	-1
938.809	0
939.54	0
940.27	-2
941.001	0
941.731	-1
942.461	-1
943.191	2
943.922	0
944.652	-2
945.382	1
946.112	-2
946.841	-1
947.571	0
948.301	-2
949.031	1
949.76	2
950.49	1
951.219	1
951.948	1
952.678	-1
953.407	0
954.136	-2
954.865	-1
955.594	0
956.323	1
957.052	-1
957.78	-1
958.509	-1
959.238	-2
959.966	1
960.695	-2
961.423	-2
962.151	2
962.88	-1
963.608	1
964.336	-1
965.064	0
965.792	1
966.52	1
967.247	1
967.975	-2
968.703	-2
969.43	0
970.158	-2
970.885	0
971.613	-1
972.34	1
973.067	-2
973.794	0
974.521	0
975.248	0
975.975	0
976.702	-2
977.429	-2
978.156	2
978.882	1
979.609	-1
980.335	0
981.062	0
981.788	0
982.514	-2
983.24	-1
983.967	-1
984.693	1
985.419	1
986.144	-1
986.87	1
987.596	-1
988.322	1
989.047	0
989.773	1
990.498	-1
991.224	-2
991.949	-1
992.674	0
993.399	1
994.124	-2
994.849	0
995.574	0
996.299	-2
997.024	1
997.749	-1
998.473	1
999.198	-1
999.922	-2
1000.647	-2
1001.371	4
1002.095	-2
1002.82	0
1003.544	-2
1004.268	6
1004.992	7
1005.716	5
1006.439	5
1007.163	2
1007.887	7
1008.611	1
1009.334	-1
1010.058	-1
1010.781	-2
1011.504	0
1012.228	-1
1012.951	1
1013.674	-3
1014.397	0
1015.12	2
