节点500_705_QEPB04081__257__20-49-35-429.txt的数据

Date: Wed Nov 12 20:49:35 CST 2025
User: PC
Spectrometer: QEPB0408
触发模式: 0
积分时间 (秒): 1.000000E-2
Scans to average: 1
启用暗噪声校正: true
启用非线性校正: false
滑动平均宽度: 0
X轴模式: Wavelengths
Number of Pixels in Spectrum: 1044
>>>>>Begin Spectral Data<<<<<
220.843	4.75
221.644	3.75
222.444	2.75
223.244	4.75
224.045	8.75
224.845	8.75
225.645	6.75
226.445	6.75
227.245	5.75
228.045	6.75
228.845	6.75
229.645	8.75
230.444	7.75
231.244	7.75
232.043	10.75
232.843	7.75
233.642	11.75
234.442	11.75
235.241	9.75
236.04	10.75
236.839	9.75
237.638	10.75
238.437	12.75
239.236	13.75
240.035	11.75
240.833	13.75
241.632	12.75
242.43	12.75
243.229	11.75
244.027	11.75
244.826	12.75
245.624	11.75
246.422	11.75
247.22	14.75
248.018	13.75
248.816	14.75
249.614	13.75
250.412	14.75
251.21	17.75
252.007	15.75
252.805	15.75
253.602	17.75
254.4	18.75
255.197	16.75
255.994	20.75
256.791	17.75
257.589	19.75
258.386	22.75
259.183	20.75
259.979	22.75
260.776	23.75
261.573	23.75
262.37	26.75
263.166	25.75
263.963	26.75
264.759	27.75
265.556	25.75
266.352	27.75
267.148	26.75
267.944	26.75
268.74	30.75
269.536	27.75
270.332	33.75
271.128	28.75
271.924	32.75
272.719	32.75
273.515	31.75
274.311	34.75
275.106	31.75
275.901	31.75
276.697	32.75
277.492	35.75
278.287	32.75
279.082	30.75
279.877	35.75
280.672	33.75
281.467	32.75
282.262	35.75
283.056	36.75
283.851	33.75
284.646	34.75
285.44	35.75
286.234	34.75
287.029	32.75
287.823	33.75
288.617	31.75
289.411	34.75
290.205	31.75
290.999	31.75
291.793	30.75
292.587	31.75
293.381	30.75
294.174	28.75
294.968	30.75
295.761	27.75
296.555	26.75
297.348	26.75
298.141	29.75
298.935	28.75
299.728	25.75
300.521	22.75
301.314	25.75
302.107	26.75
302.899	20.75
303.692	20.75
304.485	23.75
305.277	22.75
306.07	19.75
306.862	22.75
307.655	21.75
308.447	22.75
309.239	21.75
310.031	18.75
310.823	18.75
311.615	20.75
312.407	15.75
313.199	14.75
313.991	16.75
314.783	14.75
315.574	17.75
316.366	13.75
317.157	16.75
317.949	13.75
318.74	11.75
319.531	12.75
320.322	14.75
321.113	13.75
321.904	13.75
322.695	10.75
323.486	14.75
324.277	10.75
325.068	15.75
325.858	13.75
326.649	9.75
327.439	10.75
328.23	13.75
329.02	14.75
329.81	12.75
330.6	13.75
331.391	13.75
332.181	11.75
332.971	10.75
333.76	11.75
334.55	11.75
335.34	10.75
336.13	12.75
336.919	12.75
337.709	13.75
338.498	10.75
339.287	12.75
340.077	11.75
340.866	9.75
341.655	11.75
342.444	9.75
343.233	11.75
344.022	13.75
344.811	10.75
345.6	11.75
346.388	10.75
347.177	10.75
347.965	10.75
348.754	11.75
349.542	12.75
350.33	12.75
351.119	10.75
351.907	11.75
352.695	10.75
353.483	11.75
354.271	7.75
355.059	11.75
355.846	8.75
356.634	12.75
357.422	9.75
358.209	9.75
358.997	8.75
359.784	11.75
360.571	9.75
361.359	8.75
362.146	10.75
362.933	10.75
363.72	10.75
364.507	11.75
365.294	9.75
366.081	8.75
366.867	7.75
367.654	9.75
368.44	9.75
369.227	7.75
370.013	8.75
370.8	10.75
371.586	10.75
372.372	7.75
373.158	7.75
373.944	11.75
374.73	9.75
375.516	11.75
376.302	11.75
377.088	10.75
377.873	10.75
378.659	9.75
379.445	10.75
380.23	10.75
381.015	7.75
381.801	10.75
382.586	9.75
383.371	10.75
384.156	8.75
384.941	9.75
385.726	9.75
386.511	11.75
387.296	11.75
388.08	10.75
388.865	11.75
389.649	12.75
390.434	9.75
391.218	12.75
392.003	10.75
392.787	11.75
393.571	13.75
394.355	10.75
395.139	12.75
395.923	12.75
396.707	15.75
397.491	9.75
398.274	12.75
399.058	14.75
399.842	10.75
400.625	15.75
401.408	14.75
402.192	15.75
402.975	14.75
403.758	14.75
404.541	12.75
405.324	14.75
406.107	14.75
406.89	16.75
407.673	14.75
408.456	15.75
409.238	14.75
410.021	14.75
410.803	16.75
411.586	19.75
412.368	17.75
413.151	16.75
413.933	17.75
414.715	16.75
415.497	21.75
416.279	18.75
417.061	19.75
417.843	19.75
418.624	19.75
419.406	20.75
420.188	21.75
420.969	21.75
421.751	22.75
422.532	20.75
423.313	21.75
424.095	23.75
424.876	25.75
425.657	24.75
426.438	28.75
427.219	24.75
428	26.75
428.78	29.75
429.561	25.75
430.342	33.75
431.122	33.75
431.903	29.75
432.683	34.75
433.464	36.75
434.244	39.75
435.024	37.75
435.804	40.75
436.584	44.75
437.364	45.75
438.144	46.75
438.924	46.75
439.704	51.75
440.483	55.75
441.263	60.75
442.042	62.75
442.822	66.75
443.601	72.75
444.38	79.75
445.16	84.75
445.939	92.75
446.718	101.75
447.497	107.75
448.276	120.75
449.054	127.75
449.833	144.75
450.612	156.75
451.391	172.75
452.169	194.75
452.948	204.75
453.726	232.75
454.504	260.75
455.282	285.75
456.061	318.75
456.839	358.75
457.617	401.75
458.395	442.75
459.172	497.75
459.95	561.75
460.728	620.75
461.506	691.75
462.283	766.75
463.061	862.75
463.838	963.75
464.615	1076.75
465.393	1195.75
466.17	1325.75
466.947	1488.75
467.724	1652.75
468.501	1840.75
469.278	2034.75
470.055	2254.75
470.831	2486.75
471.608	2768.75
472.385	3018.75
473.161	3354.75
473.938	3712.75
474.714	4058.75
475.49	4464.75
476.266	4889.75
477.043	5380.75
477.819	5857.75
478.595	6438.75
479.371	7049.75
480.146	7664.75
480.922	8402.75
481.698	9143.75
482.473	10017.75
483.249	10890.75
484.024	11860.75
484.8	12868.75
485.575	13958.75
486.35	15183.75
487.126	16463.75
487.901	17831.75
488.676	19272.75
489.451	20780.75
490.225	22386.75
491	23997.75
491.775	25706.75
492.55	27541.75
493.324	29332.75
494.099	31057.75
494.873	32993.75
495.647	34788.75
496.422	36579.75
497.196	38545.75
497.97	40126.75
498.744	41676.75
499.518	43230.75
500.292	44586.75
501.066	45627.75
501.839	46492.75
502.613	47070.75
503.387	47735.75
504.16	48037.75
504.934	48206.75
505.707	47950.75
506.48	47501.75
507.253	46888.75
508.027	45999.75
508.8	45007.75
509.573	43876.75
510.346	42777.75
511.118	41565.75
511.891	40339.75
512.664	38809.75
513.437	37150.75
514.209	35695.75
514.982	34395.75
515.754	32929.75
516.526	31556.75
517.298	30330.75
518.071	29081.75
518.843	27954.75
519.615	26766.75
520.387	25780.75
521.159	24763.75
521.93	23681.75
522.702	22705.75
523.474	21740.75
524.245	20836.75
525.017	19905.75
525.788	18983.75
526.56	18175.75
527.331	17400.75
528.102	16451.75
528.873	15611.75
529.644	14906.75
530.415	14212.75
531.186	13494.75
531.957	12793.75
532.728	12098.75
533.498	11458.75
534.269	10874.75
535.039	10254.75
535.81	9724.75
536.58	9188.75
537.351	8688.75
538.121	8269.75
538.891	7764.75
539.661	7401.75
540.431	6979.75
541.201	6619.75
541.971	6298.75
542.741	5950.75
543.51	5636.75
544.28	5341.75
545.05	5099.75
545.819	4881.75
546.588	4677.75
547.358	4413.75
548.127	4205.75
548.896	3998.75
549.665	3794.75
550.434	3578.75
551.203	3385.75
551.972	3200.75
552.741	3028.75
553.51	2849.75
554.278	2725.75
555.047	2550.75
555.815	2419.75
556.584	2284.75
557.352	2148.75
558.121	2021.75
558.889	1925.75
559.657	1826.75
560.425	1714.75
561.193	1621.75
561.961	1558.75
562.729	1452.75
563.496	1374.75
564.264	1302.75
565.032	1239.75
565.799	1164.75
566.567	1110.75
567.334	1052.75
568.101	982.75
568.869	925.75
569.636	873.75
570.403	835.75
571.17	786.75
571.937	733.75
572.704	694.75
573.471	670.75
574.237	618.75
575.004	579.75
575.771	552.75
576.537	519.75
577.303	495.75
578.07	462.75
578.836	432.75
579.602	405.75
580.368	399.75
581.134	374.75
581.9	357.75
582.666	337.75
583.432	324.75
584.198	302.75
584.964	290.75
585.729	282.75
586.495	268.75
587.26	245.75
588.025	234.75
588.791	226.75
589.556	204.75
590.321	203.75
591.086	192.75
591.851	180.75
592.616	173.75
593.381	167.75
594.146	161.75
594.911	155.75
595.675	147.75
596.44	134.75
597.204	131.75
597.969	126.75
598.733	119.75
599.497	113.75
600.261	110.75
601.025	104.75
601.79	103.75
602.553	100.75
603.317	97.75
604.081	89.75
604.845	89.75
605.609	79.75
606.372	81.75
607.136	78.75
607.899	74.75
608.662	69.75
609.426	66.75
610.189	68.75
610.952	63.75
611.715	59.75
612.478	59.75
613.241	58.75
614.004	54.75
614.767	50.75
615.529	51.75
616.292	48.75
617.055	46.75
617.817	44.75
618.579	43.75
619.342	43.75
620.104	42.75
620.866	41.75
621.628	38.75
622.39	38.75
623.152	35.75
623.914	37.75
624.676	35.75
625.438	32.75
626.199	33.75
626.961	30.75
627.722	30.75
628.484	30.75
629.245	29.75
630.006	27.75
630.768	29.75
631.529	26.75
632.29	25.75
633.051	25.75
633.812	23.75
634.573	20.75
635.333	20.75
636.094	23.75
636.855	21.75
637.615	22.75
638.376	24.75
639.136	21.75
639.896	17.75
640.657	19.75
641.417	16.75
642.177	15.75
642.937	17.75
643.697	15.75
644.457	19.75
645.216	18.75
645.976	16.75
646.736	15.75
647.495	14.75
648.255	14.75
649.014	14.75
649.774	11.75
650.533	16.75
651.292	11.75
652.051	13.75
652.81	12.75
653.569	14.75
654.328	13.75
655.087	15.75
655.846	10.75
656.604	11.75
657.363	10.75
658.121	11.75
658.88	13.75
659.638	11.75
660.397	10.75
661.155	9.75
661.913	12.75
662.671	8.75
663.429	11.75
664.187	9.75
664.945	9.75
665.703	9.75
666.46	9.75
667.218	8.75
667.976	9.75
668.733	13.75
669.49	8.75
670.248	9.75
671.005	7.75
671.762	10.75
672.519	9.75
673.276	8.75
674.033	10.75
674.79	9.75
675.547	6.75
676.304	7.75
677.06	7.75
677.817	10.75
678.574	7.75
679.33	7.75
680.086	5.75
680.843	7.75
681.599	8.75
682.355	8.75
683.111	8.75
683.867	7.75
684.623	5.75
685.379	6.75
686.135	10.75
686.89	5.75
687.646	3.75
688.402	6.75
689.157	4.75
689.912	6.75
690.668	6.75
691.423	8.75
692.178	6.75
692.933	8.75
693.688	7.75
694.443	7.75
695.198	7.75
695.953	6.75
696.708	5.75
697.462	6.75
698.217	7.75
698.972	8.75
699.726	6.75
700.48	10.75
701.235	5.75
701.989	9.75
702.743	5.75
703.497	7.75
704.251	9.75
705.005	6.75
705.759	8.75
706.513	8.75
707.266	7.75
708.02	7.75
708.774	5.75
709.527	6.75
710.28	8.75
711.034	6.75
711.787	7.75
712.54	5.75
713.293	6.75
714.046	7.75
714.799	6.75
715.552	8.75
716.305	7.75
717.058	8.75
717.81	7.75
718.563	9.75
719.315	10.75
720.068	7.75
720.82	9.75
721.573	5.75
722.325	8.75
723.077	5.75
723.829	6.75
724.581	9.75
725.333	8.75
726.085	9.75
726.836	7.75
727.588	9.75
728.34	9.75
729.091	5.75
729.843	7.75
730.594	9.75
731.346	8.75
732.097	8.75
732.848	10.75
733.599	9.75
734.35	9.75
735.101	9.75
735.852	6.75
736.603	9.75
737.354	9.75
738.104	8.75
738.855	8.75
739.605	8.75
740.356	8.75
741.106	10.75
741.856	10.75
742.607	10.75
743.357	11.75
744.107	10.75
744.857	11.75
745.607	9.75
746.357	12.75
747.106	9.75
747.856	8.75
748.606	9.75
749.355	13.75
750.105	11.75
750.854	10.75
751.603	10.75
752.353	9.75
753.102	12.75
753.851	8.75
754.6	10.75
755.349	12.75
756.098	10.75
756.847	11.75
757.595	11.75
758.344	13.75
759.093	10.75
759.841	12.75
760.589	12.75
761.338	11.75
762.086	12.75
762.834	11.75
763.582	13.75
764.331	12.75
765.079	15.75
765.826	12.75
766.574	12.75
767.322	12.75
768.07	14.75
768.817	14.75
769.565	16.75
770.312	13.75
771.06	16.75
771.807	14.75
772.554	13.75
773.302	15.75
774.049	14.75
774.796	15.75
775.543	15.75
776.29	15.75
777.036	16.75
777.783	15.75
778.53	14.75
779.276	17.75
780.023	15.75
780.769	13.75
781.516	16.75
782.262	16.75
783.008	16.75
783.754	17.75
784.5	13.75
785.246	13.75
785.992	16.75
786.738	16.75
787.484	16.75
788.23	15.75
788.975	14.75
789.721	14.75
790.466	14.75
791.212	13.75
791.957	14.75
792.702	14.75
793.447	14.75
794.193	14.75
794.938	15.75
795.683	13.75
796.427	13.75
797.172	10.75
797.917	12.75
798.662	10.75
799.406	12.75
800.151	12.75
800.895	14.75
801.64	11.75
802.384	10.75
803.128	11.75
803.872	9.75
804.616	12.75
805.36	12.75
806.104	10.75
806.848	10.75
807.592	9.75
808.336	10.75
809.079	8.75
809.823	12.75
810.566	8.75
811.31	10.75
812.053	7.75
812.796	7.75
813.539	10.75
814.283	7.75
815.026	8.75
815.769	10.75
816.511	9.75
817.254	9.75
817.997	6.75
818.74	7.75
819.482	4.75
820.225	6.75
820.967	5.75
821.71	6.75
822.452	8.75
823.194	6.75
823.936	5.75
824.678	6.75
825.42	6.75
826.162	7.75
826.904	5.75
827.646	6.75
828.388	4.75
829.129	6.75
829.871	7.75
830.612	4.75
831.354	6.75
832.095	5.75
832.836	5.75
833.577	6.75
834.319	5.75
835.06	6.75
835.801	5.75
836.542	5.75
837.282	6.75
838.023	4.75
838.764	2.75
839.504	3.75
840.245	5.75
840.985	5.75
841.726	3.75
842.466	4.75
843.206	5.75
843.946	5.75
844.687	2.75
845.427	6.75
846.166	3.75
846.906	4.75
847.646	7.75
848.386	4.75
849.125	5.75
849.865	4.75
850.605	5.75
851.344	5.75
852.083	2.75
852.823	4.75
853.562	6.75
854.301	2.75
855.04	4.75
855.779	4.75
856.518	4.75
857.257	4.75
857.995	5.75
858.734	1.75
859.473	4.75
860.211	2.75
860.95	2.75
861.688	3.75
862.426	2.75
863.165	3.75
863.903	2.75
864.641	1.75
865.379	3.75
866.117	4.75
866.855	2.75
867.593	1.75
868.33	3.75
869.068	1.75
869.806	0.75
870.543	3.75
871.28	2.75
872.018	2.75
872.755	3.75
873.492	0.75
874.229	1.75
874.967	2.75
875.703	-0.25
876.44	0.75
877.177	0.75
877.914	2.75
878.651	2.75
879.387	1.75
880.124	2.75
880.86	-0.25
881.597	1.75
882.333	-0.25
883.069	-1.25
883.806	0.75
884.542	-1.25
885.278	0.75
886.014	2.75
886.749	2.75
887.485	1.75
888.221	1.75
888.957	2.75
889.692	1.75
890.428	1.75
891.163	0.75
891.899	1.75
892.634	3.75
893.369	2.75
894.104	1.75
894.839	-0.25
895.574	0.75
896.309	0.75
897.044	1.75
897.779	2.75
898.514	1.75
899.248	-1.25
899.983	2.75
900.717	-1.25
901.452	0.75
902.186	-0.25
902.92	-1.25
903.654	-1.25
904.389	0.75
905.123	1.75
905.857	0.75
906.59	1.75
907.324	2.75
908.058	-0.25
908.792	-1.25
909.525	-0.25
910.259	-0.25
910.992	-0.25
911.726	2.75
912.459	1.75
913.192	-2.25
913.925	0.75
914.658	0.75
915.391	1.75
916.124	0.75
916.857	-1.25
917.59	2.75
918.323	-2.25
919.055	-1.25
919.788	1.75
920.521	2.75
921.253	0.75
921.985	-0.25
922.718	0.75
923.45	0.75
924.182	1.75
924.914	0.75
925.646	-1.25
926.378	-0.25
927.11	-1.25
927.841	-0.25
928.573	1.75
929.305	0.75
930.036	2.75
930.768	-0.25
931.499	0.75
932.23	-1.25
932.962	-0.25
933.693	-0.25
934.424	0.75
935.155	-0.25
935.886	-1.25
936.617	-0.25
937.348	-1.25
938.078	0.75
938.809	-1.25
939.54	0.75
940.27	0.75
941.001	1.75
941.731	0.75
942.461	0.75
943.191	0.75
943.922	0.75
944.652	1.75
945.382	-0.25
946.112	0.75
946.841	1.75
947.571	-1.25
948.301	-0.25
949.031	0.75
949.76	-0.25
950.49	-1.25
951.219	-1.25
951.948	-0.25
952.678	-0.25
953.407	-0.25
954.136	2.75
954.865	-0.25
955.594	0.75
956.323	2.75
957.052	-0.25
957.78	-2.25
958.509	-0.25
959.238	0.75
959.966	-1.25
960.695	0.75
961.423	0.75
962.151	-0.25
962.88	1.75
963.608	-3.25
964.336	0.75
965.064	0.75
965.792	0.75
966.52	-0.25
967.247	0.75
967.975	1.75
968.703	1.75
969.43	0.75
970.158	1.75
970.885	-2.25
971.613	1.75
972.34	-1.25
973.067	-0.25
973.794	0.75
974.521	0.75
975.248	-0.25
975.975	-0.25
976.702	1.75
977.429	-0.25
978.156	-2.25
978.882	-1.25
979.609	-0.25
980.335	-0.25
981.062	-1.25
981.788	0.75
982.514	1.75
983.24	-1.25
983.967	-1.25
984.693	-1.25
985.419	-1.25
986.144	-1.25
986.87	1.75
987.596	0.75
988.322	-1.25
989.047	-0.25
989.773	0.75
990.498	2.75
991.224	-1.25
991.949	0.75
992.674	0.75
993.399	-2.25
994.124	1.75
994.849	-1.25
995.574	0.75
996.299	-0.25
997.024	-1.25
997.749	1.75
998.473	0.75
999.198	-0.25
999.922	-1.25
1000.647	0.75
1001.371	3.75
1002.095	-3.25
1002.82	-1.25
1003.544	-1.25
1004.268	3.75
1004.992	5.75
1005.716	1.75
1006.439	4.75
1007.163	5.75
1007.887	5.75
1008.611	-2.25
1009.334	-3.25
1010.058	-0.25
1010.781	1.75
1011.504	1.75
1012.228	0.75
1012.951	0.75
1013.674	-0.25
1014.397	0.75
1015.12	0.75
