节点500_705_QEPB04081__98__20-47-31-201.txt的数据

Date: Wed Nov 12 20:47:31 CST 2025
User: PC
Spectrometer: QEPB0408
触发模式: 0
积分时间 (秒): 1.000000E-2
Scans to average: 1
启用暗噪声校正: true
启用非线性校正: false
滑动平均宽度: 0
X轴模式: Wavelengths
Number of Pixels in Spectrum: 1044
>>>>>Begin Spectral Data<<<<<
220.843	5.5
221.644	8.5
222.444	5.5
223.244	8.5
224.045	7.5
224.845	6.5
225.645	7.5
226.445	6.5
227.245	10.5
228.045	7.5
228.845	10.5
229.645	10.5
230.444	7.5
231.244	9.5
232.043	9.5
232.843	11.5
233.642	10.5
234.442	10.5
235.241	10.5
236.04	10.5
236.839	12.5
237.638	10.5
238.437	14.5
239.236	12.5
240.035	12.5
240.833	15.5
241.632	11.5
242.43	13.5
243.229	13.5
244.027	12.5
244.826	14.5
245.624	14.5
246.422	15.5
247.22	14.5
248.018	15.5
248.816	13.5
249.614	15.5
250.412	18.5
251.21	18.5
252.007	19.5
252.805	19.5
253.602	17.5
254.4	19.5
255.197	21.5
255.994	21.5
256.791	23.5
257.589	23.5
258.386	24.5
259.183	24.5
259.979	25.5
260.776	25.5
261.573	26.5
262.37	25.5
263.166	27.5
263.963	27.5
264.759	26.5
265.556	28.5
266.352	29.5
267.148	30.5
267.944	30.5
268.74	31.5
269.536	29.5
270.332	33.5
271.128	33.5
271.924	31.5
272.719	31.5
273.515	36.5
274.311	35.5
275.106	35.5
275.901	36.5
276.697	38.5
277.492	34.5
278.287	37.5
279.082	36.5
279.877	34.5
280.672	38.5
281.467	37.5
282.262	37.5
283.056	34.5
283.851	38.5
284.646	37.5
285.44	33.5
286.234	36.5
287.029	35.5
287.823	36.5
288.617	34.5
289.411	32.5
290.205	34.5
290.999	32.5
291.793	33.5
292.587	31.5
293.381	31.5
294.174	34.5
294.968	32.5
295.761	31.5
296.555	29.5
297.348	27.5
298.141	25.5
298.935	31.5
299.728	30.5
300.521	26.5
301.314	23.5
302.107	24.5
302.899	23.5
303.692	23.5
304.485	23.5
305.277	24.5
306.07	23.5
306.862	23.5
307.655	19.5
308.447	19.5
309.239	23.5
310.031	17.5
310.823	17.5
311.615	19.5
312.407	19.5
313.199	20.5
313.991	17.5
314.783	17.5
315.574	18.5
316.366	17.5
317.157	16.5
317.949	16.5
318.74	16.5
319.531	13.5
320.322	14.5
321.113	14.5
321.904	12.5
322.695	14.5
323.486	14.5
324.277	15.5
325.068	12.5
325.858	14.5
326.649	15.5
327.439	13.5
328.23	12.5
329.02	13.5
329.81	14.5
330.6	12.5
331.391	13.5
332.181	14.5
332.971	13.5
333.76	12.5
334.55	13.5
335.34	12.5
336.13	11.5
336.919	14.5
337.709	15.5
338.498	12.5
339.287	14.5
340.077	12.5
340.866	12.5
341.655	11.5
342.444	15.5
343.233	11.5
344.022	13.5
344.811	12.5
345.6	13.5
346.388	11.5
347.177	12.5
347.965	11.5
348.754	11.5
349.542	11.5
350.33	12.5
351.119	10.5
351.907	11.5
352.695	12.5
353.483	12.5
354.271	15.5
355.059	11.5
355.846	11.5
356.634	11.5
357.422	10.5
358.209	12.5
358.997	13.5
359.784	11.5
360.571	11.5
361.359	10.5
362.146	11.5
362.933	9.5
363.72	11.5
364.507	10.5
365.294	12.5
366.081	11.5
366.867	9.5
367.654	11.5
368.44	10.5
369.227	11.5
370.013	10.5
370.8	10.5
371.586	9.5
372.372	10.5
373.158	10.5
373.944	9.5
374.73	11.5
375.516	10.5
376.302	9.5
377.088	10.5
377.873	8.5
378.659	12.5
379.445	9.5
380.23	13.5
381.015	11.5
381.801	11.5
382.586	9.5
383.371	8.5
384.156	11.5
384.941	9.5
385.726	11.5
386.511	11.5
387.296	9.5
388.08	12.5
388.865	11.5
389.649	10.5
390.434	11.5
391.218	12.5
392.003	15.5
392.787	12.5
393.571	11.5
394.355	11.5
395.139	13.5
395.923	15.5
396.707	14.5
397.491	14.5
398.274	13.5
399.058	17.5
399.842	12.5
400.625	14.5
401.408	12.5
402.192	13.5
402.975	15.5
403.758	14.5
404.541	14.5
405.324	15.5
406.107	16.5
406.89	19.5
407.673	14.5
408.456	16.5
409.238	15.5
410.021	17.5
410.803	15.5
411.586	15.5
412.368	20.5
413.151	18.5
413.933	20.5
414.715	17.5
415.497	19.5
416.279	18.5
417.061	18.5
417.843	18.5
418.624	20.5
419.406	21.5
420.188	23.5
420.969	23.5
421.751	26.5
422.532	26.5
423.313	23.5
424.095	22.5
424.876	27.5
425.657	26.5
426.438	25.5
427.219	28.5
428	27.5
428.78	31.5
429.561	31.5
430.342	31.5
431.122	34.5
431.903	32.5
432.683	36.5
433.464	35.5
434.244	37.5
435.024	39.5
435.804	39.5
436.584	46.5
437.364	44.5
438.144	48.5
438.924	53.5
439.704	55.5
440.483	55.5
441.263	59.5
442.042	65.5
442.822	70.5
443.601	77.5
444.38	79.5
445.16	84.5
445.939	93.5
446.718	96.5
447.497	109.5
448.276	117.5
449.054	129.5
449.833	143.5
450.612	153.5
451.391	164.5
452.169	180.5
452.948	203.5
453.726	228.5
454.504	255.5
455.282	274.5
456.061	315.5
456.839	350.5
457.617	378.5
458.395	423.5
459.172	475.5
459.95	541.5
460.728	604.5
461.506	671.5
462.283	750.5
463.061	849.5
463.838	944.5
464.615	1049.5
465.393	1167.5
466.17	1312.5
466.947	1463.5
467.724	1621.5
468.501	1805.5
469.278	2007.5
470.055	2239.5
470.831	2447.5
471.608	2718.5
472.385	3021.5
473.161	3352.5
473.938	3699.5
474.714	4075.5
475.49	4485.5
476.266	4978.5
477.043	5465.5
477.819	5987.5
478.595	6552.5
479.371	7191.5
480.146	7865.5
480.922	8674.5
481.698	9455.5
482.473	10354.5
483.249	11321.5
484.024	12307.5
484.8	13382.5
485.575	14600.5
486.35	15920.5
487.126	17266.5
487.901	18686.5
488.676	20259.5
489.451	21968.5
490.225	23680.5
491	25384.5
491.775	27259.5
492.55	29079.5
493.324	31049.5
494.099	32962.5
494.873	34878.5
495.647	36853.5
496.422	38842.5
497.196	40617.5
497.97	42280.5
498.744	43875.5
499.518	45556.5
500.292	46738.5
501.066	47740.5
501.839	48477.5
502.613	49064.5
503.387	49541.5
504.16	49694.5
504.934	49699.5
505.707	49219.5
506.48	48644.5
507.253	47932.5
508.027	46934.5
508.8	45669.5
509.573	44354.5
510.346	43081.5
511.118	41773.5
511.891	40305.5
512.664	38645.5
513.437	37040.5
514.209	35558.5
514.982	34233.5
515.754	32733.5
516.526	31280.5
517.298	30156.5
518.071	28823.5
518.843	27657.5
519.615	26440.5
520.387	25445.5
521.159	24486.5
521.93	23388.5
522.702	22437.5
523.474	21409.5
524.245	20526.5
525.017	19540.5
525.788	18710.5
526.56	17907.5
527.331	17047.5
528.102	16162.5
528.873	15343.5
529.644	14607.5
530.415	13877.5
531.186	13174.5
531.957	12517.5
532.728	11806.5
533.498	11149.5
534.269	10566.5
535.039	10012.5
535.81	9457.5
536.58	8910.5
537.351	8465.5
538.121	8011.5
538.891	7595.5
539.661	7187.5
540.431	6783.5
541.201	6452.5
541.971	6092.5
542.741	5781.5
543.51	5476.5
544.28	5186.5
545.05	4986.5
545.819	4704.5
546.588	4497.5
547.358	4288.5
548.127	4047.5
548.896	3870.5
549.665	3655.5
550.434	3454.5
551.203	3286.5
551.972	3101.5
552.741	2939.5
553.51	2791.5
554.278	2603.5
555.047	2478.5
555.815	2332.5
556.584	2212.5
557.352	2089.5
558.121	1976.5
558.889	1852.5
559.657	1751.5
560.425	1660.5
561.193	1566.5
561.961	1492.5
562.729	1410.5
563.496	1330.5
564.264	1254.5
565.032	1190.5
565.799	1116.5
566.567	1059.5
567.334	1019.5
568.101	960.5
568.869	893.5
569.636	852.5
570.403	807.5
571.17	751.5
571.937	718.5
572.704	676.5
573.471	638.5
574.237	605.5
575.004	563.5
575.771	531.5
576.537	508.5
577.303	482.5
578.07	453.5
578.836	422.5
579.602	405.5
580.368	383.5
581.134	355.5
581.9	341.5
582.666	319.5
583.432	309.5
584.198	293.5
584.964	284.5
585.729	266.5
586.495	256.5
587.26	233.5
588.025	231.5
588.791	209.5
589.556	206.5
590.321	194.5
591.086	182.5
591.851	175.5
592.616	168.5
593.381	163.5
594.146	154.5
594.911	141.5
595.675	137.5
596.44	135.5
597.204	124.5
597.969	121.5
598.733	119.5
599.497	111.5
600.261	106.5
601.025	98.5
601.79	100.5
602.553	94.5
603.317	91.5
604.081	87.5
604.845	82.5
605.609	80.5
606.372	77.5
607.136	73.5
607.899	68.5
608.662	67.5
609.426	64.5
610.189	63.5
610.952	60.5
611.715	61.5
612.478	60.5
613.241	53.5
614.004	55.5
614.767	50.5
615.529	48.5
616.292	48.5
617.055	43.5
617.817	42.5
618.579	45.5
619.342	43.5
620.104	39.5
620.866	40.5
621.628	39.5
622.39	36.5
623.152	37.5
623.914	38.5
624.676	34.5
625.438	32.5
626.199	33.5
626.961	30.5
627.722	27.5
628.484	30.5
629.245	28.5
630.006	29.5
630.768	26.5
631.529	29.5
632.29	27.5
633.051	25.5
633.812	25.5
634.573	24.5
635.333	23.5
636.094	23.5
636.855	23.5
637.615	23.5
638.376	21.5
639.136	19.5
639.896	19.5
640.657	20.5
641.417	17.5
642.177	17.5
642.937	19.5
643.697	16.5
644.457	18.5
645.216	18.5
645.976	15.5
646.736	18.5
647.495	15.5
648.255	16.5
649.014	14.5
649.774	14.5
650.533	15.5
651.292	15.5
652.051	15.5
652.81	15.5
653.569	13.5
654.328	12.5
655.087	11.5
655.846	13.5
656.604	12.5
657.363	13.5
658.121	14.5
658.88	10.5
659.638	13.5
660.397	9.5
661.155	11.5
661.913	12.5
662.671	10.5
663.429	12.5
664.187	11.5
664.945	10.5
665.703	10.5
666.46	11.5
667.218	9.5
667.976	10.5
668.733	12.5
669.49	9.5
670.248	10.5
671.005	9.5
671.762	10.5
672.519	11.5
673.276	10.5
674.033	9.5
674.79	9.5
675.547	8.5
676.304	9.5
677.06	9.5
677.817	10.5
678.574	8.5
679.33	7.5
680.086	9.5
680.843	11.5
681.599	7.5
682.355	11.5
683.111	7.5
683.867	12.5
684.623	9.5
685.379	5.5
686.135	8.5
686.89	9.5
687.646	7.5
688.402	10.5
689.157	7.5
689.912	9.5
690.668	9.5
691.423	7.5
692.178	6.5
692.933	7.5
693.688	6.5
694.443	8.5
695.198	9.5
695.953	7.5
696.708	8.5
697.462	9.5
698.217	10.5
698.972	8.5
699.726	6.5
700.48	7.5
701.235	6.5
701.989	7.5
702.743	8.5
703.497	8.5
704.251	10.5
705.005	9.5
705.759	6.5
706.513	10.5
707.266	9.5
708.02	7.5
708.774	8.5
709.527	11.5
710.28	7.5
711.034	4.5
711.787	8.5
712.54	7.5
713.293	10.5
714.046	8.5
714.799	7.5
715.552	8.5
716.305	9.5
717.058	9.5
717.81	9.5
718.563	9.5
719.315	11.5
720.068	7.5
720.82	9.5
721.573	9.5
722.325	10.5
723.077	8.5
723.829	9.5
724.581	7.5
725.333	9.5
726.085	9.5
726.836	8.5
727.588	7.5
728.34	8.5
729.091	9.5
729.843	9.5
730.594	9.5
731.346	11.5
732.097	7.5
732.848	11.5
733.599	11.5
734.35	8.5
735.101	10.5
735.852	9.5
736.603	9.5
737.354	9.5
738.104	12.5
738.855	10.5
739.605	11.5
740.356	10.5
741.106	10.5
741.856	10.5
742.607	10.5
743.357	9.5
744.107	10.5
744.857	8.5
745.607	11.5
746.357	11.5
747.106	10.5
747.856	12.5
748.606	11.5
749.355	13.5
750.105	12.5
750.854	13.5
751.603	11.5
752.353	9.5
753.102	11.5
753.851	13.5
754.6	13.5
755.349	10.5
756.098	14.5
756.847	10.5
757.595	13.5
758.344	12.5
759.093	15.5
759.841	11.5
760.589	12.5
761.338	13.5
762.086	11.5
762.834	13.5
763.582	16.5
764.331	12.5
765.079	14.5
765.826	13.5
766.574	13.5
767.322	13.5
768.07	15.5
768.817	17.5
769.565	14.5
770.312	16.5
771.06	17.5
771.807	13.5
772.554	16.5
773.302	17.5
774.049	15.5
774.796	16.5
775.543	16.5
776.29	17.5
777.036	18.5
777.783	15.5
778.53	17.5
779.276	19.5
780.023	17.5
780.769	17.5
781.516	20.5
782.262	16.5
783.008	18.5
783.754	18.5
784.5	16.5
785.246	13.5
785.992	14.5
786.738	17.5
787.484	14.5
788.23	17.5
788.975	16.5
789.721	16.5
790.466	16.5
791.212	17.5
791.957	15.5
792.702	14.5
793.447	13.5
794.193	16.5
794.938	13.5
795.683	13.5
796.427	13.5
797.172	14.5
797.917	17.5
798.662	13.5
799.406	15.5
800.151	14.5
800.895	13.5
801.64	13.5
802.384	13.5
803.128	11.5
803.872	11.5
804.616	12.5
805.36	13.5
806.104	12.5
806.848	11.5
807.592	8.5
808.336	13.5
809.079	11.5
809.823	10.5
810.566	10.5
811.31	9.5
812.053	10.5
812.796	11.5
813.539	11.5
814.283	9.5
815.026	9.5
815.769	6.5
816.511	8.5
817.254	6.5
817.997	8.5
818.74	8.5
819.482	10.5
820.225	9.5
820.967	8.5
821.71	5.5
822.452	6.5
823.194	6.5
823.936	10.5
824.678	7.5
825.42	9.5
826.162	7.5
826.904	7.5
827.646	5.5
828.388	6.5
829.129	6.5
829.871	7.5
830.612	7.5
831.354	7.5
832.095	3.5
832.836	7.5
833.577	7.5
834.319	7.5
835.06	7.5
835.801	7.5
836.542	7.5
837.282	5.5
838.023	4.5
838.764	8.5
839.504	6.5
840.245	5.5
840.985	6.5
841.726	6.5
842.466	6.5
843.206	6.5
843.946	8.5
844.687	6.5
845.427	6.5
846.166	7.5
846.906	5.5
847.646	4.5
848.386	5.5
849.125	5.5
849.865	4.5
850.605	5.5
851.344	4.5
852.083	5.5
852.823	6.5
853.562	5.5
854.301	3.5
855.04	5.5
855.779	5.5
856.518	4.5
857.257	4.5
857.995	5.5
858.734	5.5
859.473	6.5
860.211	4.5
860.95	4.5
861.688	2.5
862.426	3.5
863.165	3.5
863.903	2.5
864.641	4.5
865.379	1.5
866.117	2.5
866.855	3.5
867.593	3.5
868.33	4.5
869.068	3.5
869.806	2.5
870.543	1.5
871.28	2.5
872.018	3.5
872.755	2.5
873.492	3.5
874.229	2.5
874.967	3.5
875.703	1.5
876.44	2.5
877.177	1.5
877.914	2.5
878.651	1.5
879.387	1.5
880.124	4.5
880.86	2.5
881.597	2.5
882.333	2.5
883.069	3.5
883.806	3.5
884.542	4.5
885.278	2.5
886.014	3.5
886.749	0.5
887.485	2.5
888.221	2.5
888.957	1.5
889.692	1.5
890.428	2.5
891.163	3.5
891.899	0.5
892.634	2.5
893.369	-0.5
894.104	1.5
894.839	3.5
895.574	0.5
896.309	1.5
897.044	2.5
897.779	2.5
898.514	1.5
899.248	1.5
899.983	2.5
900.717	1.5
901.452	-0.5
902.186	-0.5
902.92	3.5
903.654	3.5
904.389	1.5
905.123	1.5
905.857	3.5
906.59	0.5
907.324	2.5
908.058	0.5
908.792	3.5
909.525	1.5
910.259	2.5
910.992	1.5
911.726	0.5
912.459	2.5
913.192	1.5
913.925	1.5
914.658	0.5
915.391	0.5
916.124	0.5
916.857	1.5
917.59	-0.5
918.323	-0.5
919.055	3.5
919.788	1.5
920.521	1.5
921.253	1.5
921.985	0.5
922.718	2.5
923.45	1.5
924.182	3.5
924.914	1.5
925.646	1.5
926.378	1.5
927.11	0.5
927.841	0.5
928.573	1.5
929.305	0.5
930.036	0.5
930.768	1.5
931.499	-0.5
932.23	0.5
932.962	0.5
933.693	1.5
934.424	2.5
935.155	-0.5
935.886	1.5
936.617	4.5
937.348	-0.5
938.078	1.5
938.809	1.5
939.54	2.5
940.27	0.5
941.001	-0.5
941.731	2.5
942.461	-0.5
943.191	1.5
943.922	1.5
944.652	1.5
945.382	0.5
946.112	2.5
946.841	-0.5
947.571	2.5
948.301	2.5
949.031	2.5
949.76	-0.5
950.49	0.5
951.219	-0.5
951.948	3.5
952.678	0.5
953.407	0.5
954.136	1.5
954.865	-1.5
955.594	1.5
956.323	0.5
957.052	0.5
957.78	0.5
958.509	-1.5
959.238	1.5
959.966	-0.5
960.695	1.5
961.423	1.5
962.151	-0.5
962.88	0.5
963.608	-2.5
964.336	1.5
965.064	0.5
965.792	0.5
966.52	0.5
967.247	0.5
967.975	0.5
968.703	1.5
969.43	2.5
970.158	-0.5
970.885	1.5
971.613	1.5
972.34	1.5
973.067	1.5
973.794	0.5
974.521	2.5
975.248	1.5
975.975	0.5
976.702	-0.5
977.429	-0.5
978.156	1.5
978.882	1.5
979.609	1.5
980.335	2.5
981.062	0.5
981.788	0.5
982.514	0.5
983.24	0.5
983.967	0.5
984.693	1.5
985.419	0.5
986.144	0.5
986.87	1.5
987.596	0.5
988.322	2.5
989.047	2.5
989.773	2.5
990.498	-0.5
991.224	2.5
991.949	2.5
992.674	1.5
993.399	3.5
994.124	1.5
994.849	1.5
995.574	3.5
996.299	-0.5
997.024	0.5
997.749	0.5
998.473	1.5
999.198	0.5
999.922	-0.5
1000.647	-0.5
1001.371	2.5
1002.095	-0.5
1002.82	-1.5
1003.544	-2.5
1004.268	3.5
1004.992	5.5
1005.716	6.5
1006.439	6.5
1007.163	6.5
1007.887	9.5
1008.611	-0.5
1009.334	4.5
1010.058	-0.5
1010.781	0.5
1011.504	2.5
1012.228	2.5
1012.951	1.5
1013.674	-0.5
1014.397	0.5
1015.12	0.5
