节点500_705_QEPB04081__500__20-52-59-761.txt的数据

Date: Wed Nov 12 20:52:59 CST 2025
User: PC
Spectrometer: QEPB0408
触发模式: 0
积分时间 (秒): 1.000000E-2
Scans to average: 1
启用暗噪声校正: true
启用非线性校正: false
滑动平均宽度: 0
X轴模式: Wavelengths
Number of Pixels in Spectrum: 1044
>>>>>Begin Spectral Data<<<<<
220.843	2.12
221.644	5.12
222.444	6.12
223.244	3.12
224.045	3.12
224.845	5.12
225.645	5.12
226.445	7.12
227.245	7.12
228.045	6.12
228.845	8.12
229.645	7.12
230.444	9.12
231.244	7.12
232.043	6.12
232.843	10.12
233.642	11.12
234.442	10.12
235.241	7.12
236.04	9.12
236.839	7.12
237.638	10.12
238.437	9.12
239.236	10.12
240.035	10.12
240.833	10.12
241.632	13.12
242.43	9.12
243.229	12.12
244.027	11.12
244.826	9.12
245.624	10.12
246.422	11.12
247.22	11.12
248.018	12.12
248.816	14.12
249.614	15.12
250.412	12.12
251.21	14.12
252.007	17.12
252.805	15.12
253.602	14.12
254.4	14.12
255.197	14.12
255.994	16.12
256.791	18.12
257.589	18.12
258.386	17.12
259.183	20.12
259.979	20.12
260.776	22.12
261.573	23.12
262.37	22.12
263.166	23.12
263.963	22.12
264.759	22.12
265.556	22.12
266.352	25.12
267.148	23.12
267.944	27.12
268.74	25.12
269.536	27.12
270.332	28.12
271.128	28.12
271.924	30.12
272.719	30.12
273.515	31.12
274.311	32.12
275.106	32.12
275.901	33.12
276.697	28.12
277.492	27.12
278.287	29.12
279.082	30.12
279.877	29.12
280.672	30.12
281.467	32.12
282.262	32.12
283.056	32.12
283.851	31.12
284.646	32.12
285.44	32.12
286.234	28.12
287.029	34.12
287.823	32.12
288.617	31.12
289.411	26.12
290.205	28.12
290.999	29.12
291.793	30.12
292.587	30.12
293.381	28.12
294.174	30.12
294.968	26.12
295.761	25.12
296.555	27.12
297.348	26.12
298.141	24.12
298.935	30.12
299.728	22.12
300.521	26.12
301.314	22.12
302.107	24.12
302.899	20.12
303.692	24.12
304.485	21.12
305.277	19.12
306.07	21.12
306.862	25.12
307.655	19.12
308.447	18.12
309.239	20.12
310.031	20.12
310.823	18.12
311.615	19.12
312.407	18.12
313.199	17.12
313.991	16.12
314.783	17.12
315.574	16.12
316.366	14.12
317.157	16.12
317.949	13.12
318.74	13.12
319.531	12.12
320.322	11.12
321.113	12.12
321.904	14.12
322.695	12.12
323.486	15.12
324.277	12.12
325.068	13.12
325.858	12.12
326.649	12.12
327.439	11.12
328.23	11.12
329.02	12.12
329.81	12.12
330.6	12.12
331.391	11.12
332.181	10.12
332.971	10.12
333.76	9.12
334.55	13.12
335.34	10.12
336.13	9.12
336.919	12.12
337.709	11.12
338.498	12.12
339.287	10.12
340.077	12.12
340.866	11.12
341.655	10.12
342.444	12.12
343.233	9.12
344.022	10.12
344.811	12.12
345.6	7.12
346.388	9.12
347.177	9.12
347.965	9.12
348.754	10.12
349.542	10.12
350.33	9.12
351.119	10.12
351.907	10.12
352.695	10.12
353.483	9.12
354.271	10.12
355.059	7.12
355.846	11.12
356.634	8.12
357.422	8.12
358.209	10.12
358.997	10.12
359.784	9.12
360.571	11.12
361.359	8.12
362.146	7.12
362.933	8.12
363.72	7.12
364.507	11.12
365.294	8.12
366.081	9.12
366.867	9.12
367.654	8.12
368.44	7.12
369.227	8.12
370.013	10.12
370.8	11.12
371.586	9.12
372.372	9.12
373.158	10.12
373.944	7.12
374.73	9.12
375.516	9.12
376.302	9.12
377.088	8.12
377.873	8.12
378.659	7.12
379.445	8.12
380.23	10.12
381.015	10.12
381.801	10.12
382.586	9.12
383.371	9.12
384.156	12.12
384.941	11.12
385.726	7.12
386.511	13.12
387.296	11.12
388.08	7.12
388.865	9.12
389.649	8.12
390.434	9.12
391.218	11.12
392.003	14.12
392.787	15.12
393.571	12.12
394.355	12.12
395.139	13.12
395.923	10.12
396.707	12.12
397.491	12.12
398.274	13.12
399.058	11.12
399.842	13.12
400.625	10.12
401.408	14.12
402.192	14.12
402.975	13.12
403.758	15.12
404.541	14.12
405.324	11.12
406.107	16.12
406.89	14.12
407.673	13.12
408.456	13.12
409.238	14.12
410.021	15.12
410.803	14.12
411.586	15.12
412.368	14.12
413.151	17.12
413.933	16.12
414.715	15.12
415.497	20.12
416.279	14.12
417.061	17.12
417.843	18.12
418.624	17.12
419.406	18.12
420.188	22.12
420.969	20.12
421.751	22.12
422.532	22.12
423.313	23.12
424.095	23.12
424.876	23.12
425.657	24.12
426.438	25.12
427.219	25.12
428	27.12
428.78	31.12
429.561	27.12
430.342	28.12
431.122	29.12
431.903	29.12
432.683	30.12
433.464	34.12
434.244	37.12
435.024	39.12
435.804	40.12
436.584	40.12
437.364	43.12
438.144	46.12
438.924	52.12
439.704	53.12
440.483	58.12
441.263	61.12
442.042	65.12
442.822	71.12
443.601	73.12
444.38	82.12
445.16	90.12
445.939	95.12
446.718	108.12
447.497	119.12
448.276	125.12
449.054	141.12
449.833	150.12
450.612	170.12
451.391	181.12
452.169	212.12
452.948	230.12
453.726	251.12
454.504	284.12
455.282	316.12
456.061	346.12
456.839	375.12
457.617	432.12
458.395	480.12
459.172	524.12
459.95	584.12
460.728	663.12
461.506	736.12
462.283	814.12
463.061	906.12
463.838	1016.12
464.615	1118.12
465.393	1248.12
466.17	1376.12
466.947	1532.12
467.724	1699.12
468.501	1862.12
469.278	2073.12
470.055	2266.12
470.831	2489.12
471.608	2762.12
472.385	3031.12
473.161	3325.12
473.938	3655.12
474.714	3978.12
475.49	4359.12
476.266	4750.12
477.043	5205.12
477.819	5632.12
478.595	6164.12
479.371	6697.12
480.146	7316.12
480.922	7914.12
481.698	8630.12
482.473	9341.12
483.249	10117.12
484.024	10982.12
484.8	11856.12
485.575	12785.12
486.35	13846.12
487.126	14983.12
487.901	16170.12
488.676	17360.12
489.451	18674.12
490.225	20024.12
491	21489.12
491.775	22922.12
492.55	24454.12
493.324	26051.12
494.099	27700.12
494.873	29314.12
495.647	30968.12
496.422	32634.12
497.196	34239.12
497.97	35878.12
498.744	37430.12
499.518	38997.12
500.292	40329.12
501.066	41315.12
501.839	42306.12
502.613	43227.12
503.387	43974.12
504.16	44495.12
504.934	44771.12
505.707	44962.12
506.48	44753.12
507.253	44503.12
508.027	44074.12
508.8	43497.12
509.573	42582.12
510.346	41699.12
511.118	40884.12
511.891	39756.12
512.664	38367.12
513.437	37069.12
514.209	35840.12
514.982	34521.12
515.754	33192.12
516.526	31894.12
517.298	30578.12
518.071	29438.12
518.843	28344.12
519.615	27162.12
520.387	26128.12
521.159	25114.12
521.93	24091.12
522.702	23094.12
523.474	22124.12
524.245	21225.12
525.017	20345.12
525.788	19516.12
526.56	18696.12
527.331	17928.12
528.102	17009.12
528.873	16169.12
529.644	15436.12
530.415	14714.12
531.186	14052.12
531.957	13334.12
532.728	12661.12
533.498	11998.12
534.269	11384.12
535.039	10770.12
535.81	10241.12
536.58	9667.12
537.351	9137.12
538.121	8671.12
538.891	8252.12
539.661	7743.12
540.431	7351.12
541.201	6980.12
541.971	6629.12
542.741	6256.12
543.51	5940.12
544.28	5647.12
545.05	5387.12
545.819	5130.12
546.588	4920.12
547.358	4693.12
548.127	4432.12
548.896	4219.12
549.665	4000.12
550.434	3791.12
551.203	3602.12
551.972	3416.12
552.741	3238.12
553.51	3037.12
554.278	2896.12
555.047	2727.12
555.815	2588.12
556.584	2463.12
557.352	2312.12
558.121	2165.12
558.889	2085.12
559.657	1950.12
560.425	1854.12
561.193	1756.12
561.961	1660.12
562.729	1564.12
563.496	1485.12
564.264	1386.12
565.032	1319.12
565.799	1251.12
566.567	1175.12
567.334	1108.12
568.101	1062.12
568.869	993.12
569.636	947.12
570.403	901.12
571.17	850.12
571.937	795.12
572.704	751.12
573.471	709.12
574.237	667.12
575.004	632.12
575.771	596.12
576.537	556.12
577.303	523.12
578.07	502.12
578.836	470.12
579.602	442.12
580.368	427.12
581.134	401.12
581.9	383.12
582.666	362.12
583.432	348.12
584.198	330.12
584.964	310.12
585.729	288.12
586.495	282.12
587.26	266.12
588.025	252.12
588.791	238.12
589.556	229.12
590.321	215.12
591.086	200.12
591.851	192.12
592.616	188.12
593.381	176.12
594.146	168.12
594.911	163.12
595.675	152.12
596.44	148.12
597.204	144.12
597.969	134.12
598.733	128.12
599.497	117.12
600.261	117.12
601.025	110.12
601.79	107.12
602.553	101.12
603.317	101.12
604.081	96.12
604.845	91.12
605.609	85.12
606.372	84.12
607.136	77.12
607.899	76.12
608.662	74.12
609.426	71.12
610.189	67.12
610.952	63.12
611.715	64.12
612.478	62.12
613.241	57.12
614.004	56.12
614.767	56.12
615.529	52.12
616.292	50.12
617.055	48.12
617.817	50.12
618.579	49.12
619.342	46.12
620.104	41.12
620.866	39.12
621.628	39.12
622.39	38.12
623.152	37.12
623.914	36.12
624.676	36.12
625.438	33.12
626.199	32.12
626.961	30.12
627.722	30.12
628.484	27.12
629.245	30.12
630.006	26.12
630.768	26.12
631.529	25.12
632.29	26.12
633.051	27.12
633.812	24.12
634.573	24.12
635.333	21.12
636.094	20.12
636.855	21.12
637.615	19.12
638.376	18.12
639.136	20.12
639.896	19.12
640.657	22.12
641.417	17.12
642.177	18.12
642.937	17.12
643.697	15.12
644.457	15.12
645.216	16.12
645.976	14.12
646.736	15.12
647.495	14.12
648.255	14.12
649.014	14.12
649.774	15.12
650.533	14.12
651.292	14.12
652.051	15.12
652.81	12.12
653.569	9.12
654.328	11.12
655.087	14.12
655.846	12.12
656.604	13.12
657.363	10.12
658.121	13.12
658.88	11.12
659.638	9.12
660.397	14.12
661.155	12.12
661.913	9.12
662.671	11.12
663.429	9.12
664.187	9.12
664.945	10.12
665.703	12.12
666.46	9.12
667.218	7.12
667.976	8.12
668.733	11.12
669.49	11.12
670.248	8.12
671.005	6.12
671.762	7.12
672.519	9.12
673.276	10.12
674.033	6.12
674.79	8.12
675.547	9.12
676.304	6.12
677.06	8.12
677.817	5.12
678.574	7.12
679.33	5.12
680.086	7.12
680.843	9.12
681.599	8.12
682.355	8.12
683.111	6.12
683.867	7.12
684.623	9.12
685.379	7.12
686.135	7.12
686.89	6.12
687.646	9.12
688.402	6.12
689.157	7.12
689.912	7.12
690.668	8.12
691.423	7.12
692.178	5.12
692.933	7.12
693.688	6.12
694.443	7.12
695.198	7.12
695.953	3.12
696.708	10.12
697.462	7.12
698.217	6.12
698.972	8.12
699.726	9.12
700.48	7.12
701.235	6.12
701.989	5.12
702.743	8.12
703.497	9.12
704.251	5.12
705.005	5.12
705.759	5.12
706.513	6.12
707.266	6.12
708.02	5.12
708.774	4.12
709.527	6.12
710.28	8.12
711.034	7.12
711.787	6.12
712.54	6.12
713.293	6.12
714.046	7.12
714.799	6.12
715.552	4.12
716.305	8.12
717.058	8.12
717.81	8.12
718.563	5.12
719.315	9.12
720.068	8.12
720.82	5.12
721.573	7.12
722.325	7.12
723.077	8.12
723.829	8.12
724.581	9.12
725.333	7.12
726.085	5.12
726.836	6.12
727.588	8.12
728.34	8.12
729.091	8.12
729.843	8.12
730.594	7.12
731.346	8.12
732.097	8.12
732.848	10.12
733.599	8.12
734.35	8.12
735.101	8.12
735.852	8.12
736.603	7.12
737.354	7.12
738.104	9.12
738.855	5.12
739.605	8.12
740.356	8.12
741.106	8.12
741.856	10.12
742.607	6.12
743.357	10.12
744.107	8.12
744.857	10.12
745.607	8.12
746.357	11.12
747.106	10.12
747.856	9.12
748.606	12.12
749.355	10.12
750.105	11.12
750.854	10.12
751.603	10.12
752.353	10.12
753.102	8.12
753.851	11.12
754.6	8.12
755.349	10.12
756.098	11.12
756.847	9.12
757.595	11.12
758.344	9.12
759.093	12.12
759.841	10.12
760.589	11.12
761.338	10.12
762.086	10.12
762.834	11.12
763.582	11.12
764.331	12.12
765.079	12.12
765.826	8.12
766.574	14.12
767.322	14.12
768.07	11.12
768.817	13.12
769.565	14.12
770.312	9.12
771.06	14.12
771.807	11.12
772.554	10.12
773.302	14.12
774.049	12.12
774.796	16.12
775.543	14.12
776.29	10.12
777.036	15.12
777.783	13.12
778.53	14.12
779.276	14.12
780.023	13.12
780.769	14.12
781.516	13.12
782.262	15.12
783.008	14.12
783.754	14.12
784.5	14.12
785.246	12.12
785.992	13.12
786.738	13.12
787.484	14.12
788.23	12.12
788.975	13.12
789.721	13.12
790.466	15.12
791.212	14.12
791.957	14.12
792.702	15.12
793.447	13.12
794.193	16.12
794.938	12.12
795.683	11.12
796.427	13.12
797.172	9.12
797.917	12.12
798.662	14.12
799.406	10.12
800.151	12.12
800.895	11.12
801.64	14.12
802.384	10.12
803.128	10.12
803.872	10.12
804.616	9.12
805.36	10.12
806.104	9.12
806.848	9.12
807.592	12.12
808.336	10.12
809.079	9.12
809.823	10.12
810.566	9.12
811.31	8.12
812.053	9.12
812.796	9.12
813.539	9.12
814.283	8.12
815.026	6.12
815.769	7.12
816.511	6.12
817.254	4.12
817.997	9.12
818.74	7.12
819.482	7.12
820.225	7.12
820.967	8.12
821.71	6.12
822.452	6.12
823.194	4.12
823.936	4.12
824.678	7.12
825.42	4.12
826.162	6.12
826.904	7.12
827.646	6.12
828.388	4.12
829.129	7.12
829.871	9.12
830.612	6.12
831.354	5.12
832.095	6.12
832.836	3.12
833.577	4.12
834.319	7.12
835.06	4.12
835.801	5.12
836.542	4.12
837.282	6.12
838.023	4.12
838.764	7.12
839.504	5.12
840.245	2.12
840.985	4.12
841.726	6.12
842.466	5.12
843.206	4.12
843.946	5.12
844.687	5.12
845.427	4.12
846.166	4.12
846.906	4.12
847.646	5.12
848.386	7.12
849.125	6.12
849.865	6.12
850.605	2.12
851.344	5.12
852.083	4.12
852.823	3.12
853.562	4.12
854.301	3.12
855.04	2.12
855.779	2.12
856.518	4.12
857.257	4.12
857.995	4.12
858.734	2.12
859.473	4.12
860.211	1.12
860.95	2.12
861.688	3.12
862.426	3.12
863.165	2.12
863.903	3.12
864.641	2.12
865.379	3.12
866.117	4.12
866.855	0.12
867.593	3.12
868.33	1.12
869.068	1.12
869.806	0.12
870.543	1.12
871.28	4.12
872.018	0.12
872.755	2.12
873.492	4.12
874.229	3.12
874.967	2.12
875.703	2.12
876.44	2.12
877.177	2.12
877.914	0.12
878.651	1.12
879.387	2.12
880.124	1.12
880.86	1.12
881.597	2.12
882.333	0.12
883.069	1.12
883.806	1.12
884.542	2.12
885.278	2.12
886.014	-1.88
886.749	0.12
887.485	0.12
888.221	1.12
888.957	0.12
889.692	1.12
890.428	2.12
891.163	1.12
891.899	2.12
892.634	-0.88
893.369	2.12
894.104	-1.88
894.839	-0.88
895.574	-0.88
896.309	-1.88
897.044	0.12
897.779	-1.88
898.514	2.12
899.248	1.12
899.983	-0.88
900.717	1.12
901.452	-0.88
902.186	0.12
902.92	1.12
903.654	1.12
904.389	0.12
905.123	1.12
905.857	2.12
906.59	0.12
907.324	2.12
908.058	2.12
908.792	1.12
909.525	0.12
910.259	-0.88
910.992	1.12
911.726	-1.88
912.459	-0.88
913.192	0.12
913.925	-0.88
914.658	2.12
915.391	0.12
916.124	0.12
916.857	0.12
917.59	-1.88
918.323	-1.88
919.055	1.12
919.788	-1.88
920.521	0.12
921.253	1.12
921.985	0.12
922.718	-0.88
923.45	0.12
924.182	-1.88
924.914	-0.88
925.646	1.12
926.378	1.12
927.11	1.12
927.841	0.12
928.573	0.12
929.305	0.12
930.036	-2.88
930.768	2.12
931.499	-0.88
932.23	1.12
932.962	0.12
933.693	0.12
934.424	0.12
935.155	0.12
935.886	-0.88
936.617	-1.88
937.348	0.12
938.078	0.12
938.809	-1.88
939.54	-0.88
940.27	-2.88
941.001	-0.88
941.731	-0.88
942.461	-1.88
943.191	-0.88
943.922	-1.88
944.652	1.12
945.382	-1.88
946.112	1.12
946.841	-1.88
947.571	-1.88
948.301	0.12
949.031	-3.88
949.76	1.12
950.49	0.12
951.219	0.12
951.948	1.12
952.678	0.12
953.407	1.12
954.136	-0.88
954.865	0.12
955.594	-0.88
956.323	-0.88
957.052	0.12
957.78	-2.88
958.509	-0.88
959.238	-0.88
959.966	1.12
960.695	-1.88
961.423	-0.88
962.151	-1.88
962.88	0.12
963.608	0.12
964.336	-1.88
965.064	0.12
965.792	1.12
966.52	1.12
967.247	1.12
967.975	0.12
968.703	0.12
969.43	0.12
970.158	1.12
970.885	-0.88
971.613	-2.88
972.34	1.12
973.067	-1.88
973.794	1.12
974.521	-0.88
975.248	0.12
975.975	-1.88
976.702	-1.88
977.429	3.12
978.156	-1.88
978.882	-1.88
979.609	-1.88
980.335	0.12
981.062	-0.88
981.788	-2.88
982.514	-1.88
983.24	1.12
983.967	0.12
984.693	-0.88
985.419	1.12
986.144	-0.88
986.87	-0.88
987.596	-0.88
988.322	0.12
989.047	1.12
989.773	-0.88
990.498	-0.88
991.224	-1.88
991.949	2.12
992.674	-0.88
993.399	-1.88
994.124	-1.88
994.849	0.12
995.574	0.12
996.299	0.12
997.024	-1.88
997.749	-0.88
998.473	1.12
999.198	-2.88
999.922	0.12
1000.647	-1.88
1001.371	3.12
1002.095	0.12
1002.82	-1.88
1003.544	0.12
1004.268	4.12
1004.992	3.12
1005.716	6.12
1006.439	4.12
1007.163	6.12
1007.887	1.12
1008.611	1.12
1009.334	-2.88
1010.058	1.12
1010.781	-0.88
1011.504	-0.88
1012.228	-0.88
1012.951	1.12
1013.674	-1.88
1014.397	-0.88
1015.12	0.12
