节点500_705_QEPB04081__319__20-50-30-475.txt的数据

Date: Wed Nov 12 20:50:30 CST 2025
User: PC
Spectrometer: QEPB0408
触发模式: 0
积分时间 (秒): 1.000000E-2
Scans to average: 1
启用暗噪声校正: true
启用非线性校正: false
滑动平均宽度: 0
X轴模式: Wavelengths
Number of Pixels in Spectrum: 1044
>>>>>Begin Spectral Data<<<<<
220.843	3.75
221.644	5.75
222.444	5.75
223.244	4.75
224.045	6.75
224.845	4.75
225.645	7.75
226.445	7.75
227.245	7.75
228.045	6.75
228.845	6.75
229.645	7.75
230.444	5.75
231.244	9.75
232.043	9.75
232.843	9.75
233.642	9.75
234.442	10.75
235.241	9.75
236.04	10.75
236.839	9.75
237.638	9.75
238.437	11.75
239.236	9.75
240.035	10.75
240.833	12.75
241.632	12.75
242.43	12.75
243.229	12.75
244.027	13.75
244.826	12.75
245.624	14.75
246.422	16.75
247.22	14.75
248.018	13.75
248.816	13.75
249.614	14.75
250.412	15.75
251.21	17.75
252.007	17.75
252.805	19.75
253.602	18.75
254.4	18.75
255.197	18.75
255.994	16.75
256.791	16.75
257.589	18.75
258.386	21.75
259.183	21.75
259.979	22.75
260.776	21.75
261.573	24.75
262.37	23.75
263.166	23.75
263.963	22.75
264.759	23.75
265.556	29.75
266.352	27.75
267.148	28.75
267.944	26.75
268.74	29.75
269.536	28.75
270.332	30.75
271.128	32.75
271.924	30.75
272.719	32.75
273.515	35.75
274.311	33.75
275.106	35.75
275.901	31.75
276.697	32.75
277.492	33.75
278.287	30.75
279.082	34.75
279.877	34.75
280.672	32.75
281.467	34.75
282.262	32.75
283.056	31.75
283.851	36.75
284.646	34.75
285.44	35.75
286.234	33.75
287.029	32.75
287.823	33.75
288.617	34.75
289.411	28.75
290.205	31.75
290.999	33.75
291.793	32.75
292.587	30.75
293.381	31.75
294.174	33.75
294.968	29.75
295.761	26.75
296.555	26.75
297.348	25.75
298.141	26.75
298.935	27.75
299.728	24.75
300.521	23.75
301.314	25.75
302.107	24.75
302.899	20.75
303.692	23.75
304.485	19.75
305.277	23.75
306.07	19.75
306.862	21.75
307.655	19.75
308.447	20.75
309.239	21.75
310.031	21.75
310.823	19.75
311.615	15.75
312.407	16.75
313.199	17.75
313.991	18.75
314.783	20.75
315.574	17.75
316.366	13.75
317.157	17.75
317.949	13.75
318.74	14.75
319.531	15.75
320.322	13.75
321.113	12.75
321.904	11.75
322.695	14.75
323.486	14.75
324.277	13.75
325.068	13.75
325.858	11.75
326.649	13.75
327.439	13.75
328.23	11.75
329.02	13.75
329.81	12.75
330.6	12.75
331.391	13.75
332.181	12.75
332.971	11.75
333.76	10.75
334.55	12.75
335.34	12.75
336.13	12.75
336.919	9.75
337.709	13.75
338.498	11.75
339.287	10.75
340.077	11.75
340.866	13.75
341.655	13.75
342.444	13.75
343.233	10.75
344.022	10.75
344.811	11.75
345.6	11.75
346.388	12.75
347.177	10.75
347.965	10.75
348.754	10.75
349.542	10.75
350.33	11.75
351.119	10.75
351.907	11.75
352.695	9.75
353.483	10.75
354.271	9.75
355.059	9.75
355.846	8.75
356.634	10.75
357.422	9.75
358.209	8.75
358.997	11.75
359.784	10.75
360.571	10.75
361.359	10.75
362.146	9.75
362.933	11.75
363.72	10.75
364.507	10.75
365.294	8.75
366.081	10.75
366.867	9.75
367.654	9.75
368.44	12.75
369.227	8.75
370.013	7.75
370.8	7.75
371.586	9.75
372.372	8.75
373.158	12.75
373.944	9.75
374.73	8.75
375.516	8.75
376.302	8.75
377.088	8.75
377.873	7.75
378.659	9.75
379.445	11.75
380.23	8.75
381.015	13.75
381.801	11.75
382.586	6.75
383.371	10.75
384.156	7.75
384.941	10.75
385.726	11.75
386.511	10.75
387.296	8.75
388.08	10.75
388.865	10.75
389.649	9.75
390.434	12.75
391.218	10.75
392.003	12.75
392.787	11.75
393.571	12.75
394.355	12.75
395.139	12.75
395.923	13.75
396.707	13.75
397.491	11.75
398.274	12.75
399.058	14.75
399.842	13.75
400.625	11.75
401.408	12.75
402.192	16.75
402.975	13.75
403.758	13.75
404.541	13.75
405.324	14.75
406.107	12.75
406.89	12.75
407.673	15.75
408.456	14.75
409.238	16.75
410.021	15.75
410.803	13.75
411.586	17.75
412.368	16.75
413.151	14.75
413.933	15.75
414.715	19.75
415.497	16.75
416.279	14.75
417.061	18.75
417.843	20.75
418.624	22.75
419.406	20.75
420.188	21.75
420.969	20.75
421.751	22.75
422.532	24.75
423.313	21.75
424.095	21.75
424.876	24.75
425.657	23.75
426.438	27.75
427.219	25.75
428	26.75
428.78	27.75
429.561	28.75
430.342	28.75
431.122	31.75
431.903	30.75
432.683	32.75
433.464	36.75
434.244	39.75
435.024	41.75
435.804	41.75
436.584	39.75
437.364	42.75
438.144	44.75
438.924	54.75
439.704	52.75
440.483	57.75
441.263	60.75
442.042	67.75
442.822	65.75
443.601	74.75
444.38	79.75
445.16	88.75
445.939	94.75
446.718	101.75
447.497	109.75
448.276	120.75
449.054	134.75
449.833	147.75
450.612	164.75
451.391	178.75
452.169	192.75
452.948	210.75
453.726	241.75
454.504	263.75
455.282	287.75
456.061	338.75
456.839	366.75
457.617	411.75
458.395	463.75
459.172	501.75
459.95	564.75
460.728	633.75
461.506	690.75
462.283	776.75
463.061	862.75
463.838	994.75
464.615	1103.75
465.393	1212.75
466.17	1338.75
466.947	1504.75
467.724	1684.75
468.501	1855.75
469.278	2050.75
470.055	2276.75
470.831	2514.75
471.608	2753.75
472.385	3039.75
473.161	3363.75
473.938	3698.75
474.714	4072.75
475.49	4451.75
476.266	4861.75
477.043	5336.75
477.819	5840.75
478.595	6417.75
479.371	6994.75
480.146	7609.75
480.922	8316.75
481.698	9097.75
482.473	9869.75
483.249	10761.75
484.024	11639.75
484.8	12662.75
485.575	13667.75
486.35	14905.75
487.126	16115.75
487.901	17408.75
488.676	18827.75
489.451	20359.75
490.225	21813.75
491	23352.75
491.775	25090.75
492.55	26824.75
493.324	28506.75
494.099	30299.75
494.873	32114.75
495.647	33901.75
496.422	35756.75
497.196	37494.75
497.97	39180.75
498.744	40643.75
499.518	42277.75
500.292	43617.75
501.066	44671.75
501.839	45564.75
502.613	46305.75
503.387	46903.75
504.16	47362.75
504.934	47488.75
505.707	47369.75
506.48	46920.75
507.253	46436.75
508.027	45718.75
508.8	44777.75
509.573	43671.75
510.346	42620.75
511.118	41509.75
511.891	40309.75
512.664	38774.75
513.437	37396.75
514.209	35884.75
514.982	34554.75
515.754	33189.75
516.526	31808.75
517.298	30582.75
518.071	29244.75
518.843	28077.75
519.615	26970.75
520.387	25901.75
521.159	24895.75
521.93	23848.75
522.702	22887.75
523.474	21941.75
524.245	20961.75
525.017	20045.75
525.788	19183.75
526.56	18380.75
527.331	17576.75
528.102	16579.75
528.873	15869.75
529.644	15097.75
530.415	14382.75
531.186	13684.75
531.957	12953.75
532.728	12305.75
533.498	11631.75
534.269	11032.75
535.039	10430.75
535.81	9886.75
536.58	9326.75
537.351	8832.75
538.121	8393.75
538.891	7952.75
539.661	7479.75
540.431	7076.75
541.201	6738.75
541.971	6402.75
542.741	6036.75
543.51	5722.75
544.28	5482.75
545.05	5220.75
545.819	4949.75
546.588	4732.75
547.358	4488.75
548.127	4283.75
548.896	4065.75
549.665	3862.75
550.434	3639.75
551.203	3468.75
551.972	3275.75
552.741	3123.75
553.51	2899.75
554.278	2758.75
555.047	2595.75
555.815	2471.75
556.584	2319.75
557.352	2188.75
558.121	2062.75
558.889	1972.75
559.657	1853.75
560.425	1763.75
561.193	1680.75
561.961	1568.75
562.729	1484.75
563.496	1404.75
564.264	1329.75
565.032	1260.75
565.799	1185.75
566.567	1127.75
567.334	1068.75
568.101	1010.75
568.869	939.75
569.636	901.75
570.403	846.75
571.17	798.75
571.937	754.75
572.704	717.75
573.471	669.75
574.237	625.75
575.004	598.75
575.771	557.75
576.537	540.75
577.303	500.75
578.07	477.75
578.836	444.75
579.602	422.75
580.368	404.75
581.134	388.75
581.9	361.75
582.666	350.75
583.432	330.75
584.198	319.75
584.964	298.75
585.729	276.75
586.495	267.75
587.26	247.75
588.025	240.75
588.791	231.75
589.556	214.75
590.321	204.75
591.086	192.75
591.851	185.75
592.616	177.75
593.381	169.75
594.146	160.75
594.911	148.75
595.675	148.75
596.44	141.75
597.204	130.75
597.969	130.75
598.733	121.75
599.497	112.75
600.261	113.75
601.025	108.75
601.79	102.75
602.553	97.75
603.317	93.75
604.081	91.75
604.845	88.75
605.609	84.75
606.372	81.75
607.136	79.75
607.899	72.75
608.662	69.75
609.426	70.75
610.189	64.75
610.952	62.75
611.715	60.75
612.478	58.75
613.241	58.75
614.004	57.75
614.767	48.75
615.529	51.75
616.292	49.75
617.055	45.75
617.817	48.75
618.579	43.75
619.342	46.75
620.104	41.75
620.866	42.75
621.628	38.75
622.39	38.75
623.152	39.75
623.914	37.75
624.676	33.75
625.438	32.75
626.199	32.75
626.961	30.75
627.722	31.75
628.484	28.75
629.245	28.75
630.006	29.75
630.768	29.75
631.529	25.75
632.29	26.75
633.051	26.75
633.812	25.75
634.573	24.75
635.333	21.75
636.094	23.75
636.855	22.75
637.615	18.75
638.376	22.75
639.136	18.75
639.896	21.75
640.657	19.75
641.417	16.75
642.177	18.75
642.937	17.75
643.697	17.75
644.457	14.75
645.216	16.75
645.976	19.75
646.736	15.75
647.495	14.75
648.255	12.75
649.014	18.75
649.774	16.75
650.533	13.75
651.292	12.75
652.051	14.75
652.81	13.75
653.569	11.75
654.328	12.75
655.087	14.75
655.846	11.75
656.604	14.75
657.363	11.75
658.121	12.75
658.88	10.75
659.638	12.75
660.397	9.75
661.155	10.75
661.913	10.75
662.671	10.75
663.429	8.75
664.187	10.75
664.945	9.75
665.703	8.75
666.46	9.75
667.218	8.75
667.976	8.75
668.733	6.75
669.49	9.75
670.248	13.75
671.005	8.75
671.762	8.75
672.519	7.75
673.276	9.75
674.033	8.75
674.79	8.75
675.547	8.75
676.304	8.75
677.06	9.75
677.817	11.75
678.574	8.75
679.33	8.75
680.086	7.75
680.843	10.75
681.599	9.75
682.355	8.75
683.111	6.75
683.867	7.75
684.623	5.75
685.379	6.75
686.135	9.75
686.89	8.75
687.646	10.75
688.402	8.75
689.157	3.75
689.912	8.75
690.668	4.75
691.423	9.75
692.178	6.75
692.933	9.75
693.688	7.75
694.443	6.75
695.198	6.75
695.953	9.75
696.708	7.75
697.462	6.75
698.217	6.75
698.972	8.75
699.726	7.75
700.48	8.75
701.235	8.75
701.989	6.75
702.743	9.75
703.497	7.75
704.251	7.75
705.005	6.75
705.759	6.75
706.513	7.75
707.266	4.75
708.02	8.75
708.774	7.75
709.527	5.75
710.28	6.75
711.034	6.75
711.787	6.75
712.54	7.75
713.293	8.75
714.046	6.75
714.799	7.75
715.552	6.75
716.305	4.75
717.058	5.75
717.81	7.75
718.563	7.75
719.315	9.75
720.068	6.75
720.82	8.75
721.573	7.75
722.325	8.75
723.077	7.75
723.829	9.75
724.581	7.75
725.333	6.75
726.085	5.75
726.836	8.75
727.588	10.75
728.34	8.75
729.091	6.75
729.843	9.75
730.594	8.75
731.346	10.75
732.097	8.75
732.848	10.75
733.599	9.75
734.35	8.75
735.101	9.75
735.852	9.75
736.603	9.75
737.354	9.75
738.104	9.75
738.855	10.75
739.605	8.75
740.356	11.75
741.106	10.75
741.856	7.75
742.607	9.75
743.357	9.75
744.107	9.75
744.857	5.75
745.607	10.75
746.357	10.75
747.106	11.75
747.856	10.75
748.606	11.75
749.355	10.75
750.105	12.75
750.854	11.75
751.603	11.75
752.353	10.75
753.102	12.75
753.851	10.75
754.6	11.75
755.349	11.75
756.098	11.75
756.847	12.75
757.595	12.75
758.344	13.75
759.093	11.75
759.841	13.75
760.589	13.75
761.338	11.75
762.086	13.75
762.834	12.75
763.582	15.75
764.331	13.75
765.079	13.75
765.826	13.75
766.574	12.75
767.322	15.75
768.07	15.75
768.817	14.75
769.565	14.75
770.312	14.75
771.06	14.75
771.807	14.75
772.554	12.75
773.302	14.75
774.049	12.75
774.796	16.75
775.543	14.75
776.29	13.75
777.036	15.75
777.783	13.75
778.53	13.75
779.276	17.75
780.023	14.75
780.769	13.75
781.516	13.75
782.262	16.75
783.008	15.75
783.754	14.75
784.5	16.75
785.246	17.75
785.992	16.75
786.738	15.75
787.484	14.75
788.23	13.75
788.975	17.75
789.721	13.75
790.466	15.75
791.212	15.75
791.957	14.75
792.702	14.75
793.447	13.75
794.193	13.75
794.938	13.75
795.683	12.75
796.427	15.75
797.172	14.75
797.917	10.75
798.662	10.75
799.406	13.75
800.151	10.75
800.895	10.75
801.64	11.75
802.384	11.75
803.128	12.75
803.872	11.75
804.616	12.75
805.36	11.75
806.104	10.75
806.848	10.75
807.592	10.75
808.336	11.75
809.079	7.75
809.823	7.75
810.566	7.75
811.31	7.75
812.053	8.75
812.796	7.75
813.539	9.75
814.283	9.75
815.026	9.75
815.769	6.75
816.511	7.75
817.254	8.75
817.997	4.75
818.74	8.75
819.482	7.75
820.225	6.75
820.967	5.75
821.71	8.75
822.452	6.75
823.194	5.75
823.936	7.75
824.678	5.75
825.42	5.75
826.162	7.75
826.904	3.75
827.646	8.75
828.388	6.75
829.129	3.75
829.871	4.75
830.612	4.75
831.354	7.75
832.095	6.75
832.836	3.75
833.577	5.75
834.319	7.75
835.06	5.75
835.801	2.75
836.542	7.75
837.282	8.75
838.023	5.75
838.764	4.75
839.504	6.75
840.245	4.75
840.985	5.75
841.726	7.75
842.466	5.75
843.206	3.75
843.946	5.75
844.687	4.75
845.427	5.75
846.166	4.75
846.906	4.75
847.646	4.75
848.386	2.75
849.125	3.75
849.865	2.75
850.605	5.75
851.344	2.75
852.083	5.75
852.823	7.75
853.562	4.75
854.301	4.75
855.04	4.75
855.779	6.75
856.518	2.75
857.257	3.75
857.995	1.75
858.734	5.75
859.473	2.75
860.211	1.75
860.95	1.75
861.688	4.75
862.426	3.75
863.165	3.75
863.903	5.75
864.641	5.75
865.379	4.75
866.117	4.75
866.855	2.75
867.593	2.75
868.33	3.75
869.068	2.75
869.806	3.75
870.543	0.75
871.28	1.75
872.018	2.75
872.755	2.75
873.492	3.75
874.229	2.75
874.967	1.75
875.703	0.75
876.44	3.75
877.177	2.75
877.914	1.75
878.651	1.75
879.387	-0.25
880.124	1.75
880.86	4.75
881.597	0.75
882.333	0.75
883.069	0.75
883.806	3.75
884.542	-0.25
885.278	1.75
886.014	3.75
886.749	0.75
887.485	2.75
888.221	2.75
888.957	2.75
889.692	0.75
890.428	-0.25
891.163	0.75
891.899	0.75
892.634	4.75
893.369	-0.25
894.104	-0.25
894.839	0.75
895.574	0.75
896.309	0.75
897.044	-2.25
897.779	-1.25
898.514	1.75
899.248	-0.25
899.983	1.75
900.717	1.75
901.452	2.75
902.186	0.75
902.92	-0.25
903.654	0.75
904.389	-0.25
905.123	0.75
905.857	1.75
906.59	1.75
907.324	1.75
908.058	-2.25
908.792	0.75
909.525	1.75
910.259	0.75
910.992	0.75
911.726	-2.25
912.459	1.75
913.192	-0.25
913.925	-1.25
914.658	1.75
915.391	1.75
916.124	1.75
916.857	-1.25
917.59	0.75
918.323	-0.25
919.055	0.75
919.788	1.75
920.521	1.75
921.253	1.75
921.985	-0.25
922.718	-0.25
923.45	-0.25
924.182	0.75
924.914	3.75
925.646	1.75
926.378	2.75
927.11	-0.25
927.841	0.75
928.573	-1.25
929.305	-0.25
930.036	-0.25
930.768	-0.25
931.499	1.75
932.23	0.75
932.962	0.75
933.693	0.75
934.424	-1.25
935.155	0.75
935.886	0.75
936.617	1.75
937.348	1.75
938.078	-0.25
938.809	-0.25
939.54	-0.25
940.27	-1.25
941.001	-0.25
941.731	1.75
942.461	1.75
943.191	-0.25
943.922	0.75
944.652	-1.25
945.382	0.75
946.112	-0.25
946.841	0.75
947.571	-1.25
948.301	-0.25
949.031	0.75
949.76	-1.25
950.49	1.75
951.219	0.75
951.948	0.75
952.678	0.75
953.407	1.75
954.136	0.75
954.865	1.75
955.594	-1.25
956.323	-0.25
957.052	1.75
957.78	-1.25
958.509	0.75
959.238	-0.25
959.966	-2.25
960.695	3.75
961.423	-2.25
962.151	0.75
962.88	0.75
963.608	1.75
964.336	-0.25
965.064	-1.25
965.792	0.75
966.52	0.75
967.247	0.75
967.975	-0.25
968.703	0.75
969.43	0.75
970.158	-0.25
970.885	-0.25
971.613	-1.25
972.34	-0.25
973.067	-1.25
973.794	-0.25
974.521	-0.25
975.248	1.75
975.975	-0.25
976.702	1.75
977.429	0.75
978.156	-1.25
978.882	1.75
979.609	-1.25
980.335	1.75
981.062	-2.25
981.788	0.75
982.514	1.75
983.24	0.75
983.967	1.75
984.693	-0.25
985.419	-0.25
986.144	0.75
986.87	-0.25
987.596	1.75
988.322	-1.25
989.047	1.75
989.773	-1.25
990.498	1.75
991.224	0.75
991.949	0.75
992.674	-1.25
993.399	-1.25
994.124	0.75
994.849	0.75
995.574	-1.25
996.299	0.75
997.024	-0.25
997.749	1.75
998.473	0.75
999.198	0.75
999.922	0.75
1000.647	-0.25
1001.371	2.75
1002.095	-1.25
1002.82	-0.25
1003.544	-2.25
1004.268	5.75
1004.992	3.75
1005.716	4.75
1006.439	2.75
1007.163	4.75
1007.887	7.75
1008.611	-0.25
1009.334	-1.25
1010.058	0.75
1010.781	-0.25
1011.504	0.75
1012.228	-0.25
1012.951	0.75
1013.674	0.75
1014.397	-0.25
1015.12	-0.25
