节点500_705_QEPB04081__473__20-52-36-788.txt的数据

Date: Wed Nov 12 20:52:36 CST 2025
User: PC
Spectrometer: QEPB0408
触发模式: 0
积分时间 (秒): 1.000000E-2
Scans to average: 1
启用暗噪声校正: true
启用非线性校正: false
滑动平均宽度: 0
X轴模式: Wavelengths
Number of Pixels in Spectrum: 1044
>>>>>Begin Spectral Data<<<<<
220.843	3.88
221.644	7.88
222.444	7.88
223.244	5.88
224.045	4.88
224.845	7.88
225.645	4.88
226.445	9.88
227.245	4.88
228.045	6.88
228.845	9.88
229.645	5.88
230.444	8.88
231.244	5.88
232.043	9.88
232.843	8.88
233.642	7.88
234.442	10.88
235.241	9.88
236.04	8.88
236.839	9.88
237.638	11.88
238.437	11.88
239.236	8.88
240.035	10.88
240.833	10.88
241.632	11.88
242.43	11.88
243.229	14.88
244.027	12.88
244.826	12.88
245.624	9.88
246.422	14.88
247.22	13.88
248.018	13.88
248.816	12.88
249.614	14.88
250.412	12.88
251.21	15.88
252.007	14.88
252.805	14.88
253.602	13.88
254.4	19.88
255.197	18.88
255.994	18.88
256.791	18.88
257.589	17.88
258.386	18.88
259.183	19.88
259.979	19.88
260.776	21.88
261.573	24.88
262.37	24.88
263.166	23.88
263.963	25.88
264.759	23.88
265.556	25.88
266.352	25.88
267.148	28.88
267.944	26.88
268.74	26.88
269.536	26.88
270.332	28.88
271.128	28.88
271.924	31.88
272.719	28.88
273.515	28.88
274.311	30.88
275.106	30.88
275.901	30.88
276.697	31.88
277.492	31.88
278.287	34.88
279.082	32.88
279.877	32.88
280.672	30.88
281.467	32.88
282.262	35.88
283.056	31.88
283.851	30.88
284.646	33.88
285.44	31.88
286.234	30.88
287.029	29.88
287.823	34.88
288.617	29.88
289.411	32.88
290.205	29.88
290.999	30.88
291.793	30.88
292.587	30.88
293.381	28.88
294.174	30.88
294.968	29.88
295.761	29.88
296.555	26.88
297.348	26.88
298.141	25.88
298.935	26.88
299.728	24.88
300.521	26.88
301.314	25.88
302.107	24.88
302.899	23.88
303.692	22.88
304.485	23.88
305.277	20.88
306.07	20.88
306.862	21.88
307.655	18.88
308.447	17.88
309.239	18.88
310.031	20.88
310.823	19.88
311.615	17.88
312.407	17.88
313.199	18.88
313.991	19.88
314.783	16.88
315.574	17.88
316.366	16.88
317.157	14.88
317.949	15.88
318.74	14.88
319.531	14.88
320.322	15.88
321.113	14.88
321.904	13.88
322.695	12.88
323.486	12.88
324.277	12.88
325.068	13.88
325.858	10.88
326.649	11.88
327.439	11.88
328.23	11.88
329.02	12.88
329.81	12.88
330.6	11.88
331.391	9.88
332.181	11.88
332.971	12.88
333.76	10.88
334.55	11.88
335.34	12.88
336.13	10.88
336.919	12.88
337.709	9.88
338.498	14.88
339.287	12.88
340.077	13.88
340.866	10.88
341.655	9.88
342.444	12.88
343.233	9.88
344.022	10.88
344.811	10.88
345.6	11.88
346.388	13.88
347.177	9.88
347.965	12.88
348.754	10.88
349.542	10.88
350.33	11.88
351.119	10.88
351.907	10.88
352.695	8.88
353.483	8.88
354.271	11.88
355.059	11.88
355.846	9.88
356.634	9.88
357.422	7.88
358.209	8.88
358.997	9.88
359.784	10.88
360.571	10.88
361.359	11.88
362.146	10.88
362.933	10.88
363.72	10.88
364.507	8.88
365.294	10.88
366.081	12.88
366.867	10.88
367.654	7.88
368.44	10.88
369.227	9.88
370.013	5.88
370.8	7.88
371.586	9.88
372.372	10.88
373.158	8.88
373.944	11.88
374.73	8.88
375.516	10.88
376.302	7.88
377.088	8.88
377.873	12.88
378.659	7.88
379.445	9.88
380.23	9.88
381.015	8.88
381.801	9.88
382.586	8.88
383.371	11.88
384.156	11.88
384.941	10.88
385.726	10.88
386.511	7.88
387.296	11.88
388.08	8.88
388.865	10.88
389.649	11.88
390.434	10.88
391.218	10.88
392.003	10.88
392.787	12.88
393.571	13.88
394.355	9.88
395.139	13.88
395.923	10.88
396.707	11.88
397.491	11.88
398.274	13.88
399.058	12.88
399.842	13.88
400.625	13.88
401.408	14.88
402.192	15.88
402.975	13.88
403.758	13.88
404.541	12.88
405.324	11.88
406.107	17.88
406.89	14.88
407.673	13.88
408.456	13.88
409.238	14.88
410.021	16.88
410.803	15.88
411.586	14.88
412.368	14.88
413.151	17.88
413.933	16.88
414.715	16.88
415.497	16.88
416.279	19.88
417.061	18.88
417.843	16.88
418.624	18.88
419.406	18.88
420.188	20.88
420.969	20.88
421.751	19.88
422.532	19.88
423.313	21.88
424.095	21.88
424.876	24.88
425.657	26.88
426.438	22.88
427.219	25.88
428	27.88
428.78	28.88
429.561	27.88
430.342	29.88
431.122	30.88
431.903	31.88
432.683	33.88
433.464	38.88
434.244	36.88
435.024	36.88
435.804	41.88
436.584	40.88
437.364	43.88
438.144	46.88
438.924	50.88
439.704	52.88
440.483	59.88
441.263	62.88
442.042	61.88
442.822	75.88
443.601	80.88
444.38	83.88
445.16	86.88
445.939	97.88
446.718	102.88
447.497	111.88
448.276	124.88
449.054	141.88
449.833	153.88
450.612	169.88
451.391	186.88
452.169	202.88
452.948	225.88
453.726	247.88
454.504	286.88
455.282	315.88
456.061	346.88
456.839	386.88
457.617	427.88
458.395	482.88
459.172	537.88
459.95	594.88
460.728	663.88
461.506	727.88
462.283	812.88
463.061	906.88
463.838	1004.88
464.615	1128.88
465.393	1239.88
466.17	1383.88
466.947	1519.88
467.724	1701.88
468.501	1862.88
469.278	2072.88
470.055	2269.88
470.831	2516.88
471.608	2770.88
472.385	3019.88
473.161	3330.88
473.938	3637.88
474.714	4008.88
475.49	4386.88
476.266	4773.88
477.043	5219.88
477.819	5694.88
478.595	6193.88
479.371	6787.88
480.146	7352.88
480.922	7964.88
481.698	8670.88
482.473	9419.88
483.249	10234.88
484.024	11068.88
484.8	11949.88
485.575	12927.88
486.35	13976.88
487.126	15135.88
487.901	16318.88
488.676	17586.88
489.451	18917.88
490.225	20285.88
491	21758.88
491.775	23181.88
492.55	24828.88
493.324	26421.88
494.099	28083.88
494.873	29748.88
495.647	31400.88
496.422	33096.88
497.196	34807.88
497.97	36359.88
498.744	37826.88
499.518	39460.88
500.292	40806.88
501.066	41877.88
501.839	42835.88
502.613	43642.88
503.387	44348.88
504.16	44926.88
504.934	45202.88
505.707	45262.88
506.48	45170.88
507.253	44848.88
508.027	44431.88
508.8	43610.88
509.573	42746.88
510.346	41936.88
511.118	40961.88
511.891	39870.88
512.664	38525.88
513.437	37215.88
514.209	35880.88
514.982	34539.88
515.754	33196.88
516.526	31909.88
517.298	30662.88
518.071	29542.88
518.843	28296.88
519.615	27250.88
520.387	26135.88
521.159	25102.88
521.93	24096.88
522.702	23087.88
523.474	22135.88
524.245	21249.88
525.017	20315.88
525.788	19436.88
526.56	18699.88
527.331	17890.88
528.102	16993.88
528.873	16195.88
529.644	15427.88
530.415	14721.88
531.186	14008.88
531.957	13286.88
532.728	12649.88
533.498	11981.88
534.269	11342.88
535.039	10798.88
535.81	10199.88
536.58	9633.88
537.351	9152.88
538.121	8687.88
538.891	8201.88
539.661	7730.88
540.431	7327.88
541.201	6949.88
541.971	6633.88
542.741	6228.88
543.51	5948.88
544.28	5635.88
545.05	5387.88
545.819	5125.88
546.588	4883.88
547.358	4667.88
548.127	4417.88
548.896	4198.88
549.665	4000.88
550.434	3792.88
551.203	3592.88
551.972	3401.88
552.741	3224.88
553.51	3043.88
554.278	2877.88
555.047	2708.88
555.815	2571.88
556.584	2436.88
557.352	2289.88
558.121	2182.88
558.889	2046.88
559.657	1945.88
560.425	1833.88
561.193	1753.88
561.961	1639.88
562.729	1562.88
563.496	1466.88
564.264	1410.88
565.032	1319.88
565.799	1249.88
566.567	1174.88
567.334	1131.88
568.101	1050.88
568.869	988.88
569.636	940.88
570.403	878.88
571.17	838.88
571.937	789.88
572.704	737.88
573.471	711.88
574.237	666.88
575.004	635.88
575.771	583.88
576.537	558.88
577.303	522.88
578.07	492.88
578.836	466.88
579.602	433.88
580.368	419.88
581.134	404.88
581.9	385.88
582.666	357.88
583.432	346.88
584.198	329.88
584.964	310.88
585.729	294.88
586.495	278.88
587.26	262.88
588.025	252.88
588.791	235.88
589.556	224.88
590.321	212.88
591.086	203.88
591.851	197.88
592.616	183.88
593.381	174.88
594.146	162.88
594.911	162.88
595.675	156.88
596.44	144.88
597.204	138.88
597.969	133.88
598.733	127.88
599.497	118.88
600.261	114.88
601.025	105.88
601.79	99.88
602.553	103.88
603.317	99.88
604.081	90.88
604.845	92.88
605.609	84.88
606.372	80.88
607.136	77.88
607.899	77.88
608.662	71.88
609.426	68.88
610.189	70.88
610.952	63.88
611.715	63.88
612.478	62.88
613.241	62.88
614.004	58.88
614.767	53.88
615.529	53.88
616.292	48.88
617.055	46.88
617.817	47.88
618.579	46.88
619.342	41.88
620.104	40.88
620.866	41.88
621.628	38.88
622.39	37.88
623.152	36.88
623.914	40.88
624.676	35.88
625.438	32.88
626.199	33.88
626.961	32.88
627.722	30.88
628.484	32.88
629.245	28.88
630.006	32.88
630.768	24.88
631.529	27.88
632.29	27.88
633.051	28.88
633.812	25.88
634.573	25.88
635.333	22.88
636.094	23.88
636.855	22.88
637.615	24.88
638.376	20.88
639.136	19.88
639.896	19.88
640.657	19.88
641.417	18.88
642.177	17.88
642.937	17.88
643.697	15.88
644.457	16.88
645.216	18.88
645.976	17.88
646.736	18.88
647.495	14.88
648.255	14.88
649.014	14.88
649.774	17.88
650.533	14.88
651.292	13.88
652.051	12.88
652.81	14.88
653.569	14.88
654.328	11.88
655.087	10.88
655.846	13.88
656.604	12.88
657.363	13.88
658.121	10.88
658.88	11.88
659.638	8.88
660.397	11.88
661.155	10.88
661.913	13.88
662.671	11.88
663.429	9.88
664.187	10.88
664.945	9.88
665.703	10.88
666.46	5.88
667.218	9.88
667.976	11.88
668.733	10.88
669.49	9.88
670.248	9.88
671.005	8.88
671.762	8.88
672.519	8.88
673.276	9.88
674.033	7.88
674.79	8.88
675.547	9.88
676.304	8.88
677.06	8.88
677.817	7.88
678.574	8.88
679.33	8.88
680.086	8.88
680.843	9.88
681.599	8.88
682.355	8.88
683.111	8.88
683.867	8.88
684.623	6.88
685.379	5.88
686.135	7.88
686.89	9.88
687.646	8.88
688.402	5.88
689.157	6.88
689.912	9.88
690.668	6.88
691.423	8.88
692.178	5.88
692.933	5.88
693.688	7.88
694.443	6.88
695.198	8.88
695.953	8.88
696.708	8.88
697.462	4.88
698.217	6.88
698.972	6.88
699.726	7.88
700.48	8.88
701.235	7.88
701.989	6.88
702.743	8.88
703.497	7.88
704.251	8.88
705.005	7.88
705.759	9.88
706.513	6.88
707.266	7.88
708.02	4.88
708.774	7.88
709.527	6.88
710.28	6.88
711.034	7.88
711.787	4.88
712.54	9.88
713.293	8.88
714.046	5.88
714.799	7.88
715.552	4.88
716.305	8.88
717.058	6.88
717.81	8.88
718.563	4.88
719.315	8.88
720.068	6.88
720.82	5.88
721.573	7.88
722.325	7.88
723.077	7.88
723.829	5.88
724.581	5.88
725.333	7.88
726.085	5.88
726.836	8.88
727.588	6.88
728.34	7.88
729.091	8.88
729.843	6.88
730.594	5.88
731.346	8.88
732.097	7.88
732.848	10.88
733.599	8.88
734.35	8.88
735.101	5.88
735.852	8.88
736.603	7.88
737.354	9.88
738.104	9.88
738.855	8.88
739.605	10.88
740.356	9.88
741.106	10.88
741.856	6.88
742.607	6.88
743.357	9.88
744.107	11.88
744.857	11.88
745.607	10.88
746.357	10.88
747.106	10.88
747.856	10.88
748.606	8.88
749.355	9.88
750.105	10.88
750.854	10.88
751.603	8.88
752.353	9.88
753.102	11.88
753.851	13.88
754.6	8.88
755.349	10.88
756.098	11.88
756.847	11.88
757.595	9.88
758.344	11.88
759.093	12.88
759.841	12.88
760.589	10.88
761.338	11.88
762.086	10.88
762.834	11.88
763.582	11.88
764.331	12.88
765.079	13.88
765.826	13.88
766.574	10.88
767.322	12.88
768.07	14.88
768.817	16.88
769.565	13.88
770.312	14.88
771.06	13.88
771.807	12.88
772.554	15.88
773.302	14.88
774.049	12.88
774.796	15.88
775.543	14.88
776.29	11.88
777.036	16.88
777.783	14.88
778.53	15.88
779.276	15.88
780.023	14.88
780.769	18.88
781.516	16.88
782.262	16.88
783.008	11.88
783.754	16.88
784.5	15.88
785.246	13.88
785.992	14.88
786.738	14.88
787.484	15.88
788.23	15.88
788.975	13.88
789.721	14.88
790.466	13.88
791.212	14.88
791.957	15.88
792.702	14.88
793.447	14.88
794.193	11.88
794.938	12.88
795.683	11.88
796.427	12.88
797.172	10.88
797.917	11.88
798.662	12.88
799.406	12.88
800.151	13.88
800.895	13.88
801.64	11.88
802.384	12.88
803.128	12.88
803.872	12.88
804.616	10.88
805.36	10.88
806.104	9.88
806.848	10.88
807.592	9.88
808.336	9.88
809.079	7.88
809.823	11.88
810.566	8.88
811.31	8.88
812.053	9.88
812.796	8.88
813.539	9.88
814.283	8.88
815.026	8.88
815.769	10.88
816.511	7.88
817.254	6.88
817.997	7.88
818.74	6.88
819.482	8.88
820.225	6.88
820.967	7.88
821.71	7.88
822.452	6.88
823.194	5.88
823.936	7.88
824.678	6.88
825.42	4.88
826.162	6.88
826.904	8.88
827.646	5.88
828.388	3.88
829.129	6.88
829.871	4.88
830.612	5.88
831.354	4.88
832.095	6.88
832.836	4.88
833.577	4.88
834.319	6.88
835.06	4.88
835.801	6.88
836.542	2.88
837.282	8.88
838.023	2.88
838.764	6.88
839.504	4.88
840.245	2.88
840.985	5.88
841.726	5.88
842.466	5.88
843.206	2.88
843.946	5.88
844.687	3.88
845.427	6.88
846.166	4.88
846.906	7.88
847.646	4.88
848.386	4.88
849.125	4.88
849.865	4.88
850.605	5.88
851.344	6.88
852.083	3.88
852.823	3.88
853.562	5.88
854.301	5.88
855.04	4.88
855.779	3.88
856.518	2.88
857.257	2.88
857.995	1.88
858.734	5.88
859.473	1.88
860.211	2.88
860.95	0.88
861.688	2.88
862.426	2.88
863.165	2.88
863.903	4.88
864.641	0.88
865.379	1.88
866.117	1.88
866.855	1.88
867.593	2.88
868.33	3.88
869.068	2.88
869.806	2.88
870.543	2.88
871.28	2.88
872.018	2.88
872.755	2.88
873.492	0.88
874.229	2.88
874.967	2.88
875.703	-0.12
876.44	2.88
877.177	-0.12
877.914	2.88
878.651	1.88
879.387	1.88
880.124	2.88
880.86	1.88
881.597	2.88
882.333	-0.12
883.069	2.88
883.806	2.88
884.542	0.88
885.278	1.88
886.014	1.88
886.749	0.88
887.485	1.88
888.221	0.88
888.957	-0.12
889.692	0.88
890.428	0.88
891.163	-0.12
891.899	1.88
892.634	-0.12
893.369	1.88
894.104	0.88
894.839	1.88
895.574	0.88
896.309	0.88
897.044	0.88
897.779	0.88
898.514	1.88
899.248	1.88
899.983	1.88
900.717	1.88
901.452	-1.12
902.186	0.88
902.92	2.88
903.654	0.88
904.389	0.88
905.123	0.88
905.857	0.88
906.59	-0.12
907.324	1.88
908.058	-0.12
908.792	-0.12
909.525	1.88
910.259	1.88
910.992	1.88
911.726	0.88
912.459	-0.12
913.192	0.88
913.925	1.88
914.658	-0.12
915.391	0.88
916.124	3.88
916.857	1.88
917.59	0.88
918.323	0.88
919.055	-0.12
919.788	1.88
920.521	2.88
921.253	0.88
921.985	0.88
922.718	0.88
923.45	0.88
924.182	1.88
924.914	-0.12
925.646	2.88
926.378	-1.12
927.11	1.88
927.841	-0.12
928.573	-0.12
929.305	-1.12
930.036	-0.12
930.768	2.88
931.499	0.88
932.23	0.88
932.962	-0.12
933.693	-1.12
934.424	0.88
935.155	0.88
935.886	-1.12
936.617	-2.12
937.348	0.88
938.078	-0.12
938.809	1.88
939.54	-2.12
940.27	0.88
941.001	0.88
941.731	-1.12
942.461	0.88
943.191	0.88
943.922	-0.12
944.652	-1.12
945.382	-1.12
946.112	-0.12
946.841	-0.12
947.571	2.88
948.301	-1.12
949.031	-0.12
949.76	1.88
950.49	0.88
951.219	-0.12
951.948	1.88
952.678	-0.12
953.407	0.88
954.136	-0.12
954.865	-1.12
955.594	-1.12
956.323	2.88
957.052	-1.12
957.78	2.88
958.509	1.88
959.238	-0.12
959.966	-0.12
960.695	0.88
961.423	-1.12
962.151	-0.12
962.88	-0.12
963.608	0.88
964.336	-2.12
965.064	-0.12
965.792	-0.12
966.52	0.88
967.247	0.88
967.975	-1.12
968.703	-1.12
969.43	-1.12
970.158	-1.12
970.885	0.88
971.613	0.88
972.34	-1.12
973.067	-3.12
973.794	-0.12
974.521	0.88
975.248	0.88
975.975	0.88
976.702	0.88
977.429	-0.12
978.156	0.88
978.882	1.88
979.609	-2.12
980.335	-0.12
981.062	-1.12
981.788	-1.12
982.514	0.88
983.24	-1.12
983.967	0.88
984.693	2.88
985.419	0.88
986.144	-1.12
986.87	0.88
987.596	0.88
988.322	-1.12
989.047	-0.12
989.773	0.88
990.498	-1.12
991.224	1.88
991.949	-0.12
992.674	0.88
993.399	-0.12
994.124	-0.12
994.849	-0.12
995.574	0.88
996.299	-1.12
997.024	0.88
997.749	-0.12
998.473	-0.12
999.198	-2.12
999.922	0.88
1000.647	-0.12
1001.371	2.88
1002.095	-0.12
1002.82	-1.12
1003.544	-1.12
1004.268	2.88
1004.992	4.88
1005.716	2.88
1006.439	3.88
1007.163	5.88
1007.887	4.88
1008.611	-0.12
1009.334	-0.12
1010.058	-1.12
1010.781	1.88
1011.504	0.88
1012.228	0.88
1012.951	-0.12
1013.674	0.88
1014.397	-0.12
1015.12	-1.12
