节点500_705_QEPB04081__313__20-50-25-467.txt的数据

Date: Wed Nov 12 20:50:25 CST 2025
User: PC
Spectrometer: QEPB0408
触发模式: 0
积分时间 (秒): 1.000000E-2
Scans to average: 1
启用暗噪声校正: true
启用非线性校正: false
滑动平均宽度: 0
X轴模式: Wavelengths
Number of Pixels in Spectrum: 1044
>>>>>Begin Spectral Data<<<<<
220.843	4.62
221.644	8.62
222.444	3.62
223.244	6.62
224.045	8.62
224.845	6.62
225.645	4.62
226.445	6.62
227.245	5.62
228.045	5.62
228.845	10.62
229.645	8.62
230.444	6.62
231.244	8.62
232.043	7.62
232.843	8.62
233.642	7.62
234.442	9.62
235.241	8.62
236.04	8.62
236.839	7.62
237.638	10.62
238.437	11.62
239.236	10.62
240.035	9.62
240.833	10.62
241.632	12.62
242.43	13.62
243.229	13.62
244.027	13.62
244.826	10.62
245.624	15.62
246.422	13.62
247.22	12.62
248.018	14.62
248.816	15.62
249.614	16.62
250.412	17.62
251.21	14.62
252.007	17.62
252.805	15.62
253.602	19.62
254.4	19.62
255.197	19.62
255.994	17.62
256.791	19.62
257.589	20.62
258.386	21.62
259.183	22.62
259.979	23.62
260.776	21.62
261.573	21.62
262.37	24.62
263.166	21.62
263.963	22.62
264.759	25.62
265.556	25.62
266.352	25.62
267.148	27.62
267.944	27.62
268.74	27.62
269.536	27.62
270.332	28.62
271.128	31.62
271.924	30.62
272.719	33.62
273.515	30.62
274.311	32.62
275.106	35.62
275.901	32.62
276.697	35.62
277.492	33.62
278.287	35.62
279.082	33.62
279.877	34.62
280.672	35.62
281.467	32.62
282.262	34.62
283.056	31.62
283.851	35.62
284.646	33.62
285.44	31.62
286.234	32.62
287.029	33.62
287.823	35.62
288.617	33.62
289.411	30.62
290.205	37.62
290.999	32.62
291.793	28.62
292.587	34.62
293.381	28.62
294.174	29.62
294.968	30.62
295.761	29.62
296.555	26.62
297.348	27.62
298.141	26.62
298.935	26.62
299.728	26.62
300.521	25.62
301.314	27.62
302.107	23.62
302.899	24.62
303.692	21.62
304.485	20.62
305.277	21.62
306.07	23.62
306.862	21.62
307.655	20.62
308.447	23.62
309.239	23.62
310.031	21.62
310.823	19.62
311.615	17.62
312.407	19.62
313.199	18.62
313.991	18.62
314.783	17.62
315.574	17.62
316.366	17.62
317.157	14.62
317.949	14.62
318.74	16.62
319.531	12.62
320.322	10.62
321.113	14.62
321.904	14.62
322.695	10.62
323.486	12.62
324.277	12.62
325.068	10.62
325.858	13.62
326.649	12.62
327.439	12.62
328.23	13.62
329.02	9.62
329.81	11.62
330.6	12.62
331.391	10.62
332.181	12.62
332.971	12.62
333.76	12.62
334.55	9.62
335.34	12.62
336.13	10.62
336.919	11.62
337.709	14.62
338.498	12.62
339.287	10.62
340.077	10.62
340.866	10.62
341.655	14.62
342.444	12.62
343.233	9.62
344.022	9.62
344.811	11.62
345.6	10.62
346.388	9.62
347.177	11.62
347.965	9.62
348.754	10.62
349.542	10.62
350.33	12.62
351.119	11.62
351.907	11.62
352.695	9.62
353.483	9.62
354.271	10.62
355.059	6.62
355.846	9.62
356.634	8.62
357.422	9.62
358.209	10.62
358.997	12.62
359.784	11.62
360.571	8.62
361.359	10.62
362.146	9.62
362.933	7.62
363.72	10.62
364.507	11.62
365.294	11.62
366.081	9.62
366.867	8.62
367.654	10.62
368.44	10.62
369.227	9.62
370.013	9.62
370.8	9.62
371.586	9.62
372.372	7.62
373.158	7.62
373.944	9.62
374.73	8.62
375.516	7.62
376.302	8.62
377.088	12.62
377.873	10.62
378.659	9.62
379.445	9.62
380.23	7.62
381.015	10.62
381.801	11.62
382.586	9.62
383.371	8.62
384.156	9.62
384.941	12.62
385.726	10.62
386.511	12.62
387.296	10.62
388.08	9.62
388.865	10.62
389.649	10.62
390.434	10.62
391.218	10.62
392.003	11.62
392.787	10.62
393.571	10.62
394.355	10.62
395.139	11.62
395.923	11.62
396.707	12.62
397.491	11.62
398.274	9.62
399.058	12.62
399.842	13.62
400.625	13.62
401.408	12.62
402.192	15.62
402.975	13.62
403.758	14.62
404.541	14.62
405.324	14.62
406.107	14.62
406.89	15.62
407.673	17.62
408.456	14.62
409.238	14.62
410.021	16.62
410.803	14.62
411.586	17.62
412.368	19.62
413.151	16.62
413.933	17.62
414.715	18.62
415.497	17.62
416.279	17.62
417.061	18.62
417.843	18.62
418.624	18.62
419.406	21.62
420.188	21.62
420.969	19.62
421.751	20.62
422.532	20.62
423.313	20.62
424.095	23.62
424.876	21.62
425.657	24.62
426.438	24.62
427.219	25.62
428	27.62
428.78	26.62
429.561	26.62
430.342	29.62
431.122	32.62
431.903	33.62
432.683	29.62
433.464	34.62
434.244	35.62
435.024	37.62
435.804	40.62
436.584	39.62
437.364	43.62
438.144	48.62
438.924	52.62
439.704	50.62
440.483	58.62
441.263	61.62
442.042	64.62
442.822	70.62
443.601	74.62
444.38	84.62
445.16	85.62
445.939	92.62
446.718	99.62
447.497	111.62
448.276	123.62
449.054	127.62
449.833	144.62
450.612	158.62
451.391	172.62
452.169	191.62
452.948	218.62
453.726	238.62
454.504	262.62
455.282	297.62
456.061	326.62
456.839	365.62
457.617	407.62
458.395	461.62
459.172	513.62
459.95	568.62
460.728	630.62
461.506	718.62
462.283	788.62
463.061	877.62
463.838	963.62
464.615	1089.62
465.393	1224.62
466.17	1355.62
466.947	1510.62
467.724	1672.62
468.501	1843.62
469.278	2037.62
470.055	2255.62
470.831	2508.62
471.608	2769.62
472.385	3048.62
473.161	3348.62
473.938	3687.62
474.714	4057.62
475.49	4448.62
476.266	4872.62
477.043	5335.62
477.819	5833.62
478.595	6428.62
479.371	6986.62
480.146	7617.62
480.922	8331.62
481.698	9065.62
482.473	9874.62
483.249	10756.62
484.024	11656.62
484.8	12691.62
485.575	13721.62
486.35	14932.62
487.126	16145.62
487.901	17416.62
488.676	18821.62
489.451	20328.62
490.225	21854.62
491	23395.62
491.775	25043.62
492.55	26830.62
493.324	28594.62
494.099	30362.62
494.873	32137.62
495.647	33972.62
496.422	35691.62
497.196	37541.62
497.97	39244.62
498.744	40717.62
499.518	42276.62
500.292	43663.62
501.066	44694.62
501.839	45604.62
502.613	46316.62
503.387	46949.62
504.16	47285.62
504.934	47531.62
505.707	47402.62
506.48	47075.62
507.253	46566.62
508.027	45734.62
508.8	44789.62
509.573	43658.62
510.346	42687.62
511.118	41644.62
511.891	40311.62
512.664	38727.62
513.437	37342.62
514.209	35913.62
514.982	34565.62
515.754	33173.62
516.526	31740.62
517.298	30504.62
518.071	29203.62
518.843	28135.62
519.615	26999.62
520.387	25955.62
521.159	24910.62
521.93	23834.62
522.702	22880.62
523.474	21911.62
524.245	20942.62
525.017	20060.62
525.788	19166.62
526.56	18389.62
527.331	17493.62
528.102	16639.62
528.873	15797.62
529.644	15083.62
530.415	14350.62
531.186	13668.62
531.957	12975.62
532.728	12265.62
533.498	11651.62
534.269	11031.62
535.039	10443.62
535.81	9890.62
536.58	9314.62
537.351	8834.62
538.121	8398.62
538.891	7914.62
539.661	7473.62
540.431	7093.62
541.201	6709.62
541.971	6393.62
542.741	6038.62
543.51	5733.62
544.28	5471.62
545.05	5186.62
545.819	4941.62
546.588	4734.62
547.358	4477.62
548.127	4260.62
548.896	4046.62
549.665	3834.62
550.434	3655.62
551.203	3448.62
551.972	3274.62
552.741	3096.62
553.51	2928.62
554.278	2753.62
555.047	2594.62
555.815	2478.62
556.584	2344.62
557.352	2199.62
558.121	2074.62
558.889	1955.62
559.657	1857.62
560.425	1740.62
561.193	1660.62
561.961	1566.62
562.729	1491.62
563.496	1402.62
564.264	1321.62
565.032	1250.62
565.799	1174.62
566.567	1127.62
567.334	1073.62
568.101	1006.62
568.869	963.62
569.636	897.62
570.403	845.62
571.17	802.62
571.937	750.62
572.704	715.62
573.471	677.62
574.237	641.62
575.004	602.62
575.771	563.62
576.537	530.62
577.303	497.62
578.07	478.62
578.836	452.62
579.602	423.62
580.368	400.62
581.134	380.62
581.9	371.62
582.666	344.62
583.432	330.62
584.198	314.62
584.964	295.62
585.729	282.62
586.495	269.62
587.26	249.62
588.025	237.62
588.791	222.62
589.556	215.62
590.321	197.62
591.086	189.62
591.851	184.62
592.616	179.62
593.381	169.62
594.146	156.62
594.911	150.62
595.675	149.62
596.44	139.62
597.204	131.62
597.969	127.62
598.733	124.62
599.497	118.62
600.261	108.62
601.025	105.62
601.79	105.62
602.553	100.62
603.317	92.62
604.081	89.62
604.845	88.62
605.609	84.62
606.372	82.62
607.136	77.62
607.899	72.62
608.662	69.62
609.426	70.62
610.189	64.62
610.952	62.62
611.715	62.62
612.478	63.62
613.241	57.62
614.004	52.62
614.767	53.62
615.529	52.62
616.292	48.62
617.055	44.62
617.817	47.62
618.579	43.62
619.342	38.62
620.104	42.62
620.866	40.62
621.628	38.62
622.39	40.62
623.152	32.62
623.914	38.62
624.676	36.62
625.438	33.62
626.199	28.62
626.961	32.62
627.722	29.62
628.484	29.62
629.245	30.62
630.006	27.62
630.768	29.62
631.529	23.62
632.29	26.62
633.051	24.62
633.812	24.62
634.573	23.62
635.333	22.62
636.094	20.62
636.855	22.62
637.615	19.62
638.376	23.62
639.136	21.62
639.896	19.62
640.657	19.62
641.417	17.62
642.177	18.62
642.937	18.62
643.697	16.62
644.457	18.62
645.216	16.62
645.976	18.62
646.736	17.62
647.495	16.62
648.255	13.62
649.014	14.62
649.774	15.62
650.533	15.62
651.292	15.62
652.051	13.62
652.81	12.62
653.569	14.62
654.328	13.62
655.087	11.62
655.846	11.62
656.604	10.62
657.363	11.62
658.121	10.62
658.88	11.62
659.638	11.62
660.397	11.62
661.155	12.62
661.913	12.62
662.671	10.62
663.429	9.62
664.187	11.62
664.945	9.62
665.703	9.62
666.46	5.62
667.218	11.62
667.976	10.62
668.733	10.62
669.49	10.62
670.248	9.62
671.005	7.62
671.762	8.62
672.519	8.62
673.276	9.62
674.033	9.62
674.79	7.62
675.547	10.62
676.304	6.62
677.06	7.62
677.817	7.62
678.574	7.62
679.33	8.62
680.086	8.62
680.843	8.62
681.599	7.62
682.355	9.62
683.111	6.62
683.867	6.62
684.623	7.62
685.379	6.62
686.135	6.62
686.89	9.62
687.646	10.62
688.402	9.62
689.157	7.62
689.912	4.62
690.668	7.62
691.423	6.62
692.178	9.62
692.933	6.62
693.688	8.62
694.443	8.62
695.198	7.62
695.953	6.62
696.708	7.62
697.462	7.62
698.217	6.62
698.972	8.62
699.726	4.62
700.48	5.62
701.235	6.62
701.989	8.62
702.743	9.62
703.497	6.62
704.251	8.62
705.005	7.62
705.759	7.62
706.513	8.62
707.266	9.62
708.02	8.62
708.774	8.62
709.527	6.62
710.28	4.62
711.034	7.62
711.787	7.62
712.54	4.62
713.293	6.62
714.046	6.62
714.799	5.62
715.552	8.62
716.305	8.62
717.058	6.62
717.81	9.62
718.563	8.62
719.315	7.62
720.068	8.62
720.82	8.62
721.573	4.62
722.325	8.62
723.077	5.62
723.829	7.62
724.581	10.62
725.333	9.62
726.085	5.62
726.836	3.62
727.588	8.62
728.34	6.62
729.091	9.62
729.843	9.62
730.594	9.62
731.346	9.62
732.097	4.62
732.848	12.62
733.599	10.62
734.35	8.62
735.101	10.62
735.852	8.62
736.603	10.62
737.354	9.62
738.104	9.62
738.855	9.62
739.605	8.62
740.356	9.62
741.106	10.62
741.856	11.62
742.607	10.62
743.357	7.62
744.107	8.62
744.857	11.62
745.607	12.62
746.357	8.62
747.106	9.62
747.856	8.62
748.606	8.62
749.355	10.62
750.105	10.62
750.854	10.62
751.603	10.62
752.353	10.62
753.102	10.62
753.851	14.62
754.6	11.62
755.349	10.62
756.098	13.62
756.847	12.62
757.595	13.62
758.344	12.62
759.093	12.62
759.841	10.62
760.589	10.62
761.338	10.62
762.086	12.62
762.834	13.62
763.582	12.62
764.331	12.62
765.079	14.62
765.826	12.62
766.574	13.62
767.322	12.62
768.07	14.62
768.817	12.62
769.565	12.62
770.312	14.62
771.06	14.62
771.807	15.62
772.554	14.62
773.302	14.62
774.049	14.62
774.796	15.62
775.543	16.62
776.29	14.62
777.036	15.62
777.783	17.62
778.53	13.62
779.276	14.62
780.023	11.62
780.769	15.62
781.516	16.62
782.262	15.62
783.008	16.62
783.754	14.62
784.5	13.62
785.246	16.62
785.992	14.62
786.738	15.62
787.484	14.62
788.23	15.62
788.975	14.62
789.721	13.62
790.466	14.62
791.212	13.62
791.957	14.62
792.702	14.62
793.447	12.62
794.193	13.62
794.938	11.62
795.683	12.62
796.427	10.62
797.172	14.62
797.917	12.62
798.662	13.62
799.406	12.62
800.151	12.62
800.895	14.62
801.64	13.62
802.384	11.62
803.128	12.62
803.872	12.62
804.616	9.62
805.36	10.62
806.104	9.62
806.848	9.62
807.592	11.62
808.336	8.62
809.079	11.62
809.823	8.62
810.566	9.62
811.31	8.62
812.053	8.62
812.796	7.62
813.539	10.62
814.283	8.62
815.026	8.62
815.769	9.62
816.511	8.62
817.254	7.62
817.997	6.62
818.74	6.62
819.482	8.62
820.225	8.62
820.967	5.62
821.71	6.62
822.452	6.62
823.194	6.62
823.936	7.62
824.678	6.62
825.42	8.62
826.162	4.62
826.904	4.62
827.646	5.62
828.388	7.62
829.129	6.62
829.871	6.62
830.612	6.62
831.354	8.62
832.095	1.62
832.836	4.62
833.577	5.62
834.319	4.62
835.06	6.62
835.801	3.62
836.542	5.62
837.282	4.62
838.023	5.62
838.764	3.62
839.504	4.62
840.245	4.62
840.985	5.62
841.726	4.62
842.466	4.62
843.206	5.62
843.946	3.62
844.687	4.62
845.427	4.62
846.166	4.62
846.906	5.62
847.646	7.62
848.386	4.62
849.125	4.62
849.865	2.62
850.605	6.62
851.344	3.62
852.083	5.62
852.823	3.62
853.562	3.62
854.301	2.62
855.04	3.62
855.779	3.62
856.518	3.62
857.257	3.62
857.995	3.62
858.734	3.62
859.473	3.62
860.211	2.62
860.95	4.62
861.688	4.62
862.426	2.62
863.165	2.62
863.903	1.62
864.641	4.62
865.379	0.62
866.117	1.62
866.855	3.62
867.593	0.62
868.33	1.62
869.068	0.62
869.806	2.62
870.543	0.62
871.28	3.62
872.018	0.62
872.755	2.62
873.492	1.62
874.229	0.62
874.967	1.62
875.703	2.62
876.44	1.62
877.177	4.62
877.914	1.62
878.651	3.62
879.387	1.62
880.124	1.62
880.86	2.62
881.597	1.62
882.333	2.62
883.069	-0.38
883.806	2.62
884.542	-0.38
885.278	0.62
886.014	-1.38
886.749	2.62
887.485	1.62
888.221	2.62
888.957	0.62
889.692	2.62
890.428	0.62
891.163	-0.38
891.899	-0.38
892.634	1.62
893.369	1.62
894.104	0.62
894.839	-0.38
895.574	1.62
896.309	2.62
897.044	-0.38
897.779	-1.38
898.514	0.62
899.248	0.62
899.983	1.62
900.717	-1.38
901.452	1.62
902.186	0.62
902.92	1.62
903.654	0.62
904.389	1.62
905.123	1.62
905.857	0.62
906.59	0.62
907.324	1.62
908.058	-1.38
908.792	0.62
909.525	-0.38
910.259	-0.38
910.992	0.62
911.726	2.62
912.459	0.62
913.192	0.62
913.925	0.62
914.658	-1.38
915.391	-1.38
916.124	0.62
916.857	-0.38
917.59	0.62
918.323	1.62
919.055	1.62
919.788	0.62
920.521	-0.38
921.253	0.62
921.985	-1.38
922.718	-0.38
923.45	-2.38
924.182	-0.38
924.914	0.62
925.646	1.62
926.378	0.62
927.11	-1.38
927.841	0.62
928.573	1.62
929.305	0.62
930.036	-2.38
930.768	0.62
931.499	-0.38
932.23	-0.38
932.962	0.62
933.693	0.62
934.424	-1.38
935.155	-0.38
935.886	-1.38
936.617	-1.38
937.348	0.62
938.078	1.62
938.809	0.62
939.54	0.62
940.27	1.62
941.001	-1.38
941.731	0.62
942.461	0.62
943.191	0.62
943.922	2.62
944.652	-1.38
945.382	0.62
946.112	-1.38
946.841	-1.38
947.571	0.62
948.301	0.62
949.031	-2.38
949.76	1.62
950.49	1.62
951.219	0.62
951.948	0.62
952.678	-0.38
953.407	-1.38
954.136	-0.38
954.865	-1.38
955.594	-0.38
956.323	-0.38
957.052	1.62
957.78	-1.38
958.509	0.62
959.238	-0.38
959.966	-2.38
960.695	3.62
961.423	0.62
962.151	0.62
962.88	1.62
963.608	-0.38
964.336	0.62
965.064	-0.38
965.792	-0.38
966.52	-0.38
967.247	1.62
967.975	1.62
968.703	0.62
969.43	-0.38
970.158	1.62
970.885	-2.38
971.613	-0.38
972.34	-1.38
973.067	0.62
973.794	1.62
974.521	0.62
975.248	2.62
975.975	-2.38
976.702	-0.38
977.429	-1.38
978.156	1.62
978.882	1.62
979.609	-0.38
980.335	-0.38
981.062	-0.38
981.788	0.62
982.514	0.62
983.24	2.62
983.967	-1.38
984.693	0.62
985.419	-0.38
986.144	-2.38
986.87	0.62
987.596	-0.38
988.322	0.62
989.047	0.62
989.773	-0.38
990.498	-1.38
991.224	-0.38
991.949	-1.38
992.674	-0.38
993.399	0.62
994.124	0.62
994.849	0.62
995.574	0.62
996.299	0.62
997.024	1.62
997.749	-1.38
998.473	0.62
999.198	0.62
999.922	1.62
1000.647	1.62
1001.371	3.62
1002.095	-1.38
1002.82	-0.38
1003.544	-1.38
1004.268	3.62
1004.992	4.62
1005.716	1.62
1006.439	4.62
1007.163	7.62
1007.887	4.62
1008.611	-1.38
1009.334	1.62
1010.058	-1.38
1010.781	-1.38
1011.504	-0.38
1012.228	-0.38
1012.951	-1.38
1013.674	1.62
1014.397	0.62
1015.12	-1.38
