节点500_705_QEPB04081__631__20-54-54-800.txt的数据

Date: Wed Nov 12 20:54:54 CST 2025
User: PC
Spectrometer: QEPB0408
触发模式: 0
积分时间 (秒): 1.000000E-2
Scans to average: 1
启用暗噪声校正: true
启用非线性校正: false
滑动平均宽度: 0
X轴模式: Wavelengths
Number of Pixels in Spectrum: 1044
>>>>>Begin Spectral Data<<<<<
220.843	5.62
221.644	4.62
222.444	5.62
223.244	6.62
224.045	7.62
224.845	7.62
225.645	7.62
226.445	5.62
227.245	6.62
228.045	6.62
228.845	10.62
229.645	7.62
230.444	7.62
231.244	7.62
232.043	7.62
232.843	9.62
233.642	10.62
234.442	9.62
235.241	10.62
236.04	8.62
236.839	11.62
237.638	9.62
238.437	9.62
239.236	10.62
240.035	11.62
240.833	12.62
241.632	11.62
242.43	12.62
243.229	12.62
244.027	14.62
244.826	12.62
245.624	10.62
246.422	13.62
247.22	15.62
248.018	13.62
248.816	15.62
249.614	14.62
250.412	12.62
251.21	16.62
252.007	14.62
252.805	15.62
253.602	14.62
254.4	19.62
255.197	18.62
255.994	18.62
256.791	17.62
257.589	15.62
258.386	19.62
259.183	18.62
259.979	19.62
260.776	20.62
261.573	23.62
262.37	22.62
263.166	22.62
263.963	22.62
264.759	25.62
265.556	24.62
266.352	22.62
267.148	25.62
267.944	27.62
268.74	26.62
269.536	28.62
270.332	30.62
271.128	28.62
271.924	29.62
272.719	29.62
273.515	29.62
274.311	30.62
275.106	30.62
275.901	30.62
276.697	30.62
277.492	33.62
278.287	31.62
279.082	32.62
279.877	33.62
280.672	33.62
281.467	32.62
282.262	34.62
283.056	32.62
283.851	30.62
284.646	34.62
285.44	30.62
286.234	34.62
287.029	31.62
287.823	30.62
288.617	32.62
289.411	32.62
290.205	28.62
290.999	30.62
291.793	33.62
292.587	27.62
293.381	30.62
294.174	29.62
294.968	28.62
295.761	28.62
296.555	26.62
297.348	26.62
298.141	25.62
298.935	27.62
299.728	25.62
300.521	24.62
301.314	25.62
302.107	24.62
302.899	23.62
303.692	25.62
304.485	20.62
305.277	25.62
306.07	21.62
306.862	22.62
307.655	19.62
308.447	21.62
309.239	20.62
310.031	19.62
310.823	18.62
311.615	19.62
312.407	15.62
313.199	19.62
313.991	18.62
314.783	17.62
315.574	16.62
316.366	18.62
317.157	15.62
317.949	14.62
318.74	14.62
319.531	14.62
320.322	13.62
321.113	14.62
321.904	13.62
322.695	14.62
323.486	14.62
324.277	15.62
325.068	15.62
325.858	11.62
326.649	12.62
327.439	13.62
328.23	14.62
329.02	12.62
329.81	13.62
330.6	11.62
331.391	12.62
332.181	11.62
332.971	11.62
333.76	14.62
334.55	13.62
335.34	11.62
336.13	11.62
336.919	13.62
337.709	13.62
338.498	9.62
339.287	13.62
340.077	13.62
340.866	13.62
341.655	13.62
342.444	11.62
343.233	9.62
344.022	10.62
344.811	11.62
345.6	13.62
346.388	10.62
347.177	10.62
347.965	10.62
348.754	11.62
349.542	10.62
350.33	11.62
351.119	11.62
351.907	10.62
352.695	10.62
353.483	11.62
354.271	13.62
355.059	11.62
355.846	11.62
356.634	13.62
357.422	9.62
358.209	9.62
358.997	10.62
359.784	11.62
360.571	10.62
361.359	11.62
362.146	12.62
362.933	9.62
363.72	10.62
364.507	10.62
365.294	9.62
366.081	10.62
366.867	10.62
367.654	10.62
368.44	7.62
369.227	11.62
370.013	12.62
370.8	11.62
371.586	9.62
372.372	9.62
373.158	10.62
373.944	9.62
374.73	11.62
375.516	9.62
376.302	11.62
377.088	11.62
377.873	10.62
378.659	12.62
379.445	10.62
380.23	11.62
381.015	10.62
381.801	10.62
382.586	9.62
383.371	8.62
384.156	9.62
384.941	10.62
385.726	11.62
386.511	11.62
387.296	13.62
388.08	10.62
388.865	10.62
389.649	13.62
390.434	11.62
391.218	9.62
392.003	13.62
392.787	12.62
393.571	15.62
394.355	10.62
395.139	12.62
395.923	11.62
396.707	12.62
397.491	10.62
398.274	12.62
399.058	13.62
399.842	13.62
400.625	13.62
401.408	15.62
402.192	10.62
402.975	14.62
403.758	12.62
404.541	13.62
405.324	12.62
406.107	13.62
406.89	13.62
407.673	12.62
408.456	16.62
409.238	15.62
410.021	15.62
410.803	16.62
411.586	16.62
412.368	18.62
413.151	16.62
413.933	15.62
414.715	17.62
415.497	20.62
416.279	16.62
417.061	16.62
417.843	19.62
418.624	18.62
419.406	20.62
420.188	22.62
420.969	19.62
421.751	20.62
422.532	22.62
423.313	21.62
424.095	23.62
424.876	24.62
425.657	25.62
426.438	24.62
427.219	26.62
428	26.62
428.78	26.62
429.561	29.62
430.342	31.62
431.122	33.62
431.903	30.62
432.683	36.62
433.464	35.62
434.244	37.62
435.024	41.62
435.804	43.62
436.584	43.62
437.364	47.62
438.144	50.62
438.924	52.62
439.704	57.62
440.483	61.62
441.263	62.62
442.042	67.62
442.822	71.62
443.601	80.62
444.38	86.62
445.16	95.62
445.939	102.62
446.718	111.62
447.497	121.62
448.276	128.62
449.054	145.62
449.833	159.62
450.612	170.62
451.391	195.62
452.169	207.62
452.948	234.62
453.726	260.62
454.504	290.62
455.282	321.62
456.061	362.62
456.839	396.62
457.617	438.62
458.395	495.62
459.172	546.62
459.95	599.62
460.728	669.62
461.506	747.62
462.283	827.62
463.061	908.62
463.838	1036.62
464.615	1132.62
465.393	1243.62
466.17	1387.62
466.947	1512.62
467.724	1709.62
468.501	1874.62
469.278	2069.62
470.055	2265.62
470.831	2491.62
471.608	2753.62
472.385	3021.62
473.161	3286.62
473.938	3608.62
474.714	3956.62
475.49	4324.62
476.266	4698.62
477.043	5131.62
477.819	5573.62
478.595	6060.62
479.371	6569.62
480.146	7115.62
480.922	7743.62
481.698	8427.62
482.473	9067.62
483.249	9827.62
484.024	10638.62
484.8	11430.62
485.575	12336.62
486.35	13301.62
487.126	14387.62
487.901	15459.62
488.676	16599.62
489.451	17825.62
490.225	19190.62
491	20454.62
491.775	21827.62
492.55	23268.62
493.324	24772.62
494.099	26361.62
494.873	27939.62
495.647	29452.62
496.422	31061.62
497.196	32685.62
497.97	34155.62
498.744	35666.62
499.518	37128.62
500.292	38551.62
501.066	39509.62
501.839	40635.62
502.613	41526.62
503.387	42347.62
504.16	42998.62
504.934	43410.62
505.707	43631.62
506.48	43539.62
507.253	43298.62
508.027	43104.62
508.8	42520.62
509.573	41828.62
510.346	41106.62
511.118	40383.62
511.891	39435.62
512.664	38107.62
513.437	36914.62
514.209	35691.62
514.982	34477.62
515.754	33257.62
516.526	31943.62
517.298	30773.62
518.071	29596.62
518.843	28493.62
519.615	27309.62
520.387	26250.62
521.159	25225.62
521.93	24228.62
522.702	23206.62
523.474	22204.62
524.245	21395.62
525.017	20531.62
525.788	19677.62
526.56	18826.62
527.331	18092.62
528.102	17196.62
528.873	16314.62
529.644	15594.62
530.415	14943.62
531.186	14196.62
531.957	13510.62
532.728	12885.62
533.498	12236.62
534.269	11573.62
535.039	10979.62
535.81	10420.62
536.58	9881.62
537.351	9340.62
538.121	8852.62
538.891	8403.62
539.661	7954.62
540.431	7504.62
541.201	7154.62
541.971	6759.62
542.741	6401.62
543.51	6086.62
544.28	5812.62
545.05	5511.62
545.819	5263.62
546.588	5001.62
547.358	4763.62
548.127	4550.62
548.896	4285.62
549.665	4100.62
550.434	3896.62
551.203	3685.62
551.972	3505.62
552.741	3329.62
553.51	3110.62
554.278	2954.62
555.047	2799.62
555.815	2647.62
556.584	2514.62
557.352	2375.62
558.121	2262.62
558.889	2142.62
559.657	2007.62
560.425	1909.62
561.193	1792.62
561.961	1731.62
562.729	1617.62
563.496	1505.62
564.264	1441.62
565.032	1356.62
565.799	1283.62
566.567	1224.62
567.334	1145.62
568.101	1101.62
568.869	1026.62
569.636	976.62
570.403	915.62
571.17	863.62
571.937	824.62
572.704	777.62
573.471	733.62
574.237	689.62
575.004	650.62
575.771	608.62
576.537	581.62
577.303	541.62
578.07	515.62
578.836	484.62
579.602	454.62
580.368	435.62
581.134	414.62
581.9	394.62
582.666	376.62
583.432	368.62
584.198	344.62
584.964	323.62
585.729	306.62
586.495	292.62
587.26	280.62
588.025	258.62
588.791	249.62
589.556	232.62
590.321	218.62
591.086	211.62
591.851	200.62
592.616	193.62
593.381	177.62
594.146	172.62
594.911	169.62
595.675	159.62
596.44	157.62
597.204	144.62
597.969	133.62
598.733	131.62
599.497	121.62
600.261	123.62
601.025	115.62
601.79	112.62
602.553	107.62
603.317	98.62
604.081	97.62
604.845	93.62
605.609	91.62
606.372	84.62
607.136	84.62
607.899	73.62
608.662	77.62
609.426	74.62
610.189	71.62
610.952	68.62
611.715	65.62
612.478	63.62
613.241	61.62
614.004	58.62
614.767	55.62
615.529	54.62
616.292	51.62
617.055	53.62
617.817	50.62
618.579	47.62
619.342	46.62
620.104	44.62
620.866	41.62
621.628	42.62
622.39	43.62
623.152	38.62
623.914	38.62
624.676	39.62
625.438	35.62
626.199	35.62
626.961	32.62
627.722	32.62
628.484	33.62
629.245	28.62
630.006	29.62
630.768	27.62
631.529	27.62
632.29	27.62
633.051	26.62
633.812	25.62
634.573	23.62
635.333	25.62
636.094	24.62
636.855	20.62
637.615	22.62
638.376	22.62
639.136	20.62
639.896	20.62
640.657	21.62
641.417	20.62
642.177	19.62
642.937	19.62
643.697	19.62
644.457	18.62
645.216	18.62
645.976	16.62
646.736	16.62
647.495	16.62
648.255	13.62
649.014	13.62
649.774	15.62
650.533	16.62
651.292	12.62
652.051	14.62
652.81	15.62
653.569	13.62
654.328	14.62
655.087	12.62
655.846	14.62
656.604	11.62
657.363	12.62
658.121	11.62
658.88	13.62
659.638	13.62
660.397	11.62
661.155	10.62
661.913	9.62
662.671	11.62
663.429	11.62
664.187	11.62
664.945	8.62
665.703	12.62
666.46	10.62
667.218	9.62
667.976	12.62
668.733	9.62
669.49	10.62
670.248	9.62
671.005	10.62
671.762	9.62
672.519	11.62
673.276	8.62
674.033	10.62
674.79	11.62
675.547	10.62
676.304	10.62
677.06	9.62
677.817	8.62
678.574	9.62
679.33	10.62
680.086	10.62
680.843	9.62
681.599	10.62
682.355	8.62
683.111	9.62
683.867	10.62
684.623	9.62
685.379	9.62
686.135	7.62
686.89	8.62
687.646	7.62
688.402	10.62
689.157	8.62
689.912	7.62
690.668	7.62
691.423	8.62
692.178	10.62
692.933	8.62
693.688	8.62
694.443	10.62
695.198	7.62
695.953	7.62
696.708	10.62
697.462	8.62
698.217	7.62
698.972	10.62
699.726	7.62
700.48	9.62
701.235	9.62
701.989	5.62
702.743	8.62
703.497	6.62
704.251	9.62
705.005	7.62
705.759	7.62
706.513	5.62
707.266	8.62
708.02	7.62
708.774	8.62
709.527	9.62
710.28	8.62
711.034	4.62
711.787	9.62
712.54	9.62
713.293	10.62
714.046	9.62
714.799	6.62
715.552	7.62
716.305	7.62
717.058	9.62
717.81	8.62
718.563	8.62
719.315	9.62
720.068	6.62
720.82	10.62
721.573	9.62
722.325	6.62
723.077	9.62
723.829	9.62
724.581	7.62
725.333	9.62
726.085	9.62
726.836	9.62
727.588	9.62
728.34	8.62
729.091	8.62
729.843	9.62
730.594	6.62
731.346	9.62
732.097	9.62
732.848	10.62
733.599	10.62
734.35	9.62
735.101	10.62
735.852	11.62
736.603	9.62
737.354	8.62
738.104	9.62
738.855	8.62
739.605	9.62
740.356	10.62
741.106	8.62
741.856	11.62
742.607	8.62
743.357	10.62
744.107	10.62
744.857	8.62
745.607	12.62
746.357	8.62
747.106	10.62
747.856	13.62
748.606	10.62
749.355	13.62
750.105	10.62
750.854	10.62
751.603	11.62
752.353	12.62
753.102	9.62
753.851	8.62
754.6	11.62
755.349	12.62
756.098	11.62
756.847	11.62
757.595	9.62
758.344	13.62
759.093	11.62
759.841	13.62
760.589	11.62
761.338	13.62
762.086	11.62
762.834	9.62
763.582	11.62
764.331	11.62
765.079	11.62
765.826	13.62
766.574	14.62
767.322	13.62
768.07	15.62
768.817	14.62
769.565	11.62
770.312	13.62
771.06	15.62
771.807	15.62
772.554	15.62
773.302	14.62
774.049	13.62
774.796	13.62
775.543	14.62
776.29	15.62
777.036	14.62
777.783	14.62
778.53	16.62
779.276	13.62
780.023	15.62
780.769	15.62
781.516	13.62
782.262	14.62
783.008	15.62
783.754	15.62
784.5	14.62
785.246	11.62
785.992	15.62
786.738	15.62
787.484	15.62
788.23	12.62
788.975	14.62
789.721	14.62
790.466	13.62
791.212	13.62
791.957	14.62
792.702	13.62
793.447	13.62
794.193	13.62
794.938	15.62
795.683	13.62
796.427	13.62
797.172	15.62
797.917	11.62
798.662	14.62
799.406	15.62
800.151	11.62
800.895	10.62
801.64	11.62
802.384	12.62
803.128	10.62
803.872	11.62
804.616	11.62
805.36	10.62
806.104	12.62
806.848	10.62
807.592	11.62
808.336	10.62
809.079	10.62
809.823	13.62
810.566	9.62
811.31	9.62
812.053	11.62
812.796	6.62
813.539	10.62
814.283	8.62
815.026	8.62
815.769	9.62
816.511	8.62
817.254	8.62
817.997	8.62
818.74	9.62
819.482	8.62
820.225	8.62
820.967	8.62
821.71	6.62
822.452	7.62
823.194	6.62
823.936	11.62
824.678	7.62
825.42	9.62
826.162	8.62
826.904	5.62
827.646	7.62
828.388	7.62
829.129	6.62
829.871	7.62
830.612	8.62
831.354	7.62
832.095	7.62
832.836	7.62
833.577	5.62
834.319	5.62
835.06	7.62
835.801	4.62
836.542	6.62
837.282	5.62
838.023	7.62
838.764	7.62
839.504	7.62
840.245	5.62
840.985	8.62
841.726	5.62
842.466	6.62
843.206	5.62
843.946	7.62
844.687	7.62
845.427	7.62
846.166	7.62
846.906	4.62
847.646	5.62
848.386	4.62
849.125	5.62
849.865	4.62
850.605	3.62
851.344	5.62
852.083	3.62
852.823	3.62
853.562	4.62
854.301	4.62
855.04	4.62
855.779	5.62
856.518	4.62
857.257	6.62
857.995	3.62
858.734	4.62
859.473	3.62
860.211	4.62
860.95	6.62
861.688	2.62
862.426	6.62
863.165	3.62
863.903	4.62
864.641	5.62
865.379	2.62
866.117	4.62
866.855	2.62
867.593	3.62
868.33	3.62
869.068	3.62
869.806	1.62
870.543	3.62
871.28	3.62
872.018	3.62
872.755	3.62
873.492	2.62
874.229	2.62
874.967	3.62
875.703	3.62
876.44	4.62
877.177	1.62
877.914	1.62
878.651	3.62
879.387	2.62
880.124	4.62
880.86	2.62
881.597	2.62
882.333	2.62
883.069	2.62
883.806	1.62
884.542	1.62
885.278	3.62
886.014	4.62
886.749	1.62
887.485	1.62
888.221	-0.38
888.957	3.62
889.692	1.62
890.428	3.62
891.163	2.62
891.899	3.62
892.634	-1.38
893.369	-0.38
894.104	3.62
894.839	3.62
895.574	1.62
896.309	2.62
897.044	2.62
897.779	3.62
898.514	2.62
899.248	0.62
899.983	1.62
900.717	0.62
901.452	1.62
902.186	2.62
902.92	2.62
903.654	2.62
904.389	1.62
905.123	1.62
905.857	1.62
906.59	0.62
907.324	2.62
908.058	1.62
908.792	3.62
909.525	0.62
910.259	2.62
910.992	-0.38
911.726	1.62
912.459	2.62
913.192	0.62
913.925	1.62
914.658	1.62
915.391	0.62
916.124	-0.38
916.857	2.62
917.59	2.62
918.323	2.62
919.055	2.62
919.788	0.62
920.521	2.62
921.253	0.62
921.985	1.62
922.718	1.62
923.45	-0.38
924.182	-0.38
924.914	1.62
925.646	3.62
926.378	0.62
927.11	1.62
927.841	3.62
928.573	1.62
929.305	2.62
930.036	0.62
930.768	3.62
931.499	2.62
932.23	-0.38
932.962	0.62
933.693	-0.38
934.424	2.62
935.155	-1.38
935.886	1.62
936.617	0.62
937.348	-0.38
938.078	1.62
938.809	-1.38
939.54	4.62
940.27	1.62
941.001	3.62
941.731	1.62
942.461	1.62
943.191	1.62
943.922	1.62
944.652	1.62
945.382	1.62
946.112	-0.38
946.841	1.62
947.571	-0.38
948.301	1.62
949.031	2.62
949.76	1.62
950.49	1.62
951.219	2.62
951.948	2.62
952.678	-0.38
953.407	1.62
954.136	1.62
954.865	0.62
955.594	1.62
956.323	0.62
957.052	2.62
957.78	0.62
958.509	0.62
959.238	3.62
959.966	2.62
960.695	1.62
961.423	-0.38
962.151	-0.38
962.88	2.62
963.608	1.62
964.336	-0.38
965.064	0.62
965.792	1.62
966.52	0.62
967.247	2.62
967.975	2.62
968.703	0.62
969.43	1.62
970.158	0.62
970.885	1.62
971.613	-0.38
972.34	0.62
973.067	1.62
973.794	0.62
974.521	1.62
975.248	0.62
975.975	-1.38
976.702	2.62
977.429	3.62
978.156	0.62
978.882	1.62
979.609	2.62
980.335	2.62
981.062	1.62
981.788	0.62
982.514	-0.38
983.24	2.62
983.967	0.62
984.693	1.62
985.419	-1.38
986.144	0.62
986.87	-0.38
987.596	1.62
988.322	2.62
989.047	-1.38
989.773	1.62
990.498	-0.38
991.224	-0.38
991.949	1.62
992.674	1.62
993.399	1.62
994.124	-0.38
994.849	1.62
995.574	1.62
996.299	1.62
997.024	1.62
997.749	-0.38
998.473	1.62
999.198	0.62
999.922	0.62
1000.647	0.62
1001.371	1.62
1002.095	-0.38
1002.82	1.62
1003.544	-0.38
1004.268	3.62
1004.992	4.62
1005.716	6.62
1006.439	4.62
1007.163	6.62
1007.887	7.62
1008.611	2.62
1009.334	2.62
1010.058	0.62
1010.781	1.62
1011.504	3.62
1012.228	-0.38
1012.951	0.62
1013.674	-2.38
1014.397	-0.38
1015.12	-0.38
