节点500_705_QEPB04081__567__20-53-59-751.txt的数据

Date: Wed Nov 12 20:53:59 CST 2025
User: PC
Spectrometer: QEPB0408
触发模式: 0
积分时间 (秒): 1.000000E-2
Scans to average: 1
启用暗噪声校正: true
启用非线性校正: false
滑动平均宽度: 0
X轴模式: Wavelengths
Number of Pixels in Spectrum: 1044
>>>>>Begin Spectral Data<<<<<
220.843	5.75
221.644	7.75
222.444	6.75
223.244	6.75
224.045	6.75
224.845	8.75
225.645	6.75
226.445	7.75
227.245	7.75
228.045	8.75
228.845	7.75
229.645	4.75
230.444	6.75
231.244	5.75
232.043	9.75
232.843	8.75
233.642	6.75
234.442	9.75
235.241	10.75
236.04	12.75
236.839	9.75
237.638	9.75
238.437	11.75
239.236	10.75
240.035	13.75
240.833	11.75
241.632	12.75
242.43	9.75
243.229	13.75
244.027	13.75
244.826	13.75
245.624	12.75
246.422	13.75
247.22	14.75
248.018	14.75
248.816	13.75
249.614	16.75
250.412	14.75
251.21	16.75
252.007	15.75
252.805	14.75
253.602	18.75
254.4	16.75
255.197	18.75
255.994	17.75
256.791	18.75
257.589	17.75
258.386	19.75
259.183	18.75
259.979	18.75
260.776	23.75
261.573	21.75
262.37	21.75
263.166	21.75
263.963	22.75
264.759	25.75
265.556	23.75
266.352	24.75
267.148	28.75
267.944	25.75
268.74	29.75
269.536	25.75
270.332	30.75
271.128	28.75
271.924	28.75
272.719	31.75
273.515	28.75
274.311	31.75
275.106	28.75
275.901	32.75
276.697	31.75
277.492	32.75
278.287	31.75
279.082	31.75
279.877	31.75
280.672	31.75
281.467	33.75
282.262	34.75
283.056	31.75
283.851	32.75
284.646	32.75
285.44	34.75
286.234	28.75
287.029	27.75
287.823	32.75
288.617	30.75
289.411	30.75
290.205	27.75
290.999	29.75
291.793	33.75
292.587	29.75
293.381	30.75
294.174	27.75
294.968	28.75
295.761	25.75
296.555	23.75
297.348	22.75
298.141	22.75
298.935	29.75
299.728	26.75
300.521	24.75
301.314	23.75
302.107	20.75
302.899	23.75
303.692	21.75
304.485	22.75
305.277	23.75
306.07	20.75
306.862	20.75
307.655	22.75
308.447	22.75
309.239	22.75
310.031	17.75
310.823	20.75
311.615	20.75
312.407	18.75
313.199	15.75
313.991	19.75
314.783	18.75
315.574	17.75
316.366	16.75
317.157	13.75
317.949	17.75
318.74	14.75
319.531	16.75
320.322	15.75
321.113	13.75
321.904	12.75
322.695	15.75
323.486	12.75
324.277	13.75
325.068	14.75
325.858	12.75
326.649	11.75
327.439	12.75
328.23	11.75
329.02	12.75
329.81	12.75
330.6	13.75
331.391	15.75
332.181	13.75
332.971	12.75
333.76	14.75
334.55	14.75
335.34	14.75
336.13	10.75
336.919	10.75
337.709	11.75
338.498	15.75
339.287	11.75
340.077	9.75
340.866	12.75
341.655	10.75
342.444	10.75
343.233	10.75
344.022	12.75
344.811	9.75
345.6	11.75
346.388	13.75
347.177	8.75
347.965	12.75
348.754	11.75
349.542	11.75
350.33	11.75
351.119	9.75
351.907	13.75
352.695	11.75
353.483	12.75
354.271	11.75
355.059	9.75
355.846	11.75
356.634	10.75
357.422	9.75
358.209	10.75
358.997	12.75
359.784	11.75
360.571	9.75
361.359	11.75
362.146	10.75
362.933	11.75
363.72	11.75
364.507	9.75
365.294	11.75
366.081	9.75
366.867	10.75
367.654	9.75
368.44	9.75
369.227	10.75
370.013	10.75
370.8	8.75
371.586	8.75
372.372	11.75
373.158	9.75
373.944	10.75
374.73	10.75
375.516	11.75
376.302	8.75
377.088	10.75
377.873	10.75
378.659	10.75
379.445	7.75
380.23	9.75
381.015	8.75
381.801	12.75
382.586	9.75
383.371	11.75
384.156	10.75
384.941	10.75
385.726	14.75
386.511	11.75
387.296	11.75
388.08	11.75
388.865	10.75
389.649	10.75
390.434	10.75
391.218	11.75
392.003	11.75
392.787	11.75
393.571	12.75
394.355	12.75
395.139	11.75
395.923	12.75
396.707	12.75
397.491	11.75
398.274	13.75
399.058	15.75
399.842	13.75
400.625	12.75
401.408	14.75
402.192	13.75
402.975	13.75
403.758	14.75
404.541	14.75
405.324	14.75
406.107	17.75
406.89	15.75
407.673	16.75
408.456	15.75
409.238	17.75
410.021	17.75
410.803	15.75
411.586	14.75
412.368	15.75
413.151	15.75
413.933	17.75
414.715	18.75
415.497	19.75
416.279	18.75
417.061	15.75
417.843	15.75
418.624	19.75
419.406	19.75
420.188	20.75
420.969	20.75
421.751	22.75
422.532	18.75
423.313	22.75
424.095	23.75
424.876	23.75
425.657	24.75
426.438	24.75
427.219	26.75
428	26.75
428.78	27.75
429.561	29.75
430.342	31.75
431.122	32.75
431.903	31.75
432.683	32.75
433.464	32.75
434.244	35.75
435.024	39.75
435.804	43.75
436.584	43.75
437.364	44.75
438.144	47.75
438.924	49.75
439.704	54.75
440.483	61.75
441.263	59.75
442.042	70.75
442.822	73.75
443.601	79.75
444.38	84.75
445.16	92.75
445.939	101.75
446.718	112.75
447.497	121.75
448.276	129.75
449.054	142.75
449.833	159.75
450.612	172.75
451.391	186.75
452.169	210.75
452.948	229.75
453.726	256.75
454.504	287.75
455.282	315.75
456.061	359.75
456.839	397.75
457.617	431.75
458.395	487.75
459.172	543.75
459.95	599.75
460.728	670.75
461.506	738.75
462.283	830.75
463.061	917.75
463.838	1016.75
464.615	1113.75
465.393	1243.75
466.17	1406.75
466.947	1551.75
467.724	1704.75
468.501	1870.75
469.278	2081.75
470.055	2272.75
470.831	2510.75
471.608	2767.75
472.385	3037.75
473.161	3308.75
473.938	3631.75
474.714	3975.75
475.49	4350.75
476.266	4741.75
477.043	5141.75
477.819	5601.75
478.595	6093.75
479.371	6597.75
480.146	7174.75
480.922	7785.75
481.698	8454.75
482.473	9141.75
483.249	9908.75
484.024	10745.75
484.8	11567.75
485.575	12475.75
486.35	13485.75
487.126	14506.75
487.901	15649.75
488.676	16843.75
489.451	18060.75
490.225	19363.75
491	20798.75
491.775	22111.75
492.55	23647.75
493.324	25129.75
494.099	26794.75
494.873	28294.75
495.647	29940.75
496.422	31466.75
497.196	33143.75
497.97	34703.75
498.744	36155.75
499.518	37731.75
500.292	39014.75
501.066	40065.75
501.839	41083.75
502.613	42003.75
503.387	42806.75
504.16	43375.75
504.934	43824.75
505.707	44116.75
506.48	43924.75
507.253	43693.75
508.027	43479.75
508.8	42865.75
509.573	42039.75
510.346	41289.75
511.118	40538.75
511.891	39520.75
512.664	38178.75
513.437	36951.75
514.209	35708.75
514.982	34492.75
515.754	33271.75
516.526	31912.75
517.298	30746.75
518.071	29600.75
518.843	28452.75
519.615	27162.75
520.387	26226.75
521.159	25208.75
521.93	24196.75
522.702	23209.75
523.474	22220.75
524.245	21331.75
525.017	20478.75
525.788	19594.75
526.56	18811.75
527.331	18024.75
528.102	17166.75
528.873	16318.75
529.644	15541.75
530.415	14873.75
531.186	14218.75
531.957	13503.75
532.728	12806.75
533.498	12129.75
534.269	11535.75
535.039	10932.75
535.81	10374.75
536.58	9820.75
537.351	9326.75
538.121	8792.75
538.891	8330.75
539.661	7866.75
540.431	7428.75
541.201	7094.75
541.971	6732.75
542.741	6370.75
543.51	6042.75
544.28	5731.75
545.05	5466.75
545.819	5210.75
546.588	4977.75
547.358	4773.75
548.127	4499.75
548.896	4259.75
549.665	4068.75
550.434	3868.75
551.203	3684.75
551.972	3487.75
552.741	3302.75
553.51	3099.75
554.278	2943.75
555.047	2778.75
555.815	2622.75
556.584	2495.75
557.352	2348.75
558.121	2217.75
558.889	2108.75
559.657	2002.75
560.425	1883.75
561.193	1796.75
561.961	1703.75
562.729	1612.75
563.496	1492.75
564.264	1436.75
565.032	1355.75
565.799	1275.75
566.567	1206.75
567.334	1154.75
568.101	1079.75
568.869	1014.75
569.636	957.75
570.403	901.75
571.17	845.75
571.937	817.75
572.704	756.75
573.471	725.75
574.237	684.75
575.004	641.75
575.771	606.75
576.537	565.75
577.303	547.75
578.07	517.75
578.836	476.75
579.602	454.75
580.368	442.75
581.134	419.75
581.9	400.75
582.666	369.75
583.432	355.75
584.198	336.75
584.964	317.75
585.729	300.75
586.495	288.75
587.26	272.75
588.025	249.75
588.791	239.75
589.556	234.75
590.321	218.75
591.086	205.75
591.851	200.75
592.616	191.75
593.381	182.75
594.146	174.75
594.911	160.75
595.675	157.75
596.44	152.75
597.204	147.75
597.969	139.75
598.733	131.75
599.497	124.75
600.261	116.75
601.025	112.75
601.79	110.75
602.553	105.75
603.317	103.75
604.081	98.75
604.845	91.75
605.609	88.75
606.372	89.75
607.136	84.75
607.899	80.75
608.662	73.75
609.426	74.75
610.189	71.75
610.952	68.75
611.715	62.75
612.478	65.75
613.241	61.75
614.004	57.75
614.767	57.75
615.529	53.75
616.292	54.75
617.055	52.75
617.817	52.75
618.579	47.75
619.342	46.75
620.104	45.75
620.866	47.75
621.628	40.75
622.39	39.75
623.152	38.75
623.914	37.75
624.676	35.75
625.438	35.75
626.199	31.75
626.961	31.75
627.722	34.75
628.484	29.75
629.245	30.75
630.006	27.75
630.768	29.75
631.529	27.75
632.29	28.75
633.051	24.75
633.812	24.75
634.573	26.75
635.333	25.75
636.094	25.75
636.855	24.75
637.615	23.75
638.376	21.75
639.136	25.75
639.896	20.75
640.657	18.75
641.417	19.75
642.177	20.75
642.937	18.75
643.697	17.75
644.457	16.75
645.216	15.75
645.976	16.75
646.736	14.75
647.495	13.75
648.255	16.75
649.014	15.75
649.774	15.75
650.533	15.75
651.292	14.75
652.051	14.75
652.81	13.75
653.569	11.75
654.328	14.75
655.087	15.75
655.846	15.75
656.604	14.75
657.363	13.75
658.121	13.75
658.88	12.75
659.638	12.75
660.397	11.75
661.155	11.75
661.913	11.75
662.671	11.75
663.429	10.75
664.187	14.75
664.945	8.75
665.703	7.75
666.46	11.75
667.218	10.75
667.976	11.75
668.733	9.75
669.49	11.75
670.248	10.75
671.005	11.75
671.762	10.75
672.519	8.75
673.276	8.75
674.033	10.75
674.79	10.75
675.547	12.75
676.304	8.75
677.06	8.75
677.817	9.75
678.574	8.75
679.33	8.75
680.086	7.75
680.843	9.75
681.599	7.75
682.355	8.75
683.111	8.75
683.867	12.75
684.623	9.75
685.379	8.75
686.135	7.75
686.89	6.75
687.646	7.75
688.402	7.75
689.157	8.75
689.912	8.75
690.668	7.75
691.423	6.75
692.178	7.75
692.933	10.75
693.688	7.75
694.443	10.75
695.198	5.75
695.953	9.75
696.708	6.75
697.462	9.75
698.217	10.75
698.972	7.75
699.726	8.75
700.48	10.75
701.235	5.75
701.989	10.75
702.743	8.75
703.497	8.75
704.251	8.75
705.005	9.75
705.759	7.75
706.513	6.75
707.266	9.75
708.02	10.75
708.774	8.75
709.527	5.75
710.28	9.75
711.034	6.75
711.787	6.75
712.54	8.75
713.293	7.75
714.046	7.75
714.799	7.75
715.552	8.75
716.305	8.75
717.058	7.75
717.81	9.75
718.563	5.75
719.315	8.75
720.068	8.75
720.82	9.75
721.573	7.75
722.325	9.75
723.077	8.75
723.829	9.75
724.581	8.75
725.333	6.75
726.085	7.75
726.836	8.75
727.588	10.75
728.34	9.75
729.091	11.75
729.843	8.75
730.594	9.75
731.346	9.75
732.097	8.75
732.848	8.75
733.599	9.75
734.35	11.75
735.101	9.75
735.852	10.75
736.603	9.75
737.354	8.75
738.104	11.75
738.855	10.75
739.605	11.75
740.356	8.75
741.106	10.75
741.856	10.75
742.607	10.75
743.357	10.75
744.107	10.75
744.857	9.75
745.607	11.75
746.357	10.75
747.106	7.75
747.856	10.75
748.606	9.75
749.355	9.75
750.105	12.75
750.854	11.75
751.603	10.75
752.353	12.75
753.102	10.75
753.851	12.75
754.6	10.75
755.349	10.75
756.098	11.75
756.847	11.75
757.595	11.75
758.344	9.75
759.093	12.75
759.841	11.75
760.589	12.75
761.338	12.75
762.086	10.75
762.834	14.75
763.582	11.75
764.331	14.75
765.079	13.75
765.826	13.75
766.574	11.75
767.322	12.75
768.07	14.75
768.817	10.75
769.565	14.75
770.312	12.75
771.06	13.75
771.807	12.75
772.554	14.75
773.302	15.75
774.049	12.75
774.796	15.75
775.543	15.75
776.29	15.75
777.036	16.75
777.783	14.75
778.53	14.75
779.276	15.75
780.023	13.75
780.769	15.75
781.516	13.75
782.262	17.75
783.008	14.75
783.754	15.75
784.5	15.75
785.246	14.75
785.992	13.75
786.738	14.75
787.484	15.75
788.23	12.75
788.975	14.75
789.721	14.75
790.466	15.75
791.212	16.75
791.957	13.75
792.702	14.75
793.447	14.75
794.193	12.75
794.938	13.75
795.683	14.75
796.427	13.75
797.172	11.75
797.917	13.75
798.662	12.75
799.406	11.75
800.151	11.75
800.895	13.75
801.64	11.75
802.384	12.75
803.128	10.75
803.872	11.75
804.616	10.75
805.36	13.75
806.104	10.75
806.848	9.75
807.592	10.75
808.336	9.75
809.079	10.75
809.823	11.75
810.566	11.75
811.31	9.75
812.053	8.75
812.796	7.75
813.539	9.75
814.283	10.75
815.026	10.75
815.769	10.75
816.511	8.75
817.254	8.75
817.997	9.75
818.74	6.75
819.482	7.75
820.225	7.75
820.967	8.75
821.71	8.75
822.452	7.75
823.194	6.75
823.936	10.75
824.678	6.75
825.42	7.75
826.162	9.75
826.904	7.75
827.646	7.75
828.388	7.75
829.129	5.75
829.871	8.75
830.612	8.75
831.354	5.75
832.095	8.75
832.836	7.75
833.577	8.75
834.319	6.75
835.06	6.75
835.801	6.75
836.542	6.75
837.282	8.75
838.023	4.75
838.764	7.75
839.504	7.75
840.245	6.75
840.985	7.75
841.726	4.75
842.466	7.75
843.206	6.75
843.946	5.75
844.687	6.75
845.427	3.75
846.166	5.75
846.906	6.75
847.646	5.75
848.386	6.75
849.125	7.75
849.865	4.75
850.605	3.75
851.344	7.75
852.083	3.75
852.823	7.75
853.562	5.75
854.301	5.75
855.04	2.75
855.779	5.75
856.518	5.75
857.257	3.75
857.995	6.75
858.734	3.75
859.473	7.75
860.211	6.75
860.95	3.75
861.688	3.75
862.426	2.75
863.165	3.75
863.903	6.75
864.641	5.75
865.379	2.75
866.117	0.75
866.855	3.75
867.593	4.75
868.33	3.75
869.068	4.75
869.806	1.75
870.543	4.75
871.28	2.75
872.018	3.75
872.755	3.75
873.492	3.75
874.229	4.75
874.967	2.75
875.703	3.75
876.44	1.75
877.177	3.75
877.914	3.75
878.651	3.75
879.387	2.75
880.124	1.75
880.86	3.75
881.597	1.75
882.333	1.75
883.069	1.75
883.806	2.75
884.542	3.75
885.278	2.75
886.014	1.75
886.749	3.75
887.485	2.75
888.221	1.75
888.957	0.75
889.692	2.75
890.428	2.75
891.163	3.75
891.899	1.75
892.634	1.75
893.369	1.75
894.104	2.75
894.839	2.75
895.574	3.75
896.309	2.75
897.044	1.75
897.779	0.75
898.514	2.75
899.248	3.75
899.983	2.75
900.717	1.75
901.452	0.75
902.186	-0.25
902.92	3.75
903.654	1.75
904.389	2.75
905.123	2.75
905.857	2.75
906.59	1.75
907.324	2.75
908.058	2.75
908.792	3.75
909.525	1.75
910.259	3.75
910.992	0.75
911.726	0.75
912.459	1.75
913.192	0.75
913.925	3.75
914.658	0.75
915.391	1.75
916.124	2.75
916.857	1.75
917.59	3.75
918.323	-0.25
919.055	1.75
919.788	2.75
920.521	-0.25
921.253	1.75
921.985	0.75
922.718	2.75
923.45	0.75
924.182	3.75
924.914	1.75
925.646	1.75
926.378	1.75
927.11	0.75
927.841	1.75
928.573	-0.25
929.305	0.75
930.036	2.75
930.768	2.75
931.499	1.75
932.23	1.75
932.962	0.75
933.693	0.75
934.424	-1.25
935.155	1.75
935.886	-0.25
936.617	0.75
937.348	2.75
938.078	2.75
938.809	1.75
939.54	-1.25
940.27	2.75
941.001	2.75
941.731	1.75
942.461	1.75
943.191	0.75
943.922	0.75
944.652	-1.25
945.382	0.75
946.112	2.75
946.841	-0.25
947.571	0.75
948.301	0.75
949.031	1.75
949.76	1.75
950.49	1.75
951.219	0.75
951.948	0.75
952.678	0.75
953.407	0.75
954.136	-0.25
954.865	-0.25
955.594	-0.25
956.323	2.75
957.052	1.75
957.78	2.75
958.509	-1.25
959.238	0.75
959.966	0.75
960.695	0.75
961.423	2.75
962.151	-0.25
962.88	2.75
963.608	0.75
964.336	1.75
965.064	1.75
965.792	1.75
966.52	1.75
967.247	1.75
967.975	-0.25
968.703	1.75
969.43	0.75
970.158	2.75
970.885	-0.25
971.613	1.75
972.34	1.75
973.067	1.75
973.794	1.75
974.521	-0.25
975.248	1.75
975.975	1.75
976.702	-1.25
977.429	-0.25
978.156	1.75
978.882	-0.25
979.609	1.75
980.335	-0.25
981.062	1.75
981.788	1.75
982.514	-0.25
983.24	0.75
983.967	1.75
984.693	0.75
985.419	-0.25
986.144	0.75
986.87	0.75
987.596	-0.25
988.322	0.75
989.047	1.75
989.773	-0.25
990.498	0.75
991.224	-0.25
991.949	-0.25
992.674	1.75
993.399	1.75
994.124	2.75
994.849	1.75
995.574	-0.25
996.299	0.75
997.024	0.75
997.749	1.75
998.473	2.75
999.198	0.75
999.922	1.75
1000.647	0.75
1001.371	1.75
1002.095	-1.25
1002.82	-1.25
1003.544	-1.25
1004.268	6.75
1004.992	4.75
1005.716	3.75
1006.439	3.75
1007.163	7.75
1007.887	5.75
1008.611	1.75
1009.334	-0.25
1010.058	1.75
1010.781	-2.25
1011.504	1.75
1012.228	-0.25
1012.951	0.75
1013.674	0.75
1014.397	-1.25
1015.12	1.75
