节点500_705_QEPB04081__488__20-52-49-761.txt的数据

Date: Wed Nov 12 20:52:49 CST 2025
User: PC
Spectrometer: QEPB0408
触发模式: 0
积分时间 (秒): 1.000000E-2
Scans to average: 1
启用暗噪声校正: true
启用非线性校正: false
滑动平均宽度: 0
X轴模式: Wavelengths
Number of Pixels in Spectrum: 1044
>>>>>Begin Spectral Data<<<<<
220.843	5.88
221.644	6.88
222.444	4.88
223.244	5.88
224.045	7.88
224.845	6.88
225.645	5.88
226.445	4.88
227.245	4.88
228.045	8.88
228.845	7.88
229.645	7.88
230.444	9.88
231.244	8.88
232.043	7.88
232.843	7.88
233.642	9.88
234.442	8.88
235.241	7.88
236.04	9.88
236.839	10.88
237.638	9.88
238.437	9.88
239.236	11.88
240.035	11.88
240.833	10.88
241.632	10.88
242.43	10.88
243.229	11.88
244.027	11.88
244.826	13.88
245.624	13.88
246.422	12.88
247.22	14.88
248.018	13.88
248.816	10.88
249.614	14.88
250.412	14.88
251.21	14.88
252.007	16.88
252.805	17.88
253.602	18.88
254.4	17.88
255.197	17.88
255.994	16.88
256.791	17.88
257.589	18.88
258.386	18.88
259.183	20.88
259.979	18.88
260.776	22.88
261.573	20.88
262.37	22.88
263.166	21.88
263.963	21.88
264.759	24.88
265.556	23.88
266.352	26.88
267.148	24.88
267.944	26.88
268.74	24.88
269.536	28.88
270.332	27.88
271.128	28.88
271.924	30.88
272.719	28.88
273.515	30.88
274.311	29.88
275.106	31.88
275.901	33.88
276.697	30.88
277.492	32.88
278.287	30.88
279.082	30.88
279.877	34.88
280.672	34.88
281.467	32.88
282.262	28.88
283.056	28.88
283.851	31.88
284.646	30.88
285.44	34.88
286.234	31.88
287.029	32.88
287.823	31.88
288.617	27.88
289.411	29.88
290.205	30.88
290.999	29.88
291.793	26.88
292.587	30.88
293.381	26.88
294.174	30.88
294.968	26.88
295.761	26.88
296.555	28.88
297.348	26.88
298.141	26.88
298.935	28.88
299.728	26.88
300.521	27.88
301.314	26.88
302.107	23.88
302.899	22.88
303.692	19.88
304.485	22.88
305.277	18.88
306.07	22.88
306.862	21.88
307.655	21.88
308.447	21.88
309.239	18.88
310.031	19.88
310.823	15.88
311.615	18.88
312.407	13.88
313.199	16.88
313.991	16.88
314.783	14.88
315.574	14.88
316.366	12.88
317.157	16.88
317.949	13.88
318.74	13.88
319.531	13.88
320.322	14.88
321.113	12.88
321.904	13.88
322.695	12.88
323.486	15.88
324.277	13.88
325.068	13.88
325.858	12.88
326.649	12.88
327.439	11.88
328.23	10.88
329.02	10.88
329.81	14.88
330.6	9.88
331.391	10.88
332.181	10.88
332.971	10.88
333.76	13.88
334.55	11.88
335.34	12.88
336.13	10.88
336.919	12.88
337.709	11.88
338.498	7.88
339.287	11.88
340.077	10.88
340.866	11.88
341.655	10.88
342.444	13.88
343.233	11.88
344.022	11.88
344.811	9.88
345.6	11.88
346.388	13.88
347.177	9.88
347.965	11.88
348.754	10.88
349.542	11.88
350.33	8.88
351.119	10.88
351.907	10.88
352.695	10.88
353.483	14.88
354.271	8.88
355.059	10.88
355.846	8.88
356.634	8.88
357.422	9.88
358.209	9.88
358.997	8.88
359.784	11.88
360.571	8.88
361.359	9.88
362.146	8.88
362.933	10.88
363.72	8.88
364.507	7.88
365.294	10.88
366.081	7.88
366.867	9.88
367.654	10.88
368.44	8.88
369.227	10.88
370.013	7.88
370.8	8.88
371.586	7.88
372.372	7.88
373.158	8.88
373.944	10.88
374.73	9.88
375.516	6.88
376.302	10.88
377.088	9.88
377.873	8.88
378.659	12.88
379.445	9.88
380.23	7.88
381.015	8.88
381.801	10.88
382.586	10.88
383.371	8.88
384.156	11.88
384.941	9.88
385.726	11.88
386.511	11.88
387.296	11.88
388.08	11.88
388.865	11.88
389.649	11.88
390.434	9.88
391.218	9.88
392.003	11.88
392.787	11.88
393.571	12.88
394.355	10.88
395.139	10.88
395.923	9.88
396.707	10.88
397.491	12.88
398.274	11.88
399.058	12.88
399.842	11.88
400.625	11.88
401.408	11.88
402.192	12.88
402.975	12.88
403.758	13.88
404.541	12.88
405.324	12.88
406.107	10.88
406.89	14.88
407.673	15.88
408.456	14.88
409.238	14.88
410.021	16.88
410.803	14.88
411.586	13.88
412.368	17.88
413.151	12.88
413.933	16.88
414.715	15.88
415.497	18.88
416.279	14.88
417.061	17.88
417.843	17.88
418.624	17.88
419.406	19.88
420.188	17.88
420.969	18.88
421.751	21.88
422.532	22.88
423.313	20.88
424.095	24.88
424.876	22.88
425.657	25.88
426.438	24.88
427.219	26.88
428	28.88
428.78	30.88
429.561	32.88
430.342	29.88
431.122	30.88
431.903	34.88
432.683	34.88
433.464	33.88
434.244	34.88
435.024	37.88
435.804	43.88
436.584	42.88
437.364	41.88
438.144	47.88
438.924	52.88
439.704	50.88
440.483	55.88
441.263	59.88
442.042	62.88
442.822	71.88
443.601	80.88
444.38	82.88
445.16	89.88
445.939	96.88
446.718	103.88
447.497	114.88
448.276	122.88
449.054	133.88
449.833	149.88
450.612	166.88
451.391	184.88
452.169	206.88
452.948	224.88
453.726	243.88
454.504	274.88
455.282	305.88
456.061	341.88
456.839	378.88
457.617	429.88
458.395	470.88
459.172	531.88
459.95	586.88
460.728	651.88
461.506	736.88
462.283	814.88
463.061	906.88
463.838	1002.88
464.615	1126.88
465.393	1230.88
466.17	1359.88
466.947	1515.88
467.724	1690.88
468.501	1865.88
469.278	2046.88
470.055	2250.88
470.831	2503.88
471.608	2735.88
472.385	3042.88
473.161	3303.88
473.938	3658.88
474.714	3991.88
475.49	4358.88
476.266	4780.88
477.043	5209.88
477.819	5657.88
478.595	6163.88
479.371	6711.88
480.146	7299.88
480.922	7959.88
481.698	8632.88
482.473	9392.88
483.249	10162.88
484.024	10996.88
484.8	11905.88
485.575	12864.88
486.35	13949.88
487.126	15011.88
487.901	16233.88
488.676	17439.88
489.451	18762.88
490.225	20184.88
491	21605.88
491.775	23060.88
492.55	24636.88
493.324	26187.88
494.099	27865.88
494.873	29527.88
495.647	31096.88
496.422	32783.88
497.196	34501.88
497.97	36023.88
498.744	37550.88
499.518	39176.88
500.292	40494.88
501.066	41545.88
501.839	42525.88
502.613	43345.88
503.387	44139.88
504.16	44661.88
504.934	44999.88
505.707	45042.88
506.48	44912.88
507.253	44565.88
508.027	44148.88
508.8	43538.88
509.573	42673.88
510.346	41701.88
511.118	40816.88
511.891	39768.88
512.664	38453.88
513.437	37045.88
514.209	35777.88
514.982	34439.88
515.754	33152.88
516.526	31904.88
517.298	30596.88
518.071	29425.88
518.843	28252.88
519.615	27109.88
520.387	26040.88
521.159	25022.88
521.93	23982.88
522.702	23017.88
523.474	22119.88
524.245	21172.88
525.017	20270.88
525.788	19399.88
526.56	18671.88
527.331	17856.88
528.102	16933.88
528.873	16128.88
529.644	15383.88
530.415	14665.88
531.186	13956.88
531.957	13213.88
532.728	12601.88
533.498	11989.88
534.269	11342.88
535.039	10753.88
535.81	10194.88
536.58	9625.88
537.351	9102.88
538.121	8661.88
538.891	8172.88
539.661	7725.88
540.431	7324.88
541.201	6973.88
541.971	6594.88
542.741	6222.88
543.51	5916.88
544.28	5626.88
545.05	5382.88
545.819	5112.88
546.588	4855.88
547.358	4634.88
548.127	4447.88
548.896	4225.88
549.665	3990.88
550.434	3790.88
551.203	3595.88
551.972	3404.88
552.741	3234.88
553.51	3050.88
554.278	2862.88
555.047	2721.88
555.815	2576.88
556.584	2423.88
557.352	2316.88
558.121	2195.88
558.889	2051.88
559.657	1921.88
560.425	1844.88
561.193	1749.88
561.961	1665.88
562.729	1568.88
563.496	1465.88
564.264	1388.88
565.032	1322.88
565.799	1241.88
566.567	1182.88
567.334	1102.88
568.101	1047.88
568.869	996.88
569.636	953.88
570.403	885.88
571.17	833.88
571.937	787.88
572.704	746.88
573.471	714.88
574.237	664.88
575.004	629.88
575.771	592.88
576.537	554.88
577.303	523.88
578.07	494.88
578.836	468.88
579.602	441.88
580.368	420.88
581.134	397.88
581.9	375.88
582.666	362.88
583.432	345.88
584.198	323.88
584.964	310.88
585.729	296.88
586.495	278.88
587.26	268.88
588.025	256.88
588.791	243.88
589.556	226.88
590.321	209.88
591.086	201.88
591.851	192.88
592.616	182.88
593.381	176.88
594.146	164.88
594.911	161.88
595.675	144.88
596.44	146.88
597.204	142.88
597.969	136.88
598.733	122.88
599.497	120.88
600.261	113.88
601.025	108.88
601.79	105.88
602.553	102.88
603.317	94.88
604.081	93.88
604.845	86.88
605.609	84.88
606.372	81.88
607.136	78.88
607.899	77.88
608.662	74.88
609.426	73.88
610.189	71.88
610.952	59.88
611.715	60.88
612.478	58.88
613.241	59.88
614.004	53.88
614.767	54.88
615.529	51.88
616.292	46.88
617.055	48.88
617.817	47.88
618.579	47.88
619.342	45.88
620.104	40.88
620.866	40.88
621.628	38.88
622.39	37.88
623.152	34.88
623.914	34.88
624.676	36.88
625.438	36.88
626.199	33.88
626.961	31.88
627.722	30.88
628.484	31.88
629.245	27.88
630.006	26.88
630.768	28.88
631.529	23.88
632.29	28.88
633.051	23.88
633.812	24.88
634.573	24.88
635.333	24.88
636.094	20.88
636.855	20.88
637.615	20.88
638.376	19.88
639.136	22.88
639.896	21.88
640.657	17.88
641.417	16.88
642.177	17.88
642.937	18.88
643.697	17.88
644.457	16.88
645.216	15.88
645.976	15.88
646.736	15.88
647.495	13.88
648.255	14.88
649.014	15.88
649.774	15.88
650.533	13.88
651.292	12.88
652.051	14.88
652.81	10.88
653.569	12.88
654.328	12.88
655.087	14.88
655.846	13.88
656.604	10.88
657.363	13.88
658.121	10.88
658.88	14.88
659.638	11.88
660.397	8.88
661.155	10.88
661.913	11.88
662.671	8.88
663.429	11.88
664.187	8.88
664.945	8.88
665.703	11.88
666.46	9.88
667.218	9.88
667.976	10.88
668.733	7.88
669.49	8.88
670.248	8.88
671.005	12.88
671.762	9.88
672.519	8.88
673.276	8.88
674.033	10.88
674.79	7.88
675.547	7.88
676.304	5.88
677.06	8.88
677.817	7.88
678.574	7.88
679.33	9.88
680.086	7.88
680.843	9.88
681.599	8.88
682.355	10.88
683.111	7.88
683.867	8.88
684.623	9.88
685.379	8.88
686.135	7.88
686.89	7.88
687.646	6.88
688.402	9.88
689.157	7.88
689.912	6.88
690.668	6.88
691.423	8.88
692.178	8.88
692.933	2.88
693.688	8.88
694.443	7.88
695.198	7.88
695.953	8.88
696.708	8.88
697.462	6.88
698.217	7.88
698.972	5.88
699.726	7.88
700.48	5.88
701.235	8.88
701.989	5.88
702.743	8.88
703.497	5.88
704.251	9.88
705.005	8.88
705.759	8.88
706.513	5.88
707.266	6.88
708.02	8.88
708.774	6.88
709.527	5.88
710.28	8.88
711.034	7.88
711.787	6.88
712.54	7.88
713.293	6.88
714.046	6.88
714.799	5.88
715.552	4.88
716.305	6.88
717.058	7.88
717.81	6.88
718.563	9.88
719.315	8.88
720.068	5.88
720.82	7.88
721.573	6.88
722.325	9.88
723.077	4.88
723.829	8.88
724.581	4.88
725.333	5.88
726.085	7.88
726.836	9.88
727.588	8.88
728.34	8.88
729.091	6.88
729.843	7.88
730.594	8.88
731.346	8.88
732.097	7.88
732.848	9.88
733.599	7.88
734.35	8.88
735.101	9.88
735.852	7.88
736.603	8.88
737.354	8.88
738.104	8.88
738.855	9.88
739.605	8.88
740.356	7.88
741.106	6.88
741.856	10.88
742.607	8.88
743.357	9.88
744.107	10.88
744.857	10.88
745.607	10.88
746.357	12.88
747.106	9.88
747.856	9.88
748.606	8.88
749.355	13.88
750.105	11.88
750.854	11.88
751.603	8.88
752.353	9.88
753.102	9.88
753.851	11.88
754.6	14.88
755.349	11.88
756.098	9.88
756.847	10.88
757.595	11.88
758.344	10.88
759.093	10.88
759.841	12.88
760.589	10.88
761.338	12.88
762.086	12.88
762.834	10.88
763.582	11.88
764.331	8.88
765.079	14.88
765.826	14.88
766.574	11.88
767.322	11.88
768.07	13.88
768.817	14.88
769.565	11.88
770.312	13.88
771.06	13.88
771.807	13.88
772.554	13.88
773.302	12.88
774.049	14.88
774.796	13.88
775.543	14.88
776.29	12.88
777.036	14.88
777.783	13.88
778.53	15.88
779.276	14.88
780.023	13.88
780.769	14.88
781.516	14.88
782.262	12.88
783.008	14.88
783.754	15.88
784.5	13.88
785.246	16.88
785.992	12.88
786.738	14.88
787.484	13.88
788.23	15.88
788.975	14.88
789.721	12.88
790.466	12.88
791.212	14.88
791.957	12.88
792.702	13.88
793.447	12.88
794.193	13.88
794.938	14.88
795.683	14.88
796.427	11.88
797.172	13.88
797.917	11.88
798.662	13.88
799.406	14.88
800.151	12.88
800.895	12.88
801.64	11.88
802.384	11.88
803.128	10.88
803.872	8.88
804.616	10.88
805.36	10.88
806.104	8.88
806.848	9.88
807.592	10.88
808.336	10.88
809.079	7.88
809.823	7.88
810.566	10.88
811.31	10.88
812.053	6.88
812.796	9.88
813.539	6.88
814.283	6.88
815.026	9.88
815.769	9.88
816.511	8.88
817.254	8.88
817.997	7.88
818.74	7.88
819.482	8.88
820.225	7.88
820.967	4.88
821.71	6.88
822.452	7.88
823.194	8.88
823.936	5.88
824.678	6.88
825.42	8.88
826.162	7.88
826.904	4.88
827.646	6.88
828.388	5.88
829.129	4.88
829.871	7.88
830.612	5.88
831.354	5.88
832.095	5.88
832.836	7.88
833.577	4.88
834.319	4.88
835.06	3.88
835.801	6.88
836.542	4.88
837.282	5.88
838.023	4.88
838.764	4.88
839.504	4.88
840.245	5.88
840.985	3.88
841.726	5.88
842.466	4.88
843.206	6.88
843.946	4.88
844.687	5.88
845.427	5.88
846.166	6.88
846.906	5.88
847.646	4.88
848.386	4.88
849.125	2.88
849.865	3.88
850.605	3.88
851.344	5.88
852.083	5.88
852.823	1.88
853.562	2.88
854.301	2.88
855.04	2.88
855.779	1.88
856.518	3.88
857.257	3.88
857.995	4.88
858.734	4.88
859.473	3.88
860.211	3.88
860.95	4.88
861.688	3.88
862.426	1.88
863.165	2.88
863.903	4.88
864.641	1.88
865.379	1.88
866.117	1.88
866.855	2.88
867.593	1.88
868.33	1.88
869.068	2.88
869.806	3.88
870.543	0.88
871.28	2.88
872.018	2.88
872.755	1.88
873.492	2.88
874.229	0.88
874.967	1.88
875.703	4.88
876.44	0.88
877.177	1.88
877.914	-0.12
878.651	1.88
879.387	-0.12
880.124	2.88
880.86	-0.12
881.597	1.88
882.333	1.88
883.069	1.88
883.806	5.88
884.542	-1.12
885.278	1.88
886.014	1.88
886.749	0.88
887.485	1.88
888.221	2.88
888.957	0.88
889.692	0.88
890.428	2.88
891.163	-1.12
891.899	2.88
892.634	0.88
893.369	0.88
894.104	0.88
894.839	1.88
895.574	1.88
896.309	1.88
897.044	1.88
897.779	0.88
898.514	-0.12
899.248	0.88
899.983	-0.12
900.717	-0.12
901.452	0.88
902.186	1.88
902.92	1.88
903.654	-0.12
904.389	1.88
905.123	1.88
905.857	0.88
906.59	0.88
907.324	0.88
908.058	-0.12
908.792	1.88
909.525	1.88
910.259	-0.12
910.992	-0.12
911.726	-0.12
912.459	1.88
913.192	-0.12
913.925	1.88
914.658	2.88
915.391	1.88
916.124	0.88
916.857	2.88
917.59	0.88
918.323	-1.12
919.055	-0.12
919.788	1.88
920.521	2.88
921.253	-0.12
921.985	3.88
922.718	1.88
923.45	1.88
924.182	0.88
924.914	-0.12
925.646	0.88
926.378	0.88
927.11	-1.12
927.841	0.88
928.573	1.88
929.305	-1.12
930.036	-0.12
930.768	2.88
931.499	0.88
932.23	-1.12
932.962	2.88
933.693	0.88
934.424	1.88
935.155	-0.12
935.886	-0.12
936.617	-1.12
937.348	-1.12
938.078	-0.12
938.809	-0.12
939.54	-2.12
940.27	-1.12
941.001	0.88
941.731	2.88
942.461	-1.12
943.191	1.88
943.922	-0.12
944.652	-0.12
945.382	0.88
946.112	0.88
946.841	-2.12
947.571	1.88
948.301	0.88
949.031	-2.12
949.76	-0.12
950.49	2.88
951.219	-2.12
951.948	-0.12
952.678	-1.12
953.407	0.88
954.136	-1.12
954.865	-1.12
955.594	-0.12
956.323	-0.12
957.052	-0.12
957.78	-0.12
958.509	0.88
959.238	-0.12
959.966	-3.12
960.695	-0.12
961.423	0.88
962.151	0.88
962.88	-0.12
963.608	1.88
964.336	0.88
965.064	-0.12
965.792	1.88
966.52	-1.12
967.247	0.88
967.975	-1.12
968.703	-1.12
969.43	2.88
970.158	0.88
970.885	-1.12
971.613	-0.12
972.34	0.88
973.067	0.88
973.794	-1.12
974.521	-1.12
975.248	-0.12
975.975	-0.12
976.702	0.88
977.429	-1.12
978.156	0.88
978.882	-1.12
979.609	1.88
980.335	1.88
981.062	0.88
981.788	1.88
982.514	-1.12
983.24	-0.12
983.967	-0.12
984.693	-0.12
985.419	-0.12
986.144	-1.12
986.87	-0.12
987.596	-0.12
988.322	1.88
989.047	-0.12
989.773	-1.12
990.498	-0.12
991.224	1.88
991.949	-1.12
992.674	-1.12
993.399	2.88
994.124	0.88
994.849	-1.12
995.574	2.88
996.299	-1.12
997.024	0.88
997.749	0.88
998.473	0.88
999.198	0.88
999.922	-0.12
1000.647	1.88
1001.371	4.88
1002.095	0.88
1002.82	-0.12
1003.544	-1.12
1004.268	3.88
1004.992	3.88
1005.716	4.88
1006.439	2.88
1007.163	5.88
1007.887	3.88
1008.611	-0.12
1009.334	3.88
1010.058	-1.12
1010.781	-0.12
1011.504	2.88
1012.228	-0.12
1012.951	-1.12
1013.674	-2.12
1014.397	-0.12
1015.12	-1.12
