节点500_705_QEPB04081__289__20-50-06-412.txt的数据

Date: Wed Nov 12 20:50:06 CST 2025
User: PC
Spectrometer: QEPB0408
触发模式: 0
积分时间 (秒): 1.000000E-2
Scans to average: 1
启用暗噪声校正: true
启用非线性校正: false
滑动平均宽度: 0
X轴模式: Wavelengths
Number of Pixels in Spectrum: 1044
>>>>>Begin Spectral Data<<<<<
220.843	6.12
221.644	7.12
222.444	4.12
223.244	6.12
224.045	5.12
224.845	4.12
225.645	6.12
226.445	8.12
227.245	7.12
228.045	7.12
228.845	5.12
229.645	7.12
230.444	9.12
231.244	8.12
232.043	7.12
232.843	10.12
233.642	9.12
234.442	10.12
235.241	8.12
236.04	10.12
236.839	11.12
237.638	7.12
238.437	10.12
239.236	10.12
240.035	11.12
240.833	10.12
241.632	11.12
242.43	12.12
243.229	11.12
244.027	14.12
244.826	12.12
245.624	12.12
246.422	12.12
247.22	15.12
248.018	12.12
248.816	16.12
249.614	13.12
250.412	17.12
251.21	16.12
252.007	13.12
252.805	17.12
253.602	17.12
254.4	18.12
255.197	17.12
255.994	19.12
256.791	18.12
257.589	19.12
258.386	19.12
259.183	21.12
259.979	21.12
260.776	23.12
261.573	23.12
262.37	22.12
263.166	26.12
263.963	26.12
264.759	28.12
265.556	24.12
266.352	25.12
267.148	30.12
267.944	26.12
268.74	29.12
269.536	30.12
270.332	32.12
271.128	30.12
271.924	32.12
272.719	32.12
273.515	31.12
274.311	30.12
275.106	33.12
275.901	32.12
276.697	30.12
277.492	33.12
278.287	36.12
279.082	33.12
279.877	36.12
280.672	35.12
281.467	32.12
282.262	34.12
283.056	31.12
283.851	32.12
284.646	31.12
285.44	35.12
286.234	36.12
287.029	31.12
287.823	34.12
288.617	32.12
289.411	28.12
290.205	31.12
290.999	31.12
291.793	32.12
292.587	32.12
293.381	30.12
294.174	30.12
294.968	29.12
295.761	29.12
296.555	30.12
297.348	28.12
298.141	24.12
298.935	26.12
299.728	25.12
300.521	24.12
301.314	25.12
302.107	21.12
302.899	22.12
303.692	25.12
304.485	22.12
305.277	22.12
306.07	20.12
306.862	25.12
307.655	18.12
308.447	18.12
309.239	20.12
310.031	20.12
310.823	19.12
311.615	19.12
312.407	19.12
313.199	18.12
313.991	14.12
314.783	18.12
315.574	17.12
316.366	16.12
317.157	15.12
317.949	14.12
318.74	12.12
319.531	13.12
320.322	15.12
321.113	13.12
321.904	14.12
322.695	11.12
323.486	12.12
324.277	11.12
325.068	13.12
325.858	12.12
326.649	15.12
327.439	13.12
328.23	12.12
329.02	12.12
329.81	13.12
330.6	11.12
331.391	11.12
332.181	12.12
332.971	12.12
333.76	12.12
334.55	12.12
335.34	10.12
336.13	13.12
336.919	13.12
337.709	10.12
338.498	12.12
339.287	9.12
340.077	11.12
340.866	11.12
341.655	12.12
342.444	12.12
343.233	11.12
344.022	9.12
344.811	10.12
345.6	12.12
346.388	13.12
347.177	9.12
347.965	10.12
348.754	10.12
349.542	11.12
350.33	11.12
351.119	13.12
351.907	11.12
352.695	10.12
353.483	9.12
354.271	12.12
355.059	10.12
355.846	10.12
356.634	10.12
357.422	11.12
358.209	10.12
358.997	12.12
359.784	9.12
360.571	9.12
361.359	10.12
362.146	9.12
362.933	8.12
363.72	10.12
364.507	9.12
365.294	9.12
366.081	9.12
366.867	10.12
367.654	10.12
368.44	10.12
369.227	10.12
370.013	11.12
370.8	10.12
371.586	12.12
372.372	9.12
373.158	9.12
373.944	8.12
374.73	9.12
375.516	10.12
376.302	6.12
377.088	6.12
377.873	9.12
378.659	12.12
379.445	8.12
380.23	7.12
381.015	7.12
381.801	9.12
382.586	10.12
383.371	8.12
384.156	9.12
384.941	10.12
385.726	11.12
386.511	10.12
387.296	10.12
388.08	10.12
388.865	12.12
389.649	12.12
390.434	13.12
391.218	11.12
392.003	12.12
392.787	9.12
393.571	13.12
394.355	13.12
395.139	11.12
395.923	14.12
396.707	11.12
397.491	12.12
398.274	11.12
399.058	14.12
399.842	13.12
400.625	13.12
401.408	16.12
402.192	14.12
402.975	18.12
403.758	14.12
404.541	13.12
405.324	13.12
406.107	14.12
406.89	13.12
407.673	12.12
408.456	16.12
409.238	16.12
410.021	16.12
410.803	18.12
411.586	14.12
412.368	14.12
413.151	16.12
413.933	19.12
414.715	19.12
415.497	17.12
416.279	18.12
417.061	18.12
417.843	20.12
418.624	18.12
419.406	21.12
420.188	19.12
420.969	21.12
421.751	18.12
422.532	20.12
423.313	22.12
424.095	24.12
424.876	22.12
425.657	25.12
426.438	25.12
427.219	28.12
428	28.12
428.78	27.12
429.561	29.12
430.342	30.12
431.122	30.12
431.903	29.12
432.683	36.12
433.464	35.12
434.244	34.12
435.024	38.12
435.804	39.12
436.584	44.12
437.364	44.12
438.144	49.12
438.924	52.12
439.704	51.12
440.483	58.12
441.263	59.12
442.042	63.12
442.822	71.12
443.601	76.12
444.38	77.12
445.16	83.12
445.939	91.12
446.718	102.12
447.497	109.12
448.276	117.12
449.054	131.12
449.833	143.12
450.612	160.12
451.391	177.12
452.169	193.12
452.948	203.12
453.726	238.12
454.504	261.12
455.282	295.12
456.061	329.12
456.839	366.12
457.617	408.12
458.395	450.12
459.172	508.12
459.95	558.12
460.728	632.12
461.506	708.12
462.283	773.12
463.061	878.12
463.838	972.12
464.615	1081.12
465.393	1198.12
466.17	1345.12
466.947	1490.12
467.724	1659.12
468.501	1838.12
469.278	2029.12
470.055	2256.12
470.831	2510.12
471.608	2751.12
472.385	3058.12
473.161	3346.12
473.938	3686.12
474.714	4046.12
475.49	4473.12
476.266	4851.12
477.043	5338.12
477.819	5816.12
478.595	6378.12
479.371	6998.12
480.146	7646.12
480.922	8316.12
481.698	9109.12
482.473	9895.12
483.249	10778.12
484.024	11680.12
484.8	12718.12
485.575	13720.12
486.35	14935.12
487.126	16207.12
487.901	17469.12
488.676	18851.12
489.451	20334.12
490.225	21905.12
491	23479.12
491.775	25129.12
492.55	26900.12
493.324	28685.12
494.099	30413.12
494.873	32301.12
495.647	34052.12
496.422	35936.12
497.196	37662.12
497.97	39314.12
498.744	40845.12
499.518	42444.12
500.292	43777.12
501.066	44818.12
501.839	45675.12
502.613	46419.12
503.387	47010.12
504.16	47414.12
504.934	47440.12
505.707	47432.12
506.48	47028.12
507.253	46527.12
508.027	45792.12
508.8	44769.12
509.573	43656.12
510.346	42572.12
511.118	41459.12
511.891	40270.12
512.664	38691.12
513.437	37233.12
514.209	35816.12
514.982	34532.12
515.754	32950.12
516.526	31716.12
517.298	30429.12
518.071	29104.12
518.843	28097.12
519.615	26904.12
520.387	25818.12
521.159	24836.12
521.93	23709.12
522.702	22829.12
523.474	21819.12
524.245	20911.12
525.017	19923.12
525.788	19082.12
526.56	18281.12
527.331	17438.12
528.102	16596.12
528.873	15707.12
529.644	15022.12
530.415	14317.12
531.186	13613.12
531.957	12853.12
532.728	12252.12
533.498	11612.12
534.269	10976.12
535.039	10367.12
535.81	9812.12
536.58	9289.12
537.351	8793.12
538.121	8321.12
538.891	7887.12
539.661	7422.12
540.431	7039.12
541.201	6685.12
541.971	6383.12
542.741	6023.12
543.51	5681.12
544.28	5439.12
545.05	5179.12
545.819	4940.12
546.588	4708.12
547.358	4462.12
548.127	4280.12
548.896	4018.12
549.665	3812.12
550.434	3644.12
551.203	3436.12
551.972	3271.12
552.741	3092.12
553.51	2911.12
554.278	2726.12
555.047	2570.12
555.815	2451.12
556.584	2310.12
557.352	2180.12
558.121	2067.12
558.889	1940.12
559.657	1853.12
560.425	1760.12
561.193	1666.12
561.961	1566.12
562.729	1474.12
563.496	1409.12
564.264	1315.12
565.032	1245.12
565.799	1178.12
566.567	1105.12
567.334	1048.12
568.101	1003.12
568.869	940.12
569.636	881.12
570.403	842.12
571.17	787.12
571.937	753.12
572.704	712.12
573.471	672.12
574.237	634.12
575.004	585.12
575.771	563.12
576.537	530.12
577.303	514.12
578.07	474.12
578.836	439.12
579.602	421.12
580.368	390.12
581.134	375.12
581.9	358.12
582.666	341.12
583.432	325.12
584.198	310.12
584.964	296.12
585.729	277.12
586.495	265.12
587.26	249.12
588.025	239.12
588.791	226.12
589.556	213.12
590.321	205.12
591.086	194.12
591.851	182.12
592.616	176.12
593.381	163.12
594.146	156.12
594.911	153.12
595.675	143.12
596.44	132.12
597.204	132.12
597.969	126.12
598.733	124.12
599.497	109.12
600.261	112.12
601.025	108.12
601.79	106.12
602.553	94.12
603.317	95.12
604.081	88.12
604.845	88.12
605.609	83.12
606.372	80.12
607.136	77.12
607.899	69.12
608.662	68.12
609.426	64.12
610.189	65.12
610.952	66.12
611.715	62.12
612.478	54.12
613.241	55.12
614.004	52.12
614.767	52.12
615.529	47.12
616.292	50.12
617.055	47.12
617.817	46.12
618.579	39.12
619.342	40.12
620.104	42.12
620.866	41.12
621.628	40.12
622.39	40.12
623.152	36.12
623.914	39.12
624.676	36.12
625.438	36.12
626.199	37.12
626.961	29.12
627.722	28.12
628.484	29.12
629.245	30.12
630.006	28.12
630.768	27.12
631.529	28.12
632.29	24.12
633.051	25.12
633.812	23.12
634.573	23.12
635.333	23.12
636.094	22.12
636.855	20.12
637.615	22.12
638.376	21.12
639.136	20.12
639.896	20.12
640.657	20.12
641.417	17.12
642.177	20.12
642.937	14.12
643.697	15.12
644.457	17.12
645.216	15.12
645.976	16.12
646.736	15.12
647.495	17.12
648.255	16.12
649.014	14.12
649.774	14.12
650.533	15.12
651.292	14.12
652.051	10.12
652.81	16.12
653.569	14.12
654.328	7.12
655.087	10.12
655.846	12.12
656.604	12.12
657.363	11.12
658.121	11.12
658.88	11.12
659.638	10.12
660.397	12.12
661.155	12.12
661.913	10.12
662.671	11.12
663.429	10.12
664.187	7.12
664.945	11.12
665.703	10.12
666.46	7.12
667.218	10.12
667.976	9.12
668.733	8.12
669.49	9.12
670.248	9.12
671.005	8.12
671.762	9.12
672.519	9.12
673.276	7.12
674.033	8.12
674.79	9.12
675.547	8.12
676.304	8.12
677.06	7.12
677.817	8.12
678.574	10.12
679.33	8.12
680.086	9.12
680.843	8.12
681.599	7.12
682.355	9.12
683.111	6.12
683.867	8.12
684.623	8.12
685.379	8.12
686.135	7.12
686.89	8.12
687.646	7.12
688.402	5.12
689.157	6.12
689.912	8.12
690.668	8.12
691.423	8.12
692.178	6.12
692.933	8.12
693.688	8.12
694.443	8.12
695.198	9.12
695.953	7.12
696.708	6.12
697.462	6.12
698.217	6.12
698.972	7.12
699.726	7.12
700.48	7.12
701.235	6.12
701.989	6.12
702.743	8.12
703.497	6.12
704.251	7.12
705.005	8.12
705.759	7.12
706.513	6.12
707.266	7.12
708.02	4.12
708.774	7.12
709.527	6.12
710.28	8.12
711.034	4.12
711.787	6.12
712.54	5.12
713.293	5.12
714.046	7.12
714.799	8.12
715.552	7.12
716.305	8.12
717.058	7.12
717.81	8.12
718.563	7.12
719.315	6.12
720.068	7.12
720.82	10.12
721.573	9.12
722.325	7.12
723.077	6.12
723.829	9.12
724.581	8.12
725.333	9.12
726.085	9.12
726.836	12.12
727.588	8.12
728.34	9.12
729.091	7.12
729.843	10.12
730.594	9.12
731.346	8.12
732.097	9.12
732.848	10.12
733.599	6.12
734.35	8.12
735.101	10.12
735.852	7.12
736.603	7.12
737.354	8.12
738.104	11.12
738.855	10.12
739.605	10.12
740.356	9.12
741.106	9.12
741.856	10.12
742.607	9.12
743.357	9.12
744.107	9.12
744.857	7.12
745.607	8.12
746.357	9.12
747.106	10.12
747.856	8.12
748.606	9.12
749.355	9.12
750.105	9.12
750.854	10.12
751.603	11.12
752.353	10.12
753.102	10.12
753.851	12.12
754.6	10.12
755.349	12.12
756.098	12.12
756.847	14.12
757.595	10.12
758.344	11.12
759.093	14.12
759.841	10.12
760.589	13.12
761.338	11.12
762.086	10.12
762.834	13.12
763.582	11.12
764.331	12.12
765.079	16.12
765.826	13.12
766.574	13.12
767.322	12.12
768.07	13.12
768.817	11.12
769.565	15.12
770.312	14.12
771.06	16.12
771.807	13.12
772.554	11.12
773.302	13.12
774.049	15.12
774.796	14.12
775.543	17.12
776.29	13.12
777.036	15.12
777.783	15.12
778.53	17.12
779.276	14.12
780.023	13.12
780.769	15.12
781.516	13.12
782.262	16.12
783.008	16.12
783.754	15.12
784.5	13.12
785.246	14.12
785.992	12.12
786.738	16.12
787.484	16.12
788.23	12.12
788.975	14.12
789.721	16.12
790.466	14.12
791.212	13.12
791.957	16.12
792.702	15.12
793.447	11.12
794.193	14.12
794.938	16.12
795.683	11.12
796.427	14.12
797.172	11.12
797.917	10.12
798.662	13.12
799.406	11.12
800.151	14.12
800.895	8.12
801.64	10.12
802.384	12.12
803.128	8.12
803.872	12.12
804.616	9.12
805.36	10.12
806.104	12.12
806.848	6.12
807.592	9.12
808.336	10.12
809.079	11.12
809.823	11.12
810.566	11.12
811.31	10.12
812.053	7.12
812.796	10.12
813.539	7.12
814.283	10.12
815.026	8.12
815.769	8.12
816.511	7.12
817.254	7.12
817.997	9.12
818.74	7.12
819.482	7.12
820.225	8.12
820.967	10.12
821.71	7.12
822.452	8.12
823.194	6.12
823.936	7.12
824.678	5.12
825.42	7.12
826.162	6.12
826.904	8.12
827.646	8.12
828.388	4.12
829.129	5.12
829.871	4.12
830.612	6.12
831.354	6.12
832.095	5.12
832.836	4.12
833.577	4.12
834.319	5.12
835.06	3.12
835.801	7.12
836.542	4.12
837.282	5.12
838.023	6.12
838.764	7.12
839.504	5.12
840.245	6.12
840.985	6.12
841.726	5.12
842.466	7.12
843.206	4.12
843.946	5.12
844.687	5.12
845.427	4.12
846.166	6.12
846.906	4.12
847.646	3.12
848.386	7.12
849.125	6.12
849.865	4.12
850.605	2.12
851.344	4.12
852.083	2.12
852.823	2.12
853.562	3.12
854.301	1.12
855.04	2.12
855.779	2.12
856.518	4.12
857.257	2.12
857.995	4.12
858.734	4.12
859.473	2.12
860.211	2.12
860.95	3.12
861.688	5.12
862.426	3.12
863.165	2.12
863.903	2.12
864.641	4.12
865.379	2.12
866.117	3.12
866.855	4.12
867.593	5.12
868.33	1.12
869.068	1.12
869.806	1.12
870.543	1.12
871.28	0.12
872.018	0.12
872.755	3.12
873.492	1.12
874.229	2.12
874.967	3.12
875.703	3.12
876.44	1.12
877.177	0.12
877.914	4.12
878.651	0.12
879.387	0.12
880.124	1.12
880.86	1.12
881.597	3.12
882.333	2.12
883.069	1.12
883.806	2.12
884.542	0.12
885.278	1.12
886.014	1.12
886.749	1.12
887.485	2.12
888.221	0.12
888.957	0.12
889.692	-0.88
890.428	1.12
891.163	-0.88
891.899	1.12
892.634	0.12
893.369	0.12
894.104	1.12
894.839	0.12
895.574	0.12
896.309	0.12
897.044	0.12
897.779	1.12
898.514	0.12
899.248	1.12
899.983	0.12
900.717	1.12
901.452	2.12
902.186	1.12
902.92	1.12
903.654	0.12
904.389	-0.88
905.123	-0.88
905.857	0.12
906.59	0.12
907.324	0.12
908.058	0.12
908.792	0.12
909.525	2.12
910.259	-0.88
910.992	-0.88
911.726	-1.88
912.459	2.12
913.192	1.12
913.925	1.12
914.658	0.12
915.391	0.12
916.124	-1.88
916.857	-0.88
917.59	0.12
918.323	1.12
919.055	-1.88
919.788	0.12
920.521	2.12
921.253	-1.88
921.985	-0.88
922.718	2.12
923.45	2.12
924.182	0.12
924.914	2.12
925.646	-0.88
926.378	0.12
927.11	0.12
927.841	-1.88
928.573	-0.88
929.305	2.12
930.036	1.12
930.768	0.12
931.499	1.12
932.23	0.12
932.962	0.12
933.693	0.12
934.424	2.12
935.155	-1.88
935.886	-0.88
936.617	0.12
937.348	1.12
938.078	0.12
938.809	-1.88
939.54	1.12
940.27	1.12
941.001	-0.88
941.731	-0.88
942.461	-0.88
943.191	-0.88
943.922	0.12
944.652	1.12
945.382	0.12
946.112	-0.88
946.841	1.12
947.571	-1.88
948.301	-1.88
949.031	0.12
949.76	1.12
950.49	-0.88
951.219	-1.88
951.948	0.12
952.678	-0.88
953.407	1.12
954.136	-0.88
954.865	-0.88
955.594	1.12
956.323	-1.88
957.052	0.12
957.78	0.12
958.509	0.12
959.238	0.12
959.966	0.12
960.695	-1.88
961.423	0.12
962.151	-1.88
962.88	1.12
963.608	-1.88
964.336	0.12
965.064	0.12
965.792	2.12
966.52	0.12
967.247	-0.88
967.975	2.12
968.703	0.12
969.43	0.12
970.158	0.12
970.885	0.12
971.613	-0.88
972.34	-0.88
973.067	0.12
973.794	1.12
974.521	-1.88
975.248	0.12
975.975	0.12
976.702	0.12
977.429	-2.88
978.156	1.12
978.882	-1.88
979.609	1.12
980.335	-1.88
981.062	-0.88
981.788	1.12
982.514	-0.88
983.24	0.12
983.967	-0.88
984.693	-1.88
985.419	0.12
986.144	-0.88
986.87	-0.88
987.596	-1.88
988.322	-1.88
989.047	-2.88
989.773	1.12
990.498	-0.88
991.224	-1.88
991.949	0.12
992.674	-1.88
993.399	2.12
994.124	0.12
994.849	2.12
995.574	0.12
996.299	-0.88
997.024	0.12
997.749	-2.88
998.473	-0.88
999.198	0.12
999.922	1.12
1000.647	-0.88
1001.371	4.12
1002.095	-1.88
1002.82	-0.88
1003.544	-1.88
1004.268	4.12
1004.992	6.12
1005.716	3.12
1006.439	3.12
1007.163	6.12
1007.887	5.12
1008.611	0.12
1009.334	2.12
1010.058	0.12
1010.781	1.12
1011.504	-1.88
1012.228	-0.88
1012.951	-1.88
1013.674	0.12
1014.397	2.12
1015.12	0.12
