节点500_705_QEPB04081__618__20-54-43-775.txt的数据

Date: Wed Nov 12 20:54:43 CST 2025
User: PC
Spectrometer: QEPB0408
触发模式: 0
积分时间 (秒): 1.000000E-2
Scans to average: 1
启用暗噪声校正: true
启用非线性校正: false
滑动平均宽度: 0
X轴模式: Wavelengths
Number of Pixels in Spectrum: 1044
>>>>>Begin Spectral Data<<<<<
220.843	4.25
221.644	4.25
222.444	7.25
223.244	4.25
224.045	7.25
224.845	6.25
225.645	8.25
226.445	8.25
227.245	6.25
228.045	7.25
228.845	7.25
229.645	7.25
230.444	7.25
231.244	8.25
232.043	6.25
232.843	8.25
233.642	7.25
234.442	8.25
235.241	11.25
236.04	9.25
236.839	11.25
237.638	9.25
238.437	8.25
239.236	9.25
240.035	8.25
240.833	11.25
241.632	10.25
242.43	11.25
243.229	9.25
244.027	10.25
244.826	14.25
245.624	14.25
246.422	11.25
247.22	13.25
248.018	12.25
248.816	11.25
249.614	11.25
250.412	15.25
251.21	15.25
252.007	13.25
252.805	14.25
253.602	17.25
254.4	15.25
255.197	16.25
255.994	18.25
256.791	19.25
257.589	17.25
258.386	19.25
259.183	21.25
259.979	19.25
260.776	19.25
261.573	22.25
262.37	21.25
263.166	22.25
263.963	23.25
264.759	23.25
265.556	27.25
266.352	25.25
267.148	24.25
267.944	24.25
268.74	26.25
269.536	25.25
270.332	26.25
271.128	30.25
271.924	27.25
272.719	28.25
273.515	27.25
274.311	28.25
275.106	30.25
275.901	29.25
276.697	30.25
277.492	30.25
278.287	29.25
279.082	33.25
279.877	31.25
280.672	30.25
281.467	34.25
282.262	33.25
283.056	33.25
283.851	31.25
284.646	30.25
285.44	31.25
286.234	30.25
287.029	31.25
287.823	37.25
288.617	31.25
289.411	31.25
290.205	31.25
290.999	29.25
291.793	29.25
292.587	30.25
293.381	31.25
294.174	31.25
294.968	28.25
295.761	27.25
296.555	27.25
297.348	26.25
298.141	27.25
298.935	26.25
299.728	27.25
300.521	24.25
301.314	24.25
302.107	22.25
302.899	24.25
303.692	23.25
304.485	20.25
305.277	22.25
306.07	21.25
306.862	21.25
307.655	21.25
308.447	19.25
309.239	20.25
310.031	20.25
310.823	20.25
311.615	17.25
312.407	18.25
313.199	17.25
313.991	18.25
314.783	18.25
315.574	18.25
316.366	16.25
317.157	17.25
317.949	14.25
318.74	16.25
319.531	13.25
320.322	14.25
321.113	13.25
321.904	17.25
322.695	11.25
323.486	15.25
324.277	15.25
325.068	14.25
325.858	10.25
326.649	15.25
327.439	12.25
328.23	11.25
329.02	11.25
329.81	16.25
330.6	10.25
331.391	12.25
332.181	12.25
332.971	10.25
333.76	11.25
334.55	13.25
335.34	12.25
336.13	11.25
336.919	12.25
337.709	11.25
338.498	12.25
339.287	10.25
340.077	11.25
340.866	11.25
341.655	10.25
342.444	10.25
343.233	14.25
344.022	12.25
344.811	11.25
345.6	11.25
346.388	11.25
347.177	10.25
347.965	11.25
348.754	11.25
349.542	7.25
350.33	11.25
351.119	11.25
351.907	10.25
352.695	10.25
353.483	9.25
354.271	9.25
355.059	11.25
355.846	11.25
356.634	9.25
357.422	10.25
358.209	10.25
358.997	8.25
359.784	11.25
360.571	8.25
361.359	9.25
362.146	12.25
362.933	10.25
363.72	9.25
364.507	10.25
365.294	10.25
366.081	9.25
366.867	8.25
367.654	11.25
368.44	8.25
369.227	11.25
370.013	9.25
370.8	9.25
371.586	9.25
372.372	10.25
373.158	8.25
373.944	11.25
374.73	10.25
375.516	9.25
376.302	13.25
377.088	6.25
377.873	7.25
378.659	11.25
379.445	7.25
380.23	13.25
381.015	13.25
381.801	10.25
382.586	11.25
383.371	12.25
384.156	7.25
384.941	10.25
385.726	11.25
386.511	11.25
387.296	11.25
388.08	11.25
388.865	9.25
389.649	13.25
390.434	9.25
391.218	10.25
392.003	10.25
392.787	12.25
393.571	7.25
394.355	10.25
395.139	13.25
395.923	12.25
396.707	9.25
397.491	11.25
398.274	12.25
399.058	14.25
399.842	12.25
400.625	11.25
401.408	13.25
402.192	15.25
402.975	14.25
403.758	12.25
404.541	15.25
405.324	14.25
406.107	14.25
406.89	14.25
407.673	12.25
408.456	14.25
409.238	14.25
410.021	19.25
410.803	16.25
411.586	14.25
412.368	17.25
413.151	17.25
413.933	18.25
414.715	17.25
415.497	16.25
416.279	18.25
417.061	17.25
417.843	19.25
418.624	19.25
419.406	18.25
420.188	22.25
420.969	20.25
421.751	20.25
422.532	22.25
423.313	25.25
424.095	21.25
424.876	23.25
425.657	22.25
426.438	23.25
427.219	26.25
428	28.25
428.78	26.25
429.561	26.25
430.342	27.25
431.122	30.25
431.903	33.25
432.683	35.25
433.464	33.25
434.244	38.25
435.024	41.25
435.804	39.25
436.584	44.25
437.364	42.25
438.144	48.25
438.924	50.25
439.704	58.25
440.483	60.25
441.263	63.25
442.042	68.25
442.822	72.25
443.601	76.25
444.38	82.25
445.16	89.25
445.939	99.25
446.718	109.25
447.497	117.25
448.276	128.25
449.054	147.25
449.833	157.25
450.612	178.25
451.391	193.25
452.169	210.25
452.948	232.25
453.726	261.25
454.504	288.25
455.282	324.25
456.061	356.25
456.839	398.25
457.617	443.25
458.395	485.25
459.172	546.25
459.95	610.25
460.728	677.25
461.506	752.25
462.283	832.25
463.061	912.25
463.838	1031.25
464.615	1144.25
465.393	1252.25
466.17	1401.25
466.947	1531.25
467.724	1705.25
468.501	1863.25
469.278	2073.25
470.055	2270.25
470.831	2505.25
471.608	2744.25
472.385	3027.25
473.161	3302.25
473.938	3594.25
474.714	3961.25
475.49	4351.25
476.266	4707.25
477.043	5122.25
477.819	5558.25
478.595	6057.25
479.371	6529.25
480.146	7127.25
480.922	7790.25
481.698	8415.25
482.473	9112.25
483.249	9855.25
484.024	10647.25
484.8	11499.25
485.575	12396.25
486.35	13354.25
487.126	14405.25
487.901	15498.25
488.676	16612.25
489.451	17956.25
490.225	19235.25
491	20576.25
491.775	21943.25
492.55	23356.25
493.324	24908.25
494.099	26464.25
494.873	28075.25
495.647	29587.25
496.422	31141.25
497.196	32833.25
497.97	34301.25
498.744	35743.25
499.518	37275.25
500.292	38704.25
501.066	39756.25
501.839	40705.25
502.613	41638.25
503.387	42462.25
504.16	43058.25
504.934	43490.25
505.707	43673.25
506.48	43649.25
507.253	43419.25
508.027	43136.25
508.8	42559.25
509.573	42003.25
510.346	41238.25
511.118	40391.25
511.891	39542.25
512.664	38241.25
513.437	36946.25
514.209	35666.25
514.982	34490.25
515.754	33263.25
516.526	31944.25
517.298	30721.25
518.071	29497.25
518.843	28492.25
519.615	27297.25
520.387	26283.25
521.159	25314.25
521.93	24217.25
522.702	23224.25
523.474	22274.25
524.245	21372.25
525.017	20515.25
525.788	19673.25
526.56	18885.25
527.331	18030.25
528.102	17183.25
528.873	16371.25
529.644	15600.25
530.415	14917.25
531.186	14255.25
531.957	13569.25
532.728	12866.25
533.498	12286.25
534.269	11629.25
535.039	10986.25
535.81	10423.25
536.58	9871.25
537.351	9326.25
538.121	8849.25
538.891	8395.25
539.661	7960.25
540.431	7515.25
541.201	7125.25
541.971	6762.25
542.741	6390.25
543.51	6048.25
544.28	5762.25
545.05	5486.25
545.819	5258.25
546.588	4985.25
547.358	4766.25
548.127	4538.25
548.896	4316.25
549.665	4090.25
550.434	3886.25
551.203	3692.25
551.972	3499.25
552.741	3326.25
553.51	3132.25
554.278	2967.25
555.047	2802.25
555.815	2654.25
556.584	2527.25
557.352	2374.25
558.121	2254.25
558.889	2111.25
559.657	1999.25
560.425	1908.25
561.193	1811.25
561.961	1710.25
562.729	1609.25
563.496	1527.25
564.264	1438.25
565.032	1350.25
565.799	1297.25
566.567	1218.25
567.334	1152.25
568.101	1086.25
568.869	1037.25
569.636	970.25
570.403	914.25
571.17	863.25
571.937	821.25
572.704	788.25
573.471	740.25
574.237	685.25
575.004	655.25
575.771	613.25
576.537	570.25
577.303	545.25
578.07	512.25
578.836	489.25
579.602	460.25
580.368	450.25
581.134	413.25
581.9	396.25
582.666	377.25
583.432	361.25
584.198	346.25
584.964	320.25
585.729	300.25
586.495	291.25
587.26	271.25
588.025	255.25
588.791	243.25
589.556	228.25
590.321	226.25
591.086	207.25
591.851	203.25
592.616	185.25
593.381	180.25
594.146	176.25
594.911	167.25
595.675	154.25
596.44	151.25
597.204	148.25
597.969	134.25
598.733	135.25
599.497	122.25
600.261	117.25
601.025	113.25
601.79	106.25
602.553	105.25
603.317	99.25
604.081	96.25
604.845	94.25
605.609	88.25
606.372	85.25
607.136	83.25
607.899	80.25
608.662	78.25
609.426	72.25
610.189	68.25
610.952	67.25
611.715	66.25
612.478	63.25
613.241	66.25
614.004	57.25
614.767	58.25
615.529	52.25
616.292	54.25
617.055	53.25
617.817	49.25
618.579	47.25
619.342	47.25
620.104	43.25
620.866	45.25
621.628	40.25
622.39	41.25
623.152	36.25
623.914	40.25
624.676	36.25
625.438	36.25
626.199	33.25
626.961	31.25
627.722	35.25
628.484	31.25
629.245	29.25
630.006	32.25
630.768	26.25
631.529	28.25
632.29	25.25
633.051	27.25
633.812	29.25
634.573	24.25
635.333	22.25
636.094	25.25
636.855	23.25
637.615	24.25
638.376	21.25
639.136	21.25
639.896	21.25
640.657	19.25
641.417	19.25
642.177	17.25
642.937	18.25
643.697	15.25
644.457	20.25
645.216	16.25
645.976	17.25
646.736	14.25
647.495	14.25
648.255	14.25
649.014	13.25
649.774	14.25
650.533	15.25
651.292	14.25
652.051	13.25
652.81	14.25
653.569	13.25
654.328	13.25
655.087	13.25
655.846	15.25
656.604	11.25
657.363	10.25
658.121	11.25
658.88	12.25
659.638	9.25
660.397	12.25
661.155	11.25
661.913	10.25
662.671	11.25
663.429	9.25
664.187	7.25
664.945	11.25
665.703	12.25
666.46	10.25
667.218	10.25
667.976	12.25
668.733	11.25
669.49	9.25
670.248	9.25
671.005	12.25
671.762	11.25
672.519	12.25
673.276	9.25
674.033	8.25
674.79	13.25
675.547	7.25
676.304	8.25
677.06	11.25
677.817	9.25
678.574	8.25
679.33	9.25
680.086	8.25
680.843	11.25
681.599	9.25
682.355	11.25
683.111	8.25
683.867	8.25
684.623	6.25
685.379	8.25
686.135	9.25
686.89	7.25
687.646	9.25
688.402	8.25
689.157	7.25
689.912	8.25
690.668	9.25
691.423	11.25
692.178	7.25
692.933	7.25
693.688	7.25
694.443	7.25
695.198	6.25
695.953	7.25
696.708	7.25
697.462	8.25
698.217	8.25
698.972	8.25
699.726	6.25
700.48	5.25
701.235	5.25
701.989	9.25
702.743	7.25
703.497	10.25
704.251	8.25
705.005	9.25
705.759	6.25
706.513	6.25
707.266	9.25
708.02	8.25
708.774	8.25
709.527	7.25
710.28	8.25
711.034	5.25
711.787	6.25
712.54	6.25
713.293	7.25
714.046	7.25
714.799	7.25
715.552	6.25
716.305	8.25
717.058	9.25
717.81	6.25
718.563	7.25
719.315	5.25
720.068	9.25
720.82	6.25
721.573	9.25
722.325	7.25
723.077	7.25
723.829	8.25
724.581	7.25
725.333	7.25
726.085	9.25
726.836	8.25
727.588	7.25
728.34	9.25
729.091	8.25
729.843	6.25
730.594	11.25
731.346	10.25
732.097	8.25
732.848	9.25
733.599	8.25
734.35	9.25
735.101	10.25
735.852	8.25
736.603	11.25
737.354	8.25
738.104	7.25
738.855	9.25
739.605	8.25
740.356	9.25
741.106	9.25
741.856	8.25
742.607	8.25
743.357	11.25
744.107	8.25
744.857	11.25
745.607	10.25
746.357	7.25
747.106	12.25
747.856	8.25
748.606	10.25
749.355	8.25
750.105	11.25
750.854	8.25
751.603	10.25
752.353	10.25
753.102	8.25
753.851	10.25
754.6	12.25
755.349	10.25
756.098	11.25
756.847	11.25
757.595	10.25
758.344	10.25
759.093	11.25
759.841	14.25
760.589	12.25
761.338	12.25
762.086	12.25
762.834	10.25
763.582	15.25
764.331	13.25
765.079	14.25
765.826	15.25
766.574	15.25
767.322	12.25
768.07	12.25
768.817	13.25
769.565	13.25
770.312	13.25
771.06	14.25
771.807	14.25
772.554	14.25
773.302	11.25
774.049	15.25
774.796	12.25
775.543	14.25
776.29	13.25
777.036	15.25
777.783	15.25
778.53	12.25
779.276	16.25
780.023	15.25
780.769	18.25
781.516	15.25
782.262	14.25
783.008	15.25
783.754	14.25
784.5	15.25
785.246	15.25
785.992	17.25
786.738	14.25
787.484	15.25
788.23	15.25
788.975	14.25
789.721	13.25
790.466	13.25
791.212	16.25
791.957	14.25
792.702	16.25
793.447	14.25
794.193	11.25
794.938	14.25
795.683	13.25
796.427	14.25
797.172	12.25
797.917	13.25
798.662	13.25
799.406	12.25
800.151	12.25
800.895	11.25
801.64	11.25
802.384	13.25
803.128	9.25
803.872	14.25
804.616	10.25
805.36	9.25
806.104	11.25
806.848	9.25
807.592	9.25
808.336	7.25
809.079	11.25
809.823	9.25
810.566	9.25
811.31	10.25
812.053	8.25
812.796	9.25
813.539	8.25
814.283	10.25
815.026	9.25
815.769	8.25
816.511	10.25
817.254	7.25
817.997	8.25
818.74	6.25
819.482	7.25
820.225	8.25
820.967	9.25
821.71	8.25
822.452	7.25
823.194	6.25
823.936	7.25
824.678	8.25
825.42	7.25
826.162	8.25
826.904	8.25
827.646	8.25
828.388	6.25
829.129	6.25
829.871	7.25
830.612	7.25
831.354	7.25
832.095	7.25
832.836	8.25
833.577	5.25
834.319	7.25
835.06	5.25
835.801	9.25
836.542	5.25
837.282	5.25
838.023	7.25
838.764	4.25
839.504	4.25
840.245	5.25
840.985	5.25
841.726	6.25
842.466	6.25
843.206	4.25
843.946	3.25
844.687	3.25
845.427	3.25
846.166	5.25
846.906	3.25
847.646	4.25
848.386	5.25
849.125	4.25
849.865	7.25
850.605	3.25
851.344	5.25
852.083	6.25
852.823	6.25
853.562	5.25
854.301	2.25
855.04	6.25
855.779	7.25
856.518	6.25
857.257	2.25
857.995	3.25
858.734	5.25
859.473	1.25
860.211	5.25
860.95	3.25
861.688	2.25
862.426	4.25
863.165	3.25
863.903	3.25
864.641	5.25
865.379	2.25
866.117	4.25
866.855	2.25
867.593	4.25
868.33	3.25
869.068	2.25
869.806	2.25
870.543	3.25
871.28	3.25
872.018	3.25
872.755	3.25
873.492	3.25
874.229	4.25
874.967	3.25
875.703	2.25
876.44	2.25
877.177	1.25
877.914	3.25
878.651	2.25
879.387	1.25
880.124	1.25
880.86	1.25
881.597	2.25
882.333	1.25
883.069	2.25
883.806	3.25
884.542	3.25
885.278	3.25
886.014	1.25
886.749	4.25
887.485	1.25
888.221	2.25
888.957	2.25
889.692	1.25
890.428	1.25
891.163	-0.75
891.899	3.25
892.634	2.25
893.369	1.25
894.104	-0.75
894.839	2.25
895.574	1.25
896.309	-1.75
897.044	4.25
897.779	2.25
898.514	2.25
899.248	2.25
899.983	1.25
900.717	2.25
901.452	0.25
902.186	3.25
902.92	0.25
903.654	1.25
904.389	0.25
905.123	1.25
905.857	3.25
906.59	0.25
907.324	1.25
908.058	1.25
908.792	-0.75
909.525	1.25
910.259	1.25
910.992	3.25
911.726	1.25
912.459	1.25
913.192	0.25
913.925	-1.75
914.658	2.25
915.391	1.25
916.124	2.25
916.857	1.25
917.59	-0.75
918.323	1.25
919.055	-0.75
919.788	0.25
920.521	0.25
921.253	1.25
921.985	0.25
922.718	1.25
923.45	0.25
924.182	-0.75
924.914	0.25
925.646	1.25
926.378	1.25
927.11	2.25
927.841	-1.75
928.573	1.25
929.305	0.25
930.036	-0.75
930.768	-0.75
931.499	2.25
932.23	-0.75
932.962	2.25
933.693	2.25
934.424	-0.75
935.155	2.25
935.886	2.25
936.617	-0.75
937.348	1.25
938.078	1.25
938.809	2.25
939.54	1.25
940.27	0.25
941.001	-0.75
941.731	0.25
942.461	1.25
943.191	2.25
943.922	1.25
944.652	0.25
945.382	1.25
946.112	-0.75
946.841	1.25
947.571	0.25
948.301	0.25
949.031	1.25
949.76	3.25
950.49	0.25
951.219	2.25
951.948	0.25
952.678	3.25
953.407	1.25
954.136	0.25
954.865	-1.75
955.594	-1.75
956.323	1.25
957.052	-0.75
957.78	0.25
958.509	2.25
959.238	0.25
959.966	1.25
960.695	-0.75
961.423	1.25
962.151	0.25
962.88	0.25
963.608	0.25
964.336	1.25
965.064	1.25
965.792	2.25
966.52	3.25
967.247	1.25
967.975	3.25
968.703	2.25
969.43	-0.75
970.158	-0.75
970.885	1.25
971.613	1.25
972.34	2.25
973.067	1.25
973.794	-0.75
974.521	1.25
975.248	2.25
975.975	0.25
976.702	0.25
977.429	2.25
978.156	-0.75
978.882	3.25
979.609	-0.75
980.335	1.25
981.062	0.25
981.788	2.25
982.514	-0.75
983.24	2.25
983.967	0.25
984.693	-1.75
985.419	0.25
986.144	2.25
986.87	0.25
987.596	0.25
988.322	0.25
989.047	0.25
989.773	-0.75
990.498	-0.75
991.224	-0.75
991.949	-0.75
992.674	2.25
993.399	3.25
994.124	2.25
994.849	3.25
995.574	0.25
996.299	1.25
997.024	1.25
997.749	1.25
998.473	0.25
999.198	1.25
999.922	-0.75
1000.647	0.25
1001.371	4.25
1002.095	-0.75
1002.82	0.25
1003.544	-1.75
1004.268	5.25
1004.992	3.25
1005.716	3.25
1006.439	4.25
1007.163	6.25
1007.887	5.25
1008.611	0.25
1009.334	1.25
1010.058	1.25
1010.781	-0.75
1011.504	0.25
1012.228	2.25
1012.951	-0.75
1013.674	-0.75
1014.397	0.25
1015.12	-0.75
