节点500_705_QEPB04081__676__20-55-32-819.txt的数据

Date: Wed Nov 12 20:55:32 CST 2025
User: PC
Spectrometer: QEPB0408
触发模式: 0
积分时间 (秒): 1.000000E-2
Scans to average: 1
启用暗噪声校正: true
启用非线性校正: false
滑动平均宽度: 0
X轴模式: Wavelengths
Number of Pixels in Spectrum: 1044
>>>>>Begin Spectral Data<<<<<
220.843	3.75
221.644	2.75
222.444	5.75
223.244	5.75
224.045	5.75
224.845	4.75
225.645	4.75
226.445	4.75
227.245	8.75
228.045	9.75
228.845	6.75
229.645	6.75
230.444	6.75
231.244	4.75
232.043	7.75
232.843	7.75
233.642	6.75
234.442	8.75
235.241	10.75
236.04	8.75
236.839	10.75
237.638	11.75
238.437	11.75
239.236	9.75
240.035	11.75
240.833	9.75
241.632	12.75
242.43	10.75
243.229	12.75
244.027	9.75
244.826	12.75
245.624	12.75
246.422	13.75
247.22	12.75
248.018	13.75
248.816	11.75
249.614	14.75
250.412	14.75
251.21	14.75
252.007	14.75
252.805	13.75
253.602	15.75
254.4	13.75
255.197	17.75
255.994	16.75
256.791	17.75
257.589	16.75
258.386	15.75
259.183	18.75
259.979	21.75
260.776	21.75
261.573	16.75
262.37	20.75
263.166	21.75
263.963	17.75
264.759	19.75
265.556	21.75
266.352	23.75
267.148	24.75
267.944	24.75
268.74	22.75
269.536	26.75
270.332	26.75
271.128	24.75
271.924	30.75
272.719	26.75
273.515	28.75
274.311	27.75
275.106	27.75
275.901	30.75
276.697	28.75
277.492	29.75
278.287	32.75
279.082	29.75
279.877	29.75
280.672	31.75
281.467	32.75
282.262	31.75
283.056	32.75
283.851	28.75
284.646	30.75
285.44	28.75
286.234	29.75
287.029	33.75
287.823	28.75
288.617	27.75
289.411	31.75
290.205	31.75
290.999	30.75
291.793	26.75
292.587	32.75
293.381	26.75
294.174	28.75
294.968	28.75
295.761	23.75
296.555	25.75
297.348	25.75
298.141	26.75
298.935	29.75
299.728	24.75
300.521	23.75
301.314	23.75
302.107	23.75
302.899	22.75
303.692	22.75
304.485	23.75
305.277	21.75
306.07	23.75
306.862	16.75
307.655	25.75
308.447	22.75
309.239	20.75
310.031	19.75
310.823	18.75
311.615	14.75
312.407	17.75
313.199	17.75
313.991	16.75
314.783	17.75
315.574	17.75
316.366	12.75
317.157	13.75
317.949	10.75
318.74	13.75
319.531	12.75
320.322	10.75
321.113	14.75
321.904	10.75
322.695	15.75
323.486	14.75
324.277	12.75
325.068	11.75
325.858	13.75
326.649	11.75
327.439	10.75
328.23	12.75
329.02	11.75
329.81	11.75
330.6	10.75
331.391	12.75
332.181	15.75
332.971	8.75
333.76	10.75
334.55	12.75
335.34	12.75
336.13	10.75
336.919	12.75
337.709	12.75
338.498	10.75
339.287	11.75
340.077	11.75
340.866	11.75
341.655	13.75
342.444	11.75
343.233	11.75
344.022	12.75
344.811	12.75
345.6	9.75
346.388	11.75
347.177	12.75
347.965	10.75
348.754	11.75
349.542	11.75
350.33	9.75
351.119	9.75
351.907	10.75
352.695	12.75
353.483	12.75
354.271	10.75
355.059	11.75
355.846	9.75
356.634	6.75
357.422	10.75
358.209	9.75
358.997	9.75
359.784	7.75
360.571	8.75
361.359	9.75
362.146	9.75
362.933	10.75
363.72	9.75
364.507	9.75
365.294	8.75
366.081	6.75
366.867	10.75
367.654	10.75
368.44	8.75
369.227	7.75
370.013	8.75
370.8	8.75
371.586	11.75
372.372	8.75
373.158	9.75
373.944	7.75
374.73	8.75
375.516	9.75
376.302	7.75
377.088	8.75
377.873	8.75
378.659	9.75
379.445	10.75
380.23	9.75
381.015	9.75
381.801	8.75
382.586	9.75
383.371	8.75
384.156	7.75
384.941	11.75
385.726	12.75
386.511	9.75
387.296	10.75
388.08	10.75
388.865	9.75
389.649	9.75
390.434	10.75
391.218	8.75
392.003	10.75
392.787	11.75
393.571	7.75
394.355	12.75
395.139	9.75
395.923	9.75
396.707	9.75
397.491	11.75
398.274	11.75
399.058	12.75
399.842	13.75
400.625	12.75
401.408	11.75
402.192	14.75
402.975	12.75
403.758	11.75
404.541	11.75
405.324	12.75
406.107	13.75
406.89	13.75
407.673	13.75
408.456	11.75
409.238	15.75
410.021	12.75
410.803	16.75
411.586	14.75
412.368	15.75
413.151	14.75
413.933	12.75
414.715	17.75
415.497	16.75
416.279	14.75
417.061	16.75
417.843	20.75
418.624	18.75
419.406	17.75
420.188	21.75
420.969	21.75
421.751	22.75
422.532	20.75
423.313	21.75
424.095	22.75
424.876	20.75
425.657	22.75
426.438	24.75
427.219	22.75
428	23.75
428.78	26.75
429.561	26.75
430.342	32.75
431.122	30.75
431.903	31.75
432.683	32.75
433.464	38.75
434.244	34.75
435.024	38.75
435.804	41.75
436.584	42.75
437.364	45.75
438.144	45.75
438.924	49.75
439.704	54.75
440.483	60.75
441.263	64.75
442.042	66.75
442.822	71.75
443.601	77.75
444.38	84.75
445.16	90.75
445.939	97.75
446.718	111.75
447.497	118.75
448.276	128.75
449.054	142.75
449.833	156.75
450.612	168.75
451.391	195.75
452.169	212.75
452.948	228.75
453.726	263.75
454.504	284.75
455.282	320.75
456.061	360.75
456.839	394.75
457.617	433.75
458.395	480.75
459.172	551.75
459.95	598.75
460.728	664.75
461.506	744.75
462.283	829.75
463.061	929.75
463.838	1028.75
464.615	1139.75
465.393	1254.75
466.17	1386.75
466.947	1552.75
467.724	1697.75
468.501	1888.75
469.278	2077.75
470.055	2289.75
470.831	2494.75
471.608	2761.75
472.385	3013.75
473.161	3314.75
473.938	3631.75
474.714	3970.75
475.49	4330.75
476.266	4715.75
477.043	5132.75
477.819	5576.75
478.595	6065.75
479.371	6565.75
480.146	7126.75
480.922	7774.75
481.698	8429.75
482.473	9099.75
483.249	9849.75
484.024	10656.75
484.8	11507.75
485.575	12364.75
486.35	13312.75
487.126	14360.75
487.901	15502.75
488.676	16638.75
489.451	17861.75
490.225	19135.75
491	20488.75
491.775	21869.75
492.55	23290.75
493.324	24786.75
494.099	26323.75
494.873	27857.75
495.647	29419.75
496.422	31017.75
497.196	32633.75
497.97	34130.75
498.744	35609.75
499.518	37140.75
500.292	38518.75
501.066	39569.75
501.839	40553.75
502.613	41525.75
503.387	42333.75
504.16	42912.75
504.934	43305.75
505.707	43576.75
506.48	43552.75
507.253	43425.75
508.027	43083.75
508.8	42596.75
509.573	41955.75
510.346	41210.75
511.118	40407.75
511.891	39409.75
512.664	38142.75
513.437	36989.75
514.209	35743.75
514.982	34510.75
515.754	33264.75
516.526	31986.75
517.298	30758.75
518.071	29658.75
518.843	28512.75
519.615	27345.75
520.387	26251.75
521.159	25243.75
521.93	24297.75
522.702	23292.75
523.474	22296.75
524.245	21395.75
525.017	20542.75
525.788	19674.75
526.56	18842.75
527.331	18118.75
528.102	17222.75
528.873	16441.75
529.644	15651.75
530.415	14950.75
531.186	14255.75
531.957	13579.75
532.728	12890.75
533.498	12295.75
534.269	11613.75
535.039	11015.75
535.81	10454.75
536.58	9881.75
537.351	9409.75
538.121	8915.75
538.891	8403.75
539.661	7930.75
540.431	7521.75
541.201	7150.75
541.971	6795.75
542.741	6422.75
543.51	6085.75
544.28	5805.75
545.05	5484.75
545.819	5245.75
546.588	5016.75
547.358	4786.75
548.127	4546.75
548.896	4343.75
549.665	4093.75
550.434	3896.75
551.203	3703.75
551.972	3527.75
552.741	3324.75
553.51	3144.75
554.278	2988.75
555.047	2826.75
555.815	2671.75
556.584	2519.75
557.352	2376.75
558.121	2273.75
558.889	2134.75
559.657	2009.75
560.425	1896.75
561.193	1812.75
561.961	1707.75
562.729	1606.75
563.496	1518.75
564.264	1458.75
565.032	1360.75
565.799	1294.75
566.567	1218.75
567.334	1162.75
568.101	1096.75
568.869	1030.75
569.636	968.75
570.403	928.75
571.17	868.75
571.937	804.75
572.704	764.75
573.471	736.75
574.237	683.75
575.004	645.75
575.771	607.75
576.537	571.75
577.303	543.75
578.07	518.75
578.836	500.75
579.602	462.75
580.368	436.75
581.134	422.75
581.9	395.75
582.666	371.75
583.432	358.75
584.198	345.75
584.964	323.75
585.729	308.75
586.495	295.75
587.26	270.75
588.025	255.75
588.791	241.75
589.556	233.75
590.321	225.75
591.086	209.75
591.851	201.75
592.616	187.75
593.381	180.75
594.146	172.75
594.911	163.75
595.675	149.75
596.44	147.75
597.204	139.75
597.969	134.75
598.733	133.75
599.497	125.75
600.261	115.75
601.025	116.75
601.79	112.75
602.553	108.75
603.317	104.75
604.081	96.75
604.845	93.75
605.609	86.75
606.372	85.75
607.136	85.75
607.899	74.75
608.662	77.75
609.426	69.75
610.189	69.75
610.952	67.75
611.715	64.75
612.478	64.75
613.241	58.75
614.004	57.75
614.767	55.75
615.529	54.75
616.292	52.75
617.055	50.75
617.817	49.75
618.579	44.75
619.342	45.75
620.104	45.75
620.866	42.75
621.628	42.75
622.39	42.75
623.152	39.75
623.914	37.75
624.676	35.75
625.438	36.75
626.199	31.75
626.961	32.75
627.722	32.75
628.484	29.75
629.245	29.75
630.006	28.75
630.768	29.75
631.529	27.75
632.29	25.75
633.051	24.75
633.812	24.75
634.573	26.75
635.333	21.75
636.094	23.75
636.855	22.75
637.615	19.75
638.376	18.75
639.136	22.75
639.896	17.75
640.657	20.75
641.417	21.75
642.177	17.75
642.937	17.75
643.697	20.75
644.457	16.75
645.216	17.75
645.976	16.75
646.736	15.75
647.495	14.75
648.255	16.75
649.014	15.75
649.774	14.75
650.533	14.75
651.292	12.75
652.051	9.75
652.81	14.75
653.569	11.75
654.328	13.75
655.087	11.75
655.846	12.75
656.604	11.75
657.363	10.75
658.121	13.75
658.88	9.75
659.638	10.75
660.397	9.75
661.155	10.75
661.913	13.75
662.671	8.75
663.429	12.75
664.187	11.75
664.945	8.75
665.703	11.75
666.46	10.75
667.218	10.75
667.976	9.75
668.733	8.75
669.49	10.75
670.248	8.75
671.005	9.75
671.762	8.75
672.519	6.75
673.276	7.75
674.033	9.75
674.79	9.75
675.547	9.75
676.304	9.75
677.06	8.75
677.817	9.75
678.574	7.75
679.33	6.75
680.086	9.75
680.843	7.75
681.599	7.75
682.355	7.75
683.111	7.75
683.867	8.75
684.623	5.75
685.379	9.75
686.135	7.75
686.89	9.75
687.646	6.75
688.402	7.75
689.157	6.75
689.912	7.75
690.668	8.75
691.423	6.75
692.178	8.75
692.933	6.75
693.688	7.75
694.443	7.75
695.198	8.75
695.953	10.75
696.708	8.75
697.462	8.75
698.217	5.75
698.972	4.75
699.726	5.75
700.48	6.75
701.235	5.75
701.989	5.75
702.743	7.75
703.497	5.75
704.251	7.75
705.005	4.75
705.759	2.75
706.513	4.75
707.266	7.75
708.02	5.75
708.774	8.75
709.527	8.75
710.28	10.75
711.034	8.75
711.787	8.75
712.54	4.75
713.293	8.75
714.046	6.75
714.799	5.75
715.552	4.75
716.305	5.75
717.058	7.75
717.81	6.75
718.563	5.75
719.315	8.75
720.068	6.75
720.82	5.75
721.573	7.75
722.325	8.75
723.077	8.75
723.829	7.75
724.581	4.75
725.333	8.75
726.085	6.75
726.836	6.75
727.588	6.75
728.34	7.75
729.091	7.75
729.843	7.75
730.594	7.75
731.346	6.75
732.097	7.75
732.848	8.75
733.599	7.75
734.35	10.75
735.101	9.75
735.852	9.75
736.603	10.75
737.354	10.75
738.104	8.75
738.855	8.75
739.605	9.75
740.356	9.75
741.106	8.75
741.856	9.75
742.607	5.75
743.357	8.75
744.107	7.75
744.857	7.75
745.607	9.75
746.357	10.75
747.106	7.75
747.856	8.75
748.606	9.75
749.355	9.75
750.105	10.75
750.854	10.75
751.603	7.75
752.353	10.75
753.102	10.75
753.851	8.75
754.6	11.75
755.349	10.75
756.098	9.75
756.847	11.75
757.595	9.75
758.344	11.75
759.093	11.75
759.841	12.75
760.589	10.75
761.338	11.75
762.086	8.75
762.834	10.75
763.582	12.75
764.331	12.75
765.079	10.75
765.826	10.75
766.574	10.75
767.322	10.75
768.07	13.75
768.817	10.75
769.565	10.75
770.312	16.75
771.06	13.75
771.807	12.75
772.554	15.75
773.302	12.75
774.049	13.75
774.796	13.75
775.543	11.75
776.29	13.75
777.036	14.75
777.783	13.75
778.53	13.75
779.276	15.75
780.023	13.75
780.769	11.75
781.516	16.75
782.262	12.75
783.008	13.75
783.754	14.75
784.5	14.75
785.246	11.75
785.992	14.75
786.738	12.75
787.484	14.75
788.23	15.75
788.975	12.75
789.721	12.75
790.466	14.75
791.212	12.75
791.957	13.75
792.702	12.75
793.447	12.75
794.193	14.75
794.938	11.75
795.683	12.75
796.427	11.75
797.172	12.75
797.917	14.75
798.662	8.75
799.406	13.75
800.151	11.75
800.895	11.75
801.64	12.75
802.384	9.75
803.128	12.75
803.872	12.75
804.616	11.75
805.36	9.75
806.104	10.75
806.848	10.75
807.592	8.75
808.336	8.75
809.079	7.75
809.823	8.75
810.566	10.75
811.31	8.75
812.053	7.75
812.796	8.75
813.539	11.75
814.283	9.75
815.026	8.75
815.769	7.75
816.511	5.75
817.254	9.75
817.997	9.75
818.74	8.75
819.482	6.75
820.225	6.75
820.967	5.75
821.71	4.75
822.452	5.75
823.194	6.75
823.936	7.75
824.678	6.75
825.42	5.75
826.162	6.75
826.904	5.75
827.646	5.75
828.388	5.75
829.129	4.75
829.871	3.75
830.612	2.75
831.354	3.75
832.095	6.75
832.836	5.75
833.577	3.75
834.319	5.75
835.06	5.75
835.801	5.75
836.542	5.75
837.282	6.75
838.023	7.75
838.764	5.75
839.504	3.75
840.245	4.75
840.985	3.75
841.726	4.75
842.466	5.75
843.206	2.75
843.946	4.75
844.687	5.75
845.427	4.75
846.166	4.75
846.906	4.75
847.646	2.75
848.386	3.75
849.125	5.75
849.865	2.75
850.605	3.75
851.344	5.75
852.083	4.75
852.823	4.75
853.562	5.75
854.301	5.75
855.04	2.75
855.779	4.75
856.518	2.75
857.257	2.75
857.995	4.75
858.734	3.75
859.473	2.75
860.211	5.75
860.95	3.75
861.688	2.75
862.426	4.75
863.165	1.75
863.903	2.75
864.641	1.75
865.379	3.75
866.117	0.75
866.855	2.75
867.593	1.75
868.33	2.75
869.068	0.75
869.806	2.75
870.543	2.75
871.28	4.75
872.018	0.75
872.755	2.75
873.492	2.75
874.229	1.75
874.967	0.75
875.703	1.75
876.44	1.75
877.177	1.75
877.914	1.75
878.651	2.75
879.387	1.75
880.124	0.75
880.86	1.75
881.597	1.75
882.333	1.75
883.069	1.75
883.806	1.75
884.542	1.75
885.278	1.75
886.014	0.75
886.749	1.75
887.485	2.75
888.221	2.75
888.957	2.75
889.692	1.75
890.428	2.75
891.163	1.75
891.899	-2.25
892.634	1.75
893.369	2.75
894.104	-0.25
894.839	0.75
895.574	0.75
896.309	-0.25
897.044	1.75
897.779	0.75
898.514	1.75
899.248	1.75
899.983	1.75
900.717	-0.25
901.452	2.75
902.186	1.75
902.92	0.75
903.654	-1.25
904.389	1.75
905.123	1.75
905.857	1.75
906.59	2.75
907.324	1.75
908.058	-1.25
908.792	0.75
909.525	-1.25
910.259	1.75
910.992	0.75
911.726	-0.25
912.459	-1.25
913.192	0.75
913.925	1.75
914.658	0.75
915.391	1.75
916.124	-1.25
916.857	-1.25
917.59	-0.25
918.323	-2.25
919.055	1.75
919.788	2.75
920.521	0.75
921.253	1.75
921.985	1.75
922.718	-0.25
923.45	-1.25
924.182	-1.25
924.914	-1.25
925.646	0.75
926.378	-2.25
927.11	0.75
927.841	0.75
928.573	-0.25
929.305	-0.25
930.036	1.75
930.768	-0.25
931.499	1.75
932.23	-1.25
932.962	-1.25
933.693	-0.25
934.424	1.75
935.155	0.75
935.886	-0.25
936.617	0.75
937.348	-2.25
938.078	-0.25
938.809	0.75
939.54	-0.25
940.27	0.75
941.001	-1.25
941.731	0.75
942.461	-1.25
943.191	0.75
943.922	-0.25
944.652	0.75
945.382	-1.25
946.112	0.75
946.841	-0.25
947.571	0.75
948.301	-0.25
949.031	-1.25
949.76	-1.25
950.49	-1.25
951.219	-0.25
951.948	1.75
952.678	-0.25
953.407	-0.25
954.136	-0.25
954.865	-0.25
955.594	-0.25
956.323	-1.25
957.052	-0.25
957.78	-0.25
958.509	-0.25
959.238	0.75
959.966	-1.25
960.695	0.75
961.423	0.75
962.151	0.75
962.88	0.75
963.608	1.75
964.336	-0.25
965.064	0.75
965.792	0.75
966.52	0.75
967.247	0.75
967.975	0.75
968.703	1.75
969.43	-0.25
970.158	-1.25
970.885	3.75
971.613	-0.25
972.34	-1.25
973.067	0.75
973.794	-3.25
974.521	-0.25
975.248	-3.25
975.975	-0.25
976.702	0.75
977.429	-0.25
978.156	-1.25
978.882	-1.25
979.609	0.75
980.335	-0.25
981.062	-1.25
981.788	-0.25
982.514	0.75
983.24	0.75
983.967	-1.25
984.693	-0.25
985.419	-2.25
986.144	1.75
986.87	0.75
987.596	-2.25
988.322	1.75
989.047	-1.25
989.773	2.75
990.498	-1.25
991.224	-2.25
991.949	1.75
992.674	0.75
993.399	0.75
994.124	0.75
994.849	-0.25
995.574	-0.25
996.299	0.75
997.024	0.75
997.749	0.75
998.473	1.75
999.198	0.75
999.922	-2.25
1000.647	0.75
1001.371	2.75
1002.095	0.75
1002.82	-1.25
1003.544	-1.25
1004.268	3.75
1004.992	4.75
1005.716	4.75
1006.439	1.75
1007.163	5.75
1007.887	2.75
1008.611	-1.25
1009.334	0.75
1010.058	0.75
1010.781	-1.25
1011.504	0.75
1012.228	-0.25
1012.951	-0.25
1013.674	0.75
1014.397	-0.25
1015.12	-1.25
