节点500_705_QEPB04081__113__20-47-46-123.txt的数据

Date: Wed Nov 12 20:47:46 CST 2025
User: PC
Spectrometer: QEPB0408
触发模式: 0
积分时间 (秒): 1.000000E-2
Scans to average: 1
启用暗噪声校正: true
启用非线性校正: false
滑动平均宽度: 0
X轴模式: Wavelengths
Number of Pixels in Spectrum: 1044
>>>>>Begin Spectral Data<<<<<
220.843	4.75
221.644	5.75
222.444	6.75
223.244	6.75
224.045	7.75
224.845	6.75
225.645	5.75
226.445	6.75
227.245	4.75
228.045	8.75
228.845	8.75
229.645	6.75
230.444	10.75
231.244	7.75
232.043	7.75
232.843	7.75
233.642	8.75
234.442	9.75
235.241	9.75
236.04	11.75
236.839	9.75
237.638	13.75
238.437	12.75
239.236	9.75
240.035	12.75
240.833	12.75
241.632	13.75
242.43	9.75
243.229	13.75
244.027	15.75
244.826	14.75
245.624	12.75
246.422	16.75
247.22	15.75
248.018	17.75
248.816	13.75
249.614	20.75
250.412	18.75
251.21	16.75
252.007	17.75
252.805	18.75
253.602	19.75
254.4	16.75
255.197	21.75
255.994	20.75
256.791	20.75
257.589	24.75
258.386	21.75
259.183	23.75
259.979	24.75
260.776	27.75
261.573	23.75
262.37	26.75
263.166	24.75
263.963	26.75
264.759	28.75
265.556	28.75
266.352	28.75
267.148	32.75
267.944	30.75
268.74	31.75
269.536	30.75
270.332	34.75
271.128	28.75
271.924	34.75
272.719	32.75
273.515	32.75
274.311	34.75
275.106	36.75
275.901	34.75
276.697	36.75
277.492	36.75
278.287	36.75
279.082	35.75
279.877	36.75
280.672	34.75
281.467	38.75
282.262	36.75
283.056	34.75
283.851	36.75
284.646	37.75
285.44	36.75
286.234	36.75
287.029	35.75
287.823	39.75
288.617	34.75
289.411	33.75
290.205	30.75
290.999	32.75
291.793	30.75
292.587	32.75
293.381	30.75
294.174	28.75
294.968	30.75
295.761	30.75
296.555	27.75
297.348	25.75
298.141	25.75
298.935	29.75
299.728	26.75
300.521	24.75
301.314	24.75
302.107	24.75
302.899	21.75
303.692	21.75
304.485	23.75
305.277	23.75
306.07	21.75
306.862	23.75
307.655	19.75
308.447	21.75
309.239	20.75
310.031	19.75
310.823	19.75
311.615	17.75
312.407	18.75
313.199	16.75
313.991	17.75
314.783	17.75
315.574	12.75
316.366	17.75
317.157	14.75
317.949	18.75
318.74	13.75
319.531	16.75
320.322	14.75
321.113	14.75
321.904	13.75
322.695	10.75
323.486	12.75
324.277	13.75
325.068	12.75
325.858	10.75
326.649	10.75
327.439	14.75
328.23	10.75
329.02	12.75
329.81	14.75
330.6	8.75
331.391	14.75
332.181	10.75
332.971	13.75
333.76	13.75
334.55	9.75
335.34	12.75
336.13	10.75
336.919	13.75
337.709	12.75
338.498	10.75
339.287	10.75
340.077	12.75
340.866	12.75
341.655	6.75
342.444	10.75
343.233	13.75
344.022	10.75
344.811	9.75
345.6	12.75
346.388	11.75
347.177	14.75
347.965	10.75
348.754	10.75
349.542	11.75
350.33	10.75
351.119	13.75
351.907	12.75
352.695	11.75
353.483	10.75
354.271	10.75
355.059	11.75
355.846	8.75
356.634	8.75
357.422	10.75
358.209	10.75
358.997	8.75
359.784	9.75
360.571	11.75
361.359	12.75
362.146	10.75
362.933	10.75
363.72	8.75
364.507	7.75
365.294	9.75
366.081	6.75
366.867	12.75
367.654	10.75
368.44	9.75
369.227	9.75
370.013	8.75
370.8	9.75
371.586	9.75
372.372	10.75
373.158	10.75
373.944	7.75
374.73	10.75
375.516	8.75
376.302	8.75
377.088	9.75
377.873	7.75
378.659	9.75
379.445	8.75
380.23	8.75
381.015	10.75
381.801	11.75
382.586	8.75
383.371	11.75
384.156	9.75
384.941	9.75
385.726	11.75
386.511	9.75
387.296	12.75
388.08	12.75
388.865	9.75
389.649	11.75
390.434	10.75
391.218	10.75
392.003	10.75
392.787	11.75
393.571	14.75
394.355	10.75
395.139	13.75
395.923	11.75
396.707	10.75
397.491	12.75
398.274	13.75
399.058	10.75
399.842	14.75
400.625	13.75
401.408	14.75
402.192	13.75
402.975	13.75
403.758	15.75
404.541	15.75
405.324	16.75
406.107	14.75
406.89	14.75
407.673	12.75
408.456	17.75
409.238	17.75
410.021	16.75
410.803	17.75
411.586	14.75
412.368	17.75
413.151	16.75
413.933	18.75
414.715	18.75
415.497	23.75
416.279	20.75
417.061	16.75
417.843	19.75
418.624	17.75
419.406	20.75
420.188	21.75
420.969	20.75
421.751	21.75
422.532	21.75
423.313	21.75
424.095	25.75
424.876	23.75
425.657	25.75
426.438	25.75
427.219	26.75
428	27.75
428.78	28.75
429.561	26.75
430.342	32.75
431.122	32.75
431.903	33.75
432.683	33.75
433.464	34.75
434.244	36.75
435.024	38.75
435.804	40.75
436.584	43.75
437.364	44.75
438.144	47.75
438.924	50.75
439.704	51.75
440.483	54.75
441.263	56.75
442.042	65.75
442.822	70.75
443.601	68.75
444.38	78.75
445.16	82.75
445.939	92.75
446.718	99.75
447.497	106.75
448.276	115.75
449.054	126.75
449.833	142.75
450.612	150.75
451.391	169.75
452.169	185.75
452.948	209.75
453.726	234.75
454.504	253.75
455.282	286.75
456.061	311.75
456.839	351.75
457.617	391.75
458.395	433.75
459.172	489.75
459.95	543.75
460.728	602.75
461.506	679.75
462.283	755.75
463.061	846.75
463.838	952.75
464.615	1049.75
465.393	1178.75
466.17	1301.75
466.947	1463.75
467.724	1618.75
468.501	1799.75
469.278	2029.75
470.055	2234.75
470.831	2483.75
471.608	2742.75
472.385	3014.75
473.161	3359.75
473.938	3704.75
474.714	4082.75
475.49	4499.75
476.266	4961.75
477.043	5428.75
477.819	5960.75
478.595	6548.75
479.371	7202.75
480.146	7846.75
480.922	8635.75
481.698	9453.75
482.473	10357.75
483.249	11277.75
484.024	12265.75
484.8	13357.75
485.575	14578.75
486.35	15841.75
487.126	17218.75
487.901	18660.75
488.676	20157.75
489.451	21836.75
490.225	23581.75
491	25284.75
491.775	27079.75
492.55	29011.75
493.324	31002.75
494.099	32807.75
494.873	34734.75
495.647	36709.75
496.422	38675.75
497.196	40586.75
497.97	42215.75
498.744	43782.75
499.518	45386.75
500.292	46700.75
501.066	47668.75
501.839	48414.75
502.613	49032.75
503.387	49400.75
504.16	49706.75
504.934	49585.75
505.707	49194.75
506.48	48609.75
507.253	47860.75
508.027	46980.75
508.8	45683.75
509.573	44467.75
510.346	43066.75
511.118	41878.75
511.891	40400.75
512.664	38798.75
513.437	37226.75
514.209	35752.75
514.982	34252.75
515.754	32829.75
516.526	31354.75
517.298	30211.75
518.071	28946.75
518.843	27731.75
519.615	26636.75
520.387	25548.75
521.159	24619.75
521.93	23483.75
522.702	22456.75
523.474	21576.75
524.245	20679.75
525.017	19683.75
525.788	18825.75
526.56	17992.75
527.331	17152.75
528.102	16232.75
528.873	15409.75
529.644	14697.75
530.415	13978.75
531.186	13264.75
531.957	12503.75
532.728	11880.75
533.498	11240.75
534.269	10657.75
535.039	10059.75
535.81	9516.75
536.58	8971.75
537.351	8446.75
538.121	8100.75
538.891	7603.75
539.661	7201.75
540.431	6797.75
541.201	6476.75
541.971	6129.75
542.741	5814.75
543.51	5489.75
544.28	5246.75
545.05	5015.75
545.819	4741.75
546.588	4556.75
547.358	4298.75
548.127	4093.75
548.896	3915.75
549.665	3678.75
550.434	3459.75
551.203	3290.75
551.972	3133.75
552.741	2958.75
553.51	2774.75
554.278	2625.75
555.047	2476.75
555.815	2332.75
556.584	2221.75
557.352	2085.75
558.121	1967.75
558.889	1848.75
559.657	1757.75
560.425	1671.75
561.193	1587.75
561.961	1490.75
562.729	1401.75
563.496	1331.75
564.264	1257.75
565.032	1199.75
565.799	1129.75
566.567	1070.75
567.334	1009.75
568.101	963.75
568.869	902.75
569.636	859.75
570.403	801.75
571.17	752.75
571.937	702.75
572.704	673.75
573.471	647.75
574.237	605.75
575.004	567.75
575.771	534.75
576.537	507.75
577.303	477.75
578.07	451.75
578.836	426.75
579.602	399.75
580.368	378.75
581.134	368.75
581.9	345.75
582.666	330.75
583.432	311.75
584.198	297.75
584.964	282.75
585.729	270.75
586.495	250.75
587.26	238.75
588.025	227.75
588.791	212.75
589.556	205.75
590.321	191.75
591.086	188.75
591.851	175.75
592.616	164.75
593.381	161.75
594.146	149.75
594.911	146.75
595.675	142.75
596.44	137.75
597.204	126.75
597.969	119.75
598.733	119.75
599.497	113.75
600.261	102.75
601.025	102.75
601.79	102.75
602.553	93.75
603.317	91.75
604.081	84.75
604.845	90.75
605.609	80.75
606.372	77.75
607.136	74.75
607.899	74.75
608.662	68.75
609.426	65.75
610.189	62.75
610.952	59.75
611.715	55.75
612.478	58.75
613.241	51.75
614.004	56.75
614.767	53.75
615.529	47.75
616.292	42.75
617.055	45.75
617.817	45.75
618.579	42.75
619.342	40.75
620.104	43.75
620.866	39.75
621.628	38.75
622.39	38.75
623.152	36.75
623.914	33.75
624.676	32.75
625.438	32.75
626.199	31.75
626.961	30.75
627.722	30.75
628.484	30.75
629.245	25.75
630.006	26.75
630.768	25.75
631.529	26.75
632.29	27.75
633.051	23.75
633.812	23.75
634.573	21.75
635.333	23.75
636.094	20.75
636.855	23.75
637.615	21.75
638.376	22.75
639.136	22.75
639.896	21.75
640.657	17.75
641.417	19.75
642.177	16.75
642.937	18.75
643.697	15.75
644.457	15.75
645.216	17.75
645.976	16.75
646.736	15.75
647.495	14.75
648.255	14.75
649.014	14.75
649.774	14.75
650.533	15.75
651.292	12.75
652.051	14.75
652.81	11.75
653.569	12.75
654.328	13.75
655.087	12.75
655.846	13.75
656.604	8.75
657.363	10.75
658.121	12.75
658.88	10.75
659.638	12.75
660.397	10.75
661.155	13.75
661.913	10.75
662.671	11.75
663.429	11.75
664.187	8.75
664.945	10.75
665.703	9.75
666.46	10.75
667.218	10.75
667.976	8.75
668.733	9.75
669.49	9.75
670.248	10.75
671.005	6.75
671.762	12.75
672.519	9.75
673.276	9.75
674.033	6.75
674.79	7.75
675.547	8.75
676.304	7.75
677.06	8.75
677.817	10.75
678.574	7.75
679.33	9.75
680.086	7.75
680.843	6.75
681.599	8.75
682.355	6.75
683.111	7.75
683.867	8.75
684.623	6.75
685.379	6.75
686.135	7.75
686.89	7.75
687.646	6.75
688.402	8.75
689.157	4.75
689.912	9.75
690.668	6.75
691.423	9.75
692.178	8.75
692.933	7.75
693.688	8.75
694.443	7.75
695.198	7.75
695.953	5.75
696.708	8.75
697.462	4.75
698.217	4.75
698.972	6.75
699.726	9.75
700.48	8.75
701.235	6.75
701.989	6.75
702.743	8.75
703.497	6.75
704.251	7.75
705.005	6.75
705.759	6.75
706.513	6.75
707.266	7.75
708.02	6.75
708.774	7.75
709.527	7.75
710.28	7.75
711.034	8.75
711.787	9.75
712.54	7.75
713.293	8.75
714.046	9.75
714.799	7.75
715.552	8.75
716.305	9.75
717.058	7.75
717.81	9.75
718.563	8.75
719.315	6.75
720.068	6.75
720.82	6.75
721.573	8.75
722.325	6.75
723.077	6.75
723.829	7.75
724.581	9.75
725.333	8.75
726.085	10.75
726.836	7.75
727.588	9.75
728.34	8.75
729.091	8.75
729.843	7.75
730.594	7.75
731.346	9.75
732.097	7.75
732.848	6.75
733.599	10.75
734.35	9.75
735.101	9.75
735.852	9.75
736.603	10.75
737.354	10.75
738.104	11.75
738.855	9.75
739.605	10.75
740.356	10.75
741.106	10.75
741.856	11.75
742.607	10.75
743.357	9.75
744.107	9.75
744.857	10.75
745.607	10.75
746.357	11.75
747.106	10.75
747.856	10.75
748.606	12.75
749.355	10.75
750.105	10.75
750.854	11.75
751.603	11.75
752.353	12.75
753.102	10.75
753.851	11.75
754.6	12.75
755.349	12.75
756.098	12.75
756.847	12.75
757.595	13.75
758.344	13.75
759.093	12.75
759.841	14.75
760.589	11.75
761.338	11.75
762.086	14.75
762.834	12.75
763.582	14.75
764.331	13.75
765.079	13.75
765.826	12.75
766.574	13.75
767.322	14.75
768.07	12.75
768.817	17.75
769.565	16.75
770.312	12.75
771.06	14.75
771.807	12.75
772.554	14.75
773.302	12.75
774.049	18.75
774.796	16.75
775.543	15.75
776.29	16.75
777.036	14.75
777.783	18.75
778.53	14.75
779.276	17.75
780.023	15.75
780.769	18.75
781.516	16.75
782.262	14.75
783.008	17.75
783.754	14.75
784.5	16.75
785.246	14.75
785.992	16.75
786.738	16.75
787.484	14.75
788.23	20.75
788.975	16.75
789.721	12.75
790.466	18.75
791.212	14.75
791.957	16.75
792.702	17.75
793.447	14.75
794.193	12.75
794.938	13.75
795.683	16.75
796.427	12.75
797.172	13.75
797.917	11.75
798.662	10.75
799.406	12.75
800.151	14.75
800.895	12.75
801.64	11.75
802.384	12.75
803.128	14.75
803.872	10.75
804.616	10.75
805.36	7.75
806.104	12.75
806.848	11.75
807.592	10.75
808.336	8.75
809.079	6.75
809.823	8.75
810.566	10.75
811.31	10.75
812.053	7.75
812.796	11.75
813.539	8.75
814.283	7.75
815.026	7.75
815.769	7.75
816.511	8.75
817.254	8.75
817.997	7.75
818.74	8.75
819.482	5.75
820.225	8.75
820.967	7.75
821.71	7.75
822.452	8.75
823.194	4.75
823.936	6.75
824.678	5.75
825.42	7.75
826.162	5.75
826.904	8.75
827.646	8.75
828.388	6.75
829.129	6.75
829.871	6.75
830.612	7.75
831.354	7.75
832.095	5.75
832.836	7.75
833.577	4.75
834.319	5.75
835.06	7.75
835.801	7.75
836.542	5.75
837.282	4.75
838.023	3.75
838.764	2.75
839.504	4.75
840.245	6.75
840.985	7.75
841.726	5.75
842.466	4.75
843.206	6.75
843.946	3.75
844.687	4.75
845.427	4.75
846.166	4.75
846.906	6.75
847.646	4.75
848.386	4.75
849.125	4.75
849.865	4.75
850.605	5.75
851.344	4.75
852.083	3.75
852.823	5.75
853.562	4.75
854.301	4.75
855.04	2.75
855.779	7.75
856.518	3.75
857.257	6.75
857.995	2.75
858.734	4.75
859.473	4.75
860.211	6.75
860.95	6.75
861.688	0.75
862.426	2.75
863.165	2.75
863.903	0.75
864.641	1.75
865.379	5.75
866.117	5.75
866.855	1.75
867.593	2.75
868.33	0.75
869.068	1.75
869.806	0.75
870.543	4.75
871.28	3.75
872.018	2.75
872.755	2.75
873.492	4.75
874.229	0.75
874.967	3.75
875.703	2.75
876.44	1.75
877.177	0.75
877.914	2.75
878.651	0.75
879.387	1.75
880.124	2.75
880.86	3.75
881.597	1.75
882.333	-0.25
883.069	3.75
883.806	1.75
884.542	-0.25
885.278	2.75
886.014	2.75
886.749	-2.25
887.485	1.75
888.221	-1.25
888.957	0.75
889.692	2.75
890.428	2.75
891.163	-1.25
891.899	-1.25
892.634	2.75
893.369	-1.25
894.104	2.75
894.839	1.75
895.574	-0.25
896.309	-1.25
897.044	0.75
897.779	1.75
898.514	0.75
899.248	-0.25
899.983	0.75
900.717	2.75
901.452	0.75
902.186	-1.25
902.92	-1.25
903.654	1.75
904.389	0.75
905.123	-0.25
905.857	0.75
906.59	2.75
907.324	0.75
908.058	1.75
908.792	-1.25
909.525	-0.25
910.259	0.75
910.992	0.75
911.726	2.75
912.459	1.75
913.192	1.75
913.925	0.75
914.658	-1.25
915.391	1.75
916.124	0.75
916.857	1.75
917.59	0.75
918.323	0.75
919.055	2.75
919.788	-2.25
920.521	0.75
921.253	0.75
921.985	0.75
922.718	0.75
923.45	0.75
924.182	-0.25
924.914	-0.25
925.646	0.75
926.378	1.75
927.11	-0.25
927.841	-0.25
928.573	0.75
929.305	0.75
930.036	0.75
930.768	-1.25
931.499	1.75
932.23	0.75
932.962	2.75
933.693	-1.25
934.424	0.75
935.155	0.75
935.886	-2.25
936.617	0.75
937.348	2.75
938.078	0.75
938.809	-0.25
939.54	0.75
940.27	0.75
941.001	0.75
941.731	0.75
942.461	-2.25
943.191	1.75
943.922	0.75
944.652	-1.25
945.382	0.75
946.112	1.75
946.841	-2.25
947.571	-1.25
948.301	-0.25
949.031	2.75
949.76	1.75
950.49	-0.25
951.219	-1.25
951.948	-1.25
952.678	-1.25
953.407	-0.25
954.136	-1.25
954.865	0.75
955.594	0.75
956.323	-0.25
957.052	0.75
957.78	1.75
958.509	0.75
959.238	1.75
959.966	-2.25
960.695	0.75
961.423	-1.25
962.151	0.75
962.88	0.75
963.608	0.75
964.336	0.75
965.064	-1.25
965.792	-1.25
966.52	0.75
967.247	0.75
967.975	0.75
968.703	-0.25
969.43	0.75
970.158	-1.25
970.885	0.75
971.613	-1.25
972.34	0.75
973.067	-0.25
973.794	-0.25
974.521	1.75
975.248	0.75
975.975	-0.25
976.702	0.75
977.429	-0.25
978.156	-0.25
978.882	-1.25
979.609	-0.25
980.335	0.75
981.062	-1.25
981.788	0.75
982.514	-1.25
983.24	0.75
983.967	1.75
984.693	-0.25
985.419	-0.25
986.144	-1.25
986.87	0.75
987.596	-0.25
988.322	2.75
989.047	-1.25
989.773	0.75
990.498	-1.25
991.224	-0.25
991.949	-1.25
992.674	0.75
993.399	0.75
994.124	-0.25
994.849	0.75
995.574	1.75
996.299	-1.25
997.024	2.75
997.749	-1.25
998.473	0.75
999.198	1.75
999.922	-1.25
1000.647	0.75
1001.371	4.75
1002.095	-1.25
1002.82	-0.25
1003.544	-1.25
1004.268	5.75
1004.992	4.75
1005.716	5.75
1006.439	4.75
1007.163	6.75
1007.887	6.75
1008.611	-2.25
1009.334	0.75
1010.058	1.75
1010.781	0.75
1011.504	2.75
1012.228	-1.25
1012.951	-1.25
1013.674	-2.25
1014.397	-0.25
1015.12	1.75
