节点500_705_QEPB04081__411__20-51-45-689.txt的数据

Date: Wed Nov 12 20:51:45 CST 2025
User: PC
Spectrometer: QEPB0408
触发模式: 0
积分时间 (秒): 1.000000E-2
Scans to average: 1
启用暗噪声校正: true
启用非线性校正: false
滑动平均宽度: 0
X轴模式: Wavelengths
Number of Pixels in Spectrum: 1044
>>>>>Begin Spectral Data<<<<<
220.843	5.12
221.644	6.12
222.444	5.12
223.244	4.12
224.045	4.12
224.845	8.12
225.645	7.12
226.445	5.12
227.245	8.12
228.045	7.12
228.845	8.12
229.645	6.12
230.444	9.12
231.244	8.12
232.043	10.12
232.843	9.12
233.642	10.12
234.442	9.12
235.241	9.12
236.04	12.12
236.839	10.12
237.638	13.12
238.437	11.12
239.236	12.12
240.035	9.12
240.833	14.12
241.632	12.12
242.43	14.12
243.229	11.12
244.027	13.12
244.826	12.12
245.624	12.12
246.422	11.12
247.22	14.12
248.018	13.12
248.816	16.12
249.614	17.12
250.412	13.12
251.21	15.12
252.007	15.12
252.805	20.12
253.602	15.12
254.4	18.12
255.197	21.12
255.994	20.12
256.791	19.12
257.589	21.12
258.386	21.12
259.183	19.12
259.979	19.12
260.776	22.12
261.573	21.12
262.37	22.12
263.166	23.12
263.963	26.12
264.759	26.12
265.556	26.12
266.352	27.12
267.148	23.12
267.944	28.12
268.74	28.12
269.536	30.12
270.332	27.12
271.128	29.12
271.924	34.12
272.719	29.12
273.515	33.12
274.311	33.12
275.106	33.12
275.901	33.12
276.697	34.12
277.492	33.12
278.287	30.12
279.082	31.12
279.877	30.12
280.672	34.12
281.467	34.12
282.262	33.12
283.056	32.12
283.851	32.12
284.646	37.12
285.44	33.12
286.234	33.12
287.029	34.12
287.823	33.12
288.617	29.12
289.411	33.12
290.205	34.12
290.999	29.12
291.793	31.12
292.587	28.12
293.381	27.12
294.174	28.12
294.968	29.12
295.761	29.12
296.555	29.12
297.348	27.12
298.141	26.12
298.935	28.12
299.728	26.12
300.521	24.12
301.314	24.12
302.107	27.12
302.899	20.12
303.692	22.12
304.485	23.12
305.277	21.12
306.07	24.12
306.862	23.12
307.655	21.12
308.447	22.12
309.239	20.12
310.031	22.12
310.823	17.12
311.615	19.12
312.407	15.12
313.199	18.12
313.991	16.12
314.783	16.12
315.574	17.12
316.366	13.12
317.157	18.12
317.949	16.12
318.74	15.12
319.531	14.12
320.322	16.12
321.113	14.12
321.904	11.12
322.695	14.12
323.486	14.12
324.277	13.12
325.068	13.12
325.858	15.12
326.649	14.12
327.439	12.12
328.23	14.12
329.02	14.12
329.81	12.12
330.6	14.12
331.391	10.12
332.181	13.12
332.971	11.12
333.76	11.12
334.55	13.12
335.34	13.12
336.13	11.12
336.919	13.12
337.709	11.12
338.498	12.12
339.287	13.12
340.077	10.12
340.866	9.12
341.655	15.12
342.444	13.12
343.233	10.12
344.022	10.12
344.811	10.12
345.6	9.12
346.388	12.12
347.177	10.12
347.965	11.12
348.754	11.12
349.542	13.12
350.33	10.12
351.119	9.12
351.907	10.12
352.695	11.12
353.483	10.12
354.271	10.12
355.059	11.12
355.846	10.12
356.634	13.12
357.422	11.12
358.209	10.12
358.997	10.12
359.784	12.12
360.571	11.12
361.359	10.12
362.146	11.12
362.933	11.12
363.72	8.12
364.507	10.12
365.294	9.12
366.081	8.12
366.867	9.12
367.654	9.12
368.44	7.12
369.227	11.12
370.013	10.12
370.8	9.12
371.586	9.12
372.372	13.12
373.158	11.12
373.944	10.12
374.73	10.12
375.516	12.12
376.302	8.12
377.088	9.12
377.873	8.12
378.659	11.12
379.445	11.12
380.23	11.12
381.015	9.12
381.801	9.12
382.586	9.12
383.371	11.12
384.156	11.12
384.941	11.12
385.726	10.12
386.511	13.12
387.296	11.12
388.08	10.12
388.865	10.12
389.649	13.12
390.434	8.12
391.218	12.12
392.003	10.12
392.787	13.12
393.571	10.12
394.355	13.12
395.139	12.12
395.923	14.12
396.707	13.12
397.491	12.12
398.274	11.12
399.058	13.12
399.842	14.12
400.625	12.12
401.408	14.12
402.192	15.12
402.975	14.12
403.758	13.12
404.541	13.12
405.324	16.12
406.107	14.12
406.89	15.12
407.673	14.12
408.456	15.12
409.238	14.12
410.021	14.12
410.803	16.12
411.586	19.12
412.368	15.12
413.151	17.12
413.933	19.12
414.715	19.12
415.497	13.12
416.279	19.12
417.061	21.12
417.843	19.12
418.624	17.12
419.406	21.12
420.188	21.12
420.969	19.12
421.751	22.12
422.532	24.12
423.313	23.12
424.095	23.12
424.876	24.12
425.657	22.12
426.438	24.12
427.219	28.12
428	27.12
428.78	26.12
429.561	29.12
430.342	29.12
431.122	33.12
431.903	32.12
432.683	34.12
433.464	32.12
434.244	38.12
435.024	40.12
435.804	41.12
436.584	44.12
437.364	46.12
438.144	49.12
438.924	54.12
439.704	51.12
440.483	56.12
441.263	62.12
442.042	66.12
442.822	72.12
443.601	76.12
444.38	79.12
445.16	89.12
445.939	95.12
446.718	106.12
447.497	109.12
448.276	130.12
449.054	139.12
449.833	151.12
450.612	166.12
451.391	184.12
452.169	200.12
452.948	224.12
453.726	245.12
454.504	277.12
455.282	308.12
456.061	331.12
456.839	381.12
457.617	417.12
458.395	459.12
459.172	527.12
459.95	591.12
460.728	648.12
461.506	720.12
462.283	800.12
463.061	901.12
463.838	989.12
464.615	1102.12
465.393	1223.12
466.17	1366.12
466.947	1523.12
467.724	1679.12
468.501	1875.12
469.278	2055.12
470.055	2284.12
470.831	2492.12
471.608	2746.12
472.385	3031.12
473.161	3336.12
473.938	3671.12
474.714	4009.12
475.49	4421.12
476.266	4821.12
477.043	5271.12
477.819	5754.12
478.595	6274.12
479.371	6839.12
480.146	7427.12
480.922	8120.12
481.698	8868.12
482.473	9573.12
483.249	10447.12
484.024	11307.12
484.8	12243.12
485.575	13225.12
486.35	14370.12
487.126	15515.12
487.901	16720.12
488.676	18058.12
489.451	19432.12
490.225	20883.12
491	22393.12
491.775	24005.12
492.55	25561.12
493.324	27267.12
494.099	28983.12
494.873	30670.12
495.647	32417.12
496.422	34138.12
497.196	35833.12
497.97	37468.12
498.744	38958.12
499.518	40566.12
500.292	41909.12
501.066	42905.12
501.839	43924.12
502.613	44789.12
503.387	45432.12
504.16	45907.12
504.934	46117.12
505.707	46145.12
506.48	45922.12
507.253	45425.12
508.027	44923.12
508.8	44097.12
509.573	43175.12
510.346	42152.12
511.118	41265.12
511.891	40009.12
512.664	38631.12
513.437	37279.12
514.209	35894.12
514.982	34552.12
515.754	33196.12
516.526	31830.12
517.298	30631.12
518.071	29384.12
518.843	28262.12
519.615	27115.12
520.387	26055.12
521.159	24978.12
521.93	24022.12
522.702	22985.12
523.474	22038.12
524.245	21106.12
525.017	20237.12
525.788	19361.12
526.56	18530.12
527.331	17727.12
528.102	16867.12
528.873	16025.12
529.644	15242.12
530.415	14565.12
531.186	13825.12
531.957	13141.12
532.728	12514.12
533.498	11877.12
534.269	11198.12
535.039	10578.12
535.81	10042.12
536.58	9545.12
537.351	9018.12
538.121	8562.12
538.891	8069.12
539.661	7657.12
540.431	7202.12
541.201	6858.12
541.971	6497.12
542.741	6136.12
543.51	5818.12
544.28	5543.12
545.05	5320.12
545.819	5041.12
546.588	4808.12
547.358	4579.12
548.127	4374.12
548.896	4152.12
549.665	3945.12
550.434	3710.12
551.203	3549.12
551.972	3348.12
552.741	3171.12
553.51	2967.12
554.278	2817.12
555.047	2665.12
555.815	2525.12
556.584	2390.12
557.352	2262.12
558.121	2123.12
558.889	2018.12
559.657	1893.12
560.425	1794.12
561.193	1715.12
561.961	1632.12
562.729	1523.12
563.496	1458.12
564.264	1381.12
565.032	1298.12
565.799	1223.12
566.567	1145.12
567.334	1093.12
568.101	1030.12
568.869	963.12
569.636	928.12
570.403	860.12
571.17	816.12
571.937	781.12
572.704	739.12
573.471	691.12
574.237	641.12
575.004	617.12
575.771	572.12
576.537	555.12
577.303	517.12
578.07	490.12
578.836	466.12
579.602	434.12
580.368	414.12
581.134	394.12
581.9	369.12
582.666	360.12
583.432	337.12
584.198	325.12
584.964	306.12
585.729	289.12
586.495	273.12
587.26	253.12
588.025	243.12
588.791	235.12
589.556	225.12
590.321	205.12
591.086	200.12
591.851	190.12
592.616	181.12
593.381	174.12
594.146	160.12
594.911	159.12
595.675	148.12
596.44	144.12
597.204	139.12
597.969	134.12
598.733	124.12
599.497	118.12
600.261	114.12
601.025	112.12
601.79	104.12
602.553	100.12
603.317	93.12
604.081	91.12
604.845	86.12
605.609	88.12
606.372	82.12
607.136	81.12
607.899	79.12
608.662	69.12
609.426	72.12
610.189	63.12
610.952	66.12
611.715	62.12
612.478	60.12
613.241	59.12
614.004	58.12
614.767	54.12
615.529	53.12
616.292	54.12
617.055	46.12
617.817	47.12
618.579	47.12
619.342	44.12
620.104	41.12
620.866	45.12
621.628	41.12
622.39	40.12
623.152	38.12
623.914	38.12
624.676	33.12
625.438	34.12
626.199	34.12
626.961	32.12
627.722	30.12
628.484	29.12
629.245	28.12
630.006	30.12
630.768	27.12
631.529	23.12
632.29	26.12
633.051	24.12
633.812	26.12
634.573	23.12
635.333	26.12
636.094	20.12
636.855	22.12
637.615	23.12
638.376	22.12
639.136	20.12
639.896	17.12
640.657	19.12
641.417	19.12
642.177	19.12
642.937	19.12
643.697	19.12
644.457	16.12
645.216	18.12
645.976	17.12
646.736	17.12
647.495	17.12
648.255	16.12
649.014	16.12
649.774	15.12
650.533	14.12
651.292	17.12
652.051	15.12
652.81	17.12
653.569	12.12
654.328	12.12
655.087	14.12
655.846	13.12
656.604	12.12
657.363	11.12
658.121	13.12
658.88	11.12
659.638	13.12
660.397	11.12
661.155	9.12
661.913	13.12
662.671	13.12
663.429	11.12
664.187	9.12
664.945	11.12
665.703	12.12
666.46	13.12
667.218	10.12
667.976	10.12
668.733	11.12
669.49	11.12
670.248	7.12
671.005	12.12
671.762	11.12
672.519	8.12
673.276	9.12
674.033	10.12
674.79	8.12
675.547	7.12
676.304	11.12
677.06	11.12
677.817	10.12
678.574	8.12
679.33	6.12
680.086	9.12
680.843	7.12
681.599	9.12
682.355	9.12
683.111	8.12
683.867	7.12
684.623	7.12
685.379	7.12
686.135	8.12
686.89	6.12
687.646	7.12
688.402	8.12
689.157	8.12
689.912	8.12
690.668	7.12
691.423	7.12
692.178	9.12
692.933	8.12
693.688	6.12
694.443	8.12
695.198	7.12
695.953	8.12
696.708	8.12
697.462	7.12
698.217	6.12
698.972	9.12
699.726	8.12
700.48	9.12
701.235	8.12
701.989	7.12
702.743	7.12
703.497	11.12
704.251	8.12
705.005	7.12
705.759	8.12
706.513	8.12
707.266	9.12
708.02	7.12
708.774	7.12
709.527	9.12
710.28	8.12
711.034	7.12
711.787	9.12
712.54	10.12
713.293	7.12
714.046	8.12
714.799	8.12
715.552	9.12
716.305	8.12
717.058	5.12
717.81	8.12
718.563	6.12
719.315	7.12
720.068	7.12
720.82	6.12
721.573	8.12
722.325	7.12
723.077	9.12
723.829	8.12
724.581	7.12
725.333	10.12
726.085	7.12
726.836	11.12
727.588	7.12
728.34	8.12
729.091	10.12
729.843	7.12
730.594	11.12
731.346	8.12
732.097	9.12
732.848	10.12
733.599	9.12
734.35	11.12
735.101	8.12
735.852	9.12
736.603	9.12
737.354	11.12
738.104	8.12
738.855	10.12
739.605	12.12
740.356	9.12
741.106	11.12
741.856	10.12
742.607	11.12
743.357	11.12
744.107	9.12
744.857	10.12
745.607	12.12
746.357	10.12
747.106	10.12
747.856	8.12
748.606	10.12
749.355	10.12
750.105	10.12
750.854	10.12
751.603	8.12
752.353	9.12
753.102	12.12
753.851	11.12
754.6	13.12
755.349	11.12
756.098	11.12
756.847	11.12
757.595	11.12
758.344	14.12
759.093	13.12
759.841	11.12
760.589	13.12
761.338	10.12
762.086	14.12
762.834	14.12
763.582	10.12
764.331	13.12
765.079	10.12
765.826	13.12
766.574	12.12
767.322	13.12
768.07	14.12
768.817	13.12
769.565	13.12
770.312	13.12
771.06	13.12
771.807	15.12
772.554	14.12
773.302	15.12
774.049	14.12
774.796	15.12
775.543	14.12
776.29	16.12
777.036	14.12
777.783	15.12
778.53	14.12
779.276	16.12
780.023	14.12
780.769	15.12
781.516	15.12
782.262	16.12
783.008	16.12
783.754	14.12
784.5	15.12
785.246	15.12
785.992	16.12
786.738	15.12
787.484	14.12
788.23	18.12
788.975	14.12
789.721	17.12
790.466	15.12
791.212	15.12
791.957	13.12
792.702	15.12
793.447	13.12
794.193	14.12
794.938	15.12
795.683	14.12
796.427	13.12
797.172	13.12
797.917	12.12
798.662	10.12
799.406	11.12
800.151	13.12
800.895	14.12
801.64	13.12
802.384	11.12
803.128	11.12
803.872	13.12
804.616	9.12
805.36	14.12
806.104	12.12
806.848	11.12
807.592	11.12
808.336	10.12
809.079	11.12
809.823	8.12
810.566	9.12
811.31	8.12
812.053	11.12
812.796	11.12
813.539	8.12
814.283	11.12
815.026	9.12
815.769	7.12
816.511	8.12
817.254	5.12
817.997	6.12
818.74	8.12
819.482	10.12
820.225	5.12
820.967	7.12
821.71	8.12
822.452	5.12
823.194	8.12
823.936	9.12
824.678	5.12
825.42	8.12
826.162	6.12
826.904	9.12
827.646	5.12
828.388	8.12
829.129	7.12
829.871	7.12
830.612	6.12
831.354	5.12
832.095	6.12
832.836	5.12
833.577	7.12
834.319	8.12
835.06	6.12
835.801	7.12
836.542	3.12
837.282	6.12
838.023	8.12
838.764	5.12
839.504	5.12
840.245	2.12
840.985	7.12
841.726	5.12
842.466	8.12
843.206	4.12
843.946	5.12
844.687	3.12
845.427	5.12
846.166	7.12
846.906	5.12
847.646	3.12
848.386	5.12
849.125	3.12
849.865	7.12
850.605	6.12
851.344	6.12
852.083	3.12
852.823	5.12
853.562	6.12
854.301	4.12
855.04	4.12
855.779	4.12
856.518	4.12
857.257	5.12
857.995	3.12
858.734	4.12
859.473	4.12
860.211	6.12
860.95	3.12
861.688	6.12
862.426	5.12
863.165	3.12
863.903	3.12
864.641	3.12
865.379	3.12
866.117	3.12
866.855	3.12
867.593	3.12
868.33	2.12
869.068	4.12
869.806	3.12
870.543	1.12
871.28	2.12
872.018	2.12
872.755	1.12
873.492	2.12
874.229	4.12
874.967	4.12
875.703	3.12
876.44	5.12
877.177	3.12
877.914	-0.88
878.651	0.12
879.387	2.12
880.124	3.12
880.86	0.12
881.597	5.12
882.333	2.12
883.069	1.12
883.806	4.12
884.542	-0.88
885.278	1.12
886.014	1.12
886.749	1.12
887.485	1.12
888.221	0.12
888.957	2.12
889.692	0.12
890.428	2.12
891.163	2.12
891.899	2.12
892.634	1.12
893.369	3.12
894.104	2.12
894.839	3.12
895.574	3.12
896.309	-1.88
897.044	2.12
897.779	1.12
898.514	0.12
899.248	3.12
899.983	2.12
900.717	2.12
901.452	1.12
902.186	0.12
902.92	1.12
903.654	1.12
904.389	4.12
905.123	1.12
905.857	2.12
906.59	1.12
907.324	-0.88
908.058	2.12
908.792	-1.88
909.525	2.12
910.259	0.12
910.992	3.12
911.726	1.12
912.459	1.12
913.192	-0.88
913.925	1.12
914.658	1.12
915.391	1.12
916.124	2.12
916.857	2.12
917.59	0.12
918.323	2.12
919.055	0.12
919.788	1.12
920.521	1.12
921.253	0.12
921.985	1.12
922.718	3.12
923.45	1.12
924.182	1.12
924.914	1.12
925.646	1.12
926.378	2.12
927.11	0.12
927.841	0.12
928.573	2.12
929.305	-0.88
930.036	1.12
930.768	1.12
931.499	0.12
932.23	-0.88
932.962	2.12
933.693	-0.88
934.424	1.12
935.155	0.12
935.886	0.12
936.617	0.12
937.348	2.12
938.078	2.12
938.809	1.12
939.54	3.12
940.27	-1.88
941.001	4.12
941.731	-1.88
942.461	1.12
943.191	0.12
943.922	1.12
944.652	3.12
945.382	-0.88
946.112	0.12
946.841	-0.88
947.571	1.12
948.301	3.12
949.031	0.12
949.76	2.12
950.49	-1.88
951.219	3.12
951.948	1.12
952.678	2.12
953.407	2.12
954.136	-1.88
954.865	1.12
955.594	-0.88
956.323	1.12
957.052	1.12
957.78	0.12
958.509	1.12
959.238	1.12
959.966	1.12
960.695	0.12
961.423	-0.88
962.151	1.12
962.88	-0.88
963.608	1.12
964.336	1.12
965.064	2.12
965.792	1.12
966.52	-1.88
967.247	1.12
967.975	1.12
968.703	-0.88
969.43	-0.88
970.158	0.12
970.885	0.12
971.613	0.12
972.34	1.12
973.067	-1.88
973.794	2.12
974.521	2.12
975.248	0.12
975.975	-0.88
976.702	1.12
977.429	1.12
978.156	-0.88
978.882	2.12
979.609	1.12
980.335	1.12
981.062	2.12
981.788	-1.88
982.514	-0.88
983.24	1.12
983.967	-1.88
984.693	2.12
985.419	-2.88
986.144	1.12
986.87	2.12
987.596	0.12
988.322	1.12
989.047	0.12
989.773	0.12
990.498	0.12
991.224	1.12
991.949	0.12
992.674	0.12
993.399	2.12
994.124	0.12
994.849	1.12
995.574	1.12
996.299	-0.88
997.024	1.12
997.749	1.12
998.473	0.12
999.198	2.12
999.922	-0.88
1000.647	2.12
1001.371	5.12
1002.095	-0.88
1002.82	1.12
1003.544	-1.88
1004.268	5.12
1004.992	6.12
1005.716	6.12
1006.439	6.12
1007.163	2.12
1007.887	6.12
1008.611	2.12
1009.334	1.12
1010.058	2.12
1010.781	0.12
1011.504	3.12
1012.228	0.12
1012.951	-0.88
1013.674	-0.88
1014.397	0.12
1015.12	-1.88
