节点500_705_QEPB04081__220__20-49-02-481.txt的数据

Date: Wed Nov 12 20:49:02 CST 2025
User: PC
Spectrometer: QEPB0408
触发模式: 0
积分时间 (秒): 1.000000E-2
Scans to average: 1
启用暗噪声校正: true
启用非线性校正: false
滑动平均宽度: 0
X轴模式: Wavelengths
Number of Pixels in Spectrum: 1044
>>>>>Begin Spectral Data<<<<<
220.843	5.38
221.644	4.38
222.444	7.38
223.244	9.38
224.045	9.38
224.845	9.38
225.645	9.38
226.445	9.38
227.245	9.38
228.045	9.38
228.845	9.38
229.645	11.38
230.444	9.38
231.244	9.38
232.043	10.38
232.843	12.38
233.642	11.38
234.442	9.38
235.241	11.38
236.04	12.38
236.839	12.38
237.638	15.38
238.437	12.38
239.236	12.38
240.035	12.38
240.833	14.38
241.632	13.38
242.43	15.38
243.229	14.38
244.027	13.38
244.826	16.38
245.624	17.38
246.422	14.38
247.22	15.38
248.018	15.38
248.816	13.38
249.614	19.38
250.412	17.38
251.21	18.38
252.007	18.38
252.805	19.38
253.602	16.38
254.4	21.38
255.197	19.38
255.994	23.38
256.791	23.38
257.589	21.38
258.386	20.38
259.183	22.38
259.979	25.38
260.776	24.38
261.573	27.38
262.37	25.38
263.166	20.38
263.963	28.38
264.759	27.38
265.556	26.38
266.352	28.38
267.148	30.38
267.944	32.38
268.74	28.38
269.536	35.38
270.332	32.38
271.128	33.38
271.924	40.38
272.719	39.38
273.515	36.38
274.311	37.38
275.106	36.38
275.901	35.38
276.697	37.38
277.492	36.38
278.287	35.38
279.082	36.38
279.877	38.38
280.672	38.38
281.467	36.38
282.262	35.38
283.056	36.38
283.851	34.38
284.646	34.38
285.44	36.38
286.234	38.38
287.029	32.38
287.823	37.38
288.617	36.38
289.411	36.38
290.205	33.38
290.999	34.38
291.793	35.38
292.587	30.38
293.381	31.38
294.174	30.38
294.968	31.38
295.761	30.38
296.555	28.38
297.348	27.38
298.141	27.38
298.935	30.38
299.728	28.38
300.521	28.38
301.314	24.38
302.107	29.38
302.899	21.38
303.692	24.38
304.485	26.38
305.277	23.38
306.07	21.38
306.862	24.38
307.655	26.38
308.447	21.38
309.239	25.38
310.031	23.38
310.823	19.38
311.615	18.38
312.407	16.38
313.199	17.38
313.991	19.38
314.783	16.38
315.574	16.38
316.366	18.38
317.157	18.38
317.949	17.38
318.74	15.38
319.531	15.38
320.322	13.38
321.113	17.38
321.904	12.38
322.695	14.38
323.486	16.38
324.277	16.38
325.068	14.38
325.858	13.38
326.649	15.38
327.439	14.38
328.23	15.38
329.02	14.38
329.81	14.38
330.6	15.38
331.391	11.38
332.181	14.38
332.971	15.38
333.76	14.38
334.55	13.38
335.34	14.38
336.13	15.38
336.919	11.38
337.709	12.38
338.498	12.38
339.287	12.38
340.077	14.38
340.866	11.38
341.655	12.38
342.444	11.38
343.233	14.38
344.022	14.38
344.811	13.38
345.6	12.38
346.388	12.38
347.177	15.38
347.965	12.38
348.754	12.38
349.542	12.38
350.33	12.38
351.119	12.38
351.907	13.38
352.695	11.38
353.483	13.38
354.271	14.38
355.059	11.38
355.846	11.38
356.634	12.38
357.422	10.38
358.209	14.38
358.997	12.38
359.784	10.38
360.571	11.38
361.359	13.38
362.146	12.38
362.933	11.38
363.72	12.38
364.507	11.38
365.294	9.38
366.081	12.38
366.867	13.38
367.654	13.38
368.44	8.38
369.227	6.38
370.013	11.38
370.8	11.38
371.586	10.38
372.372	10.38
373.158	13.38
373.944	12.38
374.73	8.38
375.516	12.38
376.302	9.38
377.088	10.38
377.873	12.38
378.659	9.38
379.445	10.38
380.23	12.38
381.015	10.38
381.801	10.38
382.586	14.38
383.371	11.38
384.156	8.38
384.941	12.38
385.726	10.38
386.511	11.38
387.296	12.38
388.08	13.38
388.865	12.38
389.649	11.38
390.434	11.38
391.218	13.38
392.003	15.38
392.787	13.38
393.571	12.38
394.355	14.38
395.139	12.38
395.923	12.38
396.707	15.38
397.491	13.38
398.274	14.38
399.058	15.38
399.842	16.38
400.625	14.38
401.408	16.38
402.192	15.38
402.975	13.38
403.758	16.38
404.541	18.38
405.324	14.38
406.107	17.38
406.89	15.38
407.673	18.38
408.456	16.38
409.238	16.38
410.021	17.38
410.803	18.38
411.586	15.38
412.368	20.38
413.151	20.38
413.933	20.38
414.715	20.38
415.497	19.38
416.279	20.38
417.061	15.38
417.843	21.38
418.624	20.38
419.406	21.38
420.188	25.38
420.969	21.38
421.751	22.38
422.532	25.38
423.313	22.38
424.095	25.38
424.876	25.38
425.657	26.38
426.438	26.38
427.219	31.38
428	27.38
428.78	30.38
429.561	29.38
430.342	32.38
431.122	35.38
431.903	34.38
432.683	35.38
433.464	39.38
434.244	38.38
435.024	42.38
435.804	41.38
436.584	44.38
437.364	47.38
438.144	44.38
438.924	53.38
439.704	53.38
440.483	59.38
441.263	62.38
442.042	67.38
442.822	70.38
443.601	73.38
444.38	81.38
445.16	84.38
445.939	94.38
446.718	100.38
447.497	106.38
448.276	123.38
449.054	133.38
449.833	145.38
450.612	156.38
451.391	169.38
452.169	192.38
452.948	215.38
453.726	232.38
454.504	257.38
455.282	286.38
456.061	327.38
456.839	353.38
457.617	396.38
458.395	437.38
459.172	492.38
459.95	544.38
460.728	610.38
461.506	688.38
462.283	772.38
463.061	856.38
463.838	956.38
464.615	1081.38
465.393	1190.38
466.17	1319.38
466.947	1481.38
467.724	1642.38
468.501	1832.38
469.278	2020.38
470.055	2243.38
470.831	2497.38
471.608	2734.38
472.385	3039.38
473.161	3350.38
473.938	3697.38
474.714	4073.38
475.49	4463.38
476.266	4909.38
477.043	5385.38
477.819	5915.38
478.595	6441.38
479.371	7089.38
480.146	7768.38
480.922	8476.38
481.698	9287.38
482.473	10057.38
483.249	11003.38
484.024	12031.38
484.8	13028.38
485.575	14135.38
486.35	15360.38
487.126	16699.38
487.901	18086.38
488.676	19493.38
489.451	21144.38
490.225	22691.38
491	24369.38
491.775	26112.38
492.55	27914.38
493.324	29730.38
494.099	31546.38
494.873	33440.38
495.647	35324.38
496.422	37212.38
497.196	39084.38
497.97	40689.38
498.744	42296.38
499.518	43808.38
500.292	45217.38
501.066	46209.38
501.839	47036.38
502.613	47624.38
503.387	48191.38
504.16	48486.38
504.934	48546.38
505.707	48289.38
506.48	47763.38
507.253	47148.38
508.027	46299.38
508.8	45184.38
509.573	44128.38
510.346	42846.38
511.118	41694.38
511.891	40274.38
512.664	38620.38
513.437	37180.38
514.209	35661.38
514.982	34317.38
515.754	32857.38
516.526	31448.38
517.298	30183.38
518.071	29000.38
518.843	27811.38
519.615	26712.38
520.387	25672.38
521.159	24641.38
521.93	23600.38
522.702	22622.38
523.474	21713.38
524.245	20761.38
525.017	19817.38
525.788	18860.38
526.56	18066.38
527.331	17282.38
528.102	16361.38
528.873	15555.38
529.644	14815.38
530.415	14104.38
531.186	13407.38
531.957	12677.38
532.728	12045.38
533.498	11399.38
534.269	10788.38
535.039	10165.38
535.81	9655.38
536.58	9078.38
537.351	8618.38
538.121	8181.38
538.891	7732.38
539.661	7346.38
540.431	6907.38
541.201	6564.38
541.971	6210.38
542.741	5904.38
543.51	5622.38
544.28	5327.38
545.05	5056.38
545.819	4829.38
546.588	4607.38
547.358	4409.38
548.127	4175.38
548.896	3944.38
549.665	3740.38
550.434	3544.38
551.203	3380.38
551.972	3175.38
552.741	3047.38
553.51	2841.38
554.278	2698.38
555.047	2519.38
555.815	2397.38
556.584	2269.38
557.352	2130.38
558.121	2035.38
558.889	1900.38
559.657	1798.38
560.425	1699.38
561.193	1614.38
561.961	1515.38
562.729	1447.38
563.496	1372.38
564.264	1289.38
565.032	1204.38
565.799	1165.38
566.567	1106.38
567.334	1044.38
568.101	978.38
568.869	932.38
569.636	872.38
570.403	820.38
571.17	776.38
571.937	741.38
572.704	687.38
573.471	659.38
574.237	617.38
575.004	572.38
575.771	552.38
576.537	518.38
577.303	484.38
578.07	464.38
578.836	442.38
579.602	411.38
580.368	388.38
581.134	367.38
581.9	353.38
582.666	334.38
583.432	315.38
584.198	303.38
584.964	294.38
585.729	277.38
586.495	259.38
587.26	243.38
588.025	229.38
588.791	219.38
589.556	208.38
590.321	203.38
591.086	189.38
591.851	182.38
592.616	170.38
593.381	169.38
594.146	156.38
594.911	155.38
595.675	147.38
596.44	138.38
597.204	134.38
597.969	127.38
598.733	119.38
599.497	116.38
600.261	110.38
601.025	106.38
601.79	101.38
602.553	100.38
603.317	95.38
604.081	86.38
604.845	88.38
605.609	83.38
606.372	78.38
607.136	76.38
607.899	75.38
608.662	68.38
609.426	70.38
610.189	63.38
610.952	64.38
611.715	59.38
612.478	62.38
613.241	59.38
614.004	56.38
614.767	55.38
615.529	51.38
616.292	51.38
617.055	47.38
617.817	43.38
618.579	50.38
619.342	44.38
620.104	42.38
620.866	42.38
621.628	38.38
622.39	34.38
623.152	41.38
623.914	35.38
624.676	36.38
625.438	37.38
626.199	35.38
626.961	30.38
627.722	32.38
628.484	28.38
629.245	30.38
630.006	28.38
630.768	31.38
631.529	27.38
632.29	25.38
633.051	26.38
633.812	24.38
634.573	23.38
635.333	24.38
636.094	25.38
636.855	21.38
637.615	21.38
638.376	24.38
639.136	20.38
639.896	25.38
640.657	20.38
641.417	20.38
642.177	19.38
642.937	17.38
643.697	18.38
644.457	21.38
645.216	19.38
645.976	18.38
646.736	16.38
647.495	17.38
648.255	17.38
649.014	16.38
649.774	12.38
650.533	13.38
651.292	14.38
652.051	15.38
652.81	15.38
653.569	13.38
654.328	16.38
655.087	14.38
655.846	15.38
656.604	14.38
657.363	15.38
658.121	13.38
658.88	14.38
659.638	12.38
660.397	12.38
661.155	13.38
661.913	11.38
662.671	16.38
663.429	12.38
664.187	13.38
664.945	12.38
665.703	10.38
666.46	10.38
667.218	13.38
667.976	14.38
668.733	11.38
669.49	10.38
670.248	11.38
671.005	9.38
671.762	10.38
672.519	11.38
673.276	11.38
674.033	9.38
674.79	12.38
675.547	10.38
676.304	10.38
677.06	9.38
677.817	7.38
678.574	9.38
679.33	9.38
680.086	9.38
680.843	11.38
681.599	11.38
682.355	9.38
683.111	9.38
683.867	10.38
684.623	9.38
685.379	10.38
686.135	9.38
686.89	11.38
687.646	9.38
688.402	10.38
689.157	11.38
689.912	6.38
690.668	7.38
691.423	7.38
692.178	8.38
692.933	10.38
693.688	9.38
694.443	10.38
695.198	8.38
695.953	8.38
696.708	9.38
697.462	9.38
698.217	9.38
698.972	7.38
699.726	8.38
700.48	7.38
701.235	6.38
701.989	9.38
702.743	10.38
703.497	7.38
704.251	9.38
705.005	9.38
705.759	10.38
706.513	9.38
707.266	8.38
708.02	8.38
708.774	9.38
709.527	10.38
710.28	7.38
711.034	10.38
711.787	9.38
712.54	11.38
713.293	8.38
714.046	10.38
714.799	10.38
715.552	8.38
716.305	9.38
717.058	10.38
717.81	11.38
718.563	8.38
719.315	8.38
720.068	9.38
720.82	9.38
721.573	9.38
722.325	6.38
723.077	9.38
723.829	9.38
724.581	10.38
725.333	11.38
726.085	12.38
726.836	10.38
727.588	10.38
728.34	8.38
729.091	12.38
729.843	10.38
730.594	11.38
731.346	10.38
732.097	9.38
732.848	10.38
733.599	11.38
734.35	9.38
735.101	12.38
735.852	11.38
736.603	11.38
737.354	9.38
738.104	11.38
738.855	10.38
739.605	13.38
740.356	10.38
741.106	11.38
741.856	12.38
742.607	15.38
743.357	11.38
744.107	11.38
744.857	11.38
745.607	11.38
746.357	12.38
747.106	12.38
747.856	10.38
748.606	11.38
749.355	14.38
750.105	12.38
750.854	12.38
751.603	13.38
752.353	12.38
753.102	13.38
753.851	15.38
754.6	13.38
755.349	14.38
756.098	12.38
756.847	12.38
757.595	15.38
758.344	13.38
759.093	15.38
759.841	12.38
760.589	15.38
761.338	13.38
762.086	16.38
762.834	16.38
763.582	14.38
764.331	16.38
765.079	15.38
765.826	15.38
766.574	19.38
767.322	14.38
768.07	15.38
768.817	15.38
769.565	15.38
770.312	15.38
771.06	16.38
771.807	14.38
772.554	15.38
773.302	16.38
774.049	13.38
774.796	17.38
775.543	18.38
776.29	16.38
777.036	16.38
777.783	16.38
778.53	17.38
779.276	17.38
780.023	17.38
780.769	17.38
781.516	16.38
782.262	18.38
783.008	16.38
783.754	19.38
784.5	18.38
785.246	17.38
785.992	15.38
786.738	16.38
787.484	19.38
788.23	17.38
788.975	18.38
789.721	17.38
790.466	19.38
791.212	17.38
791.957	15.38
792.702	14.38
793.447	18.38
794.193	16.38
794.938	14.38
795.683	15.38
796.427	16.38
797.172	13.38
797.917	16.38
798.662	14.38
799.406	15.38
800.151	18.38
800.895	15.38
801.64	11.38
802.384	13.38
803.128	11.38
803.872	14.38
804.616	11.38
805.36	13.38
806.104	11.38
806.848	12.38
807.592	8.38
808.336	11.38
809.079	12.38
809.823	7.38
810.566	10.38
811.31	11.38
812.053	11.38
812.796	12.38
813.539	11.38
814.283	9.38
815.026	11.38
815.769	9.38
816.511	9.38
817.254	12.38
817.997	12.38
818.74	7.38
819.482	8.38
820.225	9.38
820.967	6.38
821.71	6.38
822.452	8.38
823.194	7.38
823.936	7.38
824.678	9.38
825.42	7.38
826.162	10.38
826.904	10.38
827.646	7.38
828.388	8.38
829.129	9.38
829.871	6.38
830.612	8.38
831.354	7.38
832.095	11.38
832.836	6.38
833.577	7.38
834.319	7.38
835.06	8.38
835.801	6.38
836.542	7.38
837.282	8.38
838.023	8.38
838.764	4.38
839.504	7.38
840.245	5.38
840.985	6.38
841.726	6.38
842.466	5.38
843.206	5.38
843.946	9.38
844.687	5.38
845.427	8.38
846.166	4.38
846.906	4.38
847.646	9.38
848.386	4.38
849.125	4.38
849.865	4.38
850.605	6.38
851.344	6.38
852.083	5.38
852.823	8.38
853.562	6.38
854.301	4.38
855.04	5.38
855.779	4.38
856.518	6.38
857.257	5.38
857.995	4.38
858.734	6.38
859.473	6.38
860.211	5.38
860.95	3.38
861.688	5.38
862.426	6.38
863.165	5.38
863.903	2.38
864.641	5.38
865.379	6.38
866.117	4.38
866.855	3.38
867.593	4.38
868.33	3.38
869.068	2.38
869.806	5.38
870.543	2.38
871.28	4.38
872.018	4.38
872.755	4.38
873.492	1.38
874.229	4.38
874.967	2.38
875.703	3.38
876.44	3.38
877.177	3.38
877.914	3.38
878.651	0.38
879.387	3.38
880.124	5.38
880.86	3.38
881.597	3.38
882.333	2.38
883.069	3.38
883.806	4.38
884.542	1.38
885.278	3.38
886.014	0.38
886.749	4.38
887.485	4.38
888.221	3.38
888.957	3.38
889.692	3.38
890.428	4.38
891.163	4.38
891.899	4.38
892.634	3.38
893.369	4.38
894.104	-0.62
894.839	0.38
895.574	2.38
896.309	0.38
897.044	1.38
897.779	0.38
898.514	1.38
899.248	1.38
899.983	4.38
900.717	3.38
901.452	2.38
902.186	2.38
902.92	1.38
903.654	1.38
904.389	0.38
905.123	0.38
905.857	4.38
906.59	0.38
907.324	4.38
908.058	0.38
908.792	3.38
909.525	1.38
910.259	0.38
910.992	1.38
911.726	3.38
912.459	1.38
913.192	-0.62
913.925	1.38
914.658	4.38
915.391	1.38
916.124	3.38
916.857	3.38
917.59	2.38
918.323	0.38
919.055	3.38
919.788	3.38
920.521	1.38
921.253	1.38
921.985	1.38
922.718	1.38
923.45	0.38
924.182	1.38
924.914	1.38
925.646	1.38
926.378	2.38
927.11	1.38
927.841	2.38
928.573	4.38
929.305	1.38
930.036	3.38
930.768	1.38
931.499	0.38
932.23	1.38
932.962	1.38
933.693	3.38
934.424	2.38
935.155	0.38
935.886	2.38
936.617	0.38
937.348	2.38
938.078	3.38
938.809	1.38
939.54	0.38
940.27	1.38
941.001	2.38
941.731	2.38
942.461	1.38
943.191	3.38
943.922	1.38
944.652	0.38
945.382	3.38
946.112	0.38
946.841	0.38
947.571	0.38
948.301	1.38
949.031	0.38
949.76	2.38
950.49	2.38
951.219	4.38
951.948	1.38
952.678	3.38
953.407	2.38
954.136	1.38
954.865	3.38
955.594	2.38
956.323	1.38
957.052	0.38
957.78	2.38
958.509	-0.62
959.238	1.38
959.966	3.38
960.695	1.38
961.423	1.38
962.151	0.38
962.88	-0.62
963.608	1.38
964.336	-1.62
965.064	0.38
965.792	1.38
966.52	1.38
967.247	3.38
967.975	0.38
968.703	2.38
969.43	1.38
970.158	2.38
970.885	0.38
971.613	2.38
972.34	2.38
973.067	1.38
973.794	2.38
974.521	1.38
975.248	2.38
975.975	4.38
976.702	0.38
977.429	2.38
978.156	2.38
978.882	3.38
979.609	-1.62
980.335	0.38
981.062	2.38
981.788	0.38
982.514	3.38
983.24	3.38
983.967	1.38
984.693	0.38
985.419	2.38
986.144	3.38
986.87	1.38
987.596	2.38
988.322	1.38
989.047	2.38
989.773	1.38
990.498	2.38
991.224	0.38
991.949	0.38
992.674	1.38
993.399	2.38
994.124	1.38
994.849	1.38
995.574	1.38
996.299	2.38
997.024	2.38
997.749	3.38
998.473	1.38
999.198	2.38
999.922	2.38
1000.647	1.38
1001.371	2.38
1002.095	-0.62
1002.82	0.38
1003.544	-1.62
1004.268	6.38
1004.992	6.38
1005.716	5.38
1006.439	7.38
1007.163	8.38
1007.887	7.38
1008.611	2.38
1009.334	1.38
1010.058	0.38
1010.781	2.38
1011.504	1.38
1012.228	0.38
1012.951	1.38
1013.674	-2.62
1014.397	-1.62
1015.12	2.38
