节点500_705_QEPB04081__418__20-51-51-692.txt的数据

Date: Wed Nov 12 20:51:51 CST 2025
User: PC
Spectrometer: QEPB0408
触发模式: 0
积分时间 (秒): 1.000000E-2
Scans to average: 1
启用暗噪声校正: true
启用非线性校正: false
滑动平均宽度: 0
X轴模式: Wavelengths
Number of Pixels in Spectrum: 1044
>>>>>Begin Spectral Data<<<<<
220.843	7.12
221.644	4.12
222.444	4.12
223.244	4.12
224.045	5.12
224.845	8.12
225.645	8.12
226.445	7.12
227.245	6.12
228.045	7.12
228.845	7.12
229.645	9.12
230.444	7.12
231.244	9.12
232.043	10.12
232.843	9.12
233.642	9.12
234.442	9.12
235.241	8.12
236.04	12.12
236.839	11.12
237.638	11.12
238.437	11.12
239.236	8.12
240.035	11.12
240.833	13.12
241.632	10.12
242.43	12.12
243.229	14.12
244.027	11.12
244.826	14.12
245.624	12.12
246.422	15.12
247.22	14.12
248.018	14.12
248.816	15.12
249.614	14.12
250.412	17.12
251.21	15.12
252.007	13.12
252.805	15.12
253.602	17.12
254.4	18.12
255.197	19.12
255.994	19.12
256.791	17.12
257.589	18.12
258.386	20.12
259.183	22.12
259.979	22.12
260.776	24.12
261.573	25.12
262.37	22.12
263.166	23.12
263.963	26.12
264.759	26.12
265.556	24.12
266.352	26.12
267.148	27.12
267.944	29.12
268.74	27.12
269.536	29.12
270.332	27.12
271.128	31.12
271.924	33.12
272.719	31.12
273.515	32.12
274.311	32.12
275.106	32.12
275.901	31.12
276.697	33.12
277.492	30.12
278.287	35.12
279.082	32.12
279.877	33.12
280.672	36.12
281.467	34.12
282.262	33.12
283.056	34.12
283.851	36.12
284.646	33.12
285.44	34.12
286.234	34.12
287.029	33.12
287.823	35.12
288.617	29.12
289.411	27.12
290.205	30.12
290.999	31.12
291.793	32.12
292.587	33.12
293.381	26.12
294.174	30.12
294.968	30.12
295.761	27.12
296.555	27.12
297.348	28.12
298.141	26.12
298.935	31.12
299.728	27.12
300.521	25.12
301.314	23.12
302.107	25.12
302.899	22.12
303.692	22.12
304.485	24.12
305.277	23.12
306.07	22.12
306.862	22.12
307.655	22.12
308.447	21.12
309.239	21.12
310.031	18.12
310.823	18.12
311.615	18.12
312.407	19.12
313.199	18.12
313.991	16.12
314.783	16.12
315.574	17.12
316.366	14.12
317.157	17.12
317.949	15.12
318.74	15.12
319.531	15.12
320.322	13.12
321.113	14.12
321.904	15.12
322.695	14.12
323.486	13.12
324.277	15.12
325.068	13.12
325.858	14.12
326.649	14.12
327.439	13.12
328.23	12.12
329.02	10.12
329.81	13.12
330.6	15.12
331.391	11.12
332.181	11.12
332.971	12.12
333.76	13.12
334.55	10.12
335.34	12.12
336.13	10.12
336.919	11.12
337.709	13.12
338.498	12.12
339.287	13.12
340.077	13.12
340.866	10.12
341.655	10.12
342.444	8.12
343.233	11.12
344.022	11.12
344.811	13.12
345.6	12.12
346.388	11.12
347.177	12.12
347.965	12.12
348.754	13.12
349.542	11.12
350.33	13.12
351.119	10.12
351.907	10.12
352.695	11.12
353.483	11.12
354.271	11.12
355.059	10.12
355.846	10.12
356.634	11.12
357.422	10.12
358.209	7.12
358.997	10.12
359.784	10.12
360.571	10.12
361.359	11.12
362.146	14.12
362.933	9.12
363.72	12.12
364.507	8.12
365.294	9.12
366.081	10.12
366.867	8.12
367.654	8.12
368.44	8.12
369.227	9.12
370.013	10.12
370.8	12.12
371.586	11.12
372.372	6.12
373.158	9.12
373.944	10.12
374.73	10.12
375.516	11.12
376.302	10.12
377.088	10.12
377.873	7.12
378.659	13.12
379.445	9.12
380.23	12.12
381.015	10.12
381.801	10.12
382.586	11.12
383.371	8.12
384.156	13.12
384.941	12.12
385.726	12.12
386.511	8.12
387.296	10.12
388.08	12.12
388.865	10.12
389.649	10.12
390.434	11.12
391.218	11.12
392.003	12.12
392.787	14.12
393.571	12.12
394.355	13.12
395.139	12.12
395.923	13.12
396.707	11.12
397.491	14.12
398.274	10.12
399.058	14.12
399.842	13.12
400.625	14.12
401.408	13.12
402.192	10.12
402.975	16.12
403.758	15.12
404.541	14.12
405.324	17.12
406.107	14.12
406.89	14.12
407.673	19.12
408.456	18.12
409.238	20.12
410.021	17.12
410.803	17.12
411.586	17.12
412.368	18.12
413.151	18.12
413.933	17.12
414.715	18.12
415.497	18.12
416.279	16.12
417.061	17.12
417.843	19.12
418.624	20.12
419.406	19.12
420.188	21.12
420.969	21.12
421.751	23.12
422.532	22.12
423.313	25.12
424.095	23.12
424.876	21.12
425.657	26.12
426.438	26.12
427.219	27.12
428	28.12
428.78	28.12
429.561	28.12
430.342	27.12
431.122	31.12
431.903	33.12
432.683	36.12
433.464	35.12
434.244	34.12
435.024	40.12
435.804	41.12
436.584	43.12
437.364	48.12
438.144	45.12
438.924	55.12
439.704	53.12
440.483	54.12
441.263	63.12
442.042	68.12
442.822	70.12
443.601	75.12
444.38	82.12
445.16	92.12
445.939	98.12
446.718	106.12
447.497	115.12
448.276	129.12
449.054	132.12
449.833	152.12
450.612	159.12
451.391	181.12
452.169	205.12
452.948	224.12
453.726	244.12
454.504	273.12
455.282	308.12
456.061	339.12
456.839	381.12
457.617	425.12
458.395	470.12
459.172	523.12
459.95	575.12
460.728	653.12
461.506	730.12
462.283	801.12
463.061	906.12
463.838	1000.12
464.615	1102.12
465.393	1220.12
466.17	1355.12
466.947	1520.12
467.724	1684.12
468.501	1849.12
469.278	2063.12
470.055	2267.12
470.831	2514.12
471.608	2754.12
472.385	3027.12
473.161	3366.12
473.938	3670.12
474.714	4005.12
475.49	4430.12
476.266	4797.12
477.043	5257.12
477.819	5748.12
478.595	6252.12
479.371	6841.12
480.146	7420.12
480.922	8152.12
481.698	8865.12
482.473	9570.12
483.249	10433.12
484.024	11310.12
484.8	12191.12
485.575	13263.12
486.35	14339.12
487.126	15490.12
487.901	16758.12
488.676	17977.12
489.451	19432.12
490.225	20877.12
491	22340.12
491.775	23920.12
492.55	25621.12
493.324	27304.12
494.099	28962.12
494.873	30639.12
495.647	32349.12
496.422	34106.12
497.196	35792.12
497.97	37411.12
498.744	38941.12
499.518	40501.12
500.292	41870.12
501.066	42845.12
501.839	43884.12
502.613	44692.12
503.387	45333.12
504.16	45907.12
504.934	46036.12
505.707	46095.12
506.48	45886.12
507.253	45544.12
508.027	44988.12
508.8	44101.12
509.573	43197.12
510.346	42268.12
511.118	41325.12
511.891	40136.12
512.664	38619.12
513.437	37263.12
514.209	35916.12
514.982	34587.12
515.754	33184.12
516.526	31913.12
517.298	30656.12
518.071	29504.12
518.843	28283.12
519.615	27203.12
520.387	26007.12
521.159	25061.12
521.93	24047.12
522.702	23007.12
523.474	22029.12
524.245	21155.12
525.017	20175.12
525.788	19387.12
526.56	18608.12
527.331	17787.12
528.102	16929.12
528.873	15983.12
529.644	15307.12
530.415	14561.12
531.186	13890.12
531.957	13196.12
532.728	12472.12
533.498	11854.12
534.269	11210.12
535.039	10676.12
535.81	10106.12
536.58	9530.12
537.351	9033.12
538.121	8506.12
538.891	8092.12
539.661	7664.12
540.431	7241.12
541.201	6898.12
541.971	6521.12
542.741	6144.12
543.51	5874.12
544.28	5581.12
545.05	5300.12
545.819	5072.12
546.588	4837.12
547.358	4596.12
548.127	4379.12
548.896	4144.12
549.665	3917.12
550.434	3727.12
551.203	3524.12
551.972	3368.12
552.741	3184.12
553.51	2999.12
554.278	2821.12
555.047	2683.12
555.815	2544.12
556.584	2396.12
557.352	2263.12
558.121	2152.12
558.889	2017.12
559.657	1911.12
560.425	1804.12
561.193	1724.12
561.961	1635.12
562.729	1530.12
563.496	1447.12
564.264	1360.12
565.032	1293.12
565.799	1236.12
566.567	1162.12
567.334	1078.12
568.101	1044.12
568.869	985.12
569.636	920.12
570.403	870.12
571.17	832.12
571.937	780.12
572.704	738.12
573.471	692.12
574.237	653.12
575.004	614.12
575.771	584.12
576.537	537.12
577.303	522.12
578.07	486.12
578.836	465.12
579.602	437.12
580.368	414.12
581.134	399.12
581.9	374.12
582.666	360.12
583.432	338.12
584.198	326.12
584.964	307.12
585.729	294.12
586.495	273.12
587.26	264.12
588.025	247.12
588.791	229.12
589.556	224.12
590.321	208.12
591.086	197.12
591.851	194.12
592.616	179.12
593.381	172.12
594.146	165.12
594.911	162.12
595.675	150.12
596.44	145.12
597.204	139.12
597.969	130.12
598.733	128.12
599.497	120.12
600.261	113.12
601.025	110.12
601.79	107.12
602.553	101.12
603.317	96.12
604.081	91.12
604.845	91.12
605.609	83.12
606.372	82.12
607.136	76.12
607.899	79.12
608.662	73.12
609.426	71.12
610.189	68.12
610.952	66.12
611.715	63.12
612.478	59.12
613.241	60.12
614.004	58.12
614.767	58.12
615.529	55.12
616.292	48.12
617.055	47.12
617.817	47.12
618.579	46.12
619.342	44.12
620.104	44.12
620.866	43.12
621.628	43.12
622.39	38.12
623.152	37.12
623.914	38.12
624.676	34.12
625.438	32.12
626.199	35.12
626.961	31.12
627.722	32.12
628.484	29.12
629.245	32.12
630.006	29.12
630.768	28.12
631.529	28.12
632.29	23.12
633.051	23.12
633.812	25.12
634.573	24.12
635.333	24.12
636.094	25.12
636.855	22.12
637.615	21.12
638.376	23.12
639.136	20.12
639.896	21.12
640.657	21.12
641.417	20.12
642.177	22.12
642.937	18.12
643.697	18.12
644.457	18.12
645.216	17.12
645.976	18.12
646.736	13.12
647.495	17.12
648.255	12.12
649.014	15.12
649.774	14.12
650.533	15.12
651.292	15.12
652.051	11.12
652.81	15.12
653.569	13.12
654.328	12.12
655.087	15.12
655.846	13.12
656.604	13.12
657.363	12.12
658.121	12.12
658.88	10.12
659.638	11.12
660.397	14.12
661.155	10.12
661.913	11.12
662.671	9.12
663.429	9.12
664.187	13.12
664.945	12.12
665.703	11.12
666.46	9.12
667.218	9.12
667.976	10.12
668.733	8.12
669.49	10.12
670.248	10.12
671.005	9.12
671.762	9.12
672.519	7.12
673.276	7.12
674.033	8.12
674.79	9.12
675.547	8.12
676.304	11.12
677.06	8.12
677.817	8.12
678.574	10.12
679.33	9.12
680.086	10.12
680.843	8.12
681.599	8.12
682.355	9.12
683.111	8.12
683.867	9.12
684.623	8.12
685.379	9.12
686.135	5.12
686.89	5.12
687.646	7.12
688.402	8.12
689.157	6.12
689.912	4.12
690.668	7.12
691.423	7.12
692.178	6.12
692.933	7.12
693.688	9.12
694.443	9.12
695.198	7.12
695.953	8.12
696.708	7.12
697.462	8.12
698.217	7.12
698.972	6.12
699.726	7.12
700.48	5.12
701.235	10.12
701.989	7.12
702.743	10.12
703.497	8.12
704.251	7.12
705.005	9.12
705.759	8.12
706.513	8.12
707.266	7.12
708.02	5.12
708.774	7.12
709.527	5.12
710.28	9.12
711.034	6.12
711.787	12.12
712.54	8.12
713.293	7.12
714.046	7.12
714.799	7.12
715.552	7.12
716.305	6.12
717.058	11.12
717.81	6.12
718.563	7.12
719.315	8.12
720.068	8.12
720.82	5.12
721.573	9.12
722.325	8.12
723.077	9.12
723.829	8.12
724.581	7.12
725.333	8.12
726.085	10.12
726.836	9.12
727.588	9.12
728.34	7.12
729.091	9.12
729.843	9.12
730.594	11.12
731.346	9.12
732.097	11.12
732.848	8.12
733.599	9.12
734.35	9.12
735.101	9.12
735.852	7.12
736.603	8.12
737.354	8.12
738.104	8.12
738.855	8.12
739.605	9.12
740.356	11.12
741.106	8.12
741.856	9.12
742.607	10.12
743.357	10.12
744.107	11.12
744.857	11.12
745.607	9.12
746.357	12.12
747.106	10.12
747.856	13.12
748.606	10.12
749.355	11.12
750.105	12.12
750.854	10.12
751.603	12.12
752.353	13.12
753.102	9.12
753.851	11.12
754.6	11.12
755.349	13.12
756.098	11.12
756.847	10.12
757.595	9.12
758.344	9.12
759.093	15.12
759.841	12.12
760.589	13.12
761.338	12.12
762.086	15.12
762.834	12.12
763.582	13.12
764.331	13.12
765.079	13.12
765.826	14.12
766.574	11.12
767.322	9.12
768.07	13.12
768.817	14.12
769.565	13.12
770.312	11.12
771.06	15.12
771.807	11.12
772.554	14.12
773.302	14.12
774.049	14.12
774.796	16.12
775.543	13.12
776.29	15.12
777.036	15.12
777.783	15.12
778.53	18.12
779.276	12.12
780.023	18.12
780.769	13.12
781.516	16.12
782.262	16.12
783.008	14.12
783.754	16.12
784.5	14.12
785.246	12.12
785.992	15.12
786.738	17.12
787.484	17.12
788.23	17.12
788.975	19.12
789.721	16.12
790.466	16.12
791.212	14.12
791.957	14.12
792.702	16.12
793.447	13.12
794.193	16.12
794.938	14.12
795.683	12.12
796.427	12.12
797.172	13.12
797.917	14.12
798.662	15.12
799.406	12.12
800.151	13.12
800.895	11.12
801.64	11.12
802.384	11.12
803.128	14.12
803.872	12.12
804.616	11.12
805.36	8.12
806.104	10.12
806.848	10.12
807.592	12.12
808.336	9.12
809.079	11.12
809.823	10.12
810.566	8.12
811.31	7.12
812.053	10.12
812.796	11.12
813.539	8.12
814.283	9.12
815.026	7.12
815.769	10.12
816.511	7.12
817.254	7.12
817.997	10.12
818.74	8.12
819.482	8.12
820.225	8.12
820.967	9.12
821.71	6.12
822.452	9.12
823.194	8.12
823.936	6.12
824.678	6.12
825.42	8.12
826.162	5.12
826.904	8.12
827.646	3.12
828.388	6.12
829.129	8.12
829.871	5.12
830.612	7.12
831.354	6.12
832.095	7.12
832.836	8.12
833.577	5.12
834.319	6.12
835.06	6.12
835.801	6.12
836.542	8.12
837.282	7.12
838.023	6.12
838.764	5.12
839.504	5.12
840.245	5.12
840.985	8.12
841.726	2.12
842.466	7.12
843.206	5.12
843.946	6.12
844.687	5.12
845.427	5.12
846.166	5.12
846.906	3.12
847.646	5.12
848.386	3.12
849.125	6.12
849.865	5.12
850.605	8.12
851.344	6.12
852.083	5.12
852.823	4.12
853.562	5.12
854.301	3.12
855.04	6.12
855.779	4.12
856.518	5.12
857.257	5.12
857.995	5.12
858.734	6.12
859.473	4.12
860.211	6.12
860.95	4.12
861.688	4.12
862.426	4.12
863.165	2.12
863.903	4.12
864.641	2.12
865.379	1.12
866.117	4.12
866.855	4.12
867.593	4.12
868.33	3.12
869.068	4.12
869.806	3.12
870.543	2.12
871.28	1.12
872.018	4.12
872.755	3.12
873.492	3.12
874.229	4.12
874.967	2.12
875.703	1.12
876.44	4.12
877.177	1.12
877.914	2.12
878.651	1.12
879.387	3.12
880.124	1.12
880.86	2.12
881.597	0.12
882.333	2.12
883.069	1.12
883.806	-0.88
884.542	2.12
885.278	3.12
886.014	1.12
886.749	2.12
887.485	0.12
888.221	2.12
888.957	0.12
889.692	0.12
890.428	1.12
891.163	1.12
891.899	3.12
892.634	1.12
893.369	2.12
894.104	1.12
894.839	3.12
895.574	1.12
896.309	1.12
897.044	3.12
897.779	-0.88
898.514	1.12
899.248	2.12
899.983	2.12
900.717	0.12
901.452	0.12
902.186	1.12
902.92	2.12
903.654	1.12
904.389	2.12
905.123	1.12
905.857	2.12
906.59	1.12
907.324	1.12
908.058	1.12
908.792	1.12
909.525	1.12
910.259	1.12
910.992	3.12
911.726	0.12
912.459	2.12
913.192	0.12
913.925	1.12
914.658	3.12
915.391	3.12
916.124	2.12
916.857	0.12
917.59	0.12
918.323	-0.88
919.055	0.12
919.788	-0.88
920.521	0.12
921.253	1.12
921.985	1.12
922.718	-1.88
923.45	3.12
924.182	0.12
924.914	2.12
925.646	1.12
926.378	-0.88
927.11	-0.88
927.841	1.12
928.573	1.12
929.305	-0.88
930.036	1.12
930.768	-0.88
931.499	0.12
932.23	2.12
932.962	-0.88
933.693	0.12
934.424	2.12
935.155	3.12
935.886	1.12
936.617	0.12
937.348	-0.88
938.078	-0.88
938.809	1.12
939.54	2.12
940.27	-0.88
941.001	0.12
941.731	0.12
942.461	-0.88
943.191	1.12
943.922	0.12
944.652	1.12
945.382	-0.88
946.112	-1.88
946.841	0.12
947.571	1.12
948.301	-0.88
949.031	1.12
949.76	-0.88
950.49	2.12
951.219	-1.88
951.948	0.12
952.678	3.12
953.407	2.12
954.136	-0.88
954.865	2.12
955.594	-0.88
956.323	1.12
957.052	-0.88
957.78	0.12
958.509	-0.88
959.238	-0.88
959.966	0.12
960.695	-0.88
961.423	-0.88
962.151	0.12
962.88	-2.88
963.608	1.12
964.336	-0.88
965.064	2.12
965.792	-1.88
966.52	1.12
967.247	0.12
967.975	0.12
968.703	-0.88
969.43	-2.88
970.158	1.12
970.885	-2.88
971.613	2.12
972.34	1.12
973.067	-1.88
973.794	-0.88
974.521	-0.88
975.248	1.12
975.975	-0.88
976.702	0.12
977.429	1.12
978.156	1.12
978.882	1.12
979.609	0.12
980.335	1.12
981.062	1.12
981.788	1.12
982.514	-0.88
983.24	-1.88
983.967	0.12
984.693	0.12
985.419	-0.88
986.144	-0.88
986.87	-0.88
987.596	1.12
988.322	2.12
989.047	1.12
989.773	2.12
990.498	-0.88
991.224	-0.88
991.949	2.12
992.674	0.12
993.399	0.12
994.124	2.12
994.849	1.12
995.574	-0.88
996.299	1.12
997.024	-1.88
997.749	-0.88
998.473	1.12
999.198	-0.88
999.922	1.12
1000.647	1.12
1001.371	5.12
1002.095	0.12
1002.82	0.12
1003.544	-2.88
1004.268	4.12
1004.992	3.12
1005.716	5.12
1006.439	6.12
1007.163	4.12
1007.887	6.12
1008.611	-0.88
1009.334	1.12
1010.058	2.12
1010.781	-0.88
1011.504	2.12
1012.228	1.12
1012.951	-0.88
1013.674	0.12
1014.397	-0.88
1015.12	-0.88
