节点500_705_QEPB04081__64__20-46-57-288.txt的数据

Date: Wed Nov 12 20:46:57 CST 2025
User: PC
Spectrometer: QEPB0408
触发模式: 0
积分时间 (秒): 1.000000E-2
Scans to average: 1
启用暗噪声校正: true
启用非线性校正: false
滑动平均宽度: 0
X轴模式: Wavelengths
Number of Pixels in Spectrum: 1044
>>>>>Begin Spectral Data<<<<<
220.843	4.62
221.644	5.62
222.444	5.62
223.244	4.62
224.045	5.62
224.845	7.62
225.645	8.62
226.445	7.62
227.245	8.62
228.045	4.62
228.845	5.62
229.645	9.62
230.444	7.62
231.244	9.62
232.043	8.62
232.843	7.62
233.642	7.62
234.442	10.62
235.241	8.62
236.04	9.62
236.839	11.62
237.638	11.62
238.437	10.62
239.236	11.62
240.035	11.62
240.833	12.62
241.632	14.62
242.43	10.62
243.229	12.62
244.027	13.62
244.826	12.62
245.624	14.62
246.422	12.62
247.22	16.62
248.018	14.62
248.816	15.62
249.614	14.62
250.412	14.62
251.21	17.62
252.007	21.62
252.805	18.62
253.602	16.62
254.4	19.62
255.197	20.62
255.994	19.62
256.791	21.62
257.589	23.62
258.386	19.62
259.183	23.62
259.979	22.62
260.776	22.62
261.573	26.62
262.37	26.62
263.166	25.62
263.963	25.62
264.759	25.62
265.556	26.62
266.352	28.62
267.148	29.62
267.944	27.62
268.74	30.62
269.536	29.62
270.332	30.62
271.128	34.62
271.924	35.62
272.719	36.62
273.515	36.62
274.311	36.62
275.106	32.62
275.901	35.62
276.697	36.62
277.492	35.62
278.287	38.62
279.082	37.62
279.877	30.62
280.672	37.62
281.467	37.62
282.262	32.62
283.056	37.62
283.851	38.62
284.646	36.62
285.44	34.62
286.234	36.62
287.029	34.62
287.823	36.62
288.617	30.62
289.411	33.62
290.205	34.62
290.999	35.62
291.793	29.62
292.587	32.62
293.381	30.62
294.174	32.62
294.968	28.62
295.761	26.62
296.555	26.62
297.348	26.62
298.141	25.62
298.935	26.62
299.728	24.62
300.521	26.62
301.314	21.62
302.107	26.62
302.899	24.62
303.692	23.62
304.485	24.62
305.277	19.62
306.07	23.62
306.862	20.62
307.655	19.62
308.447	23.62
309.239	17.62
310.031	19.62
310.823	18.62
311.615	18.62
312.407	16.62
313.199	14.62
313.991	17.62
314.783	14.62
315.574	12.62
316.366	16.62
317.157	13.62
317.949	16.62
318.74	12.62
319.531	14.62
320.322	13.62
321.113	16.62
321.904	13.62
322.695	11.62
323.486	14.62
324.277	12.62
325.068	13.62
325.858	12.62
326.649	12.62
327.439	15.62
328.23	12.62
329.02	12.62
329.81	12.62
330.6	14.62
331.391	11.62
332.181	15.62
332.971	12.62
333.76	10.62
334.55	11.62
335.34	10.62
336.13	11.62
336.919	10.62
337.709	12.62
338.498	10.62
339.287	11.62
340.077	10.62
340.866	8.62
341.655	9.62
342.444	10.62
343.233	10.62
344.022	9.62
344.811	12.62
345.6	10.62
346.388	12.62
347.177	12.62
347.965	9.62
348.754	7.62
349.542	8.62
350.33	11.62
351.119	12.62
351.907	11.62
352.695	10.62
353.483	8.62
354.271	10.62
355.059	11.62
355.846	10.62
356.634	10.62
357.422	7.62
358.209	6.62
358.997	10.62
359.784	10.62
360.571	9.62
361.359	12.62
362.146	8.62
362.933	12.62
363.72	6.62
364.507	10.62
365.294	7.62
366.081	6.62
366.867	9.62
367.654	7.62
368.44	8.62
369.227	8.62
370.013	8.62
370.8	8.62
371.586	9.62
372.372	10.62
373.158	8.62
373.944	12.62
374.73	7.62
375.516	8.62
376.302	10.62
377.088	10.62
377.873	9.62
378.659	11.62
379.445	9.62
380.23	10.62
381.015	8.62
381.801	10.62
382.586	10.62
383.371	13.62
384.156	11.62
384.941	10.62
385.726	12.62
386.511	9.62
387.296	12.62
388.08	11.62
388.865	11.62
389.649	12.62
390.434	9.62
391.218	12.62
392.003	10.62
392.787	10.62
393.571	14.62
394.355	12.62
395.139	11.62
395.923	12.62
396.707	11.62
397.491	13.62
398.274	13.62
399.058	13.62
399.842	13.62
400.625	12.62
401.408	15.62
402.192	12.62
402.975	14.62
403.758	15.62
404.541	16.62
405.324	15.62
406.107	14.62
406.89	13.62
407.673	15.62
408.456	16.62
409.238	13.62
410.021	17.62
410.803	15.62
411.586	16.62
412.368	10.62
413.151	18.62
413.933	16.62
414.715	19.62
415.497	17.62
416.279	18.62
417.061	18.62
417.843	20.62
418.624	20.62
419.406	20.62
420.188	23.62
420.969	19.62
421.751	22.62
422.532	21.62
423.313	21.62
424.095	24.62
424.876	24.62
425.657	24.62
426.438	26.62
427.219	28.62
428	28.62
428.78	26.62
429.561	30.62
430.342	28.62
431.122	26.62
431.903	31.62
432.683	36.62
433.464	33.62
434.244	36.62
435.024	41.62
435.804	43.62
436.584	41.62
437.364	42.62
438.144	52.62
438.924	49.62
439.704	52.62
440.483	59.62
441.263	59.62
442.042	61.62
442.822	65.62
443.601	72.62
444.38	77.62
445.16	82.62
445.939	90.62
446.718	100.62
447.497	108.62
448.276	117.62
449.054	126.62
449.833	139.62
450.612	151.62
451.391	158.62
452.169	179.62
452.948	200.62
453.726	232.62
454.504	248.62
455.282	276.62
456.061	299.62
456.839	344.62
457.617	387.62
458.395	427.62
459.172	477.62
459.95	530.62
460.728	595.62
461.506	678.62
462.283	757.62
463.061	833.62
463.838	926.62
464.615	1050.62
465.393	1154.62
466.17	1308.62
466.947	1461.62
467.724	1619.62
468.501	1807.62
469.278	1993.62
470.055	2206.62
470.831	2461.62
471.608	2724.62
472.385	3028.62
473.161	3344.62
473.938	3694.62
474.714	4121.62
475.49	4515.62
476.266	4991.62
477.043	5417.62
477.819	5985.62
478.595	6584.62
479.371	7225.62
480.146	7948.62
480.922	8737.62
481.698	9552.62
482.473	10466.62
483.249	11381.62
484.024	12387.62
484.8	13570.62
485.575	14765.62
486.35	16061.62
487.126	17446.62
487.901	18935.62
488.676	20520.62
489.451	22151.62
490.225	23861.62
491	25656.62
491.775	27487.62
492.55	29514.62
493.324	31466.62
494.099	33271.62
494.873	35361.62
495.647	37265.62
496.422	39188.62
497.196	41132.62
497.97	42840.62
498.744	44374.62
499.518	45904.62
500.292	47338.62
501.066	48151.62
501.839	48939.62
502.613	49538.62
503.387	50015.62
504.16	50209.62
504.934	49996.62
505.707	49594.62
506.48	48941.62
507.253	48056.62
508.027	47046.62
508.8	45887.62
509.573	44536.62
510.346	43113.62
511.118	41933.62
511.891	40429.62
512.664	38749.62
513.437	37070.62
514.209	35536.62
514.982	34160.62
515.754	32679.62
516.526	31368.62
517.298	30030.62
518.071	28822.62
518.843	27633.62
519.615	26508.62
520.387	25466.62
521.159	24459.62
521.93	23432.62
522.702	22412.62
523.474	21412.62
524.245	20508.62
525.017	19540.62
525.788	18765.62
526.56	17868.62
527.331	17095.62
528.102	16136.62
528.873	15296.62
529.644	14570.62
530.415	13832.62
531.186	13163.62
531.957	12495.62
532.728	11798.62
533.498	11128.62
534.269	10582.62
535.039	9990.62
535.81	9417.62
536.58	8838.62
537.351	8443.62
538.121	7939.62
538.891	7554.62
539.661	7137.62
540.431	6797.62
541.201	6399.62
541.971	6041.62
542.741	5762.62
543.51	5451.62
544.28	5189.62
545.05	4944.62
545.819	4718.62
546.588	4479.62
547.358	4261.62
548.127	4063.62
548.896	3827.62
549.665	3648.62
550.434	3433.62
551.203	3251.62
551.972	3093.62
552.741	2924.62
553.51	2739.62
554.278	2602.62
555.047	2433.62
555.815	2319.62
556.584	2175.62
557.352	2086.62
558.121	1966.62
558.889	1858.62
559.657	1747.62
560.425	1641.62
561.193	1564.62
561.961	1486.62
562.729	1380.62
563.496	1317.62
564.264	1255.62
565.032	1191.62
565.799	1115.62
566.567	1062.62
567.334	1006.62
568.101	933.62
568.869	897.62
569.636	842.62
570.403	786.62
571.17	748.62
571.937	713.62
572.704	679.62
573.471	640.62
574.237	598.62
575.004	555.62
575.771	529.62
576.537	503.62
577.303	474.62
578.07	449.62
578.836	421.62
579.602	393.62
580.368	376.62
581.134	361.62
581.9	344.62
582.666	328.62
583.432	308.62
584.198	291.62
584.964	281.62
585.729	267.62
586.495	249.62
587.26	236.62
588.025	225.62
588.791	211.62
589.556	209.62
590.321	196.62
591.086	183.62
591.851	178.62
592.616	165.62
593.381	157.62
594.146	149.62
594.911	144.62
595.675	134.62
596.44	133.62
597.204	128.62
597.969	118.62
598.733	114.62
599.497	111.62
600.261	105.62
601.025	97.62
601.79	96.62
602.553	93.62
603.317	87.62
604.081	85.62
604.845	83.62
605.609	79.62
606.372	74.62
607.136	72.62
607.899	69.62
608.662	64.62
609.426	67.62
610.189	60.62
610.952	62.62
611.715	59.62
612.478	57.62
613.241	52.62
614.004	50.62
614.767	50.62
615.529	51.62
616.292	43.62
617.055	47.62
617.817	43.62
618.579	42.62
619.342	39.62
620.104	40.62
620.866	41.62
621.628	33.62
622.39	36.62
623.152	34.62
623.914	33.62
624.676	30.62
625.438	31.62
626.199	30.62
626.961	30.62
627.722	28.62
628.484	27.62
629.245	28.62
630.006	26.62
630.768	28.62
631.529	22.62
632.29	25.62
633.051	26.62
633.812	22.62
634.573	20.62
635.333	23.62
636.094	24.62
636.855	19.62
637.615	18.62
638.376	18.62
639.136	18.62
639.896	20.62
640.657	18.62
641.417	15.62
642.177	19.62
642.937	17.62
643.697	18.62
644.457	14.62
645.216	13.62
645.976	12.62
646.736	14.62
647.495	13.62
648.255	16.62
649.014	15.62
649.774	16.62
650.533	12.62
651.292	13.62
652.051	13.62
652.81	14.62
653.569	13.62
654.328	11.62
655.087	10.62
655.846	10.62
656.604	10.62
657.363	13.62
658.121	14.62
658.88	10.62
659.638	7.62
660.397	9.62
661.155	11.62
661.913	12.62
662.671	9.62
663.429	13.62
664.187	10.62
664.945	9.62
665.703	9.62
666.46	10.62
667.218	11.62
667.976	9.62
668.733	8.62
669.49	9.62
670.248	9.62
671.005	9.62
671.762	10.62
672.519	9.62
673.276	9.62
674.033	8.62
674.79	9.62
675.547	10.62
676.304	8.62
677.06	8.62
677.817	4.62
678.574	10.62
679.33	7.62
680.086	10.62
680.843	6.62
681.599	10.62
682.355	7.62
683.111	7.62
683.867	7.62
684.623	7.62
685.379	8.62
686.135	8.62
686.89	7.62
687.646	7.62
688.402	3.62
689.157	8.62
689.912	7.62
690.668	5.62
691.423	6.62
692.178	7.62
692.933	8.62
693.688	8.62
694.443	7.62
695.198	8.62
695.953	5.62
696.708	8.62
697.462	4.62
698.217	8.62
698.972	4.62
699.726	7.62
700.48	8.62
701.235	7.62
701.989	6.62
702.743	7.62
703.497	8.62
704.251	8.62
705.005	7.62
705.759	6.62
706.513	9.62
707.266	7.62
708.02	7.62
708.774	8.62
709.527	8.62
710.28	8.62
711.034	10.62
711.787	8.62
712.54	6.62
713.293	6.62
714.046	6.62
714.799	7.62
715.552	6.62
716.305	7.62
717.058	6.62
717.81	7.62
718.563	7.62
719.315	7.62
720.068	5.62
720.82	6.62
721.573	7.62
722.325	5.62
723.077	7.62
723.829	8.62
724.581	6.62
725.333	11.62
726.085	8.62
726.836	7.62
727.588	9.62
728.34	8.62
729.091	7.62
729.843	8.62
730.594	10.62
731.346	8.62
732.097	9.62
732.848	8.62
733.599	6.62
734.35	8.62
735.101	8.62
735.852	9.62
736.603	9.62
737.354	9.62
738.104	6.62
738.855	9.62
739.605	11.62
740.356	8.62
741.106	10.62
741.856	11.62
742.607	8.62
743.357	7.62
744.107	8.62
744.857	12.62
745.607	10.62
746.357	8.62
747.106	11.62
747.856	10.62
748.606	10.62
749.355	12.62
750.105	9.62
750.854	10.62
751.603	13.62
752.353	10.62
753.102	10.62
753.851	10.62
754.6	13.62
755.349	13.62
756.098	10.62
756.847	12.62
757.595	15.62
758.344	11.62
759.093	11.62
759.841	12.62
760.589	12.62
761.338	12.62
762.086	14.62
762.834	14.62
763.582	13.62
764.331	15.62
765.079	14.62
765.826	14.62
766.574	14.62
767.322	15.62
768.07	14.62
768.817	16.62
769.565	13.62
770.312	17.62
771.06	16.62
771.807	15.62
772.554	13.62
773.302	15.62
774.049	17.62
774.796	14.62
775.543	18.62
776.29	13.62
777.036	17.62
777.783	18.62
778.53	16.62
779.276	15.62
780.023	16.62
780.769	18.62
781.516	16.62
782.262	17.62
783.008	14.62
783.754	17.62
784.5	19.62
785.246	15.62
785.992	15.62
786.738	14.62
787.484	16.62
788.23	13.62
788.975	18.62
789.721	13.62
790.466	17.62
791.212	16.62
791.957	13.62
792.702	16.62
793.447	15.62
794.193	15.62
794.938	13.62
795.683	12.62
796.427	14.62
797.172	12.62
797.917	14.62
798.662	12.62
799.406	12.62
800.151	12.62
800.895	13.62
801.64	13.62
802.384	12.62
803.128	10.62
803.872	8.62
804.616	7.62
805.36	10.62
806.104	13.62
806.848	8.62
807.592	10.62
808.336	8.62
809.079	10.62
809.823	12.62
810.566	9.62
811.31	9.62
812.053	9.62
812.796	9.62
813.539	8.62
814.283	8.62
815.026	7.62
815.769	7.62
816.511	7.62
817.254	9.62
817.997	7.62
818.74	6.62
819.482	7.62
820.225	6.62
820.967	8.62
821.71	7.62
822.452	7.62
823.194	8.62
823.936	8.62
824.678	6.62
825.42	7.62
826.162	5.62
826.904	6.62
827.646	7.62
828.388	7.62
829.129	6.62
829.871	4.62
830.612	7.62
831.354	5.62
832.095	6.62
832.836	4.62
833.577	5.62
834.319	7.62
835.06	4.62
835.801	6.62
836.542	5.62
837.282	5.62
838.023	4.62
838.764	5.62
839.504	4.62
840.245	6.62
840.985	4.62
841.726	4.62
842.466	5.62
843.206	7.62
843.946	3.62
844.687	5.62
845.427	5.62
846.166	4.62
846.906	4.62
847.646	2.62
848.386	4.62
849.125	4.62
849.865	5.62
850.605	5.62
851.344	3.62
852.083	3.62
852.823	2.62
853.562	1.62
854.301	3.62
855.04	4.62
855.779	5.62
856.518	5.62
857.257	3.62
857.995	6.62
858.734	2.62
859.473	2.62
860.211	4.62
860.95	0.62
861.688	1.62
862.426	1.62
863.165	2.62
863.903	3.62
864.641	3.62
865.379	3.62
866.117	1.62
866.855	1.62
867.593	3.62
868.33	3.62
869.068	1.62
869.806	4.62
870.543	1.62
871.28	1.62
872.018	1.62
872.755	1.62
873.492	1.62
874.229	1.62
874.967	2.62
875.703	4.62
876.44	2.62
877.177	1.62
877.914	2.62
878.651	-1.38
879.387	2.62
880.124	0.62
880.86	-0.38
881.597	2.62
882.333	4.62
883.069	1.62
883.806	0.62
884.542	0.62
885.278	3.62
886.014	2.62
886.749	2.62
887.485	-0.38
888.221	3.62
888.957	-0.38
889.692	2.62
890.428	-1.38
891.163	1.62
891.899	-0.38
892.634	-1.38
893.369	0.62
894.104	1.62
894.839	1.62
895.574	-0.38
896.309	1.62
897.044	2.62
897.779	0.62
898.514	2.62
899.248	1.62
899.983	0.62
900.717	0.62
901.452	-1.38
902.186	0.62
902.92	2.62
903.654	-2.38
904.389	0.62
905.123	2.62
905.857	-0.38
906.59	2.62
907.324	1.62
908.058	-0.38
908.792	1.62
909.525	1.62
910.259	-1.38
910.992	0.62
911.726	0.62
912.459	-1.38
913.192	-0.38
913.925	-2.38
914.658	-0.38
915.391	-1.38
916.124	-0.38
916.857	-1.38
917.59	2.62
918.323	0.62
919.055	0.62
919.788	1.62
920.521	1.62
921.253	1.62
921.985	-0.38
922.718	1.62
923.45	-0.38
924.182	-0.38
924.914	-0.38
925.646	-0.38
926.378	-1.38
927.11	0.62
927.841	-0.38
928.573	0.62
929.305	-0.38
930.036	1.62
930.768	-1.38
931.499	1.62
932.23	0.62
932.962	-1.38
933.693	0.62
934.424	-1.38
935.155	0.62
935.886	0.62
936.617	0.62
937.348	1.62
938.078	-1.38
938.809	0.62
939.54	-1.38
940.27	0.62
941.001	-2.38
941.731	0.62
942.461	0.62
943.191	-0.38
943.922	1.62
944.652	-0.38
945.382	1.62
946.112	0.62
946.841	0.62
947.571	1.62
948.301	0.62
949.031	1.62
949.76	-0.38
950.49	1.62
951.219	1.62
951.948	0.62
952.678	1.62
953.407	0.62
954.136	-2.38
954.865	2.62
955.594	-1.38
956.323	-0.38
957.052	-0.38
957.78	-0.38
958.509	-1.38
959.238	-1.38
959.966	-0.38
960.695	0.62
961.423	2.62
962.151	0.62
962.88	0.62
963.608	-0.38
964.336	-0.38
965.064	-0.38
965.792	-0.38
966.52	1.62
967.247	-2.38
967.975	-1.38
968.703	-0.38
969.43	-0.38
970.158	2.62
970.885	1.62
971.613	3.62
972.34	-0.38
973.067	-0.38
973.794	0.62
974.521	-0.38
975.248	0.62
975.975	-0.38
976.702	-1.38
977.429	-1.38
978.156	-0.38
978.882	-0.38
979.609	-0.38
980.335	0.62
981.062	-0.38
981.788	-1.38
982.514	-1.38
983.24	-3.38
983.967	0.62
984.693	0.62
985.419	1.62
986.144	1.62
986.87	-0.38
987.596	1.62
988.322	0.62
989.047	0.62
989.773	-1.38
990.498	0.62
991.224	0.62
991.949	0.62
992.674	1.62
993.399	0.62
994.124	1.62
994.849	-0.38
995.574	0.62
996.299	-1.38
997.024	-1.38
997.749	1.62
998.473	0.62
999.198	1.62
999.922	0.62
1000.647	-1.38
1001.371	3.62
1002.095	-3.38
1002.82	-1.38
1003.544	-0.38
1004.268	4.62
1004.992	2.62
1005.716	3.62
1006.439	3.62
1007.163	5.62
1007.887	4.62
1008.611	2.62
1009.334	1.62
1010.058	0.62
1010.781	-1.38
1011.504	-0.38
1012.228	-1.38
1012.951	1.62
1013.674	-0.38
1014.397	0.62
1015.12	-0.38
