节点500_705_QEPB04081__654__20-55-13-821.txt的数据

Date: Wed Nov 12 20:55:13 CST 2025
User: PC
Spectrometer: QEPB0408
触发模式: 0
积分时间 (秒): 1.000000E-2
Scans to average: 1
启用暗噪声校正: true
启用非线性校正: false
滑动平均宽度: 0
X轴模式: Wavelengths
Number of Pixels in Spectrum: 1044
>>>>>Begin Spectral Data<<<<<
220.843	4.12
221.644	7.12
222.444	7.12
223.244	6.12
224.045	7.12
224.845	5.12
225.645	4.12
226.445	4.12
227.245	9.12
228.045	8.12
228.845	8.12
229.645	7.12
230.444	5.12
231.244	6.12
232.043	8.12
232.843	11.12
233.642	8.12
234.442	9.12
235.241	8.12
236.04	9.12
236.839	10.12
237.638	9.12
238.437	12.12
239.236	10.12
240.035	12.12
240.833	12.12
241.632	11.12
242.43	12.12
243.229	11.12
244.027	11.12
244.826	13.12
245.624	12.12
246.422	13.12
247.22	14.12
248.018	15.12
248.816	15.12
249.614	13.12
250.412	13.12
251.21	15.12
252.007	14.12
252.805	14.12
253.602	19.12
254.4	16.12
255.197	17.12
255.994	20.12
256.791	18.12
257.589	18.12
258.386	21.12
259.183	19.12
259.979	22.12
260.776	25.12
261.573	21.12
262.37	20.12
263.166	25.12
263.963	21.12
264.759	24.12
265.556	26.12
266.352	23.12
267.148	24.12
267.944	25.12
268.74	25.12
269.536	26.12
270.332	28.12
271.128	27.12
271.924	28.12
272.719	29.12
273.515	29.12
274.311	28.12
275.106	30.12
275.901	29.12
276.697	32.12
277.492	30.12
278.287	31.12
279.082	33.12
279.877	34.12
280.672	32.12
281.467	32.12
282.262	32.12
283.056	33.12
283.851	34.12
284.646	31.12
285.44	32.12
286.234	33.12
287.029	31.12
287.823	34.12
288.617	29.12
289.411	29.12
290.205	27.12
290.999	30.12
291.793	30.12
292.587	31.12
293.381	28.12
294.174	29.12
294.968	29.12
295.761	29.12
296.555	26.12
297.348	25.12
298.141	25.12
298.935	30.12
299.728	27.12
300.521	25.12
301.314	29.12
302.107	21.12
302.899	22.12
303.692	24.12
304.485	24.12
305.277	24.12
306.07	22.12
306.862	23.12
307.655	23.12
308.447	20.12
309.239	22.12
310.031	20.12
310.823	18.12
311.615	16.12
312.407	17.12
313.199	17.12
313.991	18.12
314.783	15.12
315.574	15.12
316.366	17.12
317.157	16.12
317.949	19.12
318.74	14.12
319.531	15.12
320.322	13.12
321.113	11.12
321.904	14.12
322.695	11.12
323.486	13.12
324.277	14.12
325.068	14.12
325.858	13.12
326.649	13.12
327.439	11.12
328.23	16.12
329.02	11.12
329.81	11.12
330.6	9.12
331.391	13.12
332.181	11.12
332.971	12.12
333.76	15.12
334.55	12.12
335.34	13.12
336.13	11.12
336.919	15.12
337.709	11.12
338.498	13.12
339.287	11.12
340.077	12.12
340.866	13.12
341.655	11.12
342.444	12.12
343.233	14.12
344.022	14.12
344.811	12.12
345.6	10.12
346.388	10.12
347.177	11.12
347.965	12.12
348.754	12.12
349.542	9.12
350.33	10.12
351.119	10.12
351.907	10.12
352.695	10.12
353.483	10.12
354.271	10.12
355.059	11.12
355.846	13.12
356.634	11.12
357.422	11.12
358.209	10.12
358.997	12.12
359.784	11.12
360.571	10.12
361.359	12.12
362.146	10.12
362.933	10.12
363.72	11.12
364.507	7.12
365.294	12.12
366.081	9.12
366.867	10.12
367.654	11.12
368.44	9.12
369.227	11.12
370.013	7.12
370.8	8.12
371.586	9.12
372.372	9.12
373.158	8.12
373.944	10.12
374.73	9.12
375.516	8.12
376.302	8.12
377.088	10.12
377.873	9.12
378.659	13.12
379.445	8.12
380.23	11.12
381.015	11.12
381.801	10.12
382.586	10.12
383.371	10.12
384.156	9.12
384.941	11.12
385.726	11.12
386.511	10.12
387.296	13.12
388.08	10.12
388.865	12.12
389.649	13.12
390.434	11.12
391.218	11.12
392.003	11.12
392.787	11.12
393.571	9.12
394.355	9.12
395.139	11.12
395.923	11.12
396.707	13.12
397.491	14.12
398.274	10.12
399.058	12.12
399.842	12.12
400.625	13.12
401.408	14.12
402.192	13.12
402.975	14.12
403.758	15.12
404.541	17.12
405.324	14.12
406.107	14.12
406.89	15.12
407.673	15.12
408.456	19.12
409.238	15.12
410.021	17.12
410.803	18.12
411.586	15.12
412.368	18.12
413.151	16.12
413.933	16.12
414.715	17.12
415.497	20.12
416.279	17.12
417.061	18.12
417.843	20.12
418.624	15.12
419.406	19.12
420.188	20.12
420.969	20.12
421.751	23.12
422.532	22.12
423.313	22.12
424.095	23.12
424.876	26.12
425.657	23.12
426.438	22.12
427.219	26.12
428	26.12
428.78	30.12
429.561	27.12
430.342	27.12
431.122	29.12
431.903	30.12
432.683	34.12
433.464	37.12
434.244	37.12
435.024	41.12
435.804	39.12
436.584	44.12
437.364	47.12
438.144	51.12
438.924	49.12
439.704	53.12
440.483	54.12
441.263	59.12
442.042	71.12
442.822	74.12
443.601	79.12
444.38	87.12
445.16	91.12
445.939	98.12
446.718	108.12
447.497	119.12
448.276	129.12
449.054	141.12
449.833	158.12
450.612	172.12
451.391	191.12
452.169	206.12
452.948	237.12
453.726	263.12
454.504	286.12
455.282	320.12
456.061	353.12
456.839	400.12
457.617	441.12
458.395	490.12
459.172	553.12
459.95	603.12
460.728	671.12
461.506	755.12
462.283	829.12
463.061	935.12
463.838	1024.12
464.615	1133.12
465.393	1258.12
466.17	1389.12
466.947	1539.12
467.724	1705.12
468.501	1886.12
469.278	2071.12
470.055	2266.12
470.831	2514.12
471.608	2769.12
472.385	3008.12
473.161	3269.12
473.938	3657.12
474.714	3977.12
475.49	4331.12
476.266	4705.12
477.043	5140.12
477.819	5562.12
478.595	6054.12
479.371	6600.12
480.146	7167.12
480.922	7781.12
481.698	8453.12
482.473	9117.12
483.249	9845.12
484.024	10649.12
484.8	11480.12
485.575	12381.12
486.35	13341.12
487.126	14392.12
487.901	15479.12
488.676	16656.12
489.451	17875.12
490.225	19267.12
491	20584.12
491.775	21933.12
492.55	23382.12
493.324	24887.12
494.099	26368.12
494.873	28043.12
495.647	29580.12
496.422	31074.12
497.196	32778.12
497.97	34291.12
498.744	35783.12
499.518	37311.12
500.292	38560.12
501.066	39754.12
501.839	40686.12
502.613	41581.12
503.387	42387.12
504.16	42998.12
504.934	43439.12
505.707	43708.12
506.48	43606.12
507.253	43496.12
508.027	43211.12
508.8	42682.12
509.573	42064.12
510.346	41238.12
511.118	40438.12
511.891	39497.12
512.664	38244.12
513.437	36994.12
514.209	35770.12
514.982	34582.12
515.754	33254.12
516.526	32073.12
517.298	30753.12
518.071	29617.12
518.843	28502.12
519.615	27357.12
520.387	26246.12
521.159	25325.12
521.93	24270.12
522.702	23259.12
523.474	22277.12
524.245	21346.12
525.017	20504.12
525.788	19669.12
526.56	18878.12
527.331	18106.12
528.102	17227.12
528.873	16398.12
529.644	15649.12
530.415	14938.12
531.186	14319.12
531.957	13542.12
532.728	12917.12
533.498	12213.12
534.269	11627.12
535.039	10979.12
535.81	10444.12
536.58	9869.12
537.351	9355.12
538.121	8859.12
538.891	8393.12
539.661	7941.12
540.431	7517.12
541.201	7163.12
541.971	6774.12
542.741	6411.12
543.51	6086.12
544.28	5779.12
545.05	5484.12
545.819	5277.12
546.588	5018.12
547.358	4770.12
548.127	4566.12
548.896	4343.12
549.665	4110.12
550.434	3880.12
551.203	3703.12
551.972	3498.12
552.741	3323.12
553.51	3153.12
554.278	2975.12
555.047	2805.12
555.815	2662.12
556.584	2529.12
557.352	2383.12
558.121	2254.12
558.889	2145.12
559.657	2003.12
560.425	1903.12
561.193	1809.12
561.961	1717.12
562.729	1624.12
563.496	1526.12
564.264	1449.12
565.032	1351.12
565.799	1287.12
566.567	1229.12
567.334	1161.12
568.101	1086.12
568.869	1033.12
569.636	967.12
570.403	915.12
571.17	862.12
571.937	813.12
572.704	767.12
573.471	733.12
574.237	701.12
575.004	644.12
575.771	607.12
576.537	574.12
577.303	537.12
578.07	518.12
578.836	492.12
579.602	462.12
580.368	438.12
581.134	418.12
581.9	399.12
582.666	382.12
583.432	359.12
584.198	338.12
584.964	324.12
585.729	306.12
586.495	287.12
587.26	277.12
588.025	266.12
588.791	241.12
589.556	233.12
590.321	221.12
591.086	207.12
591.851	200.12
592.616	191.12
593.381	184.12
594.146	170.12
594.911	162.12
595.675	158.12
596.44	150.12
597.204	147.12
597.969	140.12
598.733	129.12
599.497	125.12
600.261	119.12
601.025	113.12
601.79	107.12
602.553	102.12
603.317	102.12
604.081	97.12
604.845	97.12
605.609	88.12
606.372	86.12
607.136	85.12
607.899	83.12
608.662	77.12
609.426	75.12
610.189	71.12
610.952	69.12
611.715	69.12
612.478	63.12
613.241	63.12
614.004	59.12
614.767	55.12
615.529	55.12
616.292	55.12
617.055	52.12
617.817	51.12
618.579	47.12
619.342	44.12
620.104	47.12
620.866	42.12
621.628	44.12
622.39	43.12
623.152	38.12
623.914	36.12
624.676	35.12
625.438	36.12
626.199	35.12
626.961	33.12
627.722	31.12
628.484	29.12
629.245	32.12
630.006	28.12
630.768	27.12
631.529	31.12
632.29	27.12
633.051	28.12
633.812	27.12
634.573	21.12
635.333	25.12
636.094	26.12
636.855	24.12
637.615	21.12
638.376	21.12
639.136	21.12
639.896	20.12
640.657	20.12
641.417	18.12
642.177	20.12
642.937	20.12
643.697	16.12
644.457	20.12
645.216	17.12
645.976	16.12
646.736	17.12
647.495	17.12
648.255	19.12
649.014	17.12
649.774	17.12
650.533	13.12
651.292	12.12
652.051	12.12
652.81	15.12
653.569	15.12
654.328	13.12
655.087	13.12
655.846	14.12
656.604	14.12
657.363	12.12
658.121	12.12
658.88	12.12
659.638	8.12
660.397	11.12
661.155	15.12
661.913	11.12
662.671	13.12
663.429	12.12
664.187	12.12
664.945	9.12
665.703	11.12
666.46	9.12
667.218	7.12
667.976	12.12
668.733	11.12
669.49	10.12
670.248	11.12
671.005	9.12
671.762	11.12
672.519	9.12
673.276	9.12
674.033	11.12
674.79	9.12
675.547	8.12
676.304	9.12
677.06	9.12
677.817	9.12
678.574	10.12
679.33	8.12
680.086	7.12
680.843	11.12
681.599	8.12
682.355	9.12
683.111	7.12
683.867	6.12
684.623	9.12
685.379	8.12
686.135	7.12
686.89	9.12
687.646	8.12
688.402	8.12
689.157	8.12
689.912	8.12
690.668	10.12
691.423	9.12
692.178	6.12
692.933	7.12
693.688	9.12
694.443	7.12
695.198	9.12
695.953	7.12
696.708	10.12
697.462	6.12
698.217	5.12
698.972	5.12
699.726	9.12
700.48	6.12
701.235	7.12
701.989	8.12
702.743	8.12
703.497	6.12
704.251	6.12
705.005	9.12
705.759	8.12
706.513	8.12
707.266	6.12
708.02	9.12
708.774	6.12
709.527	8.12
710.28	6.12
711.034	9.12
711.787	11.12
712.54	6.12
713.293	7.12
714.046	8.12
714.799	11.12
715.552	8.12
716.305	6.12
717.058	7.12
717.81	7.12
718.563	9.12
719.315	6.12
720.068	9.12
720.82	9.12
721.573	5.12
722.325	7.12
723.077	7.12
723.829	8.12
724.581	6.12
725.333	7.12
726.085	8.12
726.836	9.12
727.588	9.12
728.34	8.12
729.091	8.12
729.843	10.12
730.594	10.12
731.346	9.12
732.097	10.12
732.848	8.12
733.599	10.12
734.35	9.12
735.101	8.12
735.852	9.12
736.603	10.12
737.354	7.12
738.104	10.12
738.855	9.12
739.605	10.12
740.356	8.12
741.106	10.12
741.856	11.12
742.607	8.12
743.357	12.12
744.107	8.12
744.857	10.12
745.607	9.12
746.357	8.12
747.106	9.12
747.856	13.12
748.606	11.12
749.355	12.12
750.105	8.12
750.854	11.12
751.603	8.12
752.353	12.12
753.102	10.12
753.851	10.12
754.6	8.12
755.349	10.12
756.098	12.12
756.847	11.12
757.595	11.12
758.344	11.12
759.093	11.12
759.841	11.12
760.589	10.12
761.338	11.12
762.086	11.12
762.834	10.12
763.582	12.12
764.331	10.12
765.079	12.12
765.826	11.12
766.574	15.12
767.322	12.12
768.07	15.12
768.817	12.12
769.565	11.12
770.312	13.12
771.06	14.12
771.807	12.12
772.554	15.12
773.302	14.12
774.049	13.12
774.796	14.12
775.543	14.12
776.29	17.12
777.036	13.12
777.783	13.12
778.53	14.12
779.276	15.12
780.023	16.12
780.769	16.12
781.516	15.12
782.262	15.12
783.008	15.12
783.754	18.12
784.5	14.12
785.246	14.12
785.992	15.12
786.738	15.12
787.484	15.12
788.23	14.12
788.975	15.12
789.721	14.12
790.466	11.12
791.212	13.12
791.957	12.12
792.702	12.12
793.447	15.12
794.193	15.12
794.938	15.12
795.683	14.12
796.427	13.12
797.172	12.12
797.917	13.12
798.662	13.12
799.406	11.12
800.151	12.12
800.895	13.12
801.64	12.12
802.384	15.12
803.128	10.12
803.872	12.12
804.616	13.12
805.36	11.12
806.104	11.12
806.848	10.12
807.592	12.12
808.336	10.12
809.079	10.12
809.823	11.12
810.566	8.12
811.31	10.12
812.053	9.12
812.796	11.12
813.539	8.12
814.283	12.12
815.026	10.12
815.769	9.12
816.511	10.12
817.254	10.12
817.997	7.12
818.74	9.12
819.482	7.12
820.225	8.12
820.967	5.12
821.71	7.12
822.452	7.12
823.194	5.12
823.936	6.12
824.678	9.12
825.42	7.12
826.162	7.12
826.904	8.12
827.646	7.12
828.388	5.12
829.129	5.12
829.871	5.12
830.612	5.12
831.354	6.12
832.095	7.12
832.836	5.12
833.577	6.12
834.319	5.12
835.06	5.12
835.801	7.12
836.542	8.12
837.282	5.12
838.023	6.12
838.764	7.12
839.504	7.12
840.245	5.12
840.985	8.12
841.726	7.12
842.466	4.12
843.206	7.12
843.946	5.12
844.687	6.12
845.427	7.12
846.166	5.12
846.906	4.12
847.646	4.12
848.386	7.12
849.125	4.12
849.865	5.12
850.605	3.12
851.344	5.12
852.083	5.12
852.823	5.12
853.562	6.12
854.301	5.12
855.04	4.12
855.779	3.12
856.518	3.12
857.257	6.12
857.995	3.12
858.734	4.12
859.473	5.12
860.211	5.12
860.95	5.12
861.688	4.12
862.426	5.12
863.165	4.12
863.903	4.12
864.641	5.12
865.379	3.12
866.117	3.12
866.855	1.12
867.593	3.12
868.33	3.12
869.068	1.12
869.806	3.12
870.543	3.12
871.28	2.12
872.018	3.12
872.755	3.12
873.492	2.12
874.229	1.12
874.967	3.12
875.703	1.12
876.44	2.12
877.177	2.12
877.914	2.12
878.651	5.12
879.387	1.12
880.124	3.12
880.86	1.12
881.597	4.12
882.333	0.12
883.069	2.12
883.806	2.12
884.542	1.12
885.278	2.12
886.014	1.12
886.749	2.12
887.485	2.12
888.221	3.12
888.957	1.12
889.692	0.12
890.428	2.12
891.163	1.12
891.899	1.12
892.634	3.12
893.369	1.12
894.104	2.12
894.839	1.12
895.574	3.12
896.309	2.12
897.044	2.12
897.779	4.12
898.514	-0.88
899.248	2.12
899.983	3.12
900.717	1.12
901.452	1.12
902.186	0.12
902.92	2.12
903.654	2.12
904.389	1.12
905.123	2.12
905.857	1.12
906.59	1.12
907.324	0.12
908.058	2.12
908.792	2.12
909.525	1.12
910.259	2.12
910.992	-0.88
911.726	4.12
912.459	0.12
913.192	1.12
913.925	1.12
914.658	2.12
915.391	1.12
916.124	1.12
916.857	3.12
917.59	0.12
918.323	2.12
919.055	0.12
919.788	0.12
920.521	-0.88
921.253	0.12
921.985	1.12
922.718	-0.88
923.45	1.12
924.182	0.12
924.914	-0.88
925.646	1.12
926.378	-0.88
927.11	2.12
927.841	0.12
928.573	2.12
929.305	2.12
930.036	0.12
930.768	3.12
931.499	2.12
932.23	0.12
932.962	-0.88
933.693	1.12
934.424	2.12
935.155	-0.88
935.886	0.12
936.617	-0.88
937.348	0.12
938.078	1.12
938.809	1.12
939.54	2.12
940.27	2.12
941.001	2.12
941.731	0.12
942.461	1.12
943.191	0.12
943.922	2.12
944.652	2.12
945.382	-0.88
946.112	0.12
946.841	1.12
947.571	2.12
948.301	0.12
949.031	0.12
949.76	0.12
950.49	1.12
951.219	1.12
951.948	3.12
952.678	0.12
953.407	2.12
954.136	0.12
954.865	1.12
955.594	2.12
956.323	-0.88
957.052	-0.88
957.78	1.12
958.509	0.12
959.238	1.12
959.966	1.12
960.695	2.12
961.423	0.12
962.151	-0.88
962.88	2.12
963.608	3.12
964.336	0.12
965.064	2.12
965.792	-0.88
966.52	0.12
967.247	0.12
967.975	-0.88
968.703	1.12
969.43	-0.88
970.158	0.12
970.885	2.12
971.613	-0.88
972.34	1.12
973.067	0.12
973.794	1.12
974.521	2.12
975.248	1.12
975.975	0.12
976.702	-1.88
977.429	0.12
978.156	-0.88
978.882	1.12
979.609	-0.88
980.335	0.12
981.062	1.12
981.788	1.12
982.514	4.12
983.24	0.12
983.967	1.12
984.693	-0.88
985.419	0.12
986.144	-0.88
986.87	2.12
987.596	1.12
988.322	1.12
989.047	2.12
989.773	1.12
990.498	2.12
991.224	-0.88
991.949	-0.88
992.674	-0.88
993.399	1.12
994.124	1.12
994.849	1.12
995.574	-0.88
996.299	1.12
997.024	-1.88
997.749	-0.88
998.473	1.12
999.198	0.12
999.922	2.12
1000.647	1.12
1001.371	4.12
1002.095	-0.88
1002.82	0.12
1003.544	-0.88
1004.268	6.12
1004.992	3.12
1005.716	5.12
1006.439	4.12
1007.163	3.12
1007.887	6.12
1008.611	2.12
1009.334	0.12
1010.058	-0.88
1010.781	0.12
1011.504	-0.88
1012.228	-0.88
1012.951	-0.88
1013.674	0.12
1014.397	0.12
1015.12	-1.88
