节点500_705_QEPB04081__451__20-52-18-737.txt的数据

Date: Wed Nov 12 20:52:18 CST 2025
User: PC
Spectrometer: QEPB0408
触发模式: 0
积分时间 (秒): 1.000000E-2
Scans to average: 1
启用暗噪声校正: true
启用非线性校正: false
滑动平均宽度: 0
X轴模式: Wavelengths
Number of Pixels in Spectrum: 1044
>>>>>Begin Spectral Data<<<<<
220.843	4.38
221.644	3.38
222.444	5.38
223.244	5.38
224.045	4.38
224.845	5.38
225.645	5.38
226.445	5.38
227.245	7.38
228.045	6.38
228.845	4.38
229.645	7.38
230.444	6.38
231.244	7.38
232.043	7.38
232.843	8.38
233.642	9.38
234.442	9.38
235.241	9.38
236.04	10.38
236.839	8.38
237.638	7.38
238.437	8.38
239.236	9.38
240.035	10.38
240.833	10.38
241.632	13.38
242.43	11.38
243.229	11.38
244.027	15.38
244.826	12.38
245.624	11.38
246.422	13.38
247.22	14.38
248.018	14.38
248.816	13.38
249.614	13.38
250.412	16.38
251.21	14.38
252.007	15.38
252.805	17.38
253.602	14.38
254.4	16.38
255.197	14.38
255.994	19.38
256.791	15.38
257.589	17.38
258.386	18.38
259.183	19.38
259.979	18.38
260.776	24.38
261.573	22.38
262.37	22.38
263.166	25.38
263.963	25.38
264.759	22.38
265.556	27.38
266.352	25.38
267.148	23.38
267.944	26.38
268.74	24.38
269.536	28.38
270.332	26.38
271.128	30.38
271.924	30.38
272.719	26.38
273.515	28.38
274.311	29.38
275.106	30.38
275.901	30.38
276.697	29.38
277.492	27.38
278.287	33.38
279.082	31.38
279.877	33.38
280.672	33.38
281.467	31.38
282.262	34.38
283.056	33.38
283.851	31.38
284.646	34.38
285.44	31.38
286.234	30.38
287.029	33.38
287.823	32.38
288.617	34.38
289.411	30.38
290.205	31.38
290.999	28.38
291.793	30.38
292.587	28.38
293.381	29.38
294.174	28.38
294.968	26.38
295.761	27.38
296.555	25.38
297.348	28.38
298.141	24.38
298.935	23.38
299.728	24.38
300.521	23.38
301.314	24.38
302.107	21.38
302.899	22.38
303.692	21.38
304.485	23.38
305.277	25.38
306.07	20.38
306.862	21.38
307.655	19.38
308.447	16.38
309.239	22.38
310.031	21.38
310.823	16.38
311.615	20.38
312.407	19.38
313.199	18.38
313.991	14.38
314.783	19.38
315.574	14.38
316.366	14.38
317.157	16.38
317.949	14.38
318.74	14.38
319.531	12.38
320.322	14.38
321.113	10.38
321.904	14.38
322.695	11.38
323.486	12.38
324.277	14.38
325.068	12.38
325.858	11.38
326.649	11.38
327.439	10.38
328.23	12.38
329.02	12.38
329.81	12.38
330.6	10.38
331.391	10.38
332.181	13.38
332.971	9.38
333.76	12.38
334.55	12.38
335.34	12.38
336.13	13.38
336.919	10.38
337.709	12.38
338.498	10.38
339.287	11.38
340.077	9.38
340.866	12.38
341.655	9.38
342.444	11.38
343.233	10.38
344.022	9.38
344.811	12.38
345.6	13.38
346.388	11.38
347.177	7.38
347.965	8.38
348.754	9.38
349.542	10.38
350.33	10.38
351.119	9.38
351.907	9.38
352.695	9.38
353.483	7.38
354.271	8.38
355.059	7.38
355.846	8.38
356.634	10.38
357.422	7.38
358.209	6.38
358.997	11.38
359.784	10.38
360.571	8.38
361.359	10.38
362.146	10.38
362.933	6.38
363.72	11.38
364.507	12.38
365.294	10.38
366.081	8.38
366.867	10.38
367.654	8.38
368.44	10.38
369.227	7.38
370.013	11.38
370.8	7.38
371.586	10.38
372.372	7.38
373.158	11.38
373.944	8.38
374.73	9.38
375.516	8.38
376.302	8.38
377.088	10.38
377.873	9.38
378.659	10.38
379.445	10.38
380.23	10.38
381.015	8.38
381.801	9.38
382.586	9.38
383.371	8.38
384.156	11.38
384.941	8.38
385.726	9.38
386.511	12.38
387.296	9.38
388.08	11.38
388.865	9.38
389.649	11.38
390.434	10.38
391.218	11.38
392.003	12.38
392.787	13.38
393.571	11.38
394.355	12.38
395.139	9.38
395.923	10.38
396.707	9.38
397.491	11.38
398.274	11.38
399.058	13.38
399.842	17.38
400.625	10.38
401.408	12.38
402.192	13.38
402.975	12.38
403.758	14.38
404.541	15.38
405.324	13.38
406.107	14.38
406.89	12.38
407.673	13.38
408.456	12.38
409.238	16.38
410.021	14.38
410.803	14.38
411.586	17.38
412.368	18.38
413.151	17.38
413.933	15.38
414.715	16.38
415.497	16.38
416.279	19.38
417.061	20.38
417.843	18.38
418.624	19.38
419.406	20.38
420.188	21.38
420.969	18.38
421.751	20.38
422.532	18.38
423.313	21.38
424.095	24.38
424.876	24.38
425.657	22.38
426.438	24.38
427.219	25.38
428	26.38
428.78	27.38
429.561	28.38
430.342	29.38
431.122	31.38
431.903	32.38
432.683	34.38
433.464	36.38
434.244	33.38
435.024	38.38
435.804	41.38
436.584	39.38
437.364	43.38
438.144	48.38
438.924	53.38
439.704	53.38
440.483	57.38
441.263	56.38
442.042	66.38
442.822	70.38
443.601	74.38
444.38	84.38
445.16	86.38
445.939	99.38
446.718	104.38
447.497	120.38
448.276	123.38
449.054	136.38
449.833	150.38
450.612	171.38
451.391	186.38
452.169	205.38
452.948	227.38
453.726	241.38
454.504	277.38
455.282	304.38
456.061	347.38
456.839	384.38
457.617	427.38
458.395	467.38
459.172	533.38
459.95	585.38
460.728	649.38
461.506	724.38
462.283	812.38
463.061	906.38
463.838	987.38
464.615	1112.38
465.393	1236.38
466.17	1367.38
466.947	1510.38
467.724	1684.38
468.501	1861.38
469.278	2060.38
470.055	2268.38
470.831	2502.38
471.608	2771.38
472.385	3033.38
473.161	3322.38
473.938	3664.38
474.714	3996.38
475.49	4378.38
476.266	4809.38
477.043	5236.38
477.819	5716.38
478.595	6226.38
479.371	6771.38
480.146	7349.38
480.922	8027.38
481.698	8757.38
482.473	9494.38
483.249	10303.38
484.024	11126.38
484.8	12030.38
485.575	13033.38
486.35	14109.38
487.126	15241.38
487.901	16422.38
488.676	17632.38
489.451	19099.38
490.225	20487.38
491	21889.38
491.775	23429.38
492.55	25064.38
493.324	26680.38
494.099	28299.38
494.873	30005.38
495.647	31628.38
496.422	33343.38
497.196	35064.38
497.97	36573.38
498.744	38047.38
499.518	39703.38
500.292	41083.38
501.066	42120.38
501.839	43086.38
502.613	43979.38
503.387	44670.38
504.16	45176.38
504.934	45504.38
505.707	45502.38
506.48	45418.38
507.253	45009.38
508.027	44501.38
508.8	43846.38
509.573	42898.38
510.346	42075.38
511.118	41170.38
511.891	39948.38
512.664	38581.38
513.437	37306.38
514.209	36019.38
514.982	34652.38
515.754	33208.38
516.526	31954.38
517.298	30663.38
518.071	29542.38
518.843	28373.38
519.615	27197.38
520.387	26072.38
521.159	25090.38
521.93	23993.38
522.702	23072.38
523.474	22064.38
524.245	21161.38
525.017	20280.38
525.788	19487.38
526.56	18665.38
527.331	17859.38
528.102	16941.38
528.873	16152.38
529.644	15356.38
530.415	14744.38
531.186	14015.38
531.957	13342.38
532.728	12608.38
533.498	11927.38
534.269	11359.38
535.039	10762.38
535.81	10192.38
536.58	9620.38
537.351	9075.38
538.121	8613.38
538.891	8160.38
539.661	7732.38
540.431	7298.38
541.201	6967.38
541.971	6596.38
542.741	6210.38
543.51	5926.38
544.28	5619.38
545.05	5338.38
545.819	5107.38
546.588	4892.38
547.358	4616.38
548.127	4405.38
548.896	4181.38
549.665	3977.38
550.434	3786.38
551.203	3575.38
551.972	3398.38
552.741	3216.38
553.51	3047.38
554.278	2849.38
555.047	2692.38
555.815	2558.38
556.584	2412.38
557.352	2286.38
558.121	2173.38
558.889	2042.38
559.657	1921.38
560.425	1826.38
561.193	1724.38
561.961	1647.38
562.729	1551.38
563.496	1464.38
564.264	1383.38
565.032	1312.38
565.799	1240.38
566.567	1172.38
567.334	1103.38
568.101	1048.38
568.869	993.38
569.636	937.38
570.403	880.38
571.17	837.38
571.937	782.38
572.704	744.38
573.471	701.38
574.237	667.38
575.004	619.38
575.771	585.38
576.537	551.38
577.303	519.38
578.07	498.38
578.836	474.38
579.602	447.38
580.368	411.38
581.134	401.38
581.9	384.38
582.666	360.38
583.432	347.38
584.198	327.38
584.964	309.38
585.729	297.38
586.495	278.38
587.26	265.38
588.025	246.38
588.791	235.38
589.556	229.38
590.321	210.38
591.086	202.38
591.851	185.38
592.616	183.38
593.381	174.38
594.146	165.38
594.911	158.38
595.675	150.38
596.44	148.38
597.204	142.38
597.969	127.38
598.733	128.38
599.497	123.38
600.261	116.38
601.025	108.38
601.79	107.38
602.553	100.38
603.317	94.38
604.081	96.38
604.845	90.38
605.609	84.38
606.372	85.38
607.136	81.38
607.899	72.38
608.662	73.38
609.426	70.38
610.189	68.38
610.952	67.38
611.715	63.38
612.478	59.38
613.241	59.38
614.004	54.38
614.767	56.38
615.529	51.38
616.292	50.38
617.055	46.38
617.817	47.38
618.579	41.38
619.342	42.38
620.104	42.38
620.866	42.38
621.628	37.38
622.39	39.38
623.152	37.38
623.914	37.38
624.676	34.38
625.438	34.38
626.199	32.38
626.961	30.38
627.722	32.38
628.484	29.38
629.245	30.38
630.006	28.38
630.768	27.38
631.529	26.38
632.29	23.38
633.051	24.38
633.812	27.38
634.573	26.38
635.333	23.38
636.094	22.38
636.855	26.38
637.615	18.38
638.376	20.38
639.136	17.38
639.896	20.38
640.657	20.38
641.417	19.38
642.177	19.38
642.937	19.38
643.697	17.38
644.457	13.38
645.216	18.38
645.976	18.38
646.736	13.38
647.495	15.38
648.255	14.38
649.014	14.38
649.774	14.38
650.533	12.38
651.292	14.38
652.051	14.38
652.81	14.38
653.569	12.38
654.328	14.38
655.087	11.38
655.846	15.38
656.604	12.38
657.363	13.38
658.121	12.38
658.88	11.38
659.638	12.38
660.397	11.38
661.155	10.38
661.913	8.38
662.671	10.38
663.429	9.38
664.187	11.38
664.945	10.38
665.703	10.38
666.46	10.38
667.218	10.38
667.976	10.38
668.733	8.38
669.49	9.38
670.248	9.38
671.005	8.38
671.762	7.38
672.519	9.38
673.276	8.38
674.033	9.38
674.79	9.38
675.547	8.38
676.304	8.38
677.06	6.38
677.817	6.38
678.574	9.38
679.33	7.38
680.086	8.38
680.843	7.38
681.599	7.38
682.355	9.38
683.111	10.38
683.867	9.38
684.623	8.38
685.379	6.38
686.135	5.38
686.89	8.38
687.646	7.38
688.402	6.38
689.157	9.38
689.912	8.38
690.668	7.38
691.423	7.38
692.178	8.38
692.933	7.38
693.688	4.38
694.443	6.38
695.198	7.38
695.953	6.38
696.708	7.38
697.462	7.38
698.217	8.38
698.972	5.38
699.726	9.38
700.48	4.38
701.235	7.38
701.989	8.38
702.743	5.38
703.497	7.38
704.251	6.38
705.005	5.38
705.759	5.38
706.513	7.38
707.266	7.38
708.02	7.38
708.774	6.38
709.527	5.38
710.28	7.38
711.034	7.38
711.787	7.38
712.54	7.38
713.293	7.38
714.046	6.38
714.799	7.38
715.552	9.38
716.305	8.38
717.058	7.38
717.81	8.38
718.563	7.38
719.315	5.38
720.068	9.38
720.82	7.38
721.573	6.38
722.325	7.38
723.077	6.38
723.829	6.38
724.581	7.38
725.333	8.38
726.085	8.38
726.836	7.38
727.588	6.38
728.34	7.38
729.091	8.38
729.843	8.38
730.594	8.38
731.346	8.38
732.097	8.38
732.848	6.38
733.599	9.38
734.35	9.38
735.101	8.38
735.852	6.38
736.603	10.38
737.354	9.38
738.104	6.38
738.855	10.38
739.605	10.38
740.356	9.38
741.106	7.38
741.856	5.38
742.607	8.38
743.357	10.38
744.107	9.38
744.857	8.38
745.607	5.38
746.357	9.38
747.106	9.38
747.856	10.38
748.606	9.38
749.355	10.38
750.105	10.38
750.854	8.38
751.603	11.38
752.353	12.38
753.102	11.38
753.851	10.38
754.6	8.38
755.349	10.38
756.098	10.38
756.847	10.38
757.595	11.38
758.344	13.38
759.093	10.38
759.841	11.38
760.589	11.38
761.338	10.38
762.086	10.38
762.834	14.38
763.582	15.38
764.331	14.38
765.079	12.38
765.826	14.38
766.574	11.38
767.322	12.38
768.07	11.38
768.817	12.38
769.565	13.38
770.312	13.38
771.06	14.38
771.807	16.38
772.554	12.38
773.302	14.38
774.049	14.38
774.796	14.38
775.543	13.38
776.29	16.38
777.036	14.38
777.783	12.38
778.53	17.38
779.276	13.38
780.023	12.38
780.769	13.38
781.516	13.38
782.262	16.38
783.008	14.38
783.754	16.38
784.5	14.38
785.246	16.38
785.992	15.38
786.738	14.38
787.484	11.38
788.23	13.38
788.975	15.38
789.721	18.38
790.466	15.38
791.212	16.38
791.957	13.38
792.702	13.38
793.447	13.38
794.193	11.38
794.938	14.38
795.683	11.38
796.427	10.38
797.172	13.38
797.917	13.38
798.662	13.38
799.406	12.38
800.151	12.38
800.895	11.38
801.64	10.38
802.384	9.38
803.128	12.38
803.872	11.38
804.616	12.38
805.36	11.38
806.104	10.38
806.848	12.38
807.592	11.38
808.336	10.38
809.079	10.38
809.823	8.38
810.566	9.38
811.31	8.38
812.053	7.38
812.796	10.38
813.539	8.38
814.283	7.38
815.026	7.38
815.769	7.38
816.511	6.38
817.254	8.38
817.997	8.38
818.74	6.38
819.482	7.38
820.225	6.38
820.967	6.38
821.71	8.38
822.452	8.38
823.194	5.38
823.936	6.38
824.678	7.38
825.42	5.38
826.162	7.38
826.904	6.38
827.646	6.38
828.388	7.38
829.129	4.38
829.871	6.38
830.612	7.38
831.354	6.38
832.095	5.38
832.836	5.38
833.577	7.38
834.319	5.38
835.06	5.38
835.801	7.38
836.542	5.38
837.282	4.38
838.023	3.38
838.764	8.38
839.504	4.38
840.245	7.38
840.985	4.38
841.726	4.38
842.466	3.38
843.206	4.38
843.946	6.38
844.687	5.38
845.427	3.38
846.166	4.38
846.906	4.38
847.646	7.38
848.386	0.38
849.125	5.38
849.865	4.38
850.605	5.38
851.344	5.38
852.083	4.38
852.823	4.38
853.562	5.38
854.301	3.38
855.04	4.38
855.779	3.38
856.518	4.38
857.257	1.38
857.995	4.38
858.734	1.38
859.473	0.38
860.211	3.38
860.95	2.38
861.688	3.38
862.426	3.38
863.165	1.38
863.903	4.38
864.641	2.38
865.379	4.38
866.117	2.38
866.855	2.38
867.593	1.38
868.33	5.38
869.068	3.38
869.806	0.38
870.543	3.38
871.28	1.38
872.018	1.38
872.755	2.38
873.492	1.38
874.229	2.38
874.967	2.38
875.703	1.38
876.44	1.38
877.177	0.38
877.914	1.38
878.651	1.38
879.387	2.38
880.124	-1.62
880.86	3.38
881.597	1.38
882.333	1.38
883.069	2.38
883.806	2.38
884.542	1.38
885.278	1.38
886.014	2.38
886.749	1.38
887.485	0.38
888.221	2.38
888.957	-0.62
889.692	0.38
890.428	0.38
891.163	2.38
891.899	0.38
892.634	2.38
893.369	0.38
894.104	0.38
894.839	0.38
895.574	0.38
896.309	0.38
897.044	2.38
897.779	-0.62
898.514	0.38
899.248	0.38
899.983	3.38
900.717	0.38
901.452	1.38
902.186	-2.62
902.92	1.38
903.654	0.38
904.389	-1.62
905.123	1.38
905.857	-1.62
906.59	0.38
907.324	2.38
908.058	0.38
908.792	0.38
909.525	2.38
910.259	-1.62
910.992	1.38
911.726	2.38
912.459	-0.62
913.192	-1.62
913.925	1.38
914.658	-0.62
915.391	-1.62
916.124	3.38
916.857	0.38
917.59	0.38
918.323	-0.62
919.055	-0.62
919.788	0.38
920.521	-0.62
921.253	0.38
921.985	0.38
922.718	0.38
923.45	0.38
924.182	-0.62
924.914	0.38
925.646	0.38
926.378	-1.62
927.11	0.38
927.841	-1.62
928.573	-0.62
929.305	-1.62
930.036	0.38
930.768	-1.62
931.499	0.38
932.23	1.38
932.962	-1.62
933.693	-0.62
934.424	-1.62
935.155	1.38
935.886	0.38
936.617	-1.62
937.348	0.38
938.078	-0.62
938.809	-0.62
939.54	-0.62
940.27	2.38
941.001	0.38
941.731	-0.62
942.461	0.38
943.191	-3.62
943.922	0.38
944.652	1.38
945.382	-0.62
946.112	-1.62
946.841	0.38
947.571	0.38
948.301	-1.62
949.031	1.38
949.76	-0.62
950.49	-0.62
951.219	-1.62
951.948	1.38
952.678	-2.62
953.407	-0.62
954.136	1.38
954.865	0.38
955.594	-0.62
956.323	2.38
957.052	1.38
957.78	0.38
958.509	-2.62
959.238	-0.62
959.966	-0.62
960.695	-0.62
961.423	1.38
962.151	-1.62
962.88	0.38
963.608	-1.62
964.336	-1.62
965.064	-0.62
965.792	-1.62
966.52	0.38
967.247	-0.62
967.975	1.38
968.703	-0.62
969.43	-0.62
970.158	-0.62
970.885	-0.62
971.613	0.38
972.34	0.38
973.067	-0.62
973.794	2.38
974.521	-1.62
975.248	0.38
975.975	-1.62
976.702	2.38
977.429	-0.62
978.156	-0.62
978.882	-1.62
979.609	-0.62
980.335	0.38
981.062	-1.62
981.788	-1.62
982.514	0.38
983.24	0.38
983.967	2.38
984.693	-0.62
985.419	2.38
986.144	1.38
986.87	-0.62
987.596	-0.62
988.322	1.38
989.047	-1.62
989.773	0.38
990.498	0.38
991.224	-0.62
991.949	-0.62
992.674	0.38
993.399	-0.62
994.124	-1.62
994.849	-0.62
995.574	2.38
996.299	-1.62
997.024	-2.62
997.749	-0.62
998.473	-0.62
999.198	1.38
999.922	-1.62
1000.647	-1.62
1001.371	4.38
1002.095	-0.62
1002.82	-0.62
1003.544	-2.62
1004.268	3.38
1004.992	7.38
1005.716	5.38
1006.439	4.38
1007.163	5.38
1007.887	7.38
1008.611	0.38
1009.334	0.38
1010.058	1.38
1010.781	-1.62
1011.504	1.38
1012.228	-0.62
1012.951	-0.62
1013.674	0.38
1014.397	0.38
1015.12	-0.62
