节点500_705_QEPB04081__465__20-52-29-779.txt的数据

Date: Wed Nov 12 20:52:29 CST 2025
User: PC
Spectrometer: QEPB0408
触发模式: 0
积分时间 (秒): 1.000000E-2
Scans to average: 1
启用暗噪声校正: true
启用非线性校正: false
滑动平均宽度: 0
X轴模式: Wavelengths
Number of Pixels in Spectrum: 1044
>>>>>Begin Spectral Data<<<<<
220.843	5.25
221.644	7.25
222.444	3.25
223.244	5.25
224.045	5.25
224.845	10.25
225.645	6.25
226.445	7.25
227.245	7.25
228.045	6.25
228.845	9.25
229.645	6.25
230.444	7.25
231.244	10.25
232.043	12.25
232.843	10.25
233.642	11.25
234.442	8.25
235.241	10.25
236.04	8.25
236.839	11.25
237.638	10.25
238.437	11.25
239.236	11.25
240.035	10.25
240.833	12.25
241.632	8.25
242.43	13.25
243.229	14.25
244.027	14.25
244.826	15.25
245.624	14.25
246.422	11.25
247.22	13.25
248.018	13.25
248.816	12.25
249.614	15.25
250.412	13.25
251.21	15.25
252.007	10.25
252.805	18.25
253.602	19.25
254.4	15.25
255.197	19.25
255.994	21.25
256.791	16.25
257.589	19.25
258.386	19.25
259.183	20.25
259.979	18.25
260.776	22.25
261.573	21.25
262.37	19.25
263.166	21.25
263.963	22.25
264.759	27.25
265.556	25.25
266.352	24.25
267.148	28.25
267.944	25.25
268.74	26.25
269.536	24.25
270.332	27.25
271.128	28.25
271.924	31.25
272.719	31.25
273.515	30.25
274.311	30.25
275.106	34.25
275.901	33.25
276.697	33.25
277.492	31.25
278.287	34.25
279.082	34.25
279.877	34.25
280.672	33.25
281.467	29.25
282.262	32.25
283.056	33.25
283.851	31.25
284.646	34.25
285.44	32.25
286.234	36.25
287.029	33.25
287.823	32.25
288.617	35.25
289.411	31.25
290.205	30.25
290.999	31.25
291.793	34.25
292.587	29.25
293.381	29.25
294.174	31.25
294.968	27.25
295.761	25.25
296.555	24.25
297.348	28.25
298.141	24.25
298.935	32.25
299.728	28.25
300.521	27.25
301.314	26.25
302.107	26.25
302.899	24.25
303.692	24.25
304.485	23.25
305.277	22.25
306.07	18.25
306.862	23.25
307.655	21.25
308.447	21.25
309.239	24.25
310.031	19.25
310.823	19.25
311.615	17.25
312.407	20.25
313.199	16.25
313.991	18.25
314.783	17.25
315.574	17.25
316.366	15.25
317.157	14.25
317.949	15.25
318.74	16.25
319.531	14.25
320.322	15.25
321.113	15.25
321.904	13.25
322.695	9.25
323.486	13.25
324.277	13.25
325.068	12.25
325.858	13.25
326.649	13.25
327.439	11.25
328.23	14.25
329.02	12.25
329.81	13.25
330.6	11.25
331.391	16.25
332.181	12.25
332.971	12.25
333.76	10.25
334.55	12.25
335.34	13.25
336.13	12.25
336.919	14.25
337.709	9.25
338.498	13.25
339.287	14.25
340.077	13.25
340.866	12.25
341.655	12.25
342.444	13.25
343.233	12.25
344.022	13.25
344.811	11.25
345.6	10.25
346.388	9.25
347.177	9.25
347.965	12.25
348.754	10.25
349.542	13.25
350.33	15.25
351.119	13.25
351.907	13.25
352.695	11.25
353.483	12.25
354.271	10.25
355.059	11.25
355.846	12.25
356.634	10.25
357.422	8.25
358.209	10.25
358.997	9.25
359.784	9.25
360.571	9.25
361.359	11.25
362.146	8.25
362.933	10.25
363.72	9.25
364.507	9.25
365.294	9.25
366.081	12.25
366.867	9.25
367.654	8.25
368.44	10.25
369.227	9.25
370.013	10.25
370.8	11.25
371.586	8.25
372.372	10.25
373.158	10.25
373.944	12.25
374.73	8.25
375.516	9.25
376.302	11.25
377.088	10.25
377.873	12.25
378.659	9.25
379.445	7.25
380.23	8.25
381.015	9.25
381.801	11.25
382.586	11.25
383.371	10.25
384.156	11.25
384.941	10.25
385.726	13.25
386.511	11.25
387.296	11.25
388.08	12.25
388.865	12.25
389.649	14.25
390.434	11.25
391.218	11.25
392.003	11.25
392.787	13.25
393.571	12.25
394.355	12.25
395.139	13.25
395.923	11.25
396.707	13.25
397.491	12.25
398.274	14.25
399.058	13.25
399.842	11.25
400.625	16.25
401.408	14.25
402.192	14.25
402.975	14.25
403.758	12.25
404.541	14.25
405.324	11.25
406.107	13.25
406.89	14.25
407.673	15.25
408.456	15.25
409.238	17.25
410.021	16.25
410.803	15.25
411.586	16.25
412.368	15.25
413.151	18.25
413.933	19.25
414.715	18.25
415.497	20.25
416.279	16.25
417.061	17.25
417.843	20.25
418.624	21.25
419.406	16.25
420.188	17.25
420.969	23.25
421.751	22.25
422.532	21.25
423.313	25.25
424.095	23.25
424.876	25.25
425.657	23.25
426.438	26.25
427.219	26.25
428	27.25
428.78	29.25
429.561	31.25
430.342	34.25
431.122	30.25
431.903	34.25
432.683	35.25
433.464	34.25
434.244	35.25
435.024	38.25
435.804	40.25
436.584	46.25
437.364	43.25
438.144	49.25
438.924	54.25
439.704	56.25
440.483	59.25
441.263	59.25
442.042	62.25
442.822	72.25
443.601	76.25
444.38	84.25
445.16	93.25
445.939	95.25
446.718	105.25
447.497	116.25
448.276	125.25
449.054	136.25
449.833	150.25
450.612	165.25
451.391	181.25
452.169	202.25
452.948	229.25
453.726	247.25
454.504	273.25
455.282	305.25
456.061	343.25
456.839	378.25
457.617	426.25
458.395	477.25
459.172	523.25
459.95	594.25
460.728	658.25
461.506	719.25
462.283	812.25
463.061	901.25
463.838	997.25
464.615	1115.25
465.393	1232.25
466.17	1361.25
466.947	1523.25
467.724	1689.25
468.501	1867.25
469.278	2071.25
470.055	2277.25
470.831	2504.25
471.608	2768.25
472.385	3031.25
473.161	3338.25
473.938	3628.25
474.714	3994.25
475.49	4402.25
476.266	4775.25
477.043	5250.25
477.819	5680.25
478.595	6205.25
479.371	6771.25
480.146	7330.25
480.922	8010.25
481.698	8697.25
482.473	9479.25
483.249	10210.25
484.024	11091.25
484.8	11999.25
485.575	12977.25
486.35	14014.25
487.126	15115.25
487.901	16365.25
488.676	17610.25
489.451	18921.25
490.225	20343.25
491	21761.25
491.775	23301.25
492.55	24855.25
493.324	26518.25
494.099	28126.25
494.873	29818.25
495.647	31511.25
496.422	33184.25
497.196	34862.25
497.97	36466.25
498.744	37922.25
499.518	39532.25
500.292	40872.25
501.066	41958.25
501.839	42927.25
502.613	43798.25
503.387	44567.25
504.16	45009.25
504.934	45281.25
505.707	45352.25
506.48	45244.25
507.253	44892.25
508.027	44447.25
508.8	43768.25
509.573	42867.25
510.346	41944.25
511.118	41059.25
511.891	39953.25
512.664	38605.25
513.437	37201.25
514.209	35959.25
514.982	34545.25
515.754	33186.25
516.526	31909.25
517.298	30698.25
518.071	29529.25
518.843	28371.25
519.615	27174.25
520.387	26088.25
521.159	25185.25
521.93	24073.25
522.702	23074.25
523.474	22057.25
524.245	21230.25
525.017	20355.25
525.788	19475.25
526.56	18731.25
527.331	17905.25
528.102	17017.25
528.873	16144.25
529.644	15418.25
530.415	14719.25
531.186	13959.25
531.957	13301.25
532.728	12641.25
533.498	11973.25
534.269	11342.25
535.039	10738.25
535.81	10194.25
536.58	9637.25
537.351	9121.25
538.121	8614.25
538.891	8206.25
539.661	7737.25
540.431	7355.25
541.201	6956.25
541.971	6598.25
542.741	6255.25
543.51	5910.25
544.28	5636.25
545.05	5375.25
545.819	5145.25
546.588	4863.25
547.358	4671.25
548.127	4433.25
548.896	4196.25
549.665	3985.25
550.434	3763.25
551.203	3574.25
551.972	3420.25
552.741	3215.25
553.51	3052.25
554.278	2867.25
555.047	2719.25
555.815	2593.25
556.584	2437.25
557.352	2308.25
558.121	2153.25
558.889	2061.25
559.657	1941.25
560.425	1841.25
561.193	1735.25
561.961	1650.25
562.729	1551.25
563.496	1476.25
564.264	1388.25
565.032	1305.25
565.799	1251.25
566.567	1182.25
567.334	1106.25
568.101	1061.25
568.869	977.25
569.636	954.25
570.403	884.25
571.17	829.25
571.937	788.25
572.704	758.25
573.471	705.25
574.237	663.25
575.004	620.25
575.771	597.25
576.537	547.25
577.303	523.25
578.07	494.25
578.836	472.25
579.602	442.25
580.368	426.25
581.134	406.25
581.9	384.25
582.666	366.25
583.432	342.25
584.198	329.25
584.964	318.25
585.729	297.25
586.495	284.25
587.26	264.25
588.025	252.25
588.791	234.25
589.556	228.25
590.321	207.25
591.086	208.25
591.851	190.25
592.616	183.25
593.381	173.25
594.146	171.25
594.911	160.25
595.675	153.25
596.44	144.25
597.204	138.25
597.969	133.25
598.733	131.25
599.497	122.25
600.261	119.25
601.025	114.25
601.79	106.25
602.553	103.25
603.317	93.25
604.081	95.25
604.845	90.25
605.609	90.25
606.372	80.25
607.136	81.25
607.899	81.25
608.662	76.25
609.426	72.25
610.189	74.25
610.952	68.25
611.715	65.25
612.478	64.25
613.241	60.25
614.004	58.25
614.767	57.25
615.529	53.25
616.292	52.25
617.055	48.25
617.817	48.25
618.579	47.25
619.342	44.25
620.104	44.25
620.866	39.25
621.628	40.25
622.39	37.25
623.152	37.25
623.914	40.25
624.676	34.25
625.438	33.25
626.199	32.25
626.961	34.25
627.722	32.25
628.484	30.25
629.245	29.25
630.006	29.25
630.768	25.25
631.529	27.25
632.29	24.25
633.051	27.25
633.812	27.25
634.573	20.25
635.333	24.25
636.094	22.25
636.855	25.25
637.615	24.25
638.376	21.25
639.136	20.25
639.896	18.25
640.657	22.25
641.417	22.25
642.177	18.25
642.937	21.25
643.697	18.25
644.457	17.25
645.216	15.25
645.976	18.25
646.736	17.25
647.495	15.25
648.255	18.25
649.014	15.25
649.774	16.25
650.533	12.25
651.292	15.25
652.051	16.25
652.81	15.25
653.569	15.25
654.328	12.25
655.087	14.25
655.846	13.25
656.604	11.25
657.363	14.25
658.121	11.25
658.88	11.25
659.638	11.25
660.397	13.25
661.155	12.25
661.913	13.25
662.671	14.25
663.429	11.25
664.187	9.25
664.945	13.25
665.703	9.25
666.46	11.25
667.218	9.25
667.976	12.25
668.733	10.25
669.49	10.25
670.248	9.25
671.005	11.25
671.762	11.25
672.519	10.25
673.276	10.25
674.033	8.25
674.79	9.25
675.547	9.25
676.304	7.25
677.06	8.25
677.817	6.25
678.574	6.25
679.33	8.25
680.086	10.25
680.843	8.25
681.599	7.25
682.355	9.25
683.111	9.25
683.867	5.25
684.623	11.25
685.379	8.25
686.135	9.25
686.89	7.25
687.646	7.25
688.402	7.25
689.157	9.25
689.912	9.25
690.668	6.25
691.423	8.25
692.178	6.25
692.933	7.25
693.688	7.25
694.443	4.25
695.198	8.25
695.953	9.25
696.708	8.25
697.462	8.25
698.217	7.25
698.972	8.25
699.726	7.25
700.48	10.25
701.235	5.25
701.989	6.25
702.743	9.25
703.497	7.25
704.251	10.25
705.005	6.25
705.759	8.25
706.513	7.25
707.266	7.25
708.02	6.25
708.774	7.25
709.527	9.25
710.28	6.25
711.034	9.25
711.787	8.25
712.54	7.25
713.293	9.25
714.046	8.25
714.799	9.25
715.552	8.25
716.305	7.25
717.058	8.25
717.81	6.25
718.563	9.25
719.315	8.25
720.068	7.25
720.82	8.25
721.573	9.25
722.325	7.25
723.077	7.25
723.829	9.25
724.581	6.25
725.333	10.25
726.085	8.25
726.836	9.25
727.588	8.25
728.34	5.25
729.091	10.25
729.843	9.25
730.594	8.25
731.346	8.25
732.097	8.25
732.848	8.25
733.599	9.25
734.35	11.25
735.101	7.25
735.852	9.25
736.603	10.25
737.354	8.25
738.104	9.25
738.855	9.25
739.605	8.25
740.356	11.25
741.106	10.25
741.856	11.25
742.607	10.25
743.357	9.25
744.107	9.25
744.857	12.25
745.607	11.25
746.357	9.25
747.106	9.25
747.856	9.25
748.606	11.25
749.355	10.25
750.105	12.25
750.854	12.25
751.603	9.25
752.353	11.25
753.102	11.25
753.851	11.25
754.6	9.25
755.349	9.25
756.098	11.25
756.847	11.25
757.595	12.25
758.344	10.25
759.093	11.25
759.841	13.25
760.589	11.25
761.338	11.25
762.086	12.25
762.834	12.25
763.582	13.25
764.331	12.25
765.079	13.25
765.826	14.25
766.574	15.25
767.322	12.25
768.07	15.25
768.817	16.25
769.565	13.25
770.312	15.25
771.06	13.25
771.807	14.25
772.554	15.25
773.302	14.25
774.049	12.25
774.796	13.25
775.543	15.25
776.29	13.25
777.036	10.25
777.783	17.25
778.53	16.25
779.276	16.25
780.023	14.25
780.769	17.25
781.516	14.25
782.262	15.25
783.008	15.25
783.754	16.25
784.5	16.25
785.246	16.25
785.992	13.25
786.738	15.25
787.484	14.25
788.23	16.25
788.975	13.25
789.721	16.25
790.466	14.25
791.212	13.25
791.957	15.25
792.702	16.25
793.447	15.25
794.193	13.25
794.938	15.25
795.683	12.25
796.427	13.25
797.172	14.25
797.917	13.25
798.662	11.25
799.406	13.25
800.151	13.25
800.895	11.25
801.64	11.25
802.384	13.25
803.128	11.25
803.872	11.25
804.616	12.25
805.36	8.25
806.104	13.25
806.848	8.25
807.592	10.25
808.336	13.25
809.079	9.25
809.823	8.25
810.566	9.25
811.31	9.25
812.053	10.25
812.796	10.25
813.539	10.25
814.283	6.25
815.026	8.25
815.769	9.25
816.511	9.25
817.254	9.25
817.997	7.25
818.74	7.25
819.482	6.25
820.225	7.25
820.967	6.25
821.71	8.25
822.452	9.25
823.194	7.25
823.936	7.25
824.678	8.25
825.42	7.25
826.162	6.25
826.904	5.25
827.646	8.25
828.388	7.25
829.129	7.25
829.871	6.25
830.612	6.25
831.354	4.25
832.095	7.25
832.836	7.25
833.577	5.25
834.319	7.25
835.06	5.25
835.801	7.25
836.542	6.25
837.282	7.25
838.023	5.25
838.764	4.25
839.504	6.25
840.245	6.25
840.985	3.25
841.726	5.25
842.466	6.25
843.206	7.25
843.946	5.25
844.687	8.25
845.427	5.25
846.166	4.25
846.906	5.25
847.646	6.25
848.386	6.25
849.125	5.25
849.865	6.25
850.605	6.25
851.344	6.25
852.083	5.25
852.823	3.25
853.562	3.25
854.301	5.25
855.04	3.25
855.779	4.25
856.518	4.25
857.257	5.25
857.995	3.25
858.734	5.25
859.473	5.25
860.211	3.25
860.95	3.25
861.688	3.25
862.426	2.25
863.165	3.25
863.903	3.25
864.641	4.25
865.379	5.25
866.117	3.25
866.855	2.25
867.593	3.25
868.33	3.25
869.068	2.25
869.806	3.25
870.543	3.25
871.28	6.25
872.018	3.25
872.755	2.25
873.492	1.25
874.229	1.25
874.967	1.25
875.703	0.25
876.44	2.25
877.177	3.25
877.914	2.25
878.651	4.25
879.387	1.25
880.124	3.25
880.86	1.25
881.597	3.25
882.333	1.25
883.069	2.25
883.806	3.25
884.542	1.25
885.278	3.25
886.014	2.25
886.749	1.25
887.485	2.25
888.221	2.25
888.957	2.25
889.692	0.25
890.428	0.25
891.163	0.25
891.899	2.25
892.634	1.25
893.369	0.25
894.104	0.25
894.839	1.25
895.574	1.25
896.309	3.25
897.044	2.25
897.779	1.25
898.514	-1.75
899.248	2.25
899.983	-0.75
900.717	3.25
901.452	2.25
902.186	1.25
902.92	1.25
903.654	0.25
904.389	3.25
905.123	2.25
905.857	1.25
906.59	1.25
907.324	0.25
908.058	2.25
908.792	0.25
909.525	3.25
910.259	1.25
910.992	1.25
911.726	2.25
912.459	2.25
913.192	2.25
913.925	1.25
914.658	1.25
915.391	2.25
916.124	-0.75
916.857	1.25
917.59	1.25
918.323	2.25
919.055	1.25
919.788	2.25
920.521	1.25
921.253	-0.75
921.985	1.25
922.718	0.25
923.45	1.25
924.182	0.25
924.914	0.25
925.646	0.25
926.378	-0.75
927.11	2.25
927.841	1.25
928.573	-0.75
929.305	0.25
930.036	-0.75
930.768	-1.75
931.499	1.25
932.23	1.25
932.962	3.25
933.693	-2.75
934.424	0.25
935.155	-0.75
935.886	1.25
936.617	0.25
937.348	2.25
938.078	0.25
938.809	2.25
939.54	2.25
940.27	2.25
941.001	0.25
941.731	1.25
942.461	2.25
943.191	0.25
943.922	-1.75
944.652	0.25
945.382	-0.75
946.112	1.25
946.841	0.25
947.571	0.25
948.301	3.25
949.031	1.25
949.76	0.25
950.49	1.25
951.219	-0.75
951.948	0.25
952.678	2.25
953.407	0.25
954.136	-1.75
954.865	0.25
955.594	-0.75
956.323	1.25
957.052	0.25
957.78	0.25
958.509	1.25
959.238	1.25
959.966	0.25
960.695	0.25
961.423	2.25
962.151	0.25
962.88	0.25
963.608	3.25
964.336	3.25
965.064	2.25
965.792	1.25
966.52	0.25
967.247	-0.75
967.975	2.25
968.703	1.25
969.43	-0.75
970.158	0.25
970.885	-0.75
971.613	-2.75
972.34	3.25
973.067	0.25
973.794	1.25
974.521	-0.75
975.248	-0.75
975.975	1.25
976.702	0.25
977.429	-0.75
978.156	0.25
978.882	1.25
979.609	-0.75
980.335	0.25
981.062	1.25
981.788	-0.75
982.514	1.25
983.24	1.25
983.967	-0.75
984.693	1.25
985.419	-0.75
986.144	1.25
986.87	1.25
987.596	0.25
988.322	3.25
989.047	1.25
989.773	2.25
990.498	0.25
991.224	1.25
991.949	2.25
992.674	-0.75
993.399	1.25
994.124	1.25
994.849	-0.75
995.574	1.25
996.299	2.25
997.024	1.25
997.749	1.25
998.473	1.25
999.198	-1.75
999.922	2.25
1000.647	-0.75
1001.371	2.25
1002.095	0.25
1002.82	-0.75
1003.544	-0.75
1004.268	6.25
1004.992	4.25
1005.716	6.25
1006.439	4.25
1007.163	8.25
1007.887	4.25
1008.611	2.25
1009.334	1.25
1010.058	1.25
1010.781	0.25
1011.504	-0.75
1012.228	0.25
1012.951	-0.75
1013.674	0.25
1014.397	0.25
1015.12	-0.75
