节点500_705_QEPB04081__310__20-50-23-451.txt的数据

Date: Wed Nov 12 20:50:23 CST 2025
User: PC
Spectrometer: QEPB0408
触发模式: 0
积分时间 (秒): 1.000000E-2
Scans to average: 1
启用暗噪声校正: true
启用非线性校正: false
滑动平均宽度: 0
X轴模式: Wavelengths
Number of Pixels in Spectrum: 1044
>>>>>Begin Spectral Data<<<<<
220.843	6.62
221.644	5.62
222.444	5.62
223.244	5.62
224.045	7.62
224.845	4.62
225.645	6.62
226.445	7.62
227.245	6.62
228.045	7.62
228.845	9.62
229.645	8.62
230.444	5.62
231.244	8.62
232.043	8.62
232.843	9.62
233.642	7.62
234.442	6.62
235.241	12.62
236.04	9.62
236.839	11.62
237.638	11.62
238.437	9.62
239.236	9.62
240.035	11.62
240.833	11.62
241.632	13.62
242.43	10.62
243.229	12.62
244.027	11.62
244.826	16.62
245.624	15.62
246.422	15.62
247.22	16.62
248.018	14.62
248.816	12.62
249.614	15.62
250.412	14.62
251.21	15.62
252.007	16.62
252.805	18.62
253.602	18.62
254.4	18.62
255.197	22.62
255.994	20.62
256.791	20.62
257.589	22.62
258.386	21.62
259.183	21.62
259.979	24.62
260.776	19.62
261.573	21.62
262.37	23.62
263.166	23.62
263.963	23.62
264.759	28.62
265.556	28.62
266.352	26.62
267.148	28.62
267.944	28.62
268.74	27.62
269.536	33.62
270.332	30.62
271.128	26.62
271.924	29.62
272.719	31.62
273.515	32.62
274.311	34.62
275.106	33.62
275.901	31.62
276.697	36.62
277.492	31.62
278.287	34.62
279.082	33.62
279.877	34.62
280.672	31.62
281.467	35.62
282.262	33.62
283.056	30.62
283.851	32.62
284.646	34.62
285.44	33.62
286.234	33.62
287.029	31.62
287.823	33.62
288.617	33.62
289.411	31.62
290.205	33.62
290.999	31.62
291.793	28.62
292.587	29.62
293.381	30.62
294.174	27.62
294.968	28.62
295.761	29.62
296.555	28.62
297.348	24.62
298.141	27.62
298.935	30.62
299.728	25.62
300.521	25.62
301.314	25.62
302.107	24.62
302.899	21.62
303.692	22.62
304.485	22.62
305.277	23.62
306.07	21.62
306.862	25.62
307.655	21.62
308.447	21.62
309.239	20.62
310.031	18.62
310.823	18.62
311.615	18.62
312.407	18.62
313.199	16.62
313.991	16.62
314.783	14.62
315.574	15.62
316.366	14.62
317.157	16.62
317.949	12.62
318.74	15.62
319.531	13.62
320.322	12.62
321.113	13.62
321.904	12.62
322.695	13.62
323.486	14.62
324.277	12.62
325.068	14.62
325.858	13.62
326.649	10.62
327.439	10.62
328.23	10.62
329.02	12.62
329.81	12.62
330.6	12.62
331.391	12.62
332.181	12.62
332.971	11.62
333.76	8.62
334.55	10.62
335.34	10.62
336.13	13.62
336.919	13.62
337.709	12.62
338.498	14.62
339.287	14.62
340.077	10.62
340.866	10.62
341.655	12.62
342.444	11.62
343.233	10.62
344.022	13.62
344.811	10.62
345.6	10.62
346.388	9.62
347.177	12.62
347.965	12.62
348.754	9.62
349.542	8.62
350.33	9.62
351.119	8.62
351.907	10.62
352.695	10.62
353.483	11.62
354.271	10.62
355.059	13.62
355.846	11.62
356.634	11.62
357.422	10.62
358.209	9.62
358.997	10.62
359.784	9.62
360.571	12.62
361.359	10.62
362.146	9.62
362.933	10.62
363.72	7.62
364.507	11.62
365.294	10.62
366.081	9.62
366.867	8.62
367.654	9.62
368.44	9.62
369.227	9.62
370.013	10.62
370.8	8.62
371.586	10.62
372.372	8.62
373.158	5.62
373.944	10.62
374.73	8.62
375.516	7.62
376.302	9.62
377.088	9.62
377.873	10.62
378.659	8.62
379.445	11.62
380.23	8.62
381.015	8.62
381.801	8.62
382.586	9.62
383.371	11.62
384.156	9.62
384.941	11.62
385.726	12.62
386.511	10.62
387.296	9.62
388.08	10.62
388.865	11.62
389.649	12.62
390.434	13.62
391.218	11.62
392.003	10.62
392.787	11.62
393.571	11.62
394.355	12.62
395.139	13.62
395.923	10.62
396.707	10.62
397.491	11.62
398.274	12.62
399.058	10.62
399.842	12.62
400.625	13.62
401.408	11.62
402.192	13.62
402.975	14.62
403.758	14.62
404.541	16.62
405.324	13.62
406.107	16.62
406.89	10.62
407.673	15.62
408.456	17.62
409.238	13.62
410.021	17.62
410.803	13.62
411.586	17.62
412.368	17.62
413.151	16.62
413.933	18.62
414.715	16.62
415.497	17.62
416.279	18.62
417.061	18.62
417.843	19.62
418.624	19.62
419.406	18.62
420.188	23.62
420.969	20.62
421.751	21.62
422.532	22.62
423.313	20.62
424.095	20.62
424.876	23.62
425.657	22.62
426.438	25.62
427.219	25.62
428	25.62
428.78	28.62
429.561	29.62
430.342	30.62
431.122	32.62
431.903	31.62
432.683	31.62
433.464	32.62
434.244	39.62
435.024	37.62
435.804	40.62
436.584	44.62
437.364	45.62
438.144	45.62
438.924	51.62
439.704	52.62
440.483	54.62
441.263	58.62
442.042	66.62
442.822	67.62
443.601	77.62
444.38	80.62
445.16	84.62
445.939	93.62
446.718	99.62
447.497	107.62
448.276	120.62
449.054	131.62
449.833	144.62
450.612	159.62
451.391	176.62
452.169	196.62
452.948	214.62
453.726	236.62
454.504	266.62
455.282	296.62
456.061	331.62
456.839	365.62
457.617	412.62
458.395	454.62
459.172	508.62
459.95	576.62
460.728	641.62
461.506	701.62
462.283	804.62
463.061	887.62
463.838	982.62
464.615	1088.62
465.393	1222.62
466.17	1356.62
466.947	1507.62
467.724	1659.62
468.501	1835.62
469.278	2055.62
470.055	2268.62
470.831	2511.62
471.608	2777.62
472.385	3039.62
473.161	3382.62
473.938	3686.62
474.714	4055.62
475.49	4474.62
476.266	4908.62
477.043	5356.62
477.819	5863.62
478.595	6413.62
479.371	7030.62
480.146	7642.62
480.922	8372.62
481.698	9099.62
482.473	9898.62
483.249	10781.62
484.024	11675.62
484.8	12710.62
485.575	13769.62
486.35	14954.62
487.126	16185.62
487.901	17468.62
488.676	18880.62
489.451	20387.62
490.225	21896.62
491	23511.62
491.775	25206.62
492.55	26924.62
493.324	28705.62
494.099	30427.62
494.873	32307.62
495.647	34143.62
496.422	35947.62
497.196	37625.62
497.97	39330.62
498.744	40882.62
499.518	42521.62
500.292	43850.62
501.066	44858.62
501.839	45747.62
502.613	46495.62
503.387	47197.62
504.16	47548.62
504.934	47612.62
505.707	47629.62
506.48	47156.62
507.253	46774.62
508.027	45935.62
508.8	44914.62
509.573	43952.62
510.346	42797.62
511.118	41743.62
511.891	40516.62
512.664	38869.62
513.437	37397.62
514.209	36021.62
514.982	34649.62
515.754	33215.62
516.526	31807.62
517.298	30567.62
518.071	29349.62
518.843	28182.62
519.615	27098.62
520.387	25957.62
521.159	25088.62
521.93	23957.62
522.702	22948.62
523.474	22010.62
524.245	21066.62
525.017	20093.62
525.788	19225.62
526.56	18408.62
527.331	17668.62
528.102	16658.62
528.873	15898.62
529.644	15152.62
530.415	14441.62
531.186	13711.62
531.957	12983.62
532.728	12333.62
533.498	11679.62
534.269	11020.62
535.039	10466.62
535.81	9916.62
536.58	9387.62
537.351	8834.62
538.121	8406.62
538.891	7938.62
539.661	7517.62
540.431	7103.62
541.201	6714.62
541.971	6412.62
542.741	6071.62
543.51	5763.62
544.28	5468.62
545.05	5225.62
545.819	4961.62
546.588	4712.62
547.358	4498.62
548.127	4289.62
548.896	4065.62
549.665	3863.62
550.434	3627.62
551.203	3464.62
551.972	3287.62
552.741	3119.62
553.51	2919.62
554.278	2756.62
555.047	2616.62
555.815	2477.62
556.584	2318.62
557.352	2199.62
558.121	2088.62
558.889	1960.62
559.657	1860.62
560.425	1772.62
561.193	1665.62
561.961	1582.62
562.729	1489.62
563.496	1409.62
564.264	1333.62
565.032	1257.62
565.799	1188.62
566.567	1139.62
567.334	1075.62
568.101	1002.62
568.869	942.62
569.636	901.62
570.403	864.62
571.17	805.62
571.937	755.62
572.704	721.62
573.471	676.62
574.237	630.62
575.004	603.62
575.771	559.62
576.537	530.62
577.303	500.62
578.07	479.62
578.836	447.62
579.602	422.62
580.368	403.62
581.134	382.62
581.9	363.62
582.666	344.62
583.432	339.62
584.198	315.62
584.964	289.62
585.729	288.62
586.495	265.62
587.26	249.62
588.025	236.62
588.791	229.62
589.556	215.62
590.321	210.62
591.086	193.62
591.851	182.62
592.616	174.62
593.381	168.62
594.146	163.62
594.911	148.62
595.675	153.62
596.44	138.62
597.204	130.62
597.969	128.62
598.733	120.62
599.497	119.62
600.261	113.62
601.025	104.62
601.79	101.62
602.553	95.62
603.317	94.62
604.081	87.62
604.845	86.62
605.609	83.62
606.372	80.62
607.136	75.62
607.899	74.62
608.662	71.62
609.426	66.62
610.189	68.62
610.952	62.62
611.715	58.62
612.478	59.62
613.241	59.62
614.004	52.62
614.767	51.62
615.529	52.62
616.292	48.62
617.055	48.62
617.817	47.62
618.579	43.62
619.342	45.62
620.104	39.62
620.866	40.62
621.628	36.62
622.39	37.62
623.152	38.62
623.914	36.62
624.676	32.62
625.438	31.62
626.199	36.62
626.961	32.62
627.722	28.62
628.484	31.62
629.245	32.62
630.006	26.62
630.768	27.62
631.529	24.62
632.29	26.62
633.051	22.62
633.812	22.62
634.573	25.62
635.333	20.62
636.094	21.62
636.855	21.62
637.615	19.62
638.376	23.62
639.136	20.62
639.896	21.62
640.657	19.62
641.417	17.62
642.177	17.62
642.937	15.62
643.697	14.62
644.457	14.62
645.216	16.62
645.976	16.62
646.736	16.62
647.495	16.62
648.255	13.62
649.014	14.62
649.774	12.62
650.533	9.62
651.292	12.62
652.051	16.62
652.81	11.62
653.569	11.62
654.328	12.62
655.087	11.62
655.846	13.62
656.604	11.62
657.363	11.62
658.121	14.62
658.88	9.62
659.638	11.62
660.397	10.62
661.155	10.62
661.913	10.62
662.671	10.62
663.429	10.62
664.187	10.62
664.945	10.62
665.703	9.62
666.46	10.62
667.218	10.62
667.976	7.62
668.733	9.62
669.49	9.62
670.248	11.62
671.005	8.62
671.762	8.62
672.519	8.62
673.276	7.62
674.033	9.62
674.79	5.62
675.547	6.62
676.304	9.62
677.06	8.62
677.817	8.62
678.574	8.62
679.33	8.62
680.086	7.62
680.843	7.62
681.599	9.62
682.355	7.62
683.111	8.62
683.867	7.62
684.623	5.62
685.379	9.62
686.135	7.62
686.89	8.62
687.646	6.62
688.402	8.62
689.157	6.62
689.912	5.62
690.668	7.62
691.423	6.62
692.178	6.62
692.933	6.62
693.688	7.62
694.443	7.62
695.198	6.62
695.953	7.62
696.708	6.62
697.462	6.62
698.217	5.62
698.972	9.62
699.726	7.62
700.48	7.62
701.235	7.62
701.989	7.62
702.743	8.62
703.497	6.62
704.251	6.62
705.005	7.62
705.759	7.62
706.513	8.62
707.266	6.62
708.02	7.62
708.774	7.62
709.527	7.62
710.28	6.62
711.034	5.62
711.787	7.62
712.54	3.62
713.293	9.62
714.046	7.62
714.799	7.62
715.552	8.62
716.305	5.62
717.058	10.62
717.81	7.62
718.563	7.62
719.315	7.62
720.068	6.62
720.82	7.62
721.573	6.62
722.325	6.62
723.077	10.62
723.829	6.62
724.581	8.62
725.333	8.62
726.085	5.62
726.836	9.62
727.588	9.62
728.34	7.62
729.091	8.62
729.843	10.62
730.594	8.62
731.346	7.62
732.097	8.62
732.848	7.62
733.599	10.62
734.35	10.62
735.101	8.62
735.852	7.62
736.603	10.62
737.354	5.62
738.104	9.62
738.855	9.62
739.605	7.62
740.356	9.62
741.106	9.62
741.856	9.62
742.607	10.62
743.357	9.62
744.107	10.62
744.857	10.62
745.607	10.62
746.357	11.62
747.106	10.62
747.856	10.62
748.606	9.62
749.355	9.62
750.105	10.62
750.854	9.62
751.603	11.62
752.353	10.62
753.102	12.62
753.851	8.62
754.6	13.62
755.349	10.62
756.098	10.62
756.847	11.62
757.595	11.62
758.344	10.62
759.093	12.62
759.841	10.62
760.589	12.62
761.338	10.62
762.086	14.62
762.834	13.62
763.582	11.62
764.331	12.62
765.079	12.62
765.826	14.62
766.574	11.62
767.322	14.62
768.07	14.62
768.817	11.62
769.565	13.62
770.312	13.62
771.06	14.62
771.807	12.62
772.554	14.62
773.302	13.62
774.049	12.62
774.796	16.62
775.543	15.62
776.29	12.62
777.036	15.62
777.783	14.62
778.53	15.62
779.276	14.62
780.023	12.62
780.769	14.62
781.516	14.62
782.262	11.62
783.008	14.62
783.754	14.62
784.5	15.62
785.246	14.62
785.992	14.62
786.738	15.62
787.484	14.62
788.23	17.62
788.975	14.62
789.721	13.62
790.466	14.62
791.212	18.62
791.957	13.62
792.702	14.62
793.447	12.62
794.193	12.62
794.938	14.62
795.683	12.62
796.427	12.62
797.172	13.62
797.917	13.62
798.662	10.62
799.406	14.62
800.151	10.62
800.895	13.62
801.64	12.62
802.384	12.62
803.128	14.62
803.872	10.62
804.616	11.62
805.36	11.62
806.104	10.62
806.848	12.62
807.592	10.62
808.336	9.62
809.079	8.62
809.823	10.62
810.566	10.62
811.31	8.62
812.053	10.62
812.796	9.62
813.539	9.62
814.283	8.62
815.026	9.62
815.769	8.62
816.511	6.62
817.254	7.62
817.997	7.62
818.74	7.62
819.482	7.62
820.225	5.62
820.967	6.62
821.71	6.62
822.452	4.62
823.194	7.62
823.936	7.62
824.678	5.62
825.42	5.62
826.162	4.62
826.904	4.62
827.646	6.62
828.388	5.62
829.129	8.62
829.871	5.62
830.612	6.62
831.354	7.62
832.095	5.62
832.836	4.62
833.577	5.62
834.319	6.62
835.06	5.62
835.801	4.62
836.542	8.62
837.282	5.62
838.023	2.62
838.764	6.62
839.504	3.62
840.245	6.62
840.985	5.62
841.726	4.62
842.466	2.62
843.206	4.62
843.946	2.62
844.687	4.62
845.427	7.62
846.166	2.62
846.906	4.62
847.646	6.62
848.386	2.62
849.125	4.62
849.865	5.62
850.605	6.62
851.344	3.62
852.083	4.62
852.823	3.62
853.562	3.62
854.301	2.62
855.04	2.62
855.779	3.62
856.518	2.62
857.257	3.62
857.995	1.62
858.734	2.62
859.473	2.62
860.211	4.62
860.95	3.62
861.688	2.62
862.426	4.62
863.165	2.62
863.903	1.62
864.641	3.62
865.379	4.62
866.117	1.62
866.855	2.62
867.593	3.62
868.33	2.62
869.068	1.62
869.806	0.62
870.543	1.62
871.28	1.62
872.018	3.62
872.755	0.62
873.492	5.62
874.229	2.62
874.967	-0.38
875.703	2.62
876.44	-0.38
877.177	1.62
877.914	0.62
878.651	-1.38
879.387	0.62
880.124	2.62
880.86	3.62
881.597	-1.38
882.333	1.62
883.069	0.62
883.806	-0.38
884.542	-0.38
885.278	0.62
886.014	1.62
886.749	1.62
887.485	-0.38
888.221	1.62
888.957	3.62
889.692	2.62
890.428	1.62
891.163	1.62
891.899	0.62
892.634	1.62
893.369	0.62
894.104	0.62
894.839	0.62
895.574	0.62
896.309	0.62
897.044	0.62
897.779	0.62
898.514	1.62
899.248	-1.38
899.983	2.62
900.717	-0.38
901.452	2.62
902.186	0.62
902.92	-0.38
903.654	-0.38
904.389	-0.38
905.123	1.62
905.857	2.62
906.59	0.62
907.324	0.62
908.058	-3.38
908.792	2.62
909.525	1.62
910.259	0.62
910.992	0.62
911.726	1.62
912.459	-0.38
913.192	-0.38
913.925	-0.38
914.658	-0.38
915.391	-1.38
916.124	-0.38
916.857	-0.38
917.59	0.62
918.323	0.62
919.055	-0.38
919.788	-1.38
920.521	1.62
921.253	1.62
921.985	0.62
922.718	2.62
923.45	2.62
924.182	0.62
924.914	1.62
925.646	-0.38
926.378	-0.38
927.11	1.62
927.841	0.62
928.573	1.62
929.305	0.62
930.036	0.62
930.768	-1.38
931.499	-1.38
932.23	2.62
932.962	0.62
933.693	-0.38
934.424	-0.38
935.155	0.62
935.886	-0.38
936.617	1.62
937.348	-1.38
938.078	0.62
938.809	-1.38
939.54	1.62
940.27	0.62
941.001	-1.38
941.731	-1.38
942.461	-1.38
943.191	-0.38
943.922	1.62
944.652	-1.38
945.382	0.62
946.112	0.62
946.841	-1.38
947.571	0.62
948.301	-1.38
949.031	0.62
949.76	-0.38
950.49	-1.38
951.219	1.62
951.948	-0.38
952.678	0.62
953.407	1.62
954.136	0.62
954.865	-1.38
955.594	-1.38
956.323	0.62
957.052	-1.38
957.78	-0.38
958.509	0.62
959.238	-2.38
959.966	-0.38
960.695	-2.38
961.423	0.62
962.151	0.62
962.88	1.62
963.608	-1.38
964.336	0.62
965.064	1.62
965.792	-0.38
966.52	-0.38
967.247	0.62
967.975	1.62
968.703	1.62
969.43	-1.38
970.158	0.62
970.885	-1.38
971.613	2.62
972.34	0.62
973.067	-2.38
973.794	2.62
974.521	-3.38
975.248	0.62
975.975	-1.38
976.702	-0.38
977.429	0.62
978.156	-1.38
978.882	-2.38
979.609	0.62
980.335	0.62
981.062	0.62
981.788	-1.38
982.514	0.62
983.24	1.62
983.967	-1.38
984.693	-1.38
985.419	0.62
986.144	1.62
986.87	-1.38
987.596	0.62
988.322	-0.38
989.047	2.62
989.773	0.62
990.498	-0.38
991.224	0.62
991.949	-1.38
992.674	2.62
993.399	0.62
994.124	-1.38
994.849	1.62
995.574	-0.38
996.299	0.62
997.024	-1.38
997.749	-1.38
998.473	-1.38
999.198	-0.38
999.922	-0.38
1000.647	-0.38
1001.371	1.62
1002.095	0.62
1002.82	-0.38
1003.544	-2.38
1004.268	4.62
1004.992	5.62
1005.716	2.62
1006.439	0.62
1007.163	4.62
1007.887	6.62
1008.611	3.62
1009.334	1.62
1010.058	0.62
1010.781	1.62
1011.504	1.62
1012.228	0.62
1012.951	-0.38
1013.674	1.62
1014.397	0.62
1015.12	-1.38
