节点500_705_QEPB04081__134__20-48-07-076.txt的数据

Date: Wed Nov 12 20:48:07 CST 2025
User: PC
Spectrometer: QEPB0408
触发模式: 0
积分时间 (秒): 1.000000E-2
Scans to average: 1
启用暗噪声校正: true
启用非线性校正: false
滑动平均宽度: 0
X轴模式: Wavelengths
Number of Pixels in Spectrum: 1044
>>>>>Begin Spectral Data<<<<<
220.843	4.62
221.644	6.62
222.444	4.62
223.244	3.62
224.045	7.62
224.845	8.62
225.645	7.62
226.445	6.62
227.245	7.62
228.045	7.62
228.845	6.62
229.645	6.62
230.444	6.62
231.244	9.62
232.043	8.62
232.843	10.62
233.642	8.62
234.442	7.62
235.241	10.62
236.04	10.62
236.839	10.62
237.638	7.62
238.437	9.62
239.236	11.62
240.035	8.62
240.833	13.62
241.632	12.62
242.43	12.62
243.229	11.62
244.027	11.62
244.826	15.62
245.624	11.62
246.422	14.62
247.22	14.62
248.018	16.62
248.816	16.62
249.614	14.62
250.412	17.62
251.21	17.62
252.007	14.62
252.805	18.62
253.602	19.62
254.4	18.62
255.197	19.62
255.994	19.62
256.791	21.62
257.589	21.62
258.386	21.62
259.183	23.62
259.979	25.62
260.776	26.62
261.573	22.62
262.37	22.62
263.166	26.62
263.963	27.62
264.759	25.62
265.556	28.62
266.352	26.62
267.148	27.62
267.944	30.62
268.74	32.62
269.536	33.62
270.332	31.62
271.128	31.62
271.924	31.62
272.719	30.62
273.515	34.62
274.311	33.62
275.106	32.62
275.901	33.62
276.697	35.62
277.492	34.62
278.287	35.62
279.082	34.62
279.877	36.62
280.672	36.62
281.467	36.62
282.262	31.62
283.056	36.62
283.851	33.62
284.646	33.62
285.44	33.62
286.234	35.62
287.029	33.62
287.823	33.62
288.617	32.62
289.411	33.62
290.205	36.62
290.999	32.62
291.793	27.62
292.587	31.62
293.381	27.62
294.174	32.62
294.968	31.62
295.761	25.62
296.555	27.62
297.348	28.62
298.141	25.62
298.935	30.62
299.728	26.62
300.521	25.62
301.314	26.62
302.107	23.62
302.899	18.62
303.692	21.62
304.485	23.62
305.277	20.62
306.07	24.62
306.862	25.62
307.655	21.62
308.447	22.62
309.239	22.62
310.031	20.62
310.823	17.62
311.615	20.62
312.407	14.62
313.199	18.62
313.991	11.62
314.783	16.62
315.574	18.62
316.366	14.62
317.157	13.62
317.949	16.62
318.74	14.62
319.531	12.62
320.322	12.62
321.113	13.62
321.904	13.62
322.695	12.62
323.486	16.62
324.277	12.62
325.068	12.62
325.858	14.62
326.649	14.62
327.439	13.62
328.23	11.62
329.02	11.62
329.81	10.62
330.6	11.62
331.391	10.62
332.181	12.62
332.971	12.62
333.76	12.62
334.55	12.62
335.34	8.62
336.13	12.62
336.919	12.62
337.709	11.62
338.498	10.62
339.287	10.62
340.077	12.62
340.866	12.62
341.655	11.62
342.444	10.62
343.233	10.62
344.022	10.62
344.811	10.62
345.6	12.62
346.388	11.62
347.177	10.62
347.965	11.62
348.754	9.62
349.542	8.62
350.33	8.62
351.119	12.62
351.907	11.62
352.695	11.62
353.483	10.62
354.271	8.62
355.059	11.62
355.846	6.62
356.634	13.62
357.422	9.62
358.209	10.62
358.997	10.62
359.784	7.62
360.571	10.62
361.359	9.62
362.146	10.62
362.933	9.62
363.72	8.62
364.507	9.62
365.294	11.62
366.081	8.62
366.867	7.62
367.654	9.62
368.44	8.62
369.227	10.62
370.013	10.62
370.8	8.62
371.586	11.62
372.372	10.62
373.158	8.62
373.944	9.62
374.73	6.62
375.516	10.62
376.302	9.62
377.088	8.62
377.873	9.62
378.659	9.62
379.445	11.62
380.23	8.62
381.015	11.62
381.801	10.62
382.586	7.62
383.371	8.62
384.156	10.62
384.941	11.62
385.726	9.62
386.511	10.62
387.296	10.62
388.08	10.62
388.865	12.62
389.649	11.62
390.434	12.62
391.218	11.62
392.003	11.62
392.787	12.62
393.571	9.62
394.355	16.62
395.139	14.62
395.923	11.62
396.707	11.62
397.491	12.62
398.274	11.62
399.058	10.62
399.842	14.62
400.625	11.62
401.408	12.62
402.192	13.62
402.975	14.62
403.758	11.62
404.541	13.62
405.324	15.62
406.107	16.62
406.89	15.62
407.673	18.62
408.456	13.62
409.238	15.62
410.021	17.62
410.803	19.62
411.586	17.62
412.368	17.62
413.151	16.62
413.933	16.62
414.715	18.62
415.497	21.62
416.279	18.62
417.061	19.62
417.843	18.62
418.624	23.62
419.406	19.62
420.188	21.62
420.969	19.62
421.751	16.62
422.532	21.62
423.313	23.62
424.095	21.62
424.876	25.62
425.657	24.62
426.438	24.62
427.219	24.62
428	25.62
428.78	26.62
429.561	31.62
430.342	29.62
431.122	32.62
431.903	35.62
432.683	30.62
433.464	33.62
434.244	39.62
435.024	39.62
435.804	40.62
436.584	43.62
437.364	47.62
438.144	47.62
438.924	46.62
439.704	50.62
440.483	58.62
441.263	58.62
442.042	65.62
442.822	67.62
443.601	70.62
444.38	74.62
445.16	85.62
445.939	91.62
446.718	100.62
447.497	110.62
448.276	117.62
449.054	125.62
449.833	139.62
450.612	151.62
451.391	166.62
452.169	188.62
452.948	202.62
453.726	224.62
454.504	250.62
455.282	284.62
456.061	311.62
456.839	348.62
457.617	399.62
458.395	438.62
459.172	482.62
459.95	550.62
460.728	609.62
461.506	685.62
462.283	758.62
463.061	851.62
463.838	953.62
464.615	1059.62
465.393	1180.62
466.17	1310.62
466.947	1462.62
467.724	1637.62
468.501	1804.62
469.278	2012.62
470.055	2252.62
470.831	2488.62
471.608	2754.62
472.385	3046.62
473.161	3355.62
473.938	3698.62
474.714	4096.62
475.49	4541.62
476.266	4947.62
477.043	5450.62
477.819	5974.62
478.595	6543.62
479.371	7185.62
480.146	7899.62
480.922	8603.62
481.698	9393.62
482.473	10261.62
483.249	11241.62
484.024	12196.62
484.8	13228.62
485.575	14441.62
486.35	15724.62
487.126	17048.62
487.901	18460.62
488.676	19902.62
489.451	21638.62
490.225	23291.62
491	25017.62
491.775	26784.62
492.55	28667.62
493.324	30548.62
494.099	32396.62
494.873	34314.62
495.647	36279.62
496.422	38230.62
497.196	40128.62
497.97	41687.62
498.744	43336.62
499.518	44885.62
500.292	46169.62
501.066	47136.62
501.839	47957.62
502.613	48596.62
503.387	49051.62
504.16	49262.62
504.934	49231.62
505.707	48947.62
506.48	48282.62
507.253	47719.62
508.027	46788.62
508.8	45669.62
509.573	44375.62
510.346	43086.62
511.118	41813.62
511.891	40415.62
512.664	38794.62
513.437	37221.62
514.209	35739.62
514.982	34357.62
515.754	32807.62
516.526	31455.62
517.298	30200.62
518.071	28915.62
518.843	27794.62
519.615	26669.62
520.387	25617.62
521.159	24593.62
521.93	23518.62
522.702	22535.62
523.474	21531.62
524.245	20674.62
525.017	19727.62
525.788	18844.62
526.56	18008.62
527.331	17245.62
528.102	16357.62
528.873	15465.62
529.644	14787.62
530.415	14017.62
531.186	13304.62
531.957	12605.62
532.728	11948.62
533.498	11337.62
534.269	10665.62
535.039	10085.62
535.81	9581.62
536.58	8995.62
537.351	8534.62
538.121	8061.62
538.891	7656.62
539.661	7215.62
540.431	6836.62
541.201	6488.62
541.971	6150.62
542.741	5839.62
543.51	5553.62
544.28	5272.62
545.05	5001.62
545.819	4785.62
546.588	4564.62
547.358	4358.62
548.127	4113.62
548.896	3897.62
549.665	3694.62
550.434	3496.62
551.203	3329.62
551.972	3181.62
552.741	2981.62
553.51	2787.62
554.278	2651.62
555.047	2493.62
555.815	2367.62
556.584	2246.62
557.352	2109.62
558.121	1991.62
558.889	1883.62
559.657	1780.62
560.425	1697.62
561.193	1583.62
561.961	1509.62
562.729	1420.62
563.496	1338.62
564.264	1272.62
565.032	1202.62
565.799	1140.62
566.567	1079.62
567.334	1025.62
568.101	951.62
568.869	918.62
569.636	849.62
570.403	806.62
571.17	770.62
571.937	716.62
572.704	679.62
573.471	645.62
574.237	610.62
575.004	571.62
575.771	539.62
576.537	502.62
577.303	475.62
578.07	454.62
578.836	427.62
579.602	398.62
580.368	381.62
581.134	364.62
581.9	346.62
582.666	326.62
583.432	310.62
584.198	298.62
584.964	284.62
585.729	269.62
586.495	257.62
587.26	244.62
588.025	233.62
588.791	218.62
589.556	211.62
590.321	196.62
591.086	187.62
591.851	171.62
592.616	163.62
593.381	162.62
594.146	155.62
594.911	145.62
595.675	142.62
596.44	131.62
597.204	131.62
597.969	121.62
598.733	121.62
599.497	113.62
600.261	108.62
601.025	104.62
601.79	101.62
602.553	95.62
603.317	90.62
604.081	89.62
604.845	79.62
605.609	83.62
606.372	78.62
607.136	73.62
607.899	68.62
608.662	71.62
609.426	63.62
610.189	65.62
610.952	62.62
611.715	59.62
612.478	56.62
613.241	53.62
614.004	54.62
614.767	52.62
615.529	51.62
616.292	47.62
617.055	46.62
617.817	42.62
618.579	41.62
619.342	45.62
620.104	40.62
620.866	39.62
621.628	39.62
622.39	38.62
623.152	36.62
623.914	35.62
624.676	33.62
625.438	31.62
626.199	33.62
626.961	32.62
627.722	31.62
628.484	28.62
629.245	27.62
630.006	27.62
630.768	27.62
631.529	27.62
632.29	25.62
633.051	24.62
633.812	21.62
634.573	21.62
635.333	24.62
636.094	23.62
636.855	21.62
637.615	22.62
638.376	17.62
639.136	19.62
639.896	18.62
640.657	19.62
641.417	16.62
642.177	20.62
642.937	16.62
643.697	17.62
644.457	15.62
645.216	16.62
645.976	16.62
646.736	16.62
647.495	17.62
648.255	16.62
649.014	16.62
649.774	14.62
650.533	15.62
651.292	15.62
652.051	14.62
652.81	11.62
653.569	14.62
654.328	11.62
655.087	12.62
655.846	13.62
656.604	12.62
657.363	13.62
658.121	11.62
658.88	8.62
659.638	12.62
660.397	9.62
661.155	10.62
661.913	10.62
662.671	9.62
663.429	10.62
664.187	10.62
664.945	8.62
665.703	11.62
666.46	8.62
667.218	7.62
667.976	7.62
668.733	10.62
669.49	8.62
670.248	10.62
671.005	9.62
671.762	9.62
672.519	7.62
673.276	9.62
674.033	7.62
674.79	9.62
675.547	8.62
676.304	6.62
677.06	7.62
677.817	6.62
678.574	7.62
679.33	7.62
680.086	8.62
680.843	6.62
681.599	8.62
682.355	9.62
683.111	7.62
683.867	6.62
684.623	8.62
685.379	8.62
686.135	9.62
686.89	5.62
687.646	8.62
688.402	5.62
689.157	6.62
689.912	6.62
690.668	6.62
691.423	5.62
692.178	6.62
692.933	6.62
693.688	6.62
694.443	8.62
695.198	9.62
695.953	7.62
696.708	7.62
697.462	5.62
698.217	6.62
698.972	5.62
699.726	7.62
700.48	6.62
701.235	6.62
701.989	6.62
702.743	5.62
703.497	5.62
704.251	6.62
705.005	8.62
705.759	6.62
706.513	4.62
707.266	8.62
708.02	7.62
708.774	8.62
709.527	9.62
710.28	5.62
711.034	7.62
711.787	7.62
712.54	8.62
713.293	6.62
714.046	6.62
714.799	9.62
715.552	6.62
716.305	8.62
717.058	7.62
717.81	9.62
718.563	6.62
719.315	6.62
720.068	7.62
720.82	6.62
721.573	7.62
722.325	9.62
723.077	7.62
723.829	8.62
724.581	6.62
725.333	9.62
726.085	10.62
726.836	9.62
727.588	6.62
728.34	9.62
729.091	11.62
729.843	6.62
730.594	7.62
731.346	10.62
732.097	10.62
732.848	7.62
733.599	9.62
734.35	7.62
735.101	7.62
735.852	10.62
736.603	9.62
737.354	12.62
738.104	10.62
738.855	8.62
739.605	9.62
740.356	10.62
741.106	9.62
741.856	9.62
742.607	10.62
743.357	11.62
744.107	10.62
744.857	10.62
745.607	9.62
746.357	13.62
747.106	9.62
747.856	11.62
748.606	10.62
749.355	10.62
750.105	10.62
750.854	12.62
751.603	11.62
752.353	11.62
753.102	10.62
753.851	13.62
754.6	9.62
755.349	12.62
756.098	11.62
756.847	9.62
757.595	15.62
758.344	9.62
759.093	15.62
759.841	13.62
760.589	11.62
761.338	12.62
762.086	12.62
762.834	12.62
763.582	12.62
764.331	14.62
765.079	13.62
765.826	12.62
766.574	14.62
767.322	11.62
768.07	15.62
768.817	14.62
769.565	14.62
770.312	14.62
771.06	14.62
771.807	17.62
772.554	14.62
773.302	14.62
774.049	15.62
774.796	14.62
775.543	17.62
776.29	16.62
777.036	18.62
777.783	15.62
778.53	16.62
779.276	15.62
780.023	16.62
780.769	15.62
781.516	16.62
782.262	16.62
783.008	16.62
783.754	16.62
784.5	18.62
785.246	15.62
785.992	18.62
786.738	16.62
787.484	14.62
788.23	17.62
788.975	18.62
789.721	16.62
790.466	16.62
791.212	16.62
791.957	12.62
792.702	12.62
793.447	14.62
794.193	14.62
794.938	13.62
795.683	12.62
796.427	13.62
797.172	12.62
797.917	10.62
798.662	13.62
799.406	12.62
800.151	12.62
800.895	11.62
801.64	11.62
802.384	10.62
803.128	11.62
803.872	12.62
804.616	11.62
805.36	13.62
806.104	12.62
806.848	9.62
807.592	6.62
808.336	9.62
809.079	9.62
809.823	8.62
810.566	9.62
811.31	8.62
812.053	7.62
812.796	9.62
813.539	7.62
814.283	9.62
815.026	7.62
815.769	10.62
816.511	4.62
817.254	8.62
817.997	9.62
818.74	7.62
819.482	8.62
820.225	5.62
820.967	7.62
821.71	6.62
822.452	8.62
823.194	6.62
823.936	7.62
824.678	7.62
825.42	7.62
826.162	7.62
826.904	3.62
827.646	2.62
828.388	6.62
829.129	6.62
829.871	7.62
830.612	6.62
831.354	7.62
832.095	5.62
832.836	5.62
833.577	5.62
834.319	5.62
835.06	7.62
835.801	4.62
836.542	6.62
837.282	6.62
838.023	4.62
838.764	4.62
839.504	3.62
840.245	4.62
840.985	7.62
841.726	7.62
842.466	4.62
843.206	4.62
843.946	3.62
844.687	4.62
845.427	4.62
846.166	5.62
846.906	2.62
847.646	3.62
848.386	4.62
849.125	2.62
849.865	4.62
850.605	5.62
851.344	6.62
852.083	6.62
852.823	3.62
853.562	3.62
854.301	4.62
855.04	4.62
855.779	4.62
856.518	5.62
857.257	4.62
857.995	2.62
858.734	6.62
859.473	3.62
860.211	3.62
860.95	2.62
861.688	4.62
862.426	1.62
863.165	2.62
863.903	6.62
864.641	2.62
865.379	4.62
866.117	2.62
866.855	-0.38
867.593	1.62
868.33	4.62
869.068	3.62
869.806	2.62
870.543	2.62
871.28	4.62
872.018	1.62
872.755	2.62
873.492	0.62
874.229	2.62
874.967	1.62
875.703	1.62
876.44	0.62
877.177	0.62
877.914	3.62
878.651	2.62
879.387	1.62
880.124	3.62
880.86	0.62
881.597	-1.38
882.333	4.62
883.069	0.62
883.806	-0.38
884.542	0.62
885.278	2.62
886.014	-0.38
886.749	0.62
887.485	2.62
888.221	1.62
888.957	2.62
889.692	0.62
890.428	2.62
891.163	0.62
891.899	0.62
892.634	0.62
893.369	1.62
894.104	-0.38
894.839	0.62
895.574	0.62
896.309	2.62
897.044	1.62
897.779	-0.38
898.514	0.62
899.248	1.62
899.983	0.62
900.717	0.62
901.452	0.62
902.186	3.62
902.92	-0.38
903.654	0.62
904.389	1.62
905.123	-0.38
905.857	1.62
906.59	-2.38
907.324	-0.38
908.058	3.62
908.792	0.62
909.525	0.62
910.259	-0.38
910.992	-0.38
911.726	-1.38
912.459	1.62
913.192	0.62
913.925	-1.38
914.658	0.62
915.391	-1.38
916.124	0.62
916.857	0.62
917.59	-0.38
918.323	1.62
919.055	-1.38
919.788	2.62
920.521	1.62
921.253	-0.38
921.985	-0.38
922.718	2.62
923.45	0.62
924.182	-1.38
924.914	1.62
925.646	0.62
926.378	-1.38
927.11	2.62
927.841	-1.38
928.573	1.62
929.305	0.62
930.036	0.62
930.768	-1.38
931.499	0.62
932.23	-0.38
932.962	0.62
933.693	-0.38
934.424	1.62
935.155	1.62
935.886	1.62
936.617	-1.38
937.348	1.62
938.078	-0.38
938.809	-0.38
939.54	-3.38
940.27	0.62
941.001	-0.38
941.731	0.62
942.461	-1.38
943.191	2.62
943.922	0.62
944.652	0.62
945.382	-2.38
946.112	1.62
946.841	0.62
947.571	0.62
948.301	0.62
949.031	-1.38
949.76	-0.38
950.49	-2.38
951.219	0.62
951.948	1.62
952.678	0.62
953.407	-1.38
954.136	-1.38
954.865	2.62
955.594	-1.38
956.323	1.62
957.052	0.62
957.78	-0.38
958.509	0.62
959.238	-1.38
959.966	-1.38
960.695	1.62
961.423	-0.38
962.151	0.62
962.88	1.62
963.608	-0.38
964.336	-1.38
965.064	-0.38
965.792	1.62
966.52	0.62
967.247	0.62
967.975	-0.38
968.703	-0.38
969.43	1.62
970.158	-0.38
970.885	1.62
971.613	-1.38
972.34	-2.38
973.067	-0.38
973.794	-0.38
974.521	1.62
975.248	0.62
975.975	-0.38
976.702	2.62
977.429	0.62
978.156	0.62
978.882	-2.38
979.609	-0.38
980.335	-0.38
981.062	-0.38
981.788	-0.38
982.514	-0.38
983.24	-0.38
983.967	-2.38
984.693	-1.38
985.419	-1.38
986.144	0.62
986.87	-1.38
987.596	-0.38
988.322	0.62
989.047	0.62
989.773	-0.38
990.498	-0.38
991.224	-0.38
991.949	-0.38
992.674	-1.38
993.399	1.62
994.124	-1.38
994.849	1.62
995.574	-2.38
996.299	1.62
997.024	-3.38
997.749	-0.38
998.473	2.62
999.198	-2.38
999.922	0.62
1000.647	-0.38
1001.371	2.62
1002.095	-2.38
1002.82	0.62
1003.544	-1.38
1004.268	2.62
1004.992	4.62
1005.716	3.62
1006.439	4.62
1007.163	3.62
1007.887	5.62
1008.611	1.62
1009.334	-1.38
1010.058	-0.38
1010.781	-1.38
1011.504	-1.38
1012.228	1.62
1012.951	-0.38
1013.674	0.62
1014.397	1.62
1015.12	-1.38
