节点500_705_QEPB04081__351__20-50-55-592.txt的数据

Date: Wed Nov 12 20:50:55 CST 2025
User: PC
Spectrometer: QEPB0408
触发模式: 0
积分时间 (秒): 1.000000E-2
Scans to average: 1
启用暗噪声校正: true
启用非线性校正: false
滑动平均宽度: 0
X轴模式: Wavelengths
Number of Pixels in Spectrum: 1044
>>>>>Begin Spectral Data<<<<<
220.843	7.38
221.644	4.38
222.444	8.38
223.244	2.38
224.045	5.38
224.845	5.38
225.645	6.38
226.445	6.38
227.245	7.38
228.045	8.38
228.845	5.38
229.645	5.38
230.444	7.38
231.244	5.38
232.043	7.38
232.843	8.38
233.642	11.38
234.442	12.38
235.241	7.38
236.04	8.38
236.839	11.38
237.638	10.38
238.437	11.38
239.236	10.38
240.035	12.38
240.833	10.38
241.632	10.38
242.43	13.38
243.229	12.38
244.027	12.38
244.826	10.38
245.624	12.38
246.422	12.38
247.22	14.38
248.018	14.38
248.816	14.38
249.614	15.38
250.412	14.38
251.21	17.38
252.007	16.38
252.805	17.38
253.602	19.38
254.4	15.38
255.197	17.38
255.994	19.38
256.791	18.38
257.589	18.38
258.386	19.38
259.183	19.38
259.979	18.38
260.776	23.38
261.573	20.38
262.37	23.38
263.166	26.38
263.963	22.38
264.759	27.38
265.556	26.38
266.352	28.38
267.148	27.38
267.944	28.38
268.74	28.38
269.536	31.38
270.332	28.38
271.128	25.38
271.924	32.38
272.719	30.38
273.515	32.38
274.311	30.38
275.106	34.38
275.901	34.38
276.697	33.38
277.492	33.38
278.287	34.38
279.082	32.38
279.877	38.38
280.672	33.38
281.467	33.38
282.262	36.38
283.056	34.38
283.851	38.38
284.646	33.38
285.44	34.38
286.234	33.38
287.029	30.38
287.823	32.38
288.617	32.38
289.411	34.38
290.205	30.38
290.999	31.38
291.793	30.38
292.587	30.38
293.381	28.38
294.174	28.38
294.968	28.38
295.761	27.38
296.555	26.38
297.348	26.38
298.141	24.38
298.935	23.38
299.728	27.38
300.521	25.38
301.314	23.38
302.107	21.38
302.899	21.38
303.692	19.38
304.485	22.38
305.277	18.38
306.07	22.38
306.862	18.38
307.655	21.38
308.447	20.38
309.239	19.38
310.031	19.38
310.823	18.38
311.615	18.38
312.407	16.38
313.199	15.38
313.991	18.38
314.783	15.38
315.574	16.38
316.366	17.38
317.157	11.38
317.949	14.38
318.74	14.38
319.531	15.38
320.322	13.38
321.113	14.38
321.904	14.38
322.695	13.38
323.486	13.38
324.277	9.38
325.068	12.38
325.858	17.38
326.649	13.38
327.439	17.38
328.23	10.38
329.02	10.38
329.81	12.38
330.6	12.38
331.391	12.38
332.181	13.38
332.971	11.38
333.76	12.38
334.55	11.38
335.34	10.38
336.13	15.38
336.919	12.38
337.709	12.38
338.498	12.38
339.287	10.38
340.077	13.38
340.866	12.38
341.655	12.38
342.444	10.38
343.233	12.38
344.022	13.38
344.811	9.38
345.6	9.38
346.388	9.38
347.177	11.38
347.965	12.38
348.754	9.38
349.542	10.38
350.33	9.38
351.119	11.38
351.907	13.38
352.695	10.38
353.483	9.38
354.271	9.38
355.059	10.38
355.846	10.38
356.634	8.38
357.422	11.38
358.209	7.38
358.997	10.38
359.784	11.38
360.571	10.38
361.359	9.38
362.146	11.38
362.933	10.38
363.72	9.38
364.507	11.38
365.294	10.38
366.081	7.38
366.867	10.38
367.654	8.38
368.44	10.38
369.227	9.38
370.013	9.38
370.8	7.38
371.586	7.38
372.372	8.38
373.158	8.38
373.944	11.38
374.73	8.38
375.516	8.38
376.302	11.38
377.088	8.38
377.873	13.38
378.659	11.38
379.445	7.38
380.23	10.38
381.015	8.38
381.801	9.38
382.586	12.38
383.371	10.38
384.156	8.38
384.941	9.38
385.726	10.38
386.511	11.38
387.296	8.38
388.08	8.38
388.865	12.38
389.649	12.38
390.434	9.38
391.218	11.38
392.003	8.38
392.787	10.38
393.571	9.38
394.355	11.38
395.139	13.38
395.923	10.38
396.707	12.38
397.491	13.38
398.274	12.38
399.058	10.38
399.842	11.38
400.625	13.38
401.408	13.38
402.192	15.38
402.975	14.38
403.758	12.38
404.541	17.38
405.324	13.38
406.107	15.38
406.89	13.38
407.673	18.38
408.456	14.38
409.238	14.38
410.021	16.38
410.803	14.38
411.586	21.38
412.368	14.38
413.151	16.38
413.933	18.38
414.715	19.38
415.497	19.38
416.279	17.38
417.061	21.38
417.843	18.38
418.624	18.38
419.406	19.38
420.188	22.38
420.969	22.38
421.751	21.38
422.532	25.38
423.313	21.38
424.095	22.38
424.876	21.38
425.657	23.38
426.438	25.38
427.219	23.38
428	26.38
428.78	24.38
429.561	25.38
430.342	28.38
431.122	27.38
431.903	30.38
432.683	31.38
433.464	34.38
434.244	41.38
435.024	38.38
435.804	40.38
436.584	41.38
437.364	44.38
438.144	51.38
438.924	49.38
439.704	54.38
440.483	59.38
441.263	60.38
442.042	62.38
442.822	71.38
443.601	75.38
444.38	77.38
445.16	87.38
445.939	92.38
446.718	101.38
447.497	114.38
448.276	118.38
449.054	136.38
449.833	153.38
450.612	161.38
451.391	182.38
452.169	199.38
452.948	218.38
453.726	238.38
454.504	267.38
455.282	299.38
456.061	333.38
456.839	373.38
457.617	411.38
458.395	460.38
459.172	514.38
459.95	567.38
460.728	646.38
461.506	705.38
462.283	784.38
463.061	892.38
463.838	985.38
464.615	1096.38
465.393	1228.38
466.17	1343.38
466.947	1499.38
467.724	1686.38
468.501	1852.38
469.278	2055.38
470.055	2261.38
470.831	2494.38
471.608	2768.38
472.385	3066.38
473.161	3371.38
473.938	3682.38
474.714	4042.38
475.49	4445.38
476.266	4878.38
477.043	5320.38
477.819	5820.38
478.595	6330.38
479.371	6940.38
480.146	7526.38
480.922	8240.38
481.698	8961.38
482.473	9748.38
483.249	10632.38
484.024	11541.38
484.8	12515.38
485.575	13536.38
486.35	14670.38
487.126	15903.38
487.901	17176.38
488.676	18524.38
489.451	20031.38
490.225	21447.38
491	23021.38
491.775	24593.38
492.55	26315.38
493.324	28097.38
494.099	29798.38
494.873	31611.38
495.647	33334.38
496.422	35188.38
497.196	36948.38
497.97	38588.38
498.744	40029.38
499.518	41659.38
500.292	42946.38
501.066	44152.38
501.839	45031.38
502.613	45829.38
503.387	46388.38
504.16	46830.38
504.934	46955.38
505.707	46924.38
506.48	46576.38
507.253	46140.38
508.027	45375.38
508.8	44542.38
509.573	43604.38
510.346	42474.38
511.118	41464.38
511.891	40204.38
512.664	38783.38
513.437	37261.38
514.209	35988.38
514.982	34530.38
515.754	33190.38
516.526	31838.38
517.298	30544.38
518.071	29357.38
518.843	28205.38
519.615	27094.38
520.387	25978.38
521.159	24921.38
521.93	23892.38
522.702	22895.38
523.474	21920.38
524.245	21075.38
525.017	20062.38
525.788	19271.38
526.56	18471.38
527.331	17671.38
528.102	16741.38
528.873	15896.38
529.644	15150.38
530.415	14450.38
531.186	13751.38
531.957	13076.38
532.728	12388.38
533.498	11719.38
534.269	11113.38
535.039	10567.38
535.81	9956.38
536.58	9421.38
537.351	8924.38
538.121	8488.38
538.891	7949.38
539.661	7523.38
540.431	7133.38
541.201	6806.38
541.971	6433.38
542.741	6087.38
543.51	5755.38
544.28	5518.38
545.05	5219.38
545.819	4979.38
546.588	4749.38
547.358	4536.38
548.127	4317.38
548.896	4089.38
549.665	3859.38
550.434	3672.38
551.203	3493.38
551.972	3303.38
552.741	3123.38
553.51	2951.38
554.278	2788.38
555.047	2648.38
555.815	2505.38
556.584	2356.38
557.352	2227.38
558.121	2103.38
558.889	1977.38
559.657	1885.38
560.425	1777.38
561.193	1680.38
561.961	1600.38
562.729	1508.38
563.496	1430.38
564.264	1353.38
565.032	1265.38
565.799	1199.38
566.567	1152.38
567.334	1086.38
568.101	1021.38
568.869	954.38
569.636	910.38
570.403	844.38
571.17	819.38
571.937	754.38
572.704	726.38
573.471	674.38
574.237	639.38
575.004	602.38
575.771	565.38
576.537	540.38
577.303	512.38
578.07	484.38
578.836	458.38
579.602	426.38
580.368	402.38
581.134	382.38
581.9	366.38
582.666	347.38
583.432	330.38
584.198	324.38
584.964	296.38
585.729	282.38
586.495	272.38
587.26	253.38
588.025	241.38
588.791	226.38
589.556	215.38
590.321	204.38
591.086	197.38
591.851	189.38
592.616	178.38
593.381	164.38
594.146	160.38
594.911	154.38
595.675	148.38
596.44	142.38
597.204	136.38
597.969	128.38
598.733	124.38
599.497	114.38
600.261	112.38
601.025	106.38
601.79	100.38
602.553	99.38
603.317	98.38
604.081	93.38
604.845	85.38
605.609	83.38
606.372	81.38
607.136	77.38
607.899	67.38
608.662	71.38
609.426	69.38
610.189	64.38
610.952	63.38
611.715	63.38
612.478	61.38
613.241	57.38
614.004	54.38
614.767	51.38
615.529	50.38
616.292	51.38
617.055	46.38
617.817	50.38
618.579	46.38
619.342	43.38
620.104	43.38
620.866	41.38
621.628	37.38
622.39	36.38
623.152	38.38
623.914	36.38
624.676	35.38
625.438	35.38
626.199	31.38
626.961	29.38
627.722	30.38
628.484	29.38
629.245	26.38
630.006	31.38
630.768	26.38
631.529	26.38
632.29	22.38
633.051	25.38
633.812	26.38
634.573	26.38
635.333	23.38
636.094	22.38
636.855	21.38
637.615	23.38
638.376	20.38
639.136	20.38
639.896	18.38
640.657	16.38
641.417	17.38
642.177	19.38
642.937	17.38
643.697	18.38
644.457	17.38
645.216	18.38
645.976	13.38
646.736	14.38
647.495	14.38
648.255	14.38
649.014	14.38
649.774	16.38
650.533	12.38
651.292	11.38
652.051	13.38
652.81	13.38
653.569	11.38
654.328	13.38
655.087	11.38
655.846	12.38
656.604	13.38
657.363	14.38
658.121	11.38
658.88	10.38
659.638	11.38
660.397	11.38
661.155	10.38
661.913	13.38
662.671	13.38
663.429	10.38
664.187	11.38
664.945	9.38
665.703	7.38
666.46	9.38
667.218	10.38
667.976	11.38
668.733	10.38
669.49	10.38
670.248	10.38
671.005	10.38
671.762	8.38
672.519	10.38
673.276	7.38
674.033	7.38
674.79	9.38
675.547	7.38
676.304	7.38
677.06	7.38
677.817	7.38
678.574	8.38
679.33	9.38
680.086	7.38
680.843	6.38
681.599	7.38
682.355	5.38
683.111	8.38
683.867	7.38
684.623	7.38
685.379	8.38
686.135	7.38
686.89	6.38
687.646	7.38
688.402	8.38
689.157	6.38
689.912	7.38
690.668	6.38
691.423	5.38
692.178	6.38
692.933	9.38
693.688	9.38
694.443	8.38
695.198	7.38
695.953	6.38
696.708	8.38
697.462	7.38
698.217	5.38
698.972	7.38
699.726	8.38
700.48	6.38
701.235	8.38
701.989	7.38
702.743	6.38
703.497	6.38
704.251	6.38
705.005	4.38
705.759	7.38
706.513	7.38
707.266	7.38
708.02	7.38
708.774	7.38
709.527	5.38
710.28	7.38
711.034	5.38
711.787	6.38
712.54	6.38
713.293	8.38
714.046	9.38
714.799	8.38
715.552	9.38
716.305	6.38
717.058	7.38
717.81	7.38
718.563	7.38
719.315	9.38
720.068	8.38
720.82	7.38
721.573	3.38
722.325	8.38
723.077	4.38
723.829	8.38
724.581	7.38
725.333	7.38
726.085	6.38
726.836	8.38
727.588	8.38
728.34	8.38
729.091	6.38
729.843	8.38
730.594	8.38
731.346	5.38
732.097	7.38
732.848	9.38
733.599	9.38
734.35	8.38
735.101	8.38
735.852	8.38
736.603	10.38
737.354	11.38
738.104	10.38
738.855	8.38
739.605	9.38
740.356	10.38
741.106	5.38
741.856	8.38
742.607	10.38
743.357	7.38
744.107	10.38
744.857	11.38
745.607	6.38
746.357	10.38
747.106	10.38
747.856	12.38
748.606	9.38
749.355	9.38
750.105	9.38
750.854	9.38
751.603	9.38
752.353	8.38
753.102	12.38
753.851	10.38
754.6	11.38
755.349	10.38
756.098	9.38
756.847	12.38
757.595	11.38
758.344	12.38
759.093	12.38
759.841	9.38
760.589	13.38
761.338	10.38
762.086	12.38
762.834	12.38
763.582	12.38
764.331	15.38
765.079	12.38
765.826	11.38
766.574	14.38
767.322	13.38
768.07	15.38
768.817	13.38
769.565	12.38
770.312	15.38
771.06	12.38
771.807	13.38
772.554	13.38
773.302	15.38
774.049	12.38
774.796	15.38
775.543	17.38
776.29	14.38
777.036	14.38
777.783	15.38
778.53	14.38
779.276	16.38
780.023	16.38
780.769	16.38
781.516	14.38
782.262	16.38
783.008	14.38
783.754	17.38
784.5	15.38
785.246	17.38
785.992	15.38
786.738	14.38
787.484	14.38
788.23	14.38
788.975	17.38
789.721	16.38
790.466	13.38
791.212	14.38
791.957	11.38
792.702	14.38
793.447	13.38
794.193	12.38
794.938	13.38
795.683	14.38
796.427	11.38
797.172	12.38
797.917	15.38
798.662	12.38
799.406	9.38
800.151	10.38
800.895	10.38
801.64	14.38
802.384	10.38
803.128	12.38
803.872	10.38
804.616	10.38
805.36	11.38
806.104	12.38
806.848	11.38
807.592	10.38
808.336	13.38
809.079	9.38
809.823	8.38
810.566	9.38
811.31	8.38
812.053	7.38
812.796	8.38
813.539	11.38
814.283	7.38
815.026	6.38
815.769	6.38
816.511	9.38
817.254	8.38
817.997	7.38
818.74	6.38
819.482	7.38
820.225	6.38
820.967	8.38
821.71	7.38
822.452	10.38
823.194	9.38
823.936	4.38
824.678	5.38
825.42	8.38
826.162	7.38
826.904	4.38
827.646	5.38
828.388	6.38
829.129	3.38
829.871	5.38
830.612	4.38
831.354	6.38
832.095	4.38
832.836	5.38
833.577	6.38
834.319	2.38
835.06	6.38
835.801	5.38
836.542	4.38
837.282	4.38
838.023	4.38
838.764	5.38
839.504	5.38
840.245	3.38
840.985	6.38
841.726	4.38
842.466	3.38
843.206	4.38
843.946	5.38
844.687	4.38
845.427	4.38
846.166	3.38
846.906	3.38
847.646	3.38
848.386	4.38
849.125	4.38
849.865	2.38
850.605	3.38
851.344	5.38
852.083	4.38
852.823	5.38
853.562	5.38
854.301	4.38
855.04	3.38
855.779	4.38
856.518	4.38
857.257	3.38
857.995	3.38
858.734	3.38
859.473	3.38
860.211	2.38
860.95	4.38
861.688	3.38
862.426	3.38
863.165	2.38
863.903	1.38
864.641	4.38
865.379	2.38
866.117	2.38
866.855	1.38
867.593	2.38
868.33	1.38
869.068	1.38
869.806	1.38
870.543	1.38
871.28	2.38
872.018	0.38
872.755	3.38
873.492	2.38
874.229	2.38
874.967	0.38
875.703	3.38
876.44	2.38
877.177	-1.62
877.914	3.38
878.651	2.38
879.387	0.38
880.124	0.38
880.86	1.38
881.597	2.38
882.333	2.38
883.069	2.38
883.806	0.38
884.542	1.38
885.278	-0.62
886.014	0.38
886.749	1.38
887.485	0.38
888.221	0.38
888.957	1.38
889.692	2.38
890.428	2.38
891.163	0.38
891.899	1.38
892.634	0.38
893.369	2.38
894.104	0.38
894.839	1.38
895.574	1.38
896.309	1.38
897.044	-1.62
897.779	0.38
898.514	3.38
899.248	1.38
899.983	1.38
900.717	0.38
901.452	-1.62
902.186	1.38
902.92	2.38
903.654	1.38
904.389	-0.62
905.123	0.38
905.857	2.38
906.59	0.38
907.324	-0.62
908.058	0.38
908.792	0.38
909.525	0.38
910.259	1.38
910.992	2.38
911.726	-0.62
912.459	1.38
913.192	1.38
913.925	0.38
914.658	0.38
915.391	-0.62
916.124	0.38
916.857	-1.62
917.59	0.38
918.323	-0.62
919.055	1.38
919.788	0.38
920.521	-0.62
921.253	-1.62
921.985	0.38
922.718	0.38
923.45	0.38
924.182	0.38
924.914	0.38
925.646	1.38
926.378	2.38
927.11	-0.62
927.841	0.38
928.573	0.38
929.305	-0.62
930.036	0.38
930.768	-0.62
931.499	-0.62
932.23	0.38
932.962	-3.62
933.693	0.38
934.424	-1.62
935.155	2.38
935.886	-1.62
936.617	-1.62
937.348	2.38
938.078	-1.62
938.809	0.38
939.54	-0.62
940.27	-0.62
941.001	1.38
941.731	1.38
942.461	-1.62
943.191	-1.62
943.922	-0.62
944.652	-0.62
945.382	-0.62
946.112	1.38
946.841	-1.62
947.571	1.38
948.301	0.38
949.031	-0.62
949.76	-1.62
950.49	1.38
951.219	0.38
951.948	-2.62
952.678	1.38
953.407	0.38
954.136	-1.62
954.865	-1.62
955.594	-1.62
956.323	-0.62
957.052	-0.62
957.78	0.38
958.509	1.38
959.238	1.38
959.966	-0.62
960.695	-2.62
961.423	-1.62
962.151	0.38
962.88	0.38
963.608	1.38
964.336	0.38
965.064	0.38
965.792	-0.62
966.52	-0.62
967.247	1.38
967.975	-0.62
968.703	0.38
969.43	-1.62
970.158	-0.62
970.885	-2.62
971.613	-1.62
972.34	-0.62
973.067	-1.62
973.794	-2.62
974.521	-0.62
975.248	0.38
975.975	-0.62
976.702	-1.62
977.429	0.38
978.156	0.38
978.882	-0.62
979.609	1.38
980.335	2.38
981.062	0.38
981.788	0.38
982.514	-0.62
983.24	0.38
983.967	0.38
984.693	0.38
985.419	-0.62
986.144	0.38
986.87	-1.62
987.596	0.38
988.322	-0.62
989.047	-1.62
989.773	-0.62
990.498	-1.62
991.224	0.38
991.949	-1.62
992.674	1.38
993.399	-1.62
994.124	-0.62
994.849	-0.62
995.574	1.38
996.299	-0.62
997.024	-1.62
997.749	1.38
998.473	-1.62
999.198	-0.62
999.922	0.38
1000.647	1.38
1001.371	2.38
1002.095	0.38
1002.82	-0.62
1003.544	-1.62
1004.268	3.38
1004.992	5.38
1005.716	2.38
1006.439	4.38
1007.163	5.38
1007.887	3.38
1008.611	2.38
1009.334	1.38
1010.058	1.38
1010.781	0.38
1011.504	-1.62
1012.228	-0.62
1012.951	0.38
1013.674	1.38
1014.397	-0.62
1015.12	-1.62
