节点500_705_QEPB04081__102__20-47-35-181.txt的数据

Date: Wed Nov 12 20:47:35 CST 2025
User: PC
Spectrometer: QEPB0408
触发模式: 0
积分时间 (秒): 1.000000E-2
Scans to average: 1
启用暗噪声校正: true
启用非线性校正: false
滑动平均宽度: 0
X轴模式: Wavelengths
Number of Pixels in Spectrum: 1044
>>>>>Begin Spectral Data<<<<<
220.843	4.5
221.644	5.5
222.444	5.5
223.244	5.5
224.045	5.5
224.845	8.5
225.645	5.5
226.445	9.5
227.245	6.5
228.045	6.5
228.845	7.5
229.645	7.5
230.444	7.5
231.244	5.5
232.043	8.5
232.843	8.5
233.642	8.5
234.442	9.5
235.241	8.5
236.04	10.5
236.839	10.5
237.638	8.5
238.437	11.5
239.236	12.5
240.035	10.5
240.833	8.5
241.632	13.5
242.43	11.5
243.229	14.5
244.027	12.5
244.826	14.5
245.624	13.5
246.422	13.5
247.22	13.5
248.018	16.5
248.816	16.5
249.614	15.5
250.412	18.5
251.21	15.5
252.007	16.5
252.805	16.5
253.602	18.5
254.4	19.5
255.197	19.5
255.994	20.5
256.791	21.5
257.589	22.5
258.386	20.5
259.183	21.5
259.979	20.5
260.776	24.5
261.573	26.5
262.37	25.5
263.166	25.5
263.963	23.5
264.759	24.5
265.556	28.5
266.352	32.5
267.148	28.5
267.944	28.5
268.74	33.5
269.536	32.5
270.332	32.5
271.128	34.5
271.924	36.5
272.719	31.5
273.515	35.5
274.311	32.5
275.106	31.5
275.901	35.5
276.697	37.5
277.492	39.5
278.287	38.5
279.082	34.5
279.877	35.5
280.672	32.5
281.467	38.5
282.262	36.5
283.056	35.5
283.851	35.5
284.646	38.5
285.44	37.5
286.234	38.5
287.029	35.5
287.823	31.5
288.617	33.5
289.411	35.5
290.205	29.5
290.999	29.5
291.793	31.5
292.587	33.5
293.381	30.5
294.174	28.5
294.968	30.5
295.761	27.5
296.555	26.5
297.348	29.5
298.141	27.5
298.935	31.5
299.728	25.5
300.521	26.5
301.314	23.5
302.107	25.5
302.899	23.5
303.692	21.5
304.485	21.5
305.277	20.5
306.07	24.5
306.862	20.5
307.655	19.5
308.447	22.5
309.239	17.5
310.031	17.5
310.823	20.5
311.615	16.5
312.407	19.5
313.199	16.5
313.991	16.5
314.783	16.5
315.574	14.5
316.366	14.5
317.157	15.5
317.949	16.5
318.74	11.5
319.531	14.5
320.322	15.5
321.113	14.5
321.904	14.5
322.695	14.5
323.486	14.5
324.277	10.5
325.068	11.5
325.858	12.5
326.649	14.5
327.439	11.5
328.23	13.5
329.02	14.5
329.81	12.5
330.6	12.5
331.391	10.5
332.181	9.5
332.971	12.5
333.76	9.5
334.55	12.5
335.34	11.5
336.13	12.5
336.919	11.5
337.709	11.5
338.498	14.5
339.287	12.5
340.077	10.5
340.866	9.5
341.655	11.5
342.444	10.5
343.233	11.5
344.022	10.5
344.811	7.5
345.6	11.5
346.388	10.5
347.177	9.5
347.965	11.5
348.754	13.5
349.542	12.5
350.33	9.5
351.119	12.5
351.907	10.5
352.695	9.5
353.483	10.5
354.271	8.5
355.059	10.5
355.846	11.5
356.634	9.5
357.422	11.5
358.209	7.5
358.997	9.5
359.784	9.5
360.571	13.5
361.359	12.5
362.146	6.5
362.933	10.5
363.72	8.5
364.507	9.5
365.294	7.5
366.081	8.5
366.867	10.5
367.654	7.5
368.44	9.5
369.227	6.5
370.013	10.5
370.8	9.5
371.586	9.5
372.372	9.5
373.158	9.5
373.944	8.5
374.73	11.5
375.516	10.5
376.302	9.5
377.088	10.5
377.873	11.5
378.659	9.5
379.445	9.5
380.23	10.5
381.015	10.5
381.801	6.5
382.586	8.5
383.371	11.5
384.156	10.5
384.941	9.5
385.726	11.5
386.511	10.5
387.296	11.5
388.08	9.5
388.865	10.5
389.649	12.5
390.434	10.5
391.218	11.5
392.003	8.5
392.787	11.5
393.571	10.5
394.355	12.5
395.139	11.5
395.923	13.5
396.707	12.5
397.491	10.5
398.274	13.5
399.058	12.5
399.842	13.5
400.625	11.5
401.408	12.5
402.192	14.5
402.975	11.5
403.758	14.5
404.541	13.5
405.324	12.5
406.107	14.5
406.89	13.5
407.673	16.5
408.456	13.5
409.238	16.5
410.021	18.5
410.803	16.5
411.586	18.5
412.368	17.5
413.151	18.5
413.933	17.5
414.715	18.5
415.497	19.5
416.279	18.5
417.061	20.5
417.843	20.5
418.624	19.5
419.406	18.5
420.188	21.5
420.969	22.5
421.751	20.5
422.532	23.5
423.313	24.5
424.095	25.5
424.876	23.5
425.657	25.5
426.438	24.5
427.219	25.5
428	27.5
428.78	28.5
429.561	30.5
430.342	33.5
431.122	33.5
431.903	32.5
432.683	33.5
433.464	37.5
434.244	37.5
435.024	34.5
435.804	38.5
436.584	41.5
437.364	45.5
438.144	47.5
438.924	51.5
439.704	53.5
440.483	55.5
441.263	59.5
442.042	62.5
442.822	65.5
443.601	69.5
444.38	78.5
445.16	87.5
445.939	90.5
446.718	98.5
447.497	107.5
448.276	117.5
449.054	126.5
449.833	140.5
450.612	153.5
451.391	165.5
452.169	182.5
452.948	202.5
453.726	225.5
454.504	244.5
455.282	281.5
456.061	309.5
456.839	347.5
457.617	381.5
458.395	430.5
459.172	483.5
459.95	545.5
460.728	597.5
461.506	665.5
462.283	751.5
463.061	839.5
463.838	944.5
464.615	1040.5
465.393	1162.5
466.17	1302.5
466.947	1466.5
467.724	1625.5
468.501	1791.5
469.278	1995.5
470.055	2224.5
470.831	2443.5
471.608	2741.5
472.385	3036.5
473.161	3349.5
473.938	3684.5
474.714	4077.5
475.49	4477.5
476.266	4965.5
477.043	5429.5
477.819	5991.5
478.595	6589.5
479.371	7169.5
480.146	7892.5
480.922	8634.5
481.698	9491.5
482.473	10348.5
483.249	11298.5
484.024	12296.5
484.8	13418.5
485.575	14651.5
486.35	15910.5
487.126	17292.5
487.901	18711.5
488.676	20253.5
489.451	21948.5
490.225	23617.5
491	25418.5
491.775	27197.5
492.55	29103.5
493.324	30972.5
494.099	32923.5
494.873	34918.5
495.647	36908.5
496.422	38746.5
497.196	40643.5
497.97	42356.5
498.744	43953.5
499.518	45463.5
500.292	46790.5
501.066	47720.5
501.839	48504.5
502.613	49083.5
503.387	49501.5
504.16	49806.5
504.934	49642.5
505.707	49217.5
506.48	48610.5
507.253	47870.5
508.027	46959.5
508.8	45700.5
509.573	44410.5
510.346	43075.5
511.118	41817.5
511.891	40415.5
512.664	38724.5
513.437	37165.5
514.209	35606.5
514.982	34174.5
515.754	32731.5
516.526	31308.5
517.298	30105.5
518.071	28820.5
518.843	27693.5
519.615	26582.5
520.387	25535.5
521.159	24431.5
521.93	23383.5
522.702	22384.5
523.474	21447.5
524.245	20570.5
525.017	19610.5
525.788	18752.5
526.56	17951.5
527.331	17085.5
528.102	16186.5
528.873	15361.5
529.644	14636.5
530.415	13889.5
531.186	13216.5
531.957	12493.5
532.728	11857.5
533.498	11178.5
534.269	10612.5
535.039	10010.5
535.81	9499.5
536.58	8901.5
537.351	8453.5
538.121	8033.5
538.891	7593.5
539.661	7158.5
540.431	6762.5
541.201	6455.5
541.971	6097.5
542.741	5746.5
543.51	5516.5
544.28	5237.5
545.05	4936.5
545.819	4754.5
546.588	4529.5
547.358	4293.5
548.127	4088.5
548.896	3889.5
549.665	3664.5
550.434	3459.5
551.203	3290.5
551.972	3143.5
552.741	2958.5
553.51	2769.5
554.278	2607.5
555.047	2470.5
555.815	2336.5
556.584	2205.5
557.352	2089.5
558.121	1967.5
558.889	1848.5
559.657	1764.5
560.425	1670.5
561.193	1575.5
561.961	1489.5
562.729	1400.5
563.496	1326.5
564.264	1270.5
565.032	1191.5
565.799	1132.5
566.567	1067.5
567.334	1008.5
568.101	951.5
568.869	901.5
569.636	849.5
570.403	793.5
571.17	765.5
571.937	717.5
572.704	675.5
573.471	640.5
574.237	598.5
575.004	566.5
575.771	531.5
576.537	505.5
577.303	466.5
578.07	451.5
578.836	411.5
579.602	397.5
580.368	374.5
581.134	358.5
581.9	338.5
582.666	328.5
583.432	307.5
584.198	299.5
584.964	277.5
585.729	265.5
586.495	249.5
587.26	247.5
588.025	223.5
588.791	214.5
589.556	204.5
590.321	192.5
591.086	183.5
591.851	176.5
592.616	166.5
593.381	162.5
594.146	153.5
594.911	140.5
595.675	138.5
596.44	130.5
597.204	125.5
597.969	121.5
598.733	117.5
599.497	107.5
600.261	103.5
601.025	103.5
601.79	99.5
602.553	90.5
603.317	90.5
604.081	87.5
604.845	85.5
605.609	81.5
606.372	75.5
607.136	74.5
607.899	72.5
608.662	63.5
609.426	65.5
610.189	64.5
610.952	62.5
611.715	59.5
612.478	54.5
613.241	52.5
614.004	50.5
614.767	50.5
615.529	50.5
616.292	46.5
617.055	42.5
617.817	44.5
618.579	44.5
619.342	42.5
620.104	39.5
620.866	39.5
621.628	35.5
622.39	40.5
623.152	36.5
623.914	32.5
624.676	34.5
625.438	33.5
626.199	31.5
626.961	31.5
627.722	30.5
628.484	29.5
629.245	26.5
630.006	26.5
630.768	28.5
631.529	25.5
632.29	24.5
633.051	22.5
633.812	23.5
634.573	19.5
635.333	20.5
636.094	21.5
636.855	21.5
637.615	20.5
638.376	18.5
639.136	18.5
639.896	19.5
640.657	19.5
641.417	16.5
642.177	19.5
642.937	16.5
643.697	16.5
644.457	14.5
645.216	14.5
645.976	14.5
646.736	16.5
647.495	14.5
648.255	16.5
649.014	13.5
649.774	13.5
650.533	13.5
651.292	14.5
652.051	13.5
652.81	12.5
653.569	12.5
654.328	9.5
655.087	13.5
655.846	10.5
656.604	12.5
657.363	10.5
658.121	11.5
658.88	10.5
659.638	13.5
660.397	11.5
661.155	10.5
661.913	10.5
662.671	12.5
663.429	11.5
664.187	11.5
664.945	10.5
665.703	10.5
666.46	9.5
667.218	8.5
667.976	10.5
668.733	10.5
669.49	11.5
670.248	6.5
671.005	10.5
671.762	9.5
672.519	10.5
673.276	10.5
674.033	7.5
674.79	9.5
675.547	7.5
676.304	10.5
677.06	6.5
677.817	9.5
678.574	8.5
679.33	10.5
680.086	9.5
680.843	9.5
681.599	8.5
682.355	9.5
683.111	6.5
683.867	6.5
684.623	5.5
685.379	7.5
686.135	8.5
686.89	6.5
687.646	5.5
688.402	7.5
689.157	7.5
689.912	4.5
690.668	6.5
691.423	8.5
692.178	8.5
692.933	8.5
693.688	5.5
694.443	8.5
695.198	7.5
695.953	4.5
696.708	8.5
697.462	6.5
698.217	8.5
698.972	9.5
699.726	8.5
700.48	8.5
701.235	5.5
701.989	5.5
702.743	6.5
703.497	7.5
704.251	5.5
705.005	7.5
705.759	7.5
706.513	4.5
707.266	7.5
708.02	7.5
708.774	8.5
709.527	8.5
710.28	6.5
711.034	9.5
711.787	5.5
712.54	8.5
713.293	7.5
714.046	6.5
714.799	10.5
715.552	5.5
716.305	7.5
717.058	8.5
717.81	7.5
718.563	9.5
719.315	7.5
720.068	8.5
720.82	6.5
721.573	8.5
722.325	6.5
723.077	9.5
723.829	4.5
724.581	9.5
725.333	8.5
726.085	7.5
726.836	7.5
727.588	8.5
728.34	9.5
729.091	12.5
729.843	8.5
730.594	9.5
731.346	7.5
732.097	9.5
732.848	10.5
733.599	7.5
734.35	9.5
735.101	6.5
735.852	11.5
736.603	7.5
737.354	9.5
738.104	10.5
738.855	11.5
739.605	10.5
740.356	9.5
741.106	13.5
741.856	9.5
742.607	7.5
743.357	12.5
744.107	8.5
744.857	12.5
745.607	10.5
746.357	11.5
747.106	11.5
747.856	8.5
748.606	10.5
749.355	8.5
750.105	10.5
750.854	10.5
751.603	10.5
752.353	12.5
753.102	11.5
753.851	12.5
754.6	10.5
755.349	11.5
756.098	13.5
756.847	13.5
757.595	12.5
758.344	13.5
759.093	10.5
759.841	10.5
760.589	14.5
761.338	13.5
762.086	13.5
762.834	12.5
763.582	13.5
764.331	13.5
765.079	13.5
765.826	13.5
766.574	12.5
767.322	12.5
768.07	14.5
768.817	15.5
769.565	15.5
770.312	14.5
771.06	15.5
771.807	18.5
772.554	13.5
773.302	14.5
774.049	14.5
774.796	15.5
775.543	16.5
776.29	17.5
777.036	16.5
777.783	14.5
778.53	18.5
779.276	17.5
780.023	14.5
780.769	17.5
781.516	12.5
782.262	16.5
783.008	18.5
783.754	15.5
784.5	14.5
785.246	14.5
785.992	15.5
786.738	15.5
787.484	18.5
788.23	17.5
788.975	14.5
789.721	14.5
790.466	11.5
791.212	14.5
791.957	14.5
792.702	15.5
793.447	12.5
794.193	12.5
794.938	14.5
795.683	14.5
796.427	15.5
797.172	14.5
797.917	13.5
798.662	9.5
799.406	11.5
800.151	14.5
800.895	12.5
801.64	12.5
802.384	11.5
803.128	13.5
803.872	11.5
804.616	10.5
805.36	9.5
806.104	10.5
806.848	10.5
807.592	10.5
808.336	10.5
809.079	10.5
809.823	8.5
810.566	7.5
811.31	10.5
812.053	10.5
812.796	7.5
813.539	9.5
814.283	7.5
815.026	8.5
815.769	10.5
816.511	7.5
817.254	9.5
817.997	5.5
818.74	7.5
819.482	7.5
820.225	9.5
820.967	6.5
821.71	5.5
822.452	8.5
823.194	8.5
823.936	5.5
824.678	4.5
825.42	6.5
826.162	6.5
826.904	5.5
827.646	7.5
828.388	5.5
829.129	5.5
829.871	5.5
830.612	5.5
831.354	4.5
832.095	6.5
832.836	6.5
833.577	4.5
834.319	3.5
835.06	4.5
835.801	7.5
836.542	7.5
837.282	4.5
838.023	5.5
838.764	4.5
839.504	4.5
840.245	5.5
840.985	7.5
841.726	3.5
842.466	4.5
843.206	4.5
843.946	4.5
844.687	4.5
845.427	5.5
846.166	5.5
846.906	2.5
847.646	4.5
848.386	4.5
849.125	2.5
849.865	6.5
850.605	1.5
851.344	4.5
852.083	3.5
852.823	5.5
853.562	3.5
854.301	3.5
855.04	1.5
855.779	4.5
856.518	4.5
857.257	1.5
857.995	4.5
858.734	0.5
859.473	1.5
860.211	4.5
860.95	1.5
861.688	4.5
862.426	2.5
863.165	2.5
863.903	4.5
864.641	3.5
865.379	2.5
866.117	3.5
866.855	2.5
867.593	2.5
868.33	0.5
869.068	3.5
869.806	3.5
870.543	2.5
871.28	3.5
872.018	2.5
872.755	1.5
873.492	-0.5
874.229	2.5
874.967	1.5
875.703	3.5
876.44	1.5
877.177	1.5
877.914	1.5
878.651	0.5
879.387	3.5
880.124	3.5
880.86	0.5
881.597	2.5
882.333	1.5
883.069	1.5
883.806	2.5
884.542	1.5
885.278	1.5
886.014	1.5
886.749	2.5
887.485	1.5
888.221	0.5
888.957	1.5
889.692	0.5
890.428	3.5
891.163	0.5
891.899	3.5
892.634	0.5
893.369	-0.5
894.104	2.5
894.839	-0.5
895.574	0.5
896.309	0.5
897.044	0.5
897.779	0.5
898.514	3.5
899.248	-2.5
899.983	0.5
900.717	0.5
901.452	-0.5
902.186	0.5
902.92	1.5
903.654	1.5
904.389	1.5
905.123	-0.5
905.857	-0.5
906.59	0.5
907.324	-1.5
908.058	0.5
908.792	1.5
909.525	0.5
910.259	1.5
910.992	0.5
911.726	-1.5
912.459	0.5
913.192	0.5
913.925	-0.5
914.658	0.5
915.391	1.5
916.124	-0.5
916.857	1.5
917.59	2.5
918.323	0.5
919.055	-0.5
919.788	2.5
920.521	1.5
921.253	0.5
921.985	0.5
922.718	1.5
923.45	-1.5
924.182	-1.5
924.914	0.5
925.646	-0.5
926.378	0.5
927.11	0.5
927.841	-0.5
928.573	0.5
929.305	-1.5
930.036	-0.5
930.768	-0.5
931.499	-0.5
932.23	0.5
932.962	0.5
933.693	1.5
934.424	-2.5
935.155	0.5
935.886	0.5
936.617	-0.5
937.348	-0.5
938.078	-1.5
938.809	-0.5
939.54	0.5
940.27	-1.5
941.001	-1.5
941.731	-1.5
942.461	-0.5
943.191	-1.5
943.922	1.5
944.652	-0.5
945.382	-0.5
946.112	0.5
946.841	0.5
947.571	1.5
948.301	0.5
949.031	0.5
949.76	-1.5
950.49	-1.5
951.219	-0.5
951.948	-1.5
952.678	0.5
953.407	0.5
954.136	-2.5
954.865	0.5
955.594	-1.5
956.323	0.5
957.052	-0.5
957.78	-0.5
958.509	0.5
959.238	1.5
959.966	0.5
960.695	0.5
961.423	-0.5
962.151	-0.5
962.88	-0.5
963.608	1.5
964.336	0.5
965.064	-1.5
965.792	-0.5
966.52	1.5
967.247	1.5
967.975	-1.5
968.703	-0.5
969.43	-1.5
970.158	1.5
970.885	-2.5
971.613	-1.5
972.34	0.5
973.067	0.5
973.794	-1.5
974.521	-1.5
975.248	0.5
975.975	1.5
976.702	-2.5
977.429	0.5
978.156	0.5
978.882	0.5
979.609	-0.5
980.335	0.5
981.062	2.5
981.788	-1.5
982.514	-0.5
983.24	-1.5
983.967	-0.5
984.693	-0.5
985.419	0.5
986.144	0.5
986.87	-1.5
987.596	1.5
988.322	-2.5
989.047	-0.5
989.773	-1.5
990.498	-1.5
991.224	0.5
991.949	-0.5
992.674	0.5
993.399	0.5
994.124	-0.5
994.849	-1.5
995.574	-2.5
996.299	-0.5
997.024	-0.5
997.749	0.5
998.473	1.5
999.198	0.5
999.922	0.5
1000.647	-0.5
1001.371	2.5
1002.095	-0.5
1002.82	-2.5
1003.544	-1.5
1004.268	5.5
1004.992	4.5
1005.716	3.5
1006.439	6.5
1007.163	3.5
1007.887	4.5
1008.611	0.5
1009.334	1.5
1010.058	0.5
1010.781	1.5
1011.504	-1.5
1012.228	-0.5
1012.951	1.5
1013.674	2.5
1014.397	-1.5
1015.12	-0.5
