节点500_705_QEPB04081__107__20-47-40-148.txt的数据

Date: Wed Nov 12 20:47:40 CST 2025
User: PC
Spectrometer: QEPB0408
触发模式: 0
积分时间 (秒): 1.000000E-2
Scans to average: 1
启用暗噪声校正: true
启用非线性校正: false
滑动平均宽度: 0
X轴模式: Wavelengths
Number of Pixels in Spectrum: 1044
>>>>>Begin Spectral Data<<<<<
220.843	5.25
221.644	8.25
222.444	6.25
223.244	6.25
224.045	6.25
224.845	5.25
225.645	8.25
226.445	7.25
227.245	7.25
228.045	9.25
228.845	6.25
229.645	10.25
230.444	8.25
231.244	9.25
232.043	8.25
232.843	9.25
233.642	11.25
234.442	11.25
235.241	12.25
236.04	9.25
236.839	9.25
237.638	12.25
238.437	13.25
239.236	11.25
240.035	14.25
240.833	12.25
241.632	12.25
242.43	15.25
243.229	13.25
244.027	14.25
244.826	14.25
245.624	13.25
246.422	15.25
247.22	15.25
248.018	16.25
248.816	16.25
249.614	14.25
250.412	18.25
251.21	17.25
252.007	19.25
252.805	20.25
253.602	19.25
254.4	20.25
255.197	19.25
255.994	22.25
256.791	24.25
257.589	23.25
258.386	25.25
259.183	23.25
259.979	24.25
260.776	23.25
261.573	25.25
262.37	29.25
263.166	24.25
263.963	23.25
264.759	27.25
265.556	28.25
266.352	28.25
267.148	29.25
267.944	30.25
268.74	30.25
269.536	34.25
270.332	31.25
271.128	33.25
271.924	34.25
272.719	34.25
273.515	35.25
274.311	36.25
275.106	35.25
275.901	34.25
276.697	39.25
277.492	32.25
278.287	35.25
279.082	38.25
279.877	35.25
280.672	34.25
281.467	38.25
282.262	38.25
283.056	41.25
283.851	38.25
284.646	35.25
285.44	36.25
286.234	38.25
287.029	36.25
287.823	34.25
288.617	39.25
289.411	33.25
290.205	32.25
290.999	34.25
291.793	32.25
292.587	31.25
293.381	31.25
294.174	30.25
294.968	29.25
295.761	28.25
296.555	29.25
297.348	29.25
298.141	26.25
298.935	28.25
299.728	27.25
300.521	24.25
301.314	25.25
302.107	23.25
302.899	20.25
303.692	22.25
304.485	20.25
305.277	21.25
306.07	25.25
306.862	23.25
307.655	23.25
308.447	21.25
309.239	22.25
310.031	19.25
310.823	18.25
311.615	18.25
312.407	17.25
313.199	18.25
313.991	17.25
314.783	19.25
315.574	18.25
316.366	16.25
317.157	15.25
317.949	16.25
318.74	16.25
319.531	13.25
320.322	14.25
321.113	17.25
321.904	14.25
322.695	14.25
323.486	12.25
324.277	14.25
325.068	11.25
325.858	13.25
326.649	15.25
327.439	12.25
328.23	11.25
329.02	11.25
329.81	13.25
330.6	13.25
331.391	14.25
332.181	14.25
332.971	12.25
333.76	14.25
334.55	11.25
335.34	12.25
336.13	13.25
336.919	10.25
337.709	12.25
338.498	13.25
339.287	12.25
340.077	12.25
340.866	11.25
341.655	11.25
342.444	10.25
343.233	11.25
344.022	12.25
344.811	14.25
345.6	9.25
346.388	10.25
347.177	13.25
347.965	12.25
348.754	11.25
349.542	11.25
350.33	13.25
351.119	10.25
351.907	10.25
352.695	12.25
353.483	11.25
354.271	10.25
355.059	11.25
355.846	8.25
356.634	12.25
357.422	9.25
358.209	10.25
358.997	11.25
359.784	9.25
360.571	10.25
361.359	11.25
362.146	11.25
362.933	9.25
363.72	11.25
364.507	11.25
365.294	11.25
366.081	8.25
366.867	9.25
367.654	10.25
368.44	9.25
369.227	10.25
370.013	9.25
370.8	8.25
371.586	8.25
372.372	10.25
373.158	11.25
373.944	10.25
374.73	9.25
375.516	11.25
376.302	9.25
377.088	10.25
377.873	11.25
378.659	10.25
379.445	9.25
380.23	10.25
381.015	9.25
381.801	12.25
382.586	11.25
383.371	10.25
384.156	12.25
384.941	10.25
385.726	9.25
386.511	12.25
387.296	10.25
388.08	10.25
388.865	10.25
389.649	10.25
390.434	10.25
391.218	14.25
392.003	12.25
392.787	11.25
393.571	11.25
394.355	14.25
395.139	12.25
395.923	13.25
396.707	13.25
397.491	13.25
398.274	16.25
399.058	16.25
399.842	15.25
400.625	12.25
401.408	19.25
402.192	15.25
402.975	15.25
403.758	12.25
404.541	15.25
405.324	17.25
406.107	16.25
406.89	15.25
407.673	18.25
408.456	15.25
409.238	15.25
410.021	18.25
410.803	16.25
411.586	18.25
412.368	18.25
413.151	18.25
413.933	19.25
414.715	18.25
415.497	16.25
416.279	19.25
417.061	20.25
417.843	21.25
418.624	21.25
419.406	20.25
420.188	23.25
420.969	19.25
421.751	24.25
422.532	22.25
423.313	23.25
424.095	25.25
424.876	22.25
425.657	23.25
426.438	29.25
427.219	32.25
428	28.25
428.78	31.25
429.561	31.25
430.342	32.25
431.122	35.25
431.903	33.25
432.683	33.25
433.464	34.25
434.244	39.25
435.024	40.25
435.804	41.25
436.584	42.25
437.364	43.25
438.144	47.25
438.924	50.25
439.704	51.25
440.483	59.25
441.263	56.25
442.042	64.25
442.822	71.25
443.601	73.25
444.38	75.25
445.16	82.25
445.939	89.25
446.718	96.25
447.497	106.25
448.276	116.25
449.054	126.25
449.833	141.25
450.612	153.25
451.391	168.25
452.169	185.25
452.948	199.25
453.726	223.25
454.504	251.25
455.282	278.25
456.061	314.25
456.839	348.25
457.617	391.25
458.395	437.25
459.172	485.25
459.95	547.25
460.728	597.25
461.506	668.25
462.283	749.25
463.061	845.25
463.838	945.25
464.615	1053.25
465.393	1183.25
466.17	1323.25
466.947	1454.25
467.724	1611.25
468.501	1796.25
469.278	2010.25
470.055	2222.25
470.831	2459.25
471.608	2732.25
472.385	3031.25
473.161	3358.25
473.938	3704.25
474.714	4078.25
475.49	4487.25
476.266	4978.25
477.043	5429.25
477.819	5958.25
478.595	6567.25
479.371	7198.25
480.146	7906.25
480.922	8683.25
481.698	9467.25
482.473	10360.25
483.249	11293.25
484.024	12311.25
484.8	13390.25
485.575	14577.25
486.35	15908.25
487.126	17260.25
487.901	18686.25
488.676	20251.25
489.451	21971.25
490.225	23606.25
491	25337.25
491.775	27204.25
492.55	29029.25
493.324	31022.25
494.099	32865.25
494.873	34850.25
495.647	36811.25
496.422	38752.25
497.196	40713.25
497.97	42320.25
498.744	43800.25
499.518	45534.25
500.292	46761.25
501.066	47718.25
501.839	48490.25
502.613	49026.25
503.387	49543.25
504.16	49752.25
504.934	49670.25
505.707	49281.25
506.48	48594.25
507.253	47887.25
508.027	46946.25
508.8	45684.25
509.573	44494.25
510.346	43108.25
511.118	41826.25
511.891	40434.25
512.664	38745.25
513.437	37157.25
514.209	35701.25
514.982	34238.25
515.754	32732.25
516.526	31359.25
517.298	30169.25
518.071	28926.25
518.843	27803.25
519.615	26585.25
520.387	25499.25
521.159	24494.25
521.93	23519.25
522.702	22469.25
523.474	21423.25
524.245	20551.25
525.017	19640.25
525.788	18790.25
526.56	17942.25
527.331	17128.25
528.102	16260.25
528.873	15358.25
529.644	14654.25
530.415	13883.25
531.186	13203.25
531.957	12512.25
532.728	11861.25
533.498	11209.25
534.269	10582.25
535.039	10025.25
535.81	9466.25
536.58	8950.25
537.351	8457.25
538.121	8053.25
538.891	7584.25
539.661	7173.25
540.431	6796.25
541.201	6449.25
541.971	6124.25
542.741	5744.25
543.51	5495.25
544.28	5242.25
545.05	4989.25
545.819	4747.25
546.588	4505.25
547.358	4319.25
548.127	4086.25
548.896	3880.25
549.665	3644.25
550.434	3481.25
551.203	3277.25
551.972	3140.25
552.741	2962.25
553.51	2796.25
554.278	2628.25
555.047	2463.25
555.815	2341.25
556.584	2220.25
557.352	2082.25
558.121	1979.25
558.889	1864.25
559.657	1757.25
560.425	1667.25
561.193	1563.25
561.961	1493.25
562.729	1403.25
563.496	1316.25
564.264	1265.25
565.032	1189.25
565.799	1122.25
566.567	1074.25
567.334	1001.25
568.101	951.25
568.869	899.25
569.636	845.25
570.403	809.25
571.17	757.25
571.937	713.25
572.704	675.25
573.471	639.25
574.237	607.25
575.004	562.25
575.771	536.25
576.537	511.25
577.303	478.25
578.07	446.25
578.836	425.25
579.602	400.25
580.368	373.25
581.134	365.25
581.9	346.25
582.666	331.25
583.432	310.25
584.198	289.25
584.964	281.25
585.729	266.25
586.495	249.25
587.26	240.25
588.025	225.25
588.791	213.25
589.556	202.25
590.321	194.25
591.086	183.25
591.851	176.25
592.616	168.25
593.381	160.25
594.146	152.25
594.911	149.25
595.675	143.25
596.44	139.25
597.204	127.25
597.969	119.25
598.733	117.25
599.497	111.25
600.261	105.25
601.025	105.25
601.79	100.25
602.553	91.25
603.317	95.25
604.081	88.25
604.845	84.25
605.609	81.25
606.372	76.25
607.136	76.25
607.899	70.25
608.662	67.25
609.426	64.25
610.189	64.25
610.952	60.25
611.715	58.25
612.478	57.25
613.241	56.25
614.004	52.25
614.767	53.25
615.529	52.25
616.292	52.25
617.055	47.25
617.817	43.25
618.579	42.25
619.342	39.25
620.104	39.25
620.866	40.25
621.628	36.25
622.39	37.25
623.152	38.25
623.914	34.25
624.676	33.25
625.438	32.25
626.199	30.25
626.961	33.25
627.722	28.25
628.484	30.25
629.245	29.25
630.006	27.25
630.768	27.25
631.529	25.25
632.29	26.25
633.051	27.25
633.812	26.25
634.573	24.25
635.333	25.25
636.094	21.25
636.855	23.25
637.615	19.25
638.376	23.25
639.136	20.25
639.896	22.25
640.657	17.25
641.417	18.25
642.177	18.25
642.937	18.25
643.697	17.25
644.457	16.25
645.216	19.25
645.976	17.25
646.736	17.25
647.495	18.25
648.255	15.25
649.014	14.25
649.774	14.25
650.533	14.25
651.292	13.25
652.051	13.25
652.81	16.25
653.569	14.25
654.328	13.25
655.087	12.25
655.846	13.25
656.604	13.25
657.363	11.25
658.121	10.25
658.88	12.25
659.638	13.25
660.397	10.25
661.155	10.25
661.913	12.25
662.671	12.25
663.429	12.25
664.187	9.25
664.945	10.25
665.703	11.25
666.46	10.25
667.218	10.25
667.976	9.25
668.733	8.25
669.49	10.25
670.248	11.25
671.005	10.25
671.762	9.25
672.519	11.25
673.276	9.25
674.033	9.25
674.79	8.25
675.547	8.25
676.304	8.25
677.06	9.25
677.817	10.25
678.574	9.25
679.33	7.25
680.086	8.25
680.843	8.25
681.599	9.25
682.355	8.25
683.111	9.25
683.867	6.25
684.623	10.25
685.379	9.25
686.135	9.25
686.89	11.25
687.646	8.25
688.402	8.25
689.157	9.25
689.912	10.25
690.668	8.25
691.423	8.25
692.178	9.25
692.933	8.25
693.688	10.25
694.443	8.25
695.198	7.25
695.953	7.25
696.708	9.25
697.462	7.25
698.217	9.25
698.972	7.25
699.726	7.25
700.48	7.25
701.235	8.25
701.989	9.25
702.743	8.25
703.497	7.25
704.251	6.25
705.005	6.25
705.759	7.25
706.513	9.25
707.266	9.25
708.02	7.25
708.774	9.25
709.527	6.25
710.28	9.25
711.034	5.25
711.787	8.25
712.54	9.25
713.293	5.25
714.046	9.25
714.799	8.25
715.552	7.25
716.305	8.25
717.058	9.25
717.81	10.25
718.563	10.25
719.315	7.25
720.068	9.25
720.82	10.25
721.573	8.25
722.325	8.25
723.077	10.25
723.829	8.25
724.581	10.25
725.333	10.25
726.085	8.25
726.836	9.25
727.588	8.25
728.34	10.25
729.091	8.25
729.843	11.25
730.594	10.25
731.346	9.25
732.097	12.25
732.848	10.25
733.599	10.25
734.35	10.25
735.101	8.25
735.852	7.25
736.603	10.25
737.354	11.25
738.104	9.25
738.855	9.25
739.605	11.25
740.356	8.25
741.106	12.25
741.856	9.25
742.607	11.25
743.357	11.25
744.107	10.25
744.857	10.25
745.607	10.25
746.357	12.25
747.106	11.25
747.856	13.25
748.606	11.25
749.355	12.25
750.105	11.25
750.854	11.25
751.603	13.25
752.353	11.25
753.102	11.25
753.851	11.25
754.6	11.25
755.349	10.25
756.098	9.25
756.847	13.25
757.595	13.25
758.344	13.25
759.093	13.25
759.841	11.25
760.589	15.25
761.338	12.25
762.086	16.25
762.834	12.25
763.582	15.25
764.331	13.25
765.079	12.25
765.826	14.25
766.574	15.25
767.322	15.25
768.07	14.25
768.817	13.25
769.565	16.25
770.312	15.25
771.06	16.25
771.807	13.25
772.554	16.25
773.302	14.25
774.049	14.25
774.796	16.25
775.543	16.25
776.29	19.25
777.036	18.25
777.783	17.25
778.53	18.25
779.276	16.25
780.023	16.25
780.769	15.25
781.516	17.25
782.262	15.25
783.008	17.25
783.754	17.25
784.5	15.25
785.246	17.25
785.992	18.25
786.738	15.25
787.484	18.25
788.23	15.25
788.975	17.25
789.721	17.25
790.466	17.25
791.212	17.25
791.957	14.25
792.702	15.25
793.447	17.25
794.193	13.25
794.938	15.25
795.683	14.25
796.427	14.25
797.172	11.25
797.917	13.25
798.662	13.25
799.406	12.25
800.151	13.25
800.895	13.25
801.64	14.25
802.384	10.25
803.128	13.25
803.872	11.25
804.616	11.25
805.36	12.25
806.104	11.25
806.848	13.25
807.592	11.25
808.336	11.25
809.079	11.25
809.823	8.25
810.566	10.25
811.31	10.25
812.053	11.25
812.796	11.25
813.539	11.25
814.283	9.25
815.026	9.25
815.769	9.25
816.511	8.25
817.254	10.25
817.997	7.25
818.74	8.25
819.482	6.25
820.225	9.25
820.967	6.25
821.71	7.25
822.452	8.25
823.194	8.25
823.936	7.25
824.678	9.25
825.42	6.25
826.162	8.25
826.904	5.25
827.646	6.25
828.388	8.25
829.129	6.25
829.871	8.25
830.612	5.25
831.354	8.25
832.095	6.25
832.836	7.25
833.577	7.25
834.319	1.25
835.06	8.25
835.801	7.25
836.542	6.25
837.282	4.25
838.023	4.25
838.764	7.25
839.504	2.25
840.245	4.25
840.985	6.25
841.726	5.25
842.466	6.25
843.206	5.25
843.946	5.25
844.687	8.25
845.427	3.25
846.166	6.25
846.906	5.25
847.646	6.25
848.386	2.25
849.125	5.25
849.865	3.25
850.605	6.25
851.344	5.25
852.083	3.25
852.823	4.25
853.562	5.25
854.301	8.25
855.04	5.25
855.779	5.25
856.518	4.25
857.257	4.25
857.995	5.25
858.734	5.25
859.473	5.25
860.211	5.25
860.95	4.25
861.688	2.25
862.426	3.25
863.165	4.25
863.903	3.25
864.641	2.25
865.379	2.25
866.117	1.25
866.855	1.25
867.593	4.25
868.33	2.25
869.068	3.25
869.806	3.25
870.543	4.25
871.28	4.25
872.018	-0.75
872.755	2.25
873.492	3.25
874.229	2.25
874.967	1.25
875.703	0.25
876.44	0.25
877.177	3.25
877.914	2.25
878.651	3.25
879.387	1.25
880.124	1.25
880.86	0.25
881.597	2.25
882.333	2.25
883.069	1.25
883.806	2.25
884.542	1.25
885.278	-0.75
886.014	2.25
886.749	2.25
887.485	4.25
888.221	3.25
888.957	0.25
889.692	0.25
890.428	1.25
891.163	3.25
891.899	1.25
892.634	2.25
893.369	1.25
894.104	1.25
894.839	1.25
895.574	-0.75
896.309	2.25
897.044	1.25
897.779	2.25
898.514	1.25
899.248	1.25
899.983	3.25
900.717	3.25
901.452	1.25
902.186	3.25
902.92	1.25
903.654	1.25
904.389	1.25
905.123	3.25
905.857	0.25
906.59	-0.75
907.324	-0.75
908.058	0.25
908.792	1.25
909.525	0.25
910.259	2.25
910.992	1.25
911.726	1.25
912.459	1.25
913.192	1.25
913.925	1.25
914.658	3.25
915.391	-0.75
916.124	0.25
916.857	0.25
917.59	3.25
918.323	2.25
919.055	1.25
919.788	1.25
920.521	0.25
921.253	2.25
921.985	0.25
922.718	1.25
923.45	3.25
924.182	0.25
924.914	-1.75
925.646	-0.75
926.378	1.25
927.11	0.25
927.841	2.25
928.573	-0.75
929.305	-0.75
930.036	1.25
930.768	0.25
931.499	1.25
932.23	-0.75
932.962	2.25
933.693	0.25
934.424	1.25
935.155	1.25
935.886	-0.75
936.617	0.25
937.348	3.25
938.078	1.25
938.809	3.25
939.54	0.25
940.27	0.25
941.001	2.25
941.731	3.25
942.461	0.25
943.191	-0.75
943.922	0.25
944.652	1.25
945.382	0.25
946.112	3.25
946.841	1.25
947.571	1.25
948.301	-0.75
949.031	0.25
949.76	-1.75
950.49	3.25
951.219	1.25
951.948	0.25
952.678	1.25
953.407	-0.75
954.136	0.25
954.865	1.25
955.594	-2.75
956.323	1.25
957.052	0.25
957.78	3.25
958.509	3.25
959.238	-0.75
959.966	1.25
960.695	1.25
961.423	2.25
962.151	-0.75
962.88	-0.75
963.608	2.25
964.336	1.25
965.064	0.25
965.792	2.25
966.52	0.25
967.247	0.25
967.975	-0.75
968.703	3.25
969.43	0.25
970.158	-0.75
970.885	2.25
971.613	1.25
972.34	1.25
973.067	0.25
973.794	2.25
974.521	0.25
975.248	1.25
975.975	-0.75
976.702	3.25
977.429	0.25
978.156	0.25
978.882	2.25
979.609	-1.75
980.335	1.25
981.062	-0.75
981.788	2.25
982.514	1.25
983.24	-0.75
983.967	-0.75
984.693	0.25
985.419	1.25
986.144	0.25
986.87	-0.75
987.596	-0.75
988.322	2.25
989.047	2.25
989.773	-0.75
990.498	1.25
991.224	0.25
991.949	0.25
992.674	3.25
993.399	1.25
994.124	-0.75
994.849	-0.75
995.574	0.25
996.299	1.25
997.024	-0.75
997.749	2.25
998.473	-0.75
999.198	0.25
999.922	2.25
1000.647	-0.75
1001.371	3.25
1002.095	-2.75
1002.82	0.25
1003.544	-1.75
1004.268	5.25
1004.992	6.25
1005.716	6.25
1006.439	7.25
1007.163	7.25
1007.887	5.25
1008.611	2.25
1009.334	-0.75
1010.058	1.25
1010.781	-0.75
1011.504	0.25
1012.228	2.25
1012.951	0.25
1013.674	1.25
1014.397	-0.75
1015.12	0.25
