节点500_705_QEPB04081__623__20-54-48-768.txt的数据

Date: Wed Nov 12 20:54:48 CST 2025
User: PC
Spectrometer: QEPB0408
触发模式: 0
积分时间 (秒): 1.000000E-2
Scans to average: 1
启用暗噪声校正: true
启用非线性校正: false
滑动平均宽度: 0
X轴模式: Wavelengths
Number of Pixels in Spectrum: 1044
>>>>>Begin Spectral Data<<<<<
220.843	4
221.644	4
222.444	6
223.244	5
224.045	6
224.845	6
225.645	5
226.445	6
227.245	7
228.045	9
228.845	10
229.645	5
230.444	6
231.244	8
232.043	9
232.843	7
233.642	9
234.442	8
235.241	6
236.04	10
236.839	8
237.638	9
238.437	12
239.236	9
240.035	9
240.833	11
241.632	10
242.43	7
243.229	11
244.027	11
244.826	13
245.624	10
246.422	11
247.22	13
248.018	11
248.816	16
249.614	12
250.412	13
251.21	14
252.007	13
252.805	17
253.602	19
254.4	14
255.197	19
255.994	18
256.791	18
257.589	18
258.386	19
259.183	17
259.979	19
260.776	21
261.573	20
262.37	19
263.166	20
263.963	21
264.759	22
265.556	22
266.352	25
267.148	23
267.944	24
268.74	23
269.536	22
270.332	25
271.128	28
271.924	26
272.719	26
273.515	26
274.311	25
275.106	30
275.901	30
276.697	30
277.492	32
278.287	30
279.082	27
279.877	34
280.672	30
281.467	30
282.262	30
283.056	31
283.851	34
284.646	30
285.44	30
286.234	30
287.029	33
287.823	31
288.617	32
289.411	28
290.205	28
290.999	30
291.793	33
292.587	30
293.381	30
294.174	28
294.968	29
295.761	25
296.555	24
297.348	27
298.141	25
298.935	25
299.728	26
300.521	25
301.314	20
302.107	23
302.899	23
303.692	20
304.485	21
305.277	22
306.07	22
306.862	19
307.655	20
308.447	20
309.239	20
310.031	19
310.823	19
311.615	18
312.407	18
313.199	18
313.991	15
314.783	16
315.574	19
316.366	14
317.157	14
317.949	17
318.74	14
319.531	11
320.322	14
321.113	14
321.904	11
322.695	15
323.486	14
324.277	11
325.068	12
325.858	12
326.649	12
327.439	13
328.23	13
329.02	11
329.81	11
330.6	15
331.391	14
332.181	12
332.971	11
333.76	8
334.55	13
335.34	13
336.13	9
336.919	9
337.709	13
338.498	11
339.287	13
340.077	10
340.866	8
341.655	12
342.444	7
343.233	10
344.022	10
344.811	8
345.6	9
346.388	8
347.177	9
347.965	10
348.754	12
349.542	10
350.33	10
351.119	11
351.907	10
352.695	11
353.483	10
354.271	8
355.059	11
355.846	8
356.634	8
357.422	10
358.209	11
358.997	13
359.784	11
360.571	9
361.359	10
362.146	11
362.933	8
363.72	6
364.507	12
365.294	9
366.081	7
366.867	8
367.654	10
368.44	7
369.227	10
370.013	7
370.8	8
371.586	9
372.372	8
373.158	8
373.944	9
374.73	11
375.516	10
376.302	10
377.088	11
377.873	10
378.659	9
379.445	9
380.23	8
381.015	11
381.801	8
382.586	8
383.371	9
384.156	8
384.941	9
385.726	7
386.511	10
387.296	7
388.08	10
388.865	11
389.649	9
390.434	10
391.218	9
392.003	11
392.787	10
393.571	10
394.355	14
395.139	8
395.923	12
396.707	11
397.491	11
398.274	9
399.058	9
399.842	13
400.625	10
401.408	12
402.192	14
402.975	13
403.758	13
404.541	12
405.324	15
406.107	13
406.89	13
407.673	12
408.456	12
409.238	15
410.021	15
410.803	17
411.586	14
412.368	18
413.151	16
413.933	13
414.715	17
415.497	15
416.279	17
417.061	17
417.843	18
418.624	20
419.406	18
420.188	17
420.969	19
421.751	18
422.532	21
423.313	23
424.095	23
424.876	23
425.657	21
426.438	24
427.219	25
428	27
428.78	23
429.561	28
430.342	30
431.122	31
431.903	32
432.683	31
433.464	34
434.244	34
435.024	40
435.804	38
436.584	40
437.364	45
438.144	47
438.924	51
439.704	55
440.483	57
441.263	66
442.042	67
442.822	71
443.601	71
444.38	84
445.16	89
445.939	97
446.718	106
447.497	118
448.276	130
449.054	140
449.833	153
450.612	170
451.391	187
452.169	209
452.948	230
453.726	258
454.504	286
455.282	319
456.061	356
456.839	396
457.617	447
458.395	482
459.172	535
459.95	606
460.728	676
461.506	752
462.283	825
463.061	921
463.838	1026
464.615	1137
465.393	1248
466.17	1403
466.947	1533
467.724	1708
468.501	1879
469.278	2069
470.055	2277
470.831	2504
471.608	2749
472.385	3012
473.161	3288
473.938	3619
474.714	3946
475.49	4310
476.266	4677
477.043	5124
477.819	5553
478.595	6018
479.371	6535
480.146	7087
480.922	7758
481.698	8379
482.473	9063
483.249	9833
484.024	10660
484.8	11487
485.575	12350
486.35	13320
487.126	14411
487.901	15479
488.676	16639
489.451	17890
490.225	19190
491	20557
491.775	21854
492.55	23348
493.324	24851
494.099	26420
494.873	27965
495.647	29488
496.422	31114
497.196	32741
497.97	34282
498.744	35686
499.518	37193
500.292	38585
501.066	39727
501.839	40688
502.613	41556
503.387	42456
504.16	42946
504.934	43372
505.707	43678
506.48	43583
507.253	43512
508.027	43135
508.8	42558
509.573	41888
510.346	41087
511.118	40408
511.891	39428
512.664	38170
513.437	36892
514.209	35703
514.982	34429
515.754	33193
516.526	31909
517.298	30706
518.071	29580
518.843	28500
519.615	27339
520.387	26226
521.159	25265
521.93	24224
522.702	23222
523.474	22263
524.245	21381
525.017	20482
525.788	19662
526.56	18896
527.331	18096
528.102	17152
528.873	16356
529.644	15644
530.415	14918
531.186	14235
531.957	13496
532.728	12898
533.498	12211
534.269	11614
535.039	11010
535.81	10402
536.58	9839
537.351	9313
538.121	8865
538.891	8399
539.661	7965
540.431	7529
541.201	7109
541.971	6771
542.741	6398
543.51	6068
544.28	5786
545.05	5493
545.819	5247
546.588	4995
547.358	4753
548.127	4523
548.896	4319
549.665	4102
550.434	3892
551.203	3727
551.972	3513
552.741	3325
553.51	3118
554.278	2959
555.047	2806
555.815	2682
556.584	2514
557.352	2378
558.121	2247
558.889	2114
559.657	2010
560.425	1908
561.193	1806
561.961	1703
562.729	1621
563.496	1520
564.264	1431
565.032	1348
565.799	1292
566.567	1223
567.334	1140
568.101	1092
568.869	1034
569.636	968
570.403	909
571.17	865
571.937	821
572.704	771
573.471	724
574.237	688
575.004	647
575.771	608
576.537	569
577.303	547
578.07	515
578.836	486
579.602	460
580.368	439
581.134	418
581.9	404
582.666	374
583.432	361
584.198	335
584.964	325
585.729	304
586.495	292
587.26	276
588.025	257
588.791	249
589.556	227
590.321	220
591.086	206
591.851	195
592.616	189
593.381	179
594.146	178
594.911	163
595.675	156
596.44	152
597.204	142
597.969	139
598.733	129
599.497	123
600.261	121
601.025	113
601.79	113
602.553	110
603.317	98
604.081	96
604.845	93
605.609	92
606.372	85
607.136	82
607.899	79
608.662	75
609.426	76
610.189	70
610.952	66
611.715	66
612.478	64
613.241	59
614.004	61
614.767	54
615.529	55
616.292	52
617.055	48
617.817	48
618.579	46
619.342	42
620.104	42
620.866	41
621.628	42
622.39	37
623.152	39
623.914	38
624.676	35
625.438	32
626.199	34
626.961	30
627.722	34
628.484	29
629.245	29
630.006	29
630.768	26
631.529	26
632.29	30
633.051	23
633.812	24
634.573	27
635.333	23
636.094	26
636.855	21
637.615	19
638.376	21
639.136	19
639.896	21
640.657	17
641.417	18
642.177	21
642.937	18
643.697	17
644.457	17
645.216	17
645.976	16
646.736	14
647.495	14
648.255	14
649.014	16
649.774	14
650.533	16
651.292	14
652.051	11
652.81	13
653.569	14
654.328	12
655.087	14
655.846	9
656.604	15
657.363	11
658.121	12
658.88	10
659.638	12
660.397	11
661.155	10
661.913	8
662.671	10
663.429	10
664.187	10
664.945	9
665.703	10
666.46	10
667.218	9
667.976	10
668.733	7
669.49	9
670.248	9
671.005	6
671.762	8
672.519	11
673.276	8
674.033	8
674.79	7
675.547	9
676.304	7
677.06	8
677.817	7
678.574	6
679.33	6
680.086	6
680.843	8
681.599	8
682.355	7
683.111	7
683.867	7
684.623	6
685.379	9
686.135	9
686.89	9
687.646	7
688.402	7
689.157	10
689.912	6
690.668	6
691.423	7
692.178	8
692.933	8
693.688	7
694.443	4
695.198	9
695.953	7
696.708	6
697.462	7
698.217	8
698.972	8
699.726	7
700.48	7
701.235	8
701.989	5
702.743	8
703.497	4
704.251	7
705.005	4
705.759	6
706.513	6
707.266	9
708.02	7
708.774	5
709.527	5
710.28	6
711.034	9
711.787	9
712.54	7
713.293	4
714.046	6
714.799	7
715.552	9
716.305	7
717.058	7
717.81	7
718.563	7
719.315	8
720.068	6
720.82	9
721.573	7
722.325	8
723.077	8
723.829	6
724.581	7
725.333	7
726.085	8
726.836	6
727.588	6
728.34	9
729.091	8
729.843	8
730.594	8
731.346	6
732.097	9
732.848	7
733.599	7
734.35	9
735.101	10
735.852	10
736.603	8
737.354	8
738.104	6
738.855	10
739.605	6
740.356	7
741.106	10
741.856	10
742.607	10
743.357	8
744.107	9
744.857	9
745.607	6
746.357	8
747.106	9
747.856	10
748.606	8
749.355	9
750.105	7
750.854	8
751.603	9
752.353	11
753.102	11
753.851	11
754.6	10
755.349	11
756.098	9
756.847	12
757.595	10
758.344	8
759.093	10
759.841	11
760.589	13
761.338	11
762.086	12
762.834	10
763.582	11
764.331	10
765.079	12
765.826	12
766.574	14
767.322	13
768.07	14
768.817	12
769.565	11
770.312	10
771.06	12
771.807	12
772.554	14
773.302	12
774.049	13
774.796	14
775.543	13
776.29	14
777.036	14
777.783	13
778.53	13
779.276	12
780.023	13
780.769	13
781.516	14
782.262	10
783.008	14
783.754	14
784.5	11
785.246	13
785.992	15
786.738	12
787.484	15
788.23	14
788.975	14
789.721	13
790.466	12
791.212	12
791.957	14
792.702	13
793.447	14
794.193	10
794.938	13
795.683	12
796.427	11
797.172	13
797.917	11
798.662	12
799.406	11
800.151	10
800.895	12
801.64	10
802.384	9
803.128	10
803.872	10
804.616	11
805.36	11
806.104	10
806.848	11
807.592	8
808.336	11
809.079	8
809.823	9
810.566	11
811.31	8
812.053	9
812.796	7
813.539	8
814.283	9
815.026	6
815.769	8
816.511	6
817.254	9
817.997	5
818.74	7
819.482	7
820.225	5
820.967	8
821.71	7
822.452	7
823.194	6
823.936	6
824.678	7
825.42	7
826.162	6
826.904	6
827.646	6
828.388	8
829.129	4
829.871	6
830.612	6
831.354	8
832.095	7
832.836	8
833.577	8
834.319	6
835.06	7
835.801	3
836.542	5
837.282	6
838.023	4
838.764	3
839.504	6
840.245	5
840.985	5
841.726	8
842.466	6
843.206	5
843.946	4
844.687	5
845.427	7
846.166	5
846.906	6
847.646	2
848.386	4
849.125	6
849.865	5
850.605	4
851.344	4
852.083	0
852.823	2
853.562	3
854.301	5
855.04	4
855.779	3
856.518	2
857.257	1
857.995	4
858.734	3
859.473	2
860.211	0
860.95	2
861.688	3
862.426	2
863.165	3
863.903	2
864.641	3
865.379	1
866.117	3
866.855	3
867.593	2
868.33	2
869.068	1
869.806	2
870.543	0
871.28	0
872.018	2
872.755	0
873.492	4
874.229	1
874.967	-2
875.703	0
876.44	1
877.177	1
877.914	2
878.651	0
879.387	4
880.124	1
880.86	0
881.597	2
882.333	2
883.069	2
883.806	1
884.542	2
885.278	1
886.014	2
886.749	1
887.485	-1
888.221	0
888.957	0
889.692	-2
890.428	1
891.163	1
891.899	1
892.634	0
893.369	-1
894.104	-1
894.839	1
895.574	0
896.309	1
897.044	0
897.779	-1
898.514	0
899.248	1
899.983	0
900.717	0
901.452	2
902.186	-1
902.92	1
903.654	3
904.389	1
905.123	0
905.857	2
906.59	-1
907.324	0
908.058	0
908.792	1
909.525	-1
910.259	-1
910.992	1
911.726	-2
912.459	1
913.192	-2
913.925	0
914.658	2
915.391	0
916.124	-2
916.857	-2
917.59	-1
918.323	-3
919.055	0
919.788	2
920.521	0
921.253	-2
921.985	-2
922.718	0
923.45	-3
924.182	0
924.914	-1
925.646	-1
926.378	1
927.11	-1
927.841	3
928.573	-1
929.305	0
930.036	0
930.768	0
931.499	1
932.23	-3
932.962	0
933.693	-2
934.424	-1
935.155	2
935.886	-3
936.617	1
937.348	1
938.078	-2
938.809	-2
939.54	0
940.27	-1
941.001	1
941.731	2
942.461	-2
943.191	-1
943.922	1
944.652	0
945.382	2
946.112	-2
946.841	-3
947.571	0
948.301	0
949.031	0
949.76	-2
950.49	-1
951.219	-2
951.948	2
952.678	-2
953.407	-2
954.136	-2
954.865	-1
955.594	3
956.323	0
957.052	0
957.78	-2
958.509	2
959.238	-1
959.966	-1
960.695	2
961.423	-1
962.151	0
962.88	0
963.608	-1
964.336	-1
965.064	-3
965.792	-1
966.52	0
967.247	0
967.975	-1
968.703	1
969.43	0
970.158	-2
970.885	1
971.613	1
972.34	-2
973.067	1
973.794	-3
974.521	-1
975.248	0
975.975	-2
976.702	1
977.429	-2
978.156	-1
978.882	-1
979.609	1
980.335	-2
981.062	-1
981.788	-1
982.514	-3
983.24	1
983.967	2
984.693	2
985.419	-1
986.144	-1
986.87	-2
987.596	-1
988.322	0
989.047	-1
989.773	-1
990.498	2
991.224	-2
991.949	-1
992.674	-1
993.399	-2
994.124	1
994.849	0
995.574	-1
996.299	-2
997.024	2
997.749	1
998.473	-3
999.198	-1
999.922	0
1000.647	1
1001.371	2
1002.095	2
1002.82	-1
1003.544	-3
1004.268	3
1004.992	3
1005.716	5
1006.439	4
1007.163	5
1007.887	4
1008.611	0
1009.334	-1
1010.058	-2
1010.781	0
1011.504	-3
1012.228	-1
1012.951	0
1013.674	-1
1014.397	1
1015.12	0
