节点500_705_QEPB04081__482__20-52-44-765.txt的数据

Date: Wed Nov 12 20:52:44 CST 2025
User: PC
Spectrometer: QEPB0408
触发模式: 0
积分时间 (秒): 1.000000E-2
Scans to average: 1
启用暗噪声校正: true
启用非线性校正: false
滑动平均宽度: 0
X轴模式: Wavelengths
Number of Pixels in Spectrum: 1044
>>>>>Begin Spectral Data<<<<<
220.843	4
221.644	4
222.444	6
223.244	5
224.045	6
224.845	3
225.645	9
226.445	5
227.245	7
228.045	9
228.845	4
229.645	6
230.444	6
231.244	10
232.043	9
232.843	8
233.642	10
234.442	11
235.241	10
236.04	9
236.839	10
237.638	8
238.437	10
239.236	13
240.035	9
240.833	13
241.632	10
242.43	11
243.229	12
244.027	11
244.826	13
245.624	13
246.422	14
247.22	13
248.018	12
248.816	14
249.614	14
250.412	15
251.21	16
252.007	18
252.805	16
253.602	18
254.4	19
255.197	19
255.994	16
256.791	17
257.589	20
258.386	20
259.183	20
259.979	21
260.776	21
261.573	24
262.37	23
263.166	23
263.963	24
264.759	26
265.556	26
266.352	23
267.148	24
267.944	27
268.74	26
269.536	27
270.332	30
271.128	32
271.924	30
272.719	28
273.515	31
274.311	29
275.106	31
275.901	32
276.697	30
277.492	31
278.287	35
279.082	34
279.877	33
280.672	31
281.467	33
282.262	33
283.056	33
283.851	33
284.646	33
285.44	32
286.234	31
287.029	35
287.823	34
288.617	31
289.411	28
290.205	32
290.999	29
291.793	31
292.587	32
293.381	28
294.174	30
294.968	28
295.761	26
296.555	28
297.348	23
298.141	24
298.935	26
299.728	26
300.521	23
301.314	25
302.107	24
302.899	21
303.692	22
304.485	22
305.277	25
306.07	22
306.862	23
307.655	21
308.447	23
309.239	22
310.031	21
310.823	22
311.615	21
312.407	17
313.199	14
313.991	16
314.783	18
315.574	17
316.366	15
317.157	14
317.949	16
318.74	16
319.531	15
320.322	14
321.113	13
321.904	14
322.695	15
323.486	13
324.277	13
325.068	13
325.858	14
326.649	14
327.439	14
328.23	12
329.02	12
329.81	11
330.6	13
331.391	11
332.181	12
332.971	13
333.76	11
334.55	10
335.34	11
336.13	15
336.919	13
337.709	12
338.498	12
339.287	11
340.077	11
340.866	12
341.655	12
342.444	12
343.233	12
344.022	10
344.811	11
345.6	10
346.388	12
347.177	15
347.965	13
348.754	13
349.542	9
350.33	12
351.119	11
351.907	9
352.695	11
353.483	10
354.271	10
355.059	10
355.846	10
356.634	12
357.422	12
358.209	9
358.997	10
359.784	11
360.571	12
361.359	9
362.146	10
362.933	8
363.72	10
364.507	8
365.294	11
366.081	7
366.867	8
367.654	8
368.44	9
369.227	10
370.013	9
370.8	8
371.586	10
372.372	12
373.158	11
373.944	9
374.73	12
375.516	9
376.302	9
377.088	9
377.873	9
378.659	11
379.445	9
380.23	9
381.015	9
381.801	10
382.586	9
383.371	12
384.156	10
384.941	13
385.726	12
386.511	11
387.296	12
388.08	11
388.865	10
389.649	13
390.434	13
391.218	10
392.003	10
392.787	11
393.571	10
394.355	12
395.139	13
395.923	13
396.707	11
397.491	13
398.274	12
399.058	13
399.842	11
400.625	12
401.408	15
402.192	15
402.975	15
403.758	18
404.541	16
405.324	15
406.107	12
406.89	16
407.673	16
408.456	16
409.238	16
410.021	18
410.803	15
411.586	14
412.368	16
413.151	18
413.933	18
414.715	17
415.497	18
416.279	18
417.061	19
417.843	19
418.624	21
419.406	19
420.188	21
420.969	22
421.751	25
422.532	22
423.313	24
424.095	23
424.876	25
425.657	27
426.438	23
427.219	24
428	26
428.78	27
429.561	28
430.342	27
431.122	33
431.903	30
432.683	32
433.464	39
434.244	34
435.024	39
435.804	39
436.584	44
437.364	49
438.144	49
438.924	51
439.704	51
440.483	59
441.263	60
442.042	69
442.822	73
443.601	72
444.38	84
445.16	86
445.939	97
446.718	107
447.497	113
448.276	127
449.054	135
449.833	154
450.612	168
451.391	186
452.169	198
452.948	222
453.726	251
454.504	284
455.282	307
456.061	344
456.839	384
457.617	427
458.395	471
459.172	526
459.95	584
460.728	657
461.506	731
462.283	804
463.061	907
463.838	1002
464.615	1110
465.393	1231
466.17	1381
466.947	1512
467.724	1677
468.501	1864
469.278	2041
470.055	2258
470.831	2509
471.608	2736
472.385	3029
473.161	3312
473.938	3643
474.714	4009
475.49	4360
476.266	4745
477.043	5191
477.819	5673
478.595	6171
479.371	6703
480.146	7269
480.922	7950
481.698	8640
482.473	9385
483.249	10144
484.024	11004
484.8	11897
485.575	12863
486.35	13893
487.126	15026
487.901	16199
488.676	17435
489.451	18791
490.225	20121
491	21594
491.775	23154
492.55	24664
493.324	26273
494.099	27837
494.873	29520
495.647	31186
496.422	32855
497.196	34565
497.97	36097
498.744	37548
499.518	39179
500.292	40514
501.066	41498
501.839	42550
502.613	43401
503.387	44109
504.16	44674
504.934	44991
505.707	45122
506.48	44823
507.253	44626
508.027	44237
508.8	43443
509.573	42635
510.346	41758
511.118	40826
511.891	39811
512.664	38308
513.437	37087
514.209	35744
514.982	34380
515.754	33106
516.526	31773
517.298	30575
518.071	29440
518.843	28278
519.615	27128
520.387	26038
521.159	25074
521.93	24006
522.702	23016
523.474	22015
524.245	21176
525.017	20226
525.788	19379
526.56	18572
527.331	17815
528.102	16983
528.873	16125
529.644	15405
530.415	14692
531.186	13992
531.957	13257
532.728	12588
533.498	11995
534.269	11330
535.039	10756
535.81	10176
536.58	9654
537.351	9134
538.121	8628
538.891	8203
539.661	7748
540.431	7308
541.201	6959
541.971	6594
542.741	6245
543.51	5922
544.28	5635
545.05	5368
545.819	5115
546.588	4883
547.358	4640
548.127	4429
548.896	4187
549.665	3976
550.434	3789
551.203	3583
551.972	3408
552.741	3229
553.51	3025
554.278	2863
555.047	2723
555.815	2575
556.584	2435
557.352	2310
558.121	2184
558.889	2056
559.657	1952
560.425	1830
561.193	1740
561.961	1657
562.729	1548
563.496	1472
564.264	1394
565.032	1311
565.799	1238
566.567	1184
567.334	1113
568.101	1046
568.869	994
569.636	930
570.403	881
571.17	829
571.937	792
572.704	752
573.471	706
574.237	675
575.004	623
575.771	590
576.537	547
577.303	528
578.07	502
578.836	463
579.602	438
580.368	418
581.134	401
581.9	385
582.666	365
583.432	344
584.198	322
584.964	311
585.729	295
586.495	279
587.26	262
588.025	245
588.791	233
589.556	220
590.321	215
591.086	204
591.851	194
592.616	186
593.381	175
594.146	160
594.911	154
595.675	154
596.44	150
597.204	142
597.969	134
598.733	131
599.497	122
600.261	116
601.025	111
601.79	107
602.553	105
603.317	98
604.081	97
604.845	89
605.609	87
606.372	87
607.136	80
607.899	76
608.662	72
609.426	74
610.189	69
610.952	67
611.715	62
612.478	62
613.241	60
614.004	55
614.767	57
615.529	53
616.292	53
617.055	49
617.817	48
618.579	46
619.342	47
620.104	43
620.866	42
621.628	42
622.39	38
623.152	39
623.914	39
624.676	39
625.438	33
626.199	33
626.961	34
627.722	31
628.484	31
629.245	29
630.006	27
630.768	27
631.529	26
632.29	26
633.051	26
633.812	23
634.573	25
635.333	24
636.094	18
636.855	26
637.615	25
638.376	23
639.136	21
639.896	19
640.657	20
641.417	21
642.177	17
642.937	17
643.697	15
644.457	19
645.216	16
645.976	16
646.736	14
647.495	13
648.255	14
649.014	17
649.774	14
650.533	16
651.292	13
652.051	13
652.81	11
653.569	13
654.328	13
655.087	11
655.846	12
656.604	14
657.363	10
658.121	12
658.88	10
659.638	10
660.397	7
661.155	11
661.913	13
662.671	9
663.429	11
664.187	12
664.945	11
665.703	12
666.46	13
667.218	13
667.976	10
668.733	10
669.49	9
670.248	10
671.005	7
671.762	8
672.519	10
673.276	9
674.033	10
674.79	11
675.547	11
676.304	10
677.06	6
677.817	11
678.574	8
679.33	8
680.086	10
680.843	7
681.599	9
682.355	8
683.111	9
683.867	8
684.623	9
685.379	10
686.135	7
686.89	10
687.646	7
688.402	9
689.157	8
689.912	10
690.668	8
691.423	9
692.178	9
692.933	10
693.688	9
694.443	11
695.198	6
695.953	5
696.708	6
697.462	6
698.217	7
698.972	8
699.726	9
700.48	7
701.235	6
701.989	7
702.743	8
703.497	7
704.251	7
705.005	9
705.759	6
706.513	8
707.266	7
708.02	8
708.774	3
709.527	7
710.28	5
711.034	6
711.787	6
712.54	8
713.293	8
714.046	9
714.799	10
715.552	8
716.305	8
717.058	6
717.81	8
718.563	8
719.315	10
720.068	7
720.82	6
721.573	7
722.325	5
723.077	9
723.829	7
724.581	9
725.333	8
726.085	7
726.836	6
727.588	10
728.34	8
729.091	8
729.843	9
730.594	7
731.346	7
732.097	6
732.848	8
733.599	9
734.35	11
735.101	9
735.852	9
736.603	9
737.354	9
738.104	9
738.855	10
739.605	9
740.356	8
741.106	11
741.856	7
742.607	10
743.357	9
744.107	8
744.857	8
745.607	7
746.357	10
747.106	8
747.856	12
748.606	8
749.355	10
750.105	12
750.854	8
751.603	9
752.353	12
753.102	13
753.851	9
754.6	11
755.349	10
756.098	9
756.847	11
757.595	11
758.344	12
759.093	12
759.841	11
760.589	13
761.338	9
762.086	15
762.834	14
763.582	15
764.331	11
765.079	13
765.826	13
766.574	12
767.322	13
768.07	13
768.817	15
769.565	13
770.312	14
771.06	12
771.807	16
772.554	14
773.302	15
774.049	16
774.796	15
775.543	14
776.29	17
777.036	15
777.783	14
778.53	15
779.276	15
780.023	13
780.769	17
781.516	16
782.262	17
783.008	16
783.754	16
784.5	13
785.246	15
785.992	14
786.738	16
787.484	16
788.23	13
788.975	16
789.721	15
790.466	15
791.212	14
791.957	17
792.702	14
793.447	14
794.193	15
794.938	12
795.683	11
796.427	13
797.172	11
797.917	16
798.662	12
799.406	11
800.151	11
800.895	13
801.64	14
802.384	9
803.128	12
803.872	13
804.616	11
805.36	11
806.104	10
806.848	9
807.592	10
808.336	9
809.079	11
809.823	12
810.566	9
811.31	8
812.053	7
812.796	7
813.539	11
814.283	9
815.026	7
815.769	6
816.511	8
817.254	11
817.997	6
818.74	6
819.482	7
820.225	7
820.967	9
821.71	7
822.452	5
823.194	8
823.936	8
824.678	7
825.42	8
826.162	6
826.904	8
827.646	7
828.388	4
829.129	7
829.871	8
830.612	6
831.354	7
832.095	8
832.836	5
833.577	7
834.319	7
835.06	6
835.801	6
836.542	6
837.282	6
838.023	6
838.764	5
839.504	7
840.245	6
840.985	5
841.726	6
842.466	7
843.206	6
843.946	6
844.687	4
845.427	6
846.166	4
846.906	5
847.646	7
848.386	6
849.125	6
849.865	3
850.605	5
851.344	8
852.083	3
852.823	6
853.562	4
854.301	4
855.04	4
855.779	5
856.518	3
857.257	3
857.995	4
858.734	3
859.473	4
860.211	4
860.95	3
861.688	7
862.426	2
863.165	5
863.903	2
864.641	3
865.379	3
866.117	3
866.855	3
867.593	1
868.33	0
869.068	3
869.806	3
870.543	1
871.28	0
872.018	3
872.755	2
873.492	2
874.229	3
874.967	1
875.703	-1
876.44	1
877.177	3
877.914	1
878.651	1
879.387	2
880.124	1
880.86	1
881.597	1
882.333	1
883.069	1
883.806	2
884.542	1
885.278	2
886.014	4
886.749	3
887.485	2
888.221	2
888.957	-1
889.692	2
890.428	1
891.163	1
891.899	-1
892.634	2
893.369	1
894.104	0
894.839	1
895.574	4
896.309	3
897.044	4
897.779	-1
898.514	2
899.248	0
899.983	2
900.717	1
901.452	2
902.186	1
902.92	1
903.654	1
904.389	1
905.123	1
905.857	2
906.59	2
907.324	1
908.058	-1
908.792	3
909.525	0
910.259	-1
910.992	0
911.726	0
912.459	-1
913.192	1
913.925	3
914.658	2
915.391	0
916.124	0
916.857	-1
917.59	0
918.323	-1
919.055	2
919.788	1
920.521	2
921.253	0
921.985	-3
922.718	1
923.45	0
924.182	0
924.914	0
925.646	0
926.378	0
927.11	0
927.841	-1
928.573	1
929.305	1
930.036	2
930.768	1
931.499	-1
932.23	1
932.962	-1
933.693	-1
934.424	0
935.155	-1
935.886	0
936.617	3
937.348	0
938.078	0
938.809	-1
939.54	1
940.27	2
941.001	1
941.731	-1
942.461	2
943.191	1
943.922	0
944.652	-1
945.382	1
946.112	-2
946.841	1
947.571	0
948.301	-1
949.031	-1
949.76	0
950.49	1
951.219	-1
951.948	-1
952.678	-1
953.407	0
954.136	0
954.865	-1
955.594	0
956.323	0
957.052	2
957.78	1
958.509	-1
959.238	3
959.966	-1
960.695	-1
961.423	1
962.151	-2
962.88	2
963.608	-1
964.336	1
965.064	1
965.792	2
966.52	3
967.247	1
967.975	0
968.703	2
969.43	0
970.158	-1
970.885	2
971.613	1
972.34	-1
973.067	1
973.794	-3
974.521	1
975.248	1
975.975	-1
976.702	1
977.429	1
978.156	-1
978.882	2
979.609	2
980.335	0
981.062	0
981.788	2
982.514	1
983.24	-1
983.967	0
984.693	0
985.419	-1
986.144	1
986.87	1
987.596	0
988.322	-1
989.047	-1
989.773	2
990.498	1
991.224	-2
991.949	0
992.674	2
993.399	1
994.124	1
994.849	0
995.574	1
996.299	-1
997.024	0
997.749	-1
998.473	2
999.198	2
999.922	2
1000.647	1
1001.371	3
1002.095	-2
1002.82	-1
1003.544	-1
1004.268	4
1004.992	5
1005.716	7
1006.439	3
1007.163	6
1007.887	6
1008.611	0
1009.334	1
1010.058	0
1010.781	0
1011.504	1
1012.228	1
1012.951	2
1013.674	-1
1014.397	-1
1015.12	1
