节点500_705_QEPB04081__40__20-46-33-289.txt的数据

Date: Wed Nov 12 20:46:33 CST 2025
User: PC
Spectrometer: QEPB0408
触发模式: 0
积分时间 (秒): 1.000000E-2
Scans to average: 1
启用暗噪声校正: true
启用非线性校正: false
滑动平均宽度: 0
X轴模式: Wavelengths
Number of Pixels in Spectrum: 1044
>>>>>Begin Spectral Data<<<<<
220.843	2.88
221.644	9.88
222.444	5.88
223.244	5.88
224.045	7.88
224.845	6.88
225.645	7.88
226.445	7.88
227.245	5.88
228.045	7.88
228.845	7.88
229.645	7.88
230.444	7.88
231.244	7.88
232.043	7.88
232.843	10.88
233.642	9.88
234.442	9.88
235.241	10.88
236.04	10.88
236.839	10.88
237.638	11.88
238.437	11.88
239.236	8.88
240.035	11.88
240.833	10.88
241.632	11.88
242.43	11.88
243.229	10.88
244.027	14.88
244.826	11.88
245.624	13.88
246.422	18.88
247.22	16.88
248.018	12.88
248.816	14.88
249.614	19.88
250.412	14.88
251.21	15.88
252.007	15.88
252.805	17.88
253.602	19.88
254.4	19.88
255.197	19.88
255.994	19.88
256.791	21.88
257.589	22.88
258.386	21.88
259.183	24.88
259.979	25.88
260.776	25.88
261.573	26.88
262.37	23.88
263.166	27.88
263.963	27.88
264.759	29.88
265.556	28.88
266.352	28.88
267.148	30.88
267.944	28.88
268.74	31.88
269.536	31.88
270.332	33.88
271.128	34.88
271.924	32.88
272.719	33.88
273.515	34.88
274.311	36.88
275.106	32.88
275.901	35.88
276.697	33.88
277.492	38.88
278.287	35.88
279.082	35.88
279.877	38.88
280.672	34.88
281.467	34.88
282.262	36.88
283.056	37.88
283.851	37.88
284.646	36.88
285.44	35.88
286.234	36.88
287.029	34.88
287.823	34.88
288.617	35.88
289.411	34.88
290.205	31.88
290.999	31.88
291.793	34.88
292.587	31.88
293.381	30.88
294.174	26.88
294.968	30.88
295.761	25.88
296.555	27.88
297.348	26.88
298.141	24.88
298.935	29.88
299.728	23.88
300.521	26.88
301.314	24.88
302.107	23.88
302.899	22.88
303.692	23.88
304.485	21.88
305.277	20.88
306.07	22.88
306.862	22.88
307.655	20.88
308.447	20.88
309.239	20.88
310.031	18.88
310.823	16.88
311.615	19.88
312.407	16.88
313.199	16.88
313.991	17.88
314.783	16.88
315.574	15.88
316.366	14.88
317.157	13.88
317.949	17.88
318.74	13.88
319.531	13.88
320.322	13.88
321.113	13.88
321.904	14.88
322.695	12.88
323.486	12.88
324.277	13.88
325.068	15.88
325.858	11.88
326.649	12.88
327.439	11.88
328.23	12.88
329.02	14.88
329.81	13.88
330.6	10.88
331.391	11.88
332.181	11.88
332.971	10.88
333.76	13.88
334.55	11.88
335.34	12.88
336.13	10.88
336.919	10.88
337.709	12.88
338.498	12.88
339.287	10.88
340.077	12.88
340.866	12.88
341.655	12.88
342.444	11.88
343.233	12.88
344.022	12.88
344.811	12.88
345.6	11.88
346.388	8.88
347.177	10.88
347.965	12.88
348.754	12.88
349.542	13.88
350.33	10.88
351.119	10.88
351.907	11.88
352.695	8.88
353.483	12.88
354.271	8.88
355.059	10.88
355.846	12.88
356.634	8.88
357.422	10.88
358.209	10.88
358.997	10.88
359.784	10.88
360.571	10.88
361.359	8.88
362.146	9.88
362.933	10.88
363.72	10.88
364.507	11.88
365.294	8.88
366.081	8.88
366.867	10.88
367.654	9.88
368.44	9.88
369.227	9.88
370.013	9.88
370.8	12.88
371.586	8.88
372.372	9.88
373.158	12.88
373.944	10.88
374.73	14.88
375.516	9.88
376.302	10.88
377.088	8.88
377.873	8.88
378.659	8.88
379.445	10.88
380.23	11.88
381.015	10.88
381.801	11.88
382.586	9.88
383.371	11.88
384.156	10.88
384.941	12.88
385.726	9.88
386.511	7.88
387.296	10.88
388.08	10.88
388.865	10.88
389.649	11.88
390.434	12.88
391.218	11.88
392.003	11.88
392.787	11.88
393.571	10.88
394.355	11.88
395.139	13.88
395.923	11.88
396.707	14.88
397.491	12.88
398.274	12.88
399.058	13.88
399.842	12.88
400.625	14.88
401.408	14.88
402.192	15.88
402.975	13.88
403.758	14.88
404.541	14.88
405.324	15.88
406.107	16.88
406.89	13.88
407.673	15.88
408.456	16.88
409.238	15.88
410.021	14.88
410.803	17.88
411.586	20.88
412.368	20.88
413.151	15.88
413.933	18.88
414.715	18.88
415.497	17.88
416.279	17.88
417.061	20.88
417.843	21.88
418.624	18.88
419.406	21.88
420.188	19.88
420.969	23.88
421.751	23.88
422.532	22.88
423.313	24.88
424.095	23.88
424.876	25.88
425.657	23.88
426.438	23.88
427.219	26.88
428	27.88
428.78	26.88
429.561	25.88
430.342	32.88
431.122	31.88
431.903	31.88
432.683	33.88
433.464	35.88
434.244	39.88
435.024	38.88
435.804	43.88
436.584	43.88
437.364	39.88
438.144	44.88
438.924	47.88
439.704	56.88
440.483	56.88
441.263	61.88
442.042	62.88
442.822	67.88
443.601	75.88
444.38	73.88
445.16	79.88
445.939	92.88
446.718	97.88
447.497	99.88
448.276	112.88
449.054	127.88
449.833	134.88
450.612	149.88
451.391	159.88
452.169	176.88
452.948	199.88
453.726	220.88
454.504	250.88
455.282	266.88
456.061	306.88
456.839	333.88
457.617	374.88
458.395	425.88
459.172	462.88
459.95	527.88
460.728	590.88
461.506	654.88
462.283	740.88
463.061	822.88
463.838	934.88
464.615	1031.88
465.393	1157.88
466.17	1273.88
466.947	1440.88
467.724	1604.88
468.501	1774.88
469.278	1985.88
470.055	2201.88
470.831	2455.88
471.608	2729.88
472.385	3037.88
473.161	3341.88
473.938	3720.88
474.714	4086.88
475.49	4514.88
476.266	4972.88
477.043	5502.88
477.819	6026.88
478.595	6601.88
479.371	7291.88
480.146	7981.88
480.922	8752.88
481.698	9625.88
482.473	10584.88
483.249	11572.88
484.024	12527.88
484.8	13749.88
485.575	14942.88
486.35	16280.88
487.126	17718.88
487.901	19168.88
488.676	20795.88
489.451	22567.88
490.225	24348.88
491	26151.88
491.775	28086.88
492.55	30058.88
493.324	32027.88
494.099	34020.88
494.873	36051.88
495.647	38006.88
496.422	39993.88
497.196	41824.88
497.97	43660.88
498.744	45237.88
499.518	46799.88
500.292	48113.88
501.066	48952.88
501.839	49616.88
502.613	50182.88
503.387	50610.88
504.16	50707.88
504.934	50441.88
505.707	49997.88
506.48	49210.88
507.253	48347.88
508.027	47305.88
508.8	46004.88
509.573	44641.88
510.346	43266.88
511.118	41845.88
511.891	40413.88
512.664	38716.88
513.437	37041.88
514.209	35582.88
514.982	34107.88
515.754	32609.88
516.526	31213.88
517.298	29931.88
518.071	28685.88
518.843	27526.88
519.615	26347.88
520.387	25361.88
521.159	24328.88
521.93	23265.88
522.702	22233.88
523.474	21328.88
524.245	20429.88
525.017	19460.88
525.788	18631.88
526.56	17778.88
527.331	16959.88
528.102	16028.88
528.873	15223.88
529.644	14463.88
530.415	13730.88
531.186	13020.88
531.957	12328.88
532.728	11680.88
533.498	11040.88
534.269	10424.88
535.039	9848.88
535.81	9318.88
536.58	8762.88
537.351	8320.88
538.121	7871.88
538.891	7460.88
539.661	7053.88
540.431	6680.88
541.201	6335.88
541.971	5982.88
542.741	5672.88
543.51	5405.88
544.28	5125.88
545.05	4887.88
545.819	4662.88
546.588	4432.88
547.358	4227.88
548.127	4010.88
548.896	3822.88
549.665	3602.88
550.434	3404.88
551.203	3239.88
551.972	3051.88
552.741	2884.88
553.51	2723.88
554.278	2577.88
555.047	2422.88
555.815	2282.88
556.584	2159.88
557.352	2036.88
558.121	1930.88
558.889	1825.88
559.657	1714.88
560.425	1631.88
561.193	1547.88
561.961	1456.88
562.729	1377.88
563.496	1302.88
564.264	1218.88
565.032	1160.88
565.799	1101.88
566.567	1042.88
567.334	988.88
568.101	927.88
568.869	872.88
569.636	845.88
570.403	780.88
571.17	740.88
571.937	690.88
572.704	660.88
573.471	631.88
574.237	589.88
575.004	552.88
575.771	505.88
576.537	484.88
577.303	468.88
578.07	441.88
578.836	416.88
579.602	390.88
580.368	373.88
581.134	354.88
581.9	333.88
582.666	321.88
583.432	308.88
584.198	292.88
584.964	274.88
585.729	258.88
586.495	243.88
587.26	235.88
588.025	224.88
588.791	209.88
589.556	197.88
590.321	192.88
591.086	177.88
591.851	178.88
592.616	159.88
593.381	158.88
594.146	148.88
594.911	143.88
595.675	139.88
596.44	134.88
597.204	119.88
597.969	119.88
598.733	115.88
599.497	107.88
600.261	108.88
601.025	98.88
601.79	94.88
602.553	91.88
603.317	85.88
604.081	81.88
604.845	81.88
605.609	78.88
606.372	73.88
607.136	71.88
607.899	69.88
608.662	63.88
609.426	65.88
610.189	64.88
610.952	61.88
611.715	58.88
612.478	52.88
613.241	54.88
614.004	51.88
614.767	50.88
615.529	44.88
616.292	48.88
617.055	46.88
617.817	43.88
618.579	43.88
619.342	38.88
620.104	38.88
620.866	43.88
621.628	38.88
622.39	37.88
623.152	36.88
623.914	33.88
624.676	34.88
625.438	32.88
626.199	31.88
626.961	32.88
627.722	30.88
628.484	26.88
629.245	27.88
630.006	26.88
630.768	24.88
631.529	27.88
632.29	24.88
633.051	25.88
633.812	23.88
634.573	21.88
635.333	21.88
636.094	20.88
636.855	20.88
637.615	19.88
638.376	20.88
639.136	17.88
639.896	16.88
640.657	18.88
641.417	17.88
642.177	18.88
642.937	17.88
643.697	15.88
644.457	14.88
645.216	14.88
645.976	16.88
646.736	14.88
647.495	15.88
648.255	14.88
649.014	14.88
649.774	15.88
650.533	12.88
651.292	13.88
652.051	14.88
652.81	14.88
653.569	13.88
654.328	11.88
655.087	13.88
655.846	13.88
656.604	12.88
657.363	14.88
658.121	10.88
658.88	12.88
659.638	12.88
660.397	10.88
661.155	8.88
661.913	12.88
662.671	10.88
663.429	9.88
664.187	10.88
664.945	7.88
665.703	9.88
666.46	8.88
667.218	8.88
667.976	9.88
668.733	8.88
669.49	7.88
670.248	10.88
671.005	8.88
671.762	9.88
672.519	8.88
673.276	10.88
674.033	8.88
674.79	11.88
675.547	8.88
676.304	9.88
677.06	6.88
677.817	7.88
678.574	7.88
679.33	10.88
680.086	7.88
680.843	8.88
681.599	8.88
682.355	8.88
683.111	9.88
683.867	7.88
684.623	7.88
685.379	6.88
686.135	6.88
686.89	5.88
687.646	7.88
688.402	9.88
689.157	7.88
689.912	8.88
690.668	6.88
691.423	8.88
692.178	8.88
692.933	4.88
693.688	5.88
694.443	6.88
695.198	8.88
695.953	5.88
696.708	8.88
697.462	6.88
698.217	6.88
698.972	8.88
699.726	6.88
700.48	9.88
701.235	8.88
701.989	6.88
702.743	6.88
703.497	5.88
704.251	5.88
705.005	7.88
705.759	7.88
706.513	7.88
707.266	5.88
708.02	7.88
708.774	7.88
709.527	9.88
710.28	7.88
711.034	8.88
711.787	6.88
712.54	6.88
713.293	7.88
714.046	8.88
714.799	7.88
715.552	7.88
716.305	9.88
717.058	7.88
717.81	9.88
718.563	6.88
719.315	7.88
720.068	8.88
720.82	8.88
721.573	9.88
722.325	6.88
723.077	8.88
723.829	9.88
724.581	6.88
725.333	7.88
726.085	7.88
726.836	9.88
727.588	9.88
728.34	9.88
729.091	9.88
729.843	8.88
730.594	9.88
731.346	8.88
732.097	8.88
732.848	8.88
733.599	10.88
734.35	10.88
735.101	8.88
735.852	8.88
736.603	10.88
737.354	9.88
738.104	9.88
738.855	9.88
739.605	11.88
740.356	10.88
741.106	12.88
741.856	10.88
742.607	10.88
743.357	11.88
744.107	8.88
744.857	11.88
745.607	10.88
746.357	10.88
747.106	12.88
747.856	10.88
748.606	12.88
749.355	13.88
750.105	10.88
750.854	12.88
751.603	10.88
752.353	10.88
753.102	14.88
753.851	14.88
754.6	10.88
755.349	10.88
756.098	12.88
756.847	13.88
757.595	10.88
758.344	13.88
759.093	12.88
759.841	12.88
760.589	9.88
761.338	10.88
762.086	11.88
762.834	15.88
763.582	15.88
764.331	11.88
765.079	14.88
765.826	12.88
766.574	13.88
767.322	14.88
768.07	18.88
768.817	14.88
769.565	15.88
770.312	14.88
771.06	13.88
771.807	15.88
772.554	14.88
773.302	17.88
774.049	13.88
774.796	15.88
775.543	13.88
776.29	19.88
777.036	15.88
777.783	16.88
778.53	13.88
779.276	14.88
780.023	14.88
780.769	17.88
781.516	17.88
782.262	16.88
783.008	16.88
783.754	15.88
784.5	17.88
785.246	17.88
785.992	14.88
786.738	13.88
787.484	16.88
788.23	17.88
788.975	16.88
789.721	18.88
790.466	15.88
791.212	17.88
791.957	16.88
792.702	12.88
793.447	14.88
794.193	14.88
794.938	15.88
795.683	14.88
796.427	12.88
797.172	13.88
797.917	12.88
798.662	14.88
799.406	11.88
800.151	10.88
800.895	14.88
801.64	10.88
802.384	11.88
803.128	11.88
803.872	9.88
804.616	11.88
805.36	12.88
806.104	12.88
806.848	9.88
807.592	11.88
808.336	10.88
809.079	11.88
809.823	10.88
810.566	8.88
811.31	8.88
812.053	11.88
812.796	9.88
813.539	8.88
814.283	9.88
815.026	7.88
815.769	6.88
816.511	10.88
817.254	6.88
817.997	8.88
818.74	7.88
819.482	7.88
820.225	9.88
820.967	7.88
821.71	7.88
822.452	5.88
823.194	6.88
823.936	5.88
824.678	6.88
825.42	5.88
826.162	7.88
826.904	5.88
827.646	4.88
828.388	7.88
829.129	5.88
829.871	7.88
830.612	7.88
831.354	6.88
832.095	2.88
832.836	5.88
833.577	5.88
834.319	6.88
835.06	4.88
835.801	7.88
836.542	3.88
837.282	4.88
838.023	7.88
838.764	5.88
839.504	2.88
840.245	4.88
840.985	6.88
841.726	5.88
842.466	5.88
843.206	4.88
843.946	5.88
844.687	5.88
845.427	4.88
846.166	2.88
846.906	5.88
847.646	2.88
848.386	4.88
849.125	4.88
849.865	1.88
850.605	2.88
851.344	5.88
852.083	3.88
852.823	4.88
853.562	3.88
854.301	2.88
855.04	6.88
855.779	5.88
856.518	3.88
857.257	3.88
857.995	4.88
858.734	4.88
859.473	4.88
860.211	3.88
860.95	3.88
861.688	3.88
862.426	3.88
863.165	4.88
863.903	3.88
864.641	3.88
865.379	3.88
866.117	1.88
866.855	1.88
867.593	0.88
868.33	1.88
869.068	3.88
869.806	0.88
870.543	3.88
871.28	2.88
872.018	2.88
872.755	2.88
873.492	2.88
874.229	1.88
874.967	4.88
875.703	0.88
876.44	1.88
877.177	1.88
877.914	2.88
878.651	-0.12
879.387	0.88
880.124	2.88
880.86	-0.12
881.597	0.88
882.333	-0.12
883.069	0.88
883.806	1.88
884.542	2.88
885.278	0.88
886.014	0.88
886.749	0.88
887.485	2.88
888.221	2.88
888.957	1.88
889.692	3.88
890.428	-1.12
891.163	1.88
891.899	1.88
892.634	0.88
893.369	3.88
894.104	1.88
894.839	-2.12
895.574	1.88
896.309	-1.12
897.044	2.88
897.779	-0.12
898.514	3.88
899.248	-0.12
899.983	0.88
900.717	-0.12
901.452	-0.12
902.186	2.88
902.92	1.88
903.654	-2.12
904.389	1.88
905.123	-0.12
905.857	-0.12
906.59	-0.12
907.324	1.88
908.058	-0.12
908.792	1.88
909.525	1.88
910.259	-1.12
910.992	2.88
911.726	0.88
912.459	1.88
913.192	-0.12
913.925	-1.12
914.658	-0.12
915.391	-1.12
916.124	1.88
916.857	2.88
917.59	-0.12
918.323	-0.12
919.055	-1.12
919.788	-1.12
920.521	-0.12
921.253	-0.12
921.985	0.88
922.718	0.88
923.45	2.88
924.182	-1.12
924.914	1.88
925.646	-0.12
926.378	-0.12
927.11	0.88
927.841	-0.12
928.573	-0.12
929.305	0.88
930.036	1.88
930.768	0.88
931.499	2.88
932.23	2.88
932.962	-2.12
933.693	1.88
934.424	0.88
935.155	0.88
935.886	-0.12
936.617	0.88
937.348	1.88
938.078	-1.12
938.809	0.88
939.54	0.88
940.27	1.88
941.001	0.88
941.731	0.88
942.461	0.88
943.191	-0.12
943.922	0.88
944.652	0.88
945.382	-0.12
946.112	0.88
946.841	1.88
947.571	-0.12
948.301	-0.12
949.031	1.88
949.76	-0.12
950.49	-1.12
951.219	1.88
951.948	-2.12
952.678	-0.12
953.407	1.88
954.136	0.88
954.865	0.88
955.594	1.88
956.323	-0.12
957.052	-2.12
957.78	-0.12
958.509	0.88
959.238	-0.12
959.966	-0.12
960.695	1.88
961.423	3.88
962.151	1.88
962.88	2.88
963.608	0.88
964.336	-1.12
965.064	0.88
965.792	0.88
966.52	2.88
967.247	0.88
967.975	0.88
968.703	0.88
969.43	-1.12
970.158	-0.12
970.885	-0.12
971.613	-0.12
972.34	-1.12
973.067	0.88
973.794	0.88
974.521	-1.12
975.248	-0.12
975.975	-1.12
976.702	0.88
977.429	-1.12
978.156	-1.12
978.882	0.88
979.609	-0.12
980.335	-1.12
981.062	1.88
981.788	0.88
982.514	-0.12
983.24	1.88
983.967	-0.12
984.693	-1.12
985.419	-2.12
986.144	0.88
986.87	-2.12
987.596	1.88
988.322	-0.12
989.047	-0.12
989.773	-0.12
990.498	-0.12
991.224	-0.12
991.949	0.88
992.674	-1.12
993.399	1.88
994.124	0.88
994.849	0.88
995.574	-1.12
996.299	1.88
997.024	-1.12
997.749	1.88
998.473	-1.12
999.198	0.88
999.922	-0.12
1000.647	-1.12
1001.371	2.88
1002.095	-1.12
1002.82	0.88
1003.544	1.88
1004.268	1.88
1004.992	2.88
1005.716	4.88
1006.439	3.88
1007.163	4.88
1007.887	3.88
1008.611	0.88
1009.334	1.88
1010.058	0.88
1010.781	0.88
1011.504	0.88
1012.228	0.88
1012.951	-0.12
1013.674	-2.12
1014.397	-2.12
1015.12	-0.12
