节点500_705_QEPB04081__7__20-46-00-373.txt的数据

Date: Wed Nov 12 20:46:00 CST 2025
User: PC
Spectrometer: QEPB0408
触发模式: 0
积分时间 (秒): 1.000000E-2
Scans to average: 1
启用暗噪声校正: true
启用非线性校正: false
滑动平均宽度: 0
X轴模式: Wavelengths
Number of Pixels in Spectrum: 1044
>>>>>Begin Spectral Data<<<<<
220.843	5.25
221.644	6.25
222.444	6.25
223.244	7.25
224.045	5.25
224.845	5.25
225.645	8.25
226.445	6.25
227.245	9.25
228.045	9.25
228.845	8.25
229.645	9.25
230.444	7.25
231.244	8.25
232.043	9.25
232.843	11.25
233.642	8.25
234.442	11.25
235.241	10.25
236.04	13.25
236.839	12.25
237.638	12.25
238.437	11.25
239.236	11.25
240.035	12.25
240.833	14.25
241.632	14.25
242.43	13.25
243.229	13.25
244.027	14.25
244.826	15.25
245.624	15.25
246.422	18.25
247.22	13.25
248.018	15.25
248.816	18.25
249.614	15.25
250.412	15.25
251.21	21.25
252.007	18.25
252.805	15.25
253.602	19.25
254.4	21.25
255.197	22.25
255.994	24.25
256.791	19.25
257.589	24.25
258.386	22.25
259.183	26.25
259.979	24.25
260.776	25.25
261.573	24.25
262.37	29.25
263.166	30.25
263.963	30.25
264.759	29.25
265.556	32.25
266.352	32.25
267.148	34.25
267.944	30.25
268.74	37.25
269.536	34.25
270.332	38.25
271.128	35.25
271.924	36.25
272.719	39.25
273.515	34.25
274.311	36.25
275.106	36.25
275.901	37.25
276.697	37.25
277.492	35.25
278.287	38.25
279.082	35.25
279.877	38.25
280.672	39.25
281.467	38.25
282.262	39.25
283.056	40.25
283.851	37.25
284.646	40.25
285.44	36.25
286.234	35.25
287.029	37.25
287.823	35.25
288.617	33.25
289.411	39.25
290.205	32.25
290.999	30.25
291.793	34.25
292.587	31.25
293.381	31.25
294.174	32.25
294.968	30.25
295.761	31.25
296.555	30.25
297.348	30.25
298.141	26.25
298.935	31.25
299.728	26.25
300.521	27.25
301.314	25.25
302.107	25.25
302.899	25.25
303.692	21.25
304.485	23.25
305.277	24.25
306.07	20.25
306.862	21.25
307.655	22.25
308.447	22.25
309.239	19.25
310.031	21.25
310.823	21.25
311.615	20.25
312.407	19.25
313.199	17.25
313.991	16.25
314.783	17.25
315.574	17.25
316.366	17.25
317.157	13.25
317.949	16.25
318.74	16.25
319.531	14.25
320.322	13.25
321.113	14.25
321.904	15.25
322.695	13.25
323.486	15.25
324.277	14.25
325.068	14.25
325.858	12.25
326.649	13.25
327.439	14.25
328.23	11.25
329.02	15.25
329.81	13.25
330.6	13.25
331.391	14.25
332.181	13.25
332.971	11.25
333.76	14.25
334.55	13.25
335.34	15.25
336.13	13.25
336.919	13.25
337.709	11.25
338.498	13.25
339.287	13.25
340.077	13.25
340.866	15.25
341.655	11.25
342.444	12.25
343.233	14.25
344.022	11.25
344.811	11.25
345.6	11.25
346.388	14.25
347.177	9.25
347.965	12.25
348.754	12.25
349.542	12.25
350.33	13.25
351.119	11.25
351.907	12.25
352.695	9.25
353.483	14.25
354.271	14.25
355.059	11.25
355.846	12.25
356.634	9.25
357.422	11.25
358.209	11.25
358.997	12.25
359.784	10.25
360.571	10.25
361.359	11.25
362.146	10.25
362.933	13.25
363.72	10.25
364.507	10.25
365.294	11.25
366.081	11.25
366.867	10.25
367.654	11.25
368.44	10.25
369.227	11.25
370.013	11.25
370.8	12.25
371.586	10.25
372.372	11.25
373.158	10.25
373.944	9.25
374.73	10.25
375.516	10.25
376.302	11.25
377.088	12.25
377.873	12.25
378.659	12.25
379.445	11.25
380.23	11.25
381.015	10.25
381.801	10.25
382.586	10.25
383.371	11.25
384.156	13.25
384.941	13.25
385.726	10.25
386.511	11.25
387.296	12.25
388.08	12.25
388.865	13.25
389.649	14.25
390.434	14.25
391.218	14.25
392.003	12.25
392.787	13.25
393.571	11.25
394.355	12.25
395.139	14.25
395.923	16.25
396.707	17.25
397.491	13.25
398.274	15.25
399.058	12.25
399.842	14.25
400.625	14.25
401.408	13.25
402.192	14.25
402.975	14.25
403.758	15.25
404.541	18.25
405.324	15.25
406.107	15.25
406.89	16.25
407.673	15.25
408.456	14.25
409.238	14.25
410.021	16.25
410.803	13.25
411.586	18.25
412.368	21.25
413.151	18.25
413.933	19.25
414.715	20.25
415.497	20.25
416.279	20.25
417.061	24.25
417.843	21.25
418.624	20.25
419.406	23.25
420.188	21.25
420.969	23.25
421.751	25.25
422.532	23.25
423.313	27.25
424.095	22.25
424.876	29.25
425.657	27.25
426.438	26.25
427.219	26.25
428	27.25
428.78	27.25
429.561	33.25
430.342	30.25
431.122	35.25
431.903	31.25
432.683	32.25
433.464	34.25
434.244	42.25
435.024	37.25
435.804	44.25
436.584	41.25
437.364	48.25
438.144	49.25
438.924	48.25
439.704	53.25
440.483	55.25
441.263	59.25
442.042	65.25
442.822	67.25
443.601	75.25
444.38	77.25
445.16	83.25
445.939	93.25
446.718	98.25
447.497	106.25
448.276	112.25
449.054	127.25
449.833	138.25
450.612	147.25
451.391	163.25
452.169	183.25
452.948	200.25
453.726	218.25
454.504	240.25
455.282	267.25
456.061	302.25
456.839	341.25
457.617	372.25
458.395	413.25
459.172	471.25
459.95	531.25
460.728	587.25
461.506	654.25
462.283	730.25
463.061	820.25
463.838	936.25
464.615	1028.25
465.393	1156.25
466.17	1298.25
466.947	1429.25
467.724	1595.25
468.501	1793.25
469.278	1986.25
470.055	2229.25
470.831	2470.25
471.608	2740.25
472.385	3042.25
473.161	3359.25
473.938	3750.25
474.714	4116.25
475.49	4577.25
476.266	5042.25
477.043	5538.25
477.819	6070.25
478.595	6682.25
479.371	7377.25
480.146	8118.25
480.922	8931.25
481.698	9804.25
482.473	10717.25
483.249	11738.25
484.024	12799.25
484.8	13961.25
485.575	15306.25
486.35	16613.25
487.126	18032.25
487.901	19627.25
488.676	21251.25
489.451	23043.25
490.225	24833.25
491	26691.25
491.775	28683.25
492.55	30717.25
493.324	32620.25
494.099	34713.25
494.873	36810.25
495.647	38778.25
496.422	40827.25
497.196	42740.25
497.97	44469.25
498.744	46096.25
499.518	47703.25
500.292	49023.25
501.066	49770.25
501.839	50449.25
502.613	50955.25
503.387	51277.25
504.16	51361.25
504.934	51047.25
505.707	50485.25
506.48	49683.25
507.253	48858.25
508.027	47802.25
508.8	46474.25
509.573	44986.25
510.346	43547.25
511.118	42168.25
511.891	40571.25
512.664	38884.25
513.437	37217.25
514.209	35703.25
514.982	34197.25
515.754	32690.25
516.526	31290.25
517.298	29998.25
518.071	28770.25
518.843	27618.25
519.615	26482.25
520.387	25390.25
521.159	24397.25
521.93	23321.25
522.702	22349.25
523.474	21399.25
524.245	20486.25
525.017	19560.25
525.788	18592.25
526.56	17823.25
527.331	16921.25
528.102	16056.25
528.873	15198.25
529.644	14404.25
530.415	13753.25
531.186	13061.25
531.957	12340.25
532.728	11627.25
533.498	11032.25
534.269	10429.25
535.039	9842.25
535.81	9309.25
536.58	8790.25
537.351	8331.25
538.121	7882.25
538.891	7458.25
539.661	7060.25
540.431	6683.25
541.201	6335.25
541.971	5990.25
542.741	5667.25
543.51	5380.25
544.28	5120.25
545.05	4901.25
545.819	4647.25
546.588	4403.25
547.358	4214.25
548.127	4001.25
548.896	3779.25
549.665	3589.25
550.434	3386.25
551.203	3209.25
551.972	3027.25
552.741	2868.25
553.51	2712.25
554.278	2562.25
555.047	2391.25
555.815	2275.25
556.584	2152.25
557.352	2030.25
558.121	1906.25
558.889	1807.25
559.657	1711.25
560.425	1630.25
561.193	1542.25
561.961	1453.25
562.729	1371.25
563.496	1283.25
564.264	1231.25
565.032	1173.25
565.799	1104.25
566.567	1050.25
567.334	975.25
568.101	930.25
568.869	866.25
569.636	828.25
570.403	789.25
571.17	744.25
571.937	700.25
572.704	662.25
573.471	625.25
574.237	585.25
575.004	564.25
575.771	519.25
576.537	495.25
577.303	460.25
578.07	436.25
578.836	415.25
579.602	391.25
580.368	369.25
581.134	357.25
581.9	339.25
582.666	314.25
583.432	301.25
584.198	284.25
584.964	271.25
585.729	258.25
586.495	249.25
587.26	233.25
588.025	217.25
588.791	215.25
589.556	198.25
590.321	184.25
591.086	180.25
591.851	177.25
592.616	162.25
593.381	158.25
594.146	152.25
594.911	142.25
595.675	137.25
596.44	133.25
597.204	127.25
597.969	119.25
598.733	113.25
599.497	109.25
600.261	100.25
601.025	102.25
601.79	96.25
602.553	94.25
603.317	90.25
604.081	88.25
604.845	85.25
605.609	81.25
606.372	78.25
607.136	77.25
607.899	69.25
608.662	66.25
609.426	67.25
610.189	65.25
610.952	59.25
611.715	60.25
612.478	53.25
613.241	57.25
614.004	54.25
614.767	50.25
615.529	47.25
616.292	52.25
617.055	49.25
617.817	45.25
618.579	41.25
619.342	40.25
620.104	39.25
620.866	36.25
621.628	39.25
622.39	35.25
623.152	37.25
623.914	34.25
624.676	38.25
625.438	33.25
626.199	30.25
626.961	29.25
627.722	27.25
628.484	29.25
629.245	28.25
630.006	27.25
630.768	27.25
631.529	27.25
632.29	24.25
633.051	22.25
633.812	25.25
634.573	22.25
635.333	22.25
636.094	21.25
636.855	22.25
637.615	23.25
638.376	19.25
639.136	18.25
639.896	19.25
640.657	21.25
641.417	19.25
642.177	19.25
642.937	17.25
643.697	15.25
644.457	19.25
645.216	15.25
645.976	18.25
646.736	17.25
647.495	17.25
648.255	14.25
649.014	15.25
649.774	15.25
650.533	15.25
651.292	15.25
652.051	13.25
652.81	13.25
653.569	14.25
654.328	11.25
655.087	12.25
655.846	11.25
656.604	15.25
657.363	13.25
658.121	11.25
658.88	13.25
659.638	12.25
660.397	14.25
661.155	12.25
661.913	9.25
662.671	10.25
663.429	10.25
664.187	12.25
664.945	9.25
665.703	12.25
666.46	10.25
667.218	11.25
667.976	9.25
668.733	10.25
669.49	9.25
670.248	10.25
671.005	8.25
671.762	8.25
672.519	13.25
673.276	9.25
674.033	8.25
674.79	10.25
675.547	8.25
676.304	10.25
677.06	9.25
677.817	9.25
678.574	10.25
679.33	8.25
680.086	8.25
680.843	8.25
681.599	7.25
682.355	9.25
683.111	7.25
683.867	8.25
684.623	10.25
685.379	7.25
686.135	7.25
686.89	5.25
687.646	9.25
688.402	9.25
689.157	6.25
689.912	7.25
690.668	8.25
691.423	7.25
692.178	8.25
692.933	8.25
693.688	8.25
694.443	6.25
695.198	9.25
695.953	7.25
696.708	10.25
697.462	7.25
698.217	10.25
698.972	8.25
699.726	6.25
700.48	9.25
701.235	6.25
701.989	7.25
702.743	10.25
703.497	9.25
704.251	8.25
705.005	8.25
705.759	8.25
706.513	7.25
707.266	8.25
708.02	7.25
708.774	6.25
709.527	8.25
710.28	6.25
711.034	9.25
711.787	8.25
712.54	11.25
713.293	9.25
714.046	7.25
714.799	9.25
715.552	9.25
716.305	10.25
717.058	3.25
717.81	8.25
718.563	8.25
719.315	7.25
720.068	8.25
720.82	10.25
721.573	11.25
722.325	9.25
723.077	7.25
723.829	12.25
724.581	7.25
725.333	9.25
726.085	10.25
726.836	9.25
727.588	9.25
728.34	9.25
729.091	10.25
729.843	11.25
730.594	10.25
731.346	10.25
732.097	12.25
732.848	10.25
733.599	10.25
734.35	12.25
735.101	8.25
735.852	11.25
736.603	11.25
737.354	11.25
738.104	11.25
738.855	12.25
739.605	13.25
740.356	11.25
741.106	10.25
741.856	12.25
742.607	9.25
743.357	14.25
744.107	12.25
744.857	12.25
745.607	13.25
746.357	11.25
747.106	13.25
747.856	13.25
748.606	12.25
749.355	11.25
750.105	13.25
750.854	11.25
751.603	11.25
752.353	11.25
753.102	14.25
753.851	13.25
754.6	12.25
755.349	13.25
756.098	13.25
756.847	14.25
757.595	13.25
758.344	13.25
759.093	11.25
759.841	11.25
760.589	13.25
761.338	13.25
762.086	15.25
762.834	13.25
763.582	14.25
764.331	14.25
765.079	17.25
765.826	17.25
766.574	16.25
767.322	14.25
768.07	18.25
768.817	18.25
769.565	14.25
770.312	18.25
771.06	14.25
771.807	20.25
772.554	14.25
773.302	18.25
774.049	15.25
774.796	17.25
775.543	15.25
776.29	18.25
777.036	18.25
777.783	18.25
778.53	18.25
779.276	16.25
780.023	19.25
780.769	17.25
781.516	17.25
782.262	17.25
783.008	18.25
783.754	18.25
784.5	20.25
785.246	19.25
785.992	17.25
786.738	16.25
787.484	18.25
788.23	18.25
788.975	18.25
789.721	18.25
790.466	15.25
791.212	16.25
791.957	13.25
792.702	15.25
793.447	19.25
794.193	15.25
794.938	13.25
795.683	15.25
796.427	15.25
797.172	13.25
797.917	13.25
798.662	13.25
799.406	15.25
800.151	14.25
800.895	11.25
801.64	13.25
802.384	13.25
803.128	13.25
803.872	11.25
804.616	11.25
805.36	12.25
806.104	12.25
806.848	14.25
807.592	10.25
808.336	10.25
809.079	10.25
809.823	9.25
810.566	9.25
811.31	11.25
812.053	10.25
812.796	9.25
813.539	7.25
814.283	8.25
815.026	11.25
815.769	8.25
816.511	8.25
817.254	10.25
817.997	9.25
818.74	7.25
819.482	6.25
820.225	7.25
820.967	7.25
821.71	9.25
822.452	7.25
823.194	7.25
823.936	5.25
824.678	7.25
825.42	8.25
826.162	11.25
826.904	5.25
827.646	5.25
828.388	8.25
829.129	6.25
829.871	5.25
830.612	7.25
831.354	5.25
832.095	5.25
832.836	7.25
833.577	6.25
834.319	4.25
835.06	5.25
835.801	8.25
836.542	6.25
837.282	5.25
838.023	4.25
838.764	7.25
839.504	5.25
840.245	4.25
840.985	3.25
841.726	5.25
842.466	5.25
843.206	4.25
843.946	6.25
844.687	4.25
845.427	3.25
846.166	4.25
846.906	6.25
847.646	5.25
848.386	4.25
849.125	8.25
849.865	3.25
850.605	5.25
851.344	3.25
852.083	5.25
852.823	5.25
853.562	5.25
854.301	6.25
855.04	5.25
855.779	3.25
856.518	4.25
857.257	4.25
857.995	3.25
858.734	6.25
859.473	3.25
860.211	5.25
860.95	3.25
861.688	4.25
862.426	1.25
863.165	2.25
863.903	3.25
864.641	2.25
865.379	3.25
866.117	3.25
866.855	1.25
867.593	2.25
868.33	2.25
869.068	3.25
869.806	2.25
870.543	3.25
871.28	3.25
872.018	5.25
872.755	4.25
873.492	0.25
874.229	2.25
874.967	1.25
875.703	2.25
876.44	1.25
877.177	3.25
877.914	1.25
878.651	1.25
879.387	2.25
880.124	2.25
880.86	0.25
881.597	1.25
882.333	2.25
883.069	1.25
883.806	1.25
884.542	2.25
885.278	-0.75
886.014	3.25
886.749	-0.75
887.485	3.25
888.221	1.25
888.957	1.25
889.692	1.25
890.428	2.25
891.163	-0.75
891.899	2.25
892.634	-0.75
893.369	2.25
894.104	2.25
894.839	2.25
895.574	2.25
896.309	0.25
897.044	0.25
897.779	0.25
898.514	1.25
899.248	-1.75
899.983	3.25
900.717	2.25
901.452	1.25
902.186	2.25
902.92	1.25
903.654	1.25
904.389	3.25
905.123	1.25
905.857	1.25
906.59	1.25
907.324	2.25
908.058	-0.75
908.792	-0.75
909.525	3.25
910.259	1.25
910.992	1.25
911.726	-0.75
912.459	2.25
913.192	0.25
913.925	2.25
914.658	-0.75
915.391	2.25
916.124	1.25
916.857	1.25
917.59	0.25
918.323	-0.75
919.055	1.25
919.788	1.25
920.521	-0.75
921.253	3.25
921.985	0.25
922.718	2.25
923.45	0.25
924.182	0.25
924.914	0.25
925.646	0.25
926.378	1.25
927.11	-0.75
927.841	3.25
928.573	1.25
929.305	-1.75
930.036	2.25
930.768	0.25
931.499	-0.75
932.23	-0.75
932.962	3.25
933.693	1.25
934.424	2.25
935.155	1.25
935.886	2.25
936.617	2.25
937.348	3.25
938.078	-1.75
938.809	1.25
939.54	2.25
940.27	0.25
941.001	0.25
941.731	-1.75
942.461	1.25
943.191	1.25
943.922	0.25
944.652	0.25
945.382	1.25
946.112	1.25
946.841	0.25
947.571	0.25
948.301	0.25
949.031	1.25
949.76	3.25
950.49	1.25
951.219	4.25
951.948	0.25
952.678	2.25
953.407	0.25
954.136	1.25
954.865	0.25
955.594	0.25
956.323	1.25
957.052	-2.75
957.78	0.25
958.509	0.25
959.238	3.25
959.966	-0.75
960.695	1.25
961.423	1.25
962.151	1.25
962.88	1.25
963.608	2.25
964.336	1.25
965.064	1.25
965.792	-0.75
966.52	-0.75
967.247	-0.75
967.975	2.25
968.703	1.25
969.43	-0.75
970.158	2.25
970.885	0.25
971.613	3.25
972.34	1.25
973.067	2.25
973.794	-0.75
974.521	0.25
975.248	-0.75
975.975	-0.75
976.702	0.25
977.429	-0.75
978.156	-0.75
978.882	-0.75
979.609	1.25
980.335	2.25
981.062	0.25
981.788	-0.75
982.514	0.25
983.24	0.25
983.967	1.25
984.693	-0.75
985.419	2.25
986.144	-0.75
986.87	2.25
987.596	-0.75
988.322	0.25
989.047	2.25
989.773	0.25
990.498	-0.75
991.224	0.25
991.949	3.25
992.674	1.25
993.399	-0.75
994.124	3.25
994.849	1.25
995.574	1.25
996.299	1.25
997.024	-1.75
997.749	0.25
998.473	0.25
999.198	1.25
999.922	1.25
1000.647	0.25
1001.371	4.25
1002.095	0.25
1002.82	-0.75
1003.544	-1.75
1004.268	3.25
1004.992	3.25
1005.716	6.25
1006.439	5.25
1007.163	7.25
1007.887	5.25
1008.611	-2.75
1009.334	-0.75
1010.058	-0.75
1010.781	0.25
1011.504	1.25
1012.228	1.25
1012.951	0.25
1013.674	-0.75
1014.397	-0.75
1015.12	-0.75
