节点500_705_QEPB04081__316__20-50-27-491.txt的数据

Date: Wed Nov 12 20:50:27 CST 2025
User: PC
Spectrometer: QEPB0408
触发模式: 0
积分时间 (秒): 1.000000E-2
Scans to average: 1
启用暗噪声校正: true
启用非线性校正: false
滑动平均宽度: 0
X轴模式: Wavelengths
Number of Pixels in Spectrum: 1044
>>>>>Begin Spectral Data<<<<<
220.843	6.62
221.644	5.62
222.444	6.62
223.244	4.62
224.045	5.62
224.845	6.62
225.645	7.62
226.445	5.62
227.245	8.62
228.045	6.62
228.845	6.62
229.645	9.62
230.444	7.62
231.244	8.62
232.043	7.62
232.843	10.62
233.642	7.62
234.442	10.62
235.241	9.62
236.04	8.62
236.839	8.62
237.638	9.62
238.437	10.62
239.236	9.62
240.035	9.62
240.833	13.62
241.632	11.62
242.43	11.62
243.229	13.62
244.027	13.62
244.826	13.62
245.624	14.62
246.422	13.62
247.22	12.62
248.018	16.62
248.816	14.62
249.614	14.62
250.412	16.62
251.21	14.62
252.007	14.62
252.805	17.62
253.602	18.62
254.4	17.62
255.197	17.62
255.994	14.62
256.791	19.62
257.589	23.62
258.386	20.62
259.183	19.62
259.979	22.62
260.776	22.62
261.573	22.62
262.37	23.62
263.166	21.62
263.963	22.62
264.759	23.62
265.556	24.62
266.352	28.62
267.148	26.62
267.944	29.62
268.74	28.62
269.536	29.62
270.332	29.62
271.128	30.62
271.924	32.62
272.719	30.62
273.515	32.62
274.311	32.62
275.106	30.62
275.901	30.62
276.697	32.62
277.492	32.62
278.287	32.62
279.082	34.62
279.877	35.62
280.672	33.62
281.467	34.62
282.262	35.62
283.056	34.62
283.851	34.62
284.646	37.62
285.44	33.62
286.234	32.62
287.029	33.62
287.823	30.62
288.617	33.62
289.411	29.62
290.205	32.62
290.999	31.62
291.793	31.62
292.587	30.62
293.381	29.62
294.174	32.62
294.968	31.62
295.761	26.62
296.555	27.62
297.348	29.62
298.141	25.62
298.935	27.62
299.728	23.62
300.521	25.62
301.314	24.62
302.107	24.62
302.899	20.62
303.692	23.62
304.485	23.62
305.277	25.62
306.07	21.62
306.862	23.62
307.655	20.62
308.447	23.62
309.239	21.62
310.031	18.62
310.823	20.62
311.615	14.62
312.407	19.62
313.199	14.62
313.991	18.62
314.783	16.62
315.574	17.62
316.366	17.62
317.157	14.62
317.949	14.62
318.74	12.62
319.531	14.62
320.322	14.62
321.113	12.62
321.904	12.62
322.695	12.62
323.486	12.62
324.277	12.62
325.068	12.62
325.858	12.62
326.649	12.62
327.439	9.62
328.23	11.62
329.02	11.62
329.81	10.62
330.6	11.62
331.391	14.62
332.181	12.62
332.971	10.62
333.76	11.62
334.55	14.62
335.34	12.62
336.13	12.62
336.919	10.62
337.709	9.62
338.498	14.62
339.287	14.62
340.077	12.62
340.866	12.62
341.655	12.62
342.444	11.62
343.233	12.62
344.022	11.62
344.811	12.62
345.6	12.62
346.388	11.62
347.177	13.62
347.965	13.62
348.754	12.62
349.542	12.62
350.33	11.62
351.119	12.62
351.907	10.62
352.695	8.62
353.483	10.62
354.271	12.62
355.059	10.62
355.846	12.62
356.634	10.62
357.422	12.62
358.209	5.62
358.997	12.62
359.784	12.62
360.571	8.62
361.359	10.62
362.146	11.62
362.933	9.62
363.72	8.62
364.507	10.62
365.294	12.62
366.081	11.62
366.867	12.62
367.654	11.62
368.44	11.62
369.227	9.62
370.013	9.62
370.8	9.62
371.586	8.62
372.372	10.62
373.158	9.62
373.944	10.62
374.73	9.62
375.516	7.62
376.302	10.62
377.088	10.62
377.873	10.62
378.659	10.62
379.445	8.62
380.23	10.62
381.015	8.62
381.801	10.62
382.586	9.62
383.371	10.62
384.156	8.62
384.941	10.62
385.726	12.62
386.511	12.62
387.296	12.62
388.08	11.62
388.865	10.62
389.649	12.62
390.434	11.62
391.218	9.62
392.003	11.62
392.787	11.62
393.571	10.62
394.355	10.62
395.139	13.62
395.923	12.62
396.707	13.62
397.491	12.62
398.274	13.62
399.058	12.62
399.842	13.62
400.625	12.62
401.408	11.62
402.192	13.62
402.975	12.62
403.758	11.62
404.541	16.62
405.324	14.62
406.107	14.62
406.89	14.62
407.673	17.62
408.456	16.62
409.238	18.62
410.021	17.62
410.803	15.62
411.586	18.62
412.368	14.62
413.151	17.62
413.933	13.62
414.715	18.62
415.497	17.62
416.279	17.62
417.061	20.62
417.843	18.62
418.624	21.62
419.406	19.62
420.188	20.62
420.969	18.62
421.751	21.62
422.532	22.62
423.313	22.62
424.095	21.62
424.876	24.62
425.657	24.62
426.438	26.62
427.219	24.62
428	27.62
428.78	26.62
429.561	26.62
430.342	29.62
431.122	29.62
431.903	29.62
432.683	32.62
433.464	36.62
434.244	38.62
435.024	33.62
435.804	39.62
436.584	42.62
437.364	43.62
438.144	48.62
438.924	47.62
439.704	48.62
440.483	56.62
441.263	59.62
442.042	67.62
442.822	64.62
443.601	74.62
444.38	80.62
445.16	86.62
445.939	93.62
446.718	101.62
447.497	108.62
448.276	119.62
449.054	130.62
449.833	144.62
450.612	160.62
451.391	176.62
452.169	195.62
452.948	221.62
453.726	240.62
454.504	265.62
455.282	299.62
456.061	321.62
456.839	363.62
457.617	410.62
458.395	455.62
459.172	511.62
459.95	561.62
460.728	640.62
461.506	706.62
462.283	788.62
463.061	880.62
463.838	985.62
464.615	1080.62
465.393	1213.62
466.17	1355.62
466.947	1502.62
467.724	1662.62
468.501	1851.62
469.278	2070.62
470.055	2265.62
470.831	2496.62
471.608	2774.62
472.385	3040.62
473.161	3374.62
473.938	3707.62
474.714	4068.62
475.49	4462.62
476.266	4875.62
477.043	5330.62
477.819	5851.62
478.595	6367.62
479.371	6982.62
480.146	7625.62
480.922	8327.62
481.698	9052.62
482.473	9878.62
483.249	10735.62
484.024	11664.62
484.8	12648.62
485.575	13704.62
486.35	14897.62
487.126	16104.62
487.901	17440.62
488.676	18818.62
489.451	20304.62
490.225	21808.62
491	23418.62
491.775	25119.62
492.55	26713.62
493.324	28596.62
494.099	30373.62
494.873	32149.62
495.647	33870.62
496.422	35735.62
497.196	37525.62
497.97	39127.62
498.744	40616.62
499.518	42230.62
500.292	43675.62
501.066	44754.62
501.839	45614.62
502.613	46291.62
503.387	46977.62
504.16	47308.62
504.934	47411.62
505.707	47476.62
506.48	47005.62
507.253	46547.62
508.027	45775.62
508.8	44774.62
509.573	43655.62
510.346	42637.62
511.118	41582.62
511.891	40299.62
512.664	38795.62
513.437	37296.62
514.209	35824.62
514.982	34559.62
515.754	33099.62
516.526	31752.62
517.298	30533.62
518.071	29211.62
518.843	28046.62
519.615	26990.62
520.387	25908.62
521.159	24917.62
521.93	23860.62
522.702	22847.62
523.474	21894.62
524.245	20967.62
525.017	20035.62
525.788	19142.62
526.56	18369.62
527.331	17558.62
528.102	16605.62
528.873	15796.62
529.644	15040.62
530.415	14363.62
531.186	13712.62
531.957	12921.62
532.728	12288.62
533.498	11643.62
534.269	11056.62
535.039	10430.62
535.81	9879.62
536.58	9326.62
537.351	8820.62
538.121	8363.62
538.891	7935.62
539.661	7454.62
540.431	7071.62
541.201	6733.62
541.971	6362.62
542.741	6021.62
543.51	5740.62
544.28	5442.62
545.05	5176.62
545.819	4958.62
546.588	4705.62
547.358	4483.62
548.127	4284.62
548.896	4031.62
549.665	3832.62
550.434	3629.62
551.203	3447.62
551.972	3273.62
552.741	3099.62
553.51	2945.62
554.278	2756.62
555.047	2603.62
555.815	2465.62
556.584	2323.62
557.352	2204.62
558.121	2075.62
558.889	1973.62
559.657	1865.62
560.425	1765.62
561.193	1664.62
561.961	1583.62
562.729	1473.62
563.496	1408.62
564.264	1319.62
565.032	1258.62
565.799	1192.62
566.567	1130.62
567.334	1069.62
568.101	998.62
568.869	952.62
569.636	894.62
570.403	842.62
571.17	805.62
571.937	757.62
572.704	697.62
573.471	681.62
574.237	641.62
575.004	606.62
575.771	561.62
576.537	534.62
577.303	511.62
578.07	472.62
578.836	441.62
579.602	428.62
580.368	401.62
581.134	379.62
581.9	366.62
582.666	348.62
583.432	329.62
584.198	317.62
584.964	302.62
585.729	282.62
586.495	264.62
587.26	252.62
588.025	232.62
588.791	228.62
589.556	209.62
590.321	205.62
591.086	194.62
591.851	190.62
592.616	180.62
593.381	168.62
594.146	159.62
594.911	152.62
595.675	148.62
596.44	137.62
597.204	137.62
597.969	130.62
598.733	123.62
599.497	116.62
600.261	111.62
601.025	107.62
601.79	103.62
602.553	100.62
603.317	95.62
604.081	92.62
604.845	89.62
605.609	84.62
606.372	77.62
607.136	81.62
607.899	73.62
608.662	72.62
609.426	69.62
610.189	66.62
610.952	62.62
611.715	56.62
612.478	56.62
613.241	58.62
614.004	54.62
614.767	52.62
615.529	51.62
616.292	49.62
617.055	47.62
617.817	44.62
618.579	47.62
619.342	43.62
620.104	39.62
620.866	42.62
621.628	40.62
622.39	40.62
623.152	37.62
623.914	34.62
624.676	35.62
625.438	35.62
626.199	29.62
626.961	32.62
627.722	28.62
628.484	30.62
629.245	25.62
630.006	27.62
630.768	29.62
631.529	25.62
632.29	22.62
633.051	26.62
633.812	24.62
634.573	24.62
635.333	22.62
636.094	23.62
636.855	18.62
637.615	24.62
638.376	21.62
639.136	21.62
639.896	19.62
640.657	17.62
641.417	18.62
642.177	18.62
642.937	19.62
643.697	18.62
644.457	15.62
645.216	16.62
645.976	14.62
646.736	16.62
647.495	13.62
648.255	12.62
649.014	18.62
649.774	14.62
650.533	15.62
651.292	14.62
652.051	10.62
652.81	12.62
653.569	13.62
654.328	12.62
655.087	9.62
655.846	13.62
656.604	10.62
657.363	14.62
658.121	12.62
658.88	12.62
659.638	12.62
660.397	9.62
661.155	10.62
661.913	10.62
662.671	11.62
663.429	11.62
664.187	8.62
664.945	9.62
665.703	11.62
666.46	10.62
667.218	8.62
667.976	10.62
668.733	10.62
669.49	8.62
670.248	9.62
671.005	7.62
671.762	9.62
672.519	11.62
673.276	9.62
674.033	9.62
674.79	8.62
675.547	11.62
676.304	7.62
677.06	7.62
677.817	8.62
678.574	7.62
679.33	9.62
680.086	8.62
680.843	9.62
681.599	8.62
682.355	6.62
683.111	8.62
683.867	7.62
684.623	6.62
685.379	9.62
686.135	12.62
686.89	7.62
687.646	7.62
688.402	8.62
689.157	6.62
689.912	7.62
690.668	8.62
691.423	7.62
692.178	7.62
692.933	4.62
693.688	8.62
694.443	9.62
695.198	10.62
695.953	9.62
696.708	8.62
697.462	7.62
698.217	6.62
698.972	8.62
699.726	7.62
700.48	8.62
701.235	6.62
701.989	7.62
702.743	6.62
703.497	6.62
704.251	7.62
705.005	5.62
705.759	4.62
706.513	9.62
707.266	8.62
708.02	8.62
708.774	9.62
709.527	8.62
710.28	9.62
711.034	7.62
711.787	7.62
712.54	6.62
713.293	7.62
714.046	10.62
714.799	10.62
715.552	7.62
716.305	8.62
717.058	8.62
717.81	8.62
718.563	8.62
719.315	7.62
720.068	8.62
720.82	7.62
721.573	6.62
722.325	8.62
723.077	8.62
723.829	7.62
724.581	7.62
725.333	7.62
726.085	11.62
726.836	9.62
727.588	7.62
728.34	9.62
729.091	5.62
729.843	8.62
730.594	8.62
731.346	8.62
732.097	8.62
732.848	8.62
733.599	11.62
734.35	5.62
735.101	9.62
735.852	9.62
736.603	9.62
737.354	10.62
738.104	10.62
738.855	8.62
739.605	8.62
740.356	10.62
741.106	9.62
741.856	6.62
742.607	8.62
743.357	12.62
744.107	11.62
744.857	13.62
745.607	11.62
746.357	13.62
747.106	8.62
747.856	12.62
748.606	10.62
749.355	11.62
750.105	10.62
750.854	10.62
751.603	10.62
752.353	7.62
753.102	11.62
753.851	11.62
754.6	12.62
755.349	12.62
756.098	10.62
756.847	12.62
757.595	10.62
758.344	12.62
759.093	13.62
759.841	12.62
760.589	12.62
761.338	14.62
762.086	10.62
762.834	10.62
763.582	12.62
764.331	13.62
765.079	10.62
765.826	12.62
766.574	13.62
767.322	11.62
768.07	13.62
768.817	14.62
769.565	15.62
770.312	15.62
771.06	14.62
771.807	15.62
772.554	16.62
773.302	14.62
774.049	14.62
774.796	17.62
775.543	12.62
776.29	14.62
777.036	15.62
777.783	14.62
778.53	14.62
779.276	14.62
780.023	14.62
780.769	14.62
781.516	15.62
782.262	16.62
783.008	14.62
783.754	14.62
784.5	13.62
785.246	18.62
785.992	16.62
786.738	14.62
787.484	14.62
788.23	13.62
788.975	16.62
789.721	14.62
790.466	15.62
791.212	14.62
791.957	13.62
792.702	15.62
793.447	12.62
794.193	13.62
794.938	14.62
795.683	11.62
796.427	13.62
797.172	12.62
797.917	13.62
798.662	14.62
799.406	12.62
800.151	10.62
800.895	12.62
801.64	12.62
802.384	12.62
803.128	13.62
803.872	13.62
804.616	13.62
805.36	14.62
806.104	11.62
806.848	9.62
807.592	8.62
808.336	11.62
809.079	11.62
809.823	10.62
810.566	9.62
811.31	9.62
812.053	7.62
812.796	6.62
813.539	9.62
814.283	8.62
815.026	6.62
815.769	9.62
816.511	8.62
817.254	8.62
817.997	8.62
818.74	7.62
819.482	9.62
820.225	4.62
820.967	7.62
821.71	6.62
822.452	5.62
823.194	6.62
823.936	5.62
824.678	8.62
825.42	6.62
826.162	5.62
826.904	7.62
827.646	7.62
828.388	5.62
829.129	6.62
829.871	7.62
830.612	3.62
831.354	5.62
832.095	6.62
832.836	3.62
833.577	5.62
834.319	5.62
835.06	9.62
835.801	5.62
836.542	4.62
837.282	4.62
838.023	3.62
838.764	5.62
839.504	4.62
840.245	5.62
840.985	3.62
841.726	5.62
842.466	4.62
843.206	2.62
843.946	4.62
844.687	4.62
845.427	6.62
846.166	6.62
846.906	4.62
847.646	4.62
848.386	5.62
849.125	7.62
849.865	5.62
850.605	3.62
851.344	3.62
852.083	2.62
852.823	3.62
853.562	3.62
854.301	4.62
855.04	6.62
855.779	2.62
856.518	3.62
857.257	1.62
857.995	3.62
858.734	1.62
859.473	4.62
860.211	4.62
860.95	3.62
861.688	4.62
862.426	3.62
863.165	1.62
863.903	0.62
864.641	1.62
865.379	6.62
866.117	1.62
866.855	4.62
867.593	2.62
868.33	1.62
869.068	1.62
869.806	3.62
870.543	0.62
871.28	-0.38
872.018	1.62
872.755	1.62
873.492	3.62
874.229	2.62
874.967	-0.38
875.703	1.62
876.44	1.62
877.177	0.62
877.914	0.62
878.651	1.62
879.387	1.62
880.124	0.62
880.86	2.62
881.597	1.62
882.333	1.62
883.069	2.62
883.806	-0.38
884.542	4.62
885.278	0.62
886.014	0.62
886.749	0.62
887.485	1.62
888.221	1.62
888.957	-0.38
889.692	0.62
890.428	1.62
891.163	0.62
891.899	1.62
892.634	-0.38
893.369	0.62
894.104	-1.38
894.839	0.62
895.574	2.62
896.309	1.62
897.044	-0.38
897.779	-0.38
898.514	2.62
899.248	0.62
899.983	-0.38
900.717	2.62
901.452	-1.38
902.186	0.62
902.92	0.62
903.654	-1.38
904.389	0.62
905.123	0.62
905.857	0.62
906.59	-0.38
907.324	-0.38
908.058	0.62
908.792	-1.38
909.525	1.62
910.259	0.62
910.992	-1.38
911.726	-0.38
912.459	0.62
913.192	-1.38
913.925	-1.38
914.658	3.62
915.391	-1.38
916.124	2.62
916.857	1.62
917.59	-1.38
918.323	0.62
919.055	0.62
919.788	-0.38
920.521	2.62
921.253	1.62
921.985	0.62
922.718	0.62
923.45	2.62
924.182	-0.38
924.914	-0.38
925.646	0.62
926.378	2.62
927.11	2.62
927.841	-2.38
928.573	-0.38
929.305	2.62
930.036	-0.38
930.768	-0.38
931.499	-0.38
932.23	0.62
932.962	1.62
933.693	1.62
934.424	-0.38
935.155	2.62
935.886	-0.38
936.617	0.62
937.348	-0.38
938.078	0.62
938.809	1.62
939.54	2.62
940.27	2.62
941.001	0.62
941.731	3.62
942.461	-0.38
943.191	-0.38
943.922	1.62
944.652	-0.38
945.382	0.62
946.112	-0.38
946.841	0.62
947.571	1.62
948.301	3.62
949.031	0.62
949.76	0.62
950.49	-1.38
951.219	2.62
951.948	0.62
952.678	-0.38
953.407	-2.38
954.136	1.62
954.865	-1.38
955.594	-0.38
956.323	0.62
957.052	-0.38
957.78	1.62
958.509	-2.38
959.238	-1.38
959.966	-0.38
960.695	-0.38
961.423	-1.38
962.151	-0.38
962.88	-0.38
963.608	-1.38
964.336	-0.38
965.064	2.62
965.792	-1.38
966.52	0.62
967.247	0.62
967.975	-0.38
968.703	-0.38
969.43	0.62
970.158	1.62
970.885	-0.38
971.613	0.62
972.34	-0.38
973.067	0.62
973.794	1.62
974.521	0.62
975.248	0.62
975.975	1.62
976.702	0.62
977.429	-0.38
978.156	-0.38
978.882	0.62
979.609	1.62
980.335	1.62
981.062	0.62
981.788	0.62
982.514	2.62
983.24	-0.38
983.967	-0.38
984.693	-0.38
985.419	1.62
986.144	0.62
986.87	-1.38
987.596	0.62
988.322	0.62
989.047	2.62
989.773	0.62
990.498	-0.38
991.224	1.62
991.949	-1.38
992.674	1.62
993.399	0.62
994.124	0.62
994.849	-1.38
995.574	-0.38
996.299	0.62
997.024	-2.38
997.749	2.62
998.473	-3.38
999.198	-0.38
999.922	0.62
1000.647	-2.38
1001.371	1.62
1002.095	-0.38
1002.82	-0.38
1003.544	0.62
1004.268	4.62
1004.992	4.62
1005.716	0.62
1006.439	4.62
1007.163	6.62
1007.887	6.62
1008.611	1.62
1009.334	2.62
1010.058	-1.38
1010.781	-2.38
1011.504	0.62
1012.228	0.62
1012.951	-1.38
1013.674	-0.38
1014.397	-1.38
1015.12	1.62
