节点500_705_QEPB04081__24__20-46-17-332.txt的数据

Date: Wed Nov 12 20:46:17 CST 2025
User: PC
Spectrometer: QEPB0408
触发模式: 0
积分时间 (秒): 1.000000E-2
Scans to average: 1
启用暗噪声校正: true
启用非线性校正: false
滑动平均宽度: 0
X轴模式: Wavelengths
Number of Pixels in Spectrum: 1044
>>>>>Begin Spectral Data<<<<<
220.843	5.38
221.644	4.38
222.444	7.38
223.244	5.38
224.045	7.38
224.845	7.38
225.645	8.38
226.445	8.38
227.245	7.38
228.045	10.38
228.845	9.38
229.645	6.38
230.444	8.38
231.244	7.38
232.043	12.38
232.843	7.38
233.642	9.38
234.442	11.38
235.241	10.38
236.04	10.38
236.839	10.38
237.638	12.38
238.437	9.38
239.236	11.38
240.035	12.38
240.833	14.38
241.632	14.38
242.43	13.38
243.229	13.38
244.027	14.38
244.826	13.38
245.624	13.38
246.422	14.38
247.22	17.38
248.018	15.38
248.816	19.38
249.614	15.38
250.412	17.38
251.21	18.38
252.007	16.38
252.805	19.38
253.602	18.38
254.4	21.38
255.197	20.38
255.994	23.38
256.791	21.38
257.589	21.38
258.386	24.38
259.183	21.38
259.979	22.38
260.776	23.38
261.573	21.38
262.37	26.38
263.166	31.38
263.963	27.38
264.759	28.38
265.556	29.38
266.352	30.38
267.148	29.38
267.944	32.38
268.74	29.38
269.536	33.38
270.332	34.38
271.128	34.38
271.924	35.38
272.719	35.38
273.515	34.38
274.311	33.38
275.106	34.38
275.901	35.38
276.697	34.38
277.492	41.38
278.287	38.38
279.082	38.38
279.877	38.38
280.672	35.38
281.467	36.38
282.262	35.38
283.056	38.38
283.851	36.38
284.646	32.38
285.44	41.38
286.234	36.38
287.029	34.38
287.823	34.38
288.617	35.38
289.411	34.38
290.205	32.38
290.999	35.38
291.793	31.38
292.587	31.38
293.381	30.38
294.174	31.38
294.968	30.38
295.761	30.38
296.555	27.38
297.348	23.38
298.141	26.38
298.935	31.38
299.728	21.38
300.521	26.38
301.314	24.38
302.107	21.38
302.899	20.38
303.692	24.38
304.485	22.38
305.277	21.38
306.07	24.38
306.862	23.38
307.655	21.38
308.447	19.38
309.239	18.38
310.031	22.38
310.823	16.38
311.615	19.38
312.407	17.38
313.199	17.38
313.991	15.38
314.783	19.38
315.574	17.38
316.366	15.38
317.157	18.38
317.949	16.38
318.74	15.38
319.531	14.38
320.322	15.38
321.113	15.38
321.904	14.38
322.695	13.38
323.486	15.38
324.277	14.38
325.068	15.38
325.858	13.38
326.649	14.38
327.439	13.38
328.23	9.38
329.02	13.38
329.81	11.38
330.6	12.38
331.391	11.38
332.181	14.38
332.971	15.38
333.76	12.38
334.55	14.38
335.34	10.38
336.13	11.38
336.919	13.38
337.709	13.38
338.498	13.38
339.287	11.38
340.077	13.38
340.866	11.38
341.655	11.38
342.444	11.38
343.233	12.38
344.022	13.38
344.811	12.38
345.6	12.38
346.388	10.38
347.177	13.38
347.965	11.38
348.754	9.38
349.542	12.38
350.33	11.38
351.119	11.38
351.907	12.38
352.695	9.38
353.483	13.38
354.271	11.38
355.059	9.38
355.846	10.38
356.634	13.38
357.422	10.38
358.209	13.38
358.997	11.38
359.784	10.38
360.571	12.38
361.359	10.38
362.146	11.38
362.933	10.38
363.72	9.38
364.507	10.38
365.294	11.38
366.081	10.38
366.867	10.38
367.654	10.38
368.44	10.38
369.227	8.38
370.013	11.38
370.8	11.38
371.586	9.38
372.372	10.38
373.158	10.38
373.944	9.38
374.73	10.38
375.516	11.38
376.302	10.38
377.088	12.38
377.873	9.38
378.659	9.38
379.445	11.38
380.23	9.38
381.015	12.38
381.801	10.38
382.586	12.38
383.371	9.38
384.156	12.38
384.941	10.38
385.726	10.38
386.511	11.38
387.296	12.38
388.08	14.38
388.865	14.38
389.649	11.38
390.434	14.38
391.218	11.38
392.003	10.38
392.787	13.38
393.571	12.38
394.355	15.38
395.139	12.38
395.923	12.38
396.707	15.38
397.491	11.38
398.274	16.38
399.058	11.38
399.842	16.38
400.625	14.38
401.408	17.38
402.192	12.38
402.975	16.38
403.758	13.38
404.541	14.38
405.324	16.38
406.107	17.38
406.89	17.38
407.673	15.38
408.456	17.38
409.238	16.38
410.021	16.38
410.803	22.38
411.586	16.38
412.368	18.38
413.151	19.38
413.933	16.38
414.715	20.38
415.497	18.38
416.279	18.38
417.061	20.38
417.843	20.38
418.624	20.38
419.406	19.38
420.188	24.38
420.969	22.38
421.751	20.38
422.532	24.38
423.313	23.38
424.095	26.38
424.876	24.38
425.657	26.38
426.438	25.38
427.219	24.38
428	25.38
428.78	29.38
429.561	26.38
430.342	30.38
431.122	31.38
431.903	31.38
432.683	33.38
433.464	37.38
434.244	36.38
435.024	39.38
435.804	42.38
436.584	44.38
437.364	43.38
438.144	48.38
438.924	50.38
439.704	49.38
440.483	56.38
441.263	57.38
442.042	61.38
442.822	68.38
443.601	68.38
444.38	74.38
445.16	81.38
445.939	83.38
446.718	95.38
447.497	104.38
448.276	113.38
449.054	119.38
449.833	137.38
450.612	145.38
451.391	162.38
452.169	174.38
452.948	193.38
453.726	217.38
454.504	237.38
455.282	270.38
456.061	297.38
456.839	318.38
457.617	371.38
458.395	411.38
459.172	460.38
459.95	516.38
460.728	578.38
461.506	631.38
462.283	709.38
463.061	799.38
463.838	909.38
464.615	1002.38
465.393	1126.38
466.17	1244.38
466.947	1416.38
467.724	1560.38
468.501	1743.38
469.278	1955.38
470.055	2167.38
470.831	2382.38
471.608	2668.38
472.385	2932.38
473.161	3269.38
473.938	3630.38
474.714	3989.38
475.49	4400.38
476.266	4911.38
477.043	5364.38
477.819	5915.38
478.595	6532.38
479.371	7148.38
480.146	7847.38
480.922	8621.38
481.698	9450.38
482.473	10384.38
483.249	11388.38
484.024	12413.38
484.8	13524.38
485.575	14710.38
486.35	16022.38
487.126	17476.38
487.901	18929.38
488.676	20514.38
489.451	22342.38
490.225	23935.38
491	25879.38
491.775	27706.38
492.55	29619.38
493.324	31640.38
494.099	33538.38
494.873	35479.38
495.647	37503.38
496.422	39506.38
497.196	41332.38
497.97	43019.38
498.744	44581.38
499.518	46093.38
500.292	47411.38
501.066	48193.38
501.839	48909.38
502.613	49334.38
503.387	49737.38
504.16	49929.38
504.934	49580.38
505.707	49096.38
506.48	48341.38
507.253	47446.38
508.027	46440.38
508.8	45042.38
509.573	43683.38
510.346	42260.38
511.118	40956.38
511.891	39515.38
512.664	37808.38
513.437	36244.38
514.209	34754.38
514.982	33264.38
515.754	31893.38
516.526	30489.38
517.298	29148.38
518.071	27999.38
518.843	26912.38
519.615	25779.38
520.387	24727.38
521.159	23760.38
521.93	22749.38
522.702	21755.38
523.474	20819.38
524.245	19951.38
525.017	19057.38
525.788	18146.38
526.56	17355.38
527.331	16532.38
528.102	15695.38
528.873	14879.38
529.644	14104.38
530.415	13408.38
531.186	12700.38
531.957	12013.38
532.728	11378.38
533.498	10786.38
534.269	10165.38
535.039	9625.38
535.81	9123.38
536.58	8573.38
537.351	8122.38
538.121	7676.38
538.891	7286.38
539.661	6882.38
540.431	6494.38
541.201	6215.38
541.971	5866.38
542.741	5541.38
543.51	5253.38
544.28	4987.38
545.05	4759.38
545.819	4541.38
546.588	4316.38
547.358	4114.38
548.127	3907.38
548.896	3708.38
549.665	3518.38
550.434	3325.38
551.203	3136.38
551.972	2996.38
552.741	2826.38
553.51	2642.38
554.278	2512.38
555.047	2339.38
555.815	2218.38
556.584	2106.38
557.352	1985.38
558.121	1897.38
558.889	1774.38
559.657	1678.38
560.425	1593.38
561.193	1499.38
561.961	1411.38
562.729	1341.38
563.496	1266.38
564.264	1194.38
565.032	1139.38
565.799	1072.38
566.567	1018.38
567.334	943.38
568.101	911.38
568.869	856.38
569.636	810.38
570.403	758.38
571.17	721.38
571.937	685.38
572.704	641.38
573.471	607.38
574.237	582.38
575.004	544.38
575.771	499.38
576.537	471.38
577.303	451.38
578.07	426.38
578.836	405.38
579.602	379.38
580.368	362.38
581.134	344.38
581.9	324.38
582.666	308.38
583.432	301.38
584.198	277.38
584.964	273.38
585.729	256.38
586.495	250.38
587.26	228.38
588.025	216.38
588.791	205.38
589.556	193.38
590.321	182.38
591.086	173.38
591.851	166.38
592.616	161.38
593.381	151.38
594.146	148.38
594.911	139.38
595.675	136.38
596.44	128.38
597.204	119.38
597.969	120.38
598.733	111.38
599.497	107.38
600.261	104.38
601.025	101.38
601.79	98.38
602.553	90.38
603.317	85.38
604.081	84.38
604.845	79.38
605.609	76.38
606.372	72.38
607.136	73.38
607.899	72.38
608.662	67.38
609.426	65.38
610.189	60.38
610.952	63.38
611.715	55.38
612.478	58.38
613.241	51.38
614.004	48.38
614.767	50.38
615.529	45.38
616.292	45.38
617.055	44.38
617.817	45.38
618.579	39.38
619.342	44.38
620.104	38.38
620.866	39.38
621.628	39.38
622.39	34.38
623.152	35.38
623.914	34.38
624.676	31.38
625.438	34.38
626.199	29.38
626.961	33.38
627.722	31.38
628.484	27.38
629.245	27.38
630.006	27.38
630.768	24.38
631.529	24.38
632.29	28.38
633.051	27.38
633.812	22.38
634.573	23.38
635.333	23.38
636.094	22.38
636.855	21.38
637.615	20.38
638.376	23.38
639.136	22.38
639.896	22.38
640.657	18.38
641.417	19.38
642.177	18.38
642.937	16.38
643.697	15.38
644.457	15.38
645.216	14.38
645.976	15.38
646.736	18.38
647.495	15.38
648.255	13.38
649.014	13.38
649.774	13.38
650.533	15.38
651.292	13.38
652.051	12.38
652.81	10.38
653.569	12.38
654.328	14.38
655.087	13.38
655.846	13.38
656.604	13.38
657.363	11.38
658.121	13.38
658.88	12.38
659.638	9.38
660.397	12.38
661.155	11.38
661.913	13.38
662.671	10.38
663.429	11.38
664.187	9.38
664.945	11.38
665.703	10.38
666.46	14.38
667.218	7.38
667.976	10.38
668.733	9.38
669.49	11.38
670.248	9.38
671.005	11.38
671.762	9.38
672.519	7.38
673.276	9.38
674.033	9.38
674.79	8.38
675.547	9.38
676.304	8.38
677.06	8.38
677.817	12.38
678.574	9.38
679.33	6.38
680.086	9.38
680.843	9.38
681.599	8.38
682.355	8.38
683.111	9.38
683.867	9.38
684.623	9.38
685.379	9.38
686.135	8.38
686.89	8.38
687.646	9.38
688.402	7.38
689.157	9.38
689.912	6.38
690.668	8.38
691.423	7.38
692.178	9.38
692.933	9.38
693.688	11.38
694.443	8.38
695.198	8.38
695.953	8.38
696.708	8.38
697.462	9.38
698.217	7.38
698.972	8.38
699.726	5.38
700.48	6.38
701.235	6.38
701.989	9.38
702.743	7.38
703.497	6.38
704.251	6.38
705.005	6.38
705.759	7.38
706.513	8.38
707.266	8.38
708.02	10.38
708.774	7.38
709.527	8.38
710.28	9.38
711.034	7.38
711.787	7.38
712.54	7.38
713.293	8.38
714.046	8.38
714.799	8.38
715.552	8.38
716.305	8.38
717.058	9.38
717.81	8.38
718.563	7.38
719.315	7.38
720.068	8.38
720.82	11.38
721.573	8.38
722.325	8.38
723.077	10.38
723.829	10.38
724.581	9.38
725.333	9.38
726.085	7.38
726.836	8.38
727.588	7.38
728.34	9.38
729.091	7.38
729.843	9.38
730.594	10.38
731.346	10.38
732.097	9.38
732.848	8.38
733.599	9.38
734.35	8.38
735.101	8.38
735.852	11.38
736.603	12.38
737.354	9.38
738.104	10.38
738.855	11.38
739.605	10.38
740.356	10.38
741.106	11.38
741.856	9.38
742.607	11.38
743.357	12.38
744.107	9.38
744.857	9.38
745.607	11.38
746.357	11.38
747.106	11.38
747.856	12.38
748.606	12.38
749.355	12.38
750.105	9.38
750.854	11.38
751.603	11.38
752.353	12.38
753.102	13.38
753.851	14.38
754.6	13.38
755.349	12.38
756.098	11.38
756.847	15.38
757.595	15.38
758.344	13.38
759.093	12.38
759.841	13.38
760.589	14.38
761.338	13.38
762.086	13.38
762.834	13.38
763.582	14.38
764.331	12.38
765.079	15.38
765.826	14.38
766.574	15.38
767.322	15.38
768.07	15.38
768.817	17.38
769.565	15.38
770.312	16.38
771.06	14.38
771.807	15.38
772.554	16.38
773.302	18.38
774.049	15.38
774.796	15.38
775.543	17.38
776.29	17.38
777.036	16.38
777.783	16.38
778.53	17.38
779.276	16.38
780.023	20.38
780.769	16.38
781.516	17.38
782.262	17.38
783.008	15.38
783.754	18.38
784.5	14.38
785.246	19.38
785.992	18.38
786.738	16.38
787.484	17.38
788.23	16.38
788.975	15.38
789.721	15.38
790.466	15.38
791.212	17.38
791.957	15.38
792.702	12.38
793.447	13.38
794.193	16.38
794.938	14.38
795.683	15.38
796.427	14.38
797.172	15.38
797.917	14.38
798.662	13.38
799.406	11.38
800.151	13.38
800.895	10.38
801.64	12.38
802.384	12.38
803.128	10.38
803.872	13.38
804.616	13.38
805.36	10.38
806.104	9.38
806.848	10.38
807.592	12.38
808.336	11.38
809.079	10.38
809.823	11.38
810.566	8.38
811.31	9.38
812.053	9.38
812.796	7.38
813.539	11.38
814.283	8.38
815.026	9.38
815.769	9.38
816.511	3.38
817.254	10.38
817.997	8.38
818.74	7.38
819.482	8.38
820.225	6.38
820.967	7.38
821.71	6.38
822.452	8.38
823.194	6.38
823.936	8.38
824.678	6.38
825.42	6.38
826.162	7.38
826.904	6.38
827.646	5.38
828.388	9.38
829.129	7.38
829.871	5.38
830.612	5.38
831.354	6.38
832.095	3.38
832.836	7.38
833.577	4.38
834.319	6.38
835.06	5.38
835.801	3.38
836.542	7.38
837.282	5.38
838.023	4.38
838.764	6.38
839.504	8.38
840.245	8.38
840.985	3.38
841.726	7.38
842.466	5.38
843.206	4.38
843.946	7.38
844.687	4.38
845.427	6.38
846.166	5.38
846.906	5.38
847.646	5.38
848.386	5.38
849.125	4.38
849.865	2.38
850.605	5.38
851.344	2.38
852.083	6.38
852.823	5.38
853.562	4.38
854.301	4.38
855.04	3.38
855.779	5.38
856.518	2.38
857.257	2.38
857.995	2.38
858.734	4.38
859.473	3.38
860.211	4.38
860.95	1.38
861.688	3.38
862.426	4.38
863.165	2.38
863.903	3.38
864.641	4.38
865.379	3.38
866.117	3.38
866.855	2.38
867.593	2.38
868.33	4.38
869.068	1.38
869.806	2.38
870.543	5.38
871.28	2.38
872.018	3.38
872.755	2.38
873.492	0.38
874.229	2.38
874.967	3.38
875.703	1.38
876.44	1.38
877.177	1.38
877.914	0.38
878.651	1.38
879.387	1.38
880.124	2.38
880.86	1.38
881.597	1.38
882.333	4.38
883.069	1.38
883.806	2.38
884.542	1.38
885.278	2.38
886.014	0.38
886.749	0.38
887.485	2.38
888.221	2.38
888.957	4.38
889.692	2.38
890.428	0.38
891.163	0.38
891.899	0.38
892.634	1.38
893.369	1.38
894.104	1.38
894.839	2.38
895.574	-0.62
896.309	2.38
897.044	1.38
897.779	2.38
898.514	1.38
899.248	0.38
899.983	-0.62
900.717	1.38
901.452	1.38
902.186	0.38
902.92	1.38
903.654	-0.62
904.389	0.38
905.123	1.38
905.857	-0.62
906.59	3.38
907.324	2.38
908.058	1.38
908.792	0.38
909.525	1.38
910.259	1.38
910.992	2.38
911.726	1.38
912.459	1.38
913.192	0.38
913.925	1.38
914.658	1.38
915.391	0.38
916.124	2.38
916.857	3.38
917.59	3.38
918.323	1.38
919.055	2.38
919.788	-0.62
920.521	0.38
921.253	-0.62
921.985	0.38
922.718	0.38
923.45	2.38
924.182	1.38
924.914	-0.62
925.646	-0.62
926.378	1.38
927.11	-0.62
927.841	3.38
928.573	-0.62
929.305	2.38
930.036	1.38
930.768	-0.62
931.499	1.38
932.23	3.38
932.962	3.38
933.693	-0.62
934.424	1.38
935.155	-2.62
935.886	-0.62
936.617	-0.62
937.348	1.38
938.078	0.38
938.809	-0.62
939.54	0.38
940.27	0.38
941.001	0.38
941.731	0.38
942.461	-1.62
943.191	0.38
943.922	0.38
944.652	1.38
945.382	0.38
946.112	2.38
946.841	0.38
947.571	1.38
948.301	2.38
949.031	-0.62
949.76	-0.62
950.49	2.38
951.219	-2.62
951.948	0.38
952.678	0.38
953.407	-0.62
954.136	1.38
954.865	2.38
955.594	-0.62
956.323	-0.62
957.052	2.38
957.78	-0.62
958.509	3.38
959.238	2.38
959.966	1.38
960.695	1.38
961.423	-0.62
962.151	0.38
962.88	-0.62
963.608	-0.62
964.336	3.38
965.064	1.38
965.792	2.38
966.52	-0.62
967.247	0.38
967.975	2.38
968.703	-1.62
969.43	0.38
970.158	1.38
970.885	1.38
971.613	0.38
972.34	1.38
973.067	0.38
973.794	1.38
974.521	0.38
975.248	-0.62
975.975	1.38
976.702	-0.62
977.429	-0.62
978.156	1.38
978.882	0.38
979.609	1.38
980.335	1.38
981.062	0.38
981.788	2.38
982.514	-0.62
983.24	-0.62
983.967	1.38
984.693	-1.62
985.419	1.38
986.144	1.38
986.87	2.38
987.596	3.38
988.322	-0.62
989.047	0.38
989.773	1.38
990.498	0.38
991.224	2.38
991.949	-0.62
992.674	-0.62
993.399	0.38
994.124	-0.62
994.849	0.38
995.574	-0.62
996.299	-1.62
997.024	-0.62
997.749	1.38
998.473	1.38
999.198	0.38
999.922	1.38
1000.647	2.38
1001.371	4.38
1002.095	-1.62
1002.82	0.38
1003.544	-0.62
1004.268	5.38
1004.992	4.38
1005.716	7.38
1006.439	4.38
1007.163	6.38
1007.887	4.38
1008.611	3.38
1009.334	1.38
1010.058	1.38
1010.781	0.38
1011.504	-0.62
1012.228	0.38
1012.951	-0.62
1013.674	-0.62
1014.397	-0.62
1015.12	-0.62
