节点500_705_QEPB04081__396__20-51-33-630.txt的数据

Date: Wed Nov 12 20:51:33 CST 2025
User: PC
Spectrometer: QEPB0408
触发模式: 0
积分时间 (秒): 1.000000E-2
Scans to average: 1
启用暗噪声校正: true
启用非线性校正: false
滑动平均宽度: 0
X轴模式: Wavelengths
Number of Pixels in Spectrum: 1044
>>>>>Begin Spectral Data<<<<<
220.843	5.5
221.644	6.5
222.444	7.5
223.244	4.5
224.045	6.5
224.845	10.5
225.645	9.5
226.445	6.5
227.245	9.5
228.045	9.5
228.845	8.5
229.645	5.5
230.444	8.5
231.244	9.5
232.043	10.5
232.843	8.5
233.642	7.5
234.442	10.5
235.241	11.5
236.04	11.5
236.839	12.5
237.638	8.5
238.437	12.5
239.236	11.5
240.035	14.5
240.833	14.5
241.632	13.5
242.43	13.5
243.229	13.5
244.027	15.5
244.826	12.5
245.624	13.5
246.422	14.5
247.22	16.5
248.018	15.5
248.816	13.5
249.614	18.5
250.412	15.5
251.21	16.5
252.007	17.5
252.805	15.5
253.602	23.5
254.4	16.5
255.197	17.5
255.994	18.5
256.791	18.5
257.589	19.5
258.386	17.5
259.183	22.5
259.979	19.5
260.776	24.5
261.573	22.5
262.37	20.5
263.166	26.5
263.963	26.5
264.759	25.5
265.556	26.5
266.352	26.5
267.148	31.5
267.944	26.5
268.74	29.5
269.536	31.5
270.332	32.5
271.128	30.5
271.924	31.5
272.719	32.5
273.515	31.5
274.311	30.5
275.106	31.5
275.901	30.5
276.697	30.5
277.492	30.5
278.287	30.5
279.082	36.5
279.877	35.5
280.672	32.5
281.467	33.5
282.262	34.5
283.056	37.5
283.851	35.5
284.646	32.5
285.44	34.5
286.234	32.5
287.029	34.5
287.823	35.5
288.617	32.5
289.411	33.5
290.205	32.5
290.999	32.5
291.793	32.5
292.587	29.5
293.381	32.5
294.174	31.5
294.968	30.5
295.761	28.5
296.555	26.5
297.348	27.5
298.141	24.5
298.935	27.5
299.728	27.5
300.521	27.5
301.314	25.5
302.107	21.5
302.899	24.5
303.692	24.5
304.485	22.5
305.277	26.5
306.07	23.5
306.862	22.5
307.655	21.5
308.447	21.5
309.239	20.5
310.031	22.5
310.823	19.5
311.615	16.5
312.407	20.5
313.199	17.5
313.991	17.5
314.783	16.5
315.574	16.5
316.366	14.5
317.157	15.5
317.949	17.5
318.74	15.5
319.531	14.5
320.322	13.5
321.113	13.5
321.904	15.5
322.695	13.5
323.486	11.5
324.277	15.5
325.068	12.5
325.858	16.5
326.649	11.5
327.439	15.5
328.23	13.5
329.02	13.5
329.81	12.5
330.6	11.5
331.391	13.5
332.181	13.5
332.971	14.5
333.76	12.5
334.55	13.5
335.34	12.5
336.13	12.5
336.919	11.5
337.709	11.5
338.498	11.5
339.287	13.5
340.077	13.5
340.866	12.5
341.655	12.5
342.444	11.5
343.233	11.5
344.022	15.5
344.811	13.5
345.6	12.5
346.388	12.5
347.177	11.5
347.965	13.5
348.754	11.5
349.542	10.5
350.33	12.5
351.119	8.5
351.907	12.5
352.695	9.5
353.483	12.5
354.271	11.5
355.059	12.5
355.846	12.5
356.634	14.5
357.422	10.5
358.209	11.5
358.997	9.5
359.784	9.5
360.571	7.5
361.359	13.5
362.146	10.5
362.933	12.5
363.72	7.5
364.507	8.5
365.294	9.5
366.081	10.5
366.867	9.5
367.654	11.5
368.44	8.5
369.227	10.5
370.013	9.5
370.8	11.5
371.586	11.5
372.372	11.5
373.158	10.5
373.944	8.5
374.73	9.5
375.516	10.5
376.302	11.5
377.088	11.5
377.873	12.5
378.659	8.5
379.445	9.5
380.23	9.5
381.015	8.5
381.801	12.5
382.586	11.5
383.371	8.5
384.156	10.5
384.941	10.5
385.726	11.5
386.511	9.5
387.296	11.5
388.08	11.5
388.865	12.5
389.649	14.5
390.434	11.5
391.218	10.5
392.003	12.5
392.787	11.5
393.571	14.5
394.355	11.5
395.139	14.5
395.923	14.5
396.707	16.5
397.491	11.5
398.274	11.5
399.058	13.5
399.842	11.5
400.625	13.5
401.408	12.5
402.192	13.5
402.975	16.5
403.758	14.5
404.541	14.5
405.324	16.5
406.107	18.5
406.89	15.5
407.673	16.5
408.456	17.5
409.238	14.5
410.021	15.5
410.803	18.5
411.586	14.5
412.368	18.5
413.151	20.5
413.933	18.5
414.715	20.5
415.497	19.5
416.279	17.5
417.061	17.5
417.843	19.5
418.624	15.5
419.406	18.5
420.188	20.5
420.969	19.5
421.751	23.5
422.532	22.5
423.313	22.5
424.095	24.5
424.876	25.5
425.657	24.5
426.438	25.5
427.219	26.5
428	25.5
428.78	27.5
429.561	30.5
430.342	30.5
431.122	31.5
431.903	32.5
432.683	34.5
433.464	38.5
434.244	36.5
435.024	37.5
435.804	40.5
436.584	43.5
437.364	44.5
438.144	51.5
438.924	55.5
439.704	53.5
440.483	59.5
441.263	62.5
442.042	61.5
442.822	71.5
443.601	72.5
444.38	86.5
445.16	88.5
445.939	95.5
446.718	102.5
447.497	116.5
448.276	126.5
449.054	135.5
449.833	151.5
450.612	162.5
451.391	179.5
452.169	205.5
452.948	221.5
453.726	247.5
454.504	279.5
455.282	304.5
456.061	336.5
456.839	379.5
457.617	416.5
458.395	477.5
459.172	531.5
459.95	578.5
460.728	644.5
461.506	717.5
462.283	808.5
463.061	892.5
463.838	991.5
464.615	1099.5
465.393	1228.5
466.17	1379.5
466.947	1516.5
467.724	1697.5
468.501	1864.5
469.278	2061.5
470.055	2290.5
470.831	2496.5
471.608	2767.5
472.385	3062.5
473.161	3347.5
473.938	3678.5
474.714	4013.5
475.49	4428.5
476.266	4854.5
477.043	5300.5
477.819	5797.5
478.595	6306.5
479.371	6902.5
480.146	7528.5
480.922	8198.5
481.698	8896.5
482.473	9671.5
483.249	10480.5
484.024	11403.5
484.8	12297.5
485.575	13359.5
486.35	14447.5
487.126	15725.5
487.901	16878.5
488.676	18145.5
489.451	19624.5
490.225	21098.5
491	22596.5
491.775	24158.5
492.55	25801.5
493.324	27551.5
494.099	29238.5
494.873	31007.5
495.647	32701.5
496.422	34505.5
497.196	36178.5
497.97	37789.5
498.744	39392.5
499.518	40879.5
500.292	42253.5
501.066	43381.5
501.839	44275.5
502.613	45104.5
503.387	45820.5
504.16	46203.5
504.934	46424.5
505.707	46450.5
506.48	46159.5
507.253	45811.5
508.027	45203.5
508.8	44314.5
509.573	43325.5
510.346	42429.5
511.118	41391.5
511.891	40288.5
512.664	38812.5
513.437	37431.5
514.209	35979.5
514.982	34590.5
515.754	33249.5
516.526	31983.5
517.298	30721.5
518.071	29554.5
518.843	28369.5
519.615	27201.5
520.387	26110.5
521.159	25092.5
521.93	24050.5
522.702	22995.5
523.474	22024.5
524.245	21220.5
525.017	20269.5
525.788	19355.5
526.56	18626.5
527.331	17787.5
528.102	16897.5
528.873	16081.5
529.644	15343.5
530.415	14608.5
531.186	13911.5
531.957	13174.5
532.728	12505.5
533.498	11814.5
534.269	11235.5
535.039	10655.5
535.81	10054.5
536.58	9547.5
537.351	9027.5
538.121	8544.5
538.891	8070.5
539.661	7662.5
540.431	7232.5
541.201	6864.5
541.971	6522.5
542.741	6159.5
543.51	5858.5
544.28	5579.5
545.05	5324.5
545.819	5066.5
546.588	4813.5
547.358	4591.5
548.127	4378.5
548.896	4156.5
549.665	3937.5
550.434	3724.5
551.203	3537.5
551.972	3381.5
552.741	3195.5
553.51	3002.5
554.278	2825.5
555.047	2671.5
555.815	2527.5
556.584	2377.5
557.352	2252.5
558.121	2144.5
558.889	2017.5
559.657	1916.5
560.425	1797.5
561.193	1691.5
561.961	1620.5
562.729	1527.5
563.496	1445.5
564.264	1366.5
565.032	1288.5
565.799	1234.5
566.567	1152.5
567.334	1088.5
568.101	1023.5
568.869	984.5
569.636	909.5
570.403	864.5
571.17	811.5
571.937	775.5
572.704	731.5
573.471	688.5
574.237	645.5
575.004	619.5
575.771	582.5
576.537	553.5
577.303	513.5
578.07	491.5
578.836	463.5
579.602	435.5
580.368	413.5
581.134	390.5
581.9	371.5
582.666	356.5
583.432	337.5
584.198	321.5
584.964	306.5
585.729	291.5
586.495	276.5
587.26	259.5
588.025	243.5
588.791	236.5
589.556	221.5
590.321	213.5
591.086	201.5
591.851	194.5
592.616	180.5
593.381	169.5
594.146	163.5
594.911	157.5
595.675	153.5
596.44	146.5
597.204	136.5
597.969	131.5
598.733	126.5
599.497	122.5
600.261	117.5
601.025	113.5
601.79	108.5
602.553	104.5
603.317	95.5
604.081	91.5
604.845	90.5
605.609	88.5
606.372	78.5
607.136	77.5
607.899	72.5
608.662	71.5
609.426	72.5
610.189	67.5
610.952	65.5
611.715	62.5
612.478	60.5
613.241	55.5
614.004	57.5
614.767	52.5
615.529	51.5
616.292	51.5
617.055	51.5
617.817	48.5
618.579	50.5
619.342	47.5
620.104	43.5
620.866	40.5
621.628	40.5
622.39	39.5
623.152	38.5
623.914	37.5
624.676	36.5
625.438	34.5
626.199	31.5
626.961	31.5
627.722	27.5
628.484	29.5
629.245	27.5
630.006	30.5
630.768	27.5
631.529	27.5
632.29	27.5
633.051	26.5
633.812	25.5
634.573	25.5
635.333	24.5
636.094	25.5
636.855	22.5
637.615	21.5
638.376	20.5
639.136	19.5
639.896	19.5
640.657	18.5
641.417	19.5
642.177	16.5
642.937	16.5
643.697	17.5
644.457	19.5
645.216	17.5
645.976	18.5
646.736	17.5
647.495	17.5
648.255	18.5
649.014	18.5
649.774	14.5
650.533	15.5
651.292	15.5
652.051	15.5
652.81	13.5
653.569	13.5
654.328	12.5
655.087	12.5
655.846	15.5
656.604	12.5
657.363	13.5
658.121	10.5
658.88	12.5
659.638	13.5
660.397	11.5
661.155	11.5
661.913	12.5
662.671	11.5
663.429	11.5
664.187	11.5
664.945	12.5
665.703	10.5
666.46	10.5
667.218	11.5
667.976	11.5
668.733	11.5
669.49	8.5
670.248	10.5
671.005	11.5
671.762	10.5
672.519	11.5
673.276	10.5
674.033	9.5
674.79	7.5
675.547	8.5
676.304	9.5
677.06	10.5
677.817	8.5
678.574	10.5
679.33	7.5
680.086	9.5
680.843	9.5
681.599	10.5
682.355	10.5
683.111	7.5
683.867	9.5
684.623	8.5
685.379	11.5
686.135	9.5
686.89	8.5
687.646	6.5
688.402	9.5
689.157	8.5
689.912	7.5
690.668	7.5
691.423	9.5
692.178	10.5
692.933	8.5
693.688	7.5
694.443	7.5
695.198	10.5
695.953	7.5
696.708	6.5
697.462	6.5
698.217	7.5
698.972	6.5
699.726	9.5
700.48	6.5
701.235	9.5
701.989	8.5
702.743	8.5
703.497	8.5
704.251	9.5
705.005	8.5
705.759	10.5
706.513	8.5
707.266	9.5
708.02	6.5
708.774	7.5
709.527	6.5
710.28	7.5
711.034	9.5
711.787	6.5
712.54	10.5
713.293	8.5
714.046	6.5
714.799	8.5
715.552	8.5
716.305	6.5
717.058	9.5
717.81	7.5
718.563	7.5
719.315	8.5
720.068	7.5
720.82	8.5
721.573	7.5
722.325	10.5
723.077	8.5
723.829	8.5
724.581	8.5
725.333	8.5
726.085	8.5
726.836	8.5
727.588	7.5
728.34	11.5
729.091	6.5
729.843	9.5
730.594	8.5
731.346	9.5
732.097	8.5
732.848	9.5
733.599	10.5
734.35	9.5
735.101	11.5
735.852	7.5
736.603	9.5
737.354	11.5
738.104	10.5
738.855	10.5
739.605	9.5
740.356	11.5
741.106	9.5
741.856	9.5
742.607	10.5
743.357	10.5
744.107	11.5
744.857	9.5
745.607	11.5
746.357	10.5
747.106	10.5
747.856	12.5
748.606	12.5
749.355	11.5
750.105	11.5
750.854	9.5
751.603	11.5
752.353	11.5
753.102	10.5
753.851	11.5
754.6	10.5
755.349	15.5
756.098	11.5
756.847	11.5
757.595	12.5
758.344	11.5
759.093	13.5
759.841	13.5
760.589	11.5
761.338	11.5
762.086	10.5
762.834	12.5
763.582	15.5
764.331	11.5
765.079	11.5
765.826	14.5
766.574	13.5
767.322	16.5
768.07	12.5
768.817	13.5
769.565	14.5
770.312	15.5
771.06	15.5
771.807	16.5
772.554	14.5
773.302	12.5
774.049	13.5
774.796	18.5
775.543	12.5
776.29	15.5
777.036	14.5
777.783	18.5
778.53	15.5
779.276	15.5
780.023	15.5
780.769	16.5
781.516	17.5
782.262	14.5
783.008	14.5
783.754	15.5
784.5	17.5
785.246	17.5
785.992	15.5
786.738	17.5
787.484	13.5
788.23	14.5
788.975	15.5
789.721	13.5
790.466	16.5
791.212	15.5
791.957	17.5
792.702	16.5
793.447	13.5
794.193	14.5
794.938	15.5
795.683	14.5
796.427	14.5
797.172	11.5
797.917	15.5
798.662	12.5
799.406	16.5
800.151	15.5
800.895	14.5
801.64	13.5
802.384	10.5
803.128	10.5
803.872	11.5
804.616	13.5
805.36	8.5
806.104	10.5
806.848	13.5
807.592	9.5
808.336	11.5
809.079	12.5
809.823	9.5
810.566	8.5
811.31	8.5
812.053	8.5
812.796	10.5
813.539	11.5
814.283	9.5
815.026	8.5
815.769	8.5
816.511	5.5
817.254	9.5
817.997	8.5
818.74	7.5
819.482	8.5
820.225	8.5
820.967	10.5
821.71	8.5
822.452	7.5
823.194	9.5
823.936	8.5
824.678	8.5
825.42	8.5
826.162	9.5
826.904	8.5
827.646	7.5
828.388	6.5
829.129	4.5
829.871	7.5
830.612	6.5
831.354	5.5
832.095	7.5
832.836	8.5
833.577	5.5
834.319	6.5
835.06	6.5
835.801	5.5
836.542	6.5
837.282	8.5
838.023	7.5
838.764	8.5
839.504	2.5
840.245	6.5
840.985	5.5
841.726	6.5
842.466	5.5
843.206	4.5
843.946	7.5
844.687	2.5
845.427	5.5
846.166	7.5
846.906	6.5
847.646	3.5
848.386	3.5
849.125	6.5
849.865	5.5
850.605	6.5
851.344	5.5
852.083	4.5
852.823	5.5
853.562	2.5
854.301	4.5
855.04	4.5
855.779	3.5
856.518	3.5
857.257	3.5
857.995	3.5
858.734	1.5
859.473	5.5
860.211	2.5
860.95	3.5
861.688	3.5
862.426	3.5
863.165	6.5
863.903	3.5
864.641	2.5
865.379	5.5
866.117	3.5
866.855	3.5
867.593	3.5
868.33	3.5
869.068	4.5
869.806	3.5
870.543	5.5
871.28	2.5
872.018	3.5
872.755	3.5
873.492	2.5
874.229	3.5
874.967	4.5
875.703	3.5
876.44	1.5
877.177	1.5
877.914	1.5
878.651	3.5
879.387	2.5
880.124	1.5
880.86	2.5
881.597	1.5
882.333	3.5
883.069	1.5
883.806	2.5
884.542	-0.5
885.278	2.5
886.014	4.5
886.749	0.5
887.485	3.5
888.221	3.5
888.957	0.5
889.692	-0.5
890.428	4.5
891.163	2.5
891.899	2.5
892.634	0.5
893.369	2.5
894.104	2.5
894.839	1.5
895.574	0.5
896.309	2.5
897.044	3.5
897.779	0.5
898.514	0.5
899.248	-0.5
899.983	1.5
900.717	1.5
901.452	2.5
902.186	2.5
902.92	1.5
903.654	1.5
904.389	1.5
905.123	2.5
905.857	0.5
906.59	2.5
907.324	-0.5
908.058	2.5
908.792	2.5
909.525	3.5
910.259	1.5
910.992	2.5
911.726	-0.5
912.459	3.5
913.192	1.5
913.925	2.5
914.658	0.5
915.391	-0.5
916.124	-0.5
916.857	0.5
917.59	0.5
918.323	-0.5
919.055	2.5
919.788	0.5
920.521	1.5
921.253	-1.5
921.985	0.5
922.718	2.5
923.45	-0.5
924.182	0.5
924.914	3.5
925.646	-0.5
926.378	2.5
927.11	1.5
927.841	-0.5
928.573	-0.5
929.305	0.5
930.036	1.5
930.768	0.5
931.499	2.5
932.23	1.5
932.962	0.5
933.693	-0.5
934.424	2.5
935.155	2.5
935.886	0.5
936.617	-0.5
937.348	1.5
938.078	2.5
938.809	-0.5
939.54	-0.5
940.27	2.5
941.001	-0.5
941.731	2.5
942.461	2.5
943.191	1.5
943.922	1.5
944.652	-1.5
945.382	1.5
946.112	-0.5
946.841	-0.5
947.571	2.5
948.301	2.5
949.031	0.5
949.76	-1.5
950.49	-0.5
951.219	1.5
951.948	1.5
952.678	2.5
953.407	-0.5
954.136	-0.5
954.865	-1.5
955.594	0.5
956.323	2.5
957.052	1.5
957.78	0.5
958.509	1.5
959.238	0.5
959.966	-2.5
960.695	-0.5
961.423	0.5
962.151	0.5
962.88	0.5
963.608	-0.5
964.336	-0.5
965.064	0.5
965.792	1.5
966.52	1.5
967.247	-0.5
967.975	0.5
968.703	0.5
969.43	-0.5
970.158	-0.5
970.885	0.5
971.613	-0.5
972.34	0.5
973.067	2.5
973.794	2.5
974.521	0.5
975.248	0.5
975.975	-0.5
976.702	-0.5
977.429	-0.5
978.156	1.5
978.882	2.5
979.609	0.5
980.335	0.5
981.062	1.5
981.788	1.5
982.514	0.5
983.24	-0.5
983.967	-0.5
984.693	0.5
985.419	0.5
986.144	1.5
986.87	1.5
987.596	1.5
988.322	-0.5
989.047	2.5
989.773	1.5
990.498	1.5
991.224	1.5
991.949	1.5
992.674	1.5
993.399	1.5
994.124	2.5
994.849	0.5
995.574	1.5
996.299	0.5
997.024	0.5
997.749	-0.5
998.473	0.5
999.198	1.5
999.922	0.5
1000.647	0.5
1001.371	4.5
1002.095	-0.5
1002.82	-1.5
1003.544	-3.5
1004.268	4.5
1004.992	4.5
1005.716	7.5
1006.439	3.5
1007.163	6.5
1007.887	4.5
1008.611	0.5
1009.334	1.5
1010.058	1.5
1010.781	-2.5
1011.504	0.5
1012.228	1.5
1012.951	-0.5
1013.674	2.5
1014.397	-0.5
1015.12	-0.5
