节点500_705_QEPB04081__100__20-47-33-187.txt的数据

Date: Wed Nov 12 20:47:33 CST 2025
User: PC
Spectrometer: QEPB0408
触发模式: 0
积分时间 (秒): 1.000000E-2
Scans to average: 1
启用暗噪声校正: true
启用非线性校正: false
滑动平均宽度: 0
X轴模式: Wavelengths
Number of Pixels in Spectrum: 1044
>>>>>Begin Spectral Data<<<<<
220.843	6.25
221.644	5.25
222.444	5.25
223.244	6.25
224.045	4.25
224.845	6.25
225.645	3.25
226.445	7.25
227.245	7.25
228.045	8.25
228.845	9.25
229.645	8.25
230.444	8.25
231.244	7.25
232.043	9.25
232.843	12.25
233.642	11.25
234.442	9.25
235.241	10.25
236.04	11.25
236.839	8.25
237.638	13.25
238.437	10.25
239.236	12.25
240.035	12.25
240.833	12.25
241.632	12.25
242.43	14.25
243.229	12.25
244.027	14.25
244.826	14.25
245.624	13.25
246.422	13.25
247.22	13.25
248.018	14.25
248.816	16.25
249.614	14.25
250.412	14.25
251.21	15.25
252.007	19.25
252.805	19.25
253.602	16.25
254.4	17.25
255.197	19.25
255.994	21.25
256.791	21.25
257.589	21.25
258.386	22.25
259.183	21.25
259.979	21.25
260.776	24.25
261.573	22.25
262.37	25.25
263.166	24.25
263.963	25.25
264.759	24.25
265.556	29.25
266.352	30.25
267.148	27.25
267.944	30.25
268.74	31.25
269.536	31.25
270.332	32.25
271.128	36.25
271.924	32.25
272.719	33.25
273.515	33.25
274.311	34.25
275.106	33.25
275.901	35.25
276.697	37.25
277.492	35.25
278.287	34.25
279.082	36.25
279.877	35.25
280.672	35.25
281.467	36.25
282.262	36.25
283.056	35.25
283.851	35.25
284.646	35.25
285.44	33.25
286.234	31.25
287.029	36.25
287.823	34.25
288.617	32.25
289.411	35.25
290.205	33.25
290.999	32.25
291.793	30.25
292.587	30.25
293.381	30.25
294.174	28.25
294.968	30.25
295.761	24.25
296.555	28.25
297.348	25.25
298.141	25.25
298.935	29.25
299.728	26.25
300.521	26.25
301.314	23.25
302.107	24.25
302.899	23.25
303.692	21.25
304.485	21.25
305.277	22.25
306.07	22.25
306.862	19.25
307.655	20.25
308.447	22.25
309.239	22.25
310.031	19.25
310.823	18.25
311.615	16.25
312.407	17.25
313.199	18.25
313.991	14.25
314.783	14.25
315.574	19.25
316.366	16.25
317.157	13.25
317.949	14.25
318.74	16.25
319.531	16.25
320.322	11.25
321.113	11.25
321.904	15.25
322.695	13.25
323.486	13.25
324.277	14.25
325.068	14.25
325.858	13.25
326.649	12.25
327.439	13.25
328.23	14.25
329.02	12.25
329.81	12.25
330.6	13.25
331.391	11.25
332.181	12.25
332.971	13.25
333.76	11.25
334.55	13.25
335.34	14.25
336.13	15.25
336.919	13.25
337.709	11.25
338.498	14.25
339.287	11.25
340.077	12.25
340.866	12.25
341.655	12.25
342.444	11.25
343.233	11.25
344.022	10.25
344.811	10.25
345.6	11.25
346.388	12.25
347.177	11.25
347.965	12.25
348.754	12.25
349.542	13.25
350.33	11.25
351.119	12.25
351.907	11.25
352.695	9.25
353.483	11.25
354.271	7.25
355.059	12.25
355.846	10.25
356.634	12.25
357.422	10.25
358.209	11.25
358.997	11.25
359.784	11.25
360.571	10.25
361.359	11.25
362.146	10.25
362.933	10.25
363.72	10.25
364.507	12.25
365.294	9.25
366.081	8.25
366.867	11.25
367.654	8.25
368.44	11.25
369.227	8.25
370.013	10.25
370.8	11.25
371.586	9.25
372.372	10.25
373.158	10.25
373.944	8.25
374.73	9.25
375.516	10.25
376.302	7.25
377.088	9.25
377.873	7.25
378.659	7.25
379.445	10.25
380.23	11.25
381.015	11.25
381.801	9.25
382.586	8.25
383.371	11.25
384.156	11.25
384.941	12.25
385.726	11.25
386.511	11.25
387.296	11.25
388.08	10.25
388.865	10.25
389.649	13.25
390.434	11.25
391.218	11.25
392.003	10.25
392.787	12.25
393.571	11.25
394.355	15.25
395.139	11.25
395.923	11.25
396.707	13.25
397.491	10.25
398.274	14.25
399.058	12.25
399.842	13.25
400.625	12.25
401.408	13.25
402.192	15.25
402.975	14.25
403.758	13.25
404.541	13.25
405.324	13.25
406.107	15.25
406.89	14.25
407.673	15.25
408.456	16.25
409.238	17.25
410.021	16.25
410.803	16.25
411.586	18.25
412.368	17.25
413.151	21.25
413.933	16.25
414.715	18.25
415.497	18.25
416.279	19.25
417.061	23.25
417.843	18.25
418.624	17.25
419.406	22.25
420.188	20.25
420.969	21.25
421.751	20.25
422.532	23.25
423.313	20.25
424.095	22.25
424.876	22.25
425.657	26.25
426.438	24.25
427.219	27.25
428	28.25
428.78	30.25
429.561	30.25
430.342	29.25
431.122	31.25
431.903	33.25
432.683	32.25
433.464	39.25
434.244	37.25
435.024	41.25
435.804	42.25
436.584	40.25
437.364	43.25
438.144	45.25
438.924	50.25
439.704	53.25
440.483	56.25
441.263	56.25
442.042	63.25
442.822	62.25
443.601	73.25
444.38	77.25
445.16	81.25
445.939	92.25
446.718	95.25
447.497	100.25
448.276	111.25
449.054	128.25
449.833	134.25
450.612	147.25
451.391	160.25
452.169	180.25
452.948	196.25
453.726	219.25
454.504	247.25
455.282	262.25
456.061	299.25
456.839	337.25
457.617	367.25
458.395	423.25
459.172	468.25
459.95	525.25
460.728	581.25
461.506	655.25
462.283	724.25
463.061	818.25
463.838	907.25
464.615	1025.25
465.393	1115.25
466.17	1261.25
466.947	1394.25
467.724	1549.25
468.501	1747.25
469.278	1926.25
470.055	2156.25
470.831	2385.25
471.608	2646.25
472.385	2926.25
473.161	3221.25
473.938	3566.25
474.714	3975.25
475.49	4336.25
476.266	4759.25
477.043	5271.25
477.819	5782.25
478.595	6338.25
479.371	6960.25
480.146	7589.25
480.922	8373.25
481.698	9127.25
482.473	10012.25
483.249	10892.25
484.024	11871.25
484.8	12987.25
485.575	14134.25
486.35	15362.25
487.126	16714.25
487.901	18056.25
488.676	19585.25
489.451	21204.25
490.225	22795.25
491	24483.25
491.775	26289.25
492.55	28168.25
493.324	29977.25
494.099	31848.25
494.873	33796.25
495.647	35642.25
496.422	37469.25
497.196	39344.25
497.97	41001.25
498.744	42447.25
499.518	44018.25
500.292	45177.25
501.066	46096.25
501.839	46880.25
502.613	47505.25
503.387	47873.25
504.16	48125.25
504.934	47985.25
505.707	47656.25
506.48	46922.25
507.253	46280.25
508.027	45274.25
508.8	44136.25
509.573	42894.25
510.346	41546.25
511.118	40426.25
511.891	38994.25
512.664	37423.25
513.437	35933.25
514.209	34392.25
514.982	33026.25
515.754	31608.25
516.526	30335.25
517.298	29040.25
518.071	27861.25
518.843	26710.25
519.615	25669.25
520.387	24637.25
521.159	23642.25
521.93	22659.25
522.702	21717.25
523.474	20764.25
524.245	19841.25
525.017	18940.25
525.788	18108.25
526.56	17296.25
527.331	16515.25
528.102	15624.25
528.873	14851.25
529.644	14114.25
530.415	13412.25
531.186	12739.25
531.957	12056.25
532.728	11446.25
533.498	10793.25
534.269	10240.25
535.039	9685.25
535.81	9157.25
536.58	8598.25
537.351	8175.25
538.121	7739.25
538.891	7358.25
539.661	6918.25
540.431	6542.25
541.201	6239.25
541.971	5861.25
542.741	5591.25
543.51	5298.25
544.28	5055.25
545.05	4819.25
545.819	4568.25
546.588	4366.25
547.358	4158.25
548.127	3934.25
548.896	3739.25
549.665	3516.25
550.434	3338.25
551.203	3150.25
551.972	3008.25
552.741	2855.25
553.51	2687.25
554.278	2513.25
555.047	2378.25
555.815	2240.25
556.584	2139.25
557.352	2023.25
558.121	1888.25
558.889	1795.25
559.657	1691.25
560.425	1588.25
561.193	1529.25
561.961	1438.25
562.729	1343.25
563.496	1272.25
564.264	1205.25
565.032	1157.25
565.799	1094.25
566.567	1040.25
567.334	973.25
568.101	919.25
568.869	871.25
569.636	807.25
570.403	783.25
571.17	727.25
571.937	694.25
572.704	648.25
573.471	624.25
574.237	581.25
575.004	546.25
575.771	514.25
576.537	483.25
577.303	457.25
578.07	429.25
578.836	407.25
579.602	381.25
580.368	364.25
581.134	348.25
581.9	333.25
582.666	316.25
583.432	306.25
584.198	281.25
584.964	269.25
585.729	257.25
586.495	239.25
587.26	230.25
588.025	216.25
588.791	206.25
589.556	192.25
590.321	184.25
591.086	177.25
591.851	171.25
592.616	166.25
593.381	154.25
594.146	145.25
594.911	141.25
595.675	140.25
596.44	131.25
597.204	126.25
597.969	116.25
598.733	115.25
599.497	105.25
600.261	103.25
601.025	100.25
601.79	96.25
602.553	91.25
603.317	83.25
604.081	85.25
604.845	79.25
605.609	79.25
606.372	76.25
607.136	70.25
607.899	70.25
608.662	57.25
609.426	65.25
610.189	60.25
610.952	58.25
611.715	55.25
612.478	52.25
613.241	54.25
614.004	49.25
614.767	51.25
615.529	49.25
616.292	47.25
617.055	46.25
617.817	42.25
618.579	44.25
619.342	41.25
620.104	42.25
620.866	43.25
621.628	37.25
622.39	37.25
623.152	36.25
623.914	30.25
624.676	34.25
625.438	31.25
626.199	29.25
626.961	30.25
627.722	27.25
628.484	27.25
629.245	29.25
630.006	25.25
630.768	25.25
631.529	27.25
632.29	21.25
633.051	24.25
633.812	25.25
634.573	22.25
635.333	23.25
636.094	19.25
636.855	21.25
637.615	22.25
638.376	19.25
639.136	21.25
639.896	16.25
640.657	19.25
641.417	18.25
642.177	20.25
642.937	17.25
643.697	17.25
644.457	18.25
645.216	16.25
645.976	14.25
646.736	17.25
647.495	13.25
648.255	15.25
649.014	15.25
649.774	15.25
650.533	15.25
651.292	13.25
652.051	15.25
652.81	15.25
653.569	13.25
654.328	13.25
655.087	12.25
655.846	12.25
656.604	9.25
657.363	12.25
658.121	12.25
658.88	9.25
659.638	10.25
660.397	13.25
661.155	9.25
661.913	10.25
662.671	12.25
663.429	11.25
664.187	11.25
664.945	9.25
665.703	9.25
666.46	9.25
667.218	11.25
667.976	10.25
668.733	11.25
669.49	10.25
670.248	7.25
671.005	10.25
671.762	10.25
672.519	9.25
673.276	10.25
674.033	9.25
674.79	10.25
675.547	6.25
676.304	10.25
677.06	9.25
677.817	8.25
678.574	11.25
679.33	8.25
680.086	8.25
680.843	9.25
681.599	9.25
682.355	9.25
683.111	7.25
683.867	9.25
684.623	7.25
685.379	9.25
686.135	4.25
686.89	7.25
687.646	7.25
688.402	8.25
689.157	8.25
689.912	10.25
690.668	8.25
691.423	5.25
692.178	7.25
692.933	9.25
693.688	7.25
694.443	11.25
695.198	8.25
695.953	9.25
696.708	10.25
697.462	8.25
698.217	9.25
698.972	6.25
699.726	8.25
700.48	6.25
701.235	7.25
701.989	9.25
702.743	7.25
703.497	7.25
704.251	7.25
705.005	8.25
705.759	6.25
706.513	10.25
707.266	9.25
708.02	8.25
708.774	6.25
709.527	9.25
710.28	5.25
711.034	7.25
711.787	5.25
712.54	7.25
713.293	6.25
714.046	6.25
714.799	8.25
715.552	6.25
716.305	8.25
717.058	4.25
717.81	7.25
718.563	7.25
719.315	7.25
720.068	8.25
720.82	7.25
721.573	8.25
722.325	8.25
723.077	9.25
723.829	9.25
724.581	9.25
725.333	9.25
726.085	10.25
726.836	11.25
727.588	7.25
728.34	11.25
729.091	10.25
729.843	10.25
730.594	9.25
731.346	7.25
732.097	9.25
732.848	9.25
733.599	11.25
734.35	11.25
735.101	9.25
735.852	11.25
736.603	9.25
737.354	8.25
738.104	9.25
738.855	12.25
739.605	11.25
740.356	9.25
741.106	11.25
741.856	11.25
742.607	12.25
743.357	10.25
744.107	10.25
744.857	11.25
745.607	10.25
746.357	11.25
747.106	11.25
747.856	11.25
748.606	10.25
749.355	9.25
750.105	11.25
750.854	13.25
751.603	9.25
752.353	13.25
753.102	11.25
753.851	10.25
754.6	10.25
755.349	13.25
756.098	13.25
756.847	14.25
757.595	14.25
758.344	11.25
759.093	15.25
759.841	13.25
760.589	15.25
761.338	13.25
762.086	17.25
762.834	15.25
763.582	11.25
764.331	14.25
765.079	15.25
765.826	16.25
766.574	15.25
767.322	15.25
768.07	15.25
768.817	13.25
769.565	14.25
770.312	14.25
771.06	14.25
771.807	15.25
772.554	15.25
773.302	14.25
774.049	16.25
774.796	16.25
775.543	17.25
776.29	15.25
777.036	15.25
777.783	17.25
778.53	17.25
779.276	15.25
780.023	17.25
780.769	14.25
781.516	15.25
782.262	15.25
783.008	16.25
783.754	17.25
784.5	15.25
785.246	16.25
785.992	16.25
786.738	14.25
787.484	17.25
788.23	13.25
788.975	18.25
789.721	15.25
790.466	12.25
791.212	12.25
791.957	14.25
792.702	15.25
793.447	14.25
794.193	14.25
794.938	15.25
795.683	13.25
796.427	16.25
797.172	11.25
797.917	16.25
798.662	14.25
799.406	12.25
800.151	11.25
800.895	13.25
801.64	13.25
802.384	11.25
803.128	10.25
803.872	10.25
804.616	11.25
805.36	13.25
806.104	10.25
806.848	11.25
807.592	10.25
808.336	9.25
809.079	9.25
809.823	9.25
810.566	9.25
811.31	10.25
812.053	6.25
812.796	8.25
813.539	8.25
814.283	11.25
815.026	5.25
815.769	10.25
816.511	11.25
817.254	6.25
817.997	8.25
818.74	8.25
819.482	9.25
820.225	6.25
820.967	7.25
821.71	7.25
822.452	8.25
823.194	9.25
823.936	6.25
824.678	8.25
825.42	8.25
826.162	8.25
826.904	5.25
827.646	7.25
828.388	9.25
829.129	6.25
829.871	7.25
830.612	5.25
831.354	3.25
832.095	5.25
832.836	5.25
833.577	5.25
834.319	5.25
835.06	3.25
835.801	7.25
836.542	5.25
837.282	8.25
838.023	6.25
838.764	7.25
839.504	8.25
840.245	3.25
840.985	8.25
841.726	5.25
842.466	7.25
843.206	7.25
843.946	5.25
844.687	2.25
845.427	6.25
846.166	6.25
846.906	6.25
847.646	4.25
848.386	6.25
849.125	6.25
849.865	5.25
850.605	5.25
851.344	3.25
852.083	6.25
852.823	4.25
853.562	3.25
854.301	4.25
855.04	4.25
855.779	3.25
856.518	3.25
857.257	4.25
857.995	4.25
858.734	5.25
859.473	2.25
860.211	5.25
860.95	4.25
861.688	2.25
862.426	2.25
863.165	4.25
863.903	2.25
864.641	4.25
865.379	2.25
866.117	3.25
866.855	4.25
867.593	3.25
868.33	4.25
869.068	3.25
869.806	3.25
870.543	1.25
871.28	3.25
872.018	1.25
872.755	2.25
873.492	-0.75
874.229	3.25
874.967	4.25
875.703	1.25
876.44	3.25
877.177	-0.75
877.914	2.25
878.651	1.25
879.387	2.25
880.124	2.25
880.86	2.25
881.597	3.25
882.333	2.25
883.069	2.25
883.806	2.25
884.542	2.25
885.278	1.25
886.014	0.25
886.749	3.25
887.485	0.25
888.221	2.25
888.957	2.25
889.692	-0.75
890.428	1.25
891.163	1.25
891.899	3.25
892.634	1.25
893.369	1.25
894.104	2.25
894.839	0.25
895.574	3.25
896.309	0.25
897.044	2.25
897.779	1.25
898.514	-0.75
899.248	0.25
899.983	2.25
900.717	3.25
901.452	0.25
902.186	0.25
902.92	2.25
903.654	3.25
904.389	1.25
905.123	1.25
905.857	2.25
906.59	2.25
907.324	1.25
908.058	1.25
908.792	-0.75
909.525	1.25
910.259	1.25
910.992	1.25
911.726	2.25
912.459	2.25
913.192	1.25
913.925	2.25
914.658	2.25
915.391	2.25
916.124	-0.75
916.857	3.25
917.59	-0.75
918.323	0.25
919.055	0.25
919.788	0.25
920.521	-0.75
921.253	-0.75
921.985	1.25
922.718	-1.75
923.45	3.25
924.182	2.25
924.914	-0.75
925.646	1.25
926.378	1.25
927.11	1.25
927.841	-0.75
928.573	2.25
929.305	0.25
930.036	2.25
930.768	-0.75
931.499	1.25
932.23	3.25
932.962	-0.75
933.693	2.25
934.424	1.25
935.155	1.25
935.886	0.25
936.617	-1.75
937.348	-1.75
938.078	2.25
938.809	1.25
939.54	0.25
940.27	-0.75
941.001	0.25
941.731	-0.75
942.461	0.25
943.191	-0.75
943.922	1.25
944.652	-0.75
945.382	1.25
946.112	1.25
946.841	1.25
947.571	1.25
948.301	0.25
949.031	0.25
949.76	0.25
950.49	1.25
951.219	2.25
951.948	0.25
952.678	1.25
953.407	3.25
954.136	-1.75
954.865	-1.75
955.594	-0.75
956.323	2.25
957.052	-0.75
957.78	0.25
958.509	2.25
959.238	1.25
959.966	0.25
960.695	-0.75
961.423	3.25
962.151	2.25
962.88	3.25
963.608	0.25
964.336	0.25
965.064	2.25
965.792	-0.75
966.52	1.25
967.247	0.25
967.975	1.25
968.703	-0.75
969.43	-0.75
970.158	1.25
970.885	1.25
971.613	-0.75
972.34	1.25
973.067	-0.75
973.794	-0.75
974.521	-0.75
975.248	-0.75
975.975	1.25
976.702	0.25
977.429	2.25
978.156	-0.75
978.882	1.25
979.609	-0.75
980.335	1.25
981.062	0.25
981.788	0.25
982.514	-0.75
983.24	-0.75
983.967	2.25
984.693	0.25
985.419	-0.75
986.144	0.25
986.87	1.25
987.596	1.25
988.322	0.25
989.047	1.25
989.773	1.25
990.498	-0.75
991.224	-1.75
991.949	2.25
992.674	0.25
993.399	0.25
994.124	0.25
994.849	-0.75
995.574	0.25
996.299	4.25
997.024	0.25
997.749	-0.75
998.473	0.25
999.198	-0.75
999.922	1.25
1000.647	-0.75
1001.371	4.25
1002.095	-2.75
1002.82	-0.75
1003.544	-0.75
1004.268	5.25
1004.992	3.25
1005.716	4.25
1006.439	5.25
1007.163	6.25
1007.887	5.25
1008.611	0.25
1009.334	-0.75
1010.058	1.25
1010.781	2.25
1011.504	1.25
1012.228	1.25
1012.951	-0.75
1013.674	0.25
1014.397	-0.75
1015.12	1.25
