节点500_705_QEPB04081__123__20-47-56-081.txt的数据

Date: Wed Nov 12 20:47:56 CST 2025
User: PC
Spectrometer: QEPB0408
触发模式: 0
积分时间 (秒): 1.000000E-2
Scans to average: 1
启用暗噪声校正: true
启用非线性校正: false
滑动平均宽度: 0
X轴模式: Wavelengths
Number of Pixels in Spectrum: 1044
>>>>>Begin Spectral Data<<<<<
220.843	3.88
221.644	4.88
222.444	5.88
223.244	7.88
224.045	4.88
224.845	3.88
225.645	5.88
226.445	5.88
227.245	6.88
228.045	7.88
228.845	8.88
229.645	6.88
230.444	6.88
231.244	4.88
232.043	9.88
232.843	9.88
233.642	9.88
234.442	10.88
235.241	10.88
236.04	9.88
236.839	10.88
237.638	9.88
238.437	10.88
239.236	12.88
240.035	12.88
240.833	10.88
241.632	10.88
242.43	12.88
243.229	12.88
244.027	13.88
244.826	14.88
245.624	13.88
246.422	14.88
247.22	13.88
248.018	15.88
248.816	17.88
249.614	15.88
250.412	14.88
251.21	15.88
252.007	17.88
252.805	18.88
253.602	19.88
254.4	18.88
255.197	20.88
255.994	22.88
256.791	19.88
257.589	22.88
258.386	19.88
259.183	24.88
259.979	24.88
260.776	24.88
261.573	20.88
262.37	24.88
263.166	25.88
263.963	27.88
264.759	28.88
265.556	29.88
266.352	30.88
267.148	30.88
267.944	29.88
268.74	34.88
269.536	28.88
270.332	30.88
271.128	32.88
271.924	34.88
272.719	35.88
273.515	31.88
274.311	36.88
275.106	34.88
275.901	34.88
276.697	37.88
277.492	33.88
278.287	35.88
279.082	35.88
279.877	35.88
280.672	35.88
281.467	33.88
282.262	38.88
283.056	34.88
283.851	38.88
284.646	35.88
285.44	35.88
286.234	36.88
287.029	36.88
287.823	35.88
288.617	34.88
289.411	31.88
290.205	33.88
290.999	32.88
291.793	32.88
292.587	30.88
293.381	33.88
294.174	28.88
294.968	28.88
295.761	26.88
296.555	27.88
297.348	27.88
298.141	27.88
298.935	30.88
299.728	26.88
300.521	25.88
301.314	22.88
302.107	22.88
302.899	21.88
303.692	21.88
304.485	19.88
305.277	22.88
306.07	22.88
306.862	22.88
307.655	20.88
308.447	19.88
309.239	21.88
310.031	20.88
310.823	15.88
311.615	17.88
312.407	19.88
313.199	18.88
313.991	17.88
314.783	14.88
315.574	14.88
316.366	16.88
317.157	13.88
317.949	14.88
318.74	14.88
319.531	12.88
320.322	14.88
321.113	13.88
321.904	14.88
322.695	13.88
323.486	14.88
324.277	14.88
325.068	12.88
325.858	14.88
326.649	10.88
327.439	15.88
328.23	13.88
329.02	12.88
329.81	12.88
330.6	10.88
331.391	14.88
332.181	10.88
332.971	12.88
333.76	12.88
334.55	10.88
335.34	13.88
336.13	12.88
336.919	14.88
337.709	10.88
338.498	11.88
339.287	13.88
340.077	13.88
340.866	14.88
341.655	12.88
342.444	13.88
343.233	13.88
344.022	10.88
344.811	11.88
345.6	10.88
346.388	10.88
347.177	11.88
347.965	13.88
348.754	12.88
349.542	11.88
350.33	11.88
351.119	10.88
351.907	13.88
352.695	12.88
353.483	10.88
354.271	11.88
355.059	10.88
355.846	10.88
356.634	11.88
357.422	12.88
358.209	10.88
358.997	11.88
359.784	10.88
360.571	9.88
361.359	10.88
362.146	10.88
362.933	8.88
363.72	10.88
364.507	9.88
365.294	9.88
366.081	9.88
366.867	8.88
367.654	10.88
368.44	10.88
369.227	8.88
370.013	7.88
370.8	8.88
371.586	8.88
372.372	7.88
373.158	10.88
373.944	8.88
374.73	10.88
375.516	10.88
376.302	9.88
377.088	8.88
377.873	10.88
378.659	9.88
379.445	8.88
380.23	6.88
381.015	8.88
381.801	9.88
382.586	10.88
383.371	10.88
384.156	8.88
384.941	8.88
385.726	10.88
386.511	10.88
387.296	10.88
388.08	8.88
388.865	10.88
389.649	11.88
390.434	10.88
391.218	13.88
392.003	11.88
392.787	9.88
393.571	13.88
394.355	9.88
395.139	13.88
395.923	11.88
396.707	13.88
397.491	12.88
398.274	13.88
399.058	11.88
399.842	13.88
400.625	14.88
401.408	13.88
402.192	12.88
402.975	12.88
403.758	14.88
404.541	14.88
405.324	14.88
406.107	15.88
406.89	16.88
407.673	13.88
408.456	14.88
409.238	13.88
410.021	17.88
410.803	16.88
411.586	17.88
412.368	17.88
413.151	18.88
413.933	17.88
414.715	18.88
415.497	17.88
416.279	19.88
417.061	19.88
417.843	20.88
418.624	17.88
419.406	20.88
420.188	22.88
420.969	22.88
421.751	21.88
422.532	23.88
423.313	24.88
424.095	21.88
424.876	23.88
425.657	26.88
426.438	25.88
427.219	24.88
428	29.88
428.78	27.88
429.561	29.88
430.342	31.88
431.122	32.88
431.903	32.88
432.683	33.88
433.464	36.88
434.244	37.88
435.024	38.88
435.804	38.88
436.584	40.88
437.364	46.88
438.144	45.88
438.924	53.88
439.704	50.88
440.483	57.88
441.263	57.88
442.042	63.88
442.822	65.88
443.601	73.88
444.38	76.88
445.16	82.88
445.939	88.88
446.718	98.88
447.497	107.88
448.276	114.88
449.054	125.88
449.833	139.88
450.612	160.88
451.391	168.88
452.169	186.88
452.948	206.88
453.726	226.88
454.504	260.88
455.282	289.88
456.061	310.88
456.839	359.88
457.617	388.88
458.395	432.88
459.172	490.88
459.95	546.88
460.728	604.88
461.506	677.88
462.283	759.88
463.061	857.88
463.838	952.88
464.615	1061.88
465.393	1190.88
466.17	1317.88
466.947	1474.88
467.724	1639.88
468.501	1823.88
469.278	2036.88
470.055	2237.88
470.831	2453.88
471.608	2736.88
472.385	3043.88
473.161	3371.88
473.938	3716.88
474.714	4092.88
475.49	4510.88
476.266	4952.88
477.043	5413.88
477.819	5992.88
478.595	6530.88
479.371	7164.88
480.146	7871.88
480.922	8598.88
481.698	9391.88
482.473	10289.88
483.249	11231.88
484.024	12223.88
484.8	13361.88
485.575	14501.88
486.35	15795.88
487.126	17105.88
487.901	18523.88
488.676	20091.88
489.451	21770.88
490.225	23444.88
491	25133.88
491.775	26952.88
492.55	28864.88
493.324	30762.88
494.099	32638.88
494.873	34499.88
495.647	36453.88
496.422	38399.88
497.196	40365.88
497.97	41990.88
498.744	43576.88
499.518	45156.88
500.292	46446.88
501.066	47354.88
501.839	48188.88
502.613	48856.88
503.387	49252.88
504.16	49615.88
504.934	49390.88
505.707	49026.88
506.48	48498.88
507.253	47830.88
508.027	46870.88
508.8	45647.88
509.573	44403.88
510.346	43116.88
511.118	41869.88
511.891	40489.88
512.664	38806.88
513.437	37308.88
514.209	35773.88
514.982	34352.88
515.754	32822.88
516.526	31478.88
517.298	30220.88
518.071	29003.88
518.843	27745.88
519.615	26679.88
520.387	25552.88
521.159	24593.88
521.93	23528.88
522.702	22532.88
523.474	21611.88
524.245	20638.88
525.017	19710.88
525.788	18886.88
526.56	17989.88
527.331	17200.88
528.102	16319.88
528.873	15454.88
529.644	14671.88
530.415	14014.88
531.186	13350.88
531.957	12621.88
532.728	11919.88
533.498	11280.88
534.269	10668.88
535.039	10118.88
535.81	9557.88
536.58	8981.88
537.351	8505.88
538.121	8078.88
538.891	7623.88
539.661	7248.88
540.431	6829.88
541.201	6487.88
541.971	6154.88
542.741	5801.88
543.51	5518.88
544.28	5260.88
545.05	5020.88
545.819	4775.88
546.588	4588.88
547.358	4314.88
548.127	4122.88
548.896	3912.88
549.665	3692.88
550.434	3493.88
551.203	3317.88
551.972	3147.88
552.741	2974.88
553.51	2804.88
554.278	2640.88
555.047	2476.88
555.815	2359.88
556.584	2222.88
557.352	2092.88
558.121	1999.88
558.889	1882.88
559.657	1778.88
560.425	1676.88
561.193	1596.88
561.961	1496.88
562.729	1420.88
563.496	1334.88
564.264	1272.88
565.032	1208.88
565.799	1120.88
566.567	1074.88
567.334	1029.88
568.101	968.88
568.869	903.88
569.636	855.88
570.403	805.88
571.17	768.88
571.937	720.88
572.704	676.88
573.471	644.88
574.237	612.88
575.004	564.88
575.771	531.88
576.537	510.88
577.303	482.88
578.07	452.88
578.836	430.88
579.602	405.88
580.368	384.88
581.134	360.88
581.9	347.88
582.666	325.88
583.432	314.88
584.198	299.88
584.964	288.88
585.729	265.88
586.495	248.88
587.26	245.88
588.025	231.88
588.791	216.88
589.556	203.88
590.321	194.88
591.086	184.88
591.851	180.88
592.616	165.88
593.381	162.88
594.146	152.88
594.911	149.88
595.675	142.88
596.44	137.88
597.204	130.88
597.969	122.88
598.733	115.88
599.497	113.88
600.261	105.88
601.025	102.88
601.79	100.88
602.553	93.88
603.317	91.88
604.081	85.88
604.845	84.88
605.609	80.88
606.372	79.88
607.136	74.88
607.899	71.88
608.662	69.88
609.426	68.88
610.189	64.88
610.952	61.88
611.715	61.88
612.478	59.88
613.241	53.88
614.004	55.88
614.767	48.88
615.529	49.88
616.292	48.88
617.055	45.88
617.817	44.88
618.579	42.88
619.342	44.88
620.104	39.88
620.866	40.88
621.628	37.88
622.39	37.88
623.152	35.88
623.914	35.88
624.676	35.88
625.438	34.88
626.199	33.88
626.961	29.88
627.722	30.88
628.484	26.88
629.245	27.88
630.006	28.88
630.768	24.88
631.529	27.88
632.29	25.88
633.051	25.88
633.812	25.88
634.573	24.88
635.333	23.88
636.094	24.88
636.855	20.88
637.615	23.88
638.376	18.88
639.136	21.88
639.896	19.88
640.657	22.88
641.417	16.88
642.177	16.88
642.937	17.88
643.697	17.88
644.457	16.88
645.216	17.88
645.976	14.88
646.736	15.88
647.495	14.88
648.255	15.88
649.014	14.88
649.774	16.88
650.533	15.88
651.292	13.88
652.051	15.88
652.81	10.88
653.569	12.88
654.328	11.88
655.087	13.88
655.846	14.88
656.604	12.88
657.363	13.88
658.121	12.88
658.88	11.88
659.638	12.88
660.397	13.88
661.155	14.88
661.913	10.88
662.671	11.88
663.429	9.88
664.187	11.88
664.945	10.88
665.703	10.88
666.46	12.88
667.218	9.88
667.976	13.88
668.733	8.88
669.49	10.88
670.248	9.88
671.005	8.88
671.762	9.88
672.519	8.88
673.276	8.88
674.033	9.88
674.79	8.88
675.547	9.88
676.304	7.88
677.06	6.88
677.817	7.88
678.574	9.88
679.33	7.88
680.086	7.88
680.843	7.88
681.599	7.88
682.355	8.88
683.111	9.88
683.867	8.88
684.623	10.88
685.379	7.88
686.135	10.88
686.89	8.88
687.646	6.88
688.402	5.88
689.157	7.88
689.912	7.88
690.668	4.88
691.423	7.88
692.178	8.88
692.933	6.88
693.688	7.88
694.443	6.88
695.198	10.88
695.953	6.88
696.708	7.88
697.462	7.88
698.217	3.88
698.972	7.88
699.726	4.88
700.48	8.88
701.235	4.88
701.989	6.88
702.743	6.88
703.497	8.88
704.251	10.88
705.005	10.88
705.759	5.88
706.513	7.88
707.266	6.88
708.02	5.88
708.774	6.88
709.527	9.88
710.28	9.88
711.034	10.88
711.787	7.88
712.54	8.88
713.293	6.88
714.046	5.88
714.799	8.88
715.552	7.88
716.305	6.88
717.058	8.88
717.81	6.88
718.563	9.88
719.315	8.88
720.068	7.88
720.82	7.88
721.573	7.88
722.325	8.88
723.077	6.88
723.829	9.88
724.581	8.88
725.333	8.88
726.085	7.88
726.836	6.88
727.588	7.88
728.34	7.88
729.091	7.88
729.843	9.88
730.594	5.88
731.346	10.88
732.097	7.88
732.848	10.88
733.599	9.88
734.35	8.88
735.101	10.88
735.852	9.88
736.603	9.88
737.354	8.88
738.104	9.88
738.855	8.88
739.605	11.88
740.356	9.88
741.106	8.88
741.856	13.88
742.607	9.88
743.357	11.88
744.107	8.88
744.857	10.88
745.607	11.88
746.357	10.88
747.106	12.88
747.856	11.88
748.606	9.88
749.355	12.88
750.105	10.88
750.854	12.88
751.603	10.88
752.353	12.88
753.102	12.88
753.851	10.88
754.6	12.88
755.349	10.88
756.098	11.88
756.847	10.88
757.595	14.88
758.344	12.88
759.093	14.88
759.841	14.88
760.589	9.88
761.338	12.88
762.086	12.88
762.834	12.88
763.582	11.88
764.331	12.88
765.079	16.88
765.826	14.88
766.574	13.88
767.322	14.88
768.07	14.88
768.817	14.88
769.565	17.88
770.312	15.88
771.06	14.88
771.807	13.88
772.554	14.88
773.302	14.88
774.049	15.88
774.796	14.88
775.543	17.88
776.29	15.88
777.036	14.88
777.783	15.88
778.53	14.88
779.276	15.88
780.023	17.88
780.769	16.88
781.516	14.88
782.262	14.88
783.008	19.88
783.754	18.88
784.5	15.88
785.246	14.88
785.992	16.88
786.738	16.88
787.484	14.88
788.23	17.88
788.975	15.88
789.721	15.88
790.466	15.88
791.212	13.88
791.957	14.88
792.702	15.88
793.447	13.88
794.193	15.88
794.938	12.88
795.683	14.88
796.427	13.88
797.172	14.88
797.917	13.88
798.662	14.88
799.406	10.88
800.151	11.88
800.895	12.88
801.64	12.88
802.384	10.88
803.128	12.88
803.872	12.88
804.616	11.88
805.36	11.88
806.104	8.88
806.848	9.88
807.592	7.88
808.336	11.88
809.079	11.88
809.823	7.88
810.566	8.88
811.31	9.88
812.053	7.88
812.796	10.88
813.539	8.88
814.283	5.88
815.026	10.88
815.769	8.88
816.511	8.88
817.254	5.88
817.997	9.88
818.74	7.88
819.482	5.88
820.225	7.88
820.967	8.88
821.71	4.88
822.452	7.88
823.194	5.88
823.936	8.88
824.678	6.88
825.42	8.88
826.162	7.88
826.904	7.88
827.646	8.88
828.388	2.88
829.129	7.88
829.871	6.88
830.612	5.88
831.354	5.88
832.095	5.88
832.836	5.88
833.577	5.88
834.319	7.88
835.06	5.88
835.801	6.88
836.542	6.88
837.282	4.88
838.023	7.88
838.764	2.88
839.504	4.88
840.245	5.88
840.985	4.88
841.726	6.88
842.466	4.88
843.206	7.88
843.946	4.88
844.687	6.88
845.427	4.88
846.166	5.88
846.906	4.88
847.646	5.88
848.386	7.88
849.125	5.88
849.865	4.88
850.605	4.88
851.344	2.88
852.083	4.88
852.823	4.88
853.562	5.88
854.301	3.88
855.04	4.88
855.779	4.88
856.518	4.88
857.257	3.88
857.995	4.88
858.734	5.88
859.473	2.88
860.211	2.88
860.95	2.88
861.688	3.88
862.426	5.88
863.165	3.88
863.903	2.88
864.641	4.88
865.379	1.88
866.117	0.88
866.855	3.88
867.593	2.88
868.33	5.88
869.068	2.88
869.806	4.88
870.543	1.88
871.28	3.88
872.018	2.88
872.755	3.88
873.492	3.88
874.229	3.88
874.967	0.88
875.703	1.88
876.44	3.88
877.177	1.88
877.914	2.88
878.651	1.88
879.387	1.88
880.124	0.88
880.86	0.88
881.597	0.88
882.333	4.88
883.069	0.88
883.806	2.88
884.542	1.88
885.278	0.88
886.014	1.88
886.749	1.88
887.485	0.88
888.221	-0.12
888.957	0.88
889.692	-1.12
890.428	4.88
891.163	0.88
891.899	3.88
892.634	0.88
893.369	-0.12
894.104	2.88
894.839	0.88
895.574	0.88
896.309	0.88
897.044	2.88
897.779	2.88
898.514	3.88
899.248	1.88
899.983	1.88
900.717	2.88
901.452	0.88
902.186	0.88
902.92	1.88
903.654	-0.12
904.389	3.88
905.123	0.88
905.857	-1.12
906.59	-0.12
907.324	1.88
908.058	0.88
908.792	1.88
909.525	1.88
910.259	-0.12
910.992	0.88
911.726	0.88
912.459	0.88
913.192	-0.12
913.925	-1.12
914.658	-0.12
915.391	0.88
916.124	-1.12
916.857	-1.12
917.59	-1.12
918.323	0.88
919.055	1.88
919.788	-0.12
920.521	1.88
921.253	-1.12
921.985	-0.12
922.718	2.88
923.45	-1.12
924.182	-0.12
924.914	-0.12
925.646	1.88
926.378	-0.12
927.11	-0.12
927.841	-1.12
928.573	0.88
929.305	-1.12
930.036	-1.12
930.768	-0.12
931.499	0.88
932.23	1.88
932.962	1.88
933.693	1.88
934.424	0.88
935.155	-2.12
935.886	-1.12
936.617	0.88
937.348	-0.12
938.078	0.88
938.809	-1.12
939.54	-0.12
940.27	0.88
941.001	0.88
941.731	0.88
942.461	1.88
943.191	0.88
943.922	2.88
944.652	1.88
945.382	-3.12
946.112	1.88
946.841	1.88
947.571	2.88
948.301	-0.12
949.031	1.88
949.76	1.88
950.49	-2.12
951.219	0.88
951.948	2.88
952.678	1.88
953.407	0.88
954.136	0.88
954.865	2.88
955.594	-1.12
956.323	0.88
957.052	-0.12
957.78	1.88
958.509	0.88
959.238	-1.12
959.966	2.88
960.695	1.88
961.423	-2.12
962.151	-0.12
962.88	2.88
963.608	0.88
964.336	1.88
965.064	-0.12
965.792	-2.12
966.52	-0.12
967.247	0.88
967.975	-0.12
968.703	3.88
969.43	0.88
970.158	-1.12
970.885	0.88
971.613	-0.12
972.34	2.88
973.067	-1.12
973.794	-0.12
974.521	0.88
975.248	-1.12
975.975	0.88
976.702	-0.12
977.429	3.88
978.156	-0.12
978.882	0.88
979.609	-0.12
980.335	1.88
981.062	0.88
981.788	1.88
982.514	0.88
983.24	-2.12
983.967	0.88
984.693	0.88
985.419	0.88
986.144	0.88
986.87	-0.12
987.596	0.88
988.322	0.88
989.047	-1.12
989.773	0.88
990.498	-1.12
991.224	0.88
991.949	-1.12
992.674	-1.12
993.399	-0.12
994.124	-1.12
994.849	1.88
995.574	0.88
996.299	0.88
997.024	0.88
997.749	0.88
998.473	-0.12
999.198	-1.12
999.922	1.88
1000.647	-0.12
1001.371	1.88
1002.095	-0.12
1002.82	-1.12
1003.544	-0.12
1004.268	1.88
1004.992	4.88
1005.716	7.88
1006.439	3.88
1007.163	7.88
1007.887	6.88
1008.611	-0.12
1009.334	1.88
1010.058	-1.12
1010.781	3.88
1011.504	-2.12
1012.228	-0.12
1012.951	0.88
1013.674	-0.12
1014.397	-2.12
1015.12	0.88
