节点500_705_QEPB04081__299__20-50-14-414.txt的数据

Date: Wed Nov 12 20:50:14 CST 2025
User: PC
Spectrometer: QEPB0408
触发模式: 0
积分时间 (秒): 1.000000E-2
Scans to average: 1
启用暗噪声校正: true
启用非线性校正: false
滑动平均宽度: 0
X轴模式: Wavelengths
Number of Pixels in Spectrum: 1044
>>>>>Begin Spectral Data<<<<<
220.843	6.25
221.644	6.25
222.444	5.25
223.244	6.25
224.045	5.25
224.845	6.25
225.645	6.25
226.445	8.25
227.245	7.25
228.045	6.25
228.845	8.25
229.645	8.25
230.444	9.25
231.244	7.25
232.043	8.25
232.843	9.25
233.642	11.25
234.442	9.25
235.241	8.25
236.04	10.25
236.839	11.25
237.638	13.25
238.437	11.25
239.236	9.25
240.035	12.25
240.833	11.25
241.632	13.25
242.43	10.25
243.229	13.25
244.027	12.25
244.826	15.25
245.624	13.25
246.422	15.25
247.22	14.25
248.018	17.25
248.816	16.25
249.614	14.25
250.412	14.25
251.21	14.25
252.007	16.25
252.805	20.25
253.602	18.25
254.4	21.25
255.197	19.25
255.994	19.25
256.791	24.25
257.589	21.25
258.386	22.25
259.183	19.25
259.979	22.25
260.776	23.25
261.573	25.25
262.37	27.25
263.166	24.25
263.963	29.25
264.759	26.25
265.556	27.25
266.352	29.25
267.148	30.25
267.944	27.25
268.74	30.25
269.536	28.25
270.332	31.25
271.128	31.25
271.924	33.25
272.719	30.25
273.515	31.25
274.311	31.25
275.106	38.25
275.901	32.25
276.697	27.25
277.492	32.25
278.287	34.25
279.082	35.25
279.877	33.25
280.672	34.25
281.467	34.25
282.262	34.25
283.056	34.25
283.851	35.25
284.646	35.25
285.44	33.25
286.234	32.25
287.029	36.25
287.823	35.25
288.617	33.25
289.411	34.25
290.205	31.25
290.999	35.25
291.793	31.25
292.587	35.25
293.381	30.25
294.174	32.25
294.968	30.25
295.761	29.25
296.555	27.25
297.348	27.25
298.141	27.25
298.935	29.25
299.728	28.25
300.521	27.25
301.314	26.25
302.107	23.25
302.899	23.25
303.692	22.25
304.485	22.25
305.277	21.25
306.07	24.25
306.862	22.25
307.655	22.25
308.447	21.25
309.239	22.25
310.031	20.25
310.823	20.25
311.615	18.25
312.407	20.25
313.199	15.25
313.991	19.25
314.783	14.25
315.574	18.25
316.366	17.25
317.157	16.25
317.949	14.25
318.74	15.25
319.531	14.25
320.322	16.25
321.113	16.25
321.904	16.25
322.695	14.25
323.486	16.25
324.277	14.25
325.068	16.25
325.858	13.25
326.649	13.25
327.439	15.25
328.23	11.25
329.02	16.25
329.81	11.25
330.6	12.25
331.391	12.25
332.181	13.25
332.971	9.25
333.76	10.25
334.55	14.25
335.34	11.25
336.13	14.25
336.919	12.25
337.709	12.25
338.498	13.25
339.287	13.25
340.077	12.25
340.866	14.25
341.655	12.25
342.444	10.25
343.233	13.25
344.022	12.25
344.811	11.25
345.6	11.25
346.388	13.25
347.177	12.25
347.965	12.25
348.754	11.25
349.542	11.25
350.33	11.25
351.119	13.25
351.907	13.25
352.695	11.25
353.483	10.25
354.271	9.25
355.059	12.25
355.846	13.25
356.634	8.25
357.422	10.25
358.209	9.25
358.997	9.25
359.784	11.25
360.571	14.25
361.359	9.25
362.146	9.25
362.933	10.25
363.72	9.25
364.507	10.25
365.294	12.25
366.081	11.25
366.867	11.25
367.654	10.25
368.44	10.25
369.227	11.25
370.013	10.25
370.8	10.25
371.586	12.25
372.372	11.25
373.158	8.25
373.944	10.25
374.73	9.25
375.516	12.25
376.302	12.25
377.088	10.25
377.873	11.25
378.659	9.25
379.445	10.25
380.23	12.25
381.015	11.25
381.801	11.25
382.586	10.25
383.371	7.25
384.156	9.25
384.941	10.25
385.726	10.25
386.511	9.25
387.296	12.25
388.08	8.25
388.865	13.25
389.649	12.25
390.434	12.25
391.218	11.25
392.003	9.25
392.787	15.25
393.571	12.25
394.355	11.25
395.139	15.25
395.923	12.25
396.707	15.25
397.491	13.25
398.274	16.25
399.058	15.25
399.842	15.25
400.625	17.25
401.408	15.25
402.192	15.25
402.975	18.25
403.758	15.25
404.541	15.25
405.324	13.25
406.107	15.25
406.89	15.25
407.673	16.25
408.456	14.25
409.238	15.25
410.021	18.25
410.803	16.25
411.586	15.25
412.368	17.25
413.151	15.25
413.933	16.25
414.715	18.25
415.497	19.25
416.279	18.25
417.061	18.25
417.843	19.25
418.624	19.25
419.406	20.25
420.188	23.25
420.969	23.25
421.751	18.25
422.532	21.25
423.313	23.25
424.095	20.25
424.876	26.25
425.657	23.25
426.438	27.25
427.219	27.25
428	26.25
428.78	28.25
429.561	29.25
430.342	32.25
431.122	30.25
431.903	33.25
432.683	34.25
433.464	37.25
434.244	39.25
435.024	36.25
435.804	44.25
436.584	40.25
437.364	45.25
438.144	49.25
438.924	56.25
439.704	55.25
440.483	57.25
441.263	60.25
442.042	66.25
442.822	72.25
443.601	74.25
444.38	77.25
445.16	85.25
445.939	94.25
446.718	104.25
447.497	112.25
448.276	121.25
449.054	136.25
449.833	146.25
450.612	162.25
451.391	178.25
452.169	197.25
452.948	217.25
453.726	243.25
454.504	259.25
455.282	294.25
456.061	326.25
456.839	365.25
457.617	404.25
458.395	450.25
459.172	509.25
459.95	573.25
460.728	622.25
461.506	702.25
462.283	778.25
463.061	885.25
463.838	977.25
464.615	1082.25
465.393	1222.25
466.17	1340.25
466.947	1507.25
467.724	1668.25
468.501	1847.25
469.278	2034.25
470.055	2249.25
470.831	2507.25
471.608	2745.25
472.385	3026.25
473.161	3356.25
473.938	3677.25
474.714	4060.25
475.49	4435.25
476.266	4870.25
477.043	5348.25
477.819	5830.25
478.595	6410.25
479.371	6975.25
480.146	7623.25
480.922	8307.25
481.698	9063.25
482.473	9849.25
483.249	10737.25
484.024	11674.25
484.8	12643.25
485.575	13718.25
486.35	14863.25
487.126	16126.25
487.901	17426.25
488.676	18815.25
489.451	20297.25
490.225	21814.25
491	23453.25
491.775	25140.25
492.55	26893.25
493.324	28706.25
494.099	30312.25
494.873	32149.25
495.647	33979.25
496.422	35754.25
497.196	37612.25
497.97	39279.25
498.744	40754.25
499.518	42339.25
500.292	43618.25
501.066	44737.25
501.839	45671.25
502.613	46389.25
503.387	46982.25
504.16	47363.25
504.934	47515.25
505.707	47354.25
506.48	46865.25
507.253	46410.25
508.027	45752.25
508.8	44770.25
509.573	43682.25
510.346	42634.25
511.118	41541.25
511.891	40186.25
512.664	38656.25
513.437	37199.25
514.209	35853.25
514.982	34505.25
515.754	33096.25
516.526	31664.25
517.298	30407.25
518.071	29139.25
518.843	28040.25
519.615	26921.25
520.387	25924.25
521.159	24861.25
521.93	23761.25
522.702	22813.25
523.474	21908.25
524.245	20917.25
525.017	19934.25
525.788	19105.25
526.56	18310.25
527.331	17507.25
528.102	16560.25
528.873	15790.25
529.644	14996.25
530.415	14362.25
531.186	13619.25
531.957	12892.25
532.728	12263.25
533.498	11584.25
534.269	11008.25
535.039	10418.25
535.81	9845.25
536.58	9325.25
537.351	8807.25
538.121	8346.25
538.891	7875.25
539.661	7420.25
540.431	7063.25
541.201	6720.25
541.971	6337.25
542.741	6007.25
543.51	5692.25
544.28	5456.25
545.05	5186.25
545.819	4952.25
546.588	4720.25
547.358	4460.25
548.127	4251.25
548.896	3999.25
549.665	3860.25
550.434	3639.25
551.203	3437.25
551.972	3265.25
552.741	3091.25
553.51	2913.25
554.278	2768.25
555.047	2585.25
555.815	2457.25
556.584	2340.25
557.352	2200.25
558.121	2076.25
558.889	1949.25
559.657	1849.25
560.425	1753.25
561.193	1671.25
561.961	1571.25
562.729	1489.25
563.496	1402.25
564.264	1325.25
565.032	1247.25
565.799	1192.25
566.567	1121.25
567.334	1061.25
568.101	997.25
568.869	940.25
569.636	888.25
570.403	838.25
571.17	798.25
571.937	745.25
572.704	715.25
573.471	666.25
574.237	630.25
575.004	590.25
575.771	557.25
576.537	533.25
577.303	497.25
578.07	479.25
578.836	447.25
579.602	425.25
580.368	396.25
581.134	383.25
581.9	364.25
582.666	336.25
583.432	324.25
584.198	315.25
584.964	298.25
585.729	284.25
586.495	267.25
587.26	258.25
588.025	242.25
588.791	220.25
589.556	214.25
590.321	203.25
591.086	195.25
591.851	185.25
592.616	180.25
593.381	166.25
594.146	165.25
594.911	151.25
595.675	143.25
596.44	145.25
597.204	138.25
597.969	132.25
598.733	120.25
599.497	119.25
600.261	113.25
601.025	105.25
601.79	100.25
602.553	96.25
603.317	96.25
604.081	89.25
604.845	92.25
605.609	82.25
606.372	80.25
607.136	78.25
607.899	79.25
608.662	71.25
609.426	65.25
610.189	64.25
610.952	63.25
611.715	59.25
612.478	59.25
613.241	60.25
614.004	54.25
614.767	52.25
615.529	53.25
616.292	51.25
617.055	48.25
617.817	48.25
618.579	45.25
619.342	47.25
620.104	41.25
620.866	41.25
621.628	40.25
622.39	38.25
623.152	38.25
623.914	38.25
624.676	36.25
625.438	31.25
626.199	32.25
626.961	33.25
627.722	30.25
628.484	30.25
629.245	30.25
630.006	29.25
630.768	29.25
631.529	27.25
632.29	23.25
633.051	25.25
633.812	24.25
634.573	23.25
635.333	24.25
636.094	23.25
636.855	21.25
637.615	24.25
638.376	20.25
639.136	18.25
639.896	19.25
640.657	21.25
641.417	18.25
642.177	18.25
642.937	18.25
643.697	19.25
644.457	17.25
645.216	15.25
645.976	15.25
646.736	16.25
647.495	16.25
648.255	15.25
649.014	14.25
649.774	14.25
650.533	15.25
651.292	13.25
652.051	15.25
652.81	13.25
653.569	15.25
654.328	11.25
655.087	13.25
655.846	15.25
656.604	13.25
657.363	11.25
658.121	12.25
658.88	14.25
659.638	11.25
660.397	12.25
661.155	11.25
661.913	11.25
662.671	11.25
663.429	14.25
664.187	10.25
664.945	10.25
665.703	11.25
666.46	12.25
667.218	11.25
667.976	9.25
668.733	10.25
669.49	11.25
670.248	9.25
671.005	11.25
671.762	12.25
672.519	9.25
673.276	11.25
674.033	11.25
674.79	9.25
675.547	10.25
676.304	9.25
677.06	7.25
677.817	12.25
678.574	10.25
679.33	8.25
680.086	10.25
680.843	7.25
681.599	8.25
682.355	9.25
683.111	9.25
683.867	9.25
684.623	8.25
685.379	11.25
686.135	7.25
686.89	8.25
687.646	8.25
688.402	8.25
689.157	10.25
689.912	9.25
690.668	9.25
691.423	9.25
692.178	9.25
692.933	6.25
693.688	10.25
694.443	10.25
695.198	7.25
695.953	10.25
696.708	9.25
697.462	9.25
698.217	9.25
698.972	8.25
699.726	8.25
700.48	7.25
701.235	11.25
701.989	6.25
702.743	7.25
703.497	6.25
704.251	7.25
705.005	10.25
705.759	7.25
706.513	6.25
707.266	8.25
708.02	9.25
708.774	8.25
709.527	7.25
710.28	11.25
711.034	6.25
711.787	7.25
712.54	7.25
713.293	7.25
714.046	6.25
714.799	8.25
715.552	8.25
716.305	7.25
717.058	8.25
717.81	7.25
718.563	7.25
719.315	8.25
720.068	9.25
720.82	9.25
721.573	6.25
722.325	9.25
723.077	8.25
723.829	6.25
724.581	8.25
725.333	8.25
726.085	9.25
726.836	7.25
727.588	10.25
728.34	7.25
729.091	10.25
729.843	9.25
730.594	8.25
731.346	10.25
732.097	8.25
732.848	8.25
733.599	10.25
734.35	8.25
735.101	12.25
735.852	10.25
736.603	14.25
737.354	9.25
738.104	9.25
738.855	9.25
739.605	9.25
740.356	12.25
741.106	8.25
741.856	11.25
742.607	10.25
743.357	11.25
744.107	10.25
744.857	11.25
745.607	10.25
746.357	12.25
747.106	10.25
747.856	12.25
748.606	9.25
749.355	11.25
750.105	11.25
750.854	13.25
751.603	11.25
752.353	13.25
753.102	12.25
753.851	13.25
754.6	14.25
755.349	13.25
756.098	11.25
756.847	13.25
757.595	12.25
758.344	12.25
759.093	13.25
759.841	13.25
760.589	10.25
761.338	12.25
762.086	13.25
762.834	12.25
763.582	15.25
764.331	14.25
765.079	12.25
765.826	14.25
766.574	16.25
767.322	15.25
768.07	14.25
768.817	12.25
769.565	16.25
770.312	15.25
771.06	15.25
771.807	17.25
772.554	17.25
773.302	13.25
774.049	15.25
774.796	15.25
775.543	13.25
776.29	16.25
777.036	15.25
777.783	16.25
778.53	16.25
779.276	17.25
780.023	14.25
780.769	17.25
781.516	15.25
782.262	16.25
783.008	18.25
783.754	16.25
784.5	15.25
785.246	16.25
785.992	15.25
786.738	16.25
787.484	14.25
788.23	16.25
788.975	16.25
789.721	15.25
790.466	17.25
791.212	15.25
791.957	13.25
792.702	15.25
793.447	13.25
794.193	15.25
794.938	11.25
795.683	14.25
796.427	12.25
797.172	14.25
797.917	13.25
798.662	15.25
799.406	14.25
800.151	13.25
800.895	14.25
801.64	14.25
802.384	12.25
803.128	12.25
803.872	8.25
804.616	12.25
805.36	12.25
806.104	14.25
806.848	10.25
807.592	10.25
808.336	12.25
809.079	10.25
809.823	11.25
810.566	9.25
811.31	8.25
812.053	7.25
812.796	12.25
813.539	11.25
814.283	10.25
815.026	10.25
815.769	9.25
816.511	8.25
817.254	9.25
817.997	6.25
818.74	10.25
819.482	7.25
820.225	7.25
820.967	10.25
821.71	8.25
822.452	7.25
823.194	6.25
823.936	7.25
824.678	8.25
825.42	7.25
826.162	9.25
826.904	8.25
827.646	8.25
828.388	6.25
829.129	8.25
829.871	7.25
830.612	6.25
831.354	7.25
832.095	6.25
832.836	5.25
833.577	6.25
834.319	7.25
835.06	7.25
835.801	7.25
836.542	6.25
837.282	3.25
838.023	7.25
838.764	9.25
839.504	4.25
840.245	5.25
840.985	6.25
841.726	7.25
842.466	7.25
843.206	4.25
843.946	8.25
844.687	6.25
845.427	6.25
846.166	4.25
846.906	5.25
847.646	7.25
848.386	2.25
849.125	5.25
849.865	5.25
850.605	7.25
851.344	5.25
852.083	6.25
852.823	4.25
853.562	7.25
854.301	5.25
855.04	4.25
855.779	5.25
856.518	5.25
857.257	3.25
857.995	5.25
858.734	2.25
859.473	3.25
860.211	5.25
860.95	4.25
861.688	3.25
862.426	3.25
863.165	4.25
863.903	3.25
864.641	3.25
865.379	3.25
866.117	2.25
866.855	3.25
867.593	2.25
868.33	4.25
869.068	3.25
869.806	3.25
870.543	3.25
871.28	3.25
872.018	2.25
872.755	3.25
873.492	3.25
874.229	1.25
874.967	3.25
875.703	2.25
876.44	2.25
877.177	3.25
877.914	1.25
878.651	2.25
879.387	3.25
880.124	1.25
880.86	2.25
881.597	0.25
882.333	4.25
883.069	3.25
883.806	2.25
884.542	0.25
885.278	-0.75
886.014	2.25
886.749	1.25
887.485	2.25
888.221	2.25
888.957	3.25
889.692	3.25
890.428	1.25
891.163	3.25
891.899	2.25
892.634	1.25
893.369	4.25
894.104	1.25
894.839	2.25
895.574	-0.75
896.309	3.25
897.044	-0.75
897.779	0.25
898.514	1.25
899.248	3.25
899.983	0.25
900.717	3.25
901.452	2.25
902.186	-0.75
902.92	0.25
903.654	4.25
904.389	1.25
905.123	2.25
905.857	2.25
906.59	-0.75
907.324	0.25
908.058	-0.75
908.792	1.25
909.525	-0.75
910.259	3.25
910.992	3.25
911.726	1.25
912.459	1.25
913.192	1.25
913.925	2.25
914.658	1.25
915.391	0.25
916.124	1.25
916.857	0.25
917.59	-0.75
918.323	2.25
919.055	1.25
919.788	3.25
920.521	1.25
921.253	2.25
921.985	1.25
922.718	2.25
923.45	1.25
924.182	-0.75
924.914	1.25
925.646	3.25
926.378	1.25
927.11	2.25
927.841	1.25
928.573	2.25
929.305	0.25
930.036	2.25
930.768	2.25
931.499	3.25
932.23	1.25
932.962	2.25
933.693	1.25
934.424	1.25
935.155	2.25
935.886	0.25
936.617	4.25
937.348	4.25
938.078	0.25
938.809	-0.75
939.54	-0.75
940.27	0.25
941.001	0.25
941.731	2.25
942.461	-0.75
943.191	-0.75
943.922	0.25
944.652	-0.75
945.382	-0.75
946.112	0.25
946.841	-0.75
947.571	1.25
948.301	0.25
949.031	3.25
949.76	1.25
950.49	2.25
951.219	0.25
951.948	1.25
952.678	3.25
953.407	1.25
954.136	0.25
954.865	-1.75
955.594	-2.75
956.323	0.25
957.052	2.25
957.78	1.25
958.509	-0.75
959.238	1.25
959.966	0.25
960.695	1.25
961.423	-0.75
962.151	-0.75
962.88	1.25
963.608	1.25
964.336	-0.75
965.064	0.25
965.792	-1.75
966.52	0.25
967.247	1.25
967.975	1.25
968.703	2.25
969.43	1.25
970.158	0.25
970.885	-0.75
971.613	0.25
972.34	1.25
973.067	2.25
973.794	0.25
974.521	2.25
975.248	1.25
975.975	-0.75
976.702	0.25
977.429	2.25
978.156	-0.75
978.882	0.25
979.609	0.25
980.335	1.25
981.062	1.25
981.788	0.25
982.514	1.25
983.24	0.25
983.967	2.25
984.693	-1.75
985.419	1.25
986.144	0.25
986.87	0.25
987.596	0.25
988.322	2.25
989.047	2.25
989.773	0.25
990.498	3.25
991.224	1.25
991.949	1.25
992.674	1.25
993.399	2.25
994.124	1.25
994.849	1.25
995.574	2.25
996.299	0.25
997.024	2.25
997.749	2.25
998.473	2.25
999.198	0.25
999.922	1.25
1000.647	1.25
1001.371	3.25
1002.095	0.25
1002.82	1.25
1003.544	-2.75
1004.268	6.25
1004.992	6.25
1005.716	5.25
1006.439	7.25
1007.163	6.25
1007.887	5.25
1008.611	2.25
1009.334	-0.75
1010.058	0.25
1010.781	1.25
1011.504	0.25
1012.228	0.25
1012.951	-0.75
1013.674	1.25
1014.397	-0.75
1015.12	-1.75
