节点500_705_QEPB04081__73__20-47-06-268.txt的数据

Date: Wed Nov 12 20:47:06 CST 2025
User: PC
Spectrometer: QEPB0408
触发模式: 0
积分时间 (秒): 1.000000E-2
Scans to average: 1
启用暗噪声校正: true
启用非线性校正: false
滑动平均宽度: 0
X轴模式: Wavelengths
Number of Pixels in Spectrum: 1044
>>>>>Begin Spectral Data<<<<<
220.843	8.12
221.644	8.12
222.444	7.12
223.244	7.12
224.045	7.12
224.845	6.12
225.645	8.12
226.445	6.12
227.245	8.12
228.045	5.12
228.845	8.12
229.645	10.12
230.444	11.12
231.244	11.12
232.043	7.12
232.843	8.12
233.642	11.12
234.442	12.12
235.241	13.12
236.04	9.12
236.839	9.12
237.638	9.12
238.437	12.12
239.236	13.12
240.035	11.12
240.833	13.12
241.632	11.12
242.43	13.12
243.229	13.12
244.027	13.12
244.826	15.12
245.624	14.12
246.422	14.12
247.22	16.12
248.018	17.12
248.816	16.12
249.614	17.12
250.412	15.12
251.21	19.12
252.007	17.12
252.805	19.12
253.602	22.12
254.4	20.12
255.197	18.12
255.994	22.12
256.791	23.12
257.589	22.12
258.386	22.12
259.183	21.12
259.979	25.12
260.776	25.12
261.573	26.12
262.37	24.12
263.166	27.12
263.963	26.12
264.759	27.12
265.556	28.12
266.352	28.12
267.148	27.12
267.944	29.12
268.74	31.12
269.536	33.12
270.332	31.12
271.128	33.12
271.924	30.12
272.719	35.12
273.515	36.12
274.311	37.12
275.106	34.12
275.901	35.12
276.697	38.12
277.492	38.12
278.287	38.12
279.082	35.12
279.877	38.12
280.672	36.12
281.467	35.12
282.262	36.12
283.056	37.12
283.851	33.12
284.646	36.12
285.44	35.12
286.234	35.12
287.029	35.12
287.823	37.12
288.617	36.12
289.411	35.12
290.205	32.12
290.999	35.12
291.793	32.12
292.587	33.12
293.381	31.12
294.174	31.12
294.968	30.12
295.761	27.12
296.555	27.12
297.348	27.12
298.141	27.12
298.935	29.12
299.728	26.12
300.521	27.12
301.314	26.12
302.107	26.12
302.899	20.12
303.692	23.12
304.485	22.12
305.277	24.12
306.07	23.12
306.862	25.12
307.655	22.12
308.447	21.12
309.239	19.12
310.031	20.12
310.823	18.12
311.615	20.12
312.407	18.12
313.199	19.12
313.991	19.12
314.783	17.12
315.574	18.12
316.366	17.12
317.157	16.12
317.949	13.12
318.74	15.12
319.531	12.12
320.322	14.12
321.113	15.12
321.904	11.12
322.695	13.12
323.486	15.12
324.277	15.12
325.068	15.12
325.858	12.12
326.649	15.12
327.439	8.12
328.23	13.12
329.02	12.12
329.81	11.12
330.6	13.12
331.391	12.12
332.181	12.12
332.971	13.12
333.76	9.12
334.55	15.12
335.34	13.12
336.13	13.12
336.919	11.12
337.709	13.12
338.498	13.12
339.287	10.12
340.077	13.12
340.866	13.12
341.655	11.12
342.444	13.12
343.233	11.12
344.022	9.12
344.811	11.12
345.6	13.12
346.388	14.12
347.177	10.12
347.965	13.12
348.754	12.12
349.542	12.12
350.33	11.12
351.119	11.12
351.907	11.12
352.695	12.12
353.483	10.12
354.271	11.12
355.059	10.12
355.846	12.12
356.634	11.12
357.422	12.12
358.209	12.12
358.997	10.12
359.784	13.12
360.571	10.12
361.359	10.12
362.146	10.12
362.933	7.12
363.72	7.12
364.507	12.12
365.294	10.12
366.081	12.12
366.867	10.12
367.654	11.12
368.44	11.12
369.227	12.12
370.013	9.12
370.8	10.12
371.586	12.12
372.372	8.12
373.158	9.12
373.944	12.12
374.73	8.12
375.516	11.12
376.302	10.12
377.088	12.12
377.873	10.12
378.659	10.12
379.445	11.12
380.23	12.12
381.015	11.12
381.801	10.12
382.586	9.12
383.371	9.12
384.156	9.12
384.941	13.12
385.726	9.12
386.511	12.12
387.296	11.12
388.08	10.12
388.865	13.12
389.649	13.12
390.434	13.12
391.218	12.12
392.003	14.12
392.787	14.12
393.571	11.12
394.355	13.12
395.139	13.12
395.923	14.12
396.707	15.12
397.491	15.12
398.274	14.12
399.058	15.12
399.842	14.12
400.625	15.12
401.408	15.12
402.192	15.12
402.975	15.12
403.758	16.12
404.541	14.12
405.324	15.12
406.107	15.12
406.89	15.12
407.673	17.12
408.456	17.12
409.238	15.12
410.021	16.12
410.803	18.12
411.586	15.12
412.368	20.12
413.151	19.12
413.933	19.12
414.715	20.12
415.497	20.12
416.279	21.12
417.061	20.12
417.843	19.12
418.624	23.12
419.406	20.12
420.188	23.12
420.969	22.12
421.751	22.12
422.532	26.12
423.313	23.12
424.095	28.12
424.876	24.12
425.657	26.12
426.438	28.12
427.219	30.12
428	30.12
428.78	31.12
429.561	31.12
430.342	29.12
431.122	32.12
431.903	34.12
432.683	36.12
433.464	34.12
434.244	36.12
435.024	39.12
435.804	38.12
436.584	43.12
437.364	44.12
438.144	47.12
438.924	51.12
439.704	49.12
440.483	55.12
441.263	58.12
442.042	65.12
442.822	66.12
443.601	71.12
444.38	76.12
445.16	87.12
445.939	91.12
446.718	101.12
447.497	104.12
448.276	113.12
449.054	124.12
449.833	141.12
450.612	149.12
451.391	170.12
452.169	182.12
452.948	198.12
453.726	219.12
454.504	249.12
455.282	279.12
456.061	312.12
456.839	339.12
457.617	387.12
458.395	433.12
459.172	480.12
459.95	529.12
460.728	600.12
461.506	687.12
462.283	746.12
463.061	842.12
463.838	942.12
464.615	1046.12
465.393	1176.12
466.17	1303.12
466.947	1452.12
467.724	1623.12
468.501	1775.12
469.278	2001.12
470.055	2217.12
470.831	2461.12
471.608	2737.12
472.385	2995.12
473.161	3359.12
473.938	3698.12
474.714	4087.12
475.49	4487.12
476.266	4982.12
477.043	5480.12
477.819	5955.12
478.595	6568.12
479.371	7233.12
480.146	7908.12
480.922	8721.12
481.698	9483.12
482.473	10394.12
483.249	11350.12
484.024	12382.12
484.8	13555.12
485.575	14694.12
486.35	16030.12
487.126	17425.12
487.901	18888.12
488.676	20417.12
489.451	22123.12
490.225	23787.12
491	25557.12
491.775	27489.12
492.55	29349.12
493.324	31279.12
494.099	33220.12
494.873	35193.12
495.647	37099.12
496.422	39113.12
497.196	40975.12
497.97	42724.12
498.744	44251.12
499.518	45931.12
500.292	47158.12
501.066	48030.12
501.839	48824.12
502.613	49410.12
503.387	49871.12
504.16	50043.12
504.934	49925.12
505.707	49438.12
506.48	48814.12
507.253	47976.12
508.027	47044.12
508.8	45786.12
509.573	44412.12
510.346	43246.12
511.118	41860.12
511.891	40425.12
512.664	38797.12
513.437	37053.12
514.209	35592.12
514.982	34152.12
515.754	32716.12
516.526	31310.12
517.298	30053.12
518.071	28787.12
518.843	27687.12
519.615	26525.12
520.387	25487.12
521.159	24478.12
521.93	23420.12
522.702	22447.12
523.474	21394.12
524.245	20486.12
525.017	19556.12
525.788	18630.12
526.56	17902.12
527.331	17068.12
528.102	16143.12
528.873	15344.12
529.644	14658.12
530.415	13874.12
531.186	13194.12
531.957	12518.12
532.728	11787.12
533.498	11143.12
534.269	10541.12
535.039	9954.12
535.81	9391.12
536.58	8919.12
537.351	8435.12
538.121	8021.12
538.891	7525.12
539.661	7136.12
540.431	6748.12
541.201	6412.12
541.971	6106.12
542.741	5753.12
543.51	5466.12
544.28	5186.12
545.05	4959.12
545.819	4754.12
546.588	4506.12
547.358	4282.12
548.127	4082.12
548.896	3845.12
549.665	3676.12
550.434	3437.12
551.203	3273.12
551.972	3106.12
552.741	2950.12
553.51	2789.12
554.278	2614.12
555.047	2466.12
555.815	2322.12
556.584	2185.12
557.352	2076.12
558.121	1951.12
558.889	1858.12
559.657	1751.12
560.425	1645.12
561.193	1562.12
561.961	1477.12
562.729	1402.12
563.496	1328.12
564.264	1241.12
565.032	1190.12
565.799	1127.12
566.567	1064.12
567.334	1003.12
568.101	950.12
568.869	890.12
569.636	846.12
570.403	794.12
571.17	752.12
571.937	699.12
572.704	673.12
573.471	647.12
574.237	605.12
575.004	561.12
575.771	531.12
576.537	500.12
577.303	475.12
578.07	457.12
578.836	418.12
579.602	388.12
580.368	371.12
581.134	358.12
581.9	341.12
582.666	319.12
583.432	311.12
584.198	297.12
584.964	281.12
585.729	262.12
586.495	253.12
587.26	239.12
588.025	224.12
588.791	216.12
589.556	202.12
590.321	192.12
591.086	183.12
591.851	172.12
592.616	163.12
593.381	160.12
594.146	147.12
594.911	152.12
595.675	140.12
596.44	130.12
597.204	131.12
597.969	123.12
598.733	116.12
599.497	110.12
600.261	107.12
601.025	101.12
601.79	98.12
602.553	93.12
603.317	90.12
604.081	86.12
604.845	83.12
605.609	79.12
606.372	71.12
607.136	76.12
607.899	68.12
608.662	68.12
609.426	70.12
610.189	65.12
610.952	63.12
611.715	60.12
612.478	54.12
613.241	58.12
614.004	52.12
614.767	55.12
615.529	52.12
616.292	48.12
617.055	47.12
617.817	44.12
618.579	43.12
619.342	44.12
620.104	43.12
620.866	42.12
621.628	40.12
622.39	35.12
623.152	36.12
623.914	36.12
624.676	33.12
625.438	33.12
626.199	31.12
626.961	30.12
627.722	31.12
628.484	29.12
629.245	28.12
630.006	29.12
630.768	27.12
631.529	27.12
632.29	26.12
633.051	24.12
633.812	23.12
634.573	24.12
635.333	20.12
636.094	24.12
636.855	21.12
637.615	19.12
638.376	19.12
639.136	21.12
639.896	21.12
640.657	19.12
641.417	19.12
642.177	18.12
642.937	20.12
643.697	18.12
644.457	15.12
645.216	16.12
645.976	14.12
646.736	17.12
647.495	17.12
648.255	15.12
649.014	15.12
649.774	14.12
650.533	14.12
651.292	14.12
652.051	16.12
652.81	14.12
653.569	14.12
654.328	15.12
655.087	12.12
655.846	13.12
656.604	12.12
657.363	14.12
658.121	12.12
658.88	12.12
659.638	12.12
660.397	12.12
661.155	11.12
661.913	10.12
662.671	11.12
663.429	10.12
664.187	11.12
664.945	13.12
665.703	10.12
666.46	10.12
667.218	10.12
667.976	11.12
668.733	10.12
669.49	12.12
670.248	11.12
671.005	9.12
671.762	8.12
672.519	10.12
673.276	7.12
674.033	11.12
674.79	8.12
675.547	8.12
676.304	9.12
677.06	10.12
677.817	9.12
678.574	6.12
679.33	11.12
680.086	11.12
680.843	10.12
681.599	11.12
682.355	8.12
683.111	8.12
683.867	10.12
684.623	6.12
685.379	8.12
686.135	6.12
686.89	8.12
687.646	7.12
688.402	8.12
689.157	8.12
689.912	9.12
690.668	8.12
691.423	7.12
692.178	10.12
692.933	6.12
693.688	9.12
694.443	7.12
695.198	9.12
695.953	9.12
696.708	8.12
697.462	9.12
698.217	8.12
698.972	9.12
699.726	8.12
700.48	8.12
701.235	10.12
701.989	9.12
702.743	7.12
703.497	7.12
704.251	7.12
705.005	10.12
705.759	7.12
706.513	9.12
707.266	9.12
708.02	9.12
708.774	9.12
709.527	8.12
710.28	6.12
711.034	4.12
711.787	9.12
712.54	8.12
713.293	6.12
714.046	9.12
714.799	8.12
715.552	9.12
716.305	9.12
717.058	6.12
717.81	8.12
718.563	9.12
719.315	9.12
720.068	6.12
720.82	8.12
721.573	11.12
722.325	10.12
723.077	10.12
723.829	9.12
724.581	10.12
725.333	7.12
726.085	9.12
726.836	11.12
727.588	9.12
728.34	11.12
729.091	10.12
729.843	10.12
730.594	11.12
731.346	8.12
732.097	11.12
732.848	10.12
733.599	10.12
734.35	10.12
735.101	11.12
735.852	9.12
736.603	12.12
737.354	8.12
738.104	12.12
738.855	11.12
739.605	8.12
740.356	9.12
741.106	10.12
741.856	12.12
742.607	9.12
743.357	11.12
744.107	11.12
744.857	13.12
745.607	11.12
746.357	13.12
747.106	11.12
747.856	12.12
748.606	11.12
749.355	13.12
750.105	11.12
750.854	11.12
751.603	14.12
752.353	11.12
753.102	11.12
753.851	13.12
754.6	13.12
755.349	12.12
756.098	11.12
756.847	13.12
757.595	12.12
758.344	13.12
759.093	13.12
759.841	11.12
760.589	15.12
761.338	13.12
762.086	14.12
762.834	13.12
763.582	15.12
764.331	14.12
765.079	13.12
765.826	15.12
766.574	14.12
767.322	15.12
768.07	15.12
768.817	16.12
769.565	16.12
770.312	17.12
771.06	16.12
771.807	15.12
772.554	16.12
773.302	15.12
774.049	16.12
774.796	17.12
775.543	16.12
776.29	19.12
777.036	15.12
777.783	16.12
778.53	15.12
779.276	19.12
780.023	18.12
780.769	15.12
781.516	18.12
782.262	16.12
783.008	13.12
783.754	19.12
784.5	15.12
785.246	16.12
785.992	15.12
786.738	16.12
787.484	16.12
788.23	16.12
788.975	17.12
789.721	17.12
790.466	14.12
791.212	15.12
791.957	13.12
792.702	15.12
793.447	12.12
794.193	13.12
794.938	15.12
795.683	14.12
796.427	12.12
797.172	12.12
797.917	15.12
798.662	15.12
799.406	12.12
800.151	12.12
800.895	15.12
801.64	13.12
802.384	10.12
803.128	13.12
803.872	11.12
804.616	13.12
805.36	13.12
806.104	12.12
806.848	9.12
807.592	10.12
808.336	11.12
809.079	10.12
809.823	11.12
810.566	10.12
811.31	11.12
812.053	10.12
812.796	8.12
813.539	9.12
814.283	10.12
815.026	6.12
815.769	10.12
816.511	9.12
817.254	7.12
817.997	9.12
818.74	11.12
819.482	9.12
820.225	9.12
820.967	7.12
821.71	8.12
822.452	9.12
823.194	9.12
823.936	9.12
824.678	7.12
825.42	6.12
826.162	6.12
826.904	5.12
827.646	7.12
828.388	7.12
829.129	5.12
829.871	8.12
830.612	6.12
831.354	5.12
832.095	7.12
832.836	6.12
833.577	6.12
834.319	4.12
835.06	8.12
835.801	6.12
836.542	8.12
837.282	7.12
838.023	6.12
838.764	7.12
839.504	3.12
840.245	5.12
840.985	7.12
841.726	4.12
842.466	6.12
843.206	4.12
843.946	3.12
844.687	6.12
845.427	3.12
846.166	5.12
846.906	6.12
847.646	4.12
848.386	4.12
849.125	5.12
849.865	6.12
850.605	5.12
851.344	3.12
852.083	5.12
852.823	4.12
853.562	4.12
854.301	4.12
855.04	5.12
855.779	3.12
856.518	3.12
857.257	2.12
857.995	4.12
858.734	3.12
859.473	5.12
860.211	4.12
860.95	6.12
861.688	0.12
862.426	3.12
863.165	5.12
863.903	2.12
864.641	4.12
865.379	3.12
866.117	2.12
866.855	4.12
867.593	4.12
868.33	4.12
869.068	4.12
869.806	3.12
870.543	3.12
871.28	2.12
872.018	1.12
872.755	2.12
873.492	1.12
874.229	2.12
874.967	2.12
875.703	3.12
876.44	3.12
877.177	2.12
877.914	1.12
878.651	2.12
879.387	2.12
880.124	1.12
880.86	2.12
881.597	2.12
882.333	1.12
883.069	3.12
883.806	3.12
884.542	4.12
885.278	1.12
886.014	2.12
886.749	1.12
887.485	1.12
888.221	3.12
888.957	1.12
889.692	1.12
890.428	1.12
891.163	0.12
891.899	2.12
892.634	1.12
893.369	1.12
894.104	1.12
894.839	2.12
895.574	1.12
896.309	-0.88
897.044	2.12
897.779	2.12
898.514	1.12
899.248	2.12
899.983	3.12
900.717	0.12
901.452	3.12
902.186	5.12
902.92	2.12
903.654	3.12
904.389	1.12
905.123	1.12
905.857	2.12
906.59	0.12
907.324	2.12
908.058	-0.88
908.792	-0.88
909.525	0.12
910.259	3.12
910.992	1.12
911.726	1.12
912.459	3.12
913.192	3.12
913.925	0.12
914.658	2.12
915.391	0.12
916.124	1.12
916.857	-0.88
917.59	2.12
918.323	-0.88
919.055	2.12
919.788	1.12
920.521	1.12
921.253	2.12
921.985	2.12
922.718	1.12
923.45	1.12
924.182	2.12
924.914	0.12
925.646	1.12
926.378	3.12
927.11	-0.88
927.841	2.12
928.573	1.12
929.305	0.12
930.036	-0.88
930.768	1.12
931.499	1.12
932.23	2.12
932.962	1.12
933.693	3.12
934.424	1.12
935.155	-0.88
935.886	-0.88
936.617	1.12
937.348	3.12
938.078	0.12
938.809	2.12
939.54	-0.88
940.27	2.12
941.001	-0.88
941.731	0.12
942.461	-0.88
943.191	-0.88
943.922	2.12
944.652	1.12
945.382	1.12
946.112	1.12
946.841	2.12
947.571	1.12
948.301	1.12
949.031	0.12
949.76	0.12
950.49	1.12
951.219	-0.88
951.948	2.12
952.678	-0.88
953.407	0.12
954.136	1.12
954.865	1.12
955.594	2.12
956.323	-1.88
957.052	0.12
957.78	1.12
958.509	0.12
959.238	3.12
959.966	0.12
960.695	-0.88
961.423	1.12
962.151	-0.88
962.88	0.12
963.608	0.12
964.336	1.12
965.064	1.12
965.792	2.12
966.52	1.12
967.247	0.12
967.975	2.12
968.703	1.12
969.43	0.12
970.158	2.12
970.885	0.12
971.613	0.12
972.34	3.12
973.067	3.12
973.794	1.12
974.521	0.12
975.248	1.12
975.975	-0.88
976.702	3.12
977.429	2.12
978.156	-0.88
978.882	1.12
979.609	-0.88
980.335	2.12
981.062	2.12
981.788	-1.88
982.514	2.12
983.24	0.12
983.967	0.12
984.693	0.12
985.419	1.12
986.144	0.12
986.87	1.12
987.596	2.12
988.322	-0.88
989.047	0.12
989.773	1.12
990.498	2.12
991.224	2.12
991.949	0.12
992.674	1.12
993.399	-0.88
994.124	0.12
994.849	-4.88
995.574	0.12
996.299	1.12
997.024	1.12
997.749	-0.88
998.473	-0.88
999.198	2.12
999.922	2.12
1000.647	1.12
1001.371	4.12
1002.095	-1.88
1002.82	1.12
1003.544	-2.88
1004.268	7.12
1004.992	4.12
1005.716	5.12
1006.439	5.12
1007.163	5.12
1007.887	5.12
1008.611	3.12
1009.334	0.12
1010.058	1.12
1010.781	0.12
1011.504	1.12
1012.228	2.12
1012.951	0.12
1013.674	-0.88
1014.397	-1.88
1015.12	2.12
