节点500_705_QEPB04081__270__20-49-48-430.txt的数据

Date: Wed Nov 12 20:49:48 CST 2025
User: PC
Spectrometer: QEPB0408
触发模式: 0
积分时间 (秒): 1.000000E-2
Scans to average: 1
启用暗噪声校正: true
启用非线性校正: false
滑动平均宽度: 0
X轴模式: Wavelengths
Number of Pixels in Spectrum: 1044
>>>>>Begin Spectral Data<<<<<
220.843	4.12
221.644	4.12
222.444	8.12
223.244	3.12
224.045	4.12
224.845	7.12
225.645	6.12
226.445	7.12
227.245	5.12
228.045	6.12
228.845	4.12
229.645	7.12
230.444	7.12
231.244	5.12
232.043	9.12
232.843	8.12
233.642	9.12
234.442	7.12
235.241	11.12
236.04	8.12
236.839	8.12
237.638	10.12
238.437	12.12
239.236	11.12
240.035	12.12
240.833	11.12
241.632	11.12
242.43	12.12
243.229	11.12
244.027	11.12
244.826	12.12
245.624	14.12
246.422	12.12
247.22	14.12
248.018	15.12
248.816	16.12
249.614	16.12
250.412	16.12
251.21	18.12
252.007	15.12
252.805	17.12
253.602	19.12
254.4	16.12
255.197	19.12
255.994	18.12
256.791	19.12
257.589	19.12
258.386	21.12
259.183	21.12
259.979	22.12
260.776	26.12
261.573	20.12
262.37	23.12
263.166	25.12
263.963	26.12
264.759	25.12
265.556	27.12
266.352	29.12
267.148	26.12
267.944	28.12
268.74	30.12
269.536	24.12
270.332	30.12
271.128	32.12
271.924	33.12
272.719	28.12
273.515	30.12
274.311	32.12
275.106	32.12
275.901	32.12
276.697	34.12
277.492	35.12
278.287	32.12
279.082	30.12
279.877	34.12
280.672	33.12
281.467	34.12
282.262	39.12
283.056	35.12
283.851	36.12
284.646	35.12
285.44	37.12
286.234	34.12
287.029	31.12
287.823	34.12
288.617	36.12
289.411	33.12
290.205	34.12
290.999	35.12
291.793	31.12
292.587	28.12
293.381	35.12
294.174	29.12
294.968	27.12
295.761	28.12
296.555	23.12
297.348	28.12
298.141	25.12
298.935	31.12
299.728	24.12
300.521	24.12
301.314	22.12
302.107	23.12
302.899	21.12
303.692	24.12
304.485	24.12
305.277	21.12
306.07	22.12
306.862	23.12
307.655	21.12
308.447	22.12
309.239	21.12
310.031	20.12
310.823	18.12
311.615	19.12
312.407	16.12
313.199	16.12
313.991	18.12
314.783	14.12
315.574	13.12
316.366	15.12
317.157	14.12
317.949	17.12
318.74	13.12
319.531	14.12
320.322	16.12
321.113	12.12
321.904	12.12
322.695	13.12
323.486	14.12
324.277	13.12
325.068	12.12
325.858	13.12
326.649	12.12
327.439	14.12
328.23	11.12
329.02	12.12
329.81	16.12
330.6	11.12
331.391	12.12
332.181	10.12
332.971	13.12
333.76	13.12
334.55	12.12
335.34	13.12
336.13	11.12
336.919	9.12
337.709	11.12
338.498	11.12
339.287	11.12
340.077	8.12
340.866	11.12
341.655	12.12
342.444	12.12
343.233	10.12
344.022	8.12
344.811	13.12
345.6	9.12
346.388	11.12
347.177	11.12
347.965	9.12
348.754	10.12
349.542	10.12
350.33	10.12
351.119	10.12
351.907	10.12
352.695	10.12
353.483	8.12
354.271	10.12
355.059	10.12
355.846	11.12
356.634	10.12
357.422	10.12
358.209	9.12
358.997	9.12
359.784	10.12
360.571	8.12
361.359	10.12
362.146	10.12
362.933	10.12
363.72	9.12
364.507	8.12
365.294	11.12
366.081	8.12
366.867	8.12
367.654	9.12
368.44	9.12
369.227	9.12
370.013	6.12
370.8	9.12
371.586	10.12
372.372	9.12
373.158	9.12
373.944	8.12
374.73	9.12
375.516	8.12
376.302	8.12
377.088	10.12
377.873	11.12
378.659	9.12
379.445	10.12
380.23	8.12
381.015	11.12
381.801	11.12
382.586	13.12
383.371	7.12
384.156	11.12
384.941	8.12
385.726	12.12
386.511	11.12
387.296	8.12
388.08	10.12
388.865	9.12
389.649	10.12
390.434	12.12
391.218	11.12
392.003	12.12
392.787	13.12
393.571	12.12
394.355	13.12
395.139	12.12
395.923	12.12
396.707	13.12
397.491	14.12
398.274	11.12
399.058	15.12
399.842	14.12
400.625	13.12
401.408	12.12
402.192	12.12
402.975	16.12
403.758	12.12
404.541	14.12
405.324	15.12
406.107	17.12
406.89	14.12
407.673	11.12
408.456	15.12
409.238	13.12
410.021	17.12
410.803	15.12
411.586	15.12
412.368	17.12
413.151	13.12
413.933	20.12
414.715	18.12
415.497	20.12
416.279	19.12
417.061	20.12
417.843	18.12
418.624	18.12
419.406	20.12
420.188	19.12
420.969	18.12
421.751	22.12
422.532	21.12
423.313	24.12
424.095	24.12
424.876	23.12
425.657	25.12
426.438	24.12
427.219	28.12
428	25.12
428.78	26.12
429.561	30.12
430.342	30.12
431.122	31.12
431.903	33.12
432.683	31.12
433.464	37.12
434.244	38.12
435.024	38.12
435.804	42.12
436.584	40.12
437.364	45.12
438.144	47.12
438.924	48.12
439.704	53.12
440.483	57.12
441.263	57.12
442.042	63.12
442.822	66.12
443.601	72.12
444.38	78.12
445.16	81.12
445.939	94.12
446.718	101.12
447.497	109.12
448.276	122.12
449.054	127.12
449.833	140.12
450.612	156.12
451.391	175.12
452.169	190.12
452.948	213.12
453.726	229.12
454.504	264.12
455.282	293.12
456.061	320.12
456.839	359.12
457.617	408.12
458.395	451.12
459.172	509.12
459.95	568.12
460.728	619.12
461.506	702.12
462.283	769.12
463.061	869.12
463.838	971.12
464.615	1075.12
465.393	1212.12
466.17	1342.12
466.947	1481.12
467.724	1653.12
468.501	1826.12
469.278	2026.12
470.055	2260.12
470.831	2484.12
471.608	2759.12
472.385	3028.12
473.161	3339.12
473.938	3690.12
474.714	4051.12
475.49	4451.12
476.266	4869.12
477.043	5364.12
477.819	5835.12
478.595	6398.12
479.371	7015.12
480.146	7658.12
480.922	8376.12
481.698	9147.12
482.473	9911.12
483.249	10816.12
484.024	11741.12
484.8	12752.12
485.575	13865.12
486.35	15051.12
487.126	16298.12
487.901	17588.12
488.676	19044.12
489.451	20583.12
490.225	22164.12
491	23831.12
491.775	25401.12
492.55	27236.12
493.324	28963.12
494.099	30818.12
494.873	32642.12
495.647	34439.12
496.422	36261.12
497.196	38157.12
497.97	39770.12
498.744	41272.12
499.518	42887.12
500.292	44210.12
501.066	45289.12
501.839	46090.12
502.613	46782.12
503.387	47382.12
504.16	47800.12
504.934	47829.12
505.707	47710.12
506.48	47287.12
507.253	46655.12
508.027	46016.12
508.8	44818.12
509.573	43850.12
510.346	42701.12
511.118	41638.12
511.891	40353.12
512.664	38743.12
513.437	37216.12
514.209	35867.12
514.982	34486.12
515.754	32979.12
516.526	31560.12
517.298	30429.12
518.071	29140.12
518.843	27930.12
519.615	26909.12
520.387	25838.12
521.159	24766.12
521.93	23781.12
522.702	22700.12
523.474	21857.12
524.245	20851.12
525.017	19914.12
525.788	19088.12
526.56	18216.12
527.331	17455.12
528.102	16545.12
528.873	15694.12
529.644	14980.12
530.415	14308.12
531.186	13594.12
531.957	12808.12
532.728	12206.12
533.498	11518.12
534.269	10936.12
535.039	10324.12
535.81	9736.12
536.58	9286.12
537.351	8726.12
538.121	8305.12
538.891	7866.12
539.661	7434.12
540.431	7027.12
541.201	6664.12
541.971	6307.12
542.741	5970.12
543.51	5694.12
544.28	5407.12
545.05	5155.12
545.819	4876.12
546.588	4679.12
547.358	4437.12
548.127	4242.12
548.896	4001.12
549.665	3806.12
550.434	3591.12
551.203	3417.12
551.972	3237.12
552.741	3064.12
553.51	2891.12
554.278	2737.12
555.047	2575.12
555.815	2410.12
556.584	2294.12
557.352	2180.12
558.121	2067.12
558.889	1938.12
559.657	1832.12
560.425	1748.12
561.193	1629.12
561.961	1566.12
562.729	1462.12
563.496	1392.12
564.264	1307.12
565.032	1254.12
565.799	1181.12
566.567	1120.12
567.334	1060.12
568.101	991.12
568.869	925.12
569.636	897.12
570.403	837.12
571.17	798.12
571.937	745.12
572.704	710.12
573.471	666.12
574.237	637.12
575.004	590.12
575.771	553.12
576.537	521.12
577.303	493.12
578.07	472.12
578.836	436.12
579.602	413.12
580.368	393.12
581.134	378.12
581.9	362.12
582.666	337.12
583.432	328.12
584.198	307.12
584.964	292.12
585.729	277.12
586.495	265.12
587.26	248.12
588.025	236.12
588.791	220.12
589.556	210.12
590.321	203.12
591.086	199.12
591.851	181.12
592.616	174.12
593.381	161.12
594.146	155.12
594.911	148.12
595.675	146.12
596.44	139.12
597.204	135.12
597.969	125.12
598.733	116.12
599.497	118.12
600.261	110.12
601.025	105.12
601.79	101.12
602.553	98.12
603.317	95.12
604.081	87.12
604.845	87.12
605.609	83.12
606.372	75.12
607.136	77.12
607.899	75.12
608.662	74.12
609.426	67.12
610.189	66.12
610.952	65.12
611.715	60.12
612.478	55.12
613.241	54.12
614.004	56.12
614.767	53.12
615.529	50.12
616.292	48.12
617.055	48.12
617.817	43.12
618.579	44.12
619.342	43.12
620.104	40.12
620.866	39.12
621.628	40.12
622.39	39.12
623.152	37.12
623.914	34.12
624.676	34.12
625.438	34.12
626.199	31.12
626.961	33.12
627.722	30.12
628.484	27.12
629.245	30.12
630.006	29.12
630.768	28.12
631.529	28.12
632.29	24.12
633.051	23.12
633.812	21.12
634.573	23.12
635.333	21.12
636.094	24.12
636.855	23.12
637.615	19.12
638.376	20.12
639.136	19.12
639.896	18.12
640.657	20.12
641.417	16.12
642.177	17.12
642.937	14.12
643.697	17.12
644.457	17.12
645.216	15.12
645.976	14.12
646.736	15.12
647.495	15.12
648.255	12.12
649.014	15.12
649.774	12.12
650.533	17.12
651.292	14.12
652.051	13.12
652.81	16.12
653.569	12.12
654.328	15.12
655.087	13.12
655.846	13.12
656.604	12.12
657.363	11.12
658.121	11.12
658.88	10.12
659.638	12.12
660.397	12.12
661.155	11.12
661.913	10.12
662.671	9.12
663.429	11.12
664.187	11.12
664.945	9.12
665.703	7.12
666.46	10.12
667.218	11.12
667.976	7.12
668.733	10.12
669.49	9.12
670.248	10.12
671.005	9.12
671.762	7.12
672.519	11.12
673.276	9.12
674.033	6.12
674.79	6.12
675.547	5.12
676.304	8.12
677.06	8.12
677.817	8.12
678.574	6.12
679.33	8.12
680.086	7.12
680.843	8.12
681.599	9.12
682.355	7.12
683.111	6.12
683.867	6.12
684.623	9.12
685.379	8.12
686.135	8.12
686.89	6.12
687.646	7.12
688.402	6.12
689.157	8.12
689.912	5.12
690.668	8.12
691.423	9.12
692.178	8.12
692.933	8.12
693.688	8.12
694.443	9.12
695.198	8.12
695.953	10.12
696.708	8.12
697.462	8.12
698.217	7.12
698.972	7.12
699.726	6.12
700.48	5.12
701.235	5.12
701.989	7.12
702.743	6.12
703.497	8.12
704.251	9.12
705.005	7.12
705.759	7.12
706.513	7.12
707.266	7.12
708.02	6.12
708.774	7.12
709.527	8.12
710.28	8.12
711.034	7.12
711.787	5.12
712.54	8.12
713.293	6.12
714.046	9.12
714.799	4.12
715.552	7.12
716.305	5.12
717.058	7.12
717.81	9.12
718.563	7.12
719.315	5.12
720.068	7.12
720.82	8.12
721.573	7.12
722.325	8.12
723.077	8.12
723.829	7.12
724.581	8.12
725.333	7.12
726.085	7.12
726.836	11.12
727.588	6.12
728.34	8.12
729.091	8.12
729.843	6.12
730.594	7.12
731.346	7.12
732.097	10.12
732.848	7.12
733.599	9.12
734.35	10.12
735.101	5.12
735.852	8.12
736.603	9.12
737.354	12.12
738.104	9.12
738.855	8.12
739.605	8.12
740.356	11.12
741.106	11.12
741.856	10.12
742.607	8.12
743.357	9.12
744.107	7.12
744.857	11.12
745.607	8.12
746.357	12.12
747.106	9.12
747.856	9.12
748.606	9.12
749.355	10.12
750.105	10.12
750.854	10.12
751.603	11.12
752.353	12.12
753.102	11.12
753.851	12.12
754.6	9.12
755.349	11.12
756.098	8.12
756.847	10.12
757.595	11.12
758.344	14.12
759.093	10.12
759.841	11.12
760.589	15.12
761.338	11.12
762.086	12.12
762.834	12.12
763.582	11.12
764.331	14.12
765.079	12.12
765.826	11.12
766.574	15.12
767.322	13.12
768.07	11.12
768.817	13.12
769.565	12.12
770.312	15.12
771.06	14.12
771.807	12.12
772.554	17.12
773.302	16.12
774.049	16.12
774.796	18.12
775.543	13.12
776.29	17.12
777.036	14.12
777.783	15.12
778.53	16.12
779.276	15.12
780.023	14.12
780.769	17.12
781.516	13.12
782.262	16.12
783.008	13.12
783.754	15.12
784.5	14.12
785.246	14.12
785.992	17.12
786.738	16.12
787.484	17.12
788.23	14.12
788.975	16.12
789.721	14.12
790.466	12.12
791.212	15.12
791.957	15.12
792.702	15.12
793.447	12.12
794.193	13.12
794.938	14.12
795.683	13.12
796.427	11.12
797.172	13.12
797.917	13.12
798.662	10.12
799.406	12.12
800.151	13.12
800.895	10.12
801.64	11.12
802.384	10.12
803.128	12.12
803.872	12.12
804.616	12.12
805.36	11.12
806.104	9.12
806.848	8.12
807.592	10.12
808.336	10.12
809.079	9.12
809.823	10.12
810.566	10.12
811.31	10.12
812.053	9.12
812.796	6.12
813.539	7.12
814.283	10.12
815.026	6.12
815.769	9.12
816.511	9.12
817.254	7.12
817.997	8.12
818.74	9.12
819.482	6.12
820.225	8.12
820.967	8.12
821.71	8.12
822.452	6.12
823.194	5.12
823.936	8.12
824.678	8.12
825.42	7.12
826.162	6.12
826.904	7.12
827.646	4.12
828.388	6.12
829.129	7.12
829.871	8.12
830.612	7.12
831.354	7.12
832.095	6.12
832.836	5.12
833.577	5.12
834.319	6.12
835.06	6.12
835.801	7.12
836.542	7.12
837.282	9.12
838.023	5.12
838.764	6.12
839.504	4.12
840.245	5.12
840.985	5.12
841.726	7.12
842.466	5.12
843.206	5.12
843.946	4.12
844.687	4.12
845.427	2.12
846.166	7.12
846.906	4.12
847.646	5.12
848.386	5.12
849.125	3.12
849.865	5.12
850.605	4.12
851.344	6.12
852.083	5.12
852.823	4.12
853.562	6.12
854.301	4.12
855.04	4.12
855.779	2.12
856.518	4.12
857.257	1.12
857.995	2.12
858.734	2.12
859.473	4.12
860.211	2.12
860.95	2.12
861.688	4.12
862.426	4.12
863.165	0.12
863.903	2.12
864.641	2.12
865.379	4.12
866.117	2.12
866.855	-0.88
867.593	2.12
868.33	1.12
869.068	2.12
869.806	2.12
870.543	2.12
871.28	2.12
872.018	3.12
872.755	0.12
873.492	0.12
874.229	2.12
874.967	1.12
875.703	1.12
876.44	0.12
877.177	1.12
877.914	1.12
878.651	2.12
879.387	0.12
880.124	1.12
880.86	1.12
881.597	4.12
882.333	0.12
883.069	-0.88
883.806	0.12
884.542	2.12
885.278	2.12
886.014	1.12
886.749	0.12
887.485	1.12
888.221	2.12
888.957	0.12
889.692	2.12
890.428	3.12
891.163	0.12
891.899	1.12
892.634	1.12
893.369	2.12
894.104	2.12
894.839	0.12
895.574	1.12
896.309	0.12
897.044	0.12
897.779	0.12
898.514	2.12
899.248	1.12
899.983	-1.88
900.717	0.12
901.452	0.12
902.186	1.12
902.92	2.12
903.654	1.12
904.389	2.12
905.123	1.12
905.857	0.12
906.59	-0.88
907.324	0.12
908.058	0.12
908.792	0.12
909.525	1.12
910.259	0.12
910.992	0.12
911.726	1.12
912.459	1.12
913.192	1.12
913.925	-0.88
914.658	0.12
915.391	-1.88
916.124	0.12
916.857	0.12
917.59	-1.88
918.323	-0.88
919.055	-1.88
919.788	2.12
920.521	2.12
921.253	1.12
921.985	1.12
922.718	1.12
923.45	-1.88
924.182	0.12
924.914	-1.88
925.646	0.12
926.378	-0.88
927.11	1.12
927.841	0.12
928.573	0.12
929.305	0.12
930.036	0.12
930.768	0.12
931.499	-0.88
932.23	0.12
932.962	-1.88
933.693	1.12
934.424	-0.88
935.155	-1.88
935.886	-0.88
936.617	-0.88
937.348	0.12
938.078	1.12
938.809	1.12
939.54	-1.88
940.27	-1.88
941.001	-1.88
941.731	0.12
942.461	0.12
943.191	-1.88
943.922	-2.88
944.652	1.12
945.382	-3.88
946.112	0.12
946.841	0.12
947.571	0.12
948.301	1.12
949.031	-0.88
949.76	0.12
950.49	1.12
951.219	0.12
951.948	0.12
952.678	-0.88
953.407	-0.88
954.136	1.12
954.865	0.12
955.594	1.12
956.323	-2.88
957.052	0.12
957.78	-0.88
958.509	0.12
959.238	-0.88
959.966	-0.88
960.695	-3.88
961.423	-1.88
962.151	-0.88
962.88	1.12
963.608	0.12
964.336	0.12
965.064	0.12
965.792	0.12
966.52	-0.88
967.247	0.12
967.975	0.12
968.703	0.12
969.43	1.12
970.158	-0.88
970.885	2.12
971.613	-1.88
972.34	2.12
973.067	1.12
973.794	0.12
974.521	-0.88
975.248	-1.88
975.975	0.12
976.702	-0.88
977.429	0.12
978.156	1.12
978.882	1.12
979.609	0.12
980.335	-0.88
981.062	0.12
981.788	-0.88
982.514	-1.88
983.24	-0.88
983.967	-1.88
984.693	-0.88
985.419	-2.88
986.144	-0.88
986.87	-0.88
987.596	0.12
988.322	-0.88
989.047	0.12
989.773	0.12
990.498	0.12
991.224	0.12
991.949	0.12
992.674	0.12
993.399	1.12
994.124	3.12
994.849	0.12
995.574	0.12
996.299	-0.88
997.024	2.12
997.749	0.12
998.473	1.12
999.198	-0.88
999.922	2.12
1000.647	2.12
1001.371	4.12
1002.095	-1.88
1002.82	0.12
1003.544	-1.88
1004.268	5.12
1004.992	3.12
1005.716	4.12
1006.439	3.12
1007.163	5.12
1007.887	4.12
1008.611	-1.88
1009.334	-3.88
1010.058	-0.88
1010.781	2.12
1011.504	0.12
1012.228	-0.88
1012.951	0.12
1013.674	-1.88
1014.397	0.12
1015.12	1.12
