节点500_705_QEPB04081__686__20-55-42-793.txt的数据

Date: Wed Nov 12 20:55:42 CST 2025
User: PC
Spectrometer: QEPB0408
触发模式: 0
积分时间 (秒): 1.000000E-2
Scans to average: 1
启用暗噪声校正: true
启用非线性校正: false
滑动平均宽度: 0
X轴模式: Wavelengths
Number of Pixels in Spectrum: 1044
>>>>>Begin Spectral Data<<<<<
220.843	3.75
221.644	5.75
222.444	4.75
223.244	5.75
224.045	7.75
224.845	8.75
225.645	8.75
226.445	4.75
227.245	6.75
228.045	6.75
228.845	6.75
229.645	7.75
230.444	7.75
231.244	6.75
232.043	6.75
232.843	11.75
233.642	9.75
234.442	13.75
235.241	9.75
236.04	7.75
236.839	11.75
237.638	10.75
238.437	9.75
239.236	11.75
240.035	10.75
240.833	10.75
241.632	10.75
242.43	10.75
243.229	10.75
244.027	13.75
244.826	10.75
245.624	11.75
246.422	11.75
247.22	11.75
248.018	13.75
248.816	13.75
249.614	13.75
250.412	16.75
251.21	10.75
252.007	14.75
252.805	14.75
253.602	15.75
254.4	16.75
255.197	18.75
255.994	17.75
256.791	19.75
257.589	20.75
258.386	17.75
259.183	17.75
259.979	20.75
260.776	19.75
261.573	21.75
262.37	21.75
263.166	21.75
263.963	21.75
264.759	23.75
265.556	25.75
266.352	22.75
267.148	25.75
267.944	25.75
268.74	25.75
269.536	24.75
270.332	23.75
271.128	24.75
271.924	28.75
272.719	26.75
273.515	30.75
274.311	26.75
275.106	29.75
275.901	30.75
276.697	29.75
277.492	29.75
278.287	29.75
279.082	32.75
279.877	32.75
280.672	30.75
281.467	29.75
282.262	29.75
283.056	32.75
283.851	30.75
284.646	30.75
285.44	32.75
286.234	32.75
287.029	31.75
287.823	29.75
288.617	30.75
289.411	30.75
290.205	31.75
290.999	30.75
291.793	26.75
292.587	30.75
293.381	31.75
294.174	29.75
294.968	26.75
295.761	26.75
296.555	24.75
297.348	23.75
298.141	23.75
298.935	26.75
299.728	25.75
300.521	24.75
301.314	24.75
302.107	22.75
302.899	23.75
303.692	18.75
304.485	21.75
305.277	23.75
306.07	23.75
306.862	22.75
307.655	20.75
308.447	22.75
309.239	18.75
310.031	20.75
310.823	17.75
311.615	17.75
312.407	15.75
313.199	14.75
313.991	17.75
314.783	15.75
315.574	16.75
316.366	14.75
317.157	16.75
317.949	16.75
318.74	14.75
319.531	13.75
320.322	16.75
321.113	12.75
321.904	12.75
322.695	11.75
323.486	13.75
324.277	15.75
325.068	11.75
325.858	12.75
326.649	10.75
327.439	13.75
328.23	11.75
329.02	12.75
329.81	11.75
330.6	10.75
331.391	12.75
332.181	10.75
332.971	11.75
333.76	12.75
334.55	11.75
335.34	9.75
336.13	14.75
336.919	10.75
337.709	11.75
338.498	12.75
339.287	11.75
340.077	11.75
340.866	10.75
341.655	13.75
342.444	12.75
343.233	10.75
344.022	9.75
344.811	12.75
345.6	10.75
346.388	12.75
347.177	9.75
347.965	10.75
348.754	10.75
349.542	12.75
350.33	9.75
351.119	8.75
351.907	10.75
352.695	10.75
353.483	10.75
354.271	9.75
355.059	10.75
355.846	10.75
356.634	9.75
357.422	11.75
358.209	10.75
358.997	9.75
359.784	6.75
360.571	9.75
361.359	9.75
362.146	6.75
362.933	9.75
363.72	10.75
364.507	9.75
365.294	9.75
366.081	9.75
366.867	9.75
367.654	9.75
368.44	9.75
369.227	10.75
370.013	7.75
370.8	9.75
371.586	11.75
372.372	9.75
373.158	8.75
373.944	8.75
374.73	11.75
375.516	10.75
376.302	9.75
377.088	7.75
377.873	10.75
378.659	8.75
379.445	9.75
380.23	11.75
381.015	8.75
381.801	11.75
382.586	9.75
383.371	10.75
384.156	12.75
384.941	10.75
385.726	8.75
386.511	7.75
387.296	10.75
388.08	9.75
388.865	10.75
389.649	11.75
390.434	10.75
391.218	12.75
392.003	12.75
392.787	11.75
393.571	14.75
394.355	8.75
395.139	13.75
395.923	10.75
396.707	11.75
397.491	11.75
398.274	13.75
399.058	8.75
399.842	10.75
400.625	11.75
401.408	12.75
402.192	17.75
402.975	12.75
403.758	13.75
404.541	15.75
405.324	12.75
406.107	16.75
406.89	13.75
407.673	13.75
408.456	15.75
409.238	12.75
410.021	15.75
410.803	11.75
411.586	14.75
412.368	17.75
413.151	16.75
413.933	17.75
414.715	16.75
415.497	16.75
416.279	17.75
417.061	18.75
417.843	15.75
418.624	17.75
419.406	17.75
420.188	19.75
420.969	24.75
421.751	20.75
422.532	21.75
423.313	18.75
424.095	20.75
424.876	23.75
425.657	21.75
426.438	23.75
427.219	22.75
428	24.75
428.78	28.75
429.561	28.75
430.342	30.75
431.122	31.75
431.903	32.75
432.683	33.75
433.464	30.75
434.244	32.75
435.024	39.75
435.804	40.75
436.584	42.75
437.364	44.75
438.144	45.75
438.924	52.75
439.704	51.75
440.483	56.75
441.263	63.75
442.042	67.75
442.822	73.75
443.601	77.75
444.38	80.75
445.16	95.75
445.939	96.75
446.718	114.75
447.497	118.75
448.276	129.75
449.054	139.75
449.833	154.75
450.612	174.75
451.391	190.75
452.169	210.75
452.948	236.75
453.726	262.75
454.504	292.75
455.282	321.75
456.061	360.75
456.839	396.75
457.617	440.75
458.395	496.75
459.172	546.75
459.95	607.75
460.728	672.75
461.506	753.75
462.283	830.75
463.061	927.75
463.838	1029.75
464.615	1138.75
465.393	1263.75
466.17	1399.75
466.947	1551.75
467.724	1690.75
468.501	1866.75
469.278	2059.75
470.055	2285.75
470.831	2514.75
471.608	2750.75
472.385	3009.75
473.161	3316.75
473.938	3613.75
474.714	3956.75
475.49	4356.75
476.266	4679.75
477.043	5121.75
477.819	5583.75
478.595	6044.75
479.371	6567.75
480.146	7104.75
480.922	7749.75
481.698	8385.75
482.473	9105.75
483.249	9814.75
484.024	10606.75
484.8	11430.75
485.575	12300.75
486.35	13293.75
487.126	14333.75
487.901	15386.75
488.676	16584.75
489.451	17753.75
490.225	19050.75
491	20385.75
491.775	21790.75
492.55	23217.75
493.324	24635.75
494.099	26240.75
494.873	27761.75
495.647	29315.75
496.422	30972.75
497.196	32596.75
497.97	34050.75
498.744	35578.75
499.518	37019.75
500.292	38296.75
501.066	39405.75
501.839	40473.75
502.613	41488.75
503.387	42227.75
504.16	42860.75
504.934	43159.75
505.707	43488.75
506.48	43502.75
507.253	43294.75
508.027	43078.75
508.8	42487.75
509.573	41853.75
510.346	41178.75
511.118	40391.75
511.891	39472.75
512.664	38071.75
513.437	36919.75
514.209	35791.75
514.982	34466.75
515.754	33299.75
516.526	32043.75
517.298	30762.75
518.071	29710.75
518.843	28546.75
519.615	27305.75
520.387	26291.75
521.159	25278.75
521.93	24285.75
522.702	23300.75
523.474	22374.75
524.245	21514.75
525.017	20555.75
525.788	19730.75
526.56	18958.75
527.331	18105.75
528.102	17274.75
528.873	16440.75
529.644	15628.75
530.415	14972.75
531.186	14290.75
531.957	13557.75
532.728	12890.75
533.498	12240.75
534.269	11656.75
535.039	11049.75
535.81	10466.75
536.58	9938.75
537.351	9401.75
538.121	8865.75
538.891	8370.75
539.661	7973.75
540.431	7532.75
541.201	7131.75
541.971	6807.75
542.741	6437.75
543.51	6111.75
544.28	5818.75
545.05	5541.75
545.819	5274.75
546.588	5029.75
547.358	4802.75
548.127	4553.75
548.896	4329.75
549.665	4086.75
550.434	3914.75
551.203	3705.75
551.972	3509.75
552.741	3310.75
553.51	3141.75
554.278	2985.75
555.047	2833.75
555.815	2685.75
556.584	2530.75
557.352	2372.75
558.121	2253.75
558.889	2148.75
559.657	2011.75
560.425	1911.75
561.193	1816.75
561.961	1720.75
562.729	1621.75
563.496	1524.75
564.264	1445.75
565.032	1371.75
565.799	1288.75
566.567	1237.75
567.334	1174.75
568.101	1109.75
568.869	1034.75
569.636	972.75
570.403	916.75
571.17	866.75
571.937	833.75
572.704	783.75
573.471	734.75
574.237	682.75
575.004	657.75
575.771	609.75
576.537	573.75
577.303	547.75
578.07	522.75
578.836	495.75
579.602	462.75
580.368	438.75
581.134	426.75
581.9	396.75
582.666	377.75
583.432	360.75
584.198	340.75
584.964	325.75
585.729	306.75
586.495	286.75
587.26	273.75
588.025	258.75
588.791	249.75
589.556	234.75
590.321	228.75
591.086	209.75
591.851	197.75
592.616	188.75
593.381	177.75
594.146	173.75
594.911	164.75
595.675	159.75
596.44	154.75
597.204	145.75
597.969	139.75
598.733	138.75
599.497	124.75
600.261	121.75
601.025	112.75
601.79	106.75
602.553	105.75
603.317	102.75
604.081	102.75
604.845	96.75
605.609	91.75
606.372	88.75
607.136	82.75
607.899	78.75
608.662	74.75
609.426	74.75
610.189	70.75
610.952	67.75
611.715	65.75
612.478	57.75
613.241	63.75
614.004	56.75
614.767	59.75
615.529	55.75
616.292	48.75
617.055	48.75
617.817	45.75
618.579	48.75
619.342	43.75
620.104	41.75
620.866	42.75
621.628	41.75
622.39	39.75
623.152	41.75
623.914	37.75
624.676	36.75
625.438	35.75
626.199	35.75
626.961	28.75
627.722	29.75
628.484	30.75
629.245	28.75
630.006	31.75
630.768	29.75
631.529	25.75
632.29	24.75
633.051	26.75
633.812	27.75
634.573	22.75
635.333	25.75
636.094	23.75
636.855	21.75
637.615	23.75
638.376	20.75
639.136	18.75
639.896	19.75
640.657	19.75
641.417	17.75
642.177	18.75
642.937	19.75
643.697	18.75
644.457	18.75
645.216	17.75
645.976	17.75
646.736	17.75
647.495	14.75
648.255	16.75
649.014	15.75
649.774	14.75
650.533	11.75
651.292	16.75
652.051	14.75
652.81	14.75
653.569	11.75
654.328	13.75
655.087	10.75
655.846	10.75
656.604	13.75
657.363	14.75
658.121	10.75
658.88	9.75
659.638	9.75
660.397	12.75
661.155	10.75
661.913	13.75
662.671	10.75
663.429	10.75
664.187	10.75
664.945	9.75
665.703	11.75
666.46	11.75
667.218	8.75
667.976	8.75
668.733	9.75
669.49	6.75
670.248	7.75
671.005	11.75
671.762	10.75
672.519	7.75
673.276	8.75
674.033	6.75
674.79	9.75
675.547	8.75
676.304	8.75
677.06	7.75
677.817	9.75
678.574	7.75
679.33	6.75
680.086	8.75
680.843	7.75
681.599	7.75
682.355	5.75
683.111	6.75
683.867	10.75
684.623	6.75
685.379	5.75
686.135	8.75
686.89	7.75
687.646	8.75
688.402	8.75
689.157	8.75
689.912	5.75
690.668	5.75
691.423	9.75
692.178	4.75
692.933	10.75
693.688	6.75
694.443	5.75
695.198	6.75
695.953	6.75
696.708	6.75
697.462	7.75
698.217	8.75
698.972	6.75
699.726	9.75
700.48	7.75
701.235	6.75
701.989	5.75
702.743	6.75
703.497	6.75
704.251	5.75
705.005	7.75
705.759	7.75
706.513	7.75
707.266	8.75
708.02	7.75
708.774	8.75
709.527	6.75
710.28	7.75
711.034	8.75
711.787	6.75
712.54	8.75
713.293	5.75
714.046	7.75
714.799	6.75
715.552	6.75
716.305	6.75
717.058	6.75
717.81	7.75
718.563	6.75
719.315	7.75
720.068	9.75
720.82	8.75
721.573	8.75
722.325	5.75
723.077	7.75
723.829	4.75
724.581	10.75
725.333	7.75
726.085	7.75
726.836	8.75
727.588	7.75
728.34	8.75
729.091	8.75
729.843	9.75
730.594	7.75
731.346	6.75
732.097	9.75
732.848	8.75
733.599	8.75
734.35	9.75
735.101	9.75
735.852	8.75
736.603	9.75
737.354	9.75
738.104	11.75
738.855	8.75
739.605	9.75
740.356	8.75
741.106	7.75
741.856	9.75
742.607	11.75
743.357	8.75
744.107	10.75
744.857	8.75
745.607	11.75
746.357	8.75
747.106	10.75
747.856	9.75
748.606	7.75
749.355	8.75
750.105	9.75
750.854	9.75
751.603	11.75
752.353	9.75
753.102	8.75
753.851	12.75
754.6	10.75
755.349	10.75
756.098	10.75
756.847	10.75
757.595	10.75
758.344	10.75
759.093	12.75
759.841	9.75
760.589	10.75
761.338	10.75
762.086	10.75
762.834	13.75
763.582	11.75
764.331	12.75
765.079	12.75
765.826	11.75
766.574	10.75
767.322	10.75
768.07	13.75
768.817	15.75
769.565	14.75
770.312	10.75
771.06	11.75
771.807	12.75
772.554	11.75
773.302	11.75
774.049	11.75
774.796	13.75
775.543	15.75
776.29	13.75
777.036	14.75
777.783	11.75
778.53	13.75
779.276	10.75
780.023	12.75
780.769	14.75
781.516	14.75
782.262	12.75
783.008	13.75
783.754	14.75
784.5	13.75
785.246	13.75
785.992	12.75
786.738	14.75
787.484	11.75
788.23	15.75
788.975	13.75
789.721	13.75
790.466	11.75
791.212	14.75
791.957	12.75
792.702	12.75
793.447	11.75
794.193	13.75
794.938	12.75
795.683	13.75
796.427	14.75
797.172	11.75
797.917	13.75
798.662	11.75
799.406	10.75
800.151	11.75
800.895	10.75
801.64	8.75
802.384	10.75
803.128	9.75
803.872	10.75
804.616	9.75
805.36	9.75
806.104	10.75
806.848	10.75
807.592	9.75
808.336	9.75
809.079	10.75
809.823	9.75
810.566	10.75
811.31	8.75
812.053	9.75
812.796	8.75
813.539	9.75
814.283	8.75
815.026	9.75
815.769	9.75
816.511	6.75
817.254	6.75
817.997	7.75
818.74	7.75
819.482	7.75
820.225	5.75
820.967	8.75
821.71	6.75
822.452	4.75
823.194	7.75
823.936	6.75
824.678	6.75
825.42	6.75
826.162	6.75
826.904	7.75
827.646	8.75
828.388	5.75
829.129	6.75
829.871	6.75
830.612	5.75
831.354	5.75
832.095	5.75
832.836	6.75
833.577	8.75
834.319	6.75
835.06	7.75
835.801	4.75
836.542	5.75
837.282	5.75
838.023	5.75
838.764	8.75
839.504	6.75
840.245	5.75
840.985	5.75
841.726	5.75
842.466	4.75
843.206	5.75
843.946	4.75
844.687	6.75
845.427	4.75
846.166	6.75
846.906	3.75
847.646	5.75
848.386	4.75
849.125	4.75
849.865	3.75
850.605	5.75
851.344	3.75
852.083	4.75
852.823	6.75
853.562	4.75
854.301	3.75
855.04	4.75
855.779	0.75
856.518	5.75
857.257	4.75
857.995	5.75
858.734	2.75
859.473	2.75
860.211	3.75
860.95	3.75
861.688	3.75
862.426	1.75
863.165	5.75
863.903	2.75
864.641	2.75
865.379	3.75
866.117	2.75
866.855	2.75
867.593	1.75
868.33	2.75
869.068	4.75
869.806	2.75
870.543	3.75
871.28	1.75
872.018	2.75
872.755	1.75
873.492	1.75
874.229	2.75
874.967	1.75
875.703	3.75
876.44	2.75
877.177	2.75
877.914	-0.25
878.651	3.75
879.387	0.75
880.124	0.75
880.86	1.75
881.597	2.75
882.333	0.75
883.069	2.75
883.806	0.75
884.542	2.75
885.278	0.75
886.014	1.75
886.749	2.75
887.485	0.75
888.221	-1.25
888.957	0.75
889.692	-0.25
890.428	0.75
891.163	1.75
891.899	0.75
892.634	-0.25
893.369	0.75
894.104	-0.25
894.839	1.75
895.574	2.75
896.309	0.75
897.044	0.75
897.779	0.75
898.514	2.75
899.248	-0.25
899.983	2.75
900.717	0.75
901.452	-0.25
902.186	0.75
902.92	-0.25
903.654	0.75
904.389	-1.25
905.123	-0.25
905.857	0.75
906.59	-0.25
907.324	-0.25
908.058	-1.25
908.792	1.75
909.525	1.75
910.259	-0.25
910.992	0.75
911.726	-2.25
912.459	-0.25
913.192	-0.25
913.925	0.75
914.658	-0.25
915.391	1.75
916.124	-1.25
916.857	-1.25
917.59	0.75
918.323	0.75
919.055	-0.25
919.788	0.75
920.521	-1.25
921.253	0.75
921.985	0.75
922.718	-2.25
923.45	-0.25
924.182	-0.25
924.914	0.75
925.646	0.75
926.378	-0.25
927.11	-0.25
927.841	0.75
928.573	-1.25
929.305	0.75
930.036	1.75
930.768	-2.25
931.499	0.75
932.23	-1.25
932.962	-0.25
933.693	0.75
934.424	-1.25
935.155	-0.25
935.886	0.75
936.617	-1.25
937.348	-1.25
938.078	-3.25
938.809	1.75
939.54	1.75
940.27	0.75
941.001	0.75
941.731	0.75
942.461	-1.25
943.191	0.75
943.922	-0.25
944.652	-0.25
945.382	1.75
946.112	-1.25
946.841	2.75
947.571	1.75
948.301	0.75
949.031	-0.25
949.76	-0.25
950.49	0.75
951.219	0.75
951.948	-0.25
952.678	0.75
953.407	-2.25
954.136	1.75
954.865	-1.25
955.594	-1.25
956.323	0.75
957.052	0.75
957.78	-0.25
958.509	0.75
959.238	0.75
959.966	-1.25
960.695	-1.25
961.423	-1.25
962.151	0.75
962.88	-1.25
963.608	-0.25
964.336	-0.25
965.064	-0.25
965.792	-0.25
966.52	-0.25
967.247	-1.25
967.975	0.75
968.703	-1.25
969.43	2.75
970.158	0.75
970.885	0.75
971.613	-0.25
972.34	-1.25
973.067	2.75
973.794	1.75
974.521	-1.25
975.248	0.75
975.975	-0.25
976.702	0.75
977.429	-1.25
978.156	-0.25
978.882	0.75
979.609	0.75
980.335	2.75
981.062	0.75
981.788	0.75
982.514	-0.25
983.24	-0.25
983.967	-0.25
984.693	-0.25
985.419	-0.25
986.144	2.75
986.87	0.75
987.596	-1.25
988.322	1.75
989.047	-0.25
989.773	-0.25
990.498	0.75
991.224	-0.25
991.949	-0.25
992.674	0.75
993.399	1.75
994.124	1.75
994.849	-0.25
995.574	0.75
996.299	-2.25
997.024	-0.25
997.749	-0.25
998.473	0.75
999.198	-2.25
999.922	-0.25
1000.647	-0.25
1001.371	2.75
1002.095	-1.25
1002.82	-0.25
1003.544	-3.25
1004.268	4.75
1004.992	5.75
1005.716	4.75
1006.439	4.75
1007.163	6.75
1007.887	5.75
1008.611	-0.25
1009.334	-2.25
1010.058	0.75
1010.781	-1.25
1011.504	-1.25
1012.228	-1.25
1012.951	-0.25
1013.674	0.75
1014.397	-0.25
1015.12	1.75
