节点500_705_QEPB04081__267__20-49-45-434.txt的数据

Date: Wed Nov 12 20:49:45 CST 2025
User: PC
Spectrometer: QEPB0408
触发模式: 0
积分时间 (秒): 1.000000E-2
Scans to average: 1
启用暗噪声校正: true
启用非线性校正: false
滑动平均宽度: 0
X轴模式: Wavelengths
Number of Pixels in Spectrum: 1044
>>>>>Begin Spectral Data<<<<<
220.843	3.88
221.644	5.88
222.444	5.88
223.244	5.88
224.045	6.88
224.845	4.88
225.645	6.88
226.445	5.88
227.245	5.88
228.045	6.88
228.845	6.88
229.645	7.88
230.444	7.88
231.244	8.88
232.043	7.88
232.843	10.88
233.642	8.88
234.442	9.88
235.241	9.88
236.04	8.88
236.839	8.88
237.638	12.88
238.437	8.88
239.236	10.88
240.035	8.88
240.833	12.88
241.632	15.88
242.43	12.88
243.229	12.88
244.027	10.88
244.826	12.88
245.624	11.88
246.422	16.88
247.22	13.88
248.018	13.88
248.816	12.88
249.614	16.88
250.412	17.88
251.21	17.88
252.007	15.88
252.805	15.88
253.602	17.88
254.4	19.88
255.197	20.88
255.994	20.88
256.791	20.88
257.589	23.88
258.386	22.88
259.183	21.88
259.979	25.88
260.776	22.88
261.573	22.88
262.37	24.88
263.166	25.88
263.963	24.88
264.759	23.88
265.556	28.88
266.352	23.88
267.148	26.88
267.944	28.88
268.74	29.88
269.536	30.88
270.332	30.88
271.128	32.88
271.924	31.88
272.719	33.88
273.515	31.88
274.311	30.88
275.106	34.88
275.901	33.88
276.697	33.88
277.492	31.88
278.287	32.88
279.082	36.88
279.877	34.88
280.672	33.88
281.467	37.88
282.262	35.88
283.056	34.88
283.851	32.88
284.646	33.88
285.44	32.88
286.234	33.88
287.029	31.88
287.823	33.88
288.617	32.88
289.411	29.88
290.205	32.88
290.999	30.88
291.793	31.88
292.587	29.88
293.381	29.88
294.174	29.88
294.968	29.88
295.761	27.88
296.555	29.88
297.348	25.88
298.141	27.88
298.935	28.88
299.728	25.88
300.521	25.88
301.314	26.88
302.107	22.88
302.899	24.88
303.692	21.88
304.485	23.88
305.277	20.88
306.07	23.88
306.862	23.88
307.655	20.88
308.447	20.88
309.239	19.88
310.031	20.88
310.823	21.88
311.615	17.88
312.407	19.88
313.199	18.88
313.991	14.88
314.783	19.88
315.574	14.88
316.366	14.88
317.157	15.88
317.949	15.88
318.74	16.88
319.531	15.88
320.322	12.88
321.113	13.88
321.904	12.88
322.695	12.88
323.486	12.88
324.277	14.88
325.068	12.88
325.858	10.88
326.649	10.88
327.439	11.88
328.23	12.88
329.02	13.88
329.81	12.88
330.6	13.88
331.391	10.88
332.181	12.88
332.971	11.88
333.76	11.88
334.55	9.88
335.34	12.88
336.13	11.88
336.919	13.88
337.709	10.88
338.498	13.88
339.287	12.88
340.077	11.88
340.866	11.88
341.655	11.88
342.444	10.88
343.233	13.88
344.022	10.88
344.811	11.88
345.6	9.88
346.388	13.88
347.177	6.88
347.965	11.88
348.754	12.88
349.542	11.88
350.33	12.88
351.119	10.88
351.907	11.88
352.695	11.88
353.483	8.88
354.271	9.88
355.059	9.88
355.846	9.88
356.634	10.88
357.422	9.88
358.209	8.88
358.997	9.88
359.784	10.88
360.571	9.88
361.359	10.88
362.146	7.88
362.933	9.88
363.72	9.88
364.507	9.88
365.294	10.88
366.081	9.88
366.867	10.88
367.654	10.88
368.44	8.88
369.227	8.88
370.013	8.88
370.8	11.88
371.586	8.88
372.372	9.88
373.158	11.88
373.944	8.88
374.73	7.88
375.516	9.88
376.302	8.88
377.088	8.88
377.873	8.88
378.659	10.88
379.445	9.88
380.23	10.88
381.015	9.88
381.801	9.88
382.586	10.88
383.371	9.88
384.156	9.88
384.941	8.88
385.726	11.88
386.511	10.88
387.296	7.88
388.08	11.88
388.865	11.88
389.649	7.88
390.434	13.88
391.218	9.88
392.003	12.88
392.787	10.88
393.571	12.88
394.355	10.88
395.139	10.88
395.923	13.88
396.707	13.88
397.491	13.88
398.274	14.88
399.058	13.88
399.842	14.88
400.625	14.88
401.408	17.88
402.192	11.88
402.975	14.88
403.758	14.88
404.541	14.88
405.324	14.88
406.107	16.88
406.89	15.88
407.673	15.88
408.456	17.88
409.238	17.88
410.021	15.88
410.803	16.88
411.586	16.88
412.368	16.88
413.151	16.88
413.933	16.88
414.715	17.88
415.497	17.88
416.279	16.88
417.061	20.88
417.843	18.88
418.624	21.88
419.406	21.88
420.188	22.88
420.969	21.88
421.751	22.88
422.532	20.88
423.313	22.88
424.095	24.88
424.876	22.88
425.657	24.88
426.438	25.88
427.219	26.88
428	30.88
428.78	26.88
429.561	27.88
430.342	29.88
431.122	29.88
431.903	30.88
432.683	33.88
433.464	36.88
434.244	34.88
435.024	36.88
435.804	42.88
436.584	43.88
437.364	45.88
438.144	46.88
438.924	53.88
439.704	52.88
440.483	54.88
441.263	61.88
442.042	64.88
442.822	68.88
443.601	76.88
444.38	80.88
445.16	86.88
445.939	89.88
446.718	103.88
447.497	114.88
448.276	116.88
449.054	137.88
449.833	146.88
450.612	157.88
451.391	178.88
452.169	192.88
452.948	208.88
453.726	243.88
454.504	260.88
455.282	294.88
456.061	321.88
456.839	360.88
457.617	401.88
458.395	453.88
459.172	501.88
459.95	548.88
460.728	621.88
461.506	701.88
462.283	778.88
463.061	872.88
463.838	960.88
464.615	1074.88
465.393	1200.88
466.17	1324.88
466.947	1487.88
467.724	1658.88
468.501	1821.88
469.278	2029.88
470.055	2245.88
470.831	2491.88
471.608	2730.88
472.385	3024.88
473.161	3334.88
473.938	3673.88
474.714	4033.88
475.49	4456.88
476.266	4890.88
477.043	5361.88
477.819	5843.88
478.595	6408.88
479.371	7038.88
480.146	7664.88
480.922	8337.88
481.698	9108.88
482.473	9939.88
483.249	10852.88
484.024	11752.88
484.8	12807.88
485.575	13871.88
486.35	15077.88
487.126	16359.88
487.901	17708.88
488.676	19050.88
489.451	20598.88
490.225	22168.88
491	23787.88
491.775	25550.88
492.55	27220.88
493.324	29057.88
494.099	30766.88
494.873	32685.88
495.647	34476.88
496.422	36389.88
497.196	38170.88
497.97	39839.88
498.744	41303.88
499.518	42813.88
500.292	44209.88
501.066	45275.88
501.839	46155.88
502.613	46867.88
503.387	47437.88
504.16	47825.88
504.934	47952.88
505.707	47734.88
506.48	47326.88
507.253	46776.88
508.027	45929.88
508.8	44901.88
509.573	43763.88
510.346	42747.88
511.118	41672.88
511.891	40313.88
512.664	38737.88
513.437	37204.88
514.209	35773.88
514.982	34407.88
515.754	32992.88
516.526	31616.88
517.298	30384.88
518.071	29149.88
518.843	27951.88
519.615	26828.88
520.387	25784.88
521.159	24763.88
521.93	23743.88
522.702	22707.88
523.474	21830.88
524.245	20809.88
525.017	19929.88
525.788	19066.88
526.56	18246.88
527.331	17443.88
528.102	16524.88
528.873	15708.88
529.644	15022.88
530.415	14256.88
531.186	13536.88
531.957	12848.88
532.728	12163.88
533.498	11521.88
534.269	10891.88
535.039	10340.88
535.81	9786.88
536.58	9191.88
537.351	8734.88
538.121	8295.88
538.891	7818.88
539.661	7407.88
540.431	7023.88
541.201	6687.88
541.971	6328.88
542.741	5972.88
543.51	5681.88
544.28	5395.88
545.05	5159.88
545.819	4870.88
546.588	4663.88
547.358	4432.88
548.127	4233.88
548.896	3996.88
549.665	3795.88
550.434	3606.88
551.203	3403.88
551.972	3245.88
552.741	3070.88
553.51	2892.88
554.278	2724.88
555.047	2559.88
555.815	2420.88
556.584	2311.88
557.352	2161.88
558.121	2052.88
558.889	1936.88
559.657	1825.88
560.425	1727.88
561.193	1641.88
561.961	1543.88
562.729	1458.88
563.496	1376.88
564.264	1323.88
565.032	1245.88
565.799	1174.88
566.567	1112.88
567.334	1070.88
568.101	1000.88
568.869	935.88
569.636	882.88
570.403	831.88
571.17	789.88
571.937	749.88
572.704	710.88
573.471	664.88
574.237	623.88
575.004	595.88
575.771	563.88
576.537	525.88
577.303	503.88
578.07	471.88
578.836	442.88
579.602	421.88
580.368	394.88
581.134	380.88
581.9	355.88
582.666	339.88
583.432	330.88
584.198	304.88
584.964	288.88
585.729	277.88
586.495	267.88
587.26	247.88
588.025	233.88
588.791	226.88
589.556	214.88
590.321	199.88
591.086	189.88
591.851	182.88
592.616	175.88
593.381	163.88
594.146	159.88
594.911	152.88
595.675	148.88
596.44	136.88
597.204	130.88
597.969	122.88
598.733	118.88
599.497	119.88
600.261	111.88
601.025	106.88
601.79	101.88
602.553	94.88
603.317	91.88
604.081	90.88
604.845	86.88
605.609	80.88
606.372	77.88
607.136	77.88
607.899	74.88
608.662	71.88
609.426	70.88
610.189	65.88
610.952	60.88
611.715	66.88
612.478	56.88
613.241	57.88
614.004	58.88
614.767	51.88
615.529	51.88
616.292	49.88
617.055	44.88
617.817	41.88
618.579	43.88
619.342	40.88
620.104	41.88
620.866	40.88
621.628	37.88
622.39	37.88
623.152	35.88
623.914	36.88
624.676	35.88
625.438	33.88
626.199	32.88
626.961	32.88
627.722	30.88
628.484	28.88
629.245	30.88
630.006	26.88
630.768	26.88
631.529	28.88
632.29	26.88
633.051	23.88
633.812	23.88
634.573	23.88
635.333	23.88
636.094	23.88
636.855	21.88
637.615	19.88
638.376	22.88
639.136	17.88
639.896	22.88
640.657	18.88
641.417	15.88
642.177	17.88
642.937	16.88
643.697	16.88
644.457	15.88
645.216	18.88
645.976	16.88
646.736	15.88
647.495	17.88
648.255	15.88
649.014	14.88
649.774	15.88
650.533	14.88
651.292	12.88
652.051	11.88
652.81	13.88
653.569	11.88
654.328	10.88
655.087	10.88
655.846	13.88
656.604	12.88
657.363	12.88
658.121	10.88
658.88	9.88
659.638	9.88
660.397	10.88
661.155	9.88
661.913	14.88
662.671	8.88
663.429	12.88
664.187	11.88
664.945	9.88
665.703	10.88
666.46	5.88
667.218	9.88
667.976	11.88
668.733	7.88
669.49	10.88
670.248	9.88
671.005	9.88
671.762	11.88
672.519	7.88
673.276	9.88
674.033	9.88
674.79	9.88
675.547	8.88
676.304	6.88
677.06	7.88
677.817	7.88
678.574	9.88
679.33	6.88
680.086	9.88
680.843	4.88
681.599	11.88
682.355	8.88
683.111	8.88
683.867	8.88
684.623	7.88
685.379	9.88
686.135	7.88
686.89	7.88
687.646	8.88
688.402	5.88
689.157	7.88
689.912	7.88
690.668	7.88
691.423	8.88
692.178	7.88
692.933	6.88
693.688	7.88
694.443	9.88
695.198	6.88
695.953	7.88
696.708	6.88
697.462	6.88
698.217	8.88
698.972	3.88
699.726	8.88
700.48	6.88
701.235	6.88
701.989	8.88
702.743	7.88
703.497	6.88
704.251	8.88
705.005	5.88
705.759	6.88
706.513	7.88
707.266	8.88
708.02	7.88
708.774	8.88
709.527	8.88
710.28	6.88
711.034	6.88
711.787	7.88
712.54	5.88
713.293	7.88
714.046	9.88
714.799	6.88
715.552	7.88
716.305	8.88
717.058	7.88
717.81	9.88
718.563	9.88
719.315	7.88
720.068	10.88
720.82	8.88
721.573	7.88
722.325	6.88
723.077	8.88
723.829	8.88
724.581	9.88
725.333	8.88
726.085	6.88
726.836	11.88
727.588	8.88
728.34	10.88
729.091	8.88
729.843	7.88
730.594	5.88
731.346	11.88
732.097	10.88
732.848	11.88
733.599	8.88
734.35	9.88
735.101	6.88
735.852	11.88
736.603	8.88
737.354	8.88
738.104	7.88
738.855	6.88
739.605	10.88
740.356	11.88
741.106	9.88
741.856	11.88
742.607	7.88
743.357	10.88
744.107	8.88
744.857	10.88
745.607	12.88
746.357	9.88
747.106	11.88
747.856	10.88
748.606	10.88
749.355	10.88
750.105	11.88
750.854	12.88
751.603	9.88
752.353	10.88
753.102	9.88
753.851	10.88
754.6	11.88
755.349	12.88
756.098	8.88
756.847	10.88
757.595	11.88
758.344	12.88
759.093	11.88
759.841	12.88
760.589	11.88
761.338	11.88
762.086	11.88
762.834	13.88
763.582	12.88
764.331	14.88
765.079	13.88
765.826	9.88
766.574	15.88
767.322	12.88
768.07	14.88
768.817	14.88
769.565	13.88
770.312	12.88
771.06	14.88
771.807	14.88
772.554	13.88
773.302	14.88
774.049	16.88
774.796	16.88
775.543	18.88
776.29	17.88
777.036	15.88
777.783	13.88
778.53	14.88
779.276	16.88
780.023	13.88
780.769	13.88
781.516	14.88
782.262	14.88
783.008	16.88
783.754	15.88
784.5	16.88
785.246	16.88
785.992	14.88
786.738	18.88
787.484	16.88
788.23	13.88
788.975	11.88
789.721	12.88
790.466	14.88
791.212	14.88
791.957	14.88
792.702	14.88
793.447	12.88
794.193	14.88
794.938	14.88
795.683	14.88
796.427	14.88
797.172	14.88
797.917	12.88
798.662	12.88
799.406	13.88
800.151	10.88
800.895	14.88
801.64	10.88
802.384	10.88
803.128	10.88
803.872	10.88
804.616	10.88
805.36	10.88
806.104	10.88
806.848	8.88
807.592	10.88
808.336	9.88
809.079	11.88
809.823	8.88
810.566	8.88
811.31	10.88
812.053	6.88
812.796	10.88
813.539	8.88
814.283	12.88
815.026	8.88
815.769	6.88
816.511	8.88
817.254	8.88
817.997	8.88
818.74	9.88
819.482	6.88
820.225	7.88
820.967	5.88
821.71	5.88
822.452	7.88
823.194	4.88
823.936	6.88
824.678	6.88
825.42	7.88
826.162	4.88
826.904	6.88
827.646	5.88
828.388	7.88
829.129	7.88
829.871	6.88
830.612	5.88
831.354	5.88
832.095	7.88
832.836	7.88
833.577	5.88
834.319	6.88
835.06	5.88
835.801	4.88
836.542	3.88
837.282	5.88
838.023	4.88
838.764	5.88
839.504	2.88
840.245	5.88
840.985	5.88
841.726	4.88
842.466	5.88
843.206	4.88
843.946	2.88
844.687	4.88
845.427	3.88
846.166	7.88
846.906	6.88
847.646	3.88
848.386	3.88
849.125	4.88
849.865	4.88
850.605	5.88
851.344	5.88
852.083	5.88
852.823	4.88
853.562	1.88
854.301	4.88
855.04	4.88
855.779	4.88
856.518	3.88
857.257	2.88
857.995	3.88
858.734	4.88
859.473	5.88
860.211	4.88
860.95	2.88
861.688	4.88
862.426	3.88
863.165	2.88
863.903	3.88
864.641	3.88
865.379	2.88
866.117	3.88
866.855	2.88
867.593	2.88
868.33	2.88
869.068	2.88
869.806	2.88
870.543	1.88
871.28	1.88
872.018	2.88
872.755	3.88
873.492	2.88
874.229	4.88
874.967	0.88
875.703	2.88
876.44	2.88
877.177	2.88
877.914	3.88
878.651	-0.12
879.387	2.88
880.124	2.88
880.86	0.88
881.597	0.88
882.333	1.88
883.069	1.88
883.806	-0.12
884.542	1.88
885.278	0.88
886.014	2.88
886.749	0.88
887.485	0.88
888.221	1.88
888.957	1.88
889.692	1.88
890.428	0.88
891.163	-0.12
891.899	2.88
892.634	2.88
893.369	0.88
894.104	-0.12
894.839	2.88
895.574	1.88
896.309	0.88
897.044	0.88
897.779	2.88
898.514	0.88
899.248	0.88
899.983	0.88
900.717	2.88
901.452	1.88
902.186	0.88
902.92	0.88
903.654	2.88
904.389	0.88
905.123	-0.12
905.857	0.88
906.59	0.88
907.324	1.88
908.058	2.88
908.792	0.88
909.525	0.88
910.259	0.88
910.992	0.88
911.726	2.88
912.459	-0.12
913.192	0.88
913.925	0.88
914.658	-0.12
915.391	1.88
916.124	0.88
916.857	-0.12
917.59	-2.12
918.323	2.88
919.055	1.88
919.788	1.88
920.521	0.88
921.253	-0.12
921.985	2.88
922.718	0.88
923.45	-0.12
924.182	1.88
924.914	0.88
925.646	0.88
926.378	1.88
927.11	-0.12
927.841	-1.12
928.573	0.88
929.305	-0.12
930.036	1.88
930.768	-0.12
931.499	0.88
932.23	1.88
932.962	1.88
933.693	0.88
934.424	-1.12
935.155	-1.12
935.886	1.88
936.617	-1.12
937.348	-0.12
938.078	1.88
938.809	-0.12
939.54	-0.12
940.27	-0.12
941.001	-0.12
941.731	-0.12
942.461	-1.12
943.191	1.88
943.922	1.88
944.652	2.88
945.382	0.88
946.112	1.88
946.841	-0.12
947.571	-0.12
948.301	-1.12
949.031	-2.12
949.76	0.88
950.49	-0.12
951.219	-0.12
951.948	0.88
952.678	-0.12
953.407	1.88
954.136	-0.12
954.865	1.88
955.594	-1.12
956.323	0.88
957.052	0.88
957.78	-0.12
958.509	-1.12
959.238	1.88
959.966	-0.12
960.695	0.88
961.423	-0.12
962.151	0.88
962.88	3.88
963.608	-0.12
964.336	0.88
965.064	0.88
965.792	1.88
966.52	-0.12
967.247	-1.12
967.975	0.88
968.703	-2.12
969.43	-0.12
970.158	-0.12
970.885	1.88
971.613	0.88
972.34	0.88
973.067	0.88
973.794	-0.12
974.521	0.88
975.248	-1.12
975.975	-0.12
976.702	-1.12
977.429	1.88
978.156	-1.12
978.882	-2.12
979.609	-0.12
980.335	-0.12
981.062	-1.12
981.788	-0.12
982.514	2.88
983.24	-1.12
983.967	1.88
984.693	1.88
985.419	-1.12
986.144	-1.12
986.87	-0.12
987.596	-1.12
988.322	0.88
989.047	-2.12
989.773	0.88
990.498	-1.12
991.224	0.88
991.949	-1.12
992.674	0.88
993.399	-0.12
994.124	0.88
994.849	-1.12
995.574	-1.12
996.299	-3.12
997.024	-1.12
997.749	1.88
998.473	-0.12
999.198	-1.12
999.922	-1.12
1000.647	1.88
1001.371	1.88
1002.095	-2.12
1002.82	-0.12
1003.544	-3.12
1004.268	5.88
1004.992	4.88
1005.716	5.88
1006.439	3.88
1007.163	5.88
1007.887	3.88
1008.611	0.88
1009.334	2.88
1010.058	-0.12
1010.781	-2.12
1011.504	-1.12
1012.228	-2.12
1012.951	1.88
1013.674	-0.12
1014.397	-0.12
1015.12	1.88
