节点500_705_QEPB04081__165__20-48-36-029.txt的数据

Date: Wed Nov 12 20:48:36 CST 2025
User: PC
Spectrometer: QEPB0408
触发模式: 0
积分时间 (秒): 1.000000E-2
Scans to average: 1
启用暗噪声校正: true
启用非线性校正: false
滑动平均宽度: 0
X轴模式: Wavelengths
Number of Pixels in Spectrum: 1044
>>>>>Begin Spectral Data<<<<<
220.843	5.62
221.644	4.62
222.444	7.62
223.244	5.62
224.045	4.62
224.845	4.62
225.645	7.62
226.445	7.62
227.245	6.62
228.045	7.62
228.845	6.62
229.645	6.62
230.444	6.62
231.244	8.62
232.043	8.62
232.843	11.62
233.642	10.62
234.442	10.62
235.241	11.62
236.04	7.62
236.839	11.62
237.638	9.62
238.437	10.62
239.236	10.62
240.035	10.62
240.833	12.62
241.632	9.62
242.43	12.62
243.229	12.62
244.027	11.62
244.826	14.62
245.624	14.62
246.422	11.62
247.22	13.62
248.018	17.62
248.816	17.62
249.614	17.62
250.412	16.62
251.21	15.62
252.007	14.62
252.805	17.62
253.602	18.62
254.4	21.62
255.197	18.62
255.994	18.62
256.791	22.62
257.589	23.62
258.386	23.62
259.183	22.62
259.979	20.62
260.776	24.62
261.573	22.62
262.37	24.62
263.166	27.62
263.963	28.62
264.759	25.62
265.556	26.62
266.352	29.62
267.148	29.62
267.944	31.62
268.74	29.62
269.536	29.62
270.332	30.62
271.128	30.62
271.924	32.62
272.719	32.62
273.515	34.62
274.311	35.62
275.106	35.62
275.901	32.62
276.697	35.62
277.492	36.62
278.287	31.62
279.082	34.62
279.877	36.62
280.672	34.62
281.467	37.62
282.262	34.62
283.056	38.62
283.851	34.62
284.646	33.62
285.44	35.62
286.234	35.62
287.029	32.62
287.823	35.62
288.617	33.62
289.411	33.62
290.205	31.62
290.999	32.62
291.793	31.62
292.587	33.62
293.381	31.62
294.174	32.62
294.968	29.62
295.761	29.62
296.555	25.62
297.348	23.62
298.141	25.62
298.935	28.62
299.728	26.62
300.521	25.62
301.314	22.62
302.107	21.62
302.899	20.62
303.692	21.62
304.485	22.62
305.277	23.62
306.07	24.62
306.862	21.62
307.655	20.62
308.447	17.62
309.239	22.62
310.031	17.62
310.823	16.62
311.615	19.62
312.407	18.62
313.199	19.62
313.991	13.62
314.783	14.62
315.574	14.62
316.366	13.62
317.157	18.62
317.949	14.62
318.74	14.62
319.531	13.62
320.322	12.62
321.113	14.62
321.904	10.62
322.695	14.62
323.486	12.62
324.277	12.62
325.068	12.62
325.858	13.62
326.649	10.62
327.439	10.62
328.23	11.62
329.02	11.62
329.81	13.62
330.6	12.62
331.391	12.62
332.181	12.62
332.971	13.62
333.76	12.62
334.55	12.62
335.34	11.62
336.13	12.62
336.919	9.62
337.709	11.62
338.498	11.62
339.287	11.62
340.077	9.62
340.866	10.62
341.655	13.62
342.444	10.62
343.233	13.62
344.022	12.62
344.811	12.62
345.6	13.62
346.388	13.62
347.177	11.62
347.965	10.62
348.754	12.62
349.542	12.62
350.33	12.62
351.119	14.62
351.907	10.62
352.695	11.62
353.483	10.62
354.271	9.62
355.059	8.62
355.846	8.62
356.634	9.62
357.422	10.62
358.209	9.62
358.997	10.62
359.784	8.62
360.571	11.62
361.359	8.62
362.146	9.62
362.933	8.62
363.72	8.62
364.507	8.62
365.294	8.62
366.081	9.62
366.867	10.62
367.654	10.62
368.44	7.62
369.227	6.62
370.013	10.62
370.8	9.62
371.586	10.62
372.372	5.62
373.158	10.62
373.944	10.62
374.73	6.62
375.516	9.62
376.302	10.62
377.088	9.62
377.873	10.62
378.659	8.62
379.445	8.62
380.23	10.62
381.015	10.62
381.801	6.62
382.586	13.62
383.371	9.62
384.156	8.62
384.941	9.62
385.726	14.62
386.511	10.62
387.296	9.62
388.08	10.62
388.865	10.62
389.649	8.62
390.434	13.62
391.218	12.62
392.003	14.62
392.787	12.62
393.571	10.62
394.355	14.62
395.139	10.62
395.923	12.62
396.707	10.62
397.491	12.62
398.274	12.62
399.058	12.62
399.842	14.62
400.625	11.62
401.408	14.62
402.192	12.62
402.975	12.62
403.758	11.62
404.541	15.62
405.324	14.62
406.107	16.62
406.89	16.62
407.673	12.62
408.456	17.62
409.238	17.62
410.021	16.62
410.803	15.62
411.586	18.62
412.368	16.62
413.151	19.62
413.933	19.62
414.715	16.62
415.497	19.62
416.279	17.62
417.061	20.62
417.843	19.62
418.624	23.62
419.406	19.62
420.188	21.62
420.969	22.62
421.751	20.62
422.532	21.62
423.313	22.62
424.095	25.62
424.876	24.62
425.657	25.62
426.438	23.62
427.219	28.62
428	25.62
428.78	26.62
429.561	28.62
430.342	27.62
431.122	31.62
431.903	28.62
432.683	30.62
433.464	34.62
434.244	37.62
435.024	40.62
435.804	45.62
436.584	44.62
437.364	43.62
438.144	43.62
438.924	49.62
439.704	50.62
440.483	53.62
441.263	59.62
442.042	62.62
442.822	64.62
443.601	74.62
444.38	80.62
445.16	81.62
445.939	90.62
446.718	96.62
447.497	103.62
448.276	121.62
449.054	125.62
449.833	143.62
450.612	155.62
451.391	169.62
452.169	187.62
452.948	205.62
453.726	233.62
454.504	254.62
455.282	285.62
456.061	316.62
456.839	356.62
457.617	397.62
458.395	442.62
459.172	493.62
459.95	542.62
460.728	608.62
461.506	674.62
462.283	755.62
463.061	838.62
463.838	949.62
464.615	1064.62
465.393	1186.62
466.17	1322.62
466.947	1447.62
467.724	1631.62
468.501	1809.62
469.278	1988.62
470.055	2231.62
470.831	2473.62
471.608	2735.62
472.385	3027.62
473.161	3342.62
473.938	3681.62
474.714	4062.62
475.49	4460.62
476.266	4942.62
477.043	5397.62
477.819	5948.62
478.595	6489.62
479.371	7118.62
480.146	7797.62
480.922	8541.62
481.698	9315.62
482.473	10187.62
483.249	11116.62
484.024	12047.62
484.8	13187.62
485.575	14207.62
486.35	15536.62
487.126	16827.62
487.901	18266.62
488.676	19691.62
489.451	21341.62
490.225	22952.62
491	24626.62
491.775	26403.62
492.55	28320.62
493.324	30116.62
494.099	32005.62
494.873	33819.62
495.647	35750.62
496.422	37699.62
497.196	39474.62
497.97	41152.62
498.744	42685.62
499.518	44289.62
500.292	45647.62
501.066	46569.62
501.839	47498.62
502.613	48004.62
503.387	48553.62
504.16	48795.62
504.934	48830.62
505.707	48505.62
506.48	47962.62
507.253	47254.62
508.027	46376.62
508.8	45314.62
509.573	44053.62
510.346	42852.62
511.118	41683.62
511.891	40236.62
512.664	38626.62
513.437	37155.62
514.209	35639.62
514.982	34155.62
515.754	32737.62
516.526	31406.62
517.298	30094.62
518.071	28888.62
518.843	27736.62
519.615	26662.62
520.387	25619.62
521.159	24590.62
521.93	23473.62
522.702	22531.62
523.474	21599.62
524.245	20664.62
525.017	19657.62
525.788	18835.62
526.56	17986.62
527.331	17150.62
528.102	16329.62
528.873	15478.62
529.644	14716.62
530.415	14028.62
531.186	13315.62
531.957	12551.62
532.728	11920.62
533.498	11298.62
534.269	10684.62
535.039	10108.62
535.81	9562.62
536.58	9052.62
537.351	8558.62
538.121	8106.62
538.891	7681.62
539.661	7255.62
540.431	6865.62
541.201	6516.62
541.971	6199.62
542.741	5848.62
543.51	5538.62
544.28	5277.62
545.05	5035.62
545.819	4804.62
546.588	4560.62
547.358	4355.62
548.127	4117.62
548.896	3926.62
549.665	3687.62
550.434	3485.62
551.203	3333.62
551.972	3166.62
552.741	2981.62
553.51	2812.62
554.278	2649.62
555.047	2506.62
555.815	2388.62
556.584	2244.62
557.352	2124.62
558.121	2006.62
558.889	1874.62
559.657	1787.62
560.425	1687.62
561.193	1602.62
561.961	1503.62
562.729	1431.62
563.496	1338.62
564.264	1272.62
565.032	1218.62
565.799	1149.62
566.567	1079.62
567.334	1023.62
568.101	974.62
568.869	913.62
569.636	860.62
570.403	825.62
571.17	771.62
571.937	716.62
572.704	688.62
573.471	639.62
574.237	616.62
575.004	566.62
575.771	536.62
576.537	502.62
577.303	481.62
578.07	456.62
578.836	429.62
579.602	410.62
580.368	386.62
581.134	367.62
581.9	344.62
582.666	332.62
583.432	312.62
584.198	301.62
584.964	280.62
585.729	266.62
586.495	253.62
587.26	238.62
588.025	232.62
588.791	221.62
589.556	209.62
590.321	195.62
591.086	183.62
591.851	175.62
592.616	171.62
593.381	160.62
594.146	149.62
594.911	148.62
595.675	144.62
596.44	134.62
597.204	132.62
597.969	129.62
598.733	113.62
599.497	118.62
600.261	109.62
601.025	100.62
601.79	98.62
602.553	95.62
603.317	92.62
604.081	84.62
604.845	86.62
605.609	81.62
606.372	79.62
607.136	74.62
607.899	75.62
608.662	69.62
609.426	67.62
610.189	66.62
610.952	63.62
611.715	61.62
612.478	58.62
613.241	54.62
614.004	54.62
614.767	49.62
615.529	52.62
616.292	46.62
617.055	44.62
617.817	49.62
618.579	41.62
619.342	42.62
620.104	41.62
620.866	40.62
621.628	37.62
622.39	39.62
623.152	39.62
623.914	34.62
624.676	34.62
625.438	34.62
626.199	34.62
626.961	29.62
627.722	28.62
628.484	30.62
629.245	27.62
630.006	26.62
630.768	24.62
631.529	26.62
632.29	23.62
633.051	25.62
633.812	24.62
634.573	23.62
635.333	21.62
636.094	22.62
636.855	22.62
637.615	18.62
638.376	20.62
639.136	18.62
639.896	17.62
640.657	15.62
641.417	15.62
642.177	20.62
642.937	19.62
643.697	16.62
644.457	19.62
645.216	17.62
645.976	16.62
646.736	15.62
647.495	16.62
648.255	15.62
649.014	17.62
649.774	15.62
650.533	13.62
651.292	13.62
652.051	11.62
652.81	16.62
653.569	13.62
654.328	11.62
655.087	11.62
655.846	11.62
656.604	12.62
657.363	11.62
658.121	10.62
658.88	9.62
659.638	11.62
660.397	10.62
661.155	9.62
661.913	11.62
662.671	11.62
663.429	9.62
664.187	7.62
664.945	11.62
665.703	10.62
666.46	8.62
667.218	8.62
667.976	9.62
668.733	9.62
669.49	12.62
670.248	7.62
671.005	10.62
671.762	7.62
672.519	9.62
673.276	8.62
674.033	8.62
674.79	7.62
675.547	7.62
676.304	8.62
677.06	8.62
677.817	7.62
678.574	10.62
679.33	8.62
680.086	7.62
680.843	6.62
681.599	8.62
682.355	10.62
683.111	6.62
683.867	7.62
684.623	6.62
685.379	7.62
686.135	7.62
686.89	9.62
687.646	5.62
688.402	8.62
689.157	9.62
689.912	8.62
690.668	7.62
691.423	9.62
692.178	8.62
692.933	10.62
693.688	5.62
694.443	9.62
695.198	8.62
695.953	6.62
696.708	8.62
697.462	5.62
698.217	9.62
698.972	7.62
699.726	10.62
700.48	9.62
701.235	9.62
701.989	6.62
702.743	4.62
703.497	6.62
704.251	7.62
705.005	7.62
705.759	7.62
706.513	5.62
707.266	7.62
708.02	6.62
708.774	9.62
709.527	7.62
710.28	7.62
711.034	6.62
711.787	9.62
712.54	8.62
713.293	6.62
714.046	4.62
714.799	3.62
715.552	5.62
716.305	8.62
717.058	6.62
717.81	8.62
718.563	8.62
719.315	9.62
720.068	8.62
720.82	8.62
721.573	6.62
722.325	8.62
723.077	10.62
723.829	9.62
724.581	7.62
725.333	7.62
726.085	7.62
726.836	10.62
727.588	7.62
728.34	8.62
729.091	7.62
729.843	9.62
730.594	10.62
731.346	8.62
732.097	10.62
732.848	10.62
733.599	8.62
734.35	9.62
735.101	9.62
735.852	8.62
736.603	8.62
737.354	9.62
738.104	8.62
738.855	9.62
739.605	8.62
740.356	9.62
741.106	10.62
741.856	8.62
742.607	10.62
743.357	8.62
744.107	10.62
744.857	10.62
745.607	8.62
746.357	10.62
747.106	10.62
747.856	10.62
748.606	11.62
749.355	8.62
750.105	8.62
750.854	11.62
751.603	10.62
752.353	10.62
753.102	10.62
753.851	10.62
754.6	13.62
755.349	12.62
756.098	12.62
756.847	11.62
757.595	13.62
758.344	12.62
759.093	11.62
759.841	13.62
760.589	10.62
761.338	12.62
762.086	9.62
762.834	14.62
763.582	13.62
764.331	14.62
765.079	12.62
765.826	13.62
766.574	14.62
767.322	13.62
768.07	17.62
768.817	14.62
769.565	16.62
770.312	14.62
771.06	13.62
771.807	14.62
772.554	13.62
773.302	14.62
774.049	13.62
774.796	17.62
775.543	14.62
776.29	13.62
777.036	15.62
777.783	14.62
778.53	16.62
779.276	18.62
780.023	14.62
780.769	18.62
781.516	15.62
782.262	16.62
783.008	17.62
783.754	15.62
784.5	13.62
785.246	14.62
785.992	13.62
786.738	14.62
787.484	16.62
788.23	15.62
788.975	14.62
789.721	16.62
790.466	15.62
791.212	14.62
791.957	13.62
792.702	17.62
793.447	13.62
794.193	13.62
794.938	14.62
795.683	13.62
796.427	10.62
797.172	12.62
797.917	12.62
798.662	14.62
799.406	10.62
800.151	13.62
800.895	13.62
801.64	10.62
802.384	11.62
803.128	13.62
803.872	11.62
804.616	10.62
805.36	12.62
806.104	9.62
806.848	10.62
807.592	9.62
808.336	10.62
809.079	10.62
809.823	8.62
810.566	10.62
811.31	9.62
812.053	9.62
812.796	9.62
813.539	6.62
814.283	7.62
815.026	5.62
815.769	9.62
816.511	8.62
817.254	8.62
817.997	5.62
818.74	7.62
819.482	8.62
820.225	6.62
820.967	9.62
821.71	6.62
822.452	6.62
823.194	9.62
823.936	5.62
824.678	6.62
825.42	5.62
826.162	8.62
826.904	7.62
827.646	6.62
828.388	5.62
829.129	5.62
829.871	8.62
830.612	5.62
831.354	3.62
832.095	4.62
832.836	4.62
833.577	4.62
834.319	5.62
835.06	6.62
835.801	4.62
836.542	6.62
837.282	7.62
838.023	5.62
838.764	6.62
839.504	5.62
840.245	6.62
840.985	5.62
841.726	5.62
842.466	3.62
843.206	4.62
843.946	5.62
844.687	4.62
845.427	6.62
846.166	7.62
846.906	5.62
847.646	5.62
848.386	6.62
849.125	3.62
849.865	3.62
850.605	4.62
851.344	4.62
852.083	5.62
852.823	4.62
853.562	2.62
854.301	3.62
855.04	4.62
855.779	2.62
856.518	3.62
857.257	4.62
857.995	2.62
858.734	4.62
859.473	3.62
860.211	3.62
860.95	0.62
861.688	4.62
862.426	0.62
863.165	2.62
863.903	2.62
864.641	2.62
865.379	3.62
866.117	4.62
866.855	2.62
867.593	3.62
868.33	-1.38
869.068	1.62
869.806	1.62
870.543	2.62
871.28	1.62
872.018	0.62
872.755	1.62
873.492	0.62
874.229	4.62
874.967	2.62
875.703	-1.38
876.44	2.62
877.177	2.62
877.914	-1.38
878.651	1.62
879.387	2.62
880.124	1.62
880.86	2.62
881.597	3.62
882.333	1.62
883.069	4.62
883.806	4.62
884.542	1.62
885.278	2.62
886.014	0.62
886.749	0.62
887.485	-0.38
888.221	2.62
888.957	0.62
889.692	0.62
890.428	1.62
891.163	-0.38
891.899	2.62
892.634	1.62
893.369	-0.38
894.104	2.62
894.839	0.62
895.574	0.62
896.309	-1.38
897.044	1.62
897.779	3.62
898.514	0.62
899.248	1.62
899.983	-0.38
900.717	1.62
901.452	-0.38
902.186	-0.38
902.92	-1.38
903.654	1.62
904.389	0.62
905.123	0.62
905.857	1.62
906.59	0.62
907.324	1.62
908.058	0.62
908.792	-1.38
909.525	0.62
910.259	-0.38
910.992	1.62
911.726	1.62
912.459	1.62
913.192	1.62
913.925	0.62
914.658	0.62
915.391	0.62
916.124	0.62
916.857	2.62
917.59	0.62
918.323	1.62
919.055	0.62
919.788	1.62
920.521	-0.38
921.253	-0.38
921.985	1.62
922.718	0.62
923.45	-0.38
924.182	1.62
924.914	1.62
925.646	-1.38
926.378	-2.38
927.11	2.62
927.841	-0.38
928.573	2.62
929.305	1.62
930.036	0.62
930.768	-0.38
931.499	-0.38
932.23	1.62
932.962	0.62
933.693	0.62
934.424	-0.38
935.155	2.62
935.886	-0.38
936.617	1.62
937.348	-1.38
938.078	-0.38
938.809	-0.38
939.54	-2.38
940.27	-0.38
941.001	-0.38
941.731	0.62
942.461	0.62
943.191	1.62
943.922	0.62
944.652	-0.38
945.382	-0.38
946.112	2.62
946.841	-0.38
947.571	0.62
948.301	1.62
949.031	0.62
949.76	3.62
950.49	-0.38
951.219	0.62
951.948	1.62
952.678	-1.38
953.407	-1.38
954.136	-1.38
954.865	2.62
955.594	-1.38
956.323	0.62
957.052	-1.38
957.78	-0.38
958.509	0.62
959.238	0.62
959.966	0.62
960.695	-0.38
961.423	-1.38
962.151	-0.38
962.88	-1.38
963.608	-0.38
964.336	-0.38
965.064	-0.38
965.792	-0.38
966.52	-0.38
967.247	2.62
967.975	-1.38
968.703	0.62
969.43	0.62
970.158	1.62
970.885	1.62
971.613	-0.38
972.34	2.62
973.067	-0.38
973.794	0.62
974.521	1.62
975.248	-1.38
975.975	-0.38
976.702	0.62
977.429	0.62
978.156	-0.38
978.882	-0.38
979.609	0.62
980.335	-0.38
981.062	-1.38
981.788	-1.38
982.514	0.62
983.24	1.62
983.967	1.62
984.693	2.62
985.419	1.62
986.144	-0.38
986.87	-1.38
987.596	-0.38
988.322	0.62
989.047	0.62
989.773	-0.38
990.498	-1.38
991.224	3.62
991.949	-0.38
992.674	1.62
993.399	1.62
994.124	0.62
994.849	0.62
995.574	0.62
996.299	0.62
997.024	-0.38
997.749	-0.38
998.473	0.62
999.198	-0.38
999.922	-0.38
1000.647	1.62
1001.371	2.62
1002.095	-0.38
1002.82	-1.38
1003.544	-0.38
1004.268	7.62
1004.992	4.62
1005.716	3.62
1006.439	5.62
1007.163	5.62
1007.887	6.62
1008.611	0.62
1009.334	0.62
1010.058	0.62
1010.781	1.62
1011.504	-2.38
1012.228	-0.38
1012.951	-0.38
1013.674	-1.38
1014.397	0.62
1015.12	0.62
