节点500_705_QEPB04081__298__20-50-13-410.txt的数据

Date: Wed Nov 12 20:50:13 CST 2025
User: PC
Spectrometer: QEPB0408
触发模式: 0
积分时间 (秒): 1.000000E-2
Scans to average: 1
启用暗噪声校正: true
启用非线性校正: false
滑动平均宽度: 0
X轴模式: Wavelengths
Number of Pixels in Spectrum: 1044
>>>>>Begin Spectral Data<<<<<
220.843	5.62
221.644	6.62
222.444	4.62
223.244	5.62
224.045	6.62
224.845	6.62
225.645	4.62
226.445	5.62
227.245	8.62
228.045	8.62
228.845	6.62
229.645	10.62
230.444	8.62
231.244	6.62
232.043	8.62
232.843	11.62
233.642	9.62
234.442	11.62
235.241	9.62
236.04	12.62
236.839	9.62
237.638	10.62
238.437	11.62
239.236	10.62
240.035	10.62
240.833	11.62
241.632	8.62
242.43	12.62
243.229	12.62
244.027	13.62
244.826	11.62
245.624	13.62
246.422	12.62
247.22	15.62
248.018	16.62
248.816	16.62
249.614	15.62
250.412	16.62
251.21	17.62
252.007	14.62
252.805	16.62
253.602	13.62
254.4	15.62
255.197	18.62
255.994	16.62
256.791	18.62
257.589	21.62
258.386	22.62
259.183	19.62
259.979	19.62
260.776	21.62
261.573	21.62
262.37	22.62
263.166	23.62
263.963	25.62
264.759	28.62
265.556	26.62
266.352	26.62
267.148	27.62
267.944	31.62
268.74	29.62
269.536	30.62
270.332	27.62
271.128	30.62
271.924	32.62
272.719	30.62
273.515	31.62
274.311	35.62
275.106	30.62
275.901	32.62
276.697	34.62
277.492	34.62
278.287	33.62
279.082	33.62
279.877	30.62
280.672	33.62
281.467	34.62
282.262	31.62
283.056	34.62
283.851	35.62
284.646	35.62
285.44	31.62
286.234	31.62
287.029	32.62
287.823	30.62
288.617	29.62
289.411	30.62
290.205	34.62
290.999	32.62
291.793	34.62
292.587	28.62
293.381	28.62
294.174	30.62
294.968	28.62
295.761	24.62
296.555	26.62
297.348	27.62
298.141	26.62
298.935	25.62
299.728	25.62
300.521	24.62
301.314	23.62
302.107	23.62
302.899	23.62
303.692	22.62
304.485	20.62
305.277	22.62
306.07	21.62
306.862	21.62
307.655	21.62
308.447	20.62
309.239	21.62
310.031	18.62
310.823	17.62
311.615	16.62
312.407	17.62
313.199	19.62
313.991	17.62
314.783	16.62
315.574	16.62
316.366	11.62
317.157	13.62
317.949	14.62
318.74	17.62
319.531	14.62
320.322	12.62
321.113	15.62
321.904	11.62
322.695	11.62
323.486	10.62
324.277	13.62
325.068	12.62
325.858	13.62
326.649	12.62
327.439	8.62
328.23	11.62
329.02	11.62
329.81	13.62
330.6	12.62
331.391	10.62
332.181	12.62
332.971	12.62
333.76	11.62
334.55	12.62
335.34	11.62
336.13	14.62
336.919	11.62
337.709	12.62
338.498	12.62
339.287	12.62
340.077	11.62
340.866	8.62
341.655	12.62
342.444	12.62
343.233	11.62
344.022	10.62
344.811	11.62
345.6	11.62
346.388	10.62
347.177	11.62
347.965	9.62
348.754	11.62
349.542	10.62
350.33	11.62
351.119	15.62
351.907	8.62
352.695	8.62
353.483	10.62
354.271	9.62
355.059	9.62
355.846	9.62
356.634	10.62
357.422	7.62
358.209	8.62
358.997	10.62
359.784	9.62
360.571	9.62
361.359	10.62
362.146	8.62
362.933	10.62
363.72	9.62
364.507	10.62
365.294	8.62
366.081	12.62
366.867	8.62
367.654	8.62
368.44	10.62
369.227	8.62
370.013	9.62
370.8	5.62
371.586	8.62
372.372	11.62
373.158	8.62
373.944	8.62
374.73	8.62
375.516	9.62
376.302	8.62
377.088	11.62
377.873	7.62
378.659	7.62
379.445	6.62
380.23	10.62
381.015	9.62
381.801	12.62
382.586	8.62
383.371	10.62
384.156	9.62
384.941	9.62
385.726	8.62
386.511	11.62
387.296	7.62
388.08	10.62
388.865	10.62
389.649	11.62
390.434	13.62
391.218	10.62
392.003	12.62
392.787	10.62
393.571	9.62
394.355	12.62
395.139	10.62
395.923	13.62
396.707	11.62
397.491	12.62
398.274	13.62
399.058	14.62
399.842	14.62
400.625	13.62
401.408	12.62
402.192	12.62
402.975	11.62
403.758	12.62
404.541	11.62
405.324	16.62
406.107	15.62
406.89	12.62
407.673	15.62
408.456	15.62
409.238	16.62
410.021	14.62
410.803	15.62
411.586	14.62
412.368	17.62
413.151	18.62
413.933	16.62
414.715	20.62
415.497	17.62
416.279	18.62
417.061	16.62
417.843	21.62
418.624	22.62
419.406	18.62
420.188	21.62
420.969	22.62
421.751	21.62
422.532	20.62
423.313	21.62
424.095	22.62
424.876	25.62
425.657	23.62
426.438	24.62
427.219	26.62
428	27.62
428.78	27.62
429.561	28.62
430.342	28.62
431.122	32.62
431.903	31.62
432.683	28.62
433.464	37.62
434.244	35.62
435.024	37.62
435.804	41.62
436.584	44.62
437.364	44.62
438.144	45.62
438.924	49.62
439.704	52.62
440.483	55.62
441.263	60.62
442.042	64.62
442.822	66.62
443.601	69.62
444.38	78.62
445.16	86.62
445.939	95.62
446.718	107.62
447.497	110.62
448.276	120.62
449.054	133.62
449.833	141.62
450.612	160.62
451.391	179.62
452.169	198.62
452.948	213.62
453.726	236.62
454.504	263.62
455.282	292.62
456.061	328.62
456.839	360.62
457.617	410.62
458.395	446.62
459.172	508.62
459.95	563.62
460.728	622.62
461.506	702.62
462.283	782.62
463.061	880.62
463.838	978.62
464.615	1094.62
465.393	1222.62
466.17	1352.62
466.947	1504.62
467.724	1662.62
468.501	1847.62
469.278	2047.62
470.055	2257.62
470.831	2484.62
471.608	2754.62
472.385	3038.62
473.161	3362.62
473.938	3700.62
474.714	4068.62
475.49	4458.62
476.266	4859.62
477.043	5343.62
477.819	5825.62
478.595	6401.62
479.371	6991.62
480.146	7638.62
480.922	8347.62
481.698	9062.62
482.473	9861.62
483.249	10746.62
484.024	11674.62
484.8	12636.62
485.575	13715.62
486.35	14909.62
487.126	16129.62
487.901	17436.62
488.676	18852.62
489.451	20407.62
490.225	21816.62
491	23438.62
491.775	25042.62
492.55	26854.62
493.324	28557.62
494.099	30298.62
494.873	32200.62
495.647	33963.62
496.422	35801.62
497.196	37624.62
497.97	39186.62
498.744	40704.62
499.518	42313.62
500.292	43651.62
501.066	44710.62
501.839	45652.62
502.613	46343.62
503.387	46988.62
504.16	47301.62
504.934	47362.62
505.707	47382.62
506.48	46937.62
507.253	46477.62
508.027	45708.62
508.8	44687.62
509.573	43610.62
510.346	42558.62
511.118	41421.62
511.891	40189.62
512.664	38629.62
513.437	37253.62
514.209	35800.62
514.982	34436.62
515.754	33075.62
516.526	31665.62
517.298	30400.62
518.071	29189.62
518.843	28013.62
519.615	26969.62
520.387	25887.62
521.159	24840.62
521.93	23799.62
522.702	22754.62
523.474	21831.62
524.245	20876.62
525.017	19998.62
525.788	19101.62
526.56	18298.62
527.331	17446.62
528.102	16602.62
528.873	15770.62
529.644	15022.62
530.415	14344.62
531.186	13641.62
531.957	12891.62
532.728	12250.62
533.498	11589.62
534.269	11003.62
535.039	10370.62
535.81	9813.62
536.58	9302.62
537.351	8803.62
538.121	8359.62
538.891	7859.62
539.661	7479.62
540.431	7077.62
541.201	6689.62
541.971	6354.62
542.741	6002.62
543.51	5716.62
544.28	5420.62
545.05	5170.62
545.819	4919.62
546.588	4716.62
547.358	4499.62
548.127	4269.62
548.896	4042.62
549.665	3812.62
550.434	3614.62
551.203	3432.62
551.972	3247.62
552.741	3086.62
553.51	2920.62
554.278	2737.62
555.047	2618.62
555.815	2465.62
556.584	2316.62
557.352	2191.62
558.121	2078.62
558.889	1949.62
559.657	1850.62
560.425	1740.62
561.193	1647.62
561.961	1560.62
562.729	1490.62
563.496	1390.62
564.264	1318.62
565.032	1226.62
565.799	1189.62
566.567	1105.62
567.334	1068.62
568.101	994.62
568.869	939.62
569.636	895.62
570.403	830.62
571.17	796.62
571.937	754.62
572.704	711.62
573.471	673.62
574.237	638.62
575.004	593.62
575.771	557.62
576.537	524.62
577.303	500.62
578.07	469.62
578.836	441.62
579.602	420.62
580.368	394.62
581.134	384.62
581.9	356.62
582.666	345.62
583.432	324.62
584.198	310.62
584.964	293.62
585.729	281.62
586.495	268.62
587.26	255.62
588.025	240.62
588.791	226.62
589.556	214.62
590.321	203.62
591.086	190.62
591.851	184.62
592.616	175.62
593.381	172.62
594.146	158.62
594.911	150.62
595.675	149.62
596.44	136.62
597.204	135.62
597.969	123.62
598.733	121.62
599.497	114.62
600.261	110.62
601.025	107.62
601.79	102.62
602.553	98.62
603.317	94.62
604.081	89.62
604.845	87.62
605.609	85.62
606.372	78.62
607.136	75.62
607.899	74.62
608.662	70.62
609.426	66.62
610.189	64.62
610.952	60.62
611.715	58.62
612.478	59.62
613.241	56.62
614.004	55.62
614.767	51.62
615.529	50.62
616.292	48.62
617.055	47.62
617.817	46.62
618.579	44.62
619.342	42.62
620.104	37.62
620.866	37.62
621.628	38.62
622.39	36.62
623.152	35.62
623.914	32.62
624.676	34.62
625.438	32.62
626.199	30.62
626.961	30.62
627.722	30.62
628.484	28.62
629.245	29.62
630.006	28.62
630.768	28.62
631.529	24.62
632.29	25.62
633.051	24.62
633.812	24.62
634.573	21.62
635.333	20.62
636.094	23.62
636.855	20.62
637.615	20.62
638.376	18.62
639.136	20.62
639.896	17.62
640.657	18.62
641.417	19.62
642.177	18.62
642.937	17.62
643.697	19.62
644.457	14.62
645.216	14.62
645.976	16.62
646.736	14.62
647.495	14.62
648.255	12.62
649.014	13.62
649.774	17.62
650.533	16.62
651.292	15.62
652.051	12.62
652.81	11.62
653.569	13.62
654.328	14.62
655.087	12.62
655.846	12.62
656.604	12.62
657.363	12.62
658.121	9.62
658.88	14.62
659.638	12.62
660.397	9.62
661.155	8.62
661.913	11.62
662.671	12.62
663.429	9.62
664.187	9.62
664.945	9.62
665.703	10.62
666.46	12.62
667.218	7.62
667.976	10.62
668.733	9.62
669.49	7.62
670.248	9.62
671.005	11.62
671.762	6.62
672.519	9.62
673.276	10.62
674.033	8.62
674.79	9.62
675.547	8.62
676.304	8.62
677.06	8.62
677.817	7.62
678.574	10.62
679.33	7.62
680.086	7.62
680.843	9.62
681.599	7.62
682.355	6.62
683.111	4.62
683.867	6.62
684.623	4.62
685.379	5.62
686.135	11.62
686.89	7.62
687.646	4.62
688.402	6.62
689.157	4.62
689.912	4.62
690.668	6.62
691.423	5.62
692.178	7.62
692.933	7.62
693.688	6.62
694.443	6.62
695.198	8.62
695.953	6.62
696.708	9.62
697.462	6.62
698.217	6.62
698.972	6.62
699.726	7.62
700.48	8.62
701.235	7.62
701.989	6.62
702.743	7.62
703.497	7.62
704.251	7.62
705.005	7.62
705.759	7.62
706.513	7.62
707.266	9.62
708.02	8.62
708.774	7.62
709.527	7.62
710.28	8.62
711.034	9.62
711.787	5.62
712.54	7.62
713.293	9.62
714.046	5.62
714.799	9.62
715.552	7.62
716.305	7.62
717.058	9.62
717.81	5.62
718.563	5.62
719.315	8.62
720.068	9.62
720.82	9.62
721.573	5.62
722.325	9.62
723.077	7.62
723.829	8.62
724.581	7.62
725.333	9.62
726.085	5.62
726.836	7.62
727.588	7.62
728.34	9.62
729.091	8.62
729.843	10.62
730.594	7.62
731.346	9.62
732.097	6.62
732.848	9.62
733.599	7.62
734.35	8.62
735.101	9.62
735.852	9.62
736.603	9.62
737.354	9.62
738.104	11.62
738.855	8.62
739.605	9.62
740.356	7.62
741.106	11.62
741.856	9.62
742.607	8.62
743.357	8.62
744.107	9.62
744.857	9.62
745.607	9.62
746.357	9.62
747.106	10.62
747.856	7.62
748.606	8.62
749.355	10.62
750.105	9.62
750.854	10.62
751.603	11.62
752.353	8.62
753.102	10.62
753.851	7.62
754.6	12.62
755.349	12.62
756.098	10.62
756.847	10.62
757.595	8.62
758.344	11.62
759.093	9.62
759.841	14.62
760.589	9.62
761.338	12.62
762.086	13.62
762.834	11.62
763.582	10.62
764.331	12.62
765.079	14.62
765.826	12.62
766.574	13.62
767.322	15.62
768.07	15.62
768.817	14.62
769.565	12.62
770.312	15.62
771.06	14.62
771.807	14.62
772.554	14.62
773.302	13.62
774.049	13.62
774.796	17.62
775.543	14.62
776.29	14.62
777.036	15.62
777.783	16.62
778.53	16.62
779.276	14.62
780.023	14.62
780.769	16.62
781.516	14.62
782.262	15.62
783.008	16.62
783.754	15.62
784.5	16.62
785.246	15.62
785.992	17.62
786.738	14.62
787.484	13.62
788.23	12.62
788.975	17.62
789.721	15.62
790.466	14.62
791.212	14.62
791.957	14.62
792.702	13.62
793.447	12.62
794.193	14.62
794.938	12.62
795.683	15.62
796.427	13.62
797.172	10.62
797.917	12.62
798.662	12.62
799.406	12.62
800.151	12.62
800.895	11.62
801.64	12.62
802.384	10.62
803.128	12.62
803.872	13.62
804.616	11.62
805.36	10.62
806.104	11.62
806.848	10.62
807.592	7.62
808.336	10.62
809.079	9.62
809.823	9.62
810.566	9.62
811.31	8.62
812.053	8.62
812.796	9.62
813.539	9.62
814.283	10.62
815.026	9.62
815.769	6.62
816.511	7.62
817.254	9.62
817.997	6.62
818.74	8.62
819.482	7.62
820.225	7.62
820.967	7.62
821.71	7.62
822.452	8.62
823.194	7.62
823.936	8.62
824.678	9.62
825.42	5.62
826.162	8.62
826.904	4.62
827.646	5.62
828.388	5.62
829.129	6.62
829.871	6.62
830.612	6.62
831.354	4.62
832.095	5.62
832.836	4.62
833.577	3.62
834.319	5.62
835.06	7.62
835.801	3.62
836.542	6.62
837.282	4.62
838.023	7.62
838.764	4.62
839.504	5.62
840.245	4.62
840.985	5.62
841.726	7.62
842.466	6.62
843.206	7.62
843.946	5.62
844.687	2.62
845.427	5.62
846.166	5.62
846.906	6.62
847.646	4.62
848.386	3.62
849.125	4.62
849.865	5.62
850.605	3.62
851.344	6.62
852.083	4.62
852.823	3.62
853.562	5.62
854.301	4.62
855.04	2.62
855.779	2.62
856.518	5.62
857.257	4.62
857.995	2.62
858.734	5.62
859.473	2.62
860.211	5.62
860.95	4.62
861.688	4.62
862.426	3.62
863.165	2.62
863.903	-1.38
864.641	4.62
865.379	1.62
866.117	2.62
866.855	1.62
867.593	3.62
868.33	2.62
869.068	3.62
869.806	2.62
870.543	1.62
871.28	-1.38
872.018	2.62
872.755	2.62
873.492	-0.38
874.229	2.62
874.967	2.62
875.703	2.62
876.44	0.62
877.177	2.62
877.914	0.62
878.651	1.62
879.387	2.62
880.124	3.62
880.86	2.62
881.597	-0.38
882.333	0.62
883.069	1.62
883.806	-0.38
884.542	1.62
885.278	1.62
886.014	0.62
886.749	0.62
887.485	2.62
888.221	2.62
888.957	0.62
889.692	1.62
890.428	0.62
891.163	0.62
891.899	0.62
892.634	0.62
893.369	1.62
894.104	3.62
894.839	2.62
895.574	-0.38
896.309	-0.38
897.044	-0.38
897.779	-0.38
898.514	2.62
899.248	-0.38
899.983	1.62
900.717	0.62
901.452	2.62
902.186	1.62
902.92	0.62
903.654	0.62
904.389	-1.38
905.123	0.62
905.857	-1.38
906.59	0.62
907.324	1.62
908.058	-0.38
908.792	-0.38
909.525	0.62
910.259	2.62
910.992	0.62
911.726	-0.38
912.459	0.62
913.192	0.62
913.925	0.62
914.658	0.62
915.391	0.62
916.124	0.62
916.857	-1.38
917.59	0.62
918.323	-0.38
919.055	0.62
919.788	1.62
920.521	-1.38
921.253	-1.38
921.985	0.62
922.718	2.62
923.45	0.62
924.182	0.62
924.914	1.62
925.646	2.62
926.378	0.62
927.11	-1.38
927.841	0.62
928.573	-1.38
929.305	-1.38
930.036	-0.38
930.768	0.62
931.499	1.62
932.23	-1.38
932.962	1.62
933.693	-1.38
934.424	-0.38
935.155	-1.38
935.886	-2.38
936.617	-0.38
937.348	-0.38
938.078	0.62
938.809	0.62
939.54	-0.38
940.27	-1.38
941.001	1.62
941.731	1.62
942.461	-1.38
943.191	0.62
943.922	0.62
944.652	-1.38
945.382	-1.38
946.112	-0.38
946.841	0.62
947.571	0.62
948.301	-0.38
949.031	0.62
949.76	-0.38
950.49	1.62
951.219	1.62
951.948	-0.38
952.678	0.62
953.407	-0.38
954.136	-1.38
954.865	-2.38
955.594	1.62
956.323	2.62
957.052	1.62
957.78	0.62
958.509	-0.38
959.238	0.62
959.966	0.62
960.695	-1.38
961.423	1.62
962.151	1.62
962.88	-1.38
963.608	-1.38
964.336	1.62
965.064	0.62
965.792	-1.38
966.52	0.62
967.247	0.62
967.975	0.62
968.703	0.62
969.43	3.62
970.158	1.62
970.885	-0.38
971.613	-0.38
972.34	-0.38
973.067	1.62
973.794	0.62
974.521	-0.38
975.248	-1.38
975.975	0.62
976.702	-0.38
977.429	0.62
978.156	-0.38
978.882	2.62
979.609	-0.38
980.335	-0.38
981.062	0.62
981.788	0.62
982.514	-1.38
983.24	-0.38
983.967	-0.38
984.693	-2.38
985.419	-0.38
986.144	-0.38
986.87	-0.38
987.596	-1.38
988.322	0.62
989.047	1.62
989.773	0.62
990.498	-0.38
991.224	0.62
991.949	0.62
992.674	-1.38
993.399	-0.38
994.124	-3.38
994.849	-1.38
995.574	1.62
996.299	0.62
997.024	0.62
997.749	1.62
998.473	-1.38
999.198	-0.38
999.922	-0.38
1000.647	-0.38
1001.371	4.62
1002.095	-1.38
1002.82	-0.38
1003.544	0.62
1004.268	1.62
1004.992	3.62
1005.716	2.62
1006.439	5.62
1007.163	7.62
1007.887	5.62
1008.611	1.62
1009.334	-1.38
1010.058	0.62
1010.781	-1.38
1011.504	-0.38
1012.228	-0.38
1012.951	-1.38
1013.674	0.62
1014.397	-3.38
1015.12	0.62
