节点500_705_QEPB04081__432__20-52-03-710.txt的数据

Date: Wed Nov 12 20:52:03 CST 2025
User: PC
Spectrometer: QEPB0408
触发模式: 0
积分时间 (秒): 1.000000E-2
Scans to average: 1
启用暗噪声校正: true
启用非线性校正: false
滑动平均宽度: 0
X轴模式: Wavelengths
Number of Pixels in Spectrum: 1044
>>>>>Begin Spectral Data<<<<<
220.843	7.62
221.644	3.62
222.444	4.62
223.244	4.62
224.045	7.62
224.845	8.62
225.645	5.62
226.445	8.62
227.245	7.62
228.045	6.62
228.845	5.62
229.645	7.62
230.444	10.62
231.244	10.62
232.043	10.62
232.843	9.62
233.642	8.62
234.442	10.62
235.241	7.62
236.04	12.62
236.839	13.62
237.638	11.62
238.437	6.62
239.236	10.62
240.035	10.62
240.833	13.62
241.632	10.62
242.43	12.62
243.229	12.62
244.027	13.62
244.826	13.62
245.624	12.62
246.422	15.62
247.22	13.62
248.018	13.62
248.816	15.62
249.614	14.62
250.412	14.62
251.21	18.62
252.007	16.62
252.805	18.62
253.602	18.62
254.4	16.62
255.197	18.62
255.994	17.62
256.791	21.62
257.589	22.62
258.386	20.62
259.183	21.62
259.979	19.62
260.776	19.62
261.573	21.62
262.37	19.62
263.166	21.62
263.963	24.62
264.759	23.62
265.556	24.62
266.352	26.62
267.148	27.62
267.944	27.62
268.74	25.62
269.536	27.62
270.332	28.62
271.128	27.62
271.924	30.62
272.719	30.62
273.515	30.62
274.311	29.62
275.106	29.62
275.901	33.62
276.697	30.62
277.492	32.62
278.287	34.62
279.082	34.62
279.877	34.62
280.672	31.62
281.467	35.62
282.262	36.62
283.056	31.62
283.851	33.62
284.646	32.62
285.44	36.62
286.234	33.62
287.029	34.62
287.823	33.62
288.617	31.62
289.411	33.62
290.205	31.62
290.999	30.62
291.793	30.62
292.587	30.62
293.381	29.62
294.174	29.62
294.968	32.62
295.761	25.62
296.555	25.62
297.348	24.62
298.141	26.62
298.935	32.62
299.728	28.62
300.521	27.62
301.314	26.62
302.107	27.62
302.899	21.62
303.692	22.62
304.485	23.62
305.277	23.62
306.07	20.62
306.862	23.62
307.655	21.62
308.447	22.62
309.239	21.62
310.031	21.62
310.823	19.62
311.615	19.62
312.407	18.62
313.199	19.62
313.991	14.62
314.783	15.62
315.574	15.62
316.366	16.62
317.157	14.62
317.949	14.62
318.74	12.62
319.531	16.62
320.322	15.62
321.113	14.62
321.904	15.62
322.695	13.62
323.486	15.62
324.277	13.62
325.068	13.62
325.858	13.62
326.649	14.62
327.439	15.62
328.23	11.62
329.02	14.62
329.81	12.62
330.6	13.62
331.391	9.62
332.181	12.62
332.971	11.62
333.76	15.62
334.55	12.62
335.34	11.62
336.13	12.62
336.919	11.62
337.709	11.62
338.498	14.62
339.287	11.62
340.077	13.62
340.866	11.62
341.655	12.62
342.444	15.62
343.233	12.62
344.022	12.62
344.811	10.62
345.6	11.62
346.388	13.62
347.177	11.62
347.965	15.62
348.754	10.62
349.542	10.62
350.33	11.62
351.119	11.62
351.907	10.62
352.695	10.62
353.483	11.62
354.271	13.62
355.059	9.62
355.846	9.62
356.634	10.62
357.422	9.62
358.209	10.62
358.997	11.62
359.784	8.62
360.571	10.62
361.359	12.62
362.146	8.62
362.933	11.62
363.72	10.62
364.507	11.62
365.294	11.62
366.081	11.62
366.867	10.62
367.654	8.62
368.44	10.62
369.227	9.62
370.013	8.62
370.8	11.62
371.586	8.62
372.372	7.62
373.158	11.62
373.944	11.62
374.73	9.62
375.516	10.62
376.302	11.62
377.088	10.62
377.873	8.62
378.659	8.62
379.445	8.62
380.23	12.62
381.015	10.62
381.801	10.62
382.586	10.62
383.371	8.62
384.156	10.62
384.941	12.62
385.726	11.62
386.511	10.62
387.296	11.62
388.08	11.62
388.865	12.62
389.649	10.62
390.434	10.62
391.218	12.62
392.003	10.62
392.787	10.62
393.571	11.62
394.355	14.62
395.139	11.62
395.923	15.62
396.707	12.62
397.491	12.62
398.274	11.62
399.058	13.62
399.842	13.62
400.625	14.62
401.408	13.62
402.192	13.62
402.975	11.62
403.758	13.62
404.541	17.62
405.324	14.62
406.107	17.62
406.89	15.62
407.673	16.62
408.456	16.62
409.238	13.62
410.021	17.62
410.803	18.62
411.586	12.62
412.368	18.62
413.151	17.62
413.933	16.62
414.715	17.62
415.497	20.62
416.279	19.62
417.061	17.62
417.843	21.62
418.624	17.62
419.406	19.62
420.188	22.62
420.969	21.62
421.751	21.62
422.532	21.62
423.313	24.62
424.095	24.62
424.876	22.62
425.657	26.62
426.438	24.62
427.219	28.62
428	25.62
428.78	28.62
429.561	26.62
430.342	30.62
431.122	29.62
431.903	31.62
432.683	35.62
433.464	36.62
434.244	39.62
435.024	36.62
435.804	40.62
436.584	40.62
437.364	46.62
438.144	50.62
438.924	47.62
439.704	50.62
440.483	59.62
441.263	59.62
442.042	67.62
442.822	71.62
443.601	75.62
444.38	80.62
445.16	87.62
445.939	94.62
446.718	103.62
447.497	122.62
448.276	127.62
449.054	138.62
449.833	152.62
450.612	166.62
451.391	179.62
452.169	204.62
452.948	220.62
453.726	242.62
454.504	271.62
455.282	311.62
456.061	344.62
456.839	382.62
457.617	418.62
458.395	470.62
459.172	522.62
459.95	593.62
460.728	646.62
461.506	726.62
462.283	814.62
463.061	900.62
463.838	999.62
464.615	1111.62
465.393	1236.62
466.17	1374.62
466.947	1522.62
467.724	1685.62
468.501	1860.62
469.278	2059.62
470.055	2283.62
470.831	2508.62
471.608	2753.62
472.385	3050.62
473.161	3346.62
473.938	3656.62
474.714	4024.62
475.49	4412.62
476.266	4791.62
477.043	5255.62
477.819	5740.62
478.595	6241.62
479.371	6802.62
480.146	7408.62
480.922	8104.62
481.698	8783.62
482.473	9547.62
483.249	10381.62
484.024	11241.62
484.8	12139.62
485.575	13135.62
486.35	14161.62
487.126	15388.62
487.901	16612.62
488.676	17922.62
489.451	19191.62
490.225	20721.62
491	22123.62
491.775	23690.62
492.55	25290.62
493.324	26962.62
494.099	28647.62
494.873	30368.62
495.647	32087.62
496.422	33680.62
497.196	35460.62
497.97	37087.62
498.744	38561.62
499.518	40214.62
500.292	41483.62
501.066	42584.62
501.839	43510.62
502.613	44351.62
503.387	45074.62
504.16	45576.62
504.934	45832.62
505.707	45869.62
506.48	45612.62
507.253	45299.62
508.027	44768.62
508.8	43987.62
509.573	43046.62
510.346	42184.62
511.118	41237.62
511.891	40053.62
512.664	38580.62
513.437	37266.62
514.209	35937.62
514.982	34553.62
515.754	33212.62
516.526	31956.62
517.298	30662.62
518.071	29535.62
518.843	28377.62
519.615	27194.62
520.387	26114.62
521.159	25116.62
521.93	24007.62
522.702	23065.62
523.474	22105.62
524.245	21176.62
525.017	20349.62
525.788	19434.62
526.56	18644.62
527.331	17787.62
528.102	16937.62
528.873	16070.62
529.644	15384.62
530.415	14623.62
531.186	13955.62
531.957	13250.62
532.728	12609.62
533.498	11909.62
534.269	11279.62
535.039	10691.62
535.81	10135.62
536.58	9561.62
537.351	9082.62
538.121	8615.62
538.891	8164.62
539.661	7725.62
540.431	7264.62
541.201	6922.62
541.971	6545.62
542.741	6204.62
543.51	5903.62
544.28	5629.62
545.05	5341.62
545.819	5081.62
546.588	4850.62
547.358	4608.62
548.127	4406.62
548.896	4153.62
549.665	3948.62
550.434	3746.62
551.203	3570.62
551.972	3388.62
552.741	3196.62
553.51	3011.62
554.278	2851.62
555.047	2687.62
555.815	2546.62
556.584	2411.62
557.352	2296.62
558.121	2145.62
558.889	2053.62
559.657	1932.62
560.425	1826.62
561.193	1726.62
561.961	1646.62
562.729	1549.62
563.496	1481.62
564.264	1373.62
565.032	1302.62
565.799	1232.62
566.567	1174.62
567.334	1096.62
568.101	1048.62
568.869	979.62
569.636	930.62
570.403	886.62
571.17	843.62
571.937	771.62
572.704	739.62
573.471	702.62
574.237	663.62
575.004	625.62
575.771	585.62
576.537	550.62
577.303	524.62
578.07	493.62
578.836	471.62
579.602	434.62
580.368	423.62
581.134	393.62
581.9	375.62
582.666	365.62
583.432	334.62
584.198	328.62
584.964	312.62
585.729	294.62
586.495	272.62
587.26	255.62
588.025	243.62
588.791	232.62
589.556	223.62
590.321	211.62
591.086	204.62
591.851	197.62
592.616	184.62
593.381	171.62
594.146	169.62
594.911	160.62
595.675	153.62
596.44	142.62
597.204	139.62
597.969	133.62
598.733	120.62
599.497	120.62
600.261	112.62
601.025	115.62
601.79	103.62
602.553	101.62
603.317	98.62
604.081	95.62
604.845	90.62
605.609	87.62
606.372	85.62
607.136	81.62
607.899	76.62
608.662	70.62
609.426	69.62
610.189	68.62
610.952	63.62
611.715	63.62
612.478	63.62
613.241	61.62
614.004	53.62
614.767	57.62
615.529	55.62
616.292	52.62
617.055	50.62
617.817	48.62
618.579	45.62
619.342	45.62
620.104	42.62
620.866	46.62
621.628	41.62
622.39	39.62
623.152	36.62
623.914	34.62
624.676	34.62
625.438	33.62
626.199	33.62
626.961	32.62
627.722	34.62
628.484	30.62
629.245	27.62
630.006	30.62
630.768	28.62
631.529	28.62
632.29	26.62
633.051	26.62
633.812	25.62
634.573	25.62
635.333	24.62
636.094	23.62
636.855	23.62
637.615	23.62
638.376	20.62
639.136	21.62
639.896	22.62
640.657	19.62
641.417	21.62
642.177	21.62
642.937	19.62
643.697	16.62
644.457	19.62
645.216	18.62
645.976	15.62
646.736	17.62
647.495	14.62
648.255	17.62
649.014	17.62
649.774	13.62
650.533	15.62
651.292	14.62
652.051	16.62
652.81	15.62
653.569	12.62
654.328	14.62
655.087	14.62
655.846	12.62
656.604	11.62
657.363	11.62
658.121	11.62
658.88	11.62
659.638	12.62
660.397	11.62
661.155	14.62
661.913	11.62
662.671	11.62
663.429	8.62
664.187	12.62
664.945	10.62
665.703	11.62
666.46	11.62
667.218	12.62
667.976	11.62
668.733	8.62
669.49	10.62
670.248	11.62
671.005	10.62
671.762	9.62
672.519	7.62
673.276	12.62
674.033	9.62
674.79	8.62
675.547	7.62
676.304	8.62
677.06	10.62
677.817	8.62
678.574	6.62
679.33	7.62
680.086	9.62
680.843	8.62
681.599	9.62
682.355	9.62
683.111	9.62
683.867	7.62
684.623	10.62
685.379	6.62
686.135	8.62
686.89	7.62
687.646	8.62
688.402	9.62
689.157	8.62
689.912	7.62
690.668	7.62
691.423	9.62
692.178	9.62
692.933	7.62
693.688	6.62
694.443	7.62
695.198	8.62
695.953	6.62
696.708	9.62
697.462	7.62
698.217	10.62
698.972	10.62
699.726	9.62
700.48	6.62
701.235	8.62
701.989	9.62
702.743	7.62
703.497	6.62
704.251	10.62
705.005	5.62
705.759	9.62
706.513	7.62
707.266	5.62
708.02	8.62
708.774	7.62
709.527	9.62
710.28	6.62
711.034	8.62
711.787	9.62
712.54	6.62
713.293	8.62
714.046	6.62
714.799	8.62
715.552	6.62
716.305	8.62
717.058	7.62
717.81	7.62
718.563	6.62
719.315	7.62
720.068	10.62
720.82	9.62
721.573	10.62
722.325	7.62
723.077	7.62
723.829	9.62
724.581	11.62
725.333	9.62
726.085	6.62
726.836	8.62
727.588	6.62
728.34	10.62
729.091	11.62
729.843	10.62
730.594	7.62
731.346	8.62
732.097	5.62
732.848	9.62
733.599	8.62
734.35	11.62
735.101	10.62
735.852	9.62
736.603	8.62
737.354	10.62
738.104	10.62
738.855	9.62
739.605	10.62
740.356	9.62
741.106	9.62
741.856	9.62
742.607	10.62
743.357	11.62
744.107	10.62
744.857	11.62
745.607	10.62
746.357	10.62
747.106	12.62
747.856	11.62
748.606	13.62
749.355	12.62
750.105	12.62
750.854	13.62
751.603	11.62
752.353	13.62
753.102	11.62
753.851	11.62
754.6	10.62
755.349	13.62
756.098	11.62
756.847	11.62
757.595	13.62
758.344	11.62
759.093	10.62
759.841	11.62
760.589	9.62
761.338	13.62
762.086	13.62
762.834	13.62
763.582	11.62
764.331	13.62
765.079	13.62
765.826	13.62
766.574	14.62
767.322	14.62
768.07	13.62
768.817	14.62
769.565	12.62
770.312	14.62
771.06	14.62
771.807	12.62
772.554	14.62
773.302	13.62
774.049	16.62
774.796	13.62
775.543	16.62
776.29	15.62
777.036	13.62
777.783	15.62
778.53	15.62
779.276	16.62
780.023	13.62
780.769	13.62
781.516	15.62
782.262	15.62
783.008	18.62
783.754	14.62
784.5	19.62
785.246	14.62
785.992	15.62
786.738	16.62
787.484	13.62
788.23	15.62
788.975	17.62
789.721	12.62
790.466	14.62
791.212	16.62
791.957	15.62
792.702	14.62
793.447	15.62
794.193	15.62
794.938	15.62
795.683	13.62
796.427	12.62
797.172	14.62
797.917	13.62
798.662	16.62
799.406	12.62
800.151	12.62
800.895	13.62
801.64	10.62
802.384	13.62
803.128	11.62
803.872	13.62
804.616	11.62
805.36	8.62
806.104	11.62
806.848	9.62
807.592	8.62
808.336	8.62
809.079	10.62
809.823	9.62
810.566	10.62
811.31	11.62
812.053	8.62
812.796	11.62
813.539	7.62
814.283	8.62
815.026	9.62
815.769	6.62
816.511	7.62
817.254	9.62
817.997	7.62
818.74	9.62
819.482	8.62
820.225	8.62
820.967	7.62
821.71	8.62
822.452	7.62
823.194	7.62
823.936	8.62
824.678	7.62
825.42	9.62
826.162	5.62
826.904	7.62
827.646	5.62
828.388	4.62
829.129	7.62
829.871	4.62
830.612	8.62
831.354	5.62
832.095	7.62
832.836	8.62
833.577	3.62
834.319	6.62
835.06	7.62
835.801	6.62
836.542	4.62
837.282	6.62
838.023	7.62
838.764	5.62
839.504	4.62
840.245	6.62
840.985	7.62
841.726	7.62
842.466	6.62
843.206	6.62
843.946	6.62
844.687	6.62
845.427	3.62
846.166	4.62
846.906	6.62
847.646	3.62
848.386	7.62
849.125	6.62
849.865	7.62
850.605	7.62
851.344	5.62
852.083	5.62
852.823	4.62
853.562	5.62
854.301	3.62
855.04	3.62
855.779	4.62
856.518	4.62
857.257	6.62
857.995	3.62
858.734	5.62
859.473	3.62
860.211	4.62
860.95	6.62
861.688	4.62
862.426	3.62
863.165	1.62
863.903	3.62
864.641	4.62
865.379	2.62
866.117	4.62
866.855	3.62
867.593	4.62
868.33	1.62
869.068	2.62
869.806	1.62
870.543	2.62
871.28	3.62
872.018	2.62
872.755	2.62
873.492	4.62
874.229	2.62
874.967	3.62
875.703	1.62
876.44	2.62
877.177	1.62
877.914	3.62
878.651	3.62
879.387	-0.38
880.124	2.62
880.86	3.62
881.597	2.62
882.333	0.62
883.069	2.62
883.806	1.62
884.542	2.62
885.278	2.62
886.014	1.62
886.749	1.62
887.485	1.62
888.221	2.62
888.957	2.62
889.692	-0.38
890.428	1.62
891.163	1.62
891.899	1.62
892.634	3.62
893.369	1.62
894.104	1.62
894.839	-0.38
895.574	1.62
896.309	1.62
897.044	3.62
897.779	1.62
898.514	1.62
899.248	0.62
899.983	2.62
900.717	1.62
901.452	-0.38
902.186	2.62
902.92	1.62
903.654	1.62
904.389	1.62
905.123	1.62
905.857	-0.38
906.59	1.62
907.324	1.62
908.058	2.62
908.792	1.62
909.525	1.62
910.259	0.62
910.992	1.62
911.726	1.62
912.459	0.62
913.192	1.62
913.925	3.62
914.658	0.62
915.391	0.62
916.124	-0.38
916.857	2.62
917.59	0.62
918.323	0.62
919.055	3.62
919.788	-0.38
920.521	3.62
921.253	1.62
921.985	-0.38
922.718	0.62
923.45	-1.38
924.182	4.62
924.914	0.62
925.646	-0.38
926.378	3.62
927.11	1.62
927.841	-0.38
928.573	2.62
929.305	2.62
930.036	-0.38
930.768	0.62
931.499	1.62
932.23	1.62
932.962	1.62
933.693	0.62
934.424	-0.38
935.155	2.62
935.886	0.62
936.617	2.62
937.348	1.62
938.078	1.62
938.809	0.62
939.54	2.62
940.27	1.62
941.001	0.62
941.731	-0.38
942.461	1.62
943.191	2.62
943.922	1.62
944.652	1.62
945.382	1.62
946.112	0.62
946.841	2.62
947.571	0.62
948.301	1.62
949.031	2.62
949.76	1.62
950.49	1.62
951.219	0.62
951.948	3.62
952.678	-0.38
953.407	2.62
954.136	2.62
954.865	-0.38
955.594	1.62
956.323	-2.38
957.052	2.62
957.78	0.62
958.509	1.62
959.238	1.62
959.966	1.62
960.695	-0.38
961.423	-0.38
962.151	0.62
962.88	1.62
963.608	1.62
964.336	0.62
965.064	-0.38
965.792	1.62
966.52	0.62
967.247	3.62
967.975	-0.38
968.703	-0.38
969.43	0.62
970.158	-0.38
970.885	2.62
971.613	1.62
972.34	3.62
973.067	0.62
973.794	-0.38
974.521	2.62
975.248	0.62
975.975	1.62
976.702	-0.38
977.429	0.62
978.156	-0.38
978.882	1.62
979.609	1.62
980.335	2.62
981.062	0.62
981.788	1.62
982.514	-0.38
983.24	2.62
983.967	-0.38
984.693	1.62
985.419	-0.38
986.144	-1.38
986.87	-0.38
987.596	1.62
988.322	1.62
989.047	-0.38
989.773	-0.38
990.498	2.62
991.224	1.62
991.949	1.62
992.674	-0.38
993.399	-0.38
994.124	-0.38
994.849	0.62
995.574	2.62
996.299	-0.38
997.024	0.62
997.749	-0.38
998.473	0.62
999.198	3.62
999.922	1.62
1000.647	-0.38
1001.371	1.62
1002.095	-0.38
1002.82	-1.38
1003.544	-0.38
1004.268	4.62
1004.992	5.62
1005.716	4.62
1006.439	5.62
1007.163	5.62
1007.887	6.62
1008.611	0.62
1009.334	3.62
1010.058	2.62
1010.781	2.62
1011.504	-0.38
1012.228	2.62
1012.951	-0.38
1013.674	-0.38
1014.397	0.62
1015.12	0.62
