节点500_705_QEPB04081__372__20-51-14-584.txt的数据

Date: Wed Nov 12 20:51:14 CST 2025
User: PC
Spectrometer: QEPB0408
触发模式: 0
积分时间 (秒): 1.000000E-2
Scans to average: 1
启用暗噪声校正: true
启用非线性校正: false
滑动平均宽度: 0
X轴模式: Wavelengths
Number of Pixels in Spectrum: 1044
>>>>>Begin Spectral Data<<<<<
220.843	4
221.644	4
222.444	8
223.244	8
224.045	8
224.845	8
225.645	7
226.445	7
227.245	7
228.045	7
228.845	10
229.645	9
230.444	8
231.244	8
232.043	10
232.843	9
233.642	10
234.442	13
235.241	12
236.04	12
236.839	10
237.638	12
238.437	12
239.236	12
240.035	14
240.833	11
241.632	15
242.43	12
243.229	14
244.027	16
244.826	14
245.624	13
246.422	15
247.22	15
248.018	16
248.816	15
249.614	17
250.412	18
251.21	17
252.007	16
252.805	17
253.602	20
254.4	20
255.197	20
255.994	18
256.791	25
257.589	21
258.386	22
259.183	26
259.979	22
260.776	22
261.573	25
262.37	24
263.166	25
263.963	25
264.759	26
265.556	27
266.352	30
267.148	32
267.944	29
268.74	30
269.536	27
270.332	33
271.128	33
271.924	31
272.719	32
273.515	36
274.311	35
275.106	32
275.901	34
276.697	34
277.492	34
278.287	34
279.082	36
279.877	32
280.672	34
281.467	39
282.262	36
283.056	33
283.851	35
284.646	38
285.44	34
286.234	35
287.029	36
287.823	36
288.617	36
289.411	36
290.205	32
290.999	31
291.793	31
292.587	36
293.381	30
294.174	30
294.968	30
295.761	27
296.555	29
297.348	28
298.141	29
298.935	31
299.728	26
300.521	28
301.314	25
302.107	23
302.899	26
303.692	24
304.485	22
305.277	23
306.07	23
306.862	23
307.655	22
308.447	23
309.239	22
310.031	22
310.823	19
311.615	21
312.407	20
313.199	20
313.991	18
314.783	17
315.574	19
316.366	17
317.157	20
317.949	16
318.74	16
319.531	15
320.322	12
321.113	17
321.904	14
322.695	20
323.486	14
324.277	16
325.068	14
325.858	15
326.649	14
327.439	16
328.23	13
329.02	13
329.81	13
330.6	13
331.391	13
332.181	14
332.971	14
333.76	12
334.55	13
335.34	13
336.13	14
336.919	15
337.709	14
338.498	13
339.287	12
340.077	14
340.866	13
341.655	13
342.444	12
343.233	10
344.022	13
344.811	9
345.6	13
346.388	14
347.177	12
347.965	11
348.754	12
349.542	13
350.33	13
351.119	13
351.907	13
352.695	12
353.483	11
354.271	12
355.059	12
355.846	12
356.634	12
357.422	10
358.209	11
358.997	14
359.784	8
360.571	13
361.359	11
362.146	10
362.933	11
363.72	8
364.507	11
365.294	10
366.081	12
366.867	11
367.654	10
368.44	12
369.227	9
370.013	11
370.8	10
371.586	11
372.372	11
373.158	10
373.944	11
374.73	11
375.516	9
376.302	8
377.088	12
377.873	12
378.659	9
379.445	14
380.23	12
381.015	13
381.801	13
382.586	10
383.371	14
384.156	11
384.941	11
385.726	10
386.511	14
387.296	16
388.08	12
388.865	11
389.649	11
390.434	11
391.218	12
392.003	11
392.787	12
393.571	12
394.355	13
395.139	12
395.923	14
396.707	17
397.491	12
398.274	13
399.058	14
399.842	15
400.625	14
401.408	15
402.192	14
402.975	14
403.758	14
404.541	16
405.324	15
406.107	16
406.89	13
407.673	18
408.456	15
409.238	16
410.021	18
410.803	18
411.586	19
412.368	18
413.151	19
413.933	18
414.715	20
415.497	20
416.279	20
417.061	20
417.843	19
418.624	21
419.406	22
420.188	22
420.969	24
421.751	23
422.532	23
423.313	25
424.095	22
424.876	25
425.657	25
426.438	28
427.219	29
428	28
428.78	28
429.561	29
430.342	31
431.122	31
431.903	31
432.683	33
433.464	36
434.244	38
435.024	38
435.804	45
436.584	51
437.364	43
438.144	51
438.924	52
439.704	56
440.483	59
441.263	63
442.042	67
442.822	71
443.601	77
444.38	84
445.16	90
445.939	96
446.718	101
447.497	115
448.276	125
449.054	135
449.833	144
450.612	163
451.391	179
452.169	196
452.948	223
453.726	234
454.504	270
455.282	307
456.061	339
456.839	368
457.617	418
458.395	468
459.172	517
459.95	571
460.728	650
461.506	715
462.283	798
463.061	893
463.838	988
464.615	1115
465.393	1222
466.17	1374
466.947	1515
467.724	1679
468.501	1869
469.278	2060
470.055	2291
470.831	2508
471.608	2759
472.385	3048
473.161	3347
473.938	3694
474.714	4053
475.49	4468
476.266	4865
477.043	5312
477.819	5821
478.595	6363
479.371	6924
480.146	7556
480.922	8228
481.698	8972
482.473	9728
483.249	10596
484.024	11456
484.8	12436
485.575	13491
486.35	14628
487.126	15821
487.901	17073
488.676	18431
489.451	19876
490.225	21335
491	22886
491.775	24474
492.55	26164
493.324	27857
494.099	29623
494.873	31385
495.647	33109
496.422	34843
497.196	36597
497.97	38253
498.744	39821
499.518	41387
500.292	42745
501.066	43795
501.839	44721
502.613	45463
503.387	46121
504.16	46571
504.934	46787
505.707	46818
506.48	46537
507.253	45991
508.027	45442
508.8	44525
509.573	43494
510.346	42509
511.118	41473
511.891	40139
512.664	38732
513.437	37355
514.209	35975
514.982	34611
515.754	33267
516.526	31922
517.298	30604
518.071	29423
518.843	28270
519.615	27119
520.387	26054
521.159	25020
521.93	23948
522.702	22932
523.474	22055
524.245	21106
525.017	20200
525.788	19378
526.56	18501
527.331	17749
528.102	16857
528.873	15975
529.644	15200
530.415	14552
531.186	13833
531.957	13088
532.728	12427
533.498	11814
534.269	11165
535.039	10532
535.81	10056
536.58	9505
537.351	8994
538.121	8476
538.891	8039
539.661	7586
540.431	7152
541.201	6834
541.971	6476
542.741	6116
543.51	5783
544.28	5511
545.05	5250
545.819	5004
546.588	4802
547.358	4555
548.127	4331
548.896	4121
549.665	3928
550.434	3706
551.203	3494
551.972	3331
552.741	3172
553.51	2989
554.278	2814
555.047	2656
555.815	2518
556.584	2391
557.352	2248
558.121	2126
558.889	1990
559.657	1887
560.425	1794
561.193	1717
561.961	1600
562.729	1518
563.496	1413
564.264	1358
565.032	1268
565.799	1202
566.567	1160
567.334	1078
568.101	1037
568.869	980
569.636	916
570.403	868
571.17	807
571.937	764
572.704	726
573.471	685
574.237	651
575.004	612
575.771	570
576.537	529
577.303	516
578.07	489
578.836	474
579.602	434
580.368	404
581.134	400
581.9	375
582.666	361
583.432	343
584.198	309
584.964	303
585.729	291
586.495	270
587.26	254
588.025	244
588.791	235
589.556	221
590.321	207
591.086	198
591.851	185
592.616	180
593.381	170
594.146	161
594.911	155
595.675	152
596.44	144
597.204	135
597.969	134
598.733	125
599.497	115
600.261	116
601.025	108
601.79	106
602.553	104
603.317	98
604.081	95
604.845	90
605.609	83
606.372	84
607.136	80
607.899	76
608.662	77
609.426	74
610.189	67
610.952	62
611.715	63
612.478	62
613.241	58
614.004	59
614.767	54
615.529	53
616.292	54
617.055	52
617.817	50
618.579	48
619.342	47
620.104	43
620.866	42
621.628	40
622.39	38
623.152	38
623.914	36
624.676	35
625.438	38
626.199	36
626.961	32
627.722	32
628.484	30
629.245	31
630.006	31
630.768	29
631.529	24
632.29	26
633.051	26
633.812	26
634.573	26
635.333	26
636.094	23
636.855	21
637.615	28
638.376	21
639.136	20
639.896	20
640.657	22
641.417	22
642.177	20
642.937	19
643.697	17
644.457	17
645.216	17
645.976	18
646.736	16
647.495	14
648.255	17
649.014	15
649.774	18
650.533	16
651.292	16
652.051	14
652.81	14
653.569	12
654.328	16
655.087	15
655.846	13
656.604	12
657.363	13
658.121	9
658.88	13
659.638	12
660.397	14
661.155	13
661.913	13
662.671	11
663.429	12
664.187	10
664.945	11
665.703	10
666.46	11
667.218	13
667.976	10
668.733	10
669.49	10
670.248	11
671.005	10
671.762	13
672.519	8
673.276	10
674.033	12
674.79	12
675.547	12
676.304	11
677.06	11
677.817	10
678.574	12
679.33	10
680.086	12
680.843	11
681.599	7
682.355	11
683.111	9
683.867	8
684.623	11
685.379	10
686.135	10
686.89	11
687.646	10
688.402	10
689.157	10
689.912	8
690.668	8
691.423	8
692.178	11
692.933	8
693.688	10
694.443	9
695.198	8
695.953	10
696.708	10
697.462	9
698.217	12
698.972	9
699.726	7
700.48	8
701.235	8
701.989	8
702.743	10
703.497	8
704.251	9
705.005	8
705.759	9
706.513	9
707.266	6
708.02	10
708.774	9
709.527	10
710.28	9
711.034	9
711.787	6
712.54	11
713.293	8
714.046	8
714.799	9
715.552	8
716.305	8
717.058	9
717.81	7
718.563	9
719.315	10
720.068	9
720.82	13
721.573	9
722.325	9
723.077	9
723.829	10
724.581	12
725.333	8
726.085	8
726.836	11
727.588	11
728.34	10
729.091	8
729.843	10
730.594	8
731.346	12
732.097	11
732.848	12
733.599	10
734.35	10
735.101	11
735.852	8
736.603	12
737.354	12
738.104	13
738.855	12
739.605	9
740.356	10
741.106	14
741.856	12
742.607	12
743.357	12
744.107	13
744.857	10
745.607	12
746.357	12
747.106	12
747.856	12
748.606	9
749.355	12
750.105	11
750.854	14
751.603	12
752.353	13
753.102	11
753.851	9
754.6	13
755.349	14
756.098	13
756.847	14
757.595	13
758.344	13
759.093	14
759.841	14
760.589	13
761.338	13
762.086	13
762.834	14
763.582	14
764.331	13
765.079	13
765.826	14
766.574	14
767.322	18
768.07	15
768.817	14
769.565	15
770.312	20
771.06	16
771.807	15
772.554	18
773.302	18
774.049	17
774.796	16
775.543	16
776.29	15
777.036	14
777.783	16
778.53	19
779.276	17
780.023	18
780.769	17
781.516	20
782.262	16
783.008	17
783.754	15
784.5	14
785.246	16
785.992	17
786.738	15
787.484	15
788.23	13
788.975	16
789.721	13
790.466	16
791.212	16
791.957	17
792.702	13
793.447	18
794.193	15
794.938	14
795.683	14
796.427	13
797.172	15
797.917	16
798.662	11
799.406	16
800.151	13
800.895	16
801.64	15
802.384	14
803.128	13
803.872	8
804.616	13
805.36	15
806.104	13
806.848	13
807.592	11
808.336	12
809.079	11
809.823	12
810.566	13
811.31	12
812.053	10
812.796	9
813.539	9
814.283	8
815.026	9
815.769	10
816.511	11
817.254	8
817.997	10
818.74	8
819.482	11
820.225	10
820.967	9
821.71	8
822.452	7
823.194	6
823.936	10
824.678	8
825.42	8
826.162	8
826.904	8
827.646	9
828.388	6
829.129	6
829.871	7
830.612	9
831.354	7
832.095	8
832.836	9
833.577	7
834.319	8
835.06	9
835.801	7
836.542	8
837.282	6
838.023	5
838.764	8
839.504	6
840.245	8
840.985	6
841.726	7
842.466	5
843.206	6
843.946	8
844.687	6
845.427	7
846.166	7
846.906	6
847.646	6
848.386	5
849.125	8
849.865	6
850.605	6
851.344	4
852.083	6
852.823	5
853.562	5
854.301	6
855.04	4
855.779	7
856.518	6
857.257	4
857.995	5
858.734	5
859.473	4
860.211	4
860.95	5
861.688	4
862.426	6
863.165	5
863.903	4
864.641	5
865.379	5
866.117	3
866.855	5
867.593	2
868.33	4
869.068	3
869.806	2
870.543	3
871.28	3
872.018	2
872.755	4
873.492	4
874.229	4
874.967	1
875.703	4
876.44	4
877.177	4
877.914	2
878.651	4
879.387	4
880.124	4
880.86	6
881.597	4
882.333	4
883.069	1
883.806	1
884.542	4
885.278	2
886.014	4
886.749	0
887.485	4
888.221	3
888.957	3
889.692	4
890.428	4
891.163	4
891.899	1
892.634	3
893.369	4
894.104	2
894.839	3
895.574	3
896.309	1
897.044	4
897.779	2
898.514	0
899.248	1
899.983	2
900.717	3
901.452	1
902.186	1
902.92	2
903.654	3
904.389	3
905.123	1
905.857	2
906.59	-1
907.324	3
908.058	2
908.792	3
909.525	2
910.259	3
910.992	2
911.726	2
912.459	3
913.192	0
913.925	4
914.658	1
915.391	3
916.124	0
916.857	0
917.59	0
918.323	2
919.055	3
919.788	3
920.521	3
921.253	2
921.985	1
922.718	0
923.45	0
924.182	4
924.914	1
925.646	3
926.378	2
927.11	-1
927.841	2
928.573	1
929.305	4
930.036	2
930.768	2
931.499	1
932.23	3
932.962	2
933.693	0
934.424	2
935.155	0
935.886	-1
936.617	2
937.348	0
938.078	0
938.809	2
939.54	4
940.27	0
941.001	2
941.731	2
942.461	0
943.191	1
943.922	1
944.652	2
945.382	2
946.112	1
946.841	1
947.571	0
948.301	0
949.031	2
949.76	-1
950.49	2
951.219	1
951.948	2
952.678	4
953.407	1
954.136	1
954.865	0
955.594	1
956.323	2
957.052	3
957.78	2
958.509	0
959.238	2
959.966	-1
960.695	0
961.423	3
962.151	1
962.88	0
963.608	2
964.336	3
965.064	3
965.792	1
966.52	2
967.247	2
967.975	3
968.703	0
969.43	0
970.158	0
970.885	1
971.613	4
972.34	4
973.067	2
973.794	2
974.521	3
975.248	1
975.975	-2
976.702	2
977.429	1
978.156	2
978.882	0
979.609	1
980.335	2
981.062	2
981.788	2
982.514	1
983.24	1
983.967	1
984.693	-1
985.419	4
986.144	1
986.87	4
987.596	0
988.322	1
989.047	1
989.773	1
990.498	3
991.224	1
991.949	1
992.674	3
993.399	1
994.124	0
994.849	2
995.574	1
996.299	0
997.024	2
997.749	0
998.473	3
999.198	1
999.922	0
1000.647	2
1001.371	4
1002.095	-1
1002.82	0
1003.544	0
1004.268	6
1004.992	6
1005.716	4
1006.439	5
1007.163	7
1007.887	6
1008.611	1
1009.334	1
1010.058	1
1010.781	1
1011.504	3
1012.228	0
1012.951	1
1013.674	0
1014.397	-2
1015.12	-2
