节点500_705_QEPB04081__210__20-48-58-495.txt的数据

Date: Wed Nov 12 20:48:58 CST 2025
User: PC
Spectrometer: QEPB0408
触发模式: 0
积分时间 (秒): 1.000000E-2
Scans to average: 1
启用暗噪声校正: true
启用非线性校正: false
滑动平均宽度: 0
X轴模式: Wavelengths
Number of Pixels in Spectrum: 1044
>>>>>Begin Spectral Data<<<<<
220.843	8.88
221.644	5.88
222.444	5.88
223.244	6.88
224.045	6.88
224.845	8.88
225.645	5.88
226.445	7.88
227.245	7.88
228.045	7.88
228.845	8.88
229.645	8.88
230.444	8.88
231.244	8.88
232.043	8.88
232.843	8.88
233.642	8.88
234.442	10.88
235.241	10.88
236.04	8.88
236.839	10.88
237.638	7.88
238.437	10.88
239.236	12.88
240.035	9.88
240.833	10.88
241.632	11.88
242.43	11.88
243.229	10.88
244.027	11.88
244.826	12.88
245.624	12.88
246.422	13.88
247.22	13.88
248.018	17.88
248.816	14.88
249.614	18.88
250.412	14.88
251.21	17.88
252.007	17.88
252.805	17.88
253.602	17.88
254.4	19.88
255.197	20.88
255.994	21.88
256.791	20.88
257.589	17.88
258.386	20.88
259.183	21.88
259.979	24.88
260.776	20.88
261.573	25.88
262.37	25.88
263.166	25.88
263.963	26.88
264.759	26.88
265.556	26.88
266.352	26.88
267.148	28.88
267.944	28.88
268.74	30.88
269.536	32.88
270.332	30.88
271.128	33.88
271.924	30.88
272.719	34.88
273.515	37.88
274.311	32.88
275.106	32.88
275.901	34.88
276.697	34.88
277.492	33.88
278.287	32.88
279.082	35.88
279.877	33.88
280.672	35.88
281.467	35.88
282.262	35.88
283.056	34.88
283.851	37.88
284.646	32.88
285.44	34.88
286.234	35.88
287.029	33.88
287.823	32.88
288.617	30.88
289.411	32.88
290.205	32.88
290.999	30.88
291.793	31.88
292.587	30.88
293.381	28.88
294.174	31.88
294.968	30.88
295.761	28.88
296.555	27.88
297.348	25.88
298.141	25.88
298.935	29.88
299.728	26.88
300.521	25.88
301.314	22.88
302.107	22.88
302.899	23.88
303.692	21.88
304.485	23.88
305.277	22.88
306.07	24.88
306.862	20.88
307.655	22.88
308.447	20.88
309.239	18.88
310.031	20.88
310.823	19.88
311.615	17.88
312.407	21.88
313.199	16.88
313.991	16.88
314.783	16.88
315.574	14.88
316.366	14.88
317.157	16.88
317.949	16.88
318.74	15.88
319.531	13.88
320.322	16.88
321.113	14.88
321.904	13.88
322.695	15.88
323.486	10.88
324.277	13.88
325.068	11.88
325.858	14.88
326.649	14.88
327.439	12.88
328.23	12.88
329.02	11.88
329.81	13.88
330.6	11.88
331.391	12.88
332.181	13.88
332.971	12.88
333.76	13.88
334.55	10.88
335.34	13.88
336.13	12.88
336.919	10.88
337.709	13.88
338.498	10.88
339.287	12.88
340.077	13.88
340.866	11.88
341.655	10.88
342.444	12.88
343.233	12.88
344.022	11.88
344.811	9.88
345.6	10.88
346.388	12.88
347.177	11.88
347.965	10.88
348.754	10.88
349.542	8.88
350.33	10.88
351.119	11.88
351.907	10.88
352.695	11.88
353.483	9.88
354.271	9.88
355.059	8.88
355.846	8.88
356.634	11.88
357.422	11.88
358.209	7.88
358.997	10.88
359.784	10.88
360.571	10.88
361.359	11.88
362.146	9.88
362.933	9.88
363.72	8.88
364.507	10.88
365.294	8.88
366.081	9.88
366.867	7.88
367.654	8.88
368.44	6.88
369.227	9.88
370.013	8.88
370.8	8.88
371.586	11.88
372.372	8.88
373.158	9.88
373.944	8.88
374.73	8.88
375.516	9.88
376.302	7.88
377.088	7.88
377.873	7.88
378.659	9.88
379.445	8.88
380.23	9.88
381.015	8.88
381.801	6.88
382.586	10.88
383.371	10.88
384.156	9.88
384.941	12.88
385.726	10.88
386.511	9.88
387.296	9.88
388.08	12.88
388.865	12.88
389.649	11.88
390.434	12.88
391.218	10.88
392.003	11.88
392.787	10.88
393.571	14.88
394.355	11.88
395.139	10.88
395.923	12.88
396.707	11.88
397.491	14.88
398.274	10.88
399.058	12.88
399.842	13.88
400.625	11.88
401.408	13.88
402.192	13.88
402.975	13.88
403.758	12.88
404.541	13.88
405.324	11.88
406.107	14.88
406.89	16.88
407.673	15.88
408.456	18.88
409.238	14.88
410.021	14.88
410.803	16.88
411.586	12.88
412.368	17.88
413.151	18.88
413.933	16.88
414.715	18.88
415.497	18.88
416.279	22.88
417.061	19.88
417.843	17.88
418.624	18.88
419.406	19.88
420.188	21.88
420.969	25.88
421.751	23.88
422.532	22.88
423.313	22.88
424.095	23.88
424.876	22.88
425.657	24.88
426.438	26.88
427.219	28.88
428	26.88
428.78	26.88
429.561	27.88
430.342	29.88
431.122	30.88
431.903	33.88
432.683	35.88
433.464	32.88
434.244	35.88
435.024	39.88
435.804	38.88
436.584	43.88
437.364	43.88
438.144	48.88
438.924	50.88
439.704	50.88
440.483	56.88
441.263	61.88
442.042	60.88
442.822	68.88
443.601	75.88
444.38	74.88
445.16	84.88
445.939	93.88
446.718	96.88
447.497	109.88
448.276	117.88
449.054	126.88
449.833	142.88
450.612	150.88
451.391	175.88
452.169	188.88
452.948	207.88
453.726	232.88
454.504	254.88
455.282	286.88
456.061	318.88
456.839	354.88
457.617	393.88
458.395	447.88
459.172	499.88
459.95	541.88
460.728	620.88
461.506	688.88
462.283	766.88
463.061	860.88
463.838	960.88
464.615	1057.88
465.393	1186.88
466.17	1323.88
466.947	1486.88
467.724	1643.88
468.501	1822.88
469.278	2020.88
470.055	2234.88
470.831	2491.88
471.608	2747.88
472.385	3040.88
473.161	3344.88
473.938	3692.88
474.714	4075.88
475.49	4490.88
476.266	4911.88
477.043	5422.88
477.819	5928.88
478.595	6479.88
479.371	7132.88
480.146	7745.88
480.922	8500.88
481.698	9266.88
482.473	10098.88
483.249	11016.88
484.024	11982.88
484.8	12975.88
485.575	14166.88
486.35	15419.88
487.126	16668.88
487.901	18037.88
488.676	19585.88
489.451	21154.88
490.225	22733.88
491	24393.88
491.775	26063.88
492.55	28078.88
493.324	29818.88
494.099	31635.88
494.873	33418.88
495.647	35354.88
496.422	37366.88
497.196	39189.88
497.97	40836.88
498.744	42343.88
499.518	43973.88
500.292	45259.88
501.066	46245.88
501.839	47053.88
502.613	47783.88
503.387	48324.88
504.16	48547.88
504.934	48635.88
505.707	48346.88
506.48	47884.88
507.253	47215.88
508.027	46293.88
508.8	45259.88
509.573	44092.88
510.346	42894.88
511.118	41695.88
511.891	40319.88
512.664	38722.88
513.437	37169.88
514.209	35767.88
514.982	34296.88
515.754	32938.88
516.526	31487.88
517.298	30208.88
518.071	28970.88
518.843	27848.88
519.615	26673.88
520.387	25693.88
521.159	24697.88
521.93	23687.88
522.702	22566.88
523.474	21685.88
524.245	20715.88
525.017	19788.88
525.788	18858.88
526.56	18127.88
527.331	17258.88
528.102	16393.88
528.873	15537.88
529.644	14779.88
530.415	14112.88
531.186	13428.88
531.957	12683.88
532.728	12005.88
533.498	11382.88
534.269	10803.88
535.039	10203.88
535.81	9637.88
536.58	9090.88
537.351	8599.88
538.121	8197.88
538.891	7707.88
539.661	7325.88
540.431	6937.88
541.201	6565.88
541.971	6230.88
542.741	5857.88
543.51	5575.88
544.28	5308.88
545.05	5027.88
545.819	4827.88
546.588	4630.88
547.358	4391.88
548.127	4160.88
548.896	3940.88
549.665	3749.88
550.434	3538.88
551.203	3362.88
551.972	3182.88
552.741	3016.88
553.51	2846.88
554.278	2674.88
555.047	2522.88
555.815	2415.88
556.584	2262.88
557.352	2119.88
558.121	2034.88
558.889	1889.88
559.657	1786.88
560.425	1703.88
561.193	1600.88
561.961	1526.88
562.729	1441.88
563.496	1368.88
564.264	1283.88
565.032	1208.88
565.799	1151.88
566.567	1104.88
567.334	1020.88
568.101	978.88
568.869	923.88
569.636	867.88
570.403	830.88
571.17	778.88
571.937	739.88
572.704	689.88
573.471	655.88
574.237	612.88
575.004	585.88
575.771	535.88
576.537	517.88
577.303	492.88
578.07	464.88
578.836	429.88
579.602	403.88
580.368	391.88
581.134	363.88
581.9	351.88
582.666	330.88
583.432	312.88
584.198	302.88
584.964	286.88
585.729	278.88
586.495	253.88
587.26	248.88
588.025	233.88
588.791	221.88
589.556	201.88
590.321	190.88
591.086	188.88
591.851	176.88
592.616	171.88
593.381	167.88
594.146	156.88
594.911	148.88
595.675	137.88
596.44	141.88
597.204	130.88
597.969	124.88
598.733	118.88
599.497	112.88
600.261	107.88
601.025	103.88
601.79	101.88
602.553	91.88
603.317	87.88
604.081	86.88
604.845	85.88
605.609	80.88
606.372	76.88
607.136	75.88
607.899	70.88
608.662	68.88
609.426	67.88
610.189	62.88
610.952	62.88
611.715	58.88
612.478	58.88
613.241	54.88
614.004	55.88
614.767	51.88
615.529	48.88
616.292	45.88
617.055	44.88
617.817	46.88
618.579	45.88
619.342	38.88
620.104	39.88
620.866	37.88
621.628	37.88
622.39	38.88
623.152	34.88
623.914	34.88
624.676	31.88
625.438	35.88
626.199	34.88
626.961	34.88
627.722	29.88
628.484	27.88
629.245	26.88
630.006	27.88
630.768	24.88
631.529	25.88
632.29	25.88
633.051	24.88
633.812	21.88
634.573	22.88
635.333	21.88
636.094	23.88
636.855	25.88
637.615	22.88
638.376	21.88
639.136	20.88
639.896	18.88
640.657	18.88
641.417	17.88
642.177	18.88
642.937	16.88
643.697	15.88
644.457	15.88
645.216	15.88
645.976	17.88
646.736	15.88
647.495	17.88
648.255	14.88
649.014	14.88
649.774	14.88
650.533	13.88
651.292	14.88
652.051	14.88
652.81	15.88
653.569	13.88
654.328	12.88
655.087	13.88
655.846	13.88
656.604	14.88
657.363	10.88
658.121	12.88
658.88	11.88
659.638	11.88
660.397	11.88
661.155	10.88
661.913	10.88
662.671	9.88
663.429	11.88
664.187	10.88
664.945	10.88
665.703	11.88
666.46	12.88
667.218	8.88
667.976	7.88
668.733	10.88
669.49	12.88
670.248	8.88
671.005	10.88
671.762	7.88
672.519	10.88
673.276	9.88
674.033	6.88
674.79	6.88
675.547	9.88
676.304	8.88
677.06	7.88
677.817	8.88
678.574	7.88
679.33	7.88
680.086	8.88
680.843	7.88
681.599	8.88
682.355	8.88
683.111	7.88
683.867	7.88
684.623	9.88
685.379	8.88
686.135	6.88
686.89	8.88
687.646	7.88
688.402	6.88
689.157	8.88
689.912	6.88
690.668	8.88
691.423	6.88
692.178	5.88
692.933	6.88
693.688	6.88
694.443	5.88
695.198	6.88
695.953	9.88
696.708	7.88
697.462	6.88
698.217	6.88
698.972	6.88
699.726	8.88
700.48	7.88
701.235	5.88
701.989	7.88
702.743	6.88
703.497	7.88
704.251	5.88
705.005	5.88
705.759	7.88
706.513	7.88
707.266	9.88
708.02	4.88
708.774	8.88
709.527	6.88
710.28	7.88
711.034	8.88
711.787	6.88
712.54	7.88
713.293	5.88
714.046	7.88
714.799	8.88
715.552	9.88
716.305	7.88
717.058	8.88
717.81	9.88
718.563	5.88
719.315	5.88
720.068	7.88
720.82	7.88
721.573	9.88
722.325	7.88
723.077	8.88
723.829	7.88
724.581	9.88
725.333	6.88
726.085	6.88
726.836	8.88
727.588	6.88
728.34	5.88
729.091	7.88
729.843	7.88
730.594	8.88
731.346	7.88
732.097	10.88
732.848	7.88
733.599	10.88
734.35	8.88
735.101	7.88
735.852	7.88
736.603	7.88
737.354	8.88
738.104	10.88
738.855	10.88
739.605	8.88
740.356	8.88
741.106	10.88
741.856	8.88
742.607	9.88
743.357	10.88
744.107	12.88
744.857	14.88
745.607	8.88
746.357	12.88
747.106	11.88
747.856	8.88
748.606	10.88
749.355	9.88
750.105	10.88
750.854	10.88
751.603	10.88
752.353	11.88
753.102	11.88
753.851	12.88
754.6	12.88
755.349	14.88
756.098	12.88
756.847	11.88
757.595	11.88
758.344	10.88
759.093	10.88
759.841	10.88
760.589	14.88
761.338	13.88
762.086	11.88
762.834	10.88
763.582	12.88
764.331	15.88
765.079	14.88
765.826	12.88
766.574	13.88
767.322	13.88
768.07	14.88
768.817	17.88
769.565	16.88
770.312	12.88
771.06	14.88
771.807	12.88
772.554	14.88
773.302	15.88
774.049	12.88
774.796	16.88
775.543	15.88
776.29	14.88
777.036	15.88
777.783	15.88
778.53	18.88
779.276	16.88
780.023	16.88
780.769	18.88
781.516	14.88
782.262	18.88
783.008	14.88
783.754	15.88
784.5	17.88
785.246	14.88
785.992	14.88
786.738	15.88
787.484	14.88
788.23	13.88
788.975	17.88
789.721	14.88
790.466	16.88
791.212	15.88
791.957	13.88
792.702	14.88
793.447	15.88
794.193	14.88
794.938	16.88
795.683	13.88
796.427	13.88
797.172	13.88
797.917	15.88
798.662	11.88
799.406	16.88
800.151	11.88
800.895	11.88
801.64	11.88
802.384	10.88
803.128	9.88
803.872	12.88
804.616	9.88
805.36	10.88
806.104	10.88
806.848	10.88
807.592	10.88
808.336	8.88
809.079	9.88
809.823	8.88
810.566	9.88
811.31	9.88
812.053	10.88
812.796	7.88
813.539	7.88
814.283	9.88
815.026	5.88
815.769	8.88
816.511	6.88
817.254	8.88
817.997	8.88
818.74	8.88
819.482	8.88
820.225	7.88
820.967	8.88
821.71	5.88
822.452	6.88
823.194	7.88
823.936	7.88
824.678	6.88
825.42	5.88
826.162	6.88
826.904	6.88
827.646	6.88
828.388	7.88
829.129	4.88
829.871	6.88
830.612	5.88
831.354	6.88
832.095	7.88
832.836	5.88
833.577	4.88
834.319	5.88
835.06	4.88
835.801	4.88
836.542	6.88
837.282	4.88
838.023	6.88
838.764	5.88
839.504	1.88
840.245	3.88
840.985	6.88
841.726	4.88
842.466	6.88
843.206	4.88
843.946	5.88
844.687	5.88
845.427	4.88
846.166	5.88
846.906	5.88
847.646	6.88
848.386	4.88
849.125	5.88
849.865	2.88
850.605	2.88
851.344	5.88
852.083	3.88
852.823	4.88
853.562	2.88
854.301	2.88
855.04	3.88
855.779	3.88
856.518	4.88
857.257	2.88
857.995	2.88
858.734	2.88
859.473	1.88
860.211	3.88
860.95	3.88
861.688	3.88
862.426	1.88
863.165	3.88
863.903	6.88
864.641	1.88
865.379	3.88
866.117	1.88
866.855	2.88
867.593	2.88
868.33	2.88
869.068	0.88
869.806	0.88
870.543	2.88
871.28	2.88
872.018	1.88
872.755	-0.12
873.492	0.88
874.229	3.88
874.967	1.88
875.703	1.88
876.44	2.88
877.177	1.88
877.914	2.88
878.651	1.88
879.387	2.88
880.124	3.88
880.86	-0.12
881.597	0.88
882.333	2.88
883.069	-1.12
883.806	2.88
884.542	2.88
885.278	2.88
886.014	-0.12
886.749	2.88
887.485	1.88
888.221	1.88
888.957	0.88
889.692	1.88
890.428	0.88
891.163	1.88
891.899	3.88
892.634	1.88
893.369	0.88
894.104	-0.12
894.839	1.88
895.574	1.88
896.309	2.88
897.044	0.88
897.779	0.88
898.514	1.88
899.248	1.88
899.983	0.88
900.717	4.88
901.452	-1.12
902.186	-1.12
902.92	1.88
903.654	0.88
904.389	0.88
905.123	0.88
905.857	2.88
906.59	0.88
907.324	0.88
908.058	2.88
908.792	-0.12
909.525	1.88
910.259	1.88
910.992	-1.12
911.726	0.88
912.459	-0.12
913.192	-1.12
913.925	1.88
914.658	2.88
915.391	0.88
916.124	1.88
916.857	1.88
917.59	-0.12
918.323	3.88
919.055	-1.12
919.788	-1.12
920.521	1.88
921.253	2.88
921.985	0.88
922.718	-1.12
923.45	0.88
924.182	-0.12
924.914	1.88
925.646	-0.12
926.378	1.88
927.11	0.88
927.841	-0.12
928.573	-0.12
929.305	0.88
930.036	-0.12
930.768	-1.12
931.499	0.88
932.23	-2.12
932.962	-0.12
933.693	-0.12
934.424	0.88
935.155	0.88
935.886	1.88
936.617	0.88
937.348	0.88
938.078	-1.12
938.809	1.88
939.54	-2.12
940.27	-0.12
941.001	0.88
941.731	-1.12
942.461	-0.12
943.191	-1.12
943.922	0.88
944.652	-0.12
945.382	-0.12
946.112	0.88
946.841	0.88
947.571	0.88
948.301	0.88
949.031	-1.12
949.76	-1.12
950.49	-1.12
951.219	1.88
951.948	-0.12
952.678	-0.12
953.407	-1.12
954.136	-1.12
954.865	1.88
955.594	0.88
956.323	3.88
957.052	-0.12
957.78	-1.12
958.509	1.88
959.238	-0.12
959.966	-0.12
960.695	-1.12
961.423	-0.12
962.151	1.88
962.88	1.88
963.608	-0.12
964.336	-2.12
965.064	-1.12
965.792	0.88
966.52	-0.12
967.247	-1.12
967.975	0.88
968.703	0.88
969.43	0.88
970.158	-0.12
970.885	-1.12
971.613	-0.12
972.34	-0.12
973.067	-2.12
973.794	-1.12
974.521	2.88
975.248	-2.12
975.975	0.88
976.702	-0.12
977.429	2.88
978.156	-1.12
978.882	-0.12
979.609	-0.12
980.335	-0.12
981.062	0.88
981.788	-2.12
982.514	0.88
983.24	-0.12
983.967	-1.12
984.693	-0.12
985.419	-1.12
986.144	0.88
986.87	-1.12
987.596	0.88
988.322	0.88
989.047	0.88
989.773	0.88
990.498	-0.12
991.224	-0.12
991.949	-0.12
992.674	0.88
993.399	-1.12
994.124	-0.12
994.849	0.88
995.574	-1.12
996.299	-0.12
997.024	0.88
997.749	-3.12
998.473	1.88
999.198	-2.12
999.922	2.88
1000.647	-1.12
1001.371	2.88
1002.095	-0.12
1002.82	-3.12
1003.544	-0.12
1004.268	5.88
1004.992	5.88
1005.716	3.88
1006.439	4.88
1007.163	4.88
1007.887	4.88
1008.611	-0.12
1009.334	-0.12
1010.058	0.88
1010.781	-1.12
1011.504	-0.12
1012.228	-0.12
1012.951	-1.12
1013.674	-0.12
1014.397	0.88
1015.12	0.88
