节点500_705_QEPB04081__63__20-46-56-297.txt的数据

Date: Wed Nov 12 20:46:56 CST 2025
User: PC
Spectrometer: QEPB0408
触发模式: 0
积分时间 (秒): 1.000000E-2
Scans to average: 1
启用暗噪声校正: true
启用非线性校正: false
滑动平均宽度: 0
X轴模式: Wavelengths
Number of Pixels in Spectrum: 1044
>>>>>Begin Spectral Data<<<<<
220.843	4.5
221.644	5.5
222.444	3.5
223.244	6.5
224.045	3.5
224.845	6.5
225.645	9.5
226.445	6.5
227.245	7.5
228.045	9.5
228.845	8.5
229.645	6.5
230.444	9.5
231.244	7.5
232.043	11.5
232.843	8.5
233.642	10.5
234.442	9.5
235.241	11.5
236.04	8.5
236.839	11.5
237.638	10.5
238.437	12.5
239.236	9.5
240.035	12.5
240.833	13.5
241.632	10.5
242.43	15.5
243.229	12.5
244.027	10.5
244.826	16.5
245.624	12.5
246.422	16.5
247.22	14.5
248.018	17.5
248.816	18.5
249.614	19.5
250.412	16.5
251.21	18.5
252.007	20.5
252.805	18.5
253.602	19.5
254.4	19.5
255.197	17.5
255.994	23.5
256.791	22.5
257.589	22.5
258.386	20.5
259.183	20.5
259.979	23.5
260.776	24.5
261.573	26.5
262.37	26.5
263.166	26.5
263.963	27.5
264.759	25.5
265.556	30.5
266.352	27.5
267.148	31.5
267.944	28.5
268.74	30.5
269.536	31.5
270.332	33.5
271.128	33.5
271.924	36.5
272.719	35.5
273.515	37.5
274.311	36.5
275.106	36.5
275.901	36.5
276.697	39.5
277.492	31.5
278.287	34.5
279.082	39.5
279.877	34.5
280.672	36.5
281.467	34.5
282.262	34.5
283.056	35.5
283.851	33.5
284.646	37.5
285.44	36.5
286.234	33.5
287.029	34.5
287.823	32.5
288.617	35.5
289.411	34.5
290.205	31.5
290.999	30.5
291.793	33.5
292.587	30.5
293.381	33.5
294.174	28.5
294.968	29.5
295.761	29.5
296.555	25.5
297.348	26.5
298.141	28.5
298.935	25.5
299.728	28.5
300.521	22.5
301.314	24.5
302.107	21.5
302.899	26.5
303.692	23.5
304.485	23.5
305.277	21.5
306.07	21.5
306.862	21.5
307.655	22.5
308.447	20.5
309.239	18.5
310.031	21.5
310.823	18.5
311.615	16.5
312.407	15.5
313.199	18.5
313.991	17.5
314.783	14.5
315.574	14.5
316.366	16.5
317.157	15.5
317.949	14.5
318.74	13.5
319.531	14.5
320.322	15.5
321.113	14.5
321.904	15.5
322.695	16.5
323.486	13.5
324.277	14.5
325.068	13.5
325.858	13.5
326.649	10.5
327.439	11.5
328.23	11.5
329.02	11.5
329.81	12.5
330.6	11.5
331.391	12.5
332.181	12.5
332.971	11.5
333.76	11.5
334.55	12.5
335.34	12.5
336.13	9.5
336.919	10.5
337.709	10.5
338.498	11.5
339.287	12.5
340.077	10.5
340.866	14.5
341.655	12.5
342.444	13.5
343.233	12.5
344.022	11.5
344.811	12.5
345.6	10.5
346.388	12.5
347.177	12.5
347.965	13.5
348.754	10.5
349.542	9.5
350.33	9.5
351.119	9.5
351.907	11.5
352.695	10.5
353.483	11.5
354.271	10.5
355.059	9.5
355.846	10.5
356.634	11.5
357.422	10.5
358.209	9.5
358.997	8.5
359.784	11.5
360.571	9.5
361.359	10.5
362.146	13.5
362.933	10.5
363.72	8.5
364.507	8.5
365.294	10.5
366.081	7.5
366.867	8.5
367.654	8.5
368.44	9.5
369.227	10.5
370.013	7.5
370.8	11.5
371.586	9.5
372.372	10.5
373.158	10.5
373.944	8.5
374.73	10.5
375.516	8.5
376.302	8.5
377.088	10.5
377.873	10.5
378.659	8.5
379.445	9.5
380.23	12.5
381.015	9.5
381.801	9.5
382.586	12.5
383.371	9.5
384.156	10.5
384.941	10.5
385.726	9.5
386.511	9.5
387.296	11.5
388.08	11.5
388.865	10.5
389.649	11.5
390.434	12.5
391.218	12.5
392.003	12.5
392.787	14.5
393.571	8.5
394.355	12.5
395.139	14.5
395.923	12.5
396.707	13.5
397.491	14.5
398.274	13.5
399.058	13.5
399.842	14.5
400.625	14.5
401.408	14.5
402.192	13.5
402.975	14.5
403.758	14.5
404.541	16.5
405.324	16.5
406.107	14.5
406.89	15.5
407.673	13.5
408.456	15.5
409.238	16.5
410.021	16.5
410.803	17.5
411.586	19.5
412.368	17.5
413.151	18.5
413.933	17.5
414.715	14.5
415.497	18.5
416.279	19.5
417.061	20.5
417.843	21.5
418.624	18.5
419.406	20.5
420.188	22.5
420.969	22.5
421.751	23.5
422.532	21.5
423.313	21.5
424.095	23.5
424.876	23.5
425.657	24.5
426.438	27.5
427.219	26.5
428	26.5
428.78	28.5
429.561	33.5
430.342	30.5
431.122	31.5
431.903	33.5
432.683	34.5
433.464	34.5
434.244	37.5
435.024	35.5
435.804	38.5
436.584	42.5
437.364	46.5
438.144	46.5
438.924	51.5
439.704	50.5
440.483	56.5
441.263	59.5
442.042	61.5
442.822	66.5
443.601	72.5
444.38	73.5
445.16	84.5
445.939	87.5
446.718	98.5
447.497	107.5
448.276	118.5
449.054	124.5
449.833	138.5
450.612	150.5
451.391	170.5
452.169	184.5
452.948	205.5
453.726	224.5
454.504	243.5
455.282	272.5
456.061	305.5
456.839	341.5
457.617	376.5
458.395	426.5
459.172	477.5
459.95	520.5
460.728	603.5
461.506	675.5
462.283	754.5
463.061	839.5
463.838	933.5
464.615	1049.5
465.393	1167.5
466.17	1296.5
466.947	1457.5
467.724	1619.5
468.501	1797.5
469.278	1987.5
470.055	2215.5
470.831	2454.5
471.608	2738.5
472.385	3023.5
473.161	3335.5
473.938	3717.5
474.714	4117.5
475.49	4520.5
476.266	4972.5
477.043	5474.5
477.819	5999.5
478.595	6596.5
479.371	7237.5
480.146	7965.5
480.922	8704.5
481.698	9538.5
482.473	10401.5
483.249	11434.5
484.024	12418.5
484.8	13584.5
485.575	14737.5
486.35	16061.5
487.126	17473.5
487.901	18973.5
488.676	20504.5
489.451	22148.5
490.225	23849.5
491	25727.5
491.775	27560.5
492.55	29458.5
493.324	31397.5
494.099	33370.5
494.873	35294.5
495.647	37338.5
496.422	39305.5
497.196	41121.5
497.97	42855.5
498.744	44489.5
499.518	45999.5
500.292	47306.5
501.066	48166.5
501.839	48944.5
502.613	49475.5
503.387	50007.5
504.16	50146.5
504.934	50008.5
505.707	49559.5
506.48	48901.5
507.253	48108.5
508.027	47066.5
508.8	45811.5
509.573	44571.5
510.346	43285.5
511.118	41930.5
511.891	40487.5
512.664	38629.5
513.437	37111.5
514.209	35629.5
514.982	34206.5
515.754	32798.5
516.526	31297.5
517.298	30053.5
518.071	28842.5
518.843	27683.5
519.615	26606.5
520.387	25447.5
521.159	24470.5
521.93	23444.5
522.702	22422.5
523.474	21438.5
524.245	20517.5
525.017	19594.5
525.788	18694.5
526.56	17893.5
527.331	17043.5
528.102	16136.5
528.873	15266.5
529.644	14613.5
530.415	13883.5
531.186	13200.5
531.957	12444.5
532.728	11733.5
533.498	11131.5
534.269	10536.5
535.039	9945.5
535.81	9355.5
536.58	8900.5
537.351	8402.5
538.121	7964.5
538.891	7546.5
539.661	7128.5
540.431	6757.5
541.201	6426.5
541.971	6049.5
542.741	5739.5
543.51	5425.5
544.28	5181.5
545.05	4969.5
545.819	4724.5
546.588	4475.5
547.358	4283.5
548.127	4061.5
548.896	3864.5
549.665	3649.5
550.434	3415.5
551.203	3261.5
551.972	3108.5
552.741	2919.5
553.51	2761.5
554.278	2608.5
555.047	2449.5
555.815	2328.5
556.584	2194.5
557.352	2061.5
558.121	1957.5
558.889	1851.5
559.657	1750.5
560.425	1644.5
561.193	1554.5
561.961	1483.5
562.729	1412.5
563.496	1322.5
564.264	1233.5
565.032	1185.5
565.799	1106.5
566.567	1054.5
567.334	1016.5
568.101	936.5
568.869	894.5
569.636	843.5
570.403	785.5
571.17	753.5
571.937	710.5
572.704	663.5
573.471	630.5
574.237	595.5
575.004	552.5
575.771	526.5
576.537	498.5
577.303	476.5
578.07	451.5
578.836	413.5
579.602	396.5
580.368	380.5
581.134	365.5
581.9	342.5
582.666	321.5
583.432	314.5
584.198	293.5
584.964	281.5
585.729	255.5
586.495	250.5
587.26	236.5
588.025	221.5
588.791	219.5
589.556	200.5
590.321	191.5
591.086	181.5
591.851	168.5
592.616	166.5
593.381	162.5
594.146	152.5
594.911	142.5
595.675	138.5
596.44	133.5
597.204	124.5
597.969	118.5
598.733	118.5
599.497	109.5
600.261	103.5
601.025	101.5
601.79	97.5
602.553	95.5
603.317	89.5
604.081	86.5
604.845	81.5
605.609	76.5
606.372	75.5
607.136	70.5
607.899	68.5
608.662	65.5
609.426	65.5
610.189	63.5
610.952	63.5
611.715	59.5
612.478	56.5
613.241	51.5
614.004	54.5
614.767	50.5
615.529	52.5
616.292	50.5
617.055	43.5
617.817	47.5
618.579	40.5
619.342	37.5
620.104	40.5
620.866	36.5
621.628	37.5
622.39	37.5
623.152	37.5
623.914	33.5
624.676	30.5
625.438	30.5
626.199	30.5
626.961	30.5
627.722	30.5
628.484	29.5
629.245	29.5
630.006	26.5
630.768	24.5
631.529	27.5
632.29	24.5
633.051	21.5
633.812	23.5
634.573	22.5
635.333	22.5
636.094	24.5
636.855	19.5
637.615	21.5
638.376	19.5
639.136	22.5
639.896	19.5
640.657	17.5
641.417	17.5
642.177	17.5
642.937	13.5
643.697	17.5
644.457	17.5
645.216	17.5
645.976	15.5
646.736	17.5
647.495	14.5
648.255	18.5
649.014	13.5
649.774	17.5
650.533	12.5
651.292	12.5
652.051	12.5
652.81	10.5
653.569	13.5
654.328	10.5
655.087	11.5
655.846	13.5
656.604	12.5
657.363	13.5
658.121	9.5
658.88	12.5
659.638	12.5
660.397	10.5
661.155	10.5
661.913	7.5
662.671	9.5
663.429	10.5
664.187	7.5
664.945	8.5
665.703	7.5
666.46	11.5
667.218	7.5
667.976	11.5
668.733	7.5
669.49	10.5
670.248	8.5
671.005	8.5
671.762	8.5
672.519	7.5
673.276	8.5
674.033	12.5
674.79	6.5
675.547	5.5
676.304	6.5
677.06	10.5
677.817	9.5
678.574	7.5
679.33	9.5
680.086	7.5
680.843	7.5
681.599	9.5
682.355	7.5
683.111	7.5
683.867	7.5
684.623	6.5
685.379	8.5
686.135	5.5
686.89	8.5
687.646	7.5
688.402	9.5
689.157	6.5
689.912	6.5
690.668	6.5
691.423	7.5
692.178	7.5
692.933	8.5
693.688	6.5
694.443	7.5
695.198	10.5
695.953	6.5
696.708	9.5
697.462	7.5
698.217	4.5
698.972	6.5
699.726	6.5
700.48	7.5
701.235	7.5
701.989	8.5
702.743	8.5
703.497	6.5
704.251	7.5
705.005	6.5
705.759	7.5
706.513	7.5
707.266	8.5
708.02	8.5
708.774	7.5
709.527	7.5
710.28	8.5
711.034	7.5
711.787	8.5
712.54	8.5
713.293	8.5
714.046	5.5
714.799	10.5
715.552	6.5
716.305	6.5
717.058	8.5
717.81	9.5
718.563	8.5
719.315	6.5
720.068	9.5
720.82	8.5
721.573	8.5
722.325	7.5
723.077	10.5
723.829	9.5
724.581	7.5
725.333	9.5
726.085	8.5
726.836	6.5
727.588	12.5
728.34	7.5
729.091	11.5
729.843	7.5
730.594	7.5
731.346	11.5
732.097	7.5
732.848	9.5
733.599	10.5
734.35	10.5
735.101	10.5
735.852	7.5
736.603	8.5
737.354	9.5
738.104	10.5
738.855	7.5
739.605	9.5
740.356	12.5
741.106	12.5
741.856	9.5
742.607	9.5
743.357	11.5
744.107	9.5
744.857	9.5
745.607	10.5
746.357	9.5
747.106	10.5
747.856	10.5
748.606	10.5
749.355	11.5
750.105	11.5
750.854	10.5
751.603	10.5
752.353	13.5
753.102	13.5
753.851	12.5
754.6	16.5
755.349	12.5
756.098	14.5
756.847	10.5
757.595	11.5
758.344	12.5
759.093	11.5
759.841	11.5
760.589	11.5
761.338	13.5
762.086	13.5
762.834	12.5
763.582	14.5
764.331	14.5
765.079	18.5
765.826	12.5
766.574	14.5
767.322	13.5
768.07	13.5
768.817	16.5
769.565	14.5
770.312	16.5
771.06	14.5
771.807	16.5
772.554	13.5
773.302	14.5
774.049	17.5
774.796	16.5
775.543	17.5
776.29	18.5
777.036	13.5
777.783	17.5
778.53	17.5
779.276	17.5
780.023	15.5
780.769	16.5
781.516	15.5
782.262	16.5
783.008	16.5
783.754	14.5
784.5	16.5
785.246	17.5
785.992	15.5
786.738	16.5
787.484	16.5
788.23	16.5
788.975	15.5
789.721	14.5
790.466	14.5
791.212	12.5
791.957	14.5
792.702	14.5
793.447	12.5
794.193	12.5
794.938	14.5
795.683	12.5
796.427	13.5
797.172	15.5
797.917	14.5
798.662	14.5
799.406	12.5
800.151	12.5
800.895	11.5
801.64	12.5
802.384	14.5
803.128	12.5
803.872	10.5
804.616	9.5
805.36	11.5
806.104	9.5
806.848	10.5
807.592	9.5
808.336	10.5
809.079	10.5
809.823	10.5
810.566	8.5
811.31	10.5
812.053	7.5
812.796	9.5
813.539	8.5
814.283	10.5
815.026	7.5
815.769	8.5
816.511	8.5
817.254	7.5
817.997	7.5
818.74	9.5
819.482	7.5
820.225	9.5
820.967	7.5
821.71	5.5
822.452	6.5
823.194	5.5
823.936	7.5
824.678	4.5
825.42	9.5
826.162	7.5
826.904	5.5
827.646	7.5
828.388	6.5
829.129	4.5
829.871	4.5
830.612	7.5
831.354	6.5
832.095	5.5
832.836	7.5
833.577	4.5
834.319	5.5
835.06	3.5
835.801	7.5
836.542	6.5
837.282	3.5
838.023	6.5
838.764	5.5
839.504	4.5
840.245	5.5
840.985	5.5
841.726	8.5
842.466	4.5
843.206	6.5
843.946	2.5
844.687	4.5
845.427	4.5
846.166	3.5
846.906	3.5
847.646	3.5
848.386	5.5
849.125	6.5
849.865	5.5
850.605	2.5
851.344	5.5
852.083	2.5
852.823	1.5
853.562	3.5
854.301	5.5
855.04	6.5
855.779	4.5
856.518	4.5
857.257	1.5
857.995	2.5
858.734	4.5
859.473	3.5
860.211	0.5
860.95	4.5
861.688	3.5
862.426	3.5
863.165	0.5
863.903	3.5
864.641	1.5
865.379	4.5
866.117	4.5
866.855	2.5
867.593	1.5
868.33	2.5
869.068	3.5
869.806	2.5
870.543	1.5
871.28	3.5
872.018	1.5
872.755	1.5
873.492	1.5
874.229	2.5
874.967	2.5
875.703	0.5
876.44	3.5
877.177	1.5
877.914	0.5
878.651	-0.5
879.387	4.5
880.124	1.5
880.86	-1.5
881.597	0.5
882.333	-1.5
883.069	2.5
883.806	2.5
884.542	0.5
885.278	2.5
886.014	-1.5
886.749	-1.5
887.485	-0.5
888.221	-0.5
888.957	1.5
889.692	0.5
890.428	2.5
891.163	2.5
891.899	0.5
892.634	1.5
893.369	2.5
894.104	1.5
894.839	2.5
895.574	1.5
896.309	0.5
897.044	1.5
897.779	2.5
898.514	0.5
899.248	2.5
899.983	-1.5
900.717	1.5
901.452	0.5
902.186	1.5
902.92	0.5
903.654	-0.5
904.389	1.5
905.123	0.5
905.857	2.5
906.59	0.5
907.324	0.5
908.058	3.5
908.792	0.5
909.525	1.5
910.259	2.5
910.992	-1.5
911.726	1.5
912.459	0.5
913.192	-0.5
913.925	1.5
914.658	-1.5
915.391	0.5
916.124	0.5
916.857	2.5
917.59	1.5
918.323	0.5
919.055	-1.5
919.788	-0.5
920.521	2.5
921.253	0.5
921.985	0.5
922.718	1.5
923.45	0.5
924.182	-0.5
924.914	-0.5
925.646	2.5
926.378	-0.5
927.11	-0.5
927.841	0.5
928.573	-1.5
929.305	0.5
930.036	-1.5
930.768	-0.5
931.499	0.5
932.23	0.5
932.962	-0.5
933.693	0.5
934.424	1.5
935.155	0.5
935.886	1.5
936.617	-0.5
937.348	1.5
938.078	2.5
938.809	-0.5
939.54	-0.5
940.27	-1.5
941.001	1.5
941.731	-0.5
942.461	0.5
943.191	-1.5
943.922	-4.5
944.652	1.5
945.382	0.5
946.112	-0.5
946.841	-1.5
947.571	0.5
948.301	0.5
949.031	0.5
949.76	0.5
950.49	0.5
951.219	0.5
951.948	-1.5
952.678	-1.5
953.407	1.5
954.136	-0.5
954.865	-0.5
955.594	1.5
956.323	0.5
957.052	0.5
957.78	0.5
958.509	0.5
959.238	0.5
959.966	0.5
960.695	-1.5
961.423	0.5
962.151	-0.5
962.88	-1.5
963.608	-1.5
964.336	-0.5
965.064	-1.5
965.792	-1.5
966.52	-1.5
967.247	0.5
967.975	0.5
968.703	0.5
969.43	1.5
970.158	-1.5
970.885	1.5
971.613	0.5
972.34	0.5
973.067	-1.5
973.794	1.5
974.521	1.5
975.248	-0.5
975.975	-1.5
976.702	-1.5
977.429	0.5
978.156	-1.5
978.882	2.5
979.609	0.5
980.335	-0.5
981.062	-0.5
981.788	0.5
982.514	-0.5
983.24	-0.5
983.967	-0.5
984.693	-0.5
985.419	-2.5
986.144	-2.5
986.87	-1.5
987.596	-0.5
988.322	0.5
989.047	-1.5
989.773	-0.5
990.498	-1.5
991.224	-0.5
991.949	0.5
992.674	0.5
993.399	-0.5
994.124	1.5
994.849	1.5
995.574	-1.5
996.299	1.5
997.024	1.5
997.749	0.5
998.473	0.5
999.198	0.5
999.922	-0.5
1000.647	-1.5
1001.371	3.5
1002.095	-1.5
1002.82	0.5
1003.544	0.5
1004.268	6.5
1004.992	4.5
1005.716	4.5
1006.439	3.5
1007.163	5.5
1007.887	5.5
1008.611	0.5
1009.334	-1.5
1010.058	-0.5
1010.781	0.5
1011.504	-0.5
1012.228	-0.5
1012.951	-2.5
1013.674	0.5
1014.397	-0.5
1015.12	-0.5
