节点500_705_QEPB04081__643__20-55-03-829.txt的数据

Date: Wed Nov 12 20:55:03 CST 2025
User: PC
Spectrometer: QEPB0408
触发模式: 0
积分时间 (秒): 1.000000E-2
Scans to average: 1
启用暗噪声校正: true
启用非线性校正: false
滑动平均宽度: 0
X轴模式: Wavelengths
Number of Pixels in Spectrum: 1044
>>>>>Begin Spectral Data<<<<<
220.843	5.88
221.644	5.88
222.444	6.88
223.244	4.88
224.045	6.88
224.845	4.88
225.645	5.88
226.445	8.88
227.245	5.88
228.045	5.88
228.845	6.88
229.645	7.88
230.444	7.88
231.244	6.88
232.043	4.88
232.843	8.88
233.642	7.88
234.442	9.88
235.241	8.88
236.04	10.88
236.839	8.88
237.638	9.88
238.437	7.88
239.236	8.88
240.035	10.88
240.833	12.88
241.632	10.88
242.43	8.88
243.229	8.88
244.027	9.88
244.826	10.88
245.624	9.88
246.422	10.88
247.22	14.88
248.018	12.88
248.816	13.88
249.614	15.88
250.412	14.88
251.21	16.88
252.007	10.88
252.805	19.88
253.602	15.88
254.4	14.88
255.197	15.88
255.994	17.88
256.791	18.88
257.589	17.88
258.386	17.88
259.183	19.88
259.979	19.88
260.776	16.88
261.573	24.88
262.37	23.88
263.166	21.88
263.963	22.88
264.759	24.88
265.556	19.88
266.352	25.88
267.148	22.88
267.944	23.88
268.74	23.88
269.536	25.88
270.332	26.88
271.128	29.88
271.924	25.88
272.719	26.88
273.515	28.88
274.311	27.88
275.106	27.88
275.901	28.88
276.697	29.88
277.492	28.88
278.287	27.88
279.082	26.88
279.877	32.88
280.672	34.88
281.467	30.88
282.262	28.88
283.056	31.88
283.851	28.88
284.646	32.88
285.44	28.88
286.234	30.88
287.029	29.88
287.823	29.88
288.617	30.88
289.411	31.88
290.205	32.88
290.999	29.88
291.793	30.88
292.587	30.88
293.381	28.88
294.174	28.88
294.968	31.88
295.761	23.88
296.555	24.88
297.348	28.88
298.141	25.88
298.935	29.88
299.728	24.88
300.521	23.88
301.314	23.88
302.107	22.88
302.899	19.88
303.692	20.88
304.485	21.88
305.277	21.88
306.07	20.88
306.862	22.88
307.655	21.88
308.447	21.88
309.239	20.88
310.031	20.88
310.823	19.88
311.615	18.88
312.407	17.88
313.199	16.88
313.991	17.88
314.783	16.88
315.574	12.88
316.366	14.88
317.157	15.88
317.949	12.88
318.74	14.88
319.531	15.88
320.322	12.88
321.113	14.88
321.904	12.88
322.695	13.88
323.486	11.88
324.277	12.88
325.068	11.88
325.858	11.88
326.649	10.88
327.439	12.88
328.23	13.88
329.02	13.88
329.81	12.88
330.6	9.88
331.391	10.88
332.181	10.88
332.971	10.88
333.76	10.88
334.55	11.88
335.34	9.88
336.13	13.88
336.919	9.88
337.709	12.88
338.498	11.88
339.287	8.88
340.077	13.88
340.866	9.88
341.655	8.88
342.444	10.88
343.233	11.88
344.022	13.88
344.811	10.88
345.6	12.88
346.388	12.88
347.177	10.88
347.965	9.88
348.754	12.88
349.542	10.88
350.33	9.88
351.119	13.88
351.907	10.88
352.695	11.88
353.483	9.88
354.271	11.88
355.059	7.88
355.846	9.88
356.634	8.88
357.422	8.88
358.209	11.88
358.997	10.88
359.784	9.88
360.571	9.88
361.359	9.88
362.146	10.88
362.933	7.88
363.72	7.88
364.507	9.88
365.294	8.88
366.081	6.88
366.867	5.88
367.654	10.88
368.44	8.88
369.227	8.88
370.013	8.88
370.8	8.88
371.586	10.88
372.372	8.88
373.158	8.88
373.944	9.88
374.73	9.88
375.516	8.88
376.302	7.88
377.088	8.88
377.873	9.88
378.659	10.88
379.445	8.88
380.23	9.88
381.015	7.88
381.801	9.88
382.586	11.88
383.371	7.88
384.156	10.88
384.941	11.88
385.726	9.88
386.511	11.88
387.296	10.88
388.08	9.88
388.865	9.88
389.649	11.88
390.434	8.88
391.218	9.88
392.003	10.88
392.787	9.88
393.571	10.88
394.355	8.88
395.139	10.88
395.923	13.88
396.707	9.88
397.491	10.88
398.274	12.88
399.058	12.88
399.842	10.88
400.625	10.88
401.408	10.88
402.192	13.88
402.975	14.88
403.758	14.88
404.541	13.88
405.324	14.88
406.107	12.88
406.89	14.88
407.673	14.88
408.456	14.88
409.238	13.88
410.021	12.88
410.803	16.88
411.586	15.88
412.368	15.88
413.151	17.88
413.933	17.88
414.715	17.88
415.497	14.88
416.279	18.88
417.061	17.88
417.843	16.88
418.624	19.88
419.406	18.88
420.188	19.88
420.969	20.88
421.751	21.88
422.532	20.88
423.313	20.88
424.095	24.88
424.876	22.88
425.657	22.88
426.438	22.88
427.219	24.88
428	24.88
428.78	28.88
429.561	29.88
430.342	27.88
431.122	27.88
431.903	30.88
432.683	30.88
433.464	33.88
434.244	37.88
435.024	36.88
435.804	40.88
436.584	44.88
437.364	43.88
438.144	48.88
438.924	50.88
439.704	54.88
440.483	54.88
441.263	61.88
442.042	64.88
442.822	74.88
443.601	78.88
444.38	89.88
445.16	92.88
445.939	98.88
446.718	107.88
447.497	118.88
448.276	131.88
449.054	142.88
449.833	155.88
450.612	168.88
451.391	192.88
452.169	212.88
452.948	234.88
453.726	261.88
454.504	285.88
455.282	325.88
456.061	353.88
456.839	405.88
457.617	434.88
458.395	487.88
459.172	541.88
459.95	605.88
460.728	660.88
461.506	747.88
462.283	825.88
463.061	923.88
463.838	1028.88
464.615	1129.88
465.393	1248.88
466.17	1374.88
466.947	1535.88
467.724	1696.88
468.501	1868.88
469.278	2061.88
470.055	2282.88
470.831	2522.88
471.608	2758.88
472.385	3001.88
473.161	3301.88
473.938	3606.88
474.714	3968.88
475.49	4322.88
476.266	4701.88
477.043	5104.88
477.819	5555.88
478.595	6068.88
479.371	6598.88
480.146	7116.88
480.922	7761.88
481.698	8402.88
482.473	9086.88
483.249	9832.88
484.024	10605.88
484.8	11428.88
485.575	12356.88
486.35	13294.88
487.126	14378.88
487.901	15441.88
488.676	16582.88
489.451	17830.88
490.225	19186.88
491	20480.88
491.775	21849.88
492.55	23271.88
493.324	24870.88
494.099	26270.88
494.873	27877.88
495.647	29463.88
496.422	31033.88
497.196	32674.88
497.97	34181.88
498.744	35628.88
499.518	37091.88
500.292	38524.88
501.066	39598.88
501.839	40585.88
502.613	41496.88
503.387	42342.88
504.16	42947.88
504.934	43315.88
505.707	43627.88
506.48	43557.88
507.253	43419.88
508.027	43125.88
508.8	42605.88
509.573	41922.88
510.346	41136.88
511.118	40409.88
511.891	39387.88
512.664	38120.88
513.437	36866.88
514.209	35698.88
514.982	34502.88
515.754	33228.88
516.526	31972.88
517.298	30735.88
518.071	29586.88
518.843	28486.88
519.615	27354.88
520.387	26231.88
521.159	25224.88
521.93	24203.88
522.702	23224.88
523.474	22230.88
524.245	21375.88
525.017	20555.88
525.788	19658.88
526.56	18875.88
527.331	18093.88
528.102	17214.88
528.873	16390.88
529.644	15657.88
530.415	14956.88
531.186	14241.88
531.957	13530.88
532.728	12860.88
533.498	12225.88
534.269	11630.88
535.039	11005.88
535.81	10430.88
536.58	9876.88
537.351	9364.88
538.121	8873.88
538.891	8419.88
539.661	7935.88
540.431	7504.88
541.201	7150.88
541.971	6756.88
542.741	6407.88
543.51	6087.88
544.28	5745.88
545.05	5530.88
545.819	5251.88
546.588	5015.88
547.358	4774.88
548.127	4563.88
548.896	4311.88
549.665	4126.88
550.434	3905.88
551.203	3721.88
551.972	3512.88
552.741	3324.88
553.51	3143.88
554.278	2960.88
555.047	2801.88
555.815	2653.88
556.584	2515.88
557.352	2363.88
558.121	2242.88
558.889	2110.88
559.657	2012.88
560.425	1894.88
561.193	1803.88
561.961	1695.88
562.729	1617.88
563.496	1523.88
564.264	1429.88
565.032	1362.88
565.799	1292.88
566.567	1227.88
567.334	1162.88
568.101	1093.88
568.869	1034.88
569.636	970.88
570.403	918.88
571.17	859.88
571.937	812.88
572.704	771.88
573.471	730.88
574.237	692.88
575.004	650.88
575.771	608.88
576.537	569.88
577.303	546.88
578.07	525.88
578.836	487.88
579.602	462.88
580.368	437.88
581.134	416.88
581.9	390.88
582.666	373.88
583.432	358.88
584.198	334.88
584.964	323.88
585.729	306.88
586.495	288.88
587.26	272.88
588.025	256.88
588.791	243.88
589.556	227.88
590.321	216.88
591.086	213.88
591.851	196.88
592.616	188.88
593.381	182.88
594.146	171.88
594.911	163.88
595.675	156.88
596.44	151.88
597.204	140.88
597.969	142.88
598.733	130.88
599.497	127.88
600.261	121.88
601.025	114.88
601.79	109.88
602.553	102.88
603.317	104.88
604.081	92.88
604.845	91.88
605.609	87.88
606.372	86.88
607.136	82.88
607.899	77.88
608.662	72.88
609.426	71.88
610.189	74.88
610.952	64.88
611.715	64.88
612.478	63.88
613.241	60.88
614.004	61.88
614.767	56.88
615.529	56.88
616.292	51.88
617.055	48.88
617.817	50.88
618.579	44.88
619.342	46.88
620.104	42.88
620.866	41.88
621.628	41.88
622.39	38.88
623.152	39.88
623.914	40.88
624.676	35.88
625.438	37.88
626.199	33.88
626.961	32.88
627.722	33.88
628.484	28.88
629.245	30.88
630.006	27.88
630.768	26.88
631.529	24.88
632.29	28.88
633.051	23.88
633.812	24.88
634.573	22.88
635.333	22.88
636.094	21.88
636.855	21.88
637.615	20.88
638.376	20.88
639.136	19.88
639.896	19.88
640.657	17.88
641.417	17.88
642.177	17.88
642.937	17.88
643.697	18.88
644.457	16.88
645.216	17.88
645.976	12.88
646.736	16.88
647.495	13.88
648.255	11.88
649.014	16.88
649.774	12.88
650.533	14.88
651.292	13.88
652.051	14.88
652.81	13.88
653.569	14.88
654.328	11.88
655.087	11.88
655.846	12.88
656.604	14.88
657.363	12.88
658.121	11.88
658.88	12.88
659.638	11.88
660.397	10.88
661.155	11.88
661.913	10.88
662.671	10.88
663.429	9.88
664.187	11.88
664.945	10.88
665.703	13.88
666.46	10.88
667.218	11.88
667.976	9.88
668.733	10.88
669.49	5.88
670.248	7.88
671.005	9.88
671.762	8.88
672.519	10.88
673.276	9.88
674.033	8.88
674.79	8.88
675.547	8.88
676.304	7.88
677.06	8.88
677.817	7.88
678.574	7.88
679.33	10.88
680.086	7.88
680.843	8.88
681.599	6.88
682.355	7.88
683.111	6.88
683.867	8.88
684.623	6.88
685.379	7.88
686.135	7.88
686.89	7.88
687.646	6.88
688.402	6.88
689.157	4.88
689.912	6.88
690.668	6.88
691.423	4.88
692.178	8.88
692.933	6.88
693.688	6.88
694.443	7.88
695.198	5.88
695.953	6.88
696.708	8.88
697.462	7.88
698.217	5.88
698.972	6.88
699.726	7.88
700.48	7.88
701.235	8.88
701.989	7.88
702.743	7.88
703.497	7.88
704.251	4.88
705.005	7.88
705.759	6.88
706.513	7.88
707.266	6.88
708.02	7.88
708.774	4.88
709.527	6.88
710.28	4.88
711.034	5.88
711.787	8.88
712.54	6.88
713.293	4.88
714.046	6.88
714.799	5.88
715.552	8.88
716.305	6.88
717.058	6.88
717.81	6.88
718.563	6.88
719.315	6.88
720.068	5.88
720.82	8.88
721.573	8.88
722.325	6.88
723.077	7.88
723.829	7.88
724.581	7.88
725.333	5.88
726.085	7.88
726.836	9.88
727.588	6.88
728.34	8.88
729.091	6.88
729.843	7.88
730.594	8.88
731.346	10.88
732.097	6.88
732.848	8.88
733.599	6.88
734.35	6.88
735.101	8.88
735.852	8.88
736.603	8.88
737.354	8.88
738.104	7.88
738.855	7.88
739.605	8.88
740.356	7.88
741.106	6.88
741.856	9.88
742.607	11.88
743.357	5.88
744.107	9.88
744.857	8.88
745.607	8.88
746.357	7.88
747.106	5.88
747.856	10.88
748.606	7.88
749.355	8.88
750.105	8.88
750.854	9.88
751.603	7.88
752.353	9.88
753.102	12.88
753.851	11.88
754.6	10.88
755.349	9.88
756.098	10.88
756.847	8.88
757.595	9.88
758.344	10.88
759.093	10.88
759.841	10.88
760.589	8.88
761.338	9.88
762.086	13.88
762.834	9.88
763.582	12.88
764.331	11.88
765.079	8.88
765.826	14.88
766.574	10.88
767.322	12.88
768.07	11.88
768.817	11.88
769.565	11.88
770.312	14.88
771.06	13.88
771.807	12.88
772.554	11.88
773.302	14.88
774.049	11.88
774.796	14.88
775.543	12.88
776.29	13.88
777.036	14.88
777.783	13.88
778.53	12.88
779.276	14.88
780.023	13.88
780.769	12.88
781.516	15.88
782.262	15.88
783.008	14.88
783.754	13.88
784.5	13.88
785.246	13.88
785.992	14.88
786.738	12.88
787.484	12.88
788.23	14.88
788.975	12.88
789.721	12.88
790.466	10.88
791.212	13.88
791.957	14.88
792.702	12.88
793.447	11.88
794.193	12.88
794.938	11.88
795.683	12.88
796.427	13.88
797.172	10.88
797.917	10.88
798.662	11.88
799.406	12.88
800.151	10.88
800.895	9.88
801.64	9.88
802.384	13.88
803.128	9.88
803.872	9.88
804.616	10.88
805.36	8.88
806.104	7.88
806.848	10.88
807.592	11.88
808.336	9.88
809.079	10.88
809.823	10.88
810.566	8.88
811.31	9.88
812.053	9.88
812.796	8.88
813.539	7.88
814.283	7.88
815.026	10.88
815.769	8.88
816.511	6.88
817.254	9.88
817.997	5.88
818.74	6.88
819.482	7.88
820.225	7.88
820.967	9.88
821.71	7.88
822.452	7.88
823.194	4.88
823.936	8.88
824.678	5.88
825.42	5.88
826.162	6.88
826.904	2.88
827.646	6.88
828.388	4.88
829.129	6.88
829.871	4.88
830.612	5.88
831.354	7.88
832.095	5.88
832.836	6.88
833.577	5.88
834.319	8.88
835.06	6.88
835.801	5.88
836.542	5.88
837.282	3.88
838.023	6.88
838.764	5.88
839.504	2.88
840.245	4.88
840.985	1.88
841.726	7.88
842.466	2.88
843.206	4.88
843.946	5.88
844.687	4.88
845.427	5.88
846.166	2.88
846.906	7.88
847.646	5.88
848.386	5.88
849.125	6.88
849.865	3.88
850.605	3.88
851.344	4.88
852.083	3.88
852.823	3.88
853.562	5.88
854.301	4.88
855.04	1.88
855.779	3.88
856.518	3.88
857.257	3.88
857.995	3.88
858.734	2.88
859.473	5.88
860.211	1.88
860.95	2.88
861.688	3.88
862.426	3.88
863.165	2.88
863.903	3.88
864.641	2.88
865.379	1.88
866.117	2.88
866.855	3.88
867.593	4.88
868.33	0.88
869.068	0.88
869.806	0.88
870.543	-0.12
871.28	5.88
872.018	3.88
872.755	2.88
873.492	2.88
874.229	0.88
874.967	1.88
875.703	0.88
876.44	4.88
877.177	3.88
877.914	0.88
878.651	2.88
879.387	-0.12
880.124	5.88
880.86	0.88
881.597	1.88
882.333	1.88
883.069	2.88
883.806	-0.12
884.542	0.88
885.278	2.88
886.014	0.88
886.749	-1.12
887.485	-0.12
888.221	-0.12
888.957	1.88
889.692	-0.12
890.428	-0.12
891.163	2.88
891.899	-1.12
892.634	-0.12
893.369	-1.12
894.104	1.88
894.839	1.88
895.574	1.88
896.309	-0.12
897.044	-0.12
897.779	0.88
898.514	1.88
899.248	0.88
899.983	1.88
900.717	-2.12
901.452	-0.12
902.186	-0.12
902.92	-0.12
903.654	1.88
904.389	1.88
905.123	-0.12
905.857	0.88
906.59	0.88
907.324	0.88
908.058	1.88
908.792	1.88
909.525	-0.12
910.259	0.88
910.992	1.88
911.726	-1.12
912.459	-1.12
913.192	1.88
913.925	-0.12
914.658	-0.12
915.391	2.88
916.124	0.88
916.857	0.88
917.59	0.88
918.323	-1.12
919.055	1.88
919.788	1.88
920.521	-0.12
921.253	0.88
921.985	0.88
922.718	0.88
923.45	-1.12
924.182	0.88
924.914	-1.12
925.646	1.88
926.378	1.88
927.11	0.88
927.841	-0.12
928.573	-1.12
929.305	0.88
930.036	-1.12
930.768	0.88
931.499	0.88
932.23	-0.12
932.962	0.88
933.693	-1.12
934.424	2.88
935.155	-0.12
935.886	0.88
936.617	-0.12
937.348	-3.12
938.078	-0.12
938.809	-0.12
939.54	0.88
940.27	-1.12
941.001	2.88
941.731	-1.12
942.461	0.88
943.191	-1.12
943.922	-0.12
944.652	0.88
945.382	0.88
946.112	0.88
946.841	0.88
947.571	-0.12
948.301	-1.12
949.031	0.88
949.76	2.88
950.49	-1.12
951.219	0.88
951.948	-1.12
952.678	0.88
953.407	0.88
954.136	-0.12
954.865	-0.12
955.594	-0.12
956.323	-1.12
957.052	-0.12
957.78	-0.12
958.509	-0.12
959.238	-0.12
959.966	-1.12
960.695	-0.12
961.423	-1.12
962.151	-1.12
962.88	-1.12
963.608	1.88
964.336	-0.12
965.064	0.88
965.792	-1.12
966.52	-1.12
967.247	-0.12
967.975	-3.12
968.703	-0.12
969.43	-0.12
970.158	0.88
970.885	-0.12
971.613	-1.12
972.34	-0.12
973.067	-1.12
973.794	-2.12
974.521	0.88
975.248	-2.12
975.975	-0.12
976.702	-1.12
977.429	-1.12
978.156	-1.12
978.882	-1.12
979.609	0.88
980.335	-2.12
981.062	-2.12
981.788	-0.12
982.514	-1.12
983.24	0.88
983.967	-0.12
984.693	2.88
985.419	0.88
986.144	-0.12
986.87	-1.12
987.596	0.88
988.322	2.88
989.047	-1.12
989.773	-1.12
990.498	-0.12
991.224	-1.12
991.949	-0.12
992.674	1.88
993.399	-1.12
994.124	-1.12
994.849	0.88
995.574	0.88
996.299	0.88
997.024	0.88
997.749	-0.12
998.473	1.88
999.198	-0.12
999.922	0.88
1000.647	0.88
1001.371	2.88
1002.095	-1.12
1002.82	-0.12
1003.544	-1.12
1004.268	6.88
1004.992	3.88
1005.716	4.88
1006.439	3.88
1007.163	3.88
1007.887	4.88
1008.611	-0.12
1009.334	1.88
1010.058	-1.12
1010.781	0.88
1011.504	-0.12
1012.228	2.88
1012.951	-0.12
1013.674	-1.12
1014.397	0.88
1015.12	-0.12
