节点500_705_QEPB04081__593__20-54-20-809.txt的数据

Date: Wed Nov 12 20:54:20 CST 2025
User: PC
Spectrometer: QEPB0408
触发模式: 0
积分时间 (秒): 1.000000E-2
Scans to average: 1
启用暗噪声校正: true
启用非线性校正: false
滑动平均宽度: 0
X轴模式: Wavelengths
Number of Pixels in Spectrum: 1044
>>>>>Begin Spectral Data<<<<<
220.843	6.12
221.644	3.12
222.444	5.12
223.244	5.12
224.045	7.12
224.845	6.12
225.645	5.12
226.445	7.12
227.245	5.12
228.045	9.12
228.845	7.12
229.645	9.12
230.444	8.12
231.244	8.12
232.043	10.12
232.843	9.12
233.642	10.12
234.442	10.12
235.241	11.12
236.04	9.12
236.839	8.12
237.638	12.12
238.437	11.12
239.236	12.12
240.035	9.12
240.833	11.12
241.632	10.12
242.43	13.12
243.229	11.12
244.027	16.12
244.826	10.12
245.624	10.12
246.422	14.12
247.22	14.12
248.018	15.12
248.816	13.12
249.614	14.12
250.412	13.12
251.21	19.12
252.007	14.12
252.805	16.12
253.602	16.12
254.4	18.12
255.197	18.12
255.994	19.12
256.791	16.12
257.589	17.12
258.386	21.12
259.183	18.12
259.979	18.12
260.776	21.12
261.573	22.12
262.37	21.12
263.166	25.12
263.963	23.12
264.759	22.12
265.556	25.12
266.352	22.12
267.148	28.12
267.944	25.12
268.74	25.12
269.536	27.12
270.332	27.12
271.128	29.12
271.924	30.12
272.719	28.12
273.515	29.12
274.311	28.12
275.106	31.12
275.901	31.12
276.697	31.12
277.492	30.12
278.287	32.12
279.082	30.12
279.877	31.12
280.672	29.12
281.467	30.12
282.262	34.12
283.056	31.12
283.851	35.12
284.646	28.12
285.44	31.12
286.234	32.12
287.029	32.12
287.823	32.12
288.617	34.12
289.411	32.12
290.205	33.12
290.999	31.12
291.793	31.12
292.587	34.12
293.381	28.12
294.174	29.12
294.968	26.12
295.761	26.12
296.555	25.12
297.348	23.12
298.141	28.12
298.935	27.12
299.728	27.12
300.521	23.12
301.314	25.12
302.107	23.12
302.899	24.12
303.692	22.12
304.485	23.12
305.277	20.12
306.07	23.12
306.862	22.12
307.655	22.12
308.447	22.12
309.239	21.12
310.031	18.12
310.823	17.12
311.615	19.12
312.407	19.12
313.199	17.12
313.991	20.12
314.783	18.12
315.574	14.12
316.366	15.12
317.157	19.12
317.949	15.12
318.74	13.12
319.531	16.12
320.322	14.12
321.113	15.12
321.904	14.12
322.695	14.12
323.486	13.12
324.277	16.12
325.068	15.12
325.858	14.12
326.649	13.12
327.439	14.12
328.23	13.12
329.02	10.12
329.81	11.12
330.6	12.12
331.391	13.12
332.181	13.12
332.971	11.12
333.76	14.12
334.55	13.12
335.34	13.12
336.13	12.12
336.919	13.12
337.709	10.12
338.498	14.12
339.287	11.12
340.077	12.12
340.866	10.12
341.655	12.12
342.444	10.12
343.233	14.12
344.022	10.12
344.811	12.12
345.6	11.12
346.388	9.12
347.177	11.12
347.965	11.12
348.754	12.12
349.542	12.12
350.33	9.12
351.119	14.12
351.907	13.12
352.695	11.12
353.483	11.12
354.271	11.12
355.059	12.12
355.846	9.12
356.634	11.12
357.422	11.12
358.209	8.12
358.997	12.12
359.784	10.12
360.571	12.12
361.359	10.12
362.146	12.12
362.933	9.12
363.72	11.12
364.507	11.12
365.294	11.12
366.081	8.12
366.867	8.12
367.654	10.12
368.44	11.12
369.227	10.12
370.013	11.12
370.8	9.12
371.586	11.12
372.372	11.12
373.158	10.12
373.944	11.12
374.73	8.12
375.516	12.12
376.302	9.12
377.088	11.12
377.873	13.12
378.659	9.12
379.445	10.12
380.23	12.12
381.015	12.12
381.801	10.12
382.586	10.12
383.371	11.12
384.156	10.12
384.941	11.12
385.726	11.12
386.511	12.12
387.296	13.12
388.08	9.12
388.865	14.12
389.649	10.12
390.434	11.12
391.218	8.12
392.003	11.12
392.787	13.12
393.571	10.12
394.355	13.12
395.139	11.12
395.923	15.12
396.707	13.12
397.491	11.12
398.274	12.12
399.058	13.12
399.842	13.12
400.625	13.12
401.408	14.12
402.192	13.12
402.975	12.12
403.758	14.12
404.541	14.12
405.324	14.12
406.107	13.12
406.89	13.12
407.673	16.12
408.456	12.12
409.238	16.12
410.021	14.12
410.803	15.12
411.586	16.12
412.368	16.12
413.151	19.12
413.933	16.12
414.715	18.12
415.497	18.12
416.279	19.12
417.061	22.12
417.843	19.12
418.624	20.12
419.406	16.12
420.188	17.12
420.969	20.12
421.751	18.12
422.532	21.12
423.313	23.12
424.095	23.12
424.876	25.12
425.657	24.12
426.438	25.12
427.219	27.12
428	26.12
428.78	28.12
429.561	28.12
430.342	27.12
431.122	35.12
431.903	31.12
432.683	33.12
433.464	35.12
434.244	37.12
435.024	40.12
435.804	41.12
436.584	42.12
437.364	45.12
438.144	51.12
438.924	51.12
439.704	54.12
440.483	58.12
441.263	63.12
442.042	65.12
442.822	74.12
443.601	77.12
444.38	84.12
445.16	90.12
445.939	97.12
446.718	108.12
447.497	118.12
448.276	130.12
449.054	142.12
449.833	154.12
450.612	171.12
451.391	191.12
452.169	208.12
452.948	233.12
453.726	257.12
454.504	286.12
455.282	322.12
456.061	350.12
456.839	395.12
457.617	431.12
458.395	489.12
459.172	544.12
459.95	599.12
460.728	675.12
461.506	739.12
462.283	821.12
463.061	910.12
463.838	1017.12
464.615	1138.12
465.393	1264.12
466.17	1386.12
466.947	1538.12
467.724	1699.12
468.501	1885.12
469.278	2066.12
470.055	2273.12
470.831	2500.12
471.608	2750.12
472.385	3017.12
473.161	3326.12
473.938	3610.12
474.714	3948.12
475.49	4335.12
476.266	4736.12
477.043	5147.12
477.819	5547.12
478.595	6075.12
479.371	6590.12
480.146	7161.12
480.922	7801.12
481.698	8412.12
482.473	9126.12
483.249	9866.12
484.024	10646.12
484.8	11513.12
485.575	12378.12
486.35	13423.12
487.126	14488.12
487.901	15583.12
488.676	16670.12
489.451	17965.12
490.225	19198.12
491	20668.12
491.775	22001.12
492.55	23466.12
493.324	24963.12
494.099	26537.12
494.873	28142.12
495.647	29719.12
496.422	31343.12
497.196	32909.12
497.97	34417.12
498.744	35886.12
499.518	37454.12
500.292	38776.12
501.066	39918.12
501.839	40860.12
502.613	41782.12
503.387	42582.12
504.16	43231.12
504.934	43527.12
505.707	43763.12
506.48	43739.12
507.253	43564.12
508.027	43254.12
508.8	42610.12
509.573	41927.12
510.346	41205.12
511.118	40465.12
511.891	39415.12
512.664	38240.12
513.437	36923.12
514.209	35764.12
514.982	34521.12
515.754	33221.12
516.526	31935.12
517.298	30732.12
518.071	29634.12
518.843	28481.12
519.615	27289.12
520.387	26204.12
521.159	25275.12
521.93	24242.12
522.702	23244.12
523.474	22248.12
524.245	21396.12
525.017	20503.12
525.788	19658.12
526.56	18851.12
527.331	18072.12
528.102	17208.12
528.873	16388.12
529.644	15606.12
530.415	14928.12
531.186	14231.12
531.957	13533.12
532.728	12843.12
533.498	12188.12
534.269	11534.12
535.039	11029.12
535.81	10429.12
536.58	9813.12
537.351	9310.12
538.121	8846.12
538.891	8373.12
539.661	7921.12
540.431	7496.12
541.201	7158.12
541.971	6746.12
542.741	6388.12
543.51	6056.12
544.28	5770.12
545.05	5500.12
545.819	5247.12
546.588	5007.12
547.358	4764.12
548.127	4513.12
548.896	4271.12
549.665	4078.12
550.434	3878.12
551.203	3691.12
551.972	3487.12
552.741	3310.12
553.51	3103.12
554.278	2954.12
555.047	2795.12
555.815	2663.12
556.584	2501.12
557.352	2377.12
558.121	2242.12
558.889	2126.12
559.657	1997.12
560.425	1889.12
561.193	1813.12
561.961	1704.12
562.729	1589.12
563.496	1511.12
564.264	1436.12
565.032	1359.12
565.799	1299.12
566.567	1214.12
567.334	1152.12
568.101	1085.12
568.869	1028.12
569.636	965.12
570.403	928.12
571.17	864.12
571.937	810.12
572.704	783.12
573.471	735.12
574.237	687.12
575.004	654.12
575.771	612.12
576.537	576.12
577.303	541.12
578.07	510.12
578.836	493.12
579.602	461.12
580.368	435.12
581.134	422.12
581.9	395.12
582.666	368.12
583.432	356.12
584.198	341.12
584.964	324.12
585.729	307.12
586.495	289.12
587.26	274.12
588.025	261.12
588.791	245.12
589.556	229.12
590.321	214.12
591.086	206.12
591.851	197.12
592.616	192.12
593.381	181.12
594.146	178.12
594.911	164.12
595.675	160.12
596.44	151.12
597.204	147.12
597.969	139.12
598.733	131.12
599.497	123.12
600.261	116.12
601.025	113.12
601.79	108.12
602.553	106.12
603.317	101.12
604.081	95.12
604.845	95.12
605.609	88.12
606.372	87.12
607.136	85.12
607.899	76.12
608.662	74.12
609.426	75.12
610.189	68.12
610.952	69.12
611.715	64.12
612.478	64.12
613.241	58.12
614.004	57.12
614.767	55.12
615.529	55.12
616.292	53.12
617.055	51.12
617.817	48.12
618.579	48.12
619.342	44.12
620.104	47.12
620.866	44.12
621.628	45.12
622.39	40.12
623.152	40.12
623.914	39.12
624.676	39.12
625.438	36.12
626.199	30.12
626.961	31.12
627.722	31.12
628.484	32.12
629.245	30.12
630.006	29.12
630.768	30.12
631.529	27.12
632.29	27.12
633.051	29.12
633.812	25.12
634.573	23.12
635.333	25.12
636.094	22.12
636.855	24.12
637.615	23.12
638.376	22.12
639.136	21.12
639.896	20.12
640.657	19.12
641.417	19.12
642.177	22.12
642.937	19.12
643.697	19.12
644.457	17.12
645.216	19.12
645.976	16.12
646.736	20.12
647.495	18.12
648.255	15.12
649.014	15.12
649.774	15.12
650.533	15.12
651.292	17.12
652.051	15.12
652.81	12.12
653.569	15.12
654.328	13.12
655.087	13.12
655.846	13.12
656.604	13.12
657.363	13.12
658.121	11.12
658.88	13.12
659.638	11.12
660.397	10.12
661.155	11.12
661.913	13.12
662.671	11.12
663.429	13.12
664.187	13.12
664.945	11.12
665.703	11.12
666.46	11.12
667.218	9.12
667.976	11.12
668.733	11.12
669.49	8.12
670.248	8.12
671.005	11.12
671.762	10.12
672.519	10.12
673.276	7.12
674.033	8.12
674.79	8.12
675.547	9.12
676.304	9.12
677.06	9.12
677.817	6.12
678.574	9.12
679.33	8.12
680.086	13.12
680.843	7.12
681.599	9.12
682.355	9.12
683.111	8.12
683.867	9.12
684.623	8.12
685.379	10.12
686.135	7.12
686.89	7.12
687.646	7.12
688.402	7.12
689.157	7.12
689.912	9.12
690.668	8.12
691.423	8.12
692.178	8.12
692.933	7.12
693.688	5.12
694.443	8.12
695.198	8.12
695.953	8.12
696.708	7.12
697.462	6.12
698.217	7.12
698.972	6.12
699.726	10.12
700.48	7.12
701.235	10.12
701.989	8.12
702.743	7.12
703.497	8.12
704.251	6.12
705.005	7.12
705.759	7.12
706.513	7.12
707.266	8.12
708.02	6.12
708.774	8.12
709.527	7.12
710.28	10.12
711.034	8.12
711.787	6.12
712.54	8.12
713.293	7.12
714.046	7.12
714.799	7.12
715.552	7.12
716.305	7.12
717.058	8.12
717.81	7.12
718.563	9.12
719.315	10.12
720.068	8.12
720.82	9.12
721.573	8.12
722.325	5.12
723.077	9.12
723.829	10.12
724.581	8.12
725.333	7.12
726.085	8.12
726.836	8.12
727.588	5.12
728.34	8.12
729.091	9.12
729.843	11.12
730.594	8.12
731.346	9.12
732.097	6.12
732.848	7.12
733.599	9.12
734.35	11.12
735.101	6.12
735.852	9.12
736.603	8.12
737.354	10.12
738.104	9.12
738.855	9.12
739.605	7.12
740.356	10.12
741.106	7.12
741.856	8.12
742.607	8.12
743.357	9.12
744.107	7.12
744.857	8.12
745.607	10.12
746.357	9.12
747.106	9.12
747.856	11.12
748.606	9.12
749.355	10.12
750.105	12.12
750.854	12.12
751.603	10.12
752.353	9.12
753.102	9.12
753.851	12.12
754.6	11.12
755.349	11.12
756.098	10.12
756.847	10.12
757.595	14.12
758.344	12.12
759.093	10.12
759.841	10.12
760.589	13.12
761.338	13.12
762.086	10.12
762.834	11.12
763.582	9.12
764.331	13.12
765.079	11.12
765.826	12.12
766.574	11.12
767.322	13.12
768.07	12.12
768.817	11.12
769.565	12.12
770.312	13.12
771.06	15.12
771.807	13.12
772.554	13.12
773.302	14.12
774.049	12.12
774.796	13.12
775.543	14.12
776.29	15.12
777.036	15.12
777.783	14.12
778.53	13.12
779.276	12.12
780.023	15.12
780.769	13.12
781.516	14.12
782.262	13.12
783.008	15.12
783.754	17.12
784.5	15.12
785.246	15.12
785.992	13.12
786.738	16.12
787.484	16.12
788.23	16.12
788.975	12.12
789.721	15.12
790.466	15.12
791.212	15.12
791.957	13.12
792.702	12.12
793.447	15.12
794.193	15.12
794.938	12.12
795.683	14.12
796.427	11.12
797.172	14.12
797.917	13.12
798.662	15.12
799.406	11.12
800.151	13.12
800.895	13.12
801.64	11.12
802.384	11.12
803.128	11.12
803.872	14.12
804.616	12.12
805.36	11.12
806.104	11.12
806.848	10.12
807.592	10.12
808.336	11.12
809.079	10.12
809.823	10.12
810.566	10.12
811.31	7.12
812.053	11.12
812.796	9.12
813.539	8.12
814.283	7.12
815.026	7.12
815.769	8.12
816.511	8.12
817.254	9.12
817.997	9.12
818.74	7.12
819.482	5.12
820.225	6.12
820.967	7.12
821.71	9.12
822.452	9.12
823.194	7.12
823.936	8.12
824.678	6.12
825.42	8.12
826.162	6.12
826.904	8.12
827.646	9.12
828.388	5.12
829.129	7.12
829.871	5.12
830.612	5.12
831.354	7.12
832.095	8.12
832.836	5.12
833.577	8.12
834.319	6.12
835.06	6.12
835.801	7.12
836.542	6.12
837.282	6.12
838.023	6.12
838.764	3.12
839.504	5.12
840.245	5.12
840.985	5.12
841.726	6.12
842.466	5.12
843.206	7.12
843.946	6.12
844.687	6.12
845.427	6.12
846.166	2.12
846.906	5.12
847.646	5.12
848.386	6.12
849.125	4.12
849.865	5.12
850.605	6.12
851.344	4.12
852.083	5.12
852.823	5.12
853.562	3.12
854.301	5.12
855.04	4.12
855.779	4.12
856.518	5.12
857.257	4.12
857.995	3.12
858.734	5.12
859.473	3.12
860.211	2.12
860.95	3.12
861.688	5.12
862.426	3.12
863.165	2.12
863.903	4.12
864.641	6.12
865.379	5.12
866.117	3.12
866.855	3.12
867.593	2.12
868.33	5.12
869.068	2.12
869.806	3.12
870.543	5.12
871.28	2.12
872.018	2.12
872.755	1.12
873.492	1.12
874.229	2.12
874.967	2.12
875.703	4.12
876.44	5.12
877.177	4.12
877.914	3.12
878.651	2.12
879.387	2.12
880.124	2.12
880.86	3.12
881.597	1.12
882.333	2.12
883.069	1.12
883.806	-0.88
884.542	1.12
885.278	0.12
886.014	4.12
886.749	1.12
887.485	3.12
888.221	1.12
888.957	-0.88
889.692	1.12
890.428	2.12
891.163	3.12
891.899	1.12
892.634	2.12
893.369	0.12
894.104	0.12
894.839	2.12
895.574	0.12
896.309	2.12
897.044	0.12
897.779	1.12
898.514	1.12
899.248	0.12
899.983	1.12
900.717	2.12
901.452	1.12
902.186	-0.88
902.92	0.12
903.654	0.12
904.389	2.12
905.123	1.12
905.857	1.12
906.59	1.12
907.324	0.12
908.058	1.12
908.792	-0.88
909.525	2.12
910.259	-0.88
910.992	1.12
911.726	2.12
912.459	0.12
913.192	1.12
913.925	0.12
914.658	-0.88
915.391	1.12
916.124	1.12
916.857	0.12
917.59	1.12
918.323	2.12
919.055	2.12
919.788	1.12
920.521	0.12
921.253	0.12
921.985	-0.88
922.718	1.12
923.45	1.12
924.182	0.12
924.914	0.12
925.646	-1.88
926.378	-0.88
927.11	1.12
927.841	1.12
928.573	2.12
929.305	0.12
930.036	1.12
930.768	2.12
931.499	3.12
932.23	-0.88
932.962	1.12
933.693	1.12
934.424	0.12
935.155	1.12
935.886	2.12
936.617	0.12
937.348	1.12
938.078	0.12
938.809	-2.88
939.54	1.12
940.27	0.12
941.001	0.12
941.731	1.12
942.461	3.12
943.191	-1.88
943.922	1.12
944.652	0.12
945.382	-0.88
946.112	-1.88
946.841	1.12
947.571	1.12
948.301	-0.88
949.031	3.12
949.76	-0.88
950.49	-0.88
951.219	-0.88
951.948	0.12
952.678	2.12
953.407	-0.88
954.136	1.12
954.865	2.12
955.594	-2.88
956.323	2.12
957.052	-1.88
957.78	-1.88
958.509	0.12
959.238	2.12
959.966	0.12
960.695	1.12
961.423	1.12
962.151	-0.88
962.88	-0.88
963.608	1.12
964.336	1.12
965.064	0.12
965.792	0.12
966.52	3.12
967.247	-0.88
967.975	2.12
968.703	0.12
969.43	-0.88
970.158	-0.88
970.885	0.12
971.613	0.12
972.34	1.12
973.067	2.12
973.794	0.12
974.521	-0.88
975.248	2.12
975.975	1.12
976.702	2.12
977.429	-0.88
978.156	0.12
978.882	0.12
979.609	0.12
980.335	2.12
981.062	0.12
981.788	3.12
982.514	-1.88
983.24	-0.88
983.967	-0.88
984.693	-1.88
985.419	1.12
986.144	0.12
986.87	1.12
987.596	1.12
988.322	-0.88
989.047	-0.88
989.773	2.12
990.498	1.12
991.224	1.12
991.949	1.12
992.674	-0.88
993.399	-0.88
994.124	2.12
994.849	0.12
995.574	2.12
996.299	1.12
997.024	1.12
997.749	1.12
998.473	-1.88
999.198	1.12
999.922	-0.88
1000.647	-0.88
1001.371	4.12
1002.095	-2.88
1002.82	0.12
1003.544	0.12
1004.268	5.12
1004.992	3.12
1005.716	3.12
1006.439	5.12
1007.163	7.12
1007.887	5.12
1008.611	1.12
1009.334	2.12
1010.058	2.12
1010.781	0.12
1011.504	-0.88
1012.228	0.12
1012.951	-1.88
1013.674	0.12
1014.397	-1.88
1015.12	2.12
