节点500_705_QEPB04081__278__20-49-56-423.txt的数据

Date: Wed Nov 12 20:49:56 CST 2025
User: PC
Spectrometer: QEPB0408
触发模式: 0
积分时间 (秒): 1.000000E-2
Scans to average: 1
启用暗噪声校正: true
启用非线性校正: false
滑动平均宽度: 0
X轴模式: Wavelengths
Number of Pixels in Spectrum: 1044
>>>>>Begin Spectral Data<<<<<
220.843	6.25
221.644	2.25
222.444	9.25
223.244	7.25
224.045	6.25
224.845	8.25
225.645	6.25
226.445	7.25
227.245	6.25
228.045	8.25
228.845	6.25
229.645	6.25
230.444	9.25
231.244	7.25
232.043	9.25
232.843	4.25
233.642	11.25
234.442	11.25
235.241	8.25
236.04	12.25
236.839	10.25
237.638	10.25
238.437	10.25
239.236	12.25
240.035	11.25
240.833	10.25
241.632	13.25
242.43	13.25
243.229	14.25
244.027	12.25
244.826	13.25
245.624	17.25
246.422	15.25
247.22	17.25
248.018	15.25
248.816	15.25
249.614	15.25
250.412	15.25
251.21	18.25
252.007	19.25
252.805	18.25
253.602	16.25
254.4	19.25
255.197	19.25
255.994	19.25
256.791	23.25
257.589	23.25
258.386	21.25
259.183	21.25
259.979	20.25
260.776	21.25
261.573	25.25
262.37	26.25
263.166	26.25
263.963	26.25
264.759	26.25
265.556	27.25
266.352	27.25
267.148	29.25
267.944	27.25
268.74	27.25
269.536	27.25
270.332	31.25
271.128	31.25
271.924	34.25
272.719	34.25
273.515	34.25
274.311	32.25
275.106	31.25
275.901	34.25
276.697	34.25
277.492	36.25
278.287	37.25
279.082	34.25
279.877	35.25
280.672	36.25
281.467	37.25
282.262	35.25
283.056	34.25
283.851	36.25
284.646	36.25
285.44	34.25
286.234	34.25
287.029	31.25
287.823	38.25
288.617	36.25
289.411	32.25
290.205	35.25
290.999	31.25
291.793	35.25
292.587	30.25
293.381	31.25
294.174	28.25
294.968	30.25
295.761	29.25
296.555	29.25
297.348	23.25
298.141	29.25
298.935	29.25
299.728	29.25
300.521	27.25
301.314	26.25
302.107	26.25
302.899	25.25
303.692	24.25
304.485	24.25
305.277	20.25
306.07	22.25
306.862	25.25
307.655	22.25
308.447	21.25
309.239	21.25
310.031	22.25
310.823	19.25
311.615	17.25
312.407	17.25
313.199	16.25
313.991	18.25
314.783	17.25
315.574	16.25
316.366	18.25
317.157	16.25
317.949	17.25
318.74	12.25
319.531	16.25
320.322	16.25
321.113	15.25
321.904	14.25
322.695	14.25
323.486	13.25
324.277	13.25
325.068	11.25
325.858	13.25
326.649	13.25
327.439	14.25
328.23	14.25
329.02	11.25
329.81	12.25
330.6	11.25
331.391	14.25
332.181	13.25
332.971	15.25
333.76	12.25
334.55	13.25
335.34	13.25
336.13	10.25
336.919	14.25
337.709	13.25
338.498	13.25
339.287	12.25
340.077	12.25
340.866	13.25
341.655	10.25
342.444	12.25
343.233	13.25
344.022	11.25
344.811	11.25
345.6	9.25
346.388	15.25
347.177	11.25
347.965	11.25
348.754	15.25
349.542	10.25
350.33	10.25
351.119	11.25
351.907	13.25
352.695	11.25
353.483	10.25
354.271	10.25
355.059	9.25
355.846	12.25
356.634	10.25
357.422	11.25
358.209	10.25
358.997	8.25
359.784	12.25
360.571	11.25
361.359	10.25
362.146	10.25
362.933	9.25
363.72	10.25
364.507	9.25
365.294	11.25
366.081	9.25
366.867	11.25
367.654	10.25
368.44	8.25
369.227	7.25
370.013	11.25
370.8	10.25
371.586	9.25
372.372	9.25
373.158	11.25
373.944	11.25
374.73	10.25
375.516	9.25
376.302	11.25
377.088	10.25
377.873	11.25
378.659	11.25
379.445	10.25
380.23	8.25
381.015	9.25
381.801	9.25
382.586	10.25
383.371	10.25
384.156	10.25
384.941	9.25
385.726	11.25
386.511	12.25
387.296	9.25
388.08	10.25
388.865	11.25
389.649	12.25
390.434	10.25
391.218	12.25
392.003	11.25
392.787	11.25
393.571	13.25
394.355	12.25
395.139	12.25
395.923	14.25
396.707	14.25
397.491	13.25
398.274	13.25
399.058	15.25
399.842	13.25
400.625	15.25
401.408	14.25
402.192	17.25
402.975	15.25
403.758	14.25
404.541	16.25
405.324	13.25
406.107	15.25
406.89	17.25
407.673	15.25
408.456	17.25
409.238	13.25
410.021	17.25
410.803	15.25
411.586	18.25
412.368	20.25
413.151	18.25
413.933	17.25
414.715	19.25
415.497	19.25
416.279	18.25
417.061	18.25
417.843	21.25
418.624	18.25
419.406	20.25
420.188	23.25
420.969	20.25
421.751	19.25
422.532	20.25
423.313	22.25
424.095	21.25
424.876	23.25
425.657	26.25
426.438	25.25
427.219	28.25
428	27.25
428.78	27.25
429.561	26.25
430.342	34.25
431.122	31.25
431.903	29.25
432.683	35.25
433.464	35.25
434.244	36.25
435.024	38.25
435.804	39.25
436.584	43.25
437.364	44.25
438.144	49.25
438.924	50.25
439.704	52.25
440.483	56.25
441.263	62.25
442.042	67.25
442.822	71.25
443.601	75.25
444.38	79.25
445.16	90.25
445.939	92.25
446.718	102.25
447.497	106.25
448.276	120.25
449.054	135.25
449.833	142.25
450.612	155.25
451.391	173.25
452.169	198.25
452.948	215.25
453.726	233.25
454.504	265.25
455.282	294.25
456.061	325.25
456.839	364.25
457.617	407.25
458.395	447.25
459.172	501.25
459.95	559.25
460.728	625.25
461.506	708.25
462.283	785.25
463.061	879.25
463.838	973.25
464.615	1086.25
465.393	1203.25
466.17	1354.25
466.947	1491.25
467.724	1643.25
468.501	1859.25
469.278	2038.25
470.055	2250.25
470.831	2515.25
471.608	2748.25
472.385	3037.25
473.161	3344.25
473.938	3669.25
474.714	4057.25
475.49	4463.25
476.266	4879.25
477.043	5336.25
477.819	5820.25
478.595	6397.25
479.371	7021.25
480.146	7662.25
480.922	8372.25
481.698	9108.25
482.473	9910.25
483.249	10801.25
484.024	11741.25
484.8	12737.25
485.575	13794.25
486.35	15025.25
487.126	16244.25
487.901	17541.25
488.676	18939.25
489.451	20514.25
490.225	22074.25
491	23666.25
491.775	25347.25
492.55	27125.25
493.324	28851.25
494.099	30568.25
494.873	32447.25
495.647	34239.25
496.422	36138.25
497.196	37923.25
497.97	39540.25
498.744	40989.25
499.518	42659.25
500.292	44000.25
501.066	45141.25
501.839	45816.25
502.613	46585.25
503.387	47223.25
504.16	47608.25
504.934	47702.25
505.707	47598.25
506.48	47165.25
507.253	46606.25
508.027	45870.25
508.8	44849.25
509.573	43677.25
510.346	42666.25
511.118	41603.25
511.891	40224.25
512.664	38734.25
513.437	37264.25
514.209	35830.25
514.982	34489.25
515.754	32982.25
516.526	31685.25
517.298	30404.25
518.071	29140.25
518.843	28010.25
519.615	26861.25
520.387	25922.25
521.159	24867.25
521.93	23746.25
522.702	22742.25
523.474	21821.25
524.245	20906.25
525.017	19948.25
525.788	19072.25
526.56	18310.25
527.331	17453.25
528.102	16613.25
528.873	15720.25
529.644	15010.25
530.415	14248.25
531.186	13614.25
531.957	12861.25
532.728	12226.25
533.498	11565.25
534.269	10971.25
535.039	10303.25
535.81	9766.25
536.58	9272.25
537.351	8790.25
538.121	8369.25
538.891	7900.25
539.661	7425.25
540.431	7055.25
541.201	6682.25
541.971	6334.25
542.741	5988.25
543.51	5683.25
544.28	5397.25
545.05	5162.25
545.819	4914.25
546.588	4694.25
547.358	4461.25
548.127	4250.25
548.896	4024.25
549.665	3822.25
550.434	3619.25
551.203	3420.25
551.972	3239.25
552.741	3063.25
553.51	2902.25
554.278	2724.25
555.047	2590.25
555.815	2444.25
556.584	2312.25
557.352	2174.25
558.121	2067.25
558.889	1951.25
559.657	1840.25
560.425	1759.25
561.193	1650.25
561.961	1575.25
562.729	1482.25
563.496	1390.25
564.264	1301.25
565.032	1240.25
565.799	1177.25
566.567	1107.25
567.334	1051.25
568.101	1004.25
568.869	941.25
569.636	888.25
570.403	844.25
571.17	795.25
571.937	751.25
572.704	712.25
573.471	672.25
574.237	629.25
575.004	595.25
575.771	553.25
576.537	526.25
577.303	498.25
578.07	477.25
578.836	448.25
579.602	423.25
580.368	398.25
581.134	383.25
581.9	356.25
582.666	346.25
583.432	317.25
584.198	305.25
584.964	296.25
585.729	276.25
586.495	264.25
587.26	246.25
588.025	236.25
588.791	218.25
589.556	212.25
590.321	204.25
591.086	189.25
591.851	185.25
592.616	179.25
593.381	165.25
594.146	157.25
594.911	152.25
595.675	145.25
596.44	135.25
597.204	132.25
597.969	126.25
598.733	120.25
599.497	114.25
600.261	110.25
601.025	107.25
601.79	107.25
602.553	95.25
603.317	91.25
604.081	88.25
604.845	90.25
605.609	82.25
606.372	79.25
607.136	80.25
607.899	75.25
608.662	71.25
609.426	68.25
610.189	62.25
610.952	63.25
611.715	60.25
612.478	62.25
613.241	55.25
614.004	59.25
614.767	53.25
615.529	48.25
616.292	48.25
617.055	49.25
617.817	47.25
618.579	45.25
619.342	43.25
620.104	41.25
620.866	40.25
621.628	40.25
622.39	39.25
623.152	36.25
623.914	35.25
624.676	33.25
625.438	34.25
626.199	31.25
626.961	31.25
627.722	28.25
628.484	31.25
629.245	30.25
630.006	27.25
630.768	27.25
631.529	26.25
632.29	26.25
633.051	27.25
633.812	24.25
634.573	27.25
635.333	23.25
636.094	24.25
636.855	24.25
637.615	21.25
638.376	19.25
639.136	21.25
639.896	21.25
640.657	22.25
641.417	18.25
642.177	19.25
642.937	20.25
643.697	19.25
644.457	17.25
645.216	16.25
645.976	17.25
646.736	13.25
647.495	15.25
648.255	14.25
649.014	15.25
649.774	13.25
650.533	13.25
651.292	13.25
652.051	13.25
652.81	12.25
653.569	13.25
654.328	15.25
655.087	15.25
655.846	13.25
656.604	14.25
657.363	9.25
658.121	14.25
658.88	12.25
659.638	14.25
660.397	11.25
661.155	10.25
661.913	11.25
662.671	13.25
663.429	10.25
664.187	12.25
664.945	11.25
665.703	13.25
666.46	11.25
667.218	10.25
667.976	10.25
668.733	10.25
669.49	9.25
670.248	8.25
671.005	9.25
671.762	8.25
672.519	12.25
673.276	8.25
674.033	7.25
674.79	7.25
675.547	9.25
676.304	9.25
677.06	10.25
677.817	10.25
678.574	8.25
679.33	9.25
680.086	10.25
680.843	8.25
681.599	10.25
682.355	9.25
683.111	8.25
683.867	7.25
684.623	7.25
685.379	10.25
686.135	9.25
686.89	7.25
687.646	9.25
688.402	10.25
689.157	6.25
689.912	7.25
690.668	8.25
691.423	8.25
692.178	9.25
692.933	9.25
693.688	4.25
694.443	10.25
695.198	4.25
695.953	10.25
696.708	10.25
697.462	5.25
698.217	8.25
698.972	7.25
699.726	8.25
700.48	7.25
701.235	8.25
701.989	10.25
702.743	7.25
703.497	9.25
704.251	7.25
705.005	6.25
705.759	8.25
706.513	6.25
707.266	8.25
708.02	7.25
708.774	11.25
709.527	9.25
710.28	10.25
711.034	9.25
711.787	10.25
712.54	7.25
713.293	6.25
714.046	10.25
714.799	8.25
715.552	9.25
716.305	7.25
717.058	9.25
717.81	8.25
718.563	7.25
719.315	11.25
720.068	6.25
720.82	10.25
721.573	10.25
722.325	10.25
723.077	10.25
723.829	8.25
724.581	6.25
725.333	8.25
726.085	7.25
726.836	7.25
727.588	8.25
728.34	8.25
729.091	8.25
729.843	11.25
730.594	10.25
731.346	8.25
732.097	9.25
732.848	6.25
733.599	7.25
734.35	10.25
735.101	8.25
735.852	10.25
736.603	10.25
737.354	10.25
738.104	11.25
738.855	9.25
739.605	9.25
740.356	10.25
741.106	12.25
741.856	11.25
742.607	12.25
743.357	11.25
744.107	10.25
744.857	10.25
745.607	13.25
746.357	12.25
747.106	11.25
747.856	11.25
748.606	13.25
749.355	10.25
750.105	13.25
750.854	10.25
751.603	12.25
752.353	11.25
753.102	9.25
753.851	11.25
754.6	11.25
755.349	12.25
756.098	14.25
756.847	11.25
757.595	14.25
758.344	11.25
759.093	12.25
759.841	12.25
760.589	15.25
761.338	11.25
762.086	12.25
762.834	14.25
763.582	14.25
764.331	15.25
765.079	13.25
765.826	15.25
766.574	15.25
767.322	13.25
768.07	16.25
768.817	12.25
769.565	15.25
770.312	14.25
771.06	15.25
771.807	13.25
772.554	17.25
773.302	14.25
774.049	15.25
774.796	14.25
775.543	15.25
776.29	16.25
777.036	16.25
777.783	15.25
778.53	18.25
779.276	14.25
780.023	16.25
780.769	17.25
781.516	13.25
782.262	17.25
783.008	15.25
783.754	16.25
784.5	15.25
785.246	15.25
785.992	15.25
786.738	15.25
787.484	15.25
788.23	14.25
788.975	14.25
789.721	16.25
790.466	13.25
791.212	18.25
791.957	13.25
792.702	14.25
793.447	17.25
794.193	14.25
794.938	11.25
795.683	12.25
796.427	16.25
797.172	13.25
797.917	15.25
798.662	15.25
799.406	17.25
800.151	11.25
800.895	11.25
801.64	13.25
802.384	15.25
803.128	11.25
803.872	12.25
804.616	12.25
805.36	12.25
806.104	13.25
806.848	12.25
807.592	10.25
808.336	10.25
809.079	11.25
809.823	8.25
810.566	10.25
811.31	11.25
812.053	10.25
812.796	10.25
813.539	11.25
814.283	11.25
815.026	7.25
815.769	10.25
816.511	9.25
817.254	11.25
817.997	8.25
818.74	7.25
819.482	5.25
820.225	6.25
820.967	9.25
821.71	7.25
822.452	7.25
823.194	8.25
823.936	7.25
824.678	8.25
825.42	6.25
826.162	7.25
826.904	7.25
827.646	9.25
828.388	5.25
829.129	6.25
829.871	8.25
830.612	8.25
831.354	6.25
832.095	5.25
832.836	4.25
833.577	7.25
834.319	7.25
835.06	6.25
835.801	8.25
836.542	5.25
837.282	5.25
838.023	5.25
838.764	8.25
839.504	5.25
840.245	7.25
840.985	7.25
841.726	6.25
842.466	7.25
843.206	6.25
843.946	6.25
844.687	8.25
845.427	5.25
846.166	5.25
846.906	5.25
847.646	7.25
848.386	7.25
849.125	7.25
849.865	6.25
850.605	4.25
851.344	6.25
852.083	4.25
852.823	5.25
853.562	4.25
854.301	4.25
855.04	6.25
855.779	4.25
856.518	3.25
857.257	5.25
857.995	3.25
858.734	3.25
859.473	5.25
860.211	6.25
860.95	2.25
861.688	4.25
862.426	3.25
863.165	6.25
863.903	3.25
864.641	4.25
865.379	4.25
866.117	4.25
866.855	2.25
867.593	4.25
868.33	2.25
869.068	1.25
869.806	1.25
870.543	2.25
871.28	5.25
872.018	1.25
872.755	1.25
873.492	4.25
874.229	2.25
874.967	3.25
875.703	3.25
876.44	1.25
877.177	2.25
877.914	3.25
878.651	3.25
879.387	-0.75
880.124	5.25
880.86	2.25
881.597	1.25
882.333	2.25
883.069	2.25
883.806	1.25
884.542	1.25
885.278	3.25
886.014	2.25
886.749	3.25
887.485	1.25
888.221	-0.75
888.957	1.25
889.692	2.25
890.428	1.25
891.163	1.25
891.899	4.25
892.634	3.25
893.369	1.25
894.104	2.25
894.839	0.25
895.574	2.25
896.309	-0.75
897.044	3.25
897.779	-0.75
898.514	0.25
899.248	-0.75
899.983	1.25
900.717	1.25
901.452	2.25
902.186	3.25
902.92	3.25
903.654	1.25
904.389	1.25
905.123	0.25
905.857	-0.75
906.59	1.25
907.324	1.25
908.058	2.25
908.792	1.25
909.525	0.25
910.259	1.25
910.992	2.25
911.726	0.25
912.459	0.25
913.192	0.25
913.925	2.25
914.658	2.25
915.391	0.25
916.124	1.25
916.857	1.25
917.59	5.25
918.323	1.25
919.055	2.25
919.788	1.25
920.521	1.25
921.253	1.25
921.985	2.25
922.718	1.25
923.45	0.25
924.182	3.25
924.914	0.25
925.646	0.25
926.378	0.25
927.11	0.25
927.841	-0.75
928.573	0.25
929.305	0.25
930.036	-0.75
930.768	0.25
931.499	-1.75
932.23	0.25
932.962	2.25
933.693	0.25
934.424	1.25
935.155	-0.75
935.886	0.25
936.617	0.25
937.348	-1.75
938.078	0.25
938.809	2.25
939.54	1.25
940.27	-1.75
941.001	1.25
941.731	-2.75
942.461	4.25
943.191	2.25
943.922	0.25
944.652	-0.75
945.382	-0.75
946.112	0.25
946.841	-0.75
947.571	2.25
948.301	-0.75
949.031	0.25
949.76	2.25
950.49	0.25
951.219	1.25
951.948	-0.75
952.678	2.25
953.407	-0.75
954.136	0.25
954.865	0.25
955.594	1.25
956.323	-0.75
957.052	2.25
957.78	0.25
958.509	3.25
959.238	1.25
959.966	0.25
960.695	0.25
961.423	-0.75
962.151	-0.75
962.88	0.25
963.608	-0.75
964.336	-0.75
965.064	1.25
965.792	3.25
966.52	2.25
967.247	2.25
967.975	0.25
968.703	3.25
969.43	1.25
970.158	1.25
970.885	-0.75
971.613	-1.75
972.34	0.25
973.067	1.25
973.794	1.25
974.521	1.25
975.248	0.25
975.975	1.25
976.702	0.25
977.429	0.25
978.156	-0.75
978.882	0.25
979.609	-0.75
980.335	0.25
981.062	0.25
981.788	2.25
982.514	2.25
983.24	1.25
983.967	1.25
984.693	2.25
985.419	2.25
986.144	2.25
986.87	1.25
987.596	1.25
988.322	-1.75
989.047	0.25
989.773	0.25
990.498	-0.75
991.224	3.25
991.949	1.25
992.674	0.25
993.399	1.25
994.124	1.25
994.849	0.25
995.574	1.25
996.299	1.25
997.024	0.25
997.749	2.25
998.473	1.25
999.198	2.25
999.922	1.25
1000.647	-0.75
1001.371	4.25
1002.095	-0.75
1002.82	-1.75
1003.544	-0.75
1004.268	3.25
1004.992	4.25
1005.716	4.25
1006.439	6.25
1007.163	5.25
1007.887	7.25
1008.611	2.25
1009.334	3.25
1010.058	-1.75
1010.781	1.25
1011.504	4.25
1012.228	1.25
1012.951	-2.75
1013.674	1.25
1014.397	-0.75
1015.12	1.25
