节点500_705_QEPB04081__450__20-52-17-727.txt的数据

Date: Wed Nov 12 20:52:17 CST 2025
User: PC
Spectrometer: QEPB0408
触发模式: 0
积分时间 (秒): 1.000000E-2
Scans to average: 1
启用暗噪声校正: true
启用非线性校正: false
滑动平均宽度: 0
X轴模式: Wavelengths
Number of Pixels in Spectrum: 1044
>>>>>Begin Spectral Data<<<<<
220.843	2.62
221.644	3.62
222.444	3.62
223.244	6.62
224.045	4.62
224.845	3.62
225.645	6.62
226.445	6.62
227.245	7.62
228.045	6.62
228.845	5.62
229.645	7.62
230.444	9.62
231.244	6.62
232.043	9.62
232.843	7.62
233.642	10.62
234.442	9.62
235.241	8.62
236.04	9.62
236.839	9.62
237.638	10.62
238.437	10.62
239.236	10.62
240.035	10.62
240.833	11.62
241.632	10.62
242.43	9.62
243.229	12.62
244.027	11.62
244.826	17.62
245.624	12.62
246.422	12.62
247.22	13.62
248.018	13.62
248.816	10.62
249.614	14.62
250.412	15.62
251.21	16.62
252.007	16.62
252.805	15.62
253.602	13.62
254.4	16.62
255.197	17.62
255.994	17.62
256.791	17.62
257.589	17.62
258.386	19.62
259.183	19.62
259.979	19.62
260.776	22.62
261.573	22.62
262.37	18.62
263.166	25.62
263.963	22.62
264.759	28.62
265.556	25.62
266.352	23.62
267.148	26.62
267.944	26.62
268.74	26.62
269.536	27.62
270.332	27.62
271.128	25.62
271.924	26.62
272.719	32.62
273.515	30.62
274.311	31.62
275.106	32.62
275.901	28.62
276.697	29.62
277.492	32.62
278.287	34.62
279.082	32.62
279.877	33.62
280.672	30.62
281.467	32.62
282.262	31.62
283.056	33.62
283.851	36.62
284.646	32.62
285.44	33.62
286.234	32.62
287.029	35.62
287.823	36.62
288.617	33.62
289.411	32.62
290.205	33.62
290.999	30.62
291.793	36.62
292.587	28.62
293.381	30.62
294.174	30.62
294.968	26.62
295.761	29.62
296.555	25.62
297.348	24.62
298.141	26.62
298.935	28.62
299.728	24.62
300.521	23.62
301.314	26.62
302.107	26.62
302.899	25.62
303.692	22.62
304.485	20.62
305.277	22.62
306.07	20.62
306.862	19.62
307.655	23.62
308.447	20.62
309.239	18.62
310.031	19.62
310.823	19.62
311.615	18.62
312.407	18.62
313.199	18.62
313.991	15.62
314.783	14.62
315.574	14.62
316.366	14.62
317.157	13.62
317.949	16.62
318.74	14.62
319.531	14.62
320.322	16.62
321.113	12.62
321.904	14.62
322.695	12.62
323.486	10.62
324.277	14.62
325.068	14.62
325.858	14.62
326.649	12.62
327.439	15.62
328.23	11.62
329.02	12.62
329.81	12.62
330.6	11.62
331.391	14.62
332.181	10.62
332.971	12.62
333.76	10.62
334.55	10.62
335.34	10.62
336.13	11.62
336.919	12.62
337.709	12.62
338.498	11.62
339.287	13.62
340.077	10.62
340.866	11.62
341.655	10.62
342.444	10.62
343.233	11.62
344.022	10.62
344.811	12.62
345.6	11.62
346.388	12.62
347.177	10.62
347.965	13.62
348.754	12.62
349.542	10.62
350.33	13.62
351.119	9.62
351.907	8.62
352.695	9.62
353.483	6.62
354.271	9.62
355.059	9.62
355.846	10.62
356.634	11.62
357.422	9.62
358.209	9.62
358.997	8.62
359.784	10.62
360.571	10.62
361.359	10.62
362.146	10.62
362.933	9.62
363.72	10.62
364.507	9.62
365.294	9.62
366.081	9.62
366.867	10.62
367.654	9.62
368.44	10.62
369.227	11.62
370.013	8.62
370.8	10.62
371.586	9.62
372.372	10.62
373.158	12.62
373.944	7.62
374.73	9.62
375.516	10.62
376.302	11.62
377.088	9.62
377.873	8.62
378.659	7.62
379.445	7.62
380.23	9.62
381.015	5.62
381.801	9.62
382.586	11.62
383.371	8.62
384.156	10.62
384.941	10.62
385.726	11.62
386.511	9.62
387.296	6.62
388.08	10.62
388.865	8.62
389.649	11.62
390.434	11.62
391.218	9.62
392.003	11.62
392.787	10.62
393.571	12.62
394.355	11.62
395.139	11.62
395.923	10.62
396.707	12.62
397.491	14.62
398.274	10.62
399.058	11.62
399.842	13.62
400.625	12.62
401.408	12.62
402.192	12.62
402.975	12.62
403.758	10.62
404.541	16.62
405.324	14.62
406.107	16.62
406.89	13.62
407.673	12.62
408.456	16.62
409.238	16.62
410.021	13.62
410.803	14.62
411.586	16.62
412.368	18.62
413.151	16.62
413.933	17.62
414.715	13.62
415.497	20.62
416.279	17.62
417.061	15.62
417.843	20.62
418.624	17.62
419.406	17.62
420.188	22.62
420.969	21.62
421.751	19.62
422.532	21.62
423.313	22.62
424.095	20.62
424.876	24.62
425.657	23.62
426.438	21.62
427.219	26.62
428	28.62
428.78	26.62
429.561	27.62
430.342	28.62
431.122	31.62
431.903	31.62
432.683	33.62
433.464	36.62
434.244	35.62
435.024	38.62
435.804	41.62
436.584	41.62
437.364	45.62
438.144	47.62
438.924	47.62
439.704	52.62
440.483	58.62
441.263	58.62
442.042	63.62
442.822	68.62
443.601	76.62
444.38	79.62
445.16	88.62
445.939	95.62
446.718	103.62
447.497	110.62
448.276	122.62
449.054	136.62
449.833	152.62
450.612	164.62
451.391	186.62
452.169	202.62
452.948	223.62
453.726	249.62
454.504	274.62
455.282	310.62
456.061	346.62
456.839	379.62
457.617	424.62
458.395	473.62
459.172	525.62
459.95	590.62
460.728	648.62
461.506	734.62
462.283	816.62
463.061	911.62
463.838	1022.62
464.615	1111.62
465.393	1241.62
466.17	1380.62
466.947	1510.62
467.724	1681.62
468.501	1868.62
469.278	2046.62
470.055	2284.62
470.831	2505.62
471.608	2780.62
472.385	3036.62
473.161	3342.62
473.938	3642.62
474.714	4018.62
475.49	4389.62
476.266	4782.62
477.043	5230.62
477.819	5712.62
478.595	6203.62
479.371	6763.62
480.146	7353.62
480.922	8028.62
481.698	8718.62
482.473	9457.62
483.249	10300.62
484.024	11160.62
484.8	12066.62
485.575	13048.62
486.35	14114.62
487.126	15288.62
487.901	16432.62
488.676	17677.62
489.451	19065.62
490.225	20463.62
491	21942.62
491.775	23417.62
492.55	25022.62
493.324	26638.62
494.099	28251.62
494.873	29970.62
495.647	31676.62
496.422	33473.62
497.196	35017.62
497.97	36693.62
498.744	38184.62
499.518	39824.62
500.292	41120.62
501.066	42132.62
501.839	43090.62
502.613	44079.62
503.387	44716.62
504.16	45227.62
504.934	45541.62
505.707	45630.62
506.48	45427.62
507.253	45013.62
508.027	44557.62
508.8	43838.62
509.573	43022.62
510.346	42024.62
511.118	41173.62
511.891	39943.62
512.664	38595.62
513.437	37159.62
514.209	35927.62
514.982	34592.62
515.754	33271.62
516.526	31938.62
517.298	30652.62
518.071	29524.62
518.843	28424.62
519.615	27184.62
520.387	26111.62
521.159	25102.62
521.93	24096.62
522.702	23086.62
523.474	22130.62
524.245	21237.62
525.017	20311.62
525.788	19486.62
526.56	18638.62
527.331	17868.62
528.102	16976.62
528.873	16154.62
529.644	15387.62
530.415	14660.62
531.186	14023.62
531.957	13273.62
532.728	12640.62
533.498	11971.62
534.269	11321.62
535.039	10736.62
535.81	10183.62
536.58	9613.62
537.351	9115.62
538.121	8633.62
538.891	8184.62
539.661	7756.62
540.431	7322.62
541.201	6956.62
541.971	6593.62
542.741	6194.62
543.51	5906.62
544.28	5634.62
545.05	5353.62
545.819	5106.62
546.588	4887.62
547.358	4637.62
548.127	4404.62
548.896	4176.62
549.665	3962.62
550.434	3754.62
551.203	3562.62
551.972	3393.62
552.741	3209.62
553.51	3026.62
554.278	2851.62
555.047	2695.62
555.815	2568.62
556.584	2433.62
557.352	2288.62
558.121	2151.62
558.889	2038.62
559.657	1936.62
560.425	1844.62
561.193	1737.62
561.961	1636.62
562.729	1560.62
563.496	1465.62
564.264	1386.62
565.032	1315.62
565.799	1232.62
566.567	1163.62
567.334	1120.62
568.101	1059.62
568.869	982.62
569.636	924.62
570.403	883.62
571.17	832.62
571.937	783.62
572.704	736.62
573.471	711.62
574.237	665.62
575.004	631.62
575.771	585.62
576.537	557.62
577.303	529.62
578.07	488.62
578.836	464.62
579.602	447.62
580.368	424.62
581.134	404.62
581.9	371.62
582.666	375.62
583.432	345.62
584.198	333.62
584.964	310.62
585.729	294.62
586.495	273.62
587.26	260.62
588.025	250.62
588.791	230.62
589.556	225.62
590.321	216.62
591.086	197.62
591.851	191.62
592.616	182.62
593.381	172.62
594.146	159.62
594.911	161.62
595.675	154.62
596.44	145.62
597.204	137.62
597.969	128.62
598.733	123.62
599.497	118.62
600.261	117.62
601.025	112.62
601.79	107.62
602.553	96.62
603.317	97.62
604.081	91.62
604.845	89.62
605.609	87.62
606.372	80.62
607.136	79.62
607.899	75.62
608.662	74.62
609.426	67.62
610.189	64.62
610.952	66.62
611.715	66.62
612.478	60.62
613.241	60.62
614.004	57.62
614.767	53.62
615.529	50.62
616.292	49.62
617.055	45.62
617.817	46.62
618.579	47.62
619.342	44.62
620.104	41.62
620.866	39.62
621.628	43.62
622.39	38.62
623.152	39.62
623.914	36.62
624.676	34.62
625.438	36.62
626.199	31.62
626.961	33.62
627.722	30.62
628.484	30.62
629.245	30.62
630.006	29.62
630.768	27.62
631.529	26.62
632.29	27.62
633.051	24.62
633.812	25.62
634.573	23.62
635.333	26.62
636.094	23.62
636.855	21.62
637.615	21.62
638.376	21.62
639.136	22.62
639.896	21.62
640.657	17.62
641.417	20.62
642.177	18.62
642.937	15.62
643.697	18.62
644.457	14.62
645.216	16.62
645.976	15.62
646.736	17.62
647.495	14.62
648.255	14.62
649.014	14.62
649.774	12.62
650.533	15.62
651.292	12.62
652.051	13.62
652.81	14.62
653.569	11.62
654.328	13.62
655.087	13.62
655.846	13.62
656.604	10.62
657.363	13.62
658.121	11.62
658.88	12.62
659.638	10.62
660.397	9.62
661.155	11.62
661.913	10.62
662.671	11.62
663.429	12.62
664.187	11.62
664.945	13.62
665.703	12.62
666.46	7.62
667.218	10.62
667.976	10.62
668.733	11.62
669.49	7.62
670.248	8.62
671.005	8.62
671.762	10.62
672.519	9.62
673.276	6.62
674.033	8.62
674.79	8.62
675.547	10.62
676.304	7.62
677.06	7.62
677.817	9.62
678.574	8.62
679.33	8.62
680.086	10.62
680.843	8.62
681.599	10.62
682.355	5.62
683.111	7.62
683.867	10.62
684.623	8.62
685.379	7.62
686.135	7.62
686.89	8.62
687.646	7.62
688.402	7.62
689.157	6.62
689.912	7.62
690.668	5.62
691.423	8.62
692.178	8.62
692.933	5.62
693.688	9.62
694.443	6.62
695.198	6.62
695.953	7.62
696.708	6.62
697.462	6.62
698.217	6.62
698.972	6.62
699.726	8.62
700.48	6.62
701.235	8.62
701.989	7.62
702.743	6.62
703.497	6.62
704.251	5.62
705.005	8.62
705.759	9.62
706.513	7.62
707.266	8.62
708.02	6.62
708.774	7.62
709.527	7.62
710.28	8.62
711.034	6.62
711.787	6.62
712.54	7.62
713.293	8.62
714.046	10.62
714.799	6.62
715.552	8.62
716.305	6.62
717.058	7.62
717.81	7.62
718.563	6.62
719.315	9.62
720.068	9.62
720.82	4.62
721.573	8.62
722.325	7.62
723.077	3.62
723.829	9.62
724.581	7.62
725.333	9.62
726.085	9.62
726.836	6.62
727.588	7.62
728.34	9.62
729.091	5.62
729.843	7.62
730.594	9.62
731.346	9.62
732.097	11.62
732.848	8.62
733.599	9.62
734.35	6.62
735.101	7.62
735.852	8.62
736.603	8.62
737.354	10.62
738.104	7.62
738.855	10.62
739.605	8.62
740.356	11.62
741.106	8.62
741.856	9.62
742.607	9.62
743.357	8.62
744.107	9.62
744.857	8.62
745.607	10.62
746.357	7.62
747.106	7.62
747.856	9.62
748.606	10.62
749.355	7.62
750.105	10.62
750.854	11.62
751.603	11.62
752.353	8.62
753.102	9.62
753.851	11.62
754.6	10.62
755.349	7.62
756.098	9.62
756.847	11.62
757.595	11.62
758.344	9.62
759.093	9.62
759.841	6.62
760.589	10.62
761.338	12.62
762.086	12.62
762.834	9.62
763.582	12.62
764.331	15.62
765.079	12.62
765.826	11.62
766.574	12.62
767.322	14.62
768.07	10.62
768.817	11.62
769.565	13.62
770.312	12.62
771.06	14.62
771.807	14.62
772.554	17.62
773.302	15.62
774.049	14.62
774.796	14.62
775.543	14.62
776.29	14.62
777.036	14.62
777.783	12.62
778.53	12.62
779.276	14.62
780.023	14.62
780.769	14.62
781.516	14.62
782.262	12.62
783.008	15.62
783.754	14.62
784.5	14.62
785.246	15.62
785.992	16.62
786.738	16.62
787.484	14.62
788.23	15.62
788.975	16.62
789.721	14.62
790.466	13.62
791.212	14.62
791.957	14.62
792.702	13.62
793.447	13.62
794.193	15.62
794.938	12.62
795.683	10.62
796.427	11.62
797.172	14.62
797.917	11.62
798.662	12.62
799.406	12.62
800.151	11.62
800.895	12.62
801.64	12.62
802.384	10.62
803.128	12.62
803.872	11.62
804.616	12.62
805.36	12.62
806.104	12.62
806.848	7.62
807.592	9.62
808.336	9.62
809.079	8.62
809.823	8.62
810.566	9.62
811.31	10.62
812.053	9.62
812.796	9.62
813.539	7.62
814.283	10.62
815.026	9.62
815.769	8.62
816.511	7.62
817.254	9.62
817.997	7.62
818.74	7.62
819.482	7.62
820.225	6.62
820.967	6.62
821.71	5.62
822.452	7.62
823.194	6.62
823.936	6.62
824.678	8.62
825.42	5.62
826.162	7.62
826.904	5.62
827.646	5.62
828.388	5.62
829.129	6.62
829.871	4.62
830.612	6.62
831.354	4.62
832.095	3.62
832.836	5.62
833.577	5.62
834.319	6.62
835.06	6.62
835.801	6.62
836.542	5.62
837.282	6.62
838.023	4.62
838.764	7.62
839.504	6.62
840.245	4.62
840.985	5.62
841.726	4.62
842.466	3.62
843.206	4.62
843.946	6.62
844.687	2.62
845.427	4.62
846.166	6.62
846.906	5.62
847.646	6.62
848.386	4.62
849.125	6.62
849.865	4.62
850.605	6.62
851.344	6.62
852.083	5.62
852.823	4.62
853.562	4.62
854.301	5.62
855.04	5.62
855.779	3.62
856.518	4.62
857.257	2.62
857.995	4.62
858.734	4.62
859.473	5.62
860.211	5.62
860.95	2.62
861.688	3.62
862.426	2.62
863.165	2.62
863.903	1.62
864.641	2.62
865.379	2.62
866.117	2.62
866.855	0.62
867.593	4.62
868.33	2.62
869.068	1.62
869.806	2.62
870.543	-0.38
871.28	2.62
872.018	2.62
872.755	0.62
873.492	2.62
874.229	2.62
874.967	1.62
875.703	1.62
876.44	1.62
877.177	2.62
877.914	2.62
878.651	3.62
879.387	2.62
880.124	1.62
880.86	1.62
881.597	2.62
882.333	2.62
883.069	0.62
883.806	2.62
884.542	1.62
885.278	0.62
886.014	2.62
886.749	0.62
887.485	2.62
888.221	1.62
888.957	1.62
889.692	1.62
890.428	-0.38
891.163	2.62
891.899	0.62
892.634	-1.38
893.369	0.62
894.104	-0.38
894.839	1.62
895.574	0.62
896.309	2.62
897.044	0.62
897.779	0.62
898.514	1.62
899.248	0.62
899.983	3.62
900.717	0.62
901.452	1.62
902.186	-0.38
902.92	-1.38
903.654	-2.38
904.389	1.62
905.123	0.62
905.857	-1.38
906.59	1.62
907.324	-0.38
908.058	0.62
908.792	2.62
909.525	-1.38
910.259	-1.38
910.992	-1.38
911.726	2.62
912.459	2.62
913.192	0.62
913.925	0.62
914.658	0.62
915.391	0.62
916.124	0.62
916.857	0.62
917.59	1.62
918.323	0.62
919.055	0.62
919.788	0.62
920.521	0.62
921.253	0.62
921.985	0.62
922.718	1.62
923.45	-1.38
924.182	0.62
924.914	-0.38
925.646	0.62
926.378	-2.38
927.11	-0.38
927.841	0.62
928.573	-0.38
929.305	0.62
930.036	-0.38
930.768	-1.38
931.499	-0.38
932.23	0.62
932.962	-0.38
933.693	0.62
934.424	0.62
935.155	-0.38
935.886	-0.38
936.617	0.62
937.348	-0.38
938.078	1.62
938.809	-0.38
939.54	-1.38
940.27	1.62
941.001	0.62
941.731	0.62
942.461	-0.38
943.191	-1.38
943.922	0.62
944.652	0.62
945.382	0.62
946.112	0.62
946.841	-0.38
947.571	1.62
948.301	1.62
949.031	0.62
949.76	-0.38
950.49	1.62
951.219	-1.38
951.948	-0.38
952.678	0.62
953.407	0.62
954.136	2.62
954.865	-2.38
955.594	1.62
956.323	0.62
957.052	1.62
957.78	-0.38
958.509	-1.38
959.238	3.62
959.966	-0.38
960.695	0.62
961.423	0.62
962.151	-1.38
962.88	0.62
963.608	-0.38
964.336	1.62
965.064	-1.38
965.792	0.62
966.52	-0.38
967.247	0.62
967.975	0.62
968.703	-0.38
969.43	-0.38
970.158	0.62
970.885	0.62
971.613	0.62
972.34	-1.38
973.067	2.62
973.794	-1.38
974.521	-0.38
975.248	0.62
975.975	-1.38
976.702	2.62
977.429	0.62
978.156	1.62
978.882	0.62
979.609	2.62
980.335	1.62
981.062	-0.38
981.788	-1.38
982.514	1.62
983.24	-0.38
983.967	-0.38
984.693	0.62
985.419	-1.38
986.144	0.62
986.87	0.62
987.596	0.62
988.322	0.62
989.047	0.62
989.773	-1.38
990.498	1.62
991.224	-0.38
991.949	0.62
992.674	-1.38
993.399	1.62
994.124	0.62
994.849	-0.38
995.574	-0.38
996.299	-1.38
997.024	-0.38
997.749	1.62
998.473	1.62
999.198	0.62
999.922	-0.38
1000.647	-1.38
1001.371	2.62
1002.095	-1.38
1002.82	-1.38
1003.544	-1.38
1004.268	4.62
1004.992	5.62
1005.716	5.62
1006.439	4.62
1007.163	4.62
1007.887	2.62
1008.611	1.62
1009.334	0.62
1010.058	1.62
1010.781	-0.38
1011.504	-0.38
1012.228	-0.38
1012.951	1.62
1013.674	0.62
1014.397	-0.38
1015.12	-0.38
