节点500_705_QEPB04081__472__20-52-35-790.txt的数据

Date: Wed Nov 12 20:52:35 CST 2025
User: PC
Spectrometer: QEPB0408
触发模式: 0
积分时间 (秒): 1.000000E-2
Scans to average: 1
启用暗噪声校正: true
启用非线性校正: false
滑动平均宽度: 0
X轴模式: Wavelengths
Number of Pixels in Spectrum: 1044
>>>>>Begin Spectral Data<<<<<
220.843	3.88
221.644	4.88
222.444	6.88
223.244	5.88
224.045	6.88
224.845	5.88
225.645	6.88
226.445	6.88
227.245	7.88
228.045	7.88
228.845	8.88
229.645	6.88
230.444	5.88
231.244	7.88
232.043	10.88
232.843	7.88
233.642	10.88
234.442	9.88
235.241	9.88
236.04	7.88
236.839	10.88
237.638	10.88
238.437	7.88
239.236	10.88
240.035	7.88
240.833	13.88
241.632	9.88
242.43	11.88
243.229	10.88
244.027	10.88
244.826	13.88
245.624	13.88
246.422	10.88
247.22	13.88
248.018	13.88
248.816	13.88
249.614	15.88
250.412	13.88
251.21	15.88
252.007	15.88
252.805	15.88
253.602	13.88
254.4	18.88
255.197	17.88
255.994	15.88
256.791	18.88
257.589	16.88
258.386	18.88
259.183	14.88
259.979	22.88
260.776	20.88
261.573	20.88
262.37	20.88
263.166	22.88
263.963	22.88
264.759	20.88
265.556	24.88
266.352	25.88
267.148	25.88
267.944	25.88
268.74	26.88
269.536	26.88
270.332	29.88
271.128	30.88
271.924	28.88
272.719	28.88
273.515	30.88
274.311	28.88
275.106	30.88
275.901	31.88
276.697	30.88
277.492	32.88
278.287	30.88
279.082	32.88
279.877	34.88
280.672	34.88
281.467	34.88
282.262	32.88
283.056	34.88
283.851	30.88
284.646	31.88
285.44	30.88
286.234	33.88
287.029	32.88
287.823	33.88
288.617	32.88
289.411	30.88
290.205	31.88
290.999	27.88
291.793	28.88
292.587	29.88
293.381	30.88
294.174	31.88
294.968	30.88
295.761	31.88
296.555	25.88
297.348	27.88
298.141	26.88
298.935	30.88
299.728	25.88
300.521	23.88
301.314	23.88
302.107	23.88
302.899	22.88
303.692	17.88
304.485	21.88
305.277	19.88
306.07	22.88
306.862	21.88
307.655	18.88
308.447	21.88
309.239	20.88
310.031	18.88
310.823	22.88
311.615	18.88
312.407	16.88
313.199	19.88
313.991	16.88
314.783	17.88
315.574	14.88
316.366	14.88
317.157	15.88
317.949	14.88
318.74	14.88
319.531	14.88
320.322	14.88
321.113	13.88
321.904	17.88
322.695	12.88
323.486	14.88
324.277	13.88
325.068	13.88
325.858	13.88
326.649	10.88
327.439	10.88
328.23	12.88
329.02	10.88
329.81	14.88
330.6	11.88
331.391	12.88
332.181	10.88
332.971	11.88
333.76	10.88
334.55	13.88
335.34	8.88
336.13	13.88
336.919	14.88
337.709	12.88
338.498	13.88
339.287	13.88
340.077	11.88
340.866	12.88
341.655	11.88
342.444	12.88
343.233	10.88
344.022	12.88
344.811	9.88
345.6	8.88
346.388	11.88
347.177	12.88
347.965	10.88
348.754	12.88
349.542	12.88
350.33	12.88
351.119	10.88
351.907	8.88
352.695	10.88
353.483	9.88
354.271	10.88
355.059	10.88
355.846	9.88
356.634	10.88
357.422	9.88
358.209	8.88
358.997	9.88
359.784	9.88
360.571	11.88
361.359	9.88
362.146	12.88
362.933	8.88
363.72	9.88
364.507	8.88
365.294	9.88
366.081	9.88
366.867	10.88
367.654	9.88
368.44	7.88
369.227	11.88
370.013	10.88
370.8	10.88
371.586	9.88
372.372	7.88
373.158	8.88
373.944	8.88
374.73	8.88
375.516	9.88
376.302	8.88
377.088	10.88
377.873	9.88
378.659	11.88
379.445	9.88
380.23	9.88
381.015	11.88
381.801	9.88
382.586	11.88
383.371	8.88
384.156	9.88
384.941	10.88
385.726	9.88
386.511	11.88
387.296	7.88
388.08	13.88
388.865	12.88
389.649	11.88
390.434	10.88
391.218	9.88
392.003	10.88
392.787	12.88
393.571	10.88
394.355	11.88
395.139	9.88
395.923	10.88
396.707	12.88
397.491	12.88
398.274	11.88
399.058	13.88
399.842	12.88
400.625	12.88
401.408	12.88
402.192	12.88
402.975	13.88
403.758	12.88
404.541	15.88
405.324	15.88
406.107	14.88
406.89	15.88
407.673	13.88
408.456	15.88
409.238	14.88
410.021	14.88
410.803	14.88
411.586	17.88
412.368	19.88
413.151	14.88
413.933	20.88
414.715	16.88
415.497	18.88
416.279	16.88
417.061	18.88
417.843	19.88
418.624	18.88
419.406	19.88
420.188	19.88
420.969	17.88
421.751	22.88
422.532	23.88
423.313	24.88
424.095	21.88
424.876	23.88
425.657	22.88
426.438	25.88
427.219	23.88
428	27.88
428.78	29.88
429.561	29.88
430.342	31.88
431.122	32.88
431.903	32.88
432.683	33.88
433.464	33.88
434.244	39.88
435.024	40.88
435.804	38.88
436.584	44.88
437.364	46.88
438.144	48.88
438.924	49.88
439.704	54.88
440.483	57.88
441.263	58.88
442.042	61.88
442.822	67.88
443.601	77.88
444.38	82.88
445.16	89.88
445.939	97.88
446.718	107.88
447.497	118.88
448.276	118.88
449.054	132.88
449.833	156.88
450.612	168.88
451.391	183.88
452.169	201.88
452.948	231.88
453.726	250.88
454.504	279.88
455.282	319.88
456.061	350.88
456.839	384.88
457.617	424.88
458.395	471.88
459.172	540.88
459.95	592.88
460.728	655.88
461.506	726.88
462.283	804.88
463.061	908.88
463.838	1011.88
464.615	1122.88
465.393	1257.88
466.17	1365.88
466.947	1521.88
467.724	1689.88
468.501	1869.88
469.278	2057.88
470.055	2276.88
470.831	2512.88
471.608	2756.88
472.385	3028.88
473.161	3320.88
473.938	3654.88
474.714	3971.88
475.49	4393.88
476.266	4791.88
477.043	5228.88
477.819	5697.88
478.595	6216.88
479.371	6741.88
480.146	7335.88
480.922	8021.88
481.698	8657.88
482.473	9409.88
483.249	10239.88
484.024	11084.88
484.8	11994.88
485.575	12937.88
486.35	13954.88
487.126	15118.88
487.901	16342.88
488.676	17558.88
489.451	18884.88
490.225	20304.88
491	21800.88
491.775	23230.88
492.55	24844.88
493.324	26487.88
494.099	28034.88
494.873	29755.88
495.647	31414.88
496.422	33130.88
497.196	34743.88
497.97	36389.88
498.744	37874.88
499.518	39413.88
500.292	40818.88
501.066	41931.88
501.839	42791.88
502.613	43685.88
503.387	44487.88
504.16	44917.88
504.934	45354.88
505.707	45414.88
506.48	45155.88
507.253	44935.88
508.027	44375.88
508.8	43696.88
509.573	42858.88
510.346	41889.88
511.118	41052.88
511.891	39915.88
512.664	38615.88
513.437	37251.88
514.209	35975.88
514.982	34550.88
515.754	33244.88
516.526	32050.88
517.298	30714.88
518.071	29536.88
518.843	28387.88
519.615	27218.88
520.387	26212.88
521.159	25185.88
521.93	24069.88
522.702	23139.88
523.474	22174.88
524.245	21237.88
525.017	20347.88
525.788	19524.88
526.56	18669.88
527.331	17959.88
528.102	16946.88
528.873	16138.88
529.644	15415.88
530.415	14721.88
531.186	14038.88
531.957	13324.88
532.728	12650.88
533.498	11987.88
534.269	11378.88
535.039	10780.88
535.81	10243.88
536.58	9668.88
537.351	9145.88
538.121	8687.88
538.891	8224.88
539.661	7719.88
540.431	7334.88
541.201	6980.88
541.971	6627.88
542.741	6239.88
543.51	5932.88
544.28	5667.88
545.05	5358.88
545.819	5136.88
546.588	4897.88
547.358	4673.88
548.127	4413.88
548.896	4189.88
549.665	4005.88
550.434	3793.88
551.203	3596.88
551.972	3399.88
552.741	3237.88
553.51	3052.88
554.278	2872.88
555.047	2699.88
555.815	2562.88
556.584	2427.88
557.352	2288.88
558.121	2170.88
558.889	2051.88
559.657	1942.88
560.425	1836.88
561.193	1740.88
561.961	1657.88
562.729	1572.88
563.496	1474.88
564.264	1378.88
565.032	1317.88
565.799	1248.88
566.567	1177.88
567.334	1112.88
568.101	1052.88
568.869	990.88
569.636	932.88
570.403	882.88
571.17	844.88
571.937	783.88
572.704	744.88
573.471	700.88
574.237	658.88
575.004	626.88
575.771	584.88
576.537	560.88
577.303	520.88
578.07	507.88
578.836	476.88
579.602	453.88
580.368	418.88
581.134	391.88
581.9	388.88
582.666	370.88
583.432	346.88
584.198	330.88
584.964	307.88
585.729	302.88
586.495	284.88
587.26	269.88
588.025	248.88
588.791	236.88
589.556	222.88
590.321	215.88
591.086	201.88
591.851	191.88
592.616	185.88
593.381	174.88
594.146	168.88
594.911	159.88
595.675	154.88
596.44	144.88
597.204	140.88
597.969	136.88
598.733	129.88
599.497	118.88
600.261	116.88
601.025	111.88
601.79	106.88
602.553	100.88
603.317	95.88
604.081	93.88
604.845	91.88
605.609	91.88
606.372	81.88
607.136	79.88
607.899	80.88
608.662	72.88
609.426	71.88
610.189	71.88
610.952	67.88
611.715	66.88
612.478	65.88
613.241	57.88
614.004	55.88
614.767	56.88
615.529	49.88
616.292	51.88
617.055	48.88
617.817	47.88
618.579	47.88
619.342	43.88
620.104	43.88
620.866	40.88
621.628	42.88
622.39	38.88
623.152	37.88
623.914	35.88
624.676	34.88
625.438	33.88
626.199	35.88
626.961	31.88
627.722	30.88
628.484	30.88
629.245	29.88
630.006	27.88
630.768	27.88
631.529	24.88
632.29	26.88
633.051	26.88
633.812	24.88
634.573	22.88
635.333	23.88
636.094	22.88
636.855	22.88
637.615	19.88
638.376	19.88
639.136	18.88
639.896	21.88
640.657	20.88
641.417	18.88
642.177	19.88
642.937	17.88
643.697	14.88
644.457	15.88
645.216	17.88
645.976	16.88
646.736	12.88
647.495	14.88
648.255	13.88
649.014	15.88
649.774	12.88
650.533	14.88
651.292	13.88
652.051	11.88
652.81	14.88
653.569	12.88
654.328	13.88
655.087	12.88
655.846	11.88
656.604	10.88
657.363	10.88
658.121	9.88
658.88	10.88
659.638	11.88
660.397	10.88
661.155	9.88
661.913	12.88
662.671	8.88
663.429	11.88
664.187	9.88
664.945	8.88
665.703	9.88
666.46	10.88
667.218	7.88
667.976	10.88
668.733	10.88
669.49	10.88
670.248	10.88
671.005	7.88
671.762	9.88
672.519	10.88
673.276	8.88
674.033	8.88
674.79	10.88
675.547	8.88
676.304	9.88
677.06	6.88
677.817	8.88
678.574	9.88
679.33	9.88
680.086	7.88
680.843	9.88
681.599	8.88
682.355	7.88
683.111	8.88
683.867	8.88
684.623	9.88
685.379	7.88
686.135	8.88
686.89	9.88
687.646	6.88
688.402	10.88
689.157	6.88
689.912	4.88
690.668	9.88
691.423	6.88
692.178	5.88
692.933	6.88
693.688	6.88
694.443	6.88
695.198	7.88
695.953	9.88
696.708	9.88
697.462	7.88
698.217	7.88
698.972	4.88
699.726	9.88
700.48	7.88
701.235	7.88
701.989	7.88
702.743	7.88
703.497	6.88
704.251	5.88
705.005	9.88
705.759	8.88
706.513	8.88
707.266	6.88
708.02	4.88
708.774	8.88
709.527	7.88
710.28	9.88
711.034	7.88
711.787	9.88
712.54	7.88
713.293	6.88
714.046	6.88
714.799	5.88
715.552	7.88
716.305	8.88
717.058	6.88
717.81	6.88
718.563	5.88
719.315	7.88
720.068	7.88
720.82	7.88
721.573	7.88
722.325	7.88
723.077	7.88
723.829	9.88
724.581	9.88
725.333	8.88
726.085	8.88
726.836	7.88
727.588	7.88
728.34	10.88
729.091	6.88
729.843	7.88
730.594	10.88
731.346	8.88
732.097	7.88
732.848	7.88
733.599	12.88
734.35	8.88
735.101	8.88
735.852	7.88
736.603	7.88
737.354	8.88
738.104	8.88
738.855	9.88
739.605	8.88
740.356	10.88
741.106	8.88
741.856	11.88
742.607	11.88
743.357	10.88
744.107	8.88
744.857	10.88
745.607	7.88
746.357	9.88
747.106	9.88
747.856	8.88
748.606	8.88
749.355	9.88
750.105	9.88
750.854	8.88
751.603	12.88
752.353	10.88
753.102	8.88
753.851	9.88
754.6	8.88
755.349	12.88
756.098	10.88
756.847	11.88
757.595	12.88
758.344	11.88
759.093	10.88
759.841	9.88
760.589	12.88
761.338	11.88
762.086	12.88
762.834	11.88
763.582	14.88
764.331	13.88
765.079	10.88
765.826	11.88
766.574	12.88
767.322	11.88
768.07	13.88
768.817	13.88
769.565	13.88
770.312	14.88
771.06	14.88
771.807	13.88
772.554	11.88
773.302	16.88
774.049	13.88
774.796	13.88
775.543	14.88
776.29	13.88
777.036	14.88
777.783	14.88
778.53	16.88
779.276	13.88
780.023	13.88
780.769	14.88
781.516	12.88
782.262	13.88
783.008	17.88
783.754	14.88
784.5	15.88
785.246	11.88
785.992	14.88
786.738	16.88
787.484	13.88
788.23	14.88
788.975	12.88
789.721	14.88
790.466	15.88
791.212	12.88
791.957	13.88
792.702	14.88
793.447	14.88
794.193	15.88
794.938	12.88
795.683	14.88
796.427	12.88
797.172	11.88
797.917	12.88
798.662	12.88
799.406	12.88
800.151	13.88
800.895	11.88
801.64	12.88
802.384	11.88
803.128	10.88
803.872	10.88
804.616	9.88
805.36	9.88
806.104	8.88
806.848	10.88
807.592	10.88
808.336	10.88
809.079	11.88
809.823	8.88
810.566	9.88
811.31	8.88
812.053	9.88
812.796	12.88
813.539	8.88
814.283	6.88
815.026	10.88
815.769	7.88
816.511	5.88
817.254	7.88
817.997	5.88
818.74	8.88
819.482	10.88
820.225	5.88
820.967	6.88
821.71	6.88
822.452	6.88
823.194	10.88
823.936	7.88
824.678	7.88
825.42	7.88
826.162	6.88
826.904	6.88
827.646	8.88
828.388	8.88
829.129	4.88
829.871	7.88
830.612	6.88
831.354	4.88
832.095	6.88
832.836	3.88
833.577	6.88
834.319	5.88
835.06	8.88
835.801	5.88
836.542	7.88
837.282	6.88
838.023	5.88
838.764	4.88
839.504	6.88
840.245	5.88
840.985	7.88
841.726	3.88
842.466	4.88
843.206	4.88
843.946	6.88
844.687	5.88
845.427	3.88
846.166	5.88
846.906	3.88
847.646	7.88
848.386	2.88
849.125	6.88
849.865	5.88
850.605	4.88
851.344	0.88
852.083	3.88
852.823	4.88
853.562	5.88
854.301	3.88
855.04	4.88
855.779	3.88
856.518	5.88
857.257	2.88
857.995	5.88
858.734	4.88
859.473	5.88
860.211	3.88
860.95	2.88
861.688	3.88
862.426	2.88
863.165	1.88
863.903	2.88
864.641	3.88
865.379	2.88
866.117	2.88
866.855	3.88
867.593	2.88
868.33	4.88
869.068	5.88
869.806	2.88
870.543	3.88
871.28	0.88
872.018	2.88
872.755	4.88
873.492	1.88
874.229	5.88
874.967	0.88
875.703	3.88
876.44	1.88
877.177	3.88
877.914	2.88
878.651	0.88
879.387	1.88
880.124	-0.12
880.86	1.88
881.597	1.88
882.333	1.88
883.069	2.88
883.806	1.88
884.542	1.88
885.278	0.88
886.014	1.88
886.749	1.88
887.485	2.88
888.221	1.88
888.957	1.88
889.692	0.88
890.428	2.88
891.163	0.88
891.899	2.88
892.634	0.88
893.369	2.88
894.104	0.88
894.839	2.88
895.574	1.88
896.309	3.88
897.044	0.88
897.779	-0.12
898.514	2.88
899.248	0.88
899.983	0.88
900.717	1.88
901.452	-1.12
902.186	0.88
902.92	-1.12
903.654	2.88
904.389	0.88
905.123	0.88
905.857	0.88
906.59	0.88
907.324	0.88
908.058	0.88
908.792	1.88
909.525	1.88
910.259	1.88
910.992	2.88
911.726	-2.12
912.459	3.88
913.192	0.88
913.925	1.88
914.658	1.88
915.391	1.88
916.124	1.88
916.857	-1.12
917.59	0.88
918.323	0.88
919.055	0.88
919.788	0.88
920.521	0.88
921.253	0.88
921.985	-0.12
922.718	-0.12
923.45	0.88
924.182	-1.12
924.914	-1.12
925.646	-1.12
926.378	0.88
927.11	1.88
927.841	1.88
928.573	1.88
929.305	-0.12
930.036	0.88
930.768	0.88
931.499	1.88
932.23	1.88
932.962	-1.12
933.693	-0.12
934.424	-0.12
935.155	-0.12
935.886	-1.12
936.617	1.88
937.348	2.88
938.078	-1.12
938.809	-0.12
939.54	-0.12
940.27	-1.12
941.001	0.88
941.731	0.88
942.461	0.88
943.191	1.88
943.922	1.88
944.652	-1.12
945.382	0.88
946.112	0.88
946.841	0.88
947.571	-1.12
948.301	-2.12
949.031	0.88
949.76	0.88
950.49	-0.12
951.219	-1.12
951.948	-1.12
952.678	0.88
953.407	-1.12
954.136	0.88
954.865	-1.12
955.594	-0.12
956.323	2.88
957.052	-0.12
957.78	-0.12
958.509	0.88
959.238	0.88
959.966	0.88
960.695	2.88
961.423	-0.12
962.151	-0.12
962.88	0.88
963.608	-0.12
964.336	-1.12
965.064	1.88
965.792	0.88
966.52	1.88
967.247	-0.12
967.975	1.88
968.703	0.88
969.43	0.88
970.158	1.88
970.885	-0.12
971.613	0.88
972.34	0.88
973.067	-1.12
973.794	-1.12
974.521	-1.12
975.248	-2.12
975.975	-2.12
976.702	-0.12
977.429	-1.12
978.156	-1.12
978.882	0.88
979.609	-2.12
980.335	0.88
981.062	-0.12
981.788	0.88
982.514	0.88
983.24	0.88
983.967	0.88
984.693	-2.12
985.419	0.88
986.144	0.88
986.87	-0.12
987.596	-1.12
988.322	0.88
989.047	-1.12
989.773	0.88
990.498	-1.12
991.224	0.88
991.949	-0.12
992.674	1.88
993.399	-0.12
994.124	-0.12
994.849	1.88
995.574	0.88
996.299	-1.12
997.024	-0.12
997.749	-0.12
998.473	-0.12
999.198	1.88
999.922	2.88
1000.647	-0.12
1001.371	2.88
1002.095	-1.12
1002.82	-0.12
1003.544	-2.12
1004.268	4.88
1004.992	4.88
1005.716	4.88
1006.439	4.88
1007.163	4.88
1007.887	6.88
1008.611	1.88
1009.334	-0.12
1010.058	0.88
1010.781	-0.12
1011.504	-1.12
1012.228	-1.12
1012.951	0.88
1013.674	1.88
1014.397	-1.12
1015.12	-1.12
