节点500_705_QEPB04081__560__20-53-53-747.txt的数据

Date: Wed Nov 12 20:53:53 CST 2025
User: PC
Spectrometer: QEPB0408
触发模式: 0
积分时间 (秒): 1.000000E-2
Scans to average: 1
启用暗噪声校正: true
启用非线性校正: false
滑动平均宽度: 0
X轴模式: Wavelengths
Number of Pixels in Spectrum: 1044
>>>>>Begin Spectral Data<<<<<
220.843	4.5
221.644	5.5
222.444	5.5
223.244	6.5
224.045	5.5
224.845	8.5
225.645	7.5
226.445	8.5
227.245	9.5
228.045	5.5
228.845	7.5
229.645	8.5
230.444	8.5
231.244	9.5
232.043	7.5
232.843	10.5
233.642	7.5
234.442	8.5
235.241	12.5
236.04	8.5
236.839	10.5
237.638	13.5
238.437	12.5
239.236	12.5
240.035	8.5
240.833	13.5
241.632	11.5
242.43	10.5
243.229	12.5
244.027	12.5
244.826	11.5
245.624	10.5
246.422	17.5
247.22	12.5
248.018	13.5
248.816	13.5
249.614	16.5
250.412	16.5
251.21	15.5
252.007	14.5
252.805	15.5
253.602	17.5
254.4	15.5
255.197	17.5
255.994	20.5
256.791	15.5
257.589	18.5
258.386	18.5
259.183	21.5
259.979	21.5
260.776	20.5
261.573	21.5
262.37	21.5
263.166	19.5
263.963	22.5
264.759	25.5
265.556	23.5
266.352	24.5
267.148	24.5
267.944	24.5
268.74	26.5
269.536	29.5
270.332	28.5
271.128	28.5
271.924	27.5
272.719	28.5
273.515	30.5
274.311	30.5
275.106	30.5
275.901	28.5
276.697	29.5
277.492	30.5
278.287	30.5
279.082	31.5
279.877	31.5
280.672	32.5
281.467	33.5
282.262	34.5
283.056	32.5
283.851	31.5
284.646	31.5
285.44	29.5
286.234	35.5
287.029	30.5
287.823	31.5
288.617	33.5
289.411	30.5
290.205	28.5
290.999	30.5
291.793	33.5
292.587	29.5
293.381	31.5
294.174	27.5
294.968	27.5
295.761	24.5
296.555	27.5
297.348	28.5
298.141	25.5
298.935	27.5
299.728	27.5
300.521	26.5
301.314	27.5
302.107	26.5
302.899	26.5
303.692	20.5
304.485	22.5
305.277	21.5
306.07	23.5
306.862	22.5
307.655	22.5
308.447	21.5
309.239	21.5
310.031	21.5
310.823	19.5
311.615	17.5
312.407	20.5
313.199	18.5
313.991	18.5
314.783	17.5
315.574	14.5
316.366	16.5
317.157	13.5
317.949	15.5
318.74	13.5
319.531	14.5
320.322	13.5
321.113	11.5
321.904	14.5
322.695	15.5
323.486	13.5
324.277	14.5
325.068	12.5
325.858	12.5
326.649	12.5
327.439	13.5
328.23	12.5
329.02	14.5
329.81	12.5
330.6	12.5
331.391	11.5
332.181	12.5
332.971	15.5
333.76	11.5
334.55	8.5
335.34	10.5
336.13	11.5
336.919	11.5
337.709	11.5
338.498	11.5
339.287	12.5
340.077	13.5
340.866	11.5
341.655	9.5
342.444	13.5
343.233	11.5
344.022	10.5
344.811	12.5
345.6	11.5
346.388	13.5
347.177	11.5
347.965	10.5
348.754	12.5
349.542	14.5
350.33	11.5
351.119	8.5
351.907	11.5
352.695	10.5
353.483	10.5
354.271	10.5
355.059	9.5
355.846	10.5
356.634	10.5
357.422	14.5
358.209	8.5
358.997	6.5
359.784	11.5
360.571	9.5
361.359	13.5
362.146	9.5
362.933	11.5
363.72	9.5
364.507	10.5
365.294	11.5
366.081	8.5
366.867	10.5
367.654	8.5
368.44	9.5
369.227	9.5
370.013	10.5
370.8	9.5
371.586	9.5
372.372	9.5
373.158	8.5
373.944	6.5
374.73	11.5
375.516	10.5
376.302	11.5
377.088	9.5
377.873	9.5
378.659	10.5
379.445	10.5
380.23	10.5
381.015	7.5
381.801	11.5
382.586	10.5
383.371	9.5
384.156	10.5
384.941	8.5
385.726	8.5
386.511	11.5
387.296	11.5
388.08	11.5
388.865	9.5
389.649	11.5
390.434	8.5
391.218	11.5
392.003	11.5
392.787	9.5
393.571	13.5
394.355	9.5
395.139	12.5
395.923	10.5
396.707	14.5
397.491	10.5
398.274	12.5
399.058	13.5
399.842	9.5
400.625	13.5
401.408	12.5
402.192	10.5
402.975	15.5
403.758	14.5
404.541	11.5
405.324	14.5
406.107	14.5
406.89	14.5
407.673	15.5
408.456	15.5
409.238	13.5
410.021	18.5
410.803	15.5
411.586	15.5
412.368	17.5
413.151	16.5
413.933	17.5
414.715	18.5
415.497	17.5
416.279	18.5
417.061	20.5
417.843	18.5
418.624	15.5
419.406	20.5
420.188	18.5
420.969	19.5
421.751	24.5
422.532	20.5
423.313	23.5
424.095	22.5
424.876	22.5
425.657	26.5
426.438	25.5
427.219	25.5
428	21.5
428.78	26.5
429.561	28.5
430.342	31.5
431.122	32.5
431.903	31.5
432.683	35.5
433.464	35.5
434.244	38.5
435.024	37.5
435.804	38.5
436.584	39.5
437.364	48.5
438.144	50.5
438.924	48.5
439.704	56.5
440.483	59.5
441.263	61.5
442.042	63.5
442.822	66.5
443.601	82.5
444.38	83.5
445.16	87.5
445.939	101.5
446.718	114.5
447.497	120.5
448.276	126.5
449.054	143.5
449.833	161.5
450.612	174.5
451.391	190.5
452.169	215.5
452.948	232.5
453.726	258.5
454.504	287.5
455.282	315.5
456.061	347.5
456.839	391.5
457.617	436.5
458.395	485.5
459.172	537.5
459.95	597.5
460.728	666.5
461.506	733.5
462.283	824.5
463.061	920.5
463.838	1032.5
464.615	1130.5
465.393	1252.5
466.17	1387.5
466.947	1546.5
467.724	1702.5
468.501	1884.5
469.278	2074.5
470.055	2266.5
470.831	2514.5
471.608	2766.5
472.385	3016.5
473.161	3342.5
473.938	3636.5
474.714	3976.5
475.49	4346.5
476.266	4712.5
477.043	5155.5
477.819	5596.5
478.595	6092.5
479.371	6655.5
480.146	7181.5
480.922	7800.5
481.698	8486.5
482.473	9179.5
483.249	9933.5
484.024	10735.5
484.8	11576.5
485.575	12522.5
486.35	13574.5
487.126	14593.5
487.901	15703.5
488.676	16869.5
489.451	18143.5
490.225	19516.5
491	20883.5
491.775	22279.5
492.55	23704.5
493.324	25277.5
494.099	26848.5
494.873	28482.5
495.647	30051.5
496.422	31645.5
497.196	33293.5
497.97	34904.5
498.744	36283.5
499.518	37844.5
500.292	39162.5
501.066	40237.5
501.839	41283.5
502.613	42232.5
503.387	42997.5
504.16	43559.5
504.934	43953.5
505.707	44164.5
506.48	44074.5
507.253	43821.5
508.027	43465.5
508.8	42873.5
509.573	42208.5
510.346	41377.5
511.118	40608.5
511.891	39562.5
512.664	38246.5
513.437	37048.5
514.209	35845.5
514.982	34506.5
515.754	33206.5
516.526	32025.5
517.298	30689.5
518.071	29575.5
518.843	28483.5
519.615	27302.5
520.387	26244.5
521.159	25182.5
521.93	24247.5
522.702	23133.5
523.474	22217.5
524.245	21323.5
525.017	20408.5
525.788	19601.5
526.56	18818.5
527.331	17998.5
528.102	17181.5
528.873	16316.5
529.644	15562.5
530.415	14837.5
531.186	14181.5
531.957	13447.5
532.728	12773.5
533.498	12171.5
534.269	11578.5
535.039	10932.5
535.81	10366.5
536.58	9769.5
537.351	9285.5
538.121	8812.5
538.891	8338.5
539.661	7927.5
540.431	7448.5
541.201	7105.5
541.971	6691.5
542.741	6350.5
543.51	6006.5
544.28	5760.5
545.05	5474.5
545.819	5196.5
546.588	4963.5
547.358	4735.5
548.127	4488.5
548.896	4280.5
549.665	4086.5
550.434	3856.5
551.203	3674.5
551.972	3486.5
552.741	3299.5
553.51	3110.5
554.278	2933.5
555.047	2794.5
555.815	2629.5
556.584	2474.5
557.352	2348.5
558.121	2226.5
558.889	2099.5
559.657	1998.5
560.425	1890.5
561.193	1788.5
561.961	1694.5
562.729	1596.5
563.496	1502.5
564.264	1428.5
565.032	1357.5
565.799	1274.5
566.567	1211.5
567.334	1143.5
568.101	1085.5
568.869	1006.5
569.636	964.5
570.403	907.5
571.17	856.5
571.937	809.5
572.704	768.5
573.471	727.5
574.237	682.5
575.004	641.5
575.771	603.5
576.537	568.5
577.303	533.5
578.07	518.5
578.836	480.5
579.602	453.5
580.368	427.5
581.134	406.5
581.9	380.5
582.666	367.5
583.432	348.5
584.198	338.5
584.964	318.5
585.729	307.5
586.495	289.5
587.26	272.5
588.025	255.5
588.791	238.5
589.556	235.5
590.321	223.5
591.086	209.5
591.851	196.5
592.616	187.5
593.381	181.5
594.146	170.5
594.911	162.5
595.675	158.5
596.44	152.5
597.204	150.5
597.969	138.5
598.733	130.5
599.497	124.5
600.261	119.5
601.025	117.5
601.79	110.5
602.553	107.5
603.317	100.5
604.081	98.5
604.845	90.5
605.609	91.5
606.372	84.5
607.136	81.5
607.899	80.5
608.662	82.5
609.426	72.5
610.189	70.5
610.952	65.5
611.715	66.5
612.478	61.5
613.241	58.5
614.004	57.5
614.767	55.5
615.529	55.5
616.292	53.5
617.055	53.5
617.817	49.5
618.579	48.5
619.342	47.5
620.104	46.5
620.866	41.5
621.628	41.5
622.39	43.5
623.152	39.5
623.914	38.5
624.676	37.5
625.438	38.5
626.199	34.5
626.961	33.5
627.722	32.5
628.484	33.5
629.245	26.5
630.006	29.5
630.768	29.5
631.529	29.5
632.29	29.5
633.051	25.5
633.812	23.5
634.573	24.5
635.333	24.5
636.094	23.5
636.855	22.5
637.615	20.5
638.376	22.5
639.136	20.5
639.896	20.5
640.657	21.5
641.417	21.5
642.177	20.5
642.937	18.5
643.697	19.5
644.457	15.5
645.216	16.5
645.976	18.5
646.736	17.5
647.495	15.5
648.255	17.5
649.014	14.5
649.774	16.5
650.533	15.5
651.292	13.5
652.051	14.5
652.81	18.5
653.569	12.5
654.328	11.5
655.087	15.5
655.846	15.5
656.604	14.5
657.363	12.5
658.121	10.5
658.88	13.5
659.638	11.5
660.397	12.5
661.155	11.5
661.913	12.5
662.671	12.5
663.429	11.5
664.187	13.5
664.945	8.5
665.703	8.5
666.46	11.5
667.218	11.5
667.976	11.5
668.733	9.5
669.49	9.5
670.248	12.5
671.005	10.5
671.762	9.5
672.519	10.5
673.276	11.5
674.033	10.5
674.79	7.5
675.547	9.5
676.304	9.5
677.06	9.5
677.817	10.5
678.574	7.5
679.33	9.5
680.086	8.5
680.843	9.5
681.599	8.5
682.355	9.5
683.111	11.5
683.867	9.5
684.623	9.5
685.379	9.5
686.135	7.5
686.89	5.5
687.646	7.5
688.402	7.5
689.157	9.5
689.912	7.5
690.668	6.5
691.423	6.5
692.178	9.5
692.933	7.5
693.688	8.5
694.443	8.5
695.198	10.5
695.953	5.5
696.708	7.5
697.462	7.5
698.217	7.5
698.972	8.5
699.726	7.5
700.48	8.5
701.235	8.5
701.989	7.5
702.743	8.5
703.497	6.5
704.251	9.5
705.005	5.5
705.759	8.5
706.513	6.5
707.266	10.5
708.02	7.5
708.774	7.5
709.527	9.5
710.28	8.5
711.034	8.5
711.787	7.5
712.54	9.5
713.293	8.5
714.046	7.5
714.799	8.5
715.552	7.5
716.305	9.5
717.058	9.5
717.81	9.5
718.563	7.5
719.315	8.5
720.068	5.5
720.82	6.5
721.573	9.5
722.325	9.5
723.077	7.5
723.829	9.5
724.581	6.5
725.333	9.5
726.085	10.5
726.836	7.5
727.588	7.5
728.34	6.5
729.091	11.5
729.843	8.5
730.594	8.5
731.346	9.5
732.097	9.5
732.848	9.5
733.599	7.5
734.35	11.5
735.101	8.5
735.852	9.5
736.603	10.5
737.354	7.5
738.104	9.5
738.855	9.5
739.605	9.5
740.356	11.5
741.106	10.5
741.856	11.5
742.607	11.5
743.357	9.5
744.107	10.5
744.857	10.5
745.607	8.5
746.357	11.5
747.106	11.5
747.856	10.5
748.606	10.5
749.355	8.5
750.105	12.5
750.854	10.5
751.603	9.5
752.353	13.5
753.102	11.5
753.851	10.5
754.6	11.5
755.349	10.5
756.098	9.5
756.847	9.5
757.595	10.5
758.344	11.5
759.093	10.5
759.841	11.5
760.589	10.5
761.338	13.5
762.086	11.5
762.834	13.5
763.582	13.5
764.331	11.5
765.079	15.5
765.826	12.5
766.574	13.5
767.322	11.5
768.07	15.5
768.817	13.5
769.565	15.5
770.312	11.5
771.06	12.5
771.807	15.5
772.554	15.5
773.302	11.5
774.049	16.5
774.796	15.5
775.543	14.5
776.29	16.5
777.036	15.5
777.783	15.5
778.53	14.5
779.276	14.5
780.023	15.5
780.769	16.5
781.516	14.5
782.262	15.5
783.008	16.5
783.754	12.5
784.5	13.5
785.246	14.5
785.992	15.5
786.738	16.5
787.484	15.5
788.23	15.5
788.975	15.5
789.721	16.5
790.466	15.5
791.212	14.5
791.957	13.5
792.702	15.5
793.447	11.5
794.193	14.5
794.938	16.5
795.683	13.5
796.427	13.5
797.172	17.5
797.917	12.5
798.662	15.5
799.406	13.5
800.151	11.5
800.895	11.5
801.64	10.5
802.384	9.5
803.128	14.5
803.872	11.5
804.616	11.5
805.36	11.5
806.104	11.5
806.848	11.5
807.592	11.5
808.336	11.5
809.079	10.5
809.823	9.5
810.566	11.5
811.31	10.5
812.053	10.5
812.796	10.5
813.539	8.5
814.283	9.5
815.026	8.5
815.769	10.5
816.511	11.5
817.254	9.5
817.997	9.5
818.74	7.5
819.482	9.5
820.225	8.5
820.967	8.5
821.71	6.5
822.452	6.5
823.194	6.5
823.936	5.5
824.678	5.5
825.42	7.5
826.162	7.5
826.904	8.5
827.646	6.5
828.388	6.5
829.129	6.5
829.871	9.5
830.612	7.5
831.354	6.5
832.095	7.5
832.836	5.5
833.577	7.5
834.319	9.5
835.06	5.5
835.801	8.5
836.542	3.5
837.282	6.5
838.023	6.5
838.764	4.5
839.504	5.5
840.245	4.5
840.985	6.5
841.726	3.5
842.466	7.5
843.206	5.5
843.946	3.5
844.687	7.5
845.427	5.5
846.166	6.5
846.906	7.5
847.646	6.5
848.386	3.5
849.125	5.5
849.865	6.5
850.605	6.5
851.344	1.5
852.083	3.5
852.823	4.5
853.562	5.5
854.301	3.5
855.04	5.5
855.779	3.5
856.518	3.5
857.257	3.5
857.995	5.5
858.734	4.5
859.473	5.5
860.211	5.5
860.95	5.5
861.688	4.5
862.426	5.5
863.165	5.5
863.903	3.5
864.641	2.5
865.379	3.5
866.117	5.5
866.855	0.5
867.593	3.5
868.33	4.5
869.068	4.5
869.806	2.5
870.543	3.5
871.28	6.5
872.018	1.5
872.755	2.5
873.492	1.5
874.229	3.5
874.967	3.5
875.703	1.5
876.44	4.5
877.177	-0.5
877.914	3.5
878.651	3.5
879.387	4.5
880.124	2.5
880.86	2.5
881.597	1.5
882.333	3.5
883.069	4.5
883.806	-0.5
884.542	2.5
885.278	3.5
886.014	4.5
886.749	4.5
887.485	1.5
888.221	3.5
888.957	0.5
889.692	2.5
890.428	2.5
891.163	-0.5
891.899	1.5
892.634	3.5
893.369	4.5
894.104	2.5
894.839	2.5
895.574	2.5
896.309	0.5
897.044	2.5
897.779	2.5
898.514	0.5
899.248	1.5
899.983	0.5
900.717	0.5
901.452	1.5
902.186	1.5
902.92	1.5
903.654	-0.5
904.389	0.5
905.123	1.5
905.857	1.5
906.59	2.5
907.324	0.5
908.058	1.5
908.792	1.5
909.525	3.5
910.259	0.5
910.992	1.5
911.726	1.5
912.459	1.5
913.192	1.5
913.925	1.5
914.658	2.5
915.391	1.5
916.124	1.5
916.857	1.5
917.59	2.5
918.323	0.5
919.055	2.5
919.788	1.5
920.521	1.5
921.253	1.5
921.985	1.5
922.718	-0.5
923.45	1.5
924.182	-0.5
924.914	-0.5
925.646	-0.5
926.378	1.5
927.11	1.5
927.841	1.5
928.573	1.5
929.305	-0.5
930.036	3.5
930.768	1.5
931.499	-0.5
932.23	0.5
932.962	1.5
933.693	2.5
934.424	1.5
935.155	0.5
935.886	1.5
936.617	0.5
937.348	-1.5
938.078	1.5
938.809	1.5
939.54	2.5
940.27	-0.5
941.001	2.5
941.731	0.5
942.461	2.5
943.191	1.5
943.922	2.5
944.652	-0.5
945.382	2.5
946.112	1.5
946.841	2.5
947.571	2.5
948.301	0.5
949.031	2.5
949.76	2.5
950.49	0.5
951.219	1.5
951.948	3.5
952.678	1.5
953.407	1.5
954.136	1.5
954.865	1.5
955.594	0.5
956.323	2.5
957.052	1.5
957.78	0.5
958.509	1.5
959.238	1.5
959.966	1.5
960.695	0.5
961.423	0.5
962.151	0.5
962.88	0.5
963.608	-0.5
964.336	-0.5
965.064	1.5
965.792	1.5
966.52	2.5
967.247	-0.5
967.975	-0.5
968.703	0.5
969.43	0.5
970.158	2.5
970.885	0.5
971.613	-0.5
972.34	0.5
973.067	0.5
973.794	1.5
974.521	2.5
975.248	2.5
975.975	0.5
976.702	-0.5
977.429	0.5
978.156	-0.5
978.882	1.5
979.609	-1.5
980.335	0.5
981.062	0.5
981.788	-0.5
982.514	1.5
983.24	1.5
983.967	0.5
984.693	2.5
985.419	-0.5
986.144	-0.5
986.87	0.5
987.596	1.5
988.322	1.5
989.047	1.5
989.773	1.5
990.498	0.5
991.224	0.5
991.949	1.5
992.674	-0.5
993.399	0.5
994.124	3.5
994.849	-1.5
995.574	1.5
996.299	3.5
997.024	0.5
997.749	-0.5
998.473	-0.5
999.198	2.5
999.922	1.5
1000.647	-0.5
1001.371	2.5
1002.095	-1.5
1002.82	-0.5
1003.544	-1.5
1004.268	6.5
1004.992	5.5
1005.716	7.5
1006.439	5.5
1007.163	4.5
1007.887	6.5
1008.611	0.5
1009.334	-0.5
1010.058	-0.5
1010.781	0.5
1011.504	0.5
1012.228	2.5
1012.951	0.5
1013.674	0.5
1014.397	-0.5
1015.12	0.5
