节点500_705_QEPB04081__510__20-53-08-746.txt的数据

Date: Wed Nov 12 20:53:08 CST 2025
User: PC
Spectrometer: QEPB0408
触发模式: 0
积分时间 (秒): 1.000000E-2
Scans to average: 1
启用暗噪声校正: true
启用非线性校正: false
滑动平均宽度: 0
X轴模式: Wavelengths
Number of Pixels in Spectrum: 1044
>>>>>Begin Spectral Data<<<<<
220.843	5.12
221.644	4.12
222.444	6.12
223.244	6.12
224.045	7.12
224.845	7.12
225.645	7.12
226.445	6.12
227.245	5.12
228.045	9.12
228.845	5.12
229.645	7.12
230.444	8.12
231.244	11.12
232.043	9.12
232.843	8.12
233.642	8.12
234.442	8.12
235.241	9.12
236.04	10.12
236.839	10.12
237.638	12.12
238.437	9.12
239.236	9.12
240.035	12.12
240.833	11.12
241.632	13.12
242.43	11.12
243.229	11.12
244.027	14.12
244.826	13.12
245.624	15.12
246.422	12.12
247.22	15.12
248.018	12.12
248.816	13.12
249.614	15.12
250.412	15.12
251.21	16.12
252.007	15.12
252.805	15.12
253.602	18.12
254.4	19.12
255.197	19.12
255.994	17.12
256.791	18.12
257.589	17.12
258.386	22.12
259.183	19.12
259.979	22.12
260.776	21.12
261.573	21.12
262.37	21.12
263.166	23.12
263.963	25.12
264.759	25.12
265.556	26.12
266.352	24.12
267.148	25.12
267.944	23.12
268.74	27.12
269.536	28.12
270.332	27.12
271.128	27.12
271.924	30.12
272.719	31.12
273.515	31.12
274.311	29.12
275.106	30.12
275.901	31.12
276.697	31.12
277.492	35.12
278.287	31.12
279.082	29.12
279.877	32.12
280.672	34.12
281.467	31.12
282.262	29.12
283.056	30.12
283.851	33.12
284.646	33.12
285.44	31.12
286.234	32.12
287.029	34.12
287.823	34.12
288.617	31.12
289.411	32.12
290.205	31.12
290.999	33.12
291.793	30.12
292.587	30.12
293.381	31.12
294.174	31.12
294.968	31.12
295.761	24.12
296.555	30.12
297.348	26.12
298.141	24.12
298.935	30.12
299.728	27.12
300.521	24.12
301.314	26.12
302.107	25.12
302.899	23.12
303.692	24.12
304.485	24.12
305.277	23.12
306.07	23.12
306.862	20.12
307.655	22.12
308.447	20.12
309.239	18.12
310.031	20.12
310.823	21.12
311.615	20.12
312.407	16.12
313.199	20.12
313.991	18.12
314.783	15.12
315.574	17.12
316.366	18.12
317.157	15.12
317.949	16.12
318.74	15.12
319.531	14.12
320.322	13.12
321.113	13.12
321.904	15.12
322.695	15.12
323.486	11.12
324.277	12.12
325.068	12.12
325.858	14.12
326.649	11.12
327.439	15.12
328.23	11.12
329.02	14.12
329.81	12.12
330.6	12.12
331.391	14.12
332.181	13.12
332.971	13.12
333.76	11.12
334.55	11.12
335.34	13.12
336.13	14.12
336.919	13.12
337.709	8.12
338.498	11.12
339.287	14.12
340.077	13.12
340.866	9.12
341.655	12.12
342.444	13.12
343.233	12.12
344.022	12.12
344.811	11.12
345.6	13.12
346.388	12.12
347.177	11.12
347.965	10.12
348.754	12.12
349.542	12.12
350.33	10.12
351.119	11.12
351.907	11.12
352.695	11.12
353.483	11.12
354.271	10.12
355.059	11.12
355.846	12.12
356.634	10.12
357.422	9.12
358.209	8.12
358.997	11.12
359.784	11.12
360.571	11.12
361.359	8.12
362.146	10.12
362.933	12.12
363.72	10.12
364.507	11.12
365.294	9.12
366.081	10.12
366.867	9.12
367.654	8.12
368.44	11.12
369.227	10.12
370.013	10.12
370.8	7.12
371.586	9.12
372.372	10.12
373.158	10.12
373.944	12.12
374.73	9.12
375.516	9.12
376.302	11.12
377.088	5.12
377.873	12.12
378.659	11.12
379.445	9.12
380.23	11.12
381.015	10.12
381.801	8.12
382.586	8.12
383.371	9.12
384.156	11.12
384.941	11.12
385.726	10.12
386.511	9.12
387.296	11.12
388.08	10.12
388.865	11.12
389.649	11.12
390.434	10.12
391.218	11.12
392.003	10.12
392.787	13.12
393.571	13.12
394.355	12.12
395.139	12.12
395.923	12.12
396.707	11.12
397.491	13.12
398.274	12.12
399.058	15.12
399.842	11.12
400.625	12.12
401.408	14.12
402.192	14.12
402.975	11.12
403.758	16.12
404.541	13.12
405.324	15.12
406.107	12.12
406.89	14.12
407.673	15.12
408.456	14.12
409.238	17.12
410.021	17.12
410.803	15.12
411.586	18.12
412.368	17.12
413.151	16.12
413.933	16.12
414.715	16.12
415.497	20.12
416.279	17.12
417.061	19.12
417.843	18.12
418.624	19.12
419.406	18.12
420.188	20.12
420.969	18.12
421.751	20.12
422.532	21.12
423.313	25.12
424.095	20.12
424.876	23.12
425.657	25.12
426.438	26.12
427.219	27.12
428	24.12
428.78	27.12
429.561	30.12
430.342	26.12
431.122	28.12
431.903	35.12
432.683	35.12
433.464	37.12
434.244	37.12
435.024	39.12
435.804	40.12
436.584	43.12
437.364	47.12
438.144	49.12
438.924	51.12
439.704	57.12
440.483	57.12
441.263	62.12
442.042	67.12
442.822	73.12
443.601	77.12
444.38	87.12
445.16	92.12
445.939	96.12
446.718	105.12
447.497	118.12
448.276	126.12
449.054	142.12
449.833	153.12
450.612	172.12
451.391	188.12
452.169	203.12
452.948	226.12
453.726	251.12
454.504	287.12
455.282	314.12
456.061	339.12
456.839	384.12
457.617	439.12
458.395	482.12
459.172	530.12
459.95	588.12
460.728	649.12
461.506	734.12
462.283	821.12
463.061	910.12
463.838	1001.12
464.615	1123.12
465.393	1240.12
466.17	1373.12
466.947	1532.12
467.724	1690.12
468.501	1857.12
469.278	2062.12
470.055	2258.12
470.831	2506.12
471.608	2735.12
472.385	2998.12
473.161	3315.12
473.938	3639.12
474.714	3990.12
475.49	4358.12
476.266	4758.12
477.043	5161.12
477.819	5641.12
478.595	6151.12
479.371	6704.12
480.146	7277.12
480.922	7934.12
481.698	8577.12
482.473	9279.12
483.249	10088.12
484.024	10881.12
484.8	11787.12
485.575	12718.12
486.35	13786.12
487.126	14890.12
487.901	15977.12
488.676	17231.12
489.451	18606.12
490.225	19975.12
491	21362.12
491.775	22758.12
492.55	24303.12
493.324	25951.12
494.099	27506.12
494.873	29190.12
495.647	30763.12
496.422	32407.12
497.196	34038.12
497.97	35668.12
498.744	37242.12
499.518	38652.12
500.292	40109.12
501.066	41086.12
501.839	42081.12
502.613	43005.12
503.387	43700.12
504.16	44263.12
504.934	44543.12
505.707	44851.12
506.48	44656.12
507.253	44326.12
508.027	43982.12
508.8	43342.12
509.573	42470.12
510.346	41603.12
511.118	40721.12
511.891	39690.12
512.664	38382.12
513.437	37074.12
514.209	35743.12
514.982	34459.12
515.754	33175.12
516.526	31881.12
517.298	30611.12
518.071	29466.12
518.843	28364.12
519.615	27171.12
520.387	26106.12
521.159	25111.12
521.93	24088.12
522.702	23128.12
523.474	22123.12
524.245	21237.12
525.017	20359.12
525.788	19455.12
526.56	18702.12
527.331	17944.12
528.102	16984.12
528.873	16225.12
529.644	15465.12
530.415	14745.12
531.186	14020.12
531.957	13302.12
532.728	12704.12
533.498	12036.12
534.269	11414.12
535.039	10851.12
535.81	10275.12
536.58	9644.12
537.351	9184.12
538.121	8688.12
538.891	8225.12
539.661	7799.12
540.431	7378.12
541.201	7020.12
541.971	6669.12
542.741	6261.12
543.51	5955.12
544.28	5675.12
545.05	5423.12
545.819	5138.12
546.588	4893.12
547.358	4685.12
548.127	4448.12
548.896	4257.12
549.665	4028.12
550.434	3793.12
551.203	3615.12
551.972	3412.12
552.741	3252.12
553.51	3063.12
554.278	2894.12
555.047	2736.12
555.815	2598.12
556.584	2451.12
557.352	2317.12
558.121	2178.12
558.889	2073.12
559.657	1963.12
560.425	1858.12
561.193	1766.12
561.961	1668.12
562.729	1569.12
563.496	1491.12
564.264	1415.12
565.032	1319.12
565.799	1253.12
566.567	1198.12
567.334	1122.12
568.101	1058.12
568.869	1002.12
569.636	941.12
570.403	889.12
571.17	852.12
571.937	795.12
572.704	746.12
573.471	714.12
574.237	671.12
575.004	621.12
575.771	590.12
576.537	565.12
577.303	536.12
578.07	503.12
578.836	478.12
579.602	451.12
580.368	433.12
581.134	409.12
581.9	385.12
582.666	363.12
583.432	352.12
584.198	328.12
584.964	310.12
585.729	297.12
586.495	283.12
587.26	264.12
588.025	247.12
588.791	235.12
589.556	231.12
590.321	214.12
591.086	203.12
591.851	199.12
592.616	186.12
593.381	178.12
594.146	163.12
594.911	161.12
595.675	154.12
596.44	148.12
597.204	139.12
597.969	136.12
598.733	128.12
599.497	125.12
600.261	121.12
601.025	110.12
601.79	115.12
602.553	99.12
603.317	101.12
604.081	98.12
604.845	89.12
605.609	92.12
606.372	82.12
607.136	82.12
607.899	80.12
608.662	73.12
609.426	73.12
610.189	67.12
610.952	66.12
611.715	62.12
612.478	63.12
613.241	61.12
614.004	56.12
614.767	56.12
615.529	53.12
616.292	56.12
617.055	53.12
617.817	48.12
618.579	45.12
619.342	46.12
620.104	42.12
620.866	42.12
621.628	36.12
622.39	38.12
623.152	38.12
623.914	38.12
624.676	39.12
625.438	34.12
626.199	34.12
626.961	31.12
627.722	33.12
628.484	27.12
629.245	32.12
630.006	29.12
630.768	29.12
631.529	28.12
632.29	29.12
633.051	22.12
633.812	26.12
634.573	27.12
635.333	25.12
636.094	21.12
636.855	25.12
637.615	19.12
638.376	21.12
639.136	21.12
639.896	20.12
640.657	19.12
641.417	17.12
642.177	15.12
642.937	18.12
643.697	17.12
644.457	17.12
645.216	17.12
645.976	16.12
646.736	16.12
647.495	15.12
648.255	15.12
649.014	17.12
649.774	15.12
650.533	14.12
651.292	13.12
652.051	15.12
652.81	14.12
653.569	14.12
654.328	14.12
655.087	14.12
655.846	9.12
656.604	14.12
657.363	13.12
658.121	14.12
658.88	12.12
659.638	11.12
660.397	14.12
661.155	11.12
661.913	11.12
662.671	11.12
663.429	9.12
664.187	12.12
664.945	8.12
665.703	12.12
666.46	13.12
667.218	9.12
667.976	9.12
668.733	9.12
669.49	10.12
670.248	8.12
671.005	10.12
671.762	10.12
672.519	10.12
673.276	12.12
674.033	8.12
674.79	11.12
675.547	8.12
676.304	9.12
677.06	9.12
677.817	5.12
678.574	9.12
679.33	9.12
680.086	7.12
680.843	8.12
681.599	7.12
682.355	10.12
683.111	7.12
683.867	9.12
684.623	8.12
685.379	8.12
686.135	9.12
686.89	8.12
687.646	10.12
688.402	8.12
689.157	8.12
689.912	7.12
690.668	7.12
691.423	8.12
692.178	6.12
692.933	9.12
693.688	7.12
694.443	6.12
695.198	8.12
695.953	10.12
696.708	9.12
697.462	8.12
698.217	6.12
698.972	7.12
699.726	7.12
700.48	8.12
701.235	8.12
701.989	8.12
702.743	8.12
703.497	7.12
704.251	5.12
705.005	8.12
705.759	8.12
706.513	5.12
707.266	9.12
708.02	6.12
708.774	11.12
709.527	9.12
710.28	7.12
711.034	8.12
711.787	9.12
712.54	10.12
713.293	4.12
714.046	8.12
714.799	10.12
715.552	5.12
716.305	10.12
717.058	8.12
717.81	6.12
718.563	9.12
719.315	6.12
720.068	9.12
720.82	7.12
721.573	8.12
722.325	9.12
723.077	7.12
723.829	7.12
724.581	8.12
725.333	8.12
726.085	8.12
726.836	8.12
727.588	9.12
728.34	6.12
729.091	10.12
729.843	8.12
730.594	5.12
731.346	11.12
732.097	11.12
732.848	7.12
733.599	9.12
734.35	9.12
735.101	10.12
735.852	11.12
736.603	10.12
737.354	7.12
738.104	8.12
738.855	8.12
739.605	12.12
740.356	10.12
741.106	9.12
741.856	10.12
742.607	7.12
743.357	9.12
744.107	9.12
744.857	12.12
745.607	9.12
746.357	7.12
747.106	9.12
747.856	11.12
748.606	11.12
749.355	11.12
750.105	14.12
750.854	11.12
751.603	10.12
752.353	12.12
753.102	9.12
753.851	8.12
754.6	9.12
755.349	12.12
756.098	11.12
756.847	8.12
757.595	11.12
758.344	12.12
759.093	11.12
759.841	10.12
760.589	11.12
761.338	11.12
762.086	11.12
762.834	12.12
763.582	12.12
764.331	12.12
765.079	13.12
765.826	13.12
766.574	12.12
767.322	13.12
768.07	13.12
768.817	13.12
769.565	14.12
770.312	15.12
771.06	12.12
771.807	14.12
772.554	13.12
773.302	17.12
774.049	15.12
774.796	15.12
775.543	13.12
776.29	11.12
777.036	16.12
777.783	15.12
778.53	18.12
779.276	15.12
780.023	14.12
780.769	15.12
781.516	14.12
782.262	15.12
783.008	14.12
783.754	17.12
784.5	14.12
785.246	14.12
785.992	15.12
786.738	12.12
787.484	13.12
788.23	16.12
788.975	13.12
789.721	15.12
790.466	11.12
791.212	17.12
791.957	14.12
792.702	16.12
793.447	16.12
794.193	13.12
794.938	12.12
795.683	14.12
796.427	12.12
797.172	11.12
797.917	12.12
798.662	13.12
799.406	12.12
800.151	12.12
800.895	12.12
801.64	11.12
802.384	12.12
803.128	11.12
803.872	14.12
804.616	11.12
805.36	11.12
806.104	11.12
806.848	9.12
807.592	9.12
808.336	11.12
809.079	10.12
809.823	8.12
810.566	13.12
811.31	8.12
812.053	7.12
812.796	7.12
813.539	9.12
814.283	10.12
815.026	8.12
815.769	9.12
816.511	9.12
817.254	6.12
817.997	10.12
818.74	9.12
819.482	7.12
820.225	7.12
820.967	9.12
821.71	8.12
822.452	5.12
823.194	9.12
823.936	9.12
824.678	7.12
825.42	9.12
826.162	4.12
826.904	5.12
827.646	4.12
828.388	7.12
829.129	7.12
829.871	6.12
830.612	6.12
831.354	4.12
832.095	7.12
832.836	5.12
833.577	6.12
834.319	6.12
835.06	7.12
835.801	6.12
836.542	7.12
837.282	7.12
838.023	5.12
838.764	7.12
839.504	6.12
840.245	5.12
840.985	7.12
841.726	6.12
842.466	7.12
843.206	7.12
843.946	6.12
844.687	3.12
845.427	6.12
846.166	6.12
846.906	6.12
847.646	5.12
848.386	5.12
849.125	2.12
849.865	6.12
850.605	5.12
851.344	4.12
852.083	7.12
852.823	7.12
853.562	6.12
854.301	6.12
855.04	5.12
855.779	7.12
856.518	5.12
857.257	5.12
857.995	5.12
858.734	3.12
859.473	4.12
860.211	5.12
860.95	3.12
861.688	5.12
862.426	2.12
863.165	5.12
863.903	4.12
864.641	2.12
865.379	3.12
866.117	2.12
866.855	1.12
867.593	1.12
868.33	3.12
869.068	3.12
869.806	3.12
870.543	4.12
871.28	4.12
872.018	0.12
872.755	4.12
873.492	2.12
874.229	2.12
874.967	3.12
875.703	3.12
876.44	1.12
877.177	0.12
877.914	2.12
878.651	2.12
879.387	0.12
880.124	4.12
880.86	1.12
881.597	2.12
882.333	0.12
883.069	2.12
883.806	2.12
884.542	2.12
885.278	2.12
886.014	2.12
886.749	0.12
887.485	0.12
888.221	1.12
888.957	-0.88
889.692	3.12
890.428	1.12
891.163	2.12
891.899	3.12
892.634	1.12
893.369	2.12
894.104	3.12
894.839	0.12
895.574	3.12
896.309	-1.88
897.044	1.12
897.779	0.12
898.514	2.12
899.248	1.12
899.983	0.12
900.717	2.12
901.452	-0.88
902.186	2.12
902.92	-0.88
903.654	0.12
904.389	2.12
905.123	-0.88
905.857	3.12
906.59	1.12
907.324	-0.88
908.058	1.12
908.792	1.12
909.525	2.12
910.259	-0.88
910.992	0.12
911.726	1.12
912.459	-0.88
913.192	3.12
913.925	1.12
914.658	3.12
915.391	0.12
916.124	0.12
916.857	0.12
917.59	0.12
918.323	0.12
919.055	-0.88
919.788	1.12
920.521	0.12
921.253	2.12
921.985	1.12
922.718	0.12
923.45	0.12
924.182	1.12
924.914	1.12
925.646	0.12
926.378	0.12
927.11	1.12
927.841	-0.88
928.573	0.12
929.305	1.12
930.036	0.12
930.768	1.12
931.499	0.12
932.23	1.12
932.962	1.12
933.693	1.12
934.424	-0.88
935.155	1.12
935.886	2.12
936.617	-1.88
937.348	-0.88
938.078	0.12
938.809	-0.88
939.54	-0.88
940.27	0.12
941.001	0.12
941.731	0.12
942.461	2.12
943.191	1.12
943.922	2.12
944.652	-1.88
945.382	-0.88
946.112	2.12
946.841	0.12
947.571	1.12
948.301	1.12
949.031	-0.88
949.76	-0.88
950.49	2.12
951.219	-0.88
951.948	1.12
952.678	1.12
953.407	2.12
954.136	0.12
954.865	1.12
955.594	-1.88
956.323	3.12
957.052	1.12
957.78	0.12
958.509	2.12
959.238	-0.88
959.966	1.12
960.695	0.12
961.423	0.12
962.151	0.12
962.88	3.12
963.608	1.12
964.336	-1.88
965.064	-0.88
965.792	-0.88
966.52	-0.88
967.247	2.12
967.975	1.12
968.703	1.12
969.43	0.12
970.158	0.12
970.885	-0.88
971.613	0.12
972.34	0.12
973.067	-0.88
973.794	-0.88
974.521	-0.88
975.248	-0.88
975.975	1.12
976.702	0.12
977.429	3.12
978.156	-0.88
978.882	1.12
979.609	3.12
980.335	0.12
981.062	1.12
981.788	-0.88
982.514	1.12
983.24	0.12
983.967	-0.88
984.693	2.12
985.419	-1.88
986.144	1.12
986.87	1.12
987.596	0.12
988.322	-0.88
989.047	0.12
989.773	0.12
990.498	0.12
991.224	-0.88
991.949	0.12
992.674	1.12
993.399	2.12
994.124	0.12
994.849	0.12
995.574	1.12
996.299	1.12
997.024	0.12
997.749	-0.88
998.473	1.12
999.198	1.12
999.922	2.12
1000.647	3.12
1001.371	3.12
1002.095	0.12
1002.82	-0.88
1003.544	-2.88
1004.268	3.12
1004.992	3.12
1005.716	3.12
1006.439	5.12
1007.163	6.12
1007.887	5.12
1008.611	-0.88
1009.334	2.12
1010.058	-0.88
1010.781	-0.88
1011.504	0.12
1012.228	1.12
1012.951	-0.88
1013.674	-0.88
1014.397	1.12
1015.12	1.12
