节点500_705_QEPB04081__345__20-50-50-575.txt的数据

Date: Wed Nov 12 20:50:50 CST 2025
User: PC
Spectrometer: QEPB0408
触发模式: 0
积分时间 (秒): 1.000000E-2
Scans to average: 1
启用暗噪声校正: true
启用非线性校正: false
滑动平均宽度: 0
X轴模式: Wavelengths
Number of Pixels in Spectrum: 1044
>>>>>Begin Spectral Data<<<<<
220.843	4.38
221.644	4.38
222.444	7.38
223.244	5.38
224.045	6.38
224.845	6.38
225.645	7.38
226.445	9.38
227.245	6.38
228.045	8.38
228.845	7.38
229.645	8.38
230.444	7.38
231.244	6.38
232.043	10.38
232.843	9.38
233.642	8.38
234.442	9.38
235.241	11.38
236.04	9.38
236.839	10.38
237.638	11.38
238.437	13.38
239.236	11.38
240.035	14.38
240.833	10.38
241.632	10.38
242.43	15.38
243.229	15.38
244.027	11.38
244.826	14.38
245.624	12.38
246.422	13.38
247.22	15.38
248.018	15.38
248.816	16.38
249.614	14.38
250.412	16.38
251.21	16.38
252.007	18.38
252.805	16.38
253.602	16.38
254.4	20.38
255.197	16.38
255.994	19.38
256.791	16.38
257.589	22.38
258.386	22.38
259.183	23.38
259.979	22.38
260.776	22.38
261.573	22.38
262.37	26.38
263.166	24.38
263.963	29.38
264.759	25.38
265.556	27.38
266.352	24.38
267.148	31.38
267.944	27.38
268.74	26.38
269.536	32.38
270.332	30.38
271.128	31.38
271.924	33.38
272.719	31.38
273.515	36.38
274.311	34.38
275.106	34.38
275.901	32.38
276.697	32.38
277.492	32.38
278.287	35.38
279.082	34.38
279.877	32.38
280.672	36.38
281.467	29.38
282.262	33.38
283.056	33.38
283.851	34.38
284.646	35.38
285.44	37.38
286.234	33.38
287.029	35.38
287.823	33.38
288.617	35.38
289.411	31.38
290.205	34.38
290.999	29.38
291.793	31.38
292.587	30.38
293.381	27.38
294.174	36.38
294.968	29.38
295.761	28.38
296.555	28.38
297.348	26.38
298.141	27.38
298.935	29.38
299.728	27.38
300.521	23.38
301.314	24.38
302.107	22.38
302.899	24.38
303.692	25.38
304.485	21.38
305.277	24.38
306.07	19.38
306.862	23.38
307.655	22.38
308.447	21.38
309.239	21.38
310.031	22.38
310.823	22.38
311.615	20.38
312.407	19.38
313.199	19.38
313.991	18.38
314.783	18.38
315.574	18.38
316.366	16.38
317.157	17.38
317.949	14.38
318.74	17.38
319.531	17.38
320.322	13.38
321.113	13.38
321.904	14.38
322.695	14.38
323.486	15.38
324.277	14.38
325.068	15.38
325.858	15.38
326.649	11.38
327.439	13.38
328.23	13.38
329.02	15.38
329.81	13.38
330.6	13.38
331.391	12.38
332.181	14.38
332.971	10.38
333.76	15.38
334.55	11.38
335.34	14.38
336.13	11.38
336.919	12.38
337.709	12.38
338.498	13.38
339.287	10.38
340.077	11.38
340.866	12.38
341.655	12.38
342.444	11.38
343.233	12.38
344.022	12.38
344.811	12.38
345.6	13.38
346.388	13.38
347.177	11.38
347.965	13.38
348.754	10.38
349.542	13.38
350.33	11.38
351.119	9.38
351.907	11.38
352.695	15.38
353.483	9.38
354.271	11.38
355.059	10.38
355.846	9.38
356.634	11.38
357.422	11.38
358.209	11.38
358.997	11.38
359.784	9.38
360.571	11.38
361.359	12.38
362.146	12.38
362.933	9.38
363.72	11.38
364.507	11.38
365.294	9.38
366.081	10.38
366.867	11.38
367.654	10.38
368.44	10.38
369.227	9.38
370.013	9.38
370.8	11.38
371.586	12.38
372.372	9.38
373.158	7.38
373.944	10.38
374.73	11.38
375.516	9.38
376.302	10.38
377.088	9.38
377.873	10.38
378.659	12.38
379.445	9.38
380.23	7.38
381.015	12.38
381.801	8.38
382.586	11.38
383.371	11.38
384.156	11.38
384.941	11.38
385.726	10.38
386.511	11.38
387.296	11.38
388.08	11.38
388.865	13.38
389.649	11.38
390.434	12.38
391.218	11.38
392.003	11.38
392.787	11.38
393.571	10.38
394.355	12.38
395.139	11.38
395.923	14.38
396.707	13.38
397.491	14.38
398.274	12.38
399.058	13.38
399.842	14.38
400.625	16.38
401.408	15.38
402.192	13.38
402.975	13.38
403.758	15.38
404.541	17.38
405.324	15.38
406.107	16.38
406.89	14.38
407.673	17.38
408.456	15.38
409.238	16.38
410.021	17.38
410.803	18.38
411.586	16.38
412.368	16.38
413.151	15.38
413.933	19.38
414.715	20.38
415.497	18.38
416.279	20.38
417.061	21.38
417.843	22.38
418.624	22.38
419.406	22.38
420.188	18.38
420.969	19.38
421.751	22.38
422.532	24.38
423.313	23.38
424.095	23.38
424.876	25.38
425.657	27.38
426.438	27.38
427.219	25.38
428	28.38
428.78	29.38
429.561	28.38
430.342	30.38
431.122	29.38
431.903	34.38
432.683	34.38
433.464	34.38
434.244	34.38
435.024	40.38
435.804	39.38
436.584	46.38
437.364	47.38
438.144	47.38
438.924	47.38
439.704	56.38
440.483	57.38
441.263	59.38
442.042	67.38
442.822	70.38
443.601	72.38
444.38	77.38
445.16	86.38
445.939	93.38
446.718	103.38
447.497	108.38
448.276	123.38
449.054	134.38
449.833	148.38
450.612	163.38
451.391	176.38
452.169	197.38
452.948	217.38
453.726	244.38
454.504	270.38
455.282	300.38
456.061	336.38
456.839	373.38
457.617	410.38
458.395	459.38
459.172	519.38
459.95	576.38
460.728	642.38
461.506	708.38
462.283	778.38
463.061	884.38
463.838	989.38
464.615	1099.38
465.393	1215.38
466.17	1363.38
466.947	1495.38
467.724	1687.38
468.501	1843.38
469.278	2049.38
470.055	2245.38
470.831	2500.38
471.608	2769.38
472.385	3046.38
473.161	3346.38
473.938	3705.38
474.714	4063.38
475.49	4438.38
476.266	4886.38
477.043	5310.38
477.819	5803.38
478.595	6373.38
479.371	6918.38
480.146	7557.38
480.922	8282.38
481.698	8991.38
482.473	9727.38
483.249	10659.38
484.024	11574.38
484.8	12493.38
485.575	13547.38
486.35	14697.38
487.126	15898.38
487.901	17237.38
488.676	18605.38
489.451	20049.38
490.225	21496.38
491	23058.38
491.775	24707.38
492.55	26382.38
493.324	28141.38
494.099	29860.38
494.873	31663.38
495.647	33406.38
496.422	35201.38
497.196	36990.38
497.97	38607.38
498.744	40111.38
499.518	41728.38
500.292	43093.38
501.066	44151.38
501.839	45021.38
502.613	45791.38
503.387	46528.38
504.16	46896.38
504.934	47085.38
505.707	47028.38
506.48	46673.38
507.253	46185.38
508.027	45458.38
508.8	44554.38
509.573	43561.38
510.346	42557.38
511.118	41470.38
511.891	40205.38
512.664	38783.38
513.437	37325.38
514.209	35924.38
514.982	34572.38
515.754	33189.38
516.526	31823.38
517.298	30538.38
518.071	29351.38
518.843	28145.38
519.615	27041.38
520.387	25980.38
521.159	24924.38
521.93	23867.38
522.702	22954.38
523.474	21946.38
524.245	21055.38
525.017	20063.38
525.788	19262.38
526.56	18478.38
527.331	17644.38
528.102	16720.38
528.873	15916.38
529.644	15194.38
530.415	14481.38
531.186	13724.38
531.957	13054.38
532.728	12345.38
533.498	11739.38
534.269	11126.38
535.039	10543.38
535.81	9957.38
536.58	9410.38
537.351	8892.38
538.121	8442.38
538.891	8006.38
539.661	7529.38
540.431	7109.38
541.201	6754.38
541.971	6427.38
542.741	6083.38
543.51	5782.38
544.28	5482.38
545.05	5217.38
545.819	5003.38
546.588	4742.38
547.358	4513.38
548.127	4313.38
548.896	4097.38
549.665	3884.38
550.434	3686.38
551.203	3499.38
551.972	3293.38
552.741	3134.38
553.51	2947.38
554.278	2764.38
555.047	2638.38
555.815	2478.38
556.584	2375.38
557.352	2232.38
558.121	2100.38
558.889	1988.38
559.657	1887.38
560.425	1766.38
561.193	1686.38
561.961	1601.38
562.729	1496.38
563.496	1423.38
564.264	1341.38
565.032	1267.38
565.799	1204.38
566.567	1151.38
567.334	1068.38
568.101	1027.38
568.869	956.38
569.636	913.38
570.403	849.38
571.17	809.38
571.937	766.38
572.704	724.38
573.471	678.38
574.237	646.38
575.004	600.38
575.771	570.38
576.537	543.38
577.303	503.38
578.07	475.38
578.836	455.38
579.602	432.38
580.368	402.38
581.134	387.38
581.9	367.38
582.666	340.38
583.432	338.38
584.198	310.38
584.964	303.38
585.729	286.38
586.495	267.38
587.26	253.38
588.025	239.38
588.791	230.38
589.556	218.38
590.321	209.38
591.086	192.38
591.851	189.38
592.616	180.38
593.381	168.38
594.146	161.38
594.911	156.38
595.675	145.38
596.44	143.38
597.204	132.38
597.969	126.38
598.733	123.38
599.497	115.38
600.261	117.38
601.025	103.38
601.79	107.38
602.553	98.38
603.317	98.38
604.081	91.38
604.845	89.38
605.609	83.38
606.372	79.38
607.136	78.38
607.899	72.38
608.662	71.38
609.426	67.38
610.189	68.38
610.952	65.38
611.715	62.38
612.478	63.38
613.241	58.38
614.004	55.38
614.767	57.38
615.529	51.38
616.292	49.38
617.055	46.38
617.817	47.38
618.579	44.38
619.342	42.38
620.104	43.38
620.866	41.38
621.628	37.38
622.39	39.38
623.152	36.38
623.914	35.38
624.676	35.38
625.438	33.38
626.199	31.38
626.961	31.38
627.722	31.38
628.484	31.38
629.245	30.38
630.006	30.38
630.768	25.38
631.529	26.38
632.29	27.38
633.051	25.38
633.812	24.38
634.573	24.38
635.333	25.38
636.094	22.38
636.855	23.38
637.615	22.38
638.376	21.38
639.136	24.38
639.896	20.38
640.657	18.38
641.417	19.38
642.177	18.38
642.937	16.38
643.697	15.38
644.457	19.38
645.216	19.38
645.976	15.38
646.736	15.38
647.495	17.38
648.255	17.38
649.014	19.38
649.774	15.38
650.533	14.38
651.292	16.38
652.051	14.38
652.81	14.38
653.569	10.38
654.328	14.38
655.087	14.38
655.846	11.38
656.604	12.38
657.363	12.38
658.121	13.38
658.88	13.38
659.638	13.38
660.397	10.38
661.155	14.38
661.913	12.38
662.671	11.38
663.429	9.38
664.187	12.38
664.945	9.38
665.703	12.38
666.46	7.38
667.218	8.38
667.976	9.38
668.733	10.38
669.49	9.38
670.248	11.38
671.005	10.38
671.762	9.38
672.519	11.38
673.276	11.38
674.033	11.38
674.79	10.38
675.547	8.38
676.304	11.38
677.06	9.38
677.817	9.38
678.574	8.38
679.33	9.38
680.086	6.38
680.843	8.38
681.599	7.38
682.355	8.38
683.111	8.38
683.867	11.38
684.623	8.38
685.379	8.38
686.135	9.38
686.89	7.38
687.646	11.38
688.402	8.38
689.157	8.38
689.912	8.38
690.668	6.38
691.423	9.38
692.178	8.38
692.933	10.38
693.688	9.38
694.443	9.38
695.198	11.38
695.953	8.38
696.708	10.38
697.462	8.38
698.217	9.38
698.972	7.38
699.726	8.38
700.48	9.38
701.235	7.38
701.989	6.38
702.743	6.38
703.497	8.38
704.251	8.38
705.005	5.38
705.759	9.38
706.513	7.38
707.266	11.38
708.02	8.38
708.774	6.38
709.527	9.38
710.28	9.38
711.034	9.38
711.787	5.38
712.54	9.38
713.293	7.38
714.046	9.38
714.799	8.38
715.552	7.38
716.305	8.38
717.058	9.38
717.81	9.38
718.563	7.38
719.315	8.38
720.068	7.38
720.82	10.38
721.573	7.38
722.325	9.38
723.077	8.38
723.829	9.38
724.581	9.38
725.333	10.38
726.085	10.38
726.836	8.38
727.588	9.38
728.34	8.38
729.091	10.38
729.843	8.38
730.594	10.38
731.346	8.38
732.097	10.38
732.848	8.38
733.599	8.38
734.35	9.38
735.101	10.38
735.852	9.38
736.603	9.38
737.354	9.38
738.104	9.38
738.855	11.38
739.605	9.38
740.356	8.38
741.106	7.38
741.856	8.38
742.607	10.38
743.357	13.38
744.107	11.38
744.857	12.38
745.607	11.38
746.357	10.38
747.106	11.38
747.856	12.38
748.606	12.38
749.355	11.38
750.105	11.38
750.854	11.38
751.603	11.38
752.353	11.38
753.102	8.38
753.851	11.38
754.6	11.38
755.349	11.38
756.098	12.38
756.847	12.38
757.595	12.38
758.344	13.38
759.093	11.38
759.841	13.38
760.589	12.38
761.338	12.38
762.086	10.38
762.834	12.38
763.582	15.38
764.331	14.38
765.079	14.38
765.826	16.38
766.574	14.38
767.322	11.38
768.07	14.38
768.817	11.38
769.565	15.38
770.312	13.38
771.06	12.38
771.807	16.38
772.554	14.38
773.302	13.38
774.049	14.38
774.796	16.38
775.543	15.38
776.29	16.38
777.036	15.38
777.783	14.38
778.53	17.38
779.276	15.38
780.023	16.38
780.769	16.38
781.516	14.38
782.262	15.38
783.008	15.38
783.754	15.38
784.5	14.38
785.246	16.38
785.992	16.38
786.738	15.38
787.484	14.38
788.23	16.38
788.975	16.38
789.721	19.38
790.466	15.38
791.212	14.38
791.957	14.38
792.702	15.38
793.447	13.38
794.193	12.38
794.938	15.38
795.683	14.38
796.427	14.38
797.172	11.38
797.917	13.38
798.662	15.38
799.406	12.38
800.151	13.38
800.895	13.38
801.64	14.38
802.384	13.38
803.128	9.38
803.872	10.38
804.616	11.38
805.36	13.38
806.104	9.38
806.848	9.38
807.592	12.38
808.336	9.38
809.079	9.38
809.823	11.38
810.566	9.38
811.31	10.38
812.053	10.38
812.796	9.38
813.539	8.38
814.283	10.38
815.026	9.38
815.769	6.38
816.511	7.38
817.254	8.38
817.997	9.38
818.74	7.38
819.482	5.38
820.225	8.38
820.967	8.38
821.71	9.38
822.452	7.38
823.194	9.38
823.936	6.38
824.678	6.38
825.42	8.38
826.162	7.38
826.904	9.38
827.646	5.38
828.388	7.38
829.129	6.38
829.871	6.38
830.612	5.38
831.354	7.38
832.095	5.38
832.836	6.38
833.577	6.38
834.319	6.38
835.06	5.38
835.801	8.38
836.542	4.38
837.282	5.38
838.023	9.38
838.764	6.38
839.504	6.38
840.245	5.38
840.985	6.38
841.726	4.38
842.466	7.38
843.206	7.38
843.946	3.38
844.687	4.38
845.427	6.38
846.166	4.38
846.906	6.38
847.646	6.38
848.386	4.38
849.125	3.38
849.865	7.38
850.605	4.38
851.344	5.38
852.083	6.38
852.823	5.38
853.562	5.38
854.301	2.38
855.04	6.38
855.779	6.38
856.518	5.38
857.257	4.38
857.995	3.38
858.734	5.38
859.473	4.38
860.211	5.38
860.95	3.38
861.688	2.38
862.426	3.38
863.165	4.38
863.903	3.38
864.641	3.38
865.379	3.38
866.117	3.38
866.855	3.38
867.593	5.38
868.33	3.38
869.068	3.38
869.806	2.38
870.543	-0.62
871.28	1.38
872.018	4.38
872.755	3.38
873.492	3.38
874.229	2.38
874.967	5.38
875.703	1.38
876.44	3.38
877.177	2.38
877.914	2.38
878.651	4.38
879.387	2.38
880.124	2.38
880.86	3.38
881.597	3.38
882.333	3.38
883.069	-0.62
883.806	2.38
884.542	3.38
885.278	1.38
886.014	0.38
886.749	2.38
887.485	0.38
888.221	-1.62
888.957	3.38
889.692	-0.62
890.428	1.38
891.163	3.38
891.899	3.38
892.634	2.38
893.369	1.38
894.104	-0.62
894.839	2.38
895.574	1.38
896.309	1.38
897.044	1.38
897.779	3.38
898.514	1.38
899.248	2.38
899.983	2.38
900.717	2.38
901.452	0.38
902.186	1.38
902.92	2.38
903.654	-2.62
904.389	-0.62
905.123	1.38
905.857	1.38
906.59	3.38
907.324	2.38
908.058	2.38
908.792	3.38
909.525	1.38
910.259	-0.62
910.992	3.38
911.726	2.38
912.459	0.38
913.192	4.38
913.925	0.38
914.658	0.38
915.391	1.38
916.124	0.38
916.857	1.38
917.59	-0.62
918.323	-0.62
919.055	0.38
919.788	-0.62
920.521	0.38
921.253	1.38
921.985	1.38
922.718	1.38
923.45	1.38
924.182	1.38
924.914	-1.62
925.646	1.38
926.378	1.38
927.11	-1.62
927.841	-0.62
928.573	2.38
929.305	-0.62
930.036	2.38
930.768	-0.62
931.499	1.38
932.23	0.38
932.962	1.38
933.693	1.38
934.424	4.38
935.155	1.38
935.886	-1.62
936.617	0.38
937.348	-0.62
938.078	-0.62
938.809	-0.62
939.54	1.38
940.27	-0.62
941.001	0.38
941.731	-0.62
942.461	1.38
943.191	3.38
943.922	0.38
944.652	0.38
945.382	2.38
946.112	1.38
946.841	-0.62
947.571	-0.62
948.301	-0.62
949.031	-0.62
949.76	-1.62
950.49	0.38
951.219	1.38
951.948	-0.62
952.678	0.38
953.407	2.38
954.136	0.38
954.865	1.38
955.594	0.38
956.323	3.38
957.052	-0.62
957.78	1.38
958.509	0.38
959.238	1.38
959.966	1.38
960.695	2.38
961.423	-1.62
962.151	1.38
962.88	-0.62
963.608	1.38
964.336	1.38
965.064	-1.62
965.792	1.38
966.52	1.38
967.247	2.38
967.975	1.38
968.703	-1.62
969.43	1.38
970.158	1.38
970.885	1.38
971.613	1.38
972.34	3.38
973.067	1.38
973.794	0.38
974.521	1.38
975.248	2.38
975.975	1.38
976.702	-1.62
977.429	0.38
978.156	1.38
978.882	0.38
979.609	1.38
980.335	-0.62
981.062	-0.62
981.788	1.38
982.514	0.38
983.24	1.38
983.967	-1.62
984.693	2.38
985.419	1.38
986.144	1.38
986.87	1.38
987.596	1.38
988.322	1.38
989.047	-0.62
989.773	0.38
990.498	0.38
991.224	1.38
991.949	3.38
992.674	-0.62
993.399	1.38
994.124	1.38
994.849	1.38
995.574	2.38
996.299	-0.62
997.024	0.38
997.749	0.38
998.473	0.38
999.198	-0.62
999.922	1.38
1000.647	1.38
1001.371	4.38
1002.095	-0.62
1002.82	0.38
1003.544	-2.62
1004.268	6.38
1004.992	4.38
1005.716	6.38
1006.439	5.38
1007.163	4.38
1007.887	6.38
1008.611	1.38
1009.334	0.38
1010.058	0.38
1010.781	1.38
1011.504	1.38
1012.228	1.38
1012.951	0.38
1013.674	-0.62
1014.397	-1.62
1015.12	0.38
