节点500_705_QEPB04081__445__20-52-13-720.txt的数据

Date: Wed Nov 12 20:52:13 CST 2025
User: PC
Spectrometer: QEPB0408
触发模式: 0
积分时间 (秒): 1.000000E-2
Scans to average: 1
启用暗噪声校正: true
启用非线性校正: false
滑动平均宽度: 0
X轴模式: Wavelengths
Number of Pixels in Spectrum: 1044
>>>>>Begin Spectral Data<<<<<
220.843	6.75
221.644	3.75
222.444	3.75
223.244	3.75
224.045	6.75
224.845	4.75
225.645	5.75
226.445	7.75
227.245	6.75
228.045	6.75
228.845	6.75
229.645	7.75
230.444	6.75
231.244	9.75
232.043	5.75
232.843	10.75
233.642	7.75
234.442	9.75
235.241	8.75
236.04	7.75
236.839	10.75
237.638	10.75
238.437	7.75
239.236	10.75
240.035	12.75
240.833	9.75
241.632	10.75
242.43	12.75
243.229	13.75
244.027	12.75
244.826	13.75
245.624	10.75
246.422	13.75
247.22	15.75
248.018	12.75
248.816	11.75
249.614	14.75
250.412	14.75
251.21	13.75
252.007	16.75
252.805	14.75
253.602	16.75
254.4	17.75
255.197	16.75
255.994	16.75
256.791	16.75
257.589	17.75
258.386	21.75
259.183	19.75
259.979	20.75
260.776	17.75
261.573	18.75
262.37	21.75
263.166	24.75
263.963	24.75
264.759	23.75
265.556	23.75
266.352	25.75
267.148	28.75
267.944	26.75
268.74	28.75
269.536	25.75
270.332	27.75
271.128	27.75
271.924	30.75
272.719	30.75
273.515	29.75
274.311	27.75
275.106	29.75
275.901	30.75
276.697	31.75
277.492	33.75
278.287	30.75
279.082	31.75
279.877	31.75
280.672	32.75
281.467	33.75
282.262	30.75
283.056	32.75
283.851	30.75
284.646	31.75
285.44	30.75
286.234	31.75
287.029	32.75
287.823	33.75
288.617	30.75
289.411	28.75
290.205	30.75
290.999	28.75
291.793	31.75
292.587	27.75
293.381	29.75
294.174	29.75
294.968	26.75
295.761	29.75
296.555	25.75
297.348	25.75
298.141	28.75
298.935	30.75
299.728	24.75
300.521	22.75
301.314	24.75
302.107	21.75
302.899	23.75
303.692	21.75
304.485	20.75
305.277	25.75
306.07	23.75
306.862	21.75
307.655	18.75
308.447	20.75
309.239	18.75
310.031	17.75
310.823	18.75
311.615	17.75
312.407	17.75
313.199	15.75
313.991	15.75
314.783	18.75
315.574	15.75
316.366	15.75
317.157	14.75
317.949	17.75
318.74	14.75
319.531	14.75
320.322	14.75
321.113	13.75
321.904	11.75
322.695	15.75
323.486	12.75
324.277	14.75
325.068	14.75
325.858	13.75
326.649	10.75
327.439	14.75
328.23	11.75
329.02	11.75
329.81	11.75
330.6	11.75
331.391	12.75
332.181	12.75
332.971	9.75
333.76	11.75
334.55	10.75
335.34	10.75
336.13	10.75
336.919	11.75
337.709	12.75
338.498	11.75
339.287	10.75
340.077	9.75
340.866	13.75
341.655	11.75
342.444	12.75
343.233	10.75
344.022	11.75
344.811	12.75
345.6	8.75
346.388	9.75
347.177	10.75
347.965	10.75
348.754	10.75
349.542	12.75
350.33	11.75
351.119	11.75
351.907	10.75
352.695	9.75
353.483	12.75
354.271	10.75
355.059	9.75
355.846	9.75
356.634	10.75
357.422	11.75
358.209	8.75
358.997	9.75
359.784	11.75
360.571	9.75
361.359	9.75
362.146	9.75
362.933	10.75
363.72	10.75
364.507	10.75
365.294	9.75
366.081	8.75
366.867	9.75
367.654	9.75
368.44	7.75
369.227	10.75
370.013	9.75
370.8	9.75
371.586	10.75
372.372	11.75
373.158	8.75
373.944	8.75
374.73	8.75
375.516	6.75
376.302	10.75
377.088	6.75
377.873	9.75
378.659	10.75
379.445	8.75
380.23	8.75
381.015	8.75
381.801	7.75
382.586	9.75
383.371	10.75
384.156	10.75
384.941	8.75
385.726	9.75
386.511	10.75
387.296	9.75
388.08	10.75
388.865	12.75
389.649	10.75
390.434	8.75
391.218	11.75
392.003	10.75
392.787	13.75
393.571	10.75
394.355	11.75
395.139	12.75
395.923	13.75
396.707	11.75
397.491	12.75
398.274	12.75
399.058	13.75
399.842	12.75
400.625	12.75
401.408	10.75
402.192	12.75
402.975	14.75
403.758	12.75
404.541	14.75
405.324	14.75
406.107	15.75
406.89	11.75
407.673	16.75
408.456	15.75
409.238	14.75
410.021	16.75
410.803	17.75
411.586	14.75
412.368	14.75
413.151	17.75
413.933	17.75
414.715	15.75
415.497	17.75
416.279	18.75
417.061	16.75
417.843	18.75
418.624	18.75
419.406	18.75
420.188	18.75
420.969	21.75
421.751	21.75
422.532	21.75
423.313	22.75
424.095	24.75
424.876	26.75
425.657	23.75
426.438	24.75
427.219	24.75
428	23.75
428.78	26.75
429.561	26.75
430.342	30.75
431.122	30.75
431.903	32.75
432.683	33.75
433.464	33.75
434.244	37.75
435.024	37.75
435.804	40.75
436.584	39.75
437.364	43.75
438.144	45.75
438.924	52.75
439.704	51.75
440.483	58.75
441.263	60.75
442.042	63.75
442.822	73.75
443.601	71.75
444.38	81.75
445.16	88.75
445.939	96.75
446.718	102.75
447.497	114.75
448.276	128.75
449.054	136.75
449.833	148.75
450.612	169.75
451.391	183.75
452.169	202.75
452.948	226.75
453.726	247.75
454.504	276.75
455.282	302.75
456.061	341.75
456.839	384.75
457.617	436.75
458.395	468.75
459.172	528.75
459.95	583.75
460.728	652.75
461.506	721.75
462.283	821.75
463.061	900.75
463.838	1000.75
464.615	1117.75
465.393	1248.75
466.17	1395.75
466.947	1522.75
467.724	1690.75
468.501	1853.75
469.278	2046.75
470.055	2280.75
470.831	2494.75
471.608	2773.75
472.385	3051.75
473.161	3334.75
473.938	3663.75
474.714	4005.75
475.49	4425.75
476.266	4800.75
477.043	5220.75
477.819	5704.75
478.595	6236.75
479.371	6786.75
480.146	7401.75
480.922	8033.75
481.698	8737.75
482.473	9490.75
483.249	10293.75
484.024	11186.75
484.8	12073.75
485.575	13057.75
486.35	14156.75
487.126	15245.75
487.901	16465.75
488.676	17773.75
489.451	19097.75
490.225	20524.75
491	22020.75
491.775	23541.75
492.55	25097.75
493.324	26760.75
494.099	28357.75
494.873	30094.75
495.647	31807.75
496.422	33464.75
497.196	35134.75
497.97	36814.75
498.744	38329.75
499.518	39927.75
500.292	41209.75
501.066	42216.75
501.839	43231.75
502.613	44085.75
503.387	44760.75
504.16	45323.75
504.934	45589.75
505.707	45711.75
506.48	45475.75
507.253	45170.75
508.027	44648.75
508.8	43824.75
509.573	42935.75
510.346	42081.75
511.118	41184.75
511.891	39923.75
512.664	38607.75
513.437	37282.75
514.209	35901.75
514.982	34623.75
515.754	33273.75
516.526	31930.75
517.298	30722.75
518.071	29498.75
518.843	28354.75
519.615	27172.75
520.387	26092.75
521.159	25142.75
521.93	24041.75
522.702	23060.75
523.474	22136.75
524.245	21190.75
525.017	20347.75
525.788	19462.75
526.56	18650.75
527.331	17857.75
528.102	16988.75
528.873	16108.75
529.644	15347.75
530.415	14675.75
531.186	13971.75
531.957	13266.75
532.728	12647.75
533.498	11928.75
534.269	11326.75
535.039	10754.75
535.81	10137.75
536.58	9588.75
537.351	9063.75
538.121	8639.75
538.891	8148.75
539.661	7687.75
540.431	7308.75
541.201	6930.75
541.971	6597.75
542.741	6238.75
543.51	5893.75
544.28	5609.75
545.05	5359.75
545.819	5088.75
546.588	4869.75
547.358	4636.75
548.127	4405.75
548.896	4207.75
549.665	3975.75
550.434	3770.75
551.203	3563.75
551.972	3388.75
552.741	3212.75
553.51	3018.75
554.278	2859.75
555.047	2681.75
555.815	2560.75
556.584	2431.75
557.352	2280.75
558.121	2157.75
558.889	2051.75
559.657	1938.75
560.425	1809.75
561.193	1732.75
561.961	1644.75
562.729	1551.75
563.496	1464.75
564.264	1377.75
565.032	1301.75
565.799	1224.75
566.567	1174.75
567.334	1121.75
568.101	1047.75
568.869	977.75
569.636	943.75
570.403	873.75
571.17	837.75
571.937	788.75
572.704	746.75
573.471	701.75
574.237	663.75
575.004	616.75
575.771	589.75
576.537	554.75
577.303	521.75
578.07	498.75
578.836	466.75
579.602	442.75
580.368	419.75
581.134	405.75
581.9	375.75
582.666	365.75
583.432	339.75
584.198	325.75
584.964	304.75
585.729	295.75
586.495	281.75
587.26	257.75
588.025	249.75
588.791	234.75
589.556	225.75
590.321	211.75
591.086	202.75
591.851	192.75
592.616	184.75
593.381	172.75
594.146	161.75
594.911	159.75
595.675	153.75
596.44	147.75
597.204	138.75
597.969	134.75
598.733	125.75
599.497	119.75
600.261	116.75
601.025	108.75
601.79	101.75
602.553	106.75
603.317	103.75
604.081	95.75
604.845	92.75
605.609	84.75
606.372	81.75
607.136	77.75
607.899	78.75
608.662	71.75
609.426	72.75
610.189	69.75
610.952	64.75
611.715	64.75
612.478	58.75
613.241	56.75
614.004	56.75
614.767	53.75
615.529	49.75
616.292	49.75
617.055	50.75
617.817	48.75
618.579	43.75
619.342	42.75
620.104	40.75
620.866	39.75
621.628	41.75
622.39	36.75
623.152	37.75
623.914	33.75
624.676	35.75
625.438	32.75
626.199	34.75
626.961	33.75
627.722	31.75
628.484	31.75
629.245	27.75
630.006	29.75
630.768	25.75
631.529	25.75
632.29	26.75
633.051	25.75
633.812	23.75
634.573	25.75
635.333	24.75
636.094	22.75
636.855	20.75
637.615	21.75
638.376	17.75
639.136	18.75
639.896	20.75
640.657	19.75
641.417	21.75
642.177	17.75
642.937	17.75
643.697	18.75
644.457	18.75
645.216	18.75
645.976	13.75
646.736	15.75
647.495	13.75
648.255	15.75
649.014	16.75
649.774	15.75
650.533	12.75
651.292	14.75
652.051	12.75
652.81	13.75
653.569	13.75
654.328	12.75
655.087	13.75
655.846	11.75
656.604	12.75
657.363	12.75
658.121	8.75
658.88	12.75
659.638	7.75
660.397	10.75
661.155	8.75
661.913	11.75
662.671	9.75
663.429	11.75
664.187	10.75
664.945	7.75
665.703	9.75
666.46	11.75
667.218	6.75
667.976	11.75
668.733	9.75
669.49	9.75
670.248	8.75
671.005	7.75
671.762	10.75
672.519	7.75
673.276	10.75
674.033	7.75
674.79	7.75
675.547	7.75
676.304	8.75
677.06	12.75
677.817	7.75
678.574	7.75
679.33	6.75
680.086	7.75
680.843	11.75
681.599	6.75
682.355	7.75
683.111	7.75
683.867	7.75
684.623	8.75
685.379	4.75
686.135	8.75
686.89	8.75
687.646	8.75
688.402	5.75
689.157	7.75
689.912	8.75
690.668	8.75
691.423	7.75
692.178	8.75
692.933	5.75
693.688	6.75
694.443	6.75
695.198	8.75
695.953	5.75
696.708	5.75
697.462	8.75
698.217	4.75
698.972	9.75
699.726	4.75
700.48	6.75
701.235	5.75
701.989	4.75
702.743	5.75
703.497	6.75
704.251	8.75
705.005	8.75
705.759	8.75
706.513	5.75
707.266	9.75
708.02	8.75
708.774	5.75
709.527	5.75
710.28	6.75
711.034	9.75
711.787	7.75
712.54	6.75
713.293	9.75
714.046	8.75
714.799	7.75
715.552	5.75
716.305	7.75
717.058	5.75
717.81	8.75
718.563	9.75
719.315	5.75
720.068	6.75
720.82	7.75
721.573	7.75
722.325	7.75
723.077	7.75
723.829	6.75
724.581	5.75
725.333	8.75
726.085	9.75
726.836	6.75
727.588	6.75
728.34	5.75
729.091	7.75
729.843	7.75
730.594	6.75
731.346	10.75
732.097	7.75
732.848	10.75
733.599	9.75
734.35	7.75
735.101	9.75
735.852	7.75
736.603	9.75
737.354	5.75
738.104	9.75
738.855	6.75
739.605	7.75
740.356	9.75
741.106	10.75
741.856	12.75
742.607	10.75
743.357	8.75
744.107	10.75
744.857	9.75
745.607	9.75
746.357	9.75
747.106	8.75
747.856	10.75
748.606	9.75
749.355	8.75
750.105	7.75
750.854	9.75
751.603	9.75
752.353	10.75
753.102	11.75
753.851	8.75
754.6	11.75
755.349	10.75
756.098	10.75
756.847	9.75
757.595	10.75
758.344	12.75
759.093	12.75
759.841	12.75
760.589	9.75
761.338	10.75
762.086	13.75
762.834	12.75
763.582	12.75
764.331	11.75
765.079	13.75
765.826	12.75
766.574	12.75
767.322	14.75
768.07	11.75
768.817	13.75
769.565	11.75
770.312	10.75
771.06	12.75
771.807	13.75
772.554	10.75
773.302	11.75
774.049	13.75
774.796	13.75
775.543	13.75
776.29	14.75
777.036	13.75
777.783	14.75
778.53	13.75
779.276	13.75
780.023	15.75
780.769	13.75
781.516	13.75
782.262	14.75
783.008	12.75
783.754	13.75
784.5	15.75
785.246	13.75
785.992	13.75
786.738	15.75
787.484	14.75
788.23	14.75
788.975	12.75
789.721	12.75
790.466	12.75
791.212	12.75
791.957	13.75
792.702	13.75
793.447	14.75
794.193	12.75
794.938	10.75
795.683	13.75
796.427	13.75
797.172	14.75
797.917	12.75
798.662	13.75
799.406	12.75
800.151	12.75
800.895	13.75
801.64	9.75
802.384	9.75
803.128	12.75
803.872	11.75
804.616	13.75
805.36	12.75
806.104	13.75
806.848	12.75
807.592	8.75
808.336	10.75
809.079	11.75
809.823	7.75
810.566	7.75
811.31	8.75
812.053	9.75
812.796	8.75
813.539	10.75
814.283	7.75
815.026	10.75
815.769	7.75
816.511	7.75
817.254	6.75
817.997	6.75
818.74	6.75
819.482	8.75
820.225	6.75
820.967	7.75
821.71	5.75
822.452	8.75
823.194	6.75
823.936	7.75
824.678	7.75
825.42	7.75
826.162	7.75
826.904	5.75
827.646	5.75
828.388	6.75
829.129	5.75
829.871	6.75
830.612	6.75
831.354	4.75
832.095	7.75
832.836	7.75
833.577	5.75
834.319	3.75
835.06	4.75
835.801	7.75
836.542	7.75
837.282	6.75
838.023	6.75
838.764	5.75
839.504	6.75
840.245	3.75
840.985	3.75
841.726	6.75
842.466	5.75
843.206	7.75
843.946	5.75
844.687	6.75
845.427	5.75
846.166	4.75
846.906	2.75
847.646	7.75
848.386	5.75
849.125	6.75
849.865	2.75
850.605	6.75
851.344	3.75
852.083	2.75
852.823	2.75
853.562	5.75
854.301	3.75
855.04	3.75
855.779	0.75
856.518	4.75
857.257	2.75
857.995	3.75
858.734	3.75
859.473	4.75
860.211	4.75
860.95	3.75
861.688	4.75
862.426	2.75
863.165	2.75
863.903	2.75
864.641	3.75
865.379	2.75
866.117	1.75
866.855	1.75
867.593	0.75
868.33	-0.25
869.068	2.75
869.806	3.75
870.543	-0.25
871.28	4.75
872.018	0.75
872.755	1.75
873.492	0.75
874.229	1.75
874.967	2.75
875.703	-0.25
876.44	0.75
877.177	1.75
877.914	2.75
878.651	0.75
879.387	0.75
880.124	2.75
880.86	-0.25
881.597	2.75
882.333	3.75
883.069	1.75
883.806	1.75
884.542	0.75
885.278	-0.25
886.014	0.75
886.749	1.75
887.485	-0.25
888.221	-1.25
888.957	-0.25
889.692	1.75
890.428	1.75
891.163	1.75
891.899	2.75
892.634	-0.25
893.369	1.75
894.104	1.75
894.839	-1.25
895.574	1.75
896.309	-0.25
897.044	0.75
897.779	2.75
898.514	1.75
899.248	0.75
899.983	-0.25
900.717	0.75
901.452	1.75
902.186	2.75
902.92	-0.25
903.654	-1.25
904.389	2.75
905.123	1.75
905.857	0.75
906.59	2.75
907.324	0.75
908.058	2.75
908.792	0.75
909.525	1.75
910.259	-1.25
910.992	-0.25
911.726	1.75
912.459	-0.25
913.192	-0.25
913.925	-1.25
914.658	-1.25
915.391	0.75
916.124	-1.25
916.857	-1.25
917.59	-0.25
918.323	-0.25
919.055	-1.25
919.788	1.75
920.521	0.75
921.253	0.75
921.985	0.75
922.718	0.75
923.45	-1.25
924.182	0.75
924.914	-1.25
925.646	0.75
926.378	-0.25
927.11	0.75
927.841	-0.25
928.573	0.75
929.305	0.75
930.036	-1.25
930.768	0.75
931.499	-0.25
932.23	-1.25
932.962	-0.25
933.693	-2.25
934.424	0.75
935.155	-0.25
935.886	-1.25
936.617	-1.25
937.348	-1.25
938.078	-0.25
938.809	-1.25
939.54	-0.25
940.27	0.75
941.001	1.75
941.731	-0.25
942.461	-0.25
943.191	0.75
943.922	-0.25
944.652	1.75
945.382	0.75
946.112	-0.25
946.841	0.75
947.571	1.75
948.301	0.75
949.031	-2.25
949.76	-0.25
950.49	1.75
951.219	-3.25
951.948	1.75
952.678	-1.25
953.407	-0.25
954.136	-0.25
954.865	1.75
955.594	-2.25
956.323	0.75
957.052	2.75
957.78	0.75
958.509	1.75
959.238	-1.25
959.966	-1.25
960.695	-1.25
961.423	-1.25
962.151	0.75
962.88	-2.25
963.608	-3.25
964.336	-0.25
965.064	1.75
965.792	-0.25
966.52	-2.25
967.247	-0.25
967.975	-0.25
968.703	1.75
969.43	0.75
970.158	0.75
970.885	-1.25
971.613	-0.25
972.34	2.75
973.067	-0.25
973.794	-0.25
974.521	2.75
975.248	-2.25
975.975	1.75
976.702	-3.25
977.429	-1.25
978.156	-1.25
978.882	-2.25
979.609	-0.25
980.335	-1.25
981.062	0.75
981.788	1.75
982.514	0.75
983.24	0.75
983.967	-0.25
984.693	-0.25
985.419	1.75
986.144	-0.25
986.87	-0.25
987.596	1.75
988.322	-0.25
989.047	-2.25
989.773	0.75
990.498	2.75
991.224	-0.25
991.949	-0.25
992.674	0.75
993.399	1.75
994.124	1.75
994.849	1.75
995.574	-1.25
996.299	-1.25
997.024	-0.25
997.749	0.75
998.473	2.75
999.198	0.75
999.922	1.75
1000.647	0.75
1001.371	1.75
1002.095	-0.25
1002.82	1.75
1003.544	-2.25
1004.268	5.75
1004.992	1.75
1005.716	5.75
1006.439	2.75
1007.163	5.75
1007.887	1.75
1008.611	-0.25
1009.334	-0.25
1010.058	-1.25
1010.781	0.75
1011.504	-0.25
1012.228	-1.25
1012.951	0.75
1013.674	-1.25
1014.397	0.75
1015.12	-1.25
