节点500_705_QEPB04081__111__20-47-44-140.txt的数据

Date: Wed Nov 12 20:47:44 CST 2025
User: PC
Spectrometer: QEPB0408
触发模式: 0
积分时间 (秒): 1.000000E-2
Scans to average: 1
启用暗噪声校正: true
启用非线性校正: false
滑动平均宽度: 0
X轴模式: Wavelengths
Number of Pixels in Spectrum: 1044
>>>>>Begin Spectral Data<<<<<
220.843	4.25
221.644	4.25
222.444	5.25
223.244	3.25
224.045	7.25
224.845	4.25
225.645	6.25
226.445	8.25
227.245	7.25
228.045	10.25
228.845	6.25
229.645	9.25
230.444	7.25
231.244	11.25
232.043	8.25
232.843	10.25
233.642	10.25
234.442	10.25
235.241	12.25
236.04	10.25
236.839	10.25
237.638	11.25
238.437	10.25
239.236	12.25
240.035	11.25
240.833	13.25
241.632	12.25
242.43	14.25
243.229	14.25
244.027	13.25
244.826	13.25
245.624	12.25
246.422	15.25
247.22	17.25
248.018	15.25
248.816	18.25
249.614	17.25
250.412	15.25
251.21	15.25
252.007	17.25
252.805	15.25
253.602	19.25
254.4	20.25
255.197	18.25
255.994	22.25
256.791	21.25
257.589	19.25
258.386	23.25
259.183	22.25
259.979	25.25
260.776	25.25
261.573	26.25
262.37	24.25
263.166	28.25
263.963	27.25
264.759	29.25
265.556	30.25
266.352	31.25
267.148	30.25
267.944	29.25
268.74	32.25
269.536	32.25
270.332	31.25
271.128	34.25
271.924	33.25
272.719	34.25
273.515	35.25
274.311	35.25
275.106	36.25
275.901	38.25
276.697	31.25
277.492	37.25
278.287	36.25
279.082	37.25
279.877	37.25
280.672	39.25
281.467	37.25
282.262	36.25
283.056	35.25
283.851	36.25
284.646	37.25
285.44	36.25
286.234	35.25
287.029	33.25
287.823	35.25
288.617	36.25
289.411	34.25
290.205	33.25
290.999	34.25
291.793	35.25
292.587	33.25
293.381	29.25
294.174	33.25
294.968	28.25
295.761	30.25
296.555	25.25
297.348	27.25
298.141	26.25
298.935	30.25
299.728	27.25
300.521	24.25
301.314	25.25
302.107	25.25
302.899	23.25
303.692	26.25
304.485	20.25
305.277	23.25
306.07	26.25
306.862	22.25
307.655	24.25
308.447	21.25
309.239	21.25
310.031	20.25
310.823	19.25
311.615	17.25
312.407	15.25
313.199	16.25
313.991	16.25
314.783	14.25
315.574	17.25
316.366	16.25
317.157	15.25
317.949	14.25
318.74	16.25
319.531	12.25
320.322	14.25
321.113	15.25
321.904	15.25
322.695	14.25
323.486	12.25
324.277	16.25
325.068	15.25
325.858	12.25
326.649	15.25
327.439	13.25
328.23	14.25
329.02	13.25
329.81	12.25
330.6	13.25
331.391	12.25
332.181	11.25
332.971	12.25
333.76	11.25
334.55	15.25
335.34	13.25
336.13	12.25
336.919	12.25
337.709	13.25
338.498	10.25
339.287	13.25
340.077	11.25
340.866	10.25
341.655	11.25
342.444	13.25
343.233	13.25
344.022	12.25
344.811	13.25
345.6	12.25
346.388	12.25
347.177	13.25
347.965	12.25
348.754	15.25
349.542	11.25
350.33	13.25
351.119	10.25
351.907	12.25
352.695	10.25
353.483	11.25
354.271	11.25
355.059	10.25
355.846	7.25
356.634	11.25
357.422	9.25
358.209	10.25
358.997	11.25
359.784	11.25
360.571	11.25
361.359	10.25
362.146	13.25
362.933	13.25
363.72	8.25
364.507	12.25
365.294	11.25
366.081	11.25
366.867	9.25
367.654	12.25
368.44	9.25
369.227	10.25
370.013	10.25
370.8	9.25
371.586	11.25
372.372	10.25
373.158	10.25
373.944	10.25
374.73	11.25
375.516	9.25
376.302	9.25
377.088	10.25
377.873	10.25
378.659	12.25
379.445	11.25
380.23	8.25
381.015	11.25
381.801	9.25
382.586	9.25
383.371	11.25
384.156	11.25
384.941	11.25
385.726	14.25
386.511	13.25
387.296	11.25
388.08	13.25
388.865	9.25
389.649	11.25
390.434	14.25
391.218	11.25
392.003	13.25
392.787	11.25
393.571	11.25
394.355	13.25
395.139	13.25
395.923	13.25
396.707	14.25
397.491	12.25
398.274	14.25
399.058	14.25
399.842	14.25
400.625	14.25
401.408	14.25
402.192	13.25
402.975	13.25
403.758	17.25
404.541	17.25
405.324	17.25
406.107	15.25
406.89	14.25
407.673	18.25
408.456	17.25
409.238	17.25
410.021	14.25
410.803	19.25
411.586	16.25
412.368	19.25
413.151	17.25
413.933	16.25
414.715	21.25
415.497	19.25
416.279	16.25
417.061	22.25
417.843	20.25
418.624	20.25
419.406	21.25
420.188	21.25
420.969	22.25
421.751	23.25
422.532	21.25
423.313	23.25
424.095	23.25
424.876	24.25
425.657	24.25
426.438	25.25
427.219	29.25
428	29.25
428.78	27.25
429.561	31.25
430.342	30.25
431.122	32.25
431.903	31.25
432.683	32.25
433.464	37.25
434.244	38.25
435.024	36.25
435.804	37.25
436.584	43.25
437.364	43.25
438.144	52.25
438.924	52.25
439.704	54.25
440.483	52.25
441.263	61.25
442.042	63.25
442.822	69.25
443.601	71.25
444.38	76.25
445.16	82.25
445.939	91.25
446.718	99.25
447.497	103.25
448.276	116.25
449.054	125.25
449.833	138.25
450.612	153.25
451.391	163.25
452.169	186.25
452.948	211.25
453.726	223.25
454.504	254.25
455.282	286.25
456.061	307.25
456.839	347.25
457.617	386.25
458.395	437.25
459.172	478.25
459.95	532.25
460.728	610.25
461.506	673.25
462.283	757.25
463.061	849.25
463.838	944.25
464.615	1050.25
465.393	1166.25
466.17	1314.25
466.947	1455.25
467.724	1614.25
468.501	1802.25
469.278	2015.25
470.055	2237.25
470.831	2490.25
471.608	2737.25
472.385	3049.25
473.161	3353.25
473.938	3696.25
474.714	4081.25
475.49	4501.25
476.266	4925.25
477.043	5422.25
477.819	5967.25
478.595	6552.25
479.371	7192.25
480.146	7885.25
480.922	8670.25
481.698	9432.25
482.473	10360.25
483.249	11320.25
484.024	12308.25
484.8	13395.25
485.575	14555.25
486.35	15843.25
487.126	17255.25
487.901	18715.25
488.676	20164.25
489.451	21887.25
490.225	23548.25
491	25288.25
491.775	27166.25
492.55	29058.25
493.324	30954.25
494.099	32808.25
494.873	34868.25
495.647	36704.25
496.422	38712.25
497.196	40669.25
497.97	42234.25
498.744	43807.25
499.518	45469.25
500.292	46658.25
501.066	47646.25
501.839	48340.25
502.613	49128.25
503.387	49426.25
504.16	49721.25
504.934	49654.25
505.707	49249.25
506.48	48596.25
507.253	47851.25
508.027	46935.25
508.8	45740.25
509.573	44306.25
510.346	43162.25
511.118	41834.25
511.891	40417.25
512.664	38755.25
513.437	37211.25
514.209	35701.25
514.982	34253.25
515.754	32678.25
516.526	31411.25
517.298	30115.25
518.071	28907.25
518.843	27757.25
519.615	26630.25
520.387	25543.25
521.159	24570.25
521.93	23454.25
522.702	22462.25
523.474	21565.25
524.245	20637.25
525.017	19621.25
525.788	18759.25
526.56	17946.25
527.331	17139.25
528.102	16230.25
528.873	15406.25
529.644	14681.25
530.415	13954.25
531.186	13239.25
531.957	12541.25
532.728	11852.25
533.498	11239.25
534.269	10643.25
535.039	10051.25
535.81	9534.25
536.58	9010.25
537.351	8488.25
538.121	8060.25
538.891	7619.25
539.661	7202.25
540.431	6806.25
541.201	6474.25
541.971	6127.25
542.741	5805.25
543.51	5486.25
544.28	5229.25
545.05	5000.25
545.819	4776.25
546.588	4534.25
547.358	4317.25
548.127	4075.25
548.896	3874.25
549.665	3662.25
550.434	3477.25
551.203	3303.25
551.972	3137.25
552.741	2952.25
553.51	2769.25
554.278	2629.25
555.047	2461.25
555.815	2341.25
556.584	2218.25
557.352	2101.25
558.121	1980.25
558.889	1864.25
559.657	1771.25
560.425	1669.25
561.193	1576.25
561.961	1505.25
562.729	1411.25
563.496	1323.25
564.264	1258.25
565.032	1215.25
565.799	1110.25
566.567	1083.25
567.334	1004.25
568.101	968.25
568.869	887.25
569.636	856.25
570.403	814.25
571.17	757.25
571.937	727.25
572.704	679.25
573.471	646.25
574.237	613.25
575.004	563.25
575.771	530.25
576.537	506.25
577.303	476.25
578.07	453.25
578.836	420.25
579.602	397.25
580.368	388.25
581.134	363.25
581.9	340.25
582.666	325.25
583.432	309.25
584.198	292.25
584.964	291.25
585.729	273.25
586.495	254.25
587.26	242.25
588.025	228.25
588.791	215.25
589.556	201.25
590.321	191.25
591.086	182.25
591.851	174.25
592.616	173.25
593.381	158.25
594.146	147.25
594.911	149.25
595.675	140.25
596.44	138.25
597.204	130.25
597.969	127.25
598.733	116.25
599.497	115.25
600.261	108.25
601.025	100.25
601.79	97.25
602.553	88.25
603.317	91.25
604.081	89.25
604.845	85.25
605.609	79.25
606.372	76.25
607.136	74.25
607.899	71.25
608.662	69.25
609.426	65.25
610.189	63.25
610.952	62.25
611.715	60.25
612.478	59.25
613.241	53.25
614.004	53.25
614.767	54.25
615.529	51.25
616.292	45.25
617.055	46.25
617.817	46.25
618.579	43.25
619.342	43.25
620.104	40.25
620.866	40.25
621.628	42.25
622.39	35.25
623.152	37.25
623.914	36.25
624.676	33.25
625.438	35.25
626.199	32.25
626.961	32.25
627.722	29.25
628.484	31.25
629.245	27.25
630.006	29.25
630.768	26.25
631.529	25.25
632.29	24.25
633.051	25.25
633.812	25.25
634.573	26.25
635.333	24.25
636.094	23.25
636.855	22.25
637.615	20.25
638.376	21.25
639.136	20.25
639.896	21.25
640.657	17.25
641.417	18.25
642.177	19.25
642.937	17.25
643.697	19.25
644.457	19.25
645.216	16.25
645.976	17.25
646.736	15.25
647.495	15.25
648.255	16.25
649.014	15.25
649.774	14.25
650.533	15.25
651.292	13.25
652.051	11.25
652.81	15.25
653.569	14.25
654.328	13.25
655.087	11.25
655.846	14.25
656.604	13.25
657.363	13.25
658.121	12.25
658.88	12.25
659.638	11.25
660.397	11.25
661.155	13.25
661.913	9.25
662.671	13.25
663.429	12.25
664.187	10.25
664.945	9.25
665.703	10.25
666.46	9.25
667.218	10.25
667.976	9.25
668.733	13.25
669.49	9.25
670.248	9.25
671.005	10.25
671.762	9.25
672.519	10.25
673.276	10.25
674.033	9.25
674.79	8.25
675.547	9.25
676.304	7.25
677.06	6.25
677.817	10.25
678.574	7.25
679.33	9.25
680.086	8.25
680.843	9.25
681.599	9.25
682.355	8.25
683.111	6.25
683.867	8.25
684.623	11.25
685.379	11.25
686.135	8.25
686.89	6.25
687.646	8.25
688.402	11.25
689.157	7.25
689.912	9.25
690.668	8.25
691.423	7.25
692.178	9.25
692.933	6.25
693.688	8.25
694.443	10.25
695.198	6.25
695.953	9.25
696.708	7.25
697.462	10.25
698.217	7.25
698.972	8.25
699.726	7.25
700.48	9.25
701.235	6.25
701.989	8.25
702.743	7.25
703.497	9.25
704.251	7.25
705.005	5.25
705.759	7.25
706.513	7.25
707.266	8.25
708.02	8.25
708.774	8.25
709.527	7.25
710.28	8.25
711.034	9.25
711.787	6.25
712.54	6.25
713.293	9.25
714.046	10.25
714.799	9.25
715.552	8.25
716.305	8.25
717.058	11.25
717.81	11.25
718.563	8.25
719.315	7.25
720.068	8.25
720.82	7.25
721.573	11.25
722.325	8.25
723.077	8.25
723.829	7.25
724.581	9.25
725.333	6.25
726.085	7.25
726.836	9.25
727.588	9.25
728.34	9.25
729.091	7.25
729.843	11.25
730.594	10.25
731.346	10.25
732.097	10.25
732.848	9.25
733.599	9.25
734.35	7.25
735.101	12.25
735.852	7.25
736.603	10.25
737.354	10.25
738.104	8.25
738.855	11.25
739.605	11.25
740.356	11.25
741.106	11.25
741.856	8.25
742.607	10.25
743.357	9.25
744.107	13.25
744.857	14.25
745.607	12.25
746.357	11.25
747.106	10.25
747.856	7.25
748.606	11.25
749.355	13.25
750.105	12.25
750.854	13.25
751.603	11.25
752.353	12.25
753.102	13.25
753.851	13.25
754.6	13.25
755.349	11.25
756.098	12.25
756.847	10.25
757.595	12.25
758.344	13.25
759.093	11.25
759.841	12.25
760.589	13.25
761.338	12.25
762.086	17.25
762.834	14.25
763.582	14.25
764.331	13.25
765.079	15.25
765.826	16.25
766.574	14.25
767.322	15.25
768.07	14.25
768.817	13.25
769.565	18.25
770.312	14.25
771.06	18.25
771.807	14.25
772.554	13.25
773.302	15.25
774.049	15.25
774.796	13.25
775.543	18.25
776.29	15.25
777.036	18.25
777.783	18.25
778.53	15.25
779.276	15.25
780.023	17.25
780.769	14.25
781.516	16.25
782.262	15.25
783.008	16.25
783.754	16.25
784.5	14.25
785.246	16.25
785.992	17.25
786.738	17.25
787.484	16.25
788.23	15.25
788.975	18.25
789.721	15.25
790.466	17.25
791.212	17.25
791.957	16.25
792.702	12.25
793.447	17.25
794.193	12.25
794.938	15.25
795.683	16.25
796.427	13.25
797.172	12.25
797.917	14.25
798.662	11.25
799.406	12.25
800.151	11.25
800.895	14.25
801.64	13.25
802.384	11.25
803.128	11.25
803.872	13.25
804.616	11.25
805.36	11.25
806.104	11.25
806.848	12.25
807.592	11.25
808.336	8.25
809.079	10.25
809.823	12.25
810.566	9.25
811.31	8.25
812.053	8.25
812.796	10.25
813.539	10.25
814.283	9.25
815.026	12.25
815.769	9.25
816.511	7.25
817.254	8.25
817.997	7.25
818.74	8.25
819.482	7.25
820.225	8.25
820.967	8.25
821.71	7.25
822.452	7.25
823.194	9.25
823.936	8.25
824.678	6.25
825.42	6.25
826.162	6.25
826.904	6.25
827.646	7.25
828.388	7.25
829.129	7.25
829.871	6.25
830.612	7.25
831.354	6.25
832.095	6.25
832.836	4.25
833.577	6.25
834.319	7.25
835.06	5.25
835.801	6.25
836.542	7.25
837.282	3.25
838.023	6.25
838.764	6.25
839.504	5.25
840.245	7.25
840.985	5.25
841.726	7.25
842.466	4.25
843.206	5.25
843.946	7.25
844.687	4.25
845.427	4.25
846.166	5.25
846.906	6.25
847.646	6.25
848.386	7.25
849.125	7.25
849.865	4.25
850.605	5.25
851.344	6.25
852.083	3.25
852.823	4.25
853.562	4.25
854.301	4.25
855.04	3.25
855.779	5.25
856.518	3.25
857.257	4.25
857.995	5.25
858.734	3.25
859.473	6.25
860.211	3.25
860.95	3.25
861.688	3.25
862.426	6.25
863.165	6.25
863.903	4.25
864.641	3.25
865.379	3.25
866.117	5.25
866.855	3.25
867.593	5.25
868.33	2.25
869.068	2.25
869.806	2.25
870.543	0.25
871.28	2.25
872.018	3.25
872.755	1.25
873.492	5.25
874.229	2.25
874.967	3.25
875.703	0.25
876.44	2.25
877.177	2.25
877.914	0.25
878.651	3.25
879.387	3.25
880.124	3.25
880.86	2.25
881.597	2.25
882.333	1.25
883.069	2.25
883.806	1.25
884.542	2.25
885.278	0.25
886.014	1.25
886.749	2.25
887.485	3.25
888.221	1.25
888.957	-0.75
889.692	1.25
890.428	-0.75
891.163	3.25
891.899	0.25
892.634	0.25
893.369	2.25
894.104	1.25
894.839	0.25
895.574	-0.75
896.309	1.25
897.044	1.25
897.779	1.25
898.514	1.25
899.248	-0.75
899.983	1.25
900.717	-0.75
901.452	1.25
902.186	1.25
902.92	1.25
903.654	1.25
904.389	0.25
905.123	1.25
905.857	-1.75
906.59	-0.75
907.324	3.25
908.058	-0.75
908.792	-0.75
909.525	0.25
910.259	3.25
910.992	2.25
911.726	0.25
912.459	2.25
913.192	2.25
913.925	-1.75
914.658	-0.75
915.391	1.25
916.124	1.25
916.857	1.25
917.59	-0.75
918.323	-1.75
919.055	0.25
919.788	0.25
920.521	1.25
921.253	-0.75
921.985	2.25
922.718	-1.75
923.45	0.25
924.182	0.25
924.914	-0.75
925.646	-0.75
926.378	0.25
927.11	0.25
927.841	0.25
928.573	2.25
929.305	1.25
930.036	1.25
930.768	0.25
931.499	0.25
932.23	-0.75
932.962	0.25
933.693	0.25
934.424	0.25
935.155	2.25
935.886	0.25
936.617	1.25
937.348	0.25
938.078	-0.75
938.809	1.25
939.54	1.25
940.27	1.25
941.001	1.25
941.731	0.25
942.461	1.25
943.191	0.25
943.922	2.25
944.652	1.25
945.382	0.25
946.112	-0.75
946.841	0.25
947.571	1.25
948.301	1.25
949.031	1.25
949.76	0.25
950.49	1.25
951.219	1.25
951.948	-0.75
952.678	1.25
953.407	0.25
954.136	-0.75
954.865	0.25
955.594	0.25
956.323	0.25
957.052	2.25
957.78	2.25
958.509	1.25
959.238	1.25
959.966	-0.75
960.695	0.25
961.423	0.25
962.151	1.25
962.88	0.25
963.608	0.25
964.336	0.25
965.064	0.25
965.792	0.25
966.52	1.25
967.247	0.25
967.975	1.25
968.703	0.25
969.43	0.25
970.158	-0.75
970.885	-1.75
971.613	0.25
972.34	-1.75
973.067	2.25
973.794	0.25
974.521	-0.75
975.248	2.25
975.975	-2.75
976.702	1.25
977.429	-1.75
978.156	3.25
978.882	0.25
979.609	0.25
980.335	1.25
981.062	-0.75
981.788	-0.75
982.514	-0.75
983.24	1.25
983.967	-0.75
984.693	1.25
985.419	1.25
986.144	0.25
986.87	1.25
987.596	0.25
988.322	0.25
989.047	0.25
989.773	-0.75
990.498	0.25
991.224	0.25
991.949	1.25
992.674	-0.75
993.399	1.25
994.124	-0.75
994.849	0.25
995.574	0.25
996.299	0.25
997.024	-0.75
997.749	1.25
998.473	0.25
999.198	2.25
999.922	0.25
1000.647	1.25
1001.371	6.25
1002.095	-1.75
1002.82	-2.75
1003.544	-1.75
1004.268	4.25
1004.992	2.25
1005.716	5.25
1006.439	5.25
1007.163	3.25
1007.887	5.25
1008.611	1.25
1009.334	2.25
1010.058	1.25
1010.781	0.25
1011.504	1.25
1012.228	-0.75
1012.951	1.25
1013.674	-0.75
1014.397	-0.75
1015.12	0.25
