节点500_705_QEPB04081__397__20-51-34-624.txt的数据

Date: Wed Nov 12 20:51:34 CST 2025
User: PC
Spectrometer: QEPB0408
触发模式: 0
积分时间 (秒): 1.000000E-2
Scans to average: 1
启用暗噪声校正: true
启用非线性校正: false
滑动平均宽度: 0
X轴模式: Wavelengths
Number of Pixels in Spectrum: 1044
>>>>>Begin Spectral Data<<<<<
220.843	2.75
221.644	4.75
222.444	5.75
223.244	5.75
224.045	4.75
224.845	5.75
225.645	5.75
226.445	7.75
227.245	5.75
228.045	7.75
228.845	7.75
229.645	6.75
230.444	7.75
231.244	8.75
232.043	9.75
232.843	10.75
233.642	11.75
234.442	9.75
235.241	9.75
236.04	8.75
236.839	9.75
237.638	9.75
238.437	7.75
239.236	12.75
240.035	11.75
240.833	11.75
241.632	10.75
242.43	14.75
243.229	11.75
244.027	10.75
244.826	14.75
245.624	12.75
246.422	14.75
247.22	14.75
248.018	14.75
248.816	16.75
249.614	13.75
250.412	15.75
251.21	16.75
252.007	16.75
252.805	17.75
253.602	14.75
254.4	17.75
255.197	17.75
255.994	21.75
256.791	17.75
257.589	20.75
258.386	23.75
259.183	22.75
259.979	20.75
260.776	24.75
261.573	22.75
262.37	20.75
263.166	26.75
263.963	24.75
264.759	23.75
265.556	26.75
266.352	25.75
267.148	28.75
267.944	29.75
268.74	26.75
269.536	30.75
270.332	28.75
271.128	29.75
271.924	33.75
272.719	27.75
273.515	30.75
274.311	30.75
275.106	32.75
275.901	30.75
276.697	31.75
277.492	34.75
278.287	32.75
279.082	31.75
279.877	33.75
280.672	31.75
281.467	31.75
282.262	33.75
283.056	33.75
283.851	36.75
284.646	34.75
285.44	32.75
286.234	33.75
287.029	34.75
287.823	32.75
288.617	31.75
289.411	33.75
290.205	30.75
290.999	31.75
291.793	31.75
292.587	32.75
293.381	31.75
294.174	29.75
294.968	25.75
295.761	27.75
296.555	25.75
297.348	24.75
298.141	27.75
298.935	28.75
299.728	26.75
300.521	22.75
301.314	25.75
302.107	24.75
302.899	22.75
303.692	23.75
304.485	23.75
305.277	21.75
306.07	22.75
306.862	19.75
307.655	21.75
308.447	23.75
309.239	24.75
310.031	21.75
310.823	18.75
311.615	20.75
312.407	16.75
313.199	17.75
313.991	16.75
314.783	16.75
315.574	15.75
316.366	12.75
317.157	15.75
317.949	14.75
318.74	16.75
319.531	16.75
320.322	14.75
321.113	15.75
321.904	10.75
322.695	14.75
323.486	12.75
324.277	11.75
325.068	11.75
325.858	10.75
326.649	11.75
327.439	11.75
328.23	13.75
329.02	12.75
329.81	10.75
330.6	14.75
331.391	13.75
332.181	11.75
332.971	10.75
333.76	10.75
334.55	12.75
335.34	12.75
336.13	11.75
336.919	9.75
337.709	9.75
338.498	12.75
339.287	12.75
340.077	11.75
340.866	10.75
341.655	11.75
342.444	9.75
343.233	11.75
344.022	9.75
344.811	10.75
345.6	10.75
346.388	10.75
347.177	11.75
347.965	9.75
348.754	13.75
349.542	12.75
350.33	12.75
351.119	10.75
351.907	11.75
352.695	12.75
353.483	11.75
354.271	11.75
355.059	13.75
355.846	8.75
356.634	12.75
357.422	10.75
358.209	10.75
358.997	9.75
359.784	8.75
360.571	9.75
361.359	9.75
362.146	10.75
362.933	10.75
363.72	8.75
364.507	10.75
365.294	8.75
366.081	10.75
366.867	9.75
367.654	7.75
368.44	7.75
369.227	7.75
370.013	8.75
370.8	9.75
371.586	10.75
372.372	9.75
373.158	8.75
373.944	7.75
374.73	8.75
375.516	9.75
376.302	7.75
377.088	11.75
377.873	11.75
378.659	10.75
379.445	8.75
380.23	7.75
381.015	9.75
381.801	10.75
382.586	10.75
383.371	10.75
384.156	7.75
384.941	10.75
385.726	9.75
386.511	7.75
387.296	13.75
388.08	10.75
388.865	11.75
389.649	8.75
390.434	10.75
391.218	9.75
392.003	11.75
392.787	12.75
393.571	12.75
394.355	13.75
395.139	11.75
395.923	13.75
396.707	12.75
397.491	11.75
398.274	14.75
399.058	11.75
399.842	13.75
400.625	13.75
401.408	13.75
402.192	10.75
402.975	14.75
403.758	14.75
404.541	11.75
405.324	17.75
406.107	15.75
406.89	15.75
407.673	12.75
408.456	14.75
409.238	15.75
410.021	16.75
410.803	17.75
411.586	17.75
412.368	13.75
413.151	17.75
413.933	16.75
414.715	17.75
415.497	18.75
416.279	18.75
417.061	19.75
417.843	18.75
418.624	21.75
419.406	18.75
420.188	21.75
420.969	20.75
421.751	22.75
422.532	23.75
423.313	22.75
424.095	23.75
424.876	22.75
425.657	24.75
426.438	24.75
427.219	24.75
428	28.75
428.78	25.75
429.561	29.75
430.342	30.75
431.122	29.75
431.903	32.75
432.683	30.75
433.464	34.75
434.244	36.75
435.024	36.75
435.804	40.75
436.584	43.75
437.364	47.75
438.144	47.75
438.924	48.75
439.704	50.75
440.483	58.75
441.263	61.75
442.042	65.75
442.822	70.75
443.601	73.75
444.38	79.75
445.16	89.75
445.939	96.75
446.718	102.75
447.497	112.75
448.276	127.75
449.054	136.75
449.833	155.75
450.612	162.75
451.391	180.75
452.169	200.75
452.948	224.75
453.726	242.75
454.504	278.75
455.282	305.75
456.061	333.75
456.839	380.75
457.617	422.75
458.395	469.75
459.172	523.75
459.95	570.75
460.728	647.75
461.506	716.75
462.283	804.75
463.061	894.75
463.838	1005.75
464.615	1100.75
465.393	1235.75
466.17	1378.75
466.947	1515.75
467.724	1689.75
468.501	1855.75
469.278	2046.75
470.055	2281.75
470.831	2510.75
471.608	2773.75
472.385	3049.75
473.161	3352.75
473.938	3678.75
474.714	4045.75
475.49	4441.75
476.266	4859.75
477.043	5287.75
477.819	5784.75
478.595	6336.75
479.371	6858.75
480.146	7472.75
480.922	8205.75
481.698	8901.75
482.473	9678.75
483.249	10499.75
484.024	11353.75
484.8	12322.75
485.575	13362.75
486.35	14405.75
487.126	15642.75
487.901	16912.75
488.676	18186.75
489.451	19633.75
490.225	21123.75
491	22621.75
491.775	24156.75
492.55	25817.75
493.324	27450.75
494.099	29204.75
494.873	30992.75
495.647	32625.75
496.422	34315.75
497.196	36138.75
497.97	37710.75
498.744	39249.75
499.518	40895.75
500.292	42349.75
501.066	43327.75
501.839	44294.75
502.613	45059.75
503.387	45763.75
504.16	46289.75
504.934	46396.75
505.707	46487.75
506.48	46175.75
507.253	45772.75
508.027	45133.75
508.8	44283.75
509.573	43325.75
510.346	42427.75
511.118	41412.75
511.891	40224.75
512.664	38794.75
513.437	37379.75
514.209	36044.75
514.982	34688.75
515.754	33296.75
516.526	31902.75
517.298	30637.75
518.071	29484.75
518.843	28320.75
519.615	27168.75
520.387	26072.75
521.159	25075.75
521.93	24048.75
522.702	23042.75
523.474	22021.75
524.245	21177.75
525.017	20228.75
525.788	19353.75
526.56	18602.75
527.331	17830.75
528.102	16884.75
528.873	16098.75
529.644	15309.75
530.415	14550.75
531.186	13929.75
531.957	13181.75
532.728	12523.75
533.498	11889.75
534.269	11212.75
535.039	10591.75
535.81	10082.75
536.58	9500.75
537.351	9034.75
538.121	8528.75
538.891	8097.75
539.661	7627.75
540.431	7219.75
541.201	6862.75
541.971	6496.75
542.741	6137.75
543.51	5860.75
544.28	5545.75
545.05	5309.75
545.819	5066.75
546.588	4817.75
547.358	4586.75
548.127	4333.75
548.896	4146.75
549.665	3938.75
550.434	3734.75
551.203	3538.75
551.972	3329.75
552.741	3162.75
553.51	2993.75
554.278	2830.75
555.047	2661.75
555.815	2526.75
556.584	2400.75
557.352	2239.75
558.121	2137.75
558.889	2017.75
559.657	1901.75
560.425	1820.75
561.193	1700.75
561.961	1613.75
562.729	1532.75
563.496	1446.75
564.264	1363.75
565.032	1290.75
565.799	1233.75
566.567	1144.75
567.334	1088.75
568.101	1038.75
568.869	966.75
569.636	923.75
570.403	866.75
571.17	833.75
571.937	777.75
572.704	723.75
573.471	687.75
574.237	647.75
575.004	618.75
575.771	571.75
576.537	541.75
577.303	517.75
578.07	487.75
578.836	452.75
579.602	430.75
580.368	414.75
581.134	395.75
581.9	374.75
582.666	354.75
583.432	342.75
584.198	322.75
584.964	300.75
585.729	290.75
586.495	275.75
587.26	258.75
588.025	244.75
588.791	224.75
589.556	222.75
590.321	211.75
591.086	190.75
591.851	190.75
592.616	176.75
593.381	175.75
594.146	161.75
594.911	156.75
595.675	153.75
596.44	144.75
597.204	136.75
597.969	130.75
598.733	126.75
599.497	121.75
600.261	114.75
601.025	107.75
601.79	102.75
602.553	99.75
603.317	94.75
604.081	92.75
604.845	86.75
605.609	85.75
606.372	81.75
607.136	80.75
607.899	74.75
608.662	72.75
609.426	71.75
610.189	65.75
610.952	66.75
611.715	63.75
612.478	60.75
613.241	60.75
614.004	57.75
614.767	57.75
615.529	56.75
616.292	51.75
617.055	48.75
617.817	46.75
618.579	45.75
619.342	45.75
620.104	42.75
620.866	43.75
621.628	37.75
622.39	40.75
623.152	38.75
623.914	33.75
624.676	35.75
625.438	34.75
626.199	33.75
626.961	29.75
627.722	30.75
628.484	27.75
629.245	30.75
630.006	26.75
630.768	24.75
631.529	26.75
632.29	25.75
633.051	27.75
633.812	23.75
634.573	22.75
635.333	24.75
636.094	22.75
636.855	21.75
637.615	21.75
638.376	21.75
639.136	18.75
639.896	18.75
640.657	18.75
641.417	16.75
642.177	19.75
642.937	19.75
643.697	16.75
644.457	15.75
645.216	14.75
645.976	17.75
646.736	17.75
647.495	14.75
648.255	14.75
649.014	12.75
649.774	14.75
650.533	13.75
651.292	13.75
652.051	14.75
652.81	11.75
653.569	13.75
654.328	14.75
655.087	14.75
655.846	11.75
656.604	12.75
657.363	12.75
658.121	11.75
658.88	11.75
659.638	12.75
660.397	11.75
661.155	9.75
661.913	10.75
662.671	10.75
663.429	9.75
664.187	10.75
664.945	9.75
665.703	12.75
666.46	10.75
667.218	8.75
667.976	9.75
668.733	9.75
669.49	10.75
670.248	12.75
671.005	9.75
671.762	9.75
672.519	10.75
673.276	9.75
674.033	7.75
674.79	7.75
675.547	8.75
676.304	8.75
677.06	7.75
677.817	6.75
678.574	8.75
679.33	4.75
680.086	9.75
680.843	9.75
681.599	8.75
682.355	6.75
683.111	6.75
683.867	7.75
684.623	8.75
685.379	5.75
686.135	11.75
686.89	6.75
687.646	8.75
688.402	7.75
689.157	8.75
689.912	6.75
690.668	9.75
691.423	7.75
692.178	7.75
692.933	7.75
693.688	8.75
694.443	6.75
695.198	7.75
695.953	5.75
696.708	7.75
697.462	7.75
698.217	6.75
698.972	6.75
699.726	6.75
700.48	7.75
701.235	3.75
701.989	9.75
702.743	5.75
703.497	6.75
704.251	6.75
705.005	6.75
705.759	5.75
706.513	7.75
707.266	6.75
708.02	7.75
708.774	6.75
709.527	6.75
710.28	5.75
711.034	9.75
711.787	7.75
712.54	8.75
713.293	6.75
714.046	6.75
714.799	5.75
715.552	7.75
716.305	5.75
717.058	10.75
717.81	8.75
718.563	9.75
719.315	5.75
720.068	8.75
720.82	7.75
721.573	9.75
722.325	7.75
723.077	6.75
723.829	11.75
724.581	8.75
725.333	8.75
726.085	5.75
726.836	6.75
727.588	8.75
728.34	5.75
729.091	8.75
729.843	8.75
730.594	8.75
731.346	9.75
732.097	7.75
732.848	7.75
733.599	9.75
734.35	10.75
735.101	10.75
735.852	9.75
736.603	8.75
737.354	7.75
738.104	11.75
738.855	10.75
739.605	8.75
740.356	8.75
741.106	11.75
741.856	8.75
742.607	10.75
743.357	11.75
744.107	10.75
744.857	11.75
745.607	11.75
746.357	8.75
747.106	10.75
747.856	10.75
748.606	10.75
749.355	10.75
750.105	10.75
750.854	11.75
751.603	11.75
752.353	11.75
753.102	12.75
753.851	10.75
754.6	10.75
755.349	8.75
756.098	10.75
756.847	9.75
757.595	12.75
758.344	12.75
759.093	10.75
759.841	12.75
760.589	13.75
761.338	10.75
762.086	11.75
762.834	10.75
763.582	10.75
764.331	12.75
765.079	14.75
765.826	12.75
766.574	13.75
767.322	14.75
768.07	11.75
768.817	14.75
769.565	12.75
770.312	15.75
771.06	12.75
771.807	15.75
772.554	14.75
773.302	11.75
774.049	9.75
774.796	14.75
775.543	14.75
776.29	14.75
777.036	13.75
777.783	14.75
778.53	13.75
779.276	15.75
780.023	16.75
780.769	15.75
781.516	17.75
782.262	13.75
783.008	14.75
783.754	13.75
784.5	14.75
785.246	16.75
785.992	13.75
786.738	16.75
787.484	14.75
788.23	15.75
788.975	13.75
789.721	16.75
790.466	15.75
791.212	15.75
791.957	14.75
792.702	13.75
793.447	13.75
794.193	13.75
794.938	14.75
795.683	12.75
796.427	13.75
797.172	12.75
797.917	12.75
798.662	13.75
799.406	12.75
800.151	10.75
800.895	14.75
801.64	12.75
802.384	11.75
803.128	10.75
803.872	13.75
804.616	10.75
805.36	8.75
806.104	10.75
806.848	7.75
807.592	9.75
808.336	10.75
809.079	10.75
809.823	10.75
810.566	8.75
811.31	10.75
812.053	7.75
812.796	7.75
813.539	7.75
814.283	8.75
815.026	9.75
815.769	8.75
816.511	9.75
817.254	6.75
817.997	7.75
818.74	8.75
819.482	6.75
820.225	8.75
820.967	7.75
821.71	8.75
822.452	6.75
823.194	6.75
823.936	8.75
824.678	4.75
825.42	7.75
826.162	4.75
826.904	7.75
827.646	8.75
828.388	6.75
829.129	7.75
829.871	6.75
830.612	7.75
831.354	5.75
832.095	5.75
832.836	5.75
833.577	6.75
834.319	6.75
835.06	4.75
835.801	6.75
836.542	6.75
837.282	6.75
838.023	5.75
838.764	5.75
839.504	7.75
840.245	4.75
840.985	5.75
841.726	3.75
842.466	4.75
843.206	6.75
843.946	3.75
844.687	6.75
845.427	6.75
846.166	3.75
846.906	2.75
847.646	6.75
848.386	5.75
849.125	4.75
849.865	4.75
850.605	5.75
851.344	3.75
852.083	5.75
852.823	5.75
853.562	3.75
854.301	4.75
855.04	4.75
855.779	3.75
856.518	4.75
857.257	4.75
857.995	4.75
858.734	3.75
859.473	2.75
860.211	3.75
860.95	3.75
861.688	0.75
862.426	4.75
863.165	4.75
863.903	4.75
864.641	2.75
865.379	3.75
866.117	3.75
866.855	1.75
867.593	1.75
868.33	2.75
869.068	2.75
869.806	3.75
870.543	2.75
871.28	3.75
872.018	0.75
872.755	1.75
873.492	2.75
874.229	1.75
874.967	2.75
875.703	-0.25
876.44	4.75
877.177	1.75
877.914	1.75
878.651	2.75
879.387	3.75
880.124	3.75
880.86	0.75
881.597	-1.25
882.333	2.75
883.069	2.75
883.806	1.75
884.542	0.75
885.278	3.75
886.014	2.75
886.749	-0.25
887.485	3.75
888.221	-0.25
888.957	1.75
889.692	1.75
890.428	1.75
891.163	2.75
891.899	2.75
892.634	2.75
893.369	-0.25
894.104	2.75
894.839	-0.25
895.574	1.75
896.309	1.75
897.044	-0.25
897.779	1.75
898.514	0.75
899.248	0.75
899.983	-0.25
900.717	1.75
901.452	0.75
902.186	1.75
902.92	2.75
903.654	1.75
904.389	1.75
905.123	3.75
905.857	0.75
906.59	-0.25
907.324	-1.25
908.058	3.75
908.792	0.75
909.525	0.75
910.259	1.75
910.992	-0.25
911.726	1.75
912.459	-1.25
913.192	-0.25
913.925	2.75
914.658	-1.25
915.391	1.75
916.124	0.75
916.857	-0.25
917.59	-0.25
918.323	1.75
919.055	1.75
919.788	-0.25
920.521	1.75
921.253	-0.25
921.985	-0.25
922.718	1.75
923.45	-0.25
924.182	1.75
924.914	-0.25
925.646	-0.25
926.378	-0.25
927.11	1.75
927.841	-0.25
928.573	-0.25
929.305	-1.25
930.036	-0.25
930.768	-0.25
931.499	1.75
932.23	-0.25
932.962	2.75
933.693	-2.25
934.424	-0.25
935.155	-0.25
935.886	1.75
936.617	-1.25
937.348	1.75
938.078	3.75
938.809	-1.25
939.54	0.75
940.27	-0.25
941.001	-0.25
941.731	-0.25
942.461	-0.25
943.191	1.75
943.922	-0.25
944.652	1.75
945.382	0.75
946.112	0.75
946.841	0.75
947.571	0.75
948.301	1.75
949.031	-1.25
949.76	-0.25
950.49	2.75
951.219	-0.25
951.948	1.75
952.678	-0.25
953.407	-0.25
954.136	-1.25
954.865	0.75
955.594	0.75
956.323	-2.25
957.052	3.75
957.78	0.75
958.509	1.75
959.238	-0.25
959.966	0.75
960.695	-1.25
961.423	-2.25
962.151	1.75
962.88	-1.25
963.608	0.75
964.336	-1.25
965.064	-1.25
965.792	0.75
966.52	0.75
967.247	1.75
967.975	0.75
968.703	-0.25
969.43	-1.25
970.158	0.75
970.885	0.75
971.613	-1.25
972.34	-1.25
973.067	1.75
973.794	0.75
974.521	-1.25
975.248	-1.25
975.975	0.75
976.702	-1.25
977.429	-0.25
978.156	0.75
978.882	-2.25
979.609	0.75
980.335	0.75
981.062	-0.25
981.788	1.75
982.514	1.75
983.24	0.75
983.967	-2.25
984.693	1.75
985.419	-0.25
986.144	-0.25
986.87	2.75
987.596	1.75
988.322	0.75
989.047	0.75
989.773	2.75
990.498	1.75
991.224	-1.25
991.949	-1.25
992.674	-2.25
993.399	-0.25
994.124	0.75
994.849	0.75
995.574	0.75
996.299	-3.25
997.024	0.75
997.749	-0.25
998.473	0.75
999.198	0.75
999.922	0.75
1000.647	1.75
1001.371	4.75
1002.095	-1.25
1002.82	-0.25
1003.544	-3.25
1004.268	4.75
1004.992	2.75
1005.716	2.75
1006.439	3.75
1007.163	3.75
1007.887	2.75
1008.611	-0.25
1009.334	1.75
1010.058	0.75
1010.781	-1.25
1011.504	1.75
1012.228	-1.25
1012.951	1.75
1013.674	-3.25
1014.397	0.75
1015.12	0.75
