节点500_705_QEPB04081__514__20-53-11-773.txt的数据

Date: Wed Nov 12 20:53:11 CST 2025
User: PC
Spectrometer: QEPB0408
触发模式: 0
积分时间 (秒): 1.000000E-2
Scans to average: 1
启用暗噪声校正: true
启用非线性校正: false
滑动平均宽度: 0
X轴模式: Wavelengths
Number of Pixels in Spectrum: 1044
>>>>>Begin Spectral Data<<<<<
220.843	6.62
221.644	5.62
222.444	6.62
223.244	4.62
224.045	7.62
224.845	8.62
225.645	6.62
226.445	6.62
227.245	9.62
228.045	6.62
228.845	6.62
229.645	7.62
230.444	7.62
231.244	7.62
232.043	7.62
232.843	8.62
233.642	11.62
234.442	8.62
235.241	9.62
236.04	7.62
236.839	9.62
237.638	8.62
238.437	8.62
239.236	11.62
240.035	8.62
240.833	13.62
241.632	11.62
242.43	11.62
243.229	11.62
244.027	11.62
244.826	11.62
245.624	11.62
246.422	13.62
247.22	11.62
248.018	13.62
248.816	13.62
249.614	13.62
250.412	16.62
251.21	14.62
252.007	15.62
252.805	15.62
253.602	14.62
254.4	16.62
255.197	17.62
255.994	14.62
256.791	15.62
257.589	15.62
258.386	20.62
259.183	17.62
259.979	20.62
260.776	19.62
261.573	20.62
262.37	21.62
263.166	20.62
263.963	20.62
264.759	22.62
265.556	21.62
266.352	21.62
267.148	24.62
267.944	25.62
268.74	24.62
269.536	27.62
270.332	23.62
271.128	29.62
271.924	28.62
272.719	31.62
273.515	25.62
274.311	27.62
275.106	29.62
275.901	28.62
276.697	29.62
277.492	30.62
278.287	30.62
279.082	30.62
279.877	26.62
280.672	30.62
281.467	31.62
282.262	31.62
283.056	32.62
283.851	30.62
284.646	30.62
285.44	26.62
286.234	31.62
287.029	30.62
287.823	30.62
288.617	30.62
289.411	28.62
290.205	29.62
290.999	30.62
291.793	28.62
292.587	29.62
293.381	28.62
294.174	27.62
294.968	28.62
295.761	25.62
296.555	24.62
297.348	26.62
298.141	24.62
298.935	26.62
299.728	24.62
300.521	23.62
301.314	23.62
302.107	24.62
302.899	21.62
303.692	20.62
304.485	17.62
305.277	21.62
306.07	18.62
306.862	24.62
307.655	21.62
308.447	18.62
309.239	21.62
310.031	15.62
310.823	19.62
311.615	18.62
312.407	15.62
313.199	17.62
313.991	15.62
314.783	18.62
315.574	17.62
316.366	15.62
317.157	15.62
317.949	17.62
318.74	15.62
319.531	15.62
320.322	15.62
321.113	15.62
321.904	13.62
322.695	12.62
323.486	11.62
324.277	10.62
325.068	11.62
325.858	10.62
326.649	12.62
327.439	11.62
328.23	15.62
329.02	11.62
329.81	13.62
330.6	12.62
331.391	10.62
332.181	11.62
332.971	11.62
333.76	12.62
334.55	11.62
335.34	13.62
336.13	9.62
336.919	11.62
337.709	12.62
338.498	12.62
339.287	8.62
340.077	12.62
340.866	10.62
341.655	10.62
342.444	11.62
343.233	13.62
344.022	11.62
344.811	12.62
345.6	11.62
346.388	11.62
347.177	13.62
347.965	7.62
348.754	8.62
349.542	10.62
350.33	13.62
351.119	11.62
351.907	10.62
352.695	11.62
353.483	10.62
354.271	11.62
355.059	11.62
355.846	11.62
356.634	11.62
357.422	11.62
358.209	11.62
358.997	8.62
359.784	11.62
360.571	9.62
361.359	9.62
362.146	8.62
362.933	9.62
363.72	11.62
364.507	9.62
365.294	10.62
366.081	7.62
366.867	10.62
367.654	10.62
368.44	11.62
369.227	9.62
370.013	9.62
370.8	9.62
371.586	11.62
372.372	8.62
373.158	8.62
373.944	10.62
374.73	9.62
375.516	9.62
376.302	7.62
377.088	10.62
377.873	8.62
378.659	7.62
379.445	11.62
380.23	11.62
381.015	6.62
381.801	8.62
382.586	8.62
383.371	10.62
384.156	11.62
384.941	11.62
385.726	9.62
386.511	8.62
387.296	10.62
388.08	11.62
388.865	6.62
389.649	12.62
390.434	9.62
391.218	11.62
392.003	11.62
392.787	11.62
393.571	10.62
394.355	11.62
395.139	12.62
395.923	11.62
396.707	13.62
397.491	13.62
398.274	13.62
399.058	10.62
399.842	10.62
400.625	12.62
401.408	14.62
402.192	11.62
402.975	13.62
403.758	13.62
404.541	11.62
405.324	12.62
406.107	13.62
406.89	13.62
407.673	14.62
408.456	15.62
409.238	15.62
410.021	15.62
410.803	14.62
411.586	15.62
412.368	15.62
413.151	15.62
413.933	15.62
414.715	18.62
415.497	16.62
416.279	16.62
417.061	15.62
417.843	19.62
418.624	17.62
419.406	18.62
420.188	19.62
420.969	21.62
421.751	21.62
422.532	20.62
423.313	24.62
424.095	22.62
424.876	20.62
425.657	23.62
426.438	26.62
427.219	25.62
428	27.62
428.78	24.62
429.561	30.62
430.342	26.62
431.122	31.62
431.903	32.62
432.683	28.62
433.464	32.62
434.244	33.62
435.024	38.62
435.804	35.62
436.584	42.62
437.364	41.62
438.144	45.62
438.924	49.62
439.704	49.62
440.483	52.62
441.263	59.62
442.042	66.62
442.822	69.62
443.601	75.62
444.38	80.62
445.16	85.62
445.939	93.62
446.718	104.62
447.497	107.62
448.276	122.62
449.054	138.62
449.833	144.62
450.612	161.62
451.391	178.62
452.169	195.62
452.948	214.62
453.726	239.62
454.504	263.62
455.282	295.62
456.061	323.62
456.839	370.62
457.617	408.62
458.395	459.62
459.172	502.62
459.95	562.62
460.728	631.62
461.506	697.62
462.283	773.62
463.061	861.62
463.838	955.62
464.615	1069.62
465.393	1188.62
466.17	1315.62
466.947	1456.62
467.724	1598.62
468.501	1764.62
469.278	1960.62
470.055	2161.62
470.831	2372.62
471.608	2612.62
472.385	2858.62
473.161	3147.62
473.938	3445.62
474.714	3769.62
475.49	4154.62
476.266	4502.62
477.043	4925.62
477.819	5349.62
478.595	5821.62
479.371	6365.62
480.146	6912.62
480.922	7496.62
481.698	8139.62
482.473	8830.62
483.249	9621.62
484.024	10385.62
484.8	11227.62
485.575	12047.62
486.35	13094.62
487.126	14091.62
487.901	15222.62
488.676	16392.62
489.451	17568.62
490.225	18896.62
491	20262.62
491.775	21604.62
492.55	23083.62
493.324	24527.62
494.099	26065.62
494.873	27614.62
495.647	29189.62
496.422	30788.62
497.196	32381.62
497.97	33763.62
498.744	35290.62
499.518	36765.62
500.292	37966.62
501.066	38987.62
501.839	39831.62
502.613	40811.62
503.387	41527.62
504.16	41986.62
504.934	42408.62
505.707	42479.62
506.48	42239.62
507.253	42092.62
508.027	41663.62
508.8	41070.62
509.573	40319.62
510.346	39488.62
511.118	38683.62
511.891	37702.62
512.664	36406.62
513.437	35204.62
514.209	33966.62
514.982	32741.62
515.754	31476.62
516.526	30255.62
517.298	29087.62
518.071	27944.62
518.843	26869.62
519.615	25776.62
520.387	24756.62
521.159	23824.62
521.93	22834.62
522.702	21884.62
523.474	21008.62
524.245	20180.62
525.017	19315.62
525.788	18537.62
526.56	17723.62
527.331	16958.62
528.102	16109.62
528.873	15424.62
529.644	14664.62
530.415	13967.62
531.186	13360.62
531.957	12710.62
532.728	12031.62
533.498	11432.62
534.269	10781.62
535.039	10268.62
535.81	9729.62
536.58	9191.62
537.351	8733.62
538.121	8278.62
538.891	7801.62
539.661	7415.62
540.431	6973.62
541.201	6652.62
541.971	6304.62
542.741	5959.62
543.51	5654.62
544.28	5368.62
545.05	5102.62
545.819	4887.62
546.588	4659.62
547.358	4437.62
548.127	4235.62
548.896	4002.62
549.665	3842.62
550.434	3617.62
551.203	3424.62
551.972	3257.62
552.741	3112.62
553.51	2917.62
554.278	2753.62
555.047	2603.62
555.815	2457.62
556.584	2338.62
557.352	2205.62
558.121	2095.62
558.889	1957.62
559.657	1848.62
560.425	1746.62
561.193	1659.62
561.961	1576.62
562.729	1494.62
563.496	1414.62
564.264	1340.62
565.032	1264.62
565.799	1189.62
566.567	1135.62
567.334	1073.62
568.101	1005.62
568.869	944.62
569.636	907.62
570.403	857.62
571.17	802.62
571.937	761.62
572.704	711.62
573.471	680.62
574.237	644.62
575.004	601.62
575.771	570.62
576.537	530.62
577.303	517.62
578.07	477.62
578.836	452.62
579.602	431.62
580.368	401.62
581.134	384.62
581.9	363.62
582.666	349.62
583.432	333.62
584.198	311.62
584.964	295.62
585.729	283.62
586.495	263.62
587.26	254.62
588.025	240.62
588.791	226.62
589.556	219.62
590.321	204.62
591.086	198.62
591.851	184.62
592.616	174.62
593.381	168.62
594.146	164.62
594.911	153.62
595.675	151.62
596.44	145.62
597.204	135.62
597.969	126.62
598.733	123.62
599.497	116.62
600.261	111.62
601.025	109.62
601.79	104.62
602.553	97.62
603.317	92.62
604.081	88.62
604.845	87.62
605.609	81.62
606.372	81.62
607.136	76.62
607.899	71.62
608.662	71.62
609.426	66.62
610.189	65.62
610.952	61.62
611.715	61.62
612.478	61.62
613.241	54.62
614.004	55.62
614.767	53.62
615.529	52.62
616.292	47.62
617.055	47.62
617.817	48.62
618.579	45.62
619.342	44.62
620.104	42.62
620.866	42.62
621.628	39.62
622.39	37.62
623.152	35.62
623.914	35.62
624.676	38.62
625.438	31.62
626.199	30.62
626.961	34.62
627.722	30.62
628.484	29.62
629.245	29.62
630.006	26.62
630.768	27.62
631.529	25.62
632.29	25.62
633.051	22.62
633.812	23.62
634.573	22.62
635.333	22.62
636.094	21.62
636.855	21.62
637.615	20.62
638.376	20.62
639.136	17.62
639.896	21.62
640.657	17.62
641.417	19.62
642.177	18.62
642.937	15.62
643.697	15.62
644.457	17.62
645.216	16.62
645.976	14.62
646.736	17.62
647.495	15.62
648.255	13.62
649.014	15.62
649.774	13.62
650.533	14.62
651.292	13.62
652.051	13.62
652.81	11.62
653.569	13.62
654.328	14.62
655.087	10.62
655.846	11.62
656.604	11.62
657.363	9.62
658.121	11.62
658.88	13.62
659.638	12.62
660.397	12.62
661.155	11.62
661.913	14.62
662.671	8.62
663.429	8.62
664.187	9.62
664.945	10.62
665.703	10.62
666.46	10.62
667.218	11.62
667.976	9.62
668.733	9.62
669.49	7.62
670.248	9.62
671.005	10.62
671.762	10.62
672.519	7.62
673.276	9.62
674.033	11.62
674.79	10.62
675.547	7.62
676.304	9.62
677.06	7.62
677.817	9.62
678.574	8.62
679.33	9.62
680.086	9.62
680.843	5.62
681.599	7.62
682.355	8.62
683.111	11.62
683.867	7.62
684.623	9.62
685.379	4.62
686.135	7.62
686.89	9.62
687.646	6.62
688.402	8.62
689.157	7.62
689.912	10.62
690.668	8.62
691.423	7.62
692.178	10.62
692.933	8.62
693.688	9.62
694.443	7.62
695.198	6.62
695.953	6.62
696.708	5.62
697.462	7.62
698.217	7.62
698.972	5.62
699.726	7.62
700.48	6.62
701.235	10.62
701.989	5.62
702.743	9.62
703.497	9.62
704.251	7.62
705.005	6.62
705.759	6.62
706.513	5.62
707.266	6.62
708.02	8.62
708.774	8.62
709.527	7.62
710.28	7.62
711.034	7.62
711.787	8.62
712.54	8.62
713.293	7.62
714.046	6.62
714.799	8.62
715.552	6.62
716.305	10.62
717.058	6.62
717.81	8.62
718.563	8.62
719.315	8.62
720.068	7.62
720.82	10.62
721.573	5.62
722.325	10.62
723.077	8.62
723.829	5.62
724.581	7.62
725.333	7.62
726.085	8.62
726.836	6.62
727.588	9.62
728.34	10.62
729.091	8.62
729.843	8.62
730.594	8.62
731.346	8.62
732.097	9.62
732.848	9.62
733.599	8.62
734.35	7.62
735.101	8.62
735.852	9.62
736.603	12.62
737.354	8.62
738.104	10.62
738.855	8.62
739.605	9.62
740.356	9.62
741.106	8.62
741.856	9.62
742.607	9.62
743.357	11.62
744.107	10.62
744.857	9.62
745.607	10.62
746.357	9.62
747.106	10.62
747.856	9.62
748.606	9.62
749.355	10.62
750.105	12.62
750.854	8.62
751.603	10.62
752.353	10.62
753.102	11.62
753.851	9.62
754.6	11.62
755.349	13.62
756.098	9.62
756.847	9.62
757.595	10.62
758.344	13.62
759.093	11.62
759.841	8.62
760.589	12.62
761.338	11.62
762.086	13.62
762.834	11.62
763.582	14.62
764.331	12.62
765.079	10.62
765.826	10.62
766.574	13.62
767.322	15.62
768.07	12.62
768.817	14.62
769.565	16.62
770.312	15.62
771.06	12.62
771.807	12.62
772.554	14.62
773.302	12.62
774.049	11.62
774.796	12.62
775.543	14.62
776.29	12.62
777.036	14.62
777.783	13.62
778.53	14.62
779.276	11.62
780.023	16.62
780.769	15.62
781.516	13.62
782.262	12.62
783.008	13.62
783.754	11.62
784.5	14.62
785.246	16.62
785.992	14.62
786.738	13.62
787.484	12.62
788.23	15.62
788.975	14.62
789.721	12.62
790.466	12.62
791.212	15.62
791.957	13.62
792.702	12.62
793.447	10.62
794.193	13.62
794.938	15.62
795.683	13.62
796.427	13.62
797.172	11.62
797.917	14.62
798.662	11.62
799.406	13.62
800.151	14.62
800.895	11.62
801.64	12.62
802.384	12.62
803.128	13.62
803.872	11.62
804.616	7.62
805.36	11.62
806.104	9.62
806.848	10.62
807.592	8.62
808.336	11.62
809.079	9.62
809.823	9.62
810.566	11.62
811.31	10.62
812.053	9.62
812.796	9.62
813.539	9.62
814.283	6.62
815.026	8.62
815.769	9.62
816.511	8.62
817.254	9.62
817.997	10.62
818.74	8.62
819.482	6.62
820.225	8.62
820.967	8.62
821.71	8.62
822.452	8.62
823.194	7.62
823.936	7.62
824.678	7.62
825.42	9.62
826.162	7.62
826.904	4.62
827.646	8.62
828.388	4.62
829.129	6.62
829.871	5.62
830.612	6.62
831.354	6.62
832.095	5.62
832.836	6.62
833.577	6.62
834.319	6.62
835.06	5.62
835.801	5.62
836.542	6.62
837.282	4.62
838.023	7.62
838.764	6.62
839.504	5.62
840.245	6.62
840.985	6.62
841.726	7.62
842.466	5.62
843.206	3.62
843.946	5.62
844.687	5.62
845.427	6.62
846.166	7.62
846.906	7.62
847.646	5.62
848.386	3.62
849.125	4.62
849.865	3.62
850.605	3.62
851.344	3.62
852.083	4.62
852.823	3.62
853.562	4.62
854.301	4.62
855.04	3.62
855.779	4.62
856.518	3.62
857.257	2.62
857.995	3.62
858.734	3.62
859.473	4.62
860.211	3.62
860.95	4.62
861.688	3.62
862.426	3.62
863.165	4.62
863.903	3.62
864.641	3.62
865.379	3.62
866.117	1.62
866.855	1.62
867.593	3.62
868.33	-0.38
869.068	-0.38
869.806	2.62
870.543	2.62
871.28	3.62
872.018	1.62
872.755	3.62
873.492	3.62
874.229	2.62
874.967	-0.38
875.703	3.62
876.44	1.62
877.177	2.62
877.914	1.62
878.651	4.62
879.387	2.62
880.124	1.62
880.86	3.62
881.597	0.62
882.333	0.62
883.069	0.62
883.806	1.62
884.542	3.62
885.278	2.62
886.014	2.62
886.749	2.62
887.485	1.62
888.221	3.62
888.957	3.62
889.692	2.62
890.428	0.62
891.163	1.62
891.899	0.62
892.634	0.62
893.369	0.62
894.104	2.62
894.839	3.62
895.574	1.62
896.309	3.62
897.044	1.62
897.779	3.62
898.514	1.62
899.248	0.62
899.983	3.62
900.717	1.62
901.452	2.62
902.186	-0.38
902.92	0.62
903.654	1.62
904.389	1.62
905.123	2.62
905.857	0.62
906.59	1.62
907.324	2.62
908.058	1.62
908.792	2.62
909.525	-0.38
910.259	2.62
910.992	0.62
911.726	1.62
912.459	-0.38
913.192	0.62
913.925	0.62
914.658	0.62
915.391	-1.38
916.124	3.62
916.857	1.62
917.59	0.62
918.323	-0.38
919.055	1.62
919.788	0.62
920.521	1.62
921.253	1.62
921.985	1.62
922.718	2.62
923.45	2.62
924.182	3.62
924.914	0.62
925.646	1.62
926.378	3.62
927.11	1.62
927.841	2.62
928.573	-0.38
929.305	-0.38
930.036	1.62
930.768	-1.38
931.499	2.62
932.23	-0.38
932.962	2.62
933.693	0.62
934.424	1.62
935.155	1.62
935.886	1.62
936.617	0.62
937.348	1.62
938.078	0.62
938.809	1.62
939.54	1.62
940.27	1.62
941.001	0.62
941.731	0.62
942.461	-0.38
943.191	-0.38
943.922	-0.38
944.652	-1.38
945.382	0.62
946.112	0.62
946.841	1.62
947.571	-0.38
948.301	2.62
949.031	-0.38
949.76	0.62
950.49	2.62
951.219	-0.38
951.948	2.62
952.678	2.62
953.407	-0.38
954.136	-1.38
954.865	0.62
955.594	2.62
956.323	1.62
957.052	-0.38
957.78	-0.38
958.509	2.62
959.238	2.62
959.966	-0.38
960.695	3.62
961.423	1.62
962.151	-0.38
962.88	2.62
963.608	0.62
964.336	1.62
965.064	0.62
965.792	0.62
966.52	-0.38
967.247	0.62
967.975	1.62
968.703	-0.38
969.43	-0.38
970.158	0.62
970.885	2.62
971.613	0.62
972.34	-1.38
973.067	1.62
973.794	-0.38
974.521	2.62
975.248	1.62
975.975	2.62
976.702	0.62
977.429	1.62
978.156	0.62
978.882	-1.38
979.609	0.62
980.335	1.62
981.062	-2.38
981.788	0.62
982.514	-0.38
983.24	2.62
983.967	1.62
984.693	-0.38
985.419	1.62
986.144	-0.38
986.87	0.62
987.596	2.62
988.322	1.62
989.047	-1.38
989.773	-0.38
990.498	-0.38
991.224	1.62
991.949	2.62
992.674	0.62
993.399	0.62
994.124	1.62
994.849	0.62
995.574	0.62
996.299	1.62
997.024	-0.38
997.749	1.62
998.473	2.62
999.198	0.62
999.922	0.62
1000.647	2.62
1001.371	3.62
1002.095	-2.38
1002.82	-0.38
1003.544	0.62
1004.268	6.62
1004.992	3.62
1005.716	5.62
1006.439	3.62
1007.163	4.62
1007.887	6.62
1008.611	2.62
1009.334	-0.38
1010.058	2.62
1010.781	1.62
1011.504	1.62
1012.228	0.62
1012.951	-0.38
1013.674	-0.38
1014.397	-1.38
1015.12	0.62
