节点500_705_QEPB04081__335__20-50-42-568.txt的数据

Date: Wed Nov 12 20:50:42 CST 2025
User: PC
Spectrometer: QEPB0408
触发模式: 0
积分时间 (秒): 1.000000E-2
Scans to average: 1
启用暗噪声校正: true
启用非线性校正: false
滑动平均宽度: 0
X轴模式: Wavelengths
Number of Pixels in Spectrum: 1044
>>>>>Begin Spectral Data<<<<<
220.843	4.5
221.644	4.5
222.444	6.5
223.244	4.5
224.045	5.5
224.845	6.5
225.645	9.5
226.445	7.5
227.245	4.5
228.045	8.5
228.845	7.5
229.645	7.5
230.444	7.5
231.244	8.5
232.043	10.5
232.843	8.5
233.642	8.5
234.442	8.5
235.241	10.5
236.04	9.5
236.839	12.5
237.638	9.5
238.437	8.5
239.236	11.5
240.035	10.5
240.833	10.5
241.632	12.5
242.43	10.5
243.229	10.5
244.027	12.5
244.826	13.5
245.624	11.5
246.422	14.5
247.22	14.5
248.018	14.5
248.816	14.5
249.614	12.5
250.412	18.5
251.21	14.5
252.007	16.5
252.805	15.5
253.602	16.5
254.4	20.5
255.197	17.5
255.994	17.5
256.791	20.5
257.589	19.5
258.386	18.5
259.183	22.5
259.979	21.5
260.776	23.5
261.573	21.5
262.37	23.5
263.166	23.5
263.963	23.5
264.759	26.5
265.556	22.5
266.352	26.5
267.148	27.5
267.944	28.5
268.74	28.5
269.536	29.5
270.332	29.5
271.128	30.5
271.924	29.5
272.719	31.5
273.515	34.5
274.311	32.5
275.106	31.5
275.901	33.5
276.697	32.5
277.492	34.5
278.287	33.5
279.082	32.5
279.877	33.5
280.672	31.5
281.467	34.5
282.262	32.5
283.056	34.5
283.851	33.5
284.646	31.5
285.44	33.5
286.234	36.5
287.029	33.5
287.823	33.5
288.617	32.5
289.411	32.5
290.205	31.5
290.999	32.5
291.793	31.5
292.587	30.5
293.381	29.5
294.174	30.5
294.968	28.5
295.761	26.5
296.555	27.5
297.348	27.5
298.141	26.5
298.935	28.5
299.728	25.5
300.521	22.5
301.314	23.5
302.107	22.5
302.899	20.5
303.692	21.5
304.485	20.5
305.277	19.5
306.07	19.5
306.862	22.5
307.655	22.5
308.447	21.5
309.239	20.5
310.031	23.5
310.823	16.5
311.615	16.5
312.407	17.5
313.199	19.5
313.991	16.5
314.783	15.5
315.574	17.5
316.366	14.5
317.157	14.5
317.949	14.5
318.74	13.5
319.531	14.5
320.322	15.5
321.113	14.5
321.904	15.5
322.695	16.5
323.486	12.5
324.277	12.5
325.068	11.5
325.858	13.5
326.649	14.5
327.439	13.5
328.23	10.5
329.02	13.5
329.81	13.5
330.6	12.5
331.391	11.5
332.181	11.5
332.971	11.5
333.76	12.5
334.55	10.5
335.34	12.5
336.13	10.5
336.919	11.5
337.709	12.5
338.498	11.5
339.287	12.5
340.077	11.5
340.866	8.5
341.655	13.5
342.444	12.5
343.233	13.5
344.022	7.5
344.811	10.5
345.6	10.5
346.388	10.5
347.177	10.5
347.965	10.5
348.754	10.5
349.542	9.5
350.33	11.5
351.119	9.5
351.907	11.5
352.695	8.5
353.483	12.5
354.271	12.5
355.059	12.5
355.846	11.5
356.634	7.5
357.422	9.5
358.209	8.5
358.997	9.5
359.784	9.5
360.571	10.5
361.359	10.5
362.146	9.5
362.933	12.5
363.72	8.5
364.507	9.5
365.294	11.5
366.081	8.5
366.867	9.5
367.654	9.5
368.44	11.5
369.227	10.5
370.013	10.5
370.8	11.5
371.586	8.5
372.372	8.5
373.158	8.5
373.944	8.5
374.73	8.5
375.516	7.5
376.302	9.5
377.088	11.5
377.873	7.5
378.659	9.5
379.445	9.5
380.23	9.5
381.015	7.5
381.801	11.5
382.586	8.5
383.371	9.5
384.156	12.5
384.941	11.5
385.726	12.5
386.511	8.5
387.296	9.5
388.08	10.5
388.865	11.5
389.649	13.5
390.434	11.5
391.218	9.5
392.003	9.5
392.787	10.5
393.571	14.5
394.355	11.5
395.139	14.5
395.923	11.5
396.707	12.5
397.491	11.5
398.274	13.5
399.058	13.5
399.842	14.5
400.625	11.5
401.408	11.5
402.192	12.5
402.975	13.5
403.758	12.5
404.541	12.5
405.324	13.5
406.107	12.5
406.89	16.5
407.673	14.5
408.456	16.5
409.238	16.5
410.021	14.5
410.803	18.5
411.586	15.5
412.368	18.5
413.151	16.5
413.933	16.5
414.715	18.5
415.497	16.5
416.279	21.5
417.061	18.5
417.843	19.5
418.624	19.5
419.406	20.5
420.188	20.5
420.969	21.5
421.751	21.5
422.532	20.5
423.313	23.5
424.095	22.5
424.876	22.5
425.657	22.5
426.438	25.5
427.219	25.5
428	29.5
428.78	26.5
429.561	27.5
430.342	30.5
431.122	32.5
431.903	29.5
432.683	34.5
433.464	32.5
434.244	35.5
435.024	40.5
435.804	40.5
436.584	40.5
437.364	43.5
438.144	48.5
438.924	48.5
439.704	51.5
440.483	57.5
441.263	59.5
442.042	66.5
442.822	67.5
443.601	73.5
444.38	76.5
445.16	85.5
445.939	96.5
446.718	104.5
447.497	114.5
448.276	119.5
449.054	136.5
449.833	146.5
450.612	163.5
451.391	183.5
452.169	197.5
452.948	219.5
453.726	244.5
454.504	273.5
455.282	297.5
456.061	325.5
456.839	370.5
457.617	414.5
458.395	458.5
459.172	503.5
459.95	564.5
460.728	632.5
461.506	715.5
462.283	778.5
463.061	886.5
463.838	980.5
464.615	1097.5
465.393	1224.5
466.17	1358.5
466.947	1507.5
467.724	1672.5
468.501	1851.5
469.278	2048.5
470.055	2261.5
470.831	2497.5
471.608	2740.5
472.385	3036.5
473.161	3338.5
473.938	3665.5
474.714	4043.5
475.49	4431.5
476.266	4861.5
477.043	5312.5
477.819	5811.5
478.595	6370.5
479.371	6950.5
480.146	7577.5
480.922	8252.5
481.698	9050.5
482.473	9817.5
483.249	10636.5
484.024	11588.5
484.8	12601.5
485.575	13593.5
486.35	14763.5
487.126	16024.5
487.901	17235.5
488.676	18656.5
489.451	20067.5
490.225	21645.5
491	23122.5
491.775	24773.5
492.55	26470.5
493.324	28287.5
494.099	29981.5
494.873	31808.5
495.647	33580.5
496.422	35395.5
497.196	37111.5
497.97	38764.5
498.744	40327.5
499.518	41898.5
500.292	43235.5
501.066	44290.5
501.839	45210.5
502.613	46011.5
503.387	46546.5
504.16	47003.5
504.934	47233.5
505.707	47086.5
506.48	46824.5
507.253	46271.5
508.027	45590.5
508.8	44599.5
509.573	43526.5
510.346	42533.5
511.118	41521.5
511.891	40349.5
512.664	38836.5
513.437	37352.5
514.209	35927.5
514.982	34589.5
515.754	33149.5
516.526	31742.5
517.298	30506.5
518.071	29321.5
518.843	28198.5
519.615	27012.5
520.387	25969.5
521.159	24994.5
521.93	23837.5
522.702	22898.5
523.474	21963.5
524.245	21029.5
525.017	20078.5
525.788	19173.5
526.56	18445.5
527.331	17596.5
528.102	16642.5
528.873	15859.5
529.644	15105.5
530.415	14459.5
531.186	13702.5
531.957	13015.5
532.728	12402.5
533.498	11679.5
534.269	11094.5
535.039	10434.5
535.81	9930.5
536.58	9380.5
537.351	8869.5
538.121	8408.5
538.891	7969.5
539.661	7547.5
540.431	7139.5
541.201	6768.5
541.971	6411.5
542.741	6035.5
543.51	5764.5
544.28	5497.5
545.05	5212.5
545.819	4955.5
546.588	4718.5
547.358	4521.5
548.127	4294.5
548.896	4067.5
549.665	3858.5
550.434	3652.5
551.203	3482.5
551.972	3306.5
552.741	3146.5
553.51	2938.5
554.278	2780.5
555.047	2609.5
555.815	2458.5
556.584	2344.5
557.352	2224.5
558.121	2090.5
558.889	1964.5
559.657	1869.5
560.425	1784.5
561.193	1686.5
561.961	1586.5
562.729	1496.5
563.496	1417.5
564.264	1337.5
565.032	1271.5
565.799	1198.5
566.567	1131.5
567.334	1073.5
568.101	1013.5
568.869	954.5
569.636	889.5
570.403	856.5
571.17	812.5
571.937	761.5
572.704	715.5
573.471	678.5
574.237	648.5
575.004	592.5
575.771	564.5
576.537	535.5
577.303	504.5
578.07	474.5
578.836	456.5
579.602	424.5
580.368	409.5
581.134	389.5
581.9	366.5
582.666	353.5
583.432	330.5
584.198	316.5
584.964	296.5
585.729	282.5
586.495	265.5
587.26	255.5
588.025	238.5
588.791	227.5
589.556	218.5
590.321	204.5
591.086	195.5
591.851	178.5
592.616	174.5
593.381	171.5
594.146	163.5
594.911	155.5
595.675	143.5
596.44	145.5
597.204	129.5
597.969	131.5
598.733	119.5
599.497	122.5
600.261	114.5
601.025	109.5
601.79	99.5
602.553	96.5
603.317	101.5
604.081	86.5
604.845	90.5
605.609	84.5
606.372	78.5
607.136	78.5
607.899	78.5
608.662	72.5
609.426	69.5
610.189	70.5
610.952	64.5
611.715	63.5
612.478	57.5
613.241	53.5
614.004	54.5
614.767	52.5
615.529	52.5
616.292	50.5
617.055	46.5
617.817	48.5
618.579	45.5
619.342	44.5
620.104	42.5
620.866	39.5
621.628	39.5
622.39	39.5
623.152	34.5
623.914	35.5
624.676	34.5
625.438	32.5
626.199	36.5
626.961	32.5
627.722	30.5
628.484	30.5
629.245	27.5
630.006	29.5
630.768	28.5
631.529	26.5
632.29	26.5
633.051	25.5
633.812	25.5
634.573	25.5
635.333	22.5
636.094	22.5
636.855	21.5
637.615	18.5
638.376	20.5
639.136	19.5
639.896	22.5
640.657	20.5
641.417	18.5
642.177	17.5
642.937	17.5
643.697	16.5
644.457	17.5
645.216	19.5
645.976	14.5
646.736	16.5
647.495	16.5
648.255	17.5
649.014	14.5
649.774	16.5
650.533	14.5
651.292	12.5
652.051	13.5
652.81	11.5
653.569	12.5
654.328	14.5
655.087	10.5
655.846	12.5
656.604	11.5
657.363	11.5
658.121	11.5
658.88	10.5
659.638	10.5
660.397	11.5
661.155	11.5
661.913	11.5
662.671	10.5
663.429	11.5
664.187	10.5
664.945	9.5
665.703	10.5
666.46	9.5
667.218	9.5
667.976	10.5
668.733	10.5
669.49	8.5
670.248	9.5
671.005	10.5
671.762	8.5
672.519	8.5
673.276	8.5
674.033	8.5
674.79	8.5
675.547	9.5
676.304	7.5
677.06	7.5
677.817	10.5
678.574	8.5
679.33	7.5
680.086	9.5
680.843	7.5
681.599	8.5
682.355	9.5
683.111	8.5
683.867	7.5
684.623	6.5
685.379	8.5
686.135	9.5
686.89	7.5
687.646	5.5
688.402	8.5
689.157	8.5
689.912	6.5
690.668	6.5
691.423	6.5
692.178	8.5
692.933	10.5
693.688	7.5
694.443	5.5
695.198	6.5
695.953	11.5
696.708	6.5
697.462	6.5
698.217	6.5
698.972	5.5
699.726	10.5
700.48	8.5
701.235	8.5
701.989	6.5
702.743	5.5
703.497	7.5
704.251	7.5
705.005	9.5
705.759	6.5
706.513	6.5
707.266	9.5
708.02	6.5
708.774	9.5
709.527	5.5
710.28	8.5
711.034	8.5
711.787	8.5
712.54	6.5
713.293	6.5
714.046	7.5
714.799	8.5
715.552	8.5
716.305	6.5
717.058	8.5
717.81	8.5
718.563	7.5
719.315	8.5
720.068	7.5
720.82	7.5
721.573	6.5
722.325	7.5
723.077	6.5
723.829	7.5
724.581	8.5
725.333	6.5
726.085	9.5
726.836	8.5
727.588	6.5
728.34	9.5
729.091	8.5
729.843	8.5
730.594	9.5
731.346	7.5
732.097	7.5
732.848	4.5
733.599	9.5
734.35	7.5
735.101	7.5
735.852	8.5
736.603	10.5
737.354	7.5
738.104	9.5
738.855	8.5
739.605	8.5
740.356	8.5
741.106	8.5
741.856	8.5
742.607	13.5
743.357	8.5
744.107	10.5
744.857	10.5
745.607	8.5
746.357	10.5
747.106	11.5
747.856	11.5
748.606	10.5
749.355	12.5
750.105	11.5
750.854	9.5
751.603	14.5
752.353	10.5
753.102	10.5
753.851	9.5
754.6	11.5
755.349	14.5
756.098	10.5
756.847	10.5
757.595	12.5
758.344	9.5
759.093	10.5
759.841	11.5
760.589	11.5
761.338	10.5
762.086	12.5
762.834	12.5
763.582	12.5
764.331	12.5
765.079	10.5
765.826	13.5
766.574	15.5
767.322	13.5
768.07	13.5
768.817	13.5
769.565	15.5
770.312	14.5
771.06	11.5
771.807	12.5
772.554	14.5
773.302	14.5
774.049	14.5
774.796	13.5
775.543	15.5
776.29	15.5
777.036	11.5
777.783	14.5
778.53	16.5
779.276	17.5
780.023	15.5
780.769	14.5
781.516	16.5
782.262	15.5
783.008	15.5
783.754	15.5
784.5	16.5
785.246	15.5
785.992	17.5
786.738	14.5
787.484	16.5
788.23	13.5
788.975	15.5
789.721	16.5
790.466	15.5
791.212	12.5
791.957	10.5
792.702	12.5
793.447	13.5
794.193	14.5
794.938	13.5
795.683	12.5
796.427	13.5
797.172	12.5
797.917	11.5
798.662	13.5
799.406	13.5
800.151	10.5
800.895	10.5
801.64	12.5
802.384	13.5
803.128	9.5
803.872	11.5
804.616	11.5
805.36	13.5
806.104	10.5
806.848	11.5
807.592	10.5
808.336	9.5
809.079	10.5
809.823	10.5
810.566	9.5
811.31	7.5
812.053	8.5
812.796	8.5
813.539	8.5
814.283	9.5
815.026	8.5
815.769	8.5
816.511	8.5
817.254	10.5
817.997	7.5
818.74	8.5
819.482	8.5
820.225	8.5
820.967	8.5
821.71	5.5
822.452	5.5
823.194	9.5
823.936	6.5
824.678	7.5
825.42	7.5
826.162	6.5
826.904	4.5
827.646	5.5
828.388	7.5
829.129	5.5
829.871	8.5
830.612	5.5
831.354	7.5
832.095	6.5
832.836	6.5
833.577	4.5
834.319	5.5
835.06	5.5
835.801	5.5
836.542	7.5
837.282	5.5
838.023	5.5
838.764	6.5
839.504	6.5
840.245	4.5
840.985	8.5
841.726	3.5
842.466	4.5
843.206	5.5
843.946	4.5
844.687	4.5
845.427	4.5
846.166	6.5
846.906	3.5
847.646	5.5
848.386	3.5
849.125	0.5
849.865	6.5
850.605	5.5
851.344	4.5
852.083	5.5
852.823	4.5
853.562	7.5
854.301	2.5
855.04	4.5
855.779	2.5
856.518	5.5
857.257	2.5
857.995	4.5
858.734	3.5
859.473	2.5
860.211	4.5
860.95	2.5
861.688	4.5
862.426	4.5
863.165	2.5
863.903	3.5
864.641	1.5
865.379	5.5
866.117	3.5
866.855	3.5
867.593	2.5
868.33	2.5
869.068	1.5
869.806	3.5
870.543	1.5
871.28	3.5
872.018	2.5
872.755	4.5
873.492	-1.5
874.229	2.5
874.967	2.5
875.703	2.5
876.44	1.5
877.177	1.5
877.914	4.5
878.651	1.5
879.387	3.5
880.124	2.5
880.86	2.5
881.597	1.5
882.333	-1.5
883.069	0.5
883.806	1.5
884.542	1.5
885.278	2.5
886.014	1.5
886.749	1.5
887.485	-0.5
888.221	2.5
888.957	1.5
889.692	3.5
890.428	1.5
891.163	1.5
891.899	0.5
892.634	-1.5
893.369	2.5
894.104	2.5
894.839	2.5
895.574	1.5
896.309	0.5
897.044	-0.5
897.779	2.5
898.514	0.5
899.248	-1.5
899.983	0.5
900.717	0.5
901.452	-0.5
902.186	1.5
902.92	0.5
903.654	-1.5
904.389	0.5
905.123	-1.5
905.857	0.5
906.59	1.5
907.324	0.5
908.058	3.5
908.792	-0.5
909.525	1.5
910.259	-1.5
910.992	0.5
911.726	0.5
912.459	0.5
913.192	-0.5
913.925	-0.5
914.658	1.5
915.391	1.5
916.124	2.5
916.857	-1.5
917.59	-1.5
918.323	0.5
919.055	-0.5
919.788	1.5
920.521	1.5
921.253	-0.5
921.985	-1.5
922.718	-1.5
923.45	-0.5
924.182	0.5
924.914	-1.5
925.646	-0.5
926.378	0.5
927.11	1.5
927.841	-0.5
928.573	1.5
929.305	0.5
930.036	-0.5
930.768	2.5
931.499	-0.5
932.23	2.5
932.962	-1.5
933.693	0.5
934.424	0.5
935.155	-2.5
935.886	-0.5
936.617	0.5
937.348	0.5
938.078	0.5
938.809	1.5
939.54	-1.5
940.27	-0.5
941.001	-0.5
941.731	-1.5
942.461	0.5
943.191	-0.5
943.922	-1.5
944.652	2.5
945.382	-3.5
946.112	1.5
946.841	1.5
947.571	1.5
948.301	-0.5
949.031	-1.5
949.76	-1.5
950.49	-1.5
951.219	0.5
951.948	-0.5
952.678	2.5
953.407	-0.5
954.136	-0.5
954.865	1.5
955.594	1.5
956.323	1.5
957.052	2.5
957.78	-0.5
958.509	-0.5
959.238	-1.5
959.966	0.5
960.695	-1.5
961.423	-0.5
962.151	0.5
962.88	0.5
963.608	1.5
964.336	1.5
965.064	0.5
965.792	-1.5
966.52	-0.5
967.247	0.5
967.975	-0.5
968.703	-0.5
969.43	-2.5
970.158	-0.5
970.885	2.5
971.613	-2.5
972.34	1.5
973.067	-0.5
973.794	2.5
974.521	-0.5
975.248	-1.5
975.975	-0.5
976.702	-0.5
977.429	0.5
978.156	-1.5
978.882	-0.5
979.609	-0.5
980.335	-1.5
981.062	-0.5
981.788	-1.5
982.514	-0.5
983.24	1.5
983.967	0.5
984.693	0.5
985.419	-1.5
986.144	1.5
986.87	1.5
987.596	2.5
988.322	-1.5
989.047	0.5
989.773	0.5
990.498	-1.5
991.224	1.5
991.949	0.5
992.674	-1.5
993.399	1.5
994.124	0.5
994.849	-1.5
995.574	-1.5
996.299	1.5
997.024	0.5
997.749	-1.5
998.473	2.5
999.198	-1.5
999.922	-0.5
1000.647	-1.5
1001.371	2.5
1002.095	-1.5
1002.82	-2.5
1003.544	1.5
1004.268	5.5
1004.992	4.5
1005.716	4.5
1006.439	5.5
1007.163	5.5
1007.887	6.5
1008.611	-1.5
1009.334	-2.5
1010.058	-0.5
1010.781	0.5
1011.504	0.5
1012.228	-1.5
1012.951	-0.5
1013.674	0.5
1014.397	-0.5
1015.12	0.5
