节点500_705_QEPB04081__557__20-53-51-731.txt的数据

Date: Wed Nov 12 20:53:51 CST 2025
User: PC
Spectrometer: QEPB0408
触发模式: 0
积分时间 (秒): 1.000000E-2
Scans to average: 1
启用暗噪声校正: true
启用非线性校正: false
滑动平均宽度: 0
X轴模式: Wavelengths
Number of Pixels in Spectrum: 1044
>>>>>Begin Spectral Data<<<<<
220.843	5.12
221.644	6.12
222.444	5.12
223.244	6.12
224.045	3.12
224.845	7.12
225.645	9.12
226.445	5.12
227.245	7.12
228.045	7.12
228.845	8.12
229.645	3.12
230.444	9.12
231.244	8.12
232.043	7.12
232.843	10.12
233.642	7.12
234.442	10.12
235.241	8.12
236.04	8.12
236.839	9.12
237.638	7.12
238.437	10.12
239.236	10.12
240.035	10.12
240.833	11.12
241.632	11.12
242.43	13.12
243.229	9.12
244.027	14.12
244.826	10.12
245.624	12.12
246.422	13.12
247.22	14.12
248.018	13.12
248.816	11.12
249.614	15.12
250.412	15.12
251.21	17.12
252.007	16.12
252.805	17.12
253.602	19.12
254.4	21.12
255.197	18.12
255.994	18.12
256.791	21.12
257.589	20.12
258.386	20.12
259.183	22.12
259.979	19.12
260.776	23.12
261.573	21.12
262.37	23.12
263.166	26.12
263.963	22.12
264.759	22.12
265.556	25.12
266.352	24.12
267.148	24.12
267.944	26.12
268.74	27.12
269.536	26.12
270.332	31.12
271.128	26.12
271.924	29.12
272.719	29.12
273.515	29.12
274.311	31.12
275.106	28.12
275.901	32.12
276.697	29.12
277.492	32.12
278.287	29.12
279.082	31.12
279.877	30.12
280.672	31.12
281.467	32.12
282.262	33.12
283.056	32.12
283.851	31.12
284.646	32.12
285.44	30.12
286.234	34.12
287.029	31.12
287.823	34.12
288.617	31.12
289.411	31.12
290.205	27.12
290.999	33.12
291.793	29.12
292.587	29.12
293.381	29.12
294.174	30.12
294.968	30.12
295.761	27.12
296.555	25.12
297.348	24.12
298.141	26.12
298.935	28.12
299.728	25.12
300.521	25.12
301.314	26.12
302.107	22.12
302.899	22.12
303.692	20.12
304.485	22.12
305.277	22.12
306.07	22.12
306.862	23.12
307.655	21.12
308.447	19.12
309.239	21.12
310.031	23.12
310.823	18.12
311.615	18.12
312.407	19.12
313.199	17.12
313.991	17.12
314.783	19.12
315.574	18.12
316.366	15.12
317.157	17.12
317.949	15.12
318.74	16.12
319.531	15.12
320.322	13.12
321.113	15.12
321.904	15.12
322.695	11.12
323.486	13.12
324.277	14.12
325.068	14.12
325.858	15.12
326.649	12.12
327.439	12.12
328.23	12.12
329.02	12.12
329.81	16.12
330.6	11.12
331.391	12.12
332.181	13.12
332.971	12.12
333.76	12.12
334.55	12.12
335.34	12.12
336.13	11.12
336.919	13.12
337.709	10.12
338.498	12.12
339.287	13.12
340.077	12.12
340.866	10.12
341.655	11.12
342.444	11.12
343.233	11.12
344.022	11.12
344.811	12.12
345.6	10.12
346.388	12.12
347.177	12.12
347.965	12.12
348.754	13.12
349.542	12.12
350.33	10.12
351.119	13.12
351.907	11.12
352.695	9.12
353.483	13.12
354.271	11.12
355.059	11.12
355.846	9.12
356.634	12.12
357.422	10.12
358.209	10.12
358.997	11.12
359.784	9.12
360.571	10.12
361.359	10.12
362.146	11.12
362.933	10.12
363.72	8.12
364.507	10.12
365.294	11.12
366.081	9.12
366.867	13.12
367.654	11.12
368.44	11.12
369.227	11.12
370.013	9.12
370.8	10.12
371.586	10.12
372.372	7.12
373.158	11.12
373.944	11.12
374.73	8.12
375.516	8.12
376.302	10.12
377.088	10.12
377.873	7.12
378.659	8.12
379.445	10.12
380.23	9.12
381.015	8.12
381.801	12.12
382.586	9.12
383.371	9.12
384.156	11.12
384.941	11.12
385.726	11.12
386.511	12.12
387.296	8.12
388.08	10.12
388.865	12.12
389.649	8.12
390.434	11.12
391.218	11.12
392.003	12.12
392.787	12.12
393.571	12.12
394.355	12.12
395.139	11.12
395.923	11.12
396.707	15.12
397.491	13.12
398.274	16.12
399.058	11.12
399.842	14.12
400.625	15.12
401.408	14.12
402.192	14.12
402.975	14.12
403.758	14.12
404.541	15.12
405.324	14.12
406.107	14.12
406.89	13.12
407.673	11.12
408.456	17.12
409.238	15.12
410.021	13.12
410.803	14.12
411.586	17.12
412.368	17.12
413.151	16.12
413.933	16.12
414.715	15.12
415.497	21.12
416.279	20.12
417.061	19.12
417.843	20.12
418.624	19.12
419.406	20.12
420.188	19.12
420.969	25.12
421.751	17.12
422.532	22.12
423.313	23.12
424.095	22.12
424.876	24.12
425.657	26.12
426.438	25.12
427.219	24.12
428	25.12
428.78	29.12
429.561	28.12
430.342	29.12
431.122	31.12
431.903	32.12
432.683	33.12
433.464	34.12
434.244	36.12
435.024	36.12
435.804	42.12
436.584	43.12
437.364	45.12
438.144	47.12
438.924	51.12
439.704	58.12
440.483	52.12
441.263	62.12
442.042	66.12
442.822	70.12
443.601	79.12
444.38	84.12
445.16	94.12
445.939	101.12
446.718	110.12
447.497	118.12
448.276	128.12
449.054	147.12
449.833	153.12
450.612	170.12
451.391	192.12
452.169	209.12
452.948	230.12
453.726	258.12
454.504	289.12
455.282	316.12
456.061	353.12
456.839	395.12
457.617	440.12
458.395	494.12
459.172	543.12
459.95	599.12
460.728	663.12
461.506	751.12
462.283	825.12
463.061	913.12
463.838	1026.12
464.615	1123.12
465.393	1263.12
466.17	1389.12
466.947	1550.12
467.724	1695.12
468.501	1865.12
469.278	2069.12
470.055	2272.12
470.831	2494.12
471.608	2774.12
472.385	3019.12
473.161	3304.12
473.938	3636.12
474.714	3960.12
475.49	4328.12
476.266	4743.12
477.043	5151.12
477.819	5604.12
478.595	6124.12
479.371	6634.12
480.146	7192.12
480.922	7833.12
481.698	8486.12
482.473	9190.12
483.249	9930.12
484.024	10764.12
484.8	11639.12
485.575	12529.12
486.35	13517.12
487.126	14671.12
487.901	15725.12
488.676	16895.12
489.451	18188.12
490.225	19539.12
491	20877.12
491.775	22279.12
492.55	23775.12
493.324	25303.12
494.099	26855.12
494.873	28508.12
495.647	30136.12
496.422	31687.12
497.196	33319.12
497.97	34828.12
498.744	36323.12
499.518	37924.12
500.292	39288.12
501.066	40279.12
501.839	41261.12
502.613	42207.12
503.387	42877.12
504.16	43517.12
504.934	43926.12
505.707	44153.12
506.48	44000.12
507.253	43895.12
508.027	43466.12
508.8	42919.12
509.573	42227.12
510.346	41389.12
511.118	40619.12
511.891	39629.12
512.664	38294.12
513.437	37086.12
514.209	35788.12
514.982	34498.12
515.754	33307.12
516.526	31902.12
517.298	30784.12
518.071	29601.12
518.843	28491.12
519.615	27283.12
520.387	26189.12
521.159	25224.12
521.93	24188.12
522.702	23203.12
523.474	22248.12
524.245	21344.12
525.017	20431.12
525.788	19590.12
526.56	18775.12
527.331	18057.12
528.102	17149.12
528.873	16334.12
529.644	15565.12
530.415	14844.12
531.186	14178.12
531.957	13501.12
532.728	12805.12
533.498	12122.12
534.269	11547.12
535.039	10949.12
535.81	10364.12
536.58	9817.12
537.351	9256.12
538.121	8808.12
538.891	8286.12
539.661	7892.12
540.431	7457.12
541.201	7099.12
541.971	6716.12
542.741	6321.12
543.51	6022.12
544.28	5745.12
545.05	5490.12
545.819	5212.12
546.588	4978.12
547.358	4730.12
548.127	4500.12
548.896	4263.12
549.665	4071.12
550.434	3859.12
551.203	3659.12
551.972	3472.12
552.741	3298.12
553.51	3103.12
554.278	2941.12
555.047	2782.12
555.815	2648.12
556.584	2486.12
557.352	2355.12
558.121	2241.12
558.889	2108.12
559.657	1999.12
560.425	1875.12
561.193	1793.12
561.961	1705.12
562.729	1577.12
563.496	1519.12
564.264	1444.12
565.032	1357.12
565.799	1288.12
566.567	1206.12
567.334	1139.12
568.101	1087.12
568.869	1022.12
569.636	963.12
570.403	899.12
571.17	857.12
571.937	808.12
572.704	773.12
573.471	718.12
574.237	672.12
575.004	645.12
575.771	596.12
576.537	567.12
577.303	543.12
578.07	505.12
578.836	479.12
579.602	447.12
580.368	433.12
581.134	412.12
581.9	389.12
582.666	366.12
583.432	352.12
584.198	332.12
584.964	320.12
585.729	303.12
586.495	286.12
587.26	271.12
588.025	253.12
588.791	238.12
589.556	229.12
590.321	218.12
591.086	210.12
591.851	197.12
592.616	187.12
593.381	178.12
594.146	169.12
594.911	166.12
595.675	162.12
596.44	154.12
597.204	143.12
597.969	136.12
598.733	136.12
599.497	127.12
600.261	120.12
601.025	119.12
601.79	111.12
602.553	103.12
603.317	99.12
604.081	95.12
604.845	91.12
605.609	88.12
606.372	88.12
607.136	81.12
607.899	78.12
608.662	77.12
609.426	72.12
610.189	71.12
610.952	71.12
611.715	63.12
612.478	61.12
613.241	59.12
614.004	57.12
614.767	57.12
615.529	53.12
616.292	52.12
617.055	52.12
617.817	49.12
618.579	48.12
619.342	47.12
620.104	44.12
620.866	41.12
621.628	39.12
622.39	41.12
623.152	38.12
623.914	36.12
624.676	37.12
625.438	36.12
626.199	33.12
626.961	34.12
627.722	31.12
628.484	31.12
629.245	29.12
630.006	29.12
630.768	32.12
631.529	29.12
632.29	26.12
633.051	25.12
633.812	26.12
634.573	24.12
635.333	22.12
636.094	25.12
636.855	22.12
637.615	21.12
638.376	22.12
639.136	18.12
639.896	21.12
640.657	21.12
641.417	17.12
642.177	18.12
642.937	16.12
643.697	20.12
644.457	17.12
645.216	15.12
645.976	19.12
646.736	14.12
647.495	18.12
648.255	17.12
649.014	17.12
649.774	15.12
650.533	12.12
651.292	17.12
652.051	13.12
652.81	15.12
653.569	15.12
654.328	12.12
655.087	13.12
655.846	14.12
656.604	13.12
657.363	13.12
658.121	10.12
658.88	13.12
659.638	14.12
660.397	14.12
661.155	11.12
661.913	12.12
662.671	11.12
663.429	11.12
664.187	11.12
664.945	9.12
665.703	11.12
666.46	10.12
667.218	11.12
667.976	12.12
668.733	10.12
669.49	9.12
670.248	11.12
671.005	8.12
671.762	10.12
672.519	10.12
673.276	11.12
674.033	7.12
674.79	9.12
675.547	7.12
676.304	10.12
677.06	11.12
677.817	9.12
678.574	10.12
679.33	8.12
680.086	8.12
680.843	6.12
681.599	9.12
682.355	10.12
683.111	6.12
683.867	10.12
684.623	6.12
685.379	7.12
686.135	8.12
686.89	9.12
687.646	9.12
688.402	10.12
689.157	10.12
689.912	10.12
690.668	9.12
691.423	7.12
692.178	8.12
692.933	7.12
693.688	8.12
694.443	7.12
695.198	7.12
695.953	7.12
696.708	7.12
697.462	6.12
698.217	7.12
698.972	7.12
699.726	10.12
700.48	7.12
701.235	7.12
701.989	9.12
702.743	7.12
703.497	9.12
704.251	6.12
705.005	9.12
705.759	8.12
706.513	8.12
707.266	10.12
708.02	8.12
708.774	7.12
709.527	7.12
710.28	6.12
711.034	10.12
711.787	7.12
712.54	7.12
713.293	6.12
714.046	8.12
714.799	8.12
715.552	6.12
716.305	9.12
717.058	8.12
717.81	7.12
718.563	9.12
719.315	8.12
720.068	6.12
720.82	8.12
721.573	7.12
722.325	10.12
723.077	8.12
723.829	8.12
724.581	8.12
725.333	6.12
726.085	9.12
726.836	9.12
727.588	8.12
728.34	9.12
729.091	7.12
729.843	12.12
730.594	11.12
731.346	9.12
732.097	7.12
732.848	11.12
733.599	7.12
734.35	11.12
735.101	8.12
735.852	11.12
736.603	8.12
737.354	9.12
738.104	9.12
738.855	8.12
739.605	9.12
740.356	10.12
741.106	10.12
741.856	9.12
742.607	10.12
743.357	10.12
744.107	10.12
744.857	11.12
745.607	9.12
746.357	9.12
747.106	11.12
747.856	11.12
748.606	9.12
749.355	10.12
750.105	9.12
750.854	9.12
751.603	15.12
752.353	10.12
753.102	11.12
753.851	10.12
754.6	11.12
755.349	10.12
756.098	10.12
756.847	14.12
757.595	11.12
758.344	9.12
759.093	13.12
759.841	11.12
760.589	9.12
761.338	10.12
762.086	9.12
762.834	11.12
763.582	14.12
764.331	12.12
765.079	14.12
765.826	14.12
766.574	10.12
767.322	10.12
768.07	11.12
768.817	12.12
769.565	12.12
770.312	12.12
771.06	11.12
771.807	15.12
772.554	14.12
773.302	12.12
774.049	14.12
774.796	12.12
775.543	15.12
776.29	17.12
777.036	13.12
777.783	15.12
778.53	14.12
779.276	16.12
780.023	14.12
780.769	15.12
781.516	14.12
782.262	15.12
783.008	13.12
783.754	13.12
784.5	14.12
785.246	15.12
785.992	14.12
786.738	13.12
787.484	15.12
788.23	15.12
788.975	14.12
789.721	17.12
790.466	12.12
791.212	15.12
791.957	15.12
792.702	13.12
793.447	14.12
794.193	13.12
794.938	13.12
795.683	12.12
796.427	10.12
797.172	13.12
797.917	11.12
798.662	13.12
799.406	10.12
800.151	15.12
800.895	12.12
801.64	11.12
802.384	11.12
803.128	12.12
803.872	12.12
804.616	11.12
805.36	12.12
806.104	10.12
806.848	11.12
807.592	13.12
808.336	9.12
809.079	11.12
809.823	10.12
810.566	9.12
811.31	8.12
812.053	11.12
812.796	9.12
813.539	7.12
814.283	11.12
815.026	9.12
815.769	10.12
816.511	10.12
817.254	9.12
817.997	10.12
818.74	10.12
819.482	12.12
820.225	8.12
820.967	7.12
821.71	6.12
822.452	6.12
823.194	7.12
823.936	6.12
824.678	7.12
825.42	8.12
826.162	6.12
826.904	9.12
827.646	5.12
828.388	7.12
829.129	7.12
829.871	5.12
830.612	8.12
831.354	4.12
832.095	9.12
832.836	6.12
833.577	7.12
834.319	6.12
835.06	5.12
835.801	8.12
836.542	5.12
837.282	6.12
838.023	5.12
838.764	3.12
839.504	5.12
840.245	6.12
840.985	7.12
841.726	5.12
842.466	5.12
843.206	5.12
843.946	4.12
844.687	5.12
845.427	5.12
846.166	8.12
846.906	3.12
847.646	7.12
848.386	6.12
849.125	8.12
849.865	5.12
850.605	3.12
851.344	5.12
852.083	4.12
852.823	5.12
853.562	3.12
854.301	4.12
855.04	5.12
855.779	5.12
856.518	5.12
857.257	5.12
857.995	3.12
858.734	6.12
859.473	4.12
860.211	5.12
860.95	4.12
861.688	3.12
862.426	4.12
863.165	3.12
863.903	4.12
864.641	3.12
865.379	5.12
866.117	4.12
866.855	3.12
867.593	5.12
868.33	3.12
869.068	4.12
869.806	2.12
870.543	4.12
871.28	2.12
872.018	4.12
872.755	3.12
873.492	2.12
874.229	3.12
874.967	0.12
875.703	3.12
876.44	3.12
877.177	1.12
877.914	2.12
878.651	2.12
879.387	3.12
880.124	3.12
880.86	2.12
881.597	2.12
882.333	0.12
883.069	2.12
883.806	1.12
884.542	2.12
885.278	3.12
886.014	2.12
886.749	0.12
887.485	0.12
888.221	3.12
888.957	3.12
889.692	2.12
890.428	3.12
891.163	-0.88
891.899	1.12
892.634	0.12
893.369	1.12
894.104	3.12
894.839	0.12
895.574	0.12
896.309	3.12
897.044	3.12
897.779	1.12
898.514	3.12
899.248	1.12
899.983	2.12
900.717	0.12
901.452	3.12
902.186	1.12
902.92	1.12
903.654	2.12
904.389	1.12
905.123	4.12
905.857	2.12
906.59	0.12
907.324	3.12
908.058	2.12
908.792	2.12
909.525	1.12
910.259	0.12
910.992	3.12
911.726	2.12
912.459	0.12
913.192	-0.88
913.925	1.12
914.658	1.12
915.391	-0.88
916.124	3.12
916.857	2.12
917.59	2.12
918.323	0.12
919.055	1.12
919.788	1.12
920.521	-0.88
921.253	-0.88
921.985	4.12
922.718	0.12
923.45	1.12
924.182	2.12
924.914	2.12
925.646	-0.88
926.378	0.12
927.11	0.12
927.841	2.12
928.573	1.12
929.305	-0.88
930.036	2.12
930.768	-0.88
931.499	1.12
932.23	0.12
932.962	1.12
933.693	-0.88
934.424	1.12
935.155	1.12
935.886	1.12
936.617	-0.88
937.348	-0.88
938.078	0.12
938.809	2.12
939.54	-1.88
940.27	1.12
941.001	2.12
941.731	1.12
942.461	2.12
943.191	1.12
943.922	-2.88
944.652	1.12
945.382	0.12
946.112	1.12
946.841	1.12
947.571	1.12
948.301	-0.88
949.031	2.12
949.76	1.12
950.49	-1.88
951.219	2.12
951.948	-0.88
952.678	-0.88
953.407	2.12
954.136	1.12
954.865	3.12
955.594	0.12
956.323	3.12
957.052	2.12
957.78	2.12
958.509	1.12
959.238	-0.88
959.966	1.12
960.695	-1.88
961.423	1.12
962.151	1.12
962.88	1.12
963.608	0.12
964.336	3.12
965.064	2.12
965.792	-0.88
966.52	2.12
967.247	2.12
967.975	2.12
968.703	1.12
969.43	0.12
970.158	1.12
970.885	0.12
971.613	0.12
972.34	2.12
973.067	0.12
973.794	-0.88
974.521	0.12
975.248	2.12
975.975	0.12
976.702	2.12
977.429	1.12
978.156	-2.88
978.882	1.12
979.609	1.12
980.335	-2.88
981.062	2.12
981.788	-0.88
982.514	0.12
983.24	-1.88
983.967	0.12
984.693	0.12
985.419	-1.88
986.144	3.12
986.87	-0.88
987.596	-0.88
988.322	-0.88
989.047	0.12
989.773	0.12
990.498	-0.88
991.224	0.12
991.949	1.12
992.674	1.12
993.399	1.12
994.124	2.12
994.849	3.12
995.574	1.12
996.299	1.12
997.024	-2.88
997.749	1.12
998.473	0.12
999.198	0.12
999.922	1.12
1000.647	-1.88
1001.371	4.12
1002.095	1.12
1002.82	-1.88
1003.544	-0.88
1004.268	4.12
1004.992	5.12
1005.716	6.12
1006.439	3.12
1007.163	5.12
1007.887	4.12
1008.611	-0.88
1009.334	1.12
1010.058	-1.88
1010.781	-0.88
1011.504	1.12
1012.228	0.12
1012.951	-1.88
1013.674	1.12
1014.397	-0.88
1015.12	-0.88
