节点500_705_QEPB04081__338__20-50-44-578.txt的数据

Date: Wed Nov 12 20:50:44 CST 2025
User: PC
Spectrometer: QEPB0408
触发模式: 0
积分时间 (秒): 1.000000E-2
Scans to average: 1
启用暗噪声校正: true
启用非线性校正: false
滑动平均宽度: 0
X轴模式: Wavelengths
Number of Pixels in Spectrum: 1044
>>>>>Begin Spectral Data<<<<<
220.843	6.12
221.644	4.12
222.444	6.12
223.244	7.12
224.045	5.12
224.845	6.12
225.645	7.12
226.445	8.12
227.245	8.12
228.045	8.12
228.845	8.12
229.645	9.12
230.444	7.12
231.244	6.12
232.043	8.12
232.843	9.12
233.642	13.12
234.442	9.12
235.241	9.12
236.04	12.12
236.839	10.12
237.638	12.12
238.437	11.12
239.236	11.12
240.035	10.12
240.833	11.12
241.632	12.12
242.43	11.12
243.229	15.12
244.027	14.12
244.826	14.12
245.624	15.12
246.422	13.12
247.22	13.12
248.018	14.12
248.816	18.12
249.614	15.12
250.412	17.12
251.21	15.12
252.007	15.12
252.805	18.12
253.602	19.12
254.4	20.12
255.197	18.12
255.994	20.12
256.791	21.12
257.589	23.12
258.386	19.12
259.183	24.12
259.979	23.12
260.776	21.12
261.573	23.12
262.37	23.12
263.166	24.12
263.963	23.12
264.759	24.12
265.556	28.12
266.352	29.12
267.148	28.12
267.944	28.12
268.74	27.12
269.536	29.12
270.332	32.12
271.128	31.12
271.924	31.12
272.719	33.12
273.515	31.12
274.311	33.12
275.106	31.12
275.901	34.12
276.697	35.12
277.492	33.12
278.287	35.12
279.082	33.12
279.877	33.12
280.672	31.12
281.467	37.12
282.262	34.12
283.056	33.12
283.851	30.12
284.646	31.12
285.44	33.12
286.234	35.12
287.029	33.12
287.823	34.12
288.617	36.12
289.411	35.12
290.205	29.12
290.999	31.12
291.793	30.12
292.587	26.12
293.381	34.12
294.174	31.12
294.968	31.12
295.761	27.12
296.555	27.12
297.348	28.12
298.141	26.12
298.935	28.12
299.728	26.12
300.521	26.12
301.314	26.12
302.107	24.12
302.899	21.12
303.692	22.12
304.485	22.12
305.277	25.12
306.07	21.12
306.862	23.12
307.655	21.12
308.447	22.12
309.239	22.12
310.031	20.12
310.823	17.12
311.615	19.12
312.407	18.12
313.199	17.12
313.991	17.12
314.783	15.12
315.574	16.12
316.366	17.12
317.157	18.12
317.949	15.12
318.74	15.12
319.531	16.12
320.322	13.12
321.113	12.12
321.904	13.12
322.695	12.12
323.486	13.12
324.277	15.12
325.068	15.12
325.858	14.12
326.649	13.12
327.439	15.12
328.23	14.12
329.02	16.12
329.81	14.12
330.6	12.12
331.391	13.12
332.181	9.12
332.971	13.12
333.76	11.12
334.55	13.12
335.34	12.12
336.13	11.12
336.919	12.12
337.709	12.12
338.498	11.12
339.287	10.12
340.077	11.12
340.866	10.12
341.655	12.12
342.444	12.12
343.233	11.12
344.022	15.12
344.811	11.12
345.6	11.12
346.388	10.12
347.177	9.12
347.965	11.12
348.754	11.12
349.542	10.12
350.33	13.12
351.119	13.12
351.907	12.12
352.695	10.12
353.483	11.12
354.271	12.12
355.059	11.12
355.846	11.12
356.634	10.12
357.422	12.12
358.209	9.12
358.997	9.12
359.784	11.12
360.571	10.12
361.359	10.12
362.146	11.12
362.933	11.12
363.72	10.12
364.507	10.12
365.294	10.12
366.081	10.12
366.867	9.12
367.654	10.12
368.44	10.12
369.227	10.12
370.013	12.12
370.8	10.12
371.586	8.12
372.372	11.12
373.158	10.12
373.944	9.12
374.73	11.12
375.516	10.12
376.302	11.12
377.088	8.12
377.873	9.12
378.659	10.12
379.445	10.12
380.23	11.12
381.015	8.12
381.801	10.12
382.586	10.12
383.371	9.12
384.156	10.12
384.941	10.12
385.726	10.12
386.511	11.12
387.296	14.12
388.08	11.12
388.865	10.12
389.649	11.12
390.434	10.12
391.218	11.12
392.003	11.12
392.787	13.12
393.571	15.12
394.355	9.12
395.139	14.12
395.923	9.12
396.707	12.12
397.491	13.12
398.274	12.12
399.058	15.12
399.842	12.12
400.625	15.12
401.408	16.12
402.192	12.12
402.975	14.12
403.758	16.12
404.541	16.12
405.324	15.12
406.107	13.12
406.89	16.12
407.673	16.12
408.456	17.12
409.238	17.12
410.021	16.12
410.803	18.12
411.586	18.12
412.368	18.12
413.151	15.12
413.933	16.12
414.715	17.12
415.497	18.12
416.279	16.12
417.061	18.12
417.843	21.12
418.624	19.12
419.406	22.12
420.188	22.12
420.969	22.12
421.751	24.12
422.532	19.12
423.313	24.12
424.095	23.12
424.876	23.12
425.657	26.12
426.438	24.12
427.219	30.12
428	25.12
428.78	26.12
429.561	29.12
430.342	31.12
431.122	34.12
431.903	34.12
432.683	35.12
433.464	33.12
434.244	38.12
435.024	44.12
435.804	41.12
436.584	44.12
437.364	45.12
438.144	52.12
438.924	52.12
439.704	56.12
440.483	57.12
441.263	60.12
442.042	65.12
442.822	68.12
443.601	72.12
444.38	82.12
445.16	88.12
445.939	94.12
446.718	104.12
447.497	112.12
448.276	117.12
449.054	137.12
449.833	146.12
450.612	160.12
451.391	178.12
452.169	194.12
452.948	219.12
453.726	241.12
454.504	267.12
455.282	300.12
456.061	337.12
456.839	371.12
457.617	412.12
458.395	460.12
459.172	521.12
459.95	571.12
460.728	641.12
461.506	713.12
462.283	792.12
463.061	885.12
463.838	988.12
464.615	1110.12
465.393	1204.12
466.17	1357.12
466.947	1496.12
467.724	1663.12
468.501	1846.12
469.278	2041.12
470.055	2265.12
470.831	2489.12
471.608	2765.12
472.385	3037.12
473.161	3370.12
473.938	3703.12
474.714	4069.12
475.49	4450.12
476.266	4854.12
477.043	5301.12
477.819	5807.12
478.595	6375.12
479.371	6973.12
480.146	7519.12
480.922	8268.12
481.698	9039.12
482.473	9815.12
483.249	10670.12
484.024	11602.12
484.8	12575.12
485.575	13618.12
486.35	14733.12
487.126	16010.12
487.901	17315.12
488.676	18599.12
489.451	20152.12
490.225	21580.12
491	23158.12
491.775	24772.12
492.55	26488.12
493.324	28252.12
494.099	29940.12
494.873	31700.12
495.647	33562.12
496.422	35384.12
497.196	37117.12
497.97	38746.12
498.744	40220.12
499.518	41934.12
500.292	43196.12
501.066	44368.12
501.839	45212.12
502.613	45992.12
503.387	46601.12
504.16	47133.12
504.934	47121.12
505.707	47067.12
506.48	46757.12
507.253	46213.12
508.027	45588.12
508.8	44596.12
509.573	43587.12
510.346	42587.12
511.118	41489.12
511.891	40243.12
512.664	38798.12
513.437	37330.12
514.209	35910.12
514.982	34601.12
515.754	33106.12
516.526	31824.12
517.298	30498.12
518.071	29315.12
518.843	28170.12
519.615	27025.12
520.387	25966.12
521.159	24893.12
521.93	23881.12
522.702	22884.12
523.474	21970.12
524.245	21095.12
525.017	20090.12
525.788	19199.12
526.56	18398.12
527.331	17623.12
528.102	16660.12
528.873	15873.12
529.644	15126.12
530.415	14481.12
531.186	13777.12
531.957	13016.12
532.728	12357.12
533.498	11738.12
534.269	11059.12
535.039	10457.12
535.81	9927.12
536.58	9367.12
537.351	8908.12
538.121	8455.12
538.891	7994.12
539.661	7566.12
540.431	7119.12
541.201	6769.12
541.971	6410.12
542.741	6075.12
543.51	5742.12
544.28	5522.12
545.05	5245.12
545.819	4991.12
546.588	4756.12
547.358	4548.12
548.127	4281.12
548.896	4098.12
549.665	3873.12
550.434	3680.12
551.203	3478.12
551.972	3299.12
552.741	3117.12
553.51	2943.12
554.278	2762.12
555.047	2645.12
555.815	2484.12
556.584	2359.12
557.352	2226.12
558.121	2091.12
558.889	1991.12
559.657	1866.12
560.425	1781.12
561.193	1673.12
561.961	1584.12
562.729	1483.12
563.496	1426.12
564.264	1347.12
565.032	1277.12
565.799	1199.12
566.567	1135.12
567.334	1081.12
568.101	1008.12
568.869	959.12
569.636	909.12
570.403	853.12
571.17	806.12
571.937	761.12
572.704	723.12
573.471	679.12
574.237	637.12
575.004	602.12
575.771	566.12
576.537	535.12
577.303	513.12
578.07	476.12
578.836	449.12
579.602	427.12
580.368	405.12
581.134	379.12
581.9	367.12
582.666	342.12
583.432	330.12
584.198	314.12
584.964	300.12
585.729	283.12
586.495	270.12
587.26	256.12
588.025	240.12
588.791	225.12
589.556	220.12
590.321	203.12
591.086	197.12
591.851	187.12
592.616	179.12
593.381	165.12
594.146	162.12
594.911	159.12
595.675	151.12
596.44	140.12
597.204	133.12
597.969	126.12
598.733	130.12
599.497	121.12
600.261	115.12
601.025	109.12
601.79	104.12
602.553	97.12
603.317	97.12
604.081	92.12
604.845	89.12
605.609	84.12
606.372	77.12
607.136	79.12
607.899	74.12
608.662	71.12
609.426	72.12
610.189	66.12
610.952	61.12
611.715	61.12
612.478	57.12
613.241	58.12
614.004	59.12
614.767	54.12
615.529	49.12
616.292	51.12
617.055	46.12
617.817	50.12
618.579	46.12
619.342	44.12
620.104	44.12
620.866	41.12
621.628	42.12
622.39	38.12
623.152	39.12
623.914	37.12
624.676	35.12
625.438	37.12
626.199	33.12
626.961	32.12
627.722	32.12
628.484	30.12
629.245	28.12
630.006	27.12
630.768	29.12
631.529	29.12
632.29	28.12
633.051	24.12
633.812	25.12
634.573	26.12
635.333	23.12
636.094	24.12
636.855	24.12
637.615	19.12
638.376	21.12
639.136	21.12
639.896	21.12
640.657	19.12
641.417	20.12
642.177	18.12
642.937	17.12
643.697	16.12
644.457	15.12
645.216	18.12
645.976	18.12
646.736	16.12
647.495	17.12
648.255	15.12
649.014	17.12
649.774	16.12
650.533	15.12
651.292	15.12
652.051	13.12
652.81	14.12
653.569	12.12
654.328	15.12
655.087	12.12
655.846	12.12
656.604	14.12
657.363	12.12
658.121	13.12
658.88	13.12
659.638	10.12
660.397	11.12
661.155	11.12
661.913	10.12
662.671	12.12
663.429	11.12
664.187	10.12
664.945	10.12
665.703	13.12
666.46	11.12
667.218	12.12
667.976	10.12
668.733	10.12
669.49	10.12
670.248	14.12
671.005	11.12
671.762	10.12
672.519	11.12
673.276	7.12
674.033	8.12
674.79	11.12
675.547	9.12
676.304	10.12
677.06	7.12
677.817	9.12
678.574	9.12
679.33	9.12
680.086	9.12
680.843	11.12
681.599	11.12
682.355	10.12
683.111	9.12
683.867	12.12
684.623	7.12
685.379	8.12
686.135	7.12
686.89	9.12
687.646	9.12
688.402	9.12
689.157	7.12
689.912	6.12
690.668	10.12
691.423	9.12
692.178	5.12
692.933	8.12
693.688	6.12
694.443	8.12
695.198	8.12
695.953	10.12
696.708	8.12
697.462	8.12
698.217	5.12
698.972	6.12
699.726	6.12
700.48	9.12
701.235	9.12
701.989	9.12
702.743	4.12
703.497	7.12
704.251	7.12
705.005	6.12
705.759	5.12
706.513	6.12
707.266	9.12
708.02	8.12
708.774	10.12
709.527	7.12
710.28	8.12
711.034	8.12
711.787	8.12
712.54	8.12
713.293	3.12
714.046	7.12
714.799	8.12
715.552	8.12
716.305	6.12
717.058	8.12
717.81	10.12
718.563	6.12
719.315	9.12
720.068	7.12
720.82	7.12
721.573	10.12
722.325	10.12
723.077	9.12
723.829	8.12
724.581	9.12
725.333	9.12
726.085	5.12
726.836	9.12
727.588	8.12
728.34	9.12
729.091	10.12
729.843	8.12
730.594	7.12
731.346	8.12
732.097	8.12
732.848	9.12
733.599	10.12
734.35	9.12
735.101	8.12
735.852	10.12
736.603	7.12
737.354	11.12
738.104	11.12
738.855	8.12
739.605	8.12
740.356	8.12
741.106	8.12
741.856	11.12
742.607	11.12
743.357	8.12
744.107	10.12
744.857	12.12
745.607	8.12
746.357	12.12
747.106	12.12
747.856	10.12
748.606	11.12
749.355	9.12
750.105	11.12
750.854	9.12
751.603	11.12
752.353	11.12
753.102	9.12
753.851	9.12
754.6	13.12
755.349	12.12
756.098	13.12
756.847	12.12
757.595	11.12
758.344	11.12
759.093	12.12
759.841	12.12
760.589	11.12
761.338	14.12
762.086	15.12
762.834	16.12
763.582	15.12
764.331	15.12
765.079	14.12
765.826	14.12
766.574	14.12
767.322	11.12
768.07	15.12
768.817	14.12
769.565	16.12
770.312	13.12
771.06	16.12
771.807	13.12
772.554	14.12
773.302	17.12
774.049	17.12
774.796	16.12
775.543	14.12
776.29	15.12
777.036	14.12
777.783	19.12
778.53	15.12
779.276	15.12
780.023	15.12
780.769	18.12
781.516	15.12
782.262	15.12
783.008	13.12
783.754	17.12
784.5	17.12
785.246	13.12
785.992	16.12
786.738	15.12
787.484	16.12
788.23	15.12
788.975	14.12
789.721	15.12
790.466	15.12
791.212	17.12
791.957	13.12
792.702	15.12
793.447	14.12
794.193	11.12
794.938	11.12
795.683	11.12
796.427	17.12
797.172	12.12
797.917	13.12
798.662	14.12
799.406	13.12
800.151	13.12
800.895	12.12
801.64	14.12
802.384	11.12
803.128	12.12
803.872	12.12
804.616	11.12
805.36	12.12
806.104	9.12
806.848	9.12
807.592	11.12
808.336	12.12
809.079	9.12
809.823	8.12
810.566	10.12
811.31	8.12
812.053	11.12
812.796	8.12
813.539	7.12
814.283	10.12
815.026	9.12
815.769	12.12
816.511	8.12
817.254	9.12
817.997	9.12
818.74	8.12
819.482	9.12
820.225	8.12
820.967	8.12
821.71	9.12
822.452	8.12
823.194	5.12
823.936	9.12
824.678	5.12
825.42	8.12
826.162	8.12
826.904	7.12
827.646	8.12
828.388	9.12
829.129	6.12
829.871	8.12
830.612	7.12
831.354	6.12
832.095	6.12
832.836	6.12
833.577	7.12
834.319	6.12
835.06	9.12
835.801	5.12
836.542	7.12
837.282	7.12
838.023	5.12
838.764	5.12
839.504	7.12
840.245	4.12
840.985	8.12
841.726	3.12
842.466	6.12
843.206	5.12
843.946	5.12
844.687	4.12
845.427	4.12
846.166	3.12
846.906	5.12
847.646	4.12
848.386	7.12
849.125	2.12
849.865	4.12
850.605	3.12
851.344	6.12
852.083	4.12
852.823	5.12
853.562	5.12
854.301	3.12
855.04	3.12
855.779	4.12
856.518	5.12
857.257	3.12
857.995	2.12
858.734	3.12
859.473	2.12
860.211	3.12
860.95	5.12
861.688	3.12
862.426	2.12
863.165	4.12
863.903	3.12
864.641	3.12
865.379	4.12
866.117	3.12
866.855	2.12
867.593	5.12
868.33	3.12
869.068	3.12
869.806	2.12
870.543	3.12
871.28	2.12
872.018	2.12
872.755	4.12
873.492	1.12
874.229	4.12
874.967	2.12
875.703	2.12
876.44	4.12
877.177	3.12
877.914	0.12
878.651	2.12
879.387	1.12
880.124	-0.88
880.86	1.12
881.597	2.12
882.333	0.12
883.069	0.12
883.806	2.12
884.542	0.12
885.278	1.12
886.014	1.12
886.749	1.12
887.485	1.12
888.221	-0.88
888.957	1.12
889.692	-0.88
890.428	1.12
891.163	-0.88
891.899	1.12
892.634	0.12
893.369	3.12
894.104	2.12
894.839	0.12
895.574	2.12
896.309	-0.88
897.044	0.12
897.779	0.12
898.514	1.12
899.248	1.12
899.983	1.12
900.717	1.12
901.452	-0.88
902.186	0.12
902.92	3.12
903.654	3.12
904.389	1.12
905.123	-0.88
905.857	2.12
906.59	0.12
907.324	2.12
908.058	-0.88
908.792	2.12
909.525	1.12
910.259	2.12
910.992	2.12
911.726	3.12
912.459	0.12
913.192	1.12
913.925	-1.88
914.658	1.12
915.391	-0.88
916.124	0.12
916.857	-0.88
917.59	1.12
918.323	1.12
919.055	-0.88
919.788	-0.88
920.521	2.12
921.253	2.12
921.985	3.12
922.718	-0.88
923.45	2.12
924.182	1.12
924.914	2.12
925.646	0.12
926.378	-2.88
927.11	2.12
927.841	1.12
928.573	-0.88
929.305	1.12
930.036	0.12
930.768	1.12
931.499	-0.88
932.23	1.12
932.962	-0.88
933.693	2.12
934.424	-0.88
935.155	1.12
935.886	2.12
936.617	-1.88
937.348	1.12
938.078	2.12
938.809	1.12
939.54	0.12
940.27	0.12
941.001	0.12
941.731	1.12
942.461	1.12
943.191	1.12
943.922	0.12
944.652	1.12
945.382	-0.88
946.112	1.12
946.841	0.12
947.571	1.12
948.301	-0.88
949.031	1.12
949.76	0.12
950.49	-0.88
951.219	1.12
951.948	1.12
952.678	-0.88
953.407	0.12
954.136	-0.88
954.865	0.12
955.594	1.12
956.323	-0.88
957.052	-1.88
957.78	-1.88
958.509	0.12
959.238	2.12
959.966	0.12
960.695	-0.88
961.423	-0.88
962.151	0.12
962.88	-0.88
963.608	0.12
964.336	0.12
965.064	1.12
965.792	1.12
966.52	0.12
967.247	-0.88
967.975	-0.88
968.703	1.12
969.43	1.12
970.158	-0.88
970.885	1.12
971.613	1.12
972.34	2.12
973.067	0.12
973.794	1.12
974.521	1.12
975.248	1.12
975.975	1.12
976.702	3.12
977.429	0.12
978.156	0.12
978.882	-1.88
979.609	-0.88
980.335	-0.88
981.062	1.12
981.788	2.12
982.514	0.12
983.24	-0.88
983.967	0.12
984.693	1.12
985.419	0.12
986.144	1.12
986.87	0.12
987.596	0.12
988.322	2.12
989.047	0.12
989.773	1.12
990.498	1.12
991.224	-0.88
991.949	1.12
992.674	-0.88
993.399	2.12
994.124	0.12
994.849	1.12
995.574	-0.88
996.299	-0.88
997.024	1.12
997.749	1.12
998.473	2.12
999.198	-0.88
999.922	-0.88
1000.647	1.12
1001.371	4.12
1002.095	0.12
1002.82	-2.88
1003.544	-0.88
1004.268	3.12
1004.992	5.12
1005.716	5.12
1006.439	5.12
1007.163	8.12
1007.887	7.12
1008.611	1.12
1009.334	0.12
1010.058	-0.88
1010.781	0.12
1011.504	0.12
1012.228	-0.88
1012.951	0.12
1013.674	0.12
1014.397	0.12
1015.12	-0.88
