节点500_705_QEPB04081__322__20-50-32-478.txt的数据

Date: Wed Nov 12 20:50:32 CST 2025
User: PC
Spectrometer: QEPB0408
触发模式: 0
积分时间 (秒): 1.000000E-2
Scans to average: 1
启用暗噪声校正: true
启用非线性校正: false
滑动平均宽度: 0
X轴模式: Wavelengths
Number of Pixels in Spectrum: 1044
>>>>>Begin Spectral Data<<<<<
220.843	4.75
221.644	4.75
222.444	4.75
223.244	4.75
224.045	5.75
224.845	6.75
225.645	4.75
226.445	6.75
227.245	5.75
228.045	8.75
228.845	5.75
229.645	7.75
230.444	6.75
231.244	6.75
232.043	8.75
232.843	9.75
233.642	10.75
234.442	8.75
235.241	10.75
236.04	13.75
236.839	10.75
237.638	10.75
238.437	8.75
239.236	12.75
240.035	11.75
240.833	10.75
241.632	12.75
242.43	12.75
243.229	12.75
244.027	11.75
244.826	10.75
245.624	13.75
246.422	12.75
247.22	13.75
248.018	12.75
248.816	13.75
249.614	16.75
250.412	16.75
251.21	18.75
252.007	14.75
252.805	16.75
253.602	16.75
254.4	16.75
255.197	18.75
255.994	16.75
256.791	20.75
257.589	19.75
258.386	23.75
259.183	21.75
259.979	19.75
260.776	23.75
261.573	18.75
262.37	21.75
263.166	26.75
263.963	27.75
264.759	20.75
265.556	24.75
266.352	26.75
267.148	29.75
267.944	28.75
268.74	26.75
269.536	29.75
270.332	27.75
271.128	27.75
271.924	30.75
272.719	31.75
273.515	32.75
274.311	30.75
275.106	33.75
275.901	35.75
276.697	33.75
277.492	33.75
278.287	36.75
279.082	35.75
279.877	34.75
280.672	33.75
281.467	33.75
282.262	35.75
283.056	35.75
283.851	34.75
284.646	32.75
285.44	33.75
286.234	32.75
287.029	39.75
287.823	33.75
288.617	31.75
289.411	29.75
290.205	30.75
290.999	32.75
291.793	31.75
292.587	30.75
293.381	32.75
294.174	29.75
294.968	26.75
295.761	28.75
296.555	27.75
297.348	28.75
298.141	27.75
298.935	28.75
299.728	23.75
300.521	25.75
301.314	24.75
302.107	24.75
302.899	21.75
303.692	25.75
304.485	21.75
305.277	24.75
306.07	23.75
306.862	20.75
307.655	21.75
308.447	18.75
309.239	21.75
310.031	21.75
310.823	18.75
311.615	17.75
312.407	19.75
313.199	19.75
313.991	17.75
314.783	14.75
315.574	16.75
316.366	15.75
317.157	15.75
317.949	12.75
318.74	13.75
319.531	13.75
320.322	13.75
321.113	14.75
321.904	14.75
322.695	12.75
323.486	11.75
324.277	12.75
325.068	12.75
325.858	13.75
326.649	16.75
327.439	13.75
328.23	10.75
329.02	12.75
329.81	13.75
330.6	12.75
331.391	11.75
332.181	11.75
332.971	9.75
333.76	11.75
334.55	11.75
335.34	10.75
336.13	14.75
336.919	12.75
337.709	10.75
338.498	13.75
339.287	11.75
340.077	12.75
340.866	12.75
341.655	13.75
342.444	11.75
343.233	9.75
344.022	10.75
344.811	12.75
345.6	12.75
346.388	11.75
347.177	9.75
347.965	12.75
348.754	12.75
349.542	11.75
350.33	11.75
351.119	12.75
351.907	9.75
352.695	11.75
353.483	12.75
354.271	10.75
355.059	10.75
355.846	11.75
356.634	10.75
357.422	9.75
358.209	9.75
358.997	9.75
359.784	9.75
360.571	11.75
361.359	7.75
362.146	9.75
362.933	10.75
363.72	8.75
364.507	10.75
365.294	8.75
366.081	10.75
366.867	11.75
367.654	8.75
368.44	10.75
369.227	9.75
370.013	8.75
370.8	8.75
371.586	8.75
372.372	9.75
373.158	8.75
373.944	8.75
374.73	8.75
375.516	9.75
376.302	8.75
377.088	7.75
377.873	9.75
378.659	8.75
379.445	8.75
380.23	9.75
381.015	8.75
381.801	10.75
382.586	8.75
383.371	12.75
384.156	10.75
384.941	8.75
385.726	11.75
386.511	9.75
387.296	11.75
388.08	12.75
388.865	10.75
389.649	12.75
390.434	10.75
391.218	10.75
392.003	9.75
392.787	13.75
393.571	11.75
394.355	12.75
395.139	14.75
395.923	11.75
396.707	14.75
397.491	12.75
398.274	12.75
399.058	12.75
399.842	11.75
400.625	13.75
401.408	13.75
402.192	16.75
402.975	14.75
403.758	13.75
404.541	16.75
405.324	12.75
406.107	13.75
406.89	14.75
407.673	13.75
408.456	14.75
409.238	14.75
410.021	15.75
410.803	12.75
411.586	14.75
412.368	16.75
413.151	14.75
413.933	19.75
414.715	18.75
415.497	16.75
416.279	16.75
417.061	18.75
417.843	21.75
418.624	18.75
419.406	20.75
420.188	20.75
420.969	21.75
421.751	19.75
422.532	23.75
423.313	25.75
424.095	21.75
424.876	24.75
425.657	26.75
426.438	25.75
427.219	25.75
428	26.75
428.78	28.75
429.561	27.75
430.342	29.75
431.122	26.75
431.903	32.75
432.683	30.75
433.464	32.75
434.244	35.75
435.024	36.75
435.804	41.75
436.584	43.75
437.364	47.75
438.144	46.75
438.924	49.75
439.704	54.75
440.483	51.75
441.263	63.75
442.042	64.75
442.822	73.75
443.601	76.75
444.38	78.75
445.16	82.75
445.939	86.75
446.718	101.75
447.497	109.75
448.276	122.75
449.054	130.75
449.833	145.75
450.612	162.75
451.391	175.75
452.169	191.75
452.948	215.75
453.726	238.75
454.504	264.75
455.282	294.75
456.061	336.75
456.839	365.75
457.617	409.75
458.395	457.75
459.172	505.75
459.95	558.75
460.728	633.75
461.506	709.75
462.283	787.75
463.061	870.75
463.838	977.75
464.615	1081.75
465.393	1223.75
466.17	1348.75
466.947	1502.75
467.724	1670.75
468.501	1850.75
469.278	2039.75
470.055	2264.75
470.831	2485.75
471.608	2771.75
472.385	3028.75
473.161	3365.75
473.938	3682.75
474.714	4060.75
475.49	4415.75
476.266	4878.75
477.043	5325.75
477.819	5835.75
478.595	6361.75
479.371	6980.75
480.146	7610.75
480.922	8283.75
481.698	9059.75
482.473	9868.75
483.249	10702.75
484.024	11684.75
484.8	12630.75
485.575	13668.75
486.35	14857.75
487.126	16070.75
487.901	17395.75
488.676	18770.75
489.451	20234.75
490.225	21732.75
491	23359.75
491.775	25042.75
492.55	26687.75
493.324	28388.75
494.099	30273.75
494.873	32018.75
495.647	33842.75
496.422	35666.75
497.196	37473.75
497.97	39014.75
498.744	40593.75
499.518	42125.75
500.292	43485.75
501.066	44619.75
501.839	45437.75
502.613	46107.75
503.387	46731.75
504.16	47299.75
504.934	47362.75
505.707	47328.75
506.48	46940.75
507.253	46388.75
508.027	45679.75
508.8	44730.75
509.573	43627.75
510.346	42682.75
511.118	41549.75
511.891	40370.75
512.664	38747.75
513.437	37325.75
514.209	35894.75
514.982	34510.75
515.754	33041.75
516.526	31766.75
517.298	30501.75
518.071	29231.75
518.843	28138.75
519.615	26922.75
520.387	25958.75
521.159	24950.75
521.93	23828.75
522.702	22858.75
523.474	21929.75
524.245	20963.75
525.017	20042.75
525.788	19122.75
526.56	18339.75
527.331	17596.75
528.102	16652.75
528.873	15820.75
529.644	15059.75
530.415	14373.75
531.186	13669.75
531.957	12978.75
532.728	12264.75
533.498	11665.75
534.269	10995.75
535.039	10452.75
535.81	9890.75
536.58	9337.75
537.351	8830.75
538.121	8387.75
538.891	7962.75
539.661	7536.75
540.431	7091.75
541.201	6734.75
541.971	6369.75
542.741	6059.75
543.51	5730.75
544.28	5478.75
545.05	5205.75
545.819	4960.75
546.588	4718.75
547.358	4517.75
548.127	4292.75
548.896	4050.75
549.665	3846.75
550.434	3670.75
551.203	3446.75
551.972	3276.75
552.741	3084.75
553.51	2930.75
554.278	2767.75
555.047	2617.75
555.815	2481.75
556.584	2328.75
557.352	2202.75
558.121	2089.75
558.889	1962.75
559.657	1860.75
560.425	1749.75
561.193	1664.75
561.961	1570.75
562.729	1493.75
563.496	1410.75
564.264	1331.75
565.032	1258.75
565.799	1176.75
566.567	1126.75
567.334	1057.75
568.101	1013.75
568.869	947.75
569.636	908.75
570.403	842.75
571.17	799.75
571.937	757.75
572.704	714.75
573.471	673.75
574.237	629.75
575.004	582.75
575.771	566.75
576.537	532.75
577.303	511.75
578.07	476.75
578.836	445.75
579.602	424.75
580.368	401.75
581.134	384.75
581.9	366.75
582.666	343.75
583.432	334.75
584.198	314.75
584.964	297.75
585.729	274.75
586.495	268.75
587.26	253.75
588.025	240.75
588.791	224.75
589.556	221.75
590.321	207.75
591.086	196.75
591.851	184.75
592.616	177.75
593.381	166.75
594.146	159.75
594.911	151.75
595.675	145.75
596.44	137.75
597.204	132.75
597.969	121.75
598.733	125.75
599.497	118.75
600.261	110.75
601.025	104.75
601.79	102.75
602.553	100.75
603.317	95.75
604.081	91.75
604.845	89.75
605.609	85.75
606.372	78.75
607.136	75.75
607.899	75.75
608.662	72.75
609.426	67.75
610.189	66.75
610.952	64.75
611.715	62.75
612.478	57.75
613.241	59.75
614.004	55.75
614.767	51.75
615.529	52.75
616.292	48.75
617.055	48.75
617.817	49.75
618.579	42.75
619.342	41.75
620.104	45.75
620.866	40.75
621.628	38.75
622.39	35.75
623.152	38.75
623.914	39.75
624.676	39.75
625.438	33.75
626.199	28.75
626.961	30.75
627.722	30.75
628.484	30.75
629.245	28.75
630.006	28.75
630.768	26.75
631.529	24.75
632.29	26.75
633.051	24.75
633.812	26.75
634.573	24.75
635.333	23.75
636.094	21.75
636.855	23.75
637.615	18.75
638.376	21.75
639.136	17.75
639.896	19.75
640.657	18.75
641.417	19.75
642.177	16.75
642.937	19.75
643.697	18.75
644.457	17.75
645.216	14.75
645.976	15.75
646.736	17.75
647.495	14.75
648.255	14.75
649.014	14.75
649.774	14.75
650.533	14.75
651.292	13.75
652.051	14.75
652.81	12.75
653.569	13.75
654.328	12.75
655.087	13.75
655.846	13.75
656.604	13.75
657.363	11.75
658.121	13.75
658.88	10.75
659.638	12.75
660.397	12.75
661.155	12.75
661.913	12.75
662.671	9.75
663.429	10.75
664.187	6.75
664.945	10.75
665.703	10.75
666.46	8.75
667.218	10.75
667.976	8.75
668.733	10.75
669.49	4.75
670.248	7.75
671.005	9.75
671.762	8.75
672.519	9.75
673.276	6.75
674.033	8.75
674.79	10.75
675.547	7.75
676.304	10.75
677.06	9.75
677.817	8.75
678.574	8.75
679.33	8.75
680.086	8.75
680.843	6.75
681.599	9.75
682.355	8.75
683.111	9.75
683.867	8.75
684.623	9.75
685.379	6.75
686.135	7.75
686.89	9.75
687.646	7.75
688.402	7.75
689.157	6.75
689.912	6.75
690.668	7.75
691.423	8.75
692.178	8.75
692.933	9.75
693.688	5.75
694.443	6.75
695.198	7.75
695.953	10.75
696.708	5.75
697.462	8.75
698.217	8.75
698.972	5.75
699.726	7.75
700.48	6.75
701.235	6.75
701.989	6.75
702.743	7.75
703.497	7.75
704.251	9.75
705.005	7.75
705.759	8.75
706.513	8.75
707.266	8.75
708.02	9.75
708.774	6.75
709.527	7.75
710.28	8.75
711.034	5.75
711.787	9.75
712.54	8.75
713.293	7.75
714.046	5.75
714.799	6.75
715.552	5.75
716.305	6.75
717.058	9.75
717.81	7.75
718.563	8.75
719.315	7.75
720.068	9.75
720.82	7.75
721.573	6.75
722.325	10.75
723.077	10.75
723.829	9.75
724.581	8.75
725.333	9.75
726.085	7.75
726.836	8.75
727.588	7.75
728.34	9.75
729.091	6.75
729.843	6.75
730.594	11.75
731.346	8.75
732.097	8.75
732.848	8.75
733.599	9.75
734.35	7.75
735.101	8.75
735.852	9.75
736.603	7.75
737.354	10.75
738.104	7.75
738.855	9.75
739.605	9.75
740.356	8.75
741.106	7.75
741.856	10.75
742.607	9.75
743.357	10.75
744.107	11.75
744.857	10.75
745.607	9.75
746.357	10.75
747.106	10.75
747.856	11.75
748.606	10.75
749.355	9.75
750.105	11.75
750.854	12.75
751.603	11.75
752.353	10.75
753.102	10.75
753.851	10.75
754.6	12.75
755.349	12.75
756.098	9.75
756.847	12.75
757.595	12.75
758.344	10.75
759.093	12.75
759.841	10.75
760.589	11.75
761.338	14.75
762.086	12.75
762.834	14.75
763.582	10.75
764.331	12.75
765.079	12.75
765.826	13.75
766.574	12.75
767.322	11.75
768.07	15.75
768.817	13.75
769.565	12.75
770.312	13.75
771.06	14.75
771.807	16.75
772.554	14.75
773.302	15.75
774.049	14.75
774.796	16.75
775.543	14.75
776.29	16.75
777.036	14.75
777.783	15.75
778.53	14.75
779.276	13.75
780.023	15.75
780.769	14.75
781.516	14.75
782.262	15.75
783.008	14.75
783.754	14.75
784.5	14.75
785.246	14.75
785.992	14.75
786.738	12.75
787.484	15.75
788.23	16.75
788.975	14.75
789.721	15.75
790.466	13.75
791.212	13.75
791.957	15.75
792.702	15.75
793.447	12.75
794.193	13.75
794.938	11.75
795.683	9.75
796.427	12.75
797.172	10.75
797.917	15.75
798.662	11.75
799.406	12.75
800.151	10.75
800.895	10.75
801.64	10.75
802.384	10.75
803.128	13.75
803.872	10.75
804.616	10.75
805.36	12.75
806.104	8.75
806.848	10.75
807.592	8.75
808.336	11.75
809.079	7.75
809.823	8.75
810.566	11.75
811.31	9.75
812.053	8.75
812.796	10.75
813.539	11.75
814.283	9.75
815.026	7.75
815.769	9.75
816.511	8.75
817.254	8.75
817.997	5.75
818.74	7.75
819.482	7.75
820.225	5.75
820.967	8.75
821.71	7.75
822.452	4.75
823.194	8.75
823.936	6.75
824.678	8.75
825.42	7.75
826.162	6.75
826.904	7.75
827.646	6.75
828.388	7.75
829.129	5.75
829.871	6.75
830.612	4.75
831.354	5.75
832.095	6.75
832.836	5.75
833.577	5.75
834.319	5.75
835.06	5.75
835.801	3.75
836.542	8.75
837.282	7.75
838.023	2.75
838.764	6.75
839.504	5.75
840.245	4.75
840.985	5.75
841.726	5.75
842.466	7.75
843.206	4.75
843.946	3.75
844.687	6.75
845.427	4.75
846.166	3.75
846.906	4.75
847.646	6.75
848.386	5.75
849.125	1.75
849.865	5.75
850.605	3.75
851.344	4.75
852.083	3.75
852.823	5.75
853.562	2.75
854.301	5.75
855.04	5.75
855.779	1.75
856.518	4.75
857.257	4.75
857.995	2.75
858.734	3.75
859.473	4.75
860.211	2.75
860.95	2.75
861.688	3.75
862.426	3.75
863.165	2.75
863.903	2.75
864.641	0.75
865.379	2.75
866.117	3.75
866.855	3.75
867.593	2.75
868.33	3.75
869.068	2.75
869.806	1.75
870.543	1.75
871.28	3.75
872.018	2.75
872.755	2.75
873.492	2.75
874.229	1.75
874.967	0.75
875.703	2.75
876.44	2.75
877.177	0.75
877.914	1.75
878.651	0.75
879.387	2.75
880.124	0.75
880.86	1.75
881.597	-0.25
882.333	0.75
883.069	1.75
883.806	-1.25
884.542	1.75
885.278	1.75
886.014	1.75
886.749	-0.25
887.485	2.75
888.221	3.75
888.957	3.75
889.692	0.75
890.428	2.75
891.163	0.75
891.899	1.75
892.634	-1.25
893.369	2.75
894.104	3.75
894.839	-1.25
895.574	-0.25
896.309	-0.25
897.044	0.75
897.779	-1.25
898.514	0.75
899.248	0.75
899.983	1.75
900.717	1.75
901.452	0.75
902.186	0.75
902.92	2.75
903.654	-1.25
904.389	2.75
905.123	0.75
905.857	0.75
906.59	-0.25
907.324	0.75
908.058	0.75
908.792	2.75
909.525	0.75
910.259	0.75
910.992	0.75
911.726	-0.25
912.459	-1.25
913.192	1.75
913.925	1.75
914.658	0.75
915.391	-2.25
916.124	0.75
916.857	-1.25
917.59	-0.25
918.323	-1.25
919.055	-1.25
919.788	-0.25
920.521	0.75
921.253	2.75
921.985	-1.25
922.718	-0.25
923.45	1.75
924.182	-0.25
924.914	-0.25
925.646	1.75
926.378	1.75
927.11	0.75
927.841	-0.25
928.573	0.75
929.305	-1.25
930.036	1.75
930.768	-1.25
931.499	0.75
932.23	1.75
932.962	1.75
933.693	2.75
934.424	-0.25
935.155	-0.25
935.886	-0.25
936.617	-1.25
937.348	0.75
938.078	-1.25
938.809	0.75
939.54	-0.25
940.27	-0.25
941.001	1.75
941.731	0.75
942.461	-0.25
943.191	-0.25
943.922	-0.25
944.652	1.75
945.382	-2.25
946.112	2.75
946.841	0.75
947.571	-0.25
948.301	-1.25
949.031	-1.25
949.76	0.75
950.49	-0.25
951.219	0.75
951.948	-1.25
952.678	-0.25
953.407	-2.25
954.136	1.75
954.865	-1.25
955.594	-0.25
956.323	0.75
957.052	1.75
957.78	-0.25
958.509	1.75
959.238	0.75
959.966	-1.25
960.695	-1.25
961.423	2.75
962.151	-3.25
962.88	-1.25
963.608	-0.25
964.336	-0.25
965.064	0.75
965.792	1.75
966.52	-0.25
967.247	-0.25
967.975	0.75
968.703	-0.25
969.43	-1.25
970.158	1.75
970.885	-3.25
971.613	-1.25
972.34	0.75
973.067	-1.25
973.794	0.75
974.521	-2.25
975.248	-1.25
975.975	-1.25
976.702	-2.25
977.429	-1.25
978.156	0.75
978.882	0.75
979.609	-1.25
980.335	-0.25
981.062	2.75
981.788	-1.25
982.514	0.75
983.24	1.75
983.967	2.75
984.693	1.75
985.419	-0.25
986.144	0.75
986.87	-0.25
987.596	1.75
988.322	-1.25
989.047	0.75
989.773	1.75
990.498	-0.25
991.224	-0.25
991.949	-2.25
992.674	0.75
993.399	-0.25
994.124	-1.25
994.849	-1.25
995.574	-0.25
996.299	1.75
997.024	-1.25
997.749	0.75
998.473	-0.25
999.198	0.75
999.922	1.75
1000.647	-0.25
1001.371	5.75
1002.095	-1.25
1002.82	-0.25
1003.544	-2.25
1004.268	3.75
1004.992	5.75
1005.716	-0.25
1006.439	4.75
1007.163	6.75
1007.887	4.75
1008.611	1.75
1009.334	1.75
1010.058	-1.25
1010.781	-1.25
1011.504	0.75
1012.228	0.75
1012.951	-1.25
1013.674	-0.25
1014.397	-0.25
1015.12	-0.25
