节点500_705_QEPB04081__532__20-53-28-741.txt的数据

Date: Wed Nov 12 20:53:28 CST 2025
User: PC
Spectrometer: QEPB0408
触发模式: 0
积分时间 (秒): 1.000000E-2
Scans to average: 1
启用暗噪声校正: true
启用非线性校正: false
滑动平均宽度: 0
X轴模式: Wavelengths
Number of Pixels in Spectrum: 1044
>>>>>Begin Spectral Data<<<<<
220.843	6.25
221.644	7.25
222.444	7.25
223.244	8.25
224.045	6.25
224.845	9.25
225.645	8.25
226.445	4.25
227.245	7.25
228.045	8.25
228.845	7.25
229.645	8.25
230.444	7.25
231.244	7.25
232.043	8.25
232.843	10.25
233.642	10.25
234.442	12.25
235.241	7.25
236.04	9.25
236.839	11.25
237.638	7.25
238.437	13.25
239.236	10.25
240.035	12.25
240.833	11.25
241.632	9.25
242.43	12.25
243.229	11.25
244.027	13.25
244.826	14.25
245.624	12.25
246.422	16.25
247.22	12.25
248.018	14.25
248.816	14.25
249.614	14.25
250.412	16.25
251.21	16.25
252.007	16.25
252.805	18.25
253.602	15.25
254.4	17.25
255.197	17.25
255.994	18.25
256.791	20.25
257.589	24.25
258.386	18.25
259.183	23.25
259.979	17.25
260.776	19.25
261.573	19.25
262.37	20.25
263.166	24.25
263.963	23.25
264.759	23.25
265.556	25.25
266.352	25.25
267.148	28.25
267.944	26.25
268.74	26.25
269.536	27.25
270.332	27.25
271.128	29.25
271.924	28.25
272.719	27.25
273.515	27.25
274.311	30.25
275.106	32.25
275.901	27.25
276.697	31.25
277.492	28.25
278.287	36.25
279.082	31.25
279.877	31.25
280.672	31.25
281.467	32.25
282.262	32.25
283.056	30.25
283.851	32.25
284.646	36.25
285.44	33.25
286.234	31.25
287.029	34.25
287.823	35.25
288.617	31.25
289.411	30.25
290.205	31.25
290.999	33.25
291.793	32.25
292.587	32.25
293.381	28.25
294.174	28.25
294.968	27.25
295.761	28.25
296.555	24.25
297.348	28.25
298.141	23.25
298.935	29.25
299.728	28.25
300.521	24.25
301.314	23.25
302.107	23.25
302.899	27.25
303.692	21.25
304.485	24.25
305.277	21.25
306.07	20.25
306.862	21.25
307.655	18.25
308.447	20.25
309.239	22.25
310.031	22.25
310.823	19.25
311.615	20.25
312.407	17.25
313.199	20.25
313.991	17.25
314.783	18.25
315.574	17.25
316.366	14.25
317.157	16.25
317.949	15.25
318.74	17.25
319.531	15.25
320.322	11.25
321.113	16.25
321.904	14.25
322.695	15.25
323.486	14.25
324.277	12.25
325.068	11.25
325.858	12.25
326.649	11.25
327.439	14.25
328.23	12.25
329.02	12.25
329.81	12.25
330.6	11.25
331.391	13.25
332.181	12.25
332.971	12.25
333.76	10.25
334.55	14.25
335.34	12.25
336.13	11.25
336.919	13.25
337.709	12.25
338.498	11.25
339.287	12.25
340.077	12.25
340.866	11.25
341.655	14.25
342.444	12.25
343.233	10.25
344.022	10.25
344.811	10.25
345.6	9.25
346.388	9.25
347.177	13.25
347.965	11.25
348.754	13.25
349.542	13.25
350.33	11.25
351.119	10.25
351.907	10.25
352.695	13.25
353.483	11.25
354.271	11.25
355.059	10.25
355.846	12.25
356.634	10.25
357.422	11.25
358.209	11.25
358.997	8.25
359.784	10.25
360.571	12.25
361.359	9.25
362.146	11.25
362.933	6.25
363.72	12.25
364.507	11.25
365.294	10.25
366.081	8.25
366.867	7.25
367.654	10.25
368.44	10.25
369.227	11.25
370.013	8.25
370.8	8.25
371.586	10.25
372.372	10.25
373.158	13.25
373.944	8.25
374.73	11.25
375.516	10.25
376.302	7.25
377.088	9.25
377.873	10.25
378.659	10.25
379.445	8.25
380.23	12.25
381.015	11.25
381.801	9.25
382.586	10.25
383.371	9.25
384.156	11.25
384.941	12.25
385.726	11.25
386.511	11.25
387.296	9.25
388.08	10.25
388.865	10.25
389.649	11.25
390.434	12.25
391.218	12.25
392.003	13.25
392.787	11.25
393.571	13.25
394.355	10.25
395.139	14.25
395.923	12.25
396.707	13.25
397.491	11.25
398.274	13.25
399.058	13.25
399.842	13.25
400.625	13.25
401.408	13.25
402.192	14.25
402.975	15.25
403.758	13.25
404.541	17.25
405.324	15.25
406.107	13.25
406.89	15.25
407.673	14.25
408.456	14.25
409.238	15.25
410.021	14.25
410.803	14.25
411.586	17.25
412.368	17.25
413.151	17.25
413.933	17.25
414.715	20.25
415.497	16.25
416.279	18.25
417.061	19.25
417.843	21.25
418.624	20.25
419.406	19.25
420.188	20.25
420.969	21.25
421.751	20.25
422.532	19.25
423.313	21.25
424.095	22.25
424.876	24.25
425.657	25.25
426.438	24.25
427.219	25.25
428	27.25
428.78	28.25
429.561	28.25
430.342	31.25
431.122	30.25
431.903	31.25
432.683	35.25
433.464	38.25
434.244	40.25
435.024	40.25
435.804	40.25
436.584	45.25
437.364	45.25
438.144	47.25
438.924	50.25
439.704	54.25
440.483	57.25
441.263	63.25
442.042	68.25
442.822	74.25
443.601	75.25
444.38	81.25
445.16	92.25
445.939	97.25
446.718	107.25
447.497	115.25
448.276	130.25
449.054	135.25
449.833	155.25
450.612	167.25
451.391	188.25
452.169	197.25
452.948	228.25
453.726	260.25
454.504	285.25
455.282	308.25
456.061	348.25
456.839	384.25
457.617	435.25
458.395	483.25
459.172	530.25
459.95	590.25
460.728	667.25
461.506	733.25
462.283	825.25
463.061	921.25
463.838	1016.25
464.615	1128.25
465.393	1240.25
466.17	1388.25
466.947	1535.25
467.724	1687.25
468.501	1862.25
469.278	2061.25
470.055	2267.25
470.831	2519.25
471.608	2778.25
472.385	3021.25
473.161	3309.25
473.938	3623.25
474.714	3967.25
475.49	4343.25
476.266	4747.25
477.043	5173.25
477.819	5628.25
478.595	6116.25
479.371	6678.25
480.146	7244.25
480.922	7845.25
481.698	8547.25
482.473	9237.25
483.249	10033.25
484.024	10850.25
484.8	11729.25
485.575	12679.25
486.35	13669.25
487.126	14750.25
487.901	15910.25
488.676	17062.25
489.451	18372.25
490.225	19675.25
491	21077.25
491.775	22574.25
492.55	24050.25
493.324	25590.25
494.099	27179.25
494.873	28865.25
495.647	30400.25
496.422	32067.25
497.196	33783.25
497.97	35290.25
498.744	36727.25
499.518	38320.25
500.292	39573.25
501.066	40635.25
501.839	41728.25
502.613	42626.25
503.387	43438.25
504.16	43981.25
504.934	44246.25
505.707	44467.25
506.48	44355.25
507.253	44084.25
508.027	43635.25
508.8	43115.25
509.573	42315.25
510.346	41440.25
511.118	40700.25
511.891	39620.25
512.664	38258.25
513.437	36984.25
514.209	35835.25
514.982	34441.25
515.754	33176.25
516.526	31889.25
517.298	30720.25
518.071	29507.25
518.843	28362.25
519.615	27159.25
520.387	26170.25
521.159	25171.25
521.93	24073.25
522.702	23132.25
523.474	22134.25
524.245	21241.25
525.017	20359.25
525.788	19566.25
526.56	18761.25
527.331	17991.25
528.102	17087.25
528.873	16275.25
529.644	15474.25
530.415	14790.25
531.186	14103.25
531.957	13391.25
532.728	12760.25
533.498	12072.25
534.269	11474.25
535.039	10876.25
535.81	10274.25
536.58	9735.25
537.351	9217.25
538.121	8744.25
538.891	8269.25
539.661	7872.25
540.431	7388.25
541.201	7016.25
541.971	6666.25
542.741	6318.25
543.51	5967.25
544.28	5719.25
545.05	5469.25
545.819	5159.25
546.588	4938.25
547.358	4699.25
548.127	4484.25
548.896	4260.25
549.665	4030.25
550.434	3853.25
551.203	3637.25
551.972	3451.25
552.741	3268.25
553.51	3078.25
554.278	2902.25
555.047	2747.25
555.815	2595.25
556.584	2451.25
557.352	2333.25
558.121	2207.25
558.889	2100.25
559.657	1979.25
560.425	1870.25
561.193	1762.25
561.961	1670.25
562.729	1579.25
563.496	1497.25
564.264	1415.25
565.032	1336.25
565.799	1260.25
566.567	1188.25
567.334	1129.25
568.101	1077.25
568.869	1009.25
569.636	942.25
570.403	898.25
571.17	845.25
571.937	793.25
572.704	761.25
573.471	705.25
574.237	665.25
575.004	636.25
575.771	601.25
576.537	568.25
577.303	547.25
578.07	515.25
578.836	485.25
579.602	455.25
580.368	431.25
581.134	410.25
581.9	380.25
582.666	372.25
583.432	357.25
584.198	336.25
584.964	316.25
585.729	296.25
586.495	285.25
587.26	269.25
588.025	247.25
588.791	238.25
589.556	230.25
590.321	219.25
591.086	206.25
591.851	190.25
592.616	189.25
593.381	177.25
594.146	166.25
594.911	163.25
595.675	155.25
596.44	150.25
597.204	143.25
597.969	134.25
598.733	132.25
599.497	123.25
600.261	116.25
601.025	116.25
601.79	108.25
602.553	107.25
603.317	99.25
604.081	96.25
604.845	95.25
605.609	87.25
606.372	82.25
607.136	81.25
607.899	77.25
608.662	76.25
609.426	72.25
610.189	70.25
610.952	70.25
611.715	64.25
612.478	62.25
613.241	58.25
614.004	57.25
614.767	55.25
615.529	54.25
616.292	54.25
617.055	51.25
617.817	50.25
618.579	46.25
619.342	48.25
620.104	45.25
620.866	42.25
621.628	43.25
622.39	38.25
623.152	41.25
623.914	37.25
624.676	35.25
625.438	35.25
626.199	37.25
626.961	35.25
627.722	31.25
628.484	31.25
629.245	32.25
630.006	29.25
630.768	27.25
631.529	27.25
632.29	24.25
633.051	26.25
633.812	26.25
634.573	24.25
635.333	24.25
636.094	23.25
636.855	23.25
637.615	19.25
638.376	22.25
639.136	21.25
639.896	20.25
640.657	21.25
641.417	19.25
642.177	15.25
642.937	17.25
643.697	20.25
644.457	19.25
645.216	18.25
645.976	17.25
646.736	16.25
647.495	17.25
648.255	15.25
649.014	16.25
649.774	15.25
650.533	16.25
651.292	14.25
652.051	16.25
652.81	14.25
653.569	12.25
654.328	13.25
655.087	13.25
655.846	12.25
656.604	13.25
657.363	12.25
658.121	13.25
658.88	12.25
659.638	12.25
660.397	12.25
661.155	12.25
661.913	13.25
662.671	11.25
663.429	13.25
664.187	8.25
664.945	9.25
665.703	11.25
666.46	13.25
667.218	12.25
667.976	12.25
668.733	10.25
669.49	10.25
670.248	8.25
671.005	10.25
671.762	9.25
672.519	10.25
673.276	7.25
674.033	11.25
674.79	9.25
675.547	8.25
676.304	11.25
677.06	7.25
677.817	10.25
678.574	8.25
679.33	6.25
680.086	8.25
680.843	9.25
681.599	9.25
682.355	9.25
683.111	10.25
683.867	10.25
684.623	8.25
685.379	7.25
686.135	8.25
686.89	10.25
687.646	7.25
688.402	7.25
689.157	9.25
689.912	10.25
690.668	7.25
691.423	7.25
692.178	9.25
692.933	8.25
693.688	5.25
694.443	6.25
695.198	8.25
695.953	8.25
696.708	8.25
697.462	9.25
698.217	7.25
698.972	8.25
699.726	7.25
700.48	6.25
701.235	10.25
701.989	5.25
702.743	8.25
703.497	7.25
704.251	8.25
705.005	7.25
705.759	8.25
706.513	9.25
707.266	8.25
708.02	7.25
708.774	6.25
709.527	8.25
710.28	8.25
711.034	7.25
711.787	9.25
712.54	8.25
713.293	8.25
714.046	7.25
714.799	7.25
715.552	8.25
716.305	8.25
717.058	6.25
717.81	8.25
718.563	9.25
719.315	7.25
720.068	7.25
720.82	8.25
721.573	7.25
722.325	9.25
723.077	8.25
723.829	7.25
724.581	9.25
725.333	7.25
726.085	10.25
726.836	7.25
727.588	9.25
728.34	7.25
729.091	12.25
729.843	10.25
730.594	10.25
731.346	9.25
732.097	11.25
732.848	8.25
733.599	9.25
734.35	9.25
735.101	9.25
735.852	9.25
736.603	11.25
737.354	10.25
738.104	8.25
738.855	9.25
739.605	8.25
740.356	10.25
741.106	10.25
741.856	12.25
742.607	10.25
743.357	9.25
744.107	10.25
744.857	11.25
745.607	11.25
746.357	9.25
747.106	11.25
747.856	13.25
748.606	11.25
749.355	11.25
750.105	11.25
750.854	14.25
751.603	11.25
752.353	9.25
753.102	12.25
753.851	11.25
754.6	14.25
755.349	10.25
756.098	11.25
756.847	10.25
757.595	10.25
758.344	10.25
759.093	12.25
759.841	13.25
760.589	14.25
761.338	9.25
762.086	11.25
762.834	13.25
763.582	14.25
764.331	14.25
765.079	13.25
765.826	14.25
766.574	12.25
767.322	13.25
768.07	14.25
768.817	15.25
769.565	13.25
770.312	13.25
771.06	13.25
771.807	11.25
772.554	13.25
773.302	12.25
774.049	15.25
774.796	12.25
775.543	16.25
776.29	15.25
777.036	15.25
777.783	15.25
778.53	12.25
779.276	16.25
780.023	16.25
780.769	16.25
781.516	13.25
782.262	12.25
783.008	14.25
783.754	13.25
784.5	13.25
785.246	14.25
785.992	12.25
786.738	14.25
787.484	14.25
788.23	17.25
788.975	13.25
789.721	15.25
790.466	15.25
791.212	12.25
791.957	15.25
792.702	15.25
793.447	15.25
794.193	11.25
794.938	15.25
795.683	14.25
796.427	12.25
797.172	13.25
797.917	12.25
798.662	14.25
799.406	12.25
800.151	10.25
800.895	14.25
801.64	11.25
802.384	12.25
803.128	12.25
803.872	10.25
804.616	13.25
805.36	9.25
806.104	11.25
806.848	11.25
807.592	9.25
808.336	13.25
809.079	10.25
809.823	11.25
810.566	7.25
811.31	9.25
812.053	11.25
812.796	8.25
813.539	9.25
814.283	8.25
815.026	9.25
815.769	7.25
816.511	7.25
817.254	10.25
817.997	10.25
818.74	8.25
819.482	6.25
820.225	8.25
820.967	8.25
821.71	8.25
822.452	8.25
823.194	9.25
823.936	8.25
824.678	7.25
825.42	6.25
826.162	6.25
826.904	6.25
827.646	6.25
828.388	7.25
829.129	5.25
829.871	5.25
830.612	5.25
831.354	6.25
832.095	7.25
832.836	6.25
833.577	6.25
834.319	5.25
835.06	7.25
835.801	7.25
836.542	5.25
837.282	6.25
838.023	5.25
838.764	5.25
839.504	6.25
840.245	7.25
840.985	4.25
841.726	8.25
842.466	4.25
843.206	5.25
843.946	4.25
844.687	6.25
845.427	4.25
846.166	3.25
846.906	5.25
847.646	5.25
848.386	5.25
849.125	6.25
849.865	5.25
850.605	6.25
851.344	4.25
852.083	5.25
852.823	6.25
853.562	4.25
854.301	5.25
855.04	5.25
855.779	5.25
856.518	6.25
857.257	5.25
857.995	3.25
858.734	3.25
859.473	7.25
860.211	2.25
860.95	7.25
861.688	2.25
862.426	5.25
863.165	6.25
863.903	2.25
864.641	3.25
865.379	4.25
866.117	3.25
866.855	2.25
867.593	2.25
868.33	4.25
869.068	4.25
869.806	1.25
870.543	4.25
871.28	4.25
872.018	3.25
872.755	1.25
873.492	1.25
874.229	1.25
874.967	3.25
875.703	2.25
876.44	3.25
877.177	2.25
877.914	3.25
878.651	3.25
879.387	1.25
880.124	0.25
880.86	2.25
881.597	4.25
882.333	1.25
883.069	2.25
883.806	2.25
884.542	0.25
885.278	3.25
886.014	2.25
886.749	3.25
887.485	1.25
888.221	2.25
888.957	3.25
889.692	0.25
890.428	0.25
891.163	1.25
891.899	1.25
892.634	2.25
893.369	3.25
894.104	-0.75
894.839	3.25
895.574	1.25
896.309	2.25
897.044	1.25
897.779	2.25
898.514	3.25
899.248	0.25
899.983	1.25
900.717	3.25
901.452	2.25
902.186	0.25
902.92	1.25
903.654	3.25
904.389	1.25
905.123	1.25
905.857	0.25
906.59	2.25
907.324	0.25
908.058	4.25
908.792	1.25
909.525	0.25
910.259	0.25
910.992	-0.75
911.726	1.25
912.459	-0.75
913.192	0.25
913.925	1.25
914.658	0.25
915.391	0.25
916.124	1.25
916.857	0.25
917.59	0.25
918.323	1.25
919.055	1.25
919.788	2.25
920.521	1.25
921.253	2.25
921.985	-0.75
922.718	1.25
923.45	1.25
924.182	2.25
924.914	-0.75
925.646	2.25
926.378	3.25
927.11	-0.75
927.841	3.25
928.573	0.25
929.305	1.25
930.036	1.25
930.768	-0.75
931.499	1.25
932.23	1.25
932.962	0.25
933.693	0.25
934.424	1.25
935.155	2.25
935.886	1.25
936.617	-0.75
937.348	0.25
938.078	1.25
938.809	0.25
939.54	2.25
940.27	2.25
941.001	-1.75
941.731	2.25
942.461	0.25
943.191	2.25
943.922	0.25
944.652	1.25
945.382	1.25
946.112	2.25
946.841	3.25
947.571	1.25
948.301	0.25
949.031	1.25
949.76	0.25
950.49	-1.75
951.219	-2.75
951.948	-0.75
952.678	2.25
953.407	1.25
954.136	0.25
954.865	1.25
955.594	0.25
956.323	0.25
957.052	0.25
957.78	1.25
958.509	0.25
959.238	1.25
959.966	0.25
960.695	1.25
961.423	0.25
962.151	-0.75
962.88	2.25
963.608	2.25
964.336	0.25
965.064	1.25
965.792	-0.75
966.52	1.25
967.247	1.25
967.975	2.25
968.703	1.25
969.43	1.25
970.158	0.25
970.885	1.25
971.613	1.25
972.34	1.25
973.067	-1.75
973.794	-1.75
974.521	1.25
975.248	0.25
975.975	1.25
976.702	1.25
977.429	-1.75
978.156	-1.75
978.882	2.25
979.609	1.25
980.335	1.25
981.062	1.25
981.788	0.25
982.514	0.25
983.24	2.25
983.967	-0.75
984.693	-0.75
985.419	-0.75
986.144	1.25
986.87	0.25
987.596	1.25
988.322	2.25
989.047	-0.75
989.773	0.25
990.498	0.25
991.224	1.25
991.949	1.25
992.674	-0.75
993.399	2.25
994.124	2.25
994.849	0.25
995.574	-0.75
996.299	-0.75
997.024	2.25
997.749	-0.75
998.473	0.25
999.198	-0.75
999.922	-0.75
1000.647	0.25
1001.371	4.25
1002.095	-1.75
1002.82	-0.75
1003.544	-0.75
1004.268	4.25
1004.992	2.25
1005.716	3.25
1006.439	3.25
1007.163	7.25
1007.887	3.25
1008.611	-0.75
1009.334	2.25
1010.058	0.25
1010.781	-0.75
1011.504	1.25
1012.228	0.25
1012.951	-1.75
1013.674	0.25
1014.397	0.25
1015.12	0.25
