节点500_705_QEPB04081__394__20-51-32-611.txt的数据

Date: Wed Nov 12 20:51:32 CST 2025
User: PC
Spectrometer: QEPB0408
触发模式: 0
积分时间 (秒): 1.000000E-2
Scans to average: 1
启用暗噪声校正: true
启用非线性校正: false
滑动平均宽度: 0
X轴模式: Wavelengths
Number of Pixels in Spectrum: 1044
>>>>>Begin Spectral Data<<<<<
220.843	6.25
221.644	7.25
222.444	6.25
223.244	8.25
224.045	6.25
224.845	6.25
225.645	7.25
226.445	3.25
227.245	8.25
228.045	8.25
228.845	9.25
229.645	8.25
230.444	7.25
231.244	9.25
232.043	7.25
232.843	9.25
233.642	8.25
234.442	9.25
235.241	10.25
236.04	9.25
236.839	9.25
237.638	11.25
238.437	8.25
239.236	10.25
240.035	10.25
240.833	11.25
241.632	10.25
242.43	11.25
243.229	11.25
244.027	12.25
244.826	14.25
245.624	12.25
246.422	15.25
247.22	14.25
248.018	14.25
248.816	17.25
249.614	16.25
250.412	15.25
251.21	16.25
252.007	16.25
252.805	15.25
253.602	21.25
254.4	18.25
255.197	18.25
255.994	17.25
256.791	20.25
257.589	20.25
258.386	19.25
259.183	19.25
259.979	22.25
260.776	21.25
261.573	20.25
262.37	25.25
263.166	23.25
263.963	23.25
264.759	26.25
265.556	26.25
266.352	28.25
267.148	29.25
267.944	30.25
268.74	26.25
269.536	26.25
270.332	28.25
271.128	27.25
271.924	26.25
272.719	33.25
273.515	33.25
274.311	31.25
275.106	31.25
275.901	33.25
276.697	35.25
277.492	34.25
278.287	33.25
279.082	32.25
279.877	33.25
280.672	38.25
281.467	34.25
282.262	35.25
283.056	31.25
283.851	35.25
284.646	35.25
285.44	32.25
286.234	32.25
287.029	33.25
287.823	32.25
288.617	31.25
289.411	34.25
290.205	30.25
290.999	31.25
291.793	34.25
292.587	30.25
293.381	33.25
294.174	30.25
294.968	29.25
295.761	29.25
296.555	25.25
297.348	26.25
298.141	26.25
298.935	27.25
299.728	26.25
300.521	24.25
301.314	26.25
302.107	24.25
302.899	25.25
303.692	24.25
304.485	21.25
305.277	23.25
306.07	22.25
306.862	22.25
307.655	25.25
308.447	22.25
309.239	24.25
310.031	21.25
310.823	19.25
311.615	20.25
312.407	17.25
313.199	18.25
313.991	17.25
314.783	18.25
315.574	15.25
316.366	18.25
317.157	19.25
317.949	16.25
318.74	14.25
319.531	15.25
320.322	13.25
321.113	12.25
321.904	12.25
322.695	15.25
323.486	14.25
324.277	13.25
325.068	10.25
325.858	13.25
326.649	16.25
327.439	13.25
328.23	9.25
329.02	10.25
329.81	13.25
330.6	11.25
331.391	13.25
332.181	11.25
332.971	14.25
333.76	13.25
334.55	13.25
335.34	14.25
336.13	10.25
336.919	11.25
337.709	14.25
338.498	12.25
339.287	12.25
340.077	9.25
340.866	13.25
341.655	14.25
342.444	13.25
343.233	14.25
344.022	11.25
344.811	13.25
345.6	9.25
346.388	10.25
347.177	9.25
347.965	8.25
348.754	11.25
349.542	11.25
350.33	10.25
351.119	11.25
351.907	12.25
352.695	13.25
353.483	10.25
354.271	10.25
355.059	8.25
355.846	10.25
356.634	10.25
357.422	9.25
358.209	9.25
358.997	10.25
359.784	9.25
360.571	11.25
361.359	10.25
362.146	10.25
362.933	8.25
363.72	12.25
364.507	14.25
365.294	10.25
366.081	10.25
366.867	9.25
367.654	10.25
368.44	9.25
369.227	8.25
370.013	11.25
370.8	9.25
371.586	8.25
372.372	7.25
373.158	10.25
373.944	8.25
374.73	11.25
375.516	11.25
376.302	10.25
377.088	11.25
377.873	10.25
378.659	9.25
379.445	10.25
380.23	9.25
381.015	9.25
381.801	9.25
382.586	10.25
383.371	11.25
384.156	11.25
384.941	12.25
385.726	10.25
386.511	12.25
387.296	11.25
388.08	11.25
388.865	11.25
389.649	11.25
390.434	9.25
391.218	10.25
392.003	11.25
392.787	13.25
393.571	10.25
394.355	13.25
395.139	12.25
395.923	12.25
396.707	14.25
397.491	13.25
398.274	14.25
399.058	13.25
399.842	13.25
400.625	13.25
401.408	12.25
402.192	14.25
402.975	15.25
403.758	12.25
404.541	13.25
405.324	15.25
406.107	14.25
406.89	15.25
407.673	17.25
408.456	16.25
409.238	15.25
410.021	15.25
410.803	17.25
411.586	18.25
412.368	18.25
413.151	15.25
413.933	18.25
414.715	19.25
415.497	19.25
416.279	20.25
417.061	19.25
417.843	23.25
418.624	21.25
419.406	21.25
420.188	22.25
420.969	19.25
421.751	22.25
422.532	24.25
423.313	24.25
424.095	20.25
424.876	24.25
425.657	27.25
426.438	28.25
427.219	29.25
428	25.25
428.78	29.25
429.561	31.25
430.342	27.25
431.122	31.25
431.903	34.25
432.683	32.25
433.464	34.25
434.244	37.25
435.024	39.25
435.804	42.25
436.584	45.25
437.364	47.25
438.144	46.25
438.924	54.25
439.704	52.25
440.483	60.25
441.263	61.25
442.042	66.25
442.822	69.25
443.601	76.25
444.38	80.25
445.16	85.25
445.939	104.25
446.718	105.25
447.497	111.25
448.276	121.25
449.054	132.25
449.833	151.25
450.612	165.25
451.391	185.25
452.169	204.25
452.948	225.25
453.726	244.25
454.504	273.25
455.282	300.25
456.061	343.25
456.839	368.25
457.617	425.25
458.395	467.25
459.172	521.25
459.95	583.25
460.728	648.25
461.506	717.25
462.283	806.25
463.061	890.25
463.838	1009.25
464.615	1117.25
465.393	1235.25
466.17	1379.25
466.947	1501.25
467.724	1685.25
468.501	1854.25
469.278	2073.25
470.055	2270.25
470.831	2513.25
471.608	2781.25
472.385	3057.25
473.161	3362.25
473.938	3674.25
474.714	4039.25
475.49	4441.25
476.266	4843.25
477.043	5322.25
477.819	5742.25
478.595	6290.25
479.371	6884.25
480.146	7492.25
480.922	8232.25
481.698	8871.25
482.473	9686.25
483.249	10525.25
484.024	11423.25
484.8	12404.25
485.575	13378.25
486.35	14458.25
487.126	15701.25
487.901	16912.25
488.676	18253.25
489.451	19600.25
490.225	21135.25
491	22651.25
491.775	24174.25
492.55	25878.25
493.324	27538.25
494.099	29243.25
494.873	30978.25
495.647	32784.25
496.422	34468.25
497.196	36194.25
497.97	37873.25
498.744	39370.25
499.518	41048.25
500.292	42322.25
501.066	43430.25
501.839	44275.25
502.613	45121.25
503.387	45747.25
504.16	46214.25
504.934	46396.25
505.707	46430.25
506.48	46242.25
507.253	45849.25
508.027	45348.25
508.8	44458.25
509.573	43349.25
510.346	42363.25
511.118	41402.25
511.891	40267.25
512.664	38844.25
513.437	37389.25
514.209	36002.25
514.982	34661.25
515.754	33307.25
516.526	31954.25
517.298	30720.25
518.071	29511.25
518.843	28380.25
519.615	27166.25
520.387	26102.25
521.159	25052.25
521.93	24023.25
522.702	23030.25
523.474	22090.25
524.245	21187.25
525.017	20311.25
525.788	19389.25
526.56	18579.25
527.331	17771.25
528.102	16837.25
528.873	16053.25
529.644	15310.25
530.415	14609.25
531.186	13917.25
531.957	13194.25
532.728	12518.25
533.498	11891.25
534.269	11210.25
535.039	10623.25
535.81	10084.25
536.58	9517.25
537.351	8998.25
538.121	8540.25
538.891	8084.25
539.661	7663.25
540.431	7246.25
541.201	6857.25
541.971	6506.25
542.741	6163.25
543.51	5837.25
544.28	5581.25
545.05	5310.25
545.819	5060.25
546.588	4804.25
547.358	4601.25
548.127	4368.25
548.896	4148.25
549.665	3928.25
550.434	3712.25
551.203	3539.25
551.972	3358.25
552.741	3185.25
553.51	3000.25
554.278	2841.25
555.047	2659.25
555.815	2513.25
556.584	2395.25
557.352	2266.25
558.121	2133.25
558.889	2024.25
559.657	1898.25
560.425	1819.25
561.193	1711.25
561.961	1604.25
562.729	1530.25
563.496	1446.25
564.264	1364.25
565.032	1282.25
565.799	1226.25
566.567	1167.25
567.334	1090.25
568.101	1035.25
568.869	975.25
569.636	919.25
570.403	882.25
571.17	827.25
571.937	783.25
572.704	739.25
573.471	702.25
574.237	656.25
575.004	617.25
575.771	576.25
576.537	551.25
577.303	521.25
578.07	479.25
578.836	465.25
579.602	436.25
580.368	413.25
581.134	390.25
581.9	383.25
582.666	358.25
583.432	329.25
584.198	325.25
584.964	302.25
585.729	296.25
586.495	274.25
587.26	258.25
588.025	245.25
588.791	239.25
589.556	219.25
590.321	212.25
591.086	203.25
591.851	187.25
592.616	179.25
593.381	173.25
594.146	165.25
594.911	160.25
595.675	152.25
596.44	144.25
597.204	135.25
597.969	128.25
598.733	125.25
599.497	123.25
600.261	115.25
601.025	114.25
601.79	105.25
602.553	100.25
603.317	96.25
604.081	91.25
604.845	89.25
605.609	85.25
606.372	78.25
607.136	78.25
607.899	76.25
608.662	74.25
609.426	70.25
610.189	68.25
610.952	71.25
611.715	63.25
612.478	59.25
613.241	56.25
614.004	55.25
614.767	55.25
615.529	51.25
616.292	47.25
617.055	48.25
617.817	46.25
618.579	51.25
619.342	46.25
620.104	41.25
620.866	40.25
621.628	41.25
622.39	37.25
623.152	33.25
623.914	36.25
624.676	34.25
625.438	38.25
626.199	33.25
626.961	32.25
627.722	34.25
628.484	31.25
629.245	31.25
630.006	29.25
630.768	28.25
631.529	29.25
632.29	27.25
633.051	26.25
633.812	25.25
634.573	25.25
635.333	23.25
636.094	21.25
636.855	23.25
637.615	19.25
638.376	21.25
639.136	19.25
639.896	22.25
640.657	20.25
641.417	15.25
642.177	20.25
642.937	15.25
643.697	22.25
644.457	16.25
645.216	17.25
645.976	16.25
646.736	14.25
647.495	14.25
648.255	13.25
649.014	16.25
649.774	15.25
650.533	15.25
651.292	14.25
652.051	15.25
652.81	16.25
653.569	12.25
654.328	16.25
655.087	13.25
655.846	14.25
656.604	13.25
657.363	13.25
658.121	11.25
658.88	14.25
659.638	13.25
660.397	10.25
661.155	10.25
661.913	13.25
662.671	9.25
663.429	13.25
664.187	12.25
664.945	11.25
665.703	10.25
666.46	10.25
667.218	8.25
667.976	11.25
668.733	13.25
669.49	9.25
670.248	10.25
671.005	11.25
671.762	11.25
672.519	9.25
673.276	9.25
674.033	9.25
674.79	9.25
675.547	10.25
676.304	8.25
677.06	8.25
677.817	9.25
678.574	8.25
679.33	8.25
680.086	10.25
680.843	8.25
681.599	8.25
682.355	7.25
683.111	7.25
683.867	8.25
684.623	7.25
685.379	7.25
686.135	8.25
686.89	8.25
687.646	7.25
688.402	7.25
689.157	8.25
689.912	5.25
690.668	6.25
691.423	9.25
692.178	8.25
692.933	9.25
693.688	9.25
694.443	9.25
695.198	7.25
695.953	8.25
696.708	9.25
697.462	8.25
698.217	8.25
698.972	6.25
699.726	9.25
700.48	8.25
701.235	9.25
701.989	5.25
702.743	8.25
703.497	9.25
704.251	6.25
705.005	6.25
705.759	8.25
706.513	10.25
707.266	7.25
708.02	7.25
708.774	8.25
709.527	8.25
710.28	9.25
711.034	8.25
711.787	8.25
712.54	10.25
713.293	7.25
714.046	7.25
714.799	6.25
715.552	7.25
716.305	6.25
717.058	4.25
717.81	10.25
718.563	9.25
719.315	8.25
720.068	10.25
720.82	8.25
721.573	10.25
722.325	10.25
723.077	8.25
723.829	6.25
724.581	9.25
725.333	10.25
726.085	9.25
726.836	8.25
727.588	10.25
728.34	9.25
729.091	9.25
729.843	6.25
730.594	10.25
731.346	8.25
732.097	8.25
732.848	9.25
733.599	11.25
734.35	9.25
735.101	10.25
735.852	9.25
736.603	9.25
737.354	11.25
738.104	7.25
738.855	9.25
739.605	8.25
740.356	10.25
741.106	10.25
741.856	11.25
742.607	10.25
743.357	11.25
744.107	9.25
744.857	10.25
745.607	12.25
746.357	10.25
747.106	10.25
747.856	11.25
748.606	12.25
749.355	9.25
750.105	11.25
750.854	11.25
751.603	9.25
752.353	13.25
753.102	12.25
753.851	11.25
754.6	12.25
755.349	14.25
756.098	11.25
756.847	13.25
757.595	13.25
758.344	11.25
759.093	14.25
759.841	10.25
760.589	13.25
761.338	12.25
762.086	11.25
762.834	11.25
763.582	12.25
764.331	15.25
765.079	14.25
765.826	12.25
766.574	13.25
767.322	12.25
768.07	13.25
768.817	12.25
769.565	16.25
770.312	13.25
771.06	16.25
771.807	12.25
772.554	15.25
773.302	16.25
774.049	16.25
774.796	13.25
775.543	15.25
776.29	14.25
777.036	17.25
777.783	14.25
778.53	16.25
779.276	14.25
780.023	16.25
780.769	13.25
781.516	17.25
782.262	17.25
783.008	15.25
783.754	15.25
784.5	17.25
785.246	18.25
785.992	16.25
786.738	15.25
787.484	15.25
788.23	12.25
788.975	15.25
789.721	15.25
790.466	16.25
791.212	17.25
791.957	12.25
792.702	16.25
793.447	15.25
794.193	14.25
794.938	14.25
795.683	13.25
796.427	14.25
797.172	12.25
797.917	15.25
798.662	11.25
799.406	15.25
800.151	11.25
800.895	12.25
801.64	14.25
802.384	11.25
803.128	11.25
803.872	12.25
804.616	11.25
805.36	11.25
806.104	10.25
806.848	11.25
807.592	11.25
808.336	10.25
809.079	9.25
809.823	12.25
810.566	9.25
811.31	11.25
812.053	7.25
812.796	9.25
813.539	10.25
814.283	9.25
815.026	9.25
815.769	8.25
816.511	8.25
817.254	10.25
817.997	8.25
818.74	8.25
819.482	8.25
820.225	7.25
820.967	8.25
821.71	7.25
822.452	6.25
823.194	6.25
823.936	8.25
824.678	9.25
825.42	8.25
826.162	9.25
826.904	6.25
827.646	6.25
828.388	5.25
829.129	7.25
829.871	8.25
830.612	6.25
831.354	6.25
832.095	5.25
832.836	6.25
833.577	7.25
834.319	7.25
835.06	8.25
835.801	8.25
836.542	7.25
837.282	7.25
838.023	4.25
838.764	7.25
839.504	5.25
840.245	7.25
840.985	7.25
841.726	5.25
842.466	7.25
843.206	5.25
843.946	7.25
844.687	7.25
845.427	5.25
846.166	4.25
846.906	6.25
847.646	6.25
848.386	4.25
849.125	7.25
849.865	4.25
850.605	6.25
851.344	6.25
852.083	4.25
852.823	5.25
853.562	5.25
854.301	3.25
855.04	6.25
855.779	2.25
856.518	5.25
857.257	5.25
857.995	6.25
858.734	4.25
859.473	3.25
860.211	3.25
860.95	5.25
861.688	4.25
862.426	3.25
863.165	5.25
863.903	5.25
864.641	2.25
865.379	4.25
866.117	4.25
866.855	2.25
867.593	1.25
868.33	4.25
869.068	3.25
869.806	5.25
870.543	1.25
871.28	2.25
872.018	6.25
872.755	4.25
873.492	4.25
874.229	3.25
874.967	-0.75
875.703	3.25
876.44	4.25
877.177	2.25
877.914	3.25
878.651	2.25
879.387	3.25
880.124	-0.75
880.86	2.25
881.597	3.25
882.333	1.25
883.069	3.25
883.806	3.25
884.542	1.25
885.278	3.25
886.014	1.25
886.749	3.25
887.485	0.25
888.221	2.25
888.957	0.25
889.692	1.25
890.428	1.25
891.163	1.25
891.899	4.25
892.634	1.25
893.369	3.25
894.104	3.25
894.839	-0.75
895.574	1.25
896.309	1.25
897.044	-0.75
897.779	-0.75
898.514	-0.75
899.248	-0.75
899.983	-0.75
900.717	1.25
901.452	1.25
902.186	1.25
902.92	2.25
903.654	2.25
904.389	1.25
905.123	3.25
905.857	0.25
906.59	0.25
907.324	3.25
908.058	1.25
908.792	2.25
909.525	3.25
910.259	-0.75
910.992	2.25
911.726	1.25
912.459	2.25
913.192	0.25
913.925	-0.75
914.658	1.25
915.391	2.25
916.124	2.25
916.857	0.25
917.59	2.25
918.323	0.25
919.055	0.25
919.788	1.25
920.521	-1.75
921.253	3.25
921.985	1.25
922.718	1.25
923.45	1.25
924.182	0.25
924.914	3.25
925.646	-1.75
926.378	1.25
927.11	-0.75
927.841	0.25
928.573	0.25
929.305	-0.75
930.036	-0.75
930.768	-0.75
931.499	0.25
932.23	2.25
932.962	-1.75
933.693	1.25
934.424	1.25
935.155	-0.75
935.886	2.25
936.617	1.25
937.348	0.25
938.078	0.25
938.809	1.25
939.54	-0.75
940.27	2.25
941.001	3.25
941.731	-1.75
942.461	0.25
943.191	2.25
943.922	-0.75
944.652	2.25
945.382	0.25
946.112	2.25
946.841	0.25
947.571	2.25
948.301	1.25
949.031	1.25
949.76	0.25
950.49	-0.75
951.219	0.25
951.948	0.25
952.678	3.25
953.407	0.25
954.136	1.25
954.865	0.25
955.594	-2.75
956.323	3.25
957.052	2.25
957.78	1.25
958.509	2.25
959.238	1.25
959.966	1.25
960.695	-0.75
961.423	2.25
962.151	1.25
962.88	1.25
963.608	2.25
964.336	-1.75
965.064	0.25
965.792	1.25
966.52	0.25
967.247	0.25
967.975	2.25
968.703	-0.75
969.43	-0.75
970.158	0.25
970.885	4.25
971.613	1.25
972.34	2.25
973.067	-1.75
973.794	2.25
974.521	1.25
975.248	2.25
975.975	4.25
976.702	0.25
977.429	1.25
978.156	0.25
978.882	2.25
979.609	0.25
980.335	2.25
981.062	0.25
981.788	0.25
982.514	3.25
983.24	0.25
983.967	1.25
984.693	3.25
985.419	0.25
986.144	-0.75
986.87	0.25
987.596	1.25
988.322	0.25
989.047	-0.75
989.773	1.25
990.498	-0.75
991.224	3.25
991.949	2.25
992.674	1.25
993.399	3.25
994.124	2.25
994.849	1.25
995.574	2.25
996.299	1.25
997.024	-0.75
997.749	0.25
998.473	1.25
999.198	-0.75
999.922	0.25
1000.647	3.25
1001.371	3.25
1002.095	-0.75
1002.82	-0.75
1003.544	-0.75
1004.268	4.25
1004.992	4.25
1005.716	6.25
1006.439	6.25
1007.163	3.25
1007.887	5.25
1008.611	1.25
1009.334	0.25
1010.058	-0.75
1010.781	2.25
1011.504	2.25
1012.228	2.25
1012.951	1.25
1013.674	-0.75
1014.397	1.25
1015.12	-2.75
