节点500_705_QEPB04081__616__20-54-41-780.txt的数据

Date: Wed Nov 12 20:54:41 CST 2025
User: PC
Spectrometer: QEPB0408
触发模式: 0
积分时间 (秒): 1.000000E-2
Scans to average: 1
启用暗噪声校正: true
启用非线性校正: false
滑动平均宽度: 0
X轴模式: Wavelengths
Number of Pixels in Spectrum: 1044
>>>>>Begin Spectral Data<<<<<
220.843	7.88
221.644	2.88
222.444	4.88
223.244	2.88
224.045	3.88
224.845	5.88
225.645	4.88
226.445	7.88
227.245	3.88
228.045	8.88
228.845	5.88
229.645	5.88
230.444	6.88
231.244	8.88
232.043	6.88
232.843	7.88
233.642	9.88
234.442	8.88
235.241	10.88
236.04	9.88
236.839	9.88
237.638	10.88
238.437	7.88
239.236	10.88
240.035	11.88
240.833	9.88
241.632	8.88
242.43	10.88
243.229	13.88
244.027	11.88
244.826	9.88
245.624	14.88
246.422	11.88
247.22	11.88
248.018	10.88
248.816	13.88
249.614	13.88
250.412	14.88
251.21	12.88
252.007	14.88
252.805	16.88
253.602	13.88
254.4	16.88
255.197	15.88
255.994	13.88
256.791	18.88
257.589	15.88
258.386	20.88
259.183	18.88
259.979	19.88
260.776	19.88
261.573	20.88
262.37	22.88
263.166	20.88
263.963	24.88
264.759	20.88
265.556	23.88
266.352	21.88
267.148	23.88
267.944	24.88
268.74	23.88
269.536	24.88
270.332	25.88
271.128	25.88
271.924	24.88
272.719	27.88
273.515	29.88
274.311	30.88
275.106	28.88
275.901	32.88
276.697	28.88
277.492	29.88
278.287	31.88
279.082	30.88
279.877	30.88
280.672	30.88
281.467	30.88
282.262	31.88
283.056	27.88
283.851	29.88
284.646	32.88
285.44	30.88
286.234	30.88
287.029	32.88
287.823	30.88
288.617	29.88
289.411	30.88
290.205	26.88
290.999	32.88
291.793	31.88
292.587	30.88
293.381	28.88
294.174	28.88
294.968	28.88
295.761	25.88
296.555	23.88
297.348	20.88
298.141	23.88
298.935	26.88
299.728	28.88
300.521	22.88
301.314	23.88
302.107	20.88
302.899	22.88
303.692	24.88
304.485	20.88
305.277	19.88
306.07	20.88
306.862	20.88
307.655	21.88
308.447	20.88
309.239	20.88
310.031	19.88
310.823	19.88
311.615	18.88
312.407	14.88
313.199	16.88
313.991	17.88
314.783	16.88
315.574	17.88
316.366	16.88
317.157	16.88
317.949	13.88
318.74	14.88
319.531	12.88
320.322	12.88
321.113	11.88
321.904	12.88
322.695	15.88
323.486	14.88
324.277	11.88
325.068	13.88
325.858	12.88
326.649	10.88
327.439	9.88
328.23	13.88
329.02	10.88
329.81	11.88
330.6	11.88
331.391	11.88
332.181	10.88
332.971	9.88
333.76	12.88
334.55	11.88
335.34	10.88
336.13	11.88
336.919	12.88
337.709	14.88
338.498	12.88
339.287	9.88
340.077	12.88
340.866	14.88
341.655	10.88
342.444	9.88
343.233	10.88
344.022	9.88
344.811	11.88
345.6	8.88
346.388	8.88
347.177	10.88
347.965	9.88
348.754	11.88
349.542	9.88
350.33	10.88
351.119	10.88
351.907	10.88
352.695	8.88
353.483	10.88
354.271	9.88
355.059	12.88
355.846	7.88
356.634	10.88
357.422	8.88
358.209	10.88
358.997	10.88
359.784	9.88
360.571	8.88
361.359	8.88
362.146	9.88
362.933	9.88
363.72	8.88
364.507	10.88
365.294	7.88
366.081	9.88
366.867	10.88
367.654	8.88
368.44	7.88
369.227	9.88
370.013	9.88
370.8	8.88
371.586	8.88
372.372	9.88
373.158	9.88
373.944	10.88
374.73	8.88
375.516	9.88
376.302	9.88
377.088	8.88
377.873	11.88
378.659	11.88
379.445	9.88
380.23	8.88
381.015	6.88
381.801	8.88
382.586	9.88
383.371	10.88
384.156	9.88
384.941	9.88
385.726	10.88
386.511	10.88
387.296	7.88
388.08	13.88
388.865	9.88
389.649	9.88
390.434	11.88
391.218	9.88
392.003	11.88
392.787	10.88
393.571	10.88
394.355	10.88
395.139	10.88
395.923	13.88
396.707	8.88
397.491	13.88
398.274	10.88
399.058	11.88
399.842	11.88
400.625	11.88
401.408	11.88
402.192	12.88
402.975	14.88
403.758	14.88
404.541	12.88
405.324	14.88
406.107	14.88
406.89	14.88
407.673	14.88
408.456	13.88
409.238	14.88
410.021	12.88
410.803	14.88
411.586	14.88
412.368	18.88
413.151	13.88
413.933	15.88
414.715	15.88
415.497	14.88
416.279	15.88
417.061	15.88
417.843	19.88
418.624	19.88
419.406	15.88
420.188	18.88
420.969	18.88
421.751	20.88
422.532	22.88
423.313	19.88
424.095	24.88
424.876	21.88
425.657	21.88
426.438	23.88
427.219	26.88
428	25.88
428.78	24.88
429.561	28.88
430.342	28.88
431.122	29.88
431.903	32.88
432.683	32.88
433.464	34.88
434.244	34.88
435.024	35.88
435.804	44.88
436.584	42.88
437.364	45.88
438.144	50.88
438.924	48.88
439.704	49.88
440.483	55.88
441.263	60.88
442.042	69.88
442.822	71.88
443.601	76.88
444.38	86.88
445.16	89.88
445.939	98.88
446.718	107.88
447.497	117.88
448.276	130.88
449.054	144.88
449.833	157.88
450.612	174.88
451.391	193.88
452.169	208.88
452.948	236.88
453.726	259.88
454.504	287.88
455.282	314.88
456.061	354.88
456.839	387.88
457.617	443.88
458.395	480.88
459.172	547.88
459.95	603.88
460.728	677.88
461.506	753.88
462.283	823.88
463.061	914.88
463.838	1019.88
464.615	1139.88
465.393	1254.88
466.17	1386.88
466.947	1527.88
467.724	1710.88
468.501	1882.88
469.278	2069.88
470.055	2273.88
470.831	2497.88
471.608	2751.88
472.385	3014.88
473.161	3303.88
473.938	3641.88
474.714	3952.88
475.49	4325.88
476.266	4722.88
477.043	5121.88
477.819	5580.88
478.595	6064.88
479.371	6590.88
480.146	7170.88
480.922	7773.88
481.698	8445.88
482.473	9096.88
483.249	9895.88
484.024	10671.88
484.8	11523.88
485.575	12392.88
486.35	13379.88
487.126	14431.88
487.901	15543.88
488.676	16663.88
489.451	17950.88
490.225	19218.88
491	20578.88
491.775	21919.88
492.55	23465.88
493.324	24931.88
494.099	26438.88
494.873	28079.88
495.647	29676.88
496.422	31195.88
497.196	32833.88
497.97	34376.88
498.744	35880.88
499.518	37314.88
500.292	38749.88
501.066	39857.88
501.839	40737.88
502.613	41783.88
503.387	42454.88
504.16	43097.88
504.934	43547.88
505.707	43712.88
506.48	43607.88
507.253	43593.88
508.027	43255.88
508.8	42666.88
509.573	41955.88
510.346	41205.88
511.118	40468.88
511.891	39510.88
512.664	38249.88
513.437	36945.88
514.209	35744.88
514.982	34559.88
515.754	33230.88
516.526	32023.88
517.298	30797.88
518.071	29664.88
518.843	28408.88
519.615	27422.88
520.387	26290.88
521.159	25263.88
521.93	24275.88
522.702	23224.88
523.474	22276.88
524.245	21403.88
525.017	20598.88
525.788	19709.88
526.56	18897.88
527.331	18075.88
528.102	17159.88
528.873	16400.88
529.644	15630.88
530.415	14933.88
531.186	14254.88
531.957	13510.88
532.728	12886.88
533.498	12212.88
534.269	11605.88
535.039	10963.88
535.81	10466.88
536.58	9852.88
537.351	9340.88
538.121	8873.88
538.891	8402.88
539.661	7923.88
540.431	7499.88
541.201	7128.88
541.971	6763.88
542.741	6372.88
543.51	6087.88
544.28	5795.88
545.05	5502.88
545.819	5261.88
546.588	4994.88
547.358	4782.88
548.127	4522.88
548.896	4305.88
549.665	4117.88
550.434	3879.88
551.203	3688.88
551.972	3511.88
552.741	3312.88
553.51	3137.88
554.278	2968.88
555.047	2808.88
555.815	2634.88
556.584	2516.88
557.352	2375.88
558.121	2247.88
558.889	2114.88
559.657	2011.88
560.425	1905.88
561.193	1808.88
561.961	1696.88
562.729	1608.88
563.496	1536.88
564.264	1446.88
565.032	1358.88
565.799	1286.88
566.567	1212.88
567.334	1138.88
568.101	1093.88
568.869	1034.88
569.636	973.88
570.403	910.88
571.17	864.88
571.937	812.88
572.704	765.88
573.471	725.88
574.237	690.88
575.004	639.88
575.771	614.88
576.537	576.88
577.303	547.88
578.07	519.88
578.836	477.88
579.602	456.88
580.368	441.88
581.134	420.88
581.9	395.88
582.666	381.88
583.432	359.88
584.198	337.88
584.964	317.88
585.729	304.88
586.495	288.88
587.26	275.88
588.025	250.88
588.791	242.88
589.556	234.88
590.321	215.88
591.086	205.88
591.851	203.88
592.616	185.88
593.381	174.88
594.146	169.88
594.911	163.88
595.675	158.88
596.44	154.88
597.204	140.88
597.969	135.88
598.733	132.88
599.497	127.88
600.261	117.88
601.025	111.88
601.79	109.88
602.553	105.88
603.317	98.88
604.081	97.88
604.845	93.88
605.609	90.88
606.372	85.88
607.136	81.88
607.899	76.88
608.662	76.88
609.426	72.88
610.189	71.88
610.952	69.88
611.715	62.88
612.478	65.88
613.241	58.88
614.004	57.88
614.767	56.88
615.529	55.88
616.292	50.88
617.055	47.88
617.817	49.88
618.579	46.88
619.342	45.88
620.104	43.88
620.866	42.88
621.628	38.88
622.39	44.88
623.152	38.88
623.914	38.88
624.676	34.88
625.438	33.88
626.199	33.88
626.961	30.88
627.722	29.88
628.484	29.88
629.245	30.88
630.006	28.88
630.768	29.88
631.529	25.88
632.29	29.88
633.051	25.88
633.812	24.88
634.573	22.88
635.333	23.88
636.094	22.88
636.855	19.88
637.615	21.88
638.376	20.88
639.136	19.88
639.896	22.88
640.657	19.88
641.417	18.88
642.177	18.88
642.937	18.88
643.697	16.88
644.457	14.88
645.216	16.88
645.976	17.88
646.736	17.88
647.495	14.88
648.255	17.88
649.014	13.88
649.774	14.88
650.533	14.88
651.292	12.88
652.051	14.88
652.81	13.88
653.569	13.88
654.328	13.88
655.087	11.88
655.846	10.88
656.604	8.88
657.363	11.88
658.121	12.88
658.88	11.88
659.638	9.88
660.397	10.88
661.155	10.88
661.913	10.88
662.671	9.88
663.429	9.88
664.187	8.88
664.945	9.88
665.703	8.88
666.46	8.88
667.218	9.88
667.976	5.88
668.733	9.88
669.49	7.88
670.248	10.88
671.005	9.88
671.762	7.88
672.519	10.88
673.276	8.88
674.033	7.88
674.79	7.88
675.547	7.88
676.304	7.88
677.06	8.88
677.817	8.88
678.574	7.88
679.33	10.88
680.086	6.88
680.843	8.88
681.599	7.88
682.355	9.88
683.111	8.88
683.867	6.88
684.623	9.88
685.379	8.88
686.135	7.88
686.89	7.88
687.646	7.88
688.402	5.88
689.157	6.88
689.912	8.88
690.668	6.88
691.423	7.88
692.178	7.88
692.933	3.88
693.688	5.88
694.443	8.88
695.198	7.88
695.953	6.88
696.708	5.88
697.462	7.88
698.217	7.88
698.972	5.88
699.726	6.88
700.48	6.88
701.235	3.88
701.989	4.88
702.743	7.88
703.497	6.88
704.251	7.88
705.005	9.88
705.759	6.88
706.513	6.88
707.266	5.88
708.02	8.88
708.774	7.88
709.527	4.88
710.28	4.88
711.034	6.88
711.787	7.88
712.54	6.88
713.293	6.88
714.046	6.88
714.799	7.88
715.552	7.88
716.305	4.88
717.058	7.88
717.81	5.88
718.563	5.88
719.315	7.88
720.068	4.88
720.82	4.88
721.573	7.88
722.325	9.88
723.077	7.88
723.829	8.88
724.581	6.88
725.333	5.88
726.085	9.88
726.836	6.88
727.588	5.88
728.34	8.88
729.091	4.88
729.843	7.88
730.594	8.88
731.346	7.88
732.097	7.88
732.848	8.88
733.599	7.88
734.35	4.88
735.101	10.88
735.852	8.88
736.603	8.88
737.354	6.88
738.104	9.88
738.855	8.88
739.605	9.88
740.356	7.88
741.106	7.88
741.856	6.88
742.607	7.88
743.357	7.88
744.107	9.88
744.857	7.88
745.607	8.88
746.357	9.88
747.106	9.88
747.856	9.88
748.606	7.88
749.355	9.88
750.105	9.88
750.854	7.88
751.603	7.88
752.353	8.88
753.102	10.88
753.851	9.88
754.6	10.88
755.349	8.88
756.098	10.88
756.847	9.88
757.595	11.88
758.344	10.88
759.093	10.88
759.841	10.88
760.589	10.88
761.338	11.88
762.086	11.88
762.834	11.88
763.582	12.88
764.331	10.88
765.079	8.88
765.826	12.88
766.574	14.88
767.322	11.88
768.07	14.88
768.817	10.88
769.565	11.88
770.312	13.88
771.06	13.88
771.807	10.88
772.554	14.88
773.302	14.88
774.049	12.88
774.796	15.88
775.543	12.88
776.29	14.88
777.036	13.88
777.783	12.88
778.53	12.88
779.276	13.88
780.023	12.88
780.769	15.88
781.516	14.88
782.262	12.88
783.008	13.88
783.754	14.88
784.5	11.88
785.246	13.88
785.992	11.88
786.738	13.88
787.484	12.88
788.23	13.88
788.975	12.88
789.721	13.88
790.466	12.88
791.212	13.88
791.957	14.88
792.702	16.88
793.447	15.88
794.193	14.88
794.938	15.88
795.683	13.88
796.427	10.88
797.172	9.88
797.917	12.88
798.662	13.88
799.406	11.88
800.151	10.88
800.895	9.88
801.64	11.88
802.384	8.88
803.128	11.88
803.872	10.88
804.616	10.88
805.36	10.88
806.104	9.88
806.848	9.88
807.592	8.88
808.336	8.88
809.079	7.88
809.823	11.88
810.566	8.88
811.31	11.88
812.053	8.88
812.796	7.88
813.539	6.88
814.283	8.88
815.026	6.88
815.769	6.88
816.511	9.88
817.254	10.88
817.997	5.88
818.74	8.88
819.482	5.88
820.225	7.88
820.967	5.88
821.71	4.88
822.452	7.88
823.194	5.88
823.936	5.88
824.678	7.88
825.42	7.88
826.162	7.88
826.904	6.88
827.646	6.88
828.388	2.88
829.129	7.88
829.871	6.88
830.612	6.88
831.354	5.88
832.095	4.88
832.836	5.88
833.577	7.88
834.319	6.88
835.06	4.88
835.801	5.88
836.542	7.88
837.282	5.88
838.023	4.88
838.764	5.88
839.504	4.88
840.245	6.88
840.985	4.88
841.726	6.88
842.466	4.88
843.206	5.88
843.946	6.88
844.687	4.88
845.427	5.88
846.166	3.88
846.906	5.88
847.646	3.88
848.386	4.88
849.125	2.88
849.865	2.88
850.605	2.88
851.344	3.88
852.083	2.88
852.823	3.88
853.562	4.88
854.301	5.88
855.04	3.88
855.779	4.88
856.518	1.88
857.257	4.88
857.995	4.88
858.734	4.88
859.473	4.88
860.211	1.88
860.95	2.88
861.688	3.88
862.426	2.88
863.165	4.88
863.903	2.88
864.641	1.88
865.379	1.88
866.117	3.88
866.855	3.88
867.593	1.88
868.33	2.88
869.068	1.88
869.806	4.88
870.543	2.88
871.28	1.88
872.018	2.88
872.755	1.88
873.492	0.88
874.229	1.88
874.967	2.88
875.703	1.88
876.44	2.88
877.177	-1.12
877.914	1.88
878.651	-0.12
879.387	1.88
880.124	1.88
880.86	-0.12
881.597	-0.12
882.333	2.88
883.069	0.88
883.806	2.88
884.542	0.88
885.278	-0.12
886.014	-0.12
886.749	0.88
887.485	-1.12
888.221	0.88
888.957	0.88
889.692	1.88
890.428	-1.12
891.163	1.88
891.899	0.88
892.634	1.88
893.369	0.88
894.104	-0.12
894.839	-0.12
895.574	-1.12
896.309	1.88
897.044	-0.12
897.779	1.88
898.514	0.88
899.248	3.88
899.983	0.88
900.717	0.88
901.452	1.88
902.186	-0.12
902.92	1.88
903.654	1.88
904.389	0.88
905.123	-1.12
905.857	-1.12
906.59	0.88
907.324	-1.12
908.058	-0.12
908.792	1.88
909.525	0.88
910.259	1.88
910.992	0.88
911.726	0.88
912.459	1.88
913.192	-1.12
913.925	-0.12
914.658	0.88
915.391	-1.12
916.124	0.88
916.857	-0.12
917.59	0.88
918.323	0.88
919.055	1.88
919.788	-1.12
920.521	-0.12
921.253	1.88
921.985	-0.12
922.718	-0.12
923.45	-0.12
924.182	-0.12
924.914	2.88
925.646	1.88
926.378	-2.12
927.11	0.88
927.841	-1.12
928.573	-2.12
929.305	-0.12
930.036	-1.12
930.768	2.88
931.499	1.88
932.23	-1.12
932.962	-1.12
933.693	-1.12
934.424	-0.12
935.155	0.88
935.886	-0.12
936.617	-1.12
937.348	-0.12
938.078	0.88
938.809	-1.12
939.54	1.88
940.27	0.88
941.001	-0.12
941.731	0.88
942.461	-0.12
943.191	1.88
943.922	-1.12
944.652	-1.12
945.382	-0.12
946.112	-0.12
946.841	1.88
947.571	0.88
948.301	-0.12
949.031	0.88
949.76	-0.12
950.49	0.88
951.219	-2.12
951.948	-0.12
952.678	-1.12
953.407	-1.12
954.136	-0.12
954.865	0.88
955.594	-0.12
956.323	0.88
957.052	-0.12
957.78	-2.12
958.509	-1.12
959.238	-1.12
959.966	-1.12
960.695	2.88
961.423	3.88
962.151	0.88
962.88	0.88
963.608	-1.12
964.336	-1.12
965.064	0.88
965.792	1.88
966.52	0.88
967.247	3.88
967.975	-1.12
968.703	1.88
969.43	-0.12
970.158	0.88
970.885	0.88
971.613	-1.12
972.34	0.88
973.067	-1.12
973.794	-0.12
974.521	2.88
975.248	-3.12
975.975	-1.12
976.702	0.88
977.429	1.88
978.156	0.88
978.882	0.88
979.609	0.88
980.335	0.88
981.062	-1.12
981.788	0.88
982.514	-2.12
983.24	-2.12
983.967	-2.12
984.693	-1.12
985.419	0.88
986.144	-0.12
986.87	-1.12
987.596	-0.12
988.322	-0.12
989.047	-0.12
989.773	0.88
990.498	0.88
991.224	-2.12
991.949	0.88
992.674	-1.12
993.399	-1.12
994.124	2.88
994.849	-0.12
995.574	-0.12
996.299	-0.12
997.024	0.88
997.749	-0.12
998.473	0.88
999.198	0.88
999.922	-1.12
1000.647	-0.12
1001.371	2.88
1002.095	-1.12
1002.82	-1.12
1003.544	-2.12
1004.268	3.88
1004.992	2.88
1005.716	1.88
1006.439	4.88
1007.163	4.88
1007.887	4.88
1008.611	0.88
1009.334	2.88
1010.058	-1.12
1010.781	-0.12
1011.504	-1.12
1012.228	-1.12
1012.951	2.88
1013.674	-1.12
1014.397	-1.12
1015.12	0.88
