节点500_705_QEPB04081__565__20-53-57-765.txt的数据

Date: Wed Nov 12 20:53:57 CST 2025
User: PC
Spectrometer: QEPB0408
触发模式: 0
积分时间 (秒): 1.000000E-2
Scans to average: 1
启用暗噪声校正: true
启用非线性校正: false
滑动平均宽度: 0
X轴模式: Wavelengths
Number of Pixels in Spectrum: 1044
>>>>>Begin Spectral Data<<<<<
220.843	3.38
221.644	5.38
222.444	6.38
223.244	5.38
224.045	6.38
224.845	5.38
225.645	7.38
226.445	7.38
227.245	7.38
228.045	6.38
228.845	9.38
229.645	7.38
230.444	5.38
231.244	4.38
232.043	9.38
232.843	7.38
233.642	10.38
234.442	9.38
235.241	8.38
236.04	8.38
236.839	10.38
237.638	9.38
238.437	12.38
239.236	10.38
240.035	11.38
240.833	11.38
241.632	10.38
242.43	12.38
243.229	12.38
244.027	11.38
244.826	13.38
245.624	13.38
246.422	13.38
247.22	12.38
248.018	11.38
248.816	13.38
249.614	14.38
250.412	15.38
251.21	15.38
252.007	16.38
252.805	16.38
253.602	17.38
254.4	16.38
255.197	14.38
255.994	17.38
256.791	17.38
257.589	21.38
258.386	19.38
259.183	18.38
259.979	19.38
260.776	22.38
261.573	21.38
262.37	19.38
263.166	22.38
263.963	21.38
264.759	22.38
265.556	23.38
266.352	25.38
267.148	27.38
267.944	25.38
268.74	24.38
269.536	25.38
270.332	27.38
271.128	28.38
271.924	28.38
272.719	25.38
273.515	27.38
274.311	31.38
275.106	29.38
275.901	31.38
276.697	34.38
277.492	30.38
278.287	32.38
279.082	33.38
279.877	31.38
280.672	33.38
281.467	30.38
282.262	31.38
283.056	31.38
283.851	33.38
284.646	34.38
285.44	31.38
286.234	32.38
287.029	31.38
287.823	31.38
288.617	32.38
289.411	30.38
290.205	33.38
290.999	30.38
291.793	33.38
292.587	31.38
293.381	30.38
294.174	31.38
294.968	27.38
295.761	30.38
296.555	24.38
297.348	26.38
298.141	21.38
298.935	29.38
299.728	25.38
300.521	26.38
301.314	27.38
302.107	21.38
302.899	24.38
303.692	22.38
304.485	21.38
305.277	22.38
306.07	19.38
306.862	25.38
307.655	22.38
308.447	21.38
309.239	22.38
310.031	20.38
310.823	21.38
311.615	18.38
312.407	18.38
313.199	17.38
313.991	18.38
314.783	17.38
315.574	14.38
316.366	15.38
317.157	17.38
317.949	16.38
318.74	15.38
319.531	14.38
320.322	15.38
321.113	13.38
321.904	12.38
322.695	13.38
323.486	14.38
324.277	13.38
325.068	15.38
325.858	13.38
326.649	13.38
327.439	9.38
328.23	12.38
329.02	9.38
329.81	13.38
330.6	13.38
331.391	12.38
332.181	14.38
332.971	11.38
333.76	13.38
334.55	11.38
335.34	13.38
336.13	12.38
336.919	11.38
337.709	10.38
338.498	12.38
339.287	12.38
340.077	11.38
340.866	13.38
341.655	14.38
342.444	10.38
343.233	14.38
344.022	9.38
344.811	11.38
345.6	8.38
346.388	12.38
347.177	10.38
347.965	11.38
348.754	9.38
349.542	12.38
350.33	13.38
351.119	10.38
351.907	12.38
352.695	11.38
353.483	12.38
354.271	9.38
355.059	9.38
355.846	14.38
356.634	8.38
357.422	10.38
358.209	11.38
358.997	8.38
359.784	11.38
360.571	10.38
361.359	10.38
362.146	9.38
362.933	9.38
363.72	9.38
364.507	11.38
365.294	12.38
366.081	9.38
366.867	9.38
367.654	8.38
368.44	8.38
369.227	10.38
370.013	11.38
370.8	10.38
371.586	8.38
372.372	10.38
373.158	9.38
373.944	7.38
374.73	11.38
375.516	8.38
376.302	9.38
377.088	8.38
377.873	7.38
378.659	10.38
379.445	10.38
380.23	11.38
381.015	14.38
381.801	10.38
382.586	8.38
383.371	10.38
384.156	10.38
384.941	11.38
385.726	11.38
386.511	12.38
387.296	11.38
388.08	11.38
388.865	13.38
389.649	12.38
390.434	11.38
391.218	13.38
392.003	9.38
392.787	12.38
393.571	10.38
394.355	10.38
395.139	14.38
395.923	11.38
396.707	11.38
397.491	15.38
398.274	15.38
399.058	11.38
399.842	14.38
400.625	14.38
401.408	16.38
402.192	15.38
402.975	14.38
403.758	14.38
404.541	14.38
405.324	15.38
406.107	15.38
406.89	15.38
407.673	14.38
408.456	15.38
409.238	16.38
410.021	15.38
410.803	15.38
411.586	14.38
412.368	14.38
413.151	17.38
413.933	15.38
414.715	19.38
415.497	19.38
416.279	15.38
417.061	19.38
417.843	18.38
418.624	22.38
419.406	21.38
420.188	21.38
420.969	19.38
421.751	23.38
422.532	19.38
423.313	23.38
424.095	19.38
424.876	23.38
425.657	26.38
426.438	27.38
427.219	26.38
428	26.38
428.78	25.38
429.561	30.38
430.342	30.38
431.122	31.38
431.903	32.38
432.683	33.38
433.464	30.38
434.244	39.38
435.024	37.38
435.804	41.38
436.584	45.38
437.364	44.38
438.144	52.38
438.924	54.38
439.704	56.38
440.483	61.38
441.263	57.38
442.042	66.38
442.822	72.38
443.601	80.38
444.38	83.38
445.16	92.38
445.939	98.38
446.718	106.38
447.497	120.38
448.276	129.38
449.054	145.38
449.833	159.38
450.612	171.38
451.391	189.38
452.169	213.38
452.948	229.38
453.726	264.38
454.504	287.38
455.282	315.38
456.061	357.38
456.839	400.38
457.617	437.38
458.395	490.38
459.172	529.38
459.95	598.38
460.728	669.38
461.506	742.38
462.283	830.38
463.061	910.38
463.838	1009.38
464.615	1134.38
465.393	1251.38
466.17	1392.38
466.947	1541.38
467.724	1698.38
468.501	1881.38
469.278	2063.38
470.055	2267.38
470.831	2496.38
471.608	2764.38
472.385	2993.38
473.161	3307.38
473.938	3618.38
474.714	3983.38
475.49	4342.38
476.266	4732.38
477.043	5136.38
477.819	5590.38
478.595	6086.38
479.371	6605.38
480.146	7174.38
480.922	7842.38
481.698	8490.38
482.473	9169.38
483.249	9949.38
484.024	10716.38
484.8	11566.38
485.575	12486.38
486.35	13470.38
487.126	14605.38
487.901	15706.38
488.676	16817.38
489.451	18105.38
490.225	19428.38
491	20798.38
491.775	22239.38
492.55	23666.38
493.324	25206.38
494.099	26862.38
494.873	28376.38
495.647	30000.38
496.422	31571.38
497.196	33263.38
497.97	34675.38
498.744	36204.38
499.518	37703.38
500.292	39078.38
501.066	40127.38
501.839	41245.38
502.613	42114.38
503.387	42877.38
504.16	43472.38
504.934	43772.38
505.707	44044.38
506.48	43923.38
507.253	43745.38
508.027	43456.38
508.8	42865.38
509.573	42145.38
510.346	41376.38
511.118	40575.38
511.891	39566.38
512.664	38243.38
513.437	36982.38
514.209	35818.38
514.982	34498.38
515.754	33227.38
516.526	32028.38
517.298	30725.38
518.071	29650.38
518.843	28456.38
519.615	27344.38
520.387	26265.38
521.159	25251.38
521.93	24164.38
522.702	23154.38
523.474	22194.38
524.245	21327.38
525.017	20489.38
525.788	19561.38
526.56	18880.38
527.331	18081.38
528.102	17189.38
528.873	16302.38
529.644	15579.38
530.415	14862.38
531.186	14212.38
531.957	13477.38
532.728	12838.38
533.498	12133.38
534.269	11508.38
535.039	10987.38
535.81	10369.38
536.58	9837.38
537.351	9273.38
538.121	8832.38
538.891	8321.38
539.661	7873.38
540.431	7459.38
541.201	7105.38
541.971	6737.38
542.741	6360.38
543.51	6047.38
544.28	5753.38
545.05	5492.38
545.819	5218.38
546.588	5009.38
547.358	4731.38
548.127	4510.38
548.896	4263.38
549.665	4080.38
550.434	3876.38
551.203	3642.38
551.972	3487.38
552.741	3285.38
553.51	3123.38
554.278	2945.38
555.047	2794.38
555.815	2634.38
556.584	2483.38
557.352	2336.38
558.121	2228.38
558.889	2109.38
559.657	1993.38
560.425	1895.38
561.193	1798.38
561.961	1703.38
562.729	1612.38
563.496	1518.38
564.264	1423.38
565.032	1358.38
565.799	1276.38
566.567	1219.38
567.334	1145.38
568.101	1067.38
568.869	1023.38
569.636	971.38
570.403	907.38
571.17	859.38
571.937	819.38
572.704	772.38
573.471	725.38
574.237	681.38
575.004	646.38
575.771	599.38
576.537	571.38
577.303	534.38
578.07	520.38
578.836	479.38
579.602	451.38
580.368	431.38
581.134	415.38
581.9	387.38
582.666	374.38
583.432	343.38
584.198	337.38
584.964	308.38
585.729	302.38
586.495	284.38
587.26	267.38
588.025	258.38
588.791	245.38
589.556	229.38
590.321	215.38
591.086	212.38
591.851	199.38
592.616	187.38
593.381	182.38
594.146	170.38
594.911	159.38
595.675	154.38
596.44	147.38
597.204	144.38
597.969	138.38
598.733	131.38
599.497	121.38
600.261	120.38
601.025	119.38
601.79	113.38
602.553	104.38
603.317	100.38
604.081	99.38
604.845	91.38
605.609	93.38
606.372	86.38
607.136	84.38
607.899	82.38
608.662	79.38
609.426	74.38
610.189	70.38
610.952	70.38
611.715	63.38
612.478	59.38
613.241	59.38
614.004	59.38
614.767	57.38
615.529	54.38
616.292	51.38
617.055	50.38
617.817	47.38
618.579	46.38
619.342	45.38
620.104	45.38
620.866	47.38
621.628	38.38
622.39	40.38
623.152	40.38
623.914	37.38
624.676	35.38
625.438	35.38
626.199	37.38
626.961	32.38
627.722	34.38
628.484	32.38
629.245	27.38
630.006	30.38
630.768	26.38
631.529	29.38
632.29	29.38
633.051	26.38
633.812	24.38
634.573	25.38
635.333	26.38
636.094	23.38
636.855	21.38
637.615	21.38
638.376	19.38
639.136	26.38
639.896	19.38
640.657	19.38
641.417	19.38
642.177	20.38
642.937	20.38
643.697	19.38
644.457	18.38
645.216	18.38
645.976	17.38
646.736	16.38
647.495	16.38
648.255	17.38
649.014	17.38
649.774	14.38
650.533	14.38
651.292	14.38
652.051	15.38
652.81	14.38
653.569	15.38
654.328	12.38
655.087	12.38
655.846	13.38
656.604	12.38
657.363	11.38
658.121	13.38
658.88	12.38
659.638	11.38
660.397	11.38
661.155	12.38
661.913	10.38
662.671	10.38
663.429	9.38
664.187	9.38
664.945	11.38
665.703	9.38
666.46	11.38
667.218	11.38
667.976	13.38
668.733	9.38
669.49	9.38
670.248	11.38
671.005	10.38
671.762	10.38
672.519	10.38
673.276	12.38
674.033	9.38
674.79	7.38
675.547	9.38
676.304	9.38
677.06	10.38
677.817	8.38
678.574	9.38
679.33	10.38
680.086	7.38
680.843	10.38
681.599	9.38
682.355	10.38
683.111	10.38
683.867	6.38
684.623	10.38
685.379	8.38
686.135	7.38
686.89	11.38
687.646	9.38
688.402	6.38
689.157	10.38
689.912	7.38
690.668	7.38
691.423	7.38
692.178	8.38
692.933	9.38
693.688	8.38
694.443	6.38
695.198	9.38
695.953	8.38
696.708	7.38
697.462	9.38
698.217	5.38
698.972	6.38
699.726	7.38
700.48	8.38
701.235	8.38
701.989	5.38
702.743	6.38
703.497	4.38
704.251	8.38
705.005	7.38
705.759	8.38
706.513	8.38
707.266	11.38
708.02	6.38
708.774	7.38
709.527	7.38
710.28	9.38
711.034	9.38
711.787	5.38
712.54	8.38
713.293	4.38
714.046	8.38
714.799	8.38
715.552	7.38
716.305	9.38
717.058	8.38
717.81	7.38
718.563	10.38
719.315	7.38
720.068	8.38
720.82	7.38
721.573	7.38
722.325	5.38
723.077	6.38
723.829	8.38
724.581	7.38
725.333	7.38
726.085	9.38
726.836	7.38
727.588	8.38
728.34	7.38
729.091	8.38
729.843	9.38
730.594	8.38
731.346	10.38
732.097	9.38
732.848	9.38
733.599	10.38
734.35	10.38
735.101	9.38
735.852	6.38
736.603	10.38
737.354	7.38
738.104	9.38
738.855	10.38
739.605	10.38
740.356	11.38
741.106	7.38
741.856	9.38
742.607	8.38
743.357	9.38
744.107	9.38
744.857	11.38
745.607	11.38
746.357	10.38
747.106	10.38
747.856	9.38
748.606	9.38
749.355	10.38
750.105	8.38
750.854	12.38
751.603	11.38
752.353	11.38
753.102	10.38
753.851	8.38
754.6	13.38
755.349	11.38
756.098	13.38
756.847	10.38
757.595	11.38
758.344	9.38
759.093	12.38
759.841	9.38
760.589	12.38
761.338	14.38
762.086	11.38
762.834	11.38
763.582	11.38
764.331	14.38
765.079	13.38
765.826	9.38
766.574	14.38
767.322	14.38
768.07	13.38
768.817	15.38
769.565	10.38
770.312	14.38
771.06	13.38
771.807	13.38
772.554	14.38
773.302	13.38
774.049	14.38
774.796	11.38
775.543	15.38
776.29	17.38
777.036	14.38
777.783	15.38
778.53	15.38
779.276	17.38
780.023	17.38
780.769	11.38
781.516	15.38
782.262	15.38
783.008	15.38
783.754	12.38
784.5	15.38
785.246	18.38
785.992	15.38
786.738	15.38
787.484	15.38
788.23	16.38
788.975	14.38
789.721	13.38
790.466	13.38
791.212	15.38
791.957	15.38
792.702	13.38
793.447	13.38
794.193	11.38
794.938	12.38
795.683	13.38
796.427	12.38
797.172	13.38
797.917	13.38
798.662	14.38
799.406	11.38
800.151	13.38
800.895	13.38
801.64	10.38
802.384	13.38
803.128	11.38
803.872	11.38
804.616	11.38
805.36	12.38
806.104	12.38
806.848	11.38
807.592	10.38
808.336	10.38
809.079	10.38
809.823	11.38
810.566	12.38
811.31	9.38
812.053	9.38
812.796	9.38
813.539	8.38
814.283	7.38
815.026	10.38
815.769	8.38
816.511	7.38
817.254	6.38
817.997	7.38
818.74	9.38
819.482	7.38
820.225	9.38
820.967	5.38
821.71	6.38
822.452	7.38
823.194	6.38
823.936	8.38
824.678	7.38
825.42	7.38
826.162	6.38
826.904	8.38
827.646	8.38
828.388	7.38
829.129	7.38
829.871	7.38
830.612	7.38
831.354	5.38
832.095	5.38
832.836	6.38
833.577	6.38
834.319	6.38
835.06	5.38
835.801	7.38
836.542	5.38
837.282	6.38
838.023	6.38
838.764	4.38
839.504	8.38
840.245	4.38
840.985	5.38
841.726	7.38
842.466	4.38
843.206	4.38
843.946	5.38
844.687	5.38
845.427	4.38
846.166	5.38
846.906	3.38
847.646	3.38
848.386	5.38
849.125	5.38
849.865	5.38
850.605	4.38
851.344	4.38
852.083	5.38
852.823	4.38
853.562	3.38
854.301	4.38
855.04	5.38
855.779	3.38
856.518	1.38
857.257	5.38
857.995	5.38
858.734	6.38
859.473	4.38
860.211	2.38
860.95	5.38
861.688	1.38
862.426	2.38
863.165	2.38
863.903	4.38
864.641	4.38
865.379	2.38
866.117	3.38
866.855	2.38
867.593	5.38
868.33	2.38
869.068	4.38
869.806	0.38
870.543	0.38
871.28	1.38
872.018	1.38
872.755	4.38
873.492	2.38
874.229	2.38
874.967	1.38
875.703	2.38
876.44	2.38
877.177	2.38
877.914	3.38
878.651	5.38
879.387	1.38
880.124	6.38
880.86	-0.62
881.597	3.38
882.333	3.38
883.069	2.38
883.806	0.38
884.542	1.38
885.278	0.38
886.014	1.38
886.749	2.38
887.485	3.38
888.221	1.38
888.957	3.38
889.692	1.38
890.428	3.38
891.163	2.38
891.899	1.38
892.634	3.38
893.369	2.38
894.104	2.38
894.839	2.38
895.574	1.38
896.309	2.38
897.044	2.38
897.779	3.38
898.514	1.38
899.248	2.38
899.983	-1.62
900.717	2.38
901.452	0.38
902.186	2.38
902.92	0.38
903.654	0.38
904.389	3.38
905.123	3.38
905.857	2.38
906.59	0.38
907.324	1.38
908.058	1.38
908.792	1.38
909.525	1.38
910.259	1.38
910.992	1.38
911.726	3.38
912.459	0.38
913.192	3.38
913.925	1.38
914.658	1.38
915.391	1.38
916.124	0.38
916.857	0.38
917.59	1.38
918.323	-0.62
919.055	1.38
919.788	0.38
920.521	-0.62
921.253	-0.62
921.985	0.38
922.718	-0.62
923.45	1.38
924.182	0.38
924.914	0.38
925.646	0.38
926.378	-0.62
927.11	1.38
927.841	1.38
928.573	2.38
929.305	-0.62
930.036	-0.62
930.768	0.38
931.499	-0.62
932.23	2.38
932.962	1.38
933.693	0.38
934.424	1.38
935.155	1.38
935.886	2.38
936.617	-0.62
937.348	1.38
938.078	1.38
938.809	0.38
939.54	1.38
940.27	-0.62
941.001	2.38
941.731	-0.62
942.461	-0.62
943.191	1.38
943.922	2.38
944.652	0.38
945.382	2.38
946.112	2.38
946.841	2.38
947.571	0.38
948.301	2.38
949.031	-0.62
949.76	1.38
950.49	0.38
951.219	-0.62
951.948	0.38
952.678	-1.62
953.407	0.38
954.136	0.38
954.865	2.38
955.594	-0.62
956.323	1.38
957.052	-1.62
957.78	1.38
958.509	1.38
959.238	1.38
959.966	0.38
960.695	-0.62
961.423	-0.62
962.151	0.38
962.88	-0.62
963.608	1.38
964.336	1.38
965.064	-0.62
965.792	1.38
966.52	-2.62
967.247	2.38
967.975	-0.62
968.703	0.38
969.43	1.38
970.158	0.38
970.885	-0.62
971.613	-0.62
972.34	1.38
973.067	1.38
973.794	1.38
974.521	0.38
975.248	0.38
975.975	0.38
976.702	-1.62
977.429	1.38
978.156	-1.62
978.882	-0.62
979.609	1.38
980.335	1.38
981.062	0.38
981.788	1.38
982.514	2.38
983.24	0.38
983.967	0.38
984.693	-0.62
985.419	-1.62
986.144	-0.62
986.87	2.38
987.596	1.38
988.322	2.38
989.047	1.38
989.773	1.38
990.498	1.38
991.224	1.38
991.949	0.38
992.674	1.38
993.399	-0.62
994.124	2.38
994.849	0.38
995.574	0.38
996.299	1.38
997.024	1.38
997.749	-0.62
998.473	1.38
999.198	0.38
999.922	3.38
1000.647	1.38
1001.371	3.38
1002.095	-1.62
1002.82	0.38
1003.544	0.38
1004.268	4.38
1004.992	3.38
1005.716	2.38
1006.439	2.38
1007.163	4.38
1007.887	5.38
1008.611	-0.62
1009.334	2.38
1010.058	1.38
1010.781	1.38
1011.504	1.38
1012.228	2.38
1012.951	2.38
1013.674	-1.62
1014.397	-0.62
1015.12	-2.62
