节点500_705_QEPB04081__0__20-45-53-398.txt的数据

Date: Wed Nov 12 20:45:53 CST 2025
User: PC
Spectrometer: QEPB0408
触发模式: 0
积分时间 (秒): 1.000000E-2
Scans to average: 1
启用暗噪声校正: true
启用非线性校正: false
滑动平均宽度: 0
X轴模式: Wavelengths
Number of Pixels in Spectrum: 1044
>>>>>Begin Spectral Data<<<<<
220.843	-0.88
221.644	0.12
222.444	-0.88
223.244	-3.88
224.045	-2.88
224.845	-0.88
225.645	-0.88
226.445	-2.88
227.245	-2.88
228.045	-1.88
228.845	-0.88
229.645	0.12
230.444	-3.88
231.244	-1.88
232.043	-1.88
232.843	-0.88
233.642	-0.88
234.442	-1.88
235.241	-3.88
236.04	-0.88
236.839	-0.88
237.638	-1.88
238.437	-2.88
239.236	-1.88
240.035	-1.88
240.833	-1.88
241.632	-0.88
242.43	-1.88
243.229	-1.88
244.027	0.12
244.826	-1.88
245.624	-2.88
246.422	-1.88
247.22	-2.88
248.018	-1.88
248.816	-0.88
249.614	-2.88
250.412	-0.88
251.21	-0.88
252.007	0.12
252.805	-1.88
253.602	-3.88
254.4	-0.88
255.197	0.12
255.994	-1.88
256.791	-1.88
257.589	-0.88
258.386	-0.88
259.183	-3.88
259.979	0.12
260.776	-1.88
261.573	-0.88
262.37	-0.88
263.166	-0.88
263.963	-0.88
264.759	-1.88
265.556	1.12
266.352	-0.88
267.148	-0.88
267.944	-0.88
268.74	-2.88
269.536	-0.88
270.332	-0.88
271.128	-0.88
271.924	-0.88
272.719	-0.88
273.515	-0.88
274.311	-2.88
275.106	-0.88
275.901	-1.88
276.697	0.12
277.492	-0.88
278.287	-1.88
279.082	-0.88
279.877	-0.88
280.672	-0.88
281.467	0.12
282.262	-1.88
283.056	-2.88
283.851	-0.88
284.646	-0.88
285.44	-1.88
286.234	-0.88
287.029	-1.88
287.823	-1.88
288.617	-0.88
289.411	-0.88
290.205	-0.88
290.999	-1.88
291.793	-0.88
292.587	-1.88
293.381	-0.88
294.174	0.12
294.968	-2.88
295.761	-1.88
296.555	-1.88
297.348	-2.88
298.141	2.12
298.935	-0.88
299.728	1.12
300.521	-0.88
301.314	0.12
302.107	-1.88
302.899	1.12
303.692	-0.88
304.485	-2.88
305.277	2.12
306.07	1.12
306.862	-2.88
307.655	0.12
308.447	0.12
309.239	-0.88
310.031	0.12
310.823	-0.88
311.615	1.12
312.407	-1.88
313.199	0.12
313.991	-2.88
314.783	0.12
315.574	-1.88
316.366	-0.88
317.157	2.12
317.949	-0.88
318.74	-1.88
319.531	-0.88
320.322	-2.88
321.113	0.12
321.904	-0.88
322.695	0.12
323.486	-0.88
324.277	0.12
325.068	-0.88
325.858	0.12
326.649	-0.88
327.439	0.12
328.23	-0.88
329.02	0.12
329.81	-0.88
330.6	0.12
331.391	-0.88
332.181	2.12
332.971	-0.88
333.76	1.12
334.55	-0.88
335.34	0.12
336.13	-0.88
336.919	-1.88
337.709	-2.88
338.498	0.12
339.287	0.12
340.077	1.12
340.866	-0.88
341.655	0.12
342.444	-1.88
343.233	1.12
344.022	-1.88
344.811	0.12
345.6	-0.88
346.388	-1.88
347.177	-0.88
347.965	-1.88
348.754	-0.88
349.542	1.12
350.33	0.12
351.119	-0.88
351.907	1.12
352.695	-1.88
353.483	-0.88
354.271	0.12
355.059	-0.88
355.846	-1.88
356.634	-0.88
357.422	-0.88
358.209	1.12
358.997	1.12
359.784	1.12
360.571	-1.88
361.359	0.12
362.146	1.12
362.933	-1.88
363.72	-2.88
364.507	-0.88
365.294	1.12
366.081	-0.88
366.867	1.12
367.654	0.12
368.44	0.12
369.227	0.12
370.013	0.12
370.8	-0.88
371.586	0.12
372.372	-1.88
373.158	1.12
373.944	-0.88
374.73	1.12
375.516	2.12
376.302	-0.88
377.088	-0.88
377.873	-0.88
378.659	-0.88
379.445	-1.88
380.23	0.12
381.015	1.12
381.801	-2.88
382.586	-0.88
383.371	1.12
384.156	1.12
384.941	0.12
385.726	2.12
386.511	-1.88
387.296	-1.88
388.08	-0.88
388.865	-0.88
389.649	-0.88
390.434	1.12
391.218	-1.88
392.003	-0.88
392.787	0.12
393.571	-0.88
394.355	-3.88
395.139	0.12
395.923	0.12
396.707	3.12
397.491	0.12
398.274	-1.88
399.058	1.12
399.842	-0.88
400.625	-0.88
401.408	0.12
402.192	-0.88
402.975	1.12
403.758	-0.88
404.541	1.12
405.324	0.12
406.107	0.12
406.89	-1.88
407.673	-0.88
408.456	-0.88
409.238	0.12
410.021	1.12
410.803	-0.88
411.586	-1.88
412.368	1.12
413.151	-1.88
413.933	0.12
414.715	-1.88
415.497	-2.88
416.279	1.12
417.061	-0.88
417.843	-3.88
418.624	-0.88
419.406	-0.88
420.188	-0.88
420.969	0.12
421.751	-0.88
422.532	-1.88
423.313	-0.88
424.095	-0.88
424.876	1.12
425.657	1.12
426.438	-0.88
427.219	-0.88
428	-0.88
428.78	1.12
429.561	2.12
430.342	1.12
431.122	2.12
431.903	-0.88
432.683	0.12
433.464	-1.88
434.244	-0.88
435.024	-1.88
435.804	1.12
436.584	-0.88
437.364	2.12
438.144	-0.88
438.924	-0.88
439.704	-0.88
440.483	-0.88
441.263	-0.88
442.042	1.12
442.822	-0.88
443.601	-0.88
444.38	-0.88
445.16	2.12
445.939	-1.88
446.718	-0.88
447.497	0.12
448.276	0.12
449.054	2.12
449.833	0.12
450.612	0.12
451.391	1.12
452.169	-2.88
452.948	0.12
453.726	0.12
454.504	1.12
455.282	0.12
456.061	1.12
456.839	-0.88
457.617	-0.88
458.395	3.12
459.172	0.12
459.95	-0.88
460.728	0.12
461.506	2.12
462.283	-0.88
463.061	0.12
463.838	1.12
464.615	-0.88
465.393	0.12
466.17	-0.88
466.947	-1.88
467.724	1.12
468.501	-2.88
469.278	0.12
470.055	1.12
470.831	-0.88
471.608	-1.88
472.385	0.12
473.161	-0.88
473.938	-0.88
474.714	0.12
475.49	1.12
476.266	-3.88
477.043	0.12
477.819	1.12
478.595	-0.88
479.371	-0.88
480.146	0.12
480.922	0.12
481.698	-2.88
482.473	0.12
483.249	2.12
484.024	2.12
484.8	0.12
485.575	-1.88
486.35	1.12
487.126	-0.88
487.901	1.12
488.676	0.12
489.451	-0.88
490.225	0.12
491	-1.88
491.775	0.12
492.55	0.12
493.324	-0.88
494.099	-0.88
494.873	0.12
495.647	-0.88
496.422	-0.88
497.196	1.12
497.97	-0.88
498.744	0.12
499.518	-0.88
500.292	2.12
501.066	-1.88
501.839	1.12
502.613	-0.88
503.387	-1.88
504.16	-0.88
504.934	-0.88
505.707	-0.88
506.48	-0.88
507.253	-0.88
508.027	0.12
508.8	-0.88
509.573	-0.88
510.346	2.12
511.118	-0.88
511.891	3.12
512.664	-0.88
513.437	-0.88
514.209	2.12
514.982	-0.88
515.754	0.12
516.526	-0.88
517.298	0.12
518.071	-0.88
518.843	0.12
519.615	1.12
520.387	1.12
521.159	1.12
521.93	-0.88
522.702	-0.88
523.474	-1.88
524.245	-0.88
525.017	0.12
525.788	-0.88
526.56	-0.88
527.331	1.12
528.102	-1.88
528.873	-0.88
529.644	-0.88
530.415	-0.88
531.186	-1.88
531.957	-0.88
532.728	-0.88
533.498	-0.88
534.269	-0.88
535.039	0.12
535.81	1.12
536.58	0.12
537.351	0.12
538.121	1.12
538.891	-0.88
539.661	2.12
540.431	2.12
541.201	1.12
541.971	-0.88
542.741	1.12
543.51	-0.88
544.28	2.12
545.05	1.12
545.819	-0.88
546.588	1.12
547.358	-1.88
548.127	1.12
548.896	1.12
549.665	-1.88
550.434	0.12
551.203	-0.88
551.972	2.12
552.741	-0.88
553.51	-1.88
554.278	1.12
555.047	0.12
555.815	-0.88
556.584	-1.88
557.352	0.12
558.121	-0.88
558.889	0.12
559.657	2.12
560.425	1.12
561.193	0.12
561.961	1.12
562.729	0.12
563.496	1.12
564.264	-0.88
565.032	0.12
565.799	0.12
566.567	-1.88
567.334	0.12
568.101	1.12
568.869	1.12
569.636	1.12
570.403	2.12
571.17	1.12
571.937	-1.88
572.704	1.12
573.471	-0.88
574.237	0.12
575.004	-0.88
575.771	-1.88
576.537	0.12
577.303	-0.88
578.07	-0.88
578.836	-0.88
579.602	1.12
580.368	-0.88
581.134	3.12
581.9	2.12
582.666	-2.88
583.432	2.12
584.198	3.12
584.964	1.12
585.729	1.12
586.495	-0.88
587.26	1.12
588.025	2.12
588.791	0.12
589.556	0.12
590.321	-1.88
591.086	1.12
591.851	-0.88
592.616	0.12
593.381	-1.88
594.146	-0.88
594.911	0.12
595.675	2.12
596.44	1.12
597.204	-1.88
597.969	2.12
598.733	0.12
599.497	-0.88
600.261	0.12
601.025	0.12
601.79	-1.88
602.553	1.12
603.317	0.12
604.081	1.12
604.845	-1.88
605.609	0.12
606.372	1.12
607.136	1.12
607.899	0.12
608.662	0.12
609.426	1.12
610.189	-0.88
610.952	0.12
611.715	-0.88
612.478	1.12
613.241	0.12
614.004	-2.88
614.767	0.12
615.529	-1.88
616.292	2.12
617.055	0.12
617.817	0.12
618.579	1.12
619.342	-0.88
620.104	-1.88
620.866	0.12
621.628	-0.88
622.39	1.12
623.152	-0.88
623.914	2.12
624.676	-0.88
625.438	1.12
626.199	0.12
626.961	2.12
627.722	-0.88
628.484	-0.88
629.245	-0.88
630.006	-0.88
630.768	1.12
631.529	-0.88
632.29	-0.88
633.051	0.12
633.812	-0.88
634.573	-0.88
635.333	1.12
636.094	-1.88
636.855	1.12
637.615	1.12
638.376	1.12
639.136	-1.88
639.896	0.12
640.657	0.12
641.417	-0.88
642.177	1.12
642.937	-0.88
643.697	1.12
644.457	-1.88
645.216	2.12
645.976	-0.88
646.736	0.12
647.495	1.12
648.255	-0.88
649.014	-0.88
649.774	-1.88
650.533	1.12
651.292	0.12
652.051	0.12
652.81	-0.88
653.569	-0.88
654.328	-0.88
655.087	0.12
655.846	2.12
656.604	-0.88
657.363	0.12
658.121	2.12
658.88	-1.88
659.638	1.12
660.397	-0.88
661.155	0.12
661.913	-1.88
662.671	-1.88
663.429	2.12
664.187	-0.88
664.945	1.12
665.703	-0.88
666.46	0.12
667.218	-0.88
667.976	-1.88
668.733	1.12
669.49	1.12
670.248	0.12
671.005	1.12
671.762	-0.88
672.519	1.12
673.276	1.12
674.033	-0.88
674.79	0.12
675.547	1.12
676.304	1.12
677.06	0.12
677.817	0.12
678.574	0.12
679.33	1.12
680.086	-0.88
680.843	2.12
681.599	-0.88
682.355	1.12
683.111	-0.88
683.867	-0.88
684.623	0.12
685.379	-0.88
686.135	0.12
686.89	1.12
687.646	2.12
688.402	1.12
689.157	-0.88
689.912	-0.88
690.668	1.12
691.423	0.12
692.178	0.12
692.933	-1.88
693.688	0.12
694.443	-0.88
695.198	-0.88
695.953	2.12
696.708	-2.88
697.462	1.12
698.217	0.12
698.972	-0.88
699.726	0.12
700.48	-0.88
701.235	0.12
701.989	0.12
702.743	-0.88
703.497	1.12
704.251	0.12
705.005	1.12
705.759	0.12
706.513	-0.88
707.266	1.12
708.02	0.12
708.774	0.12
709.527	-0.88
710.28	1.12
711.034	1.12
711.787	-0.88
712.54	-1.88
713.293	-1.88
714.046	-0.88
714.799	-0.88
715.552	1.12
716.305	0.12
717.058	1.12
717.81	0.12
718.563	-0.88
719.315	0.12
720.068	-0.88
720.82	-0.88
721.573	1.12
722.325	0.12
723.077	-1.88
723.829	0.12
724.581	-0.88
725.333	-0.88
726.085	0.12
726.836	-0.88
727.588	-0.88
728.34	2.12
729.091	-0.88
729.843	2.12
730.594	-0.88
731.346	2.12
732.097	-0.88
732.848	-2.88
733.599	-0.88
734.35	-0.88
735.101	0.12
735.852	1.12
736.603	2.12
737.354	1.12
738.104	1.12
738.855	1.12
739.605	-0.88
740.356	0.12
741.106	1.12
741.856	-0.88
742.607	-0.88
743.357	-0.88
744.107	0.12
744.857	-2.88
745.607	0.12
746.357	0.12
747.106	-0.88
747.856	-0.88
748.606	0.12
749.355	0.12
750.105	0.12
750.854	0.12
751.603	3.12
752.353	-0.88
753.102	-1.88
753.851	-1.88
754.6	1.12
755.349	-0.88
756.098	-0.88
756.847	1.12
757.595	2.12
758.344	1.12
759.093	-0.88
759.841	-0.88
760.589	-0.88
761.338	0.12
762.086	1.12
762.834	0.12
763.582	-2.88
764.331	-0.88
765.079	1.12
765.826	1.12
766.574	-0.88
767.322	1.12
768.07	2.12
768.817	1.12
769.565	-0.88
770.312	0.12
771.06	-0.88
771.807	-0.88
772.554	-0.88
773.302	0.12
774.049	0.12
774.796	-0.88
775.543	1.12
776.29	0.12
777.036	-0.88
777.783	1.12
778.53	-0.88
779.276	-0.88
780.023	-0.88
780.769	-2.88
781.516	0.12
782.262	-0.88
783.008	1.12
783.754	0.12
784.5	-0.88
785.246	1.12
785.992	-1.88
786.738	1.12
787.484	0.12
788.23	1.12
788.975	2.12
789.721	1.12
790.466	3.12
791.212	0.12
791.957	0.12
792.702	0.12
793.447	-2.88
794.193	-0.88
794.938	-1.88
795.683	1.12
796.427	-0.88
797.172	0.12
797.917	-0.88
798.662	0.12
799.406	1.12
800.151	-0.88
800.895	-0.88
801.64	0.12
802.384	1.12
803.128	0.12
803.872	0.12
804.616	1.12
805.36	-0.88
806.104	2.12
806.848	-0.88
807.592	-0.88
808.336	0.12
809.079	-1.88
809.823	-0.88
810.566	0.12
811.31	3.12
812.053	0.12
812.796	-0.88
813.539	2.12
814.283	-0.88
815.026	1.12
815.769	-2.88
816.511	0.12
817.254	-0.88
817.997	-2.88
818.74	-0.88
819.482	2.12
820.225	1.12
820.967	-1.88
821.71	-0.88
822.452	-0.88
823.194	-0.88
823.936	2.12
824.678	2.12
825.42	0.12
826.162	1.12
826.904	-2.88
827.646	1.12
828.388	-0.88
829.129	1.12
829.871	2.12
830.612	-0.88
831.354	-1.88
832.095	0.12
832.836	2.12
833.577	-1.88
834.319	0.12
835.06	-0.88
835.801	-0.88
836.542	0.12
837.282	-0.88
838.023	1.12
838.764	-1.88
839.504	1.12
840.245	-2.88
840.985	0.12
841.726	2.12
842.466	0.12
843.206	1.12
843.946	1.12
844.687	1.12
845.427	2.12
846.166	1.12
846.906	1.12
847.646	1.12
848.386	0.12
849.125	-0.88
849.865	-0.88
850.605	0.12
851.344	-1.88
852.083	1.12
852.823	-0.88
853.562	-0.88
854.301	-0.88
855.04	0.12
855.779	0.12
856.518	-0.88
857.257	-0.88
857.995	-0.88
858.734	1.12
859.473	1.12
860.211	-2.88
860.95	-0.88
861.688	-0.88
862.426	1.12
863.165	0.12
863.903	-1.88
864.641	1.12
865.379	1.12
866.117	-0.88
866.855	0.12
867.593	1.12
868.33	-0.88
869.068	-0.88
869.806	-1.88
870.543	0.12
871.28	-1.88
872.018	-1.88
872.755	-0.88
873.492	1.12
874.229	0.12
874.967	0.12
875.703	-0.88
876.44	1.12
877.177	2.12
877.914	-0.88
878.651	1.12
879.387	-0.88
880.124	1.12
880.86	1.12
881.597	1.12
882.333	-0.88
883.069	-0.88
883.806	2.12
884.542	2.12
885.278	0.12
886.014	1.12
886.749	2.12
887.485	2.12
888.221	1.12
888.957	2.12
889.692	-0.88
890.428	-0.88
891.163	1.12
891.899	-0.88
892.634	0.12
893.369	-1.88
894.104	1.12
894.839	0.12
895.574	-1.88
896.309	1.12
897.044	-0.88
897.779	3.12
898.514	0.12
899.248	-0.88
899.983	0.12
900.717	-0.88
901.452	3.12
902.186	-1.88
902.92	2.12
903.654	-0.88
904.389	-0.88
905.123	3.12
905.857	-0.88
906.59	0.12
907.324	-0.88
908.058	1.12
908.792	1.12
909.525	1.12
910.259	0.12
910.992	1.12
911.726	0.12
912.459	-0.88
913.192	-0.88
913.925	-0.88
914.658	-0.88
915.391	2.12
916.124	2.12
916.857	0.12
917.59	-0.88
918.323	-0.88
919.055	2.12
919.788	0.12
920.521	1.12
921.253	-0.88
921.985	1.12
922.718	1.12
923.45	-2.88
924.182	1.12
924.914	-1.88
925.646	-1.88
926.378	1.12
927.11	1.12
927.841	-0.88
928.573	-0.88
929.305	0.12
930.036	0.12
930.768	0.12
931.499	2.12
932.23	2.12
932.962	-0.88
933.693	1.12
934.424	-0.88
935.155	-0.88
935.886	1.12
936.617	-0.88
937.348	-0.88
938.078	2.12
938.809	-0.88
939.54	-1.88
940.27	1.12
941.001	-2.88
941.731	1.12
942.461	-0.88
943.191	2.12
943.922	0.12
944.652	0.12
945.382	-1.88
946.112	1.12
946.841	1.12
947.571	-1.88
948.301	0.12
949.031	1.12
949.76	-0.88
950.49	1.12
951.219	-0.88
951.948	0.12
952.678	-0.88
953.407	1.12
954.136	0.12
954.865	1.12
955.594	0.12
956.323	-0.88
957.052	-0.88
957.78	-1.88
958.509	0.12
959.238	0.12
959.966	-3.88
960.695	-0.88
961.423	0.12
962.151	-0.88
962.88	1.12
963.608	0.12
964.336	0.12
965.064	0.12
965.792	1.12
966.52	1.12
967.247	0.12
967.975	1.12
968.703	1.12
969.43	2.12
970.158	1.12
970.885	0.12
971.613	-0.88
972.34	-0.88
973.067	1.12
973.794	0.12
974.521	-0.88
975.248	2.12
975.975	1.12
976.702	1.12
977.429	0.12
978.156	-0.88
978.882	0.12
979.609	2.12
980.335	0.12
981.062	2.12
981.788	0.12
982.514	1.12
983.24	0.12
983.967	-1.88
984.693	1.12
985.419	1.12
986.144	1.12
986.87	-0.88
987.596	-1.88
988.322	0.12
989.047	-0.88
989.773	-1.88
990.498	0.12
991.224	1.12
991.949	0.12
992.674	-0.88
993.399	1.12
994.124	0.12
994.849	2.12
995.574	-0.88
996.299	-0.88
997.024	0.12
997.749	-0.88
998.473	0.12
999.198	0.12
999.922	0.12
1000.647	-0.88
1001.371	2.12
1002.095	-0.88
1002.82	-0.88
1003.544	-0.88
1004.268	-0.88
1004.992	-2.88
1005.716	-0.88
1006.439	-1.88
1007.163	-1.88
1007.887	-2.88
1008.611	0.12
1009.334	1.12
1010.058	-0.88
1010.781	-1.88
1011.504	1.12
1012.228	0.12
1012.951	1.12
1013.674	-0.88
1014.397	0.12
1015.12	0.12
