节点500_705_QEPB04081__466__20-52-30-785.txt的数据

Date: Wed Nov 12 20:52:30 CST 2025
User: PC
Spectrometer: QEPB0408
触发模式: 0
积分时间 (秒): 1.000000E-2
Scans to average: 1
启用暗噪声校正: true
启用非线性校正: false
滑动平均宽度: 0
X轴模式: Wavelengths
Number of Pixels in Spectrum: 1044
>>>>>Begin Spectral Data<<<<<
220.843	4.5
221.644	4.5
222.444	5.5
223.244	7.5
224.045	6.5
224.845	5.5
225.645	5.5
226.445	5.5
227.245	6.5
228.045	8.5
228.845	8.5
229.645	6.5
230.444	7.5
231.244	7.5
232.043	4.5
232.843	9.5
233.642	9.5
234.442	8.5
235.241	10.5
236.04	7.5
236.839	11.5
237.638	9.5
238.437	10.5
239.236	11.5
240.035	10.5
240.833	10.5
241.632	9.5
242.43	12.5
243.229	11.5
244.027	12.5
244.826	12.5
245.624	13.5
246.422	11.5
247.22	10.5
248.018	12.5
248.816	14.5
249.614	15.5
250.412	16.5
251.21	16.5
252.007	17.5
252.805	16.5
253.602	18.5
254.4	13.5
255.197	14.5
255.994	16.5
256.791	18.5
257.589	19.5
258.386	19.5
259.183	16.5
259.979	22.5
260.776	21.5
261.573	20.5
262.37	23.5
263.166	20.5
263.963	24.5
264.759	22.5
265.556	24.5
266.352	23.5
267.148	27.5
267.944	24.5
268.74	25.5
269.536	28.5
270.332	29.5
271.128	26.5
271.924	29.5
272.719	30.5
273.515	30.5
274.311	29.5
275.106	32.5
275.901	31.5
276.697	29.5
277.492	32.5
278.287	29.5
279.082	30.5
279.877	31.5
280.672	33.5
281.467	30.5
282.262	33.5
283.056	30.5
283.851	32.5
284.646	35.5
285.44	29.5
286.234	31.5
287.029	29.5
287.823	33.5
288.617	32.5
289.411	31.5
290.205	32.5
290.999	31.5
291.793	31.5
292.587	28.5
293.381	30.5
294.174	29.5
294.968	24.5
295.761	28.5
296.555	26.5
297.348	24.5
298.141	26.5
298.935	26.5
299.728	24.5
300.521	24.5
301.314	24.5
302.107	23.5
302.899	23.5
303.692	20.5
304.485	19.5
305.277	20.5
306.07	21.5
306.862	23.5
307.655	23.5
308.447	20.5
309.239	20.5
310.031	19.5
310.823	17.5
311.615	19.5
312.407	16.5
313.199	15.5
313.991	17.5
314.783	18.5
315.574	14.5
316.366	17.5
317.157	13.5
317.949	18.5
318.74	16.5
319.531	12.5
320.322	13.5
321.113	12.5
321.904	12.5
322.695	12.5
323.486	12.5
324.277	12.5
325.068	12.5
325.858	12.5
326.649	9.5
327.439	8.5
328.23	11.5
329.02	12.5
329.81	11.5
330.6	11.5
331.391	14.5
332.181	10.5
332.971	11.5
333.76	10.5
334.55	11.5
335.34	12.5
336.13	9.5
336.919	9.5
337.709	10.5
338.498	10.5
339.287	10.5
340.077	10.5
340.866	10.5
341.655	11.5
342.444	12.5
343.233	9.5
344.022	8.5
344.811	8.5
345.6	11.5
346.388	10.5
347.177	10.5
347.965	8.5
348.754	13.5
349.542	10.5
350.33	9.5
351.119	10.5
351.907	9.5
352.695	9.5
353.483	12.5
354.271	11.5
355.059	7.5
355.846	9.5
356.634	9.5
357.422	11.5
358.209	10.5
358.997	11.5
359.784	9.5
360.571	9.5
361.359	10.5
362.146	9.5
362.933	10.5
363.72	12.5
364.507	10.5
365.294	10.5
366.081	7.5
366.867	6.5
367.654	6.5
368.44	9.5
369.227	10.5
370.013	8.5
370.8	10.5
371.586	9.5
372.372	8.5
373.158	10.5
373.944	8.5
374.73	12.5
375.516	9.5
376.302	10.5
377.088	8.5
377.873	9.5
378.659	8.5
379.445	6.5
380.23	9.5
381.015	12.5
381.801	9.5
382.586	8.5
383.371	8.5
384.156	10.5
384.941	5.5
385.726	11.5
386.511	8.5
387.296	13.5
388.08	9.5
388.865	8.5
389.649	10.5
390.434	10.5
391.218	9.5
392.003	12.5
392.787	10.5
393.571	13.5
394.355	10.5
395.139	14.5
395.923	11.5
396.707	11.5
397.491	11.5
398.274	12.5
399.058	13.5
399.842	14.5
400.625	10.5
401.408	14.5
402.192	13.5
402.975	14.5
403.758	12.5
404.541	13.5
405.324	14.5
406.107	13.5
406.89	12.5
407.673	13.5
408.456	13.5
409.238	16.5
410.021	18.5
410.803	14.5
411.586	14.5
412.368	17.5
413.151	17.5
413.933	18.5
414.715	14.5
415.497	17.5
416.279	16.5
417.061	17.5
417.843	19.5
418.624	21.5
419.406	18.5
420.188	18.5
420.969	19.5
421.751	19.5
422.532	18.5
423.313	22.5
424.095	21.5
424.876	25.5
425.657	24.5
426.438	21.5
427.219	25.5
428	24.5
428.78	27.5
429.561	26.5
430.342	26.5
431.122	31.5
431.903	30.5
432.683	31.5
433.464	30.5
434.244	36.5
435.024	37.5
435.804	39.5
436.584	43.5
437.364	45.5
438.144	49.5
438.924	49.5
439.704	54.5
440.483	56.5
441.263	61.5
442.042	67.5
442.822	70.5
443.601	74.5
444.38	86.5
445.16	88.5
445.939	92.5
446.718	106.5
447.497	116.5
448.276	128.5
449.054	131.5
449.833	150.5
450.612	170.5
451.391	186.5
452.169	205.5
452.948	217.5
453.726	253.5
454.504	279.5
455.282	308.5
456.061	352.5
456.839	382.5
457.617	434.5
458.395	481.5
459.172	530.5
459.95	594.5
460.728	663.5
461.506	731.5
462.283	816.5
463.061	916.5
463.838	1012.5
464.615	1112.5
465.393	1251.5
466.17	1376.5
466.947	1512.5
467.724	1676.5
468.501	1859.5
469.278	2057.5
470.055	2270.5
470.831	2525.5
471.608	2756.5
472.385	3037.5
473.161	3306.5
473.938	3670.5
474.714	3997.5
475.49	4385.5
476.266	4821.5
477.043	5218.5
477.819	5692.5
478.595	6190.5
479.371	6766.5
480.146	7372.5
480.922	8043.5
481.698	8702.5
482.473	9413.5
483.249	10254.5
484.024	11087.5
484.8	12027.5
485.575	12918.5
486.35	13969.5
487.126	15151.5
487.901	16325.5
488.676	17565.5
489.451	18934.5
490.225	20351.5
491	21820.5
491.775	23304.5
492.55	24814.5
493.324	26438.5
494.099	28117.5
494.873	29834.5
495.647	31484.5
496.422	33127.5
497.196	34862.5
497.97	36336.5
498.744	37972.5
499.518	39567.5
500.292	40861.5
501.066	41953.5
501.839	42864.5
502.613	43719.5
503.387	44469.5
504.16	45035.5
504.934	45222.5
505.707	45410.5
506.48	45262.5
507.253	44847.5
508.027	44419.5
508.8	43786.5
509.573	42883.5
510.346	41937.5
511.118	41073.5
511.891	39991.5
512.664	38536.5
513.437	37178.5
514.209	35966.5
514.982	34629.5
515.754	33183.5
516.526	31962.5
517.298	30612.5
518.071	29565.5
518.843	28316.5
519.615	27226.5
520.387	26114.5
521.159	25096.5
521.93	24073.5
522.702	23139.5
523.474	22124.5
524.245	21264.5
525.017	20316.5
525.788	19495.5
526.56	18653.5
527.331	17977.5
528.102	17004.5
528.873	16170.5
529.644	15400.5
530.415	14685.5
531.186	13994.5
531.957	13280.5
532.728	12661.5
533.498	11986.5
534.269	11378.5
535.039	10730.5
535.81	10209.5
536.58	9664.5
537.351	9112.5
538.121	8666.5
538.891	8205.5
539.661	7740.5
540.431	7308.5
541.201	6955.5
541.971	6609.5
542.741	6230.5
543.51	5903.5
544.28	5661.5
545.05	5372.5
545.819	5111.5
546.588	4900.5
547.358	4639.5
548.127	4416.5
548.896	4202.5
549.665	3988.5
550.434	3774.5
551.203	3601.5
551.972	3408.5
552.741	3206.5
553.51	3044.5
554.278	2869.5
555.047	2717.5
555.815	2571.5
556.584	2435.5
557.352	2296.5
558.121	2183.5
558.889	2052.5
559.657	1946.5
560.425	1823.5
561.193	1732.5
561.961	1656.5
562.729	1563.5
563.496	1490.5
564.264	1396.5
565.032	1324.5
565.799	1245.5
566.567	1169.5
567.334	1108.5
568.101	1053.5
568.869	991.5
569.636	941.5
570.403	885.5
571.17	829.5
571.937	782.5
572.704	747.5
573.471	702.5
574.237	670.5
575.004	628.5
575.771	588.5
576.537	552.5
577.303	530.5
578.07	508.5
578.836	473.5
579.602	444.5
580.368	417.5
581.134	397.5
581.9	385.5
582.666	366.5
583.432	346.5
584.198	322.5
584.964	304.5
585.729	288.5
586.495	281.5
587.26	264.5
588.025	255.5
588.791	235.5
589.556	220.5
590.321	218.5
591.086	208.5
591.851	193.5
592.616	185.5
593.381	169.5
594.146	166.5
594.911	167.5
595.675	158.5
596.44	142.5
597.204	143.5
597.969	135.5
598.733	123.5
599.497	123.5
600.261	121.5
601.025	113.5
601.79	106.5
602.553	104.5
603.317	96.5
604.081	91.5
604.845	90.5
605.609	84.5
606.372	82.5
607.136	78.5
607.899	74.5
608.662	75.5
609.426	70.5
610.189	70.5
610.952	67.5
611.715	63.5
612.478	67.5
613.241	58.5
614.004	57.5
614.767	54.5
615.529	53.5
616.292	50.5
617.055	45.5
617.817	49.5
618.579	46.5
619.342	44.5
620.104	42.5
620.866	43.5
621.628	41.5
622.39	39.5
623.152	34.5
623.914	34.5
624.676	36.5
625.438	33.5
626.199	35.5
626.961	31.5
627.722	30.5
628.484	31.5
629.245	27.5
630.006	27.5
630.768	24.5
631.529	26.5
632.29	26.5
633.051	26.5
633.812	26.5
634.573	24.5
635.333	21.5
636.094	22.5
636.855	21.5
637.615	22.5
638.376	22.5
639.136	22.5
639.896	19.5
640.657	19.5
641.417	21.5
642.177	18.5
642.937	17.5
643.697	19.5
644.457	16.5
645.216	16.5
645.976	13.5
646.736	15.5
647.495	14.5
648.255	15.5
649.014	14.5
649.774	15.5
650.533	12.5
651.292	13.5
652.051	18.5
652.81	14.5
653.569	11.5
654.328	14.5
655.087	12.5
655.846	12.5
656.604	14.5
657.363	12.5
658.121	10.5
658.88	11.5
659.638	11.5
660.397	10.5
661.155	12.5
661.913	11.5
662.671	11.5
663.429	10.5
664.187	8.5
664.945	9.5
665.703	8.5
666.46	10.5
667.218	7.5
667.976	10.5
668.733	9.5
669.49	7.5
670.248	10.5
671.005	8.5
671.762	10.5
672.519	8.5
673.276	8.5
674.033	8.5
674.79	8.5
675.547	6.5
676.304	8.5
677.06	8.5
677.817	7.5
678.574	9.5
679.33	10.5
680.086	7.5
680.843	9.5
681.599	8.5
682.355	7.5
683.111	7.5
683.867	6.5
684.623	6.5
685.379	8.5
686.135	9.5
686.89	7.5
687.646	9.5
688.402	8.5
689.157	7.5
689.912	8.5
690.668	7.5
691.423	7.5
692.178	5.5
692.933	6.5
693.688	7.5
694.443	6.5
695.198	7.5
695.953	6.5
696.708	7.5
697.462	6.5
698.217	7.5
698.972	7.5
699.726	7.5
700.48	6.5
701.235	7.5
701.989	7.5
702.743	7.5
703.497	6.5
704.251	6.5
705.005	4.5
705.759	9.5
706.513	5.5
707.266	7.5
708.02	7.5
708.774	5.5
709.527	7.5
710.28	8.5
711.034	7.5
711.787	7.5
712.54	7.5
713.293	6.5
714.046	5.5
714.799	7.5
715.552	7.5
716.305	8.5
717.058	6.5
717.81	5.5
718.563	7.5
719.315	7.5
720.068	5.5
720.82	6.5
721.573	6.5
722.325	6.5
723.077	8.5
723.829	8.5
724.581	8.5
725.333	8.5
726.085	7.5
726.836	8.5
727.588	9.5
728.34	8.5
729.091	7.5
729.843	8.5
730.594	8.5
731.346	7.5
732.097	8.5
732.848	8.5
733.599	8.5
734.35	5.5
735.101	9.5
735.852	7.5
736.603	7.5
737.354	8.5
738.104	9.5
738.855	9.5
739.605	7.5
740.356	9.5
741.106	10.5
741.856	11.5
742.607	7.5
743.357	10.5
744.107	6.5
744.857	9.5
745.607	9.5
746.357	9.5
747.106	9.5
747.856	10.5
748.606	6.5
749.355	11.5
750.105	7.5
750.854	8.5
751.603	9.5
752.353	8.5
753.102	10.5
753.851	10.5
754.6	11.5
755.349	9.5
756.098	9.5
756.847	8.5
757.595	9.5
758.344	10.5
759.093	13.5
759.841	11.5
760.589	13.5
761.338	10.5
762.086	12.5
762.834	9.5
763.582	10.5
764.331	11.5
765.079	11.5
765.826	13.5
766.574	12.5
767.322	11.5
768.07	10.5
768.817	14.5
769.565	16.5
770.312	14.5
771.06	10.5
771.807	13.5
772.554	17.5
773.302	14.5
774.049	12.5
774.796	13.5
775.543	14.5
776.29	16.5
777.036	15.5
777.783	14.5
778.53	13.5
779.276	15.5
780.023	14.5
780.769	12.5
781.516	16.5
782.262	15.5
783.008	14.5
783.754	12.5
784.5	12.5
785.246	13.5
785.992	14.5
786.738	16.5
787.484	12.5
788.23	15.5
788.975	13.5
789.721	13.5
790.466	13.5
791.212	13.5
791.957	13.5
792.702	14.5
793.447	13.5
794.193	14.5
794.938	12.5
795.683	14.5
796.427	15.5
797.172	14.5
797.917	11.5
798.662	11.5
799.406	12.5
800.151	11.5
800.895	14.5
801.64	11.5
802.384	11.5
803.128	13.5
803.872	10.5
804.616	10.5
805.36	8.5
806.104	12.5
806.848	9.5
807.592	9.5
808.336	7.5
809.079	8.5
809.823	8.5
810.566	11.5
811.31	8.5
812.053	10.5
812.796	6.5
813.539	5.5
814.283	7.5
815.026	8.5
815.769	10.5
816.511	8.5
817.254	9.5
817.997	5.5
818.74	9.5
819.482	6.5
820.225	6.5
820.967	6.5
821.71	6.5
822.452	6.5
823.194	8.5
823.936	7.5
824.678	5.5
825.42	7.5
826.162	6.5
826.904	7.5
827.646	4.5
828.388	7.5
829.129	5.5
829.871	6.5
830.612	5.5
831.354	8.5
832.095	7.5
832.836	4.5
833.577	5.5
834.319	5.5
835.06	4.5
835.801	6.5
836.542	5.5
837.282	3.5
838.023	3.5
838.764	3.5
839.504	8.5
840.245	5.5
840.985	5.5
841.726	4.5
842.466	7.5
843.206	5.5
843.946	3.5
844.687	6.5
845.427	4.5
846.166	3.5
846.906	3.5
847.646	4.5
848.386	2.5
849.125	4.5
849.865	3.5
850.605	4.5
851.344	4.5
852.083	5.5
852.823	2.5
853.562	5.5
854.301	4.5
855.04	2.5
855.779	1.5
856.518	3.5
857.257	2.5
857.995	5.5
858.734	3.5
859.473	5.5
860.211	3.5
860.95	3.5
861.688	2.5
862.426	5.5
863.165	5.5
863.903	2.5
864.641	5.5
865.379	1.5
866.117	3.5
866.855	5.5
867.593	3.5
868.33	2.5
869.068	1.5
869.806	3.5
870.543	2.5
871.28	1.5
872.018	0.5
872.755	2.5
873.492	3.5
874.229	2.5
874.967	3.5
875.703	2.5
876.44	0.5
877.177	2.5
877.914	0.5
878.651	1.5
879.387	1.5
880.124	2.5
880.86	2.5
881.597	0.5
882.333	2.5
883.069	1.5
883.806	0.5
884.542	0.5
885.278	1.5
886.014	1.5
886.749	1.5
887.485	-0.5
888.221	0.5
888.957	1.5
889.692	0.5
890.428	1.5
891.163	0.5
891.899	-0.5
892.634	-0.5
893.369	0.5
894.104	1.5
894.839	0.5
895.574	1.5
896.309	1.5
897.044	-0.5
897.779	0.5
898.514	0.5
899.248	0.5
899.983	1.5
900.717	-1.5
901.452	0.5
902.186	-1.5
902.92	1.5
903.654	-0.5
904.389	-1.5
905.123	2.5
905.857	1.5
906.59	2.5
907.324	1.5
908.058	0.5
908.792	1.5
909.525	0.5
910.259	0.5
910.992	0.5
911.726	1.5
912.459	-0.5
913.192	1.5
913.925	0.5
914.658	0.5
915.391	-0.5
916.124	-0.5
916.857	2.5
917.59	0.5
918.323	0.5
919.055	2.5
919.788	0.5
920.521	-1.5
921.253	-0.5
921.985	1.5
922.718	-1.5
923.45	0.5
924.182	-0.5
924.914	-0.5
925.646	0.5
926.378	0.5
927.11	1.5
927.841	0.5
928.573	0.5
929.305	-1.5
930.036	-1.5
930.768	0.5
931.499	0.5
932.23	0.5
932.962	-1.5
933.693	-0.5
934.424	0.5
935.155	-1.5
935.886	1.5
936.617	-1.5
937.348	0.5
938.078	0.5
938.809	-2.5
939.54	0.5
940.27	-0.5
941.001	-1.5
941.731	-0.5
942.461	-2.5
943.191	0.5
943.922	1.5
944.652	1.5
945.382	-0.5
946.112	1.5
946.841	0.5
947.571	-0.5
948.301	0.5
949.031	1.5
949.76	0.5
950.49	0.5
951.219	0.5
951.948	1.5
952.678	0.5
953.407	0.5
954.136	0.5
954.865	-1.5
955.594	0.5
956.323	-3.5
957.052	-1.5
957.78	0.5
958.509	1.5
959.238	-1.5
959.966	-0.5
960.695	-0.5
961.423	0.5
962.151	0.5
962.88	-0.5
963.608	1.5
964.336	-1.5
965.064	-0.5
965.792	-0.5
966.52	0.5
967.247	0.5
967.975	2.5
968.703	-1.5
969.43	-0.5
970.158	1.5
970.885	-0.5
971.613	-0.5
972.34	-1.5
973.067	-0.5
973.794	-0.5
974.521	0.5
975.248	1.5
975.975	-1.5
976.702	-0.5
977.429	-0.5
978.156	0.5
978.882	0.5
979.609	2.5
980.335	-1.5
981.062	1.5
981.788	-0.5
982.514	-3.5
983.24	-1.5
983.967	-0.5
984.693	0.5
985.419	2.5
986.144	-0.5
986.87	-1.5
987.596	0.5
988.322	1.5
989.047	0.5
989.773	-0.5
990.498	-0.5
991.224	-3.5
991.949	0.5
992.674	0.5
993.399	1.5
994.124	-0.5
994.849	-1.5
995.574	0.5
996.299	1.5
997.024	-1.5
997.749	0.5
998.473	0.5
999.198	-0.5
999.922	0.5
1000.647	0.5
1001.371	2.5
1002.095	0.5
1002.82	1.5
1003.544	-0.5
1004.268	4.5
1004.992	2.5
1005.716	1.5
1006.439	2.5
1007.163	6.5
1007.887	4.5
1008.611	0.5
1009.334	0.5
1010.058	-0.5
1010.781	-1.5
1011.504	3.5
1012.228	-1.5
1012.951	-0.5
1013.674	-4.5
1014.397	1.5
1015.12	-0.5
