节点500_705_QEPB04081__647__20-55-07-822.txt的数据

Date: Wed Nov 12 20:55:07 CST 2025
User: PC
Spectrometer: QEPB0408
触发模式: 0
积分时间 (秒): 1.000000E-2
Scans to average: 1
启用暗噪声校正: true
启用非线性校正: false
滑动平均宽度: 0
X轴模式: Wavelengths
Number of Pixels in Spectrum: 1044
>>>>>Begin Spectral Data<<<<<
220.843	5.38
221.644	7.38
222.444	2.38
223.244	7.38
224.045	8.38
224.845	8.38
225.645	5.38
226.445	7.38
227.245	7.38
228.045	7.38
228.845	7.38
229.645	7.38
230.444	10.38
231.244	9.38
232.043	8.38
232.843	7.38
233.642	8.38
234.442	8.38
235.241	7.38
236.04	10.38
236.839	11.38
237.638	10.38
238.437	11.38
239.236	10.38
240.035	11.38
240.833	14.38
241.632	10.38
242.43	13.38
243.229	13.38
244.027	11.38
244.826	12.38
245.624	13.38
246.422	13.38
247.22	12.38
248.018	16.38
248.816	15.38
249.614	13.38
250.412	18.38
251.21	14.38
252.007	15.38
252.805	14.38
253.602	16.38
254.4	15.38
255.197	15.38
255.994	17.38
256.791	18.38
257.589	18.38
258.386	19.38
259.183	20.38
259.979	21.38
260.776	22.38
261.573	18.38
262.37	19.38
263.166	22.38
263.963	20.38
264.759	25.38
265.556	24.38
266.352	25.38
267.148	23.38
267.944	25.38
268.74	28.38
269.536	24.38
270.332	27.38
271.128	29.38
271.924	27.38
272.719	28.38
273.515	26.38
274.311	29.38
275.106	31.38
275.901	31.38
276.697	29.38
277.492	31.38
278.287	31.38
279.082	30.38
279.877	32.38
280.672	31.38
281.467	30.38
282.262	32.38
283.056	32.38
283.851	35.38
284.646	31.38
285.44	31.38
286.234	34.38
287.029	30.38
287.823	35.38
288.617	31.38
289.411	32.38
290.205	29.38
290.999	31.38
291.793	34.38
292.587	30.38
293.381	30.38
294.174	27.38
294.968	28.38
295.761	24.38
296.555	26.38
297.348	30.38
298.141	28.38
298.935	29.38
299.728	27.38
300.521	26.38
301.314	29.38
302.107	25.38
302.899	24.38
303.692	24.38
304.485	24.38
305.277	22.38
306.07	22.38
306.862	23.38
307.655	20.38
308.447	24.38
309.239	20.38
310.031	20.38
310.823	19.38
311.615	20.38
312.407	22.38
313.199	18.38
313.991	18.38
314.783	18.38
315.574	19.38
316.366	16.38
317.157	18.38
317.949	14.38
318.74	17.38
319.531	13.38
320.322	14.38
321.113	14.38
321.904	13.38
322.695	12.38
323.486	14.38
324.277	14.38
325.068	13.38
325.858	15.38
326.649	13.38
327.439	11.38
328.23	12.38
329.02	13.38
329.81	13.38
330.6	9.38
331.391	11.38
332.181	12.38
332.971	14.38
333.76	11.38
334.55	11.38
335.34	11.38
336.13	13.38
336.919	8.38
337.709	12.38
338.498	13.38
339.287	13.38
340.077	12.38
340.866	15.38
341.655	8.38
342.444	11.38
343.233	13.38
344.022	11.38
344.811	11.38
345.6	13.38
346.388	10.38
347.177	11.38
347.965	13.38
348.754	14.38
349.542	12.38
350.33	11.38
351.119	10.38
351.907	13.38
352.695	10.38
353.483	13.38
354.271	11.38
355.059	9.38
355.846	9.38
356.634	10.38
357.422	11.38
358.209	10.38
358.997	12.38
359.784	10.38
360.571	13.38
361.359	11.38
362.146	8.38
362.933	12.38
363.72	9.38
364.507	11.38
365.294	9.38
366.081	10.38
366.867	11.38
367.654	8.38
368.44	8.38
369.227	9.38
370.013	7.38
370.8	8.38
371.586	9.38
372.372	10.38
373.158	12.38
373.944	8.38
374.73	9.38
375.516	8.38
376.302	11.38
377.088	11.38
377.873	11.38
378.659	9.38
379.445	9.38
380.23	10.38
381.015	10.38
381.801	10.38
382.586	11.38
383.371	11.38
384.156	11.38
384.941	10.38
385.726	12.38
386.511	12.38
387.296	12.38
388.08	11.38
388.865	13.38
389.649	11.38
390.434	9.38
391.218	12.38
392.003	11.38
392.787	12.38
393.571	13.38
394.355	10.38
395.139	14.38
395.923	12.38
396.707	13.38
397.491	11.38
398.274	12.38
399.058	14.38
399.842	14.38
400.625	13.38
401.408	13.38
402.192	14.38
402.975	14.38
403.758	14.38
404.541	14.38
405.324	14.38
406.107	16.38
406.89	14.38
407.673	15.38
408.456	19.38
409.238	15.38
410.021	17.38
410.803	15.38
411.586	16.38
412.368	18.38
413.151	17.38
413.933	17.38
414.715	17.38
415.497	20.38
416.279	19.38
417.061	18.38
417.843	20.38
418.624	18.38
419.406	20.38
420.188	20.38
420.969	21.38
421.751	22.38
422.532	22.38
423.313	19.38
424.095	21.38
424.876	24.38
425.657	25.38
426.438	23.38
427.219	23.38
428	25.38
428.78	28.38
429.561	28.38
430.342	31.38
431.122	35.38
431.903	33.38
432.683	37.38
433.464	35.38
434.244	37.38
435.024	35.38
435.804	41.38
436.584	43.38
437.364	47.38
438.144	50.38
438.924	53.38
439.704	59.38
440.483	57.38
441.263	59.38
442.042	68.38
442.822	72.38
443.601	76.38
444.38	84.38
445.16	90.38
445.939	99.38
446.718	109.38
447.497	119.38
448.276	128.38
449.054	143.38
449.833	156.38
450.612	178.38
451.391	186.38
452.169	215.38
452.948	236.38
453.726	260.38
454.504	289.38
455.282	317.38
456.061	355.38
456.839	394.38
457.617	444.38
458.395	484.38
459.172	546.38
459.95	608.38
460.728	682.38
461.506	744.38
462.283	840.38
463.061	930.38
463.838	1026.38
464.615	1144.38
465.393	1239.38
466.17	1398.38
466.947	1517.38
467.724	1693.38
468.501	1889.38
469.278	2075.38
470.055	2272.38
470.831	2500.38
471.608	2770.38
472.385	3024.38
473.161	3285.38
473.938	3629.38
474.714	3973.38
475.49	4314.38
476.266	4713.38
477.043	5133.38
477.819	5579.38
478.595	6065.38
479.371	6621.38
480.146	7122.38
480.922	7771.38
481.698	8416.38
482.473	9082.38
483.249	9866.38
484.024	10606.38
484.8	11471.38
485.575	12376.38
486.35	13361.38
487.126	14431.38
487.901	15554.38
488.676	16670.38
489.451	17908.38
490.225	19197.38
491	20547.38
491.775	21879.38
492.55	23377.38
493.324	24885.38
494.099	26412.38
494.873	28034.38
495.647	29501.38
496.422	31089.38
497.196	32816.38
497.97	34227.38
498.744	35754.38
499.518	37293.38
500.292	38659.38
501.066	39708.38
501.839	40678.38
502.613	41588.38
503.387	42397.38
504.16	43051.38
504.934	43378.38
505.707	43726.38
506.48	43606.38
507.253	43497.38
508.027	43224.38
508.8	42598.38
509.573	41933.38
510.346	41256.38
511.118	40328.38
511.891	39464.38
512.664	38261.38
513.437	37012.38
514.209	35732.38
514.982	34573.38
515.754	33221.38
516.526	32029.38
517.298	30800.38
518.071	29629.38
518.843	28492.38
519.615	27371.38
520.387	26257.38
521.159	25245.38
521.93	24294.38
522.702	23248.38
523.474	22311.38
524.245	21436.38
525.017	20586.38
525.788	19709.38
526.56	18963.38
527.331	18100.38
528.102	17249.38
528.873	16408.38
529.644	15647.38
530.415	14943.38
531.186	14272.38
531.957	13584.38
532.728	12934.38
533.498	12197.38
534.269	11617.38
535.039	11027.38
535.81	10400.38
536.58	9881.38
537.351	9351.38
538.121	8896.38
538.891	8390.38
539.661	7936.38
540.431	7534.38
541.201	7149.38
541.971	6770.38
542.741	6402.38
543.51	6109.38
544.28	5795.38
545.05	5516.38
545.819	5281.38
546.588	5029.38
547.358	4785.38
548.127	4507.38
548.896	4308.38
549.665	4091.38
550.434	3880.38
551.203	3716.38
551.972	3519.38
552.741	3336.38
553.51	3128.38
554.278	2978.38
555.047	2809.38
555.815	2654.38
556.584	2519.38
557.352	2411.38
558.121	2260.38
558.889	2123.38
559.657	2026.38
560.425	1923.38
561.193	1800.38
561.961	1709.38
562.729	1613.38
563.496	1527.38
564.264	1442.38
565.032	1376.38
565.799	1292.38
566.567	1215.38
567.334	1142.38
568.101	1105.38
568.869	1035.38
569.636	984.38
570.403	905.38
571.17	869.38
571.937	820.38
572.704	775.38
573.471	738.38
574.237	685.38
575.004	645.38
575.771	613.38
576.537	572.38
577.303	543.38
578.07	513.38
578.836	485.38
579.602	460.38
580.368	431.38
581.134	423.38
581.9	394.38
582.666	382.38
583.432	362.38
584.198	347.38
584.964	323.38
585.729	306.38
586.495	286.38
587.26	275.38
588.025	266.38
588.791	243.38
589.556	233.38
590.321	212.38
591.086	211.38
591.851	197.38
592.616	186.38
593.381	184.38
594.146	169.38
594.911	170.38
595.675	159.38
596.44	148.38
597.204	145.38
597.969	139.38
598.733	133.38
599.497	127.38
600.261	122.38
601.025	112.38
601.79	114.38
602.553	107.38
603.317	99.38
604.081	101.38
604.845	88.38
605.609	88.38
606.372	85.38
607.136	81.38
607.899	82.38
608.662	76.38
609.426	77.38
610.189	71.38
610.952	72.38
611.715	66.38
612.478	61.38
613.241	63.38
614.004	56.38
614.767	58.38
615.529	56.38
616.292	53.38
617.055	46.38
617.817	52.38
618.579	49.38
619.342	45.38
620.104	47.38
620.866	42.38
621.628	42.38
622.39	41.38
623.152	38.38
623.914	39.38
624.676	38.38
625.438	35.38
626.199	33.38
626.961	31.38
627.722	33.38
628.484	30.38
629.245	27.38
630.006	26.38
630.768	28.38
631.529	28.38
632.29	27.38
633.051	26.38
633.812	26.38
634.573	26.38
635.333	26.38
636.094	20.38
636.855	25.38
637.615	19.38
638.376	21.38
639.136	22.38
639.896	21.38
640.657	19.38
641.417	20.38
642.177	17.38
642.937	19.38
643.697	18.38
644.457	17.38
645.216	15.38
645.976	16.38
646.736	17.38
647.495	15.38
648.255	14.38
649.014	15.38
649.774	16.38
650.533	12.38
651.292	14.38
652.051	14.38
652.81	15.38
653.569	15.38
654.328	11.38
655.087	15.38
655.846	12.38
656.604	13.38
657.363	14.38
658.121	14.38
658.88	12.38
659.638	11.38
660.397	13.38
661.155	10.38
661.913	11.38
662.671	11.38
663.429	9.38
664.187	10.38
664.945	10.38
665.703	10.38
666.46	9.38
667.218	7.38
667.976	10.38
668.733	8.38
669.49	9.38
670.248	9.38
671.005	8.38
671.762	13.38
672.519	10.38
673.276	10.38
674.033	7.38
674.79	10.38
675.547	10.38
676.304	9.38
677.06	8.38
677.817	7.38
678.574	11.38
679.33	7.38
680.086	9.38
680.843	8.38
681.599	9.38
682.355	10.38
683.111	7.38
683.867	7.38
684.623	7.38
685.379	8.38
686.135	6.38
686.89	7.38
687.646	8.38
688.402	8.38
689.157	9.38
689.912	6.38
690.668	8.38
691.423	7.38
692.178	9.38
692.933	7.38
693.688	5.38
694.443	8.38
695.198	7.38
695.953	5.38
696.708	5.38
697.462	8.38
698.217	9.38
698.972	8.38
699.726	7.38
700.48	7.38
701.235	8.38
701.989	9.38
702.743	9.38
703.497	8.38
704.251	8.38
705.005	7.38
705.759	7.38
706.513	8.38
707.266	8.38
708.02	8.38
708.774	6.38
709.527	8.38
710.28	6.38
711.034	8.38
711.787	9.38
712.54	8.38
713.293	7.38
714.046	7.38
714.799	8.38
715.552	8.38
716.305	9.38
717.058	7.38
717.81	9.38
718.563	9.38
719.315	6.38
720.068	7.38
720.82	6.38
721.573	7.38
722.325	7.38
723.077	7.38
723.829	7.38
724.581	7.38
725.333	9.38
726.085	9.38
726.836	8.38
727.588	9.38
728.34	7.38
729.091	9.38
729.843	6.38
730.594	9.38
731.346	9.38
732.097	10.38
732.848	9.38
733.599	8.38
734.35	8.38
735.101	7.38
735.852	9.38
736.603	10.38
737.354	8.38
738.104	9.38
738.855	8.38
739.605	10.38
740.356	8.38
741.106	8.38
741.856	9.38
742.607	9.38
743.357	11.38
744.107	9.38
744.857	10.38
745.607	10.38
746.357	7.38
747.106	11.38
747.856	11.38
748.606	11.38
749.355	8.38
750.105	11.38
750.854	9.38
751.603	11.38
752.353	9.38
753.102	10.38
753.851	10.38
754.6	11.38
755.349	11.38
756.098	11.38
756.847	9.38
757.595	12.38
758.344	10.38
759.093	11.38
759.841	11.38
760.589	12.38
761.338	11.38
762.086	11.38
762.834	12.38
763.582	11.38
764.331	12.38
765.079	9.38
765.826	12.38
766.574	11.38
767.322	11.38
768.07	14.38
768.817	13.38
769.565	12.38
770.312	15.38
771.06	14.38
771.807	11.38
772.554	12.38
773.302	15.38
774.049	13.38
774.796	14.38
775.543	15.38
776.29	13.38
777.036	15.38
777.783	14.38
778.53	15.38
779.276	14.38
780.023	16.38
780.769	15.38
781.516	16.38
782.262	16.38
783.008	14.38
783.754	14.38
784.5	15.38
785.246	14.38
785.992	15.38
786.738	14.38
787.484	15.38
788.23	13.38
788.975	13.38
789.721	15.38
790.466	14.38
791.212	16.38
791.957	14.38
792.702	15.38
793.447	14.38
794.193	13.38
794.938	14.38
795.683	11.38
796.427	13.38
797.172	13.38
797.917	12.38
798.662	13.38
799.406	13.38
800.151	13.38
800.895	11.38
801.64	13.38
802.384	13.38
803.128	11.38
803.872	11.38
804.616	11.38
805.36	13.38
806.104	10.38
806.848	11.38
807.592	10.38
808.336	10.38
809.079	10.38
809.823	11.38
810.566	10.38
811.31	11.38
812.053	7.38
812.796	8.38
813.539	9.38
814.283	9.38
815.026	7.38
815.769	6.38
816.511	9.38
817.254	7.38
817.997	10.38
818.74	6.38
819.482	8.38
820.225	9.38
820.967	10.38
821.71	10.38
822.452	7.38
823.194	7.38
823.936	6.38
824.678	8.38
825.42	8.38
826.162	7.38
826.904	8.38
827.646	5.38
828.388	8.38
829.129	7.38
829.871	6.38
830.612	8.38
831.354	4.38
832.095	5.38
832.836	4.38
833.577	7.38
834.319	7.38
835.06	7.38
835.801	7.38
836.542	8.38
837.282	7.38
838.023	6.38
838.764	8.38
839.504	4.38
840.245	6.38
840.985	6.38
841.726	6.38
842.466	6.38
843.206	5.38
843.946	7.38
844.687	6.38
845.427	5.38
846.166	5.38
846.906	5.38
847.646	5.38
848.386	6.38
849.125	6.38
849.865	4.38
850.605	5.38
851.344	4.38
852.083	6.38
852.823	5.38
853.562	3.38
854.301	2.38
855.04	4.38
855.779	5.38
856.518	6.38
857.257	5.38
857.995	5.38
858.734	2.38
859.473	5.38
860.211	4.38
860.95	2.38
861.688	6.38
862.426	4.38
863.165	3.38
863.903	6.38
864.641	4.38
865.379	1.38
866.117	4.38
866.855	3.38
867.593	3.38
868.33	5.38
869.068	3.38
869.806	4.38
870.543	4.38
871.28	2.38
872.018	0.38
872.755	2.38
873.492	2.38
874.229	2.38
874.967	2.38
875.703	4.38
876.44	3.38
877.177	2.38
877.914	1.38
878.651	2.38
879.387	2.38
880.124	2.38
880.86	2.38
881.597	2.38
882.333	2.38
883.069	1.38
883.806	1.38
884.542	3.38
885.278	1.38
886.014	2.38
886.749	2.38
887.485	0.38
888.221	4.38
888.957	-0.62
889.692	1.38
890.428	2.38
891.163	4.38
891.899	2.38
892.634	3.38
893.369	4.38
894.104	3.38
894.839	1.38
895.574	2.38
896.309	-0.62
897.044	2.38
897.779	0.38
898.514	3.38
899.248	-0.62
899.983	2.38
900.717	3.38
901.452	2.38
902.186	-0.62
902.92	2.38
903.654	3.38
904.389	3.38
905.123	1.38
905.857	0.38
906.59	-0.62
907.324	3.38
908.058	1.38
908.792	3.38
909.525	0.38
910.259	2.38
910.992	1.38
911.726	-0.62
912.459	1.38
913.192	-0.62
913.925	1.38
914.658	2.38
915.391	1.38
916.124	1.38
916.857	0.38
917.59	2.38
918.323	1.38
919.055	0.38
919.788	0.38
920.521	0.38
921.253	2.38
921.985	1.38
922.718	0.38
923.45	0.38
924.182	0.38
924.914	2.38
925.646	-0.62
926.378	1.38
927.11	-0.62
927.841	-0.62
928.573	1.38
929.305	-0.62
930.036	3.38
930.768	0.38
931.499	3.38
932.23	1.38
932.962	1.38
933.693	0.38
934.424	1.38
935.155	1.38
935.886	-0.62
936.617	-0.62
937.348	1.38
938.078	-0.62
938.809	2.38
939.54	-0.62
940.27	1.38
941.001	1.38
941.731	1.38
942.461	1.38
943.191	1.38
943.922	3.38
944.652	2.38
945.382	0.38
946.112	-0.62
946.841	1.38
947.571	-0.62
948.301	2.38
949.031	1.38
949.76	2.38
950.49	1.38
951.219	0.38
951.948	-0.62
952.678	2.38
953.407	1.38
954.136	2.38
954.865	2.38
955.594	1.38
956.323	1.38
957.052	-0.62
957.78	1.38
958.509	-0.62
959.238	1.38
959.966	1.38
960.695	0.38
961.423	1.38
962.151	1.38
962.88	1.38
963.608	0.38
964.336	-0.62
965.064	-0.62
965.792	1.38
966.52	2.38
967.247	0.38
967.975	0.38
968.703	-0.62
969.43	-1.62
970.158	1.38
970.885	1.38
971.613	2.38
972.34	0.38
973.067	1.38
973.794	0.38
974.521	-0.62
975.248	2.38
975.975	-0.62
976.702	1.38
977.429	1.38
978.156	0.38
978.882	2.38
979.609	0.38
980.335	2.38
981.062	-0.62
981.788	-0.62
982.514	0.38
983.24	0.38
983.967	0.38
984.693	0.38
985.419	1.38
986.144	2.38
986.87	0.38
987.596	0.38
988.322	0.38
989.047	1.38
989.773	1.38
990.498	1.38
991.224	1.38
991.949	0.38
992.674	1.38
993.399	4.38
994.124	1.38
994.849	0.38
995.574	1.38
996.299	3.38
997.024	0.38
997.749	1.38
998.473	1.38
999.198	1.38
999.922	-0.62
1000.647	0.38
1001.371	2.38
1002.095	-0.62
1002.82	-0.62
1003.544	0.38
1004.268	5.38
1004.992	3.38
1005.716	6.38
1006.439	5.38
1007.163	6.38
1007.887	6.38
1008.611	2.38
1009.334	1.38
1010.058	1.38
1010.781	-0.62
1011.504	1.38
1012.228	2.38
1012.951	-1.62
1013.674	1.38
1014.397	-1.62
1015.12	0.38
