节点500_705_QEPB04081__254__20-49-32-441.txt的数据

Date: Wed Nov 12 20:49:32 CST 2025
User: PC
Spectrometer: QEPB0408
触发模式: 0
积分时间 (秒): 1.000000E-2
Scans to average: 1
启用暗噪声校正: true
启用非线性校正: false
滑动平均宽度: 0
X轴模式: Wavelengths
Number of Pixels in Spectrum: 1044
>>>>>Begin Spectral Data<<<<<
220.843	5.75
221.644	6.75
222.444	5.75
223.244	4.75
224.045	6.75
224.845	6.75
225.645	6.75
226.445	5.75
227.245	8.75
228.045	7.75
228.845	8.75
229.645	8.75
230.444	8.75
231.244	9.75
232.043	7.75
232.843	10.75
233.642	9.75
234.442	10.75
235.241	11.75
236.04	11.75
236.839	11.75
237.638	8.75
238.437	10.75
239.236	11.75
240.035	9.75
240.833	10.75
241.632	11.75
242.43	9.75
243.229	10.75
244.027	15.75
244.826	13.75
245.624	12.75
246.422	12.75
247.22	14.75
248.018	15.75
248.816	13.75
249.614	12.75
250.412	16.75
251.21	18.75
252.007	17.75
252.805	16.75
253.602	16.75
254.4	17.75
255.197	19.75
255.994	21.75
256.791	18.75
257.589	19.75
258.386	22.75
259.183	24.75
259.979	21.75
260.776	24.75
261.573	23.75
262.37	24.75
263.166	24.75
263.963	26.75
264.759	23.75
265.556	26.75
266.352	24.75
267.148	30.75
267.944	28.75
268.74	26.75
269.536	30.75
270.332	30.75
271.128	31.75
271.924	33.75
272.719	29.75
273.515	32.75
274.311	31.75
275.106	33.75
275.901	33.75
276.697	35.75
277.492	33.75
278.287	33.75
279.082	34.75
279.877	34.75
280.672	34.75
281.467	33.75
282.262	37.75
283.056	34.75
283.851	35.75
284.646	33.75
285.44	31.75
286.234	34.75
287.029	35.75
287.823	33.75
288.617	32.75
289.411	34.75
290.205	33.75
290.999	34.75
291.793	33.75
292.587	31.75
293.381	30.75
294.174	27.75
294.968	30.75
295.761	26.75
296.555	24.75
297.348	25.75
298.141	25.75
298.935	29.75
299.728	27.75
300.521	24.75
301.314	25.75
302.107	22.75
302.899	21.75
303.692	19.75
304.485	21.75
305.277	25.75
306.07	23.75
306.862	23.75
307.655	22.75
308.447	19.75
309.239	19.75
310.031	20.75
310.823	14.75
311.615	17.75
312.407	19.75
313.199	19.75
313.991	16.75
314.783	16.75
315.574	18.75
316.366	14.75
317.157	14.75
317.949	13.75
318.74	16.75
319.531	13.75
320.322	15.75
321.113	14.75
321.904	12.75
322.695	15.75
323.486	11.75
324.277	12.75
325.068	12.75
325.858	13.75
326.649	12.75
327.439	11.75
328.23	14.75
329.02	13.75
329.81	14.75
330.6	11.75
331.391	12.75
332.181	10.75
332.971	11.75
333.76	12.75
334.55	12.75
335.34	14.75
336.13	9.75
336.919	12.75
337.709	9.75
338.498	10.75
339.287	9.75
340.077	9.75
340.866	11.75
341.655	10.75
342.444	10.75
343.233	12.75
344.022	11.75
344.811	9.75
345.6	11.75
346.388	9.75
347.177	11.75
347.965	9.75
348.754	11.75
349.542	8.75
350.33	12.75
351.119	13.75
351.907	12.75
352.695	10.75
353.483	12.75
354.271	10.75
355.059	9.75
355.846	11.75
356.634	10.75
357.422	7.75
358.209	11.75
358.997	8.75
359.784	11.75
360.571	10.75
361.359	7.75
362.146	8.75
362.933	11.75
363.72	10.75
364.507	8.75
365.294	11.75
366.081	10.75
366.867	10.75
367.654	10.75
368.44	7.75
369.227	8.75
370.013	8.75
370.8	6.75
371.586	10.75
372.372	11.75
373.158	7.75
373.944	10.75
374.73	9.75
375.516	9.75
376.302	7.75
377.088	8.75
377.873	9.75
378.659	10.75
379.445	9.75
380.23	10.75
381.015	8.75
381.801	7.75
382.586	9.75
383.371	10.75
384.156	9.75
384.941	9.75
385.726	10.75
386.511	9.75
387.296	10.75
388.08	11.75
388.865	10.75
389.649	9.75
390.434	12.75
391.218	10.75
392.003	11.75
392.787	12.75
393.571	13.75
394.355	12.75
395.139	12.75
395.923	13.75
396.707	14.75
397.491	10.75
398.274	12.75
399.058	10.75
399.842	10.75
400.625	12.75
401.408	12.75
402.192	10.75
402.975	12.75
403.758	13.75
404.541	14.75
405.324	12.75
406.107	15.75
406.89	13.75
407.673	14.75
408.456	14.75
409.238	15.75
410.021	13.75
410.803	14.75
411.586	13.75
412.368	18.75
413.151	15.75
413.933	18.75
414.715	21.75
415.497	14.75
416.279	19.75
417.061	14.75
417.843	19.75
418.624	21.75
419.406	20.75
420.188	24.75
420.969	20.75
421.751	24.75
422.532	22.75
423.313	22.75
424.095	23.75
424.876	21.75
425.657	23.75
426.438	27.75
427.219	26.75
428	28.75
428.78	28.75
429.561	28.75
430.342	26.75
431.122	30.75
431.903	30.75
432.683	31.75
433.464	34.75
434.244	39.75
435.024	40.75
435.804	38.75
436.584	40.75
437.364	45.75
438.144	47.75
438.924	52.75
439.704	59.75
440.483	56.75
441.263	54.75
442.042	64.75
442.822	68.75
443.601	74.75
444.38	76.75
445.16	82.75
445.939	89.75
446.718	101.75
447.497	106.75
448.276	116.75
449.054	131.75
449.833	140.75
450.612	154.75
451.391	176.75
452.169	196.75
452.948	203.75
453.726	239.75
454.504	258.75
455.282	292.75
456.061	318.75
456.839	358.75
457.617	407.75
458.395	448.75
459.172	502.75
459.95	549.75
460.728	628.75
461.506	693.75
462.283	773.75
463.061	877.75
463.838	964.75
464.615	1077.75
465.393	1185.75
466.17	1318.75
466.947	1479.75
467.724	1647.75
468.501	1827.75
469.278	2030.75
470.055	2252.75
470.831	2496.75
471.608	2742.75
472.385	3042.75
473.161	3373.75
473.938	3684.75
474.714	4053.75
475.49	4459.75
476.266	4900.75
477.043	5370.75
477.819	5874.75
478.595	6439.75
479.371	7059.75
480.146	7735.75
480.922	8433.75
481.698	9176.75
482.473	10029.75
483.249	10959.75
484.024	11877.75
484.8	12928.75
485.575	13953.75
486.35	15245.75
487.126	16454.75
487.901	17825.75
488.676	19281.75
489.451	20855.75
490.225	22409.75
491	23994.75
491.775	25766.75
492.55	27500.75
493.324	29352.75
494.099	31103.75
494.873	32942.75
495.647	34835.75
496.422	36737.75
497.196	38523.75
497.97	40195.75
498.744	41736.75
499.518	43221.75
500.292	44659.75
501.066	45685.75
501.839	46503.75
502.613	47380.75
503.387	47840.75
504.16	48131.75
504.934	48152.75
505.707	47968.75
506.48	47534.75
507.253	46979.75
508.027	46070.75
508.8	45060.75
509.573	43928.75
510.346	42765.75
511.118	41604.75
511.891	40326.75
512.664	38615.75
513.437	37211.75
514.209	35845.75
514.982	34402.75
515.754	32935.75
516.526	31559.75
517.298	30218.75
518.071	29099.75
518.843	27914.75
519.615	26804.75
520.387	25788.75
521.159	24754.75
521.93	23692.75
522.702	22647.75
523.474	21699.75
524.245	20824.75
525.017	19886.75
525.788	19008.75
526.56	18178.75
527.331	17378.75
528.102	16462.75
528.873	15635.75
529.644	14922.75
530.415	14210.75
531.186	13467.75
531.957	12766.75
532.728	12105.75
533.498	11445.75
534.269	10864.75
535.039	10267.75
535.81	9712.75
536.58	9177.75
537.351	8695.75
538.121	8242.75
538.891	7809.75
539.661	7368.75
540.431	6940.75
541.201	6629.75
541.971	6269.75
542.741	5942.75
543.51	5619.75
544.28	5372.75
545.05	5115.75
545.819	4887.75
546.588	4639.75
547.358	4412.75
548.127	4197.75
548.896	3987.75
549.665	3781.75
550.434	3578.75
551.203	3399.75
551.972	3222.75
552.741	3034.75
553.51	2875.75
554.278	2697.75
555.047	2537.75
555.815	2416.75
556.584	2289.75
557.352	2183.75
558.121	2044.75
558.889	1929.75
559.657	1817.75
560.425	1716.75
561.193	1628.75
561.961	1534.75
562.729	1452.75
563.496	1378.75
564.264	1298.75
565.032	1226.75
565.799	1168.75
566.567	1098.75
567.334	1047.75
568.101	973.75
568.869	924.75
569.636	884.75
570.403	830.75
571.17	780.75
571.937	745.75
572.704	700.75
573.471	654.75
574.237	622.75
575.004	586.75
575.771	548.75
576.537	521.75
577.303	483.75
578.07	472.75
578.836	442.75
579.602	419.75
580.368	396.75
581.134	372.75
581.9	356.75
582.666	330.75
583.432	314.75
584.198	310.75
584.964	287.75
585.729	276.75
586.495	253.75
587.26	244.75
588.025	235.75
588.791	222.75
589.556	215.75
590.321	199.75
591.086	189.75
591.851	184.75
592.616	170.75
593.381	166.75
594.146	153.75
594.911	151.75
595.675	144.75
596.44	132.75
597.204	127.75
597.969	123.75
598.733	121.75
599.497	114.75
600.261	109.75
601.025	107.75
601.79	100.75
602.553	93.75
603.317	93.75
604.081	89.75
604.845	86.75
605.609	83.75
606.372	77.75
607.136	76.75
607.899	72.75
608.662	69.75
609.426	65.75
610.189	65.75
610.952	59.75
611.715	58.75
612.478	58.75
613.241	56.75
614.004	51.75
614.767	52.75
615.529	50.75
616.292	51.75
617.055	45.75
617.817	44.75
618.579	46.75
619.342	41.75
620.104	38.75
620.866	38.75
621.628	39.75
622.39	38.75
623.152	35.75
623.914	35.75
624.676	36.75
625.438	35.75
626.199	31.75
626.961	31.75
627.722	30.75
628.484	27.75
629.245	30.75
630.006	27.75
630.768	29.75
631.529	29.75
632.29	23.75
633.051	26.75
633.812	24.75
634.573	24.75
635.333	22.75
636.094	24.75
636.855	21.75
637.615	21.75
638.376	21.75
639.136	20.75
639.896	18.75
640.657	18.75
641.417	18.75
642.177	17.75
642.937	16.75
643.697	14.75
644.457	17.75
645.216	17.75
645.976	18.75
646.736	17.75
647.495	16.75
648.255	14.75
649.014	16.75
649.774	15.75
650.533	12.75
651.292	12.75
652.051	12.75
652.81	14.75
653.569	12.75
654.328	12.75
655.087	12.75
655.846	11.75
656.604	11.75
657.363	12.75
658.121	11.75
658.88	13.75
659.638	10.75
660.397	10.75
661.155	11.75
661.913	10.75
662.671	10.75
663.429	11.75
664.187	10.75
664.945	11.75
665.703	11.75
666.46	9.75
667.218	10.75
667.976	9.75
668.733	8.75
669.49	9.75
670.248	8.75
671.005	10.75
671.762	9.75
672.519	10.75
673.276	6.75
674.033	8.75
674.79	8.75
675.547	5.75
676.304	8.75
677.06	9.75
677.817	7.75
678.574	10.75
679.33	6.75
680.086	7.75
680.843	9.75
681.599	9.75
682.355	8.75
683.111	7.75
683.867	9.75
684.623	8.75
685.379	6.75
686.135	8.75
686.89	10.75
687.646	6.75
688.402	7.75
689.157	7.75
689.912	5.75
690.668	6.75
691.423	7.75
692.178	5.75
692.933	8.75
693.688	6.75
694.443	6.75
695.198	7.75
695.953	7.75
696.708	8.75
697.462	7.75
698.217	7.75
698.972	8.75
699.726	8.75
700.48	6.75
701.235	6.75
701.989	8.75
702.743	7.75
703.497	8.75
704.251	6.75
705.005	7.75
705.759	7.75
706.513	7.75
707.266	8.75
708.02	6.75
708.774	6.75
709.527	8.75
710.28	5.75
711.034	5.75
711.787	7.75
712.54	8.75
713.293	6.75
714.046	5.75
714.799	7.75
715.552	5.75
716.305	9.75
717.058	5.75
717.81	4.75
718.563	7.75
719.315	6.75
720.068	8.75
720.82	7.75
721.573	5.75
722.325	9.75
723.077	7.75
723.829	11.75
724.581	9.75
725.333	8.75
726.085	8.75
726.836	6.75
727.588	6.75
728.34	8.75
729.091	9.75
729.843	10.75
730.594	8.75
731.346	9.75
732.097	7.75
732.848	9.75
733.599	9.75
734.35	10.75
735.101	9.75
735.852	13.75
736.603	9.75
737.354	10.75
738.104	9.75
738.855	7.75
739.605	11.75
740.356	8.75
741.106	10.75
741.856	10.75
742.607	9.75
743.357	11.75
744.107	7.75
744.857	9.75
745.607	9.75
746.357	10.75
747.106	11.75
747.856	9.75
748.606	10.75
749.355	13.75
750.105	10.75
750.854	9.75
751.603	12.75
752.353	10.75
753.102	9.75
753.851	12.75
754.6	9.75
755.349	10.75
756.098	11.75
756.847	10.75
757.595	12.75
758.344	9.75
759.093	14.75
759.841	12.75
760.589	11.75
761.338	15.75
762.086	11.75
762.834	14.75
763.582	14.75
764.331	13.75
765.079	12.75
765.826	15.75
766.574	13.75
767.322	14.75
768.07	12.75
768.817	10.75
769.565	14.75
770.312	15.75
771.06	10.75
771.807	14.75
772.554	15.75
773.302	15.75
774.049	14.75
774.796	17.75
775.543	14.75
776.29	13.75
777.036	17.75
777.783	17.75
778.53	15.75
779.276	14.75
780.023	15.75
780.769	16.75
781.516	13.75
782.262	16.75
783.008	13.75
783.754	17.75
784.5	17.75
785.246	16.75
785.992	15.75
786.738	14.75
787.484	15.75
788.23	14.75
788.975	14.75
789.721	14.75
790.466	12.75
791.212	16.75
791.957	16.75
792.702	16.75
793.447	10.75
794.193	12.75
794.938	13.75
795.683	14.75
796.427	14.75
797.172	14.75
797.917	14.75
798.662	15.75
799.406	12.75
800.151	12.75
800.895	10.75
801.64	12.75
802.384	11.75
803.128	12.75
803.872	10.75
804.616	12.75
805.36	9.75
806.104	11.75
806.848	10.75
807.592	9.75
808.336	7.75
809.079	8.75
809.823	8.75
810.566	5.75
811.31	10.75
812.053	11.75
812.796	9.75
813.539	9.75
814.283	9.75
815.026	7.75
815.769	8.75
816.511	8.75
817.254	8.75
817.997	8.75
818.74	9.75
819.482	7.75
820.225	6.75
820.967	7.75
821.71	7.75
822.452	5.75
823.194	7.75
823.936	8.75
824.678	4.75
825.42	9.75
826.162	6.75
826.904	5.75
827.646	7.75
828.388	8.75
829.129	6.75
829.871	7.75
830.612	6.75
831.354	7.75
832.095	8.75
832.836	7.75
833.577	5.75
834.319	7.75
835.06	7.75
835.801	5.75
836.542	6.75
837.282	6.75
838.023	7.75
838.764	5.75
839.504	5.75
840.245	2.75
840.985	6.75
841.726	3.75
842.466	3.75
843.206	4.75
843.946	4.75
844.687	5.75
845.427	5.75
846.166	5.75
846.906	3.75
847.646	2.75
848.386	5.75
849.125	4.75
849.865	4.75
850.605	3.75
851.344	5.75
852.083	6.75
852.823	3.75
853.562	5.75
854.301	4.75
855.04	2.75
855.779	2.75
856.518	3.75
857.257	3.75
857.995	2.75
858.734	4.75
859.473	5.75
860.211	3.75
860.95	1.75
861.688	0.75
862.426	3.75
863.165	3.75
863.903	6.75
864.641	2.75
865.379	2.75
866.117	1.75
866.855	-0.25
867.593	3.75
868.33	3.75
869.068	2.75
869.806	2.75
870.543	3.75
871.28	2.75
872.018	3.75
872.755	2.75
873.492	2.75
874.229	3.75
874.967	1.75
875.703	-0.25
876.44	1.75
877.177	2.75
877.914	-0.25
878.651	0.75
879.387	3.75
880.124	2.75
880.86	1.75
881.597	2.75
882.333	-0.25
883.069	0.75
883.806	0.75
884.542	1.75
885.278	2.75
886.014	0.75
886.749	1.75
887.485	2.75
888.221	1.75
888.957	2.75
889.692	-0.25
890.428	1.75
891.163	2.75
891.899	0.75
892.634	0.75
893.369	2.75
894.104	2.75
894.839	0.75
895.574	0.75
896.309	0.75
897.044	-0.25
897.779	0.75
898.514	-1.25
899.248	2.75
899.983	0.75
900.717	2.75
901.452	1.75
902.186	1.75
902.92	1.75
903.654	0.75
904.389	0.75
905.123	0.75
905.857	-2.25
906.59	1.75
907.324	-0.25
908.058	0.75
908.792	0.75
909.525	1.75
910.259	0.75
910.992	0.75
911.726	2.75
912.459	1.75
913.192	-1.25
913.925	2.75
914.658	-0.25
915.391	0.75
916.124	0.75
916.857	0.75
917.59	0.75
918.323	0.75
919.055	0.75
919.788	-1.25
920.521	-0.25
921.253	-0.25
921.985	0.75
922.718	2.75
923.45	-0.25
924.182	-0.25
924.914	0.75
925.646	0.75
926.378	1.75
927.11	1.75
927.841	0.75
928.573	-1.25
929.305	-0.25
930.036	1.75
930.768	-1.25
931.499	0.75
932.23	0.75
932.962	-0.25
933.693	-1.25
934.424	-0.25
935.155	-1.25
935.886	0.75
936.617	-0.25
937.348	-2.25
938.078	-2.25
938.809	-1.25
939.54	1.75
940.27	-0.25
941.001	0.75
941.731	-1.25
942.461	-0.25
943.191	-0.25
943.922	0.75
944.652	-0.25
945.382	1.75
946.112	1.75
946.841	-1.25
947.571	-0.25
948.301	0.75
949.031	-0.25
949.76	0.75
950.49	0.75
951.219	-0.25
951.948	0.75
952.678	1.75
953.407	0.75
954.136	0.75
954.865	-0.25
955.594	-1.25
956.323	-1.25
957.052	1.75
957.78	2.75
958.509	-0.25
959.238	0.75
959.966	-0.25
960.695	1.75
961.423	-1.25
962.151	0.75
962.88	-1.25
963.608	1.75
964.336	0.75
965.064	1.75
965.792	0.75
966.52	-1.25
967.247	-0.25
967.975	-0.25
968.703	-0.25
969.43	-1.25
970.158	-1.25
970.885	-0.25
971.613	0.75
972.34	-0.25
973.067	1.75
973.794	1.75
974.521	0.75
975.248	0.75
975.975	0.75
976.702	0.75
977.429	1.75
978.156	-1.25
978.882	2.75
979.609	0.75
980.335	-1.25
981.062	1.75
981.788	1.75
982.514	-1.25
983.24	1.75
983.967	-1.25
984.693	0.75
985.419	0.75
986.144	-1.25
986.87	-0.25
987.596	-0.25
988.322	-0.25
989.047	0.75
989.773	0.75
990.498	0.75
991.224	-0.25
991.949	0.75
992.674	-1.25
993.399	0.75
994.124	-1.25
994.849	-1.25
995.574	-1.25
996.299	-0.25
997.024	1.75
997.749	-3.25
998.473	1.75
999.198	-0.25
999.922	1.75
1000.647	1.75
1001.371	5.75
1002.095	-1.25
1002.82	-1.25
1003.544	-2.25
1004.268	5.75
1004.992	4.75
1005.716	4.75
1006.439	3.75
1007.163	3.75
1007.887	4.75
1008.611	0.75
1009.334	-1.25
1010.058	-1.25
1010.781	0.75
1011.504	0.75
1012.228	0.75
1012.951	1.75
1013.674	-3.25
1014.397	0.75
1015.12	-0.25
