节点500_705_QEPB04081__247__20-49-25-479.txt的数据

Date: Wed Nov 12 20:49:25 CST 2025
User: PC
Spectrometer: QEPB0408
触发模式: 0
积分时间 (秒): 1.000000E-2
Scans to average: 1
启用暗噪声校正: true
启用非线性校正: false
滑动平均宽度: 0
X轴模式: Wavelengths
Number of Pixels in Spectrum: 1044
>>>>>Begin Spectral Data<<<<<
220.843	6.12
221.644	8.12
222.444	7.12
223.244	4.12
224.045	3.12
224.845	10.12
225.645	9.12
226.445	6.12
227.245	10.12
228.045	8.12
228.845	9.12
229.645	6.12
230.444	10.12
231.244	13.12
232.043	8.12
232.843	11.12
233.642	8.12
234.442	8.12
235.241	11.12
236.04	9.12
236.839	11.12
237.638	15.12
238.437	11.12
239.236	10.12
240.035	14.12
240.833	14.12
241.632	11.12
242.43	11.12
243.229	11.12
244.027	15.12
244.826	14.12
245.624	14.12
246.422	14.12
247.22	15.12
248.018	16.12
248.816	18.12
249.614	16.12
250.412	17.12
251.21	16.12
252.007	19.12
252.805	18.12
253.602	20.12
254.4	17.12
255.197	17.12
255.994	19.12
256.791	20.12
257.589	19.12
258.386	19.12
259.183	24.12
259.979	23.12
260.776	27.12
261.573	25.12
262.37	24.12
263.166	26.12
263.963	27.12
264.759	31.12
265.556	30.12
266.352	28.12
267.148	30.12
267.944	31.12
268.74	29.12
269.536	29.12
270.332	34.12
271.128	33.12
271.924	34.12
272.719	35.12
273.515	33.12
274.311	33.12
275.106	37.12
275.901	33.12
276.697	33.12
277.492	33.12
278.287	35.12
279.082	34.12
279.877	33.12
280.672	36.12
281.467	35.12
282.262	33.12
283.056	36.12
283.851	35.12
284.646	36.12
285.44	35.12
286.234	32.12
287.029	37.12
287.823	35.12
288.617	33.12
289.411	34.12
290.205	30.12
290.999	31.12
291.793	31.12
292.587	31.12
293.381	34.12
294.174	32.12
294.968	27.12
295.761	29.12
296.555	27.12
297.348	27.12
298.141	25.12
298.935	27.12
299.728	26.12
300.521	26.12
301.314	27.12
302.107	22.12
302.899	23.12
303.692	20.12
304.485	22.12
305.277	21.12
306.07	21.12
306.862	23.12
307.655	23.12
308.447	22.12
309.239	21.12
310.031	22.12
310.823	21.12
311.615	17.12
312.407	16.12
313.199	17.12
313.991	19.12
314.783	17.12
315.574	18.12
316.366	15.12
317.157	17.12
317.949	15.12
318.74	15.12
319.531	15.12
320.322	14.12
321.113	15.12
321.904	14.12
322.695	15.12
323.486	12.12
324.277	15.12
325.068	11.12
325.858	13.12
326.649	12.12
327.439	13.12
328.23	13.12
329.02	10.12
329.81	13.12
330.6	9.12
331.391	15.12
332.181	15.12
332.971	12.12
333.76	11.12
334.55	13.12
335.34	13.12
336.13	11.12
336.919	11.12
337.709	11.12
338.498	12.12
339.287	13.12
340.077	12.12
340.866	12.12
341.655	12.12
342.444	12.12
343.233	11.12
344.022	13.12
344.811	13.12
345.6	12.12
346.388	11.12
347.177	11.12
347.965	11.12
348.754	11.12
349.542	11.12
350.33	11.12
351.119	10.12
351.907	11.12
352.695	9.12
353.483	11.12
354.271	10.12
355.059	12.12
355.846	11.12
356.634	11.12
357.422	10.12
358.209	10.12
358.997	10.12
359.784	12.12
360.571	9.12
361.359	11.12
362.146	11.12
362.933	10.12
363.72	10.12
364.507	10.12
365.294	9.12
366.081	11.12
366.867	12.12
367.654	11.12
368.44	9.12
369.227	11.12
370.013	11.12
370.8	10.12
371.586	7.12
372.372	8.12
373.158	10.12
373.944	10.12
374.73	11.12
375.516	12.12
376.302	8.12
377.088	10.12
377.873	9.12
378.659	11.12
379.445	7.12
380.23	10.12
381.015	10.12
381.801	10.12
382.586	11.12
383.371	7.12
384.156	8.12
384.941	12.12
385.726	10.12
386.511	13.12
387.296	14.12
388.08	12.12
388.865	12.12
389.649	10.12
390.434	11.12
391.218	9.12
392.003	12.12
392.787	12.12
393.571	12.12
394.355	13.12
395.139	14.12
395.923	11.12
396.707	12.12
397.491	15.12
398.274	12.12
399.058	15.12
399.842	13.12
400.625	13.12
401.408	13.12
402.192	16.12
402.975	15.12
403.758	15.12
404.541	16.12
405.324	15.12
406.107	16.12
406.89	15.12
407.673	18.12
408.456	15.12
409.238	16.12
410.021	16.12
410.803	15.12
411.586	17.12
412.368	19.12
413.151	15.12
413.933	20.12
414.715	21.12
415.497	18.12
416.279	21.12
417.061	19.12
417.843	21.12
418.624	21.12
419.406	19.12
420.188	20.12
420.969	20.12
421.751	24.12
422.532	19.12
423.313	24.12
424.095	23.12
424.876	23.12
425.657	27.12
426.438	26.12
427.219	25.12
428	27.12
428.78	31.12
429.561	31.12
430.342	32.12
431.122	32.12
431.903	35.12
432.683	33.12
433.464	35.12
434.244	38.12
435.024	38.12
435.804	41.12
436.584	40.12
437.364	45.12
438.144	50.12
438.924	49.12
439.704	51.12
440.483	57.12
441.263	64.12
442.042	67.12
442.822	71.12
443.601	74.12
444.38	79.12
445.16	84.12
445.939	95.12
446.718	99.12
447.497	110.12
448.276	119.12
449.054	128.12
449.833	146.12
450.612	157.12
451.391	176.12
452.169	195.12
452.948	209.12
453.726	233.12
454.504	253.12
455.282	299.12
456.061	324.12
456.839	356.12
457.617	409.12
458.395	439.12
459.172	499.12
459.95	562.12
460.728	619.12
461.506	699.12
462.283	763.12
463.061	864.12
463.838	963.12
464.615	1073.12
465.393	1189.12
466.17	1327.12
466.947	1471.12
467.724	1648.12
468.501	1819.12
469.278	2014.12
470.055	2235.12
470.831	2492.12
471.608	2765.12
472.385	3041.12
473.161	3347.12
473.938	3676.12
474.714	4069.12
475.49	4436.12
476.266	4899.12
477.043	5365.12
477.819	5891.12
478.595	6456.12
479.371	7064.12
480.146	7744.12
480.922	8404.12
481.698	9174.12
482.473	10056.12
483.249	10914.12
484.024	11896.12
484.8	12914.12
485.575	14042.12
486.35	15307.12
487.126	16542.12
487.901	17859.12
488.676	19355.12
489.451	20842.12
490.225	22529.12
491	24140.12
491.775	25835.12
492.55	27694.12
493.324	29450.12
494.099	31278.12
494.873	33121.12
495.647	35029.12
496.422	36934.12
497.196	38667.12
497.97	40281.12
498.744	41845.12
499.518	43437.12
500.292	44808.12
501.066	45847.12
501.839	46690.12
502.613	47309.12
503.387	47889.12
504.16	48196.12
504.934	48261.12
505.707	48107.12
506.48	47579.12
507.253	46948.12
508.027	46047.12
508.8	45068.12
509.573	43936.12
510.346	42765.12
511.118	41612.12
511.891	40267.12
512.664	38698.12
513.437	37162.12
514.209	35772.12
514.982	34319.12
515.754	32969.12
516.526	31491.12
517.298	30252.12
518.071	29094.12
518.843	27831.12
519.615	26761.12
520.387	25729.12
521.159	24710.12
521.93	23590.12
522.702	22678.12
523.474	21682.12
524.245	20804.12
525.017	19779.12
525.788	18927.12
526.56	18162.12
527.331	17327.12
528.102	16443.12
528.873	15599.12
529.644	14896.12
530.415	14184.12
531.186	13446.12
531.957	12756.12
532.728	12096.12
533.498	11444.12
534.269	10813.12
535.039	10223.12
535.81	9667.12
536.58	9141.12
537.351	8627.12
538.121	8232.12
538.891	7766.12
539.661	7359.12
540.431	6962.12
541.201	6613.12
541.971	6278.12
542.741	5936.12
543.51	5637.12
544.28	5349.12
545.05	5081.12
545.819	4833.12
546.588	4647.12
547.358	4401.12
548.127	4202.12
548.896	3970.12
549.665	3774.12
550.434	3567.12
551.203	3378.12
551.972	3217.12
552.741	3042.12
553.51	2863.12
554.278	2707.12
555.047	2554.12
555.815	2404.12
556.584	2275.12
557.352	2134.12
558.121	2026.12
558.889	1905.12
559.657	1807.12
560.425	1714.12
561.193	1637.12
561.961	1540.12
562.729	1460.12
563.496	1369.12
564.264	1293.12
565.032	1228.12
565.799	1155.12
566.567	1108.12
567.334	1036.12
568.101	985.12
568.869	933.12
569.636	871.12
570.403	825.12
571.17	789.12
571.937	732.12
572.704	698.12
573.471	658.12
574.237	621.12
575.004	582.12
575.771	555.12
576.537	515.12
577.303	486.12
578.07	465.12
578.836	435.12
579.602	421.12
580.368	394.12
581.134	375.12
581.9	357.12
582.666	342.12
583.432	319.12
584.198	307.12
584.964	295.12
585.729	278.12
586.495	258.12
587.26	246.12
588.025	243.12
588.791	220.12
589.556	206.12
590.321	201.12
591.086	191.12
591.851	184.12
592.616	172.12
593.381	167.12
594.146	155.12
594.911	148.12
595.675	141.12
596.44	137.12
597.204	136.12
597.969	126.12
598.733	124.12
599.497	114.12
600.261	109.12
601.025	109.12
601.79	105.12
602.553	96.12
603.317	91.12
604.081	89.12
604.845	86.12
605.609	82.12
606.372	81.12
607.136	77.12
607.899	67.12
608.662	69.12
609.426	67.12
610.189	68.12
610.952	63.12
611.715	58.12
612.478	63.12
613.241	57.12
614.004	55.12
614.767	53.12
615.529	50.12
616.292	49.12
617.055	45.12
617.817	48.12
618.579	41.12
619.342	41.12
620.104	43.12
620.866	40.12
621.628	37.12
622.39	37.12
623.152	38.12
623.914	37.12
624.676	32.12
625.438	34.12
626.199	31.12
626.961	32.12
627.722	27.12
628.484	28.12
629.245	27.12
630.006	27.12
630.768	26.12
631.529	25.12
632.29	26.12
633.051	24.12
633.812	26.12
634.573	25.12
635.333	26.12
636.094	22.12
636.855	22.12
637.615	21.12
638.376	20.12
639.136	19.12
639.896	22.12
640.657	19.12
641.417	18.12
642.177	19.12
642.937	17.12
643.697	18.12
644.457	18.12
645.216	18.12
645.976	19.12
646.736	14.12
647.495	17.12
648.255	15.12
649.014	14.12
649.774	13.12
650.533	15.12
651.292	15.12
652.051	11.12
652.81	13.12
653.569	14.12
654.328	13.12
655.087	11.12
655.846	10.12
656.604	13.12
657.363	11.12
658.121	13.12
658.88	11.12
659.638	13.12
660.397	11.12
661.155	11.12
661.913	10.12
662.671	11.12
663.429	9.12
664.187	12.12
664.945	9.12
665.703	9.12
666.46	12.12
667.218	12.12
667.976	8.12
668.733	12.12
669.49	9.12
670.248	12.12
671.005	10.12
671.762	9.12
672.519	10.12
673.276	10.12
674.033	9.12
674.79	8.12
675.547	8.12
676.304	9.12
677.06	9.12
677.817	8.12
678.574	9.12
679.33	9.12
680.086	9.12
680.843	9.12
681.599	10.12
682.355	13.12
683.111	8.12
683.867	9.12
684.623	9.12
685.379	7.12
686.135	8.12
686.89	9.12
687.646	8.12
688.402	9.12
689.157	9.12
689.912	6.12
690.668	8.12
691.423	8.12
692.178	7.12
692.933	8.12
693.688	8.12
694.443	8.12
695.198	5.12
695.953	9.12
696.708	8.12
697.462	6.12
698.217	8.12
698.972	8.12
699.726	9.12
700.48	10.12
701.235	6.12
701.989	8.12
702.743	7.12
703.497	11.12
704.251	7.12
705.005	7.12
705.759	8.12
706.513	8.12
707.266	7.12
708.02	8.12
708.774	8.12
709.527	8.12
710.28	7.12
711.034	5.12
711.787	9.12
712.54	8.12
713.293	7.12
714.046	9.12
714.799	8.12
715.552	7.12
716.305	9.12
717.058	7.12
717.81	7.12
718.563	7.12
719.315	9.12
720.068	6.12
720.82	9.12
721.573	10.12
722.325	9.12
723.077	8.12
723.829	8.12
724.581	9.12
725.333	8.12
726.085	6.12
726.836	9.12
727.588	11.12
728.34	9.12
729.091	9.12
729.843	10.12
730.594	10.12
731.346	11.12
732.097	8.12
732.848	8.12
733.599	7.12
734.35	8.12
735.101	12.12
735.852	10.12
736.603	8.12
737.354	11.12
738.104	8.12
738.855	9.12
739.605	13.12
740.356	8.12
741.106	9.12
741.856	11.12
742.607	12.12
743.357	11.12
744.107	9.12
744.857	11.12
745.607	9.12
746.357	8.12
747.106	10.12
747.856	11.12
748.606	13.12
749.355	12.12
750.105	11.12
750.854	10.12
751.603	11.12
752.353	11.12
753.102	11.12
753.851	11.12
754.6	11.12
755.349	13.12
756.098	12.12
756.847	10.12
757.595	13.12
758.344	11.12
759.093	12.12
759.841	13.12
760.589	15.12
761.338	13.12
762.086	13.12
762.834	12.12
763.582	11.12
764.331	16.12
765.079	16.12
765.826	12.12
766.574	12.12
767.322	14.12
768.07	15.12
768.817	13.12
769.565	15.12
770.312	16.12
771.06	15.12
771.807	15.12
772.554	16.12
773.302	16.12
774.049	15.12
774.796	16.12
775.543	16.12
776.29	15.12
777.036	17.12
777.783	15.12
778.53	14.12
779.276	17.12
780.023	17.12
780.769	14.12
781.516	16.12
782.262	15.12
783.008	17.12
783.754	17.12
784.5	17.12
785.246	17.12
785.992	16.12
786.738	17.12
787.484	17.12
788.23	11.12
788.975	15.12
789.721	17.12
790.466	15.12
791.212	15.12
791.957	15.12
792.702	13.12
793.447	15.12
794.193	14.12
794.938	14.12
795.683	12.12
796.427	13.12
797.172	13.12
797.917	15.12
798.662	13.12
799.406	13.12
800.151	15.12
800.895	12.12
801.64	11.12
802.384	12.12
803.128	12.12
803.872	12.12
804.616	11.12
805.36	11.12
806.104	12.12
806.848	13.12
807.592	12.12
808.336	9.12
809.079	11.12
809.823	12.12
810.566	11.12
811.31	9.12
812.053	7.12
812.796	10.12
813.539	9.12
814.283	7.12
815.026	7.12
815.769	10.12
816.511	8.12
817.254	8.12
817.997	6.12
818.74	7.12
819.482	10.12
820.225	7.12
820.967	7.12
821.71	7.12
822.452	7.12
823.194	7.12
823.936	5.12
824.678	7.12
825.42	8.12
826.162	7.12
826.904	7.12
827.646	7.12
828.388	8.12
829.129	6.12
829.871	8.12
830.612	7.12
831.354	6.12
832.095	6.12
832.836	5.12
833.577	4.12
834.319	7.12
835.06	8.12
835.801	6.12
836.542	5.12
837.282	8.12
838.023	3.12
838.764	5.12
839.504	8.12
840.245	5.12
840.985	6.12
841.726	4.12
842.466	3.12
843.206	6.12
843.946	8.12
844.687	4.12
845.427	4.12
846.166	7.12
846.906	5.12
847.646	6.12
848.386	5.12
849.125	6.12
849.865	5.12
850.605	3.12
851.344	6.12
852.083	1.12
852.823	7.12
853.562	4.12
854.301	3.12
855.04	5.12
855.779	5.12
856.518	6.12
857.257	5.12
857.995	3.12
858.734	4.12
859.473	3.12
860.211	5.12
860.95	3.12
861.688	6.12
862.426	3.12
863.165	4.12
863.903	5.12
864.641	2.12
865.379	3.12
866.117	2.12
866.855	3.12
867.593	4.12
868.33	3.12
869.068	3.12
869.806	3.12
870.543	3.12
871.28	4.12
872.018	2.12
872.755	3.12
873.492	3.12
874.229	3.12
874.967	3.12
875.703	0.12
876.44	3.12
877.177	3.12
877.914	4.12
878.651	2.12
879.387	3.12
880.124	0.12
880.86	4.12
881.597	4.12
882.333	0.12
883.069	3.12
883.806	2.12
884.542	0.12
885.278	1.12
886.014	2.12
886.749	1.12
887.485	-0.88
888.221	1.12
888.957	0.12
889.692	1.12
890.428	3.12
891.163	1.12
891.899	1.12
892.634	1.12
893.369	3.12
894.104	0.12
894.839	0.12
895.574	3.12
896.309	3.12
897.044	2.12
897.779	-0.88
898.514	1.12
899.248	1.12
899.983	1.12
900.717	1.12
901.452	-0.88
902.186	1.12
902.92	0.12
903.654	0.12
904.389	0.12
905.123	-0.88
905.857	1.12
906.59	-0.88
907.324	3.12
908.058	2.12
908.792	1.12
909.525	1.12
910.259	2.12
910.992	0.12
911.726	0.12
912.459	2.12
913.192	0.12
913.925	0.12
914.658	0.12
915.391	-0.88
916.124	3.12
916.857	3.12
917.59	1.12
918.323	1.12
919.055	-0.88
919.788	1.12
920.521	-0.88
921.253	0.12
921.985	1.12
922.718	0.12
923.45	3.12
924.182	1.12
924.914	1.12
925.646	1.12
926.378	2.12
927.11	2.12
927.841	0.12
928.573	2.12
929.305	-1.88
930.036	0.12
930.768	0.12
931.499	1.12
932.23	3.12
932.962	-0.88
933.693	2.12
934.424	0.12
935.155	0.12
935.886	1.12
936.617	0.12
937.348	1.12
938.078	1.12
938.809	1.12
939.54	1.12
940.27	0.12
941.001	2.12
941.731	-0.88
942.461	-0.88
943.191	-1.88
943.922	0.12
944.652	0.12
945.382	-1.88
946.112	1.12
946.841	-0.88
947.571	1.12
948.301	-0.88
949.031	-0.88
949.76	3.12
950.49	-1.88
951.219	1.12
951.948	-0.88
952.678	1.12
953.407	1.12
954.136	0.12
954.865	4.12
955.594	2.12
956.323	2.12
957.052	3.12
957.78	-0.88
958.509	2.12
959.238	3.12
959.966	2.12
960.695	-0.88
961.423	1.12
962.151	0.12
962.88	1.12
963.608	0.12
964.336	1.12
965.064	0.12
965.792	1.12
966.52	-0.88
967.247	1.12
967.975	0.12
968.703	0.12
969.43	-0.88
970.158	1.12
970.885	-0.88
971.613	-0.88
972.34	3.12
973.067	0.12
973.794	0.12
974.521	0.12
975.248	0.12
975.975	-0.88
976.702	-0.88
977.429	1.12
978.156	1.12
978.882	2.12
979.609	0.12
980.335	1.12
981.062	3.12
981.788	1.12
982.514	1.12
983.24	1.12
983.967	0.12
984.693	1.12
985.419	0.12
986.144	-0.88
986.87	-0.88
987.596	0.12
988.322	-0.88
989.047	1.12
989.773	3.12
990.498	0.12
991.224	1.12
991.949	-1.88
992.674	-0.88
993.399	3.12
994.124	3.12
994.849	0.12
995.574	0.12
996.299	1.12
997.024	0.12
997.749	1.12
998.473	-1.88
999.198	1.12
999.922	-1.88
1000.647	1.12
1001.371	3.12
1002.095	0.12
1002.82	0.12
1003.544	-1.88
1004.268	4.12
1004.992	3.12
1005.716	2.12
1006.439	7.12
1007.163	5.12
1007.887	5.12
1008.611	3.12
1009.334	0.12
1010.058	-0.88
1010.781	0.12
1011.504	1.12
1012.228	2.12
1012.951	-0.88
1013.674	2.12
1014.397	-2.88
1015.12	0.12
