节点500_705_QEPB04081__679__20-55-35-809.txt的数据

Date: Wed Nov 12 20:55:35 CST 2025
User: PC
Spectrometer: QEPB0408
触发模式: 0
积分时间 (秒): 1.000000E-2
Scans to average: 1
启用暗噪声校正: true
启用非线性校正: false
滑动平均宽度: 0
X轴模式: Wavelengths
Number of Pixels in Spectrum: 1044
>>>>>Begin Spectral Data<<<<<
220.843	5.62
221.644	5.62
222.444	6.62
223.244	6.62
224.045	7.62
224.845	8.62
225.645	4.62
226.445	10.62
227.245	7.62
228.045	8.62
228.845	8.62
229.645	6.62
230.444	7.62
231.244	10.62
232.043	11.62
232.843	7.62
233.642	8.62
234.442	10.62
235.241	9.62
236.04	7.62
236.839	8.62
237.638	11.62
238.437	10.62
239.236	10.62
240.035	11.62
240.833	11.62
241.632	13.62
242.43	12.62
243.229	9.62
244.027	13.62
244.826	12.62
245.624	12.62
246.422	13.62
247.22	14.62
248.018	14.62
248.816	12.62
249.614	13.62
250.412	12.62
251.21	18.62
252.007	14.62
252.805	15.62
253.602	15.62
254.4	15.62
255.197	18.62
255.994	18.62
256.791	19.62
257.589	16.62
258.386	19.62
259.183	18.62
259.979	20.62
260.776	18.62
261.573	21.62
262.37	19.62
263.166	21.62
263.963	23.62
264.759	24.62
265.556	24.62
266.352	25.62
267.148	23.62
267.944	26.62
268.74	26.62
269.536	27.62
270.332	29.62
271.128	26.62
271.924	30.62
272.719	28.62
273.515	27.62
274.311	28.62
275.106	28.62
275.901	29.62
276.697	31.62
277.492	32.62
278.287	29.62
279.082	30.62
279.877	30.62
280.672	29.62
281.467	34.62
282.262	31.62
283.056	30.62
283.851	32.62
284.646	29.62
285.44	31.62
286.234	33.62
287.029	33.62
287.823	29.62
288.617	33.62
289.411	30.62
290.205	28.62
290.999	31.62
291.793	32.62
292.587	28.62
293.381	31.62
294.174	26.62
294.968	29.62
295.761	26.62
296.555	26.62
297.348	26.62
298.141	24.62
298.935	26.62
299.728	25.62
300.521	24.62
301.314	26.62
302.107	24.62
302.899	23.62
303.692	23.62
304.485	25.62
305.277	20.62
306.07	23.62
306.862	23.62
307.655	20.62
308.447	22.62
309.239	20.62
310.031	20.62
310.823	19.62
311.615	20.62
312.407	17.62
313.199	15.62
313.991	19.62
314.783	17.62
315.574	17.62
316.366	15.62
317.157	16.62
317.949	16.62
318.74	16.62
319.531	13.62
320.322	13.62
321.113	14.62
321.904	11.62
322.695	15.62
323.486	13.62
324.277	13.62
325.068	14.62
325.858	12.62
326.649	15.62
327.439	14.62
328.23	11.62
329.02	12.62
329.81	13.62
330.6	13.62
331.391	12.62
332.181	10.62
332.971	14.62
333.76	11.62
334.55	15.62
335.34	12.62
336.13	14.62
336.919	13.62
337.709	12.62
338.498	12.62
339.287	10.62
340.077	10.62
340.866	10.62
341.655	9.62
342.444	11.62
343.233	14.62
344.022	12.62
344.811	11.62
345.6	9.62
346.388	11.62
347.177	7.62
347.965	9.62
348.754	10.62
349.542	11.62
350.33	11.62
351.119	12.62
351.907	11.62
352.695	10.62
353.483	11.62
354.271	10.62
355.059	11.62
355.846	8.62
356.634	10.62
357.422	11.62
358.209	9.62
358.997	11.62
359.784	9.62
360.571	13.62
361.359	10.62
362.146	9.62
362.933	11.62
363.72	8.62
364.507	10.62
365.294	8.62
366.081	10.62
366.867	10.62
367.654	12.62
368.44	8.62
369.227	9.62
370.013	10.62
370.8	10.62
371.586	7.62
372.372	10.62
373.158	10.62
373.944	12.62
374.73	10.62
375.516	10.62
376.302	11.62
377.088	9.62
377.873	6.62
378.659	11.62
379.445	8.62
380.23	12.62
381.015	9.62
381.801	9.62
382.586	9.62
383.371	10.62
384.156	9.62
384.941	10.62
385.726	11.62
386.511	13.62
387.296	11.62
388.08	10.62
388.865	12.62
389.649	12.62
390.434	9.62
391.218	11.62
392.003	11.62
392.787	11.62
393.571	11.62
394.355	14.62
395.139	11.62
395.923	10.62
396.707	11.62
397.491	11.62
398.274	12.62
399.058	10.62
399.842	11.62
400.625	15.62
401.408	13.62
402.192	13.62
402.975	14.62
403.758	15.62
404.541	13.62
405.324	14.62
406.107	13.62
406.89	15.62
407.673	15.62
408.456	15.62
409.238	14.62
410.021	13.62
410.803	16.62
411.586	14.62
412.368	18.62
413.151	16.62
413.933	18.62
414.715	18.62
415.497	17.62
416.279	17.62
417.061	20.62
417.843	18.62
418.624	19.62
419.406	18.62
420.188	17.62
420.969	19.62
421.751	21.62
422.532	23.62
423.313	21.62
424.095	24.62
424.876	24.62
425.657	24.62
426.438	27.62
427.219	24.62
428	29.62
428.78	27.62
429.561	30.62
430.342	29.62
431.122	31.62
431.903	35.62
432.683	34.62
433.464	36.62
434.244	37.62
435.024	42.62
435.804	41.62
436.584	43.62
437.364	47.62
438.144	51.62
438.924	49.62
439.704	53.62
440.483	58.62
441.263	66.62
442.042	68.62
442.822	74.62
443.601	74.62
444.38	83.62
445.16	94.62
445.939	102.62
446.718	111.62
447.497	117.62
448.276	133.62
449.054	140.62
449.833	160.62
450.612	175.62
451.391	188.62
452.169	214.62
452.948	236.62
453.726	267.62
454.504	291.62
455.282	316.62
456.061	361.62
456.839	394.62
457.617	443.62
458.395	492.62
459.172	551.62
459.95	605.62
460.728	673.62
461.506	754.62
462.283	837.62
463.061	924.62
463.838	1027.62
464.615	1146.62
465.393	1248.62
466.17	1394.62
466.947	1547.62
467.724	1698.62
468.501	1884.62
469.278	2083.62
470.055	2291.62
470.831	2523.62
471.608	2757.62
472.385	3020.62
473.161	3330.62
473.938	3625.62
474.714	3958.62
475.49	4333.62
476.266	4725.62
477.043	5150.62
477.819	5579.62
478.595	6080.62
479.371	6588.62
480.146	7124.62
480.922	7743.62
481.698	8389.62
482.473	9114.62
483.249	9816.62
484.024	10661.62
484.8	11483.62
485.575	12328.62
486.35	13319.62
487.126	14384.62
487.901	15449.62
488.676	16575.62
489.451	17852.62
490.225	19148.62
491	20504.62
491.775	21853.62
492.55	23297.62
493.324	24822.62
494.099	26314.62
494.873	27894.62
495.647	29485.62
496.422	31021.62
497.196	32673.62
497.97	34174.62
498.744	35612.62
499.518	37134.62
500.292	38485.62
501.066	39496.62
501.839	40551.62
502.613	41459.62
503.387	42365.62
504.16	42948.62
504.934	43349.62
505.707	43646.62
506.48	43695.62
507.253	43381.62
508.027	43150.62
508.8	42593.62
509.573	41986.62
510.346	41221.62
511.118	40449.62
511.891	39437.62
512.664	38206.62
513.437	36984.62
514.209	35855.62
514.982	34579.62
515.754	33294.62
516.526	31973.62
517.298	30871.62
518.071	29672.62
518.843	28549.62
519.615	27407.62
520.387	26305.62
521.159	25276.62
521.93	24302.62
522.702	23244.62
523.474	22395.62
524.245	21450.62
525.017	20488.62
525.788	19692.62
526.56	18957.62
527.331	18162.62
528.102	17252.62
528.873	16406.62
529.644	15748.62
530.415	14974.62
531.186	14282.62
531.957	13603.62
532.728	12888.62
533.498	12296.62
534.269	11618.62
535.039	11049.62
535.81	10445.62
536.58	9913.62
537.351	9402.62
538.121	8906.62
538.891	8434.62
539.661	7974.62
540.431	7519.62
541.201	7195.62
541.971	6780.62
542.741	6402.62
543.51	6102.62
544.28	5790.62
545.05	5528.62
545.819	5281.62
546.588	5057.62
547.358	4792.62
548.127	4546.62
548.896	4317.62
549.665	4094.62
550.434	3902.62
551.203	3713.62
551.972	3511.62
552.741	3325.62
553.51	3142.62
554.278	2975.62
555.047	2798.62
555.815	2674.62
556.584	2520.62
557.352	2390.62
558.121	2262.62
558.889	2135.62
559.657	2021.62
560.425	1913.62
561.193	1808.62
561.961	1718.62
562.729	1606.62
563.496	1528.62
564.264	1464.62
565.032	1370.62
565.799	1291.62
566.567	1218.62
567.334	1165.62
568.101	1093.62
568.869	1034.62
569.636	980.62
570.403	914.62
571.17	865.62
571.937	812.62
572.704	776.62
573.471	733.62
574.237	691.62
575.004	640.62
575.771	614.62
576.537	584.62
577.303	540.62
578.07	526.62
578.836	486.62
579.602	464.62
580.368	437.62
581.134	415.62
581.9	391.62
582.666	377.62
583.432	359.62
584.198	346.62
584.964	321.62
585.729	306.62
586.495	290.62
587.26	277.62
588.025	262.62
588.791	248.62
589.556	235.62
590.321	216.62
591.086	210.62
591.851	200.62
592.616	189.62
593.381	181.62
594.146	170.62
594.911	161.62
595.675	156.62
596.44	152.62
597.204	145.62
597.969	136.62
598.733	133.62
599.497	126.62
600.261	120.62
601.025	113.62
601.79	113.62
602.553	107.62
603.317	104.62
604.081	96.62
604.845	92.62
605.609	90.62
606.372	85.62
607.136	86.62
607.899	79.62
608.662	72.62
609.426	73.62
610.189	72.62
610.952	70.62
611.715	66.62
612.478	63.62
613.241	62.62
614.004	61.62
614.767	57.62
615.529	52.62
616.292	54.62
617.055	48.62
617.817	51.62
618.579	49.62
619.342	44.62
620.104	45.62
620.866	40.62
621.628	40.62
622.39	40.62
623.152	38.62
623.914	40.62
624.676	34.62
625.438	36.62
626.199	35.62
626.961	33.62
627.722	36.62
628.484	32.62
629.245	31.62
630.006	30.62
630.768	29.62
631.529	27.62
632.29	27.62
633.051	27.62
633.812	25.62
634.573	25.62
635.333	21.62
636.094	24.62
636.855	20.62
637.615	20.62
638.376	22.62
639.136	21.62
639.896	17.62
640.657	19.62
641.417	20.62
642.177	17.62
642.937	17.62
643.697	19.62
644.457	19.62
645.216	18.62
645.976	15.62
646.736	19.62
647.495	16.62
648.255	16.62
649.014	15.62
649.774	13.62
650.533	12.62
651.292	13.62
652.051	13.62
652.81	14.62
653.569	12.62
654.328	14.62
655.087	12.62
655.846	15.62
656.604	11.62
657.363	15.62
658.121	12.62
658.88	8.62
659.638	10.62
660.397	11.62
661.155	11.62
661.913	13.62
662.671	11.62
663.429	10.62
664.187	11.62
664.945	9.62
665.703	13.62
666.46	8.62
667.218	11.62
667.976	8.62
668.733	10.62
669.49	11.62
670.248	10.62
671.005	10.62
671.762	9.62
672.519	10.62
673.276	9.62
674.033	11.62
674.79	8.62
675.547	10.62
676.304	10.62
677.06	8.62
677.817	11.62
678.574	8.62
679.33	11.62
680.086	8.62
680.843	10.62
681.599	8.62
682.355	9.62
683.111	8.62
683.867	11.62
684.623	8.62
685.379	7.62
686.135	6.62
686.89	8.62
687.646	9.62
688.402	8.62
689.157	7.62
689.912	9.62
690.668	8.62
691.423	7.62
692.178	5.62
692.933	7.62
693.688	7.62
694.443	7.62
695.198	6.62
695.953	8.62
696.708	7.62
697.462	8.62
698.217	7.62
698.972	8.62
699.726	8.62
700.48	6.62
701.235	7.62
701.989	8.62
702.743	9.62
703.497	7.62
704.251	9.62
705.005	8.62
705.759	5.62
706.513	7.62
707.266	7.62
708.02	11.62
708.774	8.62
709.527	6.62
710.28	8.62
711.034	8.62
711.787	6.62
712.54	7.62
713.293	6.62
714.046	7.62
714.799	8.62
715.552	9.62
716.305	7.62
717.058	10.62
717.81	8.62
718.563	5.62
719.315	7.62
720.068	8.62
720.82	9.62
721.573	8.62
722.325	8.62
723.077	7.62
723.829	8.62
724.581	10.62
725.333	8.62
726.085	8.62
726.836	9.62
727.588	11.62
728.34	7.62
729.091	9.62
729.843	10.62
730.594	10.62
731.346	11.62
732.097	9.62
732.848	7.62
733.599	10.62
734.35	9.62
735.101	9.62
735.852	8.62
736.603	8.62
737.354	10.62
738.104	9.62
738.855	9.62
739.605	8.62
740.356	9.62
741.106	8.62
741.856	11.62
742.607	9.62
743.357	9.62
744.107	8.62
744.857	9.62
745.607	12.62
746.357	10.62
747.106	9.62
747.856	9.62
748.606	8.62
749.355	10.62
750.105	9.62
750.854	13.62
751.603	9.62
752.353	10.62
753.102	11.62
753.851	11.62
754.6	13.62
755.349	12.62
756.098	10.62
756.847	10.62
757.595	11.62
758.344	13.62
759.093	11.62
759.841	9.62
760.589	13.62
761.338	13.62
762.086	12.62
762.834	11.62
763.582	13.62
764.331	13.62
765.079	12.62
765.826	14.62
766.574	13.62
767.322	12.62
768.07	11.62
768.817	14.62
769.565	15.62
770.312	11.62
771.06	13.62
771.807	12.62
772.554	11.62
773.302	12.62
774.049	15.62
774.796	14.62
775.543	13.62
776.29	13.62
777.036	14.62
777.783	13.62
778.53	15.62
779.276	15.62
780.023	15.62
780.769	15.62
781.516	15.62
782.262	14.62
783.008	16.62
783.754	14.62
784.5	15.62
785.246	17.62
785.992	15.62
786.738	17.62
787.484	14.62
788.23	15.62
788.975	15.62
789.721	13.62
790.466	11.62
791.212	12.62
791.957	14.62
792.702	11.62
793.447	18.62
794.193	15.62
794.938	13.62
795.683	12.62
796.427	13.62
797.172	14.62
797.917	13.62
798.662	13.62
799.406	10.62
800.151	9.62
800.895	11.62
801.64	11.62
802.384	10.62
803.128	13.62
803.872	10.62
804.616	10.62
805.36	10.62
806.104	10.62
806.848	10.62
807.592	9.62
808.336	10.62
809.079	8.62
809.823	10.62
810.566	10.62
811.31	8.62
812.053	8.62
812.796	9.62
813.539	7.62
814.283	8.62
815.026	8.62
815.769	9.62
816.511	11.62
817.254	9.62
817.997	8.62
818.74	7.62
819.482	8.62
820.225	9.62
820.967	6.62
821.71	6.62
822.452	7.62
823.194	5.62
823.936	8.62
824.678	8.62
825.42	6.62
826.162	6.62
826.904	6.62
827.646	8.62
828.388	6.62
829.129	7.62
829.871	7.62
830.612	3.62
831.354	5.62
832.095	6.62
832.836	6.62
833.577	5.62
834.319	3.62
835.06	8.62
835.801	5.62
836.542	6.62
837.282	4.62
838.023	7.62
838.764	5.62
839.504	6.62
840.245	8.62
840.985	6.62
841.726	7.62
842.466	4.62
843.206	5.62
843.946	6.62
844.687	7.62
845.427	4.62
846.166	4.62
846.906	4.62
847.646	3.62
848.386	4.62
849.125	3.62
849.865	7.62
850.605	5.62
851.344	4.62
852.083	6.62
852.823	1.62
853.562	5.62
854.301	7.62
855.04	6.62
855.779	5.62
856.518	3.62
857.257	5.62
857.995	5.62
858.734	3.62
859.473	5.62
860.211	2.62
860.95	5.62
861.688	4.62
862.426	5.62
863.165	5.62
863.903	3.62
864.641	4.62
865.379	3.62
866.117	4.62
866.855	2.62
867.593	1.62
868.33	3.62
869.068	5.62
869.806	-0.38
870.543	1.62
871.28	1.62
872.018	4.62
872.755	4.62
873.492	5.62
874.229	3.62
874.967	3.62
875.703	4.62
876.44	1.62
877.177	2.62
877.914	1.62
878.651	1.62
879.387	2.62
880.124	3.62
880.86	1.62
881.597	0.62
882.333	0.62
883.069	1.62
883.806	2.62
884.542	1.62
885.278	0.62
886.014	1.62
886.749	1.62
887.485	1.62
888.221	1.62
888.957	2.62
889.692	2.62
890.428	3.62
891.163	2.62
891.899	1.62
892.634	3.62
893.369	-0.38
894.104	0.62
894.839	3.62
895.574	1.62
896.309	1.62
897.044	2.62
897.779	3.62
898.514	0.62
899.248	2.62
899.983	-0.38
900.717	1.62
901.452	2.62
902.186	1.62
902.92	1.62
903.654	1.62
904.389	2.62
905.123	0.62
905.857	1.62
906.59	2.62
907.324	0.62
908.058	1.62
908.792	0.62
909.525	1.62
910.259	0.62
910.992	2.62
911.726	2.62
912.459	-0.38
913.192	1.62
913.925	2.62
914.658	1.62
915.391	0.62
916.124	1.62
916.857	5.62
917.59	1.62
918.323	0.62
919.055	0.62
919.788	1.62
920.521	1.62
921.253	0.62
921.985	0.62
922.718	-0.38
923.45	3.62
924.182	1.62
924.914	0.62
925.646	1.62
926.378	-0.38
927.11	0.62
927.841	0.62
928.573	-0.38
929.305	0.62
930.036	-1.38
930.768	1.62
931.499	1.62
932.23	0.62
932.962	1.62
933.693	-0.38
934.424	-0.38
935.155	1.62
935.886	-0.38
936.617	1.62
937.348	-0.38
938.078	3.62
938.809	2.62
939.54	1.62
940.27	0.62
941.001	1.62
941.731	0.62
942.461	1.62
943.191	1.62
943.922	-0.38
944.652	0.62
945.382	0.62
946.112	-1.38
946.841	0.62
947.571	2.62
948.301	2.62
949.031	2.62
949.76	1.62
950.49	0.62
951.219	3.62
951.948	-1.38
952.678	-0.38
953.407	0.62
954.136	-0.38
954.865	0.62
955.594	1.62
956.323	-0.38
957.052	1.62
957.78	0.62
958.509	1.62
959.238	1.62
959.966	-1.38
960.695	1.62
961.423	-0.38
962.151	-0.38
962.88	1.62
963.608	0.62
964.336	0.62
965.064	2.62
965.792	1.62
966.52	0.62
967.247	1.62
967.975	-0.38
968.703	1.62
969.43	2.62
970.158	-1.38
970.885	0.62
971.613	2.62
972.34	1.62
973.067	0.62
973.794	-0.38
974.521	1.62
975.248	-0.38
975.975	1.62
976.702	2.62
977.429	-0.38
978.156	0.62
978.882	1.62
979.609	-0.38
980.335	-1.38
981.062	0.62
981.788	0.62
982.514	1.62
983.24	-0.38
983.967	1.62
984.693	3.62
985.419	2.62
986.144	1.62
986.87	-0.38
987.596	1.62
988.322	1.62
989.047	1.62
989.773	0.62
990.498	3.62
991.224	1.62
991.949	-0.38
992.674	-0.38
993.399	1.62
994.124	0.62
994.849	-0.38
995.574	2.62
996.299	0.62
997.024	1.62
997.749	0.62
998.473	0.62
999.198	1.62
999.922	-2.38
1000.647	1.62
1001.371	4.62
1002.095	-1.38
1002.82	-1.38
1003.544	-1.38
1004.268	5.62
1004.992	4.62
1005.716	5.62
1006.439	7.62
1007.163	3.62
1007.887	5.62
1008.611	-0.38
1009.334	1.62
1010.058	-0.38
1010.781	0.62
1011.504	1.62
1012.228	2.62
1012.951	-0.38
1013.674	-0.38
1014.397	-0.38
1015.12	0.62
