节点500_705_QEPB04081__94__20-47-27-224.txt的数据

Date: Wed Nov 12 20:47:27 CST 2025
User: PC
Spectrometer: QEPB0408
触发模式: 0
积分时间 (秒): 1.000000E-2
Scans to average: 1
启用暗噪声校正: true
启用非线性校正: false
滑动平均宽度: 0
X轴模式: Wavelengths
Number of Pixels in Spectrum: 1044
>>>>>Begin Spectral Data<<<<<
220.843	6
221.644	7
222.444	5
223.244	7
224.045	6
224.845	8
225.645	6
226.445	6
227.245	8
228.045	9
228.845	7
229.645	8
230.444	8
231.244	9
232.043	10
232.843	11
233.642	11
234.442	11
235.241	11
236.04	10
236.839	9
237.638	11
238.437	11
239.236	15
240.035	12
240.833	10
241.632	14
242.43	12
243.229	15
244.027	14
244.826	13
245.624	15
246.422	15
247.22	14
248.018	15
248.816	17
249.614	17
250.412	17
251.21	18
252.007	18
252.805	21
253.602	17
254.4	19
255.197	21
255.994	19
256.791	24
257.589	21
258.386	22
259.183	23
259.979	25
260.776	27
261.573	25
262.37	29
263.166	29
263.963	27
264.759	29
265.556	31
266.352	32
267.148	26
267.944	35
268.74	33
269.536	34
270.332	34
271.128	33
271.924	34
272.719	34
273.515	33
274.311	35
275.106	37
275.901	35
276.697	35
277.492	39
278.287	36
279.082	36
279.877	39
280.672	35
281.467	35
282.262	35
283.056	36
283.851	31
284.646	35
285.44	37
286.234	34
287.029	34
287.823	35
288.617	31
289.411	34
290.205	37
290.999	34
291.793	33
292.587	31
293.381	31
294.174	33
294.968	28
295.761	25
296.555	28
297.348	27
298.141	27
298.935	31
299.728	26
300.521	23
301.314	26
302.107	25
302.899	22
303.692	24
304.485	21
305.277	20
306.07	24
306.862	21
307.655	23
308.447	22
309.239	19
310.031	21
310.823	17
311.615	20
312.407	17
313.199	19
313.991	19
314.783	17
315.574	15
316.366	15
317.157	17
317.949	15
318.74	20
319.531	13
320.322	14
321.113	14
321.904	13
322.695	13
323.486	14
324.277	13
325.068	14
325.858	13
326.649	13
327.439	15
328.23	13
329.02	13
329.81	12
330.6	14
331.391	13
332.181	13
332.971	12
333.76	12
334.55	13
335.34	12
336.13	14
336.919	10
337.709	14
338.498	13
339.287	13
340.077	13
340.866	10
341.655	12
342.444	13
343.233	12
344.022	12
344.811	11
345.6	12
346.388	11
347.177	12
347.965	10
348.754	12
349.542	12
350.33	10
351.119	12
351.907	10
352.695	11
353.483	10
354.271	10
355.059	11
355.846	12
356.634	14
357.422	9
358.209	7
358.997	11
359.784	10
360.571	13
361.359	13
362.146	9
362.933	11
363.72	12
364.507	12
365.294	11
366.081	10
366.867	11
367.654	9
368.44	9
369.227	9
370.013	10
370.8	9
371.586	9
372.372	11
373.158	13
373.944	11
374.73	10
375.516	9
376.302	10
377.088	11
377.873	10
378.659	9
379.445	11
380.23	9
381.015	9
381.801	9
382.586	11
383.371	10
384.156	10
384.941	12
385.726	12
386.511	14
387.296	10
388.08	12
388.865	10
389.649	9
390.434	12
391.218	13
392.003	12
392.787	9
393.571	8
394.355	14
395.139	12
395.923	12
396.707	11
397.491	12
398.274	15
399.058	12
399.842	15
400.625	14
401.408	16
402.192	18
402.975	12
403.758	15
404.541	14
405.324	14
406.107	16
406.89	17
407.673	17
408.456	16
409.238	15
410.021	18
410.803	22
411.586	17
412.368	13
413.151	17
413.933	18
414.715	21
415.497	21
416.279	17
417.061	20
417.843	19
418.624	21
419.406	21
420.188	20
420.969	22
421.751	23
422.532	25
423.313	24
424.095	25
424.876	28
425.657	26
426.438	26
427.219	25
428	28
428.78	26
429.561	32
430.342	30
431.122	31
431.903	35
432.683	36
433.464	37
434.244	38
435.024	41
435.804	42
436.584	43
437.364	43
438.144	47
438.924	49
439.704	52
440.483	58
441.263	59
442.042	63
442.822	68
443.601	72
444.38	75
445.16	85
445.939	90
446.718	94
447.497	104
448.276	117
449.054	127
449.833	139
450.612	154
451.391	165
452.169	184
452.948	200
453.726	229
454.504	249
455.282	276
456.061	309
456.839	343
457.617	389
458.395	426
459.172	481
459.95	535
460.728	608
461.506	677
462.283	757
463.061	851
463.838	948
464.615	1039
465.393	1167
466.17	1310
466.947	1458
467.724	1615
468.501	1800
469.278	2025
470.055	2227
470.831	2490
471.608	2727
472.385	3024
473.161	3343
473.938	3724
474.714	4077
475.49	4522
476.266	4928
477.043	5452
477.819	5985
478.595	6566
479.371	7228
480.146	7897
480.922	8687
481.698	9468
482.473	10365
483.249	11334
484.024	12360
484.8	13442
485.575	14644
486.35	15902
487.126	17297
487.901	18743
488.676	20264
489.451	21983
490.225	23671
491	25365
491.775	27257
492.55	29178
493.324	31100
494.099	32953
494.873	34915
495.647	36925
496.422	38853
497.196	40785
497.97	42515
498.744	43954
499.518	45604
500.292	46886
501.066	47802
501.839	48519
502.613	49199
503.387	49601
504.16	49765
504.934	49676
505.707	49298
506.48	48702
507.253	47904
508.027	47010
508.8	45707
509.573	44462
510.346	43162
511.118	41883
511.891	40433
512.664	38701
513.437	37189
514.209	35605
514.982	34144
515.754	32761
516.526	31346
517.298	30021
518.071	28860
518.843	27698
519.615	26531
520.387	25540
521.159	24476
521.93	23412
522.702	22429
523.474	21509
524.245	20484
525.017	19596
525.788	18760
526.56	17918
527.331	17103
528.102	16196
528.873	15430
529.644	14619
530.415	13858
531.186	13160
531.957	12501
532.728	11814
533.498	11195
534.269	10571
535.039	9980
535.81	9477
536.58	8914
537.351	8469
538.121	8027
538.891	7602
539.661	7166
540.431	6764
541.201	6425
541.971	6101
542.741	5773
543.51	5486
544.28	5228
545.05	4987
545.819	4733
546.588	4539
547.358	4286
548.127	4095
548.896	3859
549.665	3667
550.434	3448
551.203	3274
551.972	3130
552.741	2943
553.51	2781
554.278	2603
555.047	2459
555.815	2326
556.584	2223
557.352	2094
558.121	1962
558.889	1859
559.657	1752
560.425	1664
561.193	1577
561.961	1483
562.729	1395
563.496	1321
564.264	1263
565.032	1179
565.799	1136
566.567	1065
567.334	1003
568.101	953
568.869	895
569.636	857
570.403	801
571.17	760
571.937	710
572.704	675
573.471	632
574.237	602
575.004	559
575.771	531
576.537	511
577.303	477
578.07	457
578.836	420
579.602	397
580.368	379
581.134	358
581.9	350
582.666	327
583.432	307
584.198	296
584.964	279
585.729	263
586.495	261
587.26	236
588.025	229
588.791	213
589.556	201
590.321	196
591.086	188
591.851	172
592.616	168
593.381	161
594.146	155
594.911	144
595.675	139
596.44	135
597.204	132
597.969	119
598.733	114
599.497	116
600.261	107
601.025	102
601.79	102
602.553	93
603.317	90
604.081	90
604.845	79
605.609	84
606.372	77
607.136	76
607.899	70
608.662	71
609.426	64
610.189	65
610.952	63
611.715	59
612.478	54
613.241	56
614.004	55
614.767	54
615.529	51
616.292	48
617.055	47
617.817	45
618.579	45
619.342	41
620.104	43
620.866	39
621.628	36
622.39	35
623.152	33
623.914	34
624.676	36
625.438	35
626.199	30
626.961	33
627.722	30
628.484	29
629.245	30
630.006	28
630.768	27
631.529	27
632.29	26
633.051	25
633.812	26
634.573	26
635.333	21
636.094	22
636.855	22
637.615	23
638.376	18
639.136	16
639.896	19
640.657	21
641.417	19
642.177	18
642.937	19
643.697	17
644.457	18
645.216	14
645.976	17
646.736	16
647.495	15
648.255	14
649.014	17
649.774	13
650.533	15
651.292	14
652.051	14
652.81	15
653.569	11
654.328	12
655.087	12
655.846	12
656.604	11
657.363	14
658.121	12
658.88	12
659.638	11
660.397	11
661.155	11
661.913	11
662.671	11
663.429	13
664.187	9
664.945	11
665.703	11
666.46	13
667.218	10
667.976	8
668.733	9
669.49	9
670.248	9
671.005	9
671.762	10
672.519	10
673.276	11
674.033	7
674.79	11
675.547	8
676.304	9
677.06	9
677.817	8
678.574	9
679.33	7
680.086	6
680.843	10
681.599	6
682.355	9
683.111	9
683.867	11
684.623	8
685.379	11
686.135	9
686.89	9
687.646	10
688.402	6
689.157	10
689.912	6
690.668	8
691.423	9
692.178	7
692.933	10
693.688	9
694.443	8
695.198	7
695.953	9
696.708	9
697.462	8
698.217	8
698.972	8
699.726	8
700.48	7
701.235	7
701.989	7
702.743	9
703.497	10
704.251	8
705.005	8
705.759	9
706.513	7
707.266	5
708.02	8
708.774	9
709.527	9
710.28	8
711.034	7
711.787	7
712.54	10
713.293	6
714.046	8
714.799	8
715.552	8
716.305	7
717.058	8
717.81	9
718.563	9
719.315	9
720.068	8
720.82	11
721.573	11
722.325	8
723.077	7
723.829	8
724.581	8
725.333	7
726.085	6
726.836	7
727.588	10
728.34	11
729.091	6
729.843	6
730.594	10
731.346	9
732.097	13
732.848	10
733.599	9
734.35	10
735.101	8
735.852	8
736.603	10
737.354	10
738.104	11
738.855	12
739.605	11
740.356	9
741.106	13
741.856	11
742.607	10
743.357	10
744.107	11
744.857	12
745.607	12
746.357	14
747.106	9
747.856	11
748.606	13
749.355	12
750.105	16
750.854	9
751.603	15
752.353	15
753.102	11
753.851	14
754.6	13
755.349	13
756.098	11
756.847	12
757.595	13
758.344	11
759.093	13
759.841	13
760.589	14
761.338	13
762.086	16
762.834	14
763.582	13
764.331	16
765.079	16
765.826	15
766.574	16
767.322	17
768.07	18
768.817	15
769.565	17
770.312	15
771.06	15
771.807	15
772.554	18
773.302	16
774.049	13
774.796	15
775.543	16
776.29	14
777.036	18
777.783	18
778.53	18
779.276	17
780.023	20
780.769	17
781.516	17
782.262	17
783.008	14
783.754	17
784.5	15
785.246	17
785.992	16
786.738	12
787.484	15
788.23	15
788.975	18
789.721	16
790.466	15
791.212	18
791.957	13
792.702	15
793.447	15
794.193	13
794.938	13
795.683	10
796.427	15
797.172	14
797.917	15
798.662	15
799.406	13
800.151	15
800.895	10
801.64	13
802.384	11
803.128	13
803.872	12
804.616	10
805.36	13
806.104	10
806.848	12
807.592	10
808.336	11
809.079	11
809.823	12
810.566	11
811.31	10
812.053	10
812.796	11
813.539	8
814.283	9
815.026	9
815.769	9
816.511	5
817.254	9
817.997	6
818.74	7
819.482	9
820.225	8
820.967	9
821.71	9
822.452	9
823.194	8
823.936	9
824.678	10
825.42	5
826.162	7
826.904	5
827.646	5
828.388	7
829.129	5
829.871	7
830.612	4
831.354	8
832.095	6
832.836	6
833.577	6
834.319	5
835.06	6
835.801	7
836.542	5
837.282	8
838.023	6
838.764	6
839.504	4
840.245	6
840.985	6
841.726	5
842.466	8
843.206	3
843.946	5
844.687	6
845.427	3
846.166	5
846.906	4
847.646	5
848.386	3
849.125	5
849.865	6
850.605	4
851.344	5
852.083	5
852.823	4
853.562	3
854.301	6
855.04	5
855.779	2
856.518	5
857.257	6
857.995	3
858.734	3
859.473	5
860.211	4
860.95	3
861.688	6
862.426	4
863.165	5
863.903	3
864.641	1
865.379	1
866.117	0
866.855	2
867.593	4
868.33	3
869.068	6
869.806	1
870.543	2
871.28	2
872.018	1
872.755	3
873.492	1
874.229	2
874.967	2
875.703	4
876.44	1
877.177	1
877.914	2
878.651	2
879.387	1
880.124	1
880.86	1
881.597	0
882.333	1
883.069	3
883.806	1
884.542	0
885.278	1
886.014	2
886.749	2
887.485	2
888.221	4
888.957	0
889.692	2
890.428	1
891.163	0
891.899	2
892.634	0
893.369	0
894.104	2
894.839	3
895.574	1
896.309	0
897.044	4
897.779	0
898.514	0
899.248	3
899.983	2
900.717	-1
901.452	-1
902.186	0
902.92	-1
903.654	1
904.389	1
905.123	1
905.857	-1
906.59	2
907.324	2
908.058	1
908.792	0
909.525	0
910.259	2
910.992	1
911.726	0
912.459	2
913.192	1
913.925	1
914.658	1
915.391	0
916.124	2
916.857	2
917.59	2
918.323	1
919.055	1
919.788	3
920.521	0
921.253	1
921.985	1
922.718	0
923.45	2
924.182	-2
924.914	0
925.646	-1
926.378	1
927.11	-1
927.841	0
928.573	-1
929.305	0
930.036	1
930.768	0
931.499	0
932.23	0
932.962	1
933.693	0
934.424	2
935.155	1
935.886	0
936.617	1
937.348	0
938.078	0
938.809	1
939.54	-1
940.27	0
941.001	1
941.731	-1
942.461	0
943.191	1
943.922	1
944.652	0
945.382	0
946.112	1
946.841	1
947.571	1
948.301	-1
949.031	0
949.76	1
950.49	0
951.219	-1
951.948	-1
952.678	1
953.407	1
954.136	-1
954.865	0
955.594	0
956.323	1
957.052	0
957.78	1
958.509	1
959.238	-1
959.966	2
960.695	1
961.423	1
962.151	1
962.88	2
963.608	1
964.336	-1
965.064	2
965.792	1
966.52	2
967.247	-1
967.975	1
968.703	1
969.43	0
970.158	-2
970.885	-1
971.613	-2
972.34	0
973.067	1
973.794	1
974.521	2
975.248	0
975.975	-1
976.702	0
977.429	-1
978.156	2
978.882	2
979.609	0
980.335	0
981.062	3
981.788	-1
982.514	1
983.24	-1
983.967	1
984.693	2
985.419	2
986.144	1
986.87	-1
987.596	2
988.322	0
989.047	1
989.773	1
990.498	-1
991.224	1
991.949	2
992.674	1
993.399	2
994.124	1
994.849	0
995.574	-2
996.299	2
997.024	-1
997.749	1
998.473	1
999.198	0
999.922	-1
1000.647	0
1001.371	2
1002.095	-1
1002.82	-2
1003.544	-1
1004.268	5
1004.992	3
1005.716	2
1006.439	4
1007.163	5
1007.887	4
1008.611	0
1009.334	-1
1010.058	1
1010.781	0
1011.504	1
1012.228	2
1012.951	0
1013.674	2
1014.397	0
1015.12	0
