节点500_705_QEPB04081__151__20-48-23-077.txt的数据

Date: Wed Nov 12 20:48:23 CST 2025
User: PC
Spectrometer: QEPB0408
触发模式: 0
积分时间 (秒): 1.000000E-2
Scans to average: 1
启用暗噪声校正: true
启用非线性校正: false
滑动平均宽度: 0
X轴模式: Wavelengths
Number of Pixels in Spectrum: 1044
>>>>>Begin Spectral Data<<<<<
220.843	4.75
221.644	3.75
222.444	5.75
223.244	7.75
224.045	6.75
224.845	7.75
225.645	6.75
226.445	7.75
227.245	5.75
228.045	6.75
228.845	8.75
229.645	4.75
230.444	7.75
231.244	8.75
232.043	9.75
232.843	9.75
233.642	7.75
234.442	9.75
235.241	8.75
236.04	8.75
236.839	9.75
237.638	10.75
238.437	10.75
239.236	12.75
240.035	10.75
240.833	10.75
241.632	12.75
242.43	14.75
243.229	10.75
244.027	13.75
244.826	11.75
245.624	14.75
246.422	10.75
247.22	14.75
248.018	14.75
248.816	14.75
249.614	18.75
250.412	15.75
251.21	16.75
252.007	14.75
252.805	19.75
253.602	17.75
254.4	20.75
255.197	18.75
255.994	20.75
256.791	18.75
257.589	20.75
258.386	21.75
259.183	22.75
259.979	22.75
260.776	22.75
261.573	23.75
262.37	23.75
263.166	26.75
263.963	24.75
264.759	24.75
265.556	26.75
266.352	28.75
267.148	30.75
267.944	29.75
268.74	29.75
269.536	29.75
270.332	30.75
271.128	30.75
271.924	33.75
272.719	32.75
273.515	33.75
274.311	32.75
275.106	35.75
275.901	32.75
276.697	33.75
277.492	34.75
278.287	35.75
279.082	34.75
279.877	39.75
280.672	36.75
281.467	38.75
282.262	35.75
283.056	35.75
283.851	34.75
284.646	33.75
285.44	37.75
286.234	33.75
287.029	34.75
287.823	34.75
288.617	33.75
289.411	30.75
290.205	34.75
290.999	33.75
291.793	31.75
292.587	30.75
293.381	30.75
294.174	24.75
294.968	26.75
295.761	28.75
296.555	27.75
297.348	26.75
298.141	27.75
298.935	30.75
299.728	26.75
300.521	26.75
301.314	26.75
302.107	21.75
302.899	21.75
303.692	20.75
304.485	23.75
305.277	21.75
306.07	22.75
306.862	21.75
307.655	21.75
308.447	22.75
309.239	19.75
310.031	22.75
310.823	17.75
311.615	17.75
312.407	18.75
313.199	15.75
313.991	16.75
314.783	17.75
315.574	18.75
316.366	12.75
317.157	14.75
317.949	14.75
318.74	15.75
319.531	14.75
320.322	13.75
321.113	12.75
321.904	15.75
322.695	13.75
323.486	12.75
324.277	14.75
325.068	14.75
325.858	15.75
326.649	13.75
327.439	12.75
328.23	11.75
329.02	10.75
329.81	12.75
330.6	11.75
331.391	14.75
332.181	13.75
332.971	11.75
333.76	12.75
334.55	10.75
335.34	12.75
336.13	11.75
336.919	11.75
337.709	11.75
338.498	13.75
339.287	11.75
340.077	10.75
340.866	13.75
341.655	10.75
342.444	10.75
343.233	12.75
344.022	10.75
344.811	11.75
345.6	9.75
346.388	12.75
347.177	10.75
347.965	10.75
348.754	11.75
349.542	11.75
350.33	11.75
351.119	8.75
351.907	8.75
352.695	9.75
353.483	12.75
354.271	10.75
355.059	12.75
355.846	12.75
356.634	9.75
357.422	10.75
358.209	10.75
358.997	10.75
359.784	12.75
360.571	7.75
361.359	10.75
362.146	10.75
362.933	10.75
363.72	10.75
364.507	11.75
365.294	9.75
366.081	10.75
366.867	10.75
367.654	8.75
368.44	7.75
369.227	9.75
370.013	9.75
370.8	8.75
371.586	9.75
372.372	10.75
373.158	7.75
373.944	10.75
374.73	10.75
375.516	12.75
376.302	10.75
377.088	10.75
377.873	9.75
378.659	8.75
379.445	8.75
380.23	9.75
381.015	11.75
381.801	9.75
382.586	8.75
383.371	10.75
384.156	10.75
384.941	11.75
385.726	10.75
386.511	11.75
387.296	12.75
388.08	10.75
388.865	11.75
389.649	11.75
390.434	9.75
391.218	10.75
392.003	12.75
392.787	12.75
393.571	10.75
394.355	10.75
395.139	10.75
395.923	10.75
396.707	11.75
397.491	12.75
398.274	14.75
399.058	15.75
399.842	12.75
400.625	14.75
401.408	13.75
402.192	14.75
402.975	17.75
403.758	14.75
404.541	16.75
405.324	14.75
406.107	14.75
406.89	14.75
407.673	14.75
408.456	15.75
409.238	15.75
410.021	16.75
410.803	16.75
411.586	16.75
412.368	17.75
413.151	19.75
413.933	18.75
414.715	16.75
415.497	20.75
416.279	18.75
417.061	20.75
417.843	20.75
418.624	14.75
419.406	21.75
420.188	19.75
420.969	22.75
421.751	22.75
422.532	22.75
423.313	24.75
424.095	21.75
424.876	27.75
425.657	24.75
426.438	28.75
427.219	28.75
428	26.75
428.78	27.75
429.561	27.75
430.342	29.75
431.122	34.75
431.903	31.75
432.683	34.75
433.464	34.75
434.244	38.75
435.024	38.75
435.804	39.75
436.584	41.75
437.364	46.75
438.144	46.75
438.924	49.75
439.704	57.75
440.483	56.75
441.263	57.75
442.042	64.75
442.822	68.75
443.601	73.75
444.38	76.75
445.16	83.75
445.939	91.75
446.718	102.75
447.497	107.75
448.276	119.75
449.054	126.75
449.833	145.75
450.612	157.75
451.391	171.75
452.169	181.75
452.948	206.75
453.726	234.75
454.504	247.75
455.282	284.75
456.061	316.75
456.839	345.75
457.617	396.75
458.395	438.75
459.172	487.75
459.95	541.75
460.728	612.75
461.506	684.75
462.283	772.75
463.061	850.75
463.838	952.75
464.615	1062.75
465.393	1196.75
466.17	1321.75
466.947	1467.75
467.724	1634.75
468.501	1816.75
469.278	2008.75
470.055	2235.75
470.831	2469.75
471.608	2760.75
472.385	3042.75
473.161	3342.75
473.938	3700.75
474.714	4074.75
475.49	4476.75
476.266	4932.75
477.043	5408.75
477.819	5965.75
478.595	6524.75
479.371	7153.75
480.146	7828.75
480.922	8579.75
481.698	9377.75
482.473	10244.75
483.249	11171.75
484.024	12151.75
484.8	13220.75
485.575	14332.75
486.35	15621.75
487.126	16906.75
487.901	18359.75
488.676	19867.75
489.451	21435.75
490.225	23127.75
491	24801.75
491.775	26568.75
492.55	28495.75
493.324	30365.75
494.099	32228.75
494.873	34177.75
495.647	36074.75
496.422	38013.75
497.196	39751.75
497.97	41535.75
498.744	43013.75
499.518	44662.75
500.292	45991.75
501.066	46858.75
501.839	47750.75
502.613	48432.75
503.387	48851.75
504.16	49187.75
504.934	49116.75
505.707	48879.75
506.48	48184.75
507.253	47614.75
508.027	46558.75
508.8	45378.75
509.573	44264.75
510.346	43076.75
511.118	41761.75
511.891	40438.75
512.664	38763.75
513.437	37242.75
514.209	35771.75
514.982	34372.75
515.754	32873.75
516.526	31480.75
517.298	30264.75
518.071	29008.75
518.843	27796.75
519.615	26679.75
520.387	25717.75
521.159	24667.75
521.93	23618.75
522.702	22583.75
523.474	21658.75
524.245	20745.75
525.017	19732.75
525.788	18933.75
526.56	18080.75
527.331	17265.75
528.102	16336.75
528.873	15508.75
529.644	14717.75
530.415	14045.75
531.186	13398.75
531.957	12610.75
532.728	11941.75
533.498	11372.75
534.269	10699.75
535.039	10162.75
535.81	9543.75
536.58	9043.75
537.351	8548.75
538.121	8103.75
538.891	7703.75
539.661	7288.75
540.431	6887.75
541.201	6520.75
541.971	6182.75
542.741	5854.75
543.51	5551.75
544.28	5299.75
545.05	5064.75
545.819	4794.75
546.588	4564.75
547.358	4360.75
548.127	4149.75
548.896	3894.75
549.665	3706.75
550.434	3528.75
551.203	3334.75
551.972	3164.75
552.741	2986.75
553.51	2810.75
554.278	2665.75
555.047	2510.75
555.815	2370.75
556.584	2235.75
557.352	2122.75
558.121	1997.75
558.889	1898.75
559.657	1791.75
560.425	1689.75
561.193	1605.75
561.961	1514.75
562.729	1432.75
563.496	1353.75
564.264	1276.75
565.032	1211.75
565.799	1150.75
566.567	1082.75
567.334	1023.75
568.101	955.75
568.869	918.75
569.636	863.75
570.403	815.75
571.17	768.75
571.937	728.75
572.704	682.75
573.471	645.75
574.237	605.75
575.004	561.75
575.771	547.75
576.537	509.75
577.303	481.75
578.07	454.75
578.836	432.75
579.602	402.75
580.368	385.75
581.134	362.75
581.9	341.75
582.666	332.75
583.432	310.75
584.198	301.75
584.964	284.75
585.729	274.75
586.495	258.75
587.26	245.75
588.025	227.75
588.791	220.75
589.556	203.75
590.321	199.75
591.086	186.75
591.851	178.75
592.616	170.75
593.381	160.75
594.146	157.75
594.911	147.75
595.675	143.75
596.44	133.75
597.204	131.75
597.969	123.75
598.733	115.75
599.497	114.75
600.261	103.75
601.025	104.75
601.79	97.75
602.553	97.75
603.317	92.75
604.081	86.75
604.845	83.75
605.609	78.75
606.372	77.75
607.136	72.75
607.899	71.75
608.662	70.75
609.426	67.75
610.189	63.75
610.952	65.75
611.715	61.75
612.478	57.75
613.241	52.75
614.004	53.75
614.767	53.75
615.529	51.75
616.292	50.75
617.055	45.75
617.817	45.75
618.579	43.75
619.342	40.75
620.104	40.75
620.866	40.75
621.628	40.75
622.39	37.75
623.152	36.75
623.914	34.75
624.676	35.75
625.438	32.75
626.199	33.75
626.961	32.75
627.722	30.75
628.484	28.75
629.245	26.75
630.006	24.75
630.768	25.75
631.529	26.75
632.29	24.75
633.051	25.75
633.812	25.75
634.573	21.75
635.333	23.75
636.094	17.75
636.855	20.75
637.615	17.75
638.376	22.75
639.136	16.75
639.896	20.75
640.657	18.75
641.417	17.75
642.177	17.75
642.937	19.75
643.697	18.75
644.457	19.75
645.216	15.75
645.976	15.75
646.736	13.75
647.495	13.75
648.255	15.75
649.014	15.75
649.774	14.75
650.533	15.75
651.292	12.75
652.051	12.75
652.81	10.75
653.569	10.75
654.328	10.75
655.087	10.75
655.846	12.75
656.604	11.75
657.363	11.75
658.121	8.75
658.88	10.75
659.638	9.75
660.397	11.75
661.155	10.75
661.913	10.75
662.671	10.75
663.429	10.75
664.187	9.75
664.945	9.75
665.703	9.75
666.46	10.75
667.218	9.75
667.976	9.75
668.733	10.75
669.49	8.75
670.248	10.75
671.005	10.75
671.762	10.75
672.519	8.75
673.276	9.75
674.033	5.75
674.79	7.75
675.547	9.75
676.304	8.75
677.06	8.75
677.817	8.75
678.574	6.75
679.33	7.75
680.086	5.75
680.843	8.75
681.599	5.75
682.355	9.75
683.111	9.75
683.867	8.75
684.623	5.75
685.379	5.75
686.135	8.75
686.89	8.75
687.646	8.75
688.402	9.75
689.157	6.75
689.912	8.75
690.668	7.75
691.423	7.75
692.178	7.75
692.933	6.75
693.688	4.75
694.443	5.75
695.198	7.75
695.953	7.75
696.708	7.75
697.462	7.75
698.217	7.75
698.972	8.75
699.726	6.75
700.48	6.75
701.235	8.75
701.989	7.75
702.743	5.75
703.497	6.75
704.251	6.75
705.005	7.75
705.759	6.75
706.513	7.75
707.266	6.75
708.02	7.75
708.774	7.75
709.527	8.75
710.28	8.75
711.034	6.75
711.787	6.75
712.54	5.75
713.293	8.75
714.046	6.75
714.799	8.75
715.552	7.75
716.305	6.75
717.058	9.75
717.81	6.75
718.563	8.75
719.315	11.75
720.068	8.75
720.82	10.75
721.573	5.75
722.325	8.75
723.077	8.75
723.829	8.75
724.581	7.75
725.333	9.75
726.085	6.75
726.836	6.75
727.588	6.75
728.34	8.75
729.091	7.75
729.843	7.75
730.594	9.75
731.346	6.75
732.097	5.75
732.848	9.75
733.599	10.75
734.35	8.75
735.101	10.75
735.852	7.75
736.603	9.75
737.354	10.75
738.104	8.75
738.855	9.75
739.605	9.75
740.356	7.75
741.106	8.75
741.856	9.75
742.607	10.75
743.357	11.75
744.107	11.75
744.857	7.75
745.607	10.75
746.357	10.75
747.106	10.75
747.856	10.75
748.606	11.75
749.355	8.75
750.105	10.75
750.854	10.75
751.603	9.75
752.353	11.75
753.102	8.75
753.851	7.75
754.6	10.75
755.349	12.75
756.098	12.75
756.847	10.75
757.595	12.75
758.344	14.75
759.093	13.75
759.841	11.75
760.589	13.75
761.338	12.75
762.086	13.75
762.834	10.75
763.582	13.75
764.331	11.75
765.079	14.75
765.826	12.75
766.574	15.75
767.322	14.75
768.07	12.75
768.817	14.75
769.565	16.75
770.312	14.75
771.06	12.75
771.807	14.75
772.554	14.75
773.302	15.75
774.049	16.75
774.796	14.75
775.543	14.75
776.29	14.75
777.036	16.75
777.783	19.75
778.53	15.75
779.276	15.75
780.023	16.75
780.769	14.75
781.516	14.75
782.262	12.75
783.008	15.75
783.754	17.75
784.5	14.75
785.246	17.75
785.992	16.75
786.738	15.75
787.484	16.75
788.23	15.75
788.975	14.75
789.721	12.75
790.466	12.75
791.212	14.75
791.957	13.75
792.702	14.75
793.447	14.75
794.193	13.75
794.938	13.75
795.683	10.75
796.427	12.75
797.172	15.75
797.917	11.75
798.662	10.75
799.406	17.75
800.151	14.75
800.895	11.75
801.64	10.75
802.384	13.75
803.128	11.75
803.872	11.75
804.616	10.75
805.36	8.75
806.104	10.75
806.848	8.75
807.592	9.75
808.336	9.75
809.079	9.75
809.823	8.75
810.566	9.75
811.31	9.75
812.053	8.75
812.796	8.75
813.539	7.75
814.283	8.75
815.026	5.75
815.769	5.75
816.511	8.75
817.254	7.75
817.997	7.75
818.74	7.75
819.482	7.75
820.225	8.75
820.967	9.75
821.71	7.75
822.452	7.75
823.194	8.75
823.936	6.75
824.678	5.75
825.42	4.75
826.162	7.75
826.904	4.75
827.646	8.75
828.388	6.75
829.129	4.75
829.871	7.75
830.612	6.75
831.354	6.75
832.095	5.75
832.836	4.75
833.577	5.75
834.319	7.75
835.06	7.75
835.801	7.75
836.542	5.75
837.282	5.75
838.023	5.75
838.764	6.75
839.504	5.75
840.245	3.75
840.985	6.75
841.726	4.75
842.466	3.75
843.206	7.75
843.946	4.75
844.687	2.75
845.427	5.75
846.166	2.75
846.906	4.75
847.646	3.75
848.386	6.75
849.125	3.75
849.865	6.75
850.605	6.75
851.344	3.75
852.083	4.75
852.823	5.75
853.562	3.75
854.301	4.75
855.04	2.75
855.779	5.75
856.518	5.75
857.257	3.75
857.995	2.75
858.734	2.75
859.473	2.75
860.211	1.75
860.95	3.75
861.688	3.75
862.426	3.75
863.165	4.75
863.903	3.75
864.641	2.75
865.379	3.75
866.117	2.75
866.855	2.75
867.593	1.75
868.33	2.75
869.068	2.75
869.806	1.75
870.543	1.75
871.28	0.75
872.018	1.75
872.755	0.75
873.492	0.75
874.229	2.75
874.967	1.75
875.703	2.75
876.44	2.75
877.177	-0.25
877.914	4.75
878.651	1.75
879.387	0.75
880.124	3.75
880.86	0.75
881.597	-0.25
882.333	1.75
883.069	-1.25
883.806	1.75
884.542	-0.25
885.278	1.75
886.014	0.75
886.749	-0.25
887.485	0.75
888.221	0.75
888.957	0.75
889.692	0.75
890.428	1.75
891.163	2.75
891.899	-2.25
892.634	1.75
893.369	0.75
894.104	1.75
894.839	0.75
895.574	2.75
896.309	0.75
897.044	-1.25
897.779	1.75
898.514	-1.25
899.248	-0.25
899.983	1.75
900.717	1.75
901.452	-0.25
902.186	3.75
902.92	0.75
903.654	-0.25
904.389	1.75
905.123	-1.25
905.857	-1.25
906.59	2.75
907.324	0.75
908.058	-0.25
908.792	2.75
909.525	-1.25
910.259	0.75
910.992	0.75
911.726	1.75
912.459	3.75
913.192	1.75
913.925	0.75
914.658	-0.25
915.391	1.75
916.124	0.75
916.857	0.75
917.59	-0.25
918.323	-0.25
919.055	-0.25
919.788	0.75
920.521	0.75
921.253	0.75
921.985	-0.25
922.718	1.75
923.45	0.75
924.182	-1.25
924.914	-2.25
925.646	3.75
926.378	-1.25
927.11	-1.25
927.841	-1.25
928.573	1.75
929.305	-0.25
930.036	-1.25
930.768	0.75
931.499	0.75
932.23	0.75
932.962	0.75
933.693	0.75
934.424	2.75
935.155	-1.25
935.886	0.75
936.617	-0.25
937.348	-0.25
938.078	1.75
938.809	-1.25
939.54	0.75
940.27	-2.25
941.001	-0.25
941.731	-0.25
942.461	0.75
943.191	0.75
943.922	2.75
944.652	-0.25
945.382	0.75
946.112	-0.25
946.841	-0.25
947.571	-1.25
948.301	-1.25
949.031	0.75
949.76	1.75
950.49	2.75
951.219	-0.25
951.948	-1.25
952.678	-1.25
953.407	-0.25
954.136	4.75
954.865	-1.25
955.594	1.75
956.323	-1.25
957.052	1.75
957.78	-1.25
958.509	-1.25
959.238	1.75
959.966	0.75
960.695	3.75
961.423	-1.25
962.151	0.75
962.88	0.75
963.608	-1.25
964.336	-0.25
965.064	0.75
965.792	-1.25
966.52	-1.25
967.247	-0.25
967.975	-0.25
968.703	0.75
969.43	-1.25
970.158	0.75
970.885	1.75
971.613	0.75
972.34	-2.25
973.067	-0.25
973.794	-1.25
974.521	0.75
975.248	0.75
975.975	2.75
976.702	0.75
977.429	1.75
978.156	0.75
978.882	2.75
979.609	1.75
980.335	-0.25
981.062	-0.25
981.788	-0.25
982.514	-1.25
983.24	1.75
983.967	-1.25
984.693	1.75
985.419	-0.25
986.144	-1.25
986.87	-0.25
987.596	0.75
988.322	-0.25
989.047	0.75
989.773	0.75
990.498	-0.25
991.224	0.75
991.949	-0.25
992.674	0.75
993.399	-1.25
994.124	-0.25
994.849	2.75
995.574	1.75
996.299	-1.25
997.024	0.75
997.749	0.75
998.473	-0.25
999.198	-0.25
999.922	0.75
1000.647	1.75
1001.371	4.75
1002.095	-1.25
1002.82	-3.25
1003.544	-2.25
1004.268	4.75
1004.992	3.75
1005.716	4.75
1006.439	4.75
1007.163	5.75
1007.887	4.75
1008.611	-0.25
1009.334	0.75
1010.058	0.75
1010.781	-0.25
1011.504	0.75
1012.228	-2.25
1012.951	2.75
1013.674	-0.25
1014.397	0.75
1015.12	-1.25
