节点500_705_QEPB04081__461__20-52-25-783.txt的数据

Date: Wed Nov 12 20:52:25 CST 2025
User: PC
Spectrometer: QEPB0408
触发模式: 0
积分时间 (秒): 1.000000E-2
Scans to average: 1
启用暗噪声校正: true
启用非线性校正: false
滑动平均宽度: 0
X轴模式: Wavelengths
Number of Pixels in Spectrum: 1044
>>>>>Begin Spectral Data<<<<<
220.843	3.38
221.644	4.38
222.444	5.38
223.244	6.38
224.045	6.38
224.845	4.38
225.645	6.38
226.445	5.38
227.245	6.38
228.045	4.38
228.845	7.38
229.645	8.38
230.444	6.38
231.244	7.38
232.043	6.38
232.843	7.38
233.642	9.38
234.442	8.38
235.241	8.38
236.04	8.38
236.839	9.38
237.638	8.38
238.437	9.38
239.236	10.38
240.035	7.38
240.833	11.38
241.632	11.38
242.43	11.38
243.229	14.38
244.027	10.38
244.826	12.38
245.624	11.38
246.422	14.38
247.22	13.38
248.018	12.38
248.816	14.38
249.614	16.38
250.412	15.38
251.21	15.38
252.007	14.38
252.805	17.38
253.602	17.38
254.4	17.38
255.197	16.38
255.994	19.38
256.791	19.38
257.589	19.38
258.386	17.38
259.183	19.38
259.979	22.38
260.776	20.38
261.573	23.38
262.37	24.38
263.166	22.38
263.963	21.38
264.759	24.38
265.556	24.38
266.352	24.38
267.148	23.38
267.944	23.38
268.74	28.38
269.536	25.38
270.332	26.38
271.128	28.38
271.924	28.38
272.719	29.38
273.515	32.38
274.311	32.38
275.106	27.38
275.901	26.38
276.697	30.38
277.492	32.38
278.287	33.38
279.082	35.38
279.877	33.38
280.672	32.38
281.467	30.38
282.262	31.38
283.056	34.38
283.851	33.38
284.646	32.38
285.44	32.38
286.234	33.38
287.029	33.38
287.823	31.38
288.617	34.38
289.411	28.38
290.205	33.38
290.999	30.38
291.793	34.38
292.587	30.38
293.381	29.38
294.174	28.38
294.968	28.38
295.761	26.38
296.555	30.38
297.348	26.38
298.141	24.38
298.935	27.38
299.728	26.38
300.521	24.38
301.314	25.38
302.107	23.38
302.899	22.38
303.692	20.38
304.485	21.38
305.277	22.38
306.07	23.38
306.862	21.38
307.655	21.38
308.447	20.38
309.239	22.38
310.031	21.38
310.823	19.38
311.615	18.38
312.407	16.38
313.199	16.38
313.991	15.38
314.783	18.38
315.574	14.38
316.366	16.38
317.157	14.38
317.949	15.38
318.74	13.38
319.531	13.38
320.322	14.38
321.113	11.38
321.904	12.38
322.695	14.38
323.486	12.38
324.277	13.38
325.068	10.38
325.858	13.38
326.649	13.38
327.439	13.38
328.23	13.38
329.02	12.38
329.81	12.38
330.6	12.38
331.391	11.38
332.181	12.38
332.971	9.38
333.76	11.38
334.55	11.38
335.34	14.38
336.13	11.38
336.919	9.38
337.709	10.38
338.498	9.38
339.287	11.38
340.077	14.38
340.866	11.38
341.655	11.38
342.444	10.38
343.233	11.38
344.022	9.38
344.811	13.38
345.6	10.38
346.388	7.38
347.177	11.38
347.965	10.38
348.754	10.38
349.542	11.38
350.33	10.38
351.119	10.38
351.907	13.38
352.695	11.38
353.483	10.38
354.271	11.38
355.059	10.38
355.846	10.38
356.634	11.38
357.422	9.38
358.209	10.38
358.997	10.38
359.784	11.38
360.571	10.38
361.359	10.38
362.146	10.38
362.933	8.38
363.72	11.38
364.507	9.38
365.294	8.38
366.081	9.38
366.867	8.38
367.654	9.38
368.44	7.38
369.227	8.38
370.013	10.38
370.8	10.38
371.586	9.38
372.372	8.38
373.158	11.38
373.944	8.38
374.73	10.38
375.516	9.38
376.302	9.38
377.088	11.38
377.873	8.38
378.659	10.38
379.445	10.38
380.23	10.38
381.015	10.38
381.801	8.38
382.586	8.38
383.371	8.38
384.156	12.38
384.941	9.38
385.726	8.38
386.511	10.38
387.296	10.38
388.08	11.38
388.865	9.38
389.649	12.38
390.434	10.38
391.218	10.38
392.003	10.38
392.787	9.38
393.571	12.38
394.355	8.38
395.139	13.38
395.923	8.38
396.707	11.38
397.491	10.38
398.274	10.38
399.058	10.38
399.842	11.38
400.625	13.38
401.408	16.38
402.192	12.38
402.975	14.38
403.758	11.38
404.541	14.38
405.324	13.38
406.107	12.38
406.89	14.38
407.673	15.38
408.456	17.38
409.238	17.38
410.021	17.38
410.803	13.38
411.586	15.38
412.368	18.38
413.151	14.38
413.933	18.38
414.715	18.38
415.497	14.38
416.279	18.38
417.061	14.38
417.843	17.38
418.624	20.38
419.406	21.38
420.188	15.38
420.969	18.38
421.751	23.38
422.532	19.38
423.313	21.38
424.095	25.38
424.876	22.38
425.657	24.38
426.438	23.38
427.219	22.38
428	26.38
428.78	26.38
429.561	28.38
430.342	29.38
431.122	31.38
431.903	33.38
432.683	35.38
433.464	33.38
434.244	36.38
435.024	40.38
435.804	37.38
436.584	46.38
437.364	42.38
438.144	48.38
438.924	51.38
439.704	52.38
440.483	59.38
441.263	59.38
442.042	68.38
442.822	69.38
443.601	77.38
444.38	81.38
445.16	87.38
445.939	98.38
446.718	105.38
447.497	110.38
448.276	128.38
449.054	135.38
449.833	154.38
450.612	169.38
451.391	183.38
452.169	202.38
452.948	221.38
453.726	255.38
454.504	277.38
455.282	312.38
456.061	342.38
456.839	376.38
457.617	429.38
458.395	470.38
459.172	529.38
459.95	582.38
460.728	656.38
461.506	725.38
462.283	816.38
463.061	897.38
463.838	1008.38
464.615	1115.38
465.393	1240.38
466.17	1373.38
466.947	1519.38
467.724	1684.38
468.501	1875.38
469.278	2062.38
470.055	2281.38
470.831	2502.38
471.608	2753.38
472.385	3016.38
473.161	3318.38
473.938	3642.38
474.714	3995.38
475.49	4381.38
476.266	4798.38
477.043	5219.38
477.819	5717.38
478.595	6210.38
479.371	6745.38
480.146	7347.38
480.922	8020.38
481.698	8704.38
482.473	9462.38
483.249	10257.38
484.024	11101.38
484.8	12045.38
485.575	12968.38
486.35	14010.38
487.126	15179.38
487.901	16382.38
488.676	17613.38
489.451	18971.38
490.225	20365.38
491	21762.38
491.775	23370.38
492.55	24952.38
493.324	26516.38
494.099	28130.38
494.873	29833.38
495.647	31542.38
496.422	33241.38
497.196	34916.38
497.97	36536.38
498.744	37950.38
499.518	39527.38
500.292	40990.38
501.066	41988.38
501.839	42981.38
502.613	43768.38
503.387	44449.38
504.16	45063.38
504.934	45294.38
505.707	45503.38
506.48	45278.38
507.253	44851.38
508.027	44447.38
508.8	43724.38
509.573	42873.38
510.346	41955.38
511.118	41000.38
511.891	39945.38
512.664	38507.38
513.437	37190.38
514.209	35931.38
514.982	34552.38
515.754	33252.38
516.526	31969.38
517.298	30709.38
518.071	29549.38
518.843	28328.38
519.615	27176.38
520.387	26129.38
521.159	25119.38
521.93	24029.38
522.702	23018.38
523.474	22161.38
524.245	21170.38
525.017	20301.38
525.788	19452.38
526.56	18650.38
527.331	17900.38
528.102	16933.38
528.873	16174.38
529.644	15382.38
530.415	14761.38
531.186	14010.38
531.957	13294.38
532.728	12606.38
533.498	11928.38
534.269	11350.38
535.039	10730.38
535.81	10182.38
536.58	9609.38
537.351	9122.38
538.121	8639.38
538.891	8178.38
539.661	7696.38
540.431	7309.38
541.201	6941.38
541.971	6583.38
542.741	6224.38
543.51	5889.38
544.28	5618.38
545.05	5330.38
545.819	5129.38
546.588	4883.38
547.358	4635.38
548.127	4404.38
548.896	4191.38
549.665	3986.38
550.434	3802.38
551.203	3595.38
551.972	3398.38
552.741	3209.38
553.51	3043.38
554.278	2871.38
555.047	2698.38
555.815	2592.38
556.584	2437.38
557.352	2302.38
558.121	2168.38
558.889	2043.38
559.657	1946.38
560.425	1838.38
561.193	1732.38
561.961	1655.38
562.729	1545.38
563.496	1475.38
564.264	1389.38
565.032	1311.38
565.799	1240.38
566.567	1178.38
567.334	1100.38
568.101	1058.38
568.869	996.38
569.636	930.38
570.403	882.38
571.17	822.38
571.937	785.38
572.704	747.38
573.471	705.38
574.237	668.38
575.004	622.38
575.771	583.38
576.537	556.38
577.303	521.38
578.07	502.38
578.836	468.38
579.602	433.38
580.368	418.38
581.134	399.38
581.9	382.38
582.666	366.38
583.432	349.38
584.198	326.38
584.964	309.38
585.729	286.38
586.495	277.38
587.26	266.38
588.025	248.38
588.791	238.38
589.556	222.38
590.321	214.38
591.086	202.38
591.851	199.38
592.616	185.38
593.381	177.38
594.146	167.38
594.911	160.38
595.675	154.38
596.44	145.38
597.204	136.38
597.969	136.38
598.733	126.38
599.497	123.38
600.261	115.38
601.025	108.38
601.79	106.38
602.553	102.38
603.317	99.38
604.081	96.38
604.845	86.38
605.609	85.38
606.372	79.38
607.136	80.38
607.899	78.38
608.662	72.38
609.426	72.38
610.189	67.38
610.952	64.38
611.715	61.38
612.478	62.38
613.241	59.38
614.004	58.38
614.767	58.38
615.529	55.38
616.292	48.38
617.055	46.38
617.817	48.38
618.579	47.38
619.342	46.38
620.104	42.38
620.866	40.38
621.628	40.38
622.39	39.38
623.152	36.38
623.914	37.38
624.676	33.38
625.438	35.38
626.199	30.38
626.961	35.38
627.722	30.38
628.484	33.38
629.245	32.38
630.006	29.38
630.768	28.38
631.529	27.38
632.29	29.38
633.051	27.38
633.812	22.38
634.573	22.38
635.333	23.38
636.094	23.38
636.855	22.38
637.615	22.38
638.376	19.38
639.136	22.38
639.896	20.38
640.657	20.38
641.417	18.38
642.177	18.38
642.937	17.38
643.697	18.38
644.457	19.38
645.216	15.38
645.976	16.38
646.736	15.38
647.495	15.38
648.255	17.38
649.014	15.38
649.774	12.38
650.533	14.38
651.292	12.38
652.051	13.38
652.81	14.38
653.569	14.38
654.328	13.38
655.087	11.38
655.846	14.38
656.604	11.38
657.363	13.38
658.121	10.38
658.88	12.38
659.638	12.38
660.397	11.38
661.155	11.38
661.913	11.38
662.671	8.38
663.429	8.38
664.187	8.38
664.945	9.38
665.703	9.38
666.46	10.38
667.218	10.38
667.976	8.38
668.733	10.38
669.49	10.38
670.248	9.38
671.005	10.38
671.762	8.38
672.519	9.38
673.276	6.38
674.033	10.38
674.79	8.38
675.547	7.38
676.304	9.38
677.06	8.38
677.817	10.38
678.574	8.38
679.33	8.38
680.086	7.38
680.843	10.38
681.599	8.38
682.355	7.38
683.111	8.38
683.867	8.38
684.623	10.38
685.379	10.38
686.135	8.38
686.89	6.38
687.646	8.38
688.402	6.38
689.157	6.38
689.912	9.38
690.668	8.38
691.423	5.38
692.178	7.38
692.933	5.38
693.688	6.38
694.443	10.38
695.198	5.38
695.953	7.38
696.708	6.38
697.462	5.38
698.217	8.38
698.972	6.38
699.726	6.38
700.48	6.38
701.235	6.38
701.989	6.38
702.743	7.38
703.497	6.38
704.251	6.38
705.005	8.38
705.759	7.38
706.513	6.38
707.266	6.38
708.02	7.38
708.774	5.38
709.527	7.38
710.28	8.38
711.034	7.38
711.787	6.38
712.54	6.38
713.293	6.38
714.046	5.38
714.799	8.38
715.552	7.38
716.305	7.38
717.058	7.38
717.81	7.38
718.563	9.38
719.315	7.38
720.068	8.38
720.82	9.38
721.573	6.38
722.325	8.38
723.077	6.38
723.829	8.38
724.581	5.38
725.333	6.38
726.085	8.38
726.836	7.38
727.588	8.38
728.34	10.38
729.091	7.38
729.843	8.38
730.594	6.38
731.346	10.38
732.097	8.38
732.848	7.38
733.599	8.38
734.35	9.38
735.101	10.38
735.852	9.38
736.603	8.38
737.354	7.38
738.104	9.38
738.855	10.38
739.605	7.38
740.356	8.38
741.106	9.38
741.856	11.38
742.607	10.38
743.357	8.38
744.107	10.38
744.857	8.38
745.607	7.38
746.357	10.38
747.106	11.38
747.856	10.38
748.606	8.38
749.355	9.38
750.105	9.38
750.854	10.38
751.603	9.38
752.353	10.38
753.102	12.38
753.851	10.38
754.6	11.38
755.349	11.38
756.098	10.38
756.847	13.38
757.595	11.38
758.344	11.38
759.093	11.38
759.841	10.38
760.589	13.38
761.338	9.38
762.086	10.38
762.834	14.38
763.582	10.38
764.331	11.38
765.079	11.38
765.826	14.38
766.574	10.38
767.322	12.38
768.07	10.38
768.817	12.38
769.565	12.38
770.312	15.38
771.06	13.38
771.807	13.38
772.554	14.38
773.302	11.38
774.049	12.38
774.796	14.38
775.543	12.38
776.29	14.38
777.036	15.38
777.783	13.38
778.53	15.38
779.276	13.38
780.023	16.38
780.769	15.38
781.516	14.38
782.262	14.38
783.008	15.38
783.754	13.38
784.5	14.38
785.246	15.38
785.992	12.38
786.738	13.38
787.484	14.38
788.23	15.38
788.975	14.38
789.721	14.38
790.466	15.38
791.212	13.38
791.957	14.38
792.702	12.38
793.447	13.38
794.193	10.38
794.938	12.38
795.683	14.38
796.427	12.38
797.172	12.38
797.917	13.38
798.662	10.38
799.406	11.38
800.151	13.38
800.895	11.38
801.64	13.38
802.384	12.38
803.128	10.38
803.872	10.38
804.616	10.38
805.36	9.38
806.104	10.38
806.848	12.38
807.592	11.38
808.336	8.38
809.079	10.38
809.823	10.38
810.566	8.38
811.31	8.38
812.053	6.38
812.796	8.38
813.539	8.38
814.283	10.38
815.026	10.38
815.769	7.38
816.511	6.38
817.254	7.38
817.997	8.38
818.74	8.38
819.482	8.38
820.225	7.38
820.967	7.38
821.71	7.38
822.452	6.38
823.194	5.38
823.936	6.38
824.678	8.38
825.42	8.38
826.162	7.38
826.904	6.38
827.646	7.38
828.388	6.38
829.129	7.38
829.871	6.38
830.612	4.38
831.354	6.38
832.095	4.38
832.836	6.38
833.577	2.38
834.319	6.38
835.06	5.38
835.801	3.38
836.542	7.38
837.282	2.38
838.023	5.38
838.764	5.38
839.504	3.38
840.245	4.38
840.985	6.38
841.726	4.38
842.466	5.38
843.206	4.38
843.946	4.38
844.687	6.38
845.427	4.38
846.166	5.38
846.906	4.38
847.646	5.38
848.386	5.38
849.125	6.38
849.865	4.38
850.605	4.38
851.344	4.38
852.083	4.38
852.823	4.38
853.562	3.38
854.301	6.38
855.04	3.38
855.779	5.38
856.518	3.38
857.257	2.38
857.995	3.38
858.734	2.38
859.473	5.38
860.211	4.38
860.95	6.38
861.688	2.38
862.426	2.38
863.165	2.38
863.903	2.38
864.641	4.38
865.379	2.38
866.117	2.38
866.855	2.38
867.593	1.38
868.33	2.38
869.068	1.38
869.806	1.38
870.543	1.38
871.28	3.38
872.018	1.38
872.755	-0.62
873.492	2.38
874.229	0.38
874.967	2.38
875.703	2.38
876.44	1.38
877.177	2.38
877.914	0.38
878.651	1.38
879.387	4.38
880.124	0.38
880.86	0.38
881.597	1.38
882.333	1.38
883.069	0.38
883.806	1.38
884.542	1.38
885.278	0.38
886.014	2.38
886.749	-0.62
887.485	1.38
888.221	2.38
888.957	-0.62
889.692	-1.62
890.428	0.38
891.163	4.38
891.899	2.38
892.634	1.38
893.369	0.38
894.104	1.38
894.839	0.38
895.574	0.38
896.309	1.38
897.044	1.38
897.779	1.38
898.514	1.38
899.248	0.38
899.983	3.38
900.717	0.38
901.452	3.38
902.186	1.38
902.92	0.38
903.654	1.38
904.389	-1.62
905.123	2.38
905.857	0.38
906.59	0.38
907.324	0.38
908.058	1.38
908.792	0.38
909.525	-1.62
910.259	2.38
910.992	1.38
911.726	-0.62
912.459	1.38
913.192	-0.62
913.925	-0.62
914.658	1.38
915.391	-0.62
916.124	0.38
916.857	1.38
917.59	2.38
918.323	0.38
919.055	0.38
919.788	0.38
920.521	0.38
921.253	1.38
921.985	-0.62
922.718	-0.62
923.45	0.38
924.182	-0.62
924.914	-0.62
925.646	0.38
926.378	2.38
927.11	1.38
927.841	1.38
928.573	1.38
929.305	0.38
930.036	1.38
930.768	-1.62
931.499	-0.62
932.23	1.38
932.962	0.38
933.693	-1.62
934.424	-0.62
935.155	1.38
935.886	-2.62
936.617	1.38
937.348	0.38
938.078	-0.62
938.809	1.38
939.54	0.38
940.27	1.38
941.001	-0.62
941.731	1.38
942.461	-1.62
943.191	0.38
943.922	1.38
944.652	1.38
945.382	0.38
946.112	-1.62
946.841	0.38
947.571	1.38
948.301	-0.62
949.031	0.38
949.76	-1.62
950.49	0.38
951.219	1.38
951.948	-1.62
952.678	-0.62
953.407	-0.62
954.136	2.38
954.865	0.38
955.594	1.38
956.323	0.38
957.052	-2.62
957.78	2.38
958.509	-1.62
959.238	0.38
959.966	0.38
960.695	1.38
961.423	-0.62
962.151	0.38
962.88	0.38
963.608	0.38
964.336	-1.62
965.064	-1.62
965.792	1.38
966.52	2.38
967.247	0.38
967.975	2.38
968.703	-0.62
969.43	1.38
970.158	-2.62
970.885	-1.62
971.613	1.38
972.34	0.38
973.067	1.38
973.794	1.38
974.521	0.38
975.248	-0.62
975.975	-1.62
976.702	0.38
977.429	-1.62
978.156	-0.62
978.882	-1.62
979.609	0.38
980.335	0.38
981.062	1.38
981.788	-0.62
982.514	0.38
983.24	-0.62
983.967	2.38
984.693	0.38
985.419	0.38
986.144	2.38
986.87	-0.62
987.596	-0.62
988.322	2.38
989.047	2.38
989.773	-1.62
990.498	-0.62
991.224	-1.62
991.949	-0.62
992.674	0.38
993.399	-1.62
994.124	1.38
994.849	-0.62
995.574	-0.62
996.299	0.38
997.024	1.38
997.749	-0.62
998.473	0.38
999.198	2.38
999.922	1.38
1000.647	0.38
1001.371	3.38
1002.095	-2.62
1002.82	-1.62
1003.544	-2.62
1004.268	2.38
1004.992	2.38
1005.716	3.38
1006.439	2.38
1007.163	4.38
1007.887	5.38
1008.611	0.38
1009.334	-0.62
1010.058	1.38
1010.781	0.38
1011.504	-1.62
1012.228	-1.62
1012.951	0.38
1013.674	0.38
1014.397	2.38
1015.12	0.38
