节点500_705_QEPB04081__661__20-55-19-813.txt的数据

Date: Wed Nov 12 20:55:19 CST 2025
User: PC
Spectrometer: QEPB0408
触发模式: 0
积分时间 (秒): 1.000000E-2
Scans to average: 1
启用暗噪声校正: true
启用非线性校正: false
滑动平均宽度: 0
X轴模式: Wavelengths
Number of Pixels in Spectrum: 1044
>>>>>Begin Spectral Data<<<<<
220.843	6.5
221.644	4.5
222.444	4.5
223.244	5.5
224.045	5.5
224.845	6.5
225.645	5.5
226.445	4.5
227.245	4.5
228.045	8.5
228.845	7.5
229.645	4.5
230.444	7.5
231.244	9.5
232.043	9.5
232.843	7.5
233.642	10.5
234.442	8.5
235.241	6.5
236.04	9.5
236.839	10.5
237.638	9.5
238.437	9.5
239.236	10.5
240.035	10.5
240.833	10.5
241.632	10.5
242.43	10.5
243.229	10.5
244.027	13.5
244.826	10.5
245.624	11.5
246.422	12.5
247.22	12.5
248.018	13.5
248.816	15.5
249.614	13.5
250.412	14.5
251.21	16.5
252.007	12.5
252.805	15.5
253.602	12.5
254.4	15.5
255.197	16.5
255.994	16.5
256.791	19.5
257.589	16.5
258.386	17.5
259.183	20.5
259.979	19.5
260.776	20.5
261.573	21.5
262.37	18.5
263.166	22.5
263.963	22.5
264.759	23.5
265.556	25.5
266.352	25.5
267.148	21.5
267.944	26.5
268.74	25.5
269.536	24.5
270.332	25.5
271.128	25.5
271.924	28.5
272.719	28.5
273.515	28.5
274.311	29.5
275.106	30.5
275.901	30.5
276.697	33.5
277.492	30.5
278.287	30.5
279.082	26.5
279.877	33.5
280.672	28.5
281.467	30.5
282.262	29.5
283.056	30.5
283.851	32.5
284.646	30.5
285.44	31.5
286.234	30.5
287.029	32.5
287.823	33.5
288.617	31.5
289.411	30.5
290.205	29.5
290.999	29.5
291.793	32.5
292.587	28.5
293.381	30.5
294.174	30.5
294.968	30.5
295.761	26.5
296.555	26.5
297.348	26.5
298.141	26.5
298.935	28.5
299.728	24.5
300.521	25.5
301.314	23.5
302.107	20.5
302.899	22.5
303.692	21.5
304.485	20.5
305.277	22.5
306.07	18.5
306.862	23.5
307.655	21.5
308.447	20.5
309.239	20.5
310.031	21.5
310.823	19.5
311.615	18.5
312.407	17.5
313.199	17.5
313.991	16.5
314.783	17.5
315.574	16.5
316.366	16.5
317.157	16.5
317.949	13.5
318.74	14.5
319.531	14.5
320.322	12.5
321.113	13.5
321.904	12.5
322.695	14.5
323.486	14.5
324.277	14.5
325.068	14.5
325.858	12.5
326.649	14.5
327.439	11.5
328.23	10.5
329.02	13.5
329.81	11.5
330.6	10.5
331.391	8.5
332.181	12.5
332.971	8.5
333.76	12.5
334.55	12.5
335.34	10.5
336.13	11.5
336.919	10.5
337.709	12.5
338.498	10.5
339.287	13.5
340.077	11.5
340.866	11.5
341.655	10.5
342.444	10.5
343.233	9.5
344.022	12.5
344.811	10.5
345.6	12.5
346.388	10.5
347.177	10.5
347.965	14.5
348.754	10.5
349.542	12.5
350.33	9.5
351.119	8.5
351.907	11.5
352.695	9.5
353.483	9.5
354.271	12.5
355.059	10.5
355.846	11.5
356.634	5.5
357.422	11.5
358.209	8.5
358.997	10.5
359.784	8.5
360.571	8.5
361.359	8.5
362.146	9.5
362.933	9.5
363.72	10.5
364.507	10.5
365.294	10.5
366.081	8.5
366.867	7.5
367.654	8.5
368.44	8.5
369.227	10.5
370.013	9.5
370.8	7.5
371.586	8.5
372.372	8.5
373.158	9.5
373.944	8.5
374.73	8.5
375.516	8.5
376.302	11.5
377.088	9.5
377.873	9.5
378.659	10.5
379.445	8.5
380.23	9.5
381.015	9.5
381.801	7.5
382.586	8.5
383.371	8.5
384.156	12.5
384.941	8.5
385.726	9.5
386.511	11.5
387.296	11.5
388.08	13.5
388.865	9.5
389.649	9.5
390.434	10.5
391.218	10.5
392.003	11.5
392.787	12.5
393.571	11.5
394.355	12.5
395.139	13.5
395.923	10.5
396.707	12.5
397.491	11.5
398.274	10.5
399.058	11.5
399.842	10.5
400.625	15.5
401.408	11.5
402.192	12.5
402.975	12.5
403.758	10.5
404.541	14.5
405.324	9.5
406.107	14.5
406.89	12.5
407.673	12.5
408.456	13.5
409.238	14.5
410.021	17.5
410.803	12.5
411.586	15.5
412.368	17.5
413.151	16.5
413.933	14.5
414.715	14.5
415.497	16.5
416.279	17.5
417.061	15.5
417.843	19.5
418.624	19.5
419.406	21.5
420.188	20.5
420.969	18.5
421.751	22.5
422.532	20.5
423.313	24.5
424.095	20.5
424.876	24.5
425.657	22.5
426.438	23.5
427.219	27.5
428	25.5
428.78	26.5
429.561	27.5
430.342	28.5
431.122	29.5
431.903	29.5
432.683	35.5
433.464	34.5
434.244	37.5
435.024	36.5
435.804	40.5
436.584	38.5
437.364	44.5
438.144	47.5
438.924	48.5
439.704	57.5
440.483	54.5
441.263	64.5
442.042	65.5
442.822	69.5
443.601	79.5
444.38	82.5
445.16	93.5
445.939	101.5
446.718	110.5
447.497	121.5
448.276	127.5
449.054	141.5
449.833	158.5
450.612	177.5
451.391	192.5
452.169	213.5
452.948	235.5
453.726	256.5
454.504	289.5
455.282	316.5
456.061	356.5
456.839	395.5
457.617	440.5
458.395	489.5
459.172	546.5
459.95	600.5
460.728	673.5
461.506	744.5
462.283	822.5
463.061	918.5
463.838	1026.5
464.615	1137.5
465.393	1256.5
466.17	1397.5
466.947	1553.5
467.724	1706.5
468.501	1862.5
469.278	2080.5
470.055	2274.5
470.831	2500.5
471.608	2759.5
472.385	2998.5
473.161	3319.5
473.938	3631.5
474.714	3962.5
475.49	4320.5
476.266	4714.5
477.043	5132.5
477.819	5603.5
478.595	6057.5
479.371	6571.5
480.146	7142.5
480.922	7776.5
481.698	8378.5
482.473	9115.5
483.249	9859.5
484.024	10672.5
484.8	11482.5
485.575	12396.5
486.35	13356.5
487.126	14441.5
487.901	15422.5
488.676	16683.5
489.451	17892.5
490.225	19174.5
491	20489.5
491.775	21859.5
492.55	23393.5
493.324	24876.5
494.099	26414.5
494.873	28022.5
495.647	29548.5
496.422	31094.5
497.196	32785.5
497.97	34261.5
498.744	35696.5
499.518	37262.5
500.292	38610.5
501.066	39647.5
501.839	40606.5
502.613	41581.5
503.387	42409.5
504.16	43049.5
504.934	43461.5
505.707	43659.5
506.48	43613.5
507.253	43452.5
508.027	43202.5
508.8	42642.5
509.573	41915.5
510.346	41300.5
511.118	40448.5
511.891	39498.5
512.664	38209.5
513.437	36980.5
514.209	35761.5
514.982	34557.5
515.754	33199.5
516.526	31903.5
517.298	30804.5
518.071	29653.5
518.843	28483.5
519.615	27330.5
520.387	26243.5
521.159	25242.5
521.93	24277.5
522.702	23282.5
523.474	22301.5
524.245	21382.5
525.017	20475.5
525.788	19677.5
526.56	18846.5
527.331	18094.5
528.102	17207.5
528.873	16360.5
529.644	15638.5
530.415	14948.5
531.186	14262.5
531.957	13522.5
532.728	12895.5
533.498	12203.5
534.269	11618.5
535.039	11002.5
535.81	10416.5
536.58	9849.5
537.351	9358.5
538.121	8857.5
538.891	8372.5
539.661	7960.5
540.431	7513.5
541.201	7143.5
541.971	6777.5
542.741	6385.5
543.51	6081.5
544.28	5787.5
545.05	5512.5
545.819	5273.5
546.588	5019.5
547.358	4768.5
548.127	4541.5
548.896	4312.5
549.665	4079.5
550.434	3891.5
551.203	3682.5
551.972	3512.5
552.741	3329.5
553.51	3151.5
554.278	2951.5
555.047	2816.5
555.815	2658.5
556.584	2510.5
557.352	2370.5
558.121	2229.5
558.889	2122.5
559.657	2008.5
560.425	1918.5
561.193	1801.5
561.961	1727.5
562.729	1624.5
563.496	1532.5
564.264	1440.5
565.032	1361.5
565.799	1283.5
566.567	1214.5
567.334	1145.5
568.101	1081.5
568.869	1027.5
569.636	971.5
570.403	916.5
571.17	870.5
571.937	814.5
572.704	764.5
573.471	726.5
574.237	681.5
575.004	647.5
575.771	612.5
576.537	579.5
577.303	537.5
578.07	517.5
578.836	490.5
579.602	459.5
580.368	429.5
581.134	411.5
581.9	391.5
582.666	372.5
583.432	354.5
584.198	333.5
584.964	332.5
585.729	311.5
586.495	291.5
587.26	271.5
588.025	259.5
588.791	240.5
589.556	227.5
590.321	218.5
591.086	208.5
591.851	207.5
592.616	189.5
593.381	179.5
594.146	176.5
594.911	166.5
595.675	155.5
596.44	149.5
597.204	141.5
597.969	137.5
598.733	135.5
599.497	129.5
600.261	120.5
601.025	116.5
601.79	115.5
602.553	107.5
603.317	100.5
604.081	93.5
604.845	90.5
605.609	89.5
606.372	88.5
607.136	83.5
607.899	78.5
608.662	72.5
609.426	73.5
610.189	69.5
610.952	63.5
611.715	67.5
612.478	61.5
613.241	61.5
614.004	59.5
614.767	59.5
615.529	53.5
616.292	50.5
617.055	50.5
617.817	49.5
618.579	48.5
619.342	49.5
620.104	43.5
620.866	42.5
621.628	42.5
622.39	37.5
623.152	36.5
623.914	36.5
624.676	38.5
625.438	34.5
626.199	34.5
626.961	32.5
627.722	32.5
628.484	33.5
629.245	29.5
630.006	30.5
630.768	26.5
631.529	27.5
632.29	27.5
633.051	26.5
633.812	25.5
634.573	23.5
635.333	24.5
636.094	19.5
636.855	23.5
637.615	23.5
638.376	20.5
639.136	21.5
639.896	20.5
640.657	21.5
641.417	19.5
642.177	18.5
642.937	19.5
643.697	18.5
644.457	17.5
645.216	17.5
645.976	15.5
646.736	14.5
647.495	16.5
648.255	14.5
649.014	13.5
649.774	14.5
650.533	14.5
651.292	11.5
652.051	13.5
652.81	14.5
653.569	13.5
654.328	10.5
655.087	11.5
655.846	12.5
656.604	10.5
657.363	11.5
658.121	10.5
658.88	12.5
659.638	12.5
660.397	10.5
661.155	12.5
661.913	10.5
662.671	10.5
663.429	12.5
664.187	12.5
664.945	10.5
665.703	8.5
666.46	12.5
667.218	6.5
667.976	9.5
668.733	9.5
669.49	6.5
670.248	11.5
671.005	8.5
671.762	10.5
672.519	7.5
673.276	8.5
674.033	8.5
674.79	7.5
675.547	6.5
676.304	7.5
677.06	9.5
677.817	7.5
678.574	10.5
679.33	8.5
680.086	8.5
680.843	8.5
681.599	6.5
682.355	7.5
683.111	8.5
683.867	7.5
684.623	8.5
685.379	6.5
686.135	6.5
686.89	5.5
687.646	8.5
688.402	7.5
689.157	7.5
689.912	8.5
690.668	7.5
691.423	8.5
692.178	7.5
692.933	7.5
693.688	7.5
694.443	6.5
695.198	5.5
695.953	7.5
696.708	6.5
697.462	6.5
698.217	6.5
698.972	7.5
699.726	5.5
700.48	4.5
701.235	8.5
701.989	7.5
702.743	6.5
703.497	4.5
704.251	10.5
705.005	6.5
705.759	7.5
706.513	8.5
707.266	5.5
708.02	5.5
708.774	7.5
709.527	8.5
710.28	4.5
711.034	7.5
711.787	6.5
712.54	5.5
713.293	8.5
714.046	5.5
714.799	6.5
715.552	9.5
716.305	7.5
717.058	8.5
717.81	6.5
718.563	9.5
719.315	6.5
720.068	5.5
720.82	8.5
721.573	3.5
722.325	7.5
723.077	7.5
723.829	8.5
724.581	8.5
725.333	8.5
726.085	7.5
726.836	5.5
727.588	5.5
728.34	8.5
729.091	8.5
729.843	5.5
730.594	8.5
731.346	8.5
732.097	7.5
732.848	9.5
733.599	8.5
734.35	8.5
735.101	6.5
735.852	8.5
736.603	9.5
737.354	6.5
738.104	9.5
738.855	8.5
739.605	9.5
740.356	10.5
741.106	7.5
741.856	9.5
742.607	7.5
743.357	11.5
744.107	10.5
744.857	9.5
745.607	9.5
746.357	8.5
747.106	8.5
747.856	11.5
748.606	9.5
749.355	11.5
750.105	10.5
750.854	8.5
751.603	10.5
752.353	10.5
753.102	8.5
753.851	8.5
754.6	11.5
755.349	9.5
756.098	12.5
756.847	10.5
757.595	10.5
758.344	8.5
759.093	11.5
759.841	10.5
760.589	10.5
761.338	12.5
762.086	10.5
762.834	10.5
763.582	11.5
764.331	12.5
765.079	13.5
765.826	13.5
766.574	12.5
767.322	11.5
768.07	10.5
768.817	11.5
769.565	10.5
770.312	13.5
771.06	14.5
771.807	12.5
772.554	13.5
773.302	12.5
774.049	14.5
774.796	14.5
775.543	16.5
776.29	13.5
777.036	14.5
777.783	15.5
778.53	12.5
779.276	16.5
780.023	14.5
780.769	15.5
781.516	15.5
782.262	12.5
783.008	12.5
783.754	13.5
784.5	13.5
785.246	14.5
785.992	14.5
786.738	12.5
787.484	14.5
788.23	12.5
788.975	13.5
789.721	14.5
790.466	12.5
791.212	12.5
791.957	15.5
792.702	14.5
793.447	13.5
794.193	12.5
794.938	11.5
795.683	11.5
796.427	12.5
797.172	12.5
797.917	10.5
798.662	12.5
799.406	9.5
800.151	12.5
800.895	11.5
801.64	10.5
802.384	12.5
803.128	10.5
803.872	11.5
804.616	11.5
805.36	11.5
806.104	10.5
806.848	6.5
807.592	9.5
808.336	8.5
809.079	10.5
809.823	8.5
810.566	9.5
811.31	10.5
812.053	9.5
812.796	8.5
813.539	8.5
814.283	8.5
815.026	8.5
815.769	6.5
816.511	10.5
817.254	6.5
817.997	10.5
818.74	7.5
819.482	6.5
820.225	6.5
820.967	7.5
821.71	7.5
822.452	7.5
823.194	6.5
823.936	7.5
824.678	3.5
825.42	6.5
826.162	5.5
826.904	6.5
827.646	7.5
828.388	8.5
829.129	4.5
829.871	7.5
830.612	5.5
831.354	6.5
832.095	7.5
832.836	2.5
833.577	6.5
834.319	6.5
835.06	3.5
835.801	7.5
836.542	2.5
837.282	4.5
838.023	7.5
838.764	6.5
839.504	5.5
840.245	4.5
840.985	3.5
841.726	3.5
842.466	5.5
843.206	5.5
843.946	4.5
844.687	5.5
845.427	4.5
846.166	4.5
846.906	4.5
847.646	4.5
848.386	4.5
849.125	3.5
849.865	6.5
850.605	3.5
851.344	5.5
852.083	6.5
852.823	4.5
853.562	5.5
854.301	3.5
855.04	4.5
855.779	1.5
856.518	1.5
857.257	2.5
857.995	3.5
858.734	0.5
859.473	2.5
860.211	4.5
860.95	5.5
861.688	2.5
862.426	2.5
863.165	4.5
863.903	4.5
864.641	4.5
865.379	4.5
866.117	3.5
866.855	2.5
867.593	0.5
868.33	1.5
869.068	3.5
869.806	3.5
870.543	1.5
871.28	2.5
872.018	1.5
872.755	2.5
873.492	2.5
874.229	1.5
874.967	1.5
875.703	4.5
876.44	3.5
877.177	0.5
877.914	1.5
878.651	0.5
879.387	-0.5
880.124	2.5
880.86	0.5
881.597	0.5
882.333	0.5
883.069	1.5
883.806	2.5
884.542	-0.5
885.278	1.5
886.014	-3.5
886.749	-0.5
887.485	3.5
888.221	2.5
888.957	2.5
889.692	-0.5
890.428	1.5
891.163	0.5
891.899	0.5
892.634	0.5
893.369	-0.5
894.104	0.5
894.839	-1.5
895.574	2.5
896.309	0.5
897.044	2.5
897.779	2.5
898.514	0.5
899.248	3.5
899.983	0.5
900.717	1.5
901.452	1.5
902.186	0.5
902.92	0.5
903.654	0.5
904.389	1.5
905.123	-0.5
905.857	0.5
906.59	0.5
907.324	0.5
908.058	0.5
908.792	1.5
909.525	1.5
910.259	1.5
910.992	0.5
911.726	0.5
912.459	0.5
913.192	2.5
913.925	1.5
914.658	1.5
915.391	2.5
916.124	-1.5
916.857	0.5
917.59	-1.5
918.323	-0.5
919.055	1.5
919.788	0.5
920.521	0.5
921.253	0.5
921.985	1.5
922.718	-0.5
923.45	1.5
924.182	2.5
924.914	-0.5
925.646	1.5
926.378	-2.5
927.11	-0.5
927.841	-0.5
928.573	1.5
929.305	-1.5
930.036	1.5
930.768	1.5
931.499	1.5
932.23	-0.5
932.962	-1.5
933.693	-0.5
934.424	-1.5
935.155	0.5
935.886	-1.5
936.617	0.5
937.348	-0.5
938.078	0.5
938.809	1.5
939.54	-1.5
940.27	1.5
941.001	-0.5
941.731	-0.5
942.461	0.5
943.191	0.5
943.922	-1.5
944.652	0.5
945.382	-0.5
946.112	-0.5
946.841	0.5
947.571	-1.5
948.301	2.5
949.031	-0.5
949.76	-0.5
950.49	1.5
951.219	0.5
951.948	0.5
952.678	-1.5
953.407	-0.5
954.136	0.5
954.865	-0.5
955.594	1.5
956.323	-1.5
957.052	-0.5
957.78	-2.5
958.509	1.5
959.238	-0.5
959.966	0.5
960.695	0.5
961.423	0.5
962.151	0.5
962.88	0.5
963.608	0.5
964.336	1.5
965.064	0.5
965.792	-1.5
966.52	-0.5
967.247	-0.5
967.975	-1.5
968.703	0.5
969.43	1.5
970.158	-2.5
970.885	-0.5
971.613	-0.5
972.34	-0.5
973.067	0.5
973.794	1.5
974.521	0.5
975.248	0.5
975.975	-0.5
976.702	0.5
977.429	-1.5
978.156	1.5
978.882	0.5
979.609	-0.5
980.335	-1.5
981.062	1.5
981.788	0.5
982.514	0.5
983.24	0.5
983.967	-0.5
984.693	1.5
985.419	-0.5
986.144	-0.5
986.87	0.5
987.596	2.5
988.322	0.5
989.047	-0.5
989.773	1.5
990.498	0.5
991.224	0.5
991.949	0.5
992.674	0.5
993.399	0.5
994.124	1.5
994.849	0.5
995.574	-0.5
996.299	0.5
997.024	0.5
997.749	-1.5
998.473	1.5
999.198	-1.5
999.922	-0.5
1000.647	0.5
1001.371	3.5
1002.095	1.5
1002.82	0.5
1003.544	-2.5
1004.268	5.5
1004.992	3.5
1005.716	4.5
1006.439	2.5
1007.163	5.5
1007.887	7.5
1008.611	2.5
1009.334	-1.5
1010.058	-2.5
1010.781	1.5
1011.504	-2.5
1012.228	1.5
1012.951	0.5
1013.674	-0.5
1014.397	-1.5
1015.12	-1.5
